File: remote_trans/data/nanoindenter/0828-1/data/Data_2025-08-06,11h17m57s/2025-07-22_16-23-58_1_477.txt
2025-07-22, 16:23:58, 1
Index	Phase	Displacement	Time	Pos X	Pos Y	Pos Z	Rot A	Rot B	Piezo Z	Force A	Force B	Gripper	Voltage A	Voltage B	Temperature	Amplitude force	Amplitude pos	Stiffness	Phase shift	Phase excitation	Force A raw	Displacement raw	HMax	HMax raw	Real Force	Real Stiffness	Contact Depth	Area	Hardness	Reduced Mod.
[#]	[#]	[um]	[s]	[um]	[um]	[um]	[m°]	[m°]	[um]	[uN]	[uN]	[V]	[V]	[V]	[°C]	[uN]	[um]	[N/m]	[°]	[°]	[uN]	[um]	[um]	[um]	[uN]	[N/m]	[um]	[um^2]	[MPa]	[MPa]
477	1.000000	0.002430	7.36972e+06	-53239.1	1005.82	-29746.9	0.000000	0.000000	6.002823	0.009233	NaN	0.000000	0.001557	0.001804	28.0831	0.043957	0.001064	41.3094	-49.9034	-164.192	0.117759	0.001104	-1.076583	-1.077910	0.009233	41.3094	-1.076751	-2.442754E+14	-3.779642E-17	NaN
477	1.000000	0.042382	7.36972e+06	-53239.1	1005.82	-29746.9	0.000000	0.000000	6.042776	0.037085	NaN	0.000000	0.001564	0.001796	28.0829	0.059617	0.002019	29.5273	114.877	-166.677	-0.000963	0.041048	-1.036632	-1.037965	0.037085	29.5273	-1.037574	-7.266735E+13	-5.103461E-16	NaN
477	1.000000	0.082363	7.36972e+06	-53239.1	1005.82	-29746.9	0.000000	0.000000	6.082757	0.017277	NaN	0.000000	0.001573	0.001796	28.0818	0.069490	0.002056	33.7985	-147.395	-166.399	0.009762	0.081069	-0.996650	-0.997945	0.017277	33.7985	-0.997034	-2.069340E+13	-8.349175E-16	NaN
477	1.000000	0.122364	7.36972e+06	-53239.1	1005.82	-29746.9	0.000000	0.000000	6.122757	0.009608	NaN	0.000000	0.001622	0.001817	28.0817	0.060976	0.001825	33.4135	-179.296	-164.539	0.061429	0.121108	-0.956650	-0.957906	0.009608	33.4135	-0.956866	-5.951303E+12	-1.614459E-15	NaN
477	1.000000	0.162405	7.36972e+06	-53239.1	1005.82	-29746.9	0.000000	0.000000	6.162797	-0.021379	NaN	0.000000	0.001618	0.001820	28.0817	0.073495	0.001871	39.2784	-130.801	-169.282	-0.048501	0.161106	-0.916609	-0.917908	-0.021379	39.2784	-0.916200	-1.682289E+12	1.270844E-14	NaN
477	1.000000	0.202413	7.36972e+06	-53239.1	1005.82	-29746.9	0.000000	0.000000	6.202804	-0.052395	NaN	0.000000	0.001561	0.001797	28.0827	0.048502	0.001896	25.5773	-15.722	-165.749	-0.011978	0.201041	-0.876600	-0.877973	-0.052395	25.5773	-0.875064	-4.676789E+11	1.120310E-13	NaN
477	1.000000	0.242439	7.36972e+06	-53239.1	1005.82	-29746.9	0.000000	0.000000	6.242832	-0.000489	NaN	0.000000	0.001583	0.001772	28.0828	0.019142	0.001952	9.805707	-118.683	-164.948	-0.072706	0.241115	-0.836574	-0.837898	-0.000489	9.805707	-0.836537	-1.407256E+11	3.472535E-15	NaN
477	1.000000	0.282455	7.36972e+06	-53239.1	1005.82	-29746.9	0.000000	0.000000	6.282849	0.031368	NaN	0.000000	0.001536	0.001781	28.083	0.052505	0.001925	27.2764	36.955	-167.749	0.006362	0.281138	-0.796559	-0.797876	0.031368	27.2764	-0.797421	-4.148140E+10	-7.561881E-13	NaN
477	1.000000	0.322473	7.36972e+06	-53239.1	1005.82	-29746.9	0.000000	0.000000	6.322867	0.030493	NaN	0.000000	0.001559	0.001804	28.0818	0.052396	0.001991	26.3198	121.043	-165.305	-0.005519	0.321142	-0.756541	-0.757871	0.030493	26.3198	-0.757410	-1.185943E+10	-2.571192E-12	NaN
477	1.000000	0.362500	7.36972e+06	-53239.1	1005.82	-29746.9	0.000000	0.000000	6.362891	-0.051317	NaN	0.000000	0.001564	0.001790	28.0815	0.099410	0.001902	52.2649	-175.843	-168.633	0.014864	0.361148	-0.716513	-0.717866	-0.051317	52.2649	-0.715777	-3.212718E+9	1.597298E-11	NaN
477	1.000000	0.402483	7.36972e+06	-53239.1	1005.82	-29746.9	0.000000	0.000000	6.402876	0.015213	NaN	0.000000	0.001582	0.001809	28.0815	0.050122	0.002001	25.044	-170.724	-166.205	-0.017323	0.401234	-0.676531	-0.677780	0.015213	25.044	-0.676987	-9.483958E+8	-1.604130E-11	NaN
477	1.000000	0.442519	7.36972e+06	-53239.1	1005.82	-29746.9	0.000000	0.000000	6.442913	0.030517	NaN	0.000000	0.001566	0.001736	28.0815	0.047884	0.001897	25.2371	-134.489	-165.382	0.063972	0.441185	-0.636495	-0.637829	0.030517	25.2371	-0.637402	-2.720414E+8	-1.121779E-10	NaN
477	1.000000	0.482550	7.36972e+06	-53239.1	1005.82	-29746.9	0.000000	0.000000	6.482941	-0.041421	NaN	0.000000	0.001568	0.001801	28.0824	0.160203	0.002055	77.9739	-78.2691	-165.794	-0.023980	0.481231	-0.596463	-0.597783	-0.041421	77.9739	-0.596065	-7.349463E+7	5.635969E-10	NaN
477	1.000000	0.522560	7.36972e+06	-53239.1	1005.82	-29746.9	0.000000	0.000000	6.522952	0.002266	NaN	0.000000	0.001545	0.001810	28.0827	0.116311	0.002025	57.4495	80.6318	-164.821	0.010622	0.521238	-0.556454	-0.557776	0.002266	57.4495	-0.556484	-2.087973E+7	-1.085228E-10	NaN
477	1.000000	0.562534	7.36972e+06	-53239.1	1005.82	-29746.9	0.000000	0.000000	6.562924	-0.068388	NaN	0.000000	0.001556	0.001834	28.083	0.070381	0.001907	36.9014	76.1263	-167.495	-0.068192	0.561248	-0.516479	-0.517766	-0.068388	36.9014	-0.515089	-5.5626e+06	1.229428E-8	NaN
477	1.000000	0.602581	7.36972e+06	-53239.1	1005.82	-29746.9	0.000000	0.000000	6.602974	-0.002718	NaN	0.000000	0.001516	0.001798	28.0822	0.042206	0.002098	20.1139	169.537	-163.907	0.056801	0.601276	-0.476433	-0.477738	-0.002718	20.1139	-0.476331	-1.60012e+06	1.698883E-9	NaN
477	1.000000	0.642589	7.36972e+06	-53239.1	1005.82	-29746.9	0.000000	0.000000	6.642983	0.020850	NaN	0.000000	0.001550	0.001806	28.082	0.070383	0.001917	36.723	-177.64	-167.999	-0.042899	0.641300	-0.436424	-0.437714	0.020850	36.723	-0.436850	-445543	-4.679623E-8	NaN
477	1.000000	0.682585	7.36972e+06	-53239.1	1005.82	-29746.9	0.000000	0.000000	6.682980	0.037880	NaN	0.000000	0.001549	0.001795	28.0821	0.062443	0.002148	29.0673	88.9457	-164.946	0.013366	0.681308	-0.396428	-0.397706	0.037880	29.0673	-0.397406	-122739	-3.086230E-7	NaN
477	1.000000	0.722625	7.36972e+06	-53239.1	1005.82	-29746.9	0.000000	0.000000	6.723016	-0.040254	NaN	0.000000	0.001528	0.001807	28.0819	0.154254	0.002086	73.9567	154.857	-166.958	-0.016249	0.721300	-0.356389	-0.357713	-0.040254	73.9567	-0.355980	-31166.8	1.291567E-6	NaN
477	1.000000	0.762650	7.36972e+06	-53239.1	1005.82	-29746.9	0.000000	0.000000	6.763044	0.031098	NaN	0.000000	0.001520	0.001793	28.0829	0.164799	0.001996	82.5582	30.4071	-168.443	0.050479	0.761325	-0.316364	-0.317689	0.031098	82.5582	-0.316646	-8302.88	-3.745483E-6	NaN
477	1.000000	0.802695	7.36972e+06	-53239.1	1005.82	-29746.9	0.000000	0.000000	6.803087	-0.026228	NaN	0.000000	0.001552	0.001761	28.0827	0.046653	0.001950	23.9243	22.0564	-164.613	-0.048290	0.801370	-0.276318	-0.277644	-0.026228	23.9243	-0.275496	-2017.95	1.299748E-5	NaN
477	1.000000	0.842684	7.36972e+06	-53239.1	1005.82	-29746.9	0.000000	0.000000	6.843075	-0.041011	NaN	0.000000	0.001548	0.001774	28.083	0.033814	0.001940	17.4284	-100.22	-164.969	-0.044197	0.841385	-0.236330	-0.237629	-0.041011	17.4284	-0.234565	-472.51	8.679468E-5	NaN
477	1.000000	0.882711	7.36972e+06	-53239.1	1005.82	-29746.9	0.000000	0.000000	6.883104	0.006929	NaN	0.000000	0.001599	0.001754	28.0816	0.129334	0.002050	63.0957	136.59	-164.176	0.070307	0.881402	-0.196303	-0.197611	0.006929	63.0957	-0.196385	-114.847	-6.032981E-5	NaN
477	1.000000	0.922702	7.36972e+06	-53239.1	1005.82	-29746.9	0.000000	0.000000	6.923095	0.011788	NaN	0.000000	0.001587	0.001700	28.0817	0.047977	0.001909	25.1304	-66.5146	-167.204	0.001685	0.921386	-0.156312	-0.157627	0.011788	25.1304	-0.156663	-23.9028	-0.000493	NaN
477	1.000000	0.962734	7.36972e+06	-53239.1	1005.82	-29746.9	0.000000	0.000000	6.963124	-0.063270	NaN	0.000000	0.001561	0.001753	28.0818	0.022736	0.002025	11.2273	-11.7608	-163.766	-0.124286	0.961489	-0.116280	-0.117524	-0.063270	11.2273	-0.112053	-3.318675	0.019065	NaN
477	1.000000	1.002753	7.36972e+06	-53239.1	1005.82	-29746.9	0.000000	0.000000	7.003146	0.020130	NaN	0.000000	0.001591	0.001741	28.082	0.042520	0.001958	21.7147	144.704	-164.903	-0.083568	1.001420	-0.076261	-0.077594	0.020130	21.7147	-0.076956	-0.518546	-0.038819	NaN
477	1.000000	1.042747	7.36972e+06	-53239.1	1005.82	-29746.9	0.000000	0.000000	7.043142	0.050867	NaN	0.000000	0.001605	0.001715	28.083	0.108592	0.001901	57.1298	16.9053	-162.553	0.008652	1.041491	-0.036266	-0.037523	0.050867	57.1298	-0.036934	-0.036550	-1.391706	NaN
477	1.000000	1.082750	7.36972e+06	-53239.1	1005.82	-29746.9	0.000000	0.000000	7.083388	5.952378	NaN	0.000000	0.001576	0.001795	28.0828	6.311055	0.001653	3818.21	9.148637	-169.432	4.364533	1.081407	0.003736	0.002393	5.952378	3818.21	0.002567	0.002019	2948.49	77640.5
477	2.000000	1.094295	7.36972e+06	-53239.1	1005.82	-29746.9	0.000000	0.000000	7.095752	25.877	NaN	0.000000	0.001591	0.001769	28.0831	19.4601	0.001820	10689.5	8.414562	-179.089	24.9722	1.093994	0.015281	0.014981	25.877	10689.5	0.013465	0.013293	1946.63	84706.5
477	2.000000	1.104247	7.36972e+06	-53239.1	1005.82	-29746.9	0.000000	0.000000	7.106888	54.6604	NaN	0.000000	0.001621	0.001769	28.082	30.0466	0.001859	16166.8	5.087281	-179.407	53.1069	1.103920	0.025234	0.024906	54.6604	16166.8	0.022698	0.026960	2027.46	89957.5
477	2.000000	1.114282	7.36972e+06	-53239.1	1005.82	-29746.9	0.000000	0.000000	7.118328	88.7989	NaN	0.000000	0.001589	0.001771	28.0821	39.3193	0.001956	20104.5	8.406498	176.426	88.9547	1.113915	0.035269	0.034901	88.7989	20104.5	0.031956	0.044896	1977.89	86689
477	2.000000	1.124240	7.36972e+06	-53239.1	1005.82	-29746.9	0.000000	0.000000	7.129941	129.06	NaN	0.000000	0.001568	0.001771	28.0824	48.0749	0.001858	25877.7	3.110666	178.974	128.387	1.123941	0.045227	0.044928	129.06	25877.7	0.041486	0.067926	1900.01	90715.4
477	2.000000	1.134248	7.36972e+06	-53239.1	1005.82	-29746.9	0.000000	0.000000	7.141849	175.268	NaN	0.000000	0.001585	0.001815	28.084	56.7118	0.001806	31400.5	3.628712	177.118	174.773	1.133937	0.055234	0.054924	175.268	31400.5	0.051048	0.095679	1831.83	92747.6
477	2.000000	1.144223	7.36972e+06	-53239.1	1005.82	-29746.9	0.000000	0.000000	7.154302	235.501	NaN	0.000000	0.001588	0.001776	28.0836	65.4999	0.001790	36593.2	3.251988	176.307	234.404	1.143847	0.065210	0.064834	235.501	36593.2	0.060383	0.127184	1851.65	93746.8
477	2.000000	1.154232	7.36973e+06	-53239.1	1005.82	-29746.9	0.000000	0.000000	7.166757	294.982	NaN	0.000000	0.001612	0.001761	28.0831	75.1886	0.001871	40192.9	3.613354	175.338	296.706	1.153910	0.075218	0.074896	294.982	40192.9	0.069714	0.162925	1810.54	90976.4
477	2.000000	1.164220	7.36973e+06	-53239.1	1005.82	-29746.9	0.000000	0.000000	7.180126	377.172	NaN	0.000000	0.001560	0.001767	28.0833	85.7648	0.001851	46325.5	5.836971	172.588	375.587	1.163813	0.085206	0.084800	377.172	46325.5	0.079100	0.203061	1857.43	93924.6
477	2.000000	1.174021	7.36973e+06	-53239.1	1005.82	-29746.9	0.000000	0.000000	7.193309	459.395	NaN	0.000000	0.001607	0.001811	28.082	95.4464	0.001793	53233.6	3.968590	173.448	450.475	1.173713	0.095007	0.094700	459.395	53233.6	0.088535	0.247553	1855.74	97751.9
477	2.000000	1.183284	7.36973e+06	-53239.1	1005.82	-29746.9	0.000000	0.000000	7.205380	527.652	NaN	0.000000	0.001662	0.001842	28.0821	103.153	0.001798	57382.6	4.746729	172.315	535.661	1.182861	0.104271	0.103847	527.652	57382.6	0.097374	0.292948	1801.18	96863.1