File: remote_trans/data/nanoindenter/0828-1/data/Data_2025-08-06,11h17m57s/2025-07-22_16-23-58_1_592.txt
2025-07-22, 16:23:58, 1
Index	Phase	Displacement	Time	Pos X	Pos Y	Pos Z	Rot A	Rot B	Piezo Z	Force A	Force B	Gripper	Voltage A	Voltage B	Temperature	Amplitude force	Amplitude pos	Stiffness	Phase shift	Phase excitation	Force A raw	Displacement raw	HMax	HMax raw	Real Force	Real Stiffness	Contact Depth	Area	Hardness	Reduced Mod.
[#]	[#]	[um]	[s]	[um]	[um]	[um]	[m°]	[m°]	[um]	[uN]	[uN]	[V]	[V]	[V]	[°C]	[uN]	[um]	[N/m]	[°]	[°]	[uN]	[um]	[um]	[um]	[uN]	[N/m]	[um]	[um^2]	[MPa]	[MPa]
592	1.000000	0.002527	7.37084e+06	-47489.1	1005.82	-29765.8	0.000000	0.000000	6.002766	0.051366	NaN	0.000000	0.001546	0.001694	28.0806	0.072771	0.000917	79.3938	-174.3	-164.968	0.044927	0.001319	-1.059262	-1.060470	0.051366	79.3938	-1.059747	-1.443519E+14	-3.558392E-16	NaN
592	1.000000	0.042497	7.37084e+06	-47489.1	1005.82	-29765.8	0.000000	0.000000	6.042736	0.038992	NaN	0.000000	0.001526	0.001657	28.0792	0.109864	0.001780	61.7175	82.8264	-167.854	0.026751	0.041172	-1.019292	-1.020617	0.038992	61.7175	-1.019765	-4.185959E+13	-9.314880E-16	NaN
592	1.000000	0.082519	7.37084e+06	-47489.1	1005.82	-29765.8	0.000000	0.000000	6.082758	0.049524	NaN	0.000000	0.001543	0.001663	28.0795	0.085741	0.002073	41.3623	57.8612	-166.586	-0.003064	0.081215	-0.979270	-0.980573	0.049524	41.3623	-0.980168	-1.226509E+13	-4.037804E-15	NaN
592	1.000000	0.122549	7.37084e+06	-47489.1	1005.82	-29765.8	0.000000	0.000000	6.122788	0.055690	NaN	0.000000	0.001587	0.001647	28.0793	0.067019	0.002299	29.148	127.172	-165.08	0.068980	0.121180	-0.939240	-0.940609	0.055690	29.148	-0.940673	-3.599242E+12	-1.547267E-14	NaN
592	1.000000	0.162560	7.37084e+06	-47489.1	1005.82	-29765.8	0.000000	0.000000	6.162797	-0.002635	NaN	0.000000	0.001554	0.001670	28.0793	0.150345	0.002002	75.0987	-168.139	-166.633	0.133087	0.161266	-0.899228	-0.900523	-0.002635	75.0987	-0.899202	-9.914803E+11	2.657858E-15	NaN
592	1.000000	0.202577	7.37084e+06	-47489.1	1005.82	-29765.8	0.000000	0.000000	6.202815	0.046109	NaN	0.000000	0.001579	0.001666	28.0805	0.070697	0.001920	36.8166	53.0088	-172.591	0.037639	0.201284	-0.859212	-0.860505	0.046109	36.8166	-0.860151	-2.938807E+11	-1.568973E-13	NaN
592	1.000000	0.242613	7.37084e+06	-47489.1	1005.82	-29765.8	0.000000	0.000000	6.242848	-0.044173	NaN	0.000000	0.001587	0.001634	28.0805	0.069712	0.002047	34.0612	22.2161	-163.468	-0.030995	0.241262	-0.819176	-0.820527	-0.044173	34.0612	-0.818203	-7.940364E+10	5.563096E-13	NaN
592	1.000000	0.282579	7.37084e+06	-47489.1	1005.82	-29765.8	0.000000	0.000000	6.282817	0.019319	NaN	0.000000	0.001562	0.001649	28.0804	0.107122	0.001907	56.1639	-30.3454	-165.38	0.038944	0.281294	-0.779209	-0.780495	0.019319	56.1639	-0.779467	-2.365889E+10	-8.165464E-13	NaN
592	1.000000	0.322622	7.37084e+06	-47489.1	1005.82	-29765.8	0.000000	0.000000	6.322859	0.011401	NaN	0.000000	0.001636	0.001629	28.079	0.056127	0.002128	26.3697	-85.3183	-170.61	-0.017204	0.321343	-0.739167	-0.740446	0.011401	26.3697	-0.739492	-6.762860E+9	-1.685821E-12	NaN
592	1.000000	0.362654	7.37084e+06	-47489.1	1005.82	-29765.8	0.000000	0.000000	6.362894	0.074100	NaN	0.000000	0.001569	0.001661	28.0793	0.046064	0.001945	23.6803	127.886	-164.78	0.011913	0.361332	-0.699135	-0.700457	0.074100	23.6803	-0.701481	-2.050032E+9	-3.614564E-11	NaN
592	1.000000	0.402619	7.37084e+06	-47489.1	1005.82	-29765.8	0.000000	0.000000	6.402858	0.059821	NaN	0.000000	0.001569	0.001683	28.0794	0.052753	0.002020	26.1202	-167.293	-166.785	0.075845	0.401350	-0.659170	-0.660439	0.059821	26.1202	-0.660887	-5.709839E+8	-1.047675E-10	NaN
592	1.000000	0.442676	7.37084e+06	-47489.1	1005.82	-29765.8	0.000000	0.000000	6.442916	0.088441	NaN	0.000000	0.001581	0.001684	28.0793	0.036459	0.001954	18.6541	47.1629	-169.636	0.084524	0.441445	-0.619113	-0.620343	0.088441	18.6541	-0.622669	-1.707323E+8	-5.180104E-10	NaN
592	1.000000	0.482694	7.37084e+06	-47489.1	1005.82	-29765.8	0.000000	0.000000	6.482933	0.049594	NaN	0.000000	0.001620	0.001659	28.0806	0.111334	0.002012	55.3448	139.87	-167.79	0.021857	0.481360	-0.579095	-0.580429	0.049594	55.3448	-0.579767	-4.380331E+7	-1.132191E-9	NaN
592	1.000000	0.522733	7.37084e+06	-47489.1	1005.82	-29765.8	0.000000	0.000000	6.522971	0.014570	NaN	0.000000	0.001539	0.001651	28.0806	0.076784	0.002032	37.7789	127.269	-170.466	-0.028710	0.521446	-0.539055	-0.540343	0.014570	37.7789	-0.539345	-1.208561E+7	-1.205575E-9	NaN
592	1.000000	0.562746	7.37084e+06	-47489.1	1005.82	-29765.8	0.000000	0.000000	6.562984	0.034989	NaN	0.000000	0.001537	0.001638	28.0807	0.044303	0.001991	22.2567	-21.0072	-167.696	0.027854	0.561460	-0.499043	-0.500329	0.034989	22.2567	-0.500222	-3.45238e+06	-1.013475E-8	NaN
592	1.000000	0.602728	7.37084e+06	-47489.1	1005.82	-29765.8	0.000000	0.000000	6.602969	0.098133	NaN	0.000000	0.001539	0.001706	28.079	0.128283	0.002084	61.548	133.779	-167.985	0.064104	0.601374	-0.459060	-0.460415	0.098133	61.548	-0.460256	-951961	-1.030852E-7	NaN
592	1.000000	0.642750	7.37084e+06	-47489.1	1005.82	-29765.8	0.000000	0.000000	6.642989	0.063806	NaN	0.000000	0.001594	0.001663	28.079	0.086760	0.001838	47.2068	-23.6556	-167.114	0.102069	0.641427	-0.419039	-0.420362	0.063806	47.2068	-0.420053	-257731	-2.475679E-7	NaN
592	1.000000	0.682759	7.37084e+06	-47489.1	1005.82	-29765.8	0.000000	0.000000	6.682996	0.023665	NaN	0.000000	0.001579	0.001690	28.0791	0.094745	0.001987	47.6798	-153.558	-165.6	0.065429	0.681482	-0.379030	-0.380307	0.023665	47.6798	-0.379402	-67812.5	-3.489771E-7	NaN
592	1.000000	0.722811	7.37084e+06	-47489.1	1005.82	-29765.8	0.000000	0.000000	6.723047	-0.028119	NaN	0.000000	0.001579	0.001662	28.0794	0.024586	0.001991	12.3507	163.743	-165.036	0.071887	0.721489	-0.338978	-0.340300	-0.028119	12.3507	-0.337270	-16662.3	1.687570E-6	NaN
592	1.000000	0.762833	7.37084e+06	-47489.1	1005.82	-29765.8	0.000000	0.000000	6.763072	0.061005	NaN	0.000000	0.001555	0.001621	28.0804	0.055414	0.001866	29.6951	157.316	-162.366	0.042337	0.761508	-0.298956	-0.300281	0.061005	29.6951	-0.300497	-4786.69	-1.274478E-5	NaN
592	1.000000	0.802793	7.37084e+06	-47489.1	1005.82	-29765.8	0.000000	0.000000	6.803032	0.052341	NaN	0.000000	0.001557	0.001643	28.0803	0.009874	0.002119	4.658724	-146.456	-164.706	0.020422	0.801495	-0.258995	-0.260293	0.052341	4.658724	-0.267422	-1521.64	-3.439795E-5	NaN
592	1.000000	0.842861	7.37084e+06	-47489.1	1005.82	-29765.8	0.000000	0.000000	6.843102	0.097023	NaN	0.000000	0.001576	0.001674	28.0803	0.043052	0.002015	21.3678	-127.709	-165.325	0.093692	0.841542	-0.218928	-0.220247	0.097023	21.3678	-0.222333	-302.626	-0.000321	NaN
592	1.000000	0.882845	7.37084e+06	-47489.1	1005.82	-29765.8	0.000000	0.000000	6.883083	0.035991	NaN	0.000000	0.001549	0.001657	28.0793	0.112738	0.001943	58.0226	132.334	-163.301	0.077792	0.881561	-0.178944	-0.180228	0.035991	58.0226	-0.179409	-59.6227	-0.000604	NaN
592	1.000000	0.922885	7.37084e+06	-47489.1	1005.82	-29765.8	0.000000	0.000000	6.923123	0.029012	NaN	0.000000	0.001588	0.001633	28.079	0.056322	0.002113	26.6598	128.827	-165.834	-0.008396	0.921583	-0.138904	-0.140206	0.029012	26.6598	-0.139720	-11.6871	-0.002482	NaN
592	1.000000	0.962888	7.37084e+06	-47489.1	1005.82	-29765.8	0.000000	0.000000	6.963126	0.019879	NaN	0.000000	0.001572	0.001629	28.0791	0.034217	0.001927	17.7596	-38.7284	-167.58	0.054478	0.961612	-0.098900	-0.100177	0.019879	17.7596	-0.099740	-1.803037	-0.011025	NaN
592	1.000000	1.002901	7.37084e+06	-47489.1	1005.82	-29765.8	0.000000	0.000000	7.003136	-0.023081	NaN	0.000000	0.001562	0.001703	28.0803	0.081883	0.002084	39.2823	151.897	-167.192	-0.062491	1.001597	-0.058888	-0.060192	-0.023081	39.2823	-0.058448	-0.162459	0.142073	NaN
592	1.000000	1.042932	7.37084e+06	-47489.1	1005.82	-29765.8	0.000000	0.000000	7.043316	3.573040	NaN	0.000000	0.001523	0.001671	28.0802	1.805175	0.002001	902.049	17.242	-166.76	3.679008	1.041637	-0.018857	-0.020152	3.573040	902.049	-0.021828	-0.013979	-255.601	NaN
592	2.000000	1.069370	7.37084e+06	-47489.1	1005.82	-29765.8	0.000000	0.000000	7.070377	18.7378	NaN	0.000000	0.001557	0.001638	28.0803	13.2241	0.001665	7943.52	4.307730	-171.634	17.9652	1.069049	0.007582	0.007260	18.7378	7943.52	0.005812	0.004887	3834.14	103815
592	2.000000	1.079291	7.37084e+06	-47489.1	1005.82	-29765.8	0.000000	0.000000	7.081431	46.2817	NaN	0.000000	0.001560	0.001625	28.0803	24.0099	0.001871	12834.1	8.882538	178.667	44.4781	1.079034	0.017503	0.017245	46.2817	12834.1	0.014798	0.015017	3081.96	95686.2
592	2.000000	1.089258	7.37084e+06	-47489.1	1005.82	-29765.8	0.000000	0.000000	7.093022	85.7857	NaN	0.000000	0.001556	0.001656	28.0788	32.5303	0.001873	17365.7	4.875120	179.907	83.2294	1.089016	0.027470	0.027227	85.7857	17365.7	0.023765	0.028806	2978	93480.5
592	2.000000	1.099314	7.37084e+06	-47489.1	1005.82	-29765.8	0.000000	0.000000	7.105041	133.538	NaN	0.000000	0.001590	0.001725	28.0791	39.9663	0.001823	21918.6	6.895692	177.144	134.199	1.098940	0.037525	0.037151	133.538	21918.6	0.032956	0.047093	2835.61	92279.8
592	2.000000	1.109304	7.37084e+06	-47489.1	1005.82	-29765.8	0.000000	0.000000	7.116431	167.591	NaN	0.000000	0.001607	0.001702	28.0793	48.0603	0.001804	26642.4	5.098882	176.714	167.933	1.108971	0.047515	0.047182	167.591	26642.4	0.042798	0.071458	2345.31	91058.7
592	2.000000	1.119315	7.37084e+06	-47489.1	1005.82	-29765.8	0.000000	0.000000	7.128607	220.248	NaN	0.000000	0.001553	0.001700	28.0805	57.2512	0.001780	32171.6	3.170734	176.072	220.431	1.118935	0.057526	0.057146	220.248	32171.6	0.052392	0.099950	2203.59	92972.8
592	2.000000	1.129216	7.37084e+06	-47489.1	1005.82	-29765.8	0.000000	0.000000	7.140970	280.13	NaN	0.000000	0.001631	0.001694	28.0805	64.9568	0.001792	36246.6	3.707877	174.916	278.791	1.129018	0.067427	0.067229	280.13	36246.6	0.061631	0.131721	2126.69	91245.8
592	2.000000	1.139252	7.37084e+06	-47489.1	1005.82	-29765.8	0.000000	0.000000	7.153277	335.366	NaN	0.000000	0.001582	0.001650	28.0805	71.877	0.001908	37666.5	4.080759	174.06	334.924	1.138950	0.077464	0.077161	335.366	37666.5	0.070786	0.167300	2004.58	84135.8
592	2.000000	1.149295	7.37084e+06	-47489.1	1005.82	-29765.8	0.000000	0.000000	7.165956	399.497	NaN	0.000000	0.001629	0.001651	28.0804	80.2533	0.001814	44234.4	6.531694	171.343	399.937	1.148951	0.087506	0.087163	399.497	44234.4	0.080732	0.210464	1898.17	88093.7
592	2.000000	1.159228	7.37085e+06	-47489.1	1005.82	-29765.8	0.000000	0.000000	7.178233	456.505	NaN	0.000000	0.001631	0.001672	28.079	89.0223	0.001827	48720.6	5.479568	170.464	455.559	1.158906	0.097439	0.097118	456.505	48720.6	0.090412	0.256893	1777.02	87823.3
592	2.000000	1.163112	7.37085e+06	-47489.1	1005.82	-29765.8	0.000000	0.000000	7.183199	482.831	NaN	0.000000	0.001629	0.001684	28.0793	91.6802	0.001867	49110.2	6.505034	169.715	476.842	1.162768	0.101323	0.100979	482.831	49110.2	0.093950	0.274937	1756.15	85571.3