File: remote_trans/data/nanoindenter/0828-1/data/Data_2025-08-06,11h17m57s/2025-07-22_16-23-58_1_352.txt
2025-07-22, 16:23:58, 1
Index	Phase	Displacement	Time	Pos X	Pos Y	Pos Z	Rot A	Rot B	Piezo Z	Force A	Force B	Gripper	Voltage A	Voltage B	Temperature	Amplitude force	Amplitude pos	Stiffness	Phase shift	Phase excitation	Force A raw	Displacement raw	HMax	HMax raw	Real Force	Real Stiffness	Contact Depth	Area	Hardness	Reduced Mod.
[#]	[#]	[um]	[s]	[um]	[um]	[um]	[m°]	[m°]	[um]	[uN]	[uN]	[V]	[V]	[V]	[°C]	[uN]	[um]	[N/m]	[°]	[°]	[uN]	[um]	[um]	[um]	[uN]	[N/m]	[um]	[um^2]	[MPa]	[MPa]
352	1.000000	0.002522	7.3685e+06	-56239.1	955.818	-29739.8	0.000000	0.000000	6.002824	-0.030515	NaN	0.000000	0.001542	0.001784	28.0798	0.051937	0.001087	47.7836	134.354	-167.523	-0.042253	0.001286	-1.052666	-1.053901	-0.030515	47.7836	-1.052187	-1.142370E+14	2.671239E-16	NaN
352	1.000000	0.042471	7.3685e+06	-56239.1	955.818	-29739.8	0.000000	0.000000	6.042775	0.026059	NaN	0.000000	0.001520	0.001746	28.0797	0.045457	0.001982	22.9344	-63.1484	-168.269	0.063853	0.041141	-1.012717	-1.014046	0.026059	22.9344	-1.013569	-3.454706E+13	-7.542987E-16	NaN
352	1.000000	0.082432	7.3685e+06	-56239.1	955.819	-29739.8	0.000000	0.000000	6.082732	-0.080788	NaN	0.000000	0.001592	0.001764	28.0789	0.028155	0.002076	13.5633	-117.529	-166.794	-0.148666	0.081211	-0.972755	-0.973976	-0.080788	13.5633	-0.968288	-8.483738E+12	9.522747E-15	NaN
352	1.000000	0.122474	7.3685e+06	-56239.1	955.818	-29739.8	0.000000	0.000000	6.122777	-0.025801	NaN	0.000000	0.001589	0.001785	28.0788	0.039103	0.002118	18.4619	162.387	-168.715	-0.010612	0.121159	-0.932713	-0.934028	-0.025801	18.4619	-0.931665	-2.720604E+12	9.483705E-15	NaN
352	1.000000	0.162488	7.3685e+06	-56239.1	955.819	-29739.8	0.000000	0.000000	6.162793	0.017638	NaN	0.000000	0.001566	0.001751	28.0787	0.013246	0.001990	6.656771	-37.2932	-165.861	-0.025695	0.161216	-0.892699	-0.893971	0.017638	6.656771	-0.894686	-8.614993E+11	-2.047339E-14	NaN
352	1.000000	0.202490	7.3685e+06	-56239.1	955.818	-29739.8	0.000000	0.000000	6.202795	0.041721	NaN	0.000000	0.001548	0.001688	28.0794	0.114712	0.002053	55.867	-141.481	-164.533	0.003358	0.201196	-0.852698	-0.853991	0.041721	55.867	-0.853258	-2.370543E+11	-1.759993E-13	NaN
352	1.000000	0.242541	7.3685e+06	-56239.1	955.817	-29739.8	0.000000	0.000000	6.242845	0.007313	NaN	0.000000	0.001573	0.001732	28.0794	0.077830	0.002119	36.7299	57.4264	-165.118	0.029913	0.241182	-0.812646	-0.814005	0.007313	36.7299	-0.812796	-6.706509E+10	-1.090367E-13	NaN
352	1.000000	0.282531	7.3685e+06	-56239.1	955.818	-29739.8	0.000000	0.000000	6.282833	-0.032025	NaN	0.000000	0.001579	0.001680	28.0796	0.109939	0.002039	53.9302	59.4788	-164.885	-0.041963	0.281235	-0.772656	-0.773953	-0.032025	53.9302	-0.772211	-1.885225E+10	1.698757E-12	NaN
352	1.000000	0.322559	7.3685e+06	-56239.1	955.818	-29739.8	0.000000	0.000000	6.322862	-0.020869	NaN	0.000000	0.001551	0.001755	28.0787	0.028307	0.002100	13.4762	-1.419443	-163.462	-0.100339	0.321256	-0.732628	-0.733932	-0.020869	13.4762	-0.731467	-5.257710E+9	3.969271E-12	NaN
352	1.000000	0.362573	7.3685e+06	-56239.1	955.818	-29739.8	0.000000	0.000000	6.362875	-0.036530	NaN	0.000000	0.001555	0.001754	28.0788	0.039666	0.001945	20.3937	3.873645	-167.529	-0.068839	0.361268	-0.692614	-0.693919	-0.036530	20.3937	-0.691271	-1.486920E+9	2.456769E-11	NaN
352	1.000000	0.402570	7.36851e+06	-56239.1	955.818	-29739.8	0.000000	0.000000	6.402872	-0.031475	NaN	0.000000	0.001525	0.001751	28.0786	0.058339	0.002063	28.2829	-0.933194	-167.77	-0.130147	0.401251	-0.652617	-0.653936	-0.031475	28.2829	-0.651782	-4.284201E+8	7.346688E-11	NaN
352	1.000000	0.442605	7.36851e+06	-56239.1	955.818	-29739.8	0.000000	0.000000	6.442908	-0.016594	NaN	0.000000	0.001514	0.001723	28.0788	0.006991	0.002006	3.484685	-88.5788	-167.915	-0.091519	0.441247	-0.612582	-0.613940	-0.016594	3.484685	-0.609010	-1.107894E+8	1.497777E-10	NaN
352	1.000000	0.482604	7.36851e+06	-56239.1	955.818	-29739.8	0.000000	0.000000	6.482905	-0.043676	NaN	0.000000	0.001541	0.001737	28.0801	0.105557	0.001867	56.544	47.1356	-163.968	-0.070831	0.481302	-0.572584	-0.573886	-0.043676	56.544	-0.572004	-3.422328E+7	1.276195E-9	NaN
352	1.000000	0.522660	7.36851e+06	-56239.1	955.819	-29739.8	0.000000	0.000000	6.522961	-0.052987	NaN	0.000000	0.001546	0.001756	28.0802	0.057932	0.001899	30.5036	-163.356	-165.451	-0.147079	0.521358	-0.532527	-0.533829	-0.052987	30.5036	-0.531225	-9.32352e+06	5.683169E-9	NaN
352	1.000000	0.562666	7.36851e+06	-56239.1	955.818	-29739.8	0.000000	0.000000	6.562973	0.075727	NaN	0.000000	0.001612	0.001783	28.0797	0.106854	0.002019	52.9332	-54.4475	-167.052	0.065484	0.561360	-0.492521	-0.493827	0.075727	52.9332	-0.493594	-2.79001e+06	-2.714220E-8	NaN
352	1.000000	0.602681	7.36851e+06	-56239.1	955.819	-29739.8	0.000000	0.000000	6.602984	-0.016078	NaN	0.000000	0.001580	0.001715	28.0783	0.042506	0.001925	22.0796	95.8949	-166.45	-0.071430	0.601344	-0.452506	-0.453843	-0.016078	22.0796	-0.451960	-727675	2.209439E-8	NaN
352	1.000000	0.642726	7.36851e+06	-56239.1	955.818	-29739.8	0.000000	0.000000	6.643027	-0.056899	NaN	0.000000	0.001539	0.001723	28.0785	0.103858	0.001995	52.0567	127.636	-166.79	-0.052145	0.641420	-0.412462	-0.413767	-0.056899	52.0567	-0.411642	-195769	2.906420E-7	NaN
352	1.000000	0.682730	7.36851e+06	-56239.1	955.819	-29739.8	0.000000	0.000000	6.683035	0.043668	NaN	0.000000	0.001532	0.001703	28.0785	0.082543	0.002124	38.8684	99.7068	-167.965	0.030586	0.681446	-0.372457	-0.373741	0.043668	38.8684	-0.373300	-55414.6	-7.880231E-7	NaN
352	1.000000	0.722729	7.36851e+06	-56239.1	955.818	-29739.8	0.000000	0.000000	6.723034	0.052527	NaN	0.000000	0.001557	0.001715	28.0784	0.099957	0.001938	51.5709	168.017	-162.571	-0.010761	0.721366	-0.332459	-0.333821	0.052527	51.5709	-0.333223	-14541.4	-3.612200E-6	NaN
352	1.000000	0.762763	7.36851e+06	-56239.1	955.819	-29739.8	0.000000	0.000000	6.763065	-0.043746	NaN	0.000000	0.001570	0.001649	28.0796	0.046363	0.001985	23.3594	-102.142	-167.182	-0.034125	0.761413	-0.292424	-0.293774	-0.043746	23.3594	-0.291020	-3455.99	1.265816E-5	NaN
352	1.000000	0.802782	7.36851e+06	-56239.1	955.818	-29739.8	0.000000	0.000000	6.803088	0.053198	NaN	0.000000	0.001615	0.001675	28.0796	0.060263	0.002021	29.8155	-4.637382	-166.881	0.002811	0.801464	-0.252405	-0.253723	0.053198	29.8155	-0.253744	-939.209	-5.664109E-5	NaN
352	1.000000	0.842794	7.36851e+06	-56239.1	955.817	-29739.8	0.000000	0.000000	6.843098	0.017830	NaN	0.000000	0.001548	0.001714	28.0795	0.014265	0.001981	7.200836	150.415	-165.705	-0.028569	0.841462	-0.212393	-0.213726	0.017830	7.200836	-0.214250	-224.62	-7.937686E-5	NaN
352	1.000000	0.882794	7.36851e+06	-56239.1	955.818	-29739.8	0.000000	0.000000	6.883096	-0.040142	NaN	0.000000	0.001637	0.001690	28.0787	0.103328	0.001984	52.0877	-23.6317	-167.388	0.023242	0.881473	-0.172393	-0.173714	-0.040142	52.0877	-0.171815	-44.1639	0.000909	NaN
352	1.000000	0.922766	7.36851e+06	-56239.1	955.818	-29739.8	0.000000	0.000000	6.923072	0.058964	NaN	0.000000	0.001570	0.001698	28.0786	0.051498	0.002067	24.9167	-15.0692	-165.822	-0.050263	0.921469	-0.132422	-0.133719	0.058964	24.9167	-0.134196	-9.181786	-0.006422	NaN
352	1.000000	0.962840	7.36851e+06	-56239.1	955.818	-29739.8	0.000000	0.000000	6.963146	0.078647	NaN	0.000000	0.001495	0.001695	28.0786	0.022447	0.001928	11.6427	123.649	-167.051	0.048322	0.961495	-0.092348	-0.093692	0.078647	11.6427	-0.097414	-1.599732	-0.049163	NaN
352	1.000000	1.002824	7.36851e+06	-56239.1	955.821	-29739.8	0.000000	0.000000	7.003126	-0.051578	NaN	0.000000	0.001541	0.001656	28.0799	0.032306	0.001927	16.7684	-175.918	-170.385	-0.048524	1.001536	-0.052363	-0.053651	-0.051578	16.7684	-0.050056	-0.091607	0.563036	NaN
352	1.000000	1.042859	7.36851e+06	-56239.1	955.819	-29739.8	0.000000	0.000000	7.043161	-0.023621	NaN	0.000000	0.001516	0.001644	28.08	0.060137	0.002050	29.3294	155.413	-161.902	0.008502	1.041533	-0.012328	-0.013654	-0.023621	29.3294	-0.011724	-0.007371	3.204543	NaN
352	2.000000	1.068355	7.36851e+06	-56239.1	955.819	-29739.8	0.000000	0.000000	7.069334	16.4281	NaN	0.000000	0.001522	0.001657	28.08	14.5922	0.001592	9165.25	3.550380	-174.164	15.7871	1.068091	0.013168	0.012904	16.4281	9165.25	0.011823	0.011279	1456.53	78846.6
352	2.000000	1.078345	7.36851e+06	-56239.1	955.819	-29739.8	0.000000	0.000000	7.080085	34.9172	NaN	0.000000	0.001520	0.001638	28.08	25.8695	0.001850	13984.1	5.196262	-179.317	34.3756	1.078042	0.023158	0.022855	34.9172	13984.1	0.021285	0.024603	1419.25	81455.1
352	2.000000	1.088253	7.36851e+06	-56239.1	955.819	-29739.8	0.000000	0.000000	7.090980	58.9068	NaN	0.000000	0.001600	0.001649	28.0788	33.6217	0.001815	18521.1	2.654325	-178.148	57.5748	1.088107	0.033066	0.032920	58.9068	18521.1	0.030680	0.042166	1397.03	82406.1
352	2.000000	1.098274	7.36851e+06	-56239.1	955.819	-29739.8	0.000000	0.000000	7.102460	94.3884	NaN	0.000000	0.001565	0.001663	28.0785	43.756	0.001808	24201.4	7.718713	173.856	93.3614	1.097949	0.043086	0.042762	94.3884	24201.4	0.040161	0.064446	1464.62	87099.8
352	2.000000	1.108198	7.36851e+06	-56239.1	955.819	-29739.8	0.000000	0.000000	7.113940	132.191	NaN	0.000000	0.001587	0.001672	28.0785	51.9646	0.001946	26699.1	4.231586	176.817	128.088	1.107964	0.053010	0.052777	132.191	26699.1	0.049297	0.090253	1464.67	81196.8
352	2.000000	1.118205	7.36851e+06	-56239.1	955.82	-29739.8	0.000000	0.000000	7.125984	181.71	NaN	0.000000	0.001513	0.001686	28.0797	59.2683	0.001816	32631.2	1.532711	177.58	177.696	1.117879	0.063018	0.062691	181.71	32631.2	0.058841	0.121686	1493.27	85464.7
352	2.000000	1.128255	7.36851e+06	-56239.1	955.822	-29739.8	0.000000	0.000000	7.137915	227.43	NaN	0.000000	0.001544	0.001729	28.0799	69.3376	0.001916	36198.1	8.133766	171.043	227.46	1.127907	0.073068	0.072720	227.43	36198.1	0.068355	0.157463	1444.34	83343.2
352	2.000000	1.138172	7.36851e+06	-56239.1	955.821	-29739.8	0.000000	0.000000	7.150124	283.154	NaN	0.000000	0.001530	0.001696	28.0801	77.6298	0.001857	41815	5.386966	171.981	280.135	1.137855	0.082984	0.082667	283.154	41815	0.077906	0.197725	1432.06	85916.1
352	2.000000	1.148270	7.36851e+06	-56239.1	955.821	-29739.8	0.000000	0.000000	7.162397	336.013	NaN	0.000000	0.001502	0.001671	28.08	85.7309	0.001847	46420.7	3.012380	173.43	336.064	1.147920	0.093082	0.092733	336.013	46420.7	0.087654	0.243223	1381.5	85996.9
352	2.000000	1.158189	7.36851e+06	-56239.1	955.821	-29739.8	0.000000	0.000000	7.175395	410.863	NaN	0.000000	0.001519	0.001676	28.0788	94.8191	0.001714	55334.7	8.287559	166.677	409.445	1.158000	0.103001	0.102812	410.863	55334.7	0.097433	0.293260	1401.02	93356.5
352	2.000000	1.162287	7.36851e+06	-56239.1	955.822	-29739.8	0.000000	0.000000	7.180767	441.822	NaN	0.000000	0.001511	0.001668	28.0786	98.9895	0.001894	52262.1	4.575328	171.063	445.227	1.161950	0.107100	0.106763	441.822	52262.1	0.100759	0.311274	1419.4	85583.2