File: remote_trans/data/nanoindenter/0828-1/data/Data_2025-08-06,11h17m57s/2025-07-22_16-23-58_1_136.txt
2025-07-22, 16:23:58, 1
Index	Phase	Displacement	Time	Pos X	Pos Y	Pos Z	Rot A	Rot B	Piezo Z	Force A	Force B	Gripper	Voltage A	Voltage B	Temperature	Amplitude force	Amplitude pos	Stiffness	Phase shift	Phase excitation	Force A raw	Displacement raw	HMax	HMax raw	Real Force	Real Stiffness	Contact Depth	Area	Hardness	Reduced Mod.
[#]	[#]	[um]	[s]	[um]	[um]	[um]	[m°]	[m°]	[um]	[uN]	[uN]	[V]	[V]	[V]	[°C]	[uN]	[um]	[N/m]	[°]	[°]	[uN]	[um]	[um]	[um]	[uN]	[N/m]	[um]	[um^2]	[MPa]	[MPa]
136	1.000000	0.001713	7.36637e+06	-45439.1	955.818	-29773	0.000000	0.000000	6.002773	-0.040524	NaN	0.000000	0.001624	0.001734	28.1285	0.031740	0.000937	33.8564	-130.095	-164.878	-0.044261	0.000447	-1.016777	-1.018043	-0.040524	33.8564	-1.015879	-3.711110E+13	1.091961E-15	NaN
136	1.000000	0.039695	7.36637e+06	-45439.1	955.818	-29773	0.000000	0.000000	6.040755	-0.046434	NaN	0.000000	0.001640	0.001735	28.0882	0.108779	0.001904	57.1318	58.6554	15.9095	-0.079934	0.038327	-0.978795	-0.980163	-0.046434	57.1318	-0.978186	-1.153371E+13	4.025961E-15	NaN
136	1.000000	0.077695	7.36637e+06	-45439.1	955.819	-29773	0.000000	0.000000	6.078754	-0.072832	NaN	0.000000	0.001617	0.001740	28.0802	0.044667	0.002039	21.9087	-155.813	-166.888	-0.113294	0.076388	-0.940795	-0.942102	-0.072832	21.9087	-0.938302	-3.343700E+12	2.178186E-14	NaN
136	1.000000	0.115723	7.36637e+06	-45439.1	955.818	-29773	0.000000	0.000000	6.116780	-0.116016	NaN	0.000000	0.001619	0.001736	28.105	0.034260	0.001911	17.9272	168.221	17.2407	-0.112133	0.114368	-0.902767	-0.904122	-0.116016	17.9272	-0.897913	-9.525059E+11	1.218003E-13	NaN
136	1.000000	0.153758	7.36637e+06	-45439.1	955.818	-29773	0.000000	0.000000	6.154815	-0.101780	NaN	0.000000	0.001629	0.001720	28.1294	0.072612	0.001903	38.153	-86.4692	-166.073	-0.081730	0.152384	-0.864732	-0.866106	-0.101780	38.153	-0.862732	-3.184881E+11	3.195718E-13	NaN
136	1.000000	0.191737	7.36637e+06	-45439.1	955.819	-29773	0.000000	0.000000	6.192798	-0.011564	NaN	0.000000	0.001608	0.001717	28.0894	0.090676	0.001933	46.8989	30.9388	11.8739	-0.053951	0.190364	-0.826754	-0.828126	-0.011564	46.8989	-0.826569	-1.031030E+11	1.121596E-13	NaN
136	1.000000	0.229801	7.36637e+06	-45439.1	955.818	-29773	0.000000	0.000000	6.230861	-0.034101	NaN	0.000000	0.001586	0.001719	28.0811	0.097495	0.001902	51.2722	127.828	-164.38	-0.018549	0.228504	-0.788689	-0.789986	-0.034101	51.2722	-0.788191	-3.108194E+10	1.097126E-12	NaN
136	1.000000	0.267805	7.36637e+06	-45439.1	955.818	-29773	0.000000	0.000000	6.268867	0.004240	NaN	0.000000	0.001676	0.001702	28.1056	0.056318	0.001986	28.3593	19.1621	17.3547	-0.025601	0.266373	-0.750685	-0.752117	0.004240	28.3593	-0.750797	-9.639890E+9	-4.398402E-13	NaN
136	1.000000	0.305813	7.36637e+06	-45439.1	955.818	-29773	0.000000	0.000000	6.306873	-0.038269	NaN	0.000000	0.001605	0.001703	28.1278	0.049682	0.001990	24.9639	-163.361	-164.611	-0.025261	0.304504	-0.712677	-0.713986	-0.038269	24.9639	-0.711528	-2.811212E+9	1.361315E-11	NaN
136	1.000000	0.343809	7.36637e+06	-45439.1	955.818	-29773	0.000000	0.000000	6.344869	-0.036776	NaN	0.000000	0.001580	0.001753	28.0883	0.030006	0.001936	15.4958	-174.93	14.0002	-0.005678	0.342504	-0.674681	-0.675986	-0.036776	15.4958	-0.672901	-8.338687E+8	4.410274E-11	NaN
136	1.000000	0.381834	7.36637e+06	-45439.1	955.818	-29773	0.000000	0.000000	6.382895	-0.021014	NaN	0.000000	0.001667	0.001778	28.0818	0.048922	0.002032	24.071	130.282	-165.288	-0.107956	0.380522	-0.636656	-0.637968	-0.021014	24.071	-0.636001	-2.602630E+8	8.073956E-11	NaN
136	1.000000	0.419847	7.36637e+06	-45439.1	955.818	-29773	0.000000	0.000000	6.420904	-0.116815	NaN	0.000000	0.001653	0.001759	28.1066	0.114879	0.002027	56.6773	-112.137	15.3178	-0.222067	0.418506	-0.598643	-0.599984	-0.116815	56.6773	-0.597097	-7.594170E+7	1.538214E-9	NaN
136	1.000000	0.457856	7.36637e+06	-45439.1	955.818	-29773	0.000000	0.000000	6.458913	-0.115253	NaN	0.000000	0.001749	0.001740	28.1286	0.067564	0.002066	32.7043	146.189	-164.962	-0.046581	0.456566	-0.560634	-0.561924	-0.115253	32.7043	-0.557991	-2.190726E+7	5.260930E-9	NaN
136	1.000000	0.495866	7.36637e+06	-45439.1	955.818	-29773	0.000000	0.000000	6.496928	0.000534	NaN	0.000000	0.001703	0.001753	28.088	0.079411	0.002084	38.1106	-35.6272	14.291	0.041792	0.494501	-0.522624	-0.523989	0.000534	38.1106	-0.522634	-7.0832e+06	-7.538831E-11	NaN
136	1.000000	0.533872	7.36637e+06	-45439.1	955.818	-29773	0.000000	0.000000	6.534932	-0.049246	NaN	0.000000	0.001770	0.001783	28.081	0.059452	0.001968	30.2053	-155.089	-164.489	-0.030037	0.532610	-0.484618	-0.485880	-0.049246	30.2053	-0.483395	-2.00927e+06	2.450947E-8	NaN
136	1.000000	0.571888	7.36637e+06	-45439.1	955.818	-29773	0.000000	0.000000	6.572944	-0.153155	NaN	0.000000	0.001796	0.001778	28.1062	0.116128	0.002160	53.7564	-161.408	14.8398	-0.012121	0.570533	-0.446602	-0.447957	-0.153155	53.7564	-0.444465	-570622	2.683999E-7	NaN
136	1.000000	0.609948	7.36637e+06	-45439.1	955.819	-29773	0.000000	0.000000	6.611006	-0.098077	NaN	0.000000	0.001751	0.001736	28.1265	0.118883	0.001977	60.1245	51.4734	-167.104	-0.103744	0.608641	-0.408542	-0.409849	-0.098077	60.1245	-0.407318	-169923	5.771872E-7	NaN
136	1.000000	0.647976	7.36637e+06	-45439.1	955.818	-29773	0.000000	0.000000	6.649036	-0.046436	NaN	0.000000	0.001711	0.001753	28.0889	0.015197	0.002001	7.594102	-87.9473	15.1844	-0.043654	0.646543	-0.370514	-0.371947	-0.046436	7.594102	-0.365928	-43395.6	1.070058E-6	NaN
136	1.000000	0.685942	7.36637e+06	-45439.1	955.818	-29773	0.000000	0.000000	6.687003	-0.026987	NaN	0.000000	0.001736	0.001765	28.08	0.036873	0.002001	18.4317	-93.1282	-168.145	-0.039687	0.684618	-0.332548	-0.333872	-0.026987	18.4317	-0.331450	-13698.7	1.970042E-6	NaN
136	1.000000	0.723958	7.36637e+06	-45439.1	955.819	-29773	0.000000	0.000000	6.725017	-0.090967	NaN	0.000000	0.001713	0.001764	28.1095	0.043845	0.001837	23.8711	-86.2426	10.7551	-0.094667	0.722670	-0.294532	-0.295821	-0.090967	23.8711	-0.291674	-3534.77	2.573478E-5	NaN
136	1.000000	0.761973	7.36637e+06	-45439.1	955.818	-29773	0.000000	0.000000	6.763033	-0.047019	NaN	0.000000	0.001754	0.001756	28.1265	0.016133	0.002034	7.932294	-106.095	-167.168	-0.038110	0.760649	-0.256517	-0.257841	-0.047019	7.932294	-0.252071	-885.056	5.312560E-5	NaN
136	1.000000	0.799976	7.36637e+06	-45439.1	955.818	-29773	0.000000	0.000000	6.801035	-0.062372	NaN	0.000000	0.001649	0.001787	28.0867	0.078971	0.001986	39.7628	143.902	10.085	-0.109666	0.798622	-0.218515	-0.219868	-0.062372	39.7628	-0.217338	-251.805	0.000248	NaN
136	1.000000	0.838036	7.36637e+06	-45439.1	955.818	-29773	0.000000	0.000000	6.839096	-0.054383	NaN	0.000000	0.001679	0.001796	28.0785	0.066451	0.002026	32.7992	-157.19	-166.05	-0.079405	0.836727	-0.180454	-0.181763	-0.054383	32.7992	-0.179210	-59.1588	0.000919	NaN
136	1.000000	0.876030	7.36637e+06	-45439.1	955.818	-29773	0.000000	0.000000	6.877089	-0.060600	NaN	0.000000	0.001690	0.001775	28.1097	0.018567	0.001782	10.4201	-117.198	14.5745	-0.154539	0.874670	-0.142460	-0.143820	-0.060600	10.4201	-0.138099	-10.8929	0.005563	NaN
136	1.000000	0.914057	7.36637e+06	-45439.1	955.818	-29773	0.000000	0.000000	6.915118	-0.019126	NaN	0.000000	0.001672	0.001739	28.1256	0.122289	0.001989	61.4907	4.202711	-164.223	0.001211	0.912659	-0.104433	-0.105831	-0.019126	61.4907	-0.104200	-2.258671	0.008468	NaN
136	1.000000	0.952070	7.36637e+06	-45439.1	955.818	-29773	0.000000	0.000000	6.953131	-0.028650	NaN	0.000000	0.001651	0.001756	28.0879	0.077375	0.001933	40.0226	-177.612	14.2515	-0.031875	0.950704	-0.066420	-0.067786	-0.028650	40.0226	-0.065883	-0.263630	0.108675	NaN
136	1.000000	0.990101	7.36637e+06	-45439.1	955.819	-29773	0.000000	0.000000	6.991162	-0.007817	NaN	0.000000	0.001640	0.001700	28.0804	0.058971	0.002020	29.1975	72.4426	-163.404	0.035006	0.988781	-0.028389	-0.029709	-0.007817	29.1975	-0.028189	-0.020516	0.381020	NaN
136	2.000000	1.027157	7.36637e+06	-45439.1	955.82	-29773	0.000000	0.000000	7.028546	7.956759	NaN	0.000000	0.001705	0.001758	28.1117	6.922814	0.001582	4377.32	6.048085	10.5086	8.382264	1.026595	0.008667	0.008105	7.956759	4377.32	0.007303	0.006336	1255.87	50244.2
136	2.000000	1.036621	7.36637e+06	-45439.1	955.821	-29773	0.000000	0.000000	7.038797	27.1072	NaN	0.000000	0.001612	0.001736	28.1251	15.6053	0.001732	9009	1.952440	-172.5	26.1098	1.036305	0.018131	0.017815	27.1072	9009	0.015874	0.016469	1645.93	64137.8
136	2.000000	1.046130	7.36637e+06	-45439.1	955.82	-29773	0.000000	0.000000	7.048893	41.3834	NaN	0.000000	0.001627	0.001710	28.0868	23.4999	0.001738	13521.1	3.574823	2.224766	40.1649	1.045768	0.027640	0.027278	41.3834	13521.1	0.025345	0.031646	1307.71	69442.6
136	2.000000	1.055571	7.36637e+06	-45439.1	955.82	-29773	0.000000	0.000000	7.059363	66.4023	NaN	0.000000	0.001626	0.001742	28.0793	32.2372	0.001790	18010.1	8.329237	174.974	65.5781	1.055227	0.037081	0.036737	66.4023	18010.1	0.034316	0.050166	1323.66	73466.1
136	2.000000	1.065028	7.36637e+06	-45439.1	955.821	-29773	0.000000	0.000000	7.070326	103.07	NaN	0.000000	0.001626	0.001729	28.1109	41.6073	0.001823	22822.7	4.899841	-2.632842	100.966	1.064615	0.046538	0.046125	103.07	22822.7	0.043150	0.072423	1423.16	77482.1
136	2.000000	1.074547	7.36637e+06	-45439.1	955.821	-29773	0.000000	0.000000	7.081497	143.224	NaN	0.000000	0.001655	0.001703	28.1249	49.7208	0.001785	27861.1	5.085063	175.91	142.942	1.074205	0.056057	0.055715	143.224	27861.1	0.052202	0.099340	1441.75	80762.4
136	2.000000	1.083962	7.36637e+06	-45439.1	955.821	-29773	0.000000	0.000000	7.092841	190.172	NaN	0.000000	0.001692	0.001744	28.087	59.2163	0.001839	32194.8	5.825835	-6.876311	186.016	1.083722	0.065471	0.065232	190.172	32194.8	0.061041	0.129568	1467.74	81716.5
136	2.000000	1.093459	7.36637e+06	-45439.1	955.821	-29773	0.000000	0.000000	7.104763	249.137	NaN	0.000000	0.001695	0.001719	28.0811	68.7906	0.001753	39233.1	6.960229	170.276	245.452	1.093163	0.074969	0.074672	249.137	39233.1	0.070207	0.164929	1510.57	88262.5
136	2.000000	1.103047	7.36637e+06	-45439.1	955.82	-29773	0.000000	0.000000	7.116894	311.014	NaN	0.000000	0.001751	0.001734	28.1119	78.5727	0.001773	44311.1	9.286793	-11.9244	311.236	1.102533	0.084557	0.084042	311.014	44311.1	0.079293	0.203931	1525.1	89648.7
136	2.000000	1.112493	7.36637e+06	-45439.1	955.821	-29773	0.000000	0.000000	7.129099	378.126	NaN	0.000000	0.001714	0.001726	28.124	85.4036	0.001771	48221	7.260224	170.302	376.367	1.112038	0.094003	0.093548	378.126	48221	0.088122	0.245521	1540.1	88913.1
136	2.000000	1.122066	7.36638e+06	-45439.1	955.821	-29773	0.000000	0.000000	7.140963	433.87	NaN	0.000000	0.001688	0.001697	28.0839	93.8564	0.001813	51772.3	1.262769	-5.962396	436.815	1.121831	0.103576	0.103341	433.87	51772.3	0.097291	0.292503	1483.3	87459.2
136	2.000000	1.125440	7.36638e+06	-45439.1	955.82	-29773	0.000000	0.000000	7.146108	476.949	NaN	0.000000	0.001608	0.001739	28.0799	97.2001	0.001740	55855.3	5.860736	169.839	473.676	1.125024	0.106950	0.106534	476.949	55855.3	0.100546	0.310106	1538.02	91639.5