File: remote_trans/data/nanoindenter/0828-1/data/Data_2025-08-06,11h17m57s/2025-07-22_16-23-58_1_1202.txt
2025-07-22, 16:23:58, 1
Index	Phase	Displacement	Time	Pos X	Pos Y	Pos Z	Rot A	Rot B	Piezo Z	Force A	Force B	Gripper	Voltage A	Voltage B	Temperature	Amplitude force	Amplitude pos	Stiffness	Phase shift	Phase excitation	Force A raw	Displacement raw	HMax	HMax raw	Real Force	Real Stiffness	Contact Depth	Area	Hardness	Reduced Mod.
[#]	[#]	[um]	[s]	[um]	[um]	[um]	[m°]	[m°]	[um]	[uN]	[uN]	[V]	[V]	[V]	[°C]	[uN]	[um]	[N/m]	[°]	[°]	[uN]	[um]	[um]	[um]	[uN]	[N/m]	[um]	[um^2]	[MPa]	[MPa]
1202	1.000000	0.002704	7.3768e+06	-55489.1	1105.82	-29741.2	0.000000	0.000000	6.002809	0.060540	NaN	0.000000	0.001584	0.001741	28.083	0.101608	0.000912	111.379	159.092	-162.64	0.116665	0.001439	-1.158174	-1.159439	0.060540	111.379	-1.158581	-3.060943E+15	-1.977834E-17	NaN
1202	1.000000	0.046625	7.3768e+06	-55489.1	1105.82	-29741.2	0.000000	0.000000	6.046730	0.055580	NaN	0.000000	0.001557	0.001721	28.0831	0.103850	0.001980	52.4624	-159.787	-164.148	0.079337	0.045369	-1.114253	-1.115508	0.055580	52.4624	-1.115047	-7.980304E+14	-6.964586E-17	NaN
1202	1.000000	0.090659	7.3768e+06	-55489.1	1105.82	-29741.2	0.000000	0.000000	6.090763	0.027359	NaN	0.000000	0.001573	0.001713	28.0818	0.069932	0.002081	33.6024	-116.42	-162.116	0.023545	0.089392	-1.070218	-1.071485	0.027359	33.6024	-1.070829	-2.033862E+14	-1.345169E-16	NaN
1202	1.000000	0.134659	7.3768e+06	-55489.1	1105.82	-29741.2	0.000000	0.000000	6.134763	0.016163	NaN	0.000000	0.001562	0.001714	28.0813	0.088516	0.001825	48.5007	-17.1856	-167.202	-0.006858	0.133357	-1.026218	-1.027520	0.016163	48.5007	-1.026468	-5.151948E+13	-3.137341E-16	NaN
1202	1.000000	0.178694	7.3768e+06	-55489.1	1105.82	-29741.2	0.000000	0.000000	6.178796	-0.013314	NaN	0.000000	0.001593	0.001738	28.0818	0.025869	0.002086	12.4037	160.545	-165.36	-0.023409	0.177421	-0.982183	-0.983457	-0.013314	12.4037	-0.981378	-1.273432E+13	1.045537E-15	NaN
1202	1.000000	0.222738	7.3768e+06	-55489.1	1105.82	-29741.2	0.000000	0.000000	6.222841	-0.008189	NaN	0.000000	0.001612	0.001749	28.0829	0.095952	0.002013	47.6604	-3.962477	-164.36	-0.002741	0.221420	-0.938139	-0.939457	-0.008189	47.6604	-0.938010	-3.313534E+12	2.471521E-15	NaN
1202	1.000000	0.266725	7.3768e+06	-55489.1	1105.82	-29741.2	0.000000	0.000000	6.266828	0.000116	NaN	0.000000	0.001562	0.001737	28.0832	0.027793	0.002049	13.563	62.2675	-165.381	-0.011680	0.265439	-0.894152	-0.895439	0.000116	13.563	-0.894159	-8.474807E+11	-1.367983E-16	NaN
1202	1.000000	0.310752	7.3768e+06	-55489.1	1105.82	-29741.2	0.000000	0.000000	6.310853	-0.048820	NaN	0.000000	0.001578	0.001732	28.083	0.086080	0.001971	43.6678	-103.501	-163.585	0.016324	0.309468	-0.850125	-0.851410	-0.048820	43.6678	-0.849286	-2.094472E+11	2.330914E-13	NaN
1202	1.000000	0.354767	7.3768e+06	-55489.1	1105.82	-29741.2	0.000000	0.000000	6.354873	0.073049	NaN	0.000000	0.001562	0.001672	28.0829	0.077528	0.002014	38.488	-156.269	-164.884	-0.012055	0.353461	-0.806111	-0.807416	0.073049	38.488	-0.807534	-5.689993E+10	-1.283820E-12	NaN
1202	1.000000	0.398789	7.3768e+06	-55489.1	1105.82	-29741.2	0.000000	0.000000	6.398892	-0.010263	NaN	0.000000	0.001591	0.001709	28.0817	0.082032	0.001939	42.3061	27.1285	-165.097	-0.054984	0.397487	-0.762088	-0.763390	-0.010263	42.3061	-0.761906	-1.365309E+10	7.516789E-13	NaN
1202	1.000000	0.442812	7.3768e+06	-55489.1	1105.82	-29741.2	0.000000	0.000000	6.442914	-0.019899	NaN	0.000000	0.001514	0.001692	28.0817	0.070409	0.001950	36.1001	51.7009	-165.451	0.036550	0.441468	-0.718066	-0.719409	-0.019899	36.1001	-0.717652	-3.407612E+9	5.839701E-12	NaN
1202	1.000000	0.486824	7.3768e+06	-55489.1	1105.82	-29741.2	0.000000	0.000000	6.486927	0.013344	NaN	0.000000	0.001533	0.001777	28.0819	0.115031	0.002039	56.4019	-67.2695	-163.501	-0.076702	0.485477	-0.674054	-0.675401	0.013344	56.4019	-0.674231	-8.695451E+8	-1.534640E-11	NaN
1202	1.000000	0.530860	7.3768e+06	-55489.1	1105.82	-29741.2	0.000000	0.000000	6.530960	-0.066371	NaN	0.000000	0.001555	0.001738	28.0829	0.090380	0.001836	49.2293	121.24	-164.617	-0.003461	0.529524	-0.630017	-0.631353	-0.066371	49.2293	-0.629006	-2.086290E+8	3.181313E-10	NaN
1202	1.000000	0.574861	7.3768e+06	-55489.1	1105.82	-29741.2	0.000000	0.000000	6.574965	0.026018	NaN	0.000000	0.001553	0.001701	28.0827	0.046924	0.001956	23.9853	-117.5	-164.674	-0.022395	0.573564	-0.586016	-0.587313	0.026018	23.9853	-0.586829	-5.482111E+7	-4.746063E-10	NaN
1202	1.000000	0.618887	7.3768e+06	-55489.1	1105.82	-29741.2	0.000000	0.000000	6.618991	0.029726	NaN	0.000000	0.001574	0.001706	28.0829	0.032458	0.001973	16.4539	28.3381	-160.397	0.108620	0.617565	-0.541991	-0.543312	0.029726	16.4539	-0.543346	-1.373243E+7	-2.164655E-9	NaN
1202	1.000000	0.662884	7.3768e+06	-55489.1	1105.82	-29741.2	0.000000	0.000000	6.662988	0.028256	NaN	0.000000	0.001600	0.001727	28.0819	0.024131	0.001905	12.6655	92.4775	-165.282	-0.051748	0.661589	-0.497993	-0.499288	0.028256	12.6655	-0.499667	-3.39131e+06	-8.331961E-9	NaN
1202	1.000000	0.706925	7.3768e+06	-55489.1	1105.82	-29741.2	0.000000	0.000000	6.707027	-0.007739	NaN	0.000000	0.001539	0.001716	28.0818	0.024125	0.001915	12.595	-3.446264	-166.13	0.089609	0.705618	-0.453953	-0.455259	-0.007739	12.595	-0.453492	-764713	1.012039E-8	NaN
1202	1.000000	0.750927	7.3768e+06	-55489.1	1105.82	-29741.2	0.000000	0.000000	6.751032	0.039863	NaN	0.000000	0.001552	0.001700	28.082	0.038305	0.001983	19.3211	166.006	-166.455	0.070282	0.749623	-0.409950	-0.411254	0.039863	19.3211	-0.411497	-194845	-2.045904E-7	NaN
1202	1.000000	0.794955	7.3768e+06	-55489.1	1105.82	-29741.2	0.000000	0.000000	6.795058	0.006988	NaN	0.000000	0.001486	0.001738	28.0833	0.041507	0.001979	20.9786	170.875	-164.078	0.004729	0.793588	-0.365922	-0.367290	0.006988	20.9786	-0.366172	-43748.2	-1.597259E-7	NaN
1202	1.000000	0.838977	7.3768e+06	-55489.1	1105.82	-29741.2	0.000000	0.000000	6.839082	0.057670	NaN	0.000000	0.001657	0.001737	28.0833	0.077126	0.002076	37.1528	-143.997	-167.372	-0.016162	0.837686	-0.321901	-0.323191	0.057670	37.1528	-0.323065	-10320.8	-5.587770E-6	NaN
1202	1.000000	0.882993	7.3768e+06	-55489.1	1105.82	-29741.2	0.000000	0.000000	6.883095	-0.017942	NaN	0.000000	0.001624	0.001734	28.0832	0.126821	0.002049	61.9034	-178.037	-165.459	0.055809	0.881690	-0.277884	-0.279187	-0.017942	61.9034	-0.277667	-2176.39	8.243729E-6	NaN
1202	1.000000	0.927014	7.3768e+06	-55489.1	1105.82	-29741.2	0.000000	0.000000	6.927117	-0.006117	NaN	0.000000	0.001571	0.001702	28.0822	0.089623	0.002018	44.4157	6.417437	-163.045	-0.000802	0.925662	-0.233863	-0.235215	-0.006117	44.4157	-0.233760	-458.942	1.332913E-5	NaN
1202	1.000000	0.971006	7.3768e+06	-55489.1	1105.82	-29741.2	0.000000	0.000000	6.971110	0.036203	NaN	0.000000	0.001647	0.001687	28.0819	0.101784	0.002013	50.5705	-52.7327	-164.314	0.085341	0.969647	-0.189872	-0.191231	0.036203	50.5705	-0.190409	-91.3805	-0.000396	NaN
1202	1.000000	1.015045	7.3768e+06	-55489.1	1105.82	-29741.2	0.000000	0.000000	7.015148	0.008093	NaN	0.000000	0.001643	0.001688	28.0819	0.058797	0.001969	29.858	-178.228	-165.25	-0.020555	1.013736	-0.145832	-0.147141	0.008093	29.858	-0.146035	-15.3212	-0.000528	NaN
1202	1.000000	1.059040	7.3768e+06	-55489.1	1105.82	-29741.2	0.000000	0.000000	7.059143	0.003548	NaN	0.000000	0.001555	0.001697	28.083	0.042120	0.002002	21.0402	-29.5264	-164.628	0.049997	1.057767	-0.101837	-0.103110	0.003548	21.0402	-0.101964	-2.018724	-0.001758	NaN
1202	1.000000	1.103052	7.3768e+06	-55489.1	1105.82	-29741.2	0.000000	0.000000	7.103153	-0.051443	NaN	0.000000	0.001617	0.001673	28.0835	0.047685	0.002089	22.8229	-0.618050	-164.793	-0.115530	1.101758	-0.057825	-0.059120	-0.051443	22.8229	-0.056135	-0.139083	0.369872	NaN
1202	1.000000	1.147073	7.3768e+06	-55489.1	1105.82	-29741.2	0.000000	0.000000	7.147175	-0.023462	NaN	0.000000	0.001588	0.001714	28.083	0.094238	0.002090	45.1007	27.8739	-166.155	-0.055700	1.145805	-0.013805	-0.015072	-0.023462	45.1007	-0.013414	-0.008342	2.812454	NaN
1202	2.000000	1.174604	7.3768e+06	-55489.1	1105.82	-29741.2	0.000000	0.000000	7.175443	17.896	NaN	0.000000	0.001563	0.001658	28.082	16.2059	0.001848	8768.34	9.691378	-177.097	17.9208	1.174280	0.013727	0.013403	17.896	8768.34	0.012196	0.011725	1526.26	73982.1
1202	2.000000	1.185597	7.3768e+06	-55489.1	1105.82	-29741.2	0.000000	0.000000	7.187334	39.7305	NaN	0.000000	0.001598	0.001672	28.0817	26.0265	0.001661	15666.1	7.196957	179.644	40.8289	1.185223	0.024719	0.024346	39.7305	15666.1	0.022817	0.027164	1462.61	86843.5
1202	2.000000	1.196524	7.3768e+06	-55489.1	1105.82	-29741.2	0.000000	0.000000	7.199475	69.239	NaN	0.000000	0.001580	0.001677	28.0834	36.8618	0.001696	21735	3.779683	179.619	67.1184	1.196183	0.035647	0.035305	69.239	21735	0.033258	0.047767	1449.53	90859.3
1202	2.000000	1.207517	7.3768e+06	-55489.1	1105.82	-29741.2	0.000000	0.000000	7.212020	106.956	NaN	0.000000	0.001579	0.001618	28.0832	46.8212	0.001744	26846.2	0.473376	-178.94	106.966	1.207329	0.046640	0.046452	106.956	26846.2	0.043652	0.073805	1449.16	90284.3
1202	2.000000	1.218479	7.3768e+06	-55489.1	1105.82	-29741.2	0.000000	0.000000	7.225204	160.982	NaN	0.000000	0.001656	0.001690	28.0831	57.8784	0.001761	32874	2.925959	178.219	159.281	1.218149	0.057601	0.057272	160.982	32874	0.053929	0.104942	1534	92715
1202	2.000000	1.229469	7.3768e+06	-55489.1	1105.82	-29741.2	0.000000	0.000000	7.238540	217.996	NaN	0.000000	0.001653	0.001666	28.0831	69.2503	0.001787	38745.7	5.767113	174.123	215.455	1.229027	0.068592	0.068150	217.996	38745.7	0.064372	0.141951	1535.71	93956.5
1202	2.000000	1.240460	7.3768e+06	-55489.1	1105.82	-29741.2	0.000000	0.000000	7.252171	282.166	NaN	0.000000	0.001613	0.001669	28.0815	79.2896	0.001814	43707.1	6.956133	172.467	280.352	1.240038	0.079583	0.079161	282.166	43707.1	0.074741	0.183907	1534.28	93116.2
1202	2.000000	1.251469	7.3768e+06	-55489.1	1105.82	-29741.2	0.000000	0.000000	7.266348	359.183	NaN	0.000000	0.001604	0.001669	28.0816	89.7021	0.001807	49644.8	8.061710	169.08	358.12	1.251120	0.090592	0.090243	359.183	49644.8	0.085166	0.231192	1553.61	94332.3
1202	2.000000	1.262498	7.3768e+06	-55489.1	1105.82	-29741.2	0.000000	0.000000	7.280736	440.851	NaN	0.000000	0.001660	0.001688	28.0816	99.4049	0.001749	56841.8	1.915055	174.342	443.476	1.262117	0.101621	0.101239	440.851	56841.8	0.095804	0.284622	1548.9	97343.3
1202	2.000000	1.267368	7.3768e+06	-55489.1	1105.82	-29741.2	0.000000	0.000000	7.287214	479.944	NaN	0.000000	0.001690	0.001653	28.0817	105.987	0.001788	59285.9	6.071359	169.873	476.813	1.267062	0.106490	0.106185	479.944	59285.9	0.100419	0.309408	1551.17	97377.6