File: remote_trans/data/nanoindenter/0828-1/data/Data_2025-08-06,11h17m57s/2025-07-22_16-23-58_1_654.txt
2025-07-22, 16:23:58, 1
Index	Phase	Displacement	Time	Pos X	Pos Y	Pos Z	Rot A	Rot B	Piezo Z	Force A	Force B	Gripper	Voltage A	Voltage B	Temperature	Amplitude force	Amplitude pos	Stiffness	Phase shift	Phase excitation	Force A raw	Displacement raw	HMax	HMax raw	Real Force	Real Stiffness	Contact Depth	Area	Hardness	Reduced Mod.
[#]	[#]	[um]	[s]	[um]	[um]	[um]	[m°]	[m°]	[um]	[uN]	[uN]	[V]	[V]	[V]	[°C]	[uN]	[um]	[N/m]	[°]	[°]	[uN]	[um]	[um]	[um]	[uN]	[N/m]	[um]	[um^2]	[MPa]	[MPa]
654	1.000000	0.002436	7.37145e+06	-44389.1	1005.82	-29776.1	0.000000	0.000000	6.002825	-0.091074	NaN	0.000000	0.001613	0.001662	28.0825	0.066178	0.000908	72.8623	-91.2706	-164.409	-0.092971	0.001205	-1.034517	-1.035748	-0.091074	72.8623	-1.033579	-6.421296E+13	1.418305E-15	NaN
654	1.000000	0.042351	7.37145e+06	-44389.1	1005.82	-29776.1	0.000000	0.000000	6.042746	0.063071	NaN	0.000000	0.001623	0.001628	28.0815	0.026644	0.002110	12.6289	10.2553	-164.555	-0.004436	0.041053	-0.994602	-0.995901	0.063071	12.6289	-0.998348	-2.155387E+13	-2.926199E-15	NaN
654	1.000000	0.082366	7.37145e+06	-44389.1	1005.82	-29776.1	0.000000	0.000000	6.082757	-0.049254	NaN	0.000000	0.001616	0.001637	28.0815	0.132723	0.001965	67.5501	60.3169	-164.509	-0.027136	0.081055	-0.954587	-0.955898	-0.049254	67.5501	-0.954041	-5.451503E+12	9.034886E-15	NaN
654	1.000000	0.122386	7.37145e+06	-44389.1	1005.82	-29776.1	0.000000	0.000000	6.122778	-0.011913	NaN	0.000000	0.001628	0.001665	28.0816	0.077322	0.001992	38.8257	37.6974	-164.698	0.088117	0.121076	-0.914567	-0.915877	-0.011913	38.8257	-0.914337	-1.587579E+12	7.503798E-15	NaN
654	1.000000	0.162391	7.37145e+06	-44389.1	1005.82	-29776.1	0.000000	0.000000	6.162782	-0.052590	NaN	0.000000	0.001582	0.001659	28.0813	0.074759	0.002035	36.7285	36.2153	-168.376	0.004198	0.161042	-0.874562	-0.875911	-0.052590	36.7285	-0.873488	-4.452745E+11	1.181061E-13	NaN
654	1.000000	0.202414	7.37145e+06	-44389.1	1005.82	-29776.1	0.000000	0.000000	6.202806	-0.010512	NaN	0.000000	0.001615	0.001715	28.0823	0.064040	0.001989	32.1897	-161.589	-165.653	-0.061476	0.201110	-0.834540	-0.835843	-0.010512	32.1897	-0.834295	-1.312162E+11	8.011440E-14	NaN
654	1.000000	0.242443	7.37145e+06	-44389.1	1005.82	-29776.1	0.000000	0.000000	6.242834	-0.020225	NaN	0.000000	0.001626	0.001709	28.0822	0.011417	0.001947	5.862674	82.3853	-163.341	-0.009987	0.241127	-0.794511	-0.795826	-0.020225	5.862674	-0.791923	-3.493034E+10	5.790212E-13	NaN
654	1.000000	0.282455	7.37145e+06	-44389.1	1005.82	-29776.1	0.000000	0.000000	6.282851	0.070401	NaN	0.000000	0.001592	0.001730	28.0822	0.078710	0.002120	37.1347	28.4984	-163.134	0.055504	0.281189	-0.754498	-0.755765	0.070401	37.1347	-0.755920	-1.131843E+10	-6.220030E-12	NaN
654	1.000000	0.322443	7.37145e+06	-44389.1	1005.82	-29776.1	0.000000	0.000000	6.322834	-0.028280	NaN	0.000000	0.001630	0.001722	28.0809	0.043922	0.002057	21.3535	0.307239	-165.347	0.028655	0.321141	-0.714510	-0.715812	-0.028280	21.3535	-0.713517	-2.992546E+9	9.450234E-12	NaN
654	1.000000	0.362512	7.37145e+06	-44389.1	1005.82	-29776.1	0.000000	0.000000	6.362904	-0.007076	NaN	0.000000	0.001572	0.001723	28.0812	0.015907	0.001965	8.096435	-72.5572	-165.868	-0.033531	0.361187	-0.674441	-0.675766	-0.007076	8.096435	-0.673786	-8.574308E+8	8.253009E-12	NaN
654	1.000000	0.402507	7.37145e+06	-44389.1	1005.82	-29776.1	0.000000	0.000000	6.402899	-0.012427	NaN	0.000000	0.001584	0.001723	28.0812	0.020381	0.002171	9.388780	-55.5842	-165.25	-0.011334	0.401152	-0.634447	-0.635801	-0.012427	9.388780	-0.633454	-2.401312E+8	5.174975E-11	NaN
654	1.000000	0.442516	7.37145e+06	-44389.1	1005.82	-29776.1	0.000000	0.000000	6.442906	-0.054958	NaN	0.000000	0.001626	0.001694	28.0823	0.024486	0.002022	12.1081	130.665	-166.072	-0.050551	0.441230	-0.594438	-0.595723	-0.054958	12.1081	-0.591033	-6.264857E+7	8.772467E-10	NaN
654	1.000000	0.482556	7.37145e+06	-44389.1	1005.82	-29776.1	0.000000	0.000000	6.482946	-0.067810	NaN	0.000000	0.001661	0.001714	28.0828	0.055170	0.001948	28.3247	92.5097	-165.193	-0.055377	0.481230	-0.554397	-0.555723	-0.067810	28.3247	-0.552601	-1.844937E+7	3.675479E-9	NaN
654	1.000000	0.522556	7.37145e+06	-44389.1	1005.82	-29776.1	0.000000	0.000000	6.522951	0.054259	NaN	0.000000	0.001669	0.001749	28.0828	0.069924	0.002000	34.9699	26.9692	-163.11	0.140691	0.521263	-0.514397	-0.515690	0.054259	34.9699	-0.515561	-5.64724e+06	-9.608064E-9	NaN
654	1.000000	0.562539	7.37145e+06	-44389.1	1005.82	-29776.1	0.000000	0.000000	6.562934	0.058533	NaN	0.000000	0.001582	0.001764	28.0826	0.031655	0.001956	16.1832	108.956	-163.698	-0.018817	0.561257	-0.474414	-0.475696	0.058533	16.1832	-0.477127	-1.64171e+06	-3.565355E-8	NaN
654	1.000000	0.602584	7.37145e+06	-44389.1	1005.82	-29776.1	0.000000	0.000000	6.602977	-0.002245	NaN	0.000000	0.001613	0.001693	28.0813	0.094904	0.001982	47.8946	-66.7728	-163.187	-0.039263	0.601225	-0.434369	-0.435728	-0.002245	47.8946	-0.434334	-410526	5.468020E-9	NaN
654	1.000000	0.642617	7.37145e+06	-44389.1	1005.82	-29776.1	0.000000	0.000000	6.643008	-0.051553	NaN	0.000000	0.001575	0.001705	28.0817	0.020323	0.001953	10.4065	149.157	-165.275	-0.070900	0.641301	-0.394336	-0.395652	-0.051553	10.4065	-0.390621	-98185.1	5.250571E-7	NaN
654	1.000000	0.682594	7.37145e+06	-44389.1	1005.82	-29776.1	0.000000	0.000000	6.682986	-0.025024	NaN	0.000000	0.001625	0.001721	28.0814	0.061066	0.001973	30.9532	-174.15	-165.353	0.007067	0.681372	-0.354359	-0.355581	-0.025024	30.9532	-0.353752	-28935	8.648262E-7	NaN
654	1.000000	0.722638	7.37145e+06	-44389.1	1005.82	-29776.1	0.000000	0.000000	6.723031	0.008277	NaN	0.000000	0.001625	0.001729	28.0829	0.051892	0.002017	25.7214	124.305	-163.746	-0.010322	0.721310	-0.314315	-0.315643	0.008277	25.7214	-0.314556	-7733.94	-1.070256E-6	NaN
654	1.000000	0.762673	7.37145e+06	-44389.1	1005.82	-29776.1	0.000000	0.000000	6.763063	-0.067189	NaN	0.000000	0.001617	0.001734	28.0828	0.067070	0.002053	32.6691	32.6077	-165.146	-0.029411	0.761308	-0.274280	-0.275645	-0.067189	32.6691	-0.272737	-1832.77	3.665986E-5	NaN
654	1.000000	0.802653	7.37145e+06	-44389.1	1005.82	-29776.1	0.000000	0.000000	6.803045	-0.001756	NaN	0.000000	0.001636	0.001725	28.0829	0.111188	0.002016	55.1468	92.8482	-167.314	-0.002289	0.801319	-0.234301	-0.235634	-0.001756	55.1468	-0.234277	-467.613	3.754405E-6	NaN
654	1.000000	0.842689	7.37145e+06	-44389.1	1005.82	-29776.1	0.000000	0.000000	6.843078	-0.072561	NaN	0.000000	0.001635	0.001743	28.0829	0.062057	0.002018	30.7472	-76.5122	-163.833	0.007408	0.841370	-0.194265	-0.195583	-0.072561	30.7472	-0.192495	-98.9951	0.000733	NaN
654	1.000000	0.882748	7.37145e+06	-44389.1	1005.82	-29776.1	0.000000	0.000000	6.883140	-0.000776	NaN	0.000000	0.001677	0.001714	28.0816	0.054510	0.002092	26.0504	1.171598	-167.13	-0.031782	0.881376	-0.154206	-0.155577	-0.000776	26.0504	-0.154183	-21.5709	3.595497E-5	NaN
654	1.000000	0.922727	7.37145e+06	-44389.1	1005.82	-29776.1	0.000000	0.000000	6.923121	0.041358	NaN	0.000000	0.001668	0.001743	28.0815	0.041238	0.001861	22.163	159.601	-167.897	0.051332	0.921369	-0.114227	-0.115584	0.041358	22.163	-0.115626	-3.935453	-0.010509	NaN
654	1.000000	0.962705	7.37145e+06	-44389.1	1005.82	-29776.1	0.000000	0.000000	6.963095	-0.073770	NaN	0.000000	0.001609	0.001821	28.0815	0.026877	0.001930	13.9242	111.559	-163.198	-0.153697	0.961421	-0.074248	-0.075532	-0.073770	13.9242	-0.070274	-0.346923	0.212639	NaN
654	1.000000	1.002755	7.37145e+06	-44389.1	1005.82	-29776.1	0.000000	0.000000	7.003146	-0.061696	NaN	0.000000	0.001612	0.001807	28.0826	0.094508	0.002140	44.1546	174.57	-163.487	-0.045246	1.001424	-0.034198	-0.035529	-0.061696	44.1546	-0.033150	-0.028279	2.181715	NaN
654	1.000000	1.042665	7.37145e+06	-44389.1	1005.82	-29776.1	0.000000	0.000000	7.043372	7.648397	NaN	0.000000	0.001671	0.001753	28.0827	7.507083	0.001672	4490.88	11.1997	-170.365	6.220007	1.041401	0.005712	0.004448	7.648397	4490.88	0.004434	0.003623	2111.01	68165.6
654	2.000000	1.053262	7.37145e+06	-44389.1	1005.82	-29776.1	0.000000	0.000000	7.054685	25.0564	NaN	0.000000	0.001666	0.001749	28.0828	19.4161	0.001680	11557.4	4.361325	-174.127	24.8408	1.053021	0.016309	0.016068	25.0564	11557.4	0.014683	0.014865	1685.62	86607.3
654	2.000000	1.063232	7.37145e+06	-44389.1	1005.82	-29776.1	0.000000	0.000000	7.066075	59.6165	NaN	0.000000	0.001720	0.001749	28.0828	30.6319	0.001736	17642.2	0.670002	-175.799	57.8402	1.062944	0.026279	0.025991	59.6165	17642.2	0.023744	0.028771	2072.14	95028.3
654	2.000000	1.073190	7.37145e+06	-44389.1	1005.82	-29776.1	0.000000	0.000000	7.077469	94.5251	NaN	0.000000	0.001676	0.001681	28.0819	39.4873	0.001745	22633.2	-0.550615	-176.162	91.9951	1.072932	0.036237	0.035979	94.5251	22633.2	0.033105	0.047425	1993.13	94954.1
654	2.000000	1.083170	7.37145e+06	-44389.1	1005.82	-29776.1	0.000000	0.000000	7.089471	143.729	NaN	0.000000	0.001617	0.001710	28.0818	48.6858	0.001840	26460	0.194396	-177.776	139.279	1.082891	0.046217	0.045937	143.729	26460	0.042143	0.069683	2062.6	91579.6
654	2.000000	1.093199	7.37145e+06	-44389.1	1005.82	-29776.1	0.000000	0.000000	7.101602	194.888	NaN	0.000000	0.001624	0.001692	28.0816	58.2986	0.001709	34113.2	2.990362	176.929	193.316	1.092974	0.056246	0.056020	194.888	34113.2	0.051961	0.098570	1977.15	99271
654	2.000000	1.103144	7.37145e+06	-44389.1	1005.82	-29776.1	0.000000	0.000000	7.113902	252.177	NaN	0.000000	0.001608	0.001700	28.0829	67.1945	0.001828	36768.4	1.187380	178.664	248.325	1.102896	0.066190	0.065942	252.177	36768.4	0.061047	0.129588	1945.99	93318.1
654	2.000000	1.113149	7.37145e+06	-44389.1	1005.82	-29776.1	0.000000	0.000000	7.126424	313.403	NaN	0.000000	0.001673	0.001750	28.0835	76.4649	0.001731	44181.1	2.855433	175.398	311.328	1.112851	0.076196	0.075898	313.403	44181.1	0.070876	0.167669	1869.18	98579
654	2.000000	1.123312	7.37145e+06	-44389.1	1005.82	-29776.1	0.000000	0.000000	7.139391	381.624	NaN	0.000000	0.001689	0.001689	28.0833	86.3689	0.001710	50521.1	1.867769	175.647	388.297	1.122894	0.086359	0.085940	381.624	50521.1	0.080693	0.210287	1814.78	100656
654	2.000000	1.133114	7.37145e+06	-44389.1	1005.82	-29776.1	0.000000	0.000000	7.152859	470.805	NaN	0.000000	0.001711	0.001691	28.0817	94.0585	0.001694	55512.7	3.022651	173.836	468.737	1.132784	0.096161	0.095831	470.805	55512.7	0.089800	0.253833	1854.79	100668
654	2.000000	1.142072	7.37145e+06	-44389.1	1005.82	-29776.1	0.000000	0.000000	7.164863	544.906	NaN	0.000000	0.001587	0.001672	28.0818	103.885	0.001814	57257.8	9.365098	167.268	541.561	1.141765	0.105119	0.104812	544.906	57257.8	0.097981	0.296194	1839.69	96121.2