File: remote_trans/data/nanoindenter/0828-1/data/Data_2025-08-06,11h17m57s/2025-07-22_16-23-58_1_14.txt
2025-07-22, 16:23:58, 1
Index	Phase	Displacement	Time	Pos X	Pos Y	Pos Z	Rot A	Rot B	Piezo Z	Force A	Force B	Gripper	Voltage A	Voltage B	Temperature	Amplitude force	Amplitude pos	Stiffness	Phase shift	Phase excitation	Force A raw	Displacement raw	HMax	HMax raw	Real Force	Real Stiffness	Contact Depth	Area	Hardness	Reduced Mod.
[#]	[#]	[um]	[s]	[um]	[um]	[um]	[m°]	[m°]	[um]	[uN]	[uN]	[V]	[V]	[V]	[°C]	[uN]	[um]	[N/m]	[°]	[°]	[uN]	[um]	[um]	[um]	[uN]	[N/m]	[um]	[um^2]	[MPa]	[MPa]
14	1.000000	0.001902	7.36518e+06	-39339.1	955.818	-29794.9	0.000000	0.000000	6.002739	-0.052748	NaN	0.000000	0.001607	0.001827	28.1311	0.086500	0.000951	90.9793	-150.105	178.455	-0.020947	0.000687	-1.008575	-1.009790	-0.052748	90.9793	-1.008140	-2.919797E+13	1.806554E-15	NaN
14	1.000000	0.039877	7.36518e+06	-39339.1	955.816	-29794.9	0.000000	0.000000	6.040714	-0.039639	NaN	0.000000	0.001487	0.001812	28.0917	0.109614	0.001989	55.1046	62.8682	-2.026538	-0.033698	0.038545	-0.970601	-0.971933	-0.039639	55.1046	-0.970061	-8.963736E+12	4.422158E-15	NaN
14	1.000000	0.077853	7.36518e+06	-39339.1	955.817	-29794.9	0.000000	0.000000	6.078694	0.056381	NaN	0.000000	0.001553	0.001824	28.0818	0.040536	0.002021	20.0537	80.2957	177.861	0.053890	0.076555	-0.932624	-0.933923	0.056381	20.0537	-0.934733	-2.992748E+12	-1.883914E-14	NaN
14	1.000000	0.115919	7.36518e+06	-39339.1	955.818	-29794.9	0.000000	0.000000	6.116757	-0.019764	NaN	0.000000	0.001551	0.001789	28.1092	0.066984	0.001963	34.1163	162.745	-0.941262	-0.016200	0.114544	-0.894558	-0.895933	-0.019764	34.1163	-0.894124	-8.465527E+11	2.334600E-14	NaN
14	1.000000	0.153901	7.36518e+06	-39339.1	955.818	-29794.9	0.000000	0.000000	6.154739	-0.026955	NaN	0.000000	0.001519	0.001816	28.1307	0.041872	0.001967	21.2911	-146.909	178.382	-0.072102	0.152599	-0.856576	-0.857879	-0.026955	21.2911	-0.855627	-2.552250E+11	1.056114E-13	NaN
14	1.000000	0.191908	7.36518e+06	-39339.1	955.818	-29794.9	0.000000	0.000000	6.192747	-0.002203	NaN	0.000000	0.001529	0.001780	28.0904	0.051385	0.001809	28.4092	67.5063	-7.963317	0.096272	0.190554	-0.818569	-0.819923	-0.002203	28.4092	-0.818511	-8.017158E+10	2.747856E-14	NaN
14	1.000000	0.229925	7.36518e+06	-39339.1	955.818	-29794.9	0.000000	0.000000	6.230764	-0.004657	NaN	0.000000	0.001500	0.001807	28.0796	0.034280	0.001968	17.4223	76.5005	175.206	-0.070095	0.228569	-0.780553	-0.781908	-0.004657	17.4223	-0.780352	-2.432291E+10	1.914760E-13	NaN
14	1.000000	0.267924	7.36518e+06	-39339.1	955.817	-29794.9	0.000000	0.000000	6.268765	0.053055	NaN	0.000000	0.001490	0.001798	28.1083	0.040035	0.002047	19.556	-110.021	-2.866038	0.036259	0.266568	-0.742554	-0.743910	0.053055	19.556	-0.744588	-7.934938E+9	-6.686261E-12	NaN
14	1.000000	0.305980	7.36518e+06	-39339.1	955.818	-29795	0.000000	0.000000	6.306817	-0.041059	NaN	0.000000	0.001512	0.001860	28.1297	0.112441	0.002028	55.4546	76.2993	173.804	0.006171	0.304668	-0.704498	-0.705809	-0.041059	55.4546	-0.703942	-2.214937E+9	1.853736E-11	NaN
14	1.000000	0.343985	7.36518e+06	-39339.1	955.818	-29795	0.000000	0.000000	6.344823	-0.016574	NaN	0.000000	0.001534	0.001861	28.0903	0.109145	0.002016	54.1402	-152.261	-2.106186	0.066587	0.342576	-0.666493	-0.667901	-0.016574	54.1402	-0.666263	-6.764514E+8	2.450114E-11	NaN
14	1.000000	0.381996	7.36518e+06	-39339.1	955.818	-29795	0.000000	0.000000	6.382832	-0.067164	NaN	0.000000	0.001505	0.001835	28.0817	0.212969	0.001945	109.473	68.9949	176.427	0.038927	0.380705	-0.628482	-0.629773	-0.067164	109.473	-0.628021	-2.022324E+8	3.321140E-10	NaN
14	1.000000	0.420035	7.36518e+06	-39339.1	955.818	-29795	0.000000	0.000000	6.420874	0.005073	NaN	0.000000	0.001546	0.001866	28.109	0.096440	0.001950	49.4565	58.0689	-1.731058	-0.008517	0.418678	-0.590442	-0.591800	0.005073	49.4565	-0.590519	-6.163457E+7	-8.230681E-11	NaN
14	1.000000	0.458011	7.36518e+06	-39339.1	955.819	-29795	0.000000	0.000000	6.458849	-0.034041	NaN	0.000000	0.001540	0.001876	28.1308	0.096180	0.001870	51.4394	89.621	-179.158	-0.045066	0.456717	-0.552466	-0.553761	-0.034041	51.4394	-0.551970	-1.808167E+7	1.882630E-9	NaN
14	1.000000	0.496050	7.36518e+06	-39339.1	955.818	-29795	0.000000	0.000000	6.496888	-0.006454	NaN	0.000000	0.001575	0.001822	28.0889	0.082783	0.002010	41.1767	158.673	-3.866456	0.086914	0.494682	-0.514428	-0.515795	-0.006454	41.1767	-0.514310	-5.4254e+06	1.189561E-9	NaN
14	1.000000	0.534045	7.36518e+06	-39339.1	955.818	-29795	0.000000	0.000000	6.534884	0.000164	NaN	0.000000	0.001550	0.001843	28.0824	0.076216	0.001937	39.3565	52.3149	178.252	0.022824	0.532758	-0.476432	-0.477720	0.000164	39.3565	-0.476436	-1.60551e+06	-1.022846E-10	NaN
14	1.000000	0.572082	7.36518e+06	-39339.1	955.818	-29795	0.000000	0.000000	6.572918	-0.059362	NaN	0.000000	0.001582	0.001830	28.1087	0.055628	0.001949	28.5412	22.9518	-2.409768	0.054149	0.570781	-0.438396	-0.439697	-0.059362	28.5412	-0.436836	-445340	1.332961E-7	NaN
14	1.000000	0.610076	7.36518e+06	-39339.1	955.818	-29795	0.000000	0.000000	6.610917	0.054541	NaN	0.000000	0.001536	0.001818	28.1306	0.059557	0.001898	31.3827	21.3318	-179.724	-0.002095	0.608761	-0.400402	-0.401716	0.054541	31.3827	-0.401705	-141354	-3.858501E-7	NaN
14	1.000000	0.648109	7.36518e+06	-39339.1	955.818	-29795	0.000000	0.000000	6.648948	0.006495	NaN	0.000000	0.001558	0.001788	28.0891	0.026930	0.002105	12.792	-179.768	-3.975081	-0.031950	0.646740	-0.362369	-0.363737	0.006495	12.792	-0.362750	-39045.6	-1.663413E-7	NaN
14	1.000000	0.686114	7.36518e+06	-39339.1	955.818	-29795	0.000000	0.000000	6.686951	-0.041476	NaN	0.000000	0.001584	0.001820	28.0828	0.049014	0.001923	25.4837	74.1185	174.973	-0.028919	0.684808	-0.324364	-0.325669	-0.041476	25.4837	-0.323143	-10348.1	4.008080E-6	NaN
14	1.000000	0.724118	7.36518e+06	-39339.1	955.818	-29795	0.000000	0.000000	6.724958	0.034333	NaN	0.000000	0.001532	0.001796	28.1096	0.106817	0.001969	54.2379	112.215	-4.224393	0.026813	0.722777	-0.286360	-0.287701	0.034333	54.2379	-0.286835	-2991.09	-1.147858E-5	NaN
14	1.000000	0.762156	7.36518e+06	-39339.1	955.819	-29795	0.000000	0.000000	6.762994	-0.010565	NaN	0.000000	0.001618	0.001788	28.129	0.108828	0.001996	54.5185	64.489	174.146	-0.010631	0.760809	-0.248322	-0.249669	-0.010565	54.5185	-0.248176	-770.437	1.371309E-5	NaN
14	1.000000	0.800157	7.36518e+06	-39339.1	955.819	-29795	0.000000	0.000000	6.800997	0.045083	NaN	0.000000	0.001570	0.001769	28.0882	0.031915	0.001969	16.2116	-20.0391	-1.898804	0.105666	0.798830	-0.210321	-0.211648	0.045083	16.2116	-0.212407	-209.762	-0.000215	NaN
14	1.000000	0.838200	7.36518e+06	-39339.1	955.817	-29795	0.000000	0.000000	6.839038	-0.024414	NaN	0.000000	0.001557	0.001806	28.0817	0.052237	0.001977	26.4171	145.201	175.372	-0.107055	0.836838	-0.172278	-0.173639	-0.024414	26.4171	-0.171584	-43.7604	0.000558	NaN
14	1.000000	0.876194	7.36518e+06	-39339.1	955.818	-29795	0.000000	0.000000	6.877031	-0.038164	NaN	0.000000	0.001516	0.001825	28.1116	0.150424	0.002015	74.648	-166.941	-4.947653	0.004330	0.874894	-0.134283	-0.135584	-0.038164	74.648	-0.133900	-9.062524	0.004211	NaN
14	1.000000	0.914210	7.36518e+06	-39339.1	955.819	-29795	0.000000	0.000000	6.915047	-0.046921	NaN	0.000000	0.001553	0.001803	28.1299	0.032801	0.001932	16.9796	-102.9	176.655	0.019310	0.912966	-0.096268	-0.097511	-0.046921	16.9796	-0.094195	-1.352190	0.034700	NaN
14	1.000000	0.952190	7.36518e+06	-39339.1	955.817	-29795	0.000000	0.000000	6.953033	0.088985	NaN	0.000000	0.001526	0.001866	28.0891	0.065481	0.001938	33.7877	100.186	-3.783529	-0.001252	0.950888	-0.058287	-0.059590	0.088985	33.7877	-0.060262	-0.183238	-0.485626	NaN
14	1.000000	0.990242	7.36518e+06	-39339.1	955.818	-29795	0.000000	0.000000	6.991079	-0.036015	NaN	0.000000	0.001560	0.001846	28.0825	0.041621	0.002029	20.5095	-67.0014	178.089	-0.038980	0.988982	-0.020235	-0.021496	-0.036015	20.5095	-0.018918	-0.011788	3.055367	NaN
14	2.000000	1.021293	7.36518e+06	-39339.1	955.819	-29795	0.000000	0.000000	7.022683	13.4312	NaN	0.000000	0.001548	0.001803	28.1114	12.2274	0.001679	7281.4	7.694060	-13.2468	12.3792	1.021063	0.010815	0.010586	13.4312	7281.4	0.009432	0.008557	1569.67	71917.5
14	2.000000	1.030804	7.36518e+06	-39339.1	955.819	-29795	0.000000	0.000000	7.033062	34.5491	NaN	0.000000	0.001576	0.001856	28.1277	22.2622	0.001702	13079.1	4.258740	166.677	34.6765	1.030339	0.020326	0.019861	34.5491	13079.1	0.018345	0.020008	1726.77	84479.4
14	2.000000	1.040181	7.36518e+06	-39339.1	955.819	-29795	0.000000	0.000000	7.043503	60.4364	NaN	0.000000	0.001604	0.001843	28.0874	30.6757	0.001653	18556	0.568404	-15.5643	56.5317	1.039864	0.029703	0.029386	60.4364	18556	0.027260	0.035256	1714.2	90289.7
14	2.000000	1.049697	7.36518e+06	-39339.1	955.819	-29795	0.000000	0.000000	7.054322	92.1564	NaN	0.000000	0.001593	0.001828	28.082	40.5526	0.001747	23218.9	3.390835	160.852	90.1898	1.049448	0.039219	0.038970	92.1564	23218.9	0.036242	0.054678	1685.43	90720.8
14	2.000000	1.059174	7.36518e+06	-39339.1	955.819	-29795	0.000000	0.000000	7.065671	137.694	NaN	0.000000	0.001569	0.001828	28.115	51.028	0.001906	26774.5	5.229307	-21.377	134.36	1.058900	0.048697	0.048422	137.694	26774.5	0.044840	0.077132	1785.16	88079.9
14	2.000000	1.068598	7.36518e+06	-39339.1	955.818	-29795	0.000000	0.000000	7.077262	190.417	NaN	0.000000	0.001541	0.001842	28.1285	60.3016	0.001740	34661.7	6.357869	154.834	185.567	1.068319	0.058120	0.057841	190.417	34661.7	0.054000	0.105178	1810.43	97647.5
14	2.000000	1.078081	7.36518e+06	-39339.1	955.819	-29795	0.000000	0.000000	7.089220	250.657	NaN	0.000000	0.001624	0.001885	28.0893	68.8871	0.001749	39385.8	4.321457	-24.0824	245.065	1.077811	0.067603	0.067334	250.657	39385.8	0.062830	0.136152	1841.01	97521.6
14	2.000000	1.087716	7.36518e+06	-39339.1	955.819	-29795	0.000000	0.000000	7.101307	310.315	NaN	0.000000	0.001625	0.001840	28.0805	80.8152	0.001815	44528	6.015926	153.153	310.522	1.087375	0.077239	0.076898	310.315	44528	0.072012	0.172368	1800.31	97989.2
14	2.000000	1.097124	7.36518e+06	-39339.1	955.818	-29795	0.000000	0.000000	7.113534	378.923	NaN	0.000000	0.001555	0.001797	28.1147	87.7525	0.001839	47727.3	8.770465	-29.3201	373.226	1.096808	0.086647	0.086331	378.923	47727.3	0.080692	0.210282	1801.97	95090.8
14	2.000000	1.106595	7.36518e+06	-39339.1	955.82	-29795	0.000000	0.000000	7.126230	457.414	NaN	0.000000	0.001580	0.001812	28.126	95.745	0.001817	52701.2	6.616993	151.222	453.123	1.106251	0.096118	0.095773	457.414	52701.2	0.089608	0.252873	1808.87	95750.8
14	2.000000	1.116093	7.36518e+06	-39339.1	955.82	-29795	0.000000	0.000000	7.138999	537.015	NaN	0.000000	0.001581	0.001797	28.0884	104.384	0.001693	61652.9	8.452887	-30.5748	533.508	1.115635	0.105615	0.105157	537.015	61652.9	0.099083	0.302133	1777.42	102477
14	2.000000	1.117643	7.36518e+06	-39339.1	955.818	-29795	0.000000	0.000000	7.140883	545.121	NaN	0.000000	0.001551	0.001785	28.0842	108.128	0.001769	61118.6	5.907732	151.113	544.569	1.117297	0.107166	0.106819	545.121	61118.6	0.100477	0.309724	1760.02	100337