File: remote_trans/data/nanoindenter/0828-1/data/Data_2025-08-06,11h17m57s/2025-07-22_16-23-58_1_1018.txt
2025-07-22, 16:23:58, 1
Index	Phase	Displacement	Time	Pos X	Pos Y	Pos Z	Rot A	Rot B	Piezo Z	Force A	Force B	Gripper	Voltage A	Voltage B	Temperature	Amplitude force	Amplitude pos	Stiffness	Phase shift	Phase excitation	Force A raw	Displacement raw	HMax	HMax raw	Real Force	Real Stiffness	Contact Depth	Area	Hardness	Reduced Mod.
[#]	[#]	[um]	[s]	[um]	[um]	[um]	[m°]	[m°]	[um]	[uN]	[uN]	[V]	[V]	[V]	[°C]	[uN]	[um]	[N/m]	[°]	[°]	[uN]	[um]	[um]	[um]	[uN]	[N/m]	[um]	[um^2]	[MPa]	[MPa]
1018	1.000000	0.002673	7.375e+06	-51039.1	1055.82	-29753.4	0.000000	0.000000	6.002799	0.020538	NaN	0.000000	0.001595	0.001641	28.085	0.077475	0.000920	84.2403	154.501	-174.485	0.061912	0.001452	-1.228024	-1.229245	0.020538	84.2403	-1.228206	-2.620215E+16	-7.838406E-19	NaN
1018	1.000000	0.048605	7.375e+06	-51039.1	1055.82	-29753.4	0.000000	0.000000	6.048729	-0.040287	NaN	0.000000	0.001564	0.001625	28.0848	0.142170	0.001864	76.2677	25.8994	12.232	-0.023585	0.047258	-1.182092	-1.183439	-0.040287	76.2677	-1.181695	-6.245743E+15	6.450314E-18	NaN
1018	1.000000	0.094655	7.37501e+06	-51039.1	1055.82	-29753.4	0.000000	0.000000	6.094777	-0.061065	NaN	0.000000	0.001573	0.001706	28.0834	0.075997	0.002011	37.7911	-110.838	-164.116	-0.066533	0.093349	-1.136042	-1.137348	-0.061065	37.7911	-1.134830	-1.470306E+15	4.153234E-17	NaN
1018	1.000000	0.140687	7.37501e+06	-51039.1	1055.82	-29753.5	0.000000	0.000000	6.140809	-0.072657	NaN	0.000000	0.001589	0.001693	28.0839	0.074820	0.002188	34.2	173.188	18.203	0.028324	0.139311	-1.090010	-1.091386	-0.072657	34.2	-1.088417	-3.503920E+14	2.073585E-16	NaN
1018	1.000000	0.186668	7.37501e+06	-51039.1	1055.82	-29753.5	0.000000	0.000000	6.186793	-0.000887	NaN	0.000000	0.001560	0.001615	28.0833	0.040901	0.002123	19.2642	-96.7604	-165.043	-0.078714	0.185376	-1.044029	-1.045321	-0.000887	19.2642	-1.043994	-8.864953E+13	1.000258E-17	NaN
1018	1.000000	0.232697	7.37501e+06	-51039.1	1055.82	-29753.5	0.000000	0.000000	6.232819	-0.079476	NaN	0.000000	0.001576	0.001692	28.0842	0.010659	0.001805	5.904331	-111.195	14.8053	-0.076184	0.231320	-0.998000	-0.999377	-0.079476	5.904331	-0.987904	-1.559145E+13	5.097422E-15	NaN
1018	1.000000	0.278743	7.37501e+06	-51039.1	1055.82	-29753.5	0.000000	0.000000	6.278865	-0.068557	NaN	0.000000	0.001589	0.001655	28.0842	0.051936	0.002071	25.0747	35.8085	-164.85	-0.041423	0.277407	-0.951955	-0.953290	-0.068557	25.0747	-0.949904	-4.794381E+12	1.429935E-14	NaN
1018	1.000000	0.324722	7.37501e+06	-51039.1	1055.82	-29753.5	0.000000	0.000000	6.324848	0.005577	NaN	0.000000	0.001651	0.001655	28.0837	0.061861	0.002033	30.4277	-75.0016	15.3952	0.007014	0.323373	-0.905975	-0.907324	0.005577	30.4277	-0.906112	-1.229267E+12	-4.536606E-15	NaN
1018	1.000000	0.370758	7.37501e+06	-51039.1	1055.82	-29753.5	0.000000	0.000000	6.370882	-0.023058	NaN	0.000000	0.001598	0.001677	28.0834	0.050323	0.002070	24.3117	-172.511	-167.912	-0.054353	0.369441	-0.859940	-0.861256	-0.023058	24.3117	-0.859228	-2.855447E+11	8.075179E-14	NaN
1018	1.000000	0.416786	7.37501e+06	-51039.1	1055.82	-29753.5	0.000000	0.000000	6.416909	-0.048420	NaN	0.000000	0.001567	0.001688	28.0833	0.031669	0.001960	16.1543	-107.115	16.118	0.004564	0.415428	-0.813911	-0.815269	-0.048420	16.1543	-0.811663	-6.473404E+10	7.479764E-13	NaN
1018	1.000000	0.462804	7.37501e+06	-51039.1	1055.82	-29753.5	0.000000	0.000000	6.462928	-0.030448	NaN	0.000000	0.001561	0.001633	28.0844	0.118267	0.001950	60.6587	85.4998	-165.747	-0.010870	0.461522	-0.767893	-0.769175	-0.030448	60.6587	-0.767517	-1.627559E+10	1.870805E-12	NaN
1018	1.000000	0.508826	7.37501e+06	-51039.1	1055.82	-29753.5	0.000000	0.000000	6.508946	-0.108704	NaN	0.000000	0.001546	0.001671	28.0848	0.061313	0.002088	29.3698	-3.812155	15.1546	-0.021218	0.507407	-0.721871	-0.723290	-0.108704	29.3698	-0.719096	-3.565643E+9	3.048662E-11	NaN
1018	1.000000	0.554826	7.37501e+06	-51039.1	1055.82	-29753.5	0.000000	0.000000	6.554949	-0.036863	NaN	0.000000	0.001583	0.001633	28.0845	0.122616	0.001867	65.6807	123.914	-166.227	-0.088833	0.553514	-0.675871	-0.677183	-0.036863	65.6807	-0.675450	-9.035894E+8	4.079641E-11	NaN
1018	1.000000	0.600857	7.37501e+06	-51039.1	1055.82	-29753.5	0.000000	0.000000	6.600982	-0.005505	NaN	0.000000	0.001677	0.001701	28.0833	0.101843	0.001931	52.7287	-113.137	14.8697	0.041110	0.599469	-0.629840	-0.631228	-0.005505	52.7287	-0.629762	-2.136756E+8	2.576139E-11	NaN
1018	1.000000	0.646871	7.37501e+06	-51039.1	1055.82	-29753.5	0.000000	0.000000	6.646995	-0.019814	NaN	0.000000	0.001593	0.001682	28.083	0.079307	0.002018	39.3029	-28.6678	-167.242	-0.003702	0.645605	-0.583826	-0.585092	-0.019814	39.3029	-0.583448	-4.923898E+7	4.024092E-10	NaN
1018	1.000000	0.692891	7.37501e+06	-51039.1	1055.82	-29753.5	0.000000	0.000000	6.693015	-0.016803	NaN	0.000000	0.001551	0.001654	28.0833	0.076612	0.002147	35.6858	153.946	10.1777	-0.010092	0.691537	-0.537806	-0.539160	-0.016803	35.6858	-0.537453	-1.137713E+7	1.476940E-9	NaN
1018	1.000000	0.738912	7.37501e+06	-51039.1	1055.82	-29753.5	0.000000	0.000000	6.739036	-0.018978	NaN	0.000000	0.001644	0.001624	28.0848	0.161603	0.002082	77.6201	-173.429	-166.039	-0.012047	0.737602	-0.491785	-0.493095	-0.018978	77.6201	-0.491602	-2.6168e+06	7.252514E-9	NaN
1018	1.000000	0.784921	7.37501e+06	-51039.1	1055.82	-29753.5	0.000000	0.000000	6.785045	-0.045160	NaN	0.000000	0.001584	0.001618	28.0848	0.082240	0.002050	40.1092	-55.0885	14.9284	-0.035314	0.783600	-0.445776	-0.447097	-0.045160	40.1092	-0.444931	-579324	7.795335E-8	NaN
1018	1.000000	0.830974	7.37501e+06	-51039.1	1055.82	-29753.5	0.000000	0.000000	6.831098	-0.037091	NaN	0.000000	0.001581	0.001698	28.0844	0.007414	0.002031	3.649502	-105.301	-169.614	0.031230	0.829669	-0.399723	-0.401029	-0.037091	3.649502	-0.392100	-103087	3.598001E-7	NaN
1018	1.000000	0.876953	7.37501e+06	-51039.1	1055.82	-29753.5	0.000000	0.000000	6.877074	-0.092272	NaN	0.000000	0.001575	0.001650	28.0838	0.076203	0.001867	40.8088	114.006	17.6705	-0.072074	0.875563	-0.353744	-0.355134	-0.092272	40.8088	-0.352048	-27335	3.375591E-6	NaN
1018	1.000000	0.922972	7.37501e+06	-51039.1	1055.82	-29753.5	0.000000	0.000000	6.923098	0.016122	NaN	0.000000	0.001600	0.001642	28.0832	0.055932	0.002063	27.1102	24.9238	-165.878	-0.001343	0.921705	-0.307725	-0.308992	0.016122	27.1102	-0.308171	-6222.68	-2.590801E-6	NaN
1018	1.000000	0.969009	7.37501e+06	-51039.1	1055.82	-29753.5	0.000000	0.000000	6.969132	-0.051340	NaN	0.000000	0.001576	0.001655	28.0832	0.092684	0.002228	41.5977	-133.632	13.272	-0.015704	0.967677	-0.261688	-0.263020	-0.051340	41.5977	-0.260763	-1203.94	4.264311E-5	NaN
1018	1.000000	1.015009	7.37501e+06	-51039.1	1055.82	-29753.5	0.000000	0.000000	7.015131	-0.087955	NaN	0.000000	0.001581	0.001652	28.0845	0.044284	0.001998	22.163	13.6314	-167.608	-0.051306	1.013733	-0.215688	-0.216964	-0.087955	22.163	-0.212711	-212.152	0.000415	NaN
1018	1.000000	1.061058	7.37501e+06	-51039.1	1055.82	-29753.5	0.000000	0.000000	7.061180	-0.065139	NaN	0.000000	0.001567	0.001622	28.0845	0.080662	0.001935	41.6846	146.161	13.9311	-0.039189	1.059716	-0.169640	-0.170981	-0.065139	41.6846	-0.168468	-38.6329	0.001686	NaN
1018	1.000000	1.107048	7.37501e+06	-51039.1	1055.82	-29753.5	0.000000	0.000000	7.107172	-0.029323	NaN	0.000000	0.001519	0.001631	28.0845	0.094378	0.001962	48.102	-112.929	-164.758	0.038590	1.105769	-0.123649	-0.124928	-0.029323	48.102	-0.123191	-5.598621	0.005237	NaN
1018	1.000000	1.153065	7.37501e+06	-51039.1	1055.82	-29753.5	0.000000	0.000000	7.153188	-0.039340	NaN	0.000000	0.001529	0.001619	28.0833	0.057520	0.002109	27.2741	160.097	11.9209	-0.022888	1.151742	-0.077632	-0.078955	-0.039340	27.2741	-0.076551	-0.506316	0.077699	NaN
1018	1.000000	1.199071	7.37501e+06	-51039.1	1055.82	-29753.5	0.000000	0.000000	7.199193	-0.073650	NaN	0.000000	0.001585	0.001666	28.0836	0.060973	0.002018	30.2205	-7.650385	-167.526	-0.110350	1.197762	-0.031626	-0.032935	-0.073650	30.2205	-0.029798	-0.022717	3.242001	NaN
1018	2.000000	1.237207	7.37501e+06	-51039.1	1055.82	-29753.5	0.000000	0.000000	7.237814	11.7087	NaN	0.000000	0.001580	0.001685	28.0839	10.6868	0.001722	6204.54	5.286863	6.959723	10.7545	1.236846	0.006510	0.006149	11.7087	6204.54	0.005095	0.004220	2774.36	87259
1018	2.000000	1.248609	7.37501e+06	-51039.1	1055.82	-29753.5	0.000000	0.000000	7.250139	34.1635	NaN	0.000000	0.001576	0.001685	28.085	23.7599	0.001695	14016.9	3.985272	-178.635	32.3895	1.248289	0.017912	0.017592	34.1635	14016.9	0.016084	0.016758	2038.59	98925.8
1018	2.000000	1.260049	7.37501e+06	-51039.1	1055.82	-29753.5	0.000000	0.000000	7.262906	66.435	NaN	0.000000	0.001547	0.001671	28.0846	34.6235	0.001802	19215.7	-0.904115	3.545707	61.7743	1.259734	0.029352	0.029037	66.435	19215.7	0.026759	0.034293	1937.27	94804
1018	2.000000	1.271539	7.37501e+06	-51039.1	1055.82	-29753.5	0.000000	0.000000	7.276138	108.809	NaN	0.000000	0.001619	0.001703	28.0844	44.6216	0.001717	25981	3.733394	177.339	105.983	1.271253	0.040842	0.040556	108.809	25981	0.037701	0.058221	1868.89	98375.8
1018	2.000000	1.283122	7.37501e+06	-51039.1	1055.82	-29753.5	0.000000	0.000000	7.289773	158.69	NaN	0.000000	0.001569	0.001663	28.0834	57.4789	0.001814	31685.6	5.398148	-6.317977	158.286	1.282731	0.052425	0.052034	158.69	31685.6	0.048669	0.088343	1796.29	97397.6
1018	2.000000	1.294464	7.37501e+06	-51039.1	1055.82	-29753.5	0.000000	0.000000	7.304149	232.472	NaN	0.000000	0.001586	0.001660	28.0834	68.5284	0.001765	38815.8	6.945907	170.809	227.827	1.294209	0.063767	0.063512	232.472	38815.8	0.059275	0.123221	1886.63	101027
1018	2.000000	1.306124	7.37501e+06	-51039.1	1055.82	-29753.5	0.000000	0.000000	7.318790	304.97	NaN	0.000000	0.001599	0.001661	28.0832	80.6705	0.001807	44644.1	4.507129	-7.175346	307.697	1.305627	0.075427	0.074930	304.97	44644.1	0.070303	0.165323	1844.69	100316
1018	2.000000	1.317523	7.37501e+06	-51039.1	1055.82	-29753.5	0.000000	0.000000	7.333885	394.821	NaN	0.000000	0.001576	0.001658	28.0848	91.2976	0.001728	52849.5	6.291776	169.26	394.485	1.317093	0.086826	0.086396	394.821	52849.5	0.081223	0.212716	1856.09	104692
1018	2.000000	1.328975	7.37501e+06	-51039.1	1055.82	-29753.5	0.000000	0.000000	7.349278	490.655	NaN	0.000000	0.001558	0.001657	28.0843	101.206	0.001820	55601.3	5.999569	-9.036766	483.034	1.328491	0.098278	0.097794	490.655	55601.3	0.091660	0.263192	1864.24	99019.7
1018	2.000000	1.332971	7.37501e+06	-51039.1	1055.82	-29753.5	0.000000	0.000000	7.354377	517.481	NaN	0.000000	0.001520	0.001638	28.0846	105.833	0.001738	60887.7	4.959946	-10.6028	511.649	1.332717	0.102274	0.102020	517.481	60887.7	0.095900	0.285128	1814.91	104180