File: remote_trans/data/nanoindenter/0828-1/data/Data_2025-08-06,11h17m57s/2025-07-22_16-23-58_1_1003.txt
2025-07-22, 16:23:58, 1
Index	Phase	Displacement	Time	Pos X	Pos Y	Pos Z	Rot A	Rot B	Piezo Z	Force A	Force B	Gripper	Voltage A	Voltage B	Temperature	Amplitude force	Amplitude pos	Stiffness	Phase shift	Phase excitation	Force A raw	Displacement raw	HMax	HMax raw	Real Force	Real Stiffness	Contact Depth	Area	Hardness	Reduced Mod.
[#]	[#]	[um]	[s]	[um]	[um]	[um]	[m°]	[m°]	[um]	[uN]	[uN]	[V]	[V]	[V]	[°C]	[uN]	[um]	[N/m]	[°]	[°]	[uN]	[um]	[um]	[um]	[uN]	[N/m]	[um]	[um^2]	[MPa]	[MPa]
1003	1.000000	0.002501	7.37486e+06	-50289.1	1055.82	-29756.3	0.000000	0.000000	6.002800	-0.090485	NaN	0.000000	0.001530	0.001774	28.0819	0.030470	0.001083	28.1475	92.0089	-161.702	-0.091759	0.001186	-0.940379	-0.941694	-0.090485	28.1475	-0.937968	-3.309232E+12	2.734335E-14	NaN
1003	1.000000	0.040428	7.37486e+06	-50289.1	1055.82	-29756.3	0.000000	0.000000	6.040728	-0.080442	NaN	0.000000	0.001548	0.001729	28.0819	0.124206	0.001891	65.6665	174.083	14.9612	-0.038387	0.039094	-0.902452	-0.903786	-0.080442	65.6665	-0.901534	-1.066080E+12	7.545575E-14	NaN
1003	1.000000	0.078457	7.37486e+06	-50289.1	1055.82	-29756.3	0.000000	0.000000	6.078759	-0.026836	NaN	0.000000	0.001526	0.001781	28.0815	0.135123	0.002019	66.9248	-125.467	-161.069	0.071635	0.077103	-0.864423	-0.865777	-0.026836	66.9248	-0.864122	-3.325933E+11	8.068729E-14	NaN
1003	1.000000	0.116435	7.37486e+06	-50289.1	1055.82	-29756.3	0.000000	0.000000	6.116739	0.016185	NaN	0.000000	0.001515	0.001767	28.0816	0.122611	0.002109	58.1411	-154.188	15.7387	-0.037538	0.115173	-0.826445	-0.827707	0.016185	58.1411	-0.826654	-1.033786E+11	-1.565615E-13	NaN
1003	1.000000	0.154511	7.37486e+06	-50289.1	1055.82	-29756.3	0.000000	0.000000	6.154816	0.022891	NaN	0.000000	0.001535	0.001780	28.0828	0.086482	0.002016	42.8929	-86.2213	-167.589	0.026949	0.153147	-0.788369	-0.789733	0.022891	42.8929	-0.788769	-3.164934E+10	-7.232593E-13	NaN
1003	1.000000	0.192498	7.37486e+06	-50289.1	1055.82	-29756.3	0.000000	0.000000	6.192803	0.053171	NaN	0.000000	0.001556	0.001797	28.0828	0.090299	0.001844	48.9781	62.2377	14.982	0.033259	0.191098	-0.750382	-0.751782	0.053171	48.9781	-0.751197	-9.761314E+9	-5.447150E-12	NaN
1003	1.000000	0.230508	7.37486e+06	-50289.1	1055.82	-29756.3	0.000000	0.000000	6.230812	-0.006536	NaN	0.000000	0.001522	0.001758	28.0825	0.001800	0.001975	0.911277	22.384	-164.582	0.009471	0.229192	-0.712372	-0.713688	-0.006536	0.911277	-0.706992	-2.437793E+9	2.681254E-12	NaN
1003	1.000000	0.268536	7.37486e+06	-50289.1	1055.82	-29756.3	0.000000	0.000000	6.268838	-0.018302	NaN	0.000000	0.001504	0.001771	28.0821	0.016523	0.001937	8.530277	7.688121	16.789	-0.022205	0.267157	-0.674345	-0.675723	-0.018302	8.530277	-0.672735	-8.295171E+8	2.206306E-11	NaN
1003	1.000000	0.306538	7.37486e+06	-50289.1	1055.82	-29756.3	0.000000	0.000000	6.306840	-0.017651	NaN	0.000000	0.001503	0.001760	28.0816	0.143523	0.001956	73.3781	-93.725	-168.877	-0.037105	0.305279	-0.636343	-0.637601	-0.017651	73.3781	-0.636162	-2.615909E+8	6.747705E-11	NaN
1003	1.000000	0.344576	7.37486e+06	-50289.1	1055.82	-29756.3	0.000000	0.000000	6.344880	0.015221	NaN	0.000000	0.001527	0.001773	28.0818	0.054559	0.001991	27.4018	-143.276	13.6081	-0.036742	0.343210	-0.598304	-0.599670	0.015221	27.4018	-0.598721	-7.995458E+7	-1.903752E-10	NaN
1003	1.000000	0.382577	7.37486e+06	-50289.1	1055.82	-29756.3	0.000000	0.000000	6.382879	-0.035730	NaN	0.000000	0.001543	0.001755	28.0815	0.033870	0.001931	17.5437	91.0988	-165.351	-0.036339	0.381249	-0.560303	-0.561631	-0.035730	17.5437	-0.558776	-2.246144E+7	1.590743E-9	NaN
1003	1.000000	0.420604	7.37486e+06	-50289.1	1055.82	-29756.3	0.000000	0.000000	6.420907	-0.013507	NaN	0.000000	0.001517	0.001780	28.083	0.061190	0.002040	29.9947	172.438	12.9455	0.002686	0.419270	-0.522276	-0.523610	-0.013507	29.9947	-0.521939	-6.92715e+06	1.949833E-9	NaN
1003	1.000000	0.458624	7.37486e+06	-50289.1	1055.82	-29756.3	0.000000	0.000000	6.458926	-0.026264	NaN	0.000000	0.001524	0.001772	28.083	0.019252	0.002084	9.236251	19.1234	-165.06	-0.007155	0.457308	-0.484256	-0.485572	-0.026264	9.236251	-0.482124	-1.92864e+06	1.361814E-8	NaN
1003	1.000000	0.496632	7.37486e+06	-50289.1	1055.82	-29756.3	0.000000	0.000000	6.496934	-0.038146	NaN	0.000000	0.001530	0.001751	28.0834	0.058460	0.002217	26.3693	119.338	14.3939	-0.063983	0.495255	-0.446248	-0.447625	-0.038146	26.3693	-0.445164	-583711	6.535089E-8	NaN
1003	1.000000	0.534629	7.37486e+06	-50289.1	1055.82	-29756.3	0.000000	0.000000	6.534931	-0.038401	NaN	0.000000	0.001505	0.001722	28.0833	0.039684	0.002074	19.1362	-48.4096	-167.875	-0.052663	0.533357	-0.408251	-0.409523	-0.038401	19.1362	-0.406746	-166766	2.302702E-7	NaN
1003	1.000000	0.572652	7.37486e+06	-50289.1	1055.82	-29756.3	0.000000	0.000000	6.572957	0.034173	NaN	0.000000	0.001469	0.001809	28.0818	0.063190	0.001932	32.7135	-161.19	8.865487	0.009551	0.571306	-0.370228	-0.371574	0.034173	32.7135	-0.371012	-51368.4	-6.652605E-7	NaN
1003	1.000000	0.610704	7.37486e+06	-50289.1	1055.82	-29756.3	0.000000	0.000000	6.611009	0.042242	NaN	0.000000	0.001552	0.001715	28.082	0.030958	0.002003	15.4532	-143.508	-167.525	0.069490	0.609340	-0.332176	-0.333540	0.042242	15.4532	-0.334226	-15041.1	-2.808398E-6	NaN
1003	1.000000	0.648706	7.37486e+06	-50289.1	1055.82	-29756.3	0.000000	0.000000	6.649008	-0.016199	NaN	0.000000	0.001546	0.001786	28.0821	0.054769	0.002099	26.0944	-120.984	12.5588	-0.012243	0.647338	-0.294175	-0.295542	-0.016199	26.0944	-0.293709	-3791.41	4.272657E-6	NaN
1003	1.000000	0.686719	7.37486e+06	-50289.1	1055.82	-29756.3	0.000000	0.000000	6.687021	-0.013302	NaN	0.000000	0.001563	0.001827	28.0833	0.105170	0.002026	51.9039	-146.197	-163.974	-0.001039	0.685384	-0.256162	-0.257496	-0.013302	51.9039	-0.255969	-1016.33	1.308820E-5	NaN
1003	1.000000	0.724695	7.37486e+06	-50289.1	1055.82	-29756.3	0.000000	0.000000	6.724997	-0.043557	NaN	0.000000	0.001550	0.001816	28.0833	0.064154	0.001948	32.9289	86.447	8.496065	0.062628	0.723384	-0.218185	-0.219496	-0.043557	32.9289	-0.217193	-250.462	0.000174	NaN
1003	1.000000	0.762735	7.37486e+06	-50289.1	1055.82	-29756.3	0.000000	0.000000	6.763040	0.032572	NaN	0.000000	0.001514	0.001771	28.0836	0.061767	0.002056	30.0494	146.145	-165.833	-0.000412	0.761472	-0.180145	-0.181408	0.032572	30.0494	-0.180958	-63.3508	-0.000514	NaN
1003	1.000000	0.800752	7.37486e+06	-50289.1	1055.82	-29756.3	0.000000	0.000000	6.801055	-0.009854	NaN	0.000000	0.001595	0.001763	28.0834	0.052219	0.002130	24.5166	-169.308	11.6047	0.021716	0.799368	-0.142129	-0.143512	-0.009854	24.5166	-0.141827	-12.7994	0.000770	NaN
1003	1.000000	0.838757	7.37486e+06	-50289.1	1055.82	-29756.3	0.000000	0.000000	6.839058	-0.058983	NaN	0.000000	0.001582	0.001788	28.0822	0.111894	0.002131	52.5124	96.8317	-163.337	-0.081342	0.837467	-0.104123	-0.105413	-0.058983	52.5124	-0.103281	-2.157152	0.027343	NaN
1003	1.000000	0.876804	7.37486e+06	-50289.1	1055.82	-29756.3	0.000000	0.000000	6.877107	0.000179	NaN	0.000000	0.001593	0.001764	28.0821	0.147942	0.001942	76.1645	59.0292	9.599415	-0.025064	0.875439	-0.066076	-0.067441	0.000179	76.1645	-0.066078	-0.266914	-0.000672	NaN
1003	1.000000	0.914810	7.37486e+06	-50289.1	1055.82	-29756.3	0.000000	0.000000	6.915133	0.467851	NaN	0.000000	0.001565	0.001743	28.0823	0.390927	0.001912	204.464	33.1451	-165.175	0.425341	0.913536	-0.028070	-0.029344	0.467851	204.464	-0.029786	-0.022699	-20.6107	NaN
1003	2.000000	0.951763	7.37487e+06	-50289.1	1055.82	-29756.3	0.000000	0.000000	6.952441	9.117757	NaN	0.000000	0.001566	0.001768	28.0834	8.854388	0.001633	5421.22	9.738664	5.791726	8.856145	0.951291	0.008882	0.008410	9.117757	5421.22	0.007621	0.006656	1369.95	60712.7
1003	2.000000	0.961282	7.37487e+06	-50289.1	1055.82	-29756.3	0.000000	0.000000	6.962506	22.3795	NaN	0.000000	0.001626	0.001776	28.083	18.9494	0.001894	10005.9	8.420367	-177.425	23.0338	0.960916	0.018402	0.018036	22.3795	10005.9	0.016725	0.017654	1267.66	68802.7
1003	2.000000	0.970719	7.37487e+06	-50289.1	1055.82	-29756.3	0.000000	0.000000	6.972884	45.2616	NaN	0.000000	0.001654	0.001765	28.0831	29.0673	0.001869	15553.7	7.920696	-2.331426	44.6525	0.970370	0.027839	0.027490	45.2616	15553.7	0.025657	0.032221	1404.72	79165.7
1003	2.000000	0.980193	7.37487e+06	-50289.1	1055.82	-29756.3	0.000000	0.000000	6.983466	72.2183	NaN	0.000000	0.001608	0.001752	28.0829	35.6391	0.001594	22351.4	1.962179	179.737	71.5513	0.979918	0.037312	0.037038	72.2183	22351.4	0.034889	0.051488	1402.62	89996.2
1003	2.000000	0.989650	7.37487e+06	-50289.1	1055.82	-29756.3	0.000000	0.000000	6.994262	104.777	NaN	0.000000	0.001578	0.001742	28.082	45.3019	0.001739	26050.6	5.438240	-5.111700	100.789	0.989227	0.046770	0.046347	104.777	26050.6	0.043753	0.074087	1414.24	87441.9
1003	2.000000	0.999138	7.37487e+06	-50289.1	1055.82	-29756.3	0.000000	0.000000	7.005701	152.225	NaN	0.000000	0.001510	0.001738	28.082	53.7036	0.001796	29896	6.249370	173.401	151.423	0.998823	0.056258	0.055942	152.225	29896	0.052439	0.100100	1520.73	86331.5
1003	2.000000	1.008718	7.37487e+06	-50289.1	1055.82	-29756.3	0.000000	0.000000	7.017146	197.557	NaN	0.000000	0.001547	0.001768	28.0818	64.6791	0.001872	34553.1	7.164279	-7.661879	200.432	1.008173	0.065838	0.065293	197.557	34553.1	0.061550	0.131425	1503.19	87080.5
1003	2.000000	1.018101	7.37487e+06	-50289.1	1055.82	-29756.3	0.000000	0.000000	7.028880	254.77	NaN	0.000000	0.001570	0.001780	28.082	71.5141	0.001797	39800.2	6.130249	171.09	252.42	1.017798	0.075220	0.074918	254.77	39800.2	0.070420	0.165799	1536.62	89303.5
1003	2.000000	1.027612	7.37487e+06	-50289.1	1055.82	-29756.3	0.000000	0.000000	7.040892	315.579	NaN	0.000000	0.001541	0.001769	28.0834	81.3074	0.001797	45253	7.129137	-10.9961	312.878	1.027226	0.084731	0.084346	315.579	45253	0.079501	0.204871	1540.38	91344.2
1003	2.000000	1.037140	7.37487e+06	-50289.1	1055.82	-29756.3	0.000000	0.000000	7.053117	381.138	NaN	0.000000	0.001496	0.001779	28.0831	89.3527	0.001762	50716.4	6.829061	169.157	380.99	1.036821	0.094260	0.093941	381.138	50716.4	0.088624	0.247992	1536.9	93047.1
1003	2.000000	1.046635	7.37487e+06	-50289.1	1055.82	-29756.3	0.000000	0.000000	7.065711	456.534	NaN	0.000000	0.001497	0.001766	28.0831	96.2054	0.001751	54941.3	5.533004	-9.883494	455.501	1.046178	0.103754	0.103298	456.534	54941.3	0.097522	0.293739	1554.22	92617.1
1003	2.000000	1.050132	7.37487e+06	-50289.1	1055.82	-29756.3	0.000000	0.000000	7.070279	482.557	NaN	0.000000	0.001518	0.001769	28.0834	99.5117	0.001768	56273.6	1.717803	173.958	482.025	1.049835	0.107252	0.106955	482.557	56273.6	0.100821	0.311614	1548.57	92102.1