File: remote_trans/data/nanoindenter/0828-1/data/Data_2025-08-06,11h17m57s/2025-07-22_16-23-58_1_186.txt
2025-07-22, 16:23:58, 1
Index	Phase	Displacement	Time	Pos X	Pos Y	Pos Z	Rot A	Rot B	Piezo Z	Force A	Force B	Gripper	Voltage A	Voltage B	Temperature	Amplitude force	Amplitude pos	Stiffness	Phase shift	Phase excitation	Force A raw	Displacement raw	HMax	HMax raw	Real Force	Real Stiffness	Contact Depth	Area	Hardness	Reduced Mod.
[#]	[#]	[um]	[s]	[um]	[um]	[um]	[m°]	[m°]	[um]	[uN]	[uN]	[V]	[V]	[V]	[°C]	[uN]	[um]	[N/m]	[°]	[°]	[uN]	[um]	[um]	[um]	[uN]	[N/m]	[um]	[um^2]	[MPa]	[MPa]
186	1.000000	0.002412	7.36686e+06	-47939.1	955.818	-29764.7	0.000000	0.000000	6.002805	-0.010144	NaN	0.000000	0.001634	0.001689	28.0786	0.072864	0.000950	76.6779	52.0108	-168.479	0.069493	0.001170	-1.042514	-1.043756	-0.010144	76.6779	-1.042415	-8.441828E+13	1.201673E-16	NaN
186	1.000000	0.042353	7.36686e+06	-47939.1	955.819	-29764.7	0.000000	0.000000	6.042745	-0.034937	NaN	0.000000	0.001612	0.001678	28.0796	0.095674	0.001810	52.8519	36.0777	-164.178	-0.032871	0.041066	-1.002573	-1.003861	-0.034937	52.8519	-1.002077	-2.419547E+13	1.443959E-15	NaN
186	1.000000	0.082353	7.36686e+06	-47939.1	955.818	-29764.7	0.000000	0.000000	6.082746	0.006367	NaN	0.000000	0.001627	0.001674	28.0792	0.144146	0.001994	72.2733	116.715	-164.369	-0.013898	0.081059	-0.962573	-0.963868	0.006367	72.2733	-0.962639	-7.119526E+12	-8.942966E-16	NaN
186	1.000000	0.122373	7.36686e+06	-47939.1	955.818	-29764.7	0.000000	0.000000	6.122766	0.015007	NaN	0.000000	0.001640	0.001651	28.079	0.029479	0.001950	15.1183	-114.74	-161.847	-0.035123	0.121071	-0.922554	-0.923855	0.015007	15.1183	-0.923298	-2.097647E+12	-7.154389E-15	NaN
186	1.000000	0.162382	7.36686e+06	-47939.1	955.819	-29764.7	0.000000	0.000000	6.162775	0.001553	NaN	0.000000	0.001656	0.001642	28.0774	0.034335	0.002014	17.044	33.0195	-163.483	-0.026508	0.161058	-0.882544	-0.883868	0.001553	17.044	-0.882612	-5.916065E+11	-2.625534E-15	NaN
186	1.000000	0.202440	7.36686e+06	-47939.1	955.819	-29764.7	0.000000	0.000000	6.202831	-0.038266	NaN	0.000000	0.001579	0.001620	28.0771	0.104051	0.001983	52.4591	-172.025	-160.962	-0.040691	0.201113	-0.842486	-0.843814	-0.038266	52.4591	-0.841939	-1.665562E+11	2.297511E-13	NaN
186	1.000000	0.242439	7.36686e+06	-47939.1	955.82	-29764.7	0.000000	0.000000	6.242829	-0.065440	NaN	0.000000	0.001621	0.001661	28.0777	0.037745	0.002073	18.2042	16.5604	-163.61	-0.121904	0.241143	-0.802487	-0.803783	-0.065440	18.2042	-0.799791	-4.467140E+10	1.464929E-12	NaN
186	1.000000	0.282479	7.36686e+06	-47939.1	955.818	-29764.7	0.000000	0.000000	6.282871	-0.034985	NaN	0.000000	0.001603	0.001640	28.0789	0.027639	0.001897	14.5672	-51.1676	-163.448	-0.051091	0.281123	-0.762447	-0.763804	-0.034985	14.5672	-0.760646	-1.312461E+10	2.665622E-12	NaN
186	1.000000	0.322453	7.36686e+06	-47939.1	955.819	-29764.7	0.000000	0.000000	6.322845	-0.026563	NaN	0.000000	0.001562	0.001666	28.0788	0.025917	0.002017	12.8474	46.7042	-164.463	0.098788	0.321140	-0.722473	-0.723786	-0.026563	12.8474	-0.720923	-3.776204E+9	7.034398E-12	NaN
186	1.000000	0.362484	7.36686e+06	-47939.1	955.819	-29764.7	0.000000	0.000000	6.362881	0.080300	NaN	0.000000	0.001604	0.001647	28.0787	0.083862	0.002034	41.2319	-175.624	-163.993	0.000288	0.361199	-0.682442	-0.683728	0.080300	41.2319	-0.683902	-1.179150E+9	-6.809968E-11	NaN
186	1.000000	0.402504	7.36686e+06	-47939.1	955.818	-29764.7	0.000000	0.000000	6.402896	-0.015556	NaN	0.000000	0.001595	0.001658	28.0787	0.088641	0.001909	46.4242	123.036	-165.561	-0.022340	0.401205	-0.642422	-0.643721	-0.015556	46.4242	-0.642171	-3.162803E+8	4.918413E-11	NaN
186	1.000000	0.442539	7.36686e+06	-47939.1	955.82	-29764.7	0.000000	0.000000	6.442931	-0.012801	NaN	0.000000	0.001588	0.001619	28.0779	0.024780	0.002110	11.7425	15.8215	-166.715	0.020061	0.441206	-0.602387	-0.603720	-0.012801	11.7425	-0.601570	-8.751384E+7	1.462789E-10	NaN
186	1.000000	0.482565	7.36686e+06	-47939.1	955.82	-29764.7	0.000000	0.000000	6.482959	0.016846	NaN	0.000000	0.001502	0.001627	28.0779	0.061157	0.002074	29.4839	-69.7927	-165.834	0.006383	0.481262	-0.562361	-0.563664	0.016846	29.4839	-0.562790	-2.552481E+7	-6.599829E-10	NaN
186	1.000000	0.522577	7.36686e+06	-47939.1	955.819	-29764.7	0.000000	0.000000	6.522967	-0.058798	NaN	0.000000	0.001566	0.001600	28.078	0.098121	0.002033	48.2614	-153.019	-166.25	-0.063705	0.521349	-0.522350	-0.523577	-0.058798	48.2614	-0.521436	-6.81658e+06	8.625703E-9	NaN
186	1.000000	0.562574	7.36686e+06	-47939.1	955.819	-29764.7	0.000000	0.000000	6.562967	0.005536	NaN	0.000000	0.001574	0.001663	28.0791	0.033309	0.001912	17.4172	33.047	-163.886	-0.082634	0.561273	-0.482353	-0.483653	0.005536	17.4172	-0.482591	-1.9579e+06	-2.827572E-9	NaN
186	1.000000	0.602574	7.36686e+06	-47939.1	955.819	-29764.7	0.000000	0.000000	6.602965	-0.029933	NaN	0.000000	0.001552	0.001591	28.079	0.054353	0.001899	28.6193	-159.937	-164.461	0.013606	0.601281	-0.442352	-0.443645	-0.029933	28.6193	-0.441568	-519386	5.763225E-8	NaN
186	1.000000	0.642612	7.36686e+06	-47939.1	955.818	-29764.7	0.000000	0.000000	6.643001	-0.089562	NaN	0.000000	0.001638	0.001613	28.079	0.155974	0.002058	75.797	-132.636	-164.385	-0.053221	0.641315	-0.402315	-0.403612	-0.089562	75.797	-0.401428	-140075	6.393900E-7	NaN
186	1.000000	0.682627	7.36686e+06	-47939.1	955.818	-29764.7	0.000000	0.000000	6.683018	-0.041956	NaN	0.000000	0.001590	0.001619	28.0789	0.033541	0.002048	16.3798	95.1301	-165.991	-0.036951	0.681374	-0.362299	-0.363553	-0.041956	16.3798	-0.360378	-36083.5	1.162753E-6	NaN
186	1.000000	0.722660	7.36686e+06	-47939.1	955.82	-29764.7	0.000000	0.000000	6.723055	0.046128	NaN	0.000000	0.001586	0.001616	28.0777	0.103790	0.001950	53.2195	-93.3233	-166.647	-0.049205	0.721334	-0.322266	-0.323592	0.046128	53.2195	-0.322916	-10269.1	-4.491940E-6	NaN
186	1.000000	0.762661	7.36686e+06	-47939.1	955.819	-29764.7	0.000000	0.000000	6.763053	0.001690	NaN	0.000000	0.001579	0.001598	28.0777	0.137451	0.002058	66.7844	-38.916	-164.744	0.036198	0.761316	-0.282266	-0.283610	0.001690	66.7844	-0.282285	-2555.11	-6.615809E-7	NaN
186	1.000000	0.802681	7.36686e+06	-47939.1	955.818	-29764.7	0.000000	0.000000	6.803072	-0.045208	NaN	0.000000	0.001570	0.001661	28.0774	0.041214	0.002002	20.5873	140.846	-163.418	-0.002407	0.801345	-0.242245	-0.243582	-0.045208	20.5873	-0.240598	-587.348	7.696936E-5	NaN
186	1.000000	0.842688	7.36686e+06	-47939.1	955.818	-29764.7	0.000000	0.000000	6.843081	0.015158	NaN	0.000000	0.001563	0.001633	28.0787	0.058608	0.002017	29.0511	-117.106	-165.615	0.070075	0.841404	-0.202239	-0.203523	0.015158	29.0511	-0.202630	-145.49	-0.000104	NaN
186	1.000000	0.882728	7.36686e+06	-47939.1	955.819	-29764.7	0.000000	0.000000	6.883117	-0.092937	NaN	0.000000	0.001554	0.001656	28.0789	0.010998	0.001996	5.508612	-0.044881	-162.39	-0.065341	0.881408	-0.162198	-0.163518	-0.092937	5.508612	-0.149544	-17.7702	0.005230	NaN
186	1.000000	0.922712	7.36686e+06	-47939.1	955.819	-29764.7	0.000000	0.000000	6.923103	-0.032851	NaN	0.000000	0.001591	0.001700	28.0788	0.043222	0.001839	23.4983	153.556	-165.562	-0.020556	0.921391	-0.122215	-0.123535	-0.032851	23.4983	-0.121166	-5.099915	0.006441	NaN
186	1.000000	0.962739	7.36686e+06	-47939.1	955.819	-29764.7	0.000000	0.000000	6.963130	-0.035856	NaN	0.000000	0.001596	0.001684	28.0777	0.038672	0.001971	19.622	-114.592	-162.162	-0.065427	0.961414	-0.082188	-0.083513	-0.035856	19.622	-0.080817	-0.648734	0.055271	NaN
186	1.000000	1.002748	7.36687e+06	-47939.1	955.818	-29764.7	0.000000	0.000000	7.003139	-0.039254	NaN	0.000000	0.001593	0.001665	28.0775	0.092455	0.001930	47.9098	-143.38	-163.046	-0.026955	1.001466	-0.042179	-0.043460	-0.039254	47.9098	-0.041564	-0.050463	0.777873	NaN
186	1.000000	1.042760	7.36687e+06	-47939.1	955.818	-29764.7	0.000000	0.000000	7.043150	-0.058838	NaN	0.000000	0.001586	0.001644	28.0774	0.041172	0.002037	20.2075	-128.743	-162.318	-0.011915	1.041452	-0.002167	-0.003474	-0.058838	20.2075	1.708087E-5	1.276892E-5	-4607.9	5166.66
186	2.000000	1.063233	7.36687e+06	-47939.1	955.819	-29764.7	0.000000	0.000000	7.064502	21.3223	NaN	0.000000	0.001622	0.001657	28.0774	17.0036	0.001601	10621.2	1.868876	-173.339	20.7798	1.062965	0.018307	0.018039	21.3223	10621.2	0.016801	0.017763	1200.41	72810.7
186	2.000000	1.073159	7.36687e+06	-47939.1	955.819	-29764.7	0.000000	0.000000	7.075658	51.2294	NaN	0.000000	0.001591	0.001602	28.0786	28.511	0.001810	15753.4	3.663839	-177.662	50.075	1.072889	0.028233	0.027963	51.2294	15753.4	0.025794	0.032476	1577.44	79866.7
186	2.000000	1.083202	7.36687e+06	-47939.1	955.819	-29764.7	0.000000	0.000000	7.087297	90.0364	NaN	0.000000	0.001635	0.001621	28.0786	38.6128	0.001890	20432.9	0.519060	-175.624	92.2222	1.082845	0.038276	0.037919	90.0364	20432.9	0.034971	0.051679	1742.23	82119.6
186	2.000000	1.093154	7.36687e+06	-47939.1	955.819	-29764.7	0.000000	0.000000	7.099135	135.934	NaN	0.000000	0.001636	0.001666	28.0785	47.893	0.001778	26933.3	6.328768	176.187	134.846	1.092737	0.048227	0.047811	135.934	26933.3	0.044442	0.076011	1788.34	89253.2
186	2.000000	1.103105	7.36687e+06	-47939.1	955.819	-29764.7	0.000000	0.000000	7.110980	181.985	NaN	0.000000	0.001644	0.001571	28.0774	57.1127	0.001912	29864	4.394827	176.788	180.328	1.102793	0.058179	0.057867	181.985	29864	0.053609	0.103893	1751.65	84650
186	2.000000	1.113100	7.36687e+06	-47939.1	955.819	-29764.7	0.000000	0.000000	7.123198	236.059	NaN	0.000000	0.001586	0.001630	28.0775	65.4538	0.001825	35873.9	3.348191	176.333	234.222	1.112957	0.068173	0.068031	236.059	35873.9	0.063238	0.137676	1714.6	88333.1
186	2.000000	1.123072	7.36687e+06	-47939.1	955.819	-29764.7	0.000000	0.000000	7.136041	305.895	NaN	0.000000	0.001592	0.001651	28.0778	76.1947	0.001815	41981.8	3.935151	174.801	303.294	1.122780	0.078145	0.077853	305.895	41981.8	0.072681	0.175163	1746.35	91646
186	2.000000	1.133159	7.36687e+06	-47939.1	955.819	-29764.7	0.000000	0.000000	7.149086	377.837	NaN	0.000000	0.001580	0.001654	28.0776	86.0112	0.001713	50204.4	2.875297	174.282	378.393	1.132828	0.088233	0.087902	377.837	50204.4	0.082588	0.219030	1725.04	98008.3
186	2.000000	1.143060	7.36687e+06	-47939.1	955.819	-29764.7	0.000000	0.000000	7.162285	458.059	NaN	0.000000	0.001604	0.001648	28.079	96.9005	0.001696	57121.2	7.828899	167.979	455.593	1.142880	0.098134	0.097953	458.059	57121.2	0.092119	0.265530	1725.07	101278
186	2.000000	1.152977	7.36687e+06	-47939.1	955.82	-29764.7	0.000000	0.000000	7.176334	558.534	NaN	0.000000	0.001660	0.001623	28.0793	106.628	0.001900	56128.5	4.425707	172.497	553.785	1.152810	0.108051	0.107883	558.534	56128.5	0.100588	0.310335	1799.78	92053.7
186	2.000000	1.155160	7.36687e+06	-47939.1	955.82	-29764.7	0.000000	0.000000	7.179196	575.078	NaN	0.000000	0.001619	0.001613	28.0789	107.62	0.001838	58546.3	7.371418	169.178	581.06	1.154730	0.110233	0.109803	575.078	58546.3	0.102866	0.322947	1780.72	94125.5