File: remote_trans/data/nanoindenter/0828-1/data/Data_2025-08-06,11h17m57s/2025-07-22_16-23-58_1_1193.txt
2025-07-22, 16:23:58, 1
Index	Phase	Displacement	Time	Pos X	Pos Y	Pos Z	Rot A	Rot B	Piezo Z	Force A	Force B	Gripper	Voltage A	Voltage B	Temperature	Amplitude force	Amplitude pos	Stiffness	Phase shift	Phase excitation	Force A raw	Displacement raw	HMax	HMax raw	Real Force	Real Stiffness	Contact Depth	Area	Hardness	Reduced Mod.
[#]	[#]	[um]	[s]	[um]	[um]	[um]	[m°]	[m°]	[um]	[uN]	[uN]	[V]	[V]	[V]	[°C]	[uN]	[um]	[N/m]	[°]	[°]	[uN]	[um]	[um]	[um]	[uN]	[N/m]	[um]	[um^2]	[MPa]	[MPa]
1193	1.000000	0.002619	7.37671e+06	-55939.1	1105.82	-29740.2	0.000000	0.000000	6.002811	-0.006144	NaN	0.000000	0.001548	0.001716	28.082	0.071774	0.000860	83.4894	136.909	-165.886	0.083453	0.001337	-1.060550	-1.061832	-0.006144	83.4894	-1.060495	-1.477320E+14	4.158684E-17	NaN
1193	1.000000	0.042558	7.37671e+06	-55939.1	1105.82	-29740.2	0.000000	0.000000	6.042750	0.007189	NaN	0.000000	0.001609	0.001716	28.0822	0.053851	0.001810	29.7493	65.8443	-165.267	0.021037	0.041240	-1.020611	-1.021929	0.007189	29.7493	-1.020792	-4.321277E+13	-1.663628E-16	NaN
1193	1.000000	0.082536	7.37671e+06	-55939.1	1105.82	-29740.2	0.000000	0.000000	6.082726	-0.042983	NaN	0.000000	0.001626	0.001703	28.0823	0.087828	0.002074	42.3545	-140.707	-167.822	-0.013735	0.081265	-0.980633	-0.981904	-0.042983	42.3545	-0.979872	-1.215318E+13	3.536782E-15	NaN
1193	1.000000	0.122605	7.37671e+06	-55939.1	1105.82	-29740.2	0.000000	0.000000	6.122798	0.026921	NaN	0.000000	0.001601	0.001755	28.081	0.101891	0.002054	49.6123	55.9469	-162.565	-0.056485	0.121327	-0.940564	-0.941842	0.026921	49.6123	-0.940971	-3.632780E+12	-7.410468E-15	NaN
1193	1.000000	0.162591	7.37671e+06	-55939.1	1105.82	-29740.2	0.000000	0.000000	6.162782	-0.035730	NaN	0.000000	0.001599	0.001715	28.0808	0.089116	0.002009	44.3489	107.606	-166.208	-0.037732	0.161325	-0.900578	-0.901844	-0.035730	44.3489	-0.899974	-1.015571E+12	3.518213E-14	NaN
1193	1.000000	0.202629	7.37671e+06	-55939.1	1105.82	-29740.2	0.000000	0.000000	6.202823	0.057173	NaN	0.000000	0.001605	0.001713	28.0809	0.119238	0.002039	58.4889	60.5735	-165.628	-0.004743	0.201335	-0.860540	-0.861834	0.057173	58.4889	-0.861273	-3.043368E+11	-1.878612E-13	NaN
1193	1.000000	0.242622	7.37671e+06	-55939.1	1105.82	-29740.2	0.000000	0.000000	6.242813	-0.019822	NaN	0.000000	0.001568	0.001713	28.0823	0.036780	0.001931	19.0505	-4.311603	-162.612	-0.011122	0.241292	-0.820547	-0.821877	-0.019822	19.0505	-0.819767	-8.337748E+10	2.377398E-13	NaN
1193	1.000000	0.282637	7.37671e+06	-55939.1	1105.82	-29740.2	0.000000	0.000000	6.282829	0.014202	NaN	0.000000	0.001587	0.001769	28.0824	0.085205	0.002069	41.1747	104.584	-166.781	-0.031822	0.281380	-0.780532	-0.781789	0.014202	41.1747	-0.780791	-2.465934E+10	-5.759155E-13	NaN
1193	1.000000	0.322684	7.37671e+06	-55939.1	1105.82	-29740.2	0.000000	0.000000	6.322879	0.057824	NaN	0.000000	0.001641	0.001674	28.0824	0.086696	0.001950	44.4481	-65.3735	-164.783	0.056955	0.321352	-0.740485	-0.741817	0.057824	44.4481	-0.741460	-7.193595E+9	-8.038286E-12	NaN
1193	1.000000	0.362690	7.37671e+06	-55939.1	1105.82	-29740.2	0.000000	0.000000	6.362880	-0.033247	NaN	0.000000	0.001555	0.001685	28.0824	0.100850	0.001883	53.5533	127.273	-165.43	-0.077847	0.361420	-0.700480	-0.701749	-0.033247	53.5533	-0.700014	-1.957588E+9	1.698352E-11	NaN
1193	1.000000	0.402693	7.37671e+06	-55939.1	1105.82	-29740.2	0.000000	0.000000	6.402885	-0.021182	NaN	0.000000	0.001568	0.001667	28.0813	0.072515	0.002045	35.4549	18.533	-168.71	-0.073499	0.401401	-0.660476	-0.661768	-0.021182	35.4549	-0.660028	-5.557074E+8	3.811777E-11	NaN
1193	1.000000	0.442718	7.37671e+06	-55939.1	1105.82	-29740.2	0.000000	0.000000	6.442909	-0.036043	NaN	0.000000	0.001557	0.001679	28.0813	0.088937	0.001996	44.5542	-122.262	-161.607	-0.037919	0.441395	-0.620451	-0.621774	-0.036043	44.5542	-0.619844	-1.561300E+8	2.308548E-10	NaN
1193	1.000000	0.482741	7.37671e+06	-55939.1	1105.82	-29740.2	0.000000	0.000000	6.482933	-0.009253	NaN	0.000000	0.001535	0.001680	28.0811	0.054148	0.001919	28.2113	44.1312	-167.259	-0.014029	0.481452	-0.580428	-0.581717	-0.009253	28.2113	-0.580182	-4.438528E+7	2.084709E-10	NaN
1193	1.000000	0.522794	7.37672e+06	-55939.1	1105.82	-29740.2	0.000000	0.000000	6.522986	-0.000979	NaN	0.000000	0.001603	0.001685	28.0827	0.093666	0.002061	45.451	41.1736	-167.564	-0.106220	0.521453	-0.540375	-0.541716	-0.000979	45.451	-0.540359	-1.248362E+7	7.843464E-11	NaN
1193	1.000000	0.562783	7.37672e+06	-55939.1	1105.82	-29740.2	0.000000	0.000000	6.562975	-0.002042	NaN	0.000000	0.001542	0.001652	28.0827	0.017895	0.001930	9.271142	-5.632830	-167.451	0.056227	0.561438	-0.500386	-0.501731	-0.002042	9.271142	-0.500221	-3.45221e+06	5.913617E-10	NaN
1193	1.000000	0.602786	7.37672e+06	-55939.1	1105.82	-29740.2	0.000000	0.000000	6.602975	-0.051784	NaN	0.000000	0.001622	0.001672	28.0825	0.109351	0.001979	55.2422	-174.242	-165.966	-0.051128	0.601502	-0.460383	-0.461667	-0.051784	55.2422	-0.459680	-934388	5.541975E-8	NaN
1193	1.000000	0.642793	7.37672e+06	-55939.1	1105.82	-29740.2	0.000000	0.000000	6.642985	0.009033	NaN	0.000000	0.001595	0.001693	28.0822	0.030744	0.002015	15.2573	-105.478	-164.025	-0.001196	0.641462	-0.420376	-0.421707	0.009033	15.2573	-0.420820	-264270	-3.417930E-8	NaN
1193	1.000000	0.682835	7.37672e+06	-55939.1	1105.82	-29740.2	0.000000	0.000000	6.683026	-0.038425	NaN	0.000000	0.001610	0.001664	28.0811	0.038685	0.001987	19.4642	88.2943	-166.795	0.021733	0.681571	-0.380334	-0.381598	-0.038425	19.4642	-0.378853	-66592.7	5.770182E-7	NaN
1193	1.000000	0.722835	7.37672e+06	-55939.1	1105.82	-29740.2	0.000000	0.000000	6.723027	-0.016066	NaN	0.000000	0.001581	0.001686	28.0811	0.123383	0.002055	60.0378	71.0062	-163.85	-0.092739	0.721533	-0.340334	-0.341636	-0.016066	60.0378	-0.340133	-18343.9	8.758443E-7	NaN
1193	1.000000	0.762857	7.37672e+06	-55939.1	1105.82	-29740.2	0.000000	0.000000	6.763047	-0.062233	NaN	0.000000	0.001602	0.001652	28.0811	0.043241	0.002018	21.4314	-98.6967	-168.509	-0.053900	0.761514	-0.300312	-0.301655	-0.062233	21.4314	-0.298134	-4414.09	1.409874E-5	NaN
1193	1.000000	0.802857	7.37672e+06	-55939.1	1105.82	-29740.2	0.000000	0.000000	6.803048	-0.011843	NaN	0.000000	0.001592	0.001626	28.0823	0.061283	0.002071	29.586	34.312	-166.334	-0.039120	0.801548	-0.260312	-0.261621	-0.011843	29.586	-0.260012	-1172.47	1.010115E-5	NaN
1193	1.000000	0.842897	7.37672e+06	-55939.1	1105.82	-29740.2	0.000000	0.000000	6.843089	-0.013683	NaN	0.000000	0.001591	0.001671	28.0824	0.109718	0.001871	58.6361	-61.8984	-169.554	-0.007609	0.841516	-0.220272	-0.221653	-0.013683	58.6361	-0.220097	-278.755	4.908642E-5	NaN
1193	1.000000	0.882906	7.37672e+06	-55939.1	1105.82	-29740.2	0.000000	0.000000	6.883096	-0.047125	NaN	0.000000	0.001628	0.001677	28.0823	0.122307	0.002092	58.4765	137.717	-163.47	-0.085727	0.881589	-0.180263	-0.181580	-0.047125	58.4765	-0.179658	-60.208	0.000783	NaN
1193	1.000000	0.922922	7.37672e+06	-55939.1	1105.82	-29740.2	0.000000	0.000000	6.923116	0.040263	NaN	0.000000	0.001590	0.001661	28.0822	0.048816	0.001938	25.1916	124.467	-170.711	0.018112	0.921580	-0.140247	-0.141589	0.040263	25.1916	-0.141445	-12.5909	-0.003198	NaN
1193	1.000000	0.962931	7.37672e+06	-55939.1	1105.82	-29740.2	0.000000	0.000000	6.963121	-0.047786	NaN	0.000000	0.001629	0.001605	28.081	0.074356	0.001919	38.7531	84.9856	-164.02	-0.017408	0.961634	-0.100238	-0.101535	-0.047786	38.7531	-0.099313	-1.764114	0.027088	NaN
1193	1.000000	1.002927	7.37672e+06	-55939.1	1105.82	-29740.2	0.000000	0.000000	7.003118	-0.008313	NaN	0.000000	0.001551	0.001613	28.081	0.021257	0.002021	10.5171	-62.3608	-167.724	-0.076560	1.001599	-0.060242	-0.061570	-0.008313	10.5171	-0.059649	-0.175967	0.047242	NaN
1193	1.000000	1.042971	7.37672e+06	-55939.1	1105.82	-29740.2	0.000000	0.000000	7.043164	0.021490	NaN	0.000000	0.001621	0.001637	28.0815	0.153558	0.002111	72.7311	28.5616	-165.193	-0.000545	1.041650	-0.020198	-0.021519	0.021490	72.7311	-0.020420	-0.012873	-1.669311	NaN
1193	2.000000	1.070473	7.37672e+06	-55939.1	1105.82	-29740.2	0.000000	0.000000	7.071232	13.7629	NaN	0.000000	0.001624	0.001648	28.0826	13.0577	0.001744	7487.28	5.504048	-174.52	13.1639	1.070199	0.007304	0.007030	13.7629	7487.28	0.005926	0.004994	2755.81	96798.2
1193	2.000000	1.080424	7.37672e+06	-55939.1	1105.82	-29740.2	0.000000	0.000000	7.081820	29.2785	NaN	0.000000	0.001649	0.001681	28.0828	23.0019	0.001838	12515.8	5.586068	-179.523	28.5634	1.080151	0.017255	0.016982	29.2785	12515.8	0.015500	0.015958	1834.73	90519.6
1193	2.000000	1.090412	7.37672e+06	-55939.1	1105.82	-29740.2	0.000000	0.000000	7.092803	53.4598	NaN	0.000000	0.001625	0.001668	28.0839	32.3298	0.001870	17288	5.049062	178.775	53.172	1.090161	0.027243	0.026992	53.4598	17288	0.024924	0.030877	1731.36	89887.5
1193	2.000000	1.100460	7.37672e+06	-55939.1	1105.82	-29740.2	0.000000	0.000000	7.104241	87.2401	NaN	0.000000	0.001661	0.001664	28.0818	41.0371	0.001752	23427.2	12.0816	170.638	89.7003	1.100099	0.037291	0.036930	87.2401	23427.2	0.034498	0.050583	1724.68	95167.9
1193	2.000000	1.110406	7.37672e+06	-55939.1	1105.82	-29740.2	0.000000	0.000000	7.115833	127.251	NaN	0.000000	0.001667	0.001664	28.0821	51.0275	0.001800	28354.7	8.574292	170.103	126.877	1.110045	0.047237	0.046875	127.251	28354.7	0.043871	0.074416	1710	94965.5
1193	2.000000	1.120287	7.37672e+06	-55939.1	1105.82	-29740.2	0.000000	0.000000	7.127577	172.547	NaN	0.000000	0.001577	0.001658	28.0816	58.3696	0.001805	32337.9	2.921073	175.772	169.099	1.120122	0.057118	0.056953	172.547	32337.9	0.053116	0.102288	1686.88	92378.9
1193	2.000000	1.130363	7.37672e+06	-55939.1	1105.82	-29740.2	0.000000	0.000000	7.139963	228.691	NaN	0.000000	0.001623	0.001709	28.0814	68.1904	0.001756	38825.7	4.637510	172.289	226.809	1.130106	0.067194	0.066937	228.691	38825.7	0.062777	0.135953	1682.14	96205.3
1193	2.000000	1.140363	7.37672e+06	-55939.1	1105.82	-29740.2	0.000000	0.000000	7.152869	299.323	NaN	0.000000	0.001573	0.001679	28.0825	77.327	0.001832	42218.2	7.081367	170.318	299.577	1.139974	0.077194	0.076805	299.323	42218.2	0.071877	0.171805	1742.22	93058.3
1193	2.000000	1.150406	7.37672e+06	-55939.1	1105.82	-29740.2	0.000000	0.000000	7.165894	371.818	NaN	0.000000	0.001580	0.001657	28.0822	87.6482	0.001853	47307.9	10.5776	166.829	375.297	1.149938	0.087237	0.086769	371.818	47307.9	0.081342	0.213263	1743.47	93594.2
1193	2.000000	1.160294	7.37672e+06	-55939.1	1105.82	-29740.2	0.000000	0.000000	7.178642	441.335	NaN	0.000000	0.001591	0.001651	28.0823	95.0982	0.001736	54775.6	3.962623	170.84	437.978	1.160005	0.097125	0.096836	441.335	54775.6	0.091082	0.260268	1695.7	98095.7
1193	2.000000	1.164778	7.37672e+06	-55939.1	1105.82	-29740.2	0.000000	0.000000	7.184630	477.902	NaN	0.000000	0.001554	0.001646	28.0826	99.0121	0.001802	54932.1	5.156544	-10.4442	473.148	1.164500	0.101609	0.101331	477.902	54932.1	0.095084	0.280841	1701.68	94704