File: remote_trans/data/nanoindenter/0828-1/data/Data_2025-08-06,11h17m57s/2025-07-22_16-23-58_1_141.txt
2025-07-22, 16:23:58, 1
Index	Phase	Displacement	Time	Pos X	Pos Y	Pos Z	Rot A	Rot B	Piezo Z	Force A	Force B	Gripper	Voltage A	Voltage B	Temperature	Amplitude force	Amplitude pos	Stiffness	Phase shift	Phase excitation	Force A raw	Displacement raw	HMax	HMax raw	Real Force	Real Stiffness	Contact Depth	Area	Hardness	Reduced Mod.
[#]	[#]	[um]	[s]	[um]	[um]	[um]	[m°]	[m°]	[um]	[uN]	[uN]	[V]	[V]	[V]	[°C]	[uN]	[um]	[N/m]	[°]	[°]	[uN]	[um]	[um]	[um]	[uN]	[N/m]	[um]	[um^2]	[MPa]	[MPa]
141	1.000000	0.002619	7.36642e+06	-45689.1	955.818	-29772.2	0.000000	0.000000	6.002789	0.019610	NaN	0.000000	0.001529	0.001711	28.1275	0.047007	0.000996	47.2155	-147.022	-166.963	0.065180	0.001337	-0.988203	-0.989485	0.019610	47.2155	-0.988515	-1.588937E+13	-1.234148E-15	NaN
141	1.000000	0.040609	7.36642e+06	-45689.1	955.819	-29772.2	0.000000	0.000000	6.040783	0.093195	NaN	0.000000	0.001557	0.001709	28.0897	0.067921	0.001912	35.5284	69.0449	12.5185	0.103449	0.039211	-0.950213	-0.951611	0.093195	35.5284	-0.952180	-5.145500E+12	-1.811201E-14	NaN
141	1.000000	0.078589	7.36642e+06	-45689.1	955.818	-29772.2	0.000000	0.000000	6.078758	-0.029057	NaN	0.000000	0.001540	0.001689	28.0812	0.078626	0.001961	40.0918	-154.55	-167.674	0.017940	0.077268	-0.912233	-0.913554	-0.029057	40.0918	-0.911689	-1.462105E+12	1.987316E-14	NaN
141	1.000000	0.116641	7.36642e+06	-45689.1	955.819	-29772.2	0.000000	0.000000	6.116812	0.029514	NaN	0.000000	0.001526	0.001755	28.11	0.035725	0.002014	17.7382	-0.581143	14.5874	0.067759	0.115248	-0.874181	-0.875574	0.029514	17.7382	-0.875428	-4.730188E+11	-6.239577E-14	NaN
141	1.000000	0.154635	7.36642e+06	-45689.1	955.819	-29772.2	0.000000	0.000000	6.154806	0.030526	NaN	0.000000	0.001635	0.001660	28.1253	0.087074	0.002020	43.1156	-145.158	-165.391	-0.025594	0.153314	-0.836187	-0.837508	0.030526	43.1156	-0.836718	-1.415218E+11	-2.156979E-13	NaN
141	1.000000	0.192632	7.36642e+06	-45689.1	955.818	-29772.2	0.000000	0.000000	6.192800	-0.053538	NaN	0.000000	0.001629	0.001668	28.0867	0.016057	0.001836	8.743391	63.9364	12.6961	0.107423	0.191277	-0.798190	-0.799545	-0.053538	8.743391	-0.793597	-3.680728E+10	1.454539E-12	NaN
141	1.000000	0.230673	7.36642e+06	-45689.1	955.818	-29772.2	0.000000	0.000000	6.230841	-0.047339	NaN	0.000000	0.001629	0.001668	28.0792	0.121048	0.002014	60.1156	-170.937	-163.388	0.048219	0.229324	-0.760149	-0.761498	-0.047339	60.1156	-0.759558	-1.268509E+10	3.731869E-12	NaN
141	1.000000	0.268678	7.36642e+06	-45689.1	955.818	-29772.2	0.000000	0.000000	6.268849	0.012669	NaN	0.000000	0.001502	0.001730	28.1095	0.032145	0.001955	16.4443	-116.011	13.6013	0.036466	0.267315	-0.722144	-0.723507	0.012669	16.4443	-0.722721	-3.995628E+9	-3.170616E-12	NaN
141	1.000000	0.306705	7.36642e+06	-45689.1	955.819	-29772.2	0.000000	0.000000	6.306878	0.076379	NaN	0.000000	0.001505	0.001735	28.1259	0.078122	0.002022	38.642	99.0702	-167.567	0.079806	0.305361	-0.684117	-0.685461	0.076379	38.642	-0.685599	-1.243851E+9	-6.140501E-11	NaN
141	1.000000	0.344702	7.36642e+06	-45689.1	955.818	-29772.2	0.000000	0.000000	6.344872	0.004012	NaN	0.000000	0.001534	0.001679	28.0863	0.063497	0.001988	31.9436	163.517	14.0071	0.000771	0.343324	-0.646120	-0.647498	0.004012	31.9436	-0.646214	-3.593602E+8	-1.116523E-11	NaN
141	1.000000	0.382745	7.36642e+06	-45689.1	955.818	-29772.2	0.000000	0.000000	6.382917	0.059554	NaN	0.000000	0.001523	0.001699	28.0806	0.061690	0.001960	31.474	145.377	-168.053	0.090758	0.381437	-0.608077	-0.609385	0.059554	31.474	-0.609496	-1.125084E+8	-5.293326E-10	NaN
141	1.000000	0.420750	7.36642e+06	-45689.1	955.819	-29772.2	0.000000	0.000000	6.420921	0.043208	NaN	0.000000	0.001553	0.001650	28.1094	0.022642	0.002046	11.0647	-163.818	14.5761	0.001734	0.419346	-0.570072	-0.571476	0.043208	11.0647	-0.573001	-3.532543E+7	-1.223140E-9	NaN
141	1.000000	0.458762	7.36642e+06	-45689.1	955.818	-29772.2	0.000000	0.000000	6.458932	-0.000378	NaN	0.000000	0.001564	0.001700	28.1255	0.157193	0.001968	79.87	-178.877	-165.183	0.037086	0.457433	-0.532060	-0.533389	-0.000378	79.87	-0.532056	-9.57479e+06	3.947662E-11	NaN
141	1.000000	0.496775	7.36642e+06	-45689.1	955.819	-29772.2	0.000000	0.000000	6.496944	-0.013889	NaN	0.000000	0.001556	0.001702	28.0845	0.040406	0.001980	20.4113	-121.395	13.1522	0.000924	0.495436	-0.494047	-0.495386	-0.013889	20.4113	-0.493537	-2.78487e+06	4.987389E-9	NaN
141	1.000000	0.534798	7.36642e+06	-45689.1	955.819	-29772.2	0.000000	0.000000	6.534967	-0.016672	NaN	0.000000	0.001569	0.001666	28.0813	0.108546	0.001997	54.3576	-86.9711	-170.163	-0.010955	0.533462	-0.456024	-0.457360	-0.016672	54.3576	-0.455794	-823924	2.023491E-8	NaN
141	1.000000	0.572816	7.36642e+06	-45689.1	955.818	-29772.2	0.000000	0.000000	6.572988	0.048525	NaN	0.000000	0.001565	0.001660	28.1117	0.103702	0.002080	49.8494	-130.472	15.1021	0.053215	0.571441	-0.418006	-0.419381	0.048525	49.8494	-0.418736	-246879	-1.965551E-7	NaN
141	1.000000	0.610841	7.36642e+06	-45689.1	955.818	-29772.2	0.000000	0.000000	6.611011	0.014753	NaN	0.000000	0.001642	0.001698	28.1266	0.034799	0.001957	17.7807	-106.922	-166.093	-0.016047	0.609522	-0.379981	-0.381300	0.014753	17.7807	-0.380603	-70558.4	-2.090959E-7	NaN
141	1.000000	0.648787	7.36642e+06	-45689.1	955.819	-29772.2	0.000000	0.000000	6.648960	0.089752	NaN	0.000000	0.001572	0.001714	28.085	0.018197	0.001976	9.211185	-45.5577	12.6741	0.032782	0.647471	-0.342035	-0.343351	0.089752	9.211185	-0.349343	-24972.7	-3.594015E-6	NaN
141	1.000000	0.686866	7.36642e+06	-45689.1	955.818	-29772.2	0.000000	0.000000	6.687036	-0.001084	NaN	0.000000	0.001578	0.001683	28.0796	0.083468	0.002055	40.6071	-106.972	-165.638	0.012169	0.685552	-0.303956	-0.305270	-0.001084	40.6071	-0.303936	-5384.6	2.013273E-7	NaN
141	1.000000	0.724833	7.36642e+06	-45689.1	955.819	-29772.2	0.000000	0.000000	6.725005	0.043972	NaN	0.000000	0.001570	0.001696	28.1111	0.065204	0.001905	34.2262	100.36	12.9416	0.049661	0.723494	-0.265989	-0.267328	0.043972	34.2262	-0.266952	-1496.79	-2.937767E-5	NaN
141	1.000000	0.762886	7.36642e+06	-45689.1	955.819	-29772.2	0.000000	0.000000	6.763057	0.036509	NaN	0.000000	0.001527	0.001679	28.1241	0.061278	0.001973	31.0605	-40.591	-165.512	0.007198	0.761506	-0.227936	-0.229316	0.036509	31.0605	-0.228817	-383.559	-9.518598E-5	NaN
141	1.000000	0.800902	7.36642e+06	-45689.1	955.818	-29772.2	0.000000	0.000000	6.801074	0.040526	NaN	0.000000	0.001523	0.001696	28.0843	0.031077	0.002016	15.4173	93.0604	12.8607	-2.925388E-6	0.799519	-0.189920	-0.191303	0.040526	15.4173	-0.191891	-96.7324	-0.000419	NaN
141	1.000000	0.838914	7.36642e+06	-45689.1	955.818	-29772.2	0.000000	0.000000	6.839086	0.043969	NaN	0.000000	0.001567	0.001678	28.0816	0.018085	0.002045	8.843534	-4.151125	-166.433	-0.050849	0.837635	-0.151908	-0.153187	0.043969	8.843534	-0.155637	-22.9102	-0.001919	NaN
141	1.000000	0.876925	7.36642e+06	-45689.1	955.818	-29772.2	0.000000	0.000000	6.877096	0.030280	NaN	0.000000	0.001591	0.001664	28.113	0.080943	0.001950	41.5105	26.9749	12.1084	0.038648	0.875557	-0.113897	-0.115265	0.030280	41.5105	-0.114444	-3.720738	-0.008138	NaN
141	1.000000	0.914916	7.36642e+06	-45689.1	955.818	-29772.2	0.000000	0.000000	6.915081	-0.110532	NaN	0.000000	0.001567	0.001673	28.1256	0.142915	0.002006	71.2324	-120.875	-167.438	-0.069053	0.913624	-0.075906	-0.077198	-0.110532	71.2324	-0.074742	-0.454817	0.243026	NaN
141	1.000000	0.952949	7.36642e+06	-45689.1	955.819	-29772.2	0.000000	0.000000	6.953119	0.012721	NaN	0.000000	0.001557	0.001647	28.0841	0.116356	0.002109	55.1814	67.8092	14.5139	-0.055523	0.951637	-0.037873	-0.039185	0.012721	55.1814	-0.038046	-0.039468	-0.322299	NaN
141	1.000000	0.990952	7.36642e+06	-45689.1	955.818	-29772.2	0.000000	0.000000	6.991128	0.160839	NaN	0.000000	0.001565	0.001648	28.0808	0.366255	0.002018	181.534	4.780691	-164.713	-0.036835	0.989654	0.000130	-0.001168	0.160839	181.534	-0.000535	-0.000396	-406.504	NaN
141	2.000000	1.006898	7.36642e+06	-45689.1	955.818	-29772.2	0.000000	0.000000	7.007844	18.8957	NaN	0.000000	0.001592	0.001675	28.1124	16.4321	0.001866	8805.7	7.195053	3.501414	17.6157	1.006535	0.016076	0.015713	18.8957	8805.7	0.014467	0.014581	1295.93	66626.5
141	2.000000	1.016408	7.36642e+06	-45689.1	955.818	-29772.2	0.000000	0.000000	7.018356	43.2709	NaN	0.000000	0.001564	0.001708	28.1231	25.6599	0.001798	14269.7	2.357268	-174.844	43.5633	1.016086	0.025586	0.025264	43.2709	14269.7	0.023312	0.028016	1544.53	77890.9
141	2.000000	1.025841	7.36642e+06	-45689.1	955.82	-29772.2	0.000000	0.000000	7.028807	68.0335	NaN	0.000000	0.001614	0.001698	28.0862	33.2381	0.001760	18885.1	1.775716	2.673957	66.8927	1.025611	0.035019	0.034789	68.0335	18885.1	0.032317	0.045683	1489.25	80726.1
141	2.000000	1.035317	7.36642e+06	-45689.1	955.819	-29772.2	0.000000	0.000000	7.039793	104.749	NaN	0.000000	0.001544	0.001722	28.0818	43.3472	0.001774	24434.8	4.317689	177.657	102.99	1.034993	0.044495	0.044172	104.749	24434.8	0.041280	0.067378	1554.63	86004.6
141	2.000000	1.044832	7.36642e+06	-45689.1	955.819	-29772.2	0.000000	0.000000	7.051180	150.281	NaN	0.000000	0.001570	0.001649	28.1156	52.5558	0.001713	30679.9	10.2814	-10.8695	148.638	1.044453	0.054010	0.053631	150.281	30679.9	0.050337	0.093456	1608.03	91690.3
141	2.000000	1.054334	7.36642e+06	-45689.1	955.819	-29772.2	0.000000	0.000000	7.062629	197.661	NaN	0.000000	0.001557	0.001671	28.1234	61.5088	0.001669	36856.6	6.002658	172.17	197.533	1.054074	0.063512	0.063252	197.661	36856.6	0.059490	0.123985	1594.23	95632.2
141	2.000000	1.063757	7.36642e+06	-45689.1	955.818	-29772.2	0.000000	0.000000	7.074646	260.757	NaN	0.000000	0.001580	0.001681	28.0843	70.367	0.001821	38634.2	4.998627	-6.829377	257.33	1.063424	0.072935	0.072602	260.757	38634.2	0.067873	0.155544	1676.42	89499.2
141	2.000000	1.073417	7.36642e+06	-45689.1	955.819	-29772.2	0.000000	0.000000	7.086955	325.182	NaN	0.000000	0.001547	0.001656	28.0794	79.3255	0.001830	43337.1	3.233280	174.469	330.831	1.073042	0.082595	0.082220	325.182	43337.1	0.076968	0.193581	1679.82	89991.4
141	2.000000	1.082756	7.36642e+06	-45689.1	955.818	-29772.2	0.000000	0.000000	7.099724	408.636	NaN	0.000000	0.001540	0.001681	28.115	86.4115	0.001709	50571.6	1.290105	-4.984102	403.251	1.082446	0.091934	0.091624	408.636	50571.6	0.085874	0.234589	1741.92	95395
141	2.000000	1.092235	7.36642e+06	-45689.1	955.819	-29772.2	0.000000	0.000000	7.112311	484.248	NaN	0.000000	0.001565	0.001684	28.1225	96.2041	0.001782	53987.4	4.700733	171.206	482.064	1.091904	0.101413	0.101082	484.248	53987.4	0.094686	0.278764	1737.13	93421.6
141	2.000000	1.098285	7.36642e+06	-45689.1	955.819	-29772.2	0.000000	0.000000	7.120231	529.755	NaN	0.000000	0.001560	0.001676	28.1235	103.72	0.001914	54187.3	6.595675	169.59	531.956	1.097858	0.107463	0.107037	529.755	54187.3	0.100130	0.307831	1720.93	89230.8