File: remote_trans/data/nanoindenter/0828-1/data/Data_2025-08-06,11h17m57s/2025-07-22_16-23-58_1_683.txt
2025-07-22, 16:23:58, 1
Index	Phase	Displacement	Time	Pos X	Pos Y	Pos Z	Rot A	Rot B	Piezo Z	Force A	Force B	Gripper	Voltage A	Voltage B	Temperature	Amplitude force	Amplitude pos	Stiffness	Phase shift	Phase excitation	Force A raw	Displacement raw	HMax	HMax raw	Real Force	Real Stiffness	Contact Depth	Area	Hardness	Reduced Mod.
[#]	[#]	[um]	[s]	[um]	[um]	[um]	[m°]	[m°]	[um]	[uN]	[uN]	[V]	[V]	[V]	[°C]	[uN]	[um]	[N/m]	[°]	[°]	[uN]	[um]	[um]	[um]	[uN]	[N/m]	[um]	[um^2]	[MPa]	[MPa]
683	1.000000	0.002722	7.37173e+06	-42939.1	1005.82	-29780.9	0.000000	0.000000	6.002779	-0.018854	NaN	0.000000	0.001689	0.001757	28.0814	0.071260	0.000979	72.805	-51.7136	179.679	0.009441	0.001466	-1.137334	-1.138590	-0.018854	72.805	-1.137140	-1.579009E+15	1.194042E-17	NaN
683	1.000000	0.044681	7.37173e+06	-42939.1	1005.82	-29780.9	0.000000	0.000000	6.044739	-0.019258	NaN	0.000000	0.001649	0.001761	28.0815	0.014670	0.001844	7.956347	166.895	12.4961	-0.071870	0.043335	-1.095374	-1.096721	-0.019258	7.956347	-1.093559	-4.107703E+14	4.688380E-17	NaN
683	1.000000	0.086688	7.37173e+06	-42939.1	1005.82	-29780.9	0.000000	0.000000	6.086746	0.000132	NaN	0.000000	0.001686	0.001838	28.0825	0.049200	0.002018	24.3839	67.7657	-165.799	-0.004047	0.085394	-1.053368	-1.054662	0.000132	24.3839	-1.053372	-1.185046E+14	-1.110857E-18	NaN
683	1.000000	0.128731	7.37173e+06	-42939.1	1005.82	-29780.9	0.000000	0.000000	6.128787	-0.058955	NaN	0.000000	0.001617	0.001778	28.0826	0.091705	0.002006	45.7114	-138.701	15.7073	-0.001039	0.127403	-1.011324	-1.012653	-0.058955	45.7114	-1.010357	-3.127428E+13	1.885093E-15	NaN
683	1.000000	0.170754	7.37173e+06	-42939.1	1005.82	-29780.9	0.000000	0.000000	6.170810	-0.046459	NaN	0.000000	0.001597	0.001805	28.0825	0.143030	0.002024	70.6673	-81.8594	-168.936	0.028145	0.169458	-0.969302	-0.970598	-0.046459	70.6673	-0.968809	-8.622015E+12	5.388425E-15	NaN
683	1.000000	0.212752	7.37173e+06	-42939.1	1005.82	-29780.9	0.000000	0.000000	6.212809	-0.018256	NaN	0.000000	0.001650	0.001768	28.0826	0.096497	0.001960	49.2289	135.174	16.8956	-0.052075	0.211416	-0.927304	-0.928640	-0.018256	49.2289	-0.927026	-2.355330E+12	7.751048E-15	NaN
683	1.000000	0.254717	7.37173e+06	-42939.1	1005.82	-29780.9	0.000000	0.000000	6.254776	-0.002489	NaN	0.000000	0.001579	0.001799	28.0815	0.026630	0.001948	13.6671	-8.490083	-165.714	0.025193	0.253406	-0.885338	-0.886650	-0.002489	13.6671	-0.885202	-6.412776E+11	3.881761E-15	NaN
683	1.000000	0.296784	7.37173e+06	-42939.1	1005.82	-29780.9	0.000000	0.000000	6.296842	-0.019365	NaN	0.000000	0.001557	0.001768	28.0814	0.130129	0.001991	65.3581	-171.742	12.4168	-0.039166	0.295417	-0.843272	-0.844638	-0.019365	65.3581	-0.843049	-1.724258E+11	1.123108E-13	NaN
683	1.000000	0.338803	7.37173e+06	-42939.1	1005.82	-29780.9	0.000000	0.000000	6.338863	0.029740	NaN	0.000000	0.001658	0.001786	28.0812	0.048363	0.002099	23.0449	29.5812	-164.529	0.096720	0.337483	-0.801252	-0.802573	0.029740	23.0449	-0.802220	-4.819475E+10	-6.170762E-13	NaN
683	1.000000	0.380845	7.37173e+06	-42939.1	1005.82	-29780.9	0.000000	0.000000	6.380904	0.022650	NaN	0.000000	0.001643	0.001749	28.0826	0.214434	0.002010	106.661	32.8086	13.028	0.000849	0.379480	-0.759211	-0.760576	0.022650	106.661	-0.759370	-1.261046E+10	-1.796093E-12	NaN
683	1.000000	0.422839	7.37173e+06	-42939.1	1005.82	-29780.9	0.000000	0.000000	6.422896	-0.036597	NaN	0.000000	0.001582	0.001792	28.0826	0.008160	0.002029	4.022405	118.121	-165.715	-0.049507	0.421539	-0.717217	-0.718517	-0.036597	4.022405	-0.710393	-2.712784E+9	1.349052E-11	NaN
683	1.000000	0.464845	7.37173e+06	-42939.1	1005.82	-29780.9	0.000000	0.000000	6.464902	-0.033090	NaN	0.000000	0.001657	0.001803	28.0828	0.077318	0.002175	35.5522	-151.755	15.8538	0.004320	0.463549	-0.675211	-0.676507	-0.033090	35.5522	-0.674513	-8.773001E+8	3.771770E-11	NaN
683	1.000000	0.506889	7.37173e+06	-42939.1	1005.82	-29780.9	0.000000	0.000000	6.506947	0.007216	NaN	0.000000	0.001649	0.001770	28.0817	0.095631	0.002060	46.4226	-110.756	-168.146	0.010551	0.505570	-0.633167	-0.634486	0.007216	46.4226	-0.633284	-2.388410E+8	-3.021068E-11	NaN
683	1.000000	0.548891	7.37173e+06	-42939.1	1005.82	-29780.9	0.000000	0.000000	6.548946	-0.080767	NaN	0.000000	0.001615	0.001774	28.0817	0.093823	0.001907	49.2026	129.017	12.8312	-0.050507	0.547524	-0.591165	-0.592532	-0.080767	49.2026	-0.589934	-6.049963E+7	1.335007E-9	NaN
683	1.000000	0.590926	7.37173e+06	-42939.1	1005.82	-29780.9	0.000000	0.000000	6.590985	0.017264	NaN	0.000000	0.001580	0.001802	28.0816	0.081109	0.001902	42.6415	-82.3923	-168.181	-0.052478	0.589600	-0.549130	-0.550456	0.017264	42.6415	-0.549433	-1.667663E+7	-1.035197E-9	NaN
683	1.000000	0.632919	7.37173e+06	-42939.1	1005.82	-29780.9	0.000000	0.000000	6.632975	-0.059939	NaN	0.000000	0.001586	0.001782	28.0827	0.110543	0.001989	55.5695	150.878	14.6043	-0.011920	0.631586	-0.507137	-0.508470	-0.059939	55.5695	-0.506328	-4.20004e+06	1.427116E-8	NaN
683	1.000000	0.674951	7.37173e+06	-42939.1	1005.82	-29780.9	0.000000	0.000000	6.675009	-0.002197	NaN	0.000000	0.001612	0.001798	28.0826	0.053718	0.002040	26.3281	28.0573	-165.842	0.068989	0.673607	-0.465105	-0.466448	-0.002197	26.3281	-0.465043	-1.11134e+06	1.976644E-9	NaN
683	1.000000	0.716971	7.37173e+06	-42939.1	1005.82	-29780.9	0.000000	0.000000	6.717030	0.017788	NaN	0.000000	0.001605	0.001770	28.0826	0.081197	0.001824	44.5061	-97.2023	14.2754	0.038082	0.715654	-0.423085	-0.424402	0.017788	44.5061	-0.423384	-287339	-6.190645E-8	NaN
683	1.000000	0.758979	7.37174e+06	-42939.1	1005.82	-29780.9	0.000000	0.000000	6.759035	-0.057075	NaN	0.000000	0.001628	0.001751	28.0829	0.136618	0.001950	70.0652	-164.209	-168.518	-0.032181	0.757711	-0.381076	-0.382345	-0.057075	70.0652	-0.380466	-70237.5	8.125938E-7	NaN
683	1.000000	0.800975	7.37174e+06	-42939.1	1005.82	-29780.9	0.000000	0.000000	6.801034	0.018253	NaN	0.000000	0.001638	0.001725	28.0815	0.018917	0.002079	9.097807	100.298	16.0217	0.041534	0.799626	-0.339081	-0.340429	0.018253	9.097807	-0.340586	-18624.6	-9.800305E-7	NaN
683	1.000000	0.843005	7.37174e+06	-42939.1	1005.82	-29780.9	0.000000	0.000000	6.843063	-0.002163	NaN	0.000000	0.001635	0.001771	28.0815	0.070773	0.001947	36.3528	36.5384	-166.844	0.037461	0.841696	-0.297050	-0.298360	-0.002163	36.3528	-0.297006	-4246.41	5.092949E-7	NaN
683	1.000000	0.885030	7.37174e+06	-42939.1	1005.82	-29780.9	0.000000	0.000000	6.885091	0.078721	NaN	0.000000	0.001612	0.001761	28.0816	0.062365	0.002064	30.2114	78.0585	12.8557	-0.017186	0.883639	-0.255026	-0.256417	0.078721	30.2114	-0.256980	-1053.36	-7.473322E-5	NaN
683	1.000000	0.927086	7.37174e+06	-42939.1	1005.82	-29780.9	0.000000	0.000000	6.927143	-0.017770	NaN	0.000000	0.001545	0.001729	28.0827	0.039220	0.002152	18.2223	-55.6853	-168.419	-0.009671	0.925732	-0.212970	-0.214324	-0.017770	18.2223	-0.212239	-208.459	8.524625E-5	NaN
683	1.000000	0.969085	7.37174e+06	-42939.1	1005.82	-29780.9	0.000000	0.000000	6.969145	0.049651	NaN	0.000000	0.001640	0.001712	28.0827	0.168596	0.001961	85.9592	-162.546	16.2339	-0.022536	0.967680	-0.170971	-0.172376	0.049651	85.9592	-0.171404	-43.4464	-0.001143	NaN
683	1.000000	1.011066	7.37174e+06	-42939.1	1005.82	-29780.9	0.000000	0.000000	7.011125	0.003973	NaN	0.000000	0.001634	0.001742	28.0824	0.040152	0.001957	20.5158	-56.5932	-167.501	-0.014571	1.009792	-0.128989	-0.130263	0.003973	20.5158	-0.129135	-7.331240	-0.000542	NaN
683	1.000000	1.053096	7.37174e+06	-42939.1	1005.82	-29780.9	0.000000	0.000000	7.053154	0.011410	NaN	0.000000	0.001610	0.001745	28.081	0.018013	0.002014	8.943317	82.0374	11.4392	0.010292	1.051739	-0.086960	-0.088317	0.011410	8.943317	-0.087917	-0.965238	-0.011821	NaN
683	1.000000	1.095102	7.37174e+06	-42939.1	1005.82	-29780.9	0.000000	0.000000	7.095159	-0.013795	NaN	0.000000	0.001624	0.001758	28.0811	0.139433	0.002002	69.6488	70.5038	-164.861	0.011387	1.093802	-0.044954	-0.046254	-0.013795	69.6488	-0.044806	-0.063394	0.217605	NaN
683	1.000000	1.137151	7.37174e+06	-42939.1	1005.82	-29780.9	0.000000	0.000000	7.137216	0.149613	NaN	0.000000	0.001722	0.001783	28.0811	0.348391	0.001986	175.458	19.2235	12.7815	0.026290	1.135753	-0.002905	-0.004303	0.149613	175.458	-0.003544	-0.002481	-60.2941	NaN
683	2.000000	1.153720	7.37174e+06	-42939.1	1005.82	-29780.9	0.000000	0.000000	7.154762	23.9411	NaN	0.000000	0.001605	0.001763	28.0825	17.7996	0.001770	10057.1	10.8806	179.569	23.7765	1.153332	0.013664	0.013276	23.9411	10057.1	0.011879	0.011345	2110.21	86265.5
683	2.000000	1.164175	7.37174e+06	-42939.1	1005.82	-29780.9	0.000000	0.000000	7.166156	46.7636	NaN	0.000000	0.001593	0.001712	28.0827	28.0104	0.001802	15541.2	0.994009	4.286870	44.1484	1.163844	0.024120	0.023788	46.7636	15541.2	0.021863	0.025555	1829.95	88822.9
683	2.000000	1.174713	7.37174e+06	-42939.1	1005.82	-29780.9	0.000000	0.000000	7.178147	82.1285	NaN	0.000000	0.001584	0.001814	28.0826	38.6706	0.001764	21924.2	8.134736	174.382	83.1997	1.174342	0.034658	0.034287	82.1285	21924.2	0.031848	0.044661	1838.92	94783.3
683	2.000000	1.185158	7.37174e+06	-42939.1	1005.82	-29780.9	0.000000	0.000000	7.190358	125.122	NaN	0.000000	0.001613	0.001744	28.0826	47.6177	0.001754	27149.7	4.102953	-3.493483	122.714	1.184797	0.045102	0.044742	125.122	27149.7	0.041645	0.068350	1830.61	94878.8
683	2.000000	1.195661	7.37174e+06	-42939.1	1005.82	-29780.9	0.000000	0.000000	7.203106	179.705	NaN	0.000000	0.001636	0.001777	28.0812	59.1577	0.001842	32113.5	6.793249	172.487	180.254	1.195340	0.055606	0.055284	179.705	32113.5	0.051409	0.096817	1856.12	94294.2
683	2.000000	1.206210	7.37174e+06	-42939.1	1005.82	-29780.9	0.000000	0.000000	7.215804	232.025	NaN	0.000000	0.001588	0.001705	28.081	70.1505	0.001733	40478.7	3.056588	-5.980947	234.279	1.206077	0.066154	0.066021	232.025	40478.7	0.061855	0.132543	1750.57	101583
683	2.000000	1.216591	7.37174e+06	-42939.1	1005.82	-29780.9	0.000000	0.000000	7.229792	319.749	NaN	0.000000	0.001615	0.001782	28.0812	79.4211	0.001744	45538	4.931571	171.647	317.762	1.216235	0.076536	0.076180	319.749	45538	0.071269	0.169290	1888.77	101119
683	2.000000	1.227072	7.37174e+06	-42939.1	1005.82	-29780.9	0.000000	0.000000	7.243487	397.969	NaN	0.000000	0.001531	0.001762	28.0825	89.8429	0.001769	50801.3	5.765436	-10.5255	393.522	1.226740	0.087016	0.086684	397.969	50801.3	0.081141	0.212335	1874.25	100725
683	2.000000	1.237606	7.37174e+06	-42939.1	1005.82	-29780.9	0.000000	0.000000	7.257881	491.888	NaN	0.000000	0.001608	0.001744	28.0824	97.0211	0.001831	52993	2.693747	173.452	493.448	1.237279	0.097550	0.097223	491.888	52993	0.090589	0.257781	1908.16	95359.9
683	2.000000	1.243447	7.37174e+06	-42939.1	1005.82	-29780.9	0.000000	0.000000	7.265787	542.115	NaN	0.000000	0.001605	0.001799	28.0828	103.192	0.001850	55778.3	6.399612	168.4	533.231	1.243180	0.103391	0.103124	542.115	55778.3	0.096102	0.286194	1894.23	95259.5