File: remote_trans/data/nanoindenter/0828-1/data/Data_2025-08-06,11h17m57s/2025-07-22_16-23-58_1_549.txt
2025-07-22, 16:23:58, 1
Index	Phase	Displacement	Time	Pos X	Pos Y	Pos Z	Rot A	Rot B	Piezo Z	Force A	Force B	Gripper	Voltage A	Voltage B	Temperature	Amplitude force	Amplitude pos	Stiffness	Phase shift	Phase excitation	Force A raw	Displacement raw	HMax	HMax raw	Real Force	Real Stiffness	Contact Depth	Area	Hardness	Reduced Mod.
[#]	[#]	[um]	[s]	[um]	[um]	[um]	[m°]	[m°]	[um]	[uN]	[uN]	[V]	[V]	[V]	[°C]	[uN]	[um]	[N/m]	[°]	[°]	[uN]	[um]	[um]	[um]	[uN]	[N/m]	[um]	[um^2]	[MPa]	[MPa]
549	1.000000	0.002803	7.37042e+06	-49639.1	1005.82	-29758.2	0.000000	0.000000	6.002805	-0.006593	NaN	0.000000	0.001629	0.001760	28.081	0.060797	0.000880	69.0755	8.453704	-166.377	-0.022259	0.001521	-1.278780	-1.280062	-0.006593	69.0755	-1.278709	-1.241149E+17	5.311709E-20	NaN
549	1.000000	0.048737	7.37042e+06	-49639.1	1005.82	-29758.2	0.000000	0.000000	6.048740	0.011407	NaN	0.000000	0.001561	0.001778	28.0806	0.041381	0.002051	20.1791	-137.252	14.7588	0.004642	0.047445	-1.232846	-1.234138	0.011407	20.1791	-1.233270	-3.062627E+16	-3.724672E-19	NaN
549	1.000000	0.094750	7.37042e+06	-49639.1	1005.82	-29758.2	0.000000	0.000000	6.094751	-0.039993	NaN	0.000000	0.001633	0.001738	28.0817	0.015864	0.002025	7.833767	-145.729	-167.427	-0.071121	0.093486	-1.186833	-1.188097	-0.039993	7.833767	-1.183004	-6.503041E+15	6.149836E-18	NaN
549	1.000000	0.140776	7.37042e+06	-49639.1	1005.82	-29758.2	0.000000	0.000000	6.140776	-0.043999	NaN	0.000000	0.001595	0.001765	28.0819	0.041842	0.001945	21.516	-78.6429	15.3731	0.008964	0.139431	-1.140807	-1.142152	-0.043999	21.516	-1.139274	-1.686548E+15	2.608830E-17	NaN
549	1.000000	0.186803	7.37042e+06	-49639.1	1005.82	-29758.2	0.000000	0.000000	6.186804	-0.022672	NaN	0.000000	0.001591	0.001747	28.0819	0.075196	0.001890	39.7946	166.314	-164.213	-0.018164	0.185525	-1.094781	-1.096058	-0.022672	39.7946	-1.094353	-4.209819E+14	5.385507E-17	NaN
549	1.000000	0.232829	7.37042e+06	-49639.1	1005.82	-29758.2	0.000000	0.000000	6.232830	-0.023992	NaN	0.000000	0.001600	0.001770	28.0806	0.057043	0.001851	30.8135	-59.7397	10.6756	-0.074273	0.231443	-1.048754	-1.050140	-0.023992	30.8135	-1.048170	-1.008833E+14	2.378209E-16	NaN
549	1.000000	0.278842	7.37042e+06	-49639.1	1005.82	-29758.2	0.000000	0.000000	6.278842	-0.053135	NaN	0.000000	0.001591	0.001759	28.0808	0.070502	0.001936	36.4209	-0.338452	-167.342	-0.001521	0.277560	-1.002742	-1.004023	-0.053135	36.4209	-1.001647	-2.387521E+13	2.225529E-15	NaN
549	1.000000	0.324879	7.37042e+06	-49639.1	1005.82	-29758.2	0.000000	0.000000	6.324883	0.028298	NaN	0.000000	0.001637	0.001782	28.0809	0.063856	0.001995	32.0039	104.707	14.4287	-0.005421	0.323521	-0.956704	-0.958062	0.028298	32.0039	-0.957367	-6.044685E+12	-4.681403E-15	NaN
549	1.000000	0.370857	7.37042e+06	-49639.1	1005.82	-29758.2	0.000000	0.000000	6.370859	-0.004962	NaN	0.000000	0.001590	0.001776	28.0822	0.017664	0.001978	8.932118	-175.458	-166.136	-0.051436	0.369606	-0.910726	-0.911978	-0.004962	8.932118	-0.910310	-1.400707E+12	3.542540E-15	NaN
549	1.000000	0.416905	7.37042e+06	-49639.1	1005.82	-29758.2	0.000000	0.000000	6.416907	-0.009223	NaN	0.000000	0.001615	0.001757	28.082	0.037435	0.002081	17.9929	179.703	10.8135	-0.049674	0.415520	-0.864679	-0.866063	-0.009223	17.9929	-0.864294	-3.343778E+11	2.758404E-14	NaN
549	1.000000	0.462926	7.37042e+06	-49639.1	1005.82	-29758.2	0.000000	0.000000	6.462930	0.031868	NaN	0.000000	0.001587	0.001702	28.0823	0.105073	0.002112	49.7458	-9.627000	-160.765	-0.025559	0.461685	-0.818657	-0.819899	0.031868	49.7458	-0.819138	-8.175608E+10	-3.897957E-13	NaN
549	1.000000	0.508945	7.37042e+06	-49639.1	1005.82	-29758.2	0.000000	0.000000	6.508949	0.029436	NaN	0.000000	0.001576	0.001704	28.0808	0.143396	0.002058	69.6733	-176.64	14.623	-0.030896	0.507589	-0.772638	-0.773994	0.029436	69.6733	-0.772955	-1.929648E+10	-1.525448E-12	NaN
549	1.000000	0.554942	7.37042e+06	-49639.1	1005.82	-29758.2	0.000000	0.000000	6.554941	-0.088722	NaN	0.000000	0.001632	0.001744	28.0811	0.080913	0.002056	39.3607	82.1902	-166.406	-0.022797	0.553653	-0.726641	-0.727930	-0.088722	39.3607	-0.724951	-4.285286E+9	2.070383E-11	NaN
549	1.000000	0.600972	7.37042e+06	-49639.1	1005.82	-29758.2	0.000000	0.000000	6.600972	-0.044670	NaN	0.000000	0.001612	0.001718	28.0811	0.072294	0.002082	34.7241	36.2429	15.067	-0.040484	0.599618	-0.680612	-0.681966	-0.044670	34.7241	-0.679647	-1.031279E+9	4.331500E-11	NaN
549	1.000000	0.646988	7.37042e+06	-49639.1	1005.82	-29758.2	0.000000	0.000000	6.646988	-0.055526	NaN	0.000000	0.001659	0.001719	28.0821	0.092563	0.001959	47.2551	129.758	-166.979	0.023235	0.645666	-0.634595	-0.635917	-0.055526	47.2551	-0.633714	-2.421123E+8	2.293410E-10	NaN
549	1.000000	0.693040	7.37042e+06	-49639.1	1005.82	-29758.2	0.000000	0.000000	6.693038	-0.091926	NaN	0.000000	0.001645	0.001733	28.0821	0.132253	0.001948	67.902	139.785	13.6852	-0.098419	0.691682	-0.588544	-0.589901	-0.091926	67.902	-0.587528	-5.605103E+7	1.640038E-9	NaN
549	1.000000	0.739036	7.37042e+06	-49639.1	1005.82	-29758.2	0.000000	0.000000	6.739038	-0.029662	NaN	0.000000	0.001667	0.001733	28.082	0.092753	0.002139	43.3698	-142.125	-165.833	0.007557	0.737726	-0.542547	-0.543858	-0.029662	43.3698	-0.542034	-1.316932E+7	2.252368E-9	NaN
549	1.000000	0.785038	7.37042e+06	-49639.1	1005.82	-29758.2	0.000000	0.000000	6.785038	-0.042499	NaN	0.000000	0.001683	0.001686	28.0809	0.046586	0.002037	22.8704	42.1494	15.0706	-0.022377	0.783720	-0.496546	-0.497863	-0.042499	22.8704	-0.495152	-2.93331e+06	1.448855E-8	NaN
549	1.000000	0.831065	7.37042e+06	-49639.1	1005.82	-29758.2	0.000000	0.000000	6.831068	0.003980	NaN	0.000000	0.001652	0.001699	28.0808	0.009102	0.002010	4.529070	103.628	-166.741	0.010724	0.829801	-0.450518	-0.451782	0.003980	4.529070	-0.451177	-709449	-5.610293E-9	NaN
549	1.000000	0.877069	7.37042e+06	-49639.1	1005.82	-29758.2	0.000000	0.000000	6.877071	-0.018168	NaN	0.000000	0.001617	0.001681	28.081	0.134981	0.001967	68.6062	102.969	17.2242	-0.017125	0.875777	-0.404514	-0.405806	-0.018168	68.6062	-0.404315	-153991	1.179831E-7	NaN
549	1.000000	0.923105	7.37042e+06	-49639.1	1005.82	-29758.2	0.000000	0.000000	6.923106	-0.029863	NaN	0.000000	0.001698	0.001692	28.0824	0.037355	0.001958	19.0786	-163.168	-165.618	-0.007129	0.921798	-0.358479	-0.359785	-0.029863	19.0786	-0.357305	-32573.2	9.167852E-7	NaN
549	1.000000	0.969117	7.37042e+06	-49639.1	1005.82	-29758.2	0.000000	0.000000	6.969120	0.010528	NaN	0.000000	0.001588	0.001681	28.0821	0.093316	0.002045	45.6226	-156.53	15.0961	0.032841	0.967743	-0.312467	-0.313840	0.010528	45.6226	-0.312640	-7245.88	-1.452978E-6	NaN
549	1.000000	1.015104	7.37042e+06	-49639.1	1005.82	-29758.2	0.000000	0.000000	7.015103	-0.089322	NaN	0.000000	0.001632	0.001690	28.0812	0.097206	0.001952	49.7862	-167.402	-166.219	-0.006935	1.013813	-0.266479	-0.267770	-0.089322	49.7862	-0.265133	-1404.19	6.361103E-5	NaN
549	1.000000	1.061172	7.37042e+06	-49639.1	1005.82	-29758.2	0.000000	0.000000	7.061173	-0.044441	NaN	0.000000	0.001597	0.001682	28.0809	0.063268	0.001993	31.7439	-56.3213	14.8454	-0.052766	1.059803	-0.220411	-0.221780	-0.044441	31.7439	-0.219361	-271.31	0.000164	NaN
549	1.000000	1.107170	7.37042e+06	-49639.1	1005.82	-29758.2	0.000000	0.000000	7.107174	0.047210	NaN	0.000000	0.001631	0.001698	28.0806	0.065206	0.001926	33.8556	-139.156	-166.97	0.042514	1.105862	-0.174413	-0.175721	0.047210	33.8556	-0.175459	-51.0348	-0.000925	NaN
549	1.000000	1.153193	7.37042e+06	-49639.1	1005.82	-29758.2	0.000000	0.000000	7.153196	0.005204	NaN	0.000000	0.001603	0.001676	28.0821	0.084936	0.002010	42.263	-127.961	12.1466	0.038766	1.151846	-0.128390	-0.129737	0.005204	42.263	-0.128483	-7.119610	-0.000731	NaN
549	1.000000	1.199212	7.37042e+06	-49639.1	1005.82	-29758.2	0.000000	0.000000	7.199215	0.013937	NaN	0.000000	0.001607	0.001697	28.0819	0.143242	0.002109	67.9171	-54.6964	-169.139	0.003017	1.197916	-0.082371	-0.083667	0.013937	67.9171	-0.082525	-0.714985	-0.019493	NaN
549	1.000000	1.245238	7.37042e+06	-49639.1	1005.82	-29758.2	0.000000	0.000000	7.245240	-0.023733	NaN	0.000000	0.001645	0.001708	28.0821	0.116543	0.001947	59.8533	-62.633	13.8962	-0.012951	1.243888	-0.036345	-0.037695	-0.023733	59.8533	-0.036048	-0.034393	0.690049	NaN
549	2.000000	1.288809	7.37042e+06	-49639.1	1005.82	-29758.2	0.000000	0.000000	7.289205	9.573781	NaN	0.000000	0.001639	0.001676	28.0813	9.169693	0.001515	6054.37	7.425572	-174.838	9.012202	1.288453	0.007226	0.006870	9.573781	6054.37	0.006040	0.005103	1876.22	77435.8
549	2.000000	1.300190	7.37042e+06	-49639.1	1005.82	-29758.2	0.000000	0.000000	7.301322	27.471	NaN	0.000000	0.001567	0.001730	28.0807	21.0638	0.001770	11900.2	2.957881	5.156982	25.2445	1.299889	0.018606	0.018306	27.471	11900.2	0.016875	0.017868	1537.46	81337.5
549	2.000000	1.311699	7.37042e+06	-49639.1	1005.82	-29758.2	0.000000	0.000000	7.313779	50.5209	NaN	0.000000	0.001621	0.001695	28.0807	31.9949	0.001815	17624.6	6.471090	179.107	53.6722	1.311370	0.030115	0.029786	50.5209	17624.6	0.027966	0.036633	1379.12	84131.6
549	2.000000	1.323196	7.37043e+06	-49639.1	1005.82	-29758.2	0.000000	0.000000	7.326765	86.7436	NaN	0.000000	0.001628	0.001708	28.0823	43.7857	0.001882	23270	4.100485	-1.889283	86.011	1.322900	0.041613	0.041317	86.7436	23270	0.038817	0.061007	1421.87	86075.7
549	2.000000	1.334589	7.37043e+06	-49639.1	1005.82	-29758.2	0.000000	0.000000	7.340147	135.131	NaN	0.000000	0.001641	0.001663	28.0821	52.9793	0.001742	30410.8	6.456057	172.501	131.739	1.334500	0.053005	0.052917	135.131	30410.8	0.049673	0.091404	1478.4	91900.6
549	2.000000	1.346227	7.37043e+06	-49639.1	1005.82	-29758.2	0.000000	0.000000	7.354337	197.176	NaN	0.000000	0.001639	0.001726	28.0821	64.9755	0.001860	34937.5	5.629987	-6.521813	197.748	1.345807	0.064643	0.064224	197.176	34937.5	0.060411	0.127285	1549.09	89469.9
549	2.000000	1.357591	7.37043e+06	-49639.1	1005.82	-29758.2	0.000000	0.000000	7.368450	264.01	NaN	0.000000	0.001623	0.001719	28.081	75.3599	0.001924	39162.6	6.723761	171.375	262.009	1.357344	0.076008	0.075760	264.01	39162.6	0.070952	0.167982	1571.66	87300
549	2.000000	1.369204	7.37043e+06	-49639.1	1005.82	-29758.2	0.000000	0.000000	7.383033	336.241	NaN	0.000000	0.001646	0.001683	28.0804	81.7414	0.001643	49766.3	3.330031	-6.123813	341.189	1.368748	0.087621	0.087165	336.241	49766.3	0.082554	0.218870	1536.26	97188.6
549	2.000000	1.380568	7.37043e+06	-49639.1	1005.82	-29758.2	0.000000	0.000000	7.398050	425.089	NaN	0.000000	0.001744	0.001682	28.0806	95.0777	0.001822	52189.9	4.466834	172.512	421.969	1.380244	0.098985	0.098661	425.089	52189.9	0.092876	0.269399	1577.91	91867.4
549	2.000000	1.386528	7.37043e+06	-49639.1	1005.82	-29758.2	0.000000	0.000000	7.405981	473.052	NaN	0.000000	0.001677	0.001646	28.0805	100.188	0.001774	56460.2	2.869035	172.745	468.067	1.386175	0.104944	0.104592	473.052	56460.2	0.098660	0.299850	1577.63	94202.7