File: remote_trans/data/nanoindenter/0828-1/data/Data_2025-08-06,11h17m57s/2025-07-22_16-23-58_1_1007.txt
2025-07-22, 16:23:58, 1
Index	Phase	Displacement	Time	Pos X	Pos Y	Pos Z	Rot A	Rot B	Piezo Z	Force A	Force B	Gripper	Voltage A	Voltage B	Temperature	Amplitude force	Amplitude pos	Stiffness	Phase shift	Phase excitation	Force A raw	Displacement raw	HMax	HMax raw	Real Force	Real Stiffness	Contact Depth	Area	Hardness	Reduced Mod.
[#]	[#]	[um]	[s]	[um]	[um]	[um]	[m°]	[m°]	[um]	[uN]	[uN]	[V]	[V]	[V]	[°C]	[uN]	[um]	[N/m]	[°]	[°]	[uN]	[um]	[um]	[um]	[uN]	[N/m]	[um]	[um^2]	[MPa]	[MPa]
1007	1.000000	0.002232	7.3749e+06	-50489.1	1055.82	-29755.3	0.000000	0.000000	6.002786	0.105962	NaN	0.000000	0.001627	0.001696	28.0845	0.089141	0.001065	83.6876	-166.499	-160.544	0.028490	0.000965	-1.107622	-1.108889	0.105962	83.6876	-1.108572	-6.533065E+14	-1.621937E-16	NaN
1007	1.000000	0.044182	7.3749e+06	-50489.1	1055.82	-29755.3	0.000000	0.000000	6.044733	0.054530	NaN	0.000000	0.001636	0.001707	28.0848	0.035678	0.001941	18.3802	143.012	16.0084	0.080474	0.042815	-1.065673	-1.067039	0.054530	18.3802	-1.067898	-1.857572E+14	-2.935551E-16	NaN
1007	1.000000	0.086176	7.3749e+06	-50489.1	1055.82	-29755.4	0.000000	0.000000	6.086729	0.091287	NaN	0.000000	0.001577	0.001679	28.0846	0.052757	0.001965	26.85	-63.4228	-166.227	0.061918	0.084920	-1.023678	-1.024935	0.091287	26.85	-1.026228	-5.113758E+13	-1.785116E-15	NaN
1007	1.000000	0.128265	7.3749e+06	-50489.1	1055.82	-29755.4	0.000000	0.000000	6.128818	0.104341	NaN	0.000000	0.001563	0.001732	28.0831	0.090967	0.001979	45.9736	121.444	15.6254	0.068888	0.126836	-0.981589	-0.983019	0.104341	45.9736	-0.983291	-1.351288E+13	-7.721584E-15	NaN
1007	1.000000	0.170230	7.3749e+06	-50489.1	1055.82	-29755.4	0.000000	0.000000	6.170779	0.018972	NaN	0.000000	0.001529	0.001719	28.0833	0.075695	0.001904	39.7548	80.6229	-166.663	0.032235	0.168963	-0.939624	-0.940891	0.018972	39.7548	-0.939982	-3.522898E+12	-5.385463E-15	NaN
1007	1.000000	0.212262	7.3749e+06	-50489.1	1055.82	-29755.4	0.000000	0.000000	6.212813	0.047459	NaN	0.000000	0.001567	0.001671	28.0834	0.089922	0.001978	45.4574	-73.7449	14.9508	0.132593	0.210941	-0.897592	-0.898913	0.047459	45.4574	-0.898375	-9.662907E+11	-4.911452E-14	NaN
1007	1.000000	0.254245	7.3749e+06	-50489.1	1055.82	-29755.4	0.000000	0.000000	6.254796	0.042238	NaN	0.000000	0.001550	0.001728	28.0844	0.058721	0.001998	29.3874	-122.636	-165.698	0.041977	0.252955	-0.855609	-0.856900	0.042238	29.3874	-0.856687	-2.637983E+11	-1.601162E-13	NaN
1007	1.000000	0.296303	7.3749e+06	-50489.1	1055.82	-29755.4	0.000000	0.000000	6.296851	-0.014181	NaN	0.000000	0.001501	0.001719	28.0846	0.082409	0.002063	39.9434	63.7014	16.1936	0.057849	0.294991	-0.813551	-0.814863	-0.014181	39.9434	-0.813285	-6.809789E+10	2.082493E-13	NaN
1007	1.000000	0.338306	7.3749e+06	-50489.1	1055.82	-29755.4	0.000000	0.000000	6.338857	0.053574	NaN	0.000000	0.001552	0.001711	28.0841	0.053566	0.001984	27.0042	-15.6794	-166.761	0.022825	0.336959	-0.771548	-0.772895	0.053574	27.0042	-0.773036	-1.934546E+10	-2.769340E-12	NaN
1007	1.000000	0.380316	7.3749e+06	-50489.1	1055.82	-29755.4	0.000000	0.000000	6.380868	0.063488	NaN	0.000000	0.001547	0.001776	28.0834	0.101596	0.002038	49.8507	-128.16	15.4046	0.084169	0.378975	-0.729538	-0.730879	0.063488	49.8507	-0.730493	-5.099546E+9	-1.244964E-11	NaN
1007	1.000000	0.422358	7.3749e+06	-50489.1	1055.82	-29755.4	0.000000	0.000000	6.422910	0.067139	NaN	0.000000	0.001587	0.001713	28.0833	0.079746	0.001898	42.0101	49.5677	-165.179	0.018496	0.421057	-0.687496	-0.688797	0.067139	42.0101	-0.688695	-1.371137E+9	-4.896618E-11	NaN
1007	1.000000	0.464378	7.3749e+06	-50489.1	1055.82	-29755.4	0.000000	0.000000	6.464931	0.091000	NaN	0.000000	0.001529	0.001753	28.0832	0.095152	0.002088	45.5788	132.851	14.7124	0.073034	0.462998	-0.645476	-0.646856	0.091000	45.5788	-0.646973	-3.680782E+8	-2.472293E-10	NaN
1007	1.000000	0.506388	7.3749e+06	-50489.1	1055.82	-29755.4	0.000000	0.000000	6.506940	0.082069	NaN	0.000000	0.001540	0.001761	28.0834	0.129202	0.001915	67.471	-66.9145	-164.765	0.003091	0.505090	-0.603466	-0.604764	0.082069	67.471	-0.604379	-9.566430E+7	-8.578803E-10	NaN
1007	1.000000	0.548428	7.3749e+06	-50489.1	1055.82	-29755.4	0.000000	0.000000	6.548980	0.074933	NaN	0.000000	0.001609	0.001766	28.0846	0.085642	0.002082	41.1345	-28.2263	12.6895	0.088307	0.547067	-0.561426	-0.562787	0.074933	41.1345	-0.562792	-2.552673E+7	-2.935468E-9	NaN
1007	1.000000	0.590435	7.3749e+06	-50489.1	1055.82	-29755.4	0.000000	0.000000	6.590986	0.041015	NaN	0.000000	0.001531	0.001717	28.0844	0.078039	0.001971	39.5952	128.614	-165.387	0.130103	0.589131	-0.519419	-0.520723	0.041015	39.5952	-0.520196	-6.55128e+06	-6.260662E-9	NaN
1007	1.000000	0.632445	7.3749e+06	-50489.1	1055.82	-29755.4	0.000000	0.000000	6.632994	0.008406	NaN	0.000000	0.001527	0.001772	28.084	0.071628	0.001916	37.3929	-162.818	13.5807	-0.011683	0.631083	-0.477409	-0.478771	0.008406	37.3929	-0.477578	-1.66577e+06	-5.046592E-9	NaN
1007	1.000000	0.674465	7.3749e+06	-50489.1	1055.82	-29755.4	0.000000	0.000000	6.675014	0.009403	NaN	0.000000	0.001536	0.001750	28.0829	0.105734	0.001904	55.5455	68.0544	-168.371	0.077137	0.673162	-0.435389	-0.436692	0.009403	55.5455	-0.435516	-426630	-2.204024E-8	NaN
1007	1.000000	0.716512	7.3749e+06	-50489.1	1055.82	-29755.4	0.000000	0.000000	6.717065	0.107275	NaN	0.000000	0.001511	0.001743	28.0824	0.048450	0.002042	23.7278	164.27	13.6291	0.089477	0.715141	-0.393342	-0.394714	0.107275	23.7278	-0.396733	-120056	-8.935432E-7	NaN
1007	1.000000	0.758506	7.3749e+06	-50489.1	1055.82	-29755.4	0.000000	0.000000	6.759058	0.068690	NaN	0.000000	0.001476	0.001799	28.0825	0.034561	0.001900	18.193	124.281	-166.355	0.132734	0.757169	-0.351348	-0.352685	0.068690	18.193	-0.354179	-29350.1	-2.340360E-6	NaN
1007	1.000000	0.800483	7.3749e+06	-50489.1	1055.82	-29755.4	0.000000	0.000000	6.801033	0.038409	NaN	0.000000	0.001476	0.001777	28.0837	0.063843	0.001919	33.2644	164.07	17.5777	0.064085	0.799139	-0.309372	-0.310716	0.038409	33.2644	-0.310237	-6676.83	-5.752526E-6	NaN
1007	1.000000	0.842533	7.3749e+06	-50489.1	1055.82	-29755.4	0.000000	0.000000	6.843084	0.063497	NaN	0.000000	0.001500	0.001787	28.0837	0.111239	0.001989	55.9329	172.24	-164.962	0.116915	0.841236	-0.267322	-0.268619	0.063497	55.9329	-0.268173	-1562.26	-4.064429E-5	NaN
1007	1.000000	0.884550	7.3749e+06	-50489.1	1055.82	-29755.4	0.000000	0.000000	6.885101	0.036733	NaN	0.000000	0.001501	0.001796	28.0839	0.112287	0.001917	58.5858	79.3191	13.2905	-0.015851	0.883187	-0.225304	-0.226667	0.036733	58.5858	-0.225774	-343.264	-0.000107	NaN
1007	1.000000	0.926564	7.3749e+06	-50489.1	1055.82	-29755.4	0.000000	0.000000	6.927114	0.039294	NaN	0.000000	0.001540	0.001742	28.0829	0.137562	0.001983	69.363	27.2123	-167.255	0.099480	0.925244	-0.183291	-0.184610	0.039294	69.363	-0.183716	-70.5437	-0.000557	NaN
1007	1.000000	0.968589	7.3749e+06	-50489.1	1055.82	-29755.4	0.000000	0.000000	6.969137	-0.002345	NaN	0.000000	0.001595	0.001759	28.0826	0.039246	0.002103	18.6596	-146.712	14.827	-0.010900	0.967247	-0.141266	-0.142608	-0.002345	18.6596	-0.141171	-12.4431	0.000188	NaN
1007	1.000000	1.010588	7.3749e+06	-50489.1	1055.82	-29755.4	0.000000	0.000000	7.011139	0.058524	NaN	0.000000	0.001652	0.001730	28.0827	0.082686	0.002005	41.2385	-37.9574	-167.184	0.070937	1.009331	-0.099267	-0.100524	0.058524	41.2385	-0.100331	-1.858249	-0.031494	NaN
1007	1.000000	1.052613	7.3749e+06	-50489.1	1055.82	-29755.4	0.000000	0.000000	7.053162	-0.006231	NaN	0.000000	0.001598	0.001736	28.0827	0.055071	0.002044	26.9395	52.3191	13.7722	-0.013812	1.051254	-0.057241	-0.058601	-0.006231	26.9395	-0.057068	-0.148116	0.042068	NaN
1007	1.000000	1.094642	7.3749e+06	-50489.1	1055.82	-29755.4	0.000000	0.000000	7.095190	-0.006311	NaN	0.000000	0.001589	0.001763	28.0839	0.074611	0.001910	39.0577	-145.028	-167.923	-0.009795	1.093300	-0.015212	-0.016554	-0.006311	39.0577	-0.015091	-0.009330	0.676443	NaN
1007	2.000000	1.122761	7.3749e+06	-50489.1	1055.82	-29755.4	0.000000	0.000000	7.123807	12.077	NaN	0.000000	0.001619	0.001753	28.0837	12.6486	0.001769	7151.34	5.844268	7.205426	11.89	1.122460	0.012907	0.012606	12.077	7151.34	0.011640	0.011062	1091.75	62121.8
1007	2.000000	1.133183	7.3749e+06	-50489.1	1055.82	-29755.4	0.000000	0.000000	7.135279	37.6145	NaN	0.000000	0.001580	0.001771	28.0839	23.8425	0.001696	14059	4.871314	-177.151	36.7535	1.132872	0.023329	0.023018	37.6145	14059	0.021322	0.024663	1525.16	81791.5
1007	2.000000	1.143701	7.3749e+06	-50489.1	1055.82	-29755.4	0.000000	0.000000	7.147074	68.6606	NaN	0.000000	0.001529	0.001761	28.0827	35.5633	0.001861	19106.2	0.890783	3.392911	66.8828	1.143259	0.033847	0.033405	68.6606	19106.2	0.031152	0.043165	1590.66	84020.1
1007	2.000000	1.154153	7.3749e+06	-50489.1	1055.82	-29755.4	0.000000	0.000000	7.159268	111.041	NaN	0.000000	0.001561	0.001745	28.0831	44.9643	0.001900	23670.1	8.148165	174.482	111.116	1.153841	0.044299	0.043987	111.041	23670.1	0.040780	0.066060	1680.91	84140.1
1007	2.000000	1.164593	7.3749e+06	-50489.1	1055.82	-29755.4	0.000000	0.000000	7.171944	165.409	NaN	0.000000	0.001551	0.001740	28.0832	55.0967	0.001781	30929.5	6.544961	-7.023843	162.805	1.164318	0.054739	0.054463	165.409	30929.5	0.050728	0.094676	1747.1	91838.6
1007	2.000000	1.175173	7.3749e+06	-50489.1	1055.82	-29755.4	0.000000	0.000000	7.185197	230.414	NaN	0.000000	0.001586	0.001748	28.0836	66.2893	0.001800	36828.6	3.230393	175.477	231.069	1.174773	0.065318	0.064919	230.414	36828.6	0.060626	0.128063	1799.22	94025.6
1007	2.000000	1.185630	7.3749e+06	-50489.1	1055.82	-29755.4	0.000000	0.000000	7.198588	301.764	NaN	0.000000	0.001550	0.001739	28.0838	77.9574	0.001758	44353.2	7.418060	-10.8051	300.932	1.185394	0.075776	0.075540	301.764	44353.2	0.070673	0.166836	1808.75	99209.6
1007	2.000000	1.196074	7.37491e+06	-50489.1	1055.82	-29755.4	0.000000	0.000000	7.212229	379.502	NaN	0.000000	0.001555	0.001760	28.0838	87.3681	0.001795	48681.9	0.524751	175.466	377.599	1.195939	0.086220	0.086085	379.502	48681.9	0.080373	0.208826	1817.31	97330.3
1007	2.000000	1.206506	7.37491e+06	-50489.1	1055.82	-29755.4	0.000000	0.000000	7.227232	490.676	NaN	0.000000	0.001588	0.001726	28.0828	97.6812	0.001761	55483.7	3.922896	-7.862317	485.442	1.206182	0.096652	0.096327	490.676	55483.7	0.090019	0.254925	1924.78	100400
1007	2.000000	1.216724	7.37491e+06	-50489.1	1055.82	-29755.4	0.000000	0.000000	7.241022	577.536	NaN	0.000000	0.001566	0.001665	28.0828	107.39	0.001800	59665.2	3.381159	-7.252585	584.875	1.216148	0.106870	0.106294	577.536	59665.2	0.099610	0.304996	1893.59	98706.8