File: remote_trans/data/nanoindenter/0828-1/data/Data_2025-08-06,11h17m57s/2025-07-22_16-23-58_1_33.txt
2025-07-22, 16:23:58, 1
Index	Phase	Displacement	Time	Pos X	Pos Y	Pos Z	Rot A	Rot B	Piezo Z	Force A	Force B	Gripper	Voltage A	Voltage B	Temperature	Amplitude force	Amplitude pos	Stiffness	Phase shift	Phase excitation	Force A raw	Displacement raw	HMax	HMax raw	Real Force	Real Stiffness	Contact Depth	Area	Hardness	Reduced Mod.
[#]	[#]	[um]	[s]	[um]	[um]	[um]	[m°]	[m°]	[um]	[uN]	[uN]	[V]	[V]	[V]	[°C]	[uN]	[um]	[N/m]	[°]	[°]	[uN]	[um]	[um]	[um]	[uN]	[N/m]	[um]	[um^2]	[MPa]	[MPa]
33	1.000000	0.002135	7.36536e+06	-40289.1	955.819	-29790.7	0.000000	0.000000	6.002816	-0.039770	NaN	0.000000	0.001611	0.001707	28.1155	0.046300	0.001045	44.321	-104.821	-162.48	0.002847	0.000897	-1.641133	-1.642370	-0.039770	44.321	-1.640460	-8.226510E+21	4.834351E-24	NaN
33	1.000000	0.060084	7.36536e+06	-40289.1	955.819	-29790.6	0.000000	0.000000	6.060766	-0.020378	NaN	0.000000	0.001590	0.001679	28.0829	0.134267	0.001922	69.8487	-49.309	17.0177	-0.052494	0.058726	-1.583183	-1.584542	-0.020378	69.8487	-1.582965	-1.414575E+21	1.440585E-23	NaN
33	1.000000	0.118095	7.36536e+06	-40289.1	955.818	-29790.6	0.000000	0.000000	6.118776	-0.038581	NaN	0.000000	0.001590	0.001662	28.0828	0.068914	0.002021	34.0951	-153.609	-164.807	-0.091862	0.116784	-1.525172	-1.526483	-0.038581	34.0951	-1.524324	-2.345359E+20	1.644998E-22	NaN
33	1.000000	0.176115	7.36536e+06	-40289.1	955.818	-29790.6	0.000000	0.000000	6.176799	0.024247	NaN	0.000000	0.001570	0.001706	28.1205	0.105293	0.001998	52.6889	47.0948	17.4226	0.097070	0.174740	-1.467152	-1.468527	0.024247	52.6889	-1.467497	-4.105127E+19	-5.906412E-22	NaN
33	1.000000	0.234131	7.36536e+06	-40289.1	955.818	-29790.6	0.000000	0.000000	6.234815	0.023564	NaN	0.000000	0.001598	0.001642	28.1177	0.035760	0.001892	18.9042	-13.0246	-164.383	0.032058	0.232877	-1.409136	-1.410391	0.023564	18.9042	-1.410071	-7.043585E+18	-3.345457E-21	NaN
33	1.000000	0.292174	7.36536e+06	-40289.1	955.819	-29790.6	0.000000	0.000000	6.292856	-0.024638	NaN	0.000000	0.001531	0.001633	28.0821	0.117104	0.001919	61.0101	-126.655	15.3108	-0.119141	0.290807	-1.351093	-1.352460	-0.024638	61.0101	-1.350791	-1.139683E+18	2.161802E-20	NaN
33	1.000000	0.350209	7.36536e+06	-40289.1	955.818	-29790.6	0.000000	0.000000	6.350889	-0.069963	NaN	0.000000	0.001561	0.001707	28.0845	0.152857	0.001976	77.357	151.951	-161.157	-0.140644	0.348908	-1.293058	-1.294360	-0.069963	77.357	-1.292380	-1.890433E+17	3.700888E-19	NaN
33	1.000000	0.408195	7.36536e+06	-40289.1	955.819	-29790.6	0.000000	0.000000	6.408875	-0.071073	NaN	0.000000	0.001554	0.001694	28.1189	0.086668	0.001962	44.175	155.718	13.7078	-0.029822	0.406848	-1.235072	-1.236420	-0.071073	44.175	-1.233866	-3.119360E+16	2.278440E-18	NaN
33	1.000000	0.466274	7.36536e+06	-40289.1	955.818	-29790.6	0.000000	0.000000	6.466954	-0.070584	NaN	0.000000	0.001657	0.001692	28.1178	0.017852	0.001963	9.092198	92.947	-168.583	-0.029266	0.464930	-1.176993	-1.178338	-0.070584	9.092198	-1.171171	-4.514150E+15	1.563624E-17	NaN
33	1.000000	0.524280	7.36536e+06	-40289.1	955.819	-29790.6	0.000000	0.000000	6.524963	0.008437	NaN	0.000000	0.001660	0.001668	28.0825	0.106717	0.002079	51.3293	-32.9836	13.6479	-0.015207	0.522935	-1.118987	-1.120333	0.008437	51.3293	-1.119111	-9.047770E+14	-9.325115E-18	NaN
33	1.000000	0.582302	7.36536e+06	-40289.1	955.82	-29790.6	0.000000	0.000000	6.582986	0.017615	NaN	0.000000	0.001592	0.001689	28.083	0.051285	0.001999	25.651	40.9753	-165.465	-0.020315	0.581010	-1.060965	-1.062258	0.017615	25.651	-1.061480	-1.523056E+14	-1.156545E-16	NaN
33	1.000000	0.640310	7.36536e+06	-40289.1	955.82	-29790.6	0.000000	0.000000	6.640990	-0.077815	NaN	0.000000	0.001578	0.001663	28.118	0.051134	0.001965	26.0279	77.8467	19.7955	0.012695	0.638962	-1.002957	-1.004306	-0.077815	26.0279	-1.000715	-2.319513E+13	3.354810E-15	NaN
33	1.000000	0.698358	7.36536e+06	-40289.1	955.819	-29790.6	0.000000	0.000000	6.699036	-0.098077	NaN	0.000000	0.001585	0.001668	28.1196	0.050138	0.001982	25.2932	-84.733	-165.153	-0.129385	0.697068	-0.944910	-0.946199	-0.098077	25.2932	-0.942002	-3.750955E+12	2.614732E-14	NaN
33	1.000000	0.756389	7.36536e+06	-40289.1	955.818	-29790.6	0.000000	0.000000	6.757071	-0.013790	NaN	0.000000	0.001559	0.001667	28.0822	0.058260	0.002101	27.7299	38.1305	18.3643	-0.004766	0.754949	-0.886879	-0.888319	-0.013790	27.7299	-0.886506	-6.678440E+11	2.064825E-14	NaN
33	1.000000	0.814387	7.36536e+06	-40289.1	955.818	-29790.6	0.000000	0.000000	6.815071	0.025732	NaN	0.000000	0.001615	0.001689	28.0812	0.148029	0.002000	74.0076	-164.513	-165.939	0.037606	0.813058	-0.828881	-0.830209	0.025732	74.0076	-0.829142	-1.117248E+11	-2.303178E-13	NaN
33	1.000000	0.872457	7.36536e+06	-40289.1	955.819	-29790.6	0.000000	0.000000	6.873137	-0.065596	NaN	0.000000	0.001504	0.001635	28.1183	0.071308	0.002126	33.541	125.027	14.3302	0.000462	0.871076	-0.770810	-0.772191	-0.065596	33.541	-0.769344	-1.723376E+10	3.806237E-12	NaN
33	1.000000	0.930415	7.36536e+06	-40289.1	955.818	-29790.6	0.000000	0.000000	6.931099	0.011638	NaN	0.000000	0.001544	0.001655	28.1204	0.067610	0.001918	35.2472	-135.22	-165.312	-0.028516	0.929126	-0.712852	-0.714142	0.011638	35.2472	-0.713100	-2.953565E+9	-3.940261E-12	NaN
33	1.000000	0.988465	7.36536e+06	-40289.1	955.818	-29790.6	0.000000	0.000000	6.989147	-0.036095	NaN	0.000000	0.001562	0.001668	28.0833	0.053083	0.001826	29.0706	80.5122	17.9803	-0.026112	0.987131	-0.654802	-0.656136	-0.036095	29.0706	-0.653871	-4.576097E+8	7.887777E-11	NaN
33	1.000000	1.046464	7.36537e+06	-40289.1	955.818	-29790.6	0.000000	0.000000	7.047147	-0.000903	NaN	0.000000	0.001604	0.001668	28.081	0.066465	0.001897	35.0362	-109.394	-165.36	0.091235	1.045153	-0.596803	-0.598115	-0.000903	35.0362	-0.596784	-7.519002E+7	1.200384E-11	NaN
33	1.000000	1.104487	7.36537e+06	-40289.1	955.818	-29790.6	0.000000	0.000000	7.105168	-0.030645	NaN	0.000000	0.001565	0.001712	28.1172	0.106216	0.002038	52.1192	-170.736	16.2859	0.041945	1.103126	-0.538781	-0.540142	-0.030645	52.1192	-0.538340	-1.170390E+7	2.618354E-9	NaN
33	1.000000	1.162526	7.36537e+06	-40289.1	955.818	-29790.6	0.000000	0.000000	7.163209	0.017572	NaN	0.000000	0.001599	0.001670	28.1224	0.122568	0.002085	58.7806	111.476	-161.291	-0.038459	1.161220	-0.480742	-0.482048	0.017572	58.7806	-0.480966	-1.85803e+06	-9.457188E-9	NaN
33	1.000000	1.220572	7.36537e+06	-40289.1	955.817	-29790.6	0.000000	0.000000	7.221255	0.000626	NaN	0.000000	0.001580	0.001704	28.082	0.032281	0.002056	15.7024	66.0173	14.8025	-0.046171	1.219125	-0.422696	-0.424142	0.000626	15.7024	-0.422726	-281226	-2.224381E-9	NaN
33	1.000000	1.278578	7.36537e+06	-40289.1	955.819	-29790.6	0.000000	0.000000	7.279259	-0.049787	NaN	0.000000	0.001566	0.001719	28.0799	0.122079	0.001899	64.269	25.9373	-165.512	-0.179138	1.277279	-0.364689	-0.365989	-0.049787	64.269	-0.364108	-40849.6	1.218784E-6	NaN
33	1.000000	1.336633	7.36537e+06	-40289.1	955.819	-29790.6	0.000000	0.000000	7.337317	0.014494	NaN	0.000000	0.001596	0.001710	28.1169	0.053506	0.001978	27.0508	162.817	17.0118	-0.011311	1.335248	-0.306634	-0.308020	0.014494	27.0508	-0.307036	-5986.26	-2.421265E-6	NaN
33	1.000000	1.394643	7.36537e+06	-40289.1	955.818	-29790.6	0.000000	0.000000	7.395326	0.027168	NaN	0.000000	0.001553	0.001722	28.1237	0.050009	0.002027	24.6752	164.837	-165.146	-0.030244	1.393304	-0.248625	-0.249964	0.027168	24.6752	-0.249451	-806.251	-3.369702E-5	NaN
33	1.000000	1.452685	7.36537e+06	-40289.1	955.818	-29790.6	0.000000	0.000000	7.453367	-0.019730	NaN	0.000000	0.001514	0.001671	28.0836	0.104751	0.001989	52.669	96.1333	15.2152	-0.037556	1.451267	-0.190582	-0.192001	-0.019730	52.669	-0.190301	-91.0037	0.000217	NaN
33	1.000000	1.510697	7.36537e+06	-40289.1	955.819	-29790.6	0.000000	0.000000	7.511380	0.004962	NaN	0.000000	0.001543	0.001689	28.0784	0.041611	0.002037	20.4269	-158.616	-161.794	-0.012591	1.509405	-0.132571	-0.133863	0.004962	20.4269	-0.132753	-8.614366	-0.000576	NaN
33	1.000000	1.568726	7.36537e+06	-40289.1	955.819	-29790.6	0.000000	0.000000	7.569406	-0.048390	NaN	0.000000	0.001578	0.001725	28.1147	0.035621	0.002007	17.7441	-174.457	17.5954	0.021320	1.567374	-0.074542	-0.075893	-0.048390	17.7441	-0.072497	-0.397369	0.121776	NaN
33	1.000000	1.626760	7.36537e+06	-40289.1	955.819	-29790.6	0.000000	0.000000	7.627441	-0.043901	NaN	0.000000	0.001607	0.001706	28.1247	0.009485	0.001933	4.908186	175.314	-165.442	-0.000361	1.625413	-0.016508	-0.017855	-0.043901	4.908186	-0.009799	-0.006272	6.998974	NaN
33	1.000000	1.684754	7.36537e+06	-40289.1	955.819	-29790.6	0.000000	0.000000	7.685661	5.447647	NaN	0.000000	0.001607	0.001651	28.0836	2.025693	0.001991	1017.58	11.7798	9.935270	4.858399	1.683358	0.041487	0.040091	5.447647	1017.58	0.037472	0.057657	94.4829	3871.79
33	2.000000	1.705245	7.36537e+06	-40289.1	955.817	-29790.6	0.000000	0.000000	7.706506	14.0853	NaN	0.000000	0.001602	0.001654	28.0797	6.236851	0.001979	3152.19	6.126201	-168.972	13.9959	1.704967	0.061977	0.061699	14.0853	3152.19	0.058626	0.120927	116.477	8281.77
33	2.000000	1.719696	7.36537e+06	-40289.1	955.816	-29790.6	0.000000	0.000000	7.721508	27.4916	NaN	0.000000	0.001549	0.001707	28.1126	11.2732	0.001908	5909.62	4.053993	8.846902	26.7813	1.719366	0.076428	0.076099	27.4916	5909.62	0.072939	0.176249	155.982	12860.8
33	2.000000	1.734154	7.36537e+06	-40289.1	955.817	-29790.6	0.000000	0.000000	7.737607	67.413	NaN	0.000000	0.001593	0.001674	28.1232	20.1811	0.001805	11179.1	0.754554	-171.857	66.2731	1.733821	0.090887	0.090553	67.413	11179.1	0.086364	0.236951	284.502	20982.3
33	2.000000	1.748593	7.36537e+06	-40289.1	955.819	-29790.6	0.000000	0.000000	7.755001	139.309	NaN	0.000000	0.001578	0.001640	28.0844	31.0238	0.001897	16354	4.296987	0.820586	136.151	1.748313	0.105325	0.105045	139.309	16354	0.098937	0.301342	462.294	27218.6
33	2.000000	1.763136	7.36537e+06	-40289.1	955.818	-29790.6	0.000000	0.000000	7.772979	222.916	NaN	0.000000	0.001616	0.001658	28.0806	42.7299	0.001800	23734	3.707648	178.459	223.473	1.763024	0.119868	0.119757	222.916	23734	0.112824	0.380829	585.343	35138.2
33	2.000000	1.777610	7.36537e+06	-40289.1	955.818	-29790.6	0.000000	0.000000	7.791227	314.74	NaN	0.000000	0.001625	0.001708	28.1121	53.7576	0.001864	28842.9	5.998914	-4.920676	312.303	1.777243	0.134343	0.133975	314.74	28842.9	0.126158	0.465384	676.302	38628.4
33	2.000000	1.791597	7.36537e+06	-40289.1	955.818	-29790.6	0.000000	0.000000	7.808786	401.672	NaN	0.000000	0.001574	0.001685	28.1102	65.4062	0.001884	34715.2	4.906334	-4.823885	399.286	1.791258	0.148329	0.147990	401.672	34715.2	0.139651	0.559196	718.303	42414.2