File: remote_trans/data/nanoindenter/0828-1/data/Data_2025-08-06,11h17m57s/2025-07-22_16-23-58_1_206.txt
2025-07-22, 16:23:58, 1
Index	Phase	Displacement	Time	Pos X	Pos Y	Pos Z	Rot A	Rot B	Piezo Z	Force A	Force B	Gripper	Voltage A	Voltage B	Temperature	Amplitude force	Amplitude pos	Stiffness	Phase shift	Phase excitation	Force A raw	Displacement raw	HMax	HMax raw	Real Force	Real Stiffness	Contact Depth	Area	Hardness	Reduced Mod.
[#]	[#]	[um]	[s]	[um]	[um]	[um]	[m°]	[m°]	[um]	[uN]	[uN]	[V]	[V]	[V]	[°C]	[uN]	[um]	[N/m]	[°]	[°]	[uN]	[um]	[um]	[um]	[uN]	[N/m]	[um]	[um^2]	[MPa]	[MPa]
206	1.000000	0.002698	7.36706e+06	-48939.1	955.819	-29761	0.000000	0.000000	6.002787	-0.071295	NaN	0.000000	0.001665	0.001671	28.0803	0.059196	0.001013	58.4402	-84.6819	-172.975	-0.048119	0.001446	-1.067150	-1.068403	-0.071295	58.4402	-1.066235	-1.764418E+14	4.040702E-16	NaN
206	1.000000	0.042654	7.36706e+06	-48939.1	955.818	-29761	0.000000	0.000000	6.042745	-0.015620	NaN	0.000000	0.001667	0.001651	28.0799	0.050903	0.001959	25.9842	156.307	-165.452	0.030231	0.041352	-1.027194	-1.028497	-0.015620	25.9842	-1.026743	-5.196039E+13	3.006169E-16	NaN
206	1.000000	0.082686	7.36706e+06	-48939.1	955.819	-29761	0.000000	0.000000	6.082777	-0.007711	NaN	0.000000	0.001660	0.001601	28.08	0.041781	0.001916	21.8052	135.547	-165.816	-0.025230	0.081363	-0.987163	-0.988486	-0.007711	21.8052	-0.986897	-1.511209E+13	5.102375E-16	NaN
206	1.000000	0.122710	7.36706e+06	-48939.1	955.819	-29761	0.000000	0.000000	6.122804	0.053053	NaN	0.000000	0.001701	0.001656	28.0788	0.055986	0.002196	25.4958	64.3227	-165.35	0.045848	0.121405	-0.947138	-0.948443	0.053053	25.4958	-0.948699	-4.618285E+12	-1.148762E-14	NaN
206	1.000000	0.162732	7.36706e+06	-48939.1	955.819	-29761	0.000000	0.000000	6.162824	0.002357	NaN	0.000000	0.001692	0.001681	28.0788	0.053046	0.001988	26.6766	139.102	-166.164	0.059872	0.161354	-0.907116	-0.908495	0.002357	26.6766	-0.907182	-1.270869E+12	-1.854401E-15	NaN
206	1.000000	0.202728	7.36706e+06	-48939.1	955.818	-29761	0.000000	0.000000	6.202818	-0.029027	NaN	0.000000	0.001706	0.001673	28.0791	0.062059	0.001943	31.942	-21.3889	-167.685	-0.054489	0.201422	-0.867120	-0.868427	-0.029027	31.942	-0.866439	-3.574880E+11	8.119668E-14	NaN
206	1.000000	0.242725	7.36706e+06	-48939.1	955.818	-29761	0.000000	0.000000	6.242815	-0.037627	NaN	0.000000	0.001691	0.001673	28.0788	0.057855	0.001960	29.5158	42.9476	-165.998	-0.062099	0.241449	-0.827123	-0.828399	-0.037627	29.5158	-0.826167	-1.018183E+11	3.695543E-13	NaN
206	1.000000	0.282761	7.36706e+06	-48939.1	955.819	-29761	0.000000	0.000000	6.282852	-0.006933	NaN	0.000000	0.001707	0.001602	28.0805	0.018081	0.001952	9.260787	108.116	-165.704	-0.016330	0.281428	-0.787087	-0.788420	-0.006933	9.260787	-0.786526	-2.950495E+10	2.349800E-13	NaN
206	1.000000	0.322775	7.36706e+06	-48939.1	955.819	-29761	0.000000	0.000000	6.322866	-0.008683	NaN	0.000000	0.001678	0.001602	28.0801	0.122890	0.001920	64.0058	137.037	-166.591	0.050481	0.321433	-0.747073	-0.748415	-0.008683	64.0058	-0.746972	-8.550529E+9	1.015501E-12	NaN
206	1.000000	0.362794	7.36706e+06	-48939.1	955.819	-29761	0.000000	0.000000	6.362883	-0.048097	NaN	0.000000	0.001713	0.001602	28.0803	0.160835	0.002058	78.1523	-139.123	-167.289	-0.038343	0.361534	-0.707055	-0.708314	-0.048097	78.1523	-0.706593	-2.407409E+9	1.997888E-11	NaN
206	1.000000	0.402798	7.36706e+06	-48939.1	955.818	-29761	0.000000	0.000000	6.402888	-0.037318	NaN	0.000000	0.001735	0.001588	28.0792	0.045660	0.001968	23.1967	-53.5958	-165.067	0.004503	0.401471	-0.667050	-0.668377	-0.037318	23.1967	-0.665844	-6.675661E+8	5.590125E-11	NaN
206	1.000000	0.442837	7.36706e+06	-48939.1	955.819	-29761	0.000000	0.000000	6.442929	0.017028	NaN	0.000000	0.001698	0.001671	28.0791	0.043687	0.002029	21.5332	133.5	-165.499	0.019178	0.441469	-0.627011	-0.628379	0.017028	21.5332	-0.627605	-1.995830E+8	-8.531726E-11	NaN
206	1.000000	0.482830	7.36706e+06	-48939.1	955.819	-29761	0.000000	0.000000	6.482920	-0.032385	NaN	0.000000	0.001718	0.001654	28.0792	0.128090	0.001967	65.1044	103.741	-165.097	-0.094680	0.481564	-0.587018	-0.588284	-0.032385	65.1044	-0.586645	-5.450159E+7	5.941984E-10	NaN
206	1.000000	0.522855	7.36706e+06	-48939.1	955.82	-29761	0.000000	0.000000	6.522948	0.030956	NaN	0.000000	0.001659	0.001665	28.0796	0.094949	0.001939	48.9554	113.366	-166.764	-0.033850	0.521555	-0.546993	-0.548293	0.030956	48.9554	-0.547467	-1.566275E+7	-1.976438E-9	NaN
206	1.000000	0.562848	7.36706e+06	-48939.1	955.818	-29761.1	0.000000	0.000000	6.562942	0.055910	NaN	0.000000	0.001710	0.001630	28.0806	0.175352	0.001973	88.8558	-70.0433	-165.894	-0.028202	0.561570	-0.507000	-0.508278	0.055910	88.8558	-0.507472	-4.35711e+06	-1.283199E-8	NaN
206	1.000000	0.602878	7.36706e+06	-48939.1	955.819	-29761.1	0.000000	0.000000	6.602969	-0.007723	NaN	0.000000	0.001676	0.001644	28.0804	0.061152	0.001924	31.7852	76.7371	-169.725	-0.086525	0.601589	-0.466971	-0.468259	-0.007723	31.7852	-0.466788	-1.17584e+06	6.568410E-9	NaN
206	1.000000	0.642893	7.36706e+06	-48939.1	955.819	-29761.1	0.000000	0.000000	6.642981	-0.082683	NaN	0.000000	0.001696	0.001686	28.0799	0.067365	0.001935	34.8091	105.064	-163.939	-0.068368	0.641552	-0.426955	-0.428296	-0.082683	34.8091	-0.425174	-304608	2.714401E-7	NaN
206	1.000000	0.682932	7.36706e+06	-48939.1	955.818	-29761.1	0.000000	0.000000	6.683022	-0.032411	NaN	0.000000	0.001731	0.001662	28.079	0.059147	0.002073	28.5283	-104.818	-163.583	-0.038347	0.681632	-0.386917	-0.388217	-0.032411	28.5283	-0.386065	-84496.1	3.835806E-7	NaN
206	1.000000	0.722970	7.36706e+06	-48939.1	955.819	-29761.1	0.000000	0.000000	6.723060	-0.031306	NaN	0.000000	0.001810	0.001689	28.079	0.066244	0.001905	34.769	151.711	-165.394	0.040392	0.721633	-0.346878	-0.348215	-0.031306	34.769	-0.346203	-22482.7	1.392459E-6	NaN
206	1.000000	0.762950	7.36706e+06	-48939.1	955.818	-29761.1	0.000000	0.000000	6.763043	0.032327	NaN	0.000000	0.001755	0.001664	28.0792	0.044844	0.001975	22.704	-147.29	-164.735	0.030543	0.761617	-0.306898	-0.308231	0.032327	22.704	-0.307966	-6179.35	-5.231487E-6	NaN
206	1.000000	0.802995	7.36706e+06	-48939.1	955.818	-29761.1	0.000000	0.000000	6.803085	-0.019144	NaN	0.000000	0.001762	0.001678	28.0795	0.110659	0.002105	52.5706	-146.231	-166.481	0.044892	0.801664	-0.266854	-0.268184	-0.019144	52.5706	-0.266581	-1477.39	1.295773E-5	NaN
206	1.000000	0.842950	7.36707e+06	-48939.1	955.819	-29761.1	0.000000	0.000000	6.843042	-0.009250	NaN	0.000000	0.001729	0.001670	28.0801	0.171797	0.001935	88.7846	164.223	-168.303	-0.054494	0.841687	-0.226898	-0.228161	-0.009250	88.7846	-0.226820	-356.62	2.593916E-5	NaN
206	1.000000	0.883016	7.36707e+06	-48939.1	955.819	-29761.1	0.000000	0.000000	6.883106	-0.035837	NaN	0.000000	0.001705	0.001642	28.0803	0.063255	0.001920	32.939	62.1325	-165.793	-0.017579	0.881692	-0.186832	-0.188157	-0.035837	32.939	-0.186016	-77.1339	0.000465	NaN
206	1.000000	0.922995	7.36707e+06	-48939.1	955.82	-29761.1	0.000000	0.000000	6.923085	-0.024008	NaN	0.000000	0.001691	0.001645	28.0799	0.051972	0.001995	26.0552	-19.538	-165.271	-0.042486	0.921726	-0.146854	-0.148122	-0.024008	26.0552	-0.146163	-15.4042	0.001559	NaN
206	1.000000	0.963009	7.36707e+06	-48939.1	955.818	-29761.1	0.000000	0.000000	6.963100	-0.024152	NaN	0.000000	0.001697	0.001633	28.0787	0.121060	0.001909	63.4131	45.5523	-167.054	0.002053	0.961738	-0.106839	-0.108111	-0.024152	63.4131	-0.106553	-2.538600	0.009514	NaN
206	1.000000	1.003040	7.36707e+06	-48939.1	955.818	-29761.1	0.000000	0.000000	7.003130	-0.051197	NaN	0.000000	0.001688	0.001653	28.0789	0.052646	0.001948	27.0214	145.629	-165.907	0.002339	1.001818	-0.066808	-0.068030	-0.051197	27.0214	-0.065387	-0.255442	0.200426	NaN
206	1.000000	1.043066	7.36707e+06	-48939.1	955.817	-29761.1	0.000000	0.000000	7.043158	0.015753	NaN	0.000000	0.001702	0.001653	28.0792	0.059654	0.001974	30.2252	-42.614	-168.86	0.005777	1.041762	-0.026782	-0.028087	0.015753	30.2252	-0.027173	-0.019260	-0.817896	NaN
206	2.000000	1.078662	7.36707e+06	-48939.1	955.818	-29761.1	0.000000	0.000000	7.079222	11.3986	NaN	0.000000	0.001723	0.001671	28.0801	10.6533	0.001701	6261.52	6.784272	-174.754	10.9566	1.078409	0.008814	0.008561	11.3986	6261.52	0.007449	0.006481	1758.68	71059.2
206	2.000000	1.088618	7.36707e+06	-48939.1	955.818	-29761.1	0.000000	0.000000	7.089995	31.2466	NaN	0.000000	0.001671	0.001653	28.0803	20.3428	0.001693	12016.4	0.793271	-174.866	30.6345	1.088245	0.018770	0.018397	31.2466	12016.4	0.016820	0.017789	1756.5	82313.6
206	2.000000	1.098601	7.36707e+06	-48939.1	955.818	-29761.1	0.000000	0.000000	7.100938	54.6226	NaN	0.000000	0.001675	0.001691	28.08	30.5156	0.001815	16817.1	3.615195	179.714	53.558	1.098356	0.028752	0.028507	54.6226	16817.1	0.026316	0.033454	1632.77	84004.3
206	2.000000	1.108520	7.36707e+06	-48939.1	955.818	-29761.1	0.000000	0.000000	7.111872	79.3175	NaN	0.000000	0.001720	0.001652	28.0804	39.266	0.001820	21580.1	-0.508197	-177.645	76.8143	1.108376	0.038671	0.038527	79.3175	21580.1	0.035915	0.053897	1471.64	84926.7
206	2.000000	1.118537	7.36707e+06	-48939.1	955.818	-29761.1	0.000000	0.000000	7.124165	134.662	NaN	0.000000	0.001717	0.001641	28.079	49.6124	0.001718	28883.9	2.274960	177.375	135.032	1.118231	0.048689	0.048383	134.662	28883.9	0.045192	0.078133	1723.49	94408.6
206	2.000000	1.128504	7.36707e+06	-48939.1	955.818	-29761.1	0.000000	0.000000	7.136228	185.641	NaN	0.000000	0.001673	0.001657	28.0792	59.7705	0.001750	34151	5.345423	172.814	183.885	1.128282	0.058656	0.058434	185.641	34151	0.054579	0.107089	1733.51	95346.2
206	2.000000	1.138500	7.36707e+06	-48939.1	955.817	-29761.1	0.000000	0.000000	7.148684	245.45	NaN	0.000000	0.001713	0.001643	28.079	70.3426	0.001751	40166.3	4.674903	172.902	245.12	1.138180	0.068652	0.068332	245.45	40166.3	0.064069	0.140802	1743.23	97798.3
206	2.000000	1.148446	7.36707e+06	-48939.1	955.819	-29761.1	0.000000	0.000000	7.161148	306.698	NaN	0.000000	0.001678	0.001740	28.08	80.1728	0.001805	44418.1	2.432073	173.733	303.403	1.148318	0.078598	0.078470	306.698	44418.1	0.073419	0.178274	1720.37	96114.4
206	2.000000	1.158473	7.36707e+06	-48939.1	955.817	-29761.1	0.000000	0.000000	7.174432	385.899	NaN	0.000000	0.001683	0.001682	28.0797	90.9291	0.001893	48029.8	6.088927	169.707	383.824	1.158232	0.088625	0.088384	385.899	48029.8	0.082599	0.219080	1761.45	93752.4
206	2.000000	1.168385	7.36707e+06	-48939.1	955.819	-29761.1	0.000000	0.000000	7.187780	469.477	NaN	0.000000	0.001688	0.001702	28.0799	99.4768	0.001869	53237.4	7.605714	167.226	463.96	1.168052	0.098537	0.098203	469.477	53237.4	0.091923	0.264529	1774.76	94569.9
206	2.000000	1.175522	7.36707e+06	-48939.1	955.818	-29761.1	0.000000	0.000000	7.197234	525.832	NaN	0.000000	0.001684	0.001685	28.0801	104.628	0.001808	57855	1.508972	173.183	527.936	1.175160	0.105673	0.105312	525.832	57855	0.098857	0.300911	1747.47	96359.6