File: remote_trans/data/nanoindenter/0828-1/data/Data_2025-08-06,11h17m57s/2025-07-22_16-23-58_1_39.txt
2025-07-22, 16:23:58, 1
Index	Phase	Displacement	Time	Pos X	Pos Y	Pos Z	Rot A	Rot B	Piezo Z	Force A	Force B	Gripper	Voltage A	Voltage B	Temperature	Amplitude force	Amplitude pos	Stiffness	Phase shift	Phase excitation	Force A raw	Displacement raw	HMax	HMax raw	Real Force	Real Stiffness	Contact Depth	Area	Hardness	Reduced Mod.
[#]	[#]	[um]	[s]	[um]	[um]	[um]	[m°]	[m°]	[um]	[uN]	[uN]	[V]	[V]	[V]	[°C]	[uN]	[um]	[N/m]	[°]	[°]	[uN]	[um]	[um]	[um]	[uN]	[N/m]	[um]	[um^2]	[MPa]	[MPa]
39	1.000000	0.002463	7.36542e+06	-40589.1	955.819	-29790	0.000000	0.000000	6.002801	0.010496	NaN	0.000000	0.001611	0.001759	28.1043	0.038696	0.000953	40.6205	-175.871	-160.869	0.024428	0.001210	-1.176849	-1.178102	0.010496	40.6205	-1.177043	-5.410691E+15	-1.939835E-18	NaN
39	1.000000	0.046415	7.36542e+06	-40589.1	955.818	-29790	0.000000	0.000000	6.046752	0.008998	NaN	0.000000	0.001685	0.001742	28.0934	0.041299	0.001952	21.1554	52.9535	-166.099	-0.030417	0.045105	-1.132898	-1.134207	0.008998	21.1554	-1.133217	-1.398827E+15	-6.432636E-18	NaN
39	1.000000	0.090445	7.36542e+06	-40589.1	955.818	-29790	0.000000	0.000000	6.090783	0.014333	NaN	0.000000	0.001701	0.001789	28.1025	0.036248	0.001966	18.4356	-140.604	-163.973	0.041997	0.089165	-1.088867	-1.090147	0.014333	18.4356	-1.089450	-3.617635E+14	-3.962037E-17	NaN
39	1.000000	0.134446	7.36542e+06	-40589.1	955.819	-29790	0.000000	0.000000	6.134784	0.025405	NaN	0.000000	0.001686	0.001749	28.0935	0.028606	0.001922	14.882	59.9732	-165.186	-0.018303	0.133160	-1.044867	-1.046152	0.025405	14.882	-1.046147	-9.475820E+13	-2.681041E-16	NaN
39	1.000000	0.178461	7.36542e+06	-40589.1	955.818	-29790	0.000000	0.000000	6.178798	0.017071	NaN	0.000000	0.001684	0.001746	28.103	0.189702	0.002011	94.3104	135.543	-167.401	-0.030185	0.177114	-1.000852	-1.002199	0.017071	94.3104	-1.000987	-2.339176E+13	-7.297940E-16	NaN
39	1.000000	0.222480	7.36542e+06	-40589.1	955.818	-29790	0.000000	0.000000	6.222817	-0.000391	NaN	0.000000	0.001600	0.001728	28.0945	0.106717	0.001982	53.8316	-56.2749	-166.08	-0.021668	0.221176	-0.956832	-0.958136	-0.000391	53.8316	-0.956827	-5.944151E+12	6.575228E-17	NaN
39	1.000000	0.266516	7.36542e+06	-40589.1	955.819	-29790	0.000000	0.000000	6.266852	-0.028944	NaN	0.000000	0.001540	0.001788	28.1025	0.099629	0.002111	47.1953	-140.351	-160.906	-0.091146	0.265222	-0.912796	-0.914090	-0.028944	47.1953	-0.912336	-1.491825E+12	1.940161E-14	NaN
39	1.000000	0.310524	7.36542e+06	-40589.1	955.819	-29790	0.000000	0.000000	6.310859	-0.053711	NaN	0.000000	0.001595	0.001783	28.0923	0.047672	0.001744	27.3306	-7.410392	-167.724	0.001372	0.309183	-0.868788	-0.870129	-0.053711	27.3306	-0.867314	-3.673699E+11	1.462030E-13	NaN
39	1.000000	0.354521	7.36542e+06	-40589.1	955.819	-29790	0.000000	0.000000	6.354858	0.017134	NaN	0.000000	0.001674	0.001742	28.1009	0.045719	0.001981	23.0735	109.074	-161.917	-0.045482	0.353240	-0.824791	-0.826073	0.017134	23.0735	-0.825348	-9.924984E+10	-1.726317E-13	NaN
39	1.000000	0.398568	7.36542e+06	-40589.1	955.818	-29790	0.000000	0.000000	6.398905	-0.003465	NaN	0.000000	0.001673	0.001774	28.0942	0.073647	0.002018	36.489	149.092	-166.769	0.094449	0.397263	-0.780744	-0.782050	-0.003465	36.489	-0.780673	-2.456852E+10	1.410377E-13	NaN
39	1.000000	0.442599	7.36542e+06	-40589.1	955.818	-29790	0.000000	0.000000	6.442937	0.034026	NaN	0.000000	0.001653	0.001826	28.1006	0.120477	0.002004	60.1105	49.0322	-164.178	0.020694	0.441287	-0.736713	-0.738026	0.034026	60.1105	-0.737138	-6.281551E+9	-5.416766E-12	NaN
39	1.000000	0.486579	7.36542e+06	-40589.1	955.818	-29790	0.000000	0.000000	6.486918	0.049995	NaN	0.000000	0.001552	0.001770	28.0966	0.012294	0.001825	6.736177	137.482	-166.766	0.021799	0.485305	-0.692733	-0.694007	0.049995	6.736177	-0.698299	-1.854823E+9	-2.695390E-11	NaN
39	1.000000	0.530624	7.36542e+06	-40589.1	955.817	-29790	0.000000	0.000000	6.530962	0.025984	NaN	0.000000	0.001588	0.001776	28.0998	0.013312	0.001965	6.773205	144.899	-167.344	0.067588	0.529364	-0.648689	-0.649949	0.025984	6.773205	-0.651566	-4.255020E+8	-6.106628E-11	NaN
39	1.000000	0.574618	7.36542e+06	-40589.1	955.818	-29790	0.000000	0.000000	6.574954	-0.012994	NaN	0.000000	0.001617	0.001734	28.0941	0.148634	0.002075	71.6167	-72.8597	-166.576	0.058607	0.573395	-0.604694	-0.605918	-0.012994	71.6167	-0.604558	-9.621122E+7	1.350529E-10	NaN
39	1.000000	0.618637	7.36542e+06	-40589.1	955.818	-29790	0.000000	0.000000	6.618975	0.022597	NaN	0.000000	0.001641	0.001781	28.0982	0.039180	0.001877	20.87	-51.4316	-162.861	0.048215	0.617358	-0.560675	-0.561954	0.022597	20.87	-0.561487	-2.448775E+7	-9.227760E-10	NaN
39	1.000000	0.662683	7.36542e+06	-40589.1	955.818	-29790	0.000000	0.000000	6.663019	-0.022872	NaN	0.000000	0.001626	0.001796	28.0959	0.029213	0.001957	14.9235	-115.221	-164.83	0.013607	0.661366	-0.516629	-0.517946	-0.022872	14.9235	-0.515480	-5.63265e+06	4.060583E-9	NaN
39	1.000000	0.706718	7.36542e+06	-40589.1	955.818	-29790	0.000000	0.000000	6.707054	-0.018977	NaN	0.000000	0.001625	0.001769	28.099	0.037757	0.002077	18.1743	-87.0532	-168.792	0.021718	0.705426	-0.472594	-0.473886	-0.018977	18.1743	-0.471811	-1.38295e+06	1.372221E-8	NaN
39	1.000000	0.750702	7.36542e+06	-40589.1	955.818	-29790	0.000000	0.000000	6.751037	-0.044432	NaN	0.000000	0.001621	0.001759	28.0976	0.103330	0.002051	50.3753	132.925	-164.06	0.027396	0.749359	-0.428610	-0.429953	-0.044432	50.3753	-0.427948	-333450	1.332495E-7	NaN
39	1.000000	0.794735	7.36542e+06	-40589.1	955.819	-29790	0.000000	0.000000	6.795070	-0.035315	NaN	0.000000	0.001598	0.001782	28.0985	0.084719	0.001900	44.5822	107.426	-164.672	-0.078937	0.793410	-0.384578	-0.385902	-0.035315	44.5822	-0.383984	-78889.8	4.476536E-7	NaN
39	1.000000	0.838752	7.36542e+06	-40589.1	955.819	-29790	0.000000	0.000000	6.839089	0.020704	NaN	0.000000	0.001649	0.001800	28.0948	0.022925	0.001921	11.9342	-18.6483	-165.897	-0.022760	0.837399	-0.340561	-0.341914	0.020704	11.9342	-0.341862	-19439.3	-1.065060E-6	NaN
39	1.000000	0.882784	7.36542e+06	-40589.1	955.819	-29790	0.000000	0.000000	6.883123	0.055819	NaN	0.000000	0.001676	0.001772	28.0974	0.010895	0.002051	5.312999	-153.022	-168.245	0.072099	0.881515	-0.296528	-0.297797	0.055819	5.312999	-0.304408	-5472.25	-1.020036E-5	NaN
39	1.000000	0.926765	7.36542e+06	-40589.1	955.819	-29790	0.000000	0.000000	6.927104	0.047597	NaN	0.000000	0.001626	0.001775	28.0947	0.113601	0.002022	56.1856	171.537	-166.241	0.075923	0.925517	-0.252548	-0.253795	0.047597	56.1856	-0.253183	-920.701	-5.169691E-5	NaN
39	1.000000	0.970774	7.36543e+06	-40589.1	955.818	-29790	0.000000	0.000000	6.971112	0.017597	NaN	0.000000	0.001589	0.001764	28.0984	0.075567	0.001991	37.9609	125.64	-165.642	0.010682	0.969546	-0.208538	-0.209766	0.017597	37.9609	-0.208886	-183.977	-9.564550E-5	NaN
39	1.000000	1.014816	7.36543e+06	-40589.1	955.82	-29790	0.000000	0.000000	7.015153	-0.000698	NaN	0.000000	0.001599	0.001744	28.0981	0.033108	0.002043	16.2048	-66.0269	-166.562	0.080275	1.013517	-0.164497	-0.165795	-0.000698	16.2048	-0.164464	-32.877	2.122388E-5	NaN
39	1.000000	1.058849	7.36543e+06	-40589.1	955.819	-29790	0.000000	0.000000	7.059184	-0.053824	NaN	0.000000	0.001616	0.001748	28.0983	0.044023	0.002012	21.8846	-7.103721	-162.707	-0.052564	1.057501	-0.120463	-0.121812	-0.053824	21.8846	-0.118619	-4.530258	0.011881	NaN
39	1.000000	1.102854	7.36543e+06	-40589.1	955.817	-29790	0.000000	0.000000	7.103190	-0.026892	NaN	0.000000	0.001596	0.001773	28.0956	0.048560	0.001978	24.5476	-125.741	-164.31	-0.058484	1.101576	-0.076458	-0.077736	-0.026892	24.5476	-0.075637	-0.479681	0.056063	NaN
39	1.000000	1.146860	7.36543e+06	-40589.1	955.818	-29790	0.000000	0.000000	7.147197	0.000792	NaN	0.000000	0.001623	0.001735	28.0965	0.043413	0.002149	20.1972	-167.098	-168.024	-0.061928	1.145660	-0.032453	-0.033652	0.000792	20.1972	-0.032482	-0.027053	-0.029266	NaN
39	2.000000	1.189475	7.36543e+06	-40589.1	955.818	-29790	0.000000	0.000000	7.190179	8.919873	NaN	0.000000	0.001619	0.001784	28.097	7.129793	0.001664	4285.56	7.815751	-170.481	9.833491	1.189031	0.010163	0.009719	8.919873	4285.56	0.008602	0.007669	1163.14	44711.4
39	2.000000	1.200302	7.36543e+06	-40589.1	955.818	-29790	0.000000	0.000000	7.201696	25.7217	NaN	0.000000	0.001612	0.001791	28.0969	18.9072	0.001858	10177.2	5.363737	-174.835	24.4071	1.200028	0.020989	0.020716	25.7217	10177.2	0.019094	0.021138	1216.83	63953.9
39	2.000000	1.211320	7.36543e+06	-40589.1	955.82	-29790	0.000000	0.000000	7.214093	59.293	NaN	0.000000	0.001593	0.001768	28.0994	28.4268	0.001687	16850.6	1.139313	-177.316	57.9177	1.210990	0.032008	0.031678	59.293	16850.6	0.029368	0.039445	1503.18	77516.5
39	2.000000	1.222306	7.36543e+06	-40589.1	955.82	-29790	0.000000	0.000000	7.227073	107.79	NaN	0.000000	0.001620	0.001740	28.0963	41.1728	0.001971	20884.9	5.670921	178.126	107.971	1.221956	0.042994	0.042644	107.79	20884.9	0.039123	0.061782	1744.68	76767
39	2.000000	1.233256	7.36543e+06	-40589.1	955.82	-29790	0.000000	0.000000	7.240378	165.123	NaN	0.000000	0.001587	0.001741	28.1005	51.6158	0.001888	27343.7	8.509823	172.003	161.981	1.232834	0.053943	0.053522	165.123	27343.7	0.049414	0.090611	1822.32	82992.7
39	2.000000	1.244218	7.36543e+06	-40589.1	955.817	-29790	0.000000	0.000000	7.253493	217.484	NaN	0.000000	0.001583	0.001709	28.0944	59.1504	0.001813	32621.6	4.645155	173.954	212.714	1.243915	0.064906	0.064603	217.484	32621.6	0.059906	0.125470	1733.36	84141.1
39	2.000000	1.255253	7.36543e+06	-40589.1	955.82	-29790	0.000000	0.000000	7.267618	292.684	NaN	0.000000	0.001594	0.001806	28.0982	68.8723	0.001798	38298.8	4.064701	173.841	292.142	1.255032	0.075941	0.075720	292.684	38298.8	0.070210	0.164942	1774.47	86157.6
39	2.000000	1.266130	7.36543e+06	-40589.1	955.82	-29790	0.000000	0.000000	7.281969	377.226	NaN	0.000000	0.001568	0.001752	28.0944	77.6927	0.001672	46473.4	3.383926	173.021	371.005	1.265890	0.086818	0.086578	377.226	46473.4	0.080730	0.210454	1792.43	92554.8
39	2.000000	1.277213	7.36543e+06	-40589.1	955.82	-29790	0.000000	0.000000	7.297140	476.682	NaN	0.000000	0.001589	0.001701	28.1004	89.5011	0.001884	47509.5	4.397851	172.277	475.6	1.276981	0.097901	0.097669	476.682	47509.5	0.090376	0.256713	1856.87	85670.1
39	2.000000	1.287214	7.36543e+06	-40589.1	955.819	-29790	0.000000	0.000000	7.311106	573.175	NaN	0.000000	0.001565	0.001750	28.1006	97.594	0.001730	56407.9	3.956560	171.563	570.547	1.286850	0.107901	0.107538	573.175	56407.9	0.100280	0.308651	1857.03	92764