File: remote_trans/data/nanoindenter/0828-1/data/Data_2025-08-06,11h17m57s/2025-07-22_16-23-58_1_595.txt
2025-07-22, 16:23:58, 1
Index	Phase	Displacement	Time	Pos X	Pos Y	Pos Z	Rot A	Rot B	Piezo Z	Force A	Force B	Gripper	Voltage A	Voltage B	Temperature	Amplitude force	Amplitude pos	Stiffness	Phase shift	Phase excitation	Force A raw	Displacement raw	HMax	HMax raw	Real Force	Real Stiffness	Contact Depth	Area	Hardness	Reduced Mod.
[#]	[#]	[um]	[s]	[um]	[um]	[um]	[m°]	[m°]	[um]	[uN]	[uN]	[V]	[V]	[V]	[°C]	[uN]	[um]	[N/m]	[°]	[°]	[uN]	[um]	[um]	[um]	[uN]	[N/m]	[um]	[um^2]	[MPa]	[MPa]
595	1.000000	0.002335	7.37087e+06	-47339.1	1005.82	-29766.3	0.000000	0.000000	6.002785	0.023416	NaN	0.000000	0.001546	0.001709	28.082	0.120977	0.000975	124.056	36.1033	-165.665	-0.079849	0.001126	-1.099018	-1.100228	0.023416	124.056	-1.099160	-4.884147E+14	-4.794367E-17	NaN
595	1.000000	0.044326	7.37087e+06	-47339.1	1005.82	-29766.3	0.000000	0.000000	6.044774	-0.007363	NaN	0.000000	0.001548	0.001733	28.0821	0.107448	0.001899	56.5745	77.8775	10.858	0.002373	0.042931	-1.057028	-1.058422	-0.007363	56.5745	-1.056930	-1.323004E+14	5.565526E-17	NaN
595	1.000000	0.086307	7.37087e+06	-47339.1	1005.82	-29766.3	0.000000	0.000000	6.086757	0.046475	NaN	0.000000	0.001556	0.001755	28.0812	0.115231	0.001970	58.5074	19.4871	-165.057	-0.017415	0.084996	-1.015047	-1.016357	0.046475	58.5074	-1.015642	-3.683982E+13	-1.261530E-15	NaN
595	1.000000	0.128335	7.37087e+06	-47339.1	1005.82	-29766.3	0.000000	0.000000	6.128781	-0.048129	NaN	0.000000	0.001598	0.001748	28.081	0.052606	0.001994	26.385	-97.851	17.0111	-0.031267	0.126955	-0.973019	-0.974399	-0.048129	26.385	-0.971650	-9.416850E+12	5.110967E-15	NaN
595	1.000000	0.170338	7.37087e+06	-47339.1	1005.82	-29766.3	0.000000	0.000000	6.170785	-0.018759	NaN	0.000000	0.001591	0.001745	28.081	0.069550	0.002002	34.7327	-154.902	-165.624	-0.071667	0.169059	-0.931016	-0.932294	-0.018759	34.7327	-0.930611	-2.632934E+12	7.124856E-15	NaN
595	1.000000	0.212373	7.37087e+06	-47339.1	1005.82	-29766.3	0.000000	0.000000	6.212821	-0.020327	NaN	0.000000	0.001575	0.001706	28.0825	0.047257	0.002012	23.489	-173.485	14.5632	-0.025432	0.211003	-0.888980	-0.890351	-0.020327	23.489	-0.888331	-7.068943E+11	2.875502E-14	NaN
595	1.000000	0.254393	7.37087e+06	-47339.1	1005.82	-29766.3	0.000000	0.000000	6.254841	-0.006864	NaN	0.000000	0.001604	0.001720	28.0824	0.024567	0.001952	12.5831	111.446	-168.92	-0.011992	0.253079	-0.846961	-0.848275	-0.006864	12.5831	-0.846551	-1.923249E+11	3.568897E-14	NaN
595	1.000000	0.296418	7.37087e+06	-47339.1	1005.82	-29766.3	0.000000	0.000000	6.296862	-0.100181	NaN	0.000000	0.001580	0.001722	28.0826	0.044469	0.002029	21.9194	159.73	11.6166	-0.101778	0.295047	-0.804936	-0.806306	-0.100181	21.9194	-0.801508	-4.713339E+10	2.125470E-12	NaN
595	1.000000	0.338425	7.37087e+06	-47339.1	1005.82	-29766.3	0.000000	0.000000	6.338870	-0.078535	NaN	0.000000	0.001569	0.001740	28.0825	0.015890	0.001997	7.958324	138.224	-163.081	-0.078485	0.337121	-0.762929	-0.764232	-0.078535	7.958324	-0.755528	-1.118024E+10	7.024443E-12	NaN
595	1.000000	0.380400	7.37087e+06	-47339.1	1005.82	-29766.3	0.000000	0.000000	6.380848	-0.015779	NaN	0.000000	0.001557	0.001725	28.0814	0.081569	0.002006	40.6609	-13.9595	12.9873	0.025495	0.379042	-0.720953	-0.722311	-0.015779	40.6609	-0.720662	-3.745431E+9	4.212734E-12	NaN
595	1.000000	0.422466	7.37087e+06	-47339.1	1005.82	-29766.3	0.000000	0.000000	6.422914	0.002565	NaN	0.000000	0.001581	0.001691	28.0814	0.074624	0.001942	38.4282	83.4393	-163.166	0.015588	0.421126	-0.678888	-0.680227	0.002565	38.4282	-0.678938	-1.008502E+9	-2.543355E-12	NaN
595	1.000000	0.464463	7.37087e+06	-47339.1	1005.82	-29766.3	0.000000	0.000000	6.464911	-0.006654	NaN	0.000000	0.001548	0.001696	28.081	0.087359	0.002012	43.4085	-63.2353	13.2467	0.061873	0.463150	-0.636890	-0.638204	-0.006654	43.4085	-0.636776	-2.667114E+8	2.494923E-11	NaN
595	1.000000	0.506506	7.37087e+06	-47339.1	1005.82	-29766.3	0.000000	0.000000	6.506956	0.031505	NaN	0.000000	0.001543	0.001702	28.0826	0.056430	0.002075	27.1959	9.588001	-169.056	0.049026	0.505175	-0.594847	-0.596178	0.031505	27.1959	-0.595716	-7.268579E+7	-4.334434E-10	NaN
595	1.000000	0.548511	7.37087e+06	-47339.1	1005.82	-29766.3	0.000000	0.000000	6.548958	-0.046701	NaN	0.000000	0.001529	0.001710	28.0824	0.032058	0.001884	17.018	-89.8888	14.8141	-0.065657	0.547135	-0.552842	-0.554219	-0.046701	17.018	-0.550784	-1.741070E+7	2.682336E-9	NaN
595	1.000000	0.590541	7.37087e+06	-47339.1	1005.82	-29766.3	0.000000	0.000000	6.590988	-0.047040	NaN	0.000000	0.001535	0.001684	28.0824	0.110680	0.001952	56.692	115.282	-163.353	-0.024773	0.589217	-0.510812	-0.512136	-0.047040	56.692	-0.510190	-4.75405e+06	9.894731E-9	NaN
595	1.000000	0.632536	7.37087e+06	-47339.1	1005.82	-29766.3	0.000000	0.000000	6.632982	-0.048998	NaN	0.000000	0.001541	0.001772	28.081	0.043167	0.001954	22.0881	8.971372	12.5831	-0.003458	0.631166	-0.468817	-0.470187	-0.048998	22.0881	-0.467154	-1.18981e+06	4.118163E-8	NaN
595	1.000000	0.674574	7.37087e+06	-47339.1	1005.82	-29766.3	0.000000	0.000000	6.675023	0.008509	NaN	0.000000	0.001560	0.001710	28.0811	0.070262	0.001873	37.5104	122.917	-166.526	-0.045703	0.673253	-0.426779	-0.428100	0.008509	37.5104	-0.426949	-322767	-2.636277E-8	NaN
595	1.000000	0.716567	7.37087e+06	-47339.1	1005.82	-29766.3	0.000000	0.000000	6.717013	-0.069905	NaN	0.000000	0.001605	0.001719	28.0812	0.112574	0.001994	56.4459	77.5513	15.5578	-0.017015	0.715184	-0.384786	-0.386169	-0.069905	56.4459	-0.383857	-78561.5	8.898140E-7	NaN
595	1.000000	0.758612	7.37087e+06	-47339.1	1005.82	-29766.3	0.000000	0.000000	6.759059	-0.042623	NaN	0.000000	0.001591	0.001764	28.0824	0.213777	0.001950	109.604	-170.068	-165.762	-0.085151	0.757312	-0.342741	-0.344042	-0.042623	109.604	-0.342450	-19826.4	2.149783E-6	NaN
595	1.000000	0.800624	7.37087e+06	-47339.1	1005.82	-29766.3	0.000000	0.000000	6.801070	-0.065194	NaN	0.000000	0.001590	0.001763	28.0821	0.071019	0.001902	37.345	-179.086	15.9094	-0.080908	0.799212	-0.300729	-0.302142	-0.065194	37.345	-0.299420	-4613.14	1.413214E-5	NaN
595	1.000000	0.842664	7.37087e+06	-47339.1	1005.82	-29766.3	0.000000	0.000000	6.843110	-0.078217	NaN	0.000000	0.001582	0.001733	28.0823	0.019274	0.002012	9.579226	13.6236	-164.147	-0.086325	0.841340	-0.258689	-0.260014	-0.078217	9.579226	-0.252565	-900.722	8.683811E-5	NaN
595	1.000000	0.884661	7.37087e+06	-47339.1	1005.82	-29766.3	0.000000	0.000000	6.885109	-0.017827	NaN	0.000000	0.001573	0.001704	28.0821	0.049178	0.002009	24.4759	156.911	15.1523	-0.095184	0.883343	-0.216693	-0.218010	-0.017827	24.4759	-0.216146	-240.956	7.398538E-5	NaN
595	1.000000	0.926674	7.37088e+06	-47339.1	1005.82	-29766.3	0.000000	0.000000	6.927124	0.026036	NaN	0.000000	0.001590	0.001718	28.0809	0.050409	0.001907	26.4353	-100.233	-163.906	0.010446	0.925367	-0.174679	-0.175987	0.026036	26.4353	-0.175418	-50.9514	-0.000511	NaN
595	1.000000	0.968664	7.37088e+06	-47339.1	1005.82	-29766.3	0.000000	0.000000	6.969109	-0.085612	NaN	0.000000	0.001586	0.001761	28.0809	0.094571	0.002003	47.2153	147.65	13.7894	-0.071846	0.967354	-0.132689	-0.133999	-0.085612	47.2153	-0.131329	-8.086641	0.010587	NaN
595	1.000000	1.010717	7.37088e+06	-47339.1	1005.82	-29766.3	0.000000	0.000000	7.011167	0.019563	NaN	0.000000	0.001572	0.001713	28.0812	0.033892	0.001867	18.1542	-16.1689	-164.78	0.021594	1.009395	-0.090636	-0.091959	0.019563	18.1542	-0.091444	-1.168309	-0.016745	NaN
595	1.000000	1.052734	7.37088e+06	-47339.1	1005.82	-29766.3	0.000000	0.000000	7.053181	-0.047496	NaN	0.000000	0.001572	0.001717	28.0822	0.032401	0.002044	15.849	-39.5135	12.8079	-0.062192	1.051371	-0.048619	-0.049982	-0.047496	15.849	-0.046372	-0.070781	0.671025	NaN
595	1.000000	1.094719	7.37088e+06	-47339.1	1005.82	-29766.3	0.000000	0.000000	7.095198	0.755530	NaN	0.000000	0.001578	0.001711	28.0825	1.247452	0.002027	615.324	14.9696	-165.075	0.339571	1.093483	-0.006635	-0.007870	0.755530	615.324	-0.007556	-0.004970	-152.009	NaN
595	2.000000	1.111762	7.37088e+06	-47339.1	1005.82	-29766.3	0.000000	0.000000	7.113302	26.5505	NaN	0.000000	0.001522	0.001722	28.0825	19.377	0.001650	11746.6	4.808385	3.700959	24.7645	1.111423	0.010409	0.010069	26.5505	11746.6	0.008714	0.007787	3409.8	121622
595	2.000000	1.122189	7.37088e+06	-47339.1	1005.82	-29766.3	0.000000	0.000000	7.125147	61.0212	NaN	0.000000	0.001544	0.001694	28.0811	30.9619	0.001753	17663.3	5.291792	178.526	58.7501	1.121919	0.020836	0.020566	61.0212	17663.3	0.018245	0.019859	3072.69	114516
595	2.000000	1.132683	7.37088e+06	-47339.1	1005.82	-29766.3	0.000000	0.000000	7.137164	98.0887	NaN	0.000000	0.001605	0.001715	28.0813	40.0876	0.001728	23198.3	3.737964	-1.670159	95.4319	1.132361	0.031329	0.031008	98.0887	23198.3	0.028158	0.037012	2650.18	110168
595	2.000000	1.143153	7.37088e+06	-47339.1	1005.82	-29766.4	0.000000	0.000000	7.149373	140.373	NaN	0.000000	0.001619	0.001671	28.0812	50.0055	0.001721	29053.5	2.081623	178.189	136.828	1.142841	0.041800	0.041487	140.373	29053.5	0.038176	0.059400	2363.2	108913
595	2.000000	1.153675	7.37088e+06	-47339.1	1005.82	-29766.4	0.000000	0.000000	7.162238	197.381	NaN	0.000000	0.001629	0.001691	28.0826	60.1664	0.001932	31138.3	3.558913	-2.536530	193.876	1.153291	0.052321	0.051937	197.381	31138.3	0.047567	0.085042	2320.99	97555.4
595	2.000000	1.164211	7.37088e+06	-47339.1	1005.82	-29766.4	0.000000	0.000000	7.175190	256.136	NaN	0.000000	0.001659	0.001706	28.0829	71.7672	0.001733	41417.1	4.224607	173.747	254.129	1.163782	0.062858	0.062428	256.136	41417.1	0.058219	0.119501	2143.38	109463
595	2.000000	1.174540	7.37088e+06	-47339.1	1005.82	-29766.4	0.000000	0.000000	7.188161	320.398	NaN	0.000000	0.001684	0.001714	28.0821	82.6037	0.001865	44295	5.538013	-8.579631	313.802	1.174279	0.073187	0.072925	320.398	44295	0.067762	0.155102	2065.72	102759
595	2.000000	1.185125	7.37088e+06	-47339.1	1005.82	-29766.4	0.000000	0.000000	7.201623	390.379	NaN	0.000000	0.001525	0.001728	28.0822	91.3169	0.001797	50822.1	5.860067	170.164	387.869	1.184857	0.083771	0.083504	390.379	50822.1	0.078010	0.198191	1969.71	104300
595	2.000000	1.195665	7.37088e+06	-47339.1	1005.82	-29766.4	0.000000	0.000000	7.215827	479.497	NaN	0.000000	0.001554	0.001726	28.0808	99.0847	0.001756	56412.9	4.677479	-9.415906	478.521	1.195297	0.094312	0.093944	479.497	56412.9	0.087937	0.244610	1960.25	104211
595	2.000000	1.202079	7.37088e+06	-47339.1	1005.82	-29766.4	0.000000	0.000000	7.224332	530.375	NaN	0.000000	0.001520	0.001705	28.0812	106.655	0.001801	59205.6	6.396965	169.186	529.397	1.201727	0.100725	0.100374	530.375	59205.6	0.094007	0.275233	1927	103106