File: remote_trans/data/nanoindenter/0828-1/data/Data_2025-08-06,11h17m57s/2025-07-22_16-23-58_1_154.txt
2025-07-22, 16:23:58, 1
Index	Phase	Displacement	Time	Pos X	Pos Y	Pos Z	Rot A	Rot B	Piezo Z	Force A	Force B	Gripper	Voltage A	Voltage B	Temperature	Amplitude force	Amplitude pos	Stiffness	Phase shift	Phase excitation	Force A raw	Displacement raw	HMax	HMax raw	Real Force	Real Stiffness	Contact Depth	Area	Hardness	Reduced Mod.
[#]	[#]	[um]	[s]	[um]	[um]	[um]	[m°]	[m°]	[um]	[uN]	[uN]	[V]	[V]	[V]	[°C]	[uN]	[um]	[N/m]	[°]	[°]	[uN]	[um]	[um]	[um]	[uN]	[N/m]	[um]	[um^2]	[MPa]	[MPa]
154	1.000000	0.002843	7.36655e+06	-46339.1	955.819	-29769.9	0.000000	0.000000	6.002789	-0.025970	NaN	0.000000	0.001604	0.001766	28.0864	0.067466	0.001000	67.4641	-122.372	-162.118	0.018186	0.001628	-1.051390	-1.052605	-0.025970	67.4641	-1.051101	-1.104639E+14	2.351025E-16	NaN
154	1.000000	0.042799	7.36655e+06	-46339.1	955.818	-29769.9	0.000000	0.000000	6.042746	0.019683	NaN	0.000000	0.001599	0.001716	28.0879	0.053431	0.001936	27.6036	-23.7162	-167.423	0.045665	0.041481	-1.011435	-1.012752	0.019683	27.6036	-1.011969	-3.287665E+13	-5.986931E-16	NaN
154	1.000000	0.082798	7.36655e+06	-46339.1	955.817	-29770	0.000000	0.000000	6.082743	-0.043631	NaN	0.000000	0.001593	0.001754	28.0865	0.185164	0.002092	88.5273	-24.0036	-165.564	-0.006792	0.081510	-0.971435	-0.972723	-0.043631	88.5273	-0.971066	-9.247551E+12	4.718102E-15	NaN
154	1.000000	0.122801	7.36655e+06	-46339.1	955.819	-29770	0.000000	0.000000	6.122747	-0.002054	NaN	0.000000	0.001633	0.001747	28.086	0.026375	0.001947	13.5478	89.4687	-165.98	0.023626	0.121535	-0.931433	-0.932699	-0.002054	13.5478	-0.931319	-2.691533E+12	7.630895E-16	NaN
154	1.000000	0.162852	7.36655e+06	-46339.1	955.819	-29770	0.000000	0.000000	6.162797	-0.038902	NaN	0.000000	0.001629	0.001761	28.0845	0.114660	0.001957	58.5865	65.5886	-165.723	-0.094160	0.161513	-0.891381	-0.892720	-0.038902	58.5865	-0.890883	-7.653447E+11	5.082886E-14	NaN
154	1.000000	0.202862	7.36655e+06	-46339.1	955.819	-29770	0.000000	0.000000	6.202806	-0.069568	NaN	0.000000	0.001658	0.001733	28.0855	0.074391	0.001944	38.2665	-155.714	-165.598	0.005618	0.201591	-0.851371	-0.852642	-0.069568	38.2665	-0.850008	-2.142125E+11	3.247606E-13	NaN
154	1.000000	0.242877	7.36655e+06	-46339.1	955.817	-29770	0.000000	0.000000	6.242822	-0.029203	NaN	0.000000	0.001700	0.001743	28.0836	0.100189	0.002065	48.5124	66.1511	-166.046	-0.025631	0.241544	-0.811357	-0.812690	-0.029203	48.5124	-0.810905	-6.321965E+10	4.619233E-13	NaN
154	1.000000	0.282907	7.36655e+06	-46339.1	955.818	-29770	0.000000	0.000000	6.282852	-0.033531	NaN	0.000000	0.001680	0.001736	28.087	0.060141	0.001979	30.3852	143.042	-165.99	0.045969	0.281615	-0.771327	-0.772619	-0.033531	30.3852	-0.770499	-1.786867E+10	1.876529E-12	NaN
154	1.000000	0.322914	7.36655e+06	-46339.1	955.818	-29770	0.000000	0.000000	6.322862	0.022119	NaN	0.000000	0.001661	0.001710	28.0859	0.082473	0.001889	43.6632	-130.665	-164.038	-0.016663	0.321590	-0.731319	-0.732644	0.022119	43.6632	-0.731699	-5.296232E+9	-4.176452E-12	NaN
154	1.000000	0.362944	7.36655e+06	-46339.1	955.818	-29770	0.000000	0.000000	6.362889	-0.039031	NaN	0.000000	0.001644	0.001742	28.0873	0.090202	0.001923	46.8973	37.5671	-165.589	-0.035924	0.361642	-0.691290	-0.692592	-0.039031	46.8973	-0.690665	-1.458856E+9	2.675463E-11	NaN
154	1.000000	0.402940	7.36655e+06	-46339.1	955.819	-29770	0.000000	0.000000	6.402885	-0.024488	NaN	0.000000	0.001648	0.001718	28.085	0.136020	0.001951	69.7191	-8.952217	-169.351	-0.062795	0.401655	-0.651294	-0.652579	-0.024488	69.7191	-0.651031	-4.183732E+8	5.853036E-11	NaN
154	1.000000	0.442973	7.36655e+06	-46339.1	955.818	-29770	0.000000	0.000000	6.442914	-0.128104	NaN	0.000000	0.001599	0.001716	28.0865	0.068961	0.001945	35.4537	86.8631	-163.786	-0.083936	0.441626	-0.611261	-0.612608	-0.128104	35.4537	-0.608551	-1.091874E+8	1.173251E-9	NaN
154	1.000000	0.482997	7.36655e+06	-46339.1	955.819	-29770	0.000000	0.000000	6.482944	0.006215	NaN	0.000000	0.001611	0.001726	28.084	0.064017	0.001972	32.4653	-63.5891	-166.1	0.059833	0.481648	-0.571237	-0.572585	0.006215	32.4653	-0.571380	-3.355095E+7	-1.852552E-10	NaN
154	1.000000	0.523016	7.36655e+06	-46339.1	955.818	-29770	0.000000	0.000000	6.522965	0.064646	NaN	0.000000	0.001638	0.001769	28.0849	0.050612	0.002033	24.8901	121.761	-166.654	0.009055	0.521690	-0.531218	-0.532544	0.064646	24.8901	-0.533166	-9.92039e+06	-6.516490E-9	NaN
154	1.000000	0.562994	7.36655e+06	-46339.1	955.818	-29770	0.000000	0.000000	6.562942	0.037182	NaN	0.000000	0.001673	0.001759	28.0851	0.097369	0.002054	47.408	-9.415530	-168.88	0.004446	0.561674	-0.491239	-0.492560	0.037182	47.408	-0.491828	-2.6359e+06	-1.410600E-8	NaN
154	1.000000	0.603019	7.36655e+06	-46339.1	955.818	-29770	0.000000	0.000000	6.602963	-0.058801	NaN	0.000000	0.001735	0.001685	28.0855	0.018072	0.001962	9.209373	-38.6729	-165.378	-0.078088	0.601699	-0.451215	-0.452535	-0.058801	9.209373	-0.446426	-608127	9.669226E-8	NaN
154	1.000000	0.643046	7.36655e+06	-46339.1	955.818	-29770	0.000000	0.000000	6.642994	0.013424	NaN	0.000000	0.001601	0.001743	28.0847	0.096413	0.001995	48.3157	-155.864	-165.242	-0.059676	0.641706	-0.411187	-0.412528	0.013424	48.3157	-0.411396	-194197	-6.912538E-8	NaN
154	1.000000	0.683057	7.36655e+06	-46339.1	955.818	-29770	0.000000	0.000000	6.683004	-0.000340	NaN	0.000000	0.001605	0.001719	28.086	0.048831	0.001984	24.6104	-87.8176	-166.43	-0.073218	0.681747	-0.371176	-0.372486	-0.000340	24.6104	-0.371166	-51631.8	6.591254E-9	NaN
154	1.000000	0.723069	7.36655e+06	-46339.1	955.819	-29770	0.000000	0.000000	6.723014	-0.027365	NaN	0.000000	0.001758	0.001756	28.0838	0.085020	0.001915	44.4054	171.136	-167.732	-0.030676	0.721816	-0.331165	-0.332417	-0.027365	44.4054	-0.330703	-13358	2.048574E-6	NaN
154	1.000000	0.763110	7.36655e+06	-46339.1	955.818	-29770	0.000000	0.000000	6.763055	-0.041641	NaN	0.000000	0.001681	0.001768	28.0845	0.176126	0.002032	86.6897	-62.3591	-163.095	-0.061549	0.761852	-0.291124	-0.292382	-0.041641	86.6897	-0.290764	-3425.63	1.215576E-5	NaN
154	1.000000	0.803113	7.36655e+06	-46339.1	955.82	-29770	0.000000	0.000000	6.803059	-0.007626	NaN	0.000000	0.001689	0.001780	28.0847	0.058000	0.002052	28.2602	162.819	-164.989	0.063637	0.801792	-0.251121	-0.252442	-0.007626	28.2602	-0.250918	-849.502	8.976695E-6	NaN
154	1.000000	0.843148	7.36655e+06	-46339.1	955.817	-29770	0.000000	0.000000	6.843094	-0.002222	NaN	0.000000	0.001737	0.001766	28.085	0.058773	0.002098	28.0115	177.716	-162.649	-0.009965	0.841807	-0.211086	-0.212427	-0.002222	28.0115	-0.211026	-199.263	1.115152E-5	NaN
154	1.000000	0.883150	7.36655e+06	-46339.1	955.817	-29770	0.000000	0.000000	6.883095	-0.031686	NaN	0.000000	0.001753	0.001724	28.086	0.030087	0.001997	15.0674	81.3812	-163.79	0.007386	0.881777	-0.171084	-0.172456	-0.031686	15.0674	-0.169506	-40.2751	0.000787	NaN
154	1.000000	0.923188	7.36655e+06	-46339.1	955.818	-29770	0.000000	0.000000	6.923133	-0.048555	NaN	0.000000	0.001724	0.001764	28.0856	0.043383	0.001973	21.9857	-34.2448	-167.26	-0.083819	0.921844	-0.131045	-0.132389	-0.048555	21.9857	-0.129389	-7.415318	0.006548	NaN
154	1.000000	0.963186	7.36655e+06	-46339.1	955.818	-29770	0.000000	0.000000	6.963130	-0.059809	NaN	0.000000	0.001667	0.001786	28.0834	0.052577	0.002038	25.8023	164.528	-165.964	-0.022792	0.961881	-0.091048	-0.092353	-0.059809	25.8023	-0.089309	-1.041307	0.057437	NaN
154	1.000000	1.003204	7.36655e+06	-46339.1	955.819	-29770	0.000000	0.000000	7.003148	-0.057717	NaN	0.000000	0.001651	0.001750	28.0842	0.090227	0.002064	43.7209	170.582	-162.117	-0.058513	1.001869	-0.051030	-0.052364	-0.057717	43.7209	-0.050040	-0.091503	0.630759	NaN
154	1.000000	1.043194	7.36655e+06	-46339.1	955.818	-29770	0.000000	0.000000	7.043140	-0.001529	NaN	0.000000	0.001677	0.001743	28.0837	0.015446	0.002188	7.058937	-20.9617	-161.989	-0.036628	1.041923	-0.011040	-0.012311	-0.001529	7.058937	-0.010878	-0.006888	0.221983	NaN
154	2.000000	1.066821	7.36655e+06	-46339.1	955.82	-29770	0.000000	0.000000	7.067554	19.1458	NaN	0.000000	0.001655	0.001712	28.0844	14.6791	0.001667	8806.4	5.477845	-175.894	18.2572	1.066520	0.012587	0.012286	19.1458	8806.4	0.010957	0.010264	1865.32	79416.8
154	2.000000	1.076843	7.36655e+06	-46339.1	955.82	-29770	0.000000	0.000000	7.078507	41.7719	NaN	0.000000	0.001594	0.001725	28.0845	23.4951	0.001801	13048.4	4.968481	-175.915	43.5299	1.076422	0.022609	0.022188	41.7719	13048.4	0.020208	0.022871	1826.43	78829.9
154	2.000000	1.086775	7.36655e+06	-46339.1	955.82	-29770	0.000000	0.000000	7.089938	78.242	NaN	0.000000	0.001602	0.001749	28.0852	33.5797	0.001831	18340	5.993399	179.042	79.7872	1.086435	0.032542	0.032202	78.242	18340	0.029342	0.039391	1986.31	84425.9
154	2.000000	1.096773	7.36655e+06	-46339.1	955.82	-29770	0.000000	0.000000	7.101518	116.718	NaN	0.000000	0.001559	0.001691	28.0845	43.2601	0.001827	23675.7	7.775778	175.26	118.399	1.096512	0.042540	0.042279	116.718	23675.7	0.038842	0.061071	1911.18	87530.2
154	2.000000	1.106734	7.36655e+06	-46339.1	955.819	-29770	0.000000	0.000000	7.113641	169.309	NaN	0.000000	0.001632	0.001693	28.0839	52.2931	0.001839	28432.2	6.483359	174.887	169.471	1.106407	0.052500	0.052174	169.309	28432.2	0.048034	0.086433	1958.83	88357.3
154	2.000000	1.116620	7.36655e+06	-46339.1	955.82	-29770	0.000000	0.000000	7.126209	234.539	NaN	0.000000	0.001596	0.001655	28.0835	62.7392	0.001835	34185.8	4.707324	175.471	230.152	1.116389	0.062387	0.062156	234.539	34185.8	0.057241	0.116102	2020.12	91664.2
154	2.000000	1.126622	7.36655e+06	-46339.1	955.82	-29770	0.000000	0.000000	7.139569	316.235	NaN	0.000000	0.001614	0.001712	28.0831	71.9643	0.001717	41903	1.720473	176.853	311.931	1.126396	0.072389	0.072162	316.235	41903	0.066729	0.151036	2093.78	98509.5
154	2.000000	1.136636	7.36655e+06	-46339.1	955.819	-29770	0.000000	0.000000	7.152901	396.952	NaN	0.000000	0.001638	0.001733	28.084	83.2275	0.001959	42493.2	1.987288	176.724	392.508	1.136381	0.082402	0.082147	396.952	42493.2	0.075396	0.186730	2125.81	89843.5
154	2.000000	1.146677	7.36655e+06	-46339.1	955.817	-29770	0.000000	0.000000	7.166551	484.741	NaN	0.000000	0.001621	0.001641	28.0828	91.4317	0.001765	51814.5	6.836484	170.38	485.137	1.146370	0.092444	0.092136	484.741	51814.5	0.085427	0.232443	2085.42	98189.7
154	2.000000	1.156478	7.36655e+06	-46339.1	955.819	-29770	0.000000	0.000000	7.180578	587.547	NaN	0.000000	0.001659	0.001692	28.0838	101.036	0.001768	57149.6	6.083487	170.31	576.005	1.156181	0.102244	0.101948	587.547	57149.6	0.094533	0.277969	2113.72	99035
154	2.000000	1.159757	7.36655e+06	-46339.1	955.819	-29770	0.000000	0.000000	7.185191	619.977	NaN	0.000000	0.001679	0.001648	28.1204	103.564	0.001742	59441.7	4.033657	172.687	624.66	1.159376	0.105523	0.105142	619.977	59441.7	0.097701	0.294693	2103.81	100041