File: remote_trans/data/nanoindenter/0828-1/data/Data_2025-08-06,11h17m57s/2025-07-22_16-23-58_1_58.txt
2025-07-22, 16:23:58, 1
Index	Phase	Displacement	Time	Pos X	Pos Y	Pos Z	Rot A	Rot B	Piezo Z	Force A	Force B	Gripper	Voltage A	Voltage B	Temperature	Amplitude force	Amplitude pos	Stiffness	Phase shift	Phase excitation	Force A raw	Displacement raw	HMax	HMax raw	Real Force	Real Stiffness	Contact Depth	Area	Hardness	Reduced Mod.
[#]	[#]	[um]	[s]	[um]	[um]	[um]	[m°]	[m°]	[um]	[uN]	[uN]	[V]	[V]	[V]	[°C]	[uN]	[um]	[N/m]	[°]	[°]	[uN]	[um]	[um]	[um]	[uN]	[N/m]	[um]	[um^2]	[MPa]	[MPa]
58	1.000000	0.002554	7.36561e+06	-41539.1	955.82	-29786.5	0.000000	0.000000	6.002814	0.038616	NaN	0.000000	0.001673	0.001601	28.0903	0.075385	0.001033	73.0001	83.839	-163.045	0.015621	0.001277	-1.026123	-1.027400	0.038616	73.0001	-1.026520	-5.160254E+13	-7.483371E-16	NaN
58	1.000000	0.042509	7.36561e+06	-41539.1	955.818	-29786.5	0.000000	0.000000	6.042769	0.023908	NaN	0.000000	0.001627	0.001625	28.0867	0.093188	0.001863	50.008	47.0836	-163.08	0.044624	0.041151	-0.986167	-0.987526	0.023908	50.008	-0.986526	-1.493903E+13	-1.600350E-15	NaN
58	1.000000	0.082514	7.36561e+06	-41539.1	955.818	-29786.5	0.000000	0.000000	6.082775	0.054972	NaN	0.000000	0.001622	0.001675	28.0887	0.055510	0.002018	27.514	-10.2285	-164.184	-0.041280	0.081206	-0.946163	-0.947471	0.054972	27.514	-0.947661	-4.471836E+12	-1.229288E-14	NaN
58	1.000000	0.122523	7.36561e+06	-41539.1	955.818	-29786.5	0.000000	0.000000	6.122783	0.028522	NaN	0.000000	0.001603	0.001639	28.088	0.056003	0.001848	30.3074	41.1356	-160.892	0.009257	0.121195	-0.906154	-0.907482	0.028522	30.3074	-0.906859	-1.258172E+12	-2.266971E-14	NaN
58	1.000000	0.162543	7.36561e+06	-41539.1	955.819	-29786.6	0.000000	0.000000	6.162803	0.034853	NaN	0.000000	0.001622	0.001656	28.0893	0.061310	0.002038	30.0853	-102.759	-166.574	0.089807	0.161207	-0.866134	-0.867470	0.034853	30.0853	-0.867003	-3.638245E+11	-9.579514E-14	NaN
58	1.000000	0.202568	7.36561e+06	-41539.1	955.819	-29786.6	0.000000	0.000000	6.202829	0.056370	NaN	0.000000	0.001606	0.001627	28.0889	0.074386	0.001996	37.2693	83.8637	-164.034	0.058715	0.201238	-0.826109	-0.827439	0.056370	37.2693	-0.827243	-1.052968E+11	-5.353407E-13	NaN
58	1.000000	0.242584	7.36561e+06	-41539.1	955.818	-29786.6	0.000000	0.000000	6.242843	0.001344	NaN	0.000000	0.001613	0.001650	28.0891	0.065193	0.001905	34.2273	104.578	-162.45	-0.102145	0.241297	-0.786093	-0.787380	0.001344	34.2273	-0.786123	-2.913507E+10	-4.612425E-14	NaN
58	1.000000	0.282602	7.36561e+06	-41539.1	955.819	-29786.6	0.000000	0.000000	6.282860	-0.025014	NaN	0.000000	0.001639	0.001668	28.0887	0.039259	0.001960	20.0268	-151.151	-161.293	-0.047393	0.281282	-0.746075	-0.747395	-0.025014	20.0268	-0.745138	-8.072810E+9	3.098570E-12	NaN
58	1.000000	0.322596	7.36561e+06	-41539.1	955.818	-29786.6	0.000000	0.000000	6.322852	-0.052702	NaN	0.000000	0.001624	0.001673	28.0881	0.034208	0.002034	16.822	45.6224	-166.637	0.062899	0.321326	-0.706081	-0.707351	-0.052702	16.822	-0.703732	-2.200319E+9	2.395219E-11	NaN
58	1.000000	0.362644	7.36561e+06	-41539.1	955.818	-29786.6	0.000000	0.000000	6.362901	-0.059931	NaN	0.000000	0.001602	0.001662	28.0878	0.181823	0.001906	95.4197	155.704	-162.414	-0.115417	0.361344	-0.666033	-0.667333	-0.059931	95.4197	-0.665561	-6.616535E+8	9.057786E-11	NaN
58	1.000000	0.402626	7.36561e+06	-41539.1	955.818	-29786.6	0.000000	0.000000	6.402883	-0.045907	NaN	0.000000	0.001567	0.001695	28.0873	0.037210	0.002029	18.3402	-18.4838	-164.11	-0.058993	0.401392	-0.626051	-0.627285	-0.045907	18.3402	-0.624174	-1.790565E+8	2.563839E-10	NaN
58	1.000000	0.442672	7.36561e+06	-41539.1	955.818	-29786.6	0.000000	0.000000	6.442929	-0.037587	NaN	0.000000	0.001649	0.001670	28.0873	0.045452	0.001974	23.0267	103.507	-164.809	-0.040561	0.441334	-0.586005	-0.587343	-0.037587	23.0267	-0.584781	-5.136779E+7	7.317304E-10	NaN
58	1.000000	0.482685	7.36561e+06	-41539.1	955.818	-29786.6	0.000000	0.000000	6.482945	0.027771	NaN	0.000000	0.001614	0.001612	28.0877	0.119085	0.001933	61.5934	-145.845	-160.841	0.052046	0.481371	-0.545992	-0.547306	0.027771	61.5934	-0.546330	-1.510490E+7	-1.838526E-9	NaN
58	1.000000	0.522693	7.36561e+06	-41539.1	955.819	-29786.6	0.000000	0.000000	6.522955	0.058078	NaN	0.000000	0.001678	0.001597	28.0868	0.027074	0.001963	13.7928	79.2419	-165.567	0.066411	0.521386	-0.505984	-0.507291	0.058078	13.7928	-0.509142	-4.59686e+06	-1.263421E-8	NaN
58	1.000000	0.562687	7.36561e+06	-41539.1	955.818	-29786.6	0.000000	0.000000	6.562949	0.071957	NaN	0.000000	0.001620	0.001626	28.0893	0.033520	0.002086	16.0703	-139.448	-165.304	0.007345	0.561405	-0.465990	-0.467272	0.071957	16.0703	-0.469348	-1.27722e+06	-5.633827E-8	NaN
58	1.000000	0.602719	7.36561e+06	-41539.1	955.819	-29786.6	0.000000	0.000000	6.602978	0.005380	NaN	0.000000	0.001588	0.001637	28.0866	0.074362	0.001881	39.5388	-113.42	-162.882	0.027609	0.601420	-0.425958	-0.427257	0.005380	39.5388	-0.426060	-313546	-1.715857E-8	NaN
58	1.000000	0.642753	7.36561e+06	-41539.1	955.818	-29786.6	0.000000	0.000000	6.643011	-0.034185	NaN	0.000000	0.001606	0.001691	28.086	0.035113	0.001906	18.4216	54.1302	-162.913	0.024741	0.641414	-0.385924	-0.387263	-0.034185	18.4216	-0.384532	-80330.8	4.255579E-7	NaN
58	1.000000	0.682766	7.36561e+06	-41539.1	955.819	-29786.6	0.000000	0.000000	6.683029	0.078653	NaN	0.000000	0.001558	0.001656	28.0855	0.038192	0.002168	17.6193	167.332	-163.354	0.045289	0.681421	-0.345910	-0.347256	0.078653	17.6193	-0.349258	-24902.2	-3.158490E-6	NaN
58	1.000000	0.722770	7.36561e+06	-41539.1	955.819	-29786.6	0.000000	0.000000	6.723028	-0.003445	NaN	0.000000	0.001616	0.001710	28.0886	0.018684	0.001899	9.838817	13.4682	-163.47	-0.032678	0.721488	-0.305907	-0.307189	-0.003445	9.838817	-0.305645	-5708.51	6.034047E-7	NaN
58	1.000000	0.762807	7.36561e+06	-41539.1	955.818	-29786.6	0.000000	0.000000	6.763064	-0.036968	NaN	0.000000	0.001596	0.001665	28.0868	0.053440	0.002046	26.1142	31.4801	-164.302	0.020229	0.761490	-0.265870	-0.267187	-0.036968	26.1142	-0.264808	-1388.23	2.662922E-5	NaN
58	1.000000	0.802848	7.36561e+06	-41539.1	955.818	-29786.6	0.000000	0.000000	6.803107	0.019187	NaN	0.000000	0.001610	0.001674	28.0883	0.041215	0.001956	21.0696	97.5625	-164.286	0.043545	0.801484	-0.225829	-0.227193	0.019187	21.0696	-0.226512	-352.642	-5.440828E-5	NaN
58	1.000000	0.842835	7.36561e+06	-41539.1	955.818	-29786.6	0.000000	0.000000	6.843095	0.007384	NaN	0.000000	0.001572	0.001680	28.0869	0.073838	0.002075	35.5787	11.0065	-163.226	0.082750	0.841550	-0.185842	-0.187127	0.007384	35.5787	-0.185997	-77.077	-9.579969E-5	NaN
58	1.000000	0.882844	7.36561e+06	-41539.1	955.819	-29786.6	0.000000	0.000000	6.883098	-0.108288	NaN	0.000000	0.001612	0.001677	28.0869	0.073183	0.002165	33.805	-106.725	-164.047	-0.077162	0.881524	-0.145833	-0.147153	-0.108288	33.805	-0.143431	-13.7109	0.007898	NaN
58	1.000000	0.922843	7.36561e+06	-41539.1	955.819	-29786.6	0.000000	0.000000	6.923100	-0.041187	NaN	0.000000	0.001599	0.001657	28.0848	0.040022	0.001988	20.1318	-1.730723	-164.931	-0.033990	0.921586	-0.105834	-0.107091	-0.041187	20.1318	-0.104299	-2.269923	0.018145	NaN
58	1.000000	0.962882	7.36561e+06	-41539.1	955.819	-29786.6	0.000000	0.000000	6.963141	-0.000457	NaN	0.000000	0.001588	0.001690	28.087	0.061798	0.002015	30.6635	26.8663	-162.73	0.071229	0.961570	-0.065795	-0.067107	-0.000457	30.6635	-0.065784	-0.261973	0.001743	NaN
58	1.000000	1.002877	7.36562e+06	-41539.1	955.819	-29786.6	0.000000	0.000000	7.003139	0.061867	NaN	0.000000	0.001617	0.001735	28.0858	0.036105	0.002039	17.7099	83.4361	-165.621	0.023595	1.001554	-0.025799	-0.027123	0.061867	17.7099	-0.028419	-0.020815	-2.972178	NaN
58	2.000000	1.039497	7.36562e+06	-41539.1	955.82	-29786.6	0.000000	0.000000	7.040152	9.643337	NaN	0.000000	0.001600	0.001720	28.0874	9.748693	0.001740	5604.11	4.793887	-169.355	9.031407	1.039177	0.010820	0.010500	9.643337	5604.11	0.009529	0.008663	1113.19	55011.2
58	2.000000	1.049433	7.36562e+06	-41539.1	955.819	-29786.6	0.000000	0.000000	7.050864	28.5283	NaN	0.000000	0.001621	0.001738	28.086	21.2651	0.001815	11715.9	6.886964	-176.72	28.0717	1.049076	0.020756	0.020399	28.5283	11715.9	0.018930	0.020888	1365.77	74062.6
58	2.000000	1.059407	7.36562e+06	-41539.1	955.82	-29786.6	0.000000	0.000000	7.062139	60.1816	NaN	0.000000	0.001603	0.001731	28.0869	31.7165	0.001834	17290.1	4.687648	-177.958	60.2119	1.059040	0.030730	0.030363	60.1816	17290.1	0.028119	0.036936	1629.34	82194.9
58	2.000000	1.069318	7.36562e+06	-41539.1	955.819	-29786.6	0.000000	0.000000	7.073561	96.9218	NaN	0.000000	0.001602	0.001718	28.0838	41.7933	0.001769	23625.4	3.600646	179.612	94.2661	1.069026	0.040641	0.040350	96.9218	23625.4	0.037565	0.057886	1674.36	89715.2
58	2.000000	1.079317	7.36562e+06	-41539.1	955.82	-29786.6	0.000000	0.000000	7.085351	140.53	NaN	0.000000	0.001632	0.001717	28.0845	51.6907	0.001809	28571.7	9.080821	172.272	137.458	1.079032	0.050640	0.050355	140.53	28571.7	0.046951	0.083222	1688.62	90488.1
58	2.000000	1.089346	7.36562e+06	-41539.1	955.82	-29786.6	0.000000	0.000000	7.097453	190.974	NaN	0.000000	0.001629	0.001709	28.0828	60.8237	0.001844	32982	4.282378	176.389	190.834	1.089045	0.060669	0.060368	190.974	32982	0.056326	0.112964	1690.57	89656.2
58	2.000000	1.099319	7.36562e+06	-41539.1	955.819	-29786.6	0.000000	0.000000	7.110135	256.862	NaN	0.000000	0.001622	0.001726	28.0865	69.6921	0.001685	41366.4	3.027612	175.575	255.975	1.099030	0.070642	0.070353	256.862	41366.4	0.065985	0.148141	1733.9	98193.5
58	2.000000	1.109301	7.36562e+06	-41539.1	955.818	-29786.6	0.000000	0.000000	7.123019	327.479	NaN	0.000000	0.001586	0.001667	28.0864	79.205	0.001731	45764.8	2.964049	174.986	325.586	1.108993	0.080624	0.080316	327.479	45764.8	0.075257	0.186130	1759.41	96916.3
58	2.000000	1.119244	7.36562e+06	-41539.1	955.819	-29786.6	0.000000	0.000000	7.135912	399.255	NaN	0.000000	0.001602	0.001758	28.0866	89.7933	0.001865	48141.1	5.489240	172.372	397.324	1.118996	0.090568	0.090319	399.255	48141.1	0.084347	0.227299	1756.52	92255.1
58	2.000000	1.129362	7.36562e+06	-41539.1	955.819	-29786.6	0.000000	0.000000	7.149428	481.943	NaN	0.000000	0.001603	0.001754	28.0839	99.9998	0.001852	53982.6	5.505578	171.07	483.689	1.129004	0.100685	0.100327	481.943	53982.6	0.093990	0.275144	1751.6	94025.9
58	2.000000	1.136827	7.36562e+06	-41539.1	955.819	-29786.6	0.000000	0.000000	7.159403	543.024	NaN	0.000000	0.001561	0.001746	28.0839	105.734	0.001784	59272.8	3.474630	-7.724000	543.215	1.136552	0.108150	0.107875	543.024	59272.8	0.101279	0.314137	1728.62	96620.5