File: remote_trans/data/nanoindenter/0828-1/data/Data_2025-08-06,11h17m57s/2025-07-22_16-23-58_1_179.txt
2025-07-22, 16:23:58, 1
Index	Phase	Displacement	Time	Pos X	Pos Y	Pos Z	Rot A	Rot B	Piezo Z	Force A	Force B	Gripper	Voltage A	Voltage B	Temperature	Amplitude force	Amplitude pos	Stiffness	Phase shift	Phase excitation	Force A raw	Displacement raw	HMax	HMax raw	Real Force	Real Stiffness	Contact Depth	Area	Hardness	Reduced Mod.
[#]	[#]	[um]	[s]	[um]	[um]	[um]	[m°]	[m°]	[um]	[uN]	[uN]	[V]	[V]	[V]	[°C]	[uN]	[um]	[N/m]	[°]	[°]	[uN]	[um]	[um]	[um]	[uN]	[N/m]	[um]	[um^2]	[MPa]	[MPa]
179	1.000000	0.002821	7.36679e+06	-47589.1	955.818	-29765.8	0.000000	0.000000	6.002827	0.094982	NaN	0.000000	0.001557	0.001748	28.1005	0.073623	0.001115	66.0381	8.663456	-168.715	0.090502	0.001543	-1.142119	-1.143396	0.094982	66.0381	-1.143197	-1.903757E+15	-4.989168E-17	NaN
179	1.000000	0.044731	7.36679e+06	-47589.1	955.818	-29765.8	0.000000	0.000000	6.044735	0.041996	NaN	0.000000	0.001553	0.001749	28.0814	0.030196	0.001999	15.1085	-127.767	10.1436	-0.047220	0.043396	-1.100208	-1.101543	0.041996	15.1085	-1.102293	-5.380806E+14	-7.804774E-17	NaN
179	1.000000	0.086748	7.36679e+06	-47589.1	955.818	-29765.8	0.000000	0.000000	6.086752	0.039730	NaN	0.000000	0.001603	0.001732	28.0942	0.078718	0.001943	40.5236	52.6962	-166.178	0.058858	0.085424	-1.058191	-1.059515	0.039730	40.5236	-1.058927	-1.407332E+14	-2.823098E-16	NaN
179	1.000000	0.128762	7.36679e+06	-47589.1	955.819	-29765.8	0.000000	0.000000	6.128768	0.075802	NaN	0.000000	0.001617	0.001716	28.1303	0.061782	0.001988	31.0829	-41.3882	13.7832	0.080227	0.127395	-1.016177	-1.017545	0.075802	31.0829	-1.018006	-3.963907E+13	-1.912294E-15	NaN
179	1.000000	0.170813	7.36679e+06	-47589.1	955.819	-29765.8	0.000000	0.000000	6.170818	0.045953	NaN	0.000000	0.001577	0.001752	28.0991	0.052747	0.002010	26.2446	-162.163	-166.793	-0.033933	0.169541	-0.974126	-0.975398	0.045953	26.2446	-0.975439	-1.059148E+13	-4.338654E-15	NaN
179	1.000000	0.212810	7.36679e+06	-47589.1	955.818	-29765.8	0.000000	0.000000	6.212815	0.046748	NaN	0.000000	0.001646	0.001774	28.0798	0.086226	0.001830	47.1111	15.0222	13.6306	-0.020189	0.211409	-0.932129	-0.933531	0.046748	47.1111	-0.932873	-2.824694E+12	-1.654972E-14	NaN
179	1.000000	0.254839	7.36679e+06	-47589.1	955.819	-29765.8	0.000000	0.000000	6.254841	-0.006911	NaN	0.000000	0.001605	0.001763	28.0941	0.095009	0.002018	47.0799	74.8694	-167.741	-0.031976	0.253526	-0.890100	-0.891413	-0.006911	47.0799	-0.889990	-7.443609E+11	9.284376E-15	NaN
179	1.000000	0.296840	7.36679e+06	-47589.1	955.819	-29765.8	0.000000	0.000000	6.296846	0.071994	NaN	0.000000	0.001629	0.001759	28.1314	0.058384	0.002081	28.0577	-4.061974	13.5027	0.049488	0.295499	-0.848099	-0.849440	0.071994	28.0577	-0.850023	-2.143150E+11	-3.359254E-13	NaN
179	1.000000	0.338852	7.36679e+06	-47589.1	955.818	-29765.8	0.000000	0.000000	6.338858	0.080195	NaN	0.000000	0.001681	0.001765	28.1006	0.162292	0.001997	81.2634	-150.343	-169.269	-0.007467	0.337581	-0.806087	-0.807358	0.080195	81.2634	-0.806827	-5.565666E+10	-1.440886E-12	NaN
179	1.000000	0.380875	7.36679e+06	-47589.1	955.819	-29765.8	0.000000	0.000000	6.380879	0.036710	NaN	0.000000	0.001688	0.001764	28.0789	0.016446	0.001977	8.320928	14.4406	13.0539	0.025271	0.379565	-0.764064	-0.765374	0.036710	8.320928	-0.767373	-1.620248E+10	-2.265700E-12	NaN
179	1.000000	0.422894	7.36679e+06	-47589.1	955.819	-29765.8	0.000000	0.000000	6.422898	0.016554	NaN	0.000000	0.001610	0.001724	28.092	0.043245	0.002038	21.2145	-175.268	-168.596	0.084842	0.421638	-0.722045	-0.723301	0.016554	21.2145	-0.722630	-3.984165E+9	-4.155038E-12	NaN
179	1.000000	0.464915	7.36679e+06	-47589.1	955.818	-29765.8	0.000000	0.000000	6.464914	-0.066192	NaN	0.000000	0.001574	0.001758	28.1302	0.053830	0.002079	25.8981	-22.7916	13.4955	-0.066600	0.463593	-0.680024	-0.681346	-0.066192	25.8981	-0.678108	-9.824748E+8	6.737314E-11	NaN
179	1.000000	0.506940	7.36679e+06	-47589.1	955.818	-29765.8	0.000000	0.000000	6.506944	0.042292	NaN	0.000000	0.001586	0.001794	28.1021	0.071597	0.001981	36.1352	176.209	-167.947	0.033478	0.505661	-0.637999	-0.639278	0.042292	36.1352	-0.638877	-2.850257E+8	-1.483797E-10	NaN
179	1.000000	0.548971	7.36679e+06	-47589.1	955.818	-29765.8	0.000000	0.000000	6.548974	0.016151	NaN	0.000000	0.001613	0.001761	28.0821	0.105296	0.001996	52.7566	64.1725	14.6169	-0.050952	0.547622	-0.595968	-0.597317	0.016151	52.7566	-0.596198	-7.380427E+7	-2.188418E-10	NaN
179	1.000000	0.590982	7.36679e+06	-47589.1	955.818	-29765.8	0.000000	0.000000	6.590985	0.004108	NaN	0.000000	0.001577	0.001771	28.0925	0.038207	0.002010	19.0042	-166.982	-167.03	-0.066612	0.589621	-0.553957	-0.555319	0.004108	19.0042	-0.554119	-1.936410E+7	-2.121207E-10	NaN
179	1.000000	0.632999	7.36679e+06	-47589.1	955.818	-29765.8	0.000000	0.000000	6.633003	0.032225	NaN	0.000000	0.001599	0.001784	28.1304	0.135108	0.001857	72.7569	36.096	9.659535	-0.023120	0.631668	-0.511940	-0.513271	0.032225	72.7569	-0.512272	-5.08232e+06	-6.340620E-9	NaN
179	1.000000	0.674999	7.36679e+06	-47589.1	955.818	-29765.8	0.000000	0.000000	6.675002	0.010066	NaN	0.000000	0.001589	0.001802	28.1017	0.014536	0.002000	7.267498	82.987	-169.162	-0.052754	0.673675	-0.469940	-0.471264	0.010066	7.267498	-0.470979	-1.34626e+06	-7.477183E-9	NaN
179	1.000000	0.717025	7.36679e+06	-47589.1	955.819	-29765.8	0.000000	0.000000	6.717027	0.003608	NaN	0.000000	0.001596	0.001785	28.0793	0.062886	0.002083	30.1908	22.9841	15.7577	-0.001088	0.715690	-0.427914	-0.429249	0.003608	30.1908	-0.428004	-334054	-1.080103E-8	NaN
179	1.000000	0.759036	7.36679e+06	-47589.1	955.818	-29765.8	0.000000	0.000000	6.759038	0.003926	NaN	0.000000	0.001672	0.001744	28.0909	0.078106	0.001977	39.5137	-159.053	-164.281	0.107873	0.757724	-0.385903	-0.387215	0.003926	39.5137	-0.385978	-84255.2	-4.660156E-8	NaN
179	1.000000	0.801071	7.36679e+06	-47589.1	955.818	-29765.8	0.000000	0.000000	6.801075	0.014970	NaN	0.000000	0.001683	0.001786	28.1295	0.077402	0.001856	41.7107	58.513	10.3856	0.029916	0.799734	-0.343868	-0.345206	0.014970	41.7107	-0.344137	-20979.8	-7.135513E-7	NaN
179	1.000000	0.843046	7.36679e+06	-47589.1	955.819	-29765.8	0.000000	0.000000	6.843049	0.036421	NaN	0.000000	0.001661	0.001757	28.1046	0.132607	0.001956	67.785	68.4633	-168.136	0.077408	0.841776	-0.301894	-0.303163	0.036421	67.785	-0.302297	-5090.96	-7.154006E-6	NaN
179	1.000000	0.885106	7.36679e+06	-47589.1	955.819	-29765.8	0.000000	0.000000	6.885110	0.037280	NaN	0.000000	0.001677	0.001749	28.0802	0.043816	0.002026	21.6283	-52.0055	9.604537	0.016225	0.883786	-0.259833	-0.261153	0.037280	21.6283	-0.261126	-1219.44	-3.057114E-5	NaN
179	1.000000	0.927141	7.36679e+06	-47589.1	955.818	-29765.8	0.000000	0.000000	6.927144	0.006417	NaN	0.000000	0.001693	0.001776	28.0903	0.127498	0.002034	62.6958	-169.45	-164.293	0.066128	0.925805	-0.217798	-0.219134	0.006417	62.6958	-0.217875	-256.845	-2.498210E-5	NaN
179	1.000000	0.969102	7.36679e+06	-47589.1	955.818	-29765.8	0.000000	0.000000	6.969106	0.053927	NaN	0.000000	0.001690	0.001751	28.1283	0.106620	0.001880	56.7147	-34.8134	10.9199	0.006492	0.967806	-0.175838	-0.177133	0.053927	56.7147	-0.176551	-53.2826	-0.001012	NaN
179	1.000000	1.011145	7.36679e+06	-47589.1	955.818	-29765.8	0.000000	0.000000	7.011149	0.046919	NaN	0.000000	0.001652	0.001787	28.1049	0.137138	0.002113	64.8999	144.564	-165.026	0.055664	1.009853	-0.133794	-0.135086	0.046919	64.8999	-0.134336	-9.238548	-0.005079	NaN
179	1.000000	1.053182	7.36679e+06	-47589.1	955.817	-29765.8	0.000000	0.000000	7.053186	0.020054	NaN	0.000000	0.001669	0.001818	28.0807	0.053979	0.002091	25.8193	-55.8343	12.9911	0.074700	1.051812	-0.091757	-0.093127	0.020054	25.8193	-0.092339	-1.225522	-0.016364	NaN
179	1.000000	1.095185	7.36679e+06	-47589.1	955.819	-29765.8	0.000000	0.000000	7.095188	0.020026	NaN	0.000000	0.001595	0.001791	28.0918	0.028111	0.002064	13.6191	-43.7842	-166.609	0.068002	1.093860	-0.049755	-0.051080	0.020026	13.6191	-0.050857	-0.096855	-0.206765	NaN
179	1.000000	1.137192	7.3668e+06	-47589.1	955.818	-29765.8	0.000000	0.000000	7.137193	-0.032179	NaN	0.000000	0.001585	0.001779	28.1289	0.060338	0.002091	28.862	60.9464	14.572	-0.023815	1.135818	-0.007747	-0.009121	-0.032179	28.862	-0.006911	-0.004587	7.014769	NaN
179	2.000000	1.159846	7.3668e+06	-47589.1	955.818	-29765.8	0.000000	0.000000	7.160532	16.6279	NaN	0.000000	0.001578	0.001765	28.1064	15.3003	0.001809	8456.78	5.692660	-175.031	16.2498	1.159490	0.014907	0.014551	16.6279	8456.78	0.013432	0.013251	1254.81	67119.4
179	2.000000	1.170276	7.3668e+06	-47589.1	955.818	-29765.8	0.000000	0.000000	7.171882	39.0082	NaN	0.000000	0.001660	0.001790	28.0791	25.0334	0.001812	13814.8	2.366010	2.992097	35.7912	1.169915	0.025336	0.024976	39.0082	13814.8	0.023219	0.027854	1400.43	75625.7
179	2.000000	1.180759	7.3668e+06	-47589.1	955.819	-29765.8	0.000000	0.000000	7.183569	68.2811	NaN	0.000000	0.001627	0.001763	28.0899	34.2631	0.001774	19309	2.002843	-178.455	66.4638	1.180440	0.035820	0.035500	68.2811	19309	0.033168	0.047566	1435.51	80888.1
179	2.000000	1.191247	7.3668e+06	-47589.1	955.819	-29765.8	0.000000	0.000000	7.195691	108.03	NaN	0.000000	0.001612	0.001804	28.1274	44.1255	0.001664	26514.2	7.464322	-7.338260	105.497	1.190920	0.046308	0.045980	108.03	26514.2	0.043253	0.072704	1485.89	89840.7
179	2.000000	1.201786	7.3668e+06	-47589.1	955.819	-29765.8	0.000000	0.000000	7.208300	158.361	NaN	0.000000	0.001601	0.001766	28.1104	55.2883	0.001919	28814.5	3.259722	177.976	157.539	1.201350	0.056847	0.056411	158.361	28814.5	0.052725	0.101023	1567.57	82827.4
179	2.000000	1.212233	7.3668e+06	-47589.1	955.819	-29765.8	0.000000	0.000000	7.220942	211.763	NaN	0.000000	0.001564	0.001768	28.0827	65.4766	0.001801	36351.2	9.925731	-12.4075	209.763	1.212009	0.067294	0.067069	211.763	36351.2	0.062925	0.136506	1551.31	89890.9
179	2.000000	1.222719	7.3668e+06	-47589.1	955.818	-29765.8	0.000000	0.000000	7.233928	272.591	NaN	0.000000	0.001604	0.001776	28.0905	74.1369	0.001765	42010.8	4.040895	172.396	270.785	1.222474	0.077780	0.077535	272.591	42010.8	0.072913	0.176141	1547.58	91454.3
179	2.000000	1.233158	7.3668e+06	-47589.1	955.819	-29765.8	0.000000	0.000000	7.247458	347.757	NaN	0.000000	0.001605	0.001823	28.1275	83.6157	0.001868	44767	5.263715	-8.752653	342.332	1.232851	0.088219	0.087912	347.757	44767	0.082393	0.218122	1594.32	87575.4
179	2.000000	1.243714	7.3668e+06	-47589.1	955.819	-29765.8	0.000000	0.000000	7.261274	427.073	NaN	0.000000	0.001588	0.001779	28.1086	92.2205	0.001787	51593.3	2.810471	172.562	426.599	1.243391	0.098774	0.098452	427.073	51593.3	0.092566	0.267812	1594.68	91086
179	2.000000	1.251705	7.3668e+06	-47589.1	955.82	-29765.8	0.000000	0.000000	7.272363	502.401	NaN	0.000000	0.001609	0.001769	28.1079	101.603	0.001846	55029.8	6.333306	169.137	501.898	1.251351	0.106766	0.106412	502.401	55029.8	0.099919	0.306675	1638.22	90788.7