File: remote_trans/data/nanoindenter/0828-1/data/Data_2025-08-06,11h17m57s/2025-07-22_16-23-58_1_455.txt
2025-07-22, 16:23:58, 1
Index	Phase	Displacement	Time	Pos X	Pos Y	Pos Z	Rot A	Rot B	Piezo Z	Force A	Force B	Gripper	Voltage A	Voltage B	Temperature	Amplitude force	Amplitude pos	Stiffness	Phase shift	Phase excitation	Force A raw	Displacement raw	HMax	HMax raw	Real Force	Real Stiffness	Contact Depth	Area	Hardness	Reduced Mod.
[#]	[#]	[um]	[s]	[um]	[um]	[um]	[m°]	[m°]	[um]	[uN]	[uN]	[V]	[V]	[V]	[°C]	[uN]	[um]	[N/m]	[°]	[°]	[uN]	[um]	[um]	[um]	[uN]	[N/m]	[um]	[um^2]	[MPa]	[MPa]
455	1.000000	0.002037	7.36951e+06	-54339.1	1005.82	-29743.9	0.000000	0.000000	6.002796	-0.030529	NaN	0.000000	0.001605	0.001818	28.0805	0.082090	0.001027	79.9397	-149.008	-158.887	-0.020027	0.000768	-1.126851	-1.128121	-0.030529	79.9397	-1.126565	-1.139055E+15	2.680226E-17	NaN
455	1.000000	0.043969	7.36951e+06	-54339.1	1005.82	-29743.9	0.000000	0.000000	6.044728	-0.055265	NaN	0.000000	0.001590	0.001817	28.0803	0.075483	0.001922	39.2824	57.2131	10.8016	-0.009879	0.042634	-1.084919	-1.086254	-0.055265	39.2824	-1.083864	-3.043770E+14	1.815677E-16	NaN
455	1.000000	0.085968	7.36951e+06	-54339.1	1005.82	-29743.9	0.000000	0.000000	6.086730	0.020306	NaN	0.000000	0.001554	0.001775	28.0799	0.025078	0.002006	12.5001	94.794	-166.081	-0.072263	0.084728	-1.042920	-1.044161	0.020306	12.5001	-1.044139	-8.904613E+13	-2.280345E-16	NaN
455	1.000000	0.128002	7.36951e+06	-54339.1	1005.82	-29743.9	0.000000	0.000000	6.128761	-0.047355	NaN	0.000000	0.001567	0.001819	28.0808	0.076053	0.001909	39.8378	112.196	15.613	0.003835	0.126645	-1.000887	-1.002243	-0.047355	39.8378	-0.999995	-2.268307E+13	2.087699E-15	NaN
455	1.000000	0.170027	7.36951e+06	-54339.1	1005.82	-29743.9	0.000000	0.000000	6.170787	-0.024436	NaN	0.000000	0.001579	0.001824	28.0808	0.036698	0.001978	18.549	-39.0917	-165.989	-0.089656	0.168690	-0.958861	-0.960199	-0.024436	18.549	-0.957873	-6.140395E+12	3.979592E-15	NaN
455	1.000000	0.212055	7.36951e+06	-54339.1	1005.82	-29743.9	0.000000	0.000000	6.212816	0.003364	NaN	0.000000	0.001539	0.001780	28.0804	0.025941	0.001976	13.1308	151.824	10.8252	-0.016834	0.210685	-0.916833	-0.918203	0.003364	13.1308	-0.917025	-1.725979E+12	-1.949214E-15	NaN
455	1.000000	0.254113	7.36951e+06	-54339.1	1005.82	-29743.9	0.000000	0.000000	6.254870	-0.085610	NaN	0.000000	0.001533	0.001747	28.0793	0.081963	0.002052	39.9372	-144.994	-165.607	-0.043357	0.252746	-0.874776	-0.876142	-0.085610	39.9372	-0.873168	-4.408584E+11	1.941899E-13	NaN
455	1.000000	0.296086	7.36951e+06	-54339.1	1005.82	-29743.9	0.000000	0.000000	6.296846	-0.023022	NaN	0.000000	0.001555	0.001823	28.0793	0.040440	0.002071	19.5276	-165.854	14.2737	-0.054356	0.294739	-0.832802	-0.834149	-0.023022	19.5276	-0.831918	-1.218377E+11	1.889533E-13	NaN
455	1.000000	0.338118	7.36951e+06	-54339.1	1005.82	-29743.9	0.000000	0.000000	6.338877	-0.032902	NaN	0.000000	0.001524	0.001783	28.0792	0.091836	0.001800	51.0295	108.163	-165.83	-0.075379	0.336789	-0.790771	-0.792099	-0.032902	51.0295	-0.790287	-3.318812E+10	9.913788E-13	NaN
455	1.000000	0.380136	7.36951e+06	-54339.1	1005.82	-29743.9	0.000000	0.000000	6.380896	-0.020898	NaN	0.000000	0.001635	0.001762	28.0805	0.114318	0.001905	60.0065	76.4945	15.7644	-0.015275	0.378743	-0.748752	-0.750145	-0.020898	60.0065	-0.748491	-8.967607E+9	2.330351E-12	NaN
455	1.000000	0.422174	7.36951e+06	-54339.1	1005.82	-29743.9	0.000000	0.000000	6.422933	-0.054848	NaN	0.000000	0.001553	0.001760	28.0808	0.063506	0.002018	31.4699	-73.6533	-164.164	-0.020238	0.420830	-0.706714	-0.708058	-0.054848	31.4699	-0.705407	-2.319290E+9	2.364841E-11	NaN
455	1.000000	0.464179	7.36951e+06	-54339.1	1005.82	-29743.9	0.000000	0.000000	6.464937	-0.051012	NaN	0.000000	0.001593	0.001808	28.0808	0.074966	0.001974	37.9737	128.494	11.6937	-0.030285	0.462802	-0.664710	-0.666086	-0.051012	37.9737	-0.663702	-6.239828E+8	8.175173E-11	NaN
455	1.000000	0.506156	7.36951e+06	-54339.1	1005.82	-29743.9	0.000000	0.000000	6.506915	-0.045945	NaN	0.000000	0.001557	0.001730	28.0794	0.027369	0.001974	13.8632	-127.664	-166.628	-0.091819	0.504867	-0.622732	-0.624022	-0.045945	13.8632	-0.620247	-1.581327E+8	2.905464E-10	NaN
455	1.000000	0.548197	7.36951e+06	-54339.1	1005.82	-29743.9	0.000000	0.000000	6.548958	-0.010850	NaN	0.000000	0.001541	0.001744	28.0794	0.032803	0.002076	15.8028	-105.392	12.244	-0.044861	0.546874	-0.580691	-0.582015	-0.010850	15.8028	-0.580176	-4.437675E+7	2.445075E-10	NaN
455	1.000000	0.590215	7.36951e+06	-54339.1	1005.82	-29743.9	0.000000	0.000000	6.590974	-0.042096	NaN	0.000000	0.001549	0.001769	28.0796	0.023826	0.001908	12.4903	-61.5669	-169.582	-0.110631	0.588962	-0.538674	-0.539926	-0.042096	12.4903	-0.536146	-1.091165E+7	3.857914E-9	NaN
455	1.000000	0.632244	7.36951e+06	-54339.1	1005.82	-29743.9	0.000000	0.000000	6.633002	-0.082540	NaN	0.000000	0.001557	0.001777	28.0797	0.086121	0.002051	41.9914	-58.4929	13.8432	-0.042757	0.630887	-0.496644	-0.498001	-0.082540	41.9914	-0.495170	-2.93498e+06	2.812298E-8	NaN
455	1.000000	0.674282	7.36951e+06	-54339.1	1005.82	-29743.9	0.000000	0.000000	6.675042	-0.016389	NaN	0.000000	0.001494	0.001727	28.0806	0.140984	0.002127	66.274	87.6909	-164.273	-0.060652	0.672937	-0.454607	-0.455951	-0.016389	66.274	-0.454421	-788084	2.079639E-8	NaN
455	1.000000	0.716269	7.36951e+06	-54339.1	1005.82	-29743.9	0.000000	0.000000	6.717028	-0.036701	NaN	0.000000	0.001535	0.001735	28.0806	0.070228	0.002035	34.5076	165.462	14.1036	-0.046413	0.714936	-0.412619	-0.413952	-0.036701	34.5076	-0.411821	-196923	1.863741E-7	NaN
455	1.000000	0.758294	7.36951e+06	-54339.1	1005.82	-29743.9	0.000000	0.000000	6.759048	-0.149548	NaN	0.000000	0.001526	0.001761	28.0817	0.065883	0.001913	34.4449	99.3283	-165.127	-0.124882	0.756987	-0.370595	-0.371901	-0.149548	34.4449	-0.367338	-45475.4	3.288539E-6	NaN
455	1.000000	0.800296	7.36951e+06	-54339.1	1005.82	-29743.9	0.000000	0.000000	6.801055	-0.031588	NaN	0.000000	0.001536	0.001771	28.0797	0.104395	0.001999	52.2289	154.252	16.4681	-0.043752	0.798898	-0.328592	-0.329990	-0.031588	52.2289	-0.328139	-12251.3	2.578328E-6	NaN
455	1.000000	0.842334	7.36951e+06	-54339.1	1005.82	-29743.9	0.000000	0.000000	6.843093	-0.051345	NaN	0.000000	0.001530	0.001715	28.0798	0.061813	0.002107	29.3411	42.1477	-166.485	-0.072430	0.840963	-0.286554	-0.287925	-0.051345	29.3411	-0.285242	-2830.73	1.813857E-5	NaN
455	1.000000	0.884334	7.36951e+06	-54339.1	1005.82	-29743.9	0.000000	0.000000	6.885093	-0.044365	NaN	0.000000	0.001527	0.001750	28.0796	0.075473	0.001893	39.869	55.6222	14.3864	-0.017947	0.883011	-0.244554	-0.245877	-0.044365	39.869	-0.243720	-656.968	6.753009E-5	NaN
455	1.000000	0.926384	7.36951e+06	-54339.1	1005.82	-29743.9	0.000000	0.000000	6.927144	-0.037464	NaN	0.000000	0.001560	0.001708	28.0808	0.083194	0.002019	41.2139	-170.728	-166.612	-0.000514	0.925043	-0.202504	-0.203845	-0.037464	41.2139	-0.201822	-141.124	0.000265	NaN
455	1.000000	0.968386	7.36951e+06	-54339.1	1005.82	-29743.9	0.000000	0.000000	6.969145	-0.022104	NaN	0.000000	0.001556	0.001772	28.0807	0.053750	0.002036	26.3956	148.321	13.8288	-0.025419	0.967047	-0.160503	-0.161842	-0.022104	26.3956	-0.159875	-27.2746	0.000810	NaN
455	1.000000	1.010383	7.36951e+06	-54339.1	1005.82	-29743.9	0.000000	0.000000	7.011164	0.507328	NaN	0.000000	0.001547	0.001741	28.0809	0.370833	0.001997	185.701	27.8965	-167.069	0.547290	1.009140	-0.118506	-0.119748	0.507328	185.701	-0.120555	-4.957488	-0.102336	NaN
455	1.000000	1.052382	7.36951e+06	-54339.1	1005.82	-29743.9	0.000000	0.000000	7.053197	1.317014	NaN	0.000000	0.001567	0.001794	28.0793	0.815187	0.001924	423.76	29.5182	13.119	1.142398	1.051037	-0.076506	-0.077851	1.317014	423.76	-0.078837	-0.578751	-2.275615	NaN
455	1.000000	1.094406	7.36951e+06	-54339.1	1005.82	-29743.9	0.000000	0.000000	7.095238	1.730380	NaN	0.000000	0.001584	0.001744	28.0793	1.252874	0.002045	612.664	32.9546	-167.645	1.750768	1.093100	-0.034482	-0.035788	1.730380	612.664	-0.036600	-0.035720	-48.4423	NaN
455	2.000000	1.115469	7.36951e+06	-54339.1	1005.82	-29743.9	0.000000	0.000000	7.116972	18.0406	NaN	0.000000	0.001651	0.001738	28.0792	17.5751	0.001817	9671.28	8.655834	3.686939	17.2561	1.115130	-0.013419	-0.013759	18.0406	9671.28	-0.014818	-0.009167	-1968.08	NaN
455	2.000000	1.125929	7.36951e+06	-54339.1	1005.82	-29743.9	0.000000	0.000000	7.128328	39.8331	NaN	0.000000	0.001615	0.001756	28.0793	28.604	0.001812	15789	6.738260	-179.594	39.5154	1.125554	-0.002960	-0.003335	39.8331	15789	-0.004852	-0.003323	-11986.2	NaN
455	2.000000	1.136423	7.36951e+06	-54339.1	1005.82	-29743.9	0.000000	0.000000	7.140104	70.9886	NaN	0.000000	0.001603	0.001752	28.0809	39.3834	0.001822	21612.8	7.081834	-4.256863	71.0274	1.136086	0.007535	0.007198	70.9886	21612.8	0.005072	0.004199	16906	304726
455	2.000000	1.146839	7.36951e+06	-54339.1	1005.82	-29743.9	0.000000	0.000000	7.152133	110.2	NaN	0.000000	0.001516	0.001756	28.081	49.1906	0.001742	28233.6	4.794756	175.598	108.191	1.146608	0.017951	0.017720	110.2	28233.6	0.015023	0.015317	7194.8	208429
455	2.000000	1.157378	7.36951e+06	-54339.1	1005.82	-29743.9	0.000000	0.000000	7.165109	169.451	NaN	0.000000	0.001558	0.001743	28.0808	59.1822	0.001764	33556.6	0.992610	-1.023549	166.612	1.156977	0.028490	0.028089	169.451	33556.6	0.024703	0.030477	5559.9	175615
455	2.000000	1.167850	7.36951e+06	-54339.1	1005.82	-29743.9	0.000000	0.000000	7.178366	237.159	NaN	0.000000	0.001525	0.001766	28.0794	69.7153	0.001686	41355.8	2.064755	176.117	234.107	1.167579	0.038961	0.038691	237.159	41355.8	0.034660	0.050958	4654	167380
455	2.000000	1.178454	7.36951e+06	-54339.1	1005.82	-29743.9	0.000000	0.000000	7.191729	304.242	NaN	0.000000	0.001556	0.001742	28.0797	81.2917	0.001640	49571	2.483967	-6.542484	307.07	1.178211	0.049565	0.049323	304.242	49571	0.044962	0.077480	3926.71	162707
455	2.000000	1.188784	7.36951e+06	-54339.1	1005.82	-29743.9	0.000000	0.000000	7.205702	392.794	NaN	0.000000	0.001542	0.001739	28.0799	92.6994	0.001837	50460.5	5.196980	171.192	389.263	1.188492	0.059895	0.059603	392.794	50460.5	0.054057	0.105365	3727.93	142029
455	2.000000	1.199287	7.36951e+06	-54339.1	1005.82	-29743.9	0.000000	0.000000	7.220019	485.514	NaN	0.000000	0.001525	0.001773	28.0813	101.63	0.001832	55467.4	7.645955	-12.0728	482.067	1.198851	0.070399	0.069963	485.514	55467.4	0.063834	0.139914	3470.09	135482
455	2.000000	1.206798	7.36951e+06	-54339.1	1005.82	-29743.9	0.000000	0.000000	7.230170	549.707	NaN	0.000000	0.001517	0.001771	28.0811	107.777	0.001727	62395.2	8.304370	166.165	548.675	1.206492	0.077909	0.077604	549.707	62395.2	0.071302	0.169424	3244.56	138496