File: remote_trans/data/nanoindenter/0828-1/data/Data_2025-08-06,11h17m57s/2025-07-22_16-23-58_1_24.txt
2025-07-22, 16:23:58, 1
Index	Phase	Displacement	Time	Pos X	Pos Y	Pos Z	Rot A	Rot B	Piezo Z	Force A	Force B	Gripper	Voltage A	Voltage B	Temperature	Amplitude force	Amplitude pos	Stiffness	Phase shift	Phase excitation	Force A raw	Displacement raw	HMax	HMax raw	Real Force	Real Stiffness	Contact Depth	Area	Hardness	Reduced Mod.
[#]	[#]	[um]	[s]	[um]	[um]	[um]	[m°]	[m°]	[um]	[uN]	[uN]	[V]	[V]	[V]	[°C]	[uN]	[um]	[N/m]	[°]	[°]	[uN]	[um]	[um]	[um]	[uN]	[N/m]	[um]	[um^2]	[MPa]	[MPa]
24	1.000000	0.002304	7.36527e+06	-39839.1	955.818	-29793.1	0.000000	0.000000	6.002767	0.081466	NaN	0.000000	0.001611	0.001717	28.0834	0.057293	0.000904	63.3846	-95.6849	-167.538	0.081332	0.001130	-1.081602	-1.082776	0.081466	63.3846	-1.082566	-2.924035E+14	-2.786072E-16	NaN
24	1.000000	0.042327	7.36527e+06	-39839.1	955.818	-29793.1	0.000000	0.000000	6.042786	-0.000830	NaN	0.000000	0.001505	0.001684	28.081	0.072811	0.002113	34.462	138.103	-169.053	0.099108	0.041007	-1.041580	-1.042900	-0.000830	34.462	-1.041562	-8.221832E+13	1.008932E-17	NaN
24	1.000000	0.082303	7.36527e+06	-39839.1	955.818	-29793.1	0.000000	0.000000	6.082763	0.000241	NaN	0.000000	0.001482	0.001713	28.0845	0.069966	0.001993	35.1117	-162.398	-164.565	-0.065624	0.081015	-1.001603	-1.002891	0.000241	35.1117	-1.001608	-2.384630E+13	-1.009638E-17	NaN
24	1.000000	0.122308	7.36527e+06	-39839.1	955.818	-29793.1	0.000000	0.000000	6.122769	0.023979	NaN	0.000000	0.001492	0.001724	28.0829	0.004789	0.002056	2.329770	-62.4028	-167.257	-0.026570	0.121050	-0.961598	-0.962856	0.023979	2.329770	-0.969317	-8.759171E+12	-2.737555E-15	NaN
24	1.000000	0.162348	7.36527e+06	-39839.1	955.818	-29793.1	0.000000	0.000000	6.162805	-0.048855	NaN	0.000000	0.001513	0.001734	28.0844	0.056977	0.002103	27.0961	144.228	-165.394	-0.044584	0.161043	-0.921559	-0.922863	-0.048855	27.0961	-0.920207	-1.905440E+12	2.563954E-14	NaN
24	1.000000	0.202362	7.36527e+06	-39839.1	955.82	-29793.1	0.000000	0.000000	6.202819	-0.056671	NaN	0.000000	0.001573	0.001684	28.0811	0.048227	0.001920	25.1211	-84.4737	-165.443	-0.082900	0.201067	-0.881545	-0.882840	-0.056671	25.1211	-0.879853	-5.428969E+11	1.043858E-13	NaN
24	1.000000	0.242377	7.36527e+06	-39839.1	955.819	-29793.1	0.000000	0.000000	6.242835	-0.042772	NaN	0.000000	0.001602	0.001676	28.082	0.052272	0.001957	26.7068	-126.985	-166.916	0.029802	0.241062	-0.841530	-0.842844	-0.042772	26.7068	-0.840329	-1.583964E+11	2.700302E-13	NaN
24	1.000000	0.282393	7.36527e+06	-39839.1	955.818	-29793.1	0.000000	0.000000	6.282850	-0.052334	NaN	0.000000	0.001532	0.001645	28.0824	0.075371	0.001976	38.1518	117.868	-170.325	-0.077854	0.281076	-0.801514	-0.802830	-0.052334	38.1518	-0.800485	-4.565019E+10	1.146418E-12	NaN
24	1.000000	0.322432	7.36527e+06	-39839.1	955.818	-29793	0.000000	0.000000	6.322891	-0.027785	NaN	0.000000	0.001524	0.001706	28.0836	0.093549	0.001936	48.3099	-127.622	-167.591	-0.021038	0.321133	-0.761474	-0.762774	-0.027785	48.3099	-0.761043	-1.328886E+10	2.090837E-12	NaN
24	1.000000	0.362398	7.36528e+06	-39839.1	955.819	-29793	0.000000	0.000000	6.362857	-0.014036	NaN	0.000000	0.001575	0.001643	28.0841	0.054187	0.001966	27.5684	-84.7286	-166.604	-0.021003	0.361118	-0.721509	-0.722788	-0.014036	27.5684	-0.721127	-3.800516E+9	3.693203E-12	NaN
24	1.000000	0.402432	7.36528e+06	-39839.1	955.818	-29793.1	0.000000	0.000000	6.402891	-0.027631	NaN	0.000000	0.001560	0.001651	28.0847	0.030932	0.002086	14.8267	164.559	-166.913	-0.002034	0.401132	-0.681474	-0.682774	-0.027631	14.8267	-0.680077	-1.045327E+9	2.643283E-11	NaN
24	1.000000	0.442454	7.36528e+06	-39839.1	955.818	-29793	0.000000	0.000000	6.442913	-0.014432	NaN	0.000000	0.001586	0.001671	28.0844	0.048904	0.001965	24.8917	42.0016	-164.541	-0.035000	0.441150	-0.641453	-0.642756	-0.014432	24.8917	-0.641018	-3.049671E+8	4.732197E-11	NaN
24	1.000000	0.482477	7.36528e+06	-39839.1	955.817	-29793	0.000000	0.000000	6.482935	-0.044379	NaN	0.000000	0.001574	0.001702	28.0831	0.112909	0.001938	58.2739	-75.7939	-168.097	0.036057	0.481188	-0.601430	-0.602718	-0.044379	58.2739	-0.600859	-8.556252E+7	5.186728E-10	NaN
24	1.000000	0.522479	7.36528e+06	-39839.1	955.819	-29793	0.000000	0.000000	6.522938	-0.020881	NaN	0.000000	0.001494	0.001711	28.082	0.037667	0.001939	19.4234	103.511	-166.135	-0.030073	0.521188	-0.561428	-0.562718	-0.020881	19.4234	-0.560622	-2.382185E+7	8.765390E-10	NaN
24	1.000000	0.562522	7.36528e+06	-39839.1	955.819	-29793	0.000000	0.000000	6.562980	-0.059577	NaN	0.000000	0.001528	0.001674	28.0832	0.094472	0.001926	49.0454	-128.739	-166.21	-0.107077	0.561218	-0.521384	-0.522689	-0.059577	49.0454	-0.520473	-6.60962e+06	9.013655E-9	NaN
24	1.000000	0.602522	7.36528e+06	-39839.1	955.818	-29793	0.000000	0.000000	6.602983	0.015078	NaN	0.000000	0.001630	0.001672	28.0823	0.023862	0.001953	12.2181	-13.8507	-167.424	-0.104122	0.601192	-0.481384	-0.482714	0.015078	12.2181	-0.482310	-1.94024e+06	-7.771312E-9	NaN
24	1.000000	0.642581	7.36528e+06	-39839.1	955.818	-29793	0.000000	0.000000	6.643036	-0.099083	NaN	0.000000	0.001540	0.001683	28.0854	0.124378	0.002007	61.9621	-121.856	-167.465	-0.042953	0.641275	-0.441326	-0.442632	-0.099083	61.9621	-0.440126	-495620	1.999183E-7	NaN
24	1.000000	0.682582	7.36528e+06	-39839.1	955.819	-29793	0.000000	0.000000	6.683039	-0.054007	NaN	0.000000	0.001530	0.001680	28.0843	0.062674	0.002129	29.4441	120.43	-167.288	-0.074779	0.681227	-0.401325	-0.402679	-0.054007	29.4441	-0.399949	-133435	4.047410E-7	NaN
24	1.000000	0.722587	7.36528e+06	-39839.1	955.818	-29793	0.000000	0.000000	6.723046	-0.007284	NaN	0.000000	0.001545	0.001701	28.0852	0.028374	0.002030	13.977	30.156	-167.85	0.006304	0.721229	-0.361319	-0.362677	-0.007284	13.977	-0.360929	-36750.8	1.981997E-7	NaN
24	1.000000	0.762589	7.36528e+06	-39839.1	955.818	-29793	0.000000	0.000000	6.763047	-0.026767	NaN	0.000000	0.001526	0.001670	28.0826	0.061897	0.001996	31.0105	-121.723	-165.476	-0.060186	0.761272	-0.321318	-0.322635	-0.026767	31.0105	-0.320670	-9517.02	2.812514E-6	NaN
24	1.000000	0.802620	7.36528e+06	-39839.1	955.818	-29793	0.000000	0.000000	6.803080	0.022563	NaN	0.000000	0.001530	0.001701	28.0845	0.153008	0.001930	79.2588	-60.2373	-164.331	0.005974	0.801329	-0.281287	-0.282578	0.022563	79.2588	-0.281500	-2486.52	-9.074291E-6	NaN
24	1.000000	0.842632	7.36528e+06	-39839.1	955.818	-29793	0.000000	0.000000	6.843091	-0.002458	NaN	0.000000	0.001552	0.001700	28.0829	0.080322	0.002137	37.5945	-16.4996	-167.271	0.047432	0.841341	-0.241275	-0.242565	-0.002458	37.5945	-0.241226	-600.739	4.092407E-6	NaN
24	1.000000	0.882637	7.36528e+06	-39839.1	955.818	-29793	0.000000	0.000000	6.883100	0.072504	NaN	0.000000	0.001583	0.001666	28.0859	0.043725	0.001933	22.6155	75.2257	-166.156	0.080913	0.881375	-0.201269	-0.202532	0.072504	22.6155	-0.203674	-151.324	-0.000479	NaN
24	1.000000	0.922637	7.36528e+06	-39839.1	955.819	-29793	0.000000	0.000000	6.923094	-0.078885	NaN	0.000000	0.001556	0.001696	28.0844	0.094602	0.001977	47.847	13.8107	-165.678	-0.103798	0.921363	-0.161269	-0.162544	-0.078885	47.847	-0.160033	-27.4517	0.002874	NaN
24	1.000000	0.962672	7.36528e+06	-39839.1	955.819	-29793	0.000000	0.000000	6.963130	-0.030093	NaN	0.000000	0.001555	0.001644	28.0865	0.046000	0.001966	23.4022	105.584	-167.264	-0.076660	0.961403	-0.121235	-0.122504	-0.030093	23.4022	-0.120270	-4.892539	0.006151	NaN
24	1.000000	1.002679	7.36528e+06	-39839.1	955.818	-29793	0.000000	0.000000	7.003136	-0.068464	NaN	0.000000	0.001513	0.001664	28.0848	0.091966	0.002021	45.5153	89.7092	-167.687	-0.085485	1.001403	-0.081227	-0.082504	-0.068464	45.5153	-0.080099	-0.622534	0.109976	NaN
24	1.000000	1.042723	7.36528e+06	-39839.1	955.817	-29793	0.000000	0.000000	7.043185	0.068953	NaN	0.000000	0.001545	0.001671	28.0842	0.114642	0.002009	57.0665	93.9397	-164.603	-0.059799	1.041365	-0.041184	-0.042542	0.068953	57.0665	-0.042090	-0.052362	-1.316864	NaN
24	1.000000	1.082691	7.36528e+06	-39839.1	955.818	-29793	0.000000	0.000000	7.083203	1.258953	NaN	0.000000	0.001487	0.001715	28.084	1.930464	0.001923	1003.99	4.403715	-168.2	0.517039	1.081441	-0.001215	-0.002465	1.258953	1003.99	-0.002156	-0.001547	-813.8	NaN
24	2.000000	1.096250	7.36528e+06	-39839.1	955.818	-29793	0.000000	0.000000	7.097626	22.2803	NaN	0.000000	0.001532	0.001673	28.085	13.9343	0.001937	7193.37	13.9391	-174.159	22.4988	1.095909	0.012344	0.012003	22.2803	7193.37	0.010021	0.009205	2420.52	68501.3
24	2.000000	1.106302	7.36528e+06	-39839.1	955.818	-29793	0.000000	0.000000	7.107885	27.3295	NaN	0.000000	0.001573	0.001659	28.0858	19.8159	0.002122	9338.64	14.5235	179.46	29.9688	1.105966	0.022396	0.022060	27.3295	9338.64	0.020201	0.022859	1195.58	56432.6
24	2.000000	1.116242	7.36528e+06	-39839.1	955.819	-29793	0.000000	0.000000	7.118700	48.634	NaN	0.000000	0.001550	0.001673	28.0869	31.0923	0.001799	17284.4	10.853	176.87	52.3997	1.115958	0.032335	0.032052	48.634	17284.4	0.030225	0.041211	1180.12	77789.7
24	2.000000	1.126205	7.36528e+06	-39839.1	955.819	-29793	0.000000	0.000000	7.129961	80.2272	NaN	0.000000	0.001585	0.001740	28.085	40.5365	0.001902	21309	6.885969	175.887	80.2796	1.125912	0.042298	0.042006	80.2272	21309	0.039475	0.062678	1279.99	77764.1
24	2.000000	1.136122	7.36528e+06	-39839.1	955.819	-29793	0.000000	0.000000	7.141236	113.27	NaN	0.000000	0.001558	0.001741	28.0863	48.5315	0.001819	26684.9	7.058973	173.642	110.522	1.135742	0.052215	0.051836	113.27	26684.9	0.049032	0.089444	1266.38	81519.8
24	2.000000	1.146118	7.36528e+06	-39839.1	955.819	-29793	0.000000	0.000000	7.153142	159.759	NaN	0.000000	0.001582	0.001787	28.0835	58.1993	0.001724	33757.1	3.624509	174.72	156.938	1.145793	0.062211	0.061887	159.759	33757.1	0.058662	0.121053	1319.74	88644.3
24	2.000000	1.156159	7.36528e+06	-39839.1	955.819	-29793	0.000000	0.000000	7.165191	208.612	NaN	0.000000	0.001659	0.001710	28.085	69.0232	0.001776	38854.5	4.683999	172.394	210.768	1.155838	0.072252	0.071932	208.612	38854.5	0.068225	0.156944	1329.22	89607.1
24	2.000000	1.166063	7.36528e+06	-39839.1	955.82	-29793	0.000000	0.000000	7.177969	278.558	NaN	0.000000	0.001610	0.001696	28.0828	79.1997	0.001677	47231	6.485184	169.762	273.762	1.165882	0.082156	0.081975	278.558	47231	0.077733	0.196958	1414.3	97232.8
24	2.000000	1.176125	7.36528e+06	-39839.1	955.819	-29793	0.000000	0.000000	7.191360	359.54	NaN	0.000000	0.001594	0.001708	28.0868	93.0333	0.001763	52781.6	11.243	164.6	357.544	1.175986	0.092219	0.092080	359.54	52781.6	0.087110	0.240570	1494.54	98318.5
24	2.000000	1.186030	7.36528e+06	-39839.1	955.818	-29793	0.000000	0.000000	7.205461	461.659	NaN	0.000000	0.001515	0.001670	28.086	101.13	0.001627	62160.4	6.364124	168.258	458.321	1.185871	0.102124	0.101965	461.659	62160.4	0.096554	0.288583	1599.74	105719