File: remote_trans/data/nanoindenter/0828-1/data/Data_2025-08-06,11h17m57s/2025-07-22_16-23-58_1_446.txt
2025-07-22, 16:23:58, 1
Index	Phase	Displacement	Time	Pos X	Pos Y	Pos Z	Rot A	Rot B	Piezo Z	Force A	Force B	Gripper	Voltage A	Voltage B	Temperature	Amplitude force	Amplitude pos	Stiffness	Phase shift	Phase excitation	Force A raw	Displacement raw	HMax	HMax raw	Real Force	Real Stiffness	Contact Depth	Area	Hardness	Reduced Mod.
[#]	[#]	[um]	[s]	[um]	[um]	[um]	[m°]	[m°]	[um]	[uN]	[uN]	[V]	[V]	[V]	[°C]	[uN]	[um]	[N/m]	[°]	[°]	[uN]	[um]	[um]	[um]	[uN]	[N/m]	[um]	[um^2]	[MPa]	[MPa]
446	1.000000	0.002265	7.36942e+06	-54789.1	1005.82	-29743	0.000000	0.000000	6.002847	-0.007320	NaN	0.000000	0.001577	0.001714	28.0825	0.060665	0.000854	71.0397	124.513	-161.308	-0.023748	0.000983	-1.081375	-1.082657	-0.007320	71.0397	-1.081298	-2.811574E+14	2.603640E-17	NaN
446	1.000000	0.042159	7.36942e+06	-54789.1	1005.82	-29743	0.000000	0.000000	6.042743	0.026228	NaN	0.000000	0.001553	0.001670	28.0823	0.082023	0.001955	41.9649	67.7657	-163.703	0.089449	0.040884	-1.041481	-1.042756	0.026228	41.9649	-1.041950	-8.321129E+13	-3.152011E-16	NaN
446	1.000000	0.082196	7.36942e+06	-54789.1	1005.82	-29743	0.000000	0.000000	6.082778	-0.013174	NaN	0.000000	0.001608	0.001713	28.0823	0.054089	0.002008	26.9413	-17.4313	-167.397	-0.002257	0.080807	-1.001444	-1.002832	-0.013174	26.9413	-1.001077	-2.345666E+13	5.616244E-16	NaN
446	1.000000	0.122211	7.36942e+06	-54789.1	1005.82	-29743	0.000000	0.000000	6.122792	-0.024974	NaN	0.000000	0.001570	0.001724	28.0811	0.017711	0.002037	8.696457	-120.793	-163.673	0.092189	0.120878	-0.961429	-0.962761	-0.024974	8.696457	-0.959275	-6.413496E+12	3.893972E-15	NaN
446	1.000000	0.162217	7.36942e+06	-54789.1	1005.82	-29743	0.000000	0.000000	6.162803	0.081553	NaN	0.000000	0.001558	0.001712	28.0812	0.125348	0.001803	69.5214	-88.2894	-164.879	-0.001858	0.160904	-0.921423	-0.922736	0.081553	69.5214	-0.922302	-2.033722E+12	-4.010015E-14	NaN
446	1.000000	0.202237	7.36942e+06	-54789.1	1005.82	-29743	0.000000	0.000000	6.202823	0.089683	NaN	0.000000	0.001575	0.001713	28.0809	0.071240	0.002015	35.3611	168.537	-160.552	0.128172	0.200957	-0.881403	-0.882683	0.089683	35.3611	-0.883305	-6.045110E+11	-1.483569E-13	NaN
446	1.000000	0.242245	7.36942e+06	-54789.1	1005.82	-29743	0.000000	0.000000	6.242827	0.008009	NaN	0.000000	0.001580	0.001701	28.0809	0.016031	0.002011	7.972546	113.458	-167.651	0.011457	0.240958	-0.841395	-0.842682	0.008009	7.972546	-0.842149	-1.676490E+11	-4.777186E-14	NaN
446	1.000000	0.282290	7.36942e+06	-54789.1	1005.82	-29743	0.000000	0.000000	6.282874	0.019401	NaN	0.000000	0.001586	0.001760	28.0821	0.118549	0.002007	59.0589	106.748	-168.628	0.062626	0.280976	-0.801350	-0.802664	0.019401	59.0589	-0.801596	-4.726339E+10	-4.104766E-13	NaN
446	1.000000	0.322313	7.36942e+06	-54789.1	1005.82	-29743	0.000000	0.000000	6.322896	0.014480	NaN	0.000000	0.001649	0.001750	28.0823	0.146983	0.001940	75.7724	-76.6792	-164.13	0.090901	0.320878	-0.761327	-0.762762	0.014480	75.7724	-0.761470	-1.346800E+10	-1.075142E-12	NaN
446	1.000000	0.362286	7.36942e+06	-54789.1	1005.82	-29743	0.000000	0.000000	6.362871	0.061927	NaN	0.000000	0.001586	0.001754	28.0824	0.037857	0.002056	18.4145	-18.2833	-162.56	0.030297	0.361003	-0.721354	-0.722637	0.061927	18.4145	-0.723876	-4.143145E+9	-1.494675E-11	NaN
446	1.000000	0.402342	7.36942e+06	-54789.1	1005.82	-29743	0.000000	0.000000	6.402926	0.021518	NaN	0.000000	0.001615	0.001728	28.082	0.139083	0.001911	72.7753	18.313	-164.778	0.034054	0.401089	-0.681298	-0.682551	0.021518	72.7753	-0.681519	-1.093914E+9	-1.967042E-11	NaN
446	1.000000	0.442328	7.36942e+06	-54789.1	1005.82	-29743	0.000000	0.000000	6.442908	-0.054267	NaN	0.000000	0.001573	0.001744	28.0815	0.097724	0.001945	50.2414	-77.0911	-167.572	-0.030665	0.440965	-0.641312	-0.642675	-0.054267	50.2414	-0.640502	-3.000371E+8	1.808687E-10	NaN
446	1.000000	0.482368	7.36942e+06	-54789.1	1005.82	-29743	0.000000	0.000000	6.482951	0.024369	NaN	0.000000	0.001570	0.001722	28.0811	0.034534	0.001934	17.8569	-66.588	-164.971	0.127152	0.481049	-0.601272	-0.602591	0.024369	17.8569	-0.602296	-8.955157E+7	-2.721172E-10	NaN
446	1.000000	0.522349	7.36942e+06	-54789.1	1005.82	-29743	0.000000	0.000000	6.522934	0.064817	NaN	0.000000	0.001547	0.001767	28.0815	0.103638	0.002008	51.6235	-67.9482	-163.308	0.015623	0.521090	-0.561291	-0.562550	0.064817	51.6235	-0.562232	-2.507582E+7	-2.584856E-9	NaN
446	1.000000	0.562379	7.36942e+06	-54789.1	1005.82	-29743	0.000000	0.000000	6.562957	-0.103190	NaN	0.000000	0.001573	0.001745	28.0819	0.098776	0.002140	46.1533	127.998	-166.318	-0.071834	0.561135	-0.521261	-0.522505	-0.103190	46.1533	-0.519584	-6.42416e+06	1.606288E-8	NaN
446	1.000000	0.602410	7.36942e+06	-54789.1	1005.82	-29743	0.000000	0.000000	6.602991	-0.042956	NaN	0.000000	0.001580	0.001756	28.0822	0.063028	0.002061	30.5771	-141.7	-164.735	-0.070652	0.601113	-0.481230	-0.482527	-0.042956	30.5771	-0.480176	-1.81131e+06	2.371559E-8	NaN
446	1.000000	0.642393	7.36942e+06	-54789.1	1005.82	-29743	0.000000	0.000000	6.642976	0.007736	NaN	0.000000	0.001574	0.001746	28.0822	0.196637	0.002083	94.4202	-160.491	-167.341	-0.030197	0.641103	-0.441247	-0.442537	0.007736	94.4202	-0.441308	-515023	-1.502038E-8	NaN
446	1.000000	0.682417	7.36942e+06	-54789.1	1005.82	-29743	0.000000	0.000000	6.682998	-0.020095	NaN	0.000000	0.001551	0.001761	28.0811	0.076869	0.001850	41.5402	64.5297	-165.165	-0.103387	0.681139	-0.401223	-0.402501	-0.020095	41.5402	-0.400861	-137488	1.461589E-7	NaN
446	1.000000	0.722460	7.36942e+06	-54789.1	1005.82	-29743	0.000000	0.000000	6.723043	0.002047	NaN	0.000000	0.001625	0.001744	28.081	0.095094	0.001995	47.6777	126.896	-166.972	-0.060972	0.721117	-0.361180	-0.362523	0.002047	47.6777	-0.361212	-37098.9	-5.516894E-8	NaN
446	1.000000	0.762481	7.36942e+06	-54789.1	1005.82	-29743	0.000000	0.000000	6.763062	-0.050758	NaN	0.000000	0.001618	0.001727	28.0813	0.072940	0.001950	37.4003	-30.0233	-164.509	-0.018038	0.761112	-0.321159	-0.322528	-0.050758	37.4003	-0.320141	-9347.81	5.429895E-6	NaN
446	1.000000	0.802486	7.36942e+06	-54789.1	1005.82	-29743	0.000000	0.000000	6.803069	-0.000601	NaN	0.000000	0.001550	0.001753	28.0825	0.057581	0.001997	28.8335	-134.746	-165.694	-0.020268	0.801186	-0.281154	-0.282454	-0.000601	28.8335	-0.281138	-2455.45	2.445593E-7	NaN
446	1.000000	0.842490	7.36942e+06	-54789.1	1005.82	-29743	0.000000	0.000000	6.843075	0.054279	NaN	0.000000	0.001544	0.001734	28.0824	0.075041	0.002061	36.4142	-107.22	-164.983	0.042335	0.841167	-0.241150	-0.242473	0.054279	36.4142	-0.242268	-623.642	-8.703566E-5	NaN
446	1.000000	0.882508	7.36942e+06	-54789.1	1005.82	-29743	0.000000	0.000000	6.883090	0.000801	NaN	0.000000	0.001542	0.001742	28.0825	0.043485	0.001937	22.4533	121.833	-163.066	0.028722	0.881181	-0.201132	-0.202459	0.000801	22.4533	-0.201159	-137.636	-5.820859E-6	NaN
446	1.000000	0.922534	7.36942e+06	-54789.1	1005.82	-29743	0.000000	0.000000	6.923112	-0.097888	NaN	0.000000	0.001544	0.001729	28.0823	0.048716	0.002064	23.6006	23.0208	-164.96	-0.086845	0.921229	-0.161106	-0.162411	-0.097888	23.6006	-0.157995	-25.2507	0.003877	NaN
446	1.000000	0.962549	7.36943e+06	-54789.1	1005.82	-29743	0.000000	0.000000	6.963131	-0.009492	NaN	0.000000	0.001551	0.001768	28.0812	0.040523	0.001962	20.6537	142.005	-163.207	-0.085850	0.961223	-0.121091	-0.122417	-0.009492	20.6537	-0.120746	-5.001751	0.001898	NaN
446	1.000000	1.002585	7.36943e+06	-54789.1	1005.82	-29743	0.000000	0.000000	7.003166	-0.044800	NaN	0.000000	0.001575	0.001789	28.081	0.122884	0.002034	60.4124	-103.59	-165.148	0.002620	1.001232	-0.081055	-0.082408	-0.044800	60.4124	-0.080499	-0.636991	0.070331	NaN
446	1.000000	1.042570	7.36943e+06	-54789.1	1005.82	-29743	0.000000	0.000000	7.043155	0.073713	NaN	0.000000	0.001648	0.001740	28.081	0.098199	0.002006	48.9618	172.722	-166.246	0.036038	1.041340	-0.041070	-0.042300	0.073713	48.9618	-0.042199	-0.052766	-1.396988	NaN
446	1.000000	1.082616	7.36943e+06	-54789.1	1005.82	-29743	0.000000	0.000000	7.083197	-0.024851	NaN	0.000000	0.001647	0.001751	28.0824	0.080897	0.001936	41.7929	112.602	-164.813	0.015696	1.081310	-0.001024	-0.002330	-0.024851	41.7929	-0.000578	-0.000427	58.1637	NaN
446	2.000000	1.101151	7.36943e+06	-54789.1	1005.82	-29743	0.000000	0.000000	7.102487	18.3121	NaN	0.000000	0.001621	0.001768	28.0822	17.6304	0.001754	10050	11.2403	-179.462	20.0386	1.100816	0.017511	0.017176	18.3121	10050	0.016145	0.016842	1087.28	70752.3
446	2.000000	1.111086	7.36943e+06	-54789.1	1005.82	-29743	0.000000	0.000000	7.113312	39.9623	NaN	0.000000	0.001593	0.001735	28.0823	28.31	0.001813	15611.5	4.602202	-177.278	41.8511	1.110756	0.027446	0.027116	39.9623	15611.5	0.025526	0.031979	1249.64	79759.9
446	2.000000	1.121015	7.36943e+06	-54789.1	1005.82	-29743	0.000000	0.000000	7.124521	71.0627	NaN	0.000000	0.001586	0.001710	28.0825	38.2094	0.001887	20245.8	4.310654	-179.117	70.3885	1.120762	0.037375	0.037122	71.0627	20245.8	0.034743	0.051149	1389.32	81788
446	2.000000	1.131045	7.36943e+06	-54789.1	1005.82	-29743	0.000000	0.000000	7.136435	116.877	NaN	0.000000	0.001586	0.001718	28.081	48.7679	0.001789	27252.9	2.770478	179.005	117.49	1.130758	0.047405	0.047118	116.877	27252.9	0.044188	0.075300	1552.15	90737.7
446	2.000000	1.140931	7.36943e+06	-54789.1	1005.82	-29743	0.000000	0.000000	7.148475	169.251	NaN	0.000000	0.001654	0.001714	28.0809	57.9228	0.001761	32896.6	5.030160	175.844	164.851	1.140628	0.057291	0.056988	169.251	32896.6	0.053432	0.103316	1638.18	93506.2
446	2.000000	1.150968	7.36943e+06	-54789.1	1005.82	-29743	0.000000	0.000000	7.160081	207.394	NaN	0.000000	0.001667	0.001704	28.0811	68.1932	0.001953	34914.9	2.927331	176.544	206.023	1.150853	0.067328	0.067213	207.394	34914.9	0.062873	0.136311	1521.47	86400.7
446	2.000000	1.160989	7.36943e+06	-54789.1	1005.82	-29743	0.000000	0.000000	7.172652	269.375	NaN	0.000000	0.001638	0.001737	28.0826	76.767	0.001885	40716.2	3.560853	174.96	267.865	1.160742	0.077349	0.077103	269.375	40716.2	0.072387	0.173933	1548.73	89196.8
446	2.000000	1.170973	7.36943e+06	-54789.1	1005.82	-29743	0.000000	0.000000	7.185335	334.986	NaN	0.000000	0.001557	0.001722	28.0825	86.645	0.001857	46663.3	10.0973	168.731	335.041	1.170606	0.087333	0.086967	334.986	46663.3	0.081949	0.216064	1550.4	91718.5
446	2.000000	1.181007	7.36943e+06	-54789.1	1005.82	-29743	0.000000	0.000000	7.197983	398.51	NaN	0.000000	0.001592	0.001768	28.0825	96.5702	0.001897	50917.8	7.631487	169.983	401.16	1.180704	0.097367	0.097064	398.51	50917.8	0.091498	0.262369	1518.89	90821
446	2.000000	1.191074	7.36943e+06	-54789.1	1005.82	-29743	0.000000	0.000000	7.211077	472.121	NaN	0.000000	0.001613	0.001784	28.0816	104.65	0.001717	60948.5	6.731020	169.634	480.779	1.190718	0.107434	0.107078	472.121	60948.5	0.101624	0.316041	1493.86	99052.3
446	2.000000	1.192366	7.36943e+06	-54789.1	1005.82	-29743	0.000000	0.000000	7.213098	489.826	NaN	0.000000	0.001578	0.001779	28.0814	104.134	0.001863	55890.5	4.154993	-6.451245	483.726	1.192015	0.108726	0.108375	489.826	55890.5	0.102153	0.318975	1535.63	90413.5