File: remote_trans/data/nanoindenter/0828-1/data/Data_2025-08-06,11h17m57s/2025-07-22_16-23-58_1_602.txt
2025-07-22, 16:23:58, 1
Index	Phase	Displacement	Time	Pos X	Pos Y	Pos Z	Rot A	Rot B	Piezo Z	Force A	Force B	Gripper	Voltage A	Voltage B	Temperature	Amplitude force	Amplitude pos	Stiffness	Phase shift	Phase excitation	Force A raw	Displacement raw	HMax	HMax raw	Real Force	Real Stiffness	Contact Depth	Area	Hardness	Reduced Mod.
[#]	[#]	[um]	[s]	[um]	[um]	[um]	[m°]	[m°]	[um]	[uN]	[uN]	[V]	[V]	[V]	[°C]	[uN]	[um]	[N/m]	[°]	[°]	[uN]	[um]	[um]	[um]	[uN]	[N/m]	[um]	[um^2]	[MPa]	[MPa]
602	1.000000	0.002029	7.37094e+06	-46989.1	1005.82	-29767.4	0.000000	0.000000	6.002768	-0.005521	NaN	0.000000	0.001553	0.001835	28.0805	0.050274	0.000891	56.4391	-133.987	-171.833	-0.119907	0.000840	-1.065793	-1.066983	-0.005521	56.4391	-1.065720	-1.736524E+14	3.179465E-17	NaN
602	1.000000	0.042025	7.37094e+06	-46989.1	1005.82	-29767.5	0.000000	0.000000	6.042766	0.043552	NaN	0.000000	0.001512	0.001788	28.0815	0.066279	0.001885	35.162	-140.272	-166.212	0.033512	0.040647	-1.025797	-1.027175	0.043552	35.162	-1.026726	-5.193290E+13	-8.386271E-16	NaN
602	1.000000	0.082010	7.37094e+06	-46989.1	1005.82	-29767.5	0.000000	0.000000	6.082751	0.047059	NaN	0.000000	0.001576	0.001768	28.0815	0.060412	0.001871	32.2845	26.1244	-164.249	0.042788	0.080668	-0.985812	-0.987155	0.047059	32.2845	-0.986905	-1.511586E+13	-3.113205E-15	NaN
602	1.000000	0.122074	7.37094e+06	-46989.1	1005.82	-29767.5	0.000000	0.000000	6.122815	0.056840	NaN	0.000000	0.001514	0.001745	28.0815	0.091026	0.001862	48.8924	-118.114	-166.029	0.034524	0.120758	-0.945748	-0.947065	0.056840	48.8924	-0.946620	-4.329529E+12	-1.312846E-14	NaN
602	1.000000	0.162052	7.37094e+06	-46989.1	1005.82	-29767.5	0.000000	0.000000	6.162789	-0.041312	NaN	0.000000	0.001557	0.001756	28.0803	0.018091	0.001981	9.134620	53.5006	-166.163	0.024365	0.160742	-0.905770	-0.907080	-0.041312	9.134620	-0.902378	-1.094456E+12	3.774645E-14	NaN
602	1.000000	0.202085	7.37094e+06	-46989.1	1005.82	-29767.5	0.000000	0.000000	6.202824	0.016693	NaN	0.000000	0.001543	0.001808	28.0807	0.087931	0.001941	45.3078	172.621	-165.737	0.025470	0.200722	-0.865737	-0.867101	0.016693	45.3078	-0.866013	-3.527803E+11	-4.731955E-14	NaN
602	1.000000	0.242095	7.37094e+06	-46989.1	1005.82	-29767.5	0.000000	0.000000	6.242835	0.046972	NaN	0.000000	0.001530	0.001772	28.0807	0.054500	0.002004	27.1971	161.034	-169.821	0.044609	0.240805	-0.825728	-0.827018	0.046972	27.1971	-0.827023	-1.045767E+11	-4.491660E-13	NaN
602	1.000000	0.282118	7.37094e+06	-46989.1	1005.82	-29767.5	0.000000	0.000000	6.282855	-0.025892	NaN	0.000000	0.001513	0.001794	28.081	0.129774	0.002117	61.3018	22.6061	-163.999	0.030495	0.280798	-0.785705	-0.787024	-0.025892	61.3018	-0.785388	-2.847312E+10	9.093600E-13	NaN
602	1.000000	0.322117	7.37094e+06	-46989.1	1005.82	-29767.5	0.000000	0.000000	6.322859	0.083390	NaN	0.000000	0.001545	0.001802	28.0821	0.052509	0.002021	25.9778	-106.365	-168.45	0.095721	0.320796	-0.745705	-0.747027	0.083390	25.9778	-0.748113	-8.861950E+9	-9.409916E-12	NaN
602	1.000000	0.362147	7.37094e+06	-46989.1	1005.82	-29767.5	0.000000	0.000000	6.362887	0.034287	NaN	0.000000	0.001468	0.001766	28.0822	0.036433	0.002152	16.9313	166.994	-168.051	0.077780	0.360818	-0.705675	-0.707004	0.034287	16.9313	-0.707194	-2.453291E+9	-1.397592E-11	NaN
602	1.000000	0.402160	7.37094e+06	-46989.1	1005.82	-29767.5	0.000000	0.000000	6.402902	0.065324	NaN	0.000000	0.001513	0.001798	28.0818	0.052769	0.001987	26.559	-114.669	-165.371	0.143512	0.400855	-0.665662	-0.666967	0.065324	26.559	-0.667507	-7.034960E+8	-9.285637E-11	NaN
602	1.000000	0.442173	7.37094e+06	-46989.1	1005.82	-29767.5	0.000000	0.000000	6.442913	0.029094	NaN	0.000000	0.001538	0.001748	28.0807	0.080130	0.001928	41.5709	-144.395	-167.66	0.087639	0.440855	-0.625649	-0.626967	0.029094	41.5709	-0.626174	-1.907533E+8	-1.525209E-10	NaN
602	1.000000	0.482181	7.37094e+06	-46989.1	1005.82	-29767.5	0.000000	0.000000	6.482920	0.015572	NaN	0.000000	0.001521	0.001769	28.0807	0.086263	0.001958	44.067	163.446	-167.639	0.064723	0.480894	-0.585642	-0.586928	0.015572	44.067	-0.585907	-5.323775E+7	-2.924980E-10	NaN
602	1.000000	0.522198	7.37094e+06	-46989.1	1005.82	-29767.5	0.000000	0.000000	6.522936	0.000203	NaN	0.000000	0.001531	0.001742	28.0806	0.069434	0.001970	35.2533	7.332415	-164.254	0.018974	0.520878	-0.545625	-0.546945	0.000203	35.2533	-0.545629	-1.477061E+7	-1.371298E-11	NaN
602	1.000000	0.562254	7.37094e+06	-46989.1	1005.82	-29767.5	0.000000	0.000000	6.562994	0.016758	NaN	0.000000	0.001545	0.001764	28.082	0.054718	0.002050	26.6855	140.199	-166.865	0.046561	0.560905	-0.505568	-0.506917	0.016758	26.6855	-0.506039	-4.16128e+06	-4.027031E-9	NaN
602	1.000000	0.602216	7.37094e+06	-46989.1	1005.82	-29767.5	0.000000	0.000000	6.602954	-0.000433	NaN	0.000000	0.001517	0.001796	28.0821	0.079624	0.001999	39.8419	164.216	-168.412	0.018609	0.600905	-0.465607	-0.466918	-0.000433	39.8419	-0.465599	-1.13149e+06	3.825445E-10	NaN
602	1.000000	0.642260	7.37094e+06	-46989.1	1005.82	-29767.5	0.000000	0.000000	6.643000	0.018356	NaN	0.000000	0.001574	0.001771	28.0826	0.119137	0.002102	56.6674	-22.7023	-162.741	-0.018868	0.640936	-0.425562	-0.426887	0.018356	56.6674	-0.425805	-310944	-5.903292E-8	NaN
602	1.000000	0.682289	7.37094e+06	-46989.1	1005.82	-29767.5	0.000000	0.000000	6.683027	-0.011168	NaN	0.000000	0.001528	0.001762	28.0823	0.068941	0.002015	34.2143	-141.057	-166.778	-0.044828	0.680983	-0.385534	-0.386839	-0.011168	34.2143	-0.385289	-82361.5	1.355916E-7	NaN
602	1.000000	0.722286	7.37094e+06	-46989.1	1005.82	-29767.5	0.000000	0.000000	6.723025	0.004269	NaN	0.000000	0.001554	0.001743	28.0811	0.101094	0.002060	49.0744	61.5329	-165.034	-0.044286	0.720939	-0.345536	-0.346883	0.004269	49.0744	-0.345601	-22034.3	-1.937647E-7	NaN
602	1.000000	0.762288	7.37094e+06	-46989.1	1005.82	-29767.5	0.000000	0.000000	6.763026	-0.002532	NaN	0.000000	0.001544	0.001747	28.081	0.032382	0.001930	16.7751	-177.894	-167.629	0.023538	0.760987	-0.305534	-0.306835	-0.002532	16.7751	-0.305421	-5665.07	4.468845E-7	NaN
602	1.000000	0.802340	7.37094e+06	-46989.1	1005.82	-29767.5	0.000000	0.000000	6.803076	-0.052559	NaN	0.000000	0.001567	0.001732	28.0809	0.029227	0.001997	14.635	-140.45	-168.682	-0.008466	0.800985	-0.265483	-0.266837	-0.052559	14.635	-0.262789	-1293.06	4.064685E-5	NaN
602	1.000000	0.842328	7.37094e+06	-46989.1	1005.82	-29767.5	0.000000	0.000000	6.843068	0.020607	NaN	0.000000	0.001620	0.001739	28.0822	0.109432	0.001997	54.7897	81.2217	-165.266	0.030975	0.841034	-0.225494	-0.226789	0.020607	54.7897	-0.225776	-343.285	-6.002962E-5	NaN
602	1.000000	0.882374	7.37094e+06	-46989.1	1005.82	-29767.5	0.000000	0.000000	6.883114	0.036761	NaN	0.000000	0.001547	0.001763	28.0822	0.127770	0.002009	63.5905	-158.817	-167.874	0.087914	0.881069	-0.185449	-0.186754	0.036761	63.5905	-0.185882	-76.7349	-0.000479	NaN
602	1.000000	0.922363	7.37094e+06	-46989.1	1005.82	-29767.5	0.000000	0.000000	6.923099	-0.039003	NaN	0.000000	0.001573	0.001754	28.0824	0.074377	0.002010	37.0018	29.1134	-165.904	0.049262	0.921072	-0.145460	-0.146750	-0.039003	37.0018	-0.144669	-14.456	0.002698	NaN
602	1.000000	0.962403	7.37094e+06	-46989.1	1005.82	-29767.5	0.000000	0.000000	6.963143	0.016996	NaN	0.000000	0.001546	0.001772	28.0822	0.056808	0.001994	28.4857	-87.448	-163.966	0.008150	0.961111	-0.105419	-0.106712	0.016996	28.4857	-0.105867	-2.453872	-0.006926	NaN
602	1.000000	1.002414	7.37094e+06	-46989.1	1005.82	-29767.5	0.000000	0.000000	7.003152	-0.020545	NaN	0.000000	0.001519	0.001773	28.081	0.025825	0.001981	13.0361	-99.8834	-168.141	-0.004958	1.001079	-0.065408	-0.066743	-0.020545	13.0361	-0.064226	-0.237171	0.086624	NaN
602	1.000000	1.042412	7.37094e+06	-46989.1	1005.82	-29767.5	0.000000	0.000000	7.043150	-0.001216	NaN	0.000000	0.001534	0.001788	28.081	0.117254	0.002075	56.5117	-130.968	-168.348	-0.001321	1.041098	-0.025411	-0.026725	-0.001216	56.5117	-0.025394	-0.017276	0.070406	NaN
602	2.000000	1.077052	7.37094e+06	-46989.1	1005.82	-29767.5	0.000000	0.000000	7.078233	10.7725	NaN	0.000000	0.001594	0.001749	28.0813	10.6753	0.001802	5925.24	6.180944	-171.899	10.6628	1.076699	0.009229	0.008876	10.7725	5925.24	0.007866	0.006905	1560.17	65148.8
602	2.000000	1.086916	7.37094e+06	-46989.1	1005.82	-29767.5	0.000000	0.000000	7.088731	26.1853	NaN	0.000000	0.001569	0.001791	28.0827	20.3159	0.001830	11099.4	4.360231	-176.063	25.0002	1.086670	0.019093	0.018847	26.1853	11099.4	0.017324	0.018510	1414.62	74535.5
602	2.000000	1.096924	7.37094e+06	-46989.1	1005.82	-29767.5	0.000000	0.000000	7.099846	53.0987	NaN	0.000000	0.001562	0.001760	28.0825	29.8112	0.001755	16982.6	3.514399	-179.117	51.8854	1.096608	0.029102	0.028785	53.0987	16982.6	0.026757	0.034289	1548.54	83791
602	2.000000	1.106904	7.37094e+06	-46989.1	1005.82	-29767.5	0.000000	0.000000	7.111160	85.5723	NaN	0.000000	0.001613	0.001760	28.0825	40.521	0.001768	22917.9	2.569060	179.313	85.8322	1.106632	0.039081	0.038810	85.5723	22917.9	0.036281	0.054770	1562.39	89470
602	2.000000	1.116847	7.37094e+06	-46989.1	1005.82	-29767.5	0.000000	0.000000	7.122772	126.168	NaN	0.000000	0.001520	0.001759	28.0811	50.0581	0.001870	26767.5	5.782537	174.816	123.798	1.116601	0.049024	0.048779	126.168	26767.5	0.045489	0.078982	1597.42	87019.2
602	2.000000	1.126849	7.37094e+06	-46989.1	1005.82	-29767.5	0.000000	0.000000	7.135094	182.585	NaN	0.000000	0.001555	0.001764	28.081	60.013	0.001898	31627.2	5.036336	175.111	180.742	1.126531	0.059027	0.058709	182.585	31627.2	0.054697	0.107483	1698.73	88138
602	2.000000	1.136825	7.37094e+06	-46989.1	1005.82	-29767.5	0.000000	0.000000	7.147235	235.252	NaN	0.000000	0.001540	0.001759	28.081	68.6107	0.001789	38351.3	4.344541	173.175	233.267	1.136605	0.069002	0.068783	235.252	38351.3	0.064402	0.142063	1655.97	92963.6
602	2.000000	1.146795	7.37095e+06	-46989.1	1005.82	-29767.5	0.000000	0.000000	7.159998	303.2	NaN	0.000000	0.001509	0.001734	28.081	77.4082	0.001843	42005.9	6.917476	169.917	300.303	1.146500	0.078972	0.078678	303.2	42005.9	0.073559	0.178865	1695.13	90744.6
602	2.000000	1.156877	7.37095e+06	-46989.1	1005.82	-29767.5	0.000000	0.000000	7.173043	375.256	NaN	0.000000	0.001547	0.001695	28.0822	87.2835	0.001854	47066.3	3.929640	172.618	376.185	1.156629	0.089054	0.088807	375.256	47066.3	0.083075	0.221303	1695.67	91409.2
602	2.000000	1.166810	7.37095e+06	-46989.1	1005.82	-29767.5	0.000000	0.000000	7.186315	456.49	NaN	0.000000	0.001515	0.001760	28.0824	96.8811	0.001798	53889.4	0.014770	175.247	454.616	1.166544	0.098987	0.098721	456.49	53889.4	0.092634	0.268161	1702.3	95077.7
602	2.000000	1.173792	7.37095e+06	-46989.1	1005.82	-29767.5	0.000000	0.000000	7.195819	517.83	NaN	0.000000	0.001541	0.001777	28.0823	103.988	0.001831	56798.3	3.294185	171.585	515.137	1.173562	0.105970	0.105739	517.83	56798.3	0.099132	0.302398	1712.41	94366.8