File: remote_trans/data/nanoindenter/0828-1/data/Data_2025-08-06,11h17m57s/2025-07-22_16-23-58_1_1031.txt
2025-07-22, 16:23:58, 1
Index	Phase	Displacement	Time	Pos X	Pos Y	Pos Z	Rot A	Rot B	Piezo Z	Force A	Force B	Gripper	Voltage A	Voltage B	Temperature	Amplitude force	Amplitude pos	Stiffness	Phase shift	Phase excitation	Force A raw	Displacement raw	HMax	HMax raw	Real Force	Real Stiffness	Contact Depth	Area	Hardness	Reduced Mod.
[#]	[#]	[um]	[s]	[um]	[um]	[um]	[m°]	[m°]	[um]	[uN]	[uN]	[V]	[V]	[V]	[°C]	[uN]	[um]	[N/m]	[°]	[°]	[uN]	[um]	[um]	[um]	[uN]	[N/m]	[um]	[um^2]	[MPa]	[MPa]
1031	1.000000	0.002829	7.37513e+06	-51689.1	1055.82	-29751.3	0.000000	0.000000	6.002833	0.036661	NaN	0.000000	0.001551	0.001653	28.0822	0.019363	0.000974	19.8761	155.078	-172.339	0.114623	0.001522	-1.138917	-1.140223	0.036661	19.8761	-1.140300	-1.740865E+15	-2.105926E-17	NaN
1031	1.000000	0.044730	7.37513e+06	-51689.1	1055.82	-29751.3	0.000000	0.000000	6.044734	0.036843	NaN	0.000000	0.001574	0.001667	28.0822	0.072230	0.001960	36.8447	-0.165539	13.3375	0.054919	0.043376	-1.097016	-1.098370	0.036843	36.8447	-1.097765	-4.678117E+14	-7.875613E-17	NaN
1031	1.000000	0.086761	7.37513e+06	-51689.1	1055.82	-29751.3	0.000000	0.000000	6.086765	0.033952	NaN	0.000000	0.001533	0.001625	28.0821	0.120389	0.002024	59.4774	172.749	-164.794	0.077976	0.085483	-1.054985	-1.056263	0.033952	59.4774	-1.055413	-1.262320E+14	-2.689669E-16	NaN
1031	1.000000	0.128763	7.37513e+06	-51689.1	1055.82	-29751.3	0.000000	0.000000	6.128767	0.042125	NaN	0.000000	0.001539	0.001646	28.0836	0.006854	0.002108	3.251393	-105.814	16.1166	0.042589	0.127427	-1.012982	-1.014319	0.042125	3.251393	-1.022699	-4.584287E+13	-9.188993E-16	NaN
1031	1.000000	0.170781	7.37513e+06	-51689.1	1055.82	-29751.3	0.000000	0.000000	6.170782	-0.053017	NaN	0.000000	0.001566	0.001613	28.0835	0.022995	0.001981	11.6053	-43.871	-166.089	0.001242	0.169491	-0.970964	-0.972255	-0.053017	11.6053	-0.967538	-8.288643E+12	6.396360E-15	NaN
1031	1.000000	0.212835	7.37513e+06	-51689.1	1055.82	-29751.3	0.000000	0.000000	6.212837	-0.011323	NaN	0.000000	0.001558	0.001640	28.0836	0.035164	0.002004	17.5513	62.4414	16.3385	-0.049632	0.211451	-0.928911	-0.930295	-0.011323	17.5513	-0.928427	-2.460171E+12	4.602720E-15	NaN
1031	1.000000	0.254834	7.37513e+06	-51689.1	1055.82	-29751.3	0.000000	0.000000	6.254835	-0.019943	NaN	0.000000	0.001534	0.001687	28.0823	0.038302	0.002072	18.49	54.8503	-162.71	-0.024377	0.253564	-0.886912	-0.888182	-0.019943	18.49	-0.886103	-6.595277E+11	3.023759E-14	NaN
1031	1.000000	0.296841	7.37513e+06	-51689.1	1055.82	-29751.3	0.000000	0.000000	6.296845	0.039352	NaN	0.000000	0.001560	0.001629	28.0825	0.127564	0.001975	64.5731	73.3663	13.7957	0.046557	0.295487	-0.844905	-0.846259	0.039352	64.5731	-0.845362	-1.853227E+11	-2.123408E-13	NaN
1031	1.000000	0.338867	7.37513e+06	-51689.1	1055.82	-29751.3	0.000000	0.000000	6.338871	0.030473	NaN	0.000000	0.001526	0.001658	28.0828	0.043657	0.001878	23.2465	-108.593	-164.409	0.003273	0.337549	-0.802878	-0.804197	0.030473	23.2465	-0.803862	-5.073121E+10	-6.006752E-13	NaN
1031	1.000000	0.380898	7.37513e+06	-51689.1	1055.82	-29751.3	0.000000	0.000000	6.380898	-0.063934	NaN	0.000000	0.001528	0.001640	28.0838	0.043408	0.001986	21.8593	-173.558	15.0732	-0.052601	0.379496	-0.760847	-0.762250	-0.063934	21.8593	-0.758654	-1.233072E+10	5.184930E-12	NaN
1031	1.000000	0.422879	7.37513e+06	-51689.1	1055.82	-29751.3	0.000000	0.000000	6.422884	0.063003	NaN	0.000000	0.001599	0.001678	28.084	0.046012	0.002054	22.4001	132.413	-163.429	0.020168	0.421568	-0.718867	-0.720177	0.063003	22.4001	-0.720976	-3.782568E+9	-1.665619E-11	NaN
1031	1.000000	0.464922	7.37513e+06	-51689.1	1055.82	-29751.3	0.000000	0.000000	6.464924	-0.005910	NaN	0.000000	0.001619	0.001679	28.084	0.092950	0.002049	45.3556	150.972	16.6884	0.034231	0.463546	-0.676824	-0.678200	-0.005910	45.3556	-0.676726	-9.406396E+8	6.283451E-12	NaN
1031	1.000000	0.506937	7.37513e+06	-51689.1	1055.82	-29751.3	0.000000	0.000000	6.506937	-0.052336	NaN	0.000000	0.001596	0.001671	28.0838	0.069003	0.001934	35.6803	-172.391	-164.565	-0.042323	0.505595	-0.634809	-0.636151	-0.052336	35.6803	-0.633709	-2.420731E+8	2.161976E-10	NaN
1031	1.000000	0.548944	7.37513e+06	-51689.1	1055.82	-29751.3	0.000000	0.000000	6.548949	0.064900	NaN	0.000000	0.001625	0.001705	28.0821	0.031289	0.001933	16.1878	151.16	17.7948	0.077009	0.547610	-0.592802	-0.594136	0.064900	16.1878	-0.595808	-7.289897E+7	-8.902720E-10	NaN
1031	1.000000	0.590944	7.37514e+06	-51689.1	1055.82	-29751.3	0.000000	0.000000	6.590943	-0.079251	NaN	0.000000	0.001578	0.001704	28.0822	0.060177	0.001947	30.9089	155.872	-164.555	-0.060483	0.589666	-0.550802	-0.552080	-0.079251	30.9089	-0.548879	-1.638426E+7	4.837037E-9	NaN
1031	1.000000	0.632999	7.37514e+06	-51689.1	1055.82	-29751.3	0.000000	0.000000	6.633002	0.024645	NaN	0.000000	0.001585	0.001696	28.0821	0.040629	0.001988	20.4367	-11.477	16.4127	0.048504	0.631629	-0.508747	-0.510117	0.024645	20.4367	-0.509651	-4.67259e+06	-5.274439E-9	NaN
1031	1.000000	0.675013	7.37514e+06	-51689.1	1055.82	-29751.3	0.000000	0.000000	6.675014	-0.047406	NaN	0.000000	0.001622	0.001677	28.0842	0.102689	0.001886	54.4343	-19.7079	-164.847	-0.114091	0.673748	-0.466733	-0.467998	-0.047406	54.4343	-0.466080	-1.14921e+06	4.125099E-8	NaN
1031	1.000000	0.717030	7.37514e+06	-51689.1	1055.82	-29751.3	0.000000	0.000000	6.717030	-0.056869	NaN	0.000000	0.001555	0.001732	28.0837	0.078810	0.002068	38.1013	100.514	16.7942	0.014272	0.715656	-0.424716	-0.426090	-0.056869	38.1013	-0.423597	-289335	1.965493E-7	NaN
1031	1.000000	0.759023	7.37514e+06	-51689.1	1055.82	-29751.3	0.000000	0.000000	6.759023	-0.059076	NaN	0.000000	0.001545	0.001711	28.0839	0.028464	0.002022	14.0785	118.62	-163.158	-0.027960	0.757744	-0.382722	-0.384001	-0.059076	14.0785	-0.379575	-68201.4	8.662020E-7	NaN
1031	1.000000	0.801064	7.37514e+06	-51689.1	1055.82	-29751.3	0.000000	0.000000	6.801067	0.011428	NaN	0.000000	0.001549	0.001708	28.0827	0.129403	0.001975	65.5096	-145.913	14.4001	0.070067	0.799719	-0.340682	-0.342026	0.011428	65.5096	-0.340813	-18767.1	-6.089446E-7	NaN
1031	1.000000	0.843058	7.37514e+06	-51689.1	1055.82	-29751.3	0.000000	0.000000	6.843058	-0.053387	NaN	0.000000	0.001497	0.001684	28.0826	0.073846	0.002094	35.2616	58.112	-162.195	-0.084856	0.841793	-0.298688	-0.299952	-0.053387	35.2616	-0.297552	-4326.85	1.233847E-5	NaN
1031	1.000000	0.885122	7.37514e+06	-51689.1	1055.82	-29751.3	0.000000	0.000000	6.885124	-0.003950	NaN	0.000000	0.001547	0.001706	28.0827	0.071297	0.002127	33.5198	15.388	14.2153	-0.070410	0.883736	-0.256624	-0.258009	-0.003950	33.5198	-0.256535	-1036.9	3.809341E-6	NaN
1031	1.000000	0.927107	7.37514e+06	-51689.1	1055.82	-29751.3	0.000000	0.000000	6.927109	-0.003862	NaN	0.000000	0.001533	0.001699	28.0839	0.048811	0.001993	24.4949	30.4654	-163.505	-0.065231	0.925791	-0.214639	-0.215955	-0.003862	24.4949	-0.214521	-226.883	1.701981E-5	NaN
1031	1.000000	0.969138	7.37514e+06	-51689.1	1055.82	-29751.3	0.000000	0.000000	6.969139	-0.029575	NaN	0.000000	0.001550	0.001697	28.0837	0.127011	0.002145	59.2137	139.53	18.7045	0.052119	0.967749	-0.172608	-0.173997	-0.029575	59.2137	-0.172233	-44.9051	0.000659	NaN
1031	1.000000	1.011141	7.37514e+06	-51689.1	1055.82	-29751.3	0.000000	0.000000	7.011141	-0.065928	NaN	0.000000	0.001546	0.001699	28.0838	0.045766	0.001926	23.7606	-68.2944	-165.251	-0.090655	1.009843	-0.130605	-0.131903	-0.065928	23.7606	-0.128524	-7.132766	0.009243	NaN
1031	1.000000	1.053152	7.37514e+06	-51689.1	1055.82	-29751.3	0.000000	0.000000	7.053155	0.019881	NaN	0.000000	0.001617	0.001678	28.0838	0.061001	0.001960	31.1277	66.6614	16.0115	-0.021353	1.051834	-0.088594	-0.089912	0.019881	31.1277	-0.089073	-1.028029	-0.019339	NaN
1031	1.000000	1.095192	7.37514e+06	-51689.1	1055.82	-29751.3	0.000000	0.000000	7.095192	-0.051338	NaN	0.000000	0.001567	0.001708	28.0825	0.097888	0.002053	47.6703	167.19	-166.215	-0.054234	1.093871	-0.046554	-0.047875	-0.051338	47.6703	-0.045746	-0.067735	0.757932	NaN
1031	1.000000	1.137205	7.37514e+06	-51689.1	1055.82	-29751.3	0.000000	0.000000	7.137211	0.085704	NaN	0.000000	0.001607	0.001699	28.0823	0.302905	0.001936	156.482	35.9325	11.8667	0.081168	1.135810	-0.004540	-0.005936	0.085704	156.482	-0.004951	-0.003386	-25.3121	NaN
1031	2.000000	1.156701	7.37514e+06	-51689.1	1055.82	-29751.3	0.000000	0.000000	7.157455	18.2886	NaN	0.000000	0.001572	0.001688	28.0823	15.3627	0.001820	8442.75	9.145450	-177.698	17.9195	1.156380	0.014955	0.014634	18.2886	8442.75	0.013330	0.013123	1393.64	67335.4
1031	2.000000	1.167112	7.37514e+06	-51689.1	1055.82	-29751.3	0.000000	0.000000	7.168848	42.1433	NaN	0.000000	0.001624	0.001680	28.084	25.2436	0.001846	13673.2	9.401470	-1.179493	40.0504	1.166759	0.025366	0.025013	42.1433	13673.2	0.023055	0.027571	1528.51	75234
1031	2.000000	1.177589	7.37514e+06	-51689.1	1055.82	-29751.3	0.000000	0.000000	7.180425	68.9178	NaN	0.000000	0.001588	0.001693	28.084	34.2989	0.001710	20059.5	3.424962	-179.027	66.635	1.177312	0.035843	0.035566	68.9178	20059.5	0.033266	0.047786	1442.23	83838.8
1031	2.000000	1.188090	7.37514e+06	-51689.1	1055.82	-29751.3	0.000000	0.000000	7.192769	113.725	NaN	0.000000	0.001586	0.001742	28.0839	44.4986	0.001630	27305.6	5.305533	-4.189143	110.995	1.187751	0.046344	0.046006	113.725	27305.6	0.043221	0.072616	1566.12	92578.3
1031	2.000000	1.198671	7.37514e+06	-51689.1	1055.82	-29751.3	0.000000	0.000000	7.205175	158.084	NaN	0.000000	0.001662	0.001727	28.0826	56.5412	0.001857	30452.8	8.033204	174.368	159.643	1.198208	0.056926	0.056462	158.084	30452.8	0.053032	0.102016	1549.61	87109.8
1031	2.000000	1.209143	7.37514e+06	-51689.1	1055.82	-29751.3	0.000000	0.000000	7.217841	211.442	NaN	0.000000	0.001631	0.001719	28.0825	66.1623	0.001780	37163.6	5.073424	-6.728910	213.447	1.208879	0.067397	0.067134	211.442	37163.6	0.063130	0.137272	1540.32	91643.3
1031	2.000000	1.219486	7.37514e+06	-51689.1	1055.82	-29751.3	0.000000	0.000000	7.230715	272.986	NaN	0.000000	0.001576	0.001727	28.0821	74.9814	0.001764	42516.6	3.266187	174.036	270.147	1.219322	0.077740	0.077576	272.986	42516.6	0.072924	0.176187	1549.41	92543.5
1031	2.000000	1.230009	7.37514e+06	-51689.1	1055.82	-29751.3	0.000000	0.000000	7.244454	351.186	NaN	0.000000	0.001616	0.001709	28.0833	83.6467	0.001924	43472.1	2.074878	-4.804503	346.744	1.229639	0.088263	0.087893	351.186	43472.1	0.082204	0.217246	1616.53	85213.4
1031	2.000000	1.240550	7.37514e+06	-51689.1	1055.82	-29751.3	0.000000	0.000000	7.258553	437.721	NaN	0.000000	0.001587	0.001711	28.0836	95.1797	0.001825	52166.7	4.854619	172.013	436.021	1.240131	0.098804	0.098385	437.721	52166.7	0.092511	0.267528	1636.17	92147.1
1031	2.000000	1.247346	7.37514e+06	-51689.1	1055.82	-29751.3	0.000000	0.000000	7.267608	492.611	NaN	0.000000	0.001623	0.001721	28.0835	100.357	0.001676	59894.6	2.969125	172.452	482.945	1.247114	0.105601	0.105368	492.611	59894.6	0.099432	0.304028	1620.28	99244.1