File: remote_trans/data/nanoindenter/0828-1/data/Data_2025-08-06,11h17m57s/2025-07-22_16-23-58_1_717.txt
2025-07-22, 16:23:58, 1
Index	Phase	Displacement	Time	Pos X	Pos Y	Pos Z	Rot A	Rot B	Piezo Z	Force A	Force B	Gripper	Voltage A	Voltage B	Temperature	Amplitude force	Amplitude pos	Stiffness	Phase shift	Phase excitation	Force A raw	Displacement raw	HMax	HMax raw	Real Force	Real Stiffness	Contact Depth	Area	Hardness	Reduced Mod.
[#]	[#]	[um]	[s]	[um]	[um]	[um]	[m°]	[m°]	[um]	[uN]	[uN]	[V]	[V]	[V]	[°C]	[uN]	[um]	[N/m]	[°]	[°]	[uN]	[um]	[um]	[um]	[uN]	[N/m]	[um]	[um^2]	[MPa]	[MPa]
717	1.000000	0.002992	7.37207e+06	-41239.1	1005.82	-29786.9	0.000000	0.000000	6.002805	0.000435	NaN	0.000000	0.001613	0.001715	28.0819	0.083077	0.000949	87.5081	51.0789	-161.098	-0.000506	0.001731	-1.109509	-1.110770	0.000435	87.5081	-1.109512	-6.725788E+14	-6.474807E-19	NaN
717	1.000000	0.044944	7.37207e+06	-41239.1	1005.82	-29786.9	0.000000	0.000000	6.044756	-0.021772	NaN	0.000000	0.001574	0.001728	28.0818	0.086120	0.001977	43.5688	141.35	15.8757	-0.003620	0.043559	-1.067556	-1.068941	-0.021772	43.5688	-1.067181	-1.816860E+14	1.198330E-16	NaN
717	1.000000	0.086919	7.37207e+06	-41239.1	1005.82	-29786.9	0.000000	0.000000	6.086732	-0.005354	NaN	0.000000	0.001650	0.001676	28.0815	0.038236	0.001853	20.6349	-125.996	-166.86	-0.032691	0.085655	-1.025581	-1.026846	-0.005354	20.6349	-1.025386	-4.982183E+13	1.074706E-16	NaN
717	1.000000	0.128980	7.37207e+06	-41239.1	1005.82	-29786.9	0.000000	0.000000	6.128792	-0.025351	NaN	0.000000	0.001607	0.001705	28.083	0.024490	0.002046	11.9714	165.208	15.099	-0.006423	0.127598	-0.983520	-0.984902	-0.025351	11.9714	-0.981932	-1.295496E+13	1.956860E-15	NaN
717	1.000000	0.171009	7.37207e+06	-41239.1	1005.82	-29786.9	0.000000	0.000000	6.170821	-0.002067	NaN	0.000000	0.001610	0.001727	28.0828	0.060971	0.001979	30.8049	-96.5287	-164.772	-0.067083	0.169715	-0.941492	-0.942785	-0.002067	30.8049	-0.941442	-3.686253E+12	5.608135E-16	NaN
717	1.000000	0.212997	7.37207e+06	-41239.1	1005.82	-29786.9	0.000000	0.000000	6.212805	-0.113761	NaN	0.000000	0.001641	0.001676	28.0826	0.064882	0.001825	35.5515	122.818	11.1688	-0.108387	0.211604	-0.899504	-0.900896	-0.113761	35.5515	-0.897104	-9.288187E+11	1.224792E-13	NaN
717	1.000000	0.255033	7.37207e+06	-41239.1	1005.82	-29786.9	0.000000	0.000000	6.254846	0.009799	NaN	0.000000	0.001617	0.001711	28.0814	0.096223	0.001964	48.9844	167.719	-161.052	-0.034080	0.253651	-0.857467	-0.858849	0.009799	48.9844	-0.857617	-2.715617E+11	-3.608559E-14	NaN
717	1.000000	0.297001	7.37207e+06	-41239.1	1005.82	-29786.9	0.000000	0.000000	6.296814	0.019134	NaN	0.000000	0.001642	0.001706	28.0812	0.077700	0.002135	36.4003	95.653	13.4211	-0.026432	0.295644	-0.815500	-0.816856	0.019134	36.4003	-0.815894	-7.388008E+10	-2.589871E-13	NaN
717	1.000000	0.339051	7.37207e+06	-41239.1	1005.82	-29786.9	0.000000	0.000000	6.338861	-0.071916	NaN	0.000000	0.001574	0.001724	28.0811	0.039428	0.002012	19.5935	55.0372	-165.441	-0.144686	0.337744	-0.773449	-0.774757	-0.071916	19.5935	-0.770696	-1.797933E+10	3.999933E-12	NaN
717	1.000000	0.381071	7.37207e+06	-41239.1	1005.82	-29786.9	0.000000	0.000000	6.380883	-0.009666	NaN	0.000000	0.001597	0.001727	28.0813	0.025594	0.002013	12.7137	94.8478	13.0999	-0.087727	0.379764	-0.731430	-0.732736	-0.009666	12.7137	-0.730860	-5.158509E+9	1.873826E-12	NaN
717	1.000000	0.423110	7.37207e+06	-41239.1	1005.82	-29786.9	0.000000	0.000000	6.422922	-0.022502	NaN	0.000000	0.001641	0.001711	28.0823	0.137294	0.002090	65.6978	-75.9486	-160.932	-0.061970	0.421797	-0.689391	-0.690703	-0.022502	65.6978	-0.689134	-1.390206E+9	1.618636E-11	NaN
717	1.000000	0.465116	7.37207e+06	-41239.1	1005.82	-29786.9	0.000000	0.000000	6.464928	-0.037607	NaN	0.000000	0.001642	0.001734	28.0823	0.031463	0.001915	16.431	-107.415	15.9088	-0.082097	0.463751	-0.647384	-0.648750	-0.037607	16.431	-0.645668	-3.532095E+8	1.064715E-10	NaN
717	1.000000	0.507122	7.37207e+06	-41239.1	1005.82	-29786.9	0.000000	0.000000	6.506935	0.006506	NaN	0.000000	0.001632	0.001719	28.0824	0.030943	0.002030	15.2462	16.8783	-166.526	0.046900	0.505888	-0.605378	-0.606612	0.006506	15.2462	-0.605698	-9.975058E+7	-6.522672E-11	NaN
717	1.000000	0.549148	7.37207e+06	-41239.1	1005.82	-29786.9	0.000000	0.000000	6.548961	0.001538	NaN	0.000000	0.001611	0.001695	28.0815	0.078831	0.001945	40.5283	94.5966	16.9708	-0.056749	0.547829	-0.563353	-0.564671	0.001538	40.5283	-0.563381	-2.601019E+7	-5.914237E-11	NaN
717	1.000000	0.591190	7.37207e+06	-41239.1	1005.82	-29786.9	0.000000	0.000000	6.590998	-0.098426	NaN	0.000000	0.001602	0.001731	28.0815	0.054767	0.001933	28.3353	115.121	-163.948	-0.147229	0.589874	-0.521311	-0.522626	-0.098426	28.3353	-0.518706	-6.2459e+06	1.575850E-8	NaN
717	1.000000	0.633202	7.37207e+06	-41239.1	1005.82	-29786.9	0.000000	0.000000	6.633011	-0.102940	NaN	0.000000	0.001651	0.001699	28.0816	0.049803	0.002013	24.7467	130.751	13.3377	-0.076572	0.631857	-0.479298	-0.480644	-0.102940	24.7467	-0.476178	-1.59224e+06	6.465100E-8	NaN
717	1.000000	0.675201	7.37207e+06	-41239.1	1005.82	-29786.9	0.000000	0.000000	6.675012	-0.052581	NaN	0.000000	0.001672	0.001688	28.0825	0.106910	0.002023	52.8483	65.2515	-165.541	-0.043324	0.673924	-0.437299	-0.438576	-0.052581	52.8483	-0.436553	-441258	1.191615E-7	NaN
717	1.000000	0.717194	7.37207e+06	-41239.1	1005.82	-29786.9	0.000000	0.000000	6.717003	-0.092492	NaN	0.000000	0.001596	0.001754	28.0824	0.070008	0.001958	35.7636	127.567	13.9347	-0.093362	0.715824	-0.395306	-0.396677	-0.092492	35.7636	-0.393367	-107473	8.606027E-7	NaN
717	1.000000	0.759248	7.37207e+06	-41239.1	1005.82	-29786.9	0.000000	0.000000	6.759061	0.000946	NaN	0.000000	0.001605	0.001741	28.0824	0.010822	0.002052	5.273952	35.7855	-162.164	0.086343	0.757927	-0.353253	-0.354573	0.000946	5.273952	-0.353387	-28584.3	-3.308467E-8	NaN
717	1.000000	0.801243	7.37207e+06	-41239.1	1005.82	-29786.9	0.000000	0.000000	6.801050	-0.138767	NaN	0.000000	0.001578	0.001742	28.0814	0.093724	0.001926	48.6502	158.974	14.2826	-0.033740	0.799924	-0.311257	-0.312576	-0.138767	48.6502	-0.309118	-6426.91	2.159156E-5	NaN
717	1.000000	0.843286	7.37207e+06	-41239.1	1005.82	-29786.9	0.000000	0.000000	6.843096	-0.055382	NaN	0.000000	0.001625	0.001778	28.0818	0.097008	0.002024	47.9304	65.3968	-166.06	-0.115914	0.841962	-0.269215	-0.270538	-0.055382	47.9304	-0.268348	-1571.87	3.523300E-5	NaN
717	1.000000	0.885239	7.37207e+06	-41239.1	1005.82	-29786.9	0.000000	0.000000	6.885050	-0.047370	NaN	0.000000	0.001704	0.001722	28.0813	0.097886	0.001987	49.2743	10.1648	12.2056	-0.030266	0.883933	-0.227261	-0.228567	-0.047370	49.2743	-0.226540	-352.998	0.000134	NaN
717	1.000000	0.927317	7.37207e+06	-41239.1	1005.82	-29786.9	0.000000	0.000000	6.927129	-0.027318	NaN	0.000000	0.001684	0.001692	28.0816	0.065072	0.002010	32.3805	-93.9148	-167.04	-0.009914	0.925964	-0.185183	-0.186537	-0.027318	32.3805	-0.184551	-72.8711	0.000375	NaN
717	1.000000	0.969353	7.37207e+06	-41239.1	1005.82	-29786.9	0.000000	0.000000	6.969167	0.016158	NaN	0.000000	0.001709	0.001685	28.0831	0.065825	0.002100	31.347	19.1463	17.5907	-0.026237	0.968024	-0.143147	-0.144476	0.016158	31.347	-0.143534	-13.7716	-0.001173	NaN
717	1.000000	1.011341	7.37207e+06	-41239.1	1005.82	-29786.9	0.000000	0.000000	7.011152	-0.028744	NaN	0.000000	0.001683	0.001673	28.0826	0.087879	0.002060	42.6611	-128.241	-166.526	-0.021108	1.010060	-0.101160	-0.102440	-0.028744	42.6611	-0.100655	-1.889108	0.015216	NaN
717	1.000000	1.053344	7.37207e+06	-41239.1	1005.82	-29786.9	0.000000	0.000000	7.053153	-0.105678	NaN	0.000000	0.001683	0.001695	28.0829	0.091331	0.001920	47.5629	-111.848	11.7997	-0.025646	1.052029	-0.059156	-0.060472	-0.105678	47.5629	-0.057490	-0.152378	0.693526	NaN
717	1.000000	1.095364	7.37207e+06	-41239.1	1005.82	-29786.9	0.000000	0.000000	7.095176	-0.019735	NaN	0.000000	0.001704	0.001699	28.0814	0.085538	0.002033	42.0689	59.7913	-162.795	-0.035530	1.094025	-0.017137	-0.018476	-0.019735	42.0689	-0.016785	-0.010374	1.902423	NaN
717	2.000000	1.122529	7.37207e+06	-41239.1	1005.82	-29786.9	0.000000	0.000000	7.122882	13.1455	NaN	0.000000	0.001657	0.001693	28.0814	11.018	0.001747	6307.76	5.810048	9.014326	13.0334	1.122156	0.010028	0.009656	13.1455	6307.76	0.008465	0.007525	1746.91	66434.5
717	2.000000	1.133006	7.37207e+06	-41239.1	1005.82	-29786.9	0.000000	0.000000	7.134102	31.2397	NaN	0.000000	0.001595	0.001719	28.0813	20.9917	0.001796	11688.3	8.061242	-178.321	30.8676	1.132667	0.020505	0.020167	31.2397	11688.3	0.018501	0.020241	1543.38	75060.2
717	2.000000	1.143477	7.37207e+06	-41239.1	1005.82	-29786.9	0.000000	0.000000	7.145817	61.4967	NaN	0.000000	0.001658	0.001679	28.0826	30.6547	0.001811	16929.2	6.331725	0.490567	60.7694	1.142971	0.030976	0.030471	61.4967	16929.2	0.028252	0.037198	1653.22	80195.6
717	2.000000	1.153917	7.37207e+06	-41239.1	1005.82	-29786.9	0.000000	0.000000	7.157813	99.3557	NaN	0.000000	0.001626	0.001717	28.0824	41.6581	0.001839	22647.9	4.288730	178.714	97.7337	1.153572	0.041417	0.041071	99.3557	22647.9	0.038127	0.059277	1676.13	84988.3
717	2.000000	1.164376	7.37207e+06	-41239.1	1005.82	-29786.9	0.000000	0.000000	7.170383	150.737	NaN	0.000000	0.001647	0.001716	28.0824	50.8106	0.001792	28361.9	3.222358	-1.743003	146.099	1.163977	0.051875	0.051476	150.737	28361.9	0.047889	0.086001	1752.74	88360.4
717	2.000000	1.174916	7.37207e+06	-41239.1	1005.82	-29786.9	0.000000	0.000000	7.183180	205.63	NaN	0.000000	0.001703	0.001656	28.0812	59.7859	0.001830	32672.5	2.064987	178.882	204.831	1.174593	0.062416	0.062093	205.63	32672.5	0.057695	0.117674	1747.45	87019.2
717	2.000000	1.185406	7.37207e+06	-41239.1	1005.82	-29786.9	0.000000	0.000000	7.196451	273.301	NaN	0.000000	0.001610	0.001676	28.0815	70.6503	0.001774	39836.4	6.293028	-6.924637	272.683	1.185013	0.072906	0.072512	273.301	39836.4	0.067760	0.155097	1762.13	92417
717	2.000000	1.195872	7.37207e+06	-41239.1	1005.82	-29786.9	0.000000	0.000000	7.209687	340.71	NaN	0.000000	0.001616	0.001717	28.0813	79.2159	0.001862	42542.3	-0.498976	178.434	337.875	1.195607	0.083372	0.083107	340.71	42542.3	0.077365	0.195333	1744.26	87944.2
717	2.000000	1.206349	7.37207e+06	-41239.1	1005.82	-29786.9	0.000000	0.000000	7.223791	428.957	NaN	0.000000	0.001710	0.001692	28.0815	89.629	0.001810	49526.4	2.399242	-4.918923	424.884	1.205964	0.093849	0.093464	428.957	49526.4	0.087353	0.241753	1774.36	92028.8
717	2.000000	1.215846	7.37207e+06	-41239.1	1005.82	-29786.9	0.000000	0.000000	7.236378	504.133	NaN	0.000000	0.001735	0.001727	28.0827	98.2844	0.001842	53369.8	1.536566	175.024	502.179	1.215563	0.103346	0.103062	504.133	53369.8	0.096262	0.287037	1756.34	91012.3