File: remote_trans/data/nanoindenter/0828-1/data/Data_2025-08-06,11h17m57s/2025-07-22_16-23-58_1_1047.txt
2025-07-22, 16:23:58, 1
Index	Phase	Displacement	Time	Pos X	Pos Y	Pos Z	Rot A	Rot B	Piezo Z	Force A	Force B	Gripper	Voltage A	Voltage B	Temperature	Amplitude force	Amplitude pos	Stiffness	Phase shift	Phase excitation	Force A raw	Displacement raw	HMax	HMax raw	Real Force	Real Stiffness	Contact Depth	Area	Hardness	Reduced Mod.
[#]	[#]	[um]	[s]	[um]	[um]	[um]	[m°]	[m°]	[um]	[uN]	[uN]	[V]	[V]	[V]	[°C]	[uN]	[um]	[N/m]	[°]	[°]	[uN]	[um]	[um]	[um]	[uN]	[N/m]	[um]	[um^2]	[MPa]	[MPa]
1047	1.000000	0.002569	7.37528e+06	-52489.1	1055.82	-29749.1	0.000000	0.000000	6.002790	-0.111139	NaN	0.000000	0.001763	0.001797	28.0832	0.065380	0.000849	76.9834	-21.6389	-166.865	-0.143984	0.001327	-1.035958	-1.037200	-0.111139	76.9834	-1.034875	-6.684227E+13	1.662698E-15	NaN
1047	1.000000	0.042512	7.37529e+06	-52489.1	1055.82	-29749.1	0.000000	0.000000	6.042736	-0.019945	NaN	0.000000	0.001685	0.001781	28.0821	0.015215	0.002016	7.545812	-54.9442	-169.241	-0.098678	0.041198	-0.996016	-0.997329	-0.019945	7.545812	-0.994033	-1.885504E+13	1.057816E-15	NaN
1047	1.000000	0.082529	7.37529e+06	-52489.1	1055.82	-29749.1	0.000000	0.000000	6.082752	-0.054022	NaN	0.000000	0.001682	0.001771	28.0822	0.053166	0.001881	28.2656	4.199420	-162.721	0.030543	0.081252	-0.955998	-0.957275	-0.054022	28.2656	-0.954565	-5.540946E+12	9.749668E-15	NaN
1047	1.000000	0.122563	7.37529e+06	-52489.1	1055.82	-29749.1	0.000000	0.000000	6.122785	-0.073685	NaN	0.000000	0.001695	0.001793	28.0821	0.073535	0.002026	36.3046	-132.703	-170.757	-0.009209	0.121261	-0.915964	-0.917266	-0.073685	36.3046	-0.914442	-1.592788E+12	4.626182E-14	NaN
1047	1.000000	0.162544	7.37529e+06	-52489.1	1055.82	-29749.1	0.000000	0.000000	6.162764	-0.115764	NaN	0.000000	0.001653	0.001785	28.0836	0.040909	0.001959	20.882	9.926070	-168.867	-0.088925	0.161266	-0.875984	-0.877261	-0.115764	20.882	-0.871826	-4.228090E+11	2.737964E-13	NaN
1047	1.000000	0.202568	7.37529e+06	-52489.1	1055.82	-29749.1	0.000000	0.000000	6.202791	-0.060804	NaN	0.000000	0.001690	0.001804	28.0835	0.107931	0.001987	54.307	-71.6854	-163.643	-0.031100	0.201247	-0.835959	-0.837280	-0.060804	54.307	-0.835119	-1.346367E+11	4.516188E-13	NaN
1047	1.000000	0.242611	7.37529e+06	-52489.1	1055.82	-29749.1	0.000000	0.000000	6.242836	-0.018817	NaN	0.000000	0.001649	0.001818	28.0833	0.132496	0.001986	66.7136	66.0537	-167.731	-0.141544	0.241300	-0.795916	-0.797227	-0.018817	66.7136	-0.795705	-3.931406E+10	4.786370E-13	NaN
1047	1.000000	0.282623	7.37529e+06	-52489.1	1055.82	-29749.1	0.000000	0.000000	6.282846	-0.068042	NaN	0.000000	0.001667	0.001816	28.0821	0.108847	0.001980	54.9791	-179.044	-168.162	-0.013405	0.281339	-0.755904	-0.757189	-0.068042	54.9791	-0.754976	-1.098860E+10	6.192028E-12	NaN
1047	1.000000	0.322653	7.37529e+06	-52489.1	1055.82	-29749.1	0.000000	0.000000	6.322879	0.015935	NaN	0.000000	0.001678	0.001783	28.0821	0.061703	0.001934	31.8995	-85.3323	-164.653	-0.057612	0.321302	-0.715875	-0.717225	0.015935	31.8995	-0.716249	-3.260732E+9	-4.887066E-12	NaN
1047	1.000000	0.362655	7.37529e+06	-52489.1	1055.82	-29749.1	0.000000	0.000000	6.362879	-0.028134	NaN	0.000000	0.001650	0.001759	28.082	0.068699	0.002112	32.5205	31.7968	-167.053	-0.086231	0.361353	-0.675872	-0.677175	-0.028134	32.5205	-0.675223	-8.971527E+8	3.135951E-11	NaN
1047	1.000000	0.402639	7.37529e+06	-52489.1	1055.82	-29749.1	0.000000	0.000000	6.402863	-0.033418	NaN	0.000000	0.001695	0.001749	28.0816	0.065605	0.001925	34.0724	-82.5415	-165.746	-0.039123	0.401354	-0.635889	-0.637173	-0.033418	34.0724	-0.635153	-2.533793E+8	1.318897E-10	NaN
1047	1.000000	0.442708	7.37529e+06	-52489.1	1055.82	-29749.1	0.000000	0.000000	6.442934	-0.001921	NaN	0.000000	0.001682	0.001731	28.083	0.021461	0.001898	11.3087	169.011	-168.951	-0.020532	0.441408	-0.595819	-0.597120	-0.001921	11.3087	-0.595692	-7.262917E+7	2.645596E-11	NaN
1047	1.000000	0.482691	7.37529e+06	-52489.1	1055.82	-29749.1	0.000000	0.000000	6.482914	-0.057884	NaN	0.000000	0.001665	0.001751	28.0832	0.079715	0.002100	37.9626	148.284	-167.438	0.018157	0.481360	-0.555836	-0.557167	-0.057884	37.9626	-0.554693	-1.972114E+7	2.935114E-9	NaN
1047	1.000000	0.522763	7.37529e+06	-52489.1	1055.82	-29749.1	0.000000	0.000000	6.522985	-0.071256	NaN	0.000000	0.001641	0.001804	28.0836	0.029895	0.002135	14.0047	105.932	-167.478	-0.050616	0.521398	-0.515764	-0.517130	-0.071256	14.0047	-0.511948	-5.0298e+06	1.416670E-8	NaN
1047	1.000000	0.562738	7.37529e+06	-52489.1	1055.82	-29749.1	0.000000	0.000000	6.562962	-0.035532	NaN	0.000000	0.001653	0.001748	28.0822	0.009567	0.001932	4.953049	163.46	-165.832	-0.048210	0.561407	-0.475790	-0.477120	-0.035532	4.953049	-0.470409	-1.32175e+06	2.688290E-8	NaN
1047	1.000000	0.602773	7.37529e+06	-52489.1	1055.82	-29749.1	0.000000	0.000000	6.602995	-0.103779	NaN	0.000000	0.001638	0.001769	28.0819	0.075955	0.002036	37.3069	112.631	-168.271	-0.066885	0.601478	-0.435754	-0.437050	-0.103779	37.3069	-0.433668	-401720	2.583356E-7	NaN
1047	1.000000	0.642789	7.37529e+06	-52489.1	1055.82	-29749.1	0.000000	0.000000	6.643013	-0.048551	NaN	0.000000	0.001700	0.001797	28.0818	0.080421	0.002122	37.902	134.15	-167.718	-0.071816	0.641497	-0.395738	-0.397030	-0.048551	37.902	-0.394777	-112579	4.312629E-7	NaN
1047	1.000000	0.682770	7.37529e+06	-52489.1	1055.82	-29749.1	0.000000	0.000000	6.682993	-0.067329	NaN	0.000000	0.001687	0.001816	28.0819	0.036016	0.001980	18.186	0.955628	-166.702	-0.159638	0.681478	-0.355757	-0.357049	-0.067329	18.186	-0.352980	-28198.7	2.387669E-6	NaN
1047	1.000000	0.722817	7.37529e+06	-52489.1	1055.82	-29749.1	0.000000	0.000000	6.723039	-0.087468	NaN	0.000000	0.001747	0.001774	28.0833	0.109068	0.001974	55.2541	102.1	-163.6	-0.133255	0.721506	-0.315710	-0.317021	-0.087468	55.2541	-0.314523	-7725.17	1.132244E-5	NaN
1047	1.000000	0.762854	7.37529e+06	-52489.1	1055.82	-29749.1	0.000000	0.000000	6.763077	-0.075828	NaN	0.000000	0.001656	0.001788	28.0833	0.025580	0.001996	12.8168	-67.7204	-164.872	-0.094202	0.761523	-0.275673	-0.277005	-0.075828	12.8168	-0.271236	-1739.09	4.360234E-5	NaN
1047	1.000000	0.802822	7.37529e+06	-52489.1	1055.82	-29749.1	0.000000	0.000000	6.803046	-0.049573	NaN	0.000000	0.001679	0.001799	28.0832	0.060236	0.001933	31.162	-133.52	-169.215	-0.066048	0.801519	-0.235705	-0.237008	-0.049573	31.162	-0.234512	-471.609	0.000105	NaN
1047	1.000000	0.842866	7.37529e+06	-52489.1	1055.82	-29749.1	0.000000	0.000000	6.843089	-0.061003	NaN	0.000000	0.001612	0.001778	28.0823	0.052944	0.001986	26.6573	84.4188	-168.386	-0.025825	0.841535	-0.195661	-0.196993	-0.061003	26.6573	-0.193945	-104.643	0.000583	NaN
1047	1.000000	0.882881	7.37529e+06	-52489.1	1055.82	-29749.1	0.000000	0.000000	6.883104	-0.063317	NaN	0.000000	0.001678	0.001754	28.0823	0.074470	0.002037	36.5548	16.2306	-168.63	-0.078417	0.881548	-0.155647	-0.156979	-0.063317	36.5548	-0.154348	-21.7185	0.002915	NaN
1047	1.000000	0.922901	7.37529e+06	-52489.1	1055.82	-29749.1	0.000000	0.000000	6.923123	-0.071514	NaN	0.000000	0.001664	0.001766	28.0819	0.133055	0.001955	68.056	-119.429	-165.035	-0.122690	0.921632	-0.115627	-0.116896	-0.071514	68.056	-0.114838	-3.791168	0.018863	NaN
1047	1.000000	0.962880	7.37529e+06	-52489.1	1055.82	-29749.1	0.000000	0.000000	6.963101	-0.103964	NaN	0.000000	0.001650	0.001727	28.0828	0.018239	0.001968	9.265565	174.962	-166.71	-0.081662	0.961593	-0.075647	-0.076935	-0.103964	9.265565	-0.067232	-0.287086	0.362134	NaN
1047	1.000000	1.002921	7.37529e+06	-52489.1	1055.82	-29749.1	0.000000	0.000000	7.003147	0.002219	NaN	0.000000	0.001640	0.001730	28.0831	0.033947	0.001987	17.0839	-15.6707	-168.647	0.015496	1.001628	-0.035606	-0.036899	0.002219	17.0839	-0.035703	-0.033594	-0.066067	NaN
1047	1.000000	1.042922	7.37529e+06	-52489.1	1055.82	-29749.1	0.000000	0.000000	7.043312	4.015086	NaN	0.000000	0.001668	0.001754	28.0829	4.945593	0.001833	2697.89	9.973593	-165.951	2.868565	1.041572	0.004394	0.003045	4.015086	2697.89	0.003278	0.002615	1535.13	48197.3
1047	2.000000	1.056427	7.37529e+06	-52489.1	1055.82	-29749.1	0.000000	0.000000	7.057590	22.8034	NaN	0.000000	0.001683	0.001790	28.0829	19.4122	0.001901	10209	6.688600	-175.738	22.9798	1.056072	0.017900	0.017545	22.8034	10209	0.016225	0.016953	1345.08	71635.9
1047	2.000000	1.066409	7.37529e+06	-52489.1	1055.82	-29749.1	0.000000	0.000000	7.068561	46.8432	NaN	0.000000	0.001661	0.001716	28.0817	29.6602	0.001777	16689.1	7.297693	177.026	46.4469	1.066060	0.027882	0.027532	46.8432	16689.1	0.025777	0.032444	1443.81	84652
1047	2.000000	1.076340	7.37529e+06	-52489.1	1055.82	-29749.1	0.000000	0.000000	7.079688	75.9206	NaN	0.000000	0.001633	0.001728	28.082	38.015	0.001707	22273.1	0.724576	-178.808	73.4603	1.076086	0.037813	0.037558	75.9206	22273.1	0.035257	0.052345	1450.39	88944.1
1047	2.000000	1.086381	7.37529e+06	-52489.1	1055.82	-29749.1	0.000000	0.000000	7.091281	113.657	NaN	0.000000	0.001662	0.001742	28.0817	46.9889	0.001602	29323.2	2.915295	176.605	115.417	1.086131	0.047854	0.047604	113.657	29323.2	0.044947	0.077437	1467.74	96274.5
1047	2.000000	1.096225	7.37529e+06	-52489.1	1055.82	-29749.1	0.000000	0.000000	7.102903	156.889	NaN	0.000000	0.001649	0.001728	28.083	57.8907	0.001756	32960.1	3.833559	174.994	152.444	1.096109	0.057698	0.057581	156.889	32960.1	0.054128	0.105599	1485.72	92668.8
1047	2.000000	1.106279	7.37529e+06	-52489.1	1055.82	-29749.1	0.000000	0.000000	7.115540	219.707	NaN	0.000000	0.001602	0.001750	28.0828	68.745	0.001753	39220.4	4.720425	173.437	217.649	1.105969	0.067752	0.067442	219.707	39220.4	0.063550	0.138846	1582.38	96165.5
1047	2.000000	1.116241	7.37529e+06	-52489.1	1055.82	-29749.1	0.000000	0.000000	7.127959	279.454	NaN	0.000000	0.001629	0.001767	28.0831	78.752	0.001779	44262.6	-0.145455	177.216	273.924	1.115913	0.077713	0.077386	279.454	44262.6	0.072978	0.176413	1584.09	96281.9
1047	2.000000	1.126326	7.37529e+06	-52489.1	1055.82	-29749.1	0.000000	0.000000	7.140930	349.613	NaN	0.000000	0.001634	0.001759	28.0829	88.2029	0.001777	49645.8	5.494886	170.982	349.898	1.126012	0.087799	0.087485	349.613	49645.8	0.082517	0.218700	1598.59	96990.9
1047	2.000000	1.136251	7.37529e+06	-52489.1	1055.82	-29749.1	0.000000	0.000000	7.154352	434.63	NaN	0.000000	0.001622	0.001762	28.0819	98.4583	0.001898	51862.2	6.751083	169.432	433.739	1.135988	0.097724	0.097461	434.63	51862.2	0.091439	0.262070	1658.45	92558.2
1047	2.000000	1.146307	7.37529e+06	-52489.1	1055.82	-29749.1	0.000000	0.000000	7.167682	514.24	NaN	0.000000	0.001648	0.001789	28.0822	107.953	0.001848	58402	3.126539	172.181	513.938	1.146123	0.107780	0.107595	514.24	58402	0.101176	0.313569	1639.96	95287.2