File: remote_trans/data/nanoindenter/0828-1/data/Data_2025-08-06,11h17m57s/2025-07-22_16-23-58_1_1026.txt
2025-07-22, 16:23:58, 1
Index	Phase	Displacement	Time	Pos X	Pos Y	Pos Z	Rot A	Rot B	Piezo Z	Force A	Force B	Gripper	Voltage A	Voltage B	Temperature	Amplitude force	Amplitude pos	Stiffness	Phase shift	Phase excitation	Force A raw	Displacement raw	HMax	HMax raw	Real Force	Real Stiffness	Contact Depth	Area	Hardness	Reduced Mod.
[#]	[#]	[um]	[s]	[um]	[um]	[um]	[m°]	[m°]	[um]	[uN]	[uN]	[V]	[V]	[V]	[°C]	[uN]	[um]	[N/m]	[°]	[°]	[uN]	[um]	[um]	[um]	[uN]	[N/m]	[um]	[um^2]	[MPa]	[MPa]
1026	1.000000	0.002485	7.37508e+06	-51439.1	1055.82	-29752.2	0.000000	0.000000	6.002789	0.006134	NaN	0.000000	0.001608	0.001749	28.084	0.029463	0.001019	28.9272	118.341	-162.181	-0.003042	0.001282	-1.090173	-1.091377	0.006134	28.9272	-1.090332	-3.717690E+14	-1.649875E-17	NaN
1026	1.000000	0.044439	7.37508e+06	-51439.1	1055.82	-29752.2	0.000000	0.000000	6.044743	0.003649	NaN	0.000000	0.001644	0.001785	28.0839	0.056159	0.001921	29.2264	-166.296	17.4757	0.000365	0.043119	-1.048219	-1.049539	0.003649	29.2264	-1.048313	-1.013292E+14	-3.601100E-17	NaN
1026	1.000000	0.086437	7.37508e+06	-51439.1	1055.82	-29752.2	0.000000	0.000000	6.086741	0.025840	NaN	0.000000	0.001614	0.001741	28.0837	0.009773	0.002073	4.713820	17.3005	-166.494	0.058605	0.085150	-1.006222	-1.007509	0.025840	4.713820	-1.010333	-3.125123E+13	-8.268485E-16	NaN
1026	1.000000	0.128451	7.37508e+06	-51439.1	1055.82	-29752.2	0.000000	0.000000	6.128758	0.073796	NaN	0.000000	0.001587	0.001731	28.0828	0.082631	0.002086	39.617	-150.5	14.4991	0.117224	0.127124	-0.964208	-0.965534	0.073796	39.617	-0.965605	-7.805870E+12	-9.453972E-15	NaN
1026	1.000000	0.170507	7.37508e+06	-51439.1	1055.82	-29752.2	0.000000	0.000000	6.170814	0.091677	NaN	0.000000	0.001636	0.001716	28.0822	0.066528	0.001970	33.7687	40.3374	-168.244	0.106305	0.169219	-0.922152	-0.923439	0.091677	33.7687	-0.924188	-2.156487E+12	-4.251237E-14	NaN
1026	1.000000	0.212494	7.37508e+06	-51439.1	1055.82	-29752.2	0.000000	0.000000	6.212801	0.099372	NaN	0.000000	0.001600	0.001726	28.0821	0.005162	0.001937	2.664309	-30.4567	15.1171	0.019057	0.211139	-0.880165	-0.881519	0.099372	2.664309	-0.908138	-1.309209E+12	-7.590237E-14	NaN
1026	1.000000	0.254548	7.37508e+06	-51439.1	1055.82	-29752.2	0.000000	0.000000	6.254854	0.060566	NaN	0.000000	0.001595	0.001735	28.0823	0.071621	0.001944	36.8394	23.7334	-164	-0.059886	0.253160	-0.838111	-0.839499	0.060566	36.8394	-0.839344	-1.536045E+11	-3.942982E-13	NaN
1026	1.000000	0.296545	7.37509e+06	-51439.1	1055.82	-29752.2	0.000000	0.000000	6.296852	0.073615	NaN	0.000000	0.001556	0.001746	28.0836	0.069064	0.001969	35.0768	124.584	15.6831	0.082415	0.295198	-0.796113	-0.797461	0.073615	35.0768	-0.797687	-4.182799E+10	-1.759946E-12	NaN
1026	1.000000	0.338581	7.37509e+06	-51439.1	1055.82	-29752.2	0.000000	0.000000	6.338887	0.051382	NaN	0.000000	0.001563	0.001780	28.0832	0.179295	0.001906	94.0881	-97.6062	-165.558	0.112857	0.337249	-0.754078	-0.755409	0.051382	94.0881	-0.754487	-1.082164E+10	-4.748073E-12	NaN
1026	1.000000	0.380567	7.37509e+06	-51439.1	1055.82	-29752.2	0.000000	0.000000	6.380871	0.003908	NaN	0.000000	0.001574	0.001738	28.0835	0.014886	0.002022	7.360085	123.115	11.7876	-0.020826	0.379253	-0.712092	-0.713406	0.003908	7.360085	-0.712490	-2.897510E+9	-1.348624E-12	NaN
1026	1.000000	0.422608	7.37509e+06	-51439.1	1055.82	-29752.2	0.000000	0.000000	6.422911	-0.017624	NaN	0.000000	0.001603	0.001772	28.082	0.068528	0.002018	33.9651	89.6779	-165.384	0.011852	0.421321	-0.670051	-0.671338	-0.017624	33.9651	-0.669661	-7.529346E+8	2.340663E-11	NaN
1026	1.000000	0.464636	7.37509e+06	-51439.1	1055.82	-29752.2	0.000000	0.000000	6.464940	0.011947	NaN	0.000000	0.001598	0.001720	28.0819	0.167960	0.001950	86.1456	-156.804	15.0575	0.027143	0.463290	-0.628022	-0.629368	0.011947	86.1456	-0.628126	-2.029050E+8	-5.887968E-11	NaN
1026	1.000000	0.506598	7.37509e+06	-51439.1	1055.82	-29752.2	0.000000	0.000000	6.506897	-0.090150	NaN	0.000000	0.001583	0.001740	28.0821	0.025458	0.002000	12.7313	-156.756	-163.592	-0.097899	0.505312	-0.586061	-0.587347	-0.090150	12.7313	-0.580750	-4.519373E+7	1.994755E-9	NaN
1026	1.000000	0.548620	7.37509e+06	-51439.1	1055.82	-29752.2	0.000000	0.000000	6.548926	0.058576	NaN	0.000000	0.001702	0.001766	28.0833	0.035335	0.002088	16.9192	-63.4335	11.306	-0.024899	0.547327	-0.544038	-0.545331	0.058576	16.9192	-0.546635	-1.525223E+7	-3.840503E-9	NaN
1026	1.000000	0.590660	7.37509e+06	-51439.1	1055.82	-29752.2	0.000000	0.000000	6.590964	0.026969	NaN	0.000000	0.001667	0.001736	28.0833	0.057643	0.001972	29.2339	-156.135	-164.874	0.035757	0.589370	-0.501999	-0.503289	0.026969	29.2339	-0.502691	-3.73721e+06	-7.216454E-9	NaN
1026	1.000000	0.632697	7.37509e+06	-51439.1	1055.82	-29752.2	0.000000	0.000000	6.633001	0.014035	NaN	0.000000	0.001695	0.001760	28.0833	0.098499	0.002138	46.0656	69.6628	12.1186	-0.019306	0.631343	-0.459962	-0.461316	0.014035	46.0656	-0.460190	-949929	-1.477475E-8	NaN
1026	1.000000	0.674680	7.37509e+06	-51439.1	1055.82	-29752.2	0.000000	0.000000	6.674983	-0.005404	NaN	0.000000	0.001687	0.001802	28.0822	0.012390	0.001957	6.331412	-152.08	-165.634	0.014555	0.673399	-0.417979	-0.419260	-0.005404	6.331412	-0.417339	-235863	2.291104E-8	NaN
1026	1.000000	0.716720	7.37509e+06	-51439.1	1055.82	-29752.2	0.000000	0.000000	6.717022	-0.032111	NaN	0.000000	0.001672	0.001788	28.0822	0.034491	0.001962	17.5801	-94.7842	14.3149	-0.037158	0.715331	-0.375938	-0.377328	-0.032111	17.5801	-0.374568	-57791.6	5.556340E-7	NaN
1026	1.000000	0.758749	7.37509e+06	-51439.1	1055.82	-29752.2	0.000000	0.000000	6.759054	0.019122	NaN	0.000000	0.001686	0.001762	28.0823	0.027585	0.002200	12.5367	91.7245	-166.085	0.069569	0.757450	-0.333909	-0.335208	0.019122	12.5367	-0.335053	-15465.5	-1.236416E-6	NaN
1026	1.000000	0.800717	7.37509e+06	-51439.1	1055.82	-29752.2	0.000000	0.000000	6.801023	0.066453	NaN	0.000000	0.001663	0.001735	28.0822	0.056177	0.001904	29.5016	-97.846	16.5751	0.041229	0.799401	-0.291942	-0.293258	0.066453	29.5016	-0.293631	-3781.25	-1.757430E-5	NaN
1026	1.000000	0.842762	7.37509e+06	-51439.1	1055.82	-29752.2	0.000000	0.000000	6.843067	0.027716	NaN	0.000000	0.001688	0.001765	28.0834	0.030047	0.002039	14.7331	-143.594	-165.262	-0.051435	0.841429	-0.249897	-0.251229	0.027716	14.7331	-0.251308	-861.344	-3.217757E-5	NaN
1026	1.000000	0.884811	7.37509e+06	-51439.1	1055.82	-29752.2	0.000000	0.000000	6.885113	-0.028964	NaN	0.000000	0.001689	0.001723	28.0838	0.089499	0.001962	45.6203	-123.389	15.7888	-0.010990	0.883396	-0.207848	-0.209262	-0.028964	45.6203	-0.207372	-173.85	0.000167	NaN
1026	1.000000	0.926820	7.37509e+06	-51439.1	1055.82	-29752.2	0.000000	0.000000	6.927126	0.073755	NaN	0.000000	0.001621	0.001737	28.0835	0.009270	0.002122	4.369005	145.696	-164.772	0.039925	0.925484	-0.165839	-0.167174	0.073755	4.369005	-0.178500	-57.5314	-0.001282	NaN
1026	1.000000	0.968802	7.37509e+06	-51439.1	1055.82	-29752.2	0.000000	0.000000	6.969108	0.059387	NaN	0.000000	0.001664	0.001688	28.0827	0.099342	0.001897	52.3555	-139.04	16.8619	-0.017833	0.967502	-0.123856	-0.125156	0.059387	52.3555	-0.124707	-6.000586	-0.009897	NaN
1026	1.000000	1.010817	7.37509e+06	-51439.1	1055.82	-29752.2	0.000000	0.000000	7.011122	0.053544	NaN	0.000000	0.001680	0.001699	28.0822	0.039012	0.001916	20.3562	-21.2432	-165.969	0.030526	1.009549	-0.081842	-0.083109	0.053544	20.3562	-0.083815	-0.768922	-0.069636	NaN
1026	1.000000	1.052863	7.37509e+06	-51439.1	1055.82	-29752.2	0.000000	0.000000	7.053167	0.026190	NaN	0.000000	0.001667	0.001692	28.0823	0.022824	0.002074	11.0053	-150.908	18.2186	0.011954	1.051465	-0.039796	-0.041194	0.026190	11.0053	-0.041580	-0.050521	-0.518410	NaN
1026	1.000000	1.094819	7.37509e+06	-51439.1	1055.82	-29752.2	0.000000	0.000000	7.095259	3.303972	NaN	0.000000	0.001636	0.001722	28.0842	4.129258	0.001731	2385.28	9.498785	-171.137	1.649580	1.093541	0.002161	0.000882	3.303972	2385.28	0.001122	0.000857	3854.67	74437
1026	2.000000	1.108883	7.37509e+06	-51439.1	1055.82	-29752.2	0.000000	0.000000	7.110213	24.9627	NaN	0.000000	0.001666	0.001743	28.0834	19.0746	0.001704	11192.6	10.7228	-1.218507	23.3181	1.108557	0.016224	0.015899	24.9627	11192.6	0.014552	0.014692	1699.07	84364.9
1026	2.000000	1.119386	7.37509e+06	-51439.1	1055.82	-29752.2	0.000000	0.000000	7.121615	46.8232	NaN	0.000000	0.001654	0.001733	28.0835	28.9915	0.001878	15441.3	5.588290	-176.983	46.4874	1.119079	0.026728	0.026421	46.8232	15441.3	0.024454	0.030029	1559.27	81411.7
1026	2.000000	1.129927	7.37509e+06	-51439.1	1055.82	-29752.2	0.000000	0.000000	7.133595	81.803	NaN	0.000000	0.001620	0.001764	28.083	38.4954	0.001862	20678.1	6.085249	-1.015725	82.8606	1.129457	0.037269	0.036798	81.803	20678.1	0.034302	0.050132	1631.74	84377.1
1026	2.000000	1.140290	7.37509e+06	-51439.1	1055.82	-29752.2	0.000000	0.000000	7.145573	121.096	NaN	0.000000	0.001646	0.001742	28.0826	48.4079	0.001771	27333.8	5.462830	177.018	119.144	1.140018	0.047631	0.047360	121.096	27333.8	0.044309	0.075637	1601.02	90804.4
1026	2.000000	1.150752	7.37509e+06	-51439.1	1055.82	-29752.2	0.000000	0.000000	7.157975	168.25	NaN	0.000000	0.001614	0.001753	28.0825	57.9594	0.001803	32141	-0.753931	1.228341	163.638	1.150530	0.058093	0.057872	168.25	32141	0.054167	0.105728	1591.34	90310.2
1026	2.000000	1.161315	7.37509e+06	-51439.1	1055.82	-29752.2	0.000000	0.000000	7.171102	230.613	NaN	0.000000	0.001640	0.001715	28.0825	70.4057	0.001938	36332.4	6.217094	173.888	229.89	1.160939	0.068657	0.068280	230.613	36332.4	0.063896	0.140148	1645.49	88669.2
1026	2.000000	1.171663	7.37509e+06	-51439.1	1055.82	-29752.2	0.000000	0.000000	7.184029	293.33	NaN	0.000000	0.001615	0.001718	28.0834	79.5909	0.001839	43283.7	6.570507	-9.049446	284.793	1.171421	0.079004	0.078763	293.33	43283.7	0.073922	0.180406	1625.95	93104.9
1026	2.000000	1.182257	7.37509e+06	-51439.1	1055.82	-29752.2	0.000000	0.000000	7.197794	370.431	NaN	0.000000	0.001598	0.001737	28.0834	89.019	0.001797	49530.3	4.148192	172.028	366.906	1.181895	0.089598	0.089237	370.431	49530.3	0.083989	0.225604	1641.95	95273.4
1026	2.000000	1.192709	7.37509e+06	-51439.1	1055.82	-29752.2	0.000000	0.000000	7.211996	461.615	NaN	0.000000	0.001630	0.001736	28.0833	98.4155	0.001759	55936.6	4.972158	-9.229606	454.892	1.192338	0.100050	0.099680	461.615	55936.6	0.093861	0.274477	1681.8	97547.6
1026	2.000000	1.198277	7.37509e+06	-51439.1	1055.82	-29752.2	0.000000	0.000000	7.219440	507.22	NaN	0.000000	0.001529	0.001767	28.0823	105.317	0.001796	58627.8	6.888830	168.897	508.665	1.197879	0.105618	0.105221	507.22	58627.8	0.099130	0.302388	1677.38	97407.9