File: remote_trans/data/nanoindenter/0828-1/data/Data_2025-08-06,11h17m57s/2025-07-22_16-23-58_1_1048.txt
2025-07-22, 16:23:58, 1
Index	Phase	Displacement	Time	Pos X	Pos Y	Pos Z	Rot A	Rot B	Piezo Z	Force A	Force B	Gripper	Voltage A	Voltage B	Temperature	Amplitude force	Amplitude pos	Stiffness	Phase shift	Phase excitation	Force A raw	Displacement raw	HMax	HMax raw	Real Force	Real Stiffness	Contact Depth	Area	Hardness	Reduced Mod.
[#]	[#]	[um]	[s]	[um]	[um]	[um]	[m°]	[m°]	[um]	[uN]	[uN]	[V]	[V]	[V]	[°C]	[uN]	[um]	[N/m]	[°]	[°]	[uN]	[um]	[um]	[um]	[uN]	[N/m]	[um]	[um^2]	[MPa]	[MPa]
1048	1.000000	0.002490	7.37529e+06	-52539.1	1055.82	-29748.7	0.000000	0.000000	6.002794	0.023704	NaN	0.000000	0.001626	0.001746	28.0848	0.079125	0.000918	86.2259	167.266	-168.48	0.003395	0.001203	-1.248857	-1.250144	0.023704	86.2259	-1.249063	-4.981823E+16	-4.758112E-19	NaN
1048	1.000000	0.048426	7.37529e+06	-52539.1	1055.82	-29748.7	0.000000	0.000000	6.048729	-0.005599	NaN	0.000000	0.001631	0.001794	28.0836	0.066922	0.001998	33.4933	-62.8207	12.7087	0.005523	0.047051	-1.202921	-1.204296	-0.005599	33.4933	-1.202795	-1.197236E+16	4.676822E-19	NaN
1048	1.000000	0.094472	7.37529e+06	-52539.1	1055.82	-29748.7	0.000000	0.000000	6.094776	0.008813	NaN	0.000000	0.001748	0.001716	28.0835	0.033907	0.002016	16.8206	15.6611	-166.156	0.012622	0.093148	-1.156874	-1.158199	0.008813	16.8206	-1.157267	-2.939265E+15	-2.998274E-18	NaN
1048	1.000000	0.140503	7.37529e+06	-52539.1	1055.82	-29748.7	0.000000	0.000000	6.140807	0.009414	NaN	0.000000	0.001695	0.001775	28.0836	0.044533	0.002051	21.717	-68.7337	17.6311	-0.055093	0.139134	-1.110844	-1.112213	0.009414	21.717	-1.111169	-7.079098E+14	-1.329801E-17	NaN
1048	1.000000	0.186487	7.3753e+06	-52539.1	1055.82	-29748.7	0.000000	0.000000	6.186790	-0.015500	NaN	0.000000	0.001630	0.001799	28.0852	0.083440	0.001989	41.9435	-92.4571	-164.932	0.014165	0.185230	-1.064860	-1.066117	-0.015500	41.9435	-1.064583	-1.676487E+14	9.245678E-17	NaN
1048	1.000000	0.232515	7.3753e+06	-52539.1	1055.82	-29748.7	0.000000	0.000000	6.232818	0.004660	NaN	0.000000	0.001639	0.001762	28.0853	0.041660	0.002055	20.2752	-166.774	15.5015	0.043407	0.231130	-1.018832	-1.020217	0.004660	20.2752	-1.019004	-4.088430E+13	-1.139865E-16	NaN
1048	1.000000	0.278538	7.3753e+06	-52539.1	1055.82	-29748.7	0.000000	0.000000	6.278841	-0.005599	NaN	0.000000	0.001645	0.001804	28.0848	0.061741	0.001978	31.2089	-105.146	-164.993	0.014648	0.277172	-0.972809	-0.974174	-0.005599	31.2089	-0.972675	-9.720905E+12	5.759435E-16	NaN
1048	1.000000	0.324558	7.3753e+06	-52539.1	1055.82	-29748.7	0.000000	0.000000	6.324860	-0.052469	NaN	0.000000	0.001710	0.001719	28.0836	0.053890	0.002007	26.849	-121.369	16.9165	-0.063838	0.323197	-0.926788	-0.928150	-0.052469	26.849	-0.925323	-2.233910E+12	2.348740E-14	NaN
1048	1.000000	0.370596	7.3753e+06	-52539.1	1055.82	-29748.7	0.000000	0.000000	6.370897	-0.042127	NaN	0.000000	0.001697	0.001755	28.0837	0.068435	0.001868	36.6403	-104.501	-161.434	0.048082	0.369271	-0.880751	-0.882076	-0.042127	36.6403	-0.879889	-5.435071E+11	7.751028E-14	NaN
1048	1.000000	0.416637	7.3753e+06	-52539.1	1055.82	-29748.7	0.000000	0.000000	6.416941	0.009809	NaN	0.000000	0.001697	0.001739	28.0837	0.049405	0.002114	23.3756	146.64	14.9786	0.019935	0.415302	-0.834710	-0.836044	0.009809	23.3756	-0.835024	-1.342388E+11	-7.306935E-14	NaN
1048	1.000000	0.462627	7.3753e+06	-52539.1	1055.82	-29748.7	0.000000	0.000000	6.462932	0.029507	NaN	0.000000	0.001617	0.001746	28.0849	0.005407	0.002057	2.628117	-67.1287	-168.795	0.033188	0.461286	-0.788719	-0.790061	0.029507	2.628117	-0.797140	-4.111833E+10	-7.176208E-13	NaN
1048	1.000000	0.508667	7.3753e+06	-52539.1	1055.82	-29748.7	0.000000	0.000000	6.508969	-0.045837	NaN	0.000000	0.001644	0.001710	28.0851	0.029541	0.001928	15.3244	-82.8486	13.6879	-0.154886	0.507235	-0.742680	-0.744112	-0.045837	15.3244	-0.740436	-6.966216E+9	6.579889E-12	NaN
1048	1.000000	0.554659	7.3753e+06	-52539.1	1055.82	-29748.7	0.000000	0.000000	6.554964	0.051674	NaN	0.000000	0.001722	0.001716	28.085	0.130165	0.001960	66.4272	-81.3737	-161.062	0.062992	0.553337	-0.696688	-0.698009	0.051674	66.4272	-0.697271	-1.795821E+9	-2.877477E-11	NaN
1048	1.000000	0.600652	7.3753e+06	-52539.1	1055.82	-29748.7	0.000000	0.000000	6.600954	-0.042594	NaN	0.000000	0.001698	0.001732	28.0834	0.103189	0.001884	54.7728	-13.2225	15.4135	0.018254	0.599274	-0.650694	-0.652073	-0.042594	54.7728	-0.650111	-4.064060E+8	1.048058E-10	NaN
1048	1.000000	0.646674	7.3753e+06	-52539.1	1055.82	-29748.7	0.000000	0.000000	6.646980	0.065558	NaN	0.000000	0.001657	0.001741	28.0839	0.014502	0.002032	7.137166	154.255	-165.458	0.018027	0.645431	-0.604673	-0.605915	0.065558	7.137166	-0.611562	-1.201162E+8	-5.457869E-10	NaN
1048	1.000000	0.692701	7.3753e+06	-52539.1	1055.82	-29748.7	0.000000	0.000000	6.693002	-0.064555	NaN	0.000000	0.001612	0.001785	28.0835	0.071787	0.002057	34.8987	-53.7596	12.8651	-0.135772	0.691352	-0.558646	-0.559995	-0.064555	34.8987	-0.557259	-2.140174E+7	3.016330E-9	NaN
1048	1.000000	0.738715	7.3753e+06	-52539.1	1055.82	-29748.7	0.000000	0.000000	6.739018	-0.007537	NaN	0.000000	0.001544	0.001733	28.0849	0.102974	0.002109	48.8321	-114.709	-165.244	-0.014048	0.737418	-0.512632	-0.513929	-0.007537	48.8321	-0.512516	-5.12219e+06	1.471393E-9	NaN
1048	1.000000	0.784725	7.3753e+06	-52539.1	1055.82	-29748.7	0.000000	0.000000	6.785028	-0.004946	NaN	0.000000	0.001592	0.001760	28.0847	0.091711	0.001988	46.1439	-137.291	13.1851	-0.018816	0.783411	-0.466622	-0.467936	-0.004946	46.1439	-0.466541	-1.1665e+06	4.240088E-9	NaN
1048	1.000000	0.830749	7.3753e+06	-52539.1	1055.82	-29748.7	0.000000	0.000000	6.831051	-0.041893	NaN	0.000000	0.001615	0.001792	28.0846	0.060104	0.001997	30.0918	-10.5552	-165.944	0.009127	0.829467	-0.420597	-0.421880	-0.041893	30.0918	-0.419553	-253558	1.652212E-7	NaN
1048	1.000000	0.876779	7.3753e+06	-52539.1	1055.82	-29748.7	0.000000	0.000000	6.877085	0.061846	NaN	0.000000	0.001664	0.001775	28.0833	0.129639	0.001973	65.7047	-10.5768	13.1848	0.028244	0.875454	-0.374567	-0.375893	0.061846	65.7047	-0.375273	-59156.2	-1.045473E-6	NaN
1048	1.000000	0.922779	7.3753e+06	-52539.1	1055.82	-29748.7	0.000000	0.000000	6.923085	0.069323	NaN	0.000000	0.001641	0.001750	28.0835	0.105333	0.002004	52.5669	-51.259	-167.703	0.088538	0.921534	-0.328568	-0.329812	0.069323	52.5669	-0.329557	-12851.7	-5.394063E-6	NaN
1048	1.000000	0.968841	7.3753e+06	-52539.1	1055.82	-29748.7	0.000000	0.000000	6.969145	0.013073	NaN	0.000000	0.001630	0.001757	28.0833	0.028478	0.002009	14.1754	158.443	15.9124	0.051461	0.967451	-0.282506	-0.283896	0.013073	14.1754	-0.283197	-2637.25	-4.957140E-6	NaN
1048	1.000000	1.014854	7.3753e+06	-52539.1	1055.82	-29748.7	0.000000	0.000000	7.015158	0.019353	NaN	0.000000	0.001626	0.001791	28.0848	0.070513	0.002016	34.9754	-8.316034	-166.874	-0.005219	1.013495	-0.236493	-0.237852	0.019353	34.9754	-0.236908	-514.25	-3.763316E-5	NaN
1048	1.000000	1.060879	7.3753e+06	-52539.1	1055.82	-29748.7	0.000000	0.000000	7.061185	0.066159	NaN	0.000000	0.001599	0.001766	28.085	0.038034	0.001930	19.7029	130.817	9.869102	0.041507	1.059450	-0.190467	-0.191896	0.066159	19.7029	-0.192986	-100.874	-0.000656	NaN
1048	1.000000	1.106899	7.3753e+06	-52539.1	1055.82	-29748.7	0.000000	0.000000	7.107202	-0.015422	NaN	0.000000	0.001628	0.001804	28.0846	0.102109	0.002018	50.5908	-129.645	-165.993	-0.050111	1.105550	-0.144448	-0.145797	-0.015422	50.5908	-0.144219	-14.181	0.001088	NaN
1048	1.000000	1.152882	7.3753e+06	-52539.1	1055.82	-29748.7	0.000000	0.000000	7.153185	0.004533	NaN	0.000000	0.001637	0.001819	28.0835	0.064248	0.002149	29.8949	-143.166	12.3557	-0.021838	1.151590	-0.098465	-0.099757	0.004533	29.8949	-0.098579	-1.698819	-0.002668	NaN
1048	1.000000	1.198913	7.3753e+06	-52539.1	1055.82	-29748.7	0.000000	0.000000	7.199213	-0.067894	NaN	0.000000	0.001667	0.001779	28.0834	0.039427	0.001904	20.7054	151.217	-163.678	-0.009355	1.197594	-0.052434	-0.053753	-0.067894	20.7054	-0.049975	-0.091091	0.745345	NaN
1048	1.000000	1.244918	7.3753e+06	-52539.1	1055.82	-29748.7	0.000000	0.000000	7.245223	0.040834	NaN	0.000000	0.001695	0.001789	28.0835	0.133358	0.001999	66.7188	16.4944	10.5724	-0.002283	1.243540	-0.006429	-0.007806	0.040834	66.7188	-0.006888	-0.004573	-8.928501	NaN
1048	2.000000	1.263490	7.3753e+06	-52539.1	1055.82	-29748.7	0.000000	0.000000	7.264750	23.2452	NaN	0.000000	0.001660	0.001814	28.0857	18.7701	0.001847	10165.1	6.311289	-177.45	22.3683	1.263186	0.012144	0.011839	23.2452	10165.1	0.010429	0.009662	2405.9	94484.1
1048	2.000000	1.274935	7.3753e+06	-52539.1	1055.82	-29748.7	0.000000	0.000000	7.277491	54.7662	NaN	0.000000	0.001642	0.001777	28.0851	29.4477	0.001712	17204.9	-1.877362	5.669193	50.739	1.274593	0.023588	0.023247	54.7662	17204.9	0.021201	0.024464	2238.63	100498
1048	2.000000	1.286461	7.3753e+06	-52539.1	1055.82	-29748.7	0.000000	0.000000	7.290738	96.6024	NaN	0.000000	0.001617	0.001722	28.0849	41.536	0.001723	24112.4	3.964450	177.089	95.5527	1.286184	0.035115	0.034838	96.6024	24112.4	0.032110	0.045231	2135.78	103585
1048	2.000000	1.297875	7.3753e+06	-52539.1	1055.82	-29748.7	0.000000	0.000000	7.304392	151.085	NaN	0.000000	0.001707	0.001776	28.0846	53.9529	0.002007	26883.4	6.828918	-6.600380	146.264	1.297646	0.046528	0.046300	151.085	26883.4	0.042313	0.070142	2153.98	92740.1
1048	2.000000	1.309370	7.3753e+06	-52539.1	1055.82	-29748.7	0.000000	0.000000	7.318703	219.549	NaN	0.000000	0.001626	0.001781	28.0834	64.5234	0.001777	36309.6	6.754707	170.51	215.765	1.309122	0.058023	0.057775	219.549	36309.6	0.053488	0.103499	2121.27	103116
1048	2.000000	1.320907	7.3753e+06	-52539.1	1055.82	-29748.7	0.000000	0.000000	7.333625	301.852	NaN	0.000000	0.001580	0.001750	28.0834	74.9772	0.001831	40946.3	3.699284	-6.247728	297.75	1.320511	0.069561	0.069164	301.852	40946.3	0.064032	0.140661	2145.95	99747.3
1048	2.000000	1.332380	7.3753e+06	-52539.1	1055.82	-29748.7	0.000000	0.000000	7.348753	390.711	NaN	0.000000	0.001646	0.001750	28.0848	86.9858	0.001826	47626.6	8.749671	168.154	387.669	1.331909	0.081034	0.080562	390.711	47626.6	0.074881	0.184508	2117.58	101301
1048	2.000000	1.343895	7.3753e+06	-52539.1	1055.82	-29748.7	0.000000	0.000000	7.364335	489.605	NaN	0.000000	0.001634	0.001774	28.0849	96.3987	0.001887	51095.2	8.711733	-12.3852	484.461	1.343396	0.092548	0.092049	489.605	51095.2	0.085361	0.232128	2109.2	96892.4
1048	2.000000	1.352821	7.3753e+06	-52539.1	1055.82	-29748.7	0.000000	0.000000	7.376373	565.263	NaN	0.000000	0.001631	0.001765	28.0846	104.253	0.001688	61752.5	-0.316922	-5.378457	560.389	1.352529	0.101474	0.101182	565.263	61752.5	0.094609	0.278363	2030.67	106936