File: remote_trans/data/nanoindenter/0828-1/data/Data_2025-08-06,11h17m57s/2025-07-22_16-23-58_1_1079.txt
2025-07-22, 16:23:58, 1
Index	Phase	Displacement	Time	Pos X	Pos Y	Pos Z	Rot A	Rot B	Piezo Z	Force A	Force B	Gripper	Voltage A	Voltage B	Temperature	Amplitude force	Amplitude pos	Stiffness	Phase shift	Phase excitation	Force A raw	Displacement raw	HMax	HMax raw	Real Force	Real Stiffness	Contact Depth	Area	Hardness	Reduced Mod.
[#]	[#]	[um]	[s]	[um]	[um]	[um]	[m°]	[m°]	[um]	[uN]	[uN]	[V]	[V]	[V]	[°C]	[uN]	[um]	[N/m]	[°]	[°]	[uN]	[um]	[um]	[um]	[uN]	[N/m]	[um]	[um^2]	[MPa]	[MPa]
1079	1.000000	0.002517	7.3756e+06	-54089.1	1055.82	-29744.2	0.000000	0.000000	6.002791	0.089339	NaN	0.000000	0.001531	0.001649	28.0842	0.040384	0.000930	43.4067	-59.1068	-163.392	0.071098	0.001274	-1.253737	-1.254981	0.089339	43.4067	-1.255281	-6.033334E+16	-1.480759E-18	NaN
1079	1.000000	0.048441	7.3756e+06	-54089.1	1055.82	-29744.2	0.000000	0.000000	6.048713	0.026169	NaN	0.000000	0.001590	0.001613	28.084	0.023565	0.001932	12.1972	159.685	13.8115	0.097575	0.047122	-1.207813	-1.209133	0.026169	12.1972	-1.209422	-1.468610E+16	-1.781877E-18	NaN
1079	1.000000	0.094503	7.3756e+06	-54089.1	1055.82	-29744.2	0.000000	0.000000	6.094773	-0.002212	NaN	0.000000	0.001670	0.001649	28.0842	0.052240	0.002061	25.3474	61.904	-166.233	-0.093440	0.093167	-1.161751	-1.163088	-0.002212	25.3474	-1.161686	-3.368733E+15	6.565643E-19	NaN
1079	1.000000	0.140510	7.3756e+06	-54089.1	1055.82	-29744.2	0.000000	0.000000	6.140779	-0.027455	NaN	0.000000	0.001607	0.001671	28.083	0.057408	0.001851	31.0178	-103.238	16.871	0.015737	0.139165	-1.115745	-1.117089	-0.027455	31.0178	-1.115081	-7.988602E+14	3.436817E-17	NaN
1079	1.000000	0.186505	7.3756e+06	-54089.1	1055.82	-29744.2	0.000000	0.000000	6.186773	-0.034367	NaN	0.000000	0.001590	0.001621	28.083	0.099105	0.001947	50.9	-101.056	-161.847	-0.064222	0.185219	-1.069750	-1.071035	-0.034367	50.9	-1.069244	-1.936540E+14	1.774658E-16	NaN
1079	1.000000	0.232569	7.3756e+06	-54089.1	1055.82	-29744.2	0.000000	0.000000	6.232840	0.022182	NaN	0.000000	0.001554	0.001657	28.0832	0.065922	0.001990	33.1277	-49.4189	15.0869	0.009688	0.231167	-1.023686	-1.025088	0.022182	33.1277	-1.024188	-4.800618E+13	-4.620695E-16	NaN
1079	1.000000	0.278587	7.37561e+06	-54089.1	1055.82	-29744.2	0.000000	0.000000	6.278857	0.000154	NaN	0.000000	0.001568	0.001643	28.0843	0.144633	0.001924	75.1584	-54.6892	-165.558	0.000830	0.277290	-0.977668	-0.978965	0.000154	75.1584	-0.977670	-1.135044E+13	-1.352643E-17	NaN
1079	1.000000	0.324589	7.37561e+06	-54089.1	1055.82	-29744.2	0.000000	0.000000	6.324858	-0.030181	NaN	0.000000	0.001568	0.001629	28.0843	0.080726	0.001932	41.7873	94.8092	12.5974	-0.053028	0.323254	-0.931666	-0.933000	-0.030181	41.7873	-0.931124	-2.675258E+12	1.128138E-14	NaN
1079	1.000000	0.370575	7.37561e+06	-54089.1	1055.82	-29744.2	0.000000	0.000000	6.370849	0.086256	NaN	0.000000	0.001543	0.001644	28.0844	0.056691	0.002021	28.0579	-97.227	-169.242	0.036433	0.369316	-0.885679	-0.886938	0.086256	28.0579	-0.887985	-6.993167E+11	-1.233426E-13	NaN
1079	1.000000	0.416610	7.37561e+06	-54089.1	1055.82	-29744.2	0.000000	0.000000	6.416884	0.087519	NaN	0.000000	0.001614	0.001643	28.0833	0.092245	0.002113	43.6459	160.391	12.8713	0.065227	0.415289	-0.839644	-0.840966	0.087519	43.6459	-0.841148	-1.624973E+11	-5.385880E-13	NaN
1079	1.000000	0.462665	7.37561e+06	-54089.1	1055.82	-29744.2	0.000000	0.000000	6.462936	0.015735	NaN	0.000000	0.001626	0.001645	28.083	0.043100	0.001978	21.7847	114.64	-166.414	0.037407	0.461343	-0.793589	-0.794912	0.015735	21.7847	-0.794131	-3.742668E+10	-4.204300E-13	NaN
1079	1.000000	0.508656	7.37561e+06	-54089.1	1055.82	-29744.3	0.000000	0.000000	6.508927	0.018495	NaN	0.000000	0.001630	0.001637	28.0833	0.084026	0.002049	41.0117	-135.239	12.6686	-0.089703	0.507325	-0.747598	-0.748929	0.018495	41.0117	-0.747937	-8.813169E+9	-2.098612E-12	NaN
1079	1.000000	0.554695	7.37561e+06	-54089.1	1055.82	-29744.3	0.000000	0.000000	6.554966	0.028248	NaN	0.000000	0.001542	0.001637	28.0847	0.076006	0.002027	37.4973	3.587657	-166.937	0.052874	0.553343	-0.701560	-0.702911	0.028248	37.4973	-0.702125	-2.091940E+9	-1.350318E-11	NaN
1079	1.000000	0.600715	7.37561e+06	-54089.1	1055.82	-29744.3	0.000000	0.000000	6.600986	0.023889	NaN	0.000000	0.001525	0.001681	28.0842	0.067435	0.001955	34.5012	-152.902	16.2346	0.031301	0.599332	-0.655539	-0.656922	0.023889	34.5012	-0.656059	-4.903142E+8	-4.872081E-11	NaN
1079	1.000000	0.646723	7.37561e+06	-54089.1	1055.82	-29744.3	0.000000	0.000000	6.646994	0.036874	NaN	0.000000	0.001589	0.001655	28.0843	0.040824	0.002046	19.9487	90.8251	-168.129	0.062985	0.645463	-0.609532	-0.610791	0.036874	19.9487	-0.610918	-1.176919E+8	-3.133076E-10	NaN
1079	1.000000	0.692768	7.37561e+06	-54089.1	1055.82	-29744.3	0.000000	0.000000	6.693040	0.053968	NaN	0.000000	0.001577	0.001673	28.083	0.018849	0.001912	9.860053	154.433	13.6822	0.086236	0.691365	-0.563487	-0.564889	0.053968	9.860053	-0.567592	-2.974075E+7	-1.814600E-9	NaN
1079	1.000000	0.738768	7.37561e+06	-54089.1	1055.82	-29744.3	0.000000	0.000000	6.739042	0.087983	NaN	0.000000	0.001599	0.001663	28.0832	0.056728	0.002023	28.0346	63.2134	-163.347	0.058101	0.737451	-0.517486	-0.518803	0.087983	28.0346	-0.519840	-6.47699e+06	-1.358394E-8	NaN
1079	1.000000	0.784794	7.37561e+06	-54089.1	1055.82	-29744.3	0.000000	0.000000	6.785066	0.034723	NaN	0.000000	0.001583	0.001635	28.0831	0.151892	0.001904	79.7724	115.4	15.2037	0.003824	0.783433	-0.471460	-0.472821	0.034723	79.7724	-0.471787	-1.38186e+06	-2.512767E-8	NaN
1079	1.000000	0.830790	7.37561e+06	-54089.1	1055.82	-29744.3	0.000000	0.000000	6.831063	0.070856	NaN	0.000000	0.001545	0.001632	28.0843	0.070747	0.001978	35.766	137.447	-165.789	0.062777	0.829471	-0.425464	-0.426783	0.070856	35.766	-0.426950	-322772	-2.195235E-7	NaN
1079	1.000000	0.876816	7.37561e+06	-54089.1	1055.82	-29744.3	0.000000	0.000000	6.877087	0.033983	NaN	0.000000	0.001553	0.001639	28.0842	0.041710	0.002069	20.1566	-62.1037	14.1123	0.103861	0.875474	-0.379439	-0.380780	0.033983	20.1566	-0.380703	-70791.7	-4.800360E-7	NaN
1079	1.000000	0.922865	7.37561e+06	-54089.1	1055.82	-29744.3	0.000000	0.000000	6.923137	0.037554	NaN	0.000000	0.001570	0.001647	28.0846	0.043456	0.001979	21.9603	129.984	-165.115	0.043462	0.921593	-0.333389	-0.334662	0.037554	21.9603	-0.334672	-15268.5	-2.459589E-6	NaN
1079	1.000000	0.968853	7.37561e+06	-54089.1	1055.82	-29744.3	0.000000	0.000000	6.969120	-0.093264	NaN	0.000000	0.001557	0.001680	28.0827	0.136361	0.001868	72.9807	46.2933	12.5768	-0.092599	0.967486	-0.287401	-0.288769	-0.093264	72.9807	-0.286443	-2950.83	3.160611E-5	NaN
1079	1.000000	1.014875	7.37561e+06	-54089.1	1055.82	-29744.3	0.000000	0.000000	7.015144	-0.043411	NaN	0.000000	0.001501	0.001682	28.083	0.044156	0.001963	22.4922	148.737	-166.094	-0.016185	1.013625	-0.241379	-0.242629	-0.043411	22.4922	-0.239932	-573.436	7.570351E-5	NaN
1079	1.000000	1.060871	7.37561e+06	-54089.1	1055.82	-29744.3	0.000000	0.000000	7.061141	-0.006534	NaN	0.000000	0.001560	0.001663	28.083	0.107562	0.002127	50.5611	174.03	10.5667	0.008822	1.059497	-0.195383	-0.196758	-0.006534	50.5611	-0.195286	-110.139	5.932692E-5	NaN
1079	1.000000	1.106897	7.37561e+06	-54089.1	1055.82	-29744.3	0.000000	0.000000	7.107166	-0.018276	NaN	0.000000	0.001536	0.001659	28.0844	0.084966	0.002015	42.1726	155.763	-165.14	-0.031007	1.105586	-0.149358	-0.150669	-0.018276	42.1726	-0.149033	-17.3917	0.001051	NaN
1079	1.000000	1.152957	7.37561e+06	-54089.1	1055.82	-29744.3	0.000000	0.000000	7.153229	0.053738	NaN	0.000000	0.001591	0.001650	28.0844	0.110038	0.001955	56.2806	-166.063	12.7172	0.102108	1.151562	-0.103298	-0.104692	0.053738	56.2806	-0.104014	-2.237802	-0.024014	NaN
1079	1.000000	1.198935	7.37561e+06	-54089.1	1055.82	-29744.3	0.000000	0.000000	7.199205	-0.013167	NaN	0.000000	0.001581	0.001709	28.0843	0.104956	0.002110	49.7424	79.4003	-168.423	0.008059	1.197594	-0.057319	-0.058661	-0.013167	49.7424	-0.057121	-0.148645	0.088577	NaN
1079	1.000000	1.245001	7.37561e+06	-54089.1	1055.82	-29744.3	0.000000	0.000000	7.245274	0.053937	NaN	0.000000	0.001557	0.001683	28.0828	0.057701	0.001953	29.543	23.1756	15.6007	0.010474	1.243623	-0.011253	-0.012631	0.053937	29.543	-0.012622	-0.007885	-6.840378	NaN
1079	2.000000	1.270502	7.37561e+06	-54089.1	1055.82	-29744.3	0.000000	0.000000	7.271567	19.3294	NaN	0.000000	0.001608	0.001658	28.0829	16.909	0.001771	9547.13	7.947574	-178.397	18.9709	1.270237	0.014247	0.013982	19.3294	9547.13	0.012729	0.012375	1561.98	78410.7
1079	2.000000	1.282004	7.37561e+06	-54089.1	1055.82	-29744.3	0.000000	0.000000	7.284127	45.0572	NaN	0.000000	0.001623	0.001660	28.0829	30.0848	0.001804	16675	8.127309	-3.296534	46.3678	1.281762	0.025749	0.025508	45.0572	16675	0.023723	0.028733	1568.15	89877.3
1079	2.000000	1.293478	7.37561e+06	-54089.1	1055.82	-29744.3	0.000000	0.000000	7.297273	85.6918	NaN	0.000000	0.001534	0.001652	28.0842	39.8606	0.001699	23458.9	5.726682	175.934	84.888	1.293168	0.037223	0.036914	85.6918	23458.9	0.034484	0.050551	1695.16	95327.1
1079	2.000000	1.304970	7.37561e+06	-54089.1	1055.82	-29744.3	0.000000	0.000000	7.310558	129.296	NaN	0.000000	0.001543	0.001701	28.0852	51.3604	0.001815	28302.3	-2.060686	2.484585	128.789	1.304751	0.048715	0.048497	129.296	28302.3	0.045289	0.078410	1648.97	92343.9
1079	2.000000	1.316348	7.37561e+06	-54089.1	1055.82	-29744.3	0.000000	0.000000	7.325106	206.357	NaN	0.000000	0.001510	0.001694	28.0841	62.9303	0.001768	35588.2	2.857639	175.866	202.742	1.316146	0.060094	0.059892	206.357	35588.2	0.055745	0.110993	1859.18	97595.8
1079	2.000000	1.328013	7.37561e+06	-54089.1	1055.82	-29744.3	0.000000	0.000000	7.339747	278.705	NaN	0.000000	0.001597	0.001686	28.0829	75.6055	0.001821	41528.2	7.955822	-9.534603	282.03	1.327498	0.071758	0.071243	278.705	41528.2	0.066725	0.151021	1845.47	97633.3
1079	2.000000	1.339317	7.37561e+06	-54089.1	1055.82	-29744.3	0.000000	0.000000	7.354767	369.048	NaN	0.000000	0.001576	0.001690	28.0832	86.1126	0.001892	45508.2	5.413827	171.867	365.51	1.338915	0.083062	0.082660	369.048	45508.2	0.076980	0.193635	1905.89	94486.7
1079	2.000000	1.350853	7.37561e+06	-54089.1	1055.82	-29744.3	0.000000	0.000000	7.370510	471.322	NaN	0.000000	0.001576	0.001668	28.0828	95.9301	0.001739	55152.3	7.981094	-11.3752	467.186	1.350388	0.094598	0.094133	471.322	55152.3	0.088189	0.245847	1917.13	101626
1079	2.000000	1.362200	7.37561e+06	-54089.1	1055.82	-29744.3	0.000000	0.000000	7.386704	589.165	NaN	0.000000	0.001567	0.001671	28.0839	106.276	0.001692	62800.5	-0.154242	175.154	579.963	1.362000	0.105945	0.105746	589.165	62800.5	0.098909	0.301194	1956.1	104547