File: remote_trans/data/nanoindenter/0828-1/data/Data_2025-08-06,11h17m57s/2025-07-22_16-23-58_1_417.txt
2025-07-22, 16:23:58, 1
Index	Phase	Displacement	Time	Pos X	Pos Y	Pos Z	Rot A	Rot B	Piezo Z	Force A	Force B	Gripper	Voltage A	Voltage B	Temperature	Amplitude force	Amplitude pos	Stiffness	Phase shift	Phase excitation	Force A raw	Displacement raw	HMax	HMax raw	Real Force	Real Stiffness	Contact Depth	Area	Hardness	Reduced Mod.
[#]	[#]	[um]	[s]	[um]	[um]	[um]	[m°]	[m°]	[um]	[uN]	[uN]	[V]	[V]	[V]	[°C]	[uN]	[um]	[N/m]	[°]	[°]	[uN]	[um]	[um]	[um]	[uN]	[N/m]	[um]	[um^2]	[MPa]	[MPa]
417	1.000000	0.003064	7.36914e+06	-56239.1	1005.82	-29739.6	0.000000	0.000000	6.002791	0.081823	NaN	0.000000	0.001685	0.001659	28.0818	0.025561	0.000907	28.1919	-118.558	-164.881	0.128364	0.001812	-1.056252	-1.057504	0.081823	28.1919	-1.058429	-1.385818E+14	-5.904293E-16	NaN
417	1.000000	0.042997	7.36914e+06	-56239.1	1005.82	-29739.6	0.000000	0.000000	6.042722	0.032497	NaN	0.000000	0.001695	0.001660	28.0803	0.064848	0.001885	34.4106	123.174	-160.509	0.095138	0.041685	-1.016318	-1.017630	0.032497	34.4106	-1.017027	-3.845407E+13	-8.450961E-16	NaN
417	1.000000	0.083027	7.36914e+06	-56239.1	1005.82	-29739.6	0.000000	0.000000	6.082754	0.087174	NaN	0.000000	0.001731	0.001644	28.08	0.030551	0.002042	14.9622	22.3645	-169.584	0.087484	0.081747	-0.976289	-0.977569	0.087174	14.9622	-0.980659	-1.245338E+13	-7.000066E-15	NaN
417	1.000000	0.123079	7.36914e+06	-56239.1	1005.82	-29739.6	0.000000	0.000000	6.122803	0.024308	NaN	0.000000	0.001753	0.001658	28.0801	0.049035	0.001959	25.0346	-129.642	-166.789	0.111419	0.121742	-0.936237	-0.937574	0.024308	25.0346	-0.936965	-3.207663E+12	-7.578145E-15	NaN
417	1.000000	0.163086	7.36914e+06	-56239.1	1005.82	-29739.6	0.000000	0.000000	6.162812	0.043230	NaN	0.000000	0.001759	0.001618	28.0813	0.076601	0.002088	36.6886	103.262	-163.352	0.034551	0.161749	-0.896229	-0.897567	0.043230	36.6886	-0.897113	-9.290866E+11	-4.652935E-14	NaN
417	1.000000	0.203073	7.36914e+06	-56239.1	1005.82	-29739.6	0.000000	0.000000	6.202800	0.088464	NaN	0.000000	0.001712	0.001656	28.0814	0.036234	0.001980	18.3008	-169.67	-166.539	0.076167	0.201766	-0.856243	-0.857550	0.088464	18.3008	-0.859868	-2.912995E+11	-3.036886E-13	NaN
417	1.000000	0.243100	7.36914e+06	-56239.1	1005.82	-29739.6	0.000000	0.000000	6.242825	0.039760	NaN	0.000000	0.001684	0.001644	28.0814	0.059675	0.002062	28.9434	-171.62	-169.154	0.035232	0.241826	-0.816215	-0.817490	0.039760	28.9434	-0.817246	-7.706529E+10	-5.159247E-13	NaN
417	1.000000	0.283095	7.36914e+06	-56239.1	1005.82	-29739.6	0.000000	0.000000	6.282818	-0.015021	NaN	0.000000	0.001648	0.001620	28.0806	0.035967	0.001926	18.677	-119.006	-168.829	-0.004629	0.281811	-0.776221	-0.777505	-0.015021	18.677	-0.775618	-2.097364E+10	7.161891E-13	NaN
417	1.000000	0.323143	7.36914e+06	-56239.1	1005.82	-29739.6	0.000000	0.000000	6.322870	0.078354	NaN	0.000000	0.001719	0.001651	28.0802	0.024346	0.002045	11.9075	50.6824	-169.38	0.047767	0.321813	-0.736172	-0.737502	0.078354	11.9075	-0.741107	-7.114413E+9	-1.101338E-11	NaN
417	1.000000	0.363168	7.36914e+06	-56239.1	1005.82	-29739.6	0.000000	0.000000	6.362893	0.036882	NaN	0.000000	0.001711	0.001659	28.08	0.090638	0.002043	44.355	-154.423	-165.339	0.076606	0.361816	-0.696147	-0.697499	0.036882	44.355	-0.696771	-1.767789E+9	-2.086343E-11	NaN
417	1.000000	0.403145	7.36914e+06	-56239.1	1005.82	-29739.6	0.000000	0.000000	6.402875	0.145647	NaN	0.000000	0.001726	0.001608	28.0799	0.130573	0.001933	67.5615	-168.794	-167.88	0.009320	0.401871	-0.656171	-0.657445	0.145647	67.5615	-0.657787	-5.177956E+8	-2.812829E-10	NaN
417	1.000000	0.443192	7.36914e+06	-56239.1	1005.82	-29739.6	0.000000	0.000000	6.442919	0.102551	NaN	0.000000	0.001630	0.001701	28.0814	0.157894	0.001994	79.1708	66.0899	-164.758	0.086492	0.441917	-0.616124	-0.617399	0.102551	79.1708	-0.617096	-1.431216E+8	-7.165327E-10	NaN
417	1.000000	0.483213	7.36914e+06	-56239.1	1005.82	-29739.6	0.000000	0.000000	6.482938	0.027256	NaN	0.000000	0.001652	0.001705	28.0817	0.059948	0.002027	29.5689	-44.6399	-165.883	-0.000371	0.481871	-0.576103	-0.577444	0.027256	29.5689	-0.576794	-3.985371E+7	-6.839040E-10	NaN
417	1.000000	0.523205	7.36914e+06	-56239.1	1005.82	-29739.6	0.000000	0.000000	6.522930	0.039291	NaN	0.000000	0.001666	0.001761	28.082	0.125290	0.001885	66.4553	-26.4685	-167.643	0.064618	0.521869	-0.536111	-0.537446	0.039291	66.4553	-0.536554	-1.105488E+7	-3.554154E-9	NaN
417	1.000000	0.563236	7.36914e+06	-56239.1	1005.82	-29739.6	0.000000	0.000000	6.562961	0.041708	NaN	0.000000	0.001738	0.001718	28.0808	0.048827	0.001853	26.3536	-133.556	-170.12	0.070762	0.561877	-0.496080	-0.497439	0.041708	26.3536	-0.497267	-3.13963e+06	-1.328443E-8	NaN
417	1.000000	0.603269	7.36914e+06	-56239.1	1005.82	-29739.6	0.000000	0.000000	6.602993	0.016045	NaN	0.000000	0.001674	0.001722	28.0803	0.102651	0.001933	53.1057	-8.047988	-166.403	0.012723	0.601987	-0.456047	-0.457328	0.016045	53.1057	-0.456274	-836816	-1.917333E-8	NaN
417	1.000000	0.643276	7.36914e+06	-56239.1	1005.82	-29739.6	0.000000	0.000000	6.643000	0.005976	NaN	0.000000	0.001729	0.001738	28.08	0.069190	0.002024	34.1873	-79.2116	-168.017	0.048350	0.641921	-0.416039	-0.417395	0.005976	34.1873	-0.416170	-227026	-2.632284E-8	NaN
417	1.000000	0.683273	7.36914e+06	-56239.1	1005.82	-29739.6	0.000000	0.000000	6.682999	0.043801	NaN	0.000000	0.001719	0.001726	28.0803	0.160895	0.002115	76.0748	-72.6655	-163.512	0.072304	0.681990	-0.376042	-0.377325	0.043801	76.0748	-0.376474	-61554.5	-7.115884E-7	NaN
417	1.000000	0.723332	7.36914e+06	-56239.1	1005.82	-29739.7	0.000000	0.000000	6.723058	0.046148	NaN	0.000000	0.001766	0.001729	28.0815	0.043275	0.002019	21.43	-65.2889	-167.504	0.119130	0.721979	-0.335984	-0.337336	0.046148	21.43	-0.337599	-16847.4	-2.739208E-6	NaN
417	1.000000	0.763287	7.36914e+06	-56239.1	1005.82	-29739.7	0.000000	0.000000	6.763016	0.126605	NaN	0.000000	0.001755	0.001675	28.0816	0.026236	0.001827	14.3606	-137.526	-165.048	0.087156	0.762002	-0.296029	-0.297314	0.126605	14.3606	-0.302641	-5151.28	-2.457736E-5	NaN
417	1.000000	0.803333	7.36914e+06	-56239.1	1005.82	-29739.7	0.000000	0.000000	6.803059	0.050091	NaN	0.000000	0.001661	0.001699	28.0817	0.155901	0.002037	76.5445	116.195	-168.619	-0.022613	0.801947	-0.255983	-0.257368	0.050091	76.5445	-0.256473	-1034.63	-4.841419E-5	NaN
417	1.000000	0.843359	7.36914e+06	-56239.1	1005.82	-29739.7	0.000000	0.000000	6.843085	0.054428	NaN	0.000000	0.001680	0.001691	28.0803	0.031878	0.001908	16.7114	-31.9653	-164.953	0.075475	0.842062	-0.215957	-0.217253	0.054428	16.7114	-0.218399	-261.861	-0.000208	NaN
417	1.000000	0.883385	7.36914e+06	-56239.1	1005.82	-29739.7	0.000000	0.000000	6.883110	0.029191	NaN	0.000000	0.001694	0.001728	28.0803	0.031394	0.001943	16.1596	153.198	-167.227	-0.017126	0.882057	-0.175930	-0.177258	0.029191	16.1596	-0.177285	-54.8476	-0.000532	NaN
417	1.000000	0.923388	7.36914e+06	-56239.1	1005.82	-29739.7	0.000000	0.000000	6.923116	0.114671	NaN	0.000000	0.001768	0.001728	28.0804	0.022549	0.002009	11.224	-118.168	-166.614	0.156675	0.922067	-0.135928	-0.137248	0.114671	11.224	-0.143591	-13.8051	-0.008306	NaN
417	1.000000	0.963390	7.36914e+06	-56239.1	1005.82	-29739.7	0.000000	0.000000	6.963113	-0.007501	NaN	0.000000	0.001640	0.001677	28.0805	0.128365	0.001873	68.5416	102.289	-160.795	0.002211	0.962112	-0.095926	-0.097204	-0.007501	68.5416	-0.095844	-1.474337	0.005088	NaN
417	1.000000	1.003416	7.36914e+06	-56239.1	1005.82	-29739.7	0.000000	0.000000	7.003139	-0.003637	NaN	0.000000	0.001700	0.001690	28.0818	0.080325	0.002033	39.5129	-17.2956	-167.345	-0.043249	1.002187	-0.055900	-0.057129	-0.003637	39.5129	-0.055831	-0.136251	0.026690	NaN
417	1.000000	1.043443	7.36914e+06	-56239.1	1005.82	-29739.7	0.000000	0.000000	7.043170	0.085281	NaN	0.000000	0.001668	0.001709	28.0816	0.142656	0.002077	68.6805	131.41	-163.724	0.030529	1.042206	-0.015873	-0.017110	0.085281	68.6805	-0.016804	-0.010386	-8.211444	NaN
417	2.000000	1.072068	7.36914e+06	-56239.1	1005.82	-29739.7	0.000000	0.000000	7.072301	12.3839	NaN	0.000000	0.001680	0.001696	28.0817	13.0403	0.001819	7170.43	9.348127	-175.304	12.368	1.071711	0.012752	0.012396	12.3839	7170.43	0.011457	0.010846	1141.76	62903.9
417	2.000000	1.081937	7.36914e+06	-56239.1	1005.82	-29739.7	0.000000	0.000000	7.083044	33.6428	NaN	0.000000	0.001716	0.001712	28.0811	23.5859	0.001777	13271.3	7.272554	179.37	33.1919	1.081652	0.022621	0.022336	33.6428	13271.3	0.020720	0.023686	1420.38	78785
417	2.000000	1.091875	7.36914e+06	-56239.1	1005.82	-29739.7	0.000000	0.000000	7.093954	57.2457	NaN	0.000000	0.001651	0.001723	28.0806	33.4933	0.001888	17744	3.609144	-178.973	56.1485	1.091751	0.032560	0.032435	57.2457	17744	0.030140	0.041035	1395.06	80029.3
417	2.000000	1.101904	7.36914e+06	-56239.1	1005.82	-29739.7	0.000000	0.000000	7.105494	93.9897	NaN	0.000000	0.001645	0.001742	28.0806	44.4116	0.001824	24344.3	5.280616	175.979	92.594	1.101633	0.042588	0.042317	93.9897	24344.3	0.039692	0.063236	1486.34	88448.2
417	2.000000	1.111943	7.36914e+06	-56239.1	1005.82	-29739.7	0.000000	0.000000	7.117426	139.992	NaN	0.000000	0.001682	0.001718	28.0816	53.9403	0.001825	29563	7.236404	173.638	141.588	1.111575	0.052627	0.052259	139.992	29563	0.049075	0.089577	1562.82	90245.4
417	2.000000	1.121881	7.36914e+06	-56239.1	1005.82	-29739.7	0.000000	0.000000	7.129559	193.36	NaN	0.000000	0.001763	0.001711	28.0817	63.1797	0.001633	38688.2	2.729768	174.153	192.892	1.121602	0.062565	0.062286	193.36	38688.2	0.058817	0.121599	1590.15	101365
417	2.000000	1.131910	7.36914e+06	-56239.1	1005.82	-29739.7	0.000000	0.000000	7.142274	258.627	NaN	0.000000	0.001630	0.001681	28.0819	74.0503	0.001793	41296.6	3.538704	173.618	259.042	1.131608	0.072594	0.072293	258.627	41296.6	0.067897	0.155640	1661.7	95637.1
417	2.000000	1.141796	7.36914e+06	-56239.1	1005.82	-29739.7	0.000000	0.000000	7.155405	337.513	NaN	0.000000	0.001672	0.001643	28.0818	82.7244	0.001785	46354.2	2.722767	173.531	334.395	1.141470	0.082481	0.082155	337.513	46354.2	0.077020	0.193810	1741.47	96199.8
417	2.000000	1.151907	7.36915e+06	-56239.1	1005.82	-29739.7	0.000000	0.000000	7.168967	421.404	NaN	0.000000	0.001673	0.001595	28.0817	93.6076	0.001817	51516.9	3.309610	171.888	423.166	1.151511	0.092591	0.092196	421.404	51516.9	0.086456	0.237397	1775.1	96601.8
417	2.000000	1.161886	7.36915e+06	-56239.1	1005.82	-29739.7	0.000000	0.000000	7.182677	512.107	NaN	0.000000	0.001702	0.001573	28.0805	104.286	0.001805	57768.6	7.141217	168.099	513.021	1.161445	0.102570	0.102130	512.107	57768.6	0.095921	0.285241	1795.35	98823.3
417	2.000000	1.166809	7.36915e+06	-56239.1	1005.82	-29739.7	0.000000	0.000000	7.189109	548.766	NaN	0.000000	0.001720	0.001600	28.0802	107.05	0.001697	63083.6	-0.751045	174.882	546.811	1.166680	0.107493	0.107365	548.766	63083.6	0.100969	0.312429	1756.45	103113