File: remote_trans/data/nanoindenter/0828-1/data/Data_2025-08-06,11h17m57s/2025-07-22_16-23-58_1_1078.txt
2025-07-22, 16:23:58, 1
Index	Phase	Displacement	Time	Pos X	Pos Y	Pos Z	Rot A	Rot B	Piezo Z	Force A	Force B	Gripper	Voltage A	Voltage B	Temperature	Amplitude force	Amplitude pos	Stiffness	Phase shift	Phase excitation	Force A raw	Displacement raw	HMax	HMax raw	Real Force	Real Stiffness	Contact Depth	Area	Hardness	Reduced Mod.
[#]	[#]	[um]	[s]	[um]	[um]	[um]	[m°]	[m°]	[um]	[uN]	[uN]	[V]	[V]	[V]	[°C]	[uN]	[um]	[N/m]	[°]	[°]	[uN]	[um]	[um]	[um]	[uN]	[N/m]	[um]	[um^2]	[MPa]	[MPa]
1078	1.000000	0.002245	7.37559e+06	-54039.1	1055.82	-29744.6	0.000000	0.000000	6.002795	0.020493	NaN	0.000000	0.001622	0.001617	28.0829	0.153706	0.001139	134.913	-109.558	-169.042	-0.029641	0.000957	-1.008377	-1.009665	0.020493	134.913	-1.008491	-2.951711E+13	-6.942711E-16	NaN
1078	1.000000	0.040216	7.37559e+06	-54039.1	1055.82	-29744.6	0.000000	0.000000	6.040763	-0.043877	NaN	0.000000	0.001679	0.001610	28.0827	0.107421	0.002044	52.5461	-141.757	13.4461	-0.098999	0.038835	-0.970406	-0.971787	-0.043877	52.5461	-0.969780	-8.885857E+12	4.937890E-15	NaN
1078	1.000000	0.078213	7.37559e+06	-54039.1	1055.82	-29744.6	0.000000	0.000000	6.078761	-0.021962	NaN	0.000000	0.001636	0.001614	28.0815	0.119649	0.001966	60.8741	109.36	-164.821	-0.012482	0.076854	-0.932409	-0.933768	-0.021962	60.8741	-0.932139	-2.760951E+12	7.954527E-15	NaN
1078	1.000000	0.116237	7.3756e+06	-54039.1	1055.82	-29744.6	0.000000	0.000000	6.116788	0.051218	NaN	0.000000	0.001651	0.001584	28.0817	0.067226	0.002033	33.0648	51.0863	14.6896	0.031525	0.114851	-0.894385	-0.895771	0.051218	33.0648	-0.895547	-8.848819E+11	-5.788144E-14	NaN
1078	1.000000	0.154210	7.3756e+06	-54039.1	1055.82	-29744.6	0.000000	0.000000	6.154755	-0.080284	NaN	0.000000	0.001650	0.001577	28.0811	0.034072	0.002013	16.9294	122.755	-165.509	-0.090353	0.152937	-0.856413	-0.857686	-0.080284	16.9294	-0.852856	-2.341028E+11	3.429445E-13	NaN
1078	1.000000	0.192249	7.3756e+06	-54039.1	1055.82	-29744.6	0.000000	0.000000	6.192799	0.046562	NaN	0.000000	0.001655	0.001594	28.0813	0.050072	0.002100	23.8462	15.4818	18.2741	0.047483	0.190902	-0.818374	-0.819720	0.046562	23.8462	-0.819838	-8.356361E+10	-5.572024E-13	NaN
1078	1.000000	0.230280	7.3756e+06	-54039.1	1055.82	-29744.6	0.000000	0.000000	6.230832	0.060129	NaN	0.000000	0.001679	0.001592	28.0822	0.052736	0.002021	26.0906	75.2494	-161.357	-0.001101	0.228970	-0.780342	-0.781652	0.060129	26.0906	-0.782070	-2.566637E+10	-2.342715E-12	NaN
1078	1.000000	0.268290	7.3756e+06	-54039.1	1055.82	-29744.6	0.000000	0.000000	6.268839	-0.020107	NaN	0.000000	0.001592	0.001681	28.0825	0.119040	0.002065	57.6542	16.4544	16.9043	0.030654	0.266920	-0.742332	-0.743702	-0.020107	57.6542	-0.742070	-7.332513E+9	2.742122E-12	NaN
1078	1.000000	0.306301	7.3756e+06	-54039.1	1055.82	-29744.6	0.000000	0.000000	6.306849	-0.018993	NaN	0.000000	0.001579	0.001639	28.0823	0.064800	0.002025	31.9928	42.9569	-165.167	-0.003373	0.305000	-0.704321	-0.705623	-0.018993	31.9928	-0.703876	-2.210318E+9	8.592964E-12	NaN
1078	1.000000	0.344314	7.3756e+06	-54039.1	1055.82	-29744.6	0.000000	0.000000	6.344863	-0.002597	NaN	0.000000	0.001589	0.001686	28.081	0.029624	0.001998	14.8264	99.2872	13.5337	0.001777	0.342927	-0.666308	-0.667696	-0.002597	14.8264	-0.666177	-6.746182E+8	3.849596E-12	NaN
1078	1.000000	0.382327	7.3756e+06	-54039.1	1055.82	-29744.6	0.000000	0.000000	6.382877	0.019044	NaN	0.000000	0.001604	0.001689	28.0813	0.009000	0.002106	4.272807	-26.3774	-167.064	0.048953	0.381018	-0.628295	-0.629604	0.019044	4.272807	-0.631638	-2.267353E+8	-8.399305E-11	NaN
1078	1.000000	0.420352	7.3756e+06	-54039.1	1055.82	-29744.6	0.000000	0.000000	6.420903	0.047207	NaN	0.000000	0.001602	0.001659	28.0811	0.091076	0.001991	45.7502	-139.55	15.535	-0.015555	0.418968	-0.590270	-0.591654	0.047207	45.7502	-0.591044	-6.266951E+7	-7.532671E-10	NaN
1078	1.000000	0.458374	7.3756e+06	-54039.1	1055.82	-29744.6	0.000000	0.000000	6.458924	0.030393	NaN	0.000000	0.001577	0.001667	28.0811	0.097608	0.002004	48.7078	129.219	-165.711	-0.035194	0.457098	-0.552249	-0.553525	0.030393	48.7078	-0.552717	-1.851724E+7	-1.641353E-9	NaN
1078	1.000000	0.496386	7.3756e+06	-54039.1	1055.82	-29744.6	0.000000	0.000000	6.496934	-0.012961	NaN	0.000000	0.001526	0.001663	28.0826	0.084153	0.001956	43.0293	171.089	12.7779	0.131603	0.495037	-0.514236	-0.515585	-0.012961	43.0293	-0.514010	-5.3735e+06	2.411950E-9	NaN
1078	1.000000	0.534404	7.3756e+06	-54039.1	1055.82	-29744.6	0.000000	0.000000	6.534950	-0.069630	NaN	0.000000	0.001587	0.001712	28.0824	0.038675	0.002032	19.0321	-112.899	-162.447	-0.075531	0.533089	-0.476218	-0.477533	-0.069630	19.0321	-0.473474	-1.45921e+06	4.771748E-8	NaN
1078	1.000000	0.572407	7.3756e+06	-54039.1	1055.82	-29744.6	0.000000	0.000000	6.572957	0.018195	NaN	0.000000	0.001609	0.001669	28.0823	0.095319	0.001992	47.8471	-97.4176	13.8922	-0.058173	0.571008	-0.438215	-0.439615	0.018195	47.8471	-0.438500	-470102	-3.870520E-8	NaN
1078	1.000000	0.610416	7.3756e+06	-54039.1	1055.82	-29744.6	0.000000	0.000000	6.610967	0.032222	NaN	0.000000	0.001610	0.001657	28.0812	0.012861	0.001878	6.847788	118.959	-163.776	0.064381	0.609106	-0.400206	-0.401516	0.032222	6.847788	-0.403735	-151089	-2.132679E-7	NaN
1078	1.000000	0.648459	7.3756e+06	-54039.1	1055.82	-29744.6	0.000000	0.000000	6.649006	-0.033765	NaN	0.000000	0.001548	0.001655	28.0812	0.047221	0.001961	24.0803	177.804	16.1625	0.037154	0.647070	-0.362163	-0.363552	-0.033765	24.0803	-0.361112	-36975.4	9.131626E-7	NaN
1078	1.000000	0.686471	7.3756e+06	-54039.1	1055.82	-29744.6	0.000000	0.000000	6.687022	0.052517	NaN	0.000000	0.001610	0.001662	28.0813	0.052795	0.002001	26.3851	163.286	-165.492	0.020773	0.685134	-0.324151	-0.325488	0.052517	26.3851	-0.325644	-11261.4	-4.663417E-6	NaN
1078	1.000000	0.724458	7.3756e+06	-54039.1	1055.82	-29744.6	0.000000	0.000000	6.725009	0.047016	NaN	0.000000	0.001592	0.001627	28.0814	0.175676	0.001993	88.1576	-168.046	14.6822	-0.022463	0.723166	-0.286164	-0.287456	0.047016	88.1576	-0.286564	-2963.22	-1.586642E-5	NaN
1078	1.000000	0.762480	7.3756e+06	-54039.1	1055.82	-29744.6	0.000000	0.000000	6.763030	0.007149	NaN	0.000000	0.001673	0.001652	28.0822	0.065532	0.001992	32.8996	-73.7979	-165.52	-0.006045	0.761143	-0.248142	-0.249479	0.007149	32.8996	-0.248305	-773.976	-9.236354E-6	NaN
1078	1.000000	0.800501	7.3756e+06	-54039.1	1055.82	-29744.6	0.000000	0.000000	6.801049	-0.005679	NaN	0.000000	0.001706	0.001621	28.0823	0.053350	0.001944	27.4446	68.9161	14.1905	0.034734	0.799164	-0.210122	-0.211459	-0.005679	27.4446	-0.209966	-191.547	2.964997E-5	NaN
1078	1.000000	0.838537	7.3756e+06	-54039.1	1055.82	-29744.6	0.000000	0.000000	6.839082	-0.090580	NaN	0.000000	0.001649	0.001637	28.082	0.096279	0.001974	48.7795	174.417	-164.075	-0.021776	0.837221	-0.172085	-0.173402	-0.090580	48.7795	-0.170693	-42.2314	0.002145	NaN
1078	1.000000	0.876530	7.3756e+06	-54039.1	1055.82	-29744.6	0.000000	0.000000	6.877079	0.009552	NaN	0.000000	0.001646	0.001668	28.0824	0.042559	0.001974	21.5601	-137.219	17.8558	0.050445	0.875171	-0.134093	-0.135451	0.009552	21.5601	-0.134425	-9.274712	-0.001030	NaN
1078	1.000000	0.914516	7.3756e+06	-54039.1	1055.82	-29744.6	0.000000	0.000000	6.915066	0.023621	NaN	0.000000	0.001609	0.001624	28.0809	0.132398	0.001918	69.0115	82.5214	-166.586	0.056804	0.913257	-0.096107	-0.097366	0.023621	69.0115	-0.096363	-1.514811	-0.015593	NaN
1078	1.000000	0.952553	7.3756e+06	-54039.1	1055.82	-29744.6	0.000000	0.000000	6.953101	-0.021317	NaN	0.000000	0.001554	0.001684	28.0812	0.084513	0.001941	43.5423	104.005	16.6775	-0.034401	0.951223	-0.058069	-0.059400	-0.021317	43.5423	-0.057702	-0.154558	0.137921	NaN
1078	1.000000	0.990590	7.3756e+06	-54039.1	1055.82	-29744.6	0.000000	0.000000	6.991146	0.181830	NaN	0.000000	0.001593	0.001678	28.0812	0.131483	0.002043	64.3567	13.5268	-164.227	0.101446	0.989224	-0.020033	-0.021398	0.181830	64.3567	-0.022152	-0.014247	-12.7624	NaN
1078	2.000000	1.021697	7.3756e+06	-54039.1	1055.82	-29744.6	0.000000	0.000000	7.022666	10.2192	NaN	0.000000	0.001601	0.001662	28.0826	10.9473	0.001626	6731.51	6.224607	6.433262	9.732543	1.021349	0.011075	0.010727	10.2192	6731.51	0.009936	0.009110	1121.7	64434.2
1078	2.000000	1.031131	7.3756e+06	-54039.1	1055.82	-29744.6	0.000000	0.000000	7.032706	24.9582	NaN	0.000000	0.001543	0.001646	28.0827	21.2395	0.001842	11528.9	7.434661	-178.128	23.8944	1.030715	0.020509	0.020092	24.9582	11528.9	0.018885	0.020820	1198.74	72998.9
1078	2.000000	1.040555	7.3756e+06	-54039.1	1055.82	-29744.6	0.000000	0.000000	7.043177	50.4181	NaN	0.000000	0.001624	0.001623	28.0827	29.5847	0.001787	16554	4.606424	1.731568	48.3054	1.040261	0.029932	0.029638	50.4181	16554	0.027648	0.036010	1400.11	79701
1078	2.000000	1.050119	7.3756e+06	-54039.1	1055.82	-29744.6	0.000000	0.000000	7.053779	75.6247	NaN	0.000000	0.001663	0.001645	28.0827	38.6649	0.001734	22298.5	6.930657	178.54	78.2929	1.049680	0.039497	0.039058	75.6247	22298.5	0.036953	0.056392	1341.06	85791
1078	2.000000	1.059548	7.3756e+06	-54039.1	1055.82	-29744.6	0.000000	0.000000	7.064433	105.409	NaN	0.000000	0.001683	0.001672	28.0815	47.5946	0.001673	28446.7	3.200167	-2.606720	103.702	1.059265	0.048926	0.048642	105.409	28446.7	0.046147	0.080876	1303.33	91388.9
1078	2.000000	1.068977	7.3756e+06	-54039.1	1055.82	-29744.6	0.000000	0.000000	7.075827	153.186	NaN	0.000000	0.001644	0.001664	28.0811	57.7319	0.001836	31452.9	3.751792	177.242	150.341	1.068681	0.058355	0.058058	153.186	31452.9	0.054702	0.107498	1425.01	87646.2
1078	2.000000	1.078573	7.3756e+06	-54039.1	1055.82	-29744.6	0.000000	0.000000	7.087464	202.824	NaN	0.000000	0.001631	0.001670	28.0814	68.8027	0.001813	37960	6.731133	-8.096215	201.806	1.078185	0.067951	0.067563	202.824	37960	0.063943	0.140327	1445.37	92582.7
1078	2.000000	1.087971	7.3756e+06	-54039.1	1055.82	-29744.6	0.000000	0.000000	7.100080	281.034	NaN	0.000000	0.001631	0.001670	28.0821	78.319	0.001803	43430.5	4.252841	173.676	279.828	1.087798	0.077349	0.077176	281.034	43430.5	0.072496	0.174388	1611.55	95018.8
1078	2.000000	1.097492	7.3756e+06	-54039.1	1055.82	-29744.6	0.000000	0.000000	7.112512	351.826	NaN	0.000000	0.001654	0.001688	28.082	87.2318	0.001739	50172.4	5.905918	-9.235843	347.489	1.097155	0.086869	0.086533	351.826	50172.4	0.081610	0.214497	1640.24	98975.6
1078	2.000000	1.106925	7.3756e+06	-54039.1	1055.82	-29744.6	0.000000	0.000000	7.125349	434.569	NaN	0.000000	0.001637	0.001673	28.0819	95.3369	0.001704	55954.9	6.031123	169.738	431.468	1.106563	0.096302	0.095941	434.569	55954.9	0.090478	0.257223	1689.46	100799
1078	2.000000	1.116410	7.3756e+06	-54039.1	1055.82	-29744.6	0.000000	0.000000	7.138653	527.429	NaN	0.000000	0.001584	0.001645	28.0819	105.642	0.001840	57424.9	3.679790	-7.505546	519.333	1.116032	0.105787	0.105409	527.429	57424.9	0.098899	0.301137	1751.46	95607.3
1078	2.000000	1.117927	7.3756e+06	-54039.1	1055.82	-29744.6	0.000000	0.000000	7.140674	539.658	NaN	0.000000	0.001562	0.001657	28.0819	108.718	0.001774	61301.4	7.529094	167.663	536.018	1.117595	0.107305	0.106973	539.658	61301.4	0.100702	0.310962	1735.45	100436