File: remote_trans/data/nanoindenter/0828-1/data/Data_2025-08-06,11h17m57s/2025-07-22_16-23-58_1_727.txt
2025-07-22, 16:23:58, 1
Index	Phase	Displacement	Time	Pos X	Pos Y	Pos Z	Rot A	Rot B	Piezo Z	Force A	Force B	Gripper	Voltage A	Voltage B	Temperature	Amplitude force	Amplitude pos	Stiffness	Phase shift	Phase excitation	Force A raw	Displacement raw	HMax	HMax raw	Real Force	Real Stiffness	Contact Depth	Area	Hardness	Reduced Mod.
[#]	[#]	[um]	[s]	[um]	[um]	[um]	[m°]	[m°]	[um]	[uN]	[uN]	[V]	[V]	[V]	[°C]	[uN]	[um]	[N/m]	[°]	[°]	[uN]	[um]	[um]	[um]	[uN]	[N/m]	[um]	[um^2]	[MPa]	[MPa]
727	1.000000	0.002923	7.37217e+06	-40739.1	1005.82	-29788.8	0.000000	0.000000	6.002837	0.016491	NaN	0.000000	0.001567	0.001753	28.0853	0.066720	0.001021	65.3382	85.5109	-164.973	0.006375	0.001633	-1.098911	-1.100201	0.016491	65.3382	-1.099100	-4.875190E+14	-3.382650E-17	NaN
727	1.000000	0.044838	7.37217e+06	-40739.1	1005.82	-29788.8	0.000000	0.000000	6.044749	-0.034338	NaN	0.000000	0.001601	0.001695	28.0846	0.171365	0.001925	89.0199	-91.7916	18.6155	0.000243	0.043536	-1.056996	-1.058298	-0.034338	89.0199	-1.056707	-1.313908E+14	2.613454E-16	NaN
727	1.000000	0.086863	7.37217e+06	-40739.1	1005.82	-29788.8	0.000000	0.000000	6.086774	-0.035118	NaN	0.000000	0.001594	0.001753	28.0846	0.021859	0.002015	10.8485	44.3611	-167.248	-0.066760	0.085578	-1.014971	-1.016256	-0.035118	10.8485	-1.012543	-3.346679E+13	1.049325E-15	NaN
727	1.000000	0.128857	7.37217e+06	-40739.1	1005.82	-29788.8	0.000000	0.000000	6.128771	0.015937	NaN	0.000000	0.001641	0.001744	28.0834	0.011982	0.002069	5.792295	132.929	16.865	0.077606	0.127557	-0.972977	-0.974277	0.015937	5.792295	-0.975041	-1.046141E+13	-1.523416E-15	NaN
727	1.000000	0.170871	7.37217e+06	-40739.1	1005.82	-29788.8	0.000000	0.000000	6.170785	0.013278	NaN	0.000000	0.001645	0.001723	28.0834	0.048707	0.002063	23.6041	115.083	-164.423	-0.057735	0.169589	-0.930963	-0.932244	0.013278	23.6041	-0.931384	-2.697009E+12	-4.923158E-15	NaN
727	1.000000	0.212915	7.37217e+06	-40739.1	1005.82	-29788.8	0.000000	0.000000	6.212827	-0.013982	NaN	0.000000	0.001690	0.001734	28.0832	0.079221	0.001977	40.0765	-146.935	10.6525	-0.010337	0.211479	-0.888919	-0.890355	-0.013982	40.0765	-0.888658	-7.141152E+11	1.957889E-14	NaN
727	1.000000	0.254908	7.37217e+06	-40739.1	1005.82	-29788.8	0.000000	0.000000	6.254820	-0.043033	NaN	0.000000	0.001638	0.001735	28.0841	0.065931	0.001914	34.4553	124.813	-166.476	-0.099735	0.253583	-0.846926	-0.848251	-0.043033	34.4553	-0.845989	-1.889800E+11	2.277100E-13	NaN
727	1.000000	0.296919	7.37217e+06	-40739.1	1005.82	-29788.8	0.000000	0.000000	6.296830	-0.050130	NaN	0.000000	0.001614	0.001741	28.0846	0.095055	0.001989	47.7968	37.9105	15.2589	0.003112	0.295645	-0.804915	-0.806189	-0.050130	47.7968	-0.804128	-5.115604E+10	9.799446E-13	NaN
727	1.000000	0.338993	7.37217e+06	-40739.1	1005.82	-29788.8	0.000000	0.000000	6.338904	-0.065098	NaN	0.000000	0.001656	0.001707	28.0845	0.104157	0.001951	53.3763	155.093	-167.517	-0.019935	0.337655	-0.762841	-0.764179	-0.065098	53.3763	-0.761926	-1.366161E+10	4.765045E-12	NaN
727	1.000000	0.380968	7.37217e+06	-40739.1	1005.82	-29788.8	0.000000	0.000000	6.380881	0.011161	NaN	0.000000	0.001643	0.001762	28.0846	0.106952	0.001955	54.7123	100.351	13.7665	-0.032930	0.379636	-0.720866	-0.722197	0.011161	54.7123	-0.721019	-3.787661E+9	-2.946550E-12	NaN
727	1.000000	0.423019	7.37217e+06	-40739.1	1005.82	-29788.8	0.000000	0.000000	6.422932	-0.004458	NaN	0.000000	0.001598	0.001733	28.0831	0.142849	0.001929	74.0583	-123.065	-164.411	-0.004588	0.421665	-0.678815	-0.680169	-0.004458	74.0583	-0.678770	-1.003185E+9	4.443921E-12	NaN
727	1.000000	0.464964	7.37217e+06	-40739.1	1005.82	-29788.8	0.000000	0.000000	6.464874	-0.064752	NaN	0.000000	0.001595	0.001713	28.0833	0.011576	0.002092	5.533695	-105.709	10.1679	-0.046585	0.463647	-0.636870	-0.638186	-0.064752	5.533695	-0.628094	-2.026964E+8	3.194548E-10	NaN
727	1.000000	0.507017	7.37217e+06	-40739.1	1005.82	-29788.8	0.000000	0.000000	6.506929	-0.016530	NaN	0.000000	0.001618	0.001781	28.0831	0.083414	0.002001	41.6771	-138.722	-168.735	0.047359	0.505705	-0.594817	-0.596129	-0.016530	41.6771	-0.594520	-6.997814E+7	2.362217E-10	NaN
727	1.000000	0.549068	7.37217e+06	-40739.1	1005.82	-29788.8	0.000000	0.000000	6.548981	-0.005109	NaN	0.000000	0.001682	0.001720	28.0847	0.091250	0.002058	44.334	145.742	9.510973	-0.036504	0.547723	-0.552766	-0.554110	-0.005109	44.334	-0.552680	-1.849549E+7	2.762501E-10	NaN
727	1.000000	0.591051	7.37217e+06	-40739.1	1005.82	-29788.8	0.000000	0.000000	6.590964	-0.012804	NaN	0.000000	0.001709	0.001756	28.0848	0.025857	0.001950	13.2623	-88.7902	-166.824	0.030042	0.589769	-0.510783	-0.512065	-0.012804	13.2623	-0.510059	-4.73405e+06	2.704697E-9	NaN
727	1.000000	0.633111	7.37217e+06	-40739.1	1005.82	-29788.8	0.000000	0.000000	6.633023	-0.029452	NaN	0.000000	0.001601	0.001743	28.0845	0.050507	0.002026	24.9254	40.7254	14.395	-0.034000	0.631747	-0.468723	-0.470087	-0.029452	24.9254	-0.467837	-1.21635e+06	2.421340E-8	NaN
727	1.000000	0.675103	7.37217e+06	-40739.1	1005.82	-29788.8	0.000000	0.000000	6.675016	-0.011686	NaN	0.000000	0.001633	0.001745	28.0834	0.077410	0.002122	36.4835	104.056	-163.992	-0.078206	0.673777	-0.426730	-0.428057	-0.011686	36.4835	-0.426490	-317970	3.675174E-8	NaN
727	1.000000	0.717133	7.37217e+06	-40739.1	1005.82	-29788.8	0.000000	0.000000	6.717046	-0.014235	NaN	0.000000	0.001588	0.001749	28.0835	0.049109	0.002113	23.238	12.2481	12.7318	0.054944	0.715774	-0.384701	-0.386060	-0.014235	23.238	-0.384241	-79564	1.789153E-7	NaN
727	1.000000	0.759129	7.37217e+06	-40739.1	1005.82	-29788.8	0.000000	0.000000	6.759041	-0.026401	NaN	0.000000	0.001622	0.001706	28.0835	0.050262	0.001908	26.3483	-111.656	-166.234	0.000627	0.757865	-0.342705	-0.343969	-0.026401	26.3483	-0.341953	-19498.9	1.353995E-6	NaN
727	1.000000	0.801173	7.37217e+06	-40739.1	1005.82	-29788.8	0.000000	0.000000	6.801084	-0.045428	NaN	0.000000	0.001708	0.001716	28.0846	0.051126	0.001890	27.0485	-15.1072	12.3328	0.027564	0.799798	-0.300661	-0.302036	-0.045428	27.0485	-0.299401	-4610.21	9.853821E-6	NaN
727	1.000000	0.843189	7.37217e+06	-40739.1	1005.82	-29788.8	0.000000	0.000000	6.843102	-0.011241	NaN	0.000000	0.001717	0.001739	28.0846	0.101769	0.002032	50.0842	67.5316	-168.514	0.003889	0.841954	-0.258645	-0.259880	-0.011241	50.0842	-0.258477	-1110.59	1.012136E-5	NaN
727	1.000000	0.885180	7.37217e+06	-40739.1	1005.82	-29788.8	0.000000	0.000000	6.885093	0.003731	NaN	0.000000	0.001675	0.001758	28.0847	0.090129	0.002122	42.4699	119.245	15.7254	-0.103757	0.883865	-0.216654	-0.217969	0.003731	42.4699	-0.216720	-246.12	-1.516033E-5	NaN
727	1.000000	0.927194	7.37217e+06	-40739.1	1005.82	-29788.8	0.000000	0.000000	6.927107	0.000953	NaN	0.000000	0.001722	0.001747	28.0845	0.032867	0.002097	15.6695	146.921	-165.022	0.065354	0.925854	-0.174640	-0.175979	0.000953	15.6695	-0.174686	-49.4972	-1.924867E-5	NaN
727	1.000000	0.969213	7.37217e+06	-40739.1	1005.82	-29788.8	0.000000	0.000000	6.969126	-0.015512	NaN	0.000000	0.001686	0.001732	28.0836	0.069202	0.001985	34.8614	-20.327	13.2011	0.076561	0.967798	-0.132620	-0.134035	-0.015512	34.8614	-0.132287	-8.438193	0.001838	NaN
727	1.000000	1.011235	7.37217e+06	-40739.1	1005.82	-29788.8	0.000000	0.000000	7.011144	-0.090208	NaN	0.000000	0.001609	0.001789	28.0834	0.092251	0.002051	44.9774	136.354	-163.948	-0.048832	1.009877	-0.090599	-0.091957	-0.090208	44.9774	-0.089095	-1.029250	0.087645	NaN
727	1.000000	1.053260	7.37217e+06	-40739.1	1005.82	-29788.8	0.000000	0.000000	7.053172	-0.036733	NaN	0.000000	0.001652	0.001733	28.0832	0.066681	0.001953	34.1431	172.224	16.9523	-0.058487	1.051969	-0.048573	-0.049865	-0.036733	34.1431	-0.047767	-0.078063	0.470548	NaN
727	1.000000	1.095265	7.37217e+06	-40739.1	1005.82	-29788.8	0.000000	0.000000	7.095198	0.473281	NaN	0.000000	0.001653	0.001745	28.0846	0.480988	0.001928	249.5	6.939253	-167.342	0.358229	1.093916	-0.006568	-0.007918	0.473281	249.5	-0.007991	-0.005226	-90.5549	NaN
727	2.000000	1.116377	7.37217e+06	-40739.1	1005.82	-29788.8	0.000000	0.000000	7.116885	14.4808	NaN	0.000000	0.001664	0.001758	28.0846	14.4989	0.001770	8190.11	7.005552	4.995367	13.9742	1.116029	0.014543	0.014195	14.4808	8190.11	0.013217	0.012980	1115.6	65678.1
727	2.000000	1.126867	7.37217e+06	-40739.1	1005.82	-29788.8	0.000000	0.000000	7.128265	36.1144	NaN	0.000000	0.001589	0.001737	28.0846	25.217	0.001882	13402	7.485204	179.87	38.9841	1.126591	0.025033	0.024757	36.1144	13402	0.023012	0.027499	1313.32	73839.5
727	2.000000	1.137272	7.37217e+06	-40739.1	1005.82	-29788.8	0.000000	0.000000	7.139899	66.0377	NaN	0.000000	0.001628	0.001743	28.0838	33.9285	0.001796	18888.1	4.449522	-0.669478	63.286	1.136898	0.035438	0.035064	66.0377	18888.1	0.032816	0.046782	1411.59	79784.9
727	2.000000	1.147713	7.37217e+06	-40739.1	1005.82	-29788.8	0.000000	0.000000	7.151789	101.313	NaN	0.000000	0.001628	0.001733	28.0837	43.3937	0.001770	24509.6	2.891852	177.707	97.0155	1.147458	0.045879	0.045624	101.313	24509.6	0.042778	0.071406	1418.83	83799.5
727	2.000000	1.158280	7.37217e+06	-40739.1	1005.82	-29788.8	0.000000	0.000000	7.164223	146.737	NaN	0.000000	0.001638	0.001753	28.0835	54.9095	0.001795	30593.7	5.428740	-5.118932	144.543	1.157786	0.056446	0.055952	146.737	30593.7	0.052849	0.101422	1446.8	87768.6
727	2.000000	1.168757	7.37217e+06	-40739.1	1005.82	-29788.8	0.000000	0.000000	7.177092	204.937	NaN	0.000000	0.001639	0.001807	28.0844	66.6322	0.001878	35484.4	3.452785	175.21	202.447	1.168552	0.066923	0.066718	204.937	35484.4	0.062592	0.135266	1515.07	88148.8
727	2.000000	1.179245	7.37217e+06	-40739.1	1005.82	-29788.8	0.000000	0.000000	7.190313	271.43	NaN	0.000000	0.001671	0.001834	28.0846	77.4654	0.001751	44233.1	4.381546	-8.068734	268.454	1.178954	0.077411	0.077120	271.43	44233.1	0.072809	0.175702	1544.84	96412.3
727	2.000000	1.189714	7.37217e+06	-40739.1	1005.82	-29788.8	0.000000	0.000000	7.203819	345.33	NaN	0.000000	0.001668	0.001806	28.0845	85.8612	0.001747	49137.2	2.649461	173.289	343.671	1.189365	0.087880	0.087531	345.33	49137.2	0.082609	0.219129	1575.92	95903.4
727	2.000000	1.200299	7.37217e+06	-40739.1	1005.82	-29788.8	0.000000	0.000000	7.217567	422.287	NaN	0.000000	0.001648	0.001850	28.0845	95.3694	0.001814	52585.2	6.339240	-10.7415	424.359	1.199836	0.098465	0.098002	422.287	52585.2	0.092442	0.267179	1580.54	92947.1
727	2.000000	1.207616	7.37217e+06	-40739.1	1005.82	-29788.8	0.000000	0.000000	7.227607	488.534	NaN	0.000000	0.001651	0.001812	28.0831	100.372	0.001853	54174.3	4.739463	170.552	483.198	1.207373	0.105783	0.105539	488.534	54174.3	0.099019	0.301789	1618.79	90098