File: remote_trans/data/nanoindenter/0828-1/data/Data_2025-08-06,11h17m57s/2025-07-22_16-23-58_1_288.txt
2025-07-22, 16:23:58, 1
Index	Phase	Displacement	Time	Pos X	Pos Y	Pos Z	Rot A	Rot B	Piezo Z	Force A	Force B	Gripper	Voltage A	Voltage B	Temperature	Amplitude force	Amplitude pos	Stiffness	Phase shift	Phase excitation	Force A raw	Displacement raw	HMax	HMax raw	Real Force	Real Stiffness	Contact Depth	Area	Hardness	Reduced Mod.
[#]	[#]	[um]	[s]	[um]	[um]	[um]	[m°]	[m°]	[um]	[uN]	[uN]	[V]	[V]	[V]	[°C]	[uN]	[um]	[N/m]	[°]	[°]	[uN]	[um]	[um]	[um]	[uN]	[N/m]	[um]	[um^2]	[MPa]	[MPa]
288	1.000000	0.002312	7.36787e+06	-53039.1	955.819	-29747.8	0.000000	0.000000	6.002793	-0.031830	NaN	0.000000	0.001730	0.001714	28.0811	0.128037	0.000800	160.125	140.286	-155.698	0.010113	0.000995	-1.107694	-1.109011	-0.031830	160.125	-1.107545	-6.329013E+14	5.029278E-17	NaN
288	1.000000	0.044281	7.36787e+06	-53039.1	955.818	-29747.8	0.000000	0.000000	6.044760	-0.067930	NaN	0.000000	0.001743	0.001661	28.0803	0.087792	0.001820	48.2404	159.461	15.3911	-0.019416	0.042950	-1.065725	-1.067056	-0.067930	48.2404	-1.064669	-1.680996E+14	4.041058E-16	NaN
288	1.000000	0.086259	7.36787e+06	-53039.1	955.819	-29747.8	0.000000	0.000000	6.086740	-0.019397	NaN	0.000000	0.001724	0.001640	28.0791	0.141826	0.001998	70.969	-93.0065	-164.569	-0.001553	0.084977	-1.023747	-1.025029	-0.019397	70.969	-1.023542	-4.705559E+13	4.122248E-16	NaN
288	1.000000	0.128326	7.36787e+06	-53039.1	955.82	-29747.8	0.000000	0.000000	6.128807	-0.038742	NaN	0.000000	0.001679	0.001663	28.0791	0.134260	0.002012	66.722	155.479	16.0183	0.045845	0.126935	-0.981680	-0.983071	-0.038742	66.722	-0.981245	-1.268171E+13	3.054966E-15	NaN
288	1.000000	0.170318	7.36787e+06	-53039.1	955.819	-29747.8	0.000000	0.000000	6.170797	-0.060856	NaN	0.000000	0.001652	0.001685	28.0793	0.069587	0.001994	34.9063	-126.177	-163.7	0.003784	0.168976	-0.939688	-0.941030	-0.060856	34.9063	-0.938381	-3.351892E+12	1.815581E-14	NaN
288	1.000000	0.212350	7.36787e+06	-53039.1	955.818	-29747.8	0.000000	0.000000	6.212831	-0.024777	NaN	0.000000	0.001633	0.001711	28.0805	0.063708	0.002017	31.58	-138.35	12.5482	-0.007533	0.210974	-0.897656	-0.899033	-0.024777	31.58	-0.897067	-9.277628E+11	2.670573E-14	NaN
288	1.000000	0.254363	7.36787e+06	-53039.1	955.819	-29747.8	0.000000	0.000000	6.254843	-0.044138	NaN	0.000000	0.001648	0.001681	28.0807	0.082846	0.001992	41.589	79.0108	-161.337	-0.031729	0.253052	-0.855644	-0.856954	-0.044138	41.589	-0.854848	-2.491008E+11	1.771886E-13	NaN
288	1.000000	0.296368	7.36787e+06	-53039.1	955.818	-29747.8	0.000000	0.000000	6.296849	-0.024196	NaN	0.000000	0.001611	0.001676	28.0801	0.059743	0.001894	31.5404	31.9282	12.4012	-0.005691	0.295026	-0.813639	-0.814980	-0.024196	31.5404	-0.813063	-6.762832E+10	3.577860E-13	NaN
288	1.000000	0.338407	7.36787e+06	-53039.1	955.818	-29747.8	0.000000	0.000000	6.338888	-0.034804	NaN	0.000000	0.001611	0.001673	28.0788	0.039312	0.002071	18.9864	75.5596	-163.395	0.079259	0.337101	-0.771599	-0.772905	-0.034804	18.9864	-0.770224	-1.771555E+10	1.964615E-12	NaN
288	1.000000	0.380449	7.36787e+06	-53039.1	955.818	-29747.8	0.000000	0.000000	6.380927	-0.113834	NaN	0.000000	0.001616	0.001659	28.0792	0.095999	0.001931	49.719	-151.052	13.5296	-0.060214	0.379010	-0.729557	-0.730996	-0.113834	49.719	-0.727840	-4.692073E+9	2.426100E-11	NaN
288	1.000000	0.422432	7.36787e+06	-53039.1	955.818	-29747.8	0.000000	0.000000	6.422912	-0.044071	NaN	0.000000	0.001601	0.001646	28.079	0.025014	0.002012	12.4355	-155.687	-162.601	-0.024690	0.421175	-0.687574	-0.688831	-0.044071	12.4355	-0.684916	-1.217388E+9	3.620147E-11	NaN
288	1.000000	0.464463	7.36787e+06	-53039.1	955.819	-29747.8	0.000000	0.000000	6.464943	-0.036278	NaN	0.000000	0.001646	0.001624	28.0793	0.048906	0.002038	24.0007	49.7369	12.7937	0.003212	0.463063	-0.645544	-0.646944	-0.036278	24.0007	-0.644410	-3.394582E+8	1.068692E-10	NaN
288	1.000000	0.506441	7.36787e+06	-53039.1	955.819	-29747.8	0.000000	0.000000	6.506924	0.033994	NaN	0.000000	0.001613	0.001686	28.0803	0.012839	0.001950	6.584938	-143.879	-164.947	0.046501	0.505176	-0.603565	-0.604830	0.033994	6.584938	-0.607437	-1.054020E+8	-3.225213E-10	NaN
288	1.000000	0.548489	7.36787e+06	-53039.1	955.818	-29747.8	0.000000	0.000000	6.548973	0.055940	NaN	0.000000	0.001732	0.001648	28.0803	0.039444	0.002050	19.2372	94.6498	19.7543	0.041786	0.547117	-0.561517	-0.562889	0.055940	19.2372	-0.563698	-2.627411E+7	-2.129085E-9	NaN
288	1.000000	0.590484	7.36787e+06	-53039.1	955.818	-29747.8	0.000000	0.000000	6.590966	-0.009940	NaN	0.000000	0.001664	0.001664	28.0802	0.083123	0.001923	43.2188	-28.8355	-166.91	0.009668	0.589239	-0.519522	-0.520767	-0.009940	43.2188	-0.519350	-6.37603e+06	1.558924E-9	NaN
288	1.000000	0.632477	7.36787e+06	-53039.1	955.819	-29747.8	0.000000	0.000000	6.632957	-0.061279	NaN	0.000000	0.001618	0.001706	28.0792	0.044357	0.001957	22.6634	134.875	16.9093	-0.058770	0.631223	-0.477529	-0.478783	-0.061279	22.6634	-0.475501	-1.55784e+06	3.933603E-8	NaN
288	1.000000	0.674554	7.36787e+06	-53039.1	955.819	-29747.8	0.000000	0.000000	6.675036	-0.009899	NaN	0.000000	0.001698	0.001656	28.0791	0.086679	0.002015	43.0183	-127.614	-161.172	0.025497	0.673205	-0.435452	-0.436801	-0.009899	43.0183	-0.435280	-423354	2.338173E-8	NaN
288	1.000000	0.716556	7.36787e+06	-53039.1	955.819	-29747.8	0.000000	0.000000	6.717036	-0.056625	NaN	0.000000	0.001604	0.001645	28.0793	0.044303	0.002027	21.8581	81.9631	13.5499	-0.108200	0.715187	-0.393450	-0.394819	-0.056625	21.8581	-0.391507	-101093	5.601271E-7	NaN
288	1.000000	0.758572	7.36787e+06	-53039.1	955.818	-29747.8	0.000000	0.000000	6.759051	-0.077621	NaN	0.000000	0.001661	0.001655	28.0802	0.026401	0.002017	13.0871	59.3351	-163.921	-0.083634	0.757230	-0.351434	-0.352776	-0.077621	13.0871	-0.346986	-23079.3	3.363230E-6	NaN
288	1.000000	0.800585	7.36787e+06	-53039.1	955.817	-29747.8	0.000000	0.000000	6.801065	-0.059368	NaN	0.000000	0.001624	0.001697	28.0801	0.064609	0.001963	32.9138	14.6786	16.2866	0.046750	0.799201	-0.309421	-0.310805	-0.059368	32.9138	-0.308068	-6200.84	9.574233E-6	NaN
288	1.000000	0.842609	7.36788e+06	-53039.1	955.818	-29747.8	0.000000	0.000000	6.843092	0.010464	NaN	0.000000	0.001680	0.001694	28.0803	0.115132	0.002034	56.5917	-63.6391	-164.351	0.003546	0.841372	-0.267397	-0.268634	0.010464	56.5917	-0.267536	-1527.73	-6.849517E-6	NaN
288	1.000000	0.884611	7.36788e+06	-53039.1	955.819	-29747.8	0.000000	0.000000	6.885093	0.005802	NaN	0.000000	0.001714	0.001675	28.0788	0.022930	0.001878	12.2098	-94.867	16.0988	-0.094698	0.883277	-0.225395	-0.226729	0.005802	12.2098	-0.225752	-342.979	-1.691640E-5	NaN
288	1.000000	0.926619	7.36788e+06	-53039.1	955.818	-29747.8	0.000000	0.000000	6.927101	-0.018877	NaN	0.000000	0.001706	0.001709	28.0789	0.100650	0.002014	49.9795	-101.511	-163.624	-0.077334	0.925319	-0.183387	-0.184687	-0.018877	49.9795	-0.183104	-68.8832	0.000274	NaN
288	1.000000	0.968667	7.36788e+06	-53039.1	955.819	-29747.8	0.000000	0.000000	6.969150	0.035299	NaN	0.000000	0.001690	0.001655	28.079	0.185303	0.001996	92.8215	-63.2598	16.6784	-0.045426	0.967219	-0.141340	-0.142788	0.035299	92.8215	-0.141625	-12.6886	-0.002782	NaN
288	1.000000	1.010657	7.36788e+06	-53039.1	955.82	-29747.8	0.000000	0.000000	7.011139	0.010982	NaN	0.000000	0.001701	0.001707	28.0788	0.128577	0.001922	66.8999	170.437	-162.846	0.044769	1.009324	-0.099349	-0.100683	0.010982	66.8999	-0.099472	-1.778534	-0.006175	NaN
288	1.000000	1.052709	7.36788e+06	-53039.1	955.819	-29747.8	0.000000	0.000000	7.053190	-0.037220	NaN	0.000000	0.001721	0.001686	28.0801	0.037592	0.002183	17.221	109.529	18.3872	0.007508	1.051324	-0.057297	-0.058682	-0.037220	17.221	-0.055676	-0.134831	0.276048	NaN
288	1.000000	1.094672	7.36788e+06	-53039.1	955.819	-29747.8	0.000000	0.000000	7.095152	-0.038653	NaN	0.000000	0.001700	0.001699	28.0803	0.077116	0.001878	41.0559	-63.6715	-160.337	-0.021631	1.093401	-0.015334	-0.016605	-0.038653	41.0559	-0.014628	-0.009054	4.269367	NaN
288	2.000000	1.123714	7.36788e+06	-53039.1	955.819	-29747.8	0.000000	0.000000	7.124871	16.4238	NaN	0.000000	0.001666	0.001642	28.0803	13.5546	0.001767	7669.22	5.979799	6.644961	15.9407	1.123338	0.013708	0.013332	16.4238	7669.22	0.012102	0.011612	1414.39	65023.8
288	2.000000	1.134141	7.36788e+06	-53039.1	955.819	-29747.8	0.000000	0.000000	7.136050	34.6939	NaN	0.000000	0.001669	0.001666	28.0788	23.7156	0.001795	13210.3	8.211538	-179.281	34.9753	1.133920	0.024134	0.023913	34.6939	13210.3	0.022165	0.026059	1331.38	74767
288	2.000000	1.144644	7.36788e+06	-53039.1	955.818	-29747.8	0.000000	0.000000	7.147856	66.3718	NaN	0.000000	0.001694	0.001702	28.079	34.257	0.001796	19072	7.563722	-2.288952	65.9048	1.144257	0.034638	0.034251	66.3718	19072	0.032028	0.045052	1473.24	82094.3
288	2.000000	1.155095	7.36788e+06	-53039.1	955.819	-29747.8	0.000000	0.000000	7.159958	106.529	NaN	0.000000	0.001661	0.001708	28.0789	42.3896	0.001710	24791.3	3.272609	-179.733	104.529	1.154719	0.045088	0.044712	106.529	24791.3	0.041866	0.068938	1545.28	86266.4
288	2.000000	1.165610	7.36788e+06	-53039.1	955.818	-29747.8	0.000000	0.000000	7.172538	156.733	NaN	0.000000	0.001631	0.001652	28.0802	54.2517	0.001925	28181.5	5.819893	-4.311846	152.674	1.165302	0.055604	0.055295	156.733	28181.5	0.051433	0.096893	1617.59	82716.5
288	2.000000	1.176133	7.36788e+06	-53039.1	955.82	-29747.8	0.000000	0.000000	7.185285	210.814	NaN	0.000000	0.001701	0.001654	28.08	64.7193	0.001908	33912.9	5.086531	176.027	209.462	1.175797	0.066126	0.065791	210.814	33912.9	0.061464	0.131111	1607.9	85569.5
288	2.000000	1.186578	7.36788e+06	-53039.1	955.819	-29747.8	0.000000	0.000000	7.198527	278.79	NaN	0.000000	0.001676	0.001644	28.0807	71.7436	0.001704	42098	3.192707	-4.652760	277.043	1.186288	0.076572	0.076282	278.79	42098	0.071605	0.170679	1633.42	93099.1
288	2.000000	1.197012	7.36788e+06	-53039.1	955.819	-29747.8	0.000000	0.000000	7.211860	349.285	NaN	0.000000	0.001602	0.001673	28.0793	82.7973	0.001856	44620.7	2.714209	175.914	345.009	1.196684	0.087006	0.086678	349.285	44620.7	0.081135	0.212308	1645.18	88476.2
288	2.000000	1.207511	7.36788e+06	-53039.1	955.819	-29747.8	0.000000	0.000000	7.225698	430.471	NaN	0.000000	0.001651	0.001655	28.0795	92.7573	0.001718	54006.6	6.945250	-10.0771	424.572	1.207185	0.097505	0.097179	430.471	54006.6	0.091527	0.262518	1639.78	96303.1
288	2.000000	1.217998	7.36788e+06	-53039.1	955.82	-29747.8	0.000000	0.000000	7.239775	517.744	NaN	0.000000	0.001668	0.001690	28.0791	102.533	0.001806	56763.4	7.237416	169.67	514.627	1.217615	0.107992	0.107609	517.744	56763.4	0.101151	0.313429	1651.87	92634.3