File: remote_trans/data/nanoindenter/0828-1/data/Data_2025-08-06,11h17m57s/2025-07-22_16-23-58_1_277.txt
2025-07-22, 16:23:58, 1
Index	Phase	Displacement	Time	Pos X	Pos Y	Pos Z	Rot A	Rot B	Piezo Z	Force A	Force B	Gripper	Voltage A	Voltage B	Temperature	Amplitude force	Amplitude pos	Stiffness	Phase shift	Phase excitation	Force A raw	Displacement raw	HMax	HMax raw	Real Force	Real Stiffness	Contact Depth	Area	Hardness	Reduced Mod.
[#]	[#]	[um]	[s]	[um]	[um]	[um]	[m°]	[m°]	[um]	[uN]	[uN]	[V]	[V]	[V]	[°C]	[uN]	[um]	[N/m]	[°]	[°]	[uN]	[um]	[um]	[um]	[uN]	[N/m]	[um]	[um^2]	[MPa]	[MPa]
277	1.000000	0.003194	7.36776e+06	-52489.1	955.819	-29749.4	0.000000	0.000000	6.002740	0.003977	NaN	0.000000	0.001589	0.001738	28.0789	0.061181	0.000933	65.547	-79.8989	171.925	0.044188	0.001951	-1.038089	-1.039332	0.003977	65.547	-1.038134	-7.393971E+13	-5.378071E-17	NaN
277	1.000000	0.043143	7.36776e+06	-52489.1	955.818	-29749.4	0.000000	0.000000	6.042689	0.025409	NaN	0.000000	0.001604	0.001733	28.0785	0.042717	0.001979	21.587	87.5863	175.756	0.014842	0.041811	-0.998140	-0.999472	0.025409	21.587	-0.999023	-2.200967E+13	-1.154442E-15	NaN
277	1.000000	0.083141	7.36776e+06	-52489.1	955.819	-29749.4	0.000000	0.000000	6.082686	-0.010198	NaN	0.000000	0.001625	0.001725	28.0786	0.049845	0.002072	24.0572	19.9836	176.969	0.061099	0.081841	-0.958142	-0.959442	-0.010198	24.0572	-0.957824	-6.131051E+12	1.663330E-15	NaN
277	1.000000	0.123152	7.36776e+06	-52489.1	955.818	-29749.4	0.000000	0.000000	6.122693	-0.095214	NaN	0.000000	0.001604	0.001730	28.0772	0.091195	0.001974	46.198	-33.6895	174.72	-0.116538	0.121851	-0.918132	-0.919432	-0.095214	46.198	-0.916586	-1.702571E+12	5.592346E-14	NaN
277	1.000000	0.163194	7.36776e+06	-52489.1	955.818	-29749.4	0.000000	0.000000	6.162735	-0.099424	NaN	0.000000	0.001596	0.001721	28.0775	0.104811	0.001885	55.5913	-108.667	175.63	-0.033635	0.161883	-0.878089	-0.879400	-0.099424	55.5913	-0.876748	-4.928592E+11	2.017289E-13	NaN
277	1.000000	0.203178	7.36777e+06	-52489.1	955.819	-29749.4	0.000000	0.000000	6.202723	-0.012506	NaN	0.000000	0.001545	0.001707	28.0773	0.177160	0.002081	85.1333	153.302	177.015	-0.039800	0.201881	-0.838105	-0.839402	-0.012506	85.1333	-0.837995	-1.472740E+11	8.491551E-14	NaN
277	1.000000	0.243223	7.36777e+06	-52489.1	955.818	-29749.4	0.000000	0.000000	6.242767	-0.022144	NaN	0.000000	0.001543	0.001739	28.0774	0.002982	0.001986	1.501133	-134.307	174.036	-0.095491	0.241887	-0.798060	-0.799396	-0.022144	1.501133	-0.786997	-2.994257E+10	7.395562E-13	NaN
277	1.000000	0.283235	7.36777e+06	-52489.1	955.818	-29749.4	0.000000	0.000000	6.282778	-0.049461	NaN	0.000000	0.001578	0.001753	28.0785	0.073853	0.001900	38.8723	-80.9966	174.795	0.020069	0.281877	-0.758049	-0.759406	-0.049461	38.8723	-0.757094	-1.174273E+10	4.212031E-12	NaN
277	1.000000	0.323234	7.36777e+06	-52489.1	955.818	-29749.4	0.000000	0.000000	6.322777	-0.039779	NaN	0.000000	0.001604	0.001745	28.0788	0.057669	0.002096	27.5194	-108.718	177.257	0.003370	0.321917	-0.718049	-0.719367	-0.039779	27.5194	-0.716965	-3.334883E+9	1.192817E-11	NaN
277	1.000000	0.363283	7.36777e+06	-52489.1	955.818	-29749.4	0.000000	0.000000	6.362828	-0.005370	NaN	0.000000	0.001574	0.001721	28.0785	0.067318	0.002072	32.4951	174.203	177.09	-0.085684	0.361954	-0.678001	-0.679329	-0.005370	32.4951	-0.677877	-9.753555E+8	5.505766E-12	NaN
277	1.000000	0.403305	7.36777e+06	-52489.1	955.819	-29749.4	0.000000	0.000000	6.402846	-0.090990	NaN	0.000000	0.001569	0.001720	28.0774	0.075496	0.001815	41.5919	177.469	176.872	-0.053210	0.401959	-0.637978	-0.639325	-0.090990	41.5919	-0.636338	-2.630458E+8	3.459096E-10	NaN
277	1.000000	0.443285	7.36777e+06	-52489.1	955.819	-29749.4	0.000000	0.000000	6.442830	-0.006318	NaN	0.000000	0.001580	0.001717	28.0772	0.115169	0.002007	57.3975	-166.936	177.999	-0.010451	0.441997	-0.597998	-0.599286	-0.006318	57.3975	-0.597916	-7.793885E+7	8.106167E-11	NaN
277	1.000000	0.483323	7.36777e+06	-52489.1	955.819	-29749.4	0.000000	0.000000	6.482863	-0.128999	NaN	0.000000	0.001569	0.001735	28.0772	0.196779	0.002035	96.7091	-7.615250	177.785	-0.054769	0.482033	-0.557960	-0.559251	-0.128999	96.7091	-0.556959	-2.119852E+7	6.085284E-9	NaN
277	1.000000	0.523369	7.36777e+06	-52489.1	955.818	-29749.4	0.000000	0.000000	6.522911	-0.069687	NaN	0.000000	0.001585	0.001724	28.0785	0.024437	0.002036	12.0025	83.2674	175.495	-0.106692	0.522014	-0.517914	-0.519269	-0.069687	12.0025	-0.513559	-5.29641e+06	1.315748E-8	NaN
277	1.000000	0.563342	7.36777e+06	-52489.1	955.818	-29749.4	0.000000	0.000000	6.562885	-0.044418	NaN	0.000000	0.001537	0.001743	28.0785	0.114258	0.002020	56.5624	-37.6378	176.393	-0.005339	0.562044	-0.477942	-0.479239	-0.044418	56.5624	-0.477353	-1.6537e+06	2.685954E-8	NaN
277	1.000000	0.603375	7.36777e+06	-52489.1	955.819	-29749.4	0.000000	0.000000	6.602919	-0.027956	NaN	0.000000	0.001514	0.001731	28.0787	0.107583	0.002035	52.8721	-146.683	176.978	-0.027743	0.602069	-0.437908	-0.439214	-0.027956	52.8721	-0.437511	-455228	6.141062E-8	NaN
277	1.000000	0.643380	7.36777e+06	-52489.1	955.819	-29749.4	0.000000	0.000000	6.642924	-0.043473	NaN	0.000000	0.001584	0.001769	28.0785	0.109576	0.002143	51.1307	0.520434	176.518	0.019309	0.642042	-0.397903	-0.399241	-0.043473	51.1307	-0.397265	-122173	3.558313E-7	NaN
277	1.000000	0.683437	7.36777e+06	-52489.1	955.819	-29749.4	0.000000	0.000000	6.682980	-0.048432	NaN	0.000000	0.001561	0.001751	28.0772	0.019640	0.001910	10.284	109.404	173.182	-0.026221	0.682060	-0.357846	-0.359223	-0.048432	10.284	-0.354314	-29482.1	1.642758E-6	NaN
277	1.000000	0.723407	7.36777e+06	-52489.1	955.818	-29749.4	0.000000	0.000000	6.722950	-0.055951	NaN	0.000000	0.001567	0.001722	28.0772	0.061442	0.001916	32.0743	140.532	174.712	-0.028370	0.722080	-0.317876	-0.319203	-0.055951	32.0743	-0.316568	-8280.91	6.756670E-6	NaN
277	1.000000	0.763420	7.36777e+06	-52489.1	955.818	-29749.4	0.000000	0.000000	6.762962	-0.069558	NaN	0.000000	0.001563	0.001689	28.0772	0.036714	0.002074	17.7017	-83.3669	172.976	-0.065226	0.762143	-0.277863	-0.279140	-0.069558	17.7017	-0.274916	-1977.55	3.517357E-5	NaN
277	1.000000	0.803437	7.36777e+06	-52489.1	955.818	-29749.4	0.000000	0.000000	6.802982	-0.001174	NaN	0.000000	0.001577	0.001688	28.0783	0.073232	0.001972	37.1311	98.4689	174.1	0.010891	0.802143	-0.237846	-0.239140	-0.001174	37.1311	-0.237822	-531.493	2.208298E-6	NaN
277	1.000000	0.843481	7.36777e+06	-52489.1	955.819	-29749.4	0.000000	0.000000	6.843027	0.022152	NaN	0.000000	0.001593	0.001737	28.0783	0.027513	0.001860	14.7893	141.943	171.112	0.023695	0.842114	-0.197803	-0.199169	0.022152	14.7893	-0.198926	-126.483	-0.000175	NaN
277	1.000000	0.883502	7.36777e+06	-52489.1	955.818	-29749.4	0.000000	0.000000	6.883047	-0.017650	NaN	0.000000	0.001580	0.001751	28.0782	0.126952	0.001979	64.1415	-15.4374	174.007	0.006919	0.882158	-0.157781	-0.159125	-0.017650	64.1415	-0.157574	-24.8173	0.000711	NaN
277	1.000000	0.923475	7.36777e+06	-52489.1	955.818	-29749.4	0.000000	0.000000	6.923020	-0.005704	NaN	0.000000	0.001562	0.001737	28.0785	0.129432	0.001968	65.7612	-159.092	176.299	-0.072496	0.922239	-0.117808	-0.119044	-0.005704	65.7612	-0.117743	-4.348262	0.001312	NaN
277	1.000000	0.963512	7.36777e+06	-52489.1	955.817	-29749.4	0.000000	0.000000	6.963057	-0.016578	NaN	0.000000	0.001562	0.001735	28.0772	0.116998	0.002000	58.5091	150.171	173.981	-0.004086	0.962181	-0.077771	-0.079102	-0.016578	58.5091	-0.077558	-0.537192	0.030860	NaN
277	1.000000	1.003538	7.36777e+06	-52489.1	955.819	-29749.4	0.000000	0.000000	7.003081	-0.050035	NaN	0.000000	0.001571	0.001726	28.0771	0.093285	0.002002	46.591	71.2439	176.137	-0.034292	1.002209	-0.037745	-0.039074	-0.050035	46.591	-0.036939	-0.036564	1.368443	NaN
277	1.000000	1.043542	7.36777e+06	-52489.1	955.816	-29749.4	0.000000	0.000000	7.043121	0.820276	NaN	0.000000	0.001626	0.001730	28.0769	1.328025	0.001950	681.115	5.720199	179.317	0.140050	1.042224	0.002259	0.000941	0.820276	681.115	0.001356	0.001040	788.404	19292.5
277	2.000000	1.059097	7.36777e+06	-52489.1	955.818	-29749.4	0.000000	0.000000	7.059514	21.2039	NaN	0.000000	0.001610	0.001745	28.0783	18.8134	0.001835	10254.7	6.157277	163.154	19.9628	1.058828	0.017814	0.017545	21.2039	10254.7	0.016263	0.017007	1246.77	71842.4
277	2.000000	1.069075	7.36777e+06	-52489.1	955.817	-29749.4	0.000000	0.000000	7.070547	46.8569	NaN	0.000000	0.001590	0.001710	28.0785	29.7489	0.001924	15464.4	6.624491	160.317	46.9854	1.068800	0.027792	0.027517	46.8569	15464.4	0.025519	0.031967	1465.79	79023.4
277	2.000000	1.079045	7.36777e+06	-52489.1	955.818	-29749.4	0.000000	0.000000	7.081760	77.0625	NaN	0.000000	0.001612	0.001715	28.0783	37.7346	0.001818	20750.8	2.404419	162.235	75.5434	1.078684	0.037762	0.037401	77.0625	20750.8	0.034977	0.051691	1490.82	83386.9
277	2.000000	1.088936	7.36777e+06	-52489.1	955.818	-29749.4	0.000000	0.000000	7.093352	118.414	NaN	0.000000	0.001576	0.001715	28.0769	46.8284	0.001814	25811.1	-0.960274	163.629	113.639	1.088619	0.047653	0.047336	118.414	25811.1	0.044213	0.075368	1571.15	85898.7
277	2.000000	1.098931	7.36777e+06	-52489.1	955.818	-29749.4	0.000000	0.000000	7.104905	156.31	NaN	0.000000	0.001618	0.001709	28.0771	55.9783	0.001783	31395.6	5.333909	155.688	151.986	1.098684	0.057648	0.057400	156.31	31395.6	0.053914	0.104895	1490.16	88565.7
277	2.000000	1.109011	7.36777e+06	-52489.1	955.818	-29749.4	0.000000	0.000000	7.116934	203.71	NaN	0.000000	0.001581	0.001721	28.0771	65.6935	0.001888	34802.6	3.283745	156.798	203.483	1.108785	0.067728	0.067502	203.71	34802.6	0.063338	0.138048	1475.64	85579.4
277	2.000000	1.118893	7.36777e+06	-52489.1	955.817	-29749.4	0.000000	0.000000	7.129334	264.915	NaN	0.000000	0.001539	0.001695	28.0773	72.6649	0.001657	43857.4	2.355046	156.416	260.115	1.118589	0.077610	0.077305	264.915	43857.4	0.073080	0.176842	1498.04	95284.9
277	2.000000	1.128951	7.36777e+06	-52489.1	955.819	-29749.4	0.000000	0.000000	7.141754	322.357	NaN	0.000000	0.001524	0.001706	28.0782	83.8326	0.001743	48094.4	6.814110	150.788	319.554	1.128630	0.087667	0.087347	322.357	48094.4	0.082640	0.219275	1470.11	93836.9
277	2.000000	1.138960	7.36777e+06	-52489.1	955.819	-29749.4	0.000000	0.000000	7.154533	389.706	NaN	0.000000	0.001605	0.001718	28.0784	92.4855	0.001870	49463.1	6.714107	152.191	388.775	1.138531	0.097677	0.097248	389.706	49463.1	0.091768	0.263743	1477.6	87996.2
277	2.000000	1.148937	7.36777e+06	-52489.1	955.818	-29749.4	0.000000	0.000000	7.167419	460.437	NaN	0.000000	0.001545	0.001695	28.0789	101.679	0.001799	56515.1	4.144971	153.235	459.72	1.148521	0.107654	0.107238	460.437	56515.1	0.101544	0.315598	1458.93	91911.6
277	2.000000	1.149455	7.36777e+06	-52489.1	955.819	-29749.4	0.000000	0.000000	7.167966	461.125	NaN	0.000000	0.001555	0.001701	28.0788	102.074	0.001843	55373.1	4.562526	-27.2681	459.768	1.149084	0.108172	0.107801	461.125	55373.1	0.101927	0.317717	1451.37	89753.7