File: remote_trans/data/nanoindenter/0828-1/data/Data_2025-08-06,11h17m57s/2025-07-22_16-23-58_1_641.txt
2025-07-22, 16:23:58, 1
Index	Phase	Displacement	Time	Pos X	Pos Y	Pos Z	Rot A	Rot B	Piezo Z	Force A	Force B	Gripper	Voltage A	Voltage B	Temperature	Amplitude force	Amplitude pos	Stiffness	Phase shift	Phase excitation	Force A raw	Displacement raw	HMax	HMax raw	Real Force	Real Stiffness	Contact Depth	Area	Hardness	Reduced Mod.
[#]	[#]	[um]	[s]	[um]	[um]	[um]	[m°]	[m°]	[um]	[uN]	[uN]	[V]	[V]	[V]	[°C]	[uN]	[um]	[N/m]	[°]	[°]	[uN]	[um]	[um]	[um]	[uN]	[N/m]	[um]	[um^2]	[MPa]	[MPa]
641	1.000000	0.002564	7.37132e+06	-45039.1	1005.82	-29773.8	0.000000	0.000000	6.002782	0.092681	NaN	0.000000	0.001661	0.001698	28.0819	0.068468	0.000832	82.3191	173.562	-168.907	0.070035	0.001331	-0.919564	-0.920797	0.092681	82.3191	-0.920409	-1.917450E+12	-4.833538E-14	NaN
641	1.000000	0.038561	7.37132e+06	-45039.1	1005.82	-29773.8	0.000000	0.000000	6.038778	0.064258	NaN	0.000000	0.001648	0.001758	28.0831	0.089848	0.001972	45.5509	-159.937	-165.487	0.084806	0.037194	-0.883567	-0.884933	0.064258	45.5509	-0.884625	-6.298620E+11	-1.020188E-13	NaN
641	1.000000	0.074538	7.37132e+06	-45039.1	1005.82	-29773.8	0.000000	0.000000	6.074752	0.007881	NaN	0.000000	0.001662	0.001709	28.0832	0.062516	0.001998	31.2831	44.1459	-166.074	-0.031314	0.073243	-0.847590	-0.848885	0.007881	31.2831	-0.847779	-1.998303E+11	-3.943622E-14	NaN
641	1.000000	0.110545	7.37132e+06	-45039.1	1005.82	-29773.8	0.000000	0.000000	6.110760	0.011563	NaN	0.000000	0.001664	0.001781	28.0828	0.097964	0.001975	49.5991	-26.3767	-165.294	-0.027683	0.109248	-0.811583	-0.812880	0.011563	49.5991	-0.811758	-6.492619E+10	-1.781015E-13	NaN
641	1.000000	0.146584	7.37132e+06	-45039.1	1005.82	-29773.8	0.000000	0.000000	6.146798	-0.006482	NaN	0.000000	0.001670	0.001773	28.083	0.107612	0.002034	52.8942	-88.848	-164.676	0.076025	0.145268	-0.775544	-0.776859	-0.006482	52.8942	-0.775452	-2.086498E+10	3.106600E-13	NaN
641	1.000000	0.182623	7.37132e+06	-45039.1	1005.82	-29773.8	0.000000	0.000000	6.182839	0.043680	NaN	0.000000	0.001686	0.001742	28.0819	0.077119	0.002031	37.9755	-50.859	-164.18	0.051487	0.181282	-0.739505	-0.740846	0.043680	37.9755	-0.740367	-6.951202E+9	-6.283803E-12	NaN
641	1.000000	0.218588	7.37132e+06	-45039.1	1005.82	-29773.8	0.000000	0.000000	6.218801	-0.025650	NaN	0.000000	0.001666	0.001717	28.0818	0.027522	0.001950	14.1102	-179.075	-164.243	-0.018354	0.217307	-0.703540	-0.704821	-0.025650	14.1102	-0.702177	-2.095338E+9	1.224170E-11	NaN
641	1.000000	0.254621	7.37132e+06	-45039.1	1005.82	-29773.8	0.000000	0.000000	6.254835	-0.002660	NaN	0.000000	0.001633	0.001703	28.0818	0.059182	0.002033	29.1167	106.254	-163.717	-0.045960	0.253293	-0.667507	-0.668835	-0.002660	29.1167	-0.667439	-7.019926E+8	3.789594E-12	NaN
641	1.000000	0.290597	7.37132e+06	-45039.1	1005.82	-29773.8	0.000000	0.000000	6.290810	-0.029819	NaN	0.000000	0.001659	0.001739	28.0814	0.140073	0.001919	72.9769	6.911344	-164.612	-0.042883	0.289278	-0.631531	-0.632849	-0.029819	72.9769	-0.631225	-2.237902E+8	1.332462E-10	NaN
641	1.000000	0.326666	7.37132e+06	-45039.1	1005.82	-29773.8	0.000000	0.000000	6.326880	0.000363	NaN	0.000000	0.001620	0.001709	28.083	0.080789	0.001852	43.6138	88.1958	-161.722	-0.005947	0.325336	-0.595462	-0.596792	0.000363	43.6138	-0.595468	-7.211561E+7	-5.030200E-12	NaN
641	1.000000	0.362670	7.37132e+06	-45039.1	1005.82	-29773.8	0.000000	0.000000	6.362883	-0.016059	NaN	0.000000	0.001672	0.001667	28.0831	0.086527	0.002030	42.6238	71.5391	-162.478	0.042736	0.361392	-0.559458	-0.560736	-0.016059	42.6238	-0.559176	-2.274953E+7	7.059005E-10	NaN
641	1.000000	0.398650	7.37132e+06	-45039.1	1005.82	-29773.8	0.000000	0.000000	6.398865	0.004789	NaN	0.000000	0.001707	0.001715	28.0832	0.017780	0.002071	8.583249	-91.9173	-164.897	0.037566	0.397357	-0.523478	-0.524771	0.004789	8.583249	-0.523896	-7.37514e+06	-6.493787E-10	NaN
641	1.000000	0.434703	7.37132e+06	-45039.1	1005.82	-29773.8	0.000000	0.000000	6.434922	0.103272	NaN	0.000000	0.001715	0.001684	28.0831	0.092903	0.001900	48.9076	-171.184	-167.168	0.144811	0.433403	-0.487425	-0.488725	0.103272	48.9076	-0.489008	-2.40731e+06	-4.289923E-8	NaN
641	1.000000	0.470732	7.37132e+06	-45039.1	1005.82	-29773.8	0.000000	0.000000	6.470945	-0.033356	NaN	0.000000	0.001647	0.001725	28.0824	0.028282	0.002039	13.8681	135.934	-167.489	-0.061878	0.469457	-0.451396	-0.452671	-0.033356	13.8681	-0.449592	-673906	4.949625E-8	NaN
641	1.000000	0.506719	7.37132e+06	-45039.1	1005.82	-29773.8	0.000000	0.000000	6.506932	-0.032099	NaN	0.000000	0.001679	0.001765	28.0822	0.101832	0.002022	50.3552	-101.094	-162.686	0.040802	0.505414	-0.415409	-0.416714	-0.032099	50.3552	-0.414931	-218009	1.472350E-7	NaN
641	1.000000	0.542739	7.37132e+06	-45039.1	1005.82	-29773.8	0.000000	0.000000	6.542954	0.028547	NaN	0.000000	0.001676	0.001726	28.0818	0.115067	0.001836	62.6603	-124.003	-168.548	0.016517	0.541481	-0.379389	-0.380647	0.028547	62.6603	-0.379731	-68552.7	-4.164177E-7	NaN
641	1.000000	0.578762	7.37132e+06	-45039.1	1005.82	-29773.8	0.000000	0.000000	6.578976	-0.016110	NaN	0.000000	0.001652	0.001755	28.0831	0.109814	0.002018	54.412	109.884	-165.306	-0.115416	0.577427	-0.343366	-0.344700	-0.016110	54.412	-0.343144	-20293	7.938796E-7	NaN
641	1.000000	0.614779	7.37132e+06	-45039.1	1005.82	-29773.8	0.000000	0.000000	6.614995	0.045805	NaN	0.000000	0.001636	0.001736	28.0834	0.096446	0.002149	44.8693	-83.5198	-164.131	0.093062	0.613446	-0.307349	-0.308682	0.045805	44.8693	-0.308115	-6210.74	-7.375154E-6	NaN
641	1.000000	0.650813	7.37132e+06	-45039.1	1005.82	-29773.8	0.000000	0.000000	6.651027	0.001540	NaN	0.000000	0.001672	0.001749	28.083	0.058056	0.001990	29.1756	178.123	-167.073	0.001342	0.649530	-0.271315	-0.272598	0.001540	29.1756	-0.271355	-1746.34	-8.821002E-7	NaN
641	1.000000	0.686810	7.37132e+06	-45039.1	1005.82	-29773.8	0.000000	0.000000	6.687029	0.115241	NaN	0.000000	0.001646	0.001739	28.0827	0.066969	0.002062	32.4846	-54.3868	-163.997	0.047689	0.685488	-0.235318	-0.236640	0.115241	32.4846	-0.237979	-534.498	-0.000216	NaN
641	1.000000	0.722825	7.37132e+06	-45039.1	1005.82	-29773.8	0.000000	0.000000	6.723041	0.048044	NaN	0.000000	0.001654	0.001763	28.0817	0.015784	0.002074	7.608933	-59.4452	-165.011	0.094191	0.721507	-0.199303	-0.200621	0.048044	7.608933	-0.204039	-153.416	-0.000313	NaN
641	1.000000	0.758842	7.37132e+06	-45039.1	1005.82	-29773.8	0.000000	0.000000	6.759056	0.006741	NaN	0.000000	0.001672	0.001757	28.0818	0.063437	0.001905	33.3014	-174.766	-163.819	0.003861	0.757511	-0.163286	-0.164617	0.006741	33.3014	-0.163438	-31.5373	-0.000214	NaN
641	1.000000	0.794849	7.37132e+06	-45039.1	1005.82	-29773.8	0.000000	0.000000	6.795062	-0.022501	NaN	0.000000	0.001621	0.001706	28.0819	0.025513	0.001982	12.8753	58.3806	-165.158	0.036281	0.793533	-0.127279	-0.128595	-0.022501	12.8753	-0.125968	-6.355023	0.003541	NaN
641	1.000000	0.830857	7.37132e+06	-45039.1	1005.82	-29773.8	0.000000	0.000000	6.831072	0.019449	NaN	0.000000	0.001673	0.001745	28.0814	0.058724	0.001978	29.6896	138.915	-163.458	-0.050039	0.829518	-0.091271	-0.092610	0.019449	29.6896	-0.091762	-1.188374	-0.016366	NaN
641	1.000000	0.866885	7.37132e+06	-45039.1	1005.82	-29773.8	0.000000	0.000000	6.867099	-0.008257	NaN	0.000000	0.001679	0.001705	28.0827	0.033943	0.001925	17.6339	-20.7576	-168.793	0.051209	0.865576	-0.055243	-0.056552	-0.008257	17.6339	-0.054892	-0.127835	0.064592	NaN
641	1.000000	0.902891	7.37133e+06	-45039.1	1005.82	-29773.8	0.000000	0.000000	6.903104	-0.025388	NaN	0.000000	0.001660	0.001740	28.083	0.047563	0.002047	23.2323	75.1465	-167.623	0.036242	0.901530	-0.019237	-0.020598	-0.025388	23.2323	-0.018417	-0.011443	2.218608	NaN
641	2.000000	0.924436	7.37133e+06	-45039.1	1005.82	-29773.8	0.000000	0.000000	6.925923	30.9484	NaN	0.000000	0.001690	0.001683	28.0827	11.4245	0.001712	6672.62	1.273181	-169.167	29.7073	0.924134	0.002309	0.002007	30.9484	6672.62	-0.001170	-0.000855	-36192.1	NaN
641	2.000000	0.933446	7.37133e+06	-45039.1	1005.82	-29773.8	0.000000	0.000000	6.936782	75.9476	NaN	0.000000	0.001657	0.001732	28.0829	17.524	0.001954	8967.02	5.739012	-174.139	75.9573	0.933127	0.011318	0.010999	75.9476	8967.02	0.004966	0.004102	18513.2	127910
641	2.000000	0.942335	7.37133e+06	-45039.1	1005.82	-29773.8	0.000000	0.000000	6.947586	122.513	NaN	0.000000	0.001701	0.001692	28.0815	21.0813	0.001877	11232.5	2.631718	-173.783	120.978	0.942029	0.020207	0.019902	122.513	11232.5	0.012027	0.011523	10632.4	95603.3
641	2.000000	0.951345	7.37133e+06	-45039.1	1005.82	-29773.8	0.000000	0.000000	6.958553	170.132	NaN	0.000000	0.001701	0.001696	28.0814	25.1141	0.001922	13068.5	3.474716	-175.705	167.935	0.951075	0.029217	0.028947	170.132	13068.5	0.019453	0.021691	7843.6	81070.7
641	2.000000	0.960362	7.37133e+06	-45039.1	1005.82	-29773.8	0.000000	0.000000	6.969509	217.316	NaN	0.000000	0.001715	0.001748	28.0816	28.0841	0.001790	15688	2.687119	-176.793	216.333	0.960041	0.038234	0.037913	217.316	15688	0.027844	0.036394	5971.13	75131.8
641	2.000000	0.969333	7.37133e+06	-45039.1	1005.82	-29773.8	0.000000	0.000000	6.980205	259.266	NaN	0.000000	0.001705	0.001738	28.0816	30.8824	0.001943	15897.9	1.216553	-174.518	258.474	0.969005	0.047205	0.046877	259.266	15897.9	0.034974	0.051685	5016.28	63889.8
641	2.000000	0.978331	7.37133e+06	-45039.1	1005.82	-29773.8	0.000000	0.000000	6.990789	297.847	NaN	0.000000	0.001721	0.001751	28.0829	34.4014	0.001894	18158.7	2.773376	-177.263	296.008	0.978069	0.056203	0.055942	297.847	18158.7	0.043901	0.074499	3997.99	60783
641	2.000000	0.987319	7.37133e+06	-45039.1	1005.82	-29773.8	0.000000	0.000000	7.001482	339.346	NaN	0.000000	0.001692	0.001744	28.0829	37.218	0.001958	19008.6	3.255516	-177.969	337.186	0.986973	0.065191	0.064846	339.346	19008.6	0.051802	0.098063	3460.5	55458.9
641	2.000000	0.996354	7.37133e+06	-45039.1	1005.82	-29773.8	0.000000	0.000000	7.012141	378.835	NaN	0.000000	0.001702	0.001694	28.083	41.6619	0.001910	21810.5	2.324254	-178.885	379.262	0.995974	0.074227	0.073846	378.835	21810.5	0.061200	0.130145	2910.87	55236.5
641	2.000000	1.005271	7.37133e+06	-45039.1	1005.82	-29773.8	0.000000	0.000000	7.022953	424.945	NaN	0.000000	0.001720	0.001681	28.0815	44.7644	0.001964	22796.1	2.558730	-178.635	422.7	1.004987	0.083143	0.082859	424.945	22796.1	0.069162	0.160695	2644.42	51955.5
641	2.000000	1.014248	7.37133e+06	-45039.1	1005.82	-29773.8	0.000000	0.000000	7.033477	462.59	NaN	0.000000	0.001690	0.001686	28.0814	48.1443	0.001929	24959.9	5.962219	176.524	460.781	1.013988	0.092120	0.091860	462.59	24959.9	0.078220	0.199124	2323.13	51104
641	2.000000	1.018352	7.37133e+06	-45039.1	1005.82	-29773.8	0.000000	0.000000	7.038517	485.357	NaN	0.000000	0.001751	0.001663	28.0815	49.3545	0.002004	24623	3.704603	179.19	487.247	1.017986	0.096224	0.095858	485.357	24623	0.081440	0.213714	2271.06	48662.9