File: remote_trans/data/nanoindenter/0828-1/data/Data_2025-08-06,11h17m57s/2025-07-22_16-23-58_1_43.txt
2025-07-22, 16:23:58, 1
Index	Phase	Displacement	Time	Pos X	Pos Y	Pos Z	Rot A	Rot B	Piezo Z	Force A	Force B	Gripper	Voltage A	Voltage B	Temperature	Amplitude force	Amplitude pos	Stiffness	Phase shift	Phase excitation	Force A raw	Displacement raw	HMax	HMax raw	Real Force	Real Stiffness	Contact Depth	Area	Hardness	Reduced Mod.
[#]	[#]	[um]	[s]	[um]	[um]	[um]	[m°]	[m°]	[um]	[uN]	[uN]	[V]	[V]	[V]	[°C]	[uN]	[um]	[N/m]	[°]	[°]	[uN]	[um]	[um]	[um]	[uN]	[N/m]	[um]	[um^2]	[MPa]	[MPa]
43	1.000000	0.002580	7.36546e+06	-40789.1	955.818	-29789.2	0.000000	0.000000	6.002805	-0.018875	NaN	0.000000	0.001606	0.001713	28.1042	0.063153	0.000948	66.5926	54.6149	-158.036	-0.062461	0.001374	-1.135789	-1.136995	-0.018875	66.5926	-1.135577	-1.504584E+15	1.254488E-17	NaN
43	1.000000	0.044522	7.36546e+06	-40789.1	955.818	-29789.2	0.000000	0.000000	6.044746	-0.027567	NaN	0.000000	0.001626	0.001699	28.1306	0.135072	0.001993	67.7705	87.1762	16.1865	0.032303	0.043160	-1.093847	-1.095209	-0.027567	67.7705	-1.093542	-4.105517E+14	6.714691E-17	NaN
43	1.000000	0.086559	7.36546e+06	-40789.1	955.819	-29789.2	0.000000	0.000000	6.086783	-0.054993	NaN	0.000000	0.001595	0.001677	28.0946	0.146085	0.001975	73.9688	-178.977	-164.401	-0.058481	0.085191	-1.051810	-1.053178	-0.054993	73.9688	-1.051252	-1.109801E+14	4.955234E-16	NaN
43	1.000000	0.128548	7.36546e+06	-40789.1	955.818	-29789.2	0.000000	0.000000	6.128771	-0.069605	NaN	0.000000	0.001548	0.001704	28.0805	0.097171	0.002050	47.4099	34.752	16.7504	-0.043621	0.127226	-1.009821	-1.011143	-0.069605	47.4099	-1.008720	-2.972714E+13	2.341477E-15	NaN
43	1.000000	0.170566	7.36546e+06	-40789.1	955.819	-29789.2	0.000000	0.000000	6.170787	-0.090453	NaN	0.000000	0.001642	0.001672	28.1043	0.051693	0.001877	27.5455	28.6562	-167.371	-0.133857	0.169203	-0.967803	-0.969166	-0.090453	27.5455	-0.965341	-7.742188E+12	1.168310E-14	NaN
43	1.000000	0.212566	7.36546e+06	-40789.1	955.818	-29789.2	0.000000	0.000000	6.212790	-0.030427	NaN	0.000000	0.001626	0.001670	28.1297	0.036312	0.002100	17.2907	35.5697	14.3003	-0.026938	0.211251	-0.925803	-0.927118	-0.030427	17.2907	-0.924483	-2.176379E+12	1.398067E-14	NaN
43	1.000000	0.254595	7.36546e+06	-40789.1	955.818	-29789.2	0.000000	0.000000	6.254821	0.021954	NaN	0.000000	0.001673	0.001688	28.0932	0.067499	0.001896	35.5926	-159.364	-165.486	0.012775	0.253323	-0.883774	-0.885046	0.021954	35.5926	-0.884237	-6.223038E+11	-3.527807E-14	NaN
43	1.000000	0.296650	7.36546e+06	-40789.1	955.819	-29789.2	0.000000	0.000000	6.296873	-0.058655	NaN	0.000000	0.001584	0.001701	28.0799	0.057519	0.001922	29.9248	-57.2104	13.0133	-0.035770	0.295280	-0.841719	-0.843089	-0.058655	29.9248	-0.840249	-1.580023E+11	3.712282E-13	NaN
43	1.000000	0.338665	7.36546e+06	-40789.1	955.818	-29789.2	0.000000	0.000000	6.338889	-0.037565	NaN	0.000000	0.001602	0.001727	28.1036	0.020676	0.002022	10.2275	95.0411	-163.288	0.043780	0.337349	-0.799704	-0.801020	-0.037565	10.2275	-0.796949	-4.087385E+10	9.190358E-13	NaN
43	1.000000	0.380685	7.36547e+06	-40789.1	955.817	-29789.2	0.000000	0.000000	6.380913	0.044550	NaN	0.000000	0.001619	0.001720	28.131	0.097883	0.002011	48.6857	-4.702834	17.071	0.062232	0.379330	-0.757684	-0.759039	0.044550	48.6857	-0.758370	-1.222150E+10	-3.645254E-12	NaN
43	1.000000	0.422676	7.36547e+06	-40789.1	955.818	-29789.2	0.000000	0.000000	6.422903	0.034931	NaN	0.000000	0.001573	0.001719	28.0947	0.128563	0.002070	62.1189	108.958	-168.024	-0.051604	0.421414	-0.715693	-0.716955	0.034931	62.1189	-0.716115	-3.247007E+9	-1.075801E-11	NaN
43	1.000000	0.464699	7.36547e+06	-40789.1	955.818	-29789.2	0.000000	0.000000	6.464926	0.035795	NaN	0.000000	0.001615	0.001702	28.0779	0.037659	0.001982	18.9977	173.115	15.4608	0.113681	0.463321	-0.673670	-0.675048	0.035795	18.9977	-0.675083	-8.931911E+8	-4.007503E-11	NaN
43	1.000000	0.506720	7.36547e+06	-40789.1	955.818	-29789.2	0.000000	0.000000	6.506946	-0.000948	NaN	0.000000	0.001588	0.001677	28.1019	0.054751	0.001973	27.7509	-145.609	-169.176	-0.048086	0.505436	-0.631649	-0.632933	-0.000948	27.7509	-0.631623	-2.266263E+8	4.185220E-12	NaN
43	1.000000	0.548709	7.36547e+06	-40789.1	955.817	-29789.2	0.000000	0.000000	6.548934	-0.011488	NaN	0.000000	0.001581	0.001739	28.1313	0.046983	0.001933	24.3032	-149.664	15.6101	0.005724	0.547356	-0.589660	-0.591013	-0.011488	24.3032	-0.589305	-5.930424E+7	1.937206E-10	NaN
43	1.000000	0.590743	7.36547e+06	-40789.1	955.818	-29789.2	0.000000	0.000000	6.590969	0.011669	NaN	0.000000	0.001666	0.001724	28.0952	0.040701	0.001973	20.6336	113.068	-166.354	-0.035955	0.589452	-0.547626	-0.548917	0.011669	20.6336	-0.548050	-1.595689E+7	-7.312603E-10	NaN
43	1.000000	0.632762	7.36547e+06	-40789.1	955.818	-29789.2	0.000000	0.000000	6.632989	0.038917	NaN	0.000000	0.001690	0.001689	28.0818	0.131082	0.002027	64.659	-163.683	14.5024	0.038396	0.631417	-0.505607	-0.506952	0.038917	64.659	-0.506058	-4.16384e+06	-9.346400E-9	NaN
43	1.000000	0.674789	7.36547e+06	-40789.1	955.819	-29789.2	0.000000	0.000000	6.675015	-0.002519	NaN	0.000000	0.001624	0.001681	28.102	0.137148	0.002046	67.0475	-171.822	-165.831	-0.001559	0.673425	-0.463579	-0.464944	-0.002519	67.0475	-0.463551	-1.05903e+06	2.378511E-9	NaN
43	1.000000	0.716829	7.36547e+06	-40789.1	955.818	-29789.2	0.000000	0.000000	6.717053	-0.031248	NaN	0.000000	0.001621	0.001715	28.1325	0.087052	0.002024	43.0165	66.669	14.2552	0.040697	0.715500	-0.421540	-0.422869	-0.031248	43.0165	-0.420995	-265785	1.175673E-7	NaN
43	1.000000	0.758839	7.36547e+06	-40789.1	955.818	-29789.2	0.000000	0.000000	6.759065	-0.001428	NaN	0.000000	0.001628	0.001774	28.095	0.102589	0.002116	48.4937	-173.666	-165.301	-0.060149	0.757544	-0.379530	-0.380825	-0.001428	48.4937	-0.379508	-68049.2	2.098916E-8	NaN
43	1.000000	0.800842	7.36547e+06	-40789.1	955.818	-29789.2	0.000000	0.000000	6.801066	-0.035993	NaN	0.000000	0.001618	0.001768	28.0795	0.096419	0.001930	49.9593	-3.487966	13.7327	-0.035002	0.799482	-0.337527	-0.338887	-0.035993	49.9593	-0.336987	-16504.5	2.180833E-6	NaN
43	1.000000	0.842850	7.36547e+06	-40789.1	955.819	-29789.2	0.000000	0.000000	6.843074	-0.013472	NaN	0.000000	0.001594	0.001768	28.098	0.026314	0.001843	14.2789	25.0529	-166.825	0.075164	0.841559	-0.295519	-0.296810	-0.013472	14.2789	-0.294812	-3938.03	3.420911E-6	NaN
43	1.000000	0.884863	7.36547e+06	-40789.1	955.818	-29789.2	0.000000	0.000000	6.885089	0.019496	NaN	0.000000	0.001572	0.001681	28.1324	0.087326	0.001989	43.9017	21.9969	13.6041	-0.029113	0.883463	-0.253506	-0.254906	0.019496	43.9017	-0.253839	-942.408	-2.068739E-5	NaN
43	1.000000	0.926880	7.36547e+06	-40789.1	955.819	-29789.2	0.000000	0.000000	6.927106	0.011511	NaN	0.000000	0.001613	0.001767	28.0966	0.087163	0.001963	44.392	90.846	-163.81	0.051339	0.925604	-0.211489	-0.212765	0.011511	44.392	-0.211683	-204.194	-5.637151E-5	NaN
43	1.000000	0.968885	7.36547e+06	-40789.1	955.817	-29789.2	0.000000	0.000000	6.969109	-0.053125	NaN	0.000000	0.001594	0.001698	28.0814	0.010600	0.001938	5.469587	-150.609	13.1163	-0.007387	0.967566	-0.169484	-0.170803	-0.053125	5.469587	-0.162199	-29.9889	0.001771	NaN
43	1.000000	1.010925	7.36547e+06	-40789.1	955.817	-29789.2	0.000000	0.000000	7.011152	0.045417	NaN	0.000000	0.001630	0.001743	28.0978	0.074713	0.001919	38.9323	-72.968	-168.379	0.042970	1.009677	-0.127444	-0.128692	0.045417	38.9323	-0.128319	-7.067388	-0.006426	NaN
43	1.000000	1.052913	7.36547e+06	-40789.1	955.817	-29789.2	0.000000	0.000000	7.053139	0.028388	NaN	0.000000	0.001629	0.001723	28.1315	0.160279	0.001950	82.1943	-60.4809	9.667091	-0.012168	1.051512	-0.085456	-0.086857	0.028388	82.1943	-0.085715	-0.854972	-0.033204	NaN
43	1.000000	1.094971	7.36547e+06	-40789.1	955.817	-29789.2	0.000000	0.000000	7.095196	-0.031983	NaN	0.000000	0.001638	0.001696	28.0959	0.069487	0.001957	35.5147	-168.173	-164.764	0.054821	1.093627	-0.043398	-0.044742	-0.031983	35.5147	-0.042722	-0.054744	0.584236	NaN
43	1.000000	1.136992	7.36547e+06	-40789.1	955.817	-29789.2	0.000000	0.000000	7.137227	0.229143	NaN	0.000000	0.001626	0.001761	28.0818	0.343953	0.001984	173.346	23.0453	11.2232	0.273666	1.135560	-0.001377	-0.002809	0.229143	173.346	-0.002369	-0.001693	-135.332	NaN
43	2.000000	1.155384	7.36547e+06	-40789.1	955.818	-29789.2	0.000000	0.000000	7.156574	23.479	NaN	0.000000	0.001639	0.001734	28.098	18.5686	0.001690	10987.1	3.771232	-174.952	22.8804	1.155126	0.017015	0.016757	23.479	10987.1	0.015412	0.015839	1482.36	79761.7
43	2.000000	1.165862	7.36547e+06	-40789.1	955.818	-29789.2	0.000000	0.000000	7.168347	54.9709	NaN	0.000000	0.001662	0.001761	28.133	30.1798	0.001700	17752.4	5.667497	-2.173837	52.3349	1.165478	0.027493	0.027109	54.9709	17752.4	0.025171	0.031327	1754.74	91636.7
43	2.000000	1.176286	7.36547e+06	-40789.1	955.818	-29789.2	0.000000	0.000000	7.180178	89.2213	NaN	0.000000	0.001607	0.001750	28.097	39.9619	0.001863	21452.7	3.590074	179.437	86.1906	1.175993	0.037917	0.037624	89.2213	21452.7	0.034797	0.051275	1740.04	86556.8
43	2.000000	1.186748	7.36547e+06	-40789.1	955.818	-29789.2	0.000000	0.000000	7.192507	134.666	NaN	0.000000	0.001588	0.001762	28.082	49.1668	0.001709	28761	3.695932	-3.940135	128.979	1.186557	0.048379	0.048188	134.666	28761	0.044867	0.077210	1744.14	94566.9
43	2.000000	1.197310	7.36547e+06	-40789.1	955.817	-29789.2	0.000000	0.000000	7.205283	188.524	NaN	0.000000	0.001589	0.001776	28.0957	59.1511	0.001801	32842.1	1.622386	178.719	185.047	1.196997	0.058941	0.058628	188.524	32842.1	0.054636	0.107278	1757.34	91611.1
43	2.000000	1.207786	7.36547e+06	-40789.1	955.817	-29789.2	0.000000	0.000000	7.217894	240.474	NaN	0.000000	0.001599	0.001816	28.1306	69.3279	0.001724	40221.5	2.034853	-4.655987	238.576	1.207561	0.069417	0.069192	240.474	40221.5	0.064933	0.144089	1668.93	96809.2
43	2.000000	1.218221	7.36547e+06	-40789.1	955.818	-29789.2	0.000000	0.000000	7.231110	308.137	NaN	0.000000	0.001621	0.001763	28.1006	78.4206	0.001760	44548.1	1.992874	174.837	302.52	1.217977	0.079852	0.079608	308.137	44548.1	0.074664	0.183578	1678.51	94993.3
43	2.000000	1.228770	7.36547e+06	-40789.1	955.818	-29789.2	0.000000	0.000000	7.244293	372.236	NaN	0.000000	0.001584	0.001755	28.0807	88.7212	0.001852	47910.2	0.651239	-4.162817	368.456	1.228482	0.090401	0.090113	372.236	47910.2	0.084574	0.228375	1629.93	91596
43	2.000000	1.239222	7.36547e+06	-40789.1	955.818	-29789.2	0.000000	0.000000	7.258514	463.941	NaN	0.000000	0.001587	0.001758	28.0977	97.4499	0.001814	53717.8	5.171272	170.864	460.136	1.238866	0.100853	0.100497	463.941	53717.8	0.094375	0.277147	1673.99	93225.8
43	2.000000	1.246177	7.36547e+06	-40789.1	955.818	-29789.2	0.000000	0.000000	7.267282	508.069	NaN	0.000000	0.001581	0.001752	28.0988	103.15	0.001778	58023.3	3.667579	171.78	501.582	1.245877	0.107808	0.107508	508.069	58023.3	0.101241	0.313924	1618.45	94615.7