File: remote_trans/data/nanoindenter/0828-1/data/Data_2025-08-06,11h17m57s/2025-07-22_16-23-58_1_279.txt
2025-07-22, 16:23:58, 1
Index	Phase	Displacement	Time	Pos X	Pos Y	Pos Z	Rot A	Rot B	Piezo Z	Force A	Force B	Gripper	Voltage A	Voltage B	Temperature	Amplitude force	Amplitude pos	Stiffness	Phase shift	Phase excitation	Force A raw	Displacement raw	HMax	HMax raw	Real Force	Real Stiffness	Contact Depth	Area	Hardness	Reduced Mod.
[#]	[#]	[um]	[s]	[um]	[um]	[um]	[m°]	[m°]	[um]	[uN]	[uN]	[V]	[V]	[V]	[°C]	[uN]	[um]	[N/m]	[°]	[°]	[uN]	[um]	[um]	[um]	[uN]	[N/m]	[um]	[um^2]	[MPa]	[MPa]
279	1.000000	0.002911	7.36778e+06	-52589.1	955.818	-29749.1	0.000000	0.000000	6.002827	0.065718	NaN	0.000000	0.001605	0.001738	28.0804	0.041741	0.000962	43.3804	121.802	-170.122	0.022995	0.001634	-1.091491	-1.092767	0.065718	43.3804	-1.092627	-3.991023E+14	-1.646652E-16	NaN
279	1.000000	0.044834	7.36778e+06	-52589.1	955.818	-29749.1	0.000000	0.000000	6.044745	-0.038925	NaN	0.000000	0.001601	0.001655	28.0818	0.080164	0.001956	40.9739	129.194	13.2239	-0.026631	0.043479	-1.049568	-1.050923	-0.038925	40.9739	-1.048855	-1.030446E+14	3.777479E-16	NaN
279	1.000000	0.086847	7.36778e+06	-52589.1	955.818	-29749.1	0.000000	0.000000	6.086758	-0.042758	NaN	0.000000	0.001619	0.001688	28.0819	0.036859	0.002026	18.189	9.789166	-165.31	0.069442	0.085542	-1.007554	-1.008860	-0.042758	18.189	-1.005791	-2.714773E+13	1.574998E-15	NaN
279	1.000000	0.128867	7.36778e+06	-52589.1	955.819	-29749.1	0.000000	0.000000	6.128780	-0.013365	NaN	0.000000	0.001604	0.001730	28.0814	0.111169	0.002071	53.6858	-0.103057	12.7905	-0.001835	0.127511	-0.965534	-0.966890	-0.013365	53.6858	-0.965347	-7.743803E+12	1.725868E-15	NaN
279	1.000000	0.170898	7.36778e+06	-52589.1	955.819	-29749.1	0.000000	0.000000	6.170810	-0.029364	NaN	0.000000	0.001582	0.001683	28.0802	0.056014	0.002020	27.7244	-93.7091	-163.804	-0.067493	0.169599	-0.923504	-0.924802	-0.029364	27.7244	-0.922710	-2.059622E+12	1.425683E-14	NaN
279	1.000000	0.212896	7.36778e+06	-52589.1	955.819	-29749.1	0.000000	0.000000	6.212808	-0.034597	NaN	0.000000	0.001600	0.001699	28.0801	0.037726	0.002140	17.6315	44.9271	14.2438	0.026853	0.211506	-0.881505	-0.882895	-0.034597	17.6315	-0.880034	-5.459630E+11	6.336820E-14	NaN
279	1.000000	0.254945	7.36778e+06	-52589.1	955.818	-29749.1	0.000000	0.000000	6.254861	0.063242	NaN	0.000000	0.001576	0.001691	28.0801	0.021060	0.002092	10.0662	151.513	-167.5	-0.005558	0.253632	-0.839457	-0.840770	0.063242	10.0662	-0.844168	-1.785502E+11	-3.541983E-13	NaN
279	1.000000	0.296905	7.36778e+06	-52589.1	955.818	-29749.1	0.000000	0.000000	6.296817	-0.011523	NaN	0.000000	0.001677	0.001707	28.0812	0.050438	0.001969	25.6102	97.2189	14.4623	-0.028981	0.295539	-0.797497	-0.798862	-0.011523	25.6102	-0.797159	-4.114346E+10	2.800626E-13	NaN
279	1.000000	0.338940	7.36778e+06	-52589.1	955.818	-29749.1	0.000000	0.000000	6.338850	-0.085080	NaN	0.000000	0.001612	0.001650	28.0812	0.096868	0.002060	47.019	-41.733	-166.395	0.014686	0.337658	-0.755461	-0.756743	-0.085080	47.019	-0.754104	-1.069250E+10	7.956932E-12	NaN
279	1.000000	0.380993	7.36778e+06	-52589.1	955.819	-29749.1	0.000000	0.000000	6.380908	0.033951	NaN	0.000000	0.001528	0.001665	28.0816	0.107956	0.001881	57.3817	35.2533	12.6929	0.001309	0.379663	-0.713408	-0.714738	0.033951	57.3817	-0.713852	-3.024182E+9	-1.122652E-11	NaN
279	1.000000	0.423018	7.36779e+06	-52589.1	955.818	-29749.1	0.000000	0.000000	6.422932	0.025394	NaN	0.000000	0.001589	0.001690	28.0802	0.154278	0.001942	79.4492	-149.708	-166.211	-0.029351	0.421649	-0.671383	-0.672752	0.025394	79.4492	-0.671623	-8.009454E+8	-3.170489E-11	NaN
279	1.000000	0.465002	7.36779e+06	-52589.1	955.819	-29749.1	0.000000	0.000000	6.464915	-0.001458	NaN	0.000000	0.001590	0.001677	28.0802	0.011683	0.002137	5.468137	-22.7955	13.9233	0.026529	0.463662	-0.629399	-0.630739	-0.001458	5.468137	-0.629199	-2.099080E+8	6.945173E-12	NaN
279	1.000000	0.507020	7.36779e+06	-52589.1	955.819	-29749.1	0.000000	0.000000	6.506931	-0.062769	NaN	0.000000	0.001632	0.001676	28.0802	0.116412	0.002097	55.513	67.4963	-165.216	-0.070843	0.505679	-0.587381	-0.588723	-0.062769	55.513	-0.586533	-5.430761E+7	1.155809E-9	NaN
279	1.000000	0.549023	7.36779e+06	-52589.1	955.819	-29749.1	0.000000	0.000000	6.548934	-0.047550	NaN	0.000000	0.001561	0.001639	28.08	0.112705	0.001966	57.3391	179.764	14.0197	-0.070407	0.547703	-0.545378	-0.546698	-0.047550	57.3391	-0.544756	-1.436486E+7	3.310168E-9	NaN
279	1.000000	0.591046	7.36779e+06	-52589.1	955.82	-29749.1	0.000000	0.000000	6.590955	-0.103925	NaN	0.000000	0.001582	0.001698	28.0815	0.048723	0.001888	25.8004	-118.852	-166.246	-0.105395	0.589794	-0.503356	-0.504607	-0.103925	25.8004	-0.500335	-3.46486e+06	2.999407E-8	NaN
279	1.000000	0.633099	7.36779e+06	-52589.1	955.818	-29749.1	0.000000	0.000000	6.633011	-0.024871	NaN	0.000000	0.001623	0.001718	28.0816	0.072301	0.001951	37.0508	-163.573	11.9447	0.005784	0.631711	-0.461303	-0.462690	-0.024871	37.0508	-0.460799	-968839	2.567129E-8	NaN
279	1.000000	0.675121	7.36779e+06	-52589.1	955.819	-29749.1	0.000000	0.000000	6.675035	0.004142	NaN	0.000000	0.001601	0.001695	28.0817	0.080117	0.001973	40.6015	-70.697	-165.498	0.044178	0.673779	-0.419280	-0.420622	0.004142	40.6015	-0.419356	-251934	-1.644002E-8	NaN
279	1.000000	0.717119	7.36779e+06	-52589.1	955.818	-29749.1	0.000000	0.000000	6.717027	-0.124310	NaN	0.000000	0.001599	0.001714	28.0802	0.030843	0.001956	15.7648	128.723	12.3503	-0.058451	0.715756	-0.377283	-0.378646	-0.124310	15.7648	-0.371369	-51980	2.391502E-6	NaN
279	1.000000	0.759156	7.36779e+06	-52589.1	955.818	-29749.1	0.000000	0.000000	6.759067	-0.051841	NaN	0.000000	0.001619	0.001713	28.0801	0.058468	0.002026	28.8616	-44.4053	-165.083	-0.052516	0.757837	-0.335246	-0.336564	-0.051841	28.8616	-0.333899	-14876.3	3.484804E-6	NaN
279	1.000000	0.801174	7.36779e+06	-52589.1	955.818	-29749.1	0.000000	0.000000	6.801087	-0.023356	NaN	0.000000	0.001601	0.001738	28.0805	0.121745	0.002033	59.8954	120.768	9.020102	-0.059657	0.799796	-0.293227	-0.294606	-0.023356	59.8954	-0.292935	-3691.68	6.326523E-6	NaN
279	1.000000	0.843159	7.36779e+06	-52589.1	955.819	-29749.1	0.000000	0.000000	6.843073	0.020934	NaN	0.000000	0.001626	0.001674	28.0816	0.022661	0.002029	11.1687	-33.4604	-166.673	0.070393	0.841875	-0.251242	-0.252527	0.020934	11.1687	-0.252648	-903.375	-2.317267E-5	NaN
279	1.000000	0.885192	7.36779e+06	-52589.1	955.818	-29749.1	0.000000	0.000000	6.885104	-0.022135	NaN	0.000000	0.001648	0.001711	28.0817	0.063806	0.001858	34.3406	-100.481	15.2545	-0.026807	0.883871	-0.209210	-0.210530	-0.022135	34.3406	-0.208726	-182.883	0.000121	NaN
279	1.000000	0.927178	7.36779e+06	-52589.1	955.818	-29749.1	0.000000	0.000000	6.927092	0.021781	NaN	0.000000	0.001609	0.001675	28.0816	0.049450	0.001962	25.204	-140.63	-162	-0.004008	0.925882	-0.167224	-0.168520	0.021781	25.204	-0.167872	-37.7203	-0.000577	NaN
279	1.000000	0.969226	7.36779e+06	-52589.1	955.819	-29749.1	0.000000	0.000000	6.969135	-0.091682	NaN	0.000000	0.001637	0.001707	28.0802	0.101085	0.002008	50.3447	8.823898	16.7991	0.003294	0.967850	-0.125176	-0.126552	-0.091682	50.3447	-0.123810	-5.759612	0.015918	NaN
279	1.000000	1.011253	7.36779e+06	-52589.1	955.82	-29749.1	0.000000	0.000000	7.011163	-0.094747	NaN	0.000000	0.001641	0.001722	28.0801	0.123350	0.002025	60.9086	-50.0768	-166.041	-0.099188	1.009907	-0.083148	-0.084494	-0.094747	60.9086	-0.081981	-0.693281	0.136665	NaN
279	1.000000	1.053259	7.36779e+06	-52589.1	955.82	-29749.1	0.000000	0.000000	7.053172	0.004091	NaN	0.000000	0.001579	0.001703	28.0803	0.157331	0.002035	77.3193	155.821	14.5135	-0.011242	1.051936	-0.041143	-0.042466	0.004091	77.3193	-0.041182	-0.049128	-0.083271	NaN
279	1.000000	1.095253	7.36779e+06	-52589.1	955.82	-29749.1	0.000000	0.000000	7.095172	0.139853	NaN	0.000000	0.001546	0.001695	28.0802	0.298975	0.002059	145.204	3.772336	-165.406	0.046156	1.093958	0.000851	-0.000443	0.139853	145.204	0.000129	9.662802E-5	1447.33	13495.9
279	2.000000	1.112337	7.36779e+06	-52589.1	955.821	-29749.1	0.000000	0.000000	7.112954	17.1142	NaN	0.000000	0.001605	0.001699	28.0813	16.6896	0.001848	9033.03	9.579427	2.282678	16.4545	1.111978	0.017935	0.017576	17.1142	9033.03	0.016514	0.017358	985.959	62640.9
279	2.000000	1.122686	7.36779e+06	-52589.1	955.82	-29749.1	0.000000	0.000000	7.124192	38.7296	NaN	0.000000	0.001610	0.001686	28.0812	26.7276	0.001711	15624.6	4.131584	-178.026	35.2098	1.122456	0.028284	0.028055	38.7296	15624.6	0.026425	0.033659	1150.63	77808.8
279	2.000000	1.133269	7.36779e+06	-52589.1	955.821	-29749.1	0.000000	0.000000	7.136380	77.7473	NaN	0.000000	0.001626	0.001709	28.0812	38.6046	0.001772	21784.9	5.340617	-1.536786	77.2749	1.132921	0.038867	0.038519	77.7473	21784.9	0.036191	0.054555	1425.12	85214.2
279	2.000000	1.143709	7.36779e+06	-52589.1	955.822	-29749.1	0.000000	0.000000	7.148861	127.379	NaN	0.000000	0.001608	0.001711	28.0798	49.0498	0.001854	26452.5	2.103195	-179.957	124.575	1.143320	0.049307	0.048918	127.379	26452.5	0.045696	0.079575	1600.74	85674.3
279	2.000000	1.154212	7.36779e+06	-52589.1	955.82	-29749.1	0.000000	0.000000	7.161911	189.301	NaN	0.000000	0.001538	0.001659	28.0797	59.5242	0.001803	33016.4	3.022322	-2.926763	186.144	1.153769	0.059811	0.059368	189.301	33016.4	0.055511	0.110204	1717.73	90866.5
279	2.000000	1.164747	7.36779e+06	-52589.1	955.822	-29749.1	0.000000	0.000000	7.174680	243.626	NaN	0.000000	0.001612	0.001675	28.0802	70.8182	0.001784	39686.6	6.282160	172.714	244.235	1.164478	0.070345	0.070077	243.626	39686.6	0.065741	0.147197	1655.1	94507.6
279	2.000000	1.175174	7.36779e+06	-52589.1	955.821	-29749.1	0.000000	0.000000	7.188084	316.001	NaN	0.000000	0.001677	0.001651	28.0818	80.9256	0.001791	45182.7	5.467219	-8.686059	312.244	1.174933	0.080772	0.080532	316.001	45182.7	0.075527	0.187295	1687.18	95385.5
279	2.000000	1.185695	7.36779e+06	-52589.1	955.821	-29749.1	0.000000	0.000000	7.201918	396.562	NaN	0.000000	0.001552	0.001657	28.0814	90.3055	0.001889	47810.8	3.340387	173.998	398.419	1.185302	0.091293	0.090900	396.562	47810.8	0.085073	0.230748	1718.59	90934.9
279	2.000000	1.196067	7.36779e+06	-52589.1	955.821	-29749.1	0.000000	0.000000	7.216386	496.167	NaN	0.000000	0.001605	0.001637	28.0826	100.58	0.001773	56720.2	4.467287	-8.357333	488.208	1.195619	0.101665	0.101217	496.167	56720.2	0.095104	0.280950	1766.03	97767.8
279	2.000000	1.202554	7.36779e+06	-52589.1	955.822	-29749.1	0.000000	0.000000	7.224647	539.286	NaN	0.000000	0.001632	0.001614	28.0812	107.589	0.001716	62700.5	5.969424	168.9	533.408	1.202370	0.108153	0.107969	539.286	62700.5	0.101702	0.316472	1704.05	101830