File: remote_trans/data/nanoindenter/0828-1/data/Data_2025-08-06,11h17m57s/2025-07-22_16-23-58_1_1046.txt
2025-07-22, 16:23:58, 1
Index	Phase	Displacement	Time	Pos X	Pos Y	Pos Z	Rot A	Rot B	Piezo Z	Force A	Force B	Gripper	Voltage A	Voltage B	Temperature	Amplitude force	Amplitude pos	Stiffness	Phase shift	Phase excitation	Force A raw	Displacement raw	HMax	HMax raw	Real Force	Real Stiffness	Contact Depth	Area	Hardness	Reduced Mod.
[#]	[#]	[um]	[s]	[um]	[um]	[um]	[m°]	[m°]	[um]	[uN]	[uN]	[V]	[V]	[V]	[°C]	[uN]	[um]	[N/m]	[°]	[°]	[uN]	[um]	[um]	[um]	[uN]	[N/m]	[um]	[um^2]	[MPa]	[MPa]
1046	1.000000	0.002763	7.37527e+06	-52439.1	1055.82	-29749.1	0.000000	0.000000	6.002786	-0.047622	NaN	0.000000	0.001640	0.001767	28.0838	0.074538	0.001075	69.3208	-164.229	-165.146	-0.009601	0.001530	-1.193164	-1.194397	-0.047622	69.3208	-1.192648	-8.755819E+15	5.438851E-18	NaN
1046	1.000000	0.046689	7.37528e+06	-52439.1	1055.82	-29749.1	0.000000	0.000000	6.046713	-0.032403	NaN	0.000000	0.001637	0.001733	28.084	0.101730	0.002055	49.5155	-114.412	-167.849	-0.067292	0.045376	-1.149237	-1.150551	-0.032403	49.5155	-1.148747	-2.259520E+15	1.434055E-17	NaN
1046	1.000000	0.090735	7.37528e+06	-52439.1	1055.82	-29749.1	0.000000	0.000000	6.090758	-0.029012	NaN	0.000000	0.001656	0.001731	28.0841	0.125408	0.002104	59.5955	-9.499355	-166.056	0.004146	0.089445	-1.105192	-1.106482	-0.029012	59.5955	-1.104827	-5.819103E+14	4.985651E-17	NaN
1046	1.000000	0.134770	7.37528e+06	-52439.1	1055.82	-29749.1	0.000000	0.000000	6.134794	-0.019025	NaN	0.000000	0.001647	0.001753	28.0825	0.042211	0.002039	20.707	116.593	-166.118	-0.027678	0.133413	-1.061156	-1.062514	-0.019025	20.707	-1.060467	-1.476051E+14	1.288893E-16	NaN
1046	1.000000	0.178763	7.37528e+06	-52439.1	1055.82	-29749.1	0.000000	0.000000	6.178787	-0.021763	NaN	0.000000	0.001626	0.001751	28.0822	0.067766	0.001897	35.7269	17.4863	-164.884	-0.082799	0.177492	-1.017164	-1.018435	-0.021763	35.7269	-1.016707	-3.807486E+13	5.715868E-16	NaN
1046	1.000000	0.222788	7.37528e+06	-52439.1	1055.82	-29749.1	0.000000	0.000000	6.222812	-0.032076	NaN	0.000000	0.001611	0.001731	28.0819	0.039648	0.002100	18.8794	-136.309	-164.074	-0.080168	0.221490	-0.973138	-0.974437	-0.032076	18.8794	-0.971864	-9.479409E+12	3.383775E-15	NaN
1046	1.000000	0.266806	7.37528e+06	-52439.1	1055.82	-29749.1	0.000000	0.000000	6.266831	-0.012263	NaN	0.000000	0.001565	0.001731	28.0836	0.111741	0.002056	54.3474	-84.5051	-163.765	0.037482	0.265498	-0.929120	-0.930428	-0.012263	54.3474	-0.928951	-2.500560E+12	4.904230E-15	NaN
1046	1.000000	0.310825	7.37528e+06	-52439.1	1055.82	-29749.1	0.000000	0.000000	6.310848	-0.026060	NaN	0.000000	0.001611	0.001720	28.0835	0.040556	0.002025	20.0303	-137.415	-161.909	-0.042626	0.309562	-0.885102	-0.886365	-0.026060	20.0303	-0.884126	-6.201569E+11	4.202157E-14	NaN
1046	1.000000	0.354840	7.37528e+06	-52439.1	1055.82	-29749.1	0.000000	0.000000	6.354862	-0.059208	NaN	0.000000	0.001582	0.001774	28.0836	0.054614	0.002137	25.5564	79.806	-165.463	-0.105860	0.353540	-0.841087	-0.842387	-0.059208	25.5564	-0.839349	-1.536296E+11	3.853927E-13	NaN
1046	1.000000	0.398862	7.37528e+06	-52439.1	1055.82	-29749.1	0.000000	0.000000	6.398884	-0.069098	NaN	0.000000	0.001544	0.001731	28.0827	0.078081	0.001939	40.2653	27.888	-164.735	-0.018284	0.397542	-0.797065	-0.798384	-0.069098	40.2653	-0.795778	-3.940417E+10	1.753562E-12	NaN
1046	1.000000	0.442871	7.37528e+06	-52439.1	1055.82	-29749.1	0.000000	0.000000	6.442897	0.027839	NaN	0.000000	0.001545	0.001726	28.0824	0.051550	0.001951	26.4192	121.751	-162.62	-0.156736	0.441608	-0.753056	-0.754318	0.027839	26.4192	-0.753846	-1.060639E+10	-2.624784E-12	NaN
1046	1.000000	0.486915	7.37528e+06	-52439.1	1055.82	-29749.1	0.000000	0.000000	6.486937	-0.059662	NaN	0.000000	0.001523	0.001789	28.0824	0.057679	0.002058	28.0288	-158.861	-166.018	-0.075419	0.485638	-0.709012	-0.710288	-0.059662	28.0288	-0.707415	-2.470424E+9	2.415038E-11	NaN
1046	1.000000	0.530912	7.37528e+06	-52439.1	1055.82	-29749.1	0.000000	0.000000	6.530934	-0.071821	NaN	0.000000	0.001599	0.001796	28.0835	0.066068	0.002010	32.8626	-23.9484	-165.287	0.002896	0.529629	-0.665015	-0.666297	-0.071821	32.8626	-0.663375	-6.175871E+8	1.162935E-10	NaN
1046	1.000000	0.574948	7.37528e+06	-52439.1	1055.82	-29749.1	0.000000	0.000000	6.574971	-0.035848	NaN	0.000000	0.001688	0.001733	28.0836	0.046807	0.002129	21.9879	-91.9283	-166.355	-0.008884	0.573578	-0.620979	-0.622348	-0.035848	21.9879	-0.619756	-1.556965E+8	2.302422E-10	NaN
1046	1.000000	0.618964	7.37528e+06	-52439.1	1055.82	-29749.1	0.000000	0.000000	6.618989	-0.012276	NaN	0.000000	0.001682	0.001757	28.0836	0.080109	0.002013	39.7865	-34.4901	-165.839	-0.058006	0.617689	-0.576962	-0.578237	-0.012276	39.7865	-0.576731	-3.977367E+7	3.086438E-10	NaN
1046	1.000000	0.663012	7.37528e+06	-52439.1	1055.82	-29749.1	0.000000	0.000000	6.663037	0.009201	NaN	0.000000	0.001724	0.001828	28.0823	0.024692	0.002024	12.1996	78.4041	-160.953	0.013302	0.661623	-0.532914	-0.534304	0.009201	12.1996	-0.533480	-1.002060E+7	-9.182125E-10	NaN
1046	1.000000	0.707006	7.37528e+06	-52439.1	1055.82	-29749.1	0.000000	0.000000	6.707028	-0.050031	NaN	0.000000	0.001676	0.001750	28.0821	0.130637	0.002023	64.5637	143.426	-166.267	0.009458	0.705732	-0.488921	-0.490195	-0.050031	64.5637	-0.488340	-2.35608e+06	2.123482E-8	NaN
1046	1.000000	0.751010	7.37528e+06	-52439.1	1055.82	-29749.1	0.000000	0.000000	6.751030	-0.114064	NaN	0.000000	0.001687	0.001743	28.082	0.108088	0.002000	54.0478	55.039	-168.324	-0.074833	0.749682	-0.444917	-0.446244	-0.114064	54.0478	-0.443334	-550045	2.073724E-7	NaN
1046	1.000000	0.795045	7.37528e+06	-52439.1	1055.82	-29749.1	0.000000	0.000000	6.795066	-0.087519	NaN	0.000000	0.001671	0.001744	28.0822	0.113305	0.001973	57.4179	75.3081	-164.534	-0.119855	0.793743	-0.400882	-0.402183	-0.087519	57.4179	-0.399739	-132516	6.604440E-7	NaN
1046	1.000000	0.839039	7.37528e+06	-52439.1	1055.82	-29749.1	0.000000	0.000000	6.839060	-0.079211	NaN	0.000000	0.001688	0.001774	28.0836	0.035330	0.001970	17.9354	165.916	-163.759	-0.080174	0.837697	-0.356888	-0.358229	-0.079211	17.9354	-0.353575	-28764.5	2.753774E-6	NaN
1046	1.000000	0.883078	7.37528e+06	-52439.1	1055.82	-29749.1	0.000000	0.000000	6.883101	-0.032449	NaN	0.000000	0.001680	0.001751	28.0833	0.072010	0.002050	35.1218	89.5625	-164.994	-0.026815	0.881748	-0.312849	-0.314179	-0.032449	35.1218	-0.312156	-7127.6	4.552536E-6	NaN
1046	1.000000	0.927111	7.37528e+06	-52439.1	1055.82	-29749.1	0.000000	0.000000	6.927134	-0.045247	NaN	0.000000	0.001547	0.001736	28.0833	0.035967	0.001996	18.0231	56.6238	-168.641	-0.052907	0.925780	-0.268815	-0.270147	-0.045247	18.0231	-0.266932	-1495.75	3.025039E-5	NaN
1046	1.000000	0.971139	7.37528e+06	-52439.1	1055.82	-29749.1	0.000000	0.000000	6.971161	-0.059867	NaN	0.000000	0.001604	0.001759	28.0818	0.068971	0.002081	33.145	-22.9189	-162.77	-0.069592	0.969797	-0.224787	-0.226129	-0.059867	33.145	-0.223433	-315.079	0.000190	NaN
1046	1.000000	1.015081	7.37528e+06	-52439.1	1055.82	-29749.1	0.000000	0.000000	7.015105	-0.018602	NaN	0.000000	0.001591	0.001736	28.0823	0.063846	0.001886	33.8604	-171.789	-162.35	0.046716	1.013769	-0.180846	-0.182158	-0.018602	33.8604	-0.180434	-62.0643	0.000300	NaN
1046	1.000000	1.059129	7.37528e+06	-52439.1	1055.82	-29749.1	0.000000	0.000000	7.059152	-0.038172	NaN	0.000000	0.001606	0.001719	28.0821	0.114428	0.002046	55.9154	-7.483906	-167.882	-0.063961	1.057855	-0.136798	-0.138072	-0.038172	55.9154	-0.136286	-10.0643	0.003793	NaN
1046	1.000000	1.103194	7.37528e+06	-52439.1	1055.82	-29749.1	0.000000	0.000000	7.103217	-0.029451	NaN	0.000000	0.001604	0.001707	28.0828	0.110093	0.002069	53.204	-10.9463	-170.382	-0.045451	1.101818	-0.092733	-0.094109	-0.029451	53.204	-0.092318	-1.224125	0.024058	NaN
1046	1.000000	1.147128	7.37528e+06	-52439.1	1055.82	-29749.1	0.000000	0.000000	7.147152	-0.027500	NaN	0.000000	0.001627	0.001742	28.0832	0.176030	0.002012	87.4799	-134.343	-166.447	-0.021384	1.145851	-0.048798	-0.050076	-0.027500	87.4799	-0.048562	-0.082538	0.333182	NaN
1046	1.000000	1.191150	7.37528e+06	-52439.1	1055.82	-29749.1	0.000000	0.000000	7.191176	0.033445	NaN	0.000000	0.001586	0.001728	28.0831	0.110678	0.002100	52.7107	36.7803	-163.695	-0.097391	1.189949	-0.004777	-0.005977	0.033445	52.7107	-0.005253	-0.003575	-9.355459	NaN
1046	2.000000	1.209729	7.37528e+06	-52439.1	1055.82	-29749.1	0.000000	0.000000	7.210682	22.5764	NaN	0.000000	0.001603	0.001768	28.082	18.0149	0.001677	10743.7	4.595840	-174.991	22.2075	1.209348	0.013802	0.013421	22.5764	10743.7	0.012226	0.011762	1919.39	90507.1
1046	2.000000	1.220725	7.37528e+06	-52439.1	1055.82	-29749.1	0.000000	0.000000	7.222657	46.3675	NaN	0.000000	0.001676	0.001729	28.0819	29.532	0.001749	16889.8	7.077351	179.362	46.4786	1.220332	0.024799	0.024405	46.3675	16889.8	0.022740	0.027032	1715.31	93856.1
1046	2.000000	1.231701	7.37528e+06	-52439.1	1055.82	-29749.1	0.000000	0.000000	7.235195	84.3626	NaN	0.000000	0.001659	0.001753	28.0818	41.4503	0.001818	22799.3	4.923669	177.704	84.8186	1.231423	0.035775	0.035496	84.3626	22799.3	0.032999	0.047190	1787.72	95889.1
1046	2.000000	1.242625	7.37528e+06	-52439.1	1055.82	-29749.1	0.000000	0.000000	7.248093	132.352	NaN	0.000000	0.001690	0.001742	28.0835	49.6937	0.001801	27595.8	4.392075	177.772	129.862	1.242235	0.046698	0.046308	132.352	27595.8	0.043101	0.072288	1830.9	93774.1
1046	2.000000	1.253677	7.37528e+06	-52439.1	1055.82	-29749.1	0.000000	0.000000	7.261384	186.796	NaN	0.000000	0.001688	0.001752	28.0834	60.5255	0.001813	33386.3	5.059423	173.54	188.165	1.253358	0.057750	0.057432	186.796	33386.3	0.053554	0.103713	1801.09	94716.3
1046	2.000000	1.264658	7.37528e+06	-52439.1	1055.82	-29749.1	0.000000	0.000000	7.275182	255.278	NaN	0.000000	0.001662	0.001729	28.0831	71.2031	0.001810	39345.7	6.366779	171.373	256.371	1.264339	0.068732	0.068412	255.278	39345.7	0.063866	0.140034	1822.98	96062.6
1046	2.000000	1.275493	7.37528e+06	-52439.1	1055.82	-29749.1	0.000000	0.000000	7.289457	338.926	NaN	0.000000	0.001691	0.001737	28.0821	80.4326	0.001918	41936.8	3.750821	174.298	332.156	1.275211	0.079566	0.079285	338.926	41936.8	0.073505	0.178637	1897.28	90653.1
1046	2.000000	1.286562	7.37528e+06	-52439.1	1055.82	-29749.1	0.000000	0.000000	7.304075	425.215	NaN	0.000000	0.001676	0.001734	28.0819	89.9459	0.001799	49997	5.593865	170.255	423.287	1.286377	0.090636	0.090451	425.215	49997	0.084257	0.226870	1874.27	95902.2
1046	2.000000	1.297510	7.37528e+06	-52439.1	1055.82	-29749.1	0.000000	0.000000	7.319183	526.375	NaN	0.000000	0.001636	0.001733	28.082	97.9577	0.001731	56584	5.509688	169.511	521.3	1.297187	0.101583	0.101261	526.375	56584	0.094607	0.278350	1891.05	97987.7
1046	2.000000	1.299527	7.37528e+06	-52439.1	1055.82	-29749.1	0.000000	0.000000	7.321865	542.547	NaN	0.000000	0.001644	0.001784	28.082	99.7591	0.001687	59129.3	6.152191	167.954	538.8	1.299237	0.103600	0.103311	542.547	59129.3	0.096719	0.289458	1874.35	100411