File: remote_trans/data/nanoindenter/0828-1/data/Data_2025-08-06,11h17m57s/2025-07-22_16-23-58_1_644.txt
2025-07-22, 16:23:58, 1
Index	Phase	Displacement	Time	Pos X	Pos Y	Pos Z	Rot A	Rot B	Piezo Z	Force A	Force B	Gripper	Voltage A	Voltage B	Temperature	Amplitude force	Amplitude pos	Stiffness	Phase shift	Phase excitation	Force A raw	Displacement raw	HMax	HMax raw	Real Force	Real Stiffness	Contact Depth	Area	Hardness	Reduced Mod.
[#]	[#]	[um]	[s]	[um]	[um]	[um]	[m°]	[m°]	[um]	[uN]	[uN]	[V]	[V]	[V]	[°C]	[uN]	[um]	[N/m]	[°]	[°]	[uN]	[um]	[um]	[um]	[uN]	[N/m]	[um]	[um^2]	[MPa]	[MPa]
644	1.000000	0.002742	7.37135e+06	-44889.1	1005.82	-29774.3	0.000000	0.000000	6.002801	0.014616	NaN	0.000000	0.001582	0.001781	28.0841	0.142849	0.001055	135.389	-63.3612	-162.483	-0.006703	0.001507	-1.154542	-1.155777	0.014616	135.389	-1.154623	-2.708876E+15	-5.395597E-18	NaN
644	1.000000	0.044671	7.37135e+06	-44889.1	1005.82	-29774.3	0.000000	0.000000	6.044729	-0.005015	NaN	0.000000	0.001562	0.001732	28.0838	0.066457	0.001914	34.7308	89.7852	14.4615	-0.048142	0.043319	-1.112613	-1.113964	-0.005015	34.7308	-1.112504	-7.377264E+14	6.798144E-18	NaN
644	1.000000	0.086691	7.37135e+06	-44889.1	1005.82	-29774.3	0.000000	0.000000	6.086749	0.003797	NaN	0.000000	0.001574	0.001754	28.0825	0.021244	0.002094	10.1458	-175.101	-168.607	-0.019400	0.085443	-1.070593	-1.071841	0.003797	10.1458	-1.070873	-2.036672E+14	-1.864512E-17	NaN
644	1.000000	0.128750	7.37135e+06	-44889.1	1005.82	-29774.3	0.000000	0.000000	6.128805	-0.091910	NaN	0.000000	0.001587	0.001795	28.0827	0.127322	0.002066	61.641	98.4723	13.7019	-0.084649	0.127379	-1.028533	-1.029905	-0.091910	61.641	-1.027415	-5.305299E+13	1.732410E-15	NaN
644	1.000000	0.170744	7.37135e+06	-44889.1	1005.82	-29774.3	0.000000	0.000000	6.170798	-0.092397	NaN	0.000000	0.001635	0.001775	28.0828	0.059775	0.002018	29.618	-54.2502	-166.538	-0.023324	0.169448	-0.986540	-0.987836	-0.092397	29.618	-0.984200	-1.389917E+13	6.647652E-15	NaN
644	1.000000	0.212782	7.37135e+06	-44889.1	1005.82	-29774.3	0.000000	0.000000	6.212840	-0.024134	NaN	0.000000	0.001615	0.001730	28.0839	0.094042	0.001997	47.0843	-108.69	16.0558	-0.016872	0.211433	-0.944501	-0.945850	-0.024134	47.0843	-0.944117	-4.005652E+12	6.024969E-15	NaN
644	1.000000	0.254782	7.37135e+06	-44889.1	1005.82	-29774.3	0.000000	0.000000	6.254838	-0.061957	NaN	0.000000	0.001604	0.001728	28.0835	0.022463	0.002030	11.0632	66.4587	-168.105	0.015064	0.253473	-0.902501	-0.903810	-0.061957	11.0632	-0.898301	-9.640659E+11	6.426610E-14	NaN
644	1.000000	0.296788	7.37135e+06	-44889.1	1005.82	-29774.3	0.000000	0.000000	6.296844	-0.065992	NaN	0.000000	0.001585	0.001759	28.0837	0.034920	0.002004	17.4247	-145.262	14.4172	-0.062118	0.295405	-0.860495	-0.861879	-0.065992	17.4247	-0.857655	-2.718809E+11	2.427252E-13	NaN
644	1.000000	0.338819	7.37135e+06	-44889.1	1005.82	-29774.3	0.000000	0.000000	6.338876	-0.018676	NaN	0.000000	0.001629	0.001775	28.0826	0.137725	0.002024	68.0468	129.25	-166.563	-0.069117	0.337518	-0.818465	-0.819766	-0.018676	68.0468	-0.818259	-7.954338E+10	2.347869E-13	NaN
644	1.000000	0.380831	7.37135e+06	-44889.1	1005.82	-29774.3	0.000000	0.000000	6.380890	0.022322	NaN	0.000000	0.001609	0.001766	28.0825	0.130120	0.001895	68.6783	116.987	15.9095	-0.061412	0.379445	-0.776453	-0.777839	0.022322	68.6783	-0.776697	-2.169403E+10	-1.028945E-12	NaN
644	1.000000	0.422860	7.37135e+06	-44889.1	1005.82	-29774.3	0.000000	0.000000	6.422915	-0.076730	NaN	0.000000	0.001583	0.001721	28.0827	0.081570	0.001873	43.5503	-168.202	-167.396	-0.048424	0.421566	-0.734424	-0.735717	-0.076730	43.5503	-0.733102	-5.534607E+9	1.386367E-11	NaN
644	1.000000	0.464857	7.37135e+06	-44889.1	1005.82	-29774.3	0.000000	0.000000	6.464914	-0.032617	NaN	0.000000	0.001590	0.001736	28.0828	0.043620	0.001869	23.3337	35.7067	12.2218	-0.037215	0.463531	-0.692426	-0.693753	-0.032617	23.3337	-0.691378	-1.491922E+9	2.186212E-11	NaN
644	1.000000	0.506881	7.37135e+06	-44889.1	1005.82	-29774.3	0.000000	0.000000	6.506938	-0.020501	NaN	0.000000	0.001574	0.001717	28.0844	0.095516	0.002026	47.145	-37.4711	-166.622	-0.154505	0.505579	-0.650403	-0.651705	-0.020501	47.145	-0.650077	-4.059656E+8	5.049995E-11	NaN
644	1.000000	0.548921	7.37135e+06	-44889.1	1005.82	-29774.3	0.000000	0.000000	6.548977	-0.051335	NaN	0.000000	0.001534	0.001704	28.0844	0.188734	0.002065	91.4035	-135.583	16.3736	-0.026845	0.547556	-0.608363	-0.609727	-0.051335	91.4035	-0.607941	-1.070998E+8	4.793193E-10	NaN
644	1.000000	0.590920	7.37135e+06	-44889.1	1005.82	-29774.3	0.000000	0.000000	6.590978	-0.007238	NaN	0.000000	0.001580	0.001690	28.0844	0.093050	0.002023	45.9854	-83.5749	-168.702	-0.013435	0.589606	-0.566364	-0.567677	-0.007238	45.9854	-0.566246	-2.849366E+7	2.540185E-10	NaN
644	1.000000	0.632960	7.37135e+06	-44889.1	1005.82	-29774.3	0.000000	0.000000	6.633015	-0.076421	NaN	0.000000	0.001585	0.001728	28.0834	0.034942	0.002154	16.222	-63.4113	14.1582	0.025496	0.631569	-0.524323	-0.525714	-0.076421	16.222	-0.520790	-6.67703e+06	1.144540E-8	NaN
644	1.000000	0.674962	7.37135e+06	-44889.1	1005.82	-29774.3	0.000000	0.000000	6.675020	0.014394	NaN	0.000000	0.001561	0.001655	28.0831	0.109566	0.002023	54.1689	-76.8794	-165.65	-0.008066	0.673601	-0.482322	-0.483682	0.014394	54.1689	-0.482521	-1.9535e+06	-7.368257E-9	NaN
644	1.000000	0.716960	7.37135e+06	-44889.1	1005.82	-29774.3	0.000000	0.000000	6.717016	-0.070179	NaN	0.000000	0.001562	0.001706	28.0829	0.060724	0.001909	31.8102	18.6242	16.3502	-0.105301	0.715679	-0.440323	-0.441604	-0.070179	31.8102	-0.438669	-472683	1.484686E-7	NaN
644	1.000000	0.759032	7.37135e+06	-44889.1	1005.82	-29774.3	0.000000	0.000000	6.759085	-0.104955	NaN	0.000000	0.001609	0.001707	28.0842	0.050046	0.002003	24.9793	-42.5262	-165.661	-0.081448	0.757623	-0.398252	-0.399661	-0.104955	24.9793	-0.395101	-113782	9.224231E-7	NaN
644	1.000000	0.801001	7.37135e+06	-44889.1	1005.82	-29774.3	0.000000	0.000000	6.801054	-0.118251	NaN	0.000000	0.001565	0.001693	28.0843	0.113010	0.002127	53.1413	-154.301	13.2692	-0.170577	0.799623	-0.356282	-0.357660	-0.118251	53.1413	-0.354614	-29778.2	3.971077E-6	NaN
644	1.000000	0.843038	7.37135e+06	-44889.1	1005.82	-29774.3	0.000000	0.000000	6.843092	-0.102213	NaN	0.000000	0.001580	0.001673	28.0841	0.081795	0.001976	41.3995	158.952	-169.719	-0.097962	0.841733	-0.314245	-0.315550	-0.102213	41.3995	-0.312393	-7185.43	1.422507E-5	NaN
644	1.000000	0.885046	7.37135e+06	-44889.1	1005.82	-29774.3	0.000000	0.000000	6.885102	-0.072515	NaN	0.000000	0.001574	0.001701	28.083	0.048240	0.002048	23.5571	-20.5039	11.3215	-0.016963	0.883656	-0.272237	-0.273627	-0.072515	23.5571	-0.269928	-1661.33	4.364864E-5	NaN
644	1.000000	0.927066	7.37135e+06	-44889.1	1005.82	-29774.3	0.000000	0.000000	6.927122	-0.051298	NaN	0.000000	0.001653	0.001710	28.0828	0.048349	0.002080	23.2488	56.7201	-168.498	-0.040547	0.925734	-0.230218	-0.231550	-0.051298	23.2488	-0.228563	-380.022	0.000135	NaN
644	1.000000	0.969080	7.37135e+06	-44889.1	1005.82	-29774.3	0.000000	0.000000	6.969137	-0.041755	NaN	0.000000	0.001597	0.001683	28.083	0.030496	0.001960	15.5631	-40.6348	17.1032	-0.140715	0.967736	-0.188203	-0.189547	-0.041755	15.5631	-0.186191	-77.6576	0.000538	NaN
644	1.000000	1.011089	7.37135e+06	-44889.1	1005.82	-29774.3	0.000000	0.000000	7.011147	-0.008558	NaN	0.000000	0.001575	0.001652	28.0827	0.149991	0.002012	74.5583	1.218424	-165.349	-0.010691	1.009822	-0.146195	-0.147461	-0.008558	74.5583	-0.146108	-15.3688	0.000557	NaN
644	1.000000	1.053081	7.37135e+06	-44889.1	1005.82	-29774.3	0.000000	0.000000	7.053137	-0.051318	NaN	0.000000	0.001592	0.001666	28.0838	0.077375	0.002064	37.4897	-72.5895	15.1231	-0.092859	1.051711	-0.104202	-0.105572	-0.051318	37.4897	-0.103176	-2.145767	0.023916	NaN
644	1.000000	1.095135	7.37135e+06	-44889.1	1005.82	-29774.3	0.000000	0.000000	7.095191	-0.065910	NaN	0.000000	0.001637	0.001702	28.0836	0.042138	0.002104	20.0255	132.958	-166.931	-0.050199	1.093835	-0.062148	-0.063449	-0.065910	20.0255	-0.059680	-0.176318	0.373812	NaN
644	1.000000	1.137170	7.37135e+06	-44889.1	1005.82	-29774.3	0.000000	0.000000	7.137227	-0.029158	NaN	0.000000	0.001680	0.001653	28.0839	0.093786	0.002056	45.6182	55.9425	14.4195	-0.012694	1.135785	-0.020114	-0.021499	-0.029158	45.6182	-0.019635	-0.012295	2.371618	NaN
644	2.000000	1.166611	7.37135e+06	-44889.1	1005.82	-29774.3	0.000000	0.000000	7.167387	17.4578	NaN	0.000000	0.001647	0.001663	28.0824	14.3599	0.001753	8190.02	7.999779	-176.802	16.7072	1.166320	0.009327	0.009036	17.4578	8190.02	0.007729	0.006765	2580.7	90977.3
644	2.000000	1.177043	7.37135e+06	-44889.1	1005.82	-29774.3	0.000000	0.000000	7.178724	39.4849	NaN	0.000000	0.001659	0.001656	28.0824	24.9293	0.001786	13954.8	3.507398	2.718675	38.6925	1.176773	0.019760	0.019490	39.4849	13954.8	0.017638	0.018965	2081.99	92580.8
644	2.000000	1.187521	7.37135e+06	-44889.1	1005.82	-29774.3	0.000000	0.000000	7.190829	79.0655	NaN	0.000000	0.001627	0.001631	28.0824	34.3374	0.001631	21050.5	5.296901	177.914	78.3337	1.187288	0.030237	0.030004	79.0655	21050.5	0.027420	0.035566	2223.08	101981
644	2.000000	1.198023	7.37135e+06	-44889.1	1005.82	-29774.3	0.000000	0.000000	7.203030	120.402	NaN	0.000000	0.001659	0.001668	28.0837	45.3735	0.001643	27619.1	5.024881	-3.577207	118.064	1.197642	0.040739	0.040359	120.402	27619.1	0.037470	0.057653	2088.38	105092
644	2.000000	1.208503	7.37136e+06	-44889.1	1005.82	-29774.3	0.000000	0.000000	7.215556	170.143	NaN	0.000000	0.001632	0.001705	28.0835	56.1579	0.001829	30705.6	4.652396	176.111	167.651	1.208152	0.051220	0.050868	170.143	30705.6	0.047064	0.083555	2036.3	97052
644	2.000000	1.218968	7.37136e+06	-44889.1	1005.82	-29774.3	0.000000	0.000000	7.228451	229.293	NaN	0.000000	0.001628	0.001665	28.0835	66.6909	0.001827	36502.2	6.960556	-7.848764	225.851	1.218615	0.061684	0.061331	229.293	36502.2	0.056973	0.115179	1990.76	98266.8
644	2.000000	1.229438	7.37136e+06	-44889.1	1005.82	-29774.3	0.000000	0.000000	7.241647	295.585	NaN	0.000000	0.001629	0.001735	28.0825	76.1977	0.001751	43522.2	7.445801	169.893	292.708	1.229179	0.072155	0.071895	295.585	43522.2	0.067061	0.152339	1940.31	101877
644	2.000000	1.239908	7.37136e+06	-44889.1	1005.82	-29774.3	0.000000	0.000000	7.255538	378.833	NaN	0.000000	0.001591	0.001674	28.0828	84.1009	0.001667	50462.5	5.797698	-9.126861	371.965	1.239459	0.082624	0.082176	378.833	50462.5	0.076994	0.193697	1955.8	104756
644	2.000000	1.250380	7.37136e+06	-44889.1	1005.82	-29774.3	0.000000	0.000000	7.269555	465.061	NaN	0.000000	0.001626	0.001699	28.0828	94.3458	0.001728	54611.9	2.075342	174.353	459.362	1.250047	0.093097	0.092763	465.061	54611.9	0.086710	0.238625	1948.92	102141
644	2.000000	1.261007	7.37136e+06	-44889.1	1005.82	-29774.3	0.000000	0.000000	7.283670	549.912	NaN	0.000000	0.001630	0.001716	28.0828	105.129	0.001826	57581.4	4.958360	-8.826175	550.672	1.260690	0.103724	0.103406	549.912	57581.4	0.096561	0.288623	1905.3	97924.3