File: remote_trans/data/nanoindenter/0828-1/data/Data_2025-08-06,11h17m57s/2025-07-22_16-23-58_1_1142.txt
2025-07-22, 16:23:58, 1
Index	Phase	Displacement	Time	Pos X	Pos Y	Pos Z	Rot A	Rot B	Piezo Z	Force A	Force B	Gripper	Voltage A	Voltage B	Temperature	Amplitude force	Amplitude pos	Stiffness	Phase shift	Phase excitation	Force A raw	Displacement raw	HMax	HMax raw	Real Force	Real Stiffness	Contact Depth	Area	Hardness	Reduced Mod.
[#]	[#]	[um]	[s]	[um]	[um]	[um]	[m°]	[m°]	[um]	[uN]	[uN]	[V]	[V]	[V]	[°C]	[uN]	[um]	[N/m]	[°]	[°]	[uN]	[um]	[um]	[um]	[uN]	[N/m]	[um]	[um^2]	[MPa]	[MPa]
1142	1.000000	0.002203	7.37623e+06	-57239.1	1055.82	-29737.3	0.000000	0.000000	6.002809	0.015186	NaN	0.000000	0.001572	0.001774	28.0833	0.064400	0.000852	75.5883	-156.224	-165.641	-0.029842	0.000949	-1.025705	-1.026960	0.015186	75.5883	-1.025856	-5.055148E+13	-3.004090E-16	NaN
1142	1.000000	0.042137	7.37623e+06	-57239.1	1055.82	-29737.3	0.000000	0.000000	6.042744	0.065516	NaN	0.000000	0.001574	0.001779	28.0833	0.024099	0.002037	11.8295	4.315366	-166.725	-0.035424	0.040823	-0.985771	-0.987085	0.065516	11.8295	-0.989925	-1.659975E+13	-3.946823E-15	NaN
1142	1.000000	0.082160	7.37623e+06	-57239.1	1055.82	-29737.3	0.000000	0.000000	6.082764	-0.030519	NaN	0.000000	0.001582	0.001776	28.0819	0.087517	0.002062	42.4452	11.2158	-166.004	-0.041847	0.080887	-0.945748	-0.947022	-0.030519	42.4452	-0.945209	-4.143836E+12	7.364815E-15	NaN
1142	1.000000	0.122173	7.37623e+06	-57239.1	1055.82	-29737.3	0.000000	0.000000	6.122777	-0.005039	NaN	0.000000	0.001587	0.001740	28.0816	0.057496	0.001989	28.9066	106.095	-165.952	-0.077715	0.120852	-0.905736	-0.907057	-0.005039	28.9066	-0.905605	-1.210019E+12	4.164058E-15	NaN
1142	1.000000	0.162196	7.37623e+06	-57239.1	1055.82	-29737.3	0.000000	0.000000	6.162802	0.024746	NaN	0.000000	0.001585	0.001761	28.0815	0.048113	0.002012	23.9171	-121.948	-164.411	0.023452	0.160879	-0.865712	-0.867029	0.024746	23.9171	-0.866488	-3.580340E+11	-6.911691E-14	NaN
1142	1.000000	0.202212	7.37623e+06	-57239.1	1055.82	-29737.3	0.000000	0.000000	6.202816	-0.018838	NaN	0.000000	0.001591	0.001764	28.0828	0.096207	0.001965	48.9567	58.6901	-168.561	-0.052108	0.200909	-0.825696	-0.826999	-0.018838	48.9567	-0.825407	-9.943255E+10	1.894521E-13	NaN
1142	1.000000	0.242211	7.37623e+06	-57239.1	1055.82	-29737.3	0.000000	0.000000	6.242811	-0.101886	NaN	0.000000	0.001591	0.001720	28.0829	0.053850	0.001894	28.4308	152.825	-167.468	-0.047019	0.240904	-0.785698	-0.787004	-0.101886	28.4308	-0.783010	-2.643194E+10	3.854658E-12	NaN
1142	1.000000	0.282251	7.37623e+06	-57239.1	1055.82	-29737.3	0.000000	0.000000	6.282851	-0.111936	NaN	0.000000	0.001578	0.001732	28.0829	0.038706	0.001885	20.536	134.453	-164.042	-0.014792	0.280911	-0.745657	-0.746997	-0.111936	20.536	-0.741569	-7.218248E+9	1.550739E-11	NaN
1142	1.000000	0.322264	7.37623e+06	-57239.1	1055.82	-29737.3	0.000000	0.000000	6.322867	-0.051163	NaN	0.000000	0.001567	0.001738	28.0828	0.081573	0.002001	40.7731	-98.5358	-167.026	-0.036411	0.320905	-0.705644	-0.707004	-0.051163	40.7731	-0.704703	-2.268547E+9	2.255339E-11	NaN
1142	1.000000	0.362248	7.37623e+06	-57239.1	1055.82	-29737.3	0.000000	0.000000	6.362849	-0.074156	NaN	0.000000	0.001592	0.001675	28.0816	0.021141	0.002031	10.4103	167.039	-169.229	-0.173035	0.360984	-0.665661	-0.666924	-0.074156	10.4103	-0.660318	-5.608223E+8	1.322279E-10	NaN
1142	1.000000	0.402269	7.37623e+06	-57239.1	1055.82	-29737.3	0.000000	0.000000	6.402872	-0.038948	NaN	0.000000	0.001623	0.001734	28.0817	0.095160	0.001992	47.7817	62.5239	-166.11	-0.031799	0.400972	-0.625639	-0.626937	-0.038948	47.7817	-0.625028	-1.839601E+8	2.117204E-10	NaN
1142	1.000000	0.442306	7.37623e+06	-57239.1	1055.82	-29737.3	0.000000	0.000000	6.442911	0.020409	NaN	0.000000	0.001657	0.001736	28.0816	0.108034	0.001916	56.3892	62.7852	-167.281	0.010549	0.441014	-0.585603	-0.586894	0.020409	56.3892	-0.585874	-5.318313E+7	-3.837546E-10	NaN
1142	1.000000	0.482309	7.37623e+06	-57239.1	1055.82	-29737.3	0.000000	0.000000	6.482913	-0.013296	NaN	0.000000	0.001586	0.001768	28.0827	0.046591	0.001990	23.411	-12.3452	-163.336	0.031543	0.481004	-0.545599	-0.546904	-0.013296	23.411	-0.545173	-1.455735E+7	9.133502E-10	NaN
1142	1.000000	0.522357	7.37623e+06	-57239.1	1055.82	-29737.3	0.000000	0.000000	6.522962	-0.002793	NaN	0.000000	0.001641	0.001712	28.0828	0.052973	0.002006	26.4077	-175.272	-164.881	0.013288	0.521054	-0.505551	-0.506855	-0.002793	26.4077	-0.505472	-4.08621e+06	6.835742E-10	NaN
1142	1.000000	0.562352	7.37623e+06	-57239.1	1055.82	-29737.3	0.000000	0.000000	6.562957	-0.007632	NaN	0.000000	0.001674	0.001719	28.0828	0.025883	0.002066	12.5307	83.1212	-166.614	0.061159	0.561063	-0.465556	-0.466845	-0.007632	12.5307	-0.465099	-1.11338e+06	6.854753E-9	NaN
1142	1.000000	0.602377	7.37623e+06	-57239.1	1055.82	-29737.3	0.000000	0.000000	6.602981	-0.007650	NaN	0.000000	0.001654	0.001724	28.0828	0.160654	0.002085	77.052	7.538756	-167.678	-0.006016	0.601075	-0.425532	-0.426833	-0.007650	77.052	-0.425457	-307440	2.488328E-8	NaN
1142	1.000000	0.642426	7.37623e+06	-57239.1	1055.82	-29737.3	0.000000	0.000000	6.643030	-0.016340	NaN	0.000000	0.001570	0.001782	28.0815	0.117184	0.001943	60.3202	101.568	-163.446	0.016646	0.641097	-0.385483	-0.386811	-0.016340	60.3202	-0.385279	-82336.1	1.984596E-7	NaN
1142	1.000000	0.682412	7.37623e+06	-57239.1	1055.82	-29737.3	0.000000	0.000000	6.683016	-0.019899	NaN	0.000000	0.001602	0.001743	28.0818	0.044016	0.001980	22.2288	150.59	-168.242	-0.044938	0.681087	-0.345496	-0.346822	-0.019899	22.2288	-0.344825	-21468.8	9.268753E-7	NaN
1142	1.000000	0.722435	7.37623e+06	-57239.1	1055.82	-29737.3	0.000000	0.000000	6.723037	-0.044854	NaN	0.000000	0.001578	0.001734	28.0816	0.015889	0.001877	8.465138	54.2803	-166.822	-0.071353	0.721149	-0.305474	-0.306760	-0.044854	8.465138	-0.301500	-4953.94	9.054245E-6	NaN
1142	1.000000	0.762452	7.37623e+06	-57239.1	1055.82	-29737.3	0.000000	0.000000	6.763055	-0.018631	NaN	0.000000	0.001566	0.001759	28.0827	0.149316	0.002007	74.3843	153.08	-164.604	0.055476	0.761066	-0.265457	-0.266843	-0.018631	74.3843	-0.265269	-1410.89	1.320481E-5	NaN
1142	1.000000	0.802427	7.37623e+06	-57239.1	1055.82	-29737.3	0.000000	0.000000	6.803032	-0.001498	NaN	0.000000	0.001618	0.001810	28.0828	0.021472	0.001974	10.8798	-173.833	-164.598	-0.021052	0.801155	-0.225481	-0.226753	-0.001498	10.8798	-0.225378	-338.328	4.428926E-6	NaN
1142	1.000000	0.842477	7.37623e+06	-57239.1	1055.82	-29737.3	0.000000	0.000000	6.843081	-0.021651	NaN	0.000000	0.001615	0.001801	28.0828	0.189470	0.002023	93.6412	-133.634	-164.953	-0.033859	0.841127	-0.185432	-0.186781	-0.021651	93.6412	-0.185258	-74.9	0.000289	NaN
1142	1.000000	0.882522	7.37623e+06	-57239.1	1055.82	-29737.3	0.000000	0.000000	6.883125	-0.033863	NaN	0.000000	0.001545	0.001747	28.0818	0.098145	0.001969	49.8558	18.7749	-168.024	-0.089989	0.881169	-0.145386	-0.146740	-0.033863	49.8558	-0.144877	-14.5843	0.002322	NaN
1142	1.000000	0.922512	7.37623e+06	-57239.1	1055.82	-29737.3	0.000000	0.000000	6.923117	0.017404	NaN	0.000000	0.001538	0.001737	28.0818	0.104538	0.002019	51.789	-128.565	-166.379	0.063645	0.921197	-0.105396	-0.106712	0.017404	51.789	-0.105649	-2.427506	-0.007170	NaN
1142	1.000000	0.962525	7.37623e+06	-57239.1	1055.82	-29737.3	0.000000	0.000000	6.963127	-0.047105	NaN	0.000000	0.001523	0.001722	28.0822	0.047387	0.002055	23.0648	-90.0836	-166.258	0.019386	0.961199	-0.065384	-0.066709	-0.047105	23.0648	-0.063852	-0.231529	0.203453	NaN
1142	1.000000	1.002500	7.37623e+06	-57239.1	1055.82	-29737.3	0.000000	0.000000	7.003104	-0.011912	NaN	0.000000	0.001559	0.001718	28.0821	0.096089	0.001934	49.675	-141.853	-168.35	0.008569	1.001205	-0.025408	-0.026703	-0.011912	49.675	-0.025228	-0.017104	0.696449	NaN
1142	2.000000	1.036129	7.37623e+06	-57239.1	1055.82	-29737.3	0.000000	0.000000	7.037192	11.1487	NaN	0.000000	0.001572	0.001691	28.0835	9.560402	0.001609	5940.67	0.736275	-168.401	10.6209	1.035819	0.008220	0.007910	11.1487	5940.67	0.006813	0.005850	1905.88	70965
1142	2.000000	1.046068	7.37623e+06	-57239.1	1055.82	-29737.3	0.000000	0.000000	7.047639	23.485	NaN	0.000000	0.001597	0.001745	28.0833	20.6257	0.001924	10721.2	9.419886	179.085	23.1147	1.045714	0.018160	0.017806	23.485	10721.2	0.016517	0.017362	1352.67	74338.8
1142	2.000000	1.056061	7.37623e+06	-57239.1	1055.82	-29737.3	0.000000	0.000000	7.058589	46.7365	NaN	0.000000	0.001545	0.001721	28.0834	29.4532	0.001943	15161.5	5.925269	-179.638	46.0832	1.055692	0.028153	0.027784	46.7365	15161.5	0.025841	0.032563	1435.25	76763
1142	2.000000	1.066025	7.37623e+06	-57239.1	1055.82	-29737.3	0.000000	0.000000	7.069790	76.8136	NaN	0.000000	0.001556	0.001706	28.0819	38.7025	0.001756	22038.9	6.288751	175.194	77.1118	1.065767	0.038117	0.037859	76.8136	22038.9	0.035503	0.052923	1451.42	87526.4
1142	2.000000	1.075995	7.37623e+06	-57239.1	1055.82	-29737.3	0.000000	0.000000	7.081387	116.365	NaN	0.000000	0.001591	0.001775	28.0818	48.4087	0.001927	25124.3	5.551382	175.607	114.202	1.075644	0.048086	0.047735	116.365	25124.3	0.044613	0.076492	1521.28	82996.7
1142	2.000000	1.085936	7.37623e+06	-57239.1	1055.82	-29737.3	0.000000	0.000000	7.093095	159.311	NaN	0.000000	0.001558	0.001699	28.0818	56.6041	0.001797	31496.5	4.755190	174.145	155.967	1.085646	0.058028	0.057738	159.311	31496.5	0.054234	0.105948	1503.66	88407.5
1142	2.000000	1.095957	7.37623e+06	-57239.1	1055.82	-29737.3	0.000000	0.000000	7.105167	209.137	NaN	0.000000	0.001536	0.001752	28.0817	67.4578	0.001776	37978.5	5.693467	171.836	208.898	1.095640	0.068049	0.067731	209.137	37978.5	0.063919	0.140235	1491.33	92657.9
1142	2.000000	1.105982	7.37623e+06	-57239.1	1055.82	-29737.3	0.000000	0.000000	7.117582	267.242	NaN	0.000000	0.001542	0.001727	28.0829	76.0237	0.001873	40598.7	4.559191	172.467	267.648	1.105676	0.078074	0.077767	267.242	40598.7	0.073137	0.177083	1509.14	88144.8
1142	2.000000	1.115877	7.37623e+06	-57239.1	1055.82	-29737.3	0.000000	0.000000	7.130386	337.937	NaN	0.000000	0.001556	0.001741	28.083	85.0122	0.001721	49408.8	7.670339	167.644	333.358	1.115543	0.087969	0.087635	337.937	49408.8	0.082839	0.220202	1534.67	96198.2
1142	2.000000	1.125961	7.37623e+06	-57239.1	1055.82	-29737.3	0.000000	0.000000	7.143432	409.918	NaN	0.000000	0.001555	0.001753	28.0829	93.3275	0.001882	49589.4	1.222526	175.079	410.13	1.125649	0.098053	0.097741	409.918	49589.4	0.091853	0.264176	1551.69	88148.6
1142	2.000000	1.132480	7.37623e+06	-57239.1	1055.82	-29737.3	0.000000	0.000000	7.151762	453.953	NaN	0.000000	0.001584	0.001717	28.0817	98.1591	0.001669	58801.1	6.352181	-11.7606	455.692	1.132129	0.104572	0.104221	453.953	58801.1	0.098782	0.300506	1510.63	98001.3