File: remote_trans/data/nanoindenter/0828-1/data/Data_2025-08-06,11h17m57s/2025-07-22_16-23-58_1_402.txt
2025-07-22, 16:23:58, 1
Index	Phase	Displacement	Time	Pos X	Pos Y	Pos Z	Rot A	Rot B	Piezo Z	Force A	Force B	Gripper	Voltage A	Voltage B	Temperature	Amplitude force	Amplitude pos	Stiffness	Phase shift	Phase excitation	Force A raw	Displacement raw	HMax	HMax raw	Real Force	Real Stiffness	Contact Depth	Area	Hardness	Reduced Mod.
[#]	[#]	[um]	[s]	[um]	[um]	[um]	[m°]	[m°]	[um]	[uN]	[uN]	[V]	[V]	[V]	[°C]	[uN]	[um]	[N/m]	[°]	[°]	[uN]	[um]	[um]	[um]	[uN]	[N/m]	[um]	[um^2]	[MPa]	[MPa]
402	1.000000	0.002841	7.36899e+06	-56989.1	1005.82	-29737.8	0.000000	0.000000	6.002790	0.042571	NaN	0.000000	0.001673	0.001694	28.0817	0.010727	0.000962	11.1461	-110.032	-165.592	0.079191	0.001624	-1.104082	-1.105299	0.042571	11.1461	-1.106947	-6.213102E+14	-6.851864E-17	NaN
402	1.000000	0.044803	7.36899e+06	-56989.1	1005.82	-29737.8	0.000000	0.000000	6.044748	-0.047928	NaN	0.000000	0.001662	0.001684	28.0821	0.107541	0.001957	54.9618	-97.1049	10.7559	0.041444	0.043408	-1.062120	-1.063516	-0.047928	54.9618	-1.061466	-1.522397E+14	3.148188E-16	NaN
402	1.000000	0.086825	7.36899e+06	-56989.1	1005.82	-29737.8	0.000000	0.000000	6.086774	0.060940	NaN	0.000000	0.001691	0.001630	28.0812	0.073086	0.001911	38.2361	-57.5842	-164.193	0.093063	0.085516	-1.020099	-1.021407	0.060940	38.2361	-1.021294	-4.388986E+13	-1.388473E-15	NaN
402	1.000000	0.128808	7.36899e+06	-56989.1	1005.82	-29737.8	0.000000	0.000000	6.128755	0.002580	NaN	0.000000	0.001686	0.001680	28.0825	0.107054	0.002048	52.2612	170.772	20.1341	0.018768	0.127499	-0.978115	-0.979425	0.002580	52.2612	-0.978152	-1.152173E+13	-2.239026E-16	NaN
402	1.000000	0.170846	7.36899e+06	-56989.1	1005.82	-29737.8	0.000000	0.000000	6.170793	-0.009647	NaN	0.000000	0.001696	0.001643	28.0827	0.096365	0.001933	49.8546	37.0578	-166.41	0.001363	0.169552	-0.936077	-0.937371	-0.009647	49.8546	-0.935932	-3.106347E+12	3.105600E-15	NaN
402	1.000000	0.212863	7.36899e+06	-56989.1	1005.82	-29737.8	0.000000	0.000000	6.212809	0.003695	NaN	0.000000	0.001734	0.001593	28.0825	0.103129	0.001998	51.6104	-84.857	21.1464	0.066901	0.211530	-0.894061	-0.895393	0.003695	51.6104	-0.894114	-8.463097E+11	-4.366243E-15	NaN
402	1.000000	0.254887	7.36899e+06	-56989.1	1005.82	-29737.8	0.000000	0.000000	6.254835	0.037822	NaN	0.000000	0.001731	0.001659	28.0814	0.035466	0.001939	18.2928	-170.255	-166.913	0.012255	0.253560	-0.852037	-0.853364	0.037822	18.2928	-0.853587	-2.395029E+11	-1.579180E-13	NaN
402	1.000000	0.296918	7.36899e+06	-56989.1	1005.82	-29737.8	0.000000	0.000000	6.296864	-0.002446	NaN	0.000000	0.001651	0.001662	28.0812	0.036443	0.001947	18.7138	175.736	17.3872	0.012882	0.295550	-0.810006	-0.811373	-0.002446	18.7138	-0.809908	-6.127980E+10	3.991921E-14	NaN
402	1.000000	0.338894	7.36899e+06	-56989.1	1005.82	-29737.8	0.000000	0.000000	6.338841	0.018125	NaN	0.000000	0.001677	0.001670	28.0811	0.071925	0.001959	36.7138	109.57	-167.888	-0.023982	0.337596	-0.768030	-0.769327	0.018125	36.7138	-0.768400	-1.673207E+10	-1.083222E-12	NaN
402	1.000000	0.380950	7.36899e+06	-56989.1	1005.82	-29737.8	0.000000	0.000000	6.380897	-8.227782E-7	NaN	0.000000	0.001653	0.001662	28.0826	0.030294	0.001959	15.4633	-98.3718	17.429	0.009925	0.379582	-0.725973	-0.727341	-8.227782E-7	15.4633	-0.725973	-4.425052E+9	1.859364E-16	NaN
402	1.000000	0.422950	7.36899e+06	-56989.1	1005.82	-29737.8	0.000000	0.000000	6.422897	0.007485	NaN	0.000000	0.001694	0.001636	28.0824	0.056921	0.002128	26.7428	-53.9465	-163.883	0.092888	0.421641	-0.683973	-0.685282	0.007485	26.7428	-0.684183	-1.189623E+9	-6.291620E-12	NaN
402	1.000000	0.464964	7.36899e+06	-56989.1	1005.82	-29737.8	0.000000	0.000000	6.464910	-0.020705	NaN	0.000000	0.001612	0.001684	28.0822	0.020022	0.001979	10.1165	55.4214	16.0585	-0.001082	0.463557	-0.641959	-0.643366	-0.020705	10.1165	-0.640424	-2.993010E+8	6.917629E-11	NaN
402	1.000000	0.506990	7.36899e+06	-56989.1	1005.82	-29737.8	0.000000	0.000000	6.506935	-0.043809	NaN	0.000000	0.001622	0.001629	28.0814	0.097846	0.001986	49.2796	-124.126	-164.939	-0.044942	0.505691	-0.599933	-0.601232	-0.043809	49.2796	-0.599267	-8.135041E+7	5.385239E-10	NaN
402	1.000000	0.549001	7.369e+06	-56989.1	1005.82	-29737.8	0.000000	0.000000	6.548946	-0.025930	NaN	0.000000	0.001607	0.001679	28.0815	0.053433	0.001938	27.5771	-91.0166	15.0099	-0.009346	0.547630	-0.557923	-0.559294	-0.025930	27.5771	-0.557217	-2.137364E+7	1.213187E-9	NaN
402	1.000000	0.591055	7.369e+06	-56989.1	1005.82	-29737.8	0.000000	0.000000	6.591001	-0.019617	NaN	0.000000	0.001579	0.001619	28.0815	0.054727	0.002015	27.1601	-102.569	-165.29	0.049457	0.589715	-0.515868	-0.517209	-0.019617	27.1601	-0.515327	-5.60507e+06	3.499813E-9	NaN
402	1.000000	0.633073	7.369e+06	-56989.1	1005.82	-29737.8	0.000000	0.000000	6.633020	0.007009	NaN	0.000000	0.001643	0.001659	28.0814	0.081624	0.001877	43.4755	83.6812	16.6561	0.088987	0.631703	-0.473850	-0.475220	0.007009	43.4755	-0.473971	-1.48279e+06	-4.726677E-9	NaN
402	1.000000	0.675083	7.369e+06	-56989.1	1005.82	-29737.8	0.000000	0.000000	6.675028	-0.020556	NaN	0.000000	0.001642	0.001616	28.0825	0.080443	0.002101	38.2875	171.163	-166.283	-0.058163	0.673743	-0.431841	-0.433180	-0.020556	38.2875	-0.431438	-373597	5.502251E-8	NaN
402	1.000000	0.717058	7.369e+06	-56989.1	1005.82	-29737.8	0.000000	0.000000	6.717005	0.018668	NaN	0.000000	0.001630	0.001597	28.0827	0.058786	0.002028	28.983	-104.745	15.6276	-0.026542	0.715758	-0.389865	-0.391166	0.018668	28.983	-0.390348	-97308.7	-1.918400E-7	NaN
402	1.000000	0.759081	7.369e+06	-56989.1	1005.82	-29737.8	0.000000	0.000000	6.759024	-0.067393	NaN	0.000000	0.001662	0.001589	28.0824	0.053928	0.001981	27.2168	77.7802	-165.766	-0.046044	0.757849	-0.347843	-0.349074	-0.067393	27.2168	-0.345986	-22319.8	3.019414E-6	NaN
402	1.000000	0.801136	7.369e+06	-56989.1	1005.82	-29737.8	0.000000	0.000000	6.801082	-0.023681	NaN	0.000000	0.001591	0.001628	28.0811	0.092124	0.002045	45.0441	-153.014	13.5913	-0.024988	0.799736	-0.305788	-0.307188	-0.023681	45.0441	-0.305393	-5659.66	4.184102E-6	NaN
402	1.000000	0.843109	7.369e+06	-56989.1	1005.82	-29737.8	0.000000	0.000000	6.843057	0.032290	NaN	0.000000	0.001634	0.001617	28.081	0.022687	0.002010	11.2862	-5.742714	-165.569	0.045754	0.841793	-0.263814	-0.265131	0.032290	11.2862	-0.265960	-1445.55	-2.233742E-5	NaN
402	1.000000	0.885167	7.369e+06	-56989.1	1005.82	-29737.8	0.000000	0.000000	6.885108	-0.143979	NaN	0.000000	0.001645	0.001596	28.0815	0.085057	0.002097	40.5559	-41.9473	10.6441	-0.184487	0.883820	-0.221756	-0.223104	-0.143979	40.5559	-0.219094	-268.648	0.000536	NaN
402	1.000000	0.927191	7.369e+06	-56989.1	1005.82	-29737.8	0.000000	0.000000	6.927137	-0.019741	NaN	0.000000	0.001639	0.001607	28.0822	0.036247	0.002096	17.2944	39.4258	-165.095	0.013597	0.925865	-0.179732	-0.181058	-0.019741	17.2944	-0.178876	-58.3888	0.000338	NaN
402	1.000000	0.969195	7.369e+06	-56989.1	1005.82	-29737.8	0.000000	0.000000	6.969140	-0.038190	NaN	0.000000	0.001675	0.001535	28.0823	0.047012	0.001969	23.8764	-113.837	17.7512	-0.083739	0.967815	-0.137728	-0.139108	-0.038190	23.8764	-0.136529	-10.1719	0.003754	NaN
402	1.000000	1.011196	7.369e+06	-56989.1	1005.82	-29737.8	0.000000	0.000000	7.011142	-0.027770	NaN	0.000000	0.001620	0.001552	28.0824	0.016394	0.001982	8.273143	-151.705	-166.996	-0.063214	1.009873	-0.095727	-0.097050	-0.027770	8.273143	-0.093210	-1.283535	0.021636	NaN
402	1.000000	1.053206	7.369e+06	-56989.1	1005.82	-29737.8	0.000000	0.000000	7.053152	-0.017649	NaN	0.000000	0.001655	0.001545	28.081	0.072812	0.001944	37.4595	-96.2914	16.6405	-0.010538	1.051866	-0.053717	-0.055058	-0.017649	37.4595	-0.053364	-0.115150	0.153272	NaN
402	1.000000	1.095236	7.369e+06	-56989.1	1005.82	-29737.8	0.000000	0.000000	7.095181	-0.034475	NaN	0.000000	0.001654	0.001613	28.0812	0.055187	0.002016	27.374	-23.8102	-165.42	0.015688	1.093901	-0.011687	-0.013023	-0.034475	27.374	-0.010743	-0.006811	5.061402	NaN
402	2.000000	1.120365	7.369e+06	-56989.1	1005.82	-29737.8	0.000000	0.000000	7.120869	13.5504	NaN	0.000000	0.001707	0.001586	28.0812	14.39	0.001803	7981.5	9.596500	3.394859	13.0862	1.119989	0.013441	0.013066	13.5504	7981.5	0.012168	0.011692	1158.96	67439.7
402	2.000000	1.130823	7.369e+06	-56989.1	1005.82	-29737.8	0.000000	0.000000	7.132153	33.6277	NaN	0.000000	0.001680	0.001600	28.0813	24.9398	0.001734	14386.7	6.133329	-178.657	33.8944	1.130484	0.023900	0.023560	33.6277	14386.7	0.022147	0.026028	1291.97	81472.7
402	2.000000	1.141255	7.369e+06	-56989.1	1005.82	-29737.8	0.000000	0.000000	7.143507	56.0483	NaN	0.000000	0.001653	0.001613	28.0835	35.5281	0.001820	19522.5	3.929048	0.893857	54.4411	1.140972	0.034331	0.034049	56.0483	19522.5	0.032178	0.045379	1235.12	83730.3
402	2.000000	1.151781	7.369e+06	-56989.1	1005.82	-29737.8	0.000000	0.000000	7.155483	91.2764	NaN	0.000000	0.001670	0.001565	28.0832	45.6307	0.001817	25112.6	6.162051	177.16	93.755	1.151455	0.044857	0.044531	91.2764	25112.6	0.042131	0.069653	1310.45	86935.1
402	2.000000	1.162257	7.369e+06	-56989.1	1005.82	-29737.8	0.000000	0.000000	7.167870	137.741	NaN	0.000000	0.001606	0.001582	28.0825	55.8909	0.001806	30947.2	5.521255	-4.148193	138.202	1.161894	0.055333	0.054971	137.741	30947.2	0.051995	0.098679	1395.85	90008.3
402	2.000000	1.172709	7.369e+06	-56989.1	1005.82	-29737.8	0.000000	0.000000	7.180432	189.013	NaN	0.000000	0.001629	0.001604	28.0811	66.9207	0.001962	34117	6.687420	173.36	185.783	1.172387	0.065785	0.065464	189.013	34117	0.061630	0.131719	1434.97	85885.6
402	2.000000	1.183207	7.369e+06	-56989.1	1005.82	-29737.8	0.000000	0.000000	7.193487	251.166	NaN	0.000000	0.001561	0.001581	28.0811	77.2937	0.001713	45126.5	8.249449	-9.620218	250.006	1.182895	0.076283	0.075972	251.166	45126.5	0.072109	0.172773	1453.74	99189.7
402	2.000000	1.193708	7.369e+06	-56989.1	1005.82	-29737.8	0.000000	0.000000	7.206569	313.889	NaN	0.000000	0.001597	0.001642	28.0813	88.0301	0.001818	48415.8	3.997465	173.232	313.199	1.193305	0.086784	0.086382	313.889	48415.8	0.081922	0.215937	1453.62	95191.2
402	2.000000	1.204167	7.369e+06	-56989.1	1005.82	-29737.8	0.000000	0.000000	7.220447	396.98	NaN	0.000000	0.001609	0.001591	28.0824	95.1814	0.001791	53149.6	-0.501172	-2.332852	394.225	1.203889	0.097244	0.096966	396.98	53149.6	0.091642	0.263103	1508.84	94669.5
402	2.000000	1.213074	7.369e+06	-56989.1	1005.82	-29737.8	0.000000	0.000000	7.231935	459.73	NaN	0.000000	0.001599	0.001607	28.0825	106.047	0.001810	58600.3	8.149070	-11.5416	451.558	1.212647	0.106151	0.105723	459.73	58600.3	0.100267	0.308576	1489.84	96381.2