File: remote_trans/data/nanoindenter/0828-1/data/Data_2025-08-06,11h17m57s/2025-07-22_16-23-58_1_1052.txt
2025-07-22, 16:23:58, 1
Index	Phase	Displacement	Time	Pos X	Pos Y	Pos Z	Rot A	Rot B	Piezo Z	Force A	Force B	Gripper	Voltage A	Voltage B	Temperature	Amplitude force	Amplitude pos	Stiffness	Phase shift	Phase excitation	Force A raw	Displacement raw	HMax	HMax raw	Real Force	Real Stiffness	Contact Depth	Area	Hardness	Reduced Mod.
[#]	[#]	[um]	[s]	[um]	[um]	[um]	[m°]	[m°]	[um]	[uN]	[uN]	[V]	[V]	[V]	[°C]	[uN]	[um]	[N/m]	[°]	[°]	[uN]	[um]	[um]	[um]	[uN]	[N/m]	[um]	[um^2]	[MPa]	[MPa]
1052	1.000000	0.002268	7.37533e+06	-52739.1	1055.82	-29748.1	0.000000	0.000000	6.002792	-0.063928	NaN	0.000000	0.001664	0.001819	28.083	0.152422	0.000912	167.077	-177.771	-162.644	-0.014606	0.001011	-1.219167	-1.220424	-0.063928	167.077	-1.218880	-1.965688E+16	3.252172E-18	NaN
1052	1.000000	0.046216	7.37533e+06	-52739.1	1055.82	-29748.1	0.000000	0.000000	6.046741	-0.044793	NaN	0.000000	0.001610	0.001785	28.0833	0.024543	0.001964	12.4958	108.771	-166.745	-0.013615	0.044941	-1.175219	-1.176495	-0.044793	12.4958	-1.172531	-4.707582E+15	9.514970E-18	NaN
1052	1.000000	0.090229	7.37533e+06	-52739.1	1055.82	-29748.1	0.000000	0.000000	6.090755	-0.024971	NaN	0.000000	0.001646	0.001769	28.0846	0.098464	0.002038	48.3145	129.024	-165.395	-0.059933	0.088944	-1.131206	-1.132492	-0.024971	48.3145	-1.130819	-1.298981E+15	1.922356E-17	NaN
1052	1.000000	0.134260	7.37533e+06	-52739.1	1055.82	-29748.1	0.000000	0.000000	6.134788	0.022938	NaN	0.000000	0.001647	0.001804	28.0846	0.026718	0.002076	12.8723	132.44	-168.295	-0.008247	0.132949	-1.087175	-1.088487	0.022938	12.8723	-1.088512	-3.514227E+14	-6.527287E-17	NaN
1052	1.000000	0.178281	7.37533e+06	-52739.1	1055.82	-29748.1	0.000000	0.000000	6.178801	-0.151347	NaN	0.000000	0.001606	0.001781	28.0847	0.028839	0.001875	15.3801	86.1709	-166.456	-0.133158	0.176939	-1.043154	-1.044496	-0.151347	15.3801	-1.035774	-6.872873E+13	2.202096E-15	NaN
1052	1.000000	0.222287	7.37533e+06	-52739.1	1055.82	-29748.1	0.000000	0.000000	6.222813	-0.003729	NaN	0.000000	0.001577	0.001736	28.0835	0.054290	0.001763	30.7996	-59.3493	-166.987	0.080477	0.220930	-0.999149	-1.000506	-0.003729	30.7996	-0.999058	-2.203345E+13	1.692437E-16	NaN
1052	1.000000	0.266316	7.37533e+06	-52739.1	1055.82	-29748.1	0.000000	0.000000	6.266842	-0.028050	NaN	0.000000	0.001636	0.001760	28.0834	0.055340	0.002098	26.381	-63.7017	-170.274	-0.062938	0.265051	-0.955119	-0.956385	-0.028050	26.381	-0.954322	-5.499320E+12	5.100613E-15	NaN
1052	1.000000	0.310331	7.37533e+06	-52739.1	1055.82	-29748.1	0.000000	0.000000	6.310858	0.002015	NaN	0.000000	0.001661	0.001763	28.0834	0.084311	0.002045	41.2233	-60.1573	-166.988	-0.046215	0.309044	-0.911104	-0.912391	0.002015	41.2233	-0.911141	-1.437389E+12	-1.401633E-15	NaN
1052	1.000000	0.354381	7.37533e+06	-52739.1	1055.82	-29748.2	0.000000	0.000000	6.354903	-0.104114	NaN	0.000000	0.001660	0.001741	28.0845	0.107169	0.002025	52.9358	4.051430	-166.925	-0.145529	0.353060	-0.867054	-0.868375	-0.104114	52.9358	-0.865579	-3.480393E+11	2.991436E-13	NaN
1052	1.000000	0.398369	7.37533e+06	-52739.1	1055.82	-29748.2	0.000000	0.000000	6.398894	-0.037693	NaN	0.000000	0.001691	0.001798	28.0849	0.127120	0.001895	67.0713	103.397	-168.996	-0.034565	0.397102	-0.823066	-0.824334	-0.037693	67.0713	-0.822645	-9.121615E+10	4.132219E-13	NaN
1052	1.000000	0.442386	7.37533e+06	-52739.1	1055.82	-29748.2	0.000000	0.000000	6.442911	-0.041784	NaN	0.000000	0.001669	0.001792	28.0849	0.105341	0.002006	52.521	-25.7981	-169.635	-0.015410	0.441069	-0.779049	-0.780366	-0.041784	52.521	-0.778453	-2.291942E+10	1.823064E-12	NaN
1052	1.000000	0.486415	7.37533e+06	-52739.1	1055.82	-29748.2	0.000000	0.000000	6.486939	-0.072090	NaN	0.000000	0.001694	0.001809	28.0835	0.024489	0.002093	11.7008	-132.109	-164.54	-0.054300	0.485067	-0.735021	-0.736369	-0.072090	11.7008	-0.730400	-5.084582E+9	1.417808E-11	NaN
1052	1.000000	0.530421	7.37533e+06	-52739.1	1055.82	-29748.2	0.000000	0.000000	6.530945	-0.060900	NaN	0.000000	0.001729	0.001848	28.0835	0.026017	0.001959	13.2778	-37.365	-166.97	-0.061288	0.529100	-0.691014	-0.692336	-0.060900	13.2778	-0.687575	-1.323634E+9	4.600957E-11	NaN
1052	1.000000	0.574464	7.37533e+06	-52739.1	1055.82	-29748.2	0.000000	0.000000	6.574988	-0.051404	NaN	0.000000	0.001711	0.001825	28.0833	0.047429	0.002104	22.5388	31.4613	-168.642	-0.014428	0.573247	-0.646972	-0.648188	-0.051404	22.5388	-0.645261	-3.487073E+8	1.474139E-10	NaN
1052	1.000000	0.618486	7.37533e+06	-52739.1	1055.82	-29748.2	0.000000	0.000000	6.619012	-0.006349	NaN	0.000000	0.001679	0.001805	28.0846	0.024479	0.001952	12.5422	-78.6037	-168.957	-0.081313	0.617203	-0.602950	-0.604233	-0.006349	12.5422	-0.602570	-9.033422E+7	7.027796E-11	NaN
1052	1.000000	0.662497	7.37534e+06	-52739.1	1055.82	-29748.2	0.000000	0.000000	6.663026	0.052992	NaN	0.000000	0.001769	0.001761	28.0846	0.009288	0.002006	4.631143	74.9168	-166.664	0.044652	0.661175	-0.558938	-0.560260	0.052992	4.631143	-0.567520	-2.967277E+7	-1.785865E-9	NaN
1052	1.000000	0.706482	7.37534e+06	-52739.1	1055.82	-29748.2	0.000000	0.000000	6.707006	-0.076544	NaN	0.000000	0.001656	0.001785	28.0852	0.091133	0.002051	44.4239	109.174	-166.446	-0.075425	0.705184	-0.514953	-0.516251	-0.076544	44.4239	-0.513661	-5.31368e+06	1.440510E-8	NaN
1052	1.000000	0.750526	7.37534e+06	-52739.1	1055.82	-29748.2	0.000000	0.000000	6.751051	-0.046767	NaN	0.000000	0.001536	0.001794	28.0833	0.171472	0.002055	83.4485	170.178	-169.784	-0.062330	0.749246	-0.470909	-0.472189	-0.046767	83.4485	-0.470489	-1.32515e+06	3.529175E-8	NaN
1052	1.000000	0.794525	7.37534e+06	-52739.1	1055.82	-29748.2	0.000000	0.000000	6.795051	-0.011456	NaN	0.000000	0.001611	0.001766	28.0833	0.099842	0.002045	48.8288	62.4409	-167.771	-0.004575	0.793248	-0.426910	-0.428188	-0.011456	48.8288	-0.426734	-320511	3.574305E-8	NaN
1052	1.000000	0.838546	7.37534e+06	-52739.1	1055.82	-29748.2	0.000000	0.000000	6.839068	-0.106957	NaN	0.000000	0.001619	0.001803	28.0832	0.006888	0.001893	3.638086	119.048	-164.502	-0.133196	0.837251	-0.382890	-0.384184	-0.106957	3.638086	-0.360840	-36642.7	2.918923E-6	NaN
1052	1.000000	0.882580	7.37534e+06	-52739.1	1055.82	-29748.2	0.000000	0.000000	6.883103	-0.080129	NaN	0.000000	0.001633	0.001754	28.085	0.079927	0.002076	38.5083	-145.401	-167.383	0.003833	0.881244	-0.338856	-0.340192	-0.080129	38.5083	-0.337295	-16676.5	4.804902E-6	NaN
1052	1.000000	0.926592	7.37534e+06	-52739.1	1055.82	-29748.2	0.000000	0.000000	6.927116	-0.064534	NaN	0.000000	0.001609	0.001810	28.0843	0.097983	0.001965	49.8626	108.446	-166.265	-0.145745	0.925281	-0.294844	-0.296154	-0.064534	49.8626	-0.293873	-3812.86	1.692534E-5	NaN
1052	1.000000	0.970583	7.37534e+06	-52739.1	1055.82	-29748.2	0.000000	0.000000	6.971109	-0.006521	NaN	0.000000	0.001692	0.001792	28.0845	0.045888	0.001983	23.1417	-97.1267	-167.248	0.008426	0.969347	-0.250852	-0.252089	-0.006521	23.1417	-0.250641	-841.154	7.752234E-6	NaN
1052	1.000000	1.014605	7.37534e+06	-52739.1	1055.82	-29748.2	0.000000	0.000000	7.015127	-0.111976	NaN	0.000000	0.001619	0.001775	28.0833	0.056637	0.001895	29.88	176.172	-168.062	-0.159771	1.013299	-0.206831	-0.208136	-0.111976	29.88	-0.204020	-153.307	0.000730	NaN
1052	1.000000	1.058662	7.37534e+06	-52739.1	1055.82	-29748.2	0.000000	0.000000	7.059188	-0.001932	NaN	0.000000	0.001608	0.001774	28.0831	0.032290	0.001965	16.4365	-154.155	-166.825	-0.048055	1.057311	-0.162774	-0.164124	-0.001932	16.4365	-0.162685	-30.5881	6.317588E-5	NaN
1052	1.000000	1.102677	7.37534e+06	-52739.1	1055.82	-29748.2	0.000000	0.000000	7.103199	-0.113811	NaN	0.000000	0.001671	0.001741	28.0834	0.106947	0.002036	52.5366	-143.804	-163.055	-0.138487	1.101376	-0.118759	-0.120060	-0.113811	52.5366	-0.117134	-4.225637	0.026934	NaN
1052	1.000000	1.146680	7.37534e+06	-52739.1	1055.82	-29748.2	0.000000	0.000000	7.147205	-0.045601	NaN	0.000000	0.001606	0.001753	28.0843	0.076318	0.002109	36.183	-71.2409	-166.946	-0.006140	1.145386	-0.074756	-0.076050	-0.045601	36.183	-0.073810	-0.430146	0.106012	NaN
1052	1.000000	1.190673	7.37534e+06	-52739.1	1055.82	-29748.2	0.000000	0.000000	7.191198	-0.026254	NaN	0.000000	0.001596	0.001760	28.0845	0.110520	0.001914	57.7538	-139.457	-166.951	-0.079954	1.189412	-0.030763	-0.032024	-0.026254	57.7538	-0.030422	-0.023646	1.110302	NaN
1052	2.000000	1.228391	7.37534e+06	-52739.1	1055.82	-29748.2	0.000000	0.000000	7.229314	9.628657	NaN	0.000000	0.001570	0.001686	28.0845	8.966596	0.001504	5961.96	12.5122	-178.332	9.862671	1.228140	0.006956	0.006704	9.628657	5961.96	0.005744	0.004823	1996.37	78433.2
1052	2.000000	1.239323	7.37534e+06	-52739.1	1055.82	-29748.2	0.000000	0.000000	7.240919	26	NaN	0.000000	0.001603	0.001743	28.0843	20.749	0.001732	11977.4	7.541210	-179.286	26.0226	1.239053	0.017888	0.017618	26	11977.4	0.016260	0.017002	1529.21	83923.5
1052	2.000000	1.250286	7.37534e+06	-52739.1	1055.82	-29748.2	0.000000	0.000000	7.252675	45.2786	NaN	0.000000	0.001606	0.001721	28.0834	31.2639	0.001787	17492.3	4.076849	-179.264	43.8362	1.249915	0.028851	0.028480	45.2786	17492.3	0.026909	0.034581	1309.36	85941.5
1052	2.000000	1.261260	7.37534e+06	-52739.1	1055.82	-29748.2	0.000000	0.000000	7.265282	85.0019	NaN	0.000000	0.001608	0.001723	28.0833	43.179	0.001798	24009.8	7.692490	173.551	81.799	1.260907	0.039824	0.039472	85.0019	24009.8	0.037169	0.056917	1493.44	91947.9
1052	2.000000	1.272279	7.37534e+06	-52739.1	1055.82	-29748.2	0.000000	0.000000	7.277974	125.664	NaN	0.000000	0.001691	0.001742	28.083	55.4156	0.001778	31175.9	4.335801	175.233	125.69	1.271994	0.050843	0.050559	125.664	31175.9	0.047820	0.085794	1464.71	97244
1052	2.000000	1.283253	7.37534e+06	-52739.1	1055.82	-29748.2	0.000000	0.000000	7.291734	193.394	NaN	0.000000	0.001679	0.001782	28.0843	68.6268	0.001782	38518.6	7.418540	170.58	193.64	1.282960	0.061818	0.061525	193.394	38518.6	0.058052	0.118917	1626.29	102052
1052	2.000000	1.294110	7.37534e+06	-52739.1	1055.82	-29748.2	0.000000	0.000000	7.306154	280.032	NaN	0.000000	0.001654	0.001718	28.0843	80.0292	0.001819	43999.3	4.271032	172.505	273.83	1.293913	0.072675	0.072478	280.032	43999.3	0.067902	0.155657	1799.04	101891
1052	2.000000	1.305128	7.37534e+06	-52739.1	1055.82	-29748.2	0.000000	0.000000	7.321242	378.979	NaN	0.000000	0.001654	0.001735	28.0843	90.1714	0.001701	53003.2	2.668840	172.833	372.817	1.304824	0.083693	0.083388	378.979	53003.2	0.078330	0.199616	1898.54	108387
1052	2.000000	1.316261	7.37534e+06	-52739.1	1055.82	-29748.2	0.000000	0.000000	7.337008	491.643	NaN	0.000000	0.001661	0.001730	28.083	100.499	0.001898	52938.9	2.762950	173.099	492.049	1.316000	0.094826	0.094565	491.643	52938.9	0.087860	0.244236	2012.98	97868.6
1052	2.000000	1.324629	7.37534e+06	-52739.1	1055.82	-29748.2	0.000000	0.000000	7.350387	613.48	NaN	0.000000	0.001616	0.001729	28.0829	108.222	0.001745	62000.6	6.829095	-12.554	607.006	1.324243	0.103193	0.102808	613.48	62000.6	0.095772	0.284456	2156.68	106209