File: remote_trans/data/nanoindenter/0828-1/data/Data_2025-08-06,11h17m57s/2025-07-22_16-23-58_1_462.txt
2025-07-22, 16:23:58, 1
Index	Phase	Displacement	Time	Pos X	Pos Y	Pos Z	Rot A	Rot B	Piezo Z	Force A	Force B	Gripper	Voltage A	Voltage B	Temperature	Amplitude force	Amplitude pos	Stiffness	Phase shift	Phase excitation	Force A raw	Displacement raw	HMax	HMax raw	Real Force	Real Stiffness	Contact Depth	Area	Hardness	Reduced Mod.
[#]	[#]	[um]	[s]	[um]	[um]	[um]	[m°]	[m°]	[um]	[uN]	[uN]	[V]	[V]	[V]	[°C]	[uN]	[um]	[N/m]	[°]	[°]	[uN]	[um]	[um]	[um]	[uN]	[N/m]	[um]	[um^2]	[MPa]	[MPa]
462	1.000000	0.002496	7.36958e+06	-53989.1	1005.82	-29744.8	0.000000	0.000000	6.002765	-0.029956	NaN	0.000000	0.001515	0.001760	28.0815	0.072835	0.001046	69.6042	62.5769	-162.003	0.039899	0.001238	-1.067465	-1.068722	-0.029956	69.6042	-1.067142	-1.814634E+14	1.650796E-16	NaN
462	1.000000	0.042463	7.36958e+06	-53989.1	1005.82	-29744.8	0.000000	0.000000	6.042736	0.069740	NaN	0.000000	0.001489	0.001753	28.0814	0.036077	0.002172	16.6136	162.147	-170.801	0.078488	0.041141	-1.027498	-1.028819	0.069740	16.6136	-1.030646	-5.863678E+13	-1.189355E-15	NaN
462	1.000000	0.082518	7.36958e+06	-53989.1	1005.82	-29744.8	0.000000	0.000000	6.082787	-0.026180	NaN	0.000000	0.001551	0.001773	28.08	0.086173	0.001952	44.1566	74.0442	-164.771	0.021704	0.081201	-0.987443	-0.988759	-0.026180	44.1566	-0.986998	-1.515929E+13	1.727005E-15	NaN
462	1.000000	0.122509	7.36958e+06	-53989.1	1005.82	-29744.8	0.000000	0.000000	6.122782	0.070965	NaN	0.000000	0.001650	0.001757	28.0802	0.038543	0.002049	18.8147	109.45	-168.425	0.055306	0.121201	-0.947451	-0.948759	0.070965	18.8147	-0.950280	-4.850741E+12	-1.462973E-14	NaN
462	1.000000	0.162487	7.36958e+06	-53989.1	1005.82	-29744.8	0.000000	0.000000	6.162758	0.035290	NaN	0.000000	0.001571	0.001731	28.08	0.049697	0.001922	25.8637	91.8535	-167.321	-0.080166	0.161238	-0.907474	-0.908723	0.035290	25.8637	-0.908497	-1.323921E+12	-2.665567E-14	NaN
462	1.000000	0.202559	7.36958e+06	-53989.1	1005.82	-29744.8	0.000000	0.000000	6.202831	0.045848	NaN	0.000000	0.001587	0.001732	28.0804	0.040920	0.002011	20.3492	-147.534	-164.917	0.006017	0.201208	-0.867401	-0.868752	0.045848	20.3492	-0.869091	-3.882806E+11	-1.180806E-13	NaN
462	1.000000	0.242553	7.36958e+06	-53989.1	1005.82	-29744.8	0.000000	0.000000	6.242824	0.022735	NaN	0.000000	0.001618	0.001731	28.0812	0.088223	0.001924	45.8589	173.434	-162.759	-0.091896	0.241238	-0.827407	-0.828722	0.022735	45.8589	-0.827779	-1.070721E+11	-2.123312E-13	NaN
462	1.000000	0.282554	7.36958e+06	-53989.1	1005.82	-29744.8	0.000000	0.000000	6.282823	-0.011388	NaN	0.000000	0.001629	0.001744	28.0811	0.090784	0.002082	43.5978	-67.5369	-166.545	-0.001625	0.281290	-0.787407	-0.788670	-0.011388	43.5978	-0.787211	-3.014369E+10	3.777888E-13	NaN
462	1.000000	0.322608	7.36958e+06	-53989.1	1005.82	-29744.8	0.000000	0.000000	6.322877	-0.014978	NaN	0.000000	0.001612	0.001749	28.0812	0.111684	0.002069	53.9864	-51.6478	-167.337	-0.011276	0.321226	-0.747352	-0.748734	-0.014978	53.9864	-0.747144	-8.596927E+9	1.742268E-12	NaN
462	1.000000	0.362608	7.36958e+06	-53989.1	1005.82	-29744.8	0.000000	0.000000	6.362875	-0.064208	NaN	0.000000	0.001644	0.001778	28.0799	0.029172	0.002081	14.021	-165.262	-162.474	-0.075057	0.361302	-0.707353	-0.708658	-0.064208	14.021	-0.703918	-2.213250E+9	2.901078E-11	NaN
462	1.000000	0.402625	7.36958e+06	-53989.1	1005.82	-29744.8	0.000000	0.000000	6.402893	-0.042716	NaN	0.000000	0.001585	0.001766	28.08	0.059535	0.002054	28.9885	171.98	-167.422	0.011556	0.401345	-0.667335	-0.668615	-0.042716	28.9885	-0.666230	-6.757520E+8	6.321196E-11	NaN
462	1.000000	0.442649	7.36958e+06	-53989.1	1005.82	-29744.8	0.000000	0.000000	6.442919	-0.010962	NaN	0.000000	0.001614	0.001777	28.0798	0.069430	0.002050	33.875	114.913	-167.409	-0.050827	0.441303	-0.627311	-0.628658	-0.010962	33.875	-0.627069	-1.962293E+8	5.586509E-11	NaN
462	1.000000	0.482668	7.36958e+06	-53989.1	1005.82	-29744.8	0.000000	0.000000	6.482939	0.027626	NaN	0.000000	0.001518	0.001777	28.0801	0.045152	0.002186	20.6593	154.87	-165.983	0.027583	0.481321	-0.587293	-0.588640	0.027626	20.6593	-0.588296	-5.743362E+7	-4.810152E-10	NaN
462	1.000000	0.522660	7.36958e+06	-53989.1	1005.82	-29744.8	0.000000	0.000000	6.522930	-0.003884	NaN	0.000000	0.001556	0.001730	28.0812	0.027353	0.001958	13.9681	-86.8176	-168.42	0.001281	0.521377	-0.547300	-0.548584	-0.003884	13.9681	-0.547092	-1.547635E+7	2.509443E-10	NaN
462	1.000000	0.562687	7.36958e+06	-53989.1	1005.82	-29744.8	0.000000	0.000000	6.562957	-0.001214	NaN	0.000000	0.001543	0.001731	28.0814	0.068689	0.002033	33.7887	-7.093610	-165.069	0.003804	0.561377	-0.507273	-0.508584	-0.001214	33.7887	-0.507246	-4.32566e+06	2.806829E-10	NaN
462	1.000000	0.602728	7.36958e+06	-53989.1	1005.82	-29744.8	0.000000	0.000000	6.602997	-0.004627	NaN	0.000000	0.001564	0.001739	28.0814	0.069660	0.002001	34.8177	178.098	-164.587	-0.035040	0.601457	-0.467233	-0.468503	-0.004627	34.8177	-0.467133	-1.18901e+06	3.891057E-9	NaN
462	1.000000	0.642741	7.36958e+06	-53989.1	1005.82	-29744.8	0.000000	0.000000	6.643011	0.000740	NaN	0.000000	0.001548	0.001752	28.082	0.082258	0.002110	38.9793	109.6	-168.216	0.028937	0.641353	-0.427219	-0.428607	0.000740	38.9793	-0.427234	-325770	-2.270468E-9	NaN
462	1.000000	0.682751	7.36958e+06	-53989.1	1005.82	-29744.8	0.000000	0.000000	6.683018	-0.071462	NaN	0.000000	0.001560	0.001736	28.0803	0.096046	0.002055	46.7289	-88.1005	-167.017	-0.026434	0.681418	-0.387209	-0.388542	-0.071462	46.7289	-0.386062	-84489	8.458117E-7	NaN
462	1.000000	0.722743	7.36958e+06	-53989.1	1005.82	-29744.8	0.000000	0.000000	6.723014	0.018673	NaN	0.000000	0.001561	0.001749	28.0801	0.046007	0.001874	24.5551	148.035	-168.718	0.003416	0.721470	-0.347217	-0.348490	0.018673	24.5551	-0.347787	-23706.7	-7.876632E-7	NaN
462	1.000000	0.762793	7.36958e+06	-53989.1	1005.82	-29744.8	0.000000	0.000000	6.763065	0.044203	NaN	0.000000	0.001550	0.001757	28.0804	0.142566	0.001925	74.0632	35.7628	-162.692	-0.018221	0.761452	-0.307168	-0.308509	0.044203	74.0632	-0.307615	-6105.74	-7.239501E-6	NaN
462	1.000000	0.802793	7.36958e+06	-53989.1	1005.82	-29744.8	0.000000	0.000000	6.803062	-0.012230	NaN	0.000000	0.001615	0.001754	28.0812	0.038138	0.002000	19.0711	38.9497	-166.486	0.004606	0.801471	-0.267167	-0.268489	-0.012230	19.0711	-0.266687	-1482.9	8.247161E-6	NaN
462	1.000000	0.842835	7.36958e+06	-53989.1	1005.82	-29744.8	0.000000	0.000000	6.843103	-0.044427	NaN	0.000000	0.001562	0.001722	28.081	0.010973	0.002039	5.381401	37.5553	-167.994	-0.026920	0.841505	-0.227125	-0.228456	-0.044427	5.381401	-0.220934	-287.466	0.000155	NaN
462	1.000000	0.882820	7.36958e+06	-53989.1	1005.82	-29744.8	0.000000	0.000000	6.883088	-0.037596	NaN	0.000000	0.001571	0.001742	28.0809	0.051727	0.002091	24.7415	-99.4815	-166.689	-0.016368	0.881509	-0.187141	-0.188451	-0.037596	24.7415	-0.186001	-77.0886	0.000488	NaN
462	1.000000	0.922840	7.36958e+06	-53989.1	1005.82	-29744.8	0.000000	0.000000	6.923110	0.015070	NaN	0.000000	0.001547	0.001727	28.0799	0.171131	0.002138	80.0429	-161.468	-168.522	0.067412	0.921532	-0.147121	-0.148429	0.015070	80.0429	-0.147262	-16.1389	-0.000934	NaN
462	1.000000	0.962876	7.36958e+06	-53989.1	1005.82	-29744.8	0.000000	0.000000	6.963147	0.013958	NaN	0.000000	0.001570	0.001755	28.0797	0.053871	0.001992	27.0485	66.5349	-166.577	-0.045561	0.961559	-0.107084	-0.108401	0.013958	27.0485	-0.107471	-2.656025	-0.005255	NaN
462	1.000000	1.002861	7.36958e+06	-53989.1	1005.82	-29744.8	0.000000	0.000000	7.003129	-0.042129	NaN	0.000000	0.001639	0.001778	28.0798	0.108481	0.002056	52.7521	-170.018	-164.419	-0.132172	1.001551	-0.067099	-0.068410	-0.042129	52.7521	-0.066500	-0.274146	0.153673	NaN
462	1.000000	1.042891	7.36958e+06	-53989.1	1005.82	-29744.8	0.000000	0.000000	7.043163	0.040219	NaN	0.000000	0.001631	0.001752	28.0812	0.098982	0.002087	47.4295	-169.828	-167.893	0.023464	1.041592	-0.027069	-0.028368	0.040219	47.4295	-0.027705	-0.019906	-2.020449	NaN
462	2.000000	1.080632	7.36958e+06	-53989.1	1005.82	-29744.8	0.000000	0.000000	7.081216	7.624916	NaN	0.000000	0.001622	0.001692	28.0813	8.690422	0.001680	5173.87	4.727160	-169.032	7.623587	1.080290	0.010672	0.010330	7.624916	5173.87	0.009567	0.008704	876.039	50667.9
462	2.000000	1.090526	7.36958e+06	-53989.1	1005.82	-29744.8	0.000000	0.000000	7.091630	20.2728	NaN	0.000000	0.001546	0.001765	28.0816	18.5737	0.001718	10808.4	5.737435	-177.701	19.3694	1.090218	0.020565	0.020258	20.2728	10808.4	0.019159	0.021238	954.571	67761.6
462	2.000000	1.100521	7.36958e+06	-53989.1	1005.82	-29744.8	0.000000	0.000000	7.102405	39.2426	NaN	0.000000	0.001535	0.001796	28.0814	28.6716	0.001870	15331.8	8.353710	179.036	40.5972	1.100155	0.030560	0.030195	39.2426	15331.8	0.028641	0.037974	1033.42	71883
462	2.000000	1.110461	7.36958e+06	-53989.1	1005.82	-29744.8	0.000000	0.000000	7.113422	65.4362	NaN	0.000000	0.001570	0.001676	28.0801	38.183	0.001909	20001.2	4.955232	178.773	63.1119	1.110187	0.040500	0.040226	65.4362	20001.2	0.038047	0.059078	1107.62	75182.3
462	2.000000	1.120459	7.36958e+06	-53989.1	1005.82	-29744.8	0.000000	0.000000	7.124925	102.015	NaN	0.000000	0.001570	0.001723	28.0801	46.9571	0.001891	24828.9	4.159337	177.465	102.49	1.120126	0.050498	0.050165	102.015	24828.9	0.047417	0.084596	1205.9	77992.9
462	2.000000	1.130421	7.36958e+06	-53989.1	1005.82	-29744.8	0.000000	0.000000	7.136641	144.647	NaN	0.000000	0.001560	0.001730	28.0799	57.1894	0.001836	31150	5.653617	173.977	141.441	1.130154	0.060461	0.060194	144.647	31150	0.056978	0.115197	1255.65	83851.4
462	2.000000	1.140461	7.36958e+06	-53989.1	1005.82	-29744.8	0.000000	0.000000	7.148680	193.237	NaN	0.000000	0.001552	0.001748	28.0811	67.0019	0.001755	38170.2	4.858274	173.692	193.888	1.140125	0.070501	0.070164	193.237	38170.2	0.066704	0.150939	1280.23	89762.7
462	2.000000	1.150417	7.36958e+06	-53989.1	1005.82	-29744.8	0.000000	0.000000	7.160839	246.818	NaN	0.000000	0.001524	0.001764	28.0815	75.9985	0.001823	41687.9	4.275052	172.634	244.003	1.150107	0.080457	0.080147	246.818	41687.9	0.076016	0.189418	1303.03	87513
462	2.000000	1.160441	7.36958e+06	-53989.1	1005.82	-29744.8	0.000000	0.000000	7.173739	316.711	NaN	0.000000	0.001610	0.001716	28.0814	84.0944	0.001677	50140.7	3.778725	171.622	316.169	1.160195	0.090481	0.090235	316.711	50140.7	0.085744	0.233962	1353.69	94709
462	2.000000	1.170366	7.36958e+06	-53989.1	1005.82	-29744.8	0.000000	0.000000	7.187673	414.192	NaN	0.000000	0.001550	0.001754	28.0813	94.2804	0.001769	53289.9	2.299508	173.677	410.556	1.170055	0.100406	0.100094	414.192	53289.9	0.094576	0.278193	1488.86	92309.2
462	2.000000	1.178393	7.36958e+06	-53989.1	1005.82	-29744.8	0.000000	0.000000	7.198933	492.79	NaN	0.000000	0.001500	0.001735	28.08	100.609	0.001746	57639	4.008587	171.601	492.298	1.178048	0.108433	0.108088	492.79	57639	0.102020	0.318237	1548.5	93350