File: remote_trans/data/nanoindenter/0828-1/data/Data_2025-08-06,11h17m57s/2025-07-22_16-23-58_1_788.txt
2025-07-22, 16:23:58, 1
Index	Phase	Displacement	Time	Pos X	Pos Y	Pos Z	Rot A	Rot B	Piezo Z	Force A	Force B	Gripper	Voltage A	Voltage B	Temperature	Amplitude force	Amplitude pos	Stiffness	Phase shift	Phase excitation	Force A raw	Displacement raw	HMax	HMax raw	Real Force	Real Stiffness	Contact Depth	Area	Hardness	Reduced Mod.
[#]	[#]	[um]	[s]	[um]	[um]	[um]	[m°]	[m°]	[um]	[uN]	[uN]	[V]	[V]	[V]	[°C]	[uN]	[um]	[N/m]	[°]	[°]	[uN]	[um]	[um]	[um]	[uN]	[N/m]	[um]	[um^2]	[MPa]	[MPa]
788	1.000000	0.002738	7.37276e+06	-39539.1	1055.82	-29793.5	0.000000	0.000000	6.002811	0.085079	NaN	0.000000	0.001622	0.001695	28.0836	0.060373	0.000985	61.2878	-113.905	-175.988	0.081182	0.001478	-1.083239	-1.084499	0.085079	61.2878	-1.084280	-3.083172E+14	-2.759465E-16	NaN
788	1.000000	0.044656	7.37276e+06	-39539.1	1055.82	-29793.5	0.000000	0.000000	6.044729	0.083094	NaN	0.000000	0.001556	0.001693	28.0828	0.054233	0.001928	28.135	5.178866	14.3448	0.018749	0.043325	-1.041321	-1.042652	0.083094	28.135	-1.043536	-8.739981E+13	-9.507355E-16	NaN
788	1.000000	0.086687	7.37276e+06	-39539.1	1055.82	-29793.5	0.000000	0.000000	6.086759	0.064429	NaN	0.000000	0.001562	0.001669	28.0825	0.139243	0.002041	68.2186	-57.2717	-164.067	0.058889	0.085399	-0.999290	-1.000578	0.064429	68.2186	-0.999998	-2.268528E+13	-2.840127E-15	NaN
788	1.000000	0.128712	7.37276e+06	-39539.1	1055.82	-29793.5	0.000000	0.000000	6.128781	-0.002287	NaN	0.000000	0.001544	0.001667	28.0826	0.053117	0.001921	27.6489	-148.896	14.2303	-0.036377	0.127294	-0.957265	-0.958683	-0.002287	27.6489	-0.957203	-6.013861E+12	3.802557E-16	NaN
788	1.000000	0.170733	7.37276e+06	-39539.1	1055.82	-29793.5	0.000000	0.000000	6.170805	0.067298	NaN	0.000000	0.001680	0.001662	28.0837	0.002272	0.001943	1.169449	-15.7959	-167.378	-0.018686	0.169418	-0.915244	-0.916559	0.067298	1.169449	-0.958404	-6.242420E+12	-1.078074E-14	NaN
788	1.000000	0.212759	7.37276e+06	-39539.1	1055.82	-29793.5	0.000000	0.000000	6.212831	0.045585	NaN	0.000000	0.001632	0.001688	28.084	0.060750	0.001989	30.5461	-18.8615	15.1396	0.020295	0.211379	-0.873217	-0.874598	0.045585	30.5461	-0.874337	-4.572058E+11	-9.970388E-14	NaN
788	1.000000	0.254753	7.37276e+06	-39539.1	1055.82	-29793.5	0.000000	0.000000	6.254822	0.007497	NaN	0.000000	0.001624	0.001675	28.0838	0.062102	0.002053	30.2475	49.8652	-165.119	0.010666	0.253511	-0.831224	-0.832466	0.007497	30.2475	-0.831410	-1.199211E+11	-6.251457E-14	NaN
788	1.000000	0.296794	7.37276e+06	-39539.1	1055.82	-29793.5	0.000000	0.000000	6.296867	0.080414	NaN	0.000000	0.001620	0.001648	28.0827	0.093541	0.002011	46.5138	-60.145	15.0952	0.061924	0.295469	-0.789183	-0.790508	0.080414	46.5138	-0.790479	-3.338805E+10	-2.408458E-12	NaN
788	1.000000	0.338811	7.37276e+06	-39539.1	1055.82	-29793.5	0.000000	0.000000	6.338881	0.018054	NaN	0.000000	0.001592	0.001647	28.0826	0.052763	0.002017	26.159	-136.435	-165.863	0.036314	0.337557	-0.747166	-0.748420	0.018054	26.159	-0.747684	-8.743591E+9	-2.064859E-12	NaN
788	1.000000	0.380817	7.37276e+06	-39539.1	1055.82	-29793.5	0.000000	0.000000	6.380886	-0.014032	NaN	0.000000	0.001618	0.001627	28.0832	0.082857	0.001997	41.4882	-68.4077	13.2113	0.003141	0.379457	-0.705160	-0.706520	-0.014032	41.4882	-0.704906	-2.283089E+9	6.146149E-12	NaN
788	1.000000	0.422812	7.37277e+06	-39539.1	1055.82	-29793.5	0.000000	0.000000	6.422881	-0.014047	NaN	0.000000	0.001626	0.001651	28.0829	0.122616	0.001995	61.4706	73.3475	-165.185	0.002695	0.421491	-0.663164	-0.664486	-0.014047	61.4706	-0.662993	-6.101849E+8	2.302054E-11	NaN
788	1.000000	0.464834	7.37277e+06	-39539.1	1055.82	-29793.5	0.000000	0.000000	6.464903	-0.015040	NaN	0.000000	0.001603	0.001696	28.0842	0.058255	0.001949	29.897	53.1801	11.1974	-0.045010	0.463421	-0.621143	-0.622556	-0.015040	29.897	-0.620765	-1.607512E+8	9.355778E-11	NaN
788	1.000000	0.506882	7.37277e+06	-39539.1	1055.82	-29793.5	0.000000	0.000000	6.506956	0.103185	NaN	0.000000	0.001523	0.001715	28.0837	0.034481	0.002052	16.7995	-101.04	-163.474	0.071407	0.505541	-0.579095	-0.580436	0.103185	16.7995	-0.583701	-4.963607E+7	-2.078831E-9	NaN
788	1.000000	0.548883	7.37277e+06	-39539.1	1055.82	-29793.5	0.000000	0.000000	6.548953	0.017787	NaN	0.000000	0.001506	0.001675	28.0834	0.046114	0.001973	23.3719	78.9262	13.0005	0.011771	0.547515	-0.537094	-0.538462	0.017787	23.3719	-0.537665	-1.145419E+7	-1.552922E-9	NaN
788	1.000000	0.590900	7.37277e+06	-39539.1	1055.82	-29793.5	0.000000	0.000000	6.590971	0.036777	NaN	0.000000	0.001515	0.001639	28.0824	0.032511	0.001932	16.8279	53.1334	-166.841	-0.039813	0.589543	-0.495077	-0.496434	0.036777	16.8279	-0.496716	-3.0845e+06	-1.192305E-8	NaN
788	1.000000	0.632927	7.37277e+06	-39539.1	1055.82	-29793.5	0.000000	0.000000	6.632995	-0.029016	NaN	0.000000	0.001591	0.001651	28.0825	0.016966	0.001817	9.337559	-1.739323	15.3835	-0.007711	0.631536	-0.453050	-0.454441	-0.029016	9.337559	-0.450720	-698997	4.151150E-8	NaN
788	1.000000	0.674948	7.37277e+06	-39539.1	1055.82	-29793.5	0.000000	0.000000	6.675016	-0.015887	NaN	0.000000	0.001561	0.001688	28.0826	0.041421	0.001954	21.2025	31.8123	-167.337	0.025967	0.673627	-0.411029	-0.412350	-0.015887	21.2025	-0.410467	-188384	8.433540E-8	NaN
788	1.000000	0.716949	7.37277e+06	-39539.1	1055.82	-29793.5	0.000000	0.000000	6.717017	-0.049733	NaN	0.000000	0.001532	0.001628	28.0837	0.048789	0.002086	23.3861	169.76	12.4015	-0.020373	0.715600	-0.369027	-0.370377	-0.049733	23.3861	-0.367432	-45617.7	1.090213E-6	NaN
788	1.000000	0.758968	7.37277e+06	-39539.1	1055.82	-29793.5	0.000000	0.000000	6.759037	-0.004845	NaN	0.000000	0.001565	0.001675	28.0838	0.026808	0.001975	13.5708	70.2489	-167.21	-0.030236	0.757701	-0.327009	-0.328276	-0.004845	13.5708	-0.326741	-11686.6	4.146119E-7	NaN
788	1.000000	0.800981	7.37277e+06	-39539.1	1055.82	-29793.5	0.000000	0.000000	6.801051	0.020974	NaN	0.000000	0.001575	0.001690	28.0832	0.074360	0.001984	37.4874	-32.0997	14.7257	-0.071400	0.799598	-0.284996	-0.286379	0.020974	37.4874	-0.285416	-2847.85	-7.364924E-6	NaN
788	1.000000	0.842981	7.37277e+06	-39539.1	1055.82	-29793.5	0.000000	0.000000	6.843050	-0.009914	NaN	0.000000	0.001572	0.001713	28.0822	0.046608	0.001968	23.6826	158.046	-169.638	0.031269	0.841713	-0.242995	-0.244264	-0.009914	23.6826	-0.242681	-632.961	1.566350E-5	NaN
788	1.000000	0.885029	7.37277e+06	-39539.1	1055.82	-29793.5	0.000000	0.000000	6.885095	-0.074873	NaN	0.000000	0.001605	0.001697	28.0821	0.070728	0.001855	38.1257	-170.682	15.8068	0.031317	0.883691	-0.200948	-0.202286	-0.074873	38.1257	-0.199475	-129.144	0.000580	NaN
788	1.000000	0.927045	7.37277e+06	-39539.1	1055.82	-29793.5	0.000000	0.000000	6.927111	-0.097855	NaN	0.000000	0.001633	0.001745	28.0819	0.163384	0.002039	80.1141	16.3431	-167.571	-0.091071	0.925680	-0.158931	-0.160297	-0.097855	80.1141	-0.158015	-25.2716	0.003872	NaN
788	1.000000	0.969076	7.37277e+06	-39539.1	1055.82	-29793.5	0.000000	0.000000	6.969144	-0.025853	NaN	0.000000	0.001671	0.001732	28.082	0.096087	0.001994	48.1968	-99.9096	17.8086	-0.111339	0.967672	-0.116901	-0.118305	-0.025853	48.1968	-0.116499	-4.101148	0.006304	NaN
788	1.000000	1.011043	7.37277e+06	-39539.1	1055.82	-29793.5	0.000000	0.000000	7.011112	-0.002100	NaN	0.000000	0.001638	0.001793	28.0834	0.038108	0.001856	20.5295	-35.3542	-166.111	0.016865	1.009779	-0.074934	-0.076198	-0.002100	20.5295	-0.074857	-0.457952	0.004586	NaN
788	1.000000	1.053095	7.37277e+06	-39539.1	1055.82	-29793.5	0.000000	0.000000	7.053162	-0.042577	NaN	0.000000	0.001671	0.001707	28.0833	0.055112	0.002042	26.9869	173.655	11.4145	-0.066619	1.051728	-0.032882	-0.034248	-0.042577	26.9869	-0.031699	-0.025693	1.657119	NaN
788	2.000000	1.094502	7.37277e+06	-39539.1	1055.82	-29793.5	0.000000	0.000000	7.094938	8.922216	NaN	0.000000	0.001642	0.001718	28.0832	7.260620	0.001768	4106.18	16.9857	-174.79	9.805413	1.093688	0.008526	0.007711	8.922216	4106.18	0.006896	0.005931	1504.27	48712.1
788	2.000000	1.105001	7.37277e+06	-39539.1	1055.82	-29793.5	0.000000	0.000000	7.106101	25.0892	NaN	0.000000	0.001695	0.001743	28.0819	17.9313	0.001753	10229.5	8.058089	-0.178318	22.6508	1.104635	0.019024	0.018658	25.0892	10229.5	0.017184	0.018310	1370.28	69069.6
788	2.000000	1.115436	7.37277e+06	-39539.1	1055.82	-29793.5	0.000000	0.000000	7.117129	39.5078	NaN	0.000000	0.001660	0.001752	28.0825	26.2228	0.001618	16206.8	-1.141643	-173.748	36.7766	1.115220	0.029460	0.029243	39.5078	16206.8	0.027631	0.035977	1098.14	78065.4
788	2.000000	1.125957	7.37277e+06	-39539.1	1055.82	-29793.5	0.000000	0.000000	7.129077	74.2235	NaN	0.000000	0.001647	0.001767	28.0824	36.9494	0.001904	19409	4.827238	0.189774	70.2635	1.125590	0.039981	0.039613	74.2235	19409	0.037112	0.056779	1307.24	74418.9
788	2.000000	1.136454	7.37277e+06	-39539.1	1055.82	-29793.5	0.000000	0.000000	7.140937	107.42	NaN	0.000000	0.001656	0.001781	28.0837	46.0807	0.001740	26489.7	5.932094	175.296	106.909	1.136117	0.050477	0.050140	107.42	26489.7	0.047435	0.084651	1268.97	83182.8
788	2.000000	1.146934	7.37277e+06	-39539.1	1055.82	-29793.5	0.000000	0.000000	7.153667	162.167	NaN	0.000000	0.001576	0.001760	28.0833	55.4549	0.001737	31929.1	3.000820	-3.735152	159.586	1.146568	0.060957	0.060592	162.167	31929.1	0.057148	0.115780	1400.65	85731.9
788	2.000000	1.157425	7.37277e+06	-39539.1	1055.82	-29793.5	0.000000	0.000000	7.166559	220.599	NaN	0.000000	0.001692	0.001724	28.0835	68.5543	0.001844	37176	3.854826	174.882	217.885	1.157131	0.071448	0.071154	220.599	37176	0.066997	0.152088	1450.47	87094.1
788	2.000000	1.167942	7.37277e+06	-39539.1	1055.82	-29793.5	0.000000	0.000000	7.179611	282.284	NaN	0.000000	0.001554	0.001777	28.0825	77.8015	0.001784	43618.4	5.668104	-9.033680	281.735	1.167718	0.081965	0.081741	282.284	43618.4	0.077111	0.194213	1453.48	90428.2
788	2.000000	1.178366	7.37277e+06	-39539.1	1055.82	-29793.5	0.000000	0.000000	7.193010	354.659	NaN	0.000000	0.001550	0.001730	28.0822	85.2876	0.001759	48483.8	1.343519	174.98	351.559	1.178071	0.092390	0.092094	354.659	48483.8	0.086903	0.239565	1480.43	90502
788	2.000000	1.188941	7.37277e+06	-39539.1	1055.82	-29793.5	0.000000	0.000000	7.206309	420.945	NaN	0.000000	0.001604	0.001749	28.0825	96.2468	0.001909	50417.4	6.049473	-9.924095	420.616	1.188611	0.102965	0.102634	420.945	50417.4	0.096703	0.289374	1454.68	85629.7
788	2.000000	1.192929	7.37277e+06	-39539.1	1055.82	-29793.5	0.000000	0.000000	7.211665	454.235	NaN	0.000000	0.001658	0.001726	28.0824	98.3414	0.001724	57027.9	4.728202	-9.385881	452.938	1.192563	0.106952	0.106586	454.235	57027.9	0.100979	0.312480	1453.64	93207.2