File: remote_trans/data/nanoindenter/0828-1/data/Data_2025-08-06,11h17m57s/2025-07-22_16-23-58_1_1170.txt
2025-07-22, 16:23:58, 1
Index	Phase	Displacement	Time	Pos X	Pos Y	Pos Z	Rot A	Rot B	Piezo Z	Force A	Force B	Gripper	Voltage A	Voltage B	Temperature	Amplitude force	Amplitude pos	Stiffness	Phase shift	Phase excitation	Force A raw	Displacement raw	HMax	HMax raw	Real Force	Real Stiffness	Contact Depth	Area	Hardness	Reduced Mod.
[#]	[#]	[um]	[s]	[um]	[um]	[um]	[m°]	[m°]	[um]	[uN]	[uN]	[V]	[V]	[V]	[°C]	[uN]	[um]	[N/m]	[°]	[°]	[uN]	[um]	[um]	[um]	[uN]	[N/m]	[um]	[um^2]	[MPa]	[MPa]
1170	1.000000	0.002837	7.37649e+06	-57089.1	1105.82	-29737.3	0.000000	0.000000	6.002783	-0.023488	NaN	0.000000	0.001555	0.001689	28.0844	0.087409	0.001017	85.9074	22.0278	-166.406	-0.022496	0.001592	-1.027225	-1.028471	-0.023488	85.9074	-1.027020	-5.240766E+13	4.481806E-16	NaN
1170	1.000000	0.042792	7.37649e+06	-57089.1	1105.82	-29737.3	0.000000	0.000000	6.042739	0.005705	NaN	0.000000	0.001568	0.001737	28.0832	0.054943	0.001971	27.8723	-103.99	-163.17	-0.015088	0.041480	-0.987270	-0.988582	0.005705	27.8723	-0.987424	-1.536087E+13	-3.713912E-16	NaN
1170	1.000000	0.082801	7.37649e+06	-57089.1	1105.82	-29737.3	0.000000	0.000000	6.082749	0.047185	NaN	0.000000	0.001587	0.001712	28.0832	0.126599	0.001985	63.7833	-43.2764	-167.908	0.072690	0.081550	-0.947261	-0.948512	0.047185	63.7833	-0.947816	-4.493398E+12	-1.050104E-14	NaN
1170	1.000000	0.122845	7.37649e+06	-57089.1	1105.82	-29737.3	0.000000	0.000000	6.122792	0.025417	NaN	0.000000	0.001529	0.001697	28.0832	0.076569	0.001927	39.7331	-126.876	-166.455	0.042057	0.121527	-0.907217	-0.908535	0.025417	39.7331	-0.907697	-1.291393E+12	-1.968157E-14	NaN
1170	1.000000	0.162800	7.37649e+06	-57089.1	1105.82	-29737.4	0.000000	0.000000	6.162749	0.059602	NaN	0.000000	0.001556	0.001726	28.0845	0.075569	0.001959	38.567	56.9946	-165.948	0.088958	0.161567	-0.867262	-0.868495	0.059602	38.567	-0.868422	-3.802657E+11	-1.567385E-13	NaN
1170	1.000000	0.202844	7.37649e+06	-57089.1	1105.82	-29737.4	0.000000	0.000000	6.202792	0.033933	NaN	0.000000	0.001574	0.001705	28.0844	0.085349	0.002026	42.1355	-47.9125	-169.055	0.076861	0.201547	-0.827218	-0.828515	0.033933	42.1355	-0.827822	-1.072177E+11	-3.164850E-13	NaN
1170	1.000000	0.242874	7.37649e+06	-57089.1	1105.82	-29737.4	0.000000	0.000000	6.242821	0.020756	NaN	0.000000	0.001614	0.001709	28.0843	0.016335	0.002074	7.875547	73.8889	-168.693	-0.025069	0.241599	-0.787188	-0.788463	0.020756	7.875547	-0.789165	-3.204378E+10	-6.477376E-13	NaN
1170	1.000000	0.282905	7.37649e+06	-57089.1	1105.82	-29737.4	0.000000	0.000000	6.282854	0.058249	NaN	0.000000	0.001544	0.001719	28.0846	0.059674	0.001974	30.2323	-117.571	-166.253	0.088207	0.281554	-0.747158	-0.748508	0.058249	30.2323	-0.748603	-8.999051E+9	-6.472806E-12	NaN
1170	1.000000	0.322950	7.37649e+06	-57089.1	1105.82	-29737.4	0.000000	0.000000	6.322897	-0.004404	NaN	0.000000	0.001641	0.001706	28.0832	0.023238	0.002112	11.0033	-122.997	-166.936	-0.051210	0.321565	-0.707112	-0.708497	-0.004404	11.0033	-0.706812	-2.424025E+9	1.816905E-12	NaN
1170	1.000000	0.362916	7.37649e+06	-57089.1	1105.82	-29737.4	0.000000	0.000000	6.362865	0.056575	NaN	0.000000	0.001649	0.001740	28.0828	0.087972	0.001900	46.311	122.684	-168.632	0.133498	0.361622	-0.667146	-0.668440	0.056575	46.311	-0.668062	-7.159186E+8	-7.902389E-11	NaN
1170	1.000000	0.402942	7.3765e+06	-57089.1	1105.82	-29737.4	0.000000	0.000000	6.402889	0.010212	NaN	0.000000	0.001598	0.001731	28.083	0.042426	0.002099	20.2079	64.6153	-164.006	0.033110	0.401653	-0.627120	-0.628409	0.010212	20.2079	-0.627499	-1.989197E+8	-5.133958E-11	NaN
1170	1.000000	0.442943	7.3765e+06	-57089.1	1105.82	-29737.4	0.000000	0.000000	6.442892	0.061686	NaN	0.000000	0.001569	0.001732	28.0843	0.042513	0.001910	22.253	-139.433	-168.235	0.020889	0.441738	-0.587119	-0.588325	0.061686	22.253	-0.589198	-5.910342E+7	-1.043688E-9	NaN
1170	1.000000	0.482971	7.3765e+06	-57089.1	1105.82	-29737.4	0.000000	0.000000	6.482919	0.022010	NaN	0.000000	0.001583	0.001725	28.084	0.023946	0.002018	11.8635	-112.959	-168.93	-0.009558	0.481642	-0.547091	-0.548420	0.022010	11.8635	-0.548482	-1.617833E+7	-1.360453E-9	NaN
1170	1.000000	0.522997	7.3765e+06	-57089.1	1105.82	-29737.4	0.000000	0.000000	6.522945	0.023218	NaN	0.000000	0.001593	0.001736	28.0839	0.044071	0.002006	21.9717	-97.8093	-164.861	-0.029801	0.521706	-0.507065	-0.508356	0.023218	21.9717	-0.507857	-4.41131e+06	-5.263211E-9	NaN
1170	1.000000	0.563019	7.3765e+06	-57089.1	1105.82	-29737.4	0.000000	0.000000	6.562966	0.011255	NaN	0.000000	0.001531	0.001719	28.0841	0.049311	0.002035	24.2302	-155.234	-165.643	0.011801	0.561758	-0.467043	-0.468304	0.011255	24.2302	-0.467391	-1.19898e+06	-9.387114E-9	NaN
1170	1.000000	0.603061	7.3765e+06	-57089.1	1105.82	-29737.4	0.000000	0.000000	6.603010	0.046847	NaN	0.000000	0.001549	0.001758	28.0831	0.152564	0.002000	76.2736	129.126	-164.541	0.130496	0.601700	-0.427001	-0.428362	0.046847	76.2736	-0.427462	-328202	-1.427398E-7	NaN
1170	1.000000	0.643052	7.3765e+06	-57089.1	1105.82	-29737.4	0.000000	0.000000	6.643001	0.057078	NaN	0.000000	0.001599	0.001685	28.0831	0.021989	0.001945	11.3054	82.9225	-167.01	0.013410	0.641723	-0.387010	-0.388339	0.057078	11.3054	-0.390797	-98755.1	-5.779757E-7	NaN
1170	1.000000	0.683057	7.3765e+06	-57089.1	1105.82	-29737.4	0.000000	0.000000	6.683002	-0.040960	NaN	0.000000	0.001572	0.001721	28.083	0.148984	0.002035	73.2018	-145.406	-170.163	0.071907	0.681798	-0.347006	-0.348264	-0.040960	73.2018	-0.346586	-22772.7	1.798659E-6	NaN
1170	1.000000	0.723066	7.3765e+06	-57089.1	1105.82	-29737.4	0.000000	0.000000	6.723013	0.019243	NaN	0.000000	0.001561	0.001749	28.0842	0.043123	0.002062	20.912	157.024	-163.624	0.018173	0.721760	-0.306996	-0.308302	0.019243	20.912	-0.307686	-6120.62	-3.143879E-6	NaN
1170	1.000000	0.763092	7.3765e+06	-57089.1	1105.82	-29737.4	0.000000	0.000000	6.763040	0.055152	NaN	0.000000	0.001580	0.001720	28.0842	0.105594	0.002091	50.4991	19.6707	-167.503	0.058585	0.761820	-0.266971	-0.268242	0.055152	50.4991	-0.267790	-1541.41	-3.578052E-5	NaN
1170	1.000000	0.803087	7.3765e+06	-57089.1	1105.82	-29737.4	0.000000	0.000000	6.803032	-0.042336	NaN	0.000000	0.001671	0.001707	28.0841	0.107515	0.002040	52.7045	20.3704	-168.42	-0.026495	0.801815	-0.226975	-0.228247	-0.042336	52.7045	-0.226373	-350.849	0.000121	NaN
1170	1.000000	0.843114	7.3765e+06	-57089.1	1105.82	-29737.4	0.000000	0.000000	6.843063	0.063282	NaN	0.000000	0.001715	0.001716	28.0832	0.027849	0.001936	14.3844	119.43	-168.915	0.010782	0.841793	-0.186949	-0.188269	0.063282	14.3844	-0.190248	-90.8181	-0.000697	NaN
1170	1.000000	0.883171	7.3765e+06	-57089.1	1105.82	-29737.4	0.000000	0.000000	6.883118	0.009241	NaN	0.000000	0.001668	0.001741	28.0832	0.057299	0.002079	27.5601	-5.040487	-167.435	0.031187	0.881789	-0.146892	-0.148273	0.009241	27.5601	-0.147143	-16.058	-0.000575	NaN
1170	1.000000	0.923146	7.3765e+06	-57089.1	1105.82	-29737.4	0.000000	0.000000	6.923095	0.063138	NaN	0.000000	0.001663	0.001716	28.0832	0.073299	0.001900	38.5756	-20.6852	-163.972	0.049489	0.921847	-0.106916	-0.108215	0.063138	38.5756	-0.108144	-2.745094	-0.023000	NaN
1170	1.000000	0.963173	7.3765e+06	-57089.1	1105.82	-29737.4	0.000000	0.000000	6.963120	0.014997	NaN	0.000000	0.001717	0.001718	28.0831	0.061221	0.001886	32.4639	61.1308	-168.075	0.056879	0.961875	-0.066889	-0.068187	0.014997	32.4639	-0.067236	-0.287157	-0.052224	NaN
1170	1.000000	1.003189	7.3765e+06	-57089.1	1105.82	-29737.4	0.000000	0.000000	7.003137	0.032591	NaN	0.000000	0.001632	0.001717	28.0843	0.049400	0.001943	25.42	-57.5731	-165.356	0.057914	1.001929	-0.026873	-0.028133	0.032591	25.42	-0.027835	-0.020067	-1.624096	NaN
1170	2.000000	1.037920	7.3765e+06	-57089.1	1105.82	-29737.4	0.000000	0.000000	7.038335	11.3957	NaN	0.000000	0.001644	0.001711	28.0843	10.3777	0.001800	5765.14	10.0276	-174.114	12.301	1.037560	0.007858	0.007498	11.3957	5765.14	0.006375	0.005424	2101.1	71521.2
1170	2.000000	1.047831	7.3765e+06	-57089.1	1105.82	-29737.4	0.000000	0.000000	7.048770	24.1261	NaN	0.000000	0.001590	0.001709	28.0849	21.227	0.001719	12345	3.678008	-176.734	23.019	1.047542	0.017769	0.017480	24.1261	12345	0.016303	0.017063	1413.98	86346.1
1170	2.000000	1.057818	7.3765e+06	-57089.1	1105.82	-29737.4	0.000000	0.000000	7.059524	42.7773	NaN	0.000000	0.001621	0.001690	28.0835	31.2214	0.001843	16940.4	6.293805	179.137	43.1806	1.057466	0.027756	0.027404	42.7773	16940.4	0.025862	0.032602	1312.11	85718.7
1170	2.000000	1.067778	7.3765e+06	-57089.1	1105.82	-29737.4	0.000000	0.000000	7.070638	70.8041	NaN	0.000000	0.001635	0.001700	28.0836	41.8048	0.001730	24159.9	7.168092	174.175	69.2801	1.067420	0.037716	0.037357	70.8041	24159.9	0.035518	0.052959	1336.97	95918
1170	2.000000	1.077795	7.3765e+06	-57089.1	1105.82	-29737.4	0.000000	0.000000	7.082143	106.971	NaN	0.000000	0.001596	0.001733	28.0834	52.2871	0.001858	28135.1	7.244431	173.779	107.294	1.077438	0.047733	0.047376	106.971	28135.1	0.044881	0.077250	1384.74	92485.4
1170	2.000000	1.087751	7.3765e+06	-57089.1	1105.82	-29737.4	0.000000	0.000000	7.093890	150.492	NaN	0.000000	0.001656	0.001707	28.0833	61.4346	0.001822	33715.9	8.179264	170.566	150.229	1.087408	0.057689	0.057346	150.492	33715.9	0.054341	0.106302	1415.7	94479.3
1170	2.000000	1.097759	7.3765e+06	-57089.1	1105.82	-29737.4	0.000000	0.000000	7.105505	189.576	NaN	0.000000	0.001633	0.001726	28.0845	71.8352	0.001724	41670.8	5.939565	170.447	189.912	1.097584	0.067696	0.067521	189.576	41670.8	0.064284	0.141618	1338.64	101168
1170	2.000000	1.107660	7.3765e+06	-57089.1	1105.82	-29737.4	0.000000	0.000000	7.118363	261.425	NaN	0.000000	0.001646	0.001816	28.0843	79.3662	0.001706	46535.3	1.755408	174.436	256.506	1.107345	0.077598	0.077282	261.425	46535.3	0.073384	0.178128	1467.63	100737
1170	2.000000	1.117782	7.3765e+06	-57089.1	1105.82	-29737.4	0.000000	0.000000	7.130727	315.93	NaN	0.000000	0.001646	0.001765	28.0854	90.0276	0.001821	49439.2	4.238537	171.666	317.655	1.117452	0.087720	0.087390	315.93	49439.2	0.082927	0.220614	1432.05	96167.4
1170	2.000000	1.127566	7.3765e+06	-57089.1	1105.82	-29737.4	0.000000	0.000000	7.143450	387.372	NaN	0.000000	0.001734	0.001733	28.0832	100.687	0.001817	55419	5.894968	169.195	379.697	1.127380	0.097504	0.097318	387.372	55419	0.092261	0.266255	1454.89	98125.8
1170	2.000000	1.134687	7.3765e+06	-57089.1	1105.82	-29737.4	0.000000	0.000000	7.152461	433.287	NaN	0.000000	0.001689	0.001739	28.083	105.359	0.001689	62362	3.594421	170.995	435.403	1.134310	0.104625	0.104248	433.287	62362	0.099414	0.303928	1425.62	103349