File: remote_trans/data/nanoindenter/0828-1/data/Data_2025-08-06,11h17m57s/2025-07-22_16-23-58_1_606.txt
2025-07-22, 16:23:58, 1
Index	Phase	Displacement	Time	Pos X	Pos Y	Pos Z	Rot A	Rot B	Piezo Z	Force A	Force B	Gripper	Voltage A	Voltage B	Temperature	Amplitude force	Amplitude pos	Stiffness	Phase shift	Phase excitation	Force A raw	Displacement raw	HMax	HMax raw	Real Force	Real Stiffness	Contact Depth	Area	Hardness	Reduced Mod.
[#]	[#]	[um]	[s]	[um]	[um]	[um]	[m°]	[m°]	[um]	[uN]	[uN]	[V]	[V]	[V]	[°C]	[uN]	[um]	[N/m]	[°]	[°]	[uN]	[um]	[um]	[um]	[uN]	[N/m]	[um]	[um^2]	[MPa]	[MPa]
606	1.000000	0.002940	7.37098e+06	-46789.1	1005.82	-29768.2	0.000000	0.000000	6.002774	-0.010047	NaN	0.000000	0.001601	0.001749	28.0795	0.035367	0.000888	39.8337	-47.3278	-166.3	-0.015429	0.001742	-1.045952	-1.047149	-0.010047	39.8337	-1.045763	-9.363779E+13	1.073008E-16	NaN
606	1.000000	0.042926	7.37098e+06	-46789.1	1005.82	-29768.2	0.000000	0.000000	6.042763	0.030273	NaN	0.000000	0.001544	0.001756	28.0795	0.117459	0.001989	59.061	-131.13	-165.728	0.047351	0.041588	-1.005965	-1.007303	0.030273	59.061	-1.006350	-2.762157E+13	-1.095976E-15	NaN
606	1.000000	0.082932	7.37098e+06	-46789.1	1005.82	-29768.2	0.000000	0.000000	6.082767	-0.000143	NaN	0.000000	0.001590	0.001742	28.0782	0.058504	0.001833	31.9088	114.365	-168.98	-0.046504	0.081615	-0.965960	-0.967276	-0.000143	31.9088	-0.965956	-7.891563E+12	1.814961E-17	NaN
606	1.000000	0.122951	7.37098e+06	-46789.1	1005.82	-29768.2	0.000000	0.000000	6.122792	0.142719	NaN	0.000000	0.001572	0.001762	28.0783	0.072255	0.002030	35.5899	-63.1928	-163.24	0.103444	0.121628	-0.925940	-0.927263	0.142719	35.5899	-0.928948	-2.500316E+12	-5.708035E-14	NaN
606	1.000000	0.162955	7.37098e+06	-46789.1	1005.82	-29768.2	0.000000	0.000000	6.162790	-0.005347	NaN	0.000000	0.001593	0.001746	28.0782	0.056197	0.002021	27.802	116.251	-161.379	-0.115466	0.161644	-0.885937	-0.887247	-0.005347	27.802	-0.885792	-6.531790E+11	8.186122E-15	NaN
606	1.000000	0.202953	7.37098e+06	-46789.1	1005.82	-29768.2	0.000000	0.000000	6.202792	0.082765	NaN	0.000000	0.001498	0.001752	28.0781	0.068761	0.001986	34.6287	59.5125	-166.913	0.025547	0.201658	-0.845938	-0.847234	0.082765	34.6287	-0.847731	-1.995285E+11	-4.148025E-13	NaN
606	1.000000	0.242979	7.37098e+06	-46789.1	1005.82	-29768.2	0.000000	0.000000	6.242817	0.055350	NaN	0.000000	0.001495	0.001705	28.0795	0.057850	0.002028	28.53	-46.6287	-163.694	-0.004219	0.241709	-0.805912	-0.807183	0.055350	28.53	-0.807367	-5.660456E+10	-9.778297E-13	NaN
606	1.000000	0.283019	7.37098e+06	-46789.1	1005.82	-29768.2	0.000000	0.000000	6.282857	0.053692	NaN	0.000000	0.001530	0.001723	28.0798	0.076415	0.002028	37.6866	134.493	-168.269	-0.007727	0.281625	-0.765872	-0.767266	0.053692	37.6866	-0.766941	-1.598470E+10	-3.358962E-12	NaN
606	1.000000	0.322991	7.37098e+06	-46789.1	1005.82	-29768.2	0.000000	0.000000	6.322824	-0.054725	NaN	0.000000	0.001576	0.001799	28.0797	0.067453	0.001854	36.3784	44.8277	-166.996	-0.018910	0.321763	-0.725900	-0.727128	-0.054725	36.3784	-0.724772	-4.261290E+9	1.284231E-11	NaN
606	1.000000	0.363032	7.37098e+06	-46789.1	1005.82	-29768.2	0.000000	0.000000	6.362868	0.026313	NaN	0.000000	0.001577	0.001793	28.0784	0.043555	0.002073	21.0095	124.333	-166.092	-0.026675	0.361737	-0.685859	-0.687155	0.026313	21.0095	-0.686799	-1.291700E+9	-2.037076E-11	NaN
606	1.000000	0.403033	7.37098e+06	-46789.1	1005.82	-29768.2	0.000000	0.000000	6.402866	-0.044709	NaN	0.000000	0.001496	0.001769	28.0779	0.056529	0.002046	27.6347	-136.839	-166.536	-0.038822	0.401712	-0.645859	-0.647179	-0.044709	27.6347	-0.644645	-3.419896E+8	1.307330E-10	NaN
606	1.000000	0.443068	7.37098e+06	-46789.1	1005.82	-29768.2	0.000000	0.000000	6.442906	0.047632	NaN	0.000000	0.001537	0.001780	28.0781	0.017317	0.001944	8.906096	-37.76	-167.876	-0.026539	0.441814	-0.605823	-0.607078	0.047632	8.906096	-0.609834	-1.137191E+8	-4.188595E-10	NaN
606	1.000000	0.483123	7.37098e+06	-46789.1	1005.82	-29768.2	0.000000	0.000000	6.482960	0.037345	NaN	0.000000	0.001519	0.001770	28.0781	0.049041	0.001886	26.0038	59.4536	-164.03	0.055434	0.481764	-0.565768	-0.567128	0.037345	26.0038	-0.566846	-2.904280E+7	-1.285848E-9	NaN
606	1.000000	0.523122	7.37098e+06	-46789.1	1005.82	-29768.2	0.000000	0.000000	6.522957	-0.012947	NaN	0.000000	0.001550	0.001744	28.0795	0.124514	0.001909	65.2336	59.1415	-168.387	0.010303	0.521794	-0.525770	-0.527098	-0.012947	65.2336	-0.525621	-7.79358e+06	1.661200E-9	NaN
606	1.000000	0.563108	7.37098e+06	-46789.1	1005.82	-29768.2	0.000000	0.000000	6.562947	0.091685	NaN	0.000000	0.001544	0.001738	28.0795	0.130233	0.001932	67.4023	151.925	-165.566	0.025743	0.561829	-0.485783	-0.487062	0.091685	67.4023	-0.486804	-2.2424e+06	-4.088721E-8	NaN
606	1.000000	0.603131	7.37098e+06	-46789.1	1005.82	-29768.2	0.000000	0.000000	6.602966	-0.006669	NaN	0.000000	0.001595	0.001747	28.0795	0.116335	0.002042	56.984	-162.11	-163.629	0.033241	0.601813	-0.445761	-0.447079	-0.006669	56.984	-0.445673	-593439	1.123742E-8	NaN
606	1.000000	0.643159	7.37098e+06	-46789.1	1005.82	-29768.2	0.000000	0.000000	6.642992	-0.041578	NaN	0.000000	0.001565	0.001758	28.0782	0.117352	0.002068	56.7504	138.118	-167.745	0.028467	0.641872	-0.405733	-0.407020	-0.041578	56.7504	-0.405183	-158437	2.624255E-7	NaN
606	1.000000	0.683179	7.37098e+06	-46789.1	1005.82	-29768.2	0.000000	0.000000	6.683013	-0.017941	NaN	0.000000	0.001587	0.001791	28.0785	0.151443	0.002172	69.7349	162.755	-163.976	0.062718	0.681906	-0.365712	-0.366985	-0.017941	69.7349	-0.365519	-42810.3	4.190901E-7	NaN
606	1.000000	0.723231	7.37098e+06	-46789.1	1005.82	-29768.2	0.000000	0.000000	6.723066	-0.018907	NaN	0.000000	0.001529	0.001795	28.0784	0.079886	0.002043	39.101	-170.621	-163.394	0.027076	0.721850	-0.325660	-0.327042	-0.018907	39.101	-0.325297	-11130.2	1.698691E-6	NaN
606	1.000000	0.763240	7.37098e+06	-46789.1	1005.82	-29768.2	0.000000	0.000000	6.763078	0.064711	NaN	0.000000	0.001527	0.001731	28.0794	0.067067	0.001950	34.3945	128.719	-163.581	0.020354	0.761854	-0.285651	-0.287038	0.064711	34.3945	-0.287062	-3014.73	-2.146505E-5	NaN
606	1.000000	0.803199	7.37098e+06	-46789.1	1005.82	-29768.2	0.000000	0.000000	6.803035	0.016748	NaN	0.000000	0.001489	0.001783	28.081	0.087362	0.001998	43.7169	147.765	-164.517	-0.027678	0.801967	-0.245693	-0.246924	0.016748	43.7169	-0.245980	-712.317	-2.351234E-5	NaN
606	1.000000	0.843235	7.37098e+06	-46789.1	1005.82	-29768.2	0.000000	0.000000	6.843069	-0.024446	NaN	0.000000	0.001503	0.001768	28.08	0.046487	0.001953	23.8049	76.0191	-165.125	0.058945	0.841947	-0.205656	-0.206944	-0.024446	23.8049	-0.204886	-158.38	0.000154	NaN
606	1.000000	0.883252	7.37098e+06	-46789.1	1005.82	-29768.2	0.000000	0.000000	6.883087	0.000116	NaN	0.000000	0.001543	0.001790	28.0799	0.054649	0.001915	28.54	-110.136	-164.103	-0.048448	0.881933	-0.165640	-0.166958	0.000116	28.54	-0.165643	-34.4815	-3.351352E-6	NaN
606	1.000000	0.923304	7.37098e+06	-46789.1	1005.82	-29768.2	0.000000	0.000000	6.923139	-0.019558	NaN	0.000000	0.001500	0.001760	28.0785	0.121809	0.002142	56.8677	117.497	-166.367	0.028954	0.921934	-0.125587	-0.126957	-0.019558	56.8677	-0.125329	-6.173130	0.003168	NaN
606	1.000000	0.963300	7.37098e+06	-46789.1	1005.82	-29768.2	0.000000	0.000000	6.963137	0.037836	NaN	0.000000	0.001559	0.001754	28.0784	0.111767	0.002024	55.225	11.9048	-160.468	0.087796	0.961940	-0.085592	-0.086951	0.037836	55.225	-0.086105	-0.873654	-0.043307	NaN
606	1.000000	1.003332	7.37098e+06	-46789.1	1005.82	-29768.2	0.000000	0.000000	7.003168	0.018419	NaN	0.000000	0.001527	0.001764	28.0786	0.068963	0.001948	35.3998	-65.763	-163.28	-0.034380	1.002005	-0.045559	-0.046886	0.018419	35.3998	-0.045949	-0.068709	-0.268079	NaN
606	1.000000	1.043324	7.37098e+06	-46789.1	1005.82	-29768.2	0.000000	0.000000	7.043159	0.008413	NaN	0.000000	0.001497	0.001770	28.0798	0.041358	0.001881	21.985	0.862732	-168.169	-0.003155	1.041991	-0.005568	-0.006901	0.008413	21.985	-0.005855	-0.003947	-2.131365	NaN
606	2.000000	1.060916	7.37098e+06	-46789.1	1005.82	-29768.2	0.000000	0.000000	7.061495	18.0805	NaN	0.000000	0.001525	0.001765	28.0798	16.6135	0.001760	9439.56	5.281238	-173.298	17.8238	1.060637	0.012025	0.011746	18.0805	9439.56	0.010588	0.009843	1836.95	86929.6
606	2.000000	1.070847	7.37098e+06	-46789.1	1005.82	-29768.2	0.000000	0.000000	7.072415	42.1428	NaN	0.000000	0.001526	0.001766	28.0799	26.0932	0.001662	15703.1	3.224531	-178.629	40.3522	1.070557	0.021956	0.021665	42.1428	15703.1	0.019943	0.022452	1876.98	95747.4
606	2.000000	1.080832	7.37098e+06	-46789.1	1005.82	-29768.2	0.000000	0.000000	7.083637	72.2281	NaN	0.000000	0.001524	0.001776	28.0793	36.1405	0.001768	20442.6	3.549408	179.762	70.4293	1.080534	0.031941	0.031642	72.2281	20442.6	0.029291	0.039286	1838.5	94229.9
606	2.000000	1.090794	7.37098e+06	-46789.1	1005.82	-29768.2	0.000000	0.000000	7.095081	108.296	NaN	0.000000	0.001539	0.001859	28.0783	46.4548	0.001768	26280.5	4.713386	175.878	104.458	1.090529	0.041903	0.041638	108.296	26280.5	0.038812	0.060994	1775.52	97221.7
606	2.000000	1.100834	7.37098e+06	-46789.1	1005.82	-29768.2	0.000000	0.000000	7.106972	153.311	NaN	0.000000	0.001530	0.001893	28.0783	56.7941	0.001849	30715.3	4.724692	175.448	153.109	1.100531	0.051942	0.051640	153.311	30715.3	0.048199	0.086926	1763.69	95181.3
606	2.000000	1.110778	7.37098e+06	-46789.1	1005.82	-29768.2	0.000000	0.000000	7.118981	203.531	NaN	0.000000	0.001548	0.001842	28.0782	65.4249	0.001783	36695.6	0.594439	177.784	200.443	1.110568	0.061887	0.061677	203.531	36695.6	0.057727	0.117783	1728.02	97688.9
606	2.000000	1.120757	7.37098e+06	-46789.1	1005.82	-29768.2	0.000000	0.000000	7.131472	264.659	NaN	0.000000	0.001528	0.001862	28.0795	74.9531	0.001774	42260.7	5.865746	171.051	261.543	1.120575	0.071865	0.071684	264.659	42260.7	0.067168	0.152759	1732.52	98788.3
606	2.000000	1.130839	7.37099e+06	-46789.1	1005.82	-29768.2	0.000000	0.000000	7.144592	338.558	NaN	0.000000	0.001537	0.001821	28.0797	83.0842	0.001761	47187.9	1.181222	176.056	338.203	1.130412	0.081947	0.081520	338.558	47187.9	0.076566	0.191819	1764.99	98436.9
606	2.000000	1.140750	7.37099e+06	-46789.1	1005.82	-29768.2	0.000000	0.000000	7.157446	410.132	NaN	0.000000	0.001559	0.001872	28.0797	93.5873	0.001856	50421.6	4.100201	172.161	407.755	1.140496	0.091858	0.091604	410.132	50421.6	0.085758	0.234030	1752.47	95225.7
606	2.000000	1.150741	7.37099e+06	-46789.1	1005.82	-29768.2	0.000000	0.000000	7.170882	493.93	NaN	0.000000	0.001538	0.001841	28.0798	103.325	0.001789	57772.1	3.388495	172.377	492.201	1.150406	0.101850	0.101515	493.93	57772.1	0.095437	0.282695	1747.22	99273.2
606	2.000000	1.151692	7.37099e+06	-46789.1	1005.82	-29768.2	0.000000	0.000000	7.171889	495.28	NaN	0.000000	0.001578	0.001817	28.0792	104.07	0.001806	57620.3	3.819360	171.49	491.736	1.151537	0.102801	0.102646	495.28	57620.3	0.096354	0.287526	1722.56	98177.2