File: remote_trans/data/nanoindenter/0828-1/data/Data_2025-08-06,11h17m57s/2025-07-22_16-23-58_1_1183.txt
2025-07-22, 16:23:58, 1
Index	Phase	Displacement	Time	Pos X	Pos Y	Pos Z	Rot A	Rot B	Piezo Z	Force A	Force B	Gripper	Voltage A	Voltage B	Temperature	Amplitude force	Amplitude pos	Stiffness	Phase shift	Phase excitation	Force A raw	Displacement raw	HMax	HMax raw	Real Force	Real Stiffness	Contact Depth	Area	Hardness	Reduced Mod.
[#]	[#]	[um]	[s]	[um]	[um]	[um]	[m°]	[m°]	[um]	[uN]	[uN]	[V]	[V]	[V]	[°C]	[uN]	[um]	[N/m]	[°]	[°]	[uN]	[um]	[um]	[um]	[uN]	[N/m]	[um]	[um^2]	[MPa]	[MPa]
1183	1.000000	0.002597	7.37662e+06	-56439.1	1105.82	-29738.9	0.000000	0.000000	6.002798	-0.045745	NaN	0.000000	0.001719	0.001640	28.0814	0.034248	0.000951	36.0147	168.299	-166.944	-0.006137	0.001385	-1.040784	-1.041996	-0.045745	36.0147	-1.039831	-7.792839E+13	5.870112E-16	NaN
1183	1.000000	0.042526	7.37662e+06	-56439.1	1105.82	-29738.9	0.000000	0.000000	6.042727	-0.040395	NaN	0.000000	0.001711	0.001679	28.0826	0.056991	0.001970	28.9289	53.1878	-167.443	-0.027194	0.041222	-1.000855	-1.002159	-0.040395	28.9289	-0.999808	-2.255172E+13	1.791222E-15	NaN
1183	1.000000	0.082541	7.37662e+06	-56439.1	1105.82	-29738.9	0.000000	0.000000	6.082745	0.017200	NaN	0.000000	0.001693	0.001651	28.0825	0.068063	0.001944	35.0197	-160.905	-164.559	-0.042566	0.081175	-0.960840	-0.962205	0.017200	35.0197	-0.961208	-6.810109E+12	-2.525690E-15	NaN
1183	1.000000	0.122565	7.37662e+06	-56439.1	1105.82	-29738.9	0.000000	0.000000	6.122767	-0.039445	NaN	0.000000	0.001698	0.001684	28.0825	0.100038	0.001870	53.4944	-26.0723	-169.272	0.108880	0.121272	-0.920815	-0.922108	-0.039445	53.4944	-0.920262	-1.908741E+12	2.066557E-14	NaN
1183	1.000000	0.162610	7.37662e+06	-56439.1	1105.82	-29738.9	0.000000	0.000000	6.162812	-0.018169	NaN	0.000000	0.001673	0.001669	28.0824	0.061428	0.001911	32.1481	125.437	-163.128	-0.070623	0.161251	-0.880771	-0.882130	-0.018169	32.1481	-0.880347	-5.513202E+11	3.295532E-14	NaN
1183	1.000000	0.202615	7.37662e+06	-56439.1	1105.82	-29738.9	0.000000	0.000000	6.202821	0.052330	NaN	0.000000	0.001689	0.001666	28.0809	0.122496	0.001983	61.7577	-79.7159	-165.225	0.093170	0.201308	-0.840765	-0.842073	0.052330	61.7577	-0.841401	-1.637843E+11	-3.195050E-13	NaN
1183	1.000000	0.242621	7.37662e+06	-56439.1	1105.82	-29738.9	0.000000	0.000000	6.242824	-0.005198	NaN	0.000000	0.001675	0.001694	28.0823	0.073561	0.002010	36.5932	-155.211	-168.766	0.040851	0.241355	-0.800759	-0.802026	-0.005198	36.5932	-0.800653	-4.589062E+10	1.132787E-13	NaN
1183	1.000000	0.282668	7.37662e+06	-56439.1	1105.82	-29738.9	0.000000	0.000000	6.282871	-0.003741	NaN	0.000000	0.001678	0.001663	28.0809	0.073327	0.001971	37.2105	85.3358	-164.59	-0.050516	0.281303	-0.760712	-0.762078	-0.003741	37.2105	-0.760637	-1.312106E+10	2.851214E-13	NaN
1183	1.000000	0.322648	7.37662e+06	-56439.1	1105.82	-29738.9	0.000000	0.000000	6.322847	-0.086003	NaN	0.000000	0.001685	0.001620	28.0823	0.081263	0.001985	40.9395	165.953	-168.694	-0.020208	0.321357	-0.720733	-0.722023	-0.086003	40.9395	-0.719157	-3.572570E+9	2.407321E-11	NaN
1183	1.000000	0.362662	7.37662e+06	-56439.1	1105.82	-29738.9	0.000000	0.000000	6.362865	-0.005036	NaN	0.000000	0.001682	0.001645	28.0821	0.045071	0.001926	23.4047	-135.117	-167.521	-0.045425	0.361369	-0.680718	-0.682012	-0.005036	23.4047	-0.680557	-1.061267E+9	4.744826E-12	NaN
1183	1.000000	0.402715	7.37662e+06	-56439.1	1105.82	-29738.9	0.000000	0.000000	6.402919	0.028087	NaN	0.000000	0.001670	0.001656	28.082	0.043852	0.001858	23.5981	147.332	-168.178	-0.035782	0.401379	-0.640666	-0.642001	0.028087	23.5981	-0.641559	-3.102219E+8	-9.053750E-11	NaN
1183	1.000000	0.442699	7.37662e+06	-56439.1	1105.82	-29738.9	0.000000	0.000000	6.442902	-0.005149	NaN	0.000000	0.001643	0.001623	28.0808	0.060216	0.001923	31.3182	104.416	-166.735	-0.051700	0.441413	-0.600682	-0.601968	-0.005149	31.3182	-0.600559	-8.475277E+7	6.075826E-11	NaN
1183	1.000000	0.482711	7.37662e+06	-56439.1	1105.82	-29738.9	0.000000	0.000000	6.482916	0.046462	NaN	0.000000	0.001656	0.001613	28.0809	0.069772	0.001997	34.9417	-37.5044	-167.12	-0.023647	0.481524	-0.560670	-0.561857	0.046462	34.9417	-0.561667	-2.462867E+7	-1.886504E-9	NaN
1183	1.000000	0.522745	7.37662e+06	-56439.1	1105.82	-29738.9	0.000000	0.000000	6.522949	0.012544	NaN	0.000000	0.001656	0.001674	28.0811	0.087857	0.002007	43.7854	166.357	-168.841	0.084882	0.521460	-0.520636	-0.521920	0.012544	43.7854	-0.520851	-6.69004e+06	-1.874980E-9	NaN
1183	1.000000	0.562752	7.37662e+06	-56439.1	1105.82	-29738.9	0.000000	0.000000	6.562955	-0.002030	NaN	0.000000	0.001679	0.001593	28.0808	0.065536	0.002029	32.3053	89.4886	-165.123	-0.014645	0.561441	-0.480629	-0.481940	-0.002030	32.3053	-0.480581	-1.83513e+06	1.106213E-9	NaN
1183	1.000000	0.602777	7.37662e+06	-56439.1	1105.82	-29738.9	0.000000	0.000000	6.602978	-0.059894	NaN	0.000000	0.001677	0.001610	28.0828	0.066044	0.002058	32.0974	117.361	-163.864	0.059468	0.601477	-0.440604	-0.441904	-0.059894	32.0974	-0.439204	-480985	1.245237E-7	NaN
1183	1.000000	0.642825	7.37662e+06	-56439.1	1105.82	-29738.9	0.000000	0.000000	6.643031	0.059363	NaN	0.000000	0.001700	0.001640	28.0822	0.114916	0.001902	60.4036	-171.948	-167.102	0.074711	0.641454	-0.400555	-0.401926	0.059363	60.4036	-0.401293	-139452	-4.256871E-7	NaN
1183	1.000000	0.682819	7.37662e+06	-56439.1	1105.82	-29738.9	0.000000	0.000000	6.683020	-0.051256	NaN	0.000000	0.001705	0.001615	28.082	0.052160	0.001991	26.1924	-75.912	-167.445	-0.067504	0.681518	-0.360562	-0.361862	-0.051256	26.1924	-0.359095	-34574.3	1.482477E-6	NaN
1183	1.000000	0.722818	7.37662e+06	-56439.1	1105.82	-29738.9	0.000000	0.000000	6.723020	-0.039549	NaN	0.000000	0.001710	0.001651	28.081	0.086765	0.001972	44.0019	35.5768	-170.318	-0.090493	0.721489	-0.320563	-0.321892	-0.039549	44.0019	-0.319888	-9268.23	4.267110E-6	NaN
1183	1.000000	0.762838	7.37662e+06	-56439.1	1105.82	-29738.9	0.000000	0.000000	6.763039	-0.044566	NaN	0.000000	0.001760	0.001644	28.0808	0.035598	0.002038	17.4665	176.783	-168.429	-0.017592	0.761571	-0.280543	-0.281810	-0.044566	17.4665	-0.278629	-2250.5	1.980250E-5	NaN
1183	1.000000	0.802887	7.37662e+06	-56439.1	1105.82	-29738.9	0.000000	0.000000	6.803089	-0.032542	NaN	0.000000	0.001669	0.001602	28.0805	0.026854	0.001950	13.7727	65.7879	-163.628	0.008878	0.801478	-0.240493	-0.241903	-0.032542	13.7727	-0.238721	-548.993	5.927609E-5	NaN
1183	1.000000	0.842878	7.37662e+06	-56439.1	1105.82	-29738.9	0.000000	0.000000	6.843082	0.021367	NaN	0.000000	0.001674	0.001653	28.0808	0.084947	0.002197	38.6726	138.132	-168.032	-0.054634	0.841537	-0.200503	-0.201843	0.021367	38.6726	-0.200917	-136.383	-0.000157	NaN
1183	1.000000	0.882888	7.37662e+06	-56439.1	1105.82	-29738.9	0.000000	0.000000	6.883093	0.049252	NaN	0.000000	0.001686	0.001605	28.0822	0.153732	0.001955	78.6208	-42.2318	-168.342	0.058212	0.881603	-0.160493	-0.161778	0.049252	78.6208	-0.160963	-28.5148	-0.001727	NaN
1183	1.000000	0.922891	7.37662e+06	-56439.1	1105.82	-29738.9	0.000000	0.000000	6.923094	-0.008901	NaN	0.000000	0.001709	0.001645	28.082	0.121818	0.001983	61.4405	152.16	-168.147	-0.005697	0.921561	-0.120490	-0.121820	-0.008901	61.4405	-0.120381	-4.917721	0.001810	NaN
1183	1.000000	0.962906	7.37662e+06	-56439.1	1105.82	-29738.9	0.000000	0.000000	6.963111	0.026584	NaN	0.000000	0.001679	0.001656	28.0817	0.053017	0.001972	26.8802	-30.4805	-166.764	0.010422	0.961632	-0.080474	-0.081749	0.026584	26.8802	-0.081216	-0.663705	-0.040054	NaN
1183	1.000000	1.002930	7.37662e+06	-56439.1	1105.82	-29738.9	0.000000	0.000000	7.003134	0.019243	NaN	0.000000	0.001690	0.001637	28.0809	0.085308	0.001974	43.2202	142.798	-165.304	-0.005080	1.001666	-0.040451	-0.041715	0.019243	43.2202	-0.040785	-0.047778	-0.402772	NaN
1183	1.000000	1.042926	7.37662e+06	-56439.1	1105.82	-29738.9	0.000000	0.000000	7.043233	2.532017	NaN	0.000000	0.001606	0.001650	28.081	3.574546	0.001978	1807.54	13.1926	-169.279	1.375493	1.041678	-0.000455	-0.001703	2.532017	1807.54	-0.001505	-0.001093	-2316.02	NaN
1183	2.000000	1.056479	7.37662e+06	-56439.1	1105.82	-29738.9	0.000000	0.000000	7.057514	20.2405	NaN	0.000000	0.001621	0.001631	28.0808	19.1409	0.001900	10071.6	11.016	178.945	22.2971	1.056168	0.013098	0.012788	20.2405	10071.6	0.011591	0.011003	1839.5	87722.2
1183	2.000000	1.066410	7.37662e+06	-56439.1	1105.82	-29738.9	0.000000	0.000000	7.068293	40.8224	NaN	0.000000	0.001643	0.001662	28.0822	27.9999	0.001681	16654.8	8.401283	175.903	41.7025	1.066045	0.023030	0.022664	40.8224	16654.8	0.021191	0.024449	1669.71	97315.9
1183	2.000000	1.076354	7.37663e+06	-56439.1	1105.82	-29738.9	0.000000	0.000000	7.079434	69.9252	NaN	0.000000	0.001653	0.001649	28.0826	37.3893	0.001712	21845.6	5.940803	176.432	68.6904	1.076064	0.032974	0.032683	69.9252	21845.6	0.030573	0.041940	1667.29	97459.9
1183	2.000000	1.086330	7.37663e+06	-56439.1	1105.82	-29738.9	0.000000	0.000000	7.091040	109.537	NaN	0.000000	0.001653	0.001606	28.0826	46.9812	0.001834	25616.5	5.109002	175.85	108.049	1.086081	0.042950	0.042700	109.537	25616.5	0.039743	0.063365	1728.66	92975.3
1183	2.000000	1.096355	7.37663e+06	-56439.1	1105.82	-29738.9	0.000000	0.000000	7.102619	147.322	NaN	0.000000	0.001675	0.001584	28.0828	57.2393	0.001781	32137.8	5.243149	174.045	145.917	1.095925	0.052974	0.052544	147.322	32137.8	0.049536	0.090985	1619.19	97343
1183	2.000000	1.106321	7.37663e+06	-56439.1	1105.82	-29738.9	0.000000	0.000000	7.114617	196.702	NaN	0.000000	0.001619	0.001605	28.0812	65.4885	0.001818	36030	2.456272	175.928	193.06	1.106104	0.062940	0.062723	196.702	36030	0.058846	0.121702	1616.26	94360.1
1183	2.000000	1.116296	7.37663e+06	-56439.1	1105.82	-29738.9	0.000000	0.000000	7.126976	254.648	NaN	0.000000	0.001611	0.001601	28.081	75.9811	0.001771	42909.3	6.875779	169.729	252.82	1.116053	0.072915	0.072672	254.648	42909.3	0.068464	0.157897	1612.75	98659.3
1183	2.000000	1.126143	7.37663e+06	-56439.1	1105.82	-29738.9	0.000000	0.000000	7.139816	327.387	NaN	0.000000	0.001659	0.001604	28.0808	83.9886	0.001832	45849.4	5.906272	171.221	318.137	1.125812	0.082763	0.082432	327.387	45849.4	0.077407	0.195519	1674.45	94735.5
1183	2.000000	1.136300	7.37663e+06	-56439.1	1105.82	-29738.9	0.000000	0.000000	7.152696	393.598	NaN	0.000000	0.001707	0.001629	28.082	93.3988	0.001770	52782.1	4.281100	171.656	392.857	1.135908	0.092919	0.092528	393.598	52782.1	0.087326	0.241624	1628.97	98104.7
1183	2.000000	1.146181	7.37663e+06	-56439.1	1105.82	-29738.9	0.000000	0.000000	7.165617	467.467	NaN	0.000000	0.001661	0.001602	28.082	102.86	0.001781	57766.6	1.643076	173.149	461.256	1.145914	0.102801	0.102533	467.467	57766.6	0.096731	0.289526	1614.59	98085.8