File: remote_trans/data/nanoindenter/0828-1/data/Data_2025-08-06,11h17m57s/2025-07-22_16-23-58_1_1091.txt
2025-07-22, 16:23:58, 1
Index	Phase	Displacement	Time	Pos X	Pos Y	Pos Z	Rot A	Rot B	Piezo Z	Force A	Force B	Gripper	Voltage A	Voltage B	Temperature	Amplitude force	Amplitude pos	Stiffness	Phase shift	Phase excitation	Force A raw	Displacement raw	HMax	HMax raw	Real Force	Real Stiffness	Contact Depth	Area	Hardness	Reduced Mod.
[#]	[#]	[um]	[s]	[um]	[um]	[um]	[m°]	[m°]	[um]	[uN]	[uN]	[V]	[V]	[V]	[°C]	[uN]	[um]	[N/m]	[°]	[°]	[uN]	[um]	[um]	[um]	[uN]	[N/m]	[um]	[um^2]	[MPa]	[MPa]
1091	1.000000	0.002453	7.37572e+06	-54689.1	1055.82	-29743	0.000000	0.000000	6.002778	-0.011653	NaN	0.000000	0.001581	0.001600	28.0838	0.051439	0.000908	56.6669	-148.458	-173.755	-0.020111	0.001163	-1.072454	-1.073743	-0.011653	56.6669	-1.072299	-2.128536E+14	5.474702E-17	NaN
1091	1.000000	0.042423	7.37572e+06	-54689.1	1055.82	-29743	0.000000	0.000000	6.042749	0.010578	NaN	0.000000	0.001634	0.001584	28.084	0.048538	0.001924	25.2338	-76.4168	-162.956	-0.022394	0.041078	-1.032484	-1.033828	0.010578	25.2338	-1.032798	-6.267779E+13	-1.687716E-16	NaN
1091	1.000000	0.082457	7.37572e+06	-54689.1	1055.82	-29743	0.000000	0.000000	6.082781	-0.038332	NaN	0.000000	0.001658	0.001617	28.083	0.019030	0.001912	9.951571	39.1529	-166.631	-0.008737	0.081132	-0.992450	-0.993774	-0.038332	9.951571	-0.989561	-1.641336E+13	2.335393E-15	NaN
1091	1.000000	0.122431	7.37572e+06	-54689.1	1055.82	-29743	0.000000	0.000000	6.122758	0.021922	NaN	0.000000	0.001654	0.001599	28.0832	0.048899	0.002051	23.8448	116.424	-163.964	-0.026390	0.121105	-0.952476	-0.953801	0.021922	23.8448	-0.953165	-5.305312E+12	-4.132016E-15	NaN
1091	1.000000	0.162467	7.37573e+06	-54689.1	1055.82	-29743	0.000000	0.000000	6.162790	-0.052043	NaN	0.000000	0.001636	0.001626	28.0827	0.070102	0.002019	34.7201	178.904	-165.827	-0.055334	0.161137	-0.912440	-0.913770	-0.052043	34.7201	-0.911316	-1.445218E+12	3.601014E-14	NaN
1091	1.000000	0.202453	7.37573e+06	-54689.1	1055.82	-29743	0.000000	0.000000	6.202779	0.016256	NaN	0.000000	0.001661	0.001666	28.0839	0.006515	0.002044	3.187137	-133.945	-162.879	0.037370	0.201184	-0.872454	-0.873722	0.016256	3.187137	-0.876279	-4.857182E+11	-3.346826E-14	NaN
1091	1.000000	0.242500	7.37573e+06	-54689.1	1055.82	-29743	0.000000	0.000000	6.242826	-0.010692	NaN	0.000000	0.001638	0.001612	28.0841	0.061773	0.002171	28.4539	43.9925	-168.309	-0.013017	0.241218	-0.832406	-0.833689	-0.010692	28.4539	-0.832124	-1.226242E+11	8.719152E-14	NaN
1091	1.000000	0.282522	7.37573e+06	-54689.1	1055.82	-29743	0.000000	0.000000	6.282847	-0.017817	NaN	0.000000	0.001573	0.001621	28.0836	0.057180	0.002035	28.0991	-154.433	-163.613	-0.003094	0.281186	-0.792385	-0.793720	-0.017817	28.0991	-0.791909	-3.491493E+10	5.102865E-13	NaN
1091	1.000000	0.322540	7.37573e+06	-54689.1	1055.82	-29743	0.000000	0.000000	6.322863	-0.075847	NaN	0.000000	0.001646	0.001607	28.0839	0.046070	0.002065	22.3077	19.2749	-166.727	-0.050395	0.321212	-0.752366	-0.753695	-0.075847	22.3077	-0.749816	-9.348027E+9	8.113714E-12	NaN
1091	1.000000	0.362565	7.37573e+06	-54689.1	1055.82	-29743	0.000000	0.000000	6.362890	-0.007293	NaN	0.000000	0.001698	0.001618	28.0824	0.117451	0.001958	59.9988	100.215	-166.27	-0.037949	0.361249	-0.712342	-0.713658	-0.007293	59.9988	-0.712251	-2.875802E+9	2.536038E-12	NaN
1091	1.000000	0.402556	7.37573e+06	-54689.1	1055.82	-29743	0.000000	0.000000	6.402881	0.000934	NaN	0.000000	0.001674	0.001670	28.0829	0.103820	0.001906	54.4727	-123.953	-166.96	-0.034516	0.401301	-0.672351	-0.673605	0.000934	54.4727	-0.672364	-8.198615E+8	-1.139498E-12	NaN
1091	1.000000	0.442587	7.37573e+06	-54689.1	1055.82	-29743	0.000000	0.000000	6.442910	-0.061454	NaN	0.000000	0.001605	0.001589	28.0826	0.071769	0.001968	36.4771	82.6765	-165.169	-0.174329	0.441284	-0.632319	-0.633623	-0.061454	36.4771	-0.631056	-2.225990E+8	2.760769E-10	NaN
1091	1.000000	0.482619	7.37573e+06	-54689.1	1055.82	-29743	0.000000	0.000000	6.482943	-0.053909	NaN	0.000000	0.001634	0.001643	28.0837	0.049050	0.001888	25.9856	-127.552	-166.474	-0.050179	0.481290	-0.592287	-0.593617	-0.053909	25.9856	-0.590731	-6.205078E+7	8.687917E-10	NaN
1091	1.000000	0.522632	7.37573e+06	-54689.1	1055.82	-29743	0.000000	0.000000	6.522958	0.005063	NaN	0.000000	0.001553	0.001598	28.0838	0.087896	0.001972	44.5789	159.364	-165.444	0.079740	0.521308	-0.552275	-0.553599	0.005063	44.5789	-0.552360	-1.830788E+7	-2.765214E-10	NaN
1091	1.000000	0.562615	7.37573e+06	-54689.1	1055.82	-29743	0.000000	0.000000	6.562939	-0.051917	NaN	0.000000	0.001594	0.001606	28.084	0.061179	0.002019	30.2982	62.916	-164.018	-0.055319	0.561261	-0.512292	-0.513646	-0.051917	30.2982	-0.511006	-4.88015e+06	1.063838E-8	NaN
1091	1.000000	0.602655	7.37573e+06	-54689.1	1055.82	-29743	0.000000	0.000000	6.602980	-0.027060	NaN	0.000000	0.001648	0.001570	28.0828	0.027249	0.002031	13.4138	-94.936	-166.216	0.002622	0.601341	-0.472252	-0.473565	-0.027060	13.4138	-0.470739	-1.33588e+06	2.025630E-8	NaN
1091	1.000000	0.642661	7.37573e+06	-54689.1	1055.82	-29743	0.000000	0.000000	6.642986	-0.030477	NaN	0.000000	0.001630	0.001561	28.0828	0.056189	0.001891	29.7171	-55.2559	-165.533	-0.090493	0.641337	-0.432245	-0.433570	-0.030477	29.7171	-0.431476	-374058	8.147723E-8	NaN
1091	1.000000	0.682708	7.37573e+06	-54689.1	1055.82	-29743	0.000000	0.000000	6.683031	-0.077010	NaN	0.000000	0.001646	0.001625	28.0825	0.160120	0.001959	81.7407	-127.798	-166.251	-0.017233	0.681375	-0.392199	-0.393531	-0.077010	81.7407	-0.391492	-101042	7.621590E-7	NaN
1091	1.000000	0.722704	7.37573e+06	-54689.1	1055.82	-29743	0.000000	0.000000	6.723029	-0.012805	NaN	0.000000	0.001630	0.001619	28.0828	0.052349	0.002032	25.7671	-71.9591	-166.484	0.022216	0.721373	-0.352203	-0.353533	-0.012805	25.7671	-0.351830	-27136.6	4.718751E-7	NaN
1091	1.000000	0.762727	7.37573e+06	-54689.1	1055.82	-29743	0.000000	0.000000	6.763053	0.004695	NaN	0.000000	0.001559	0.001589	28.0837	0.017606	0.001975	8.916569	55.9474	-160.385	-0.032760	0.761360	-0.312179	-0.313546	0.004695	8.916569	-0.312574	-7229.8	-6.493828E-7	NaN
1091	1.000000	0.802717	7.37573e+06	-54689.1	1055.82	-29743	0.000000	0.000000	6.803044	0.031857	NaN	0.000000	0.001549	0.001619	28.0838	0.092462	0.002037	45.3918	-100.927	-168.901	0.039367	0.801395	-0.272189	-0.273512	0.031857	45.3918	-0.272716	-1831.4	-1.739513E-5	NaN
1091	1.000000	0.842762	7.37573e+06	-54689.1	1055.82	-29743	0.000000	0.000000	6.843088	-0.013831	NaN	0.000000	0.001647	0.001613	28.0839	0.054729	0.002038	26.8483	-178.045	-165.651	-0.085133	0.841419	-0.232144	-0.233488	-0.013831	26.8483	-0.231758	-426.822	3.240400E-5	NaN
1091	1.000000	0.882788	7.37573e+06	-54689.1	1055.82	-29743	0.000000	0.000000	6.883114	0.007442	NaN	0.000000	0.001606	0.001630	28.0825	0.075572	0.002101	35.9633	74.5677	-167.96	0.018465	0.881417	-0.192119	-0.193489	0.007442	35.9633	-0.192274	-98.1621	-7.581827E-5	NaN
1091	1.000000	0.922777	7.37573e+06	-54689.1	1055.82	-29743	0.000000	0.000000	6.923100	-0.056788	NaN	0.000000	0.001591	0.001656	28.0828	0.054365	0.002071	26.255	132.527	-163.711	-0.016369	0.921463	-0.152130	-0.153444	-0.056788	26.255	-0.150508	-18.5037	0.003069	NaN
1091	1.000000	0.962802	7.37573e+06	-54689.1	1055.82	-29743	0.000000	0.000000	6.963130	0.034207	NaN	0.000000	0.001631	0.001602	28.0825	0.054325	0.001991	27.286	-33.8495	-165.765	0.017721	0.961485	-0.112104	-0.113422	0.034207	27.286	-0.113044	-3.480286	-0.009829	NaN
1091	1.000000	1.002842	7.37573e+06	-54689.1	1055.82	-29743	0.000000	0.000000	7.003167	-0.017845	NaN	0.000000	0.001681	0.001628	28.0828	0.069724	0.001969	35.412	173.526	-164.501	-0.070814	1.001536	-0.072064	-0.073371	-0.017845	35.412	-0.071687	-0.378272	0.047176	NaN
1091	1.000000	1.042832	7.37573e+06	-54689.1	1055.82	-29743	0.000000	0.000000	7.043156	-0.036475	NaN	0.000000	0.001656	0.001598	28.0838	0.066629	0.001987	33.5273	49.5961	-168.62	-0.018521	1.041512	-0.032075	-0.033394	-0.036475	33.5273	-0.031259	-0.024965	1.461055	NaN
1091	1.000000	1.082716	7.37573e+06	-54689.1	1055.82	-29743	0.000000	0.000000	7.083357	7.667034	NaN	0.000000	0.001662	0.001606	28.0836	7.645943	0.001713	4462.63	14.3291	-173.818	6.519724	1.081543	0.007810	0.006637	7.667034	4462.63	0.006521	0.005565	1377.78	54656.3
1091	2.000000	1.093309	7.37573e+06	-54689.1	1055.82	-29743	0.000000	0.000000	7.094522	21.5676	NaN	0.000000	0.001582	0.001612	28.0839	18.0251	0.001799	10021.4	3.110442	-172.326	21.5525	1.093024	0.018402	0.018118	21.5676	10021.4	0.016788	0.017744	1215.49	68734.7
1091	2.000000	1.103295	7.37573e+06	-54689.1	1055.82	-29743	0.000000	0.000000	7.105180	37.9011	NaN	0.000000	0.001591	0.001594	28.0824	26.5243	0.001825	14530.9	6.695406	-179.462	37.1973	1.102968	0.028389	0.028061	37.9011	14530.9	0.026433	0.033674	1125.55	72347.1
1091	2.000000	1.113253	7.37573e+06	-54689.1	1055.82	-29743	0.000000	0.000000	7.116603	73.5195	NaN	0.000000	0.001614	0.001572	28.0827	38.0359	0.001881	20224.3	7.017373	179.036	71.7053	1.112982	0.038346	0.038075	73.5195	20224.3	0.035620	0.053199	1381.98	80111.9
1091	2.000000	1.123207	7.37573e+06	-54689.1	1055.82	-29743	0.000000	0.000000	7.128236	114.349	NaN	0.000000	0.001534	0.001609	28.0825	47.6216	0.001643	28977.6	1.013899	-179.395	112.201	1.122942	0.048300	0.048035	114.349	28977.6	0.045341	0.078557	1455.61	94459
1091	2.000000	1.133317	7.37573e+06	-54689.1	1055.82	-29743	0.000000	0.000000	7.139759	148.662	NaN	0.000000	0.001575	0.001609	28.0829	58.1318	0.001822	31897.8	5.227238	175.172	148.821	1.133030	0.058411	0.058123	148.662	31897.8	0.054915	0.108210	1373.83	88593.1
1091	2.000000	1.143296	7.37573e+06	-54689.1	1055.82	-29743	0.000000	0.000000	7.151747	197.536	NaN	0.000000	0.001599	0.001614	28.0839	67.8743	0.001798	37741.5	2.723595	176.47	197.693	1.143015	0.068389	0.068108	197.536	37741.5	0.064464	0.142299	1388.17	91409.5
1091	2.000000	1.153240	7.37573e+06	-54689.1	1055.82	-29743	0.000000	0.000000	7.164047	254.793	NaN	0.000000	0.001577	0.001644	28.0838	76.3498	0.001771	43107	1.552270	177.637	256.125	1.152984	0.078333	0.078077	254.793	43107	0.073900	0.180316	1413.04	92748
1091	2.000000	1.163219	7.37573e+06	-54689.1	1055.82	-29743	0.000000	0.000000	7.176431	313.274	NaN	0.000000	0.001659	0.001674	28.0842	85.9624	0.001753	49035.2	5.525494	171.497	311.277	1.163102	0.088312	0.088196	313.274	49035.2	0.083521	0.223395	1402.33	94785.9
1091	2.000000	1.173215	7.37573e+06	-54689.1	1055.82	-29743	0.000000	0.000000	7.189320	383.598	NaN	0.000000	0.001615	0.001644	28.0825	95.739	0.001823	52527.6	6.932125	170.042	381.288	1.172914	0.098308	0.098007	383.598	52527.6	0.092831	0.269169	1425.12	92501.5
1091	2.000000	1.182108	7.37573e+06	-54689.1	1055.82	-29743	0.000000	0.000000	7.201049	452.538	NaN	0.000000	0.001656	0.001615	28.0823	101.632	0.001818	55895.4	5.712610	171.151	447.713	1.181819	0.107201	0.106912	452.538	55895.4	0.101129	0.313309	1444.38	91235.4