File: remote_trans/data/nanoindenter/0828-1/data/Data_2025-08-06,11h17m57s/2025-07-22_16-23-58_1_393.txt
2025-07-22, 16:23:58, 1
Index	Phase	Displacement	Time	Pos X	Pos Y	Pos Z	Rot A	Rot B	Piezo Z	Force A	Force B	Gripper	Voltage A	Voltage B	Temperature	Amplitude force	Amplitude pos	Stiffness	Phase shift	Phase excitation	Force A raw	Displacement raw	HMax	HMax raw	Real Force	Real Stiffness	Contact Depth	Area	Hardness	Reduced Mod.
[#]	[#]	[um]	[s]	[um]	[um]	[um]	[m°]	[m°]	[um]	[uN]	[uN]	[V]	[V]	[V]	[°C]	[uN]	[um]	[N/m]	[°]	[°]	[uN]	[um]	[um]	[um]	[uN]	[N/m]	[um]	[um^2]	[MPa]	[MPa]
393	1.000000	0.002684	7.36891e+06	-57439.1	1005.82	-29737.1	0.000000	0.000000	6.002808	-0.018918	NaN	0.000000	0.001618	0.001652	28.0816	0.057981	0.001018	56.9583	127.398	-164.34	-0.008523	0.001393	-1.076357	-1.077648	-0.018918	56.9583	-1.076108	-2.394622E+14	7.900244E-17	NaN
393	1.000000	0.042637	7.36891e+06	-57439.1	1005.82	-29737.1	0.000000	0.000000	6.042762	-0.009381	NaN	0.000000	0.001649	0.001653	28.0817	0.043771	0.001849	23.6703	-112.923	-165.52	0.007800	0.041295	-1.036404	-1.037746	-0.009381	23.6703	-1.036107	-6.944014E+13	1.350928E-16	NaN
393	1.000000	0.082626	7.36891e+06	-57439.1	1005.82	-29737.1	0.000000	0.000000	6.082754	0.065153	NaN	0.000000	0.001651	0.001659	28.0817	0.073221	0.001862	39.3136	-76.9392	-165.229	0.052143	0.081231	-0.996415	-0.997810	0.065153	39.3136	-0.997658	-2.109765E+13	-3.088160E-15	NaN
393	1.000000	0.122654	7.36891e+06	-57439.1	1005.82	-29737.1	0.000000	0.000000	6.122778	-0.020120	NaN	0.000000	0.001637	0.001643	28.0805	0.050828	0.001970	25.8026	-7.779243	-166.274	-0.040059	0.121408	-0.956387	-0.957633	-0.020120	25.8026	-0.955802	-5.757985E+12	3.494229E-15	NaN
393	1.000000	0.162681	7.36891e+06	-57439.1	1005.82	-29737.1	0.000000	0.000000	6.162805	-0.026966	NaN	0.000000	0.001627	0.001682	28.0804	0.061936	0.002046	30.2779	134.369	-165.205	-0.075390	0.161372	-0.916359	-0.917669	-0.026966	30.2779	-0.915691	-1.655880E+12	1.628494E-14	NaN
393	1.000000	0.202688	7.36891e+06	-57439.1	1005.82	-29737.1	0.000000	0.000000	6.202813	-0.017047	NaN	0.000000	0.001651	0.001654	28.0808	0.095107	0.001997	47.62	-105.887	-166.274	0.046459	0.201328	-0.876353	-0.877713	-0.017047	47.62	-0.876084	-4.827765E+11	3.531120E-14	NaN
393	1.000000	0.242715	7.36891e+06	-57439.1	1005.82	-29737.1	0.000000	0.000000	6.242839	-0.026542	NaN	0.000000	0.001616	0.001654	28.0807	0.101166	0.002097	48.2388	175.078	-165.966	-0.025453	0.241458	-0.836326	-0.837583	-0.026542	48.2388	-0.835913	-1.380142E+11	1.923142E-13	NaN
393	1.000000	0.282729	7.36891e+06	-57439.1	1005.82	-29737.1	0.000000	0.000000	6.282854	0.000733	NaN	0.000000	0.001678	0.001680	28.0819	0.014907	0.002134	6.984837	126.825	-166.187	-0.031396	0.281469	-0.796312	-0.797571	0.000733	6.984837	-0.796391	-4.016630E+10	-1.825777E-14	NaN
393	1.000000	0.322724	7.36891e+06	-57439.1	1005.82	-29737.1	0.000000	0.000000	6.322852	0.073596	NaN	0.000000	0.001603	0.001648	28.0818	0.087658	0.002043	42.9157	-13.8286	-166.567	0.016877	0.321442	-0.756317	-0.757599	0.073596	42.9157	-0.757603	-1.193155E+10	-6.168192E-12	NaN
393	1.000000	0.362759	7.36891e+06	-57439.1	1005.82	-29737.1	0.000000	0.000000	6.362884	-0.007769	NaN	0.000000	0.001666	0.001643	28.0813	0.044843	0.001902	23.5747	63.3044	-165.583	-0.029731	0.361475	-0.716281	-0.717566	-0.007769	23.5747	-0.716034	-3.238781E+9	2.398804E-12	NaN
393	1.000000	0.402788	7.36891e+06	-57439.1	1005.82	-29737.1	0.000000	0.000000	6.402914	0.000302	NaN	0.000000	0.001664	0.001597	28.0801	0.081149	0.002105	38.5513	-140.99	-167.698	-0.028671	0.401538	-0.676252	-0.677502	0.000302	38.5513	-0.676258	-9.268807E+8	-3.260291E-13	NaN
393	1.000000	0.442781	7.36891e+06	-57439.1	1005.82	-29737.1	0.000000	0.000000	6.442905	-0.030625	NaN	0.000000	0.001656	0.001575	28.0804	0.068785	0.001987	34.6243	-176.188	-167.548	0.022171	0.441485	-0.636260	-0.637556	-0.030625	34.6243	-0.635597	-2.569567E+8	1.191829E-10	NaN
393	1.000000	0.482808	7.36891e+06	-57439.1	1005.82	-29737.1	0.000000	0.000000	6.482935	0.057728	NaN	0.000000	0.001688	0.001583	28.0806	0.078717	0.001990	39.5499	91.9916	-165.851	-0.106364	0.481550	-0.596233	-0.597490	0.057728	39.5499	-0.597328	-7.649893E+7	-7.546226E-10	NaN
393	1.000000	0.522808	7.36891e+06	-57439.1	1005.82	-29737.1	0.000000	0.000000	6.522934	0.008299	NaN	0.000000	0.001670	0.001580	28.0805	0.091044	0.001959	46.4633	44.323	-170.004	0.121091	0.521497	-0.556232	-0.557544	0.008299	46.4633	-0.556366	-2.080179E+7	-3.989770E-10	NaN
393	1.000000	0.562799	7.36891e+06	-57439.1	1005.82	-29737.1	0.000000	0.000000	6.562921	-0.068456	NaN	0.000000	0.001637	0.001559	28.0818	0.039052	0.002012	19.4071	-133.908	-163.947	-0.013685	0.561520	-0.516242	-0.517521	-0.068456	19.4071	-0.513597	-5.3027e+06	1.290966E-8	NaN
393	1.000000	0.602852	7.36891e+06	-57439.1	1005.82	-29737.1	0.000000	0.000000	6.602979	0.025208	NaN	0.000000	0.001664	0.001615	28.0817	0.171386	0.002143	79.9866	103.971	-165.974	-0.061759	0.601623	-0.476188	-0.477417	0.025208	79.9866	-0.476425	-1.60494e+06	-1.570646E-8	NaN
393	1.000000	0.642888	7.36891e+06	-57439.1	1005.82	-29737.1	0.000000	0.000000	6.643012	-0.022821	NaN	0.000000	0.001650	0.001611	28.0817	0.114472	0.002215	51.6727	159.928	-167.561	-0.052952	0.641535	-0.436153	-0.437506	-0.022821	51.6727	-0.435821	-430883	5.296395E-8	NaN
393	1.000000	0.682874	7.36891e+06	-57439.1	1005.82	-29737.1	0.000000	0.000000	6.682998	-0.023945	NaN	0.000000	0.001717	0.001608	28.0806	0.158531	0.001963	80.7474	-103.237	-164.357	0.034320	0.681595	-0.396167	-0.397446	-0.023945	80.7474	-0.395944	-116982	2.046897E-7	NaN
393	1.000000	0.722913	7.36891e+06	-57439.1	1005.82	-29737.1	0.000000	0.000000	6.723038	0.014199	NaN	0.000000	0.001652	0.001659	28.0808	0.025132	0.001968	12.771	130.494	-164.506	0.062127	0.721555	-0.356128	-0.357486	0.014199	12.771	-0.356962	-32203.5	-4.409175E-7	NaN
393	1.000000	0.762935	7.36891e+06	-57439.1	1005.82	-29737.1	0.000000	0.000000	6.763060	-0.013843	NaN	0.000000	0.001666	0.001656	28.0808	0.035039	0.001862	18.8161	-133.482	-164.807	0.055036	0.761610	-0.316106	-0.317430	-0.013843	18.8161	-0.315554	-8000.52	1.730278E-6	NaN
393	1.000000	0.802948	7.36891e+06	-57439.1	1005.82	-29737.1	0.000000	0.000000	6.803068	-0.109049	NaN	0.000000	0.001730	0.001648	28.082	0.069659	0.002010	34.6606	158.021	-167.983	-0.018477	0.801633	-0.276093	-0.277408	-0.109049	34.6606	-0.273733	-1897.63	5.746598E-5	NaN
393	1.000000	0.842916	7.36891e+06	-57439.1	1005.82	-29737.1	0.000000	0.000000	6.843042	0.021101	NaN	0.000000	0.001657	0.001647	28.0819	0.111765	0.001927	58.0072	-31.3374	-164.68	0.030546	0.841675	-0.236125	-0.237366	0.021101	58.0072	-0.236397	-504.867	-4.179449E-5	NaN
393	1.000000	0.882945	7.36891e+06	-57439.1	1005.82	-29737.1	0.000000	0.000000	6.883070	-0.008870	NaN	0.000000	0.001680	0.001660	28.0816	0.142054	0.001861	76.3376	-88.815	-162.361	-0.020616	0.881687	-0.196096	-0.197354	-0.008870	76.3376	-0.196009	-113.213	7.834499E-5	NaN
393	1.000000	0.922981	7.36891e+06	-57439.1	1005.82	-29737.1	0.000000	0.000000	6.923107	0.017243	NaN	0.000000	0.001628	0.001631	28.0815	0.050659	0.002087	24.2791	-7.584664	-167.303	-0.090932	0.921676	-0.156059	-0.157365	0.017243	24.2791	-0.156592	-23.8325	-0.000723	NaN
393	1.000000	0.963008	7.36891e+06	-57439.1	1005.82	-29737.1	0.000000	0.000000	6.963132	-0.028890	NaN	0.000000	0.001644	0.001624	28.0803	0.049787	0.002151	23.1425	79.1383	-169.254	0.019543	0.961704	-0.116033	-0.117336	-0.028890	23.1425	-0.115096	-3.837895	0.007528	NaN
393	1.000000	1.003026	7.36891e+06	-57439.1	1005.82	-29737.1	0.000000	0.000000	7.003151	-0.013666	NaN	0.000000	0.001641	0.001631	28.0804	0.075948	0.002068	36.7266	155.682	-168.465	0.010090	1.001749	-0.076015	-0.077292	-0.013666	36.7266	-0.075736	-0.482507	0.028322	NaN
393	1.000000	1.043009	7.36891e+06	-57439.1	1005.82	-29737.1	0.000000	0.000000	7.043132	-0.044656	NaN	0.000000	0.001630	0.001704	28.0804	0.120220	0.001934	62.1495	-111.197	-167.219	0.003222	1.041692	-0.036032	-0.037349	-0.044656	62.1495	-0.035493	-0.033115	1.348488	NaN
393	1.000000	1.083011	7.36891e+06	-57439.1	1005.82	-29737.1	0.000000	0.000000	7.083319	4.455922	NaN	0.000000	0.001731	0.001639	28.0818	5.253240	0.001782	2948.52	9.574905	-171.477	2.640307	1.081722	0.003970	0.002682	4.455922	2948.52	0.002837	0.002243	1986.75	56882.6
393	2.000000	1.095569	7.36891e+06	-57439.1	1005.82	-29737.1	0.000000	0.000000	7.096524	20.1599	NaN	0.000000	0.001697	0.001669	28.0819	18.9791	0.001864	10180.6	6.725176	-176.538	20.6279	1.095167	0.016528	0.016126	20.1599	10180.6	0.015043	0.015343	1313.96	75091.9
393	2.000000	1.105510	7.36891e+06	-57439.1	1005.82	-29737.1	0.000000	0.000000	7.107124	36.1987	NaN	0.000000	0.001650	0.001651	28.0817	28.091	0.001837	15289.5	4.189064	-178.636	35.9613	1.105367	0.026469	0.026326	36.1987	15289.5	0.024693	0.030460	1188.4	80038.6
393	2.000000	1.115499	7.36891e+06	-57439.1	1005.82	-29737.1	0.000000	0.000000	7.118336	65.9098	NaN	0.000000	0.001645	0.001653	28.0815	38.3217	0.001819	21071.5	3.630531	178.972	66.3703	1.115224	0.036458	0.036183	65.9098	21071.5	0.034112	0.049699	1326.18	86356.2
393	2.000000	1.125473	7.36891e+06	-57439.1	1005.82	-29737.1	0.000000	0.000000	7.129717	100.113	NaN	0.000000	0.001658	0.001644	28.0802	48.0168	0.001888	25431.4	3.129097	178.387	99.914	1.125116	0.046432	0.046075	100.113	25431.4	0.043479	0.073329	1365.25	85803.7
393	2.000000	1.135410	7.36891e+06	-57439.1	1005.82	-29737.1	0.000000	0.000000	7.141237	138.579	NaN	0.000000	0.001621	0.001651	28.0802	56.9593	0.001751	32538.8	2.896729	175.486	135.504	1.135177	0.056369	0.056136	138.579	32538.8	0.053175	0.102480	1352.26	92865.7
393	2.000000	1.145370	7.36891e+06	-57439.1	1005.82	-29737.1	0.000000	0.000000	7.153308	189.883	NaN	0.000000	0.001649	0.001626	28.0802	66.2979	0.001771	37439.7	5.993951	172.162	185.635	1.145053	0.066330	0.066012	189.883	37439.7	0.062526	0.135021	1406.32	93090.5
393	2.000000	1.155484	7.36891e+06	-57439.1	1005.82	-29737.1	0.000000	0.000000	7.165649	244.018	NaN	0.000000	0.001575	0.001707	28.0813	76.0127	0.001808	42033.6	10.1309	167.985	246.178	1.155073	0.076443	0.076032	244.018	42033.6	0.072089	0.172691	1413.03	92413.5
393	2.000000	1.165400	7.36891e+06	-57439.1	1005.82	-29737.1	0.000000	0.000000	7.178344	311.557	NaN	0.000000	0.001634	0.001643	28.0814	86.4116	0.001844	46851.6	8.697980	167.449	310.413	1.165133	0.086360	0.086092	311.557	46851.6	0.081372	0.213400	1459.96	92661.6
393	2.000000	1.175445	7.36891e+06	-57439.1	1005.82	-29737.1	0.000000	0.000000	7.190793	369.986	NaN	0.000000	0.001605	0.001704	28.0817	94.8463	0.001842	51497.4	1.445092	173.723	370.087	1.175309	0.096404	0.096268	369.986	51497.4	0.091016	0.259934	1423.38	92284.1
393	2.000000	1.184998	7.36891e+06	-57439.1	1005.82	-29737.1	0.000000	0.000000	7.203708	451.69	NaN	0.000000	0.001664	0.001709	28.0809	105.26	0.001770	59462.9	9.127614	-14.2404	453.658	1.184614	0.105957	0.105573	451.69	59462.9	0.100260	0.308541	1463.96	97805.4