File: remote_trans/data/nanoindenter/0828-1/data/Data_2025-08-06,11h17m57s/2025-07-22_16-23-58_1_205.txt
2025-07-22, 16:23:58, 1
Index	Phase	Displacement	Time	Pos X	Pos Y	Pos Z	Rot A	Rot B	Piezo Z	Force A	Force B	Gripper	Voltage A	Voltage B	Temperature	Amplitude force	Amplitude pos	Stiffness	Phase shift	Phase excitation	Force A raw	Displacement raw	HMax	HMax raw	Real Force	Real Stiffness	Contact Depth	Area	Hardness	Reduced Mod.
[#]	[#]	[um]	[s]	[um]	[um]	[um]	[m°]	[m°]	[um]	[uN]	[uN]	[V]	[V]	[V]	[°C]	[uN]	[um]	[N/m]	[°]	[°]	[uN]	[um]	[um]	[um]	[uN]	[N/m]	[um]	[um^2]	[MPa]	[MPa]
205	1.000000	0.002262	7.36705e+06	-48889.1	955.819	-29760.6	0.000000	0.000000	6.002788	-0.016919	NaN	0.000000	0.001686	0.001727	28.0773	0.079926	0.001033	77.3473	-176.771	-168.997	-0.031027	0.001072	-1.734649	-1.735839	-0.016919	77.3473	-1.734485	-1.460375E+23	1.158534E-25	NaN
205	1.000000	0.060207	7.36705e+06	-48889.1	955.818	-29760.6	0.000000	0.000000	6.060735	0.034776	NaN	0.000000	0.001690	0.001712	28.0767	0.064866	0.002051	31.6306	103.684	16.4271	-0.067840	0.058913	-1.676704	-1.677999	0.034776	31.6306	-1.677529	-2.557913E+22	-1.359556E-24	NaN
205	1.000000	0.118263	7.36705e+06	-48889.1	955.819	-29760.6	0.000000	0.000000	6.118788	-0.025551	NaN	0.000000	0.001684	0.001707	28.077	0.110285	0.001944	56.7171	-14.8591	-164.398	-0.003379	0.116942	-1.618648	-1.619969	-0.025551	56.7171	-1.618310	-4.175701E+21	6.119076E-24	NaN
205	1.000000	0.176292	7.36705e+06	-48889.1	955.819	-29760.6	0.000000	0.000000	6.176815	-0.074992	NaN	0.000000	0.001704	0.001718	28.0786	0.043403	0.001995	21.7604	85.7859	16.3528	-0.148477	0.174905	-1.560619	-1.562006	-0.074992	21.7604	-1.558035	-6.590593E+20	1.137862E-22	NaN
205	1.000000	0.234302	7.36705e+06	-48889.1	955.82	-29760.6	0.000000	0.000000	6.234831	0.040431	NaN	0.000000	0.001664	0.001663	28.0782	0.017794	0.002104	8.455735	56.3392	-167.083	-0.031578	0.233007	-1.502609	-1.503904	0.040431	8.455735	-1.506195	-1.345283E+20	-3.005364E-22	NaN
205	1.000000	0.292308	7.36705e+06	-48889.1	955.818	-29760.6	0.000000	0.000000	6.292834	-0.007803	NaN	0.000000	0.001641	0.001706	28.077	0.045354	0.001924	23.5681	-100.037	14.0488	0.009748	0.290947	-1.444603	-1.445964	-0.007803	23.5681	-1.444355	-2.017931E+19	3.866773E-22	NaN
205	1.000000	0.350351	7.36705e+06	-48889.1	955.818	-29760.6	0.000000	0.000000	6.350878	0.008026	NaN	0.000000	0.001710	0.001705	28.0767	0.114994	0.002224	51.705	38.7231	-166.574	-0.019689	0.349054	-1.386561	-1.387857	0.008026	51.705	-1.386677	-3.433439E+18	-2.337547E-21	NaN
205	1.000000	0.408349	7.36705e+06	-48889.1	955.82	-29760.6	0.000000	0.000000	6.408874	-0.028819	NaN	0.000000	0.001638	0.001746	28.078	0.013521	0.002103	6.430771	-120.256	18.7021	-0.013498	0.407084	-1.328562	-1.329827	-0.028819	6.430771	-1.325201	-5.188904E+17	5.553907E-20	NaN
205	1.000000	0.466422	7.36705e+06	-48889.1	955.818	-29760.6	0.000000	0.000000	6.466948	-0.023284	NaN	0.000000	0.001656	0.001700	28.0781	0.074087	0.001952	37.9607	-65.6259	-164.816	0.011420	0.465105	-1.270489	-1.271807	-0.023284	37.9607	-1.270029	-9.501199E+16	2.450687E-19	NaN
205	1.000000	0.524435	7.36705e+06	-48889.1	955.819	-29760.6	0.000000	0.000000	6.524959	-0.057882	NaN	0.000000	0.001699	0.001674	28.0782	0.116945	0.001965	59.5254	76.3895	13.4148	-0.004727	0.523049	-1.212476	-1.213862	-0.057882	59.5254	-1.211747	-1.577706E+16	3.668769E-18	NaN
205	1.000000	0.582445	7.36705e+06	-48889.1	955.818	-29760.6	0.000000	0.000000	6.582970	-0.036669	NaN	0.000000	0.001697	0.001690	28.0768	0.020754	0.001983	10.4639	19.5242	-166.266	-0.002061	0.581130	-1.154466	-1.155781	-0.036669	10.4639	-1.151838	-2.485773E+15	1.475155E-17	NaN
205	1.000000	0.640494	7.36705e+06	-48889.1	955.818	-29760.6	0.000000	0.000000	6.641022	0.027894	NaN	0.000000	0.001707	0.001689	28.077	0.117596	0.001922	61.1728	-56.6476	11.2982	-0.006699	0.639147	-1.096417	-1.097764	0.027894	61.1728	-1.096759	-4.534852E+14	-6.151073E-17	NaN
205	1.000000	0.698484	7.36705e+06	-48889.1	955.818	-29760.6	0.000000	0.000000	6.699008	-0.068441	NaN	0.000000	0.001785	0.001733	28.0781	0.085697	0.002005	42.7339	44.8162	-167.02	0.053187	0.697170	-1.038427	-1.039741	-0.068441	42.7339	-1.037226	-7.188837E+13	9.520476E-16	NaN
205	1.000000	0.756511	7.36705e+06	-48889.1	955.819	-29760.6	0.000000	0.000000	6.757037	-0.015786	NaN	0.000000	0.001777	0.001648	28.0781	0.113615	0.001914	59.3505	90.5989	14.4794	-0.007028	0.755131	-0.980400	-0.981781	-0.015786	59.3505	-0.980201	-1.227761E+13	1.285718E-15	NaN
205	1.000000	0.814560	7.36705e+06	-48889.1	955.818	-29760.6	0.000000	0.000000	6.815088	0.018360	NaN	0.000000	0.001774	0.001680	28.0773	0.093395	0.002127	43.9095	130.003	-163.62	0.090139	0.813233	-0.922351	-0.923678	0.018360	43.9095	-0.922664	-2.056739E+12	-8.926749E-15	NaN
205	1.000000	0.872582	7.36705e+06	-48889.1	955.82	-29760.6	0.000000	0.000000	6.873109	0.011703	NaN	0.000000	0.001740	0.001641	28.0769	0.055850	0.002055	27.1818	-89.9602	13.328	-0.029317	0.871233	-0.864329	-0.865678	0.011703	27.1818	-0.864652	-3.381290E+11	-3.461199E-14	NaN
205	1.000000	0.930608	7.36705e+06	-48889.1	955.819	-29760.6	0.000000	0.000000	6.931140	0.119890	NaN	0.000000	0.001692	0.001726	28.0766	0.087100	0.001933	45.0594	80.285	-169.026	0.169864	0.929242	-0.806303	-0.807670	0.119890	45.0594	-0.808299	-5.827566E+10	-2.057290E-12	NaN
205	1.000000	0.988613	7.36705e+06	-48889.1	955.82	-29760.6	0.000000	0.000000	6.989140	0.013795	NaN	0.000000	0.001654	0.001671	28.0781	0.089133	0.002093	42.5793	-144.802	12.3024	-0.034281	0.987248	-0.748298	-0.749663	0.013795	42.5793	-0.748541	-8.981696E+9	-1.535849E-12	NaN
205	1.000000	1.046625	7.36705e+06	-48889.1	955.82	-29760.6	0.000000	0.000000	7.047153	0.035452	NaN	0.000000	0.001707	0.001721	28.078	0.028530	0.002052	13.9069	-169.418	-164.987	-0.015788	1.045268	-0.690286	-0.691643	0.035452	13.9069	-0.692198	-1.530923E+9	-2.315733E-11	NaN
205	1.000000	1.104670	7.36705e+06	-48889.1	955.821	-29760.6	0.000000	0.000000	7.105195	-0.042847	NaN	0.000000	0.001680	0.001648	28.077	0.112964	0.001958	57.6889	-141.137	14.6299	-0.048346	1.103307	-0.632241	-0.633604	-0.042847	57.6889	-0.631684	-2.270652E+8	1.886971E-10	NaN
205	1.000000	1.162699	7.36705e+06	-48889.1	955.82	-29760.6	0.000000	0.000000	7.163225	-0.013858	NaN	0.000000	0.001686	0.001663	28.0769	0.098757	0.001862	53.0241	-51.2696	-165.737	0.008952	1.161392	-0.574212	-0.575519	-0.013858	53.0241	-0.574016	-3.648444E+7	3.798199E-10	NaN
205	1.000000	1.220749	7.36705e+06	-48889.1	955.82	-29760.6	0.000000	0.000000	7.221273	-0.056833	NaN	0.000000	0.001654	0.001692	28.0778	0.038690	0.002080	18.6031	-111.543	11.7841	-0.020159	1.219336	-0.516162	-0.517575	-0.056833	18.6031	-0.513871	-5.34957e+06	1.062388E-8	NaN
205	1.000000	1.278738	7.36705e+06	-48889.1	955.82	-29760.6	0.000000	0.000000	7.279268	0.089494	NaN	0.000000	0.001664	0.001668	28.0783	0.069593	0.002073	33.5718	164.285	-164.907	0.045493	1.277412	-0.458173	-0.459499	0.089494	33.5718	-0.460172	-949376	-9.426644E-8	NaN
205	1.000000	1.336763	7.36705e+06	-48889.1	955.821	-29760.6	0.000000	0.000000	7.337291	0.030521	NaN	0.000000	0.001707	0.001656	28.0782	0.159442	0.001992	80.0366	-39.9936	15.1281	-0.026743	1.335396	-0.400148	-0.401515	0.030521	80.0366	-0.400434	-135575	-2.251200E-7	NaN
205	1.000000	1.394787	7.36705e+06	-48889.1	955.821	-29760.6	0.000000	0.000000	7.395314	0.008774	NaN	0.000000	0.001670	0.001662	28.0768	0.060076	0.001962	30.622	-90.0754	-167.124	0.018388	1.393481	-0.342125	-0.343430	0.008774	30.622	-0.342339	-19753.2	-4.441861E-7	NaN
205	1.000000	1.452789	7.36706e+06	-48889.1	955.821	-29760.6	0.000000	0.000000	7.453317	0.033021	NaN	0.000000	0.001656	0.001646	28.0771	0.020547	0.002065	9.952333	-16.3479	12.4984	-0.068325	1.451455	-0.284122	-0.285456	0.033021	9.952333	-0.286611	-2968.01	-1.112578E-5	NaN
205	1.000000	1.510852	7.36706e+06	-48889.1	955.82	-29760.6	0.000000	0.000000	7.511379	0.012144	NaN	0.000000	0.001624	0.001669	28.078	0.029398	0.001993	14.7509	-16.0874	-166.343	-0.004861	1.509571	-0.226059	-0.227340	0.012144	14.7509	-0.226677	-354.765	-3.423081E-5	NaN
205	1.000000	1.568866	7.36706e+06	-48889.1	955.82	-29760.6	0.000000	0.000000	7.569392	-0.000741	NaN	0.000000	0.001691	0.001648	28.078	0.156803	0.001996	78.5751	152.368	11.6196	0.007788	1.567501	-0.168046	-0.169410	-0.000741	78.5751	-0.168038	-37.9733	1.951746E-5	NaN
205	1.000000	1.626895	7.36706e+06	-48889.1	955.822	-29760.6	0.000000	0.000000	7.627421	-0.005231	NaN	0.000000	0.001677	0.001637	28.0779	0.036527	0.001878	19.4523	82.5875	-166.912	-0.023527	1.625628	-0.110016	-0.111283	-0.005231	19.4523	-0.109815	-2.978270	0.001756	NaN
205	1.000000	1.684917	7.36706e+06	-48889.1	955.822	-29760.6	0.000000	0.000000	7.685444	0.001499	NaN	0.000000	0.001659	0.001644	28.0767	0.068906	0.001918	35.9319	-117.36	11.0643	0.029852	1.683614	-0.051994	-0.053298	0.001499	35.9319	-0.052025	-0.105011	-0.014277	NaN
205	1.000000	1.742901	7.36706e+06	-48889.1	955.822	-29760.6	0.000000	0.000000	7.743623	4.771118	NaN	0.000000	0.001711	0.001619	28.0773	5.915145	0.001783	3317.8	9.630574	-170.618	3.118709	1.741597	0.005989	0.004686	4.771118	3317.8	0.004911	0.004052	1177.39	47618.3
205	2.000000	1.759869	7.36706e+06	-48889.1	955.821	-29760.6	0.000000	0.000000	7.761502	26.9236	NaN	0.000000	0.001776	0.001677	28.0777	21.0739	0.001904	11066.5	5.195883	4.369706	27.2017	1.759447	0.022957	0.022536	26.9236	11066.5	0.021133	0.024354	1105.53	64789.1
205	2.000000	1.774251	7.36706e+06	-48889.1	955.822	-29760.6	0.000000	0.000000	7.777258	60.3227	NaN	0.000000	0.001811	0.001637	28.0778	33.9006	0.001789	18946.1	6.031380	176.062	56.5152	1.773974	0.037340	0.037063	60.3227	18946.1	0.034952	0.051635	1168.25	76176.4
205	2.000000	1.788789	7.36706e+06	-48889.1	955.822	-29760.6	0.000000	0.000000	7.793893	111.327	NaN	0.000000	0.001766	0.001628	28.0767	47.5178	0.001826	26027	2.594556	-1.907364	109.843	1.788457	0.051877	0.051546	111.327	26027	0.048669	0.088345	1260.15	80003
205	2.000000	1.803281	7.36706e+06	-48889.1	955.822	-29760.5	0.000000	0.000000	7.810975	174.304	NaN	0.000000	0.001734	0.001617	28.0766	60.6439	0.001887	32141.5	3.028811	175.775	174.561	1.803055	0.066370	0.066144	174.304	32141.5	0.062303	0.134196	1298.88	80162.3
205	2.000000	1.817662	7.36706e+06	-48889.1	955.823	-29760.5	0.000000	0.000000	7.828450	249.566	NaN	0.000000	0.001716	0.001618	28.0772	72.2179	0.001750	41262.6	2.316082	-5.650268	243.758	1.817373	0.080751	0.080462	249.566	41262.6	0.076214	0.190282	1311.55	86423.1
205	2.000000	1.832122	7.36706e+06	-48889.1	955.823	-29760.5	0.000000	0.000000	7.846585	338.944	NaN	0.000000	0.001699	0.001602	28.0781	83.9607	0.001743	48174.7	2.768591	173.3	332.827	1.831879	0.095211	0.094967	338.944	48174.7	0.089934	0.254500	1331.8	87246.5
205	2.000000	1.844661	7.36706e+06	-48889.1	955.823	-29760.5	0.000000	0.000000	7.862635	424.346	NaN	0.000000	0.001728	0.001632	28.0779	94.7439	0.001668	56785.7	1.649601	-6.892070	419.249	1.844450	0.107749	0.107538	424.346	56785.7	0.102145	0.318928	1330.54	91868.3