File: remote_trans/data/nanoindenter/0828-1/data/Data_2025-08-06,11h17m57s/2025-07-22_16-23-58_1_573.txt
2025-07-22, 16:23:58, 1
Index	Phase	Displacement	Time	Pos X	Pos Y	Pos Z	Rot A	Rot B	Piezo Z	Force A	Force B	Gripper	Voltage A	Voltage B	Temperature	Amplitude force	Amplitude pos	Stiffness	Phase shift	Phase excitation	Force A raw	Displacement raw	HMax	HMax raw	Real Force	Real Stiffness	Contact Depth	Area	Hardness	Reduced Mod.
[#]	[#]	[um]	[s]	[um]	[um]	[um]	[m°]	[m°]	[um]	[uN]	[uN]	[V]	[V]	[V]	[°C]	[uN]	[um]	[N/m]	[°]	[°]	[uN]	[um]	[um]	[um]	[uN]	[N/m]	[um]	[um^2]	[MPa]	[MPa]
573	1.000000	0.002666	7.37065e+06	-48439.1	1005.82	-29762.5	0.000000	0.000000	6.002817	0.078260	NaN	0.000000	0.001623	0.001769	28.0831	0.008443	0.000906	9.315626	-49.0221	-157.776	0.065220	0.001406	-1.059589	-1.060849	0.078260	9.315626	-1.065890	-1.745695E+14	-4.483026E-16	NaN
573	1.000000	0.042593	7.37065e+06	-48439.1	1005.82	-29762.5	0.000000	0.000000	6.042741	0.018953	NaN	0.000000	0.001605	0.001743	28.083	0.100838	0.002023	49.8523	79.7865	-166.914	-0.014236	0.041296	-1.019662	-1.020960	0.018953	49.8523	-1.019948	-4.209667E+13	-4.502362E-16	NaN
573	1.000000	0.082593	7.37065e+06	-48439.1	1005.82	-29762.5	0.000000	0.000000	6.082741	0.009988	NaN	0.000000	0.001621	0.001770	28.0816	0.104993	0.001961	53.527	-102.312	-170.183	-0.034096	0.081296	-0.979663	-0.980960	0.009988	53.527	-0.979803	-1.212694E+13	-8.236181E-16	NaN
573	1.000000	0.122627	7.37065e+06	-48439.1	1005.82	-29762.5	0.000000	0.000000	6.122777	0.063500	NaN	0.000000	0.001599	0.001747	28.0816	0.064349	0.002050	31.3891	-16.5254	-164.866	0.074861	0.121274	-0.939629	-0.940982	0.063500	31.3891	-0.941146	-3.652546E+12	-1.738504E-14	NaN
573	1.000000	0.162644	7.37065e+06	-48439.1	1005.82	-29762.5	0.000000	0.000000	6.162791	-0.022872	NaN	0.000000	0.001647	0.001729	28.0817	0.063113	0.002010	31.396	20.7522	-161.865	-0.043253	0.161315	-0.899611	-0.900941	-0.022872	31.396	-0.899065	-9.872602E+11	2.316704E-14	NaN
573	1.000000	0.202663	7.37065e+06	-48439.1	1005.82	-29762.5	0.000000	0.000000	6.202814	0.065059	NaN	0.000000	0.001677	0.001756	28.0817	0.067554	0.001911	35.3507	-109.848	-165.85	0.076428	0.201381	-0.859592	-0.860875	0.065059	35.3507	-0.860972	-3.014971E+11	-2.157878E-13	NaN
573	1.000000	0.242644	7.37065e+06	-48439.1	1005.82	-29762.5	0.000000	0.000000	6.242794	0.042527	NaN	0.000000	0.001653	0.001749	28.0828	0.129839	0.002007	64.6792	-47.2206	-167.62	-0.005074	0.241375	-0.819611	-0.820881	0.042527	64.6792	-0.820104	-8.426113E+10	-5.047062E-13	NaN
573	1.000000	0.282699	7.37065e+06	-48439.1	1005.82	-29762.5	0.000000	0.000000	6.282845	-0.036095	NaN	0.000000	0.001611	0.001755	28.083	0.058921	0.002057	28.648	-146.981	-166.698	-0.051862	0.281378	-0.779557	-0.780878	-0.036095	28.648	-0.778612	-2.303409E+10	1.567025E-12	NaN
573	1.000000	0.322740	7.37065e+06	-48439.1	1005.82	-29762.5	0.000000	0.000000	6.322889	0.048146	NaN	0.000000	0.001595	0.001754	28.083	0.086400	0.001956	44.1681	76.4887	-165.341	0.050810	0.321410	-0.739516	-0.740846	0.048146	44.1681	-0.740334	-6.943829E+9	-6.933635E-12	NaN
573	1.000000	0.362736	7.37065e+06	-48439.1	1005.82	-29762.5	0.000000	0.000000	6.362883	-0.013423	NaN	0.000000	0.001559	0.001724	28.0815	0.092309	0.002031	45.4444	-43.2163	-165.712	-0.026937	0.361398	-0.699519	-0.700857	-0.013423	45.4444	-0.699298	-1.914003E+9	7.013220E-12	NaN
573	1.000000	0.402741	7.37065e+06	-48439.1	1005.82	-29762.5	0.000000	0.000000	6.402889	0.028007	NaN	0.000000	0.001585	0.001756	28.0814	0.048700	0.001999	24.3561	158.081	-164.182	0.067868	0.401404	-0.659515	-0.660852	0.028007	24.3561	-0.660377	-5.618728E+8	-4.984518E-11	NaN
573	1.000000	0.442783	7.37065e+06	-48439.1	1005.82	-29762.5	0.000000	0.000000	6.442934	0.077793	NaN	0.000000	0.001598	0.001770	28.0817	0.019025	0.001912	9.948257	-92.9119	-163.638	0.091714	0.441448	-0.619472	-0.620808	0.077793	9.948257	-0.625337	-1.857712E+8	-4.187568E-10	NaN
573	1.000000	0.482800	7.37065e+06	-48439.1	1005.82	-29762.5	0.000000	0.000000	6.482950	0.057671	NaN	0.000000	0.001578	0.001788	28.0814	0.089555	0.001866	47.9884	-108.181	-163.472	0.020895	0.481492	-0.579455	-0.580764	0.057671	47.9884	-0.580357	-4.463218E+7	-1.292134E-9	NaN
573	1.000000	0.522774	7.37065e+06	-48439.1	1005.82	-29762.5	0.000000	0.000000	6.522924	0.050649	NaN	0.000000	0.001618	0.001769	28.0829	0.027635	0.002103	13.1394	42.0965	-165.821	0.072745	0.521479	-0.539481	-0.540776	0.050649	13.1394	-0.542372	-1.331236E+7	-3.804695E-9	NaN
573	1.000000	0.562795	7.37065e+06	-48439.1	1005.82	-29762.5	0.000000	0.000000	6.562944	0.035919	NaN	0.000000	0.001597	0.001768	28.0829	0.012992	0.001957	6.638059	121.259	-166.641	-0.006448	0.561472	-0.499460	-0.500783	0.035919	6.638059	-0.503518	-3.83787e+06	-9.359059E-9	NaN
573	1.000000	0.602831	7.37065e+06	-48439.1	1005.82	-29762.5	0.000000	0.000000	6.602979	0.016746	NaN	0.000000	0.001622	0.001769	28.0826	0.035077	0.001943	18.0518	155.718	-166.946	-0.030952	0.601490	-0.459425	-0.460766	0.016746	18.0518	-0.460121	-947800	-1.766836E-8	NaN
573	1.000000	0.642852	7.37066e+06	-48439.1	1005.82	-29762.5	0.000000	0.000000	6.642998	-0.028547	NaN	0.000000	0.001627	0.001836	28.0813	0.153222	0.001991	76.9682	-30.5267	-163.336	-0.075476	0.641551	-0.419404	-0.420705	-0.028547	76.9682	-0.419126	-250041	1.141686E-7	NaN
573	1.000000	0.682838	7.37066e+06	-48439.1	1005.82	-29762.5	0.000000	0.000000	6.682984	-0.016022	NaN	0.000000	0.001597	0.001806	28.0815	0.113658	0.002019	56.2985	73.0028	-167.431	-0.023016	0.681535	-0.379418	-0.380721	-0.016022	56.2985	-0.379205	-67371.1	2.378106E-7	NaN
573	1.000000	0.722891	7.37066e+06	-48439.1	1005.82	-29762.5	0.000000	0.000000	6.723040	0.051489	NaN	0.000000	0.001580	0.001820	28.0816	0.095068	0.001929	49.2748	-69.1689	-168.189	0.050294	0.721579	-0.339365	-0.340677	0.051489	49.2748	-0.340149	-18353.7	-2.805374E-6	NaN
573	1.000000	0.762884	7.37066e+06	-48439.1	1005.82	-29762.5	0.000000	0.000000	6.763031	0.003410	NaN	0.000000	0.001577	0.001794	28.0825	0.084756	0.001985	42.704	-127.07	-165.483	0.034697	0.761618	-0.299372	-0.300638	0.003410	42.704	-0.299432	-4615.04	-7.388109E-7	NaN
573	1.000000	0.802894	7.37066e+06	-48439.1	1005.82	-29762.5	0.000000	0.000000	6.803041	0.006268	NaN	0.000000	0.001608	0.001791	28.0826	0.078344	0.002058	38.0619	142.416	-164.286	0.006490	0.801624	-0.259362	-0.260632	0.006268	38.0619	-0.259485	-1150.88	-5.446673E-6	NaN
573	1.000000	0.842917	7.37066e+06	-48439.1	1005.82	-29762.5	0.000000	0.000000	6.843066	0.029711	NaN	0.000000	0.001598	0.001800	28.0828	0.032342	0.001992	16.2358	-154.09	-166.493	0.048994	0.841667	-0.219339	-0.220589	0.029711	16.2358	-0.220711	-285.127	-0.000104	NaN
573	1.000000	0.882928	7.37066e+06	-48439.1	1005.82	-29762.5	0.000000	0.000000	6.883076	0.029422	NaN	0.000000	0.001624	0.001757	28.0829	0.091365	0.002021	45.2183	122.433	-160.501	0.061726	0.881616	-0.179328	-0.180640	0.029422	45.2183	-0.179816	-60.5812	-0.000486	NaN
573	1.000000	0.922971	7.37066e+06	-48439.1	1005.82	-29762.5	0.000000	0.000000	6.923118	-0.003426	NaN	0.000000	0.001571	0.001751	28.0815	0.101977	0.002076	49.1113	-24.4184	-166.827	-0.010821	0.921660	-0.139285	-0.140596	-0.003426	49.1113	-0.139232	-11.4428	0.000299	NaN
573	1.000000	0.962950	7.37066e+06	-48439.1	1005.82	-29762.5	0.000000	0.000000	6.963098	0.009438	NaN	0.000000	0.001624	0.001768	28.0815	0.012057	0.001869	6.452623	-80.8878	-166.104	0.014734	0.961672	-0.099306	-0.100584	0.009438	6.452623	-0.100403	-1.865074	-0.005060	NaN
573	1.000000	1.002998	7.37066e+06	-48439.1	1005.82	-29762.5	0.000000	0.000000	7.003147	0.045228	NaN	0.000000	0.001601	0.001799	28.0815	0.102446	0.002011	50.9307	-90.8652	-166.918	-0.076865	1.001718	-0.059258	-0.060537	0.045228	50.9307	-0.059924	-0.179192	-0.252401	NaN
573	1.000000	1.043014	7.37066e+06	-48439.1	1005.82	-29762.5	0.000000	0.000000	7.043162	0.011391	NaN	0.000000	0.001634	0.001743	28.0827	0.041914	0.001958	21.4096	142.315	-167.028	0.067472	1.041671	-0.019241	-0.020585	0.011391	21.4096	-0.019641	-0.012299	-0.926201	NaN
573	2.000000	1.070607	7.37066e+06	-48439.1	1005.82	-29762.5	0.000000	0.000000	7.071368	14.922	NaN	0.000000	0.001624	0.001756	28.0827	14.3844	0.001731	8311.5	4.755599	-172.424	14.629	1.070303	0.008351	0.008047	14.922	8311.5	0.007005	0.006039	2471.15	97721
573	2.000000	1.080467	7.37066e+06	-48439.1	1005.82	-29762.5	0.000000	0.000000	7.082061	35.1795	NaN	0.000000	0.001558	0.001765	28.0829	25.6697	0.001862	13784.5	2.965913	-176.517	32.6026	1.080219	0.018212	0.017963	35.1795	13784.5	0.016298	0.017055	2062.73	96436.4
573	2.000000	1.090454	7.37066e+06	-48439.1	1005.82	-29762.5	0.000000	0.000000	7.093321	66.1417	NaN	0.000000	0.001638	0.001798	28.0829	35.2286	0.001765	19959.8	2.466165	-179.354	62.8982	1.090186	0.028199	0.027931	66.1417	19959.8	0.025714	0.032327	2046.05	101426
573	2.000000	1.100494	7.37066e+06	-48439.1	1005.82	-29762.5	0.000000	0.000000	7.104845	102.242	NaN	0.000000	0.001566	0.001745	28.0817	44.2099	0.001795	24623.3	-0.621643	-178.674	102.176	1.100176	0.038238	0.037920	102.242	24623.3	0.035124	0.052034	1964.89	98622
573	2.000000	1.110384	7.37066e+06	-48439.1	1005.82	-29762.5	0.000000	0.000000	7.116566	146.762	NaN	0.000000	0.001622	0.001723	28.0816	53.8635	0.001879	28661.1	3.264298	177.069	142.309	1.110154	0.048128	0.047898	146.762	28661.1	0.044288	0.075579	1941.83	95250.2
573	2.000000	1.120538	7.37066e+06	-48439.1	1005.82	-29762.5	0.000000	0.000000	7.128770	196.63	NaN	0.000000	0.001582	0.001757	28.0818	62.5513	0.001733	36085.2	4.082358	174.664	201.761	1.120221	0.058283	0.057965	196.63	36085.2	0.054196	0.105823	1858.11	101347
573	2.000000	1.130463	7.37066e+06	-48439.1	1005.82	-29762.5	0.000000	0.000000	7.141266	259.179	NaN	0.000000	0.001595	0.001756	28.0829	71.7758	0.001789	40131.1	4.178676	173.135	258.521	1.130173	0.068207	0.067918	259.179	40131.1	0.063363	0.138144	1876.15	98648
573	2.000000	1.140455	7.37066e+06	-48439.1	1005.82	-29762.5	0.000000	0.000000	7.153959	324.844	NaN	0.000000	0.001637	0.001737	28.0829	79.8023	0.001922	41516.3	5.318646	172.572	324.354	1.140086	0.078200	0.077831	324.844	41516.3	0.072331	0.173701	1870.13	91010.3
573	2.000000	1.150379	7.37066e+06	-48439.1	1005.82	-29762.5	0.000000	0.000000	7.166740	394.34	NaN	0.000000	0.001629	0.001783	28.0826	91.0461	0.001807	50378.3	3.496716	172.054	390.016	1.150056	0.088123	0.087800	394.34	50378.3	0.082253	0.217471	1813.3	98699.7
573	2.000000	1.160351	7.37066e+06	-48439.1	1005.82	-29762.5	0.000000	0.000000	7.180145	477.855	NaN	0.000000	0.001616	0.001816	28.0822	99.1155	0.001834	54044.3	3.823342	172.058	473.032	1.160009	0.098095	0.097753	477.855	54044.3	0.091464	0.262198	1822.5	96429.2
573	2.000000	1.164875	7.37066e+06	-48439.1	1005.82	-29762.5	0.000000	0.000000	7.185932	508.552	NaN	0.000000	0.001580	0.001791	28.0815	102.295	0.001687	60644.8	4.293630	-9.997782	503.949	1.164611	0.102620	0.102356	508.552	60644.8	0.096330	0.287401	1769.48	103353