File: remote_trans/data/nanoindenter/0828-1/data/Data_2025-08-06,11h17m57s/2025-07-22_16-23-58_1_254.txt
2025-07-22, 16:23:58, 1
Index	Phase	Displacement	Time	Pos X	Pos Y	Pos Z	Rot A	Rot B	Piezo Z	Force A	Force B	Gripper	Voltage A	Voltage B	Temperature	Amplitude force	Amplitude pos	Stiffness	Phase shift	Phase excitation	Force A raw	Displacement raw	HMax	HMax raw	Real Force	Real Stiffness	Contact Depth	Area	Hardness	Reduced Mod.
[#]	[#]	[um]	[s]	[um]	[um]	[um]	[m°]	[m°]	[um]	[uN]	[uN]	[V]	[V]	[V]	[°C]	[uN]	[um]	[N/m]	[°]	[°]	[uN]	[um]	[um]	[um]	[uN]	[N/m]	[um]	[um^2]	[MPa]	[MPa]
254	1.000000	0.002560	7.36754e+06	-51339.1	955.82	-29752.9	0.000000	0.000000	6.002784	-0.044032	NaN	0.000000	0.001537	0.001694	28.0805	0.123180	0.000908	135.718	158.688	-164.653	0.032509	0.001320	-1.122067	-1.123307	-0.044032	135.718	-1.121824	-9.838685E+14	4.475357E-17	NaN
254	1.000000	0.044488	7.36754e+06	-51339.1	955.819	-29752.9	0.000000	0.000000	6.044714	0.017170	NaN	0.000000	0.001593	0.001642	28.0802	0.054174	0.002043	26.5126	151.549	17.4211	0.030812	0.043167	-1.080139	-1.081460	0.017170	26.5126	-1.080625	-2.753673E+14	-6.235173E-17	NaN
254	1.000000	0.086506	7.36754e+06	-51339.1	955.82	-29752.9	0.000000	0.000000	6.086733	0.039420	NaN	0.000000	0.001586	0.001634	28.0789	0.046673	0.002067	22.5824	70.4967	-166.095	0.033386	0.085250	-1.038121	-1.039377	0.039420	22.5824	-1.039430	-7.696637E+13	-5.121759E-16	NaN
254	1.000000	0.128533	7.36754e+06	-51339.1	955.819	-29752.9	0.000000	0.000000	6.128759	0.018862	NaN	0.000000	0.001626	0.001709	28.0791	0.103690	0.001955	53.0267	-51.9808	12.6332	-0.022600	0.127213	-0.996094	-0.997414	0.018862	53.0267	-0.996361	-2.026603E+13	-9.306965E-16	NaN
254	1.000000	0.170547	7.36754e+06	-51339.1	955.819	-29752.9	0.000000	0.000000	6.170774	0.033492	NaN	0.000000	0.001571	0.001697	28.079	0.055387	0.002099	26.3886	150.274	-163.949	0.067149	0.169245	-0.954080	-0.955382	0.033492	26.3886	-0.955032	-5.621860E+12	-5.957428E-15	NaN
254	1.000000	0.212615	7.36754e+06	-51339.1	955.818	-29752.9	0.000000	0.000000	6.212839	-0.043613	NaN	0.000000	0.001544	0.001731	28.079	0.084705	0.001958	43.2599	-101.997	12.8851	-0.084579	0.211221	-0.912012	-0.913405	-0.043613	43.2599	-0.911256	-1.442521E+12	3.023388E-14	NaN
254	1.000000	0.254635	7.36754e+06	-51339.1	955.817	-29752.9	0.000000	0.000000	6.254859	-0.032505	NaN	0.000000	0.001550	0.001682	28.0802	0.120501	0.002033	59.2631	135.21	-166.068	-0.052771	0.253277	-0.869992	-0.871350	-0.032505	59.2631	-0.869580	-3.942453E+11	8.244849E-14	NaN
254	1.000000	0.296626	7.36754e+06	-51339.1	955.82	-29752.9	0.000000	0.000000	6.296853	0.023993	NaN	0.000000	0.001566	0.001691	28.0803	0.047240	0.001901	24.8435	128.736	14.0791	-0.024035	0.295202	-0.828001	-0.829425	0.023993	24.8435	-0.828725	-1.102817E+11	-2.175630E-13	NaN
254	1.000000	0.338612	7.36754e+06	-51339.1	955.818	-29752.9	0.000000	0.000000	6.338840	0.081578	NaN	0.000000	0.001580	0.001702	28.0803	0.051471	0.002103	24.4802	-49.0861	-169.424	0.092175	0.337341	-0.786015	-0.787286	0.081578	24.4802	-0.788515	-3.139860E+10	-2.598136E-12	NaN
254	1.000000	0.380677	7.36754e+06	-51339.1	955.819	-29752.9	0.000000	0.000000	6.380899	-0.077362	NaN	0.000000	0.001635	0.001671	28.0791	0.024754	0.002075	11.9316	97.7172	11.9706	-0.023666	0.379293	-0.743950	-0.745334	-0.077362	11.9316	-0.739088	-6.677718E+9	1.158511E-11	NaN
254	1.000000	0.422669	7.36754e+06	-51339.1	955.818	-29752.9	0.000000	0.000000	6.422895	0.011202	NaN	0.000000	0.001561	0.001715	28.079	0.049656	0.002047	24.2532	-100.413	-161.737	0.031857	0.421388	-0.701958	-0.703239	0.011202	24.2532	-0.702304	-2.103740E+9	-5.324644E-12	NaN
254	1.000000	0.464688	7.36754e+06	-51339.1	955.818	-29752.9	0.000000	0.000000	6.464914	0.009688	NaN	0.000000	0.001555	0.001683	28.0791	0.097458	0.001856	52.5074	-122.145	12.6712	0.005614	0.463333	-0.659939	-0.661294	0.009688	52.5074	-0.660077	-5.565736E+8	-1.740654E-11	NaN
254	1.000000	0.506688	7.36754e+06	-51339.1	955.819	-29752.9	0.000000	0.000000	6.506914	0.017566	NaN	0.000000	0.001564	0.001671	28.0803	0.068106	0.001989	34.2358	53.323	-168.575	-0.004604	0.505382	-0.617939	-0.619245	0.017566	34.2358	-0.618324	-1.487964E+8	-1.180560E-10	NaN
254	1.000000	0.548746	7.36754e+06	-51339.1	955.82	-29752.9	0.000000	0.000000	6.548972	0.006262	NaN	0.000000	0.001557	0.001686	28.0804	0.122187	0.002076	58.8549	159.551	13.3539	0.026153	0.547370	-0.575881	-0.577257	0.006262	58.8549	-0.575961	-3.881199E+7	-1.613300E-10	NaN
254	1.000000	0.590767	7.36754e+06	-51339.1	955.818	-29752.9	0.000000	0.000000	6.590994	0.035628	NaN	0.000000	0.001610	0.001742	28.0809	0.025700	0.002001	12.8464	-89.6512	-168.586	0.065543	0.589442	-0.533860	-0.535185	0.035628	12.8464	-0.535940	-1.084004E+7	-3.286664E-9	NaN
254	1.000000	0.632752	7.36754e+06	-51339.1	955.819	-29752.9	0.000000	0.000000	6.632979	0.044655	NaN	0.000000	0.001641	0.001675	28.0793	0.049528	0.001961	25.2529	149.574	11.7324	-0.002303	0.631406	-0.491875	-0.493221	0.044655	25.2529	-0.493201	-2.75496e+06	-1.620899E-8	NaN
254	1.000000	0.674792	7.36754e+06	-51339.1	955.819	-29752.9	0.000000	0.000000	6.675021	0.091490	NaN	0.000000	0.001553	0.001720	28.0793	0.066406	0.002001	33.1869	-78.9606	-167.873	0.157167	0.673493	-0.449835	-0.451134	0.091490	33.1869	-0.451903	-726331	-1.259612E-7	NaN
254	1.000000	0.716821	7.36754e+06	-51339.1	955.818	-29752.9	0.000000	0.000000	6.717047	0.019872	NaN	0.000000	0.001580	0.001724	28.0793	0.064088	0.002026	31.6256	22.9131	14.7071	-0.017312	0.715458	-0.407806	-0.409169	0.019872	31.6256	-0.408277	-175346	-1.133310E-7	NaN
254	1.000000	0.758833	7.36754e+06	-51339.1	955.819	-29752.9	0.000000	0.000000	6.759059	0.025487	NaN	0.000000	0.001627	0.001686	28.079	0.027085	0.002043	13.2605	-173.831	-163.133	0.080051	0.757510	-0.365794	-0.367117	0.025487	13.2605	-0.367236	-45321.1	-5.623662E-7	NaN
254	1.000000	0.800822	7.36754e+06	-51339.1	955.818	-29752.9	0.000000	0.000000	6.801045	-0.056474	NaN	0.000000	0.001669	0.001722	28.0808	0.120636	0.002064	58.4455	120.266	12.6734	-0.000669	0.799487	-0.323805	-0.325140	-0.056474	58.4455	-0.323080	-10326.2	5.468989E-6	NaN
254	1.000000	0.842858	7.36754e+06	-51339.1	955.818	-29752.9	0.000000	0.000000	6.843085	0.034963	NaN	0.000000	0.001633	0.001684	28.0807	0.091635	0.002117	43.276	-91.7854	-166.06	0.016465	0.841579	-0.281769	-0.283048	0.034963	43.276	-0.282375	-2563.11	-1.364085E-5	NaN
254	1.000000	0.884838	7.36754e+06	-51339.1	955.819	-29752.9	0.000000	0.000000	6.885062	-0.019329	NaN	0.000000	0.001602	0.001693	28.0804	0.048057	0.002060	23.327	-121.897	15.6949	-0.031506	0.883471	-0.239789	-0.241156	-0.019329	23.327	-0.239168	-557.892	3.464741E-5	NaN
254	1.000000	0.926886	7.36754e+06	-51339.1	955.818	-29752.9	0.000000	0.000000	6.927114	0.052633	NaN	0.000000	0.001599	0.001692	28.0792	0.067780	0.001982	34.1912	122.732	-164.624	-0.000384	0.925583	-0.197741	-0.199044	0.052633	34.1912	-0.198895	-126.336	-0.000417	NaN
254	1.000000	0.968918	7.36754e+06	-51339.1	955.819	-29752.9	0.000000	0.000000	6.969143	-0.031784	NaN	0.000000	0.001647	0.001691	28.0792	0.069294	0.002118	32.7225	115.545	15.278	0.049538	0.967556	-0.155709	-0.157071	-0.031784	32.7225	-0.154980	-22.2957	0.001426	NaN
254	1.000000	1.010919	7.36754e+06	-51339.1	955.818	-29752.9	0.000000	0.000000	7.011144	-0.027455	NaN	0.000000	0.001656	0.001698	28.0793	0.014359	0.002046	7.019901	103.62	-165.947	-0.039783	1.009634	-0.113708	-0.114993	-0.027455	7.019901	-0.110774	-3.120122	0.008799	NaN
254	1.000000	1.052915	7.36754e+06	-51339.1	955.818	-29752.9	0.000000	0.000000	7.053139	-0.036106	NaN	0.000000	0.001651	0.001679	28.0808	0.055428	0.001853	29.9088	-9.985070	15.2317	0.063451	1.051595	-0.071712	-0.073032	-0.036106	29.9088	-0.070807	-0.358465	0.100724	NaN
254	1.000000	1.094960	7.36754e+06	-51339.1	955.819	-29752.9	0.000000	0.000000	7.095182	-0.065475	NaN	0.000000	0.001626	0.001690	28.0806	0.025287	0.002159	11.7137	175.094	-167.205	-0.007632	1.093661	-0.029667	-0.030966	-0.065475	11.7137	-0.025475	-0.017361	3.771468	NaN
254	2.000000	1.136012	7.36754e+06	-51339.1	955.819	-29752.9	0.000000	0.000000	7.136578	8.278715	NaN	0.000000	0.001628	0.001640	28.0806	9.045335	0.001723	5250.1	10.5471	3.957746	8.010495	1.135417	0.011385	0.010790	8.278715	5250.1	0.010202	0.009407	880.029	49454.7
254	2.000000	1.146441	7.36754e+06	-51339.1	955.819	-29752.9	0.000000	0.000000	7.147759	26.5639	NaN	0.000000	0.001675	0.001663	28.0792	21.2606	0.001851	11486.8	6.337097	-178.489	25.9514	1.146166	0.021814	0.021539	26.5639	11486.8	0.020080	0.022668	1171.89	69705.7
254	2.000000	1.156926	7.36754e+06	-51339.1	955.818	-29752.9	0.000000	0.000000	7.159260	51.2813	NaN	0.000000	0.001583	0.001691	28.0789	31.6023	0.001869	16906.4	5.629814	-1.467305	50.2074	1.156545	0.032299	0.031918	51.2813	16906.4	0.030024	0.040793	1257.1	76476.7
254	2.000000	1.167343	7.36754e+06	-51339.1	955.818	-29752.9	0.000000	0.000000	7.171204	88.4005	NaN	0.000000	0.001610	0.001709	28.0791	42.3263	0.001819	23272.8	4.380190	176.509	86.8515	1.167113	0.042716	0.042486	88.4005	23272.8	0.039867	0.063685	1388.08	84256.2
254	2.000000	1.177960	7.36754e+06	-51339.1	955.818	-29752.9	0.000000	0.000000	7.183764	135.637	NaN	0.000000	0.001634	0.001667	28.0791	51.2798	0.001735	29551.4	8.980268	-8.333121	138.316	1.177439	0.053333	0.052812	135.637	29551.4	0.049891	0.092077	1473.08	88976.6
254	2.000000	1.188466	7.36754e+06	-51339.1	955.819	-29752.9	0.000000	0.000000	7.196479	189.369	NaN	0.000000	0.001663	0.001679	28.0813	63.6955	0.001847	34484.3	5.997877	173.06	191.103	1.188051	0.063839	0.063424	189.369	34484.3	0.059720	0.124807	1517.3	89181.8
254	2.000000	1.198875	7.36754e+06	-51339.1	955.818	-29752.9	0.000000	0.000000	7.209853	261.482	NaN	0.000000	0.001645	0.001709	28.0804	73.7465	0.001730	42627.6	4.734500	-7.471920	261.013	1.198438	0.074248	0.073811	261.482	42627.6	0.069647	0.162656	1607.58	96567.2
254	2.000000	1.209356	7.36754e+06	-51339.1	955.819	-29752.9	0.000000	0.000000	7.223298	333.52	NaN	0.000000	0.001667	0.001689	28.0805	83.3309	0.001673	49803	0.879074	174.532	332.097	1.209019	0.084729	0.084392	333.52	49803	0.079707	0.205800	1620.6	100301
254	2.000000	1.219761	7.36754e+06	-51339.1	955.818	-29752.9	0.000000	0.000000	7.237283	420.604	NaN	0.000000	0.001650	0.001637	28.0794	93.2166	0.001792	52017.7	3.514019	-7.703920	413.25	1.219337	0.095134	0.094710	420.604	52017.7	0.089070	0.250197	1681.09	95013.1
254	2.000000	1.230272	7.36754e+06	-51339.1	955.818	-29752.9	0.000000	0.000000	7.251880	519.945	NaN	0.000000	0.001556	0.001701	28.0793	103.4	0.001779	58136	3.799663	171.618	516.823	1.229929	0.105645	0.105302	519.945	58136	0.098938	0.301347	1725.4	96757.6
254	2.000000	1.234229	7.36754e+06	-51339.1	955.818	-29752.9	0.000000	0.000000	7.257278	554.981	NaN	0.000000	0.001568	0.001634	28.0792	106.688	0.001684	63343.3	1.827199	172.238	549.437	1.233965	0.109603	0.109338	554.981	63343.3	0.103031	0.323870	1713.59	101693