File: remote_trans/data/nanoindenter/0828-1/data/Data_2025-08-06,11h17m57s/2025-07-22_16-23-58_1_621.txt
2025-07-22, 16:23:58, 1
Index	Phase	Displacement	Time	Pos X	Pos Y	Pos Z	Rot A	Rot B	Piezo Z	Force A	Force B	Gripper	Voltage A	Voltage B	Temperature	Amplitude force	Amplitude pos	Stiffness	Phase shift	Phase excitation	Force A raw	Displacement raw	HMax	HMax raw	Real Force	Real Stiffness	Contact Depth	Area	Hardness	Reduced Mod.
[#]	[#]	[um]	[s]	[um]	[um]	[um]	[m°]	[m°]	[um]	[uN]	[uN]	[V]	[V]	[V]	[°C]	[uN]	[um]	[N/m]	[°]	[°]	[uN]	[um]	[um]	[um]	[uN]	[N/m]	[um]	[um^2]	[MPa]	[MPa]
621	1.000000	0.002771	7.37113e+06	-46039.1	1005.82	-29770.5	0.000000	0.000000	6.002797	0.019076	NaN	0.000000	0.001571	0.001713	28.0834	0.063806	0.000917	69.5801	43.3228	-171.558	-0.044920	0.001540	-1.070542	-1.071772	0.019076	69.5801	-1.070747	-2.028754E+14	-9.403057E-17	NaN
621	1.000000	0.042701	7.37113e+06	-46039.1	1005.82	-29770.5	0.000000	0.000000	6.042725	-0.019007	NaN	0.000000	0.001556	0.001676	28.0835	0.081527	0.001899	42.9399	-10.8309	-165.259	0.013730	0.041469	-1.030612	-1.031843	-0.019007	42.9399	-1.030280	-5.797590E+13	3.278368E-16	NaN
621	1.000000	0.082728	7.37113e+06	-46039.1	1005.82	-29770.5	0.000000	0.000000	6.082753	0.011251	NaN	0.000000	0.001546	0.001697	28.0818	0.016305	0.002070	7.874985	-41.4331	-164.704	-0.061585	0.081411	-0.990585	-0.991902	0.011251	7.874985	-0.991657	-1.751553E+13	-6.423562E-16	NaN
621	1.000000	0.122762	7.37113e+06	-46039.1	1005.82	-29770.5	0.000000	0.000000	6.122785	-0.040381	NaN	0.000000	0.001557	0.001721	28.0822	0.095552	0.001955	48.8867	-74.742	-162.409	-0.037766	0.121423	-0.950551	-0.951889	-0.040381	48.8867	-0.949931	-4.798407E+12	8.415576E-15	NaN
621	1.000000	0.162769	7.37113e+06	-46039.1	1005.82	-29770.5	0.000000	0.000000	6.162790	-0.095930	NaN	0.000000	0.001520	0.001748	28.0822	0.106307	0.002005	53.031	-58.5659	-167.888	-0.120103	0.161438	-0.910543	-0.911875	-0.095930	53.031	-0.909187	-1.352621E+12	7.092129E-14	NaN
621	1.000000	0.202768	7.37113e+06	-46039.1	1005.82	-29770.5	0.000000	0.000000	6.202791	-0.050513	NaN	0.000000	0.001527	0.001713	28.0819	0.113701	0.002033	55.9324	130.905	-168.113	-0.043286	0.201450	-0.870545	-0.871863	-0.050513	55.9324	-0.869867	-3.977841E+11	1.269853E-13	NaN
621	1.000000	0.242809	7.37113e+06	-46039.1	1005.82	-29770.5	0.000000	0.000000	6.242830	-0.073277	NaN	0.000000	0.001498	0.001754	28.0831	0.074323	0.002138	34.7573	138.863	-166.261	-0.048830	0.241510	-0.830504	-0.831803	-0.073277	34.7573	-0.828923	-1.109642E+11	6.603645E-13	NaN
621	1.000000	0.282826	7.37113e+06	-46039.1	1005.82	-29770.5	0.000000	0.000000	6.282847	-0.086937	NaN	0.000000	0.001555	0.001702	28.0831	0.098532	0.001880	52.4001	83.6935	-165.588	-0.032866	0.281505	-0.790487	-0.791808	-0.086937	52.4001	-0.789243	-3.212164E+10	2.706490E-12	NaN
621	1.000000	0.322840	7.37113e+06	-46039.1	1005.82	-29770.5	0.000000	0.000000	6.322861	-0.071103	NaN	0.000000	0.001586	0.001749	28.0835	0.042997	0.002121	20.2697	-24.5479	-165.049	-0.175160	0.321562	-0.750473	-0.751751	-0.071103	20.2697	-0.747842	-8.787130E+9	8.091669E-12	NaN
621	1.000000	0.362875	7.37113e+06	-46039.1	1005.82	-29770.5	0.000000	0.000000	6.362898	-0.050421	NaN	0.000000	0.001523	0.001729	28.082	0.029867	0.002033	14.6942	-21.6306	-166.108	-0.065814	0.361573	-0.710438	-0.711739	-0.050421	14.6942	-0.707864	-2.505524E+9	2.012389E-11	NaN
621	1.000000	0.402894	7.37113e+06	-46039.1	1005.82	-29770.5	0.000000	0.000000	6.402917	-0.046640	NaN	0.000000	0.001551	0.001748	28.082	0.088003	0.001908	46.1259	69.4576	-168.214	-0.141960	0.401579	-0.670419	-0.671733	-0.046640	46.1259	-0.669660	-7.529111E+8	6.194622E-11	NaN
621	1.000000	0.442876	7.37113e+06	-46039.1	1005.82	-29770.5	0.000000	0.000000	6.442899	-0.031020	NaN	0.000000	0.001539	0.001757	28.0823	0.064128	0.002030	31.5972	-163.101	-166.264	-0.107433	0.441582	-0.630437	-0.631730	-0.031020	31.5972	-0.629701	-2.132616E+8	1.454558E-10	NaN
621	1.000000	0.482919	7.37113e+06	-46039.1	1005.82	-29770.5	0.000000	0.000000	6.482938	-0.136726	NaN	0.000000	0.001488	0.001729	28.0838	0.090127	0.001963	45.9211	-78.8295	-168.782	-0.140998	0.481593	-0.590393	-0.591720	-0.136726	45.9211	-0.588160	-5.718738E+7	2.390840E-9	NaN
621	1.000000	0.522938	7.37113e+06	-46039.1	1005.82	-29770.5	0.000000	0.000000	6.522957	-0.134490	NaN	0.000000	0.001491	0.001783	28.0838	0.122350	0.001916	63.8542	36.6162	-161.974	-0.103847	0.521613	-0.550375	-0.551700	-0.134490	63.8542	-0.548795	-1.634065E+7	8.230409E-9	NaN
621	1.000000	0.562910	7.37113e+06	-46039.1	1005.82	-29770.5	0.000000	0.000000	6.562932	-0.052971	NaN	0.000000	0.001522	0.001721	28.0835	0.001565	0.001871	0.836408	80.0737	-166.758	-0.092010	0.561683	-0.510403	-0.511629	-0.052971	0.836408	-0.462905	-1.03711e+06	5.107523E-8	NaN
621	1.000000	0.602961	7.37113e+06	-46039.1	1005.82	-29770.5	0.000000	0.000000	6.602983	-0.072130	NaN	0.000000	0.001485	0.001734	28.0833	0.148336	0.002063	71.8998	-62.4023	-161.635	-0.036091	0.601637	-0.470351	-0.471675	-0.072130	71.8998	-0.469599	-1.2876e+06	5.601860E-8	NaN
621	1.000000	0.642959	7.37113e+06	-46039.1	1005.82	-29770.5	0.000000	0.000000	6.642982	-0.040177	NaN	0.000000	0.001506	0.001748	28.0819	0.025332	0.001975	12.8243	-143.994	-166.709	-0.068188	0.641681	-0.430354	-0.431632	-0.040177	12.8243	-0.428004	-334057	1.202699E-7	NaN
621	1.000000	0.682983	7.37113e+06	-46039.1	1005.82	-29770.5	0.000000	0.000000	6.683007	-0.029753	NaN	0.000000	0.001512	0.001741	28.082	0.058665	0.001997	29.3788	-57.964	-167.947	-0.041848	0.681680	-0.390330	-0.391632	-0.029753	29.3788	-0.389570	-94845.5	3.136949E-7	NaN
621	1.000000	0.722979	7.37113e+06	-46039.1	1005.82	-29770.5	0.000000	0.000000	6.723003	-0.013015	NaN	0.000000	0.001529	0.001685	28.082	0.083264	0.001907	43.6676	111.695	-164.151	-0.021021	0.721700	-0.350334	-0.351612	-0.013015	43.6676	-0.350110	-25621.3	5.079871E-7	NaN
621	1.000000	0.763008	7.37113e+06	-46039.1	1005.82	-29770.5	0.000000	0.000000	6.763033	-0.007869	NaN	0.000000	0.001476	0.001696	28.0834	0.057996	0.001927	30.104	-15.4909	-165.59	-0.020723	0.761692	-0.310304	-0.311621	-0.007869	30.104	-0.310108	-6647.51	1.183763E-6	NaN
621	1.000000	0.803053	7.37113e+06	-46039.1	1005.82	-29770.5	0.000000	0.000000	6.803075	-0.065132	NaN	0.000000	0.001499	0.001736	28.0832	0.094293	0.001994	47.2792	133.946	-167.638	-0.010344	0.801754	-0.270260	-0.271559	-0.065132	47.2792	-0.269226	-1620.99	4.018022E-5	NaN
621	1.000000	0.843081	7.37113e+06	-46039.1	1005.82	-29770.5	0.000000	0.000000	6.843100	-0.131280	NaN	0.000000	0.001517	0.001704	28.0834	0.039402	0.001917	20.5513	-28.3593	-169.879	-0.132951	0.841748	-0.230232	-0.231565	-0.131280	20.5513	-0.225441	-339.11	0.000387	NaN
621	1.000000	0.883068	7.37113e+06	-46039.1	1005.82	-29770.5	0.000000	0.000000	6.883091	-0.062605	NaN	0.000000	0.001517	0.001726	28.0836	0.094149	0.002064	45.6113	6.161212	-163.868	-0.097671	0.881727	-0.190244	-0.191586	-0.062605	45.6113	-0.189215	-87.2777	0.000717	NaN
621	1.000000	0.923079	7.37113e+06	-46039.1	1005.82	-29770.5	0.000000	0.000000	6.923104	-0.004165	NaN	0.000000	0.001528	0.001723	28.0821	0.046335	0.002046	22.6479	24.2788	-163.397	-0.030840	0.921785	-0.150233	-0.151528	-0.004165	22.6479	-0.150095	-18.1862	0.000229	NaN
621	1.000000	0.963105	7.37113e+06	-46039.1	1005.82	-29770.5	0.000000	0.000000	6.963128	-0.039577	NaN	0.000000	0.001520	0.001740	28.0822	0.116818	0.002093	55.8024	-175.213	-170.458	-0.032807	0.961699	-0.110208	-0.111614	-0.039577	55.8024	-0.109676	-2.958287	0.013378	NaN
621	1.000000	1.003137	7.37113e+06	-46039.1	1005.82	-29770.5	0.000000	0.000000	7.003162	0.016827	NaN	0.000000	0.001530	0.001680	28.0824	0.072797	0.001977	36.8167	-36.4424	-165.71	-0.028643	1.001801	-0.070176	-0.071512	0.016827	36.8167	-0.070519	-0.352180	-0.047779	NaN
621	1.000000	1.043125	7.37113e+06	-46039.1	1005.82	-29770.5	0.000000	0.000000	7.043150	0.006360	NaN	0.000000	0.001567	0.001629	28.0835	0.057642	0.001905	30.2658	33.7779	-165.487	-0.059348	1.041845	-0.030188	-0.031468	0.006360	30.2658	-0.030345	-0.023530	-0.270316	NaN
621	2.000000	1.080724	7.37113e+06	-46039.1	1005.82	-29770.5	0.000000	0.000000	7.081188	10.683	NaN	0.000000	0.001535	0.001607	28.0833	10.2099	0.001702	5998.8	5.690085	-172.078	10.2442	1.080390	0.007411	0.007077	10.683	5998.8	0.006076	0.005136	2079.84	76472.5
621	2.000000	1.090629	7.37113e+06	-46039.1	1005.82	-29770.5	0.000000	0.000000	7.091839	28.8298	NaN	0.000000	0.001583	0.001690	28.0832	20.6824	0.001733	11935.7	6.555788	-178.969	28.1908	1.090320	0.017316	0.017008	28.8298	11935.7	0.015505	0.015964	1805.89	86306.9
621	2.000000	1.100540	7.37113e+06	-46039.1	1005.82	-29770.5	0.000000	0.000000	7.102790	54.115	NaN	0.000000	0.001577	0.001720	28.0822	30.6848	0.001875	16362.2	4.307996	179.744	51.2348	1.100279	0.027228	0.026967	54.115	16362.2	0.024747	0.030557	1770.95	85518.4
621	2.000000	1.110560	7.37113e+06	-46039.1	1005.82	-29770.5	0.000000	0.000000	7.114578	97.1525	NaN	0.000000	0.001544	0.001701	28.0823	39.9363	0.001895	21073.6	6.322741	176.229	95.488	1.110268	0.037247	0.036956	97.1525	21073.6	0.033789	0.048965	1984.13	87010
621	2.000000	1.120572	7.37113e+06	-46039.1	1005.82	-29770.5	0.000000	0.000000	7.126437	142.066	NaN	0.000000	0.001534	0.001684	28.0822	48.4498	0.001770	27369.7	4.588348	176.359	141.96	1.120232	0.047259	0.046919	142.066	27369.7	0.043366	0.073017	1945.67	92540.6
621	2.000000	1.130568	7.37113e+06	-46039.1	1005.82	-29770.5	0.000000	0.000000	7.138514	192.682	NaN	0.000000	0.001562	0.001684	28.0822	59.4958	0.001886	31539	7.415327	172.402	193.489	1.130166	0.057256	0.056853	192.682	31539	0.052674	0.100856	1910.47	90734.2
621	2.000000	1.140559	7.37113e+06	-46039.1	1005.82	-29770.5	0.000000	0.000000	7.150575	243.045	NaN	0.000000	0.001510	0.001671	28.0834	68.5125	0.001918	35716.6	6.107301	172.044	244.207	1.140288	0.067247	0.066975	243.045	35716.6	0.062143	0.133605	1819.13	89275.4
621	2.000000	1.150515	7.37113e+06	-46039.1	1005.82	-29770.5	0.000000	0.000000	7.163323	310.968	NaN	0.000000	0.001531	0.001666	28.0832	75.1037	0.001713	43854.8	6.695481	169.798	310.541	1.150238	0.077202	0.076925	310.968	43854.8	0.071884	0.171837	1809.67	96656.9
621	2.000000	1.160577	7.37113e+06	-46039.1	1005.82	-29770.5	0.000000	0.000000	7.176299	381.841	NaN	0.000000	0.001517	0.001639	28.0832	85.6173	0.001771	48335.1	5.002357	171.467	385.483	1.160203	0.087264	0.086891	381.841	48335.1	0.081339	0.213249	1790.59	95629.5
621	2.000000	1.170493	7.37113e+06	-46039.1	1005.82	-29770.5	0.000000	0.000000	7.189508	461.96	NaN	0.000000	0.001585	0.001705	28.0821	94.8912	0.001858	51082.2	3.276347	172.507	460.786	1.170137	0.097180	0.096825	461.96	51082.2	0.090397	0.256820	1798.77	92093.5
621	2.000000	1.178410	7.37113e+06	-46039.1	1005.82	-29770.5	0.000000	0.000000	7.200056	525.948	NaN	0.000000	0.001539	0.001647	28.0816	100.595	0.001825	55115.7	2.567996	172.868	522.031	1.178237	0.105098	0.104924	525.948	55115.7	0.097941	0.295978	1776.99	92559.1