File: remote_trans/data/nanoindenter/0828-1/data/Data_2025-08-06,11h17m57s/2025-07-22_16-23-58_1_107.txt
2025-07-22, 16:23:58, 1
Index	Phase	Displacement	Time	Pos X	Pos Y	Pos Z	Rot A	Rot B	Piezo Z	Force A	Force B	Gripper	Voltage A	Voltage B	Temperature	Amplitude force	Amplitude pos	Stiffness	Phase shift	Phase excitation	Force A raw	Displacement raw	HMax	HMax raw	Real Force	Real Stiffness	Contact Depth	Area	Hardness	Reduced Mod.
[#]	[#]	[um]	[s]	[um]	[um]	[um]	[m°]	[m°]	[um]	[uN]	[uN]	[V]	[V]	[V]	[°C]	[uN]	[um]	[N/m]	[°]	[°]	[uN]	[um]	[um]	[um]	[uN]	[N/m]	[um]	[um^2]	[MPa]	[MPa]
107	1.000000	0.002622	7.36609e+06	-43989.1	955.818	-29777.7	0.000000	0.000000	6.002816	0.031493	NaN	0.000000	0.001703	0.001768	28.1206	0.051356	0.000995	51.6306	52.4091	-165.673	-0.042872	0.001355	-1.126502	-1.127769	0.031493	51.6306	-1.126959	-1.153013E+15	-2.731403E-17	NaN
107	1.000000	0.044548	7.36609e+06	-43989.1	955.818	-29777.7	0.000000	0.000000	6.044741	0.032006	NaN	0.000000	0.001671	0.001761	28.121	0.095966	0.002081	46.1071	127.581	12.8352	-0.020633	0.043206	-1.084577	-1.085919	0.032006	46.1071	-1.085097	-3.162106E+14	-1.012181E-16	NaN
107	1.000000	0.086560	7.36609e+06	-43989.1	955.819	-29777.7	0.000000	0.000000	6.086752	0.002858	NaN	0.000000	0.001609	0.001715	28.0848	0.044471	0.002043	21.7684	136.264	-166.597	0.021261	0.085318	-1.042564	-1.043806	0.002858	21.7684	-1.042663	-8.506914E+13	-3.359981E-17	NaN
107	1.000000	0.128589	7.36609e+06	-43989.1	955.818	-29777.7	0.000000	0.000000	6.128779	-0.035517	NaN	0.000000	0.001557	0.001747	28.0868	0.103513	0.002005	51.6351	41.0908	13.3736	-0.007398	0.127234	-1.000536	-1.001890	-0.035517	51.6351	-1.000020	-2.270043E+13	1.564576E-15	NaN
107	1.000000	0.170617	7.36609e+06	-43989.1	955.819	-29777.7	0.000000	0.000000	6.170809	0.013080	NaN	0.000000	0.001638	0.001745	28.121	0.084058	0.001995	42.1369	-97.4848	-166.762	0.013869	0.169331	-0.958508	-0.959793	0.013080	42.1369	-0.958740	-6.307938E+12	-2.073549E-15	NaN
107	1.000000	0.212618	7.36609e+06	-43989.1	955.818	-29777.7	0.000000	0.000000	6.212808	-0.055557	NaN	0.000000	0.001686	0.001766	28.1216	0.062949	0.002070	30.4066	-103.117	12.7953	-0.062944	0.211245	-0.916506	-0.917879	-0.055557	30.4066	-0.915136	-1.627508E+12	3.413654E-14	NaN
107	1.000000	0.254643	7.36609e+06	-43989.1	955.818	-29777.7	0.000000	0.000000	6.254836	0.037381	NaN	0.000000	0.001603	0.001742	28.0843	0.039536	0.001987	19.8965	83.7119	-162.577	0.001868	0.253343	-0.874481	-0.875781	0.037381	19.8965	-0.875890	-4.798730E+11	-7.789796E-14	NaN
107	1.000000	0.296675	7.36609e+06	-43989.1	955.818	-29777.7	0.000000	0.000000	6.296868	0.024903	NaN	0.000000	0.001631	0.001782	28.0824	0.080112	0.001995	40.1478	-124.022	13.6586	0.028865	0.295298	-0.832450	-0.833826	0.024903	40.1478	-0.832915	-1.256869E+11	-1.981380E-13	NaN
107	1.000000	0.338679	7.36609e+06	-43989.1	955.818	-29777.7	0.000000	0.000000	6.338874	0.066952	NaN	0.000000	0.001663	0.001713	28.12	0.067776	0.002102	32.2382	-131.783	-164.463	0.024574	0.337346	-0.790445	-0.791778	0.066952	32.2382	-0.792003	-3.501723E+10	-1.911981E-12	NaN
107	1.000000	0.380714	7.36609e+06	-43989.1	955.818	-29777.7	0.000000	0.000000	6.380906	0.014215	NaN	0.000000	0.001666	0.001753	28.1216	0.074133	0.001938	38.2492	-85.2491	15.7327	-0.016047	0.379310	-0.748410	-0.749814	0.014215	38.2492	-0.748689	-9.023528E+9	-1.575318E-12	NaN
107	1.000000	0.422727	7.36609e+06	-43989.1	955.818	-29777.7	0.000000	0.000000	6.422915	-0.101327	NaN	0.000000	0.001653	0.001717	28.086	0.135496	0.001907	71.0628	-172.384	-166.695	-0.052699	0.421406	-0.706397	-0.707718	-0.101327	71.0628	-0.705328	-2.313546E+9	4.379728E-11	NaN
107	1.000000	0.464745	7.36609e+06	-43989.1	955.818	-29777.7	0.000000	0.000000	6.464936	-0.011326	NaN	0.000000	0.001651	0.001687	28.0823	0.072703	0.002007	36.2178	-169.418	15.5813	-0.019883	0.463367	-0.664379	-0.665757	-0.011326	36.2178	-0.664145	-6.327524E+8	1.790008E-11	NaN
107	1.000000	0.506769	7.36609e+06	-43989.1	955.818	-29777.7	0.000000	0.000000	6.506959	-0.045060	NaN	0.000000	0.001685	0.001727	28.1205	0.096502	0.001947	49.5562	24.3067	-160.714	-0.005341	0.505466	-0.622356	-0.623659	-0.045060	49.5562	-0.621674	-1.654386E+8	2.723661E-10	NaN
107	1.000000	0.548801	7.36609e+06	-43989.1	955.819	-29777.7	0.000000	0.000000	6.548989	-0.090280	NaN	0.000000	0.001681	0.001709	28.1209	0.052228	0.002004	26.0641	-47.0524	13.283	-0.070925	0.547401	-0.580323	-0.581723	-0.090280	26.0641	-0.577725	-4.105126E+7	2.199209E-9	NaN
107	1.000000	0.590814	7.36609e+06	-43989.1	955.818	-29777.7	0.000000	0.000000	6.591007	0.033256	NaN	0.000000	0.001667	0.001709	28.0847	0.087000	0.002058	42.2773	168.479	-164.707	0.028704	0.589482	-0.538310	-0.539642	0.033256	42.2773	-0.538900	-1.191536E+7	-2.790985E-9	NaN
107	1.000000	0.632826	7.36609e+06	-43989.1	955.818	-29777.7	0.000000	0.000000	6.633018	-0.009636	NaN	0.000000	0.001671	0.001679	28.0821	0.026965	0.002084	12.9419	-168.674	13.5308	-0.019703	0.631448	-0.496298	-0.497676	-0.009636	12.9419	-0.495740	-2.98924e+06	3.223535E-9	NaN
107	1.000000	0.674820	7.36609e+06	-43989.1	955.819	-29777.7	0.000000	0.000000	6.675011	-0.019163	NaN	0.000000	0.001674	0.001710	28.12	0.140602	0.001993	70.5332	-48.3394	-167.455	0.018334	0.673514	-0.454305	-0.455610	-0.019163	70.5332	-0.454101	-779951	2.457009E-8	NaN
107	1.000000	0.716818	7.36609e+06	-43989.1	955.818	-29777.7	0.000000	0.000000	6.717010	-0.012274	NaN	0.000000	0.001698	0.001719	28.1229	0.032309	0.001999	16.1638	103.185	12.4928	-0.028724	0.715490	-0.412306	-0.413634	-0.012274	16.1638	-0.411736	-196375	6.250226E-8	NaN
107	1.000000	0.758856	7.36609e+06	-43989.1	955.818	-29777.7	0.000000	0.000000	6.759046	-0.033272	NaN	0.000000	0.001661	0.001739	28.0851	0.077513	0.001996	38.8407	130.292	-166.451	-0.039230	0.757549	-0.370268	-0.371575	-0.033272	38.8407	-0.369626	-49061.3	6.781773E-7	NaN
107	1.000000	0.800854	7.36609e+06	-43989.1	955.818	-29777.7	0.000000	0.000000	6.801045	-0.005000	NaN	0.000000	0.001640	0.001730	28.082	0.109135	0.001878	58.1168	125.751	13.6671	-0.061635	0.799502	-0.328271	-0.329622	-0.005000	58.1168	-0.328206	-12279.1	4.072147E-7	NaN
107	1.000000	0.842876	7.36609e+06	-43989.1	955.818	-29777.7	0.000000	0.000000	6.843066	-0.057547	NaN	0.000000	0.001648	0.001707	28.1182	0.103328	0.001974	52.3489	-90.6985	-165.905	0.010336	0.841585	-0.286248	-0.287540	-0.057547	52.3489	-0.285424	-2848.62	2.020173E-5	NaN
107	1.000000	0.884882	7.36609e+06	-43989.1	955.819	-29777.7	0.000000	0.000000	6.885074	0.006311	NaN	0.000000	0.001579	0.001758	28.1224	0.088922	0.001941	45.8064	-94.7373	12.7651	-0.037615	0.883479	-0.244242	-0.245645	0.006311	45.8064	-0.244346	-671.859	-9.393439E-6	NaN
107	1.000000	0.926940	7.36609e+06	-43989.1	955.818	-29777.7	0.000000	0.000000	6.927130	-0.056633	NaN	0.000000	0.001550	0.001713	28.0869	0.062985	0.001990	31.6574	-49.8607	-162.796	-0.010064	0.925611	-0.202184	-0.203513	-0.056633	31.6574	-0.200842	-135.998	0.000416	NaN
107	1.000000	0.968943	7.36609e+06	-43989.1	955.818	-29777.7	0.000000	0.000000	6.969135	-0.004144	NaN	0.000000	0.001500	0.001681	28.0834	0.038094	0.002009	18.9651	-157.178	13.546	0.000882	0.967607	-0.160181	-0.161517	-0.004144	18.9651	-0.160017	-27.4337	0.000151	NaN
107	1.000000	1.010964	7.36609e+06	-43989.1	955.816	-29777.7	0.000000	0.000000	7.011152	-0.091681	NaN	0.000000	0.001569	0.001713	28.1172	0.122161	0.002014	60.6586	-108.621	-166.237	-0.017319	1.009624	-0.118160	-0.119500	-0.091681	60.6586	-0.117027	-4.204342	0.021806	NaN
107	1.000000	1.052970	7.36609e+06	-43989.1	955.817	-29777.7	0.000000	0.000000	7.053161	-0.015252	NaN	0.000000	0.001545	0.001732	28.1241	0.107209	0.002044	52.4505	100.585	14.2917	-0.009096	1.051595	-0.076154	-0.077529	-0.015252	52.4505	-0.075936	-0.488266	0.031236	NaN
107	1.000000	1.094989	7.36609e+06	-43989.1	955.817	-29777.7	0.000000	0.000000	7.095181	-4.108484E-5	NaN	0.000000	0.001612	0.001705	28.0856	0.092331	0.001991	46.3698	117.278	-166.127	-0.061524	1.093731	-0.034135	-0.035393	-4.108484E-5	46.3698	-0.034135	-0.030206	0.001360	NaN
107	2.000000	1.136740	7.36609e+06	-43989.1	955.818	-29777.7	0.000000	0.000000	7.137280	8.476852	NaN	0.000000	0.001546	0.001732	28.0812	7.276996	0.001606	4532.05	5.049160	11.3081	6.502459	1.135644	0.007616	0.006519	8.476852	4532.05	0.006213	0.005268	1609.16	57049.2
107	2.000000	1.147560	7.36609e+06	-43989.1	955.817	-29777.7	0.000000	0.000000	7.148927	28.5767	NaN	0.000000	0.001564	0.001688	28.1142	19.945	0.001907	10456.7	6.695542	-177.875	27.3181	1.147347	0.018436	0.018223	28.5767	10456.7	0.016386	0.017179	1663.49	72891
107	2.000000	1.158115	7.36609e+06	-43989.1	955.816	-29777.7	0.000000	0.000000	7.160619	56.2514	NaN	0.000000	0.001571	0.001737	28.1264	29.5376	0.001762	16765.9	5.398541	-1.511875	57.5561	1.157791	0.028991	0.028667	56.2514	16765.9	0.026475	0.033753	1666.55	83376.4
107	2.000000	1.168539	7.36609e+06	-43989.1	955.817	-29777.7	0.000000	0.000000	7.172487	91.3935	NaN	0.000000	0.001586	0.001709	28.0862	38.1381	0.001814	21022.5	6.432023	176.265	89.0118	1.168164	0.039415	0.039040	91.3935	21022.5	0.036154	0.054467	1677.95	82298.1
107	2.000000	1.179068	7.36609e+06	-43989.1	955.817	-29777.7	0.000000	0.000000	7.184198	120.14	NaN	0.000000	0.001556	0.001712	28.0848	46.7668	0.001716	27255.1	5.519308	-4.852672	121.749	1.178761	0.049944	0.049636	120.14	27255.1	0.046638	0.082305	1459.69	86797.5
107	2.000000	1.189467	7.36609e+06	-43989.1	955.817	-29777.7	0.000000	0.000000	7.196850	174.937	NaN	0.000000	0.001569	0.001737	28.114	56.4957	0.001772	31885.1	4.514383	175.798	172.078	1.189046	0.060343	0.059922	174.937	31885.1	0.056228	0.112632	1553.18	86802.1
107	2.000000	1.199972	7.36609e+06	-43989.1	955.817	-29777.7	0.000000	0.000000	7.209614	229.894	NaN	0.000000	0.001597	0.001716	28.1258	66.488	0.001874	35486.5	4.307758	-6.059365	228.318	1.199759	0.070848	0.070635	229.894	35486.5	0.065989	0.148157	1551.7	84231.8
107	2.000000	1.210433	7.36609e+06	-43989.1	955.817	-29777.7	0.000000	0.000000	7.222525	289.525	NaN	0.000000	0.001601	0.001692	28.0857	78.1632	0.001805	43294.2	5.917561	171.111	285.395	1.210239	0.081309	0.081115	289.525	43294.2	0.076293	0.190626	1518.82	90596.7
107	2.000000	1.220967	7.36609e+06	-43989.1	955.817	-29777.7	0.000000	0.000000	7.236158	364.918	NaN	0.000000	0.001601	0.001682	28.0839	87.0574	0.001813	48024.6	4.018995	-7.232276	363.149	1.220501	0.091843	0.091377	364.918	48024.6	0.086144	0.235888	1547	90340.9
107	2.000000	1.231345	7.36609e+06	-43989.1	955.817	-29777.7	0.000000	0.000000	7.249790	444.095	NaN	0.000000	0.001566	0.001706	28.1141	95.3766	0.001714	55658.3	3.982104	171.658	437.943	1.231062	0.102220	0.101938	444.095	55658.3	0.096236	0.286903	1547.89	94937
107	2.000000	1.235400	7.36609e+06	-43989.1	955.817	-29777.7	0.000000	0.000000	7.254984	471.772	NaN	0.000000	0.001573	0.001671	28.1142	97.21	0.001831	53098.1	1.940333	174.033	468.186	1.234948	0.106276	0.105824	471.772	53098.1	0.099613	0.305009	1546.75	87840.7