File: remote_trans/data/nanoindenter/0828-1/data/Data_2025-08-06,11h17m57s/2025-07-22_16-23-58_1_347.txt
2025-07-22, 16:23:58, 1
Index	Phase	Displacement	Time	Pos X	Pos Y	Pos Z	Rot A	Rot B	Piezo Z	Force A	Force B	Gripper	Voltage A	Voltage B	Temperature	Amplitude force	Amplitude pos	Stiffness	Phase shift	Phase excitation	Force A raw	Displacement raw	HMax	HMax raw	Real Force	Real Stiffness	Contact Depth	Area	Hardness	Reduced Mod.
[#]	[#]	[um]	[s]	[um]	[um]	[um]	[m°]	[m°]	[um]	[uN]	[uN]	[V]	[V]	[V]	[°C]	[uN]	[um]	[N/m]	[°]	[°]	[uN]	[um]	[um]	[um]	[uN]	[N/m]	[um]	[um^2]	[MPa]	[MPa]
347	1.000000	0.002274	7.36845e+06	-55989.1	955.819	-29740.5	0.000000	0.000000	6.002808	-0.085127	NaN	0.000000	0.001667	0.001717	28.0803	0.083788	0.000954	87.8485	-91.3798	-165.308	-0.024536	0.001024	-1.063014	-1.064264	-0.085127	87.8485	-1.062288	-1.561569E+14	5.451404E-16	NaN
347	1.000000	0.042193	7.36845e+06	-55989.1	955.819	-29740.5	0.000000	0.000000	6.042730	-0.011146	NaN	0.000000	0.001617	0.001722	28.0794	0.088114	0.001823	48.3329	1.673749	-168.416	-0.057979	0.040925	-1.023095	-1.024363	-0.011146	48.3329	-1.022922	-4.615990E+13	2.414738E-16	NaN
347	1.000000	0.082192	7.36845e+06	-55989.1	955.819	-29740.5	0.000000	0.000000	6.082729	-0.018562	NaN	0.000000	0.001663	0.001705	28.0792	0.053618	0.002025	26.4803	60.4225	-166.047	0.013811	0.080900	-0.983096	-0.984389	-0.018562	26.4803	-0.982570	-1.321393E+13	1.404741E-15	NaN
347	1.000000	0.122276	7.36845e+06	-55989.1	955.82	-29740.5	0.000000	0.000000	6.122813	-0.020184	NaN	0.000000	0.001624	0.001724	28.0791	0.040534	0.002083	19.4614	167.313	-166.078	0.030226	0.120993	-0.943012	-0.944295	-0.020184	19.4614	-0.942234	-3.778131E+12	5.342209E-15	NaN
347	1.000000	0.162251	7.36845e+06	-55989.1	955.819	-29740.5	0.000000	0.000000	6.162790	0.028326	NaN	0.000000	0.001641	0.001738	28.0803	0.077534	0.001937	40.0299	23.855	-163.882	0.030405	0.160886	-0.903037	-0.904403	0.028326	40.0299	-0.903568	-1.135730E+12	-2.494048E-14	NaN
347	1.000000	0.202252	7.36846e+06	-55989.1	955.82	-29740.5	0.000000	0.000000	6.202789	-0.004951	NaN	0.000000	0.001578	0.001755	28.08	0.070892	0.002082	34.0514	-11.554	-166.127	0.013444	0.200977	-0.863036	-0.864311	-0.004951	34.0514	-0.862927	-3.204360E+11	1.545062E-14	NaN
347	1.000000	0.242289	7.36846e+06	-55989.1	955.819	-29740.5	0.000000	0.000000	6.242827	0.022166	NaN	0.000000	0.001520	0.001714	28.0799	0.059596	0.002106	28.2995	111.903	-163.524	-0.024342	0.240947	-0.822999	-0.824341	0.022166	28.2995	-0.823587	-9.393914E+10	-2.359572E-13	NaN
347	1.000000	0.282306	7.36846e+06	-55989.1	955.819	-29740.5	0.000000	0.000000	6.282843	-0.027708	NaN	0.000000	0.001533	0.001768	28.0799	0.092603	0.002098	44.1409	-61.335	-164.367	-0.044521	0.281002	-0.782982	-0.784286	-0.027708	44.1409	-0.782511	-2.602251E+10	1.064786E-12	NaN
347	1.000000	0.322340	7.36846e+06	-55989.1	955.819	-29740.5	0.000000	0.000000	6.322880	0.067739	NaN	0.000000	0.001594	0.001773	28.0788	0.004530	0.002031	2.230315	-148.954	-165.369	-0.044274	0.321024	-0.742948	-0.744264	0.067739	2.230315	-0.765727	-1.538874E+10	-4.401867E-12	NaN
347	1.000000	0.362328	7.36846e+06	-55989.1	955.818	-29740.5	0.000000	0.000000	6.362866	0.021093	NaN	0.000000	0.001564	0.001812	28.0788	0.049127	0.001966	24.9822	156.659	-168.297	0.027615	0.361026	-0.702960	-0.704263	0.021093	24.9822	-0.703593	-2.190780E+9	-9.627876E-12	NaN
347	1.000000	0.402358	7.36846e+06	-55989.1	955.818	-29740.5	0.000000	0.000000	6.402896	0.007727	NaN	0.000000	0.001567	0.001768	28.0788	0.076875	0.002106	36.5088	102.665	-166.056	-0.014726	0.401066	-0.662930	-0.664222	0.007727	36.5088	-0.663089	-6.120350E+8	-1.262523E-11	NaN
347	1.000000	0.442360	7.36846e+06	-55989.1	955.819	-29740.5	0.000000	0.000000	6.442899	0.029691	NaN	0.000000	0.001590	0.001725	28.0803	0.011693	0.001972	5.928467	18.2038	-165.705	0.038204	0.441059	-0.622928	-0.624229	0.029691	5.928467	-0.626684	-1.938550E+8	-1.531631E-10	NaN
347	1.000000	0.482393	7.36846e+06	-55989.1	955.82	-29740.5	0.000000	0.000000	6.482932	0.044984	NaN	0.000000	0.001602	0.001738	28.0802	0.035482	0.002128	16.6741	-92.8077	-163.428	0.008099	0.481113	-0.582895	-0.584175	0.044984	16.6741	-0.584919	-5.159308E+7	-8.719033E-10	NaN
347	1.000000	0.522402	7.36846e+06	-55989.1	955.82	-29740.5	0.000000	0.000000	6.522940	0.008686	NaN	0.000000	0.001601	0.001735	28.0803	0.062055	0.002002	30.9909	174.844	-168.991	0.051346	0.521133	-0.542886	-0.544155	0.008686	30.9909	-0.543096	-1.362362E+7	-6.375657E-10	NaN
347	1.000000	0.562394	7.36846e+06	-55989.1	955.818	-29740.5	0.000000	0.000000	6.562933	0.036161	NaN	0.000000	0.001626	0.001736	28.0793	0.074227	0.001938	38.3027	11.6955	-166.306	0.037034	0.561085	-0.502894	-0.504203	0.036161	38.3027	-0.503602	-3.8482e+06	-9.396907E-9	NaN
347	1.000000	0.602434	7.36846e+06	-55989.1	955.818	-29740.5	0.000000	0.000000	6.602972	0.007968	NaN	0.000000	0.001586	0.001756	28.08	0.011700	0.001932	6.056466	-89.207	-169.71	0.035312	0.601151	-0.462854	-0.464137	0.007968	6.056466	-0.463841	-1.06898e+06	-7.454277E-9	NaN
347	1.000000	0.642461	7.36846e+06	-55989.1	955.818	-29740.5	0.000000	0.000000	6.642996	-0.050484	NaN	0.000000	0.001603	0.001713	28.0796	0.067090	0.002071	32.3895	88.9206	-167.123	0.013901	0.641173	-0.422827	-0.424115	-0.050484	32.3895	-0.421658	-271600	1.858756E-7	NaN
347	1.000000	0.682518	7.36846e+06	-55989.1	955.818	-29740.5	0.000000	0.000000	6.683057	0.018539	NaN	0.000000	0.001619	0.001737	28.0792	0.075415	0.002079	36.2688	-49.1415	-164.987	-0.112947	0.681159	-0.382770	-0.384129	0.018539	36.2688	-0.383153	-76756.4	-2.415309E-7	NaN
347	1.000000	0.722489	7.36846e+06	-55989.1	955.818	-29740.5	0.000000	0.000000	6.723026	-0.028021	NaN	0.000000	0.001607	0.001737	28.0802	0.053350	0.001941	27.4841	130.976	-167.911	-0.017028	0.721123	-0.342799	-0.344165	-0.028021	27.4841	-0.342034	-19551.9	1.433150E-6	NaN
347	1.000000	0.762533	7.36846e+06	-55989.1	955.819	-29740.5	0.000000	0.000000	6.763073	0.063788	NaN	0.000000	0.001630	0.001736	28.08	0.080741	0.002064	39.1155	-164.229	-164.205	-0.056569	0.761160	-0.302755	-0.304128	0.063788	39.1155	-0.303978	-5392.48	-1.182908E-5	NaN
347	1.000000	0.802561	7.36846e+06	-55989.1	955.819	-29740.5	0.000000	0.000000	6.803099	0.010499	NaN	0.000000	0.001591	0.001771	28.08	0.105283	0.001862	56.5468	101.662	-162.6	0.015491	0.801268	-0.262727	-0.264020	0.010499	56.5468	-0.262867	-1296.58	-8.097316E-6	NaN
347	1.000000	0.842557	7.36846e+06	-55989.1	955.818	-29740.5	0.000000	0.000000	6.843093	-0.047525	NaN	0.000000	0.001598	0.001735	28.0785	0.015637	0.001845	8.475690	-166.338	-161.235	-0.000143	0.841231	-0.222731	-0.224057	-0.047525	8.475690	-0.218526	-263.085	0.000181	NaN
347	1.000000	0.882552	7.36846e+06	-55989.1	955.819	-29740.5	0.000000	0.000000	6.883093	0.072937	NaN	0.000000	0.001602	0.001746	28.0787	0.016534	0.002107	7.848260	-31.279	-167.681	-0.005192	0.881270	-0.182736	-0.184018	0.072937	7.848260	-0.189706	-88.9437	-0.000820	NaN
347	1.000000	0.922567	7.36846e+06	-55989.1	955.818	-29740.5	0.000000	0.000000	6.923104	-0.015782	NaN	0.000000	0.001595	0.001726	28.079	0.153384	0.001869	82.0455	-42.2423	-163.612	-0.017017	0.921251	-0.142721	-0.144037	-0.015782	82.0455	-0.142577	-13.2183	0.001194	NaN
347	1.000000	0.962598	7.36846e+06	-55989.1	955.818	-29740.5	0.000000	0.000000	6.963134	-0.043641	NaN	0.000000	0.001551	0.001756	28.0789	0.029776	0.002063	14.4302	46.9478	-164.716	0.009895	0.961277	-0.102690	-0.104011	-0.043641	14.4302	-0.100422	-1.866851	0.023377	NaN
347	1.000000	1.002596	7.36846e+06	-55989.1	955.819	-29740.5	0.000000	0.000000	7.003134	-0.003631	NaN	0.000000	0.001578	0.001709	28.0803	0.111067	0.001961	56.6389	113.11	-166.408	0.024544	1.001334	-0.062692	-0.063954	-0.003631	56.6389	-0.062644	-0.214137	0.016955	NaN
347	1.000000	1.042631	7.36846e+06	-55989.1	955.82	-29740.5	0.000000	0.000000	7.043169	-0.000799	NaN	0.000000	0.001618	0.001772	28.0804	0.040897	0.001897	21.5549	172.419	-166.608	0.052227	1.041242	-0.022657	-0.024046	-0.000799	21.5549	-0.022629	-0.014653	0.054496	NaN
347	2.000000	1.080182	7.36846e+06	-55989.1	955.818	-29740.5	0.000000	0.000000	7.081074	8.591433	NaN	0.000000	0.001609	0.001675	28.0802	9.706812	0.001589	6107.17	9.297699	-174.75	8.300538	1.079879	0.014894	0.014591	8.591433	6107.17	0.013839	0.013769	623.987	47552
347	2.000000	1.090064	7.36846e+06	-55989.1	955.819	-29740.5	0.000000	0.000000	7.091715	27.0691	NaN	0.000000	0.001609	0.001672	28.0791	21.5147	0.001889	11388	4.120664	-175.249	25.331	1.089737	0.024776	0.024449	27.0691	11388	0.022993	0.027465	985.585	62781.5
347	2.000000	1.100042	7.36846e+06	-55989.1	955.82	-29740.5	0.000000	0.000000	7.102753	52.8387	NaN	0.000000	0.001574	0.001669	28.079	31.2925	0.001809	17295	4.941947	-179.047	50.2824	1.099661	0.034754	0.034373	52.8387	17295	0.032462	0.046002	1148.62	73672.8
347	2.000000	1.110080	7.36846e+06	-55989.1	955.819	-29740.5	0.000000	0.000000	7.113858	78.7692	NaN	0.000000	0.001605	0.001709	28.079	40.6543	0.001780	22841.8	4.238953	179.4	80.0515	1.109762	0.044791	0.044474	78.7692	22841.8	0.042205	0.069851	1127.67	78961.8
347	2.000000	1.120063	7.36846e+06	-55989.1	955.819	-29740.5	0.000000	0.000000	7.125749	125.152	NaN	0.000000	0.001602	0.001677	28.0797	51.5066	0.001741	29581.6	8.116636	173.802	125.951	1.119698	0.054775	0.054410	125.152	29581.6	0.051602	0.097429	1284.55	86586.9
347	2.000000	1.130029	7.36846e+06	-55989.1	955.82	-29740.5	0.000000	0.000000	7.137691	173.181	NaN	0.000000	0.001590	0.001686	28.0803	60.4706	0.001855	32595.8	1.718703	179.296	172.026	1.129659	0.064741	0.064371	173.181	32595.8	0.060756	0.128534	1347.36	83066.6
347	2.000000	1.140098	7.36846e+06	-55989.1	955.819	-29740.5	0.000000	0.000000	7.149802	222.814	NaN	0.000000	0.001580	0.001686	28.0803	70.9334	0.001906	37224.3	7.052354	173.298	225.557	1.139629	0.074809	0.074340	222.814	37224.3	0.070320	0.165393	1347.18	83626.1
347	2.000000	1.149955	7.36846e+06	-55989.1	955.82	-29740.5	0.000000	0.000000	7.162344	288.088	NaN	0.000000	0.001651	0.001704	28.0807	79.6787	0.001750	45536.1	2.543660	175.146	283.557	1.149729	0.084667	0.084441	288.088	45536.1	0.079922	0.206773	1393.26	91491.9
347	2.000000	1.160017	7.36846e+06	-55989.1	955.82	-29740.5	0.000000	0.000000	7.175319	358.887	NaN	0.000000	0.001626	0.001653	28.0793	90.4201	0.001884	48004.4	6.661000	171.17	358.99	1.159666	0.094729	0.094378	358.887	48004.4	0.089122	0.250456	1432.94	87637.3
347	2.000000	1.170183	7.36846e+06	-55989.1	955.82	-29740.5	0.000000	0.000000	7.188109	422.669	NaN	0.000000	0.001677	0.001652	28.079	99.907	0.001802	55447.5	9.186772	167.519	433.918	1.169717	0.104894	0.104429	422.669	55447.5	0.099177	0.302645	1396.58	92084.8
347	2.000000	1.177749	7.36846e+06	-55989.1	955.821	-29740.5	0.000000	0.000000	7.198766	497.786	NaN	0.000000	0.001677	0.001635	28.0787	106.201	0.001729	61436.2	7.994929	167.943	487.338	1.177391	0.112461	0.112103	497.786	61436.2	0.106384	0.342883	1451.76	95857.2