File: remote_trans/data/nanoindenter/0828-1/data/Data_2025-08-06,11h17m57s/2025-07-22_16-23-58_1_168.txt
2025-07-22, 16:23:58, 1
Index	Phase	Displacement	Time	Pos X	Pos Y	Pos Z	Rot A	Rot B	Piezo Z	Force A	Force B	Gripper	Voltage A	Voltage B	Temperature	Amplitude force	Amplitude pos	Stiffness	Phase shift	Phase excitation	Force A raw	Displacement raw	HMax	HMax raw	Real Force	Real Stiffness	Contact Depth	Area	Hardness	Reduced Mod.
[#]	[#]	[um]	[s]	[um]	[um]	[um]	[m°]	[m°]	[um]	[uN]	[uN]	[V]	[V]	[V]	[°C]	[uN]	[um]	[N/m]	[°]	[°]	[uN]	[um]	[um]	[um]	[uN]	[N/m]	[um]	[um^2]	[MPa]	[MPa]
168	1.000000	0.002442	7.36668e+06	-47039.1	955.819	-29767.7	0.000000	0.000000	6.002742	-0.064061	NaN	0.000000	0.001620	0.001670	28.1208	0.059636	0.000953	62.6048	168.019	-179.8	-0.036422	0.001221	-1.096851	-1.098072	-0.064061	62.6048	-1.096084	-4.441134E+14	1.442448E-16	NaN
168	1.000000	0.044386	7.36668e+06	-47039.1	955.818	-29767.7	0.000000	0.000000	6.044688	-0.044064	NaN	0.000000	0.001637	0.001674	28.1231	0.051323	0.001992	25.7705	132.998	-6.322286	-0.099053	0.042976	-1.054906	-1.056317	-0.044064	25.7705	-1.053624	-1.194340E+14	3.689425E-16	NaN
168	1.000000	0.086360	7.36668e+06	-47039.1	955.818	-29767.7	0.000000	0.000000	6.086660	-0.085217	NaN	0.000000	0.001629	0.001675	28.0835	0.128079	0.002021	63.3877	-84.1645	175.047	0.002602	0.085084	-1.012932	-1.014209	-0.085217	63.3877	-1.011924	-3.283062E+13	2.595660E-15	NaN
168	1.000000	0.128402	7.36668e+06	-47039.1	955.818	-29767.7	0.000000	0.000000	6.128702	-0.081750	NaN	0.000000	0.001604	0.001705	28.0821	0.055230	0.002073	26.6419	-145.139	-3.719933	0.024085	0.127037	-0.970891	-0.972256	-0.081750	26.6419	-0.968589	-8.563525E+12	9.546314E-15	NaN
168	1.000000	0.170421	7.36668e+06	-47039.1	955.819	-29767.7	0.000000	0.000000	6.170721	-0.085413	NaN	0.000000	0.001653	0.001677	28.1203	0.093912	0.001978	47.4788	113.937	178.187	-0.137892	0.169078	-0.928872	-0.930215	-0.085413	47.4788	-0.927523	-2.391994E+12	3.570797E-14	NaN
168	1.000000	0.212440	7.36668e+06	-47039.1	955.818	-29767.7	0.000000	0.000000	6.212740	-0.089954	NaN	0.000000	0.001634	0.001695	28.123	0.043208	0.001895	22.8029	164.04	-6.359179	-0.110236	0.211118	-0.886852	-0.888174	-0.089954	22.8029	-0.883894	-6.156875E+11	1.461041E-13	NaN
168	1.000000	0.254474	7.36668e+06	-47039.1	955.819	-29767.7	0.000000	0.000000	6.254774	-0.097211	NaN	0.000000	0.001622	0.001706	28.0847	0.055650	0.001868	29.7915	68.1196	174.687	-0.107447	0.253189	-0.844819	-0.846104	-0.097211	29.7915	-0.842371	-1.688177E+11	5.758371E-13	NaN
168	1.000000	0.296505	7.36668e+06	-47039.1	955.819	-29767.7	0.000000	0.000000	6.296806	-0.074119	NaN	0.000000	0.001611	0.001690	28.084	0.046320	0.001982	23.372	-171.5	-7.106036	-0.094395	0.295124	-0.802787	-0.804169	-0.074119	23.372	-0.800409	-4.554225E+10	1.627488E-12	NaN
168	1.000000	0.338491	7.36668e+06	-47039.1	955.818	-29767.7	0.000000	0.000000	6.338792	-0.063140	NaN	0.000000	0.001698	0.001699	28.1194	0.049819	0.001974	25.2386	-24.1827	176.122	0.020402	0.337167	-0.760801	-0.762126	-0.063140	25.2386	-0.758925	-1.243593E+10	5.077208E-12	NaN
168	1.000000	0.380538	7.36668e+06	-47039.1	955.819	-29767.7	0.000000	0.000000	6.380839	-0.068408	NaN	0.000000	0.001629	0.001707	28.1224	0.098739	0.002005	49.2377	26.7097	-5.486289	-0.100648	0.379150	-0.718755	-0.720142	-0.068408	49.2377	-0.717713	-3.414119E+9	2.003678E-11	NaN
168	1.000000	0.422520	7.36668e+06	-47039.1	955.818	-29767.7	0.000000	0.000000	6.422823	-0.014705	NaN	0.000000	0.001604	0.001705	28.0842	0.024342	0.002039	11.9378	-15.3954	172.636	-0.044194	0.421210	-0.676773	-0.678082	-0.014705	11.9378	-0.675849	-9.150125E+8	1.607040E-11	NaN
168	1.000000	0.464563	7.36668e+06	-47039.1	955.819	-29767.7	0.000000	0.000000	6.464865	-0.057696	NaN	0.000000	0.001604	0.001732	28.084	0.035887	0.001981	18.1122	27.2328	-6.605953	-0.002442	0.463190	-0.634729	-0.636103	-0.057696	18.1122	-0.632340	-2.318228E+8	2.488818E-10	NaN
168	1.000000	0.506570	7.36668e+06	-47039.1	955.819	-29767.7	0.000000	0.000000	6.506872	-0.027274	NaN	0.000000	0.001620	0.001688	28.1187	0.073231	0.002093	34.9857	-131.384	175.915	-0.112958	0.505263	-0.592723	-0.594030	-0.027274	34.9857	-0.592138	-6.488433E+7	4.203500E-10	NaN
168	1.000000	0.548591	7.36668e+06	-47039.1	955.817	-29767.7	0.000000	0.000000	6.548891	-0.076848	NaN	0.000000	0.001641	0.001685	28.1235	0.094826	0.002050	46.2518	-129.914	-0.688463	-0.124257	0.547192	-0.550702	-0.552101	-0.076848	46.2518	-0.549456	-1.668841E+7	4.604847E-9	NaN
168	1.000000	0.590603	7.36668e+06	-47039.1	955.819	-29767.7	0.000000	0.000000	6.590907	0.004117	NaN	0.000000	0.001647	0.001683	28.0855	0.063421	0.002108	30.0834	-64.6216	177.589	0.004227	0.589281	-0.508690	-0.510012	0.004117	30.0834	-0.508792	-4.54559e+06	-9.057098E-10	NaN
168	1.000000	0.632638	7.36668e+06	-47039.1	955.82	-29767.7	0.000000	0.000000	6.632939	-0.045816	NaN	0.000000	0.001590	0.001684	28.081	0.041897	0.001952	21.4608	63.7905	-5.944937	0.002082	0.631297	-0.466655	-0.467996	-0.045816	21.4608	-0.465054	-1.11174e+06	4.121090E-8	NaN
168	1.000000	0.674645	7.36668e+06	-47039.1	955.818	-29767.7	0.000000	0.000000	6.674945	-0.083234	NaN	0.000000	0.001666	0.001711	28.1169	0.064382	0.002108	30.5471	112.78	176.903	0.001128	0.673336	-0.424648	-0.425956	-0.083234	30.5471	-0.422605	-280118	2.971395E-7	NaN
168	1.000000	0.716666	7.36668e+06	-47039.1	955.818	-29767.7	0.000000	0.000000	6.716968	-0.045240	NaN	0.000000	0.001641	0.001688	28.1235	0.028597	0.002057	13.8996	-72.754	-6.367117	-0.067424	0.715322	-0.382627	-0.383971	-0.045240	13.8996	-0.380186	-69591	6.500880E-7	NaN
168	1.000000	0.758698	7.36668e+06	-47039.1	955.818	-29767.7	0.000000	0.000000	6.758997	-0.117055	NaN	0.000000	0.001678	0.001712	28.0859	0.043914	0.001921	22.8587	42.5829	170.624	-0.113154	0.757423	-0.340595	-0.341870	-0.117055	22.8587	-0.336754	-16375.9	7.148002E-6	NaN
168	1.000000	0.800713	7.36668e+06	-47039.1	955.819	-29767.7	0.000000	0.000000	6.801014	-0.054887	NaN	0.000000	0.001672	0.001709	28.0819	0.046299	0.001910	24.2448	112.28	-2.198891	-0.093483	0.799328	-0.298580	-0.299965	-0.054887	24.2448	-0.296882	-4228.35	1.298082E-5	NaN
168	1.000000	0.842724	7.36668e+06	-47039.1	955.818	-29767.7	0.000000	0.000000	6.843024	-0.086644	NaN	0.000000	0.001617	0.001673	28.1167	0.041002	0.002072	19.7886	-131.987	179.651	-0.032578	0.841399	-0.256569	-0.257893	-0.086644	19.7886	-0.253285	-924.046	9.376618E-5	NaN
168	1.000000	0.884739	7.36668e+06	-47039.1	955.819	-29767.7	0.000000	0.000000	6.885041	-0.036010	NaN	0.000000	0.001692	0.001682	28.1235	0.071796	0.001928	37.2467	-116.95	-3.390121	-0.043390	0.883311	-0.214553	-0.215982	-0.036010	37.2467	-0.213828	-221.132	0.000163	NaN
168	1.000000	0.926767	7.36668e+06	-47039.1	955.818	-29767.7	0.000000	0.000000	6.927071	-0.003296	NaN	0.000000	0.001682	0.001712	28.0844	0.126832	0.001965	64.5492	-20.9456	176.968	-0.058609	0.925431	-0.172525	-0.173862	-0.003296	64.5492	-0.172487	-45.3613	7.265841E-5	NaN
168	1.000000	0.968762	7.36669e+06	-47039.1	955.819	-29767.7	0.000000	0.000000	6.969063	-0.069422	NaN	0.000000	0.001691	0.001687	28.081	0.084146	0.001952	43.1096	-61.6544	-8.017594	-0.001216	0.967426	-0.130531	-0.131866	-0.069422	43.1096	-0.129323	-7.393380	0.009390	NaN
168	1.000000	1.010798	7.36669e+06	-47039.1	955.819	-29767.7	0.000000	0.000000	7.011098	-0.093932	NaN	0.000000	0.001669	0.001711	28.1146	0.108266	0.001967	55.0342	169.468	177.113	-0.155030	1.009449	-0.088495	-0.089843	-0.093932	55.0342	-0.087215	-0.928768	0.101136	NaN
168	1.000000	1.052788	7.36669e+06	-47039.1	955.819	-29767.7	0.000000	0.000000	7.053088	-0.086096	NaN	0.000000	0.001572	0.001665	28.1265	0.099686	0.002068	48.2052	-40.2335	-4.737929	-0.070999	1.051384	-0.046505	-0.047909	-0.086096	48.2052	-0.045166	-0.065022	1.324107	NaN
168	1.000000	1.094842	7.36669e+06	-47039.1	955.819	-29767.7	0.000000	0.000000	7.095143	-0.058731	NaN	0.000000	0.001635	0.001675	28.0839	0.018941	0.001998	9.478135	130.038	175.374	-0.109782	1.093489	-0.004451	-0.005804	-0.058731	9.478135	0.000196	0.000147	-398.692	713.481
168	2.000000	1.115788	7.36669e+06	-47039.1	955.819	-29767.7	0.000000	0.000000	7.116972	21.4099	NaN	0.000000	0.001583	0.001669	28.0813	17.5673	0.001756	10007	7.592191	-15.0292	20.9988	1.115470	0.016496	0.016177	21.4099	10007	0.014891	0.015140	1414.1	74303.3
168	2.000000	1.126277	7.36669e+06	-47039.1	955.819	-29767.7	0.000000	0.000000	7.128293	41.6482	NaN	0.000000	0.001620	0.001695	28.1126	28.5942	0.001757	16274.2	6.185216	161.137	42.8125	1.125922	0.026985	0.026630	41.6482	16274.2	0.025065	0.031135	1337.68	84265.8
168	2.000000	1.136731	7.36669e+06	-47039.1	955.82	-29767.7	0.000000	0.000000	7.140230	77.7358	NaN	0.000000	0.001604	0.001646	28.1262	38.4868	0.001849	20815.1	4.177559	-18.6595	76.2362	1.136388	0.037438	0.037095	77.7358	20815.1	0.034637	0.050904	1527.1	84289.9
168	2.000000	1.147219	7.36669e+06	-47039.1	955.82	-29767.7	0.000000	0.000000	7.152583	123.099	NaN	0.000000	0.001610	0.001693	28.0846	47.7059	0.001755	27186.7	5.088565	157.142	122.938	1.146893	0.047926	0.047601	123.099	27186.7	0.044530	0.076259	1614.23	89946.6
168	2.000000	1.157763	7.36669e+06	-47039.1	955.821	-29767.7	0.000000	0.000000	7.165239	174.451	NaN	0.000000	0.001602	0.001766	28.081	56.8327	0.001637	34711.8	2.222626	-20.7838	175.607	1.157318	0.058471	0.058025	174.451	34711.8	0.054701	0.107496	1622.85	96728.3
168	2.000000	1.168209	7.36669e+06	-47039.1	955.821	-29767.7	0.000000	0.000000	7.177869	227.575	NaN	0.000000	0.001619	0.001703	28.113	68.295	0.001731	39450	5.881933	153.961	227.022	1.167828	0.068917	0.068535	227.575	39450	0.064590	0.142780	1593.89	95386.4
168	2.000000	1.178670	7.36669e+06	-47039.1	955.821	-29767.7	0.000000	0.000000	7.190724	285.806	NaN	0.000000	0.001598	0.001747	28.1277	77.6744	0.001770	43890.8	1.510031	-22.9836	284.54	1.178427	0.079378	0.079134	285.806	43890.8	0.074494	0.182848	1563.08	93778.2
168	2.000000	1.189069	7.36669e+06	-47039.1	955.821	-29767.7	0.000000	0.000000	7.204378	365.015	NaN	0.000000	0.001609	0.001730	28.0846	87.1739	0.001755	49660	5.823584	151.769	356.956	1.188767	0.089776	0.089475	365.015	49660	0.084263	0.226899	1608.71	95249.8
168	2.000000	1.199681	7.36669e+06	-47039.1	955.821	-29767.7	0.000000	0.000000	7.217932	436.555	NaN	0.000000	0.001637	0.001795	28.0801	97.7708	0.001837	53216.8	7.060129	-29.6844	434.419	1.199378	0.100388	0.100085	436.555	53216.8	0.094236	0.276420	1579.32	92477.8
168	2.000000	1.207272	7.36669e+06	-47039.1	955.821	-29767.7	0.000000	0.000000	7.228113	499.548	NaN	0.000000	0.001632	0.001705	28.0857	102.767	0.001767	58161.9	1.520786	155.759	503.412	1.206882	0.107980	0.107589	499.548	58161.9	0.101538	0.315565	1583.03	94594.8