File: remote_trans/data/nanoindenter/0828-1/data/Data_2025-08-06,11h17m57s/2025-07-22_16-23-58_1_529.txt
2025-07-22, 16:23:58, 1
Index	Phase	Displacement	Time	Pos X	Pos Y	Pos Z	Rot A	Rot B	Piezo Z	Force A	Force B	Gripper	Voltage A	Voltage B	Temperature	Amplitude force	Amplitude pos	Stiffness	Phase shift	Phase excitation	Force A raw	Displacement raw	HMax	HMax raw	Real Force	Real Stiffness	Contact Depth	Area	Hardness	Reduced Mod.
[#]	[#]	[um]	[s]	[um]	[um]	[um]	[m°]	[m°]	[um]	[uN]	[uN]	[V]	[V]	[V]	[°C]	[uN]	[um]	[N/m]	[°]	[°]	[uN]	[um]	[um]	[um]	[uN]	[N/m]	[um]	[um^2]	[MPa]	[MPa]
529	1.000000	0.002675	7.37022e+06	-50639.1	1005.82	-29755	0.000000	0.000000	6.002788	-0.009237	NaN	0.000000	0.001652	0.001733	28.0837	0.127131	0.000887	143.287	-77.3331	-166.28	0.006523	0.001442	-1.145650	-1.146882	-0.009237	143.287	-1.145601	-2.050429E+15	4.504993E-18	NaN
529	1.000000	0.044633	7.37022e+06	-50639.1	1005.82	-29755	0.000000	0.000000	6.044747	0.005365	NaN	0.000000	0.001679	0.001795	28.0835	0.033768	0.001930	17.4945	-4.608760	13.9878	0.017968	0.043295	-1.103692	-1.105029	0.005365	17.4945	-1.103922	-5.658574E+14	-9.480609E-18	NaN
529	1.000000	0.086622	7.37022e+06	-50639.1	1005.82	-29755	0.000000	0.000000	6.086737	0.024765	NaN	0.000000	0.001639	0.001780	28.0835	0.047855	0.001980	24.1637	178.411	-165.299	0.039880	0.085344	-1.061702	-1.062980	0.024765	24.1637	-1.062471	-1.570453E+14	-1.576933E-16	NaN
529	1.000000	0.128677	7.37022e+06	-50639.1	1005.82	-29755	0.000000	0.000000	6.128792	0.016608	NaN	0.000000	0.001619	0.001719	28.0823	0.050145	0.001988	25.2255	-91.6324	15.1037	-0.074621	0.127339	-1.019647	-1.020985	0.016608	25.2255	-1.020141	-4.234933E+13	-3.921586E-16	NaN
529	1.000000	0.170707	7.37022e+06	-50639.1	1005.82	-29755	0.000000	0.000000	6.170823	0.043575	NaN	0.000000	0.001651	0.001786	28.082	0.043849	0.001927	22.7522	53.5235	-166.504	0.026706	0.169326	-0.977617	-0.978998	0.043575	22.7522	-0.979053	-1.184830E+13	-3.677782E-15	NaN
529	1.000000	0.212667	7.37022e+06	-50639.1	1005.82	-29755	0.000000	0.000000	6.212784	0.085424	NaN	0.000000	0.001635	0.001725	28.0821	0.056509	0.002090	27.0406	-107.115	16.1342	-0.025588	0.211319	-0.935658	-0.937005	0.085424	27.0406	-0.938027	-3.315245E+12	-2.576696E-14	NaN
529	1.000000	0.254703	7.37022e+06	-50639.1	1005.82	-29755	0.000000	0.000000	6.254824	0.176886	NaN	0.000000	0.001639	0.001745	28.0835	0.102274	0.002019	50.6674	169.928	-163.263	0.131888	0.253319	-0.893622	-0.895005	0.176886	50.6674	-0.896240	-9.041866E+11	-1.956294E-13	NaN
529	1.000000	0.296738	7.37022e+06	-50639.1	1005.82	-29755	0.000000	0.000000	6.296853	0.033703	NaN	0.000000	0.001668	0.001707	28.0834	0.041232	0.001926	21.4079	-29.3301	12.2946	0.012775	0.295390	-0.851586	-0.852934	0.033703	21.4079	-0.852767	-2.334570E+11	-1.443644E-13	NaN
529	1.000000	0.338765	7.37022e+06	-50639.1	1005.82	-29755	0.000000	0.000000	6.338880	0.015878	NaN	0.000000	0.001652	0.001731	28.0831	0.031750	0.002032	15.6254	-32.7967	-165.674	0.071455	0.337393	-0.809559	-0.810932	0.015878	15.6254	-0.810321	-6.207680E+10	-2.557873E-13	NaN
529	1.000000	0.380757	7.37022e+06	-50639.1	1005.82	-29755	0.000000	0.000000	6.380872	0.016465	NaN	0.000000	0.001585	0.001733	28.0831	0.019154	0.001943	9.856228	-94.5138	17.1587	0.015481	0.379428	-0.767567	-0.768897	0.016465	9.856228	-0.768820	-1.695352E+10	-9.711685E-13	NaN
529	1.000000	0.422774	7.37023e+06	-50639.1	1005.82	-29755	0.000000	0.000000	6.422891	0.064943	NaN	0.000000	0.001574	0.001707	28.082	0.014341	0.002024	7.085506	88.685	-168.25	0.018281	0.421485	-0.725550	-0.726840	0.064943	7.085506	-0.732424	-5.418113E+9	-1.198625E-11	NaN
529	1.000000	0.464785	7.37023e+06	-50639.1	1005.82	-29755	0.000000	0.000000	6.464902	0.059349	NaN	0.000000	0.001584	0.001705	28.082	0.057883	0.002063	28.0601	-7.927009	17.984	0.034556	0.463455	-0.683539	-0.684870	0.059349	28.0601	-0.685125	-1.225432E+9	-4.843098E-11	NaN
529	1.000000	0.506823	7.37023e+06	-50639.1	1005.82	-29755	0.000000	0.000000	6.506939	0.054545	NaN	0.000000	0.001596	0.001654	28.0818	0.076083	0.002030	37.4837	-72.1967	-166.267	0.078304	0.505509	-0.641502	-0.642815	0.054545	37.4837	-0.642593	-3.205266E+8	-1.701746E-10	NaN
529	1.000000	0.548828	7.37023e+06	-50639.1	1005.82	-29755	0.000000	0.000000	6.548946	0.105714	NaN	0.000000	0.001589	0.001710	28.0834	0.117956	0.002099	56.1996	109.085	18.7294	0.070945	0.547464	-0.599497	-0.600860	0.105714	56.1996	-0.600907	-8.569514E+7	-1.233606E-9	NaN
529	1.000000	0.590888	7.37023e+06	-50639.1	1005.82	-29755	0.000000	0.000000	6.591005	0.062034	NaN	0.000000	0.001548	0.001721	28.0842	0.021358	0.002060	10.3682	133.683	-163.406	0.065660	0.589566	-0.557436	-0.558758	0.062034	10.3682	-0.561923	-2.483035E+7	-2.498311E-9	NaN
529	1.000000	0.632854	7.37023e+06	-50639.1	1005.82	-29755	0.000000	0.000000	6.632968	0.017645	NaN	0.000000	0.001619	0.001701	28.084	0.106839	0.001997	53.5074	-100.487	15.9729	0.017554	0.631500	-0.515471	-0.516824	0.017645	53.5074	-0.515718	-5.67577e+06	-3.108817E-9	NaN
529	1.000000	0.674894	7.37023e+06	-50639.1	1005.82	-29755	0.000000	0.000000	6.675008	-0.018319	NaN	0.000000	0.001600	0.001745	28.0827	0.088261	0.002065	42.7378	0.347973	-163.058	-0.019823	0.673592	-0.473430	-0.474732	-0.018319	42.7378	-0.473108	-1.44208e+06	1.270332E-8	NaN
529	1.000000	0.716877	7.37023e+06	-50639.1	1005.82	-29755	0.000000	0.000000	6.716992	0.047446	NaN	0.000000	0.001590	0.001716	28.0824	0.026425	0.002089	12.6469	160.077	18.1853	0.007529	0.715543	-0.431448	-0.432781	0.047446	12.6469	-0.434261	-409560	-1.158453E-7	NaN
529	1.000000	0.758960	7.37023e+06	-50639.1	1005.82	-29755	0.000000	0.000000	6.759075	0.016529	NaN	0.000000	0.001616	0.001733	28.0825	0.025602	0.002067	12.3876	64.8935	-165.865	-0.037768	0.757558	-0.389364	-0.390766	0.016529	12.3876	-0.390365	-97361.9	-1.697730E-7	NaN
529	1.000000	0.800949	7.37023e+06	-50639.1	1005.82	-29755	0.000000	0.000000	6.801063	0.014904	NaN	0.000000	0.001635	0.001760	28.0838	0.077885	0.002145	36.3064	-137.747	17.0295	0.043906	0.799563	-0.347376	-0.348761	0.014904	36.3064	-0.347683	-23624.5	-6.308865E-7	NaN
529	1.000000	0.842988	7.37023e+06	-50639.1	1005.82	-29755	0.000000	0.000000	6.843103	0.019902	NaN	0.000000	0.001587	0.001774	28.0836	0.021971	0.001962	11.2	109.314	-165.564	0.045357	0.841684	-0.305337	-0.306641	0.019902	11.2	-0.306669	-5911.78	-3.366444E-6	NaN
529	1.000000	0.884961	7.37023e+06	-50639.1	1005.82	-29755	0.000000	0.000000	6.885077	0.030742	NaN	0.000000	0.001676	0.001734	28.0837	0.064852	0.001949	33.2765	141.665	13.8231	0.026148	0.883593	-0.263363	-0.264731	0.030742	33.2765	-0.264056	-1351.99	-2.273848E-5	NaN
529	1.000000	0.926974	7.37023e+06	-50639.1	1005.82	-29755	0.000000	0.000000	6.927089	0.025860	NaN	0.000000	0.001676	0.001706	28.0833	0.119088	0.002137	55.7294	13.1099	-165.846	0.002901	0.925666	-0.221351	-0.222658	0.025860	55.7294	-0.221699	-295.662	-8.746467E-5	NaN
529	1.000000	0.969011	7.37023e+06	-50639.1	1005.82	-29755	0.000000	0.000000	6.969126	0.021073	NaN	0.000000	0.001643	0.001688	28.0821	0.039415	0.001976	19.9488	130.521	13.3187	0.110334	0.967630	-0.179313	-0.180695	0.021073	19.9488	-0.180105	-61.2715	-0.000344	NaN
529	1.000000	1.011025	7.37023e+06	-50639.1	1005.82	-29755	0.000000	0.000000	7.011138	-0.007520	NaN	0.000000	0.001596	0.001720	28.0819	0.037821	0.001980	19.0969	56.5179	-165.553	-0.044275	1.009739	-0.137300	-0.138586	-0.007520	19.0969	-0.137004	-10.3856	0.000724	NaN
529	1.000000	1.053065	7.37023e+06	-50639.1	1005.82	-29755	0.000000	0.000000	7.053179	0.001838	NaN	0.000000	0.001638	0.001646	28.0818	0.128124	0.001957	65.4814	111.974	16.0955	0.024432	1.051704	-0.095259	-0.096620	0.001838	65.4814	-0.095280	-1.431501	-0.001284	NaN
529	1.000000	1.095080	7.37023e+06	-50639.1	1005.82	-29755	0.000000	0.000000	7.095198	0.091349	NaN	0.000000	0.001582	0.001670	28.0832	0.094992	0.002049	46.3546	31.5936	-163.999	0.029863	1.093756	-0.053244	-0.054569	0.091349	46.3546	-0.054722	-0.126362	-0.722910	NaN
529	1.000000	1.137050	7.37023e+06	-50639.1	1005.82	-29755	0.000000	0.000000	7.137166	0.056624	NaN	0.000000	0.001666	0.001670	28.0834	0.013700	0.002097	6.531712	-26.4751	14.768	0.086439	1.135721	-0.011275	-0.012603	0.056624	6.531712	-0.017777	-0.011015	-5.140833	NaN
529	2.000000	1.161696	7.37023e+06	-50639.1	1005.82	-29755	0.000000	0.000000	7.162528	17.4621	NaN	0.000000	0.001680	0.001718	28.0835	14.8428	0.001816	8171.93	4.365805	-173.026	16.7745	1.161393	0.013372	0.013069	17.4621	8171.93	0.011769	0.011215	1557.04	70501.6
529	2.000000	1.172150	7.37023e+06	-50639.1	1005.82	-29755	0.000000	0.000000	7.173631	33.2513	NaN	0.000000	0.001694	0.001703	28.0823	23.8449	0.001767	13494.4	6.481850	1.399362	32.13	1.171863	0.023826	0.023539	33.2513	13494.4	0.021977	0.025745	1291.54	76838.1
529	2.000000	1.182643	7.37023e+06	-50639.1	1005.82	-29755	0.000000	0.000000	7.185159	58.4079	NaN	0.000000	0.001639	0.001655	28.0826	34.1559	0.001824	18722.1	7.489893	-179.976	60.1851	1.182278	0.034319	0.033953	58.4079	18722.1	0.031979	0.044945	1299.53	80683.5
529	2.000000	1.193127	7.37023e+06	-50639.1	1005.82	-29755	0.000000	0.000000	7.196864	88.1136	NaN	0.000000	0.001627	0.001710	28.0824	44.0267	0.001785	24661.1	12.2455	-8.321047	89.0679	1.192655	0.044802	0.044331	88.1136	24661.1	0.042122	0.069629	1265.48	85387.1
529	2.000000	1.203637	7.37023e+06	-50639.1	1005.82	-29755	0.000000	0.000000	7.209089	129.815	NaN	0.000000	0.001588	0.001686	28.0837	54.1086	0.001942	27864.1	8.063971	174.193	129.737	1.203335	0.055312	0.055011	129.815	27864.1	0.051818	0.098116	1323.08	81273.5
529	2.000000	1.214164	7.37023e+06	-50639.1	1005.82	-29755	0.000000	0.000000	7.221527	176.302	NaN	0.000000	0.001634	0.001686	28.0838	64.0168	0.001727	37077.7	7.830995	-8.340650	179.339	1.213862	0.065839	0.065537	176.302	37077.7	0.062273	0.134085	1314.86	92511.4
529	2.000000	1.224593	7.37023e+06	-50639.1	1005.82	-29755	0.000000	0.000000	7.234646	241.689	NaN	0.000000	0.001572	0.001705	28.0841	73.3366	0.001754	41815.9	7.812370	171.393	244.514	1.224224	0.076269	0.075899	241.689	41815.9	0.071934	0.172045	1404.8	92107.3
529	2.000000	1.234967	7.37023e+06	-50639.1	1005.82	-29755	0.000000	0.000000	7.248338	322.393	NaN	0.000000	0.001604	0.001657	28.0836	83.2401	0.001711	48650.2	1.323685	-4.269031	316.126	1.234701	0.086642	0.086377	322.393	48650.2	0.081672	0.214784	1501.01	95908.4
529	2.000000	1.245500	7.37023e+06	-50639.1	1005.82	-29755	0.000000	0.000000	7.262322	406.323	NaN	0.000000	0.001610	0.001656	28.0822	95.1019	0.001792	53076.5	6.007376	171.044	405.501	1.245201	0.097175	0.096877	406.323	53076.5	0.091434	0.262046	1550.58	94729.9
529	2.000000	1.254447	7.37023e+06	-50639.1	1005.82	-29755	0.000000	0.000000	7.274371	481.723	NaN	0.000000	0.001635	0.001717	28.0822	102.437	0.001796	57027.7	3.623697	172.44	477.007	1.254220	0.106123	0.105896	481.723	57027.7	0.099787	0.305960	1574.46	94194.8