File: remote_trans/data/nanoindenter/0828-1/data/Data_2025-08-06,11h17m57s/2025-07-22_16-23-58_1_551.txt
2025-07-22, 16:23:58, 1
Index	Phase	Displacement	Time	Pos X	Pos Y	Pos Z	Rot A	Rot B	Piezo Z	Force A	Force B	Gripper	Voltage A	Voltage B	Temperature	Amplitude force	Amplitude pos	Stiffness	Phase shift	Phase excitation	Force A raw	Displacement raw	HMax	HMax raw	Real Force	Real Stiffness	Contact Depth	Area	Hardness	Reduced Mod.
[#]	[#]	[um]	[s]	[um]	[um]	[um]	[m°]	[m°]	[um]	[uN]	[uN]	[V]	[V]	[V]	[°C]	[uN]	[um]	[N/m]	[°]	[°]	[uN]	[um]	[um]	[um]	[uN]	[N/m]	[um]	[um^2]	[MPa]	[MPa]
551	1.000000	0.002349	7.37044e+06	-49539.1	1005.82	-29758.6	0.000000	0.000000	6.002785	-0.035915	NaN	0.000000	0.001617	0.001803	28.0825	0.048393	0.001019	47.5059	138.754	-169.055	-0.025378	0.001070	-1.084145	-1.085425	-0.035915	47.5059	-1.083578	-3.016996E+14	1.190434E-16	NaN
551	1.000000	0.044337	7.37044e+06	-49539.1	1005.82	-29758.6	0.000000	0.000000	6.044778	0.085971	NaN	0.000000	0.001586	0.001801	28.0813	0.042463	0.001976	21.4911	-72.3984	13.0239	0.017708	0.042993	-1.042157	-1.043501	0.085971	21.4911	-1.045158	-9.189996E+13	-9.354849E-16	NaN
551	1.000000	0.086327	7.37044e+06	-49539.1	1005.82	-29758.6	0.000000	0.000000	6.086762	-0.060036	NaN	0.000000	0.001563	0.001841	28.0808	0.100169	0.002227	44.9807	91.5908	-164.8	-0.092969	0.085049	-1.000167	-1.001446	-0.060036	44.9807	-0.999166	-2.210755E+13	2.715629E-15	NaN
551	1.000000	0.128339	7.37044e+06	-49539.1	1005.82	-29758.6	0.000000	0.000000	6.128777	0.023955	NaN	0.000000	0.001595	0.001773	28.0811	0.112709	0.001912	58.9399	-81.1428	18.5381	-0.005329	0.126980	-0.958155	-0.959514	0.023955	58.9399	-0.958460	-6.253256E+12	-3.830830E-15	NaN
551	1.000000	0.170337	7.37044e+06	-49539.1	1005.82	-29758.6	0.000000	0.000000	6.170771	-0.097986	NaN	0.000000	0.001593	0.001827	28.0825	0.046708	0.001899	24.6004	158.801	-164.514	-0.065423	0.169014	-0.916157	-0.917481	-0.097986	24.6004	-0.913170	-1.530987E+12	6.400194E-14	NaN
551	1.000000	0.212398	7.37044e+06	-49539.1	1005.82	-29758.6	0.000000	0.000000	6.212833	-0.046075	NaN	0.000000	0.001597	0.001778	28.0822	0.062185	0.001918	32.4252	-88.3172	16.5469	-0.095082	0.211007	-0.874096	-0.875487	-0.046075	32.4252	-0.873031	-4.389794E+11	1.049584E-13	NaN
551	1.000000	0.254404	7.37044e+06	-49539.1	1005.82	-29758.7	0.000000	0.000000	6.254837	-0.112328	NaN	0.000000	0.001554	0.001792	28.0824	0.048908	0.002103	23.2594	-147.055	-166.529	-0.112010	0.253070	-0.832090	-0.833424	-0.112328	23.2594	-0.828468	-1.094016E+11	1.026746E-12	NaN
551	1.000000	0.296443	7.37044e+06	-49539.1	1005.82	-29758.7	0.000000	0.000000	6.296876	-0.125667	NaN	0.000000	0.001599	0.001792	28.0808	0.123482	0.001913	64.5579	6.841122	15.0851	-0.108715	0.295061	-0.790051	-0.791433	-0.125667	64.5579	-0.788591	-3.147345E+10	3.992802E-12	NaN
551	1.000000	0.338423	7.37044e+06	-49539.1	1005.82	-29758.7	0.000000	0.000000	6.338864	0.078790	NaN	0.000000	0.001588	0.001787	28.0811	0.182336	0.001944	93.7831	146.427	-162.69	-0.027200	0.337074	-0.748071	-0.749420	0.078790	93.7831	-0.748701	-9.026960E+9	-8.728319E-12	NaN
551	1.000000	0.380446	7.37044e+06	-49539.1	1005.82	-29758.7	0.000000	0.000000	6.380881	-0.073384	NaN	0.000000	0.001563	0.001815	28.0813	0.039285	0.001946	20.1926	148.827	17.0876	-0.083809	0.379102	-0.706048	-0.707393	-0.073384	20.1926	-0.703322	-2.172191E+9	3.378328E-11	NaN
551	1.000000	0.422462	7.37044e+06	-49539.1	1005.82	-29758.7	0.000000	0.000000	6.422896	-0.077683	NaN	0.000000	0.001565	0.001775	28.0821	0.067673	0.001919	35.2715	-136.405	-164.6	-0.078696	0.421158	-0.664032	-0.665336	-0.077683	35.2715	-0.662380	-5.985079E+8	1.297943E-10	NaN
551	1.000000	0.464491	7.37044e+06	-49539.1	1005.82	-29758.7	0.000000	0.000000	6.464926	-0.048470	NaN	0.000000	0.001584	0.001742	28.0824	0.018883	0.002062	9.158888	98.2816	17.1086	0.018895	0.463135	-0.622003	-0.623360	-0.048470	9.158888	-0.618034	-1.474382E+8	3.287481E-10	NaN
551	1.000000	0.506491	7.37044e+06	-49539.1	1005.82	-29758.7	0.000000	0.000000	6.506926	-0.049962	NaN	0.000000	0.001614	0.001783	28.0824	0.033870	0.001955	17.3274	101.585	-162.124	-0.046046	0.505192	-0.580003	-0.581302	-0.049962	17.3274	-0.577841	-4.120208E+7	1.212611E-9	NaN
551	1.000000	0.548505	7.37044e+06	-49539.1	1005.82	-29758.7	0.000000	0.000000	6.548940	-0.055288	NaN	0.000000	0.001576	0.001718	28.0825	0.024115	0.002094	11.5172	-141.122	16.9499	-0.065374	0.547168	-0.537990	-0.539326	-0.055288	11.5172	-0.534389	-1.031602E+7	5.359417E-9	NaN
551	1.000000	0.590540	7.37044e+06	-49539.1	1005.82	-29758.7	0.000000	0.000000	6.590973	-0.102558	NaN	0.000000	0.001591	0.001713	28.0815	0.117445	0.001929	60.8839	46.4601	-167.171	-0.015121	0.589243	-0.495954	-0.497252	-0.102558	60.8839	-0.494691	-2.89015e+06	3.548520E-8	NaN
551	1.000000	0.632576	7.37044e+06	-49539.1	1005.82	-29758.7	0.000000	0.000000	6.633009	-0.098050	NaN	0.000000	0.001594	0.001724	28.0814	0.024448	0.001976	12.3733	102.773	12.9287	-0.112579	0.631170	-0.453918	-0.455324	-0.098050	12.3733	-0.447975	-639470	1.533305E-7	NaN
551	1.000000	0.674589	7.37044e+06	-49539.1	1005.82	-29758.7	0.000000	0.000000	6.675025	-0.031176	NaN	0.000000	0.001538	0.001724	28.0817	0.020728	0.002053	10.0948	-42.291	-162.157	0.008816	0.673266	-0.411905	-0.413229	-0.031176	10.0948	-0.409589	-183042	1.703236E-7	NaN
551	1.000000	0.716559	7.37044e+06	-49539.1	1005.82	-29758.7	0.000000	0.000000	6.716994	-0.054873	NaN	0.000000	0.001536	0.001711	28.0825	0.094980	0.002057	46.1665	9.450152	16.1269	-0.107584	0.715277	-0.369935	-0.371217	-0.054873	46.1665	-0.369044	-48123.2	1.140261E-6	NaN
551	1.000000	0.758602	7.37044e+06	-49539.1	1005.82	-29758.7	0.000000	0.000000	6.759041	0.023287	NaN	0.000000	0.001594	0.001708	28.0822	0.072311	0.001935	37.3768	-138.15	-167.86	-0.009019	0.757306	-0.327892	-0.329188	0.023287	37.3768	-0.328359	-12342.8	-1.886697E-6	NaN
551	1.000000	0.800610	7.37044e+06	-49539.1	1005.82	-29758.7	0.000000	0.000000	6.801043	-0.118127	NaN	0.000000	0.001634	0.001685	28.0821	0.115115	0.002093	54.9997	-94.6793	17.6079	-0.159980	0.799278	-0.285884	-0.287216	-0.118127	54.9997	-0.284273	-2737.39	4.315320E-5	NaN
551	1.000000	0.842674	7.37044e+06	-49539.1	1005.82	-29758.7	0.000000	0.000000	6.843107	-0.094945	NaN	0.000000	0.001556	0.001709	28.081	0.135424	0.002160	62.6917	-75.0191	-164.901	-0.042640	0.841340	-0.243821	-0.245154	-0.094945	62.6917	-0.242685	-633.04	0.000150	NaN
551	1.000000	0.884673	7.37044e+06	-49539.1	1005.82	-29758.7	0.000000	0.000000	6.885110	-0.014227	NaN	0.000000	0.001666	0.001788	28.0838	0.039977	0.001968	20.315	68.2617	13.7588	-0.003452	0.883322	-0.201821	-0.203173	-0.014227	20.315	-0.201296	-138.348	0.000103	NaN
551	1.000000	0.926689	7.37044e+06	-49539.1	1005.82	-29758.7	0.000000	0.000000	6.927124	-0.050435	NaN	0.000000	0.001596	0.001722	28.0815	0.067909	0.001934	35.1108	105.925	-164.668	-0.039599	0.925397	-0.159805	-0.161097	-0.050435	35.1108	-0.158728	-26.0224	0.001938	NaN
551	1.000000	0.968704	7.37044e+06	-49539.1	1005.82	-29758.7	0.000000	0.000000	6.969141	-0.002737	NaN	0.000000	0.001637	0.001792	28.0826	0.095547	0.002129	44.872	123.742	16.695	-0.013252	0.967368	-0.117790	-0.119127	-0.002737	44.872	-0.117744	-4.348566	0.000629	NaN
551	1.000000	1.010719	7.37044e+06	-49539.1	1005.82	-29758.7	0.000000	0.000000	7.011154	-0.052627	NaN	0.000000	0.001613	0.001761	28.083	0.047070	0.002001	23.5269	-72.6855	-161.896	-0.135208	1.009415	-0.075775	-0.077079	-0.052627	23.5269	-0.074098	-0.437623	0.120256	NaN
551	1.000000	1.052728	7.37044e+06	-49539.1	1005.82	-29758.7	0.000000	0.000000	7.053160	-0.133046	NaN	0.000000	0.001599	0.001769	28.0831	0.098424	0.002001	49.1815	-36.9619	13.5246	-0.119207	1.051347	-0.033766	-0.035147	-0.133046	49.1815	-0.031737	-0.025757	5.165340	NaN
551	2.000000	1.092344	7.37044e+06	-49539.1	1005.82	-29758.7	0.000000	0.000000	7.093171	9.478465	NaN	0.000000	0.001660	0.001736	28.083	9.662312	0.001699	5686.91	7.089558	-171.406	8.899741	1.092025	0.005850	0.005531	9.478465	5686.91	0.004600	0.003771	2513.49	84609.5
551	2.000000	1.102763	7.37044e+06	-49539.1	1005.82	-29758.7	0.000000	0.000000	7.104354	28.0345	NaN	0.000000	0.001621	0.001729	28.0813	22.4145	0.001878	11937.7	7.858988	1.694791	26.5589	1.102389	0.016269	0.015895	28.0345	11937.7	0.014508	0.014635	1915.6	90156.8
551	2.000000	1.113210	7.37044e+06	-49539.1	1005.82	-29758.7	0.000000	0.000000	7.115798	52.3134	NaN	0.000000	0.001602	0.001667	28.0815	31.979	0.001598	20014.7	3.978278	179.965	51.4244	1.112953	0.026716	0.026458	52.3134	20014.7	0.024755	0.030572	1711.16	104583
551	2.000000	1.123650	7.37044e+06	-49539.1	1005.82	-29758.7	0.000000	0.000000	7.127727	88.5062	NaN	0.000000	0.001609	0.001703	28.0817	42.6153	0.001788	23838.7	3.740536	-0.381136	84.287	1.123329	0.037156	0.036835	88.5062	23838.7	0.034372	0.050293	1759.81	97118.3
551	2.000000	1.134136	7.37044e+06	-49539.1	1005.82	-29758.7	0.000000	0.000000	7.139992	131.781	NaN	0.000000	0.001587	0.001695	28.0825	53.9706	0.001821	29630.7	6.978695	174.209	128.833	1.133860	0.047641	0.047366	131.781	29630.7	0.044306	0.075629	1742.47	98439.9
551	2.000000	1.144610	7.37044e+06	-49539.1	1005.82	-29758.7	0.000000	0.000000	7.152571	182.961	NaN	0.000000	0.001574	0.001699	28.0825	63.816	0.001799	35474.1	6.130385	-6.335516	177.647	1.144332	0.058116	0.057838	182.961	35474.1	0.054248	0.105993	1726.16	99550.9
551	2.000000	1.155096	7.37044e+06	-49539.1	1005.82	-29758.7	0.000000	0.000000	7.165737	248.141	NaN	0.000000	0.001606	0.001727	28.0827	73.2082	0.001790	40905	4.444222	175.042	245.195	1.154768	0.068602	0.068274	248.141	40905	0.064052	0.140739	1763.12	99618.8
551	2.000000	1.165668	7.37044e+06	-49539.1	1005.82	-29758.7	0.000000	0.000000	7.178901	311.183	NaN	0.000000	0.001577	0.001742	28.0811	83.9947	0.001829	45912	3.457323	-5.188393	309.241	1.165319	0.079174	0.078825	311.183	45912	0.074090	0.181124	1718.07	98562.5
551	2.000000	1.176117	7.37045e+06	-49539.1	1005.82	-29758.7	0.000000	0.000000	7.192865	396.667	NaN	0.000000	0.001593	0.001685	28.0814	93.9601	0.001746	53828	5.702075	171.11	393.068	1.175848	0.089623	0.089354	396.667	53828	0.084096	0.226107	1754.33	103425
551	2.000000	1.186585	7.37045e+06	-49539.1	1005.82	-29758.7	0.000000	0.000000	7.206506	473.835	NaN	0.000000	0.001648	0.001728	28.0813	103.807	0.001799	57715	4.328613	-6.947118	468.355	1.186307	0.100091	0.099813	473.835	57715	0.093934	0.274854	1723.95	100580
551	2.000000	1.190064	7.37045e+06	-49539.1	1005.82	-29758.7	0.000000	0.000000	7.211321	506.341	NaN	0.000000	0.001632	0.001724	28.0813	107.82	0.001906	56582.2	4.448676	172.584	502.409	1.189682	0.103569	0.103188	506.341	56582.2	0.096858	0.290198	1744.81	95963.5