File: remote_trans/data/nanoindenter/0828-1/data/Data_2025-08-06,11h17m57s/2025-07-22_16-23-58_1_731.txt
2025-07-22, 16:23:58, 1
Index	Phase	Displacement	Time	Pos X	Pos Y	Pos Z	Rot A	Rot B	Piezo Z	Force A	Force B	Gripper	Voltage A	Voltage B	Temperature	Amplitude force	Amplitude pos	Stiffness	Phase shift	Phase excitation	Force A raw	Displacement raw	HMax	HMax raw	Real Force	Real Stiffness	Contact Depth	Area	Hardness	Reduced Mod.
[#]	[#]	[um]	[s]	[um]	[um]	[um]	[m°]	[m°]	[um]	[uN]	[uN]	[V]	[V]	[V]	[°C]	[uN]	[um]	[N/m]	[°]	[°]	[uN]	[um]	[um]	[um]	[uN]	[N/m]	[um]	[um^2]	[MPa]	[MPa]
731	1.000000	0.002659	7.3722e+06	-40539.1	1005.82	-29789.7	0.000000	0.000000	6.002806	-0.012876	NaN	0.000000	0.001618	0.001755	28.0808	0.087967	0.000976	90.1608	64.0811	-169.466	-0.012049	0.001462	-1.018133	-1.019330	-0.012876	90.1608	-1.018026	-3.966369E+13	3.246183E-16	NaN
731	1.000000	0.042592	7.37221e+06	-40539.1	1005.82	-29789.7	0.000000	0.000000	6.042738	-0.045906	NaN	0.000000	0.001628	0.001748	28.0806	0.022365	0.002082	10.7397	-45.7846	-164.571	0.031299	0.041287	-0.978200	-0.979506	-0.045906	10.7397	-0.974994	-1.044629E+13	4.394508E-15	NaN
731	1.000000	0.082613	7.37221e+06	-40539.1	1005.82	-29789.7	0.000000	0.000000	6.082759	-0.038924	NaN	0.000000	0.001669	0.001751	28.0805	0.031172	0.001896	16.4451	-156.354	-166.108	-0.112969	0.081301	-0.938179	-0.939491	-0.038924	16.4451	-0.936404	-3.152247E+12	1.234805E-14	NaN
731	1.000000	0.122645	7.37221e+06	-40539.1	1005.82	-29789.7	0.000000	0.000000	6.122792	-0.010811	NaN	0.000000	0.001661	0.001699	28.0819	0.116557	0.002079	56.0712	-47.7584	-161.184	-0.022827	0.121275	-0.898147	-0.899517	-0.010811	56.0712	-0.898002	-9.551544E+11	1.131817E-14	NaN
731	1.000000	0.162622	7.37221e+06	-40539.1	1005.82	-29789.7	0.000000	0.000000	6.162768	-0.037630	NaN	0.000000	0.001585	0.001748	28.0818	0.095666	0.002026	47.2196	174.152	-166.268	-0.023022	0.161365	-0.858170	-0.859427	-0.037630	47.2196	-0.857573	-2.711843E+11	1.387600E-13	NaN
731	1.000000	0.202692	7.37221e+06	-40539.1	1005.82	-29789.7	0.000000	0.000000	6.202840	0.028687	NaN	0.000000	0.001618	0.001753	28.082	0.072736	0.001897	38.3385	-45.385	-165.76	-0.021084	0.201340	-0.818100	-0.819452	0.028687	38.3385	-0.818661	-8.054873E+10	-3.561448E-13	NaN
731	1.000000	0.242649	7.37221e+06	-40539.1	1005.82	-29789.7	0.000000	0.000000	6.242796	-0.024786	NaN	0.000000	0.001549	0.001810	28.082	0.001292	0.002036	0.634760	-86.6157	-166.958	-0.089314	0.241339	-0.778143	-0.779453	-0.024786	0.634760	-0.748858	-9.071259E+9	2.732322E-12	NaN
731	1.000000	0.282718	7.37221e+06	-40539.1	1005.82	-29789.7	0.000000	0.000000	6.282862	-0.067602	NaN	0.000000	0.001593	0.001746	28.0809	0.094521	0.002032	46.5063	150.532	-166.236	-0.093445	0.281388	-0.738074	-0.739404	-0.067602	46.5063	-0.736984	-6.251372E+9	1.081398E-11	NaN
731	1.000000	0.322697	7.37221e+06	-40539.1	1005.82	-29789.7	0.000000	0.000000	6.322844	-0.018566	NaN	0.000000	0.001611	0.001770	28.0806	0.141864	0.001893	74.925	125.266	-166.72	-0.020862	0.321414	-0.698095	-0.699379	-0.018566	74.925	-0.697909	-1.832197E+9	1.013327E-11	NaN
731	1.000000	0.362744	7.37221e+06	-40539.1	1005.82	-29789.7	0.000000	0.000000	6.362891	-0.005992	NaN	0.000000	0.001596	0.001802	28.0809	0.044487	0.001996	22.2931	-22.2158	-164.01	0.004831	0.361470	-0.658048	-0.659322	-0.005992	22.2931	-0.657847	-5.187667E+8	1.154987E-11	NaN
731	1.000000	0.402731	7.37221e+06	-40539.1	1005.82	-29789.7	0.000000	0.000000	6.402876	-0.044371	NaN	0.000000	0.001587	0.001760	28.0816	0.110743	0.001927	57.4634	70.7395	-164.114	-0.122688	0.401412	-0.618062	-0.619380	-0.044371	57.4634	-0.617483	-1.448857E+8	3.062495E-10	NaN
731	1.000000	0.442779	7.37221e+06	-40539.1	1005.82	-29789.7	0.000000	0.000000	6.442925	-0.029747	NaN	0.000000	0.001602	0.001718	28.0816	0.052286	0.002182	23.9644	-53.2827	-167.382	-0.034532	0.441439	-0.578013	-0.579353	-0.029747	23.9644	-0.577082	-4.022020E+7	7.396036E-10	NaN
731	1.000000	0.482790	7.37221e+06	-40539.1	1005.82	-29789.7	0.000000	0.000000	6.482940	0.059616	NaN	0.000000	0.001585	0.001743	28.0817	0.069681	0.001993	34.9664	-38.7305	-162.939	0.057456	0.481543	-0.538002	-0.539249	0.059616	34.9664	-0.539280	-1.206082E+7	-4.942987E-9	NaN
731	1.000000	0.522795	7.37221e+06	-40539.1	1005.82	-29789.7	0.000000	0.000000	6.522942	0.004618	NaN	0.000000	0.001578	0.001759	28.0818	0.092842	0.002016	46.0538	-47.7529	-166.629	-0.033746	0.521493	-0.497998	-0.499299	0.004618	46.0538	-0.498073	-3.22201e+06	-1.433174E-9	NaN
731	1.000000	0.562809	7.37221e+06	-40539.1	1005.82	-29789.7	0.000000	0.000000	6.562956	0.007731	NaN	0.000000	0.001589	0.001733	28.0806	0.030543	0.002070	14.7559	-86.2067	-165.198	-0.025491	0.561488	-0.457983	-0.459305	0.007731	14.7559	-0.458376	-895771	-8.630707E-9	NaN
731	1.000000	0.602827	7.37221e+06	-40539.1	1005.82	-29789.7	0.000000	0.000000	6.602973	-0.021178	NaN	0.000000	0.001615	0.001727	28.0805	0.056816	0.001920	29.5969	136.511	-161.636	-0.068368	0.601535	-0.417965	-0.419257	-0.021178	29.5969	-0.417429	-236556	8.952751E-8	NaN
731	1.000000	0.642851	7.37221e+06	-40539.1	1005.82	-29789.7	0.000000	0.000000	6.642997	-0.042546	NaN	0.000000	0.001588	0.001710	28.0808	0.020715	0.001897	10.9188	-53.2358	-165.157	-0.060540	0.641545	-0.377941	-0.379247	-0.042546	10.9188	-0.375019	-58659.7	7.252949E-7	NaN
731	1.000000	0.682838	7.37221e+06	-40539.1	1005.82	-29789.7	0.000000	0.000000	6.682984	-0.020021	NaN	0.000000	0.001582	0.001735	28.082	0.055327	0.002096	26.3905	105.286	-165.877	0.003033	0.681542	-0.337954	-0.339250	-0.020021	26.3905	-0.337385	-16727	1.196934E-6	NaN
731	1.000000	0.722893	7.37221e+06	-40539.1	1005.82	-29789.7	0.000000	0.000000	6.723040	-0.017781	NaN	0.000000	0.001575	0.001683	28.0818	0.078047	0.002024	38.5705	-149.624	-164.52	0.019286	0.721597	-0.297899	-0.299195	-0.017781	38.5705	-0.297554	-4327.02	4.109383E-6	NaN
731	1.000000	0.762889	7.37221e+06	-40539.1	1005.82	-29789.7	0.000000	0.000000	6.763033	-0.080801	NaN	0.000000	0.001607	0.001720	28.082	0.135658	0.002025	67.0009	132.368	-161.007	-0.066062	0.761597	-0.257903	-0.259195	-0.080801	67.0009	-0.256999	-1054.05	7.665799E-5	NaN
731	1.000000	0.802918	7.37221e+06	-40539.1	1005.82	-29789.7	0.000000	0.000000	6.803067	0.028915	NaN	0.000000	0.001652	0.001704	28.0806	0.108107	0.001903	56.7997	71.4578	-164.964	-0.016103	0.801653	-0.217874	-0.219139	0.028915	56.7997	-0.218256	-260.48	-0.000111	NaN
731	1.000000	0.842957	7.37221e+06	-40539.1	1005.82	-29789.7	0.000000	0.000000	6.843101	-0.104517	NaN	0.000000	0.001631	0.001667	28.0807	0.148330	0.002064	71.8597	-149.029	-165.18	-0.027953	0.841626	-0.177835	-0.179166	-0.104517	71.8597	-0.176744	-53.6898	0.001947	NaN
731	1.000000	0.882904	7.37221e+06	-40539.1	1005.82	-29789.7	0.000000	0.000000	6.883051	-0.002324	NaN	0.000000	0.001612	0.001658	28.0808	0.098609	0.002082	47.3593	-76.817	-164.199	0.051660	0.881647	-0.137888	-0.139146	-0.002324	47.3593	-0.137851	-10.7762	0.000216	NaN
731	1.000000	0.922978	7.37221e+06	-40539.1	1005.82	-29789.7	0.000000	0.000000	6.923122	-0.084305	NaN	0.000000	0.001634	0.001694	28.0806	0.034177	0.001953	17.4972	-155.912	-160.822	-0.038067	0.921643	-0.097814	-0.099149	-0.084305	17.4972	-0.094200	-1.352527	0.062332	NaN
731	1.000000	0.963009	7.37221e+06	-40539.1	1005.82	-29789.7	0.000000	0.000000	6.963156	-0.004691	NaN	0.000000	0.001630	0.001666	28.0818	0.120966	0.002039	59.3311	9.239224	-165.962	0.017210	0.961683	-0.057783	-0.059109	-0.004691	59.3311	-0.057724	-0.154786	0.030304	NaN
731	1.000000	1.002993	7.37221e+06	-40539.1	1005.82	-29789.7	0.000000	0.000000	7.003139	-0.037918	NaN	0.000000	0.001619	0.001693	28.0818	0.069118	0.001893	36.5127	126.176	-163.896	-0.053067	1.001696	-0.017799	-0.019096	-0.037918	36.5127	-0.017020	-0.010523	3.603145	NaN
731	2.000000	1.030591	7.37221e+06	-40539.1	1005.82	-29789.7	0.000000	0.000000	7.031285	13.3099	NaN	0.000000	0.001604	0.001666	28.0817	11.8944	0.001787	6655.98	3.224952	-170.084	13.0411	1.030283	0.009798	0.009490	13.3099	6655.98	0.008299	0.007351	1810.54	70925.5
731	2.000000	1.040516	7.37221e+06	-40539.1	1005.82	-29789.7	0.000000	0.000000	7.042225	37.99	NaN	0.000000	0.001552	0.001625	28.0804	23.7519	0.001902	12486	3.315248	-172.971	36.9726	1.040181	0.019724	0.019388	37.99	12486	0.017442	0.018681	2033.6	83463.4
731	2.000000	1.050491	7.37221e+06	-40539.1	1005.82	-29789.7	0.000000	0.000000	7.053464	68.7647	NaN	0.000000	0.001709	0.001674	28.0806	32.7247	0.001803	18151.2	4.608756	179.912	67.3463	1.050165	0.029698	0.029373	68.7647	18151.2	0.026857	0.034481	1994.28	89307.8
731	2.000000	1.060503	7.37221e+06	-40539.1	1005.82	-29789.7	0.000000	0.000000	7.064969	105.096	NaN	0.000000	0.001653	0.001659	28.0809	42.6041	0.001817	23442.8	7.589496	175.472	106.194	1.060142	0.039711	0.039349	105.096	23442.8	0.036348	0.054932	1913.21	91384
731	2.000000	1.070445	7.37221e+06	-40539.1	1005.82	-29789.7	0.000000	0.000000	7.076715	148.992	NaN	0.000000	0.001639	0.001629	28.081	52.5374	0.001838	28584.5	5.931895	175.006	146.162	1.070208	0.049652	0.049416	148.992	28584.5	0.045743	0.079711	1869.14	92500.4
731	2.000000	1.080448	7.37221e+06	-40539.1	1005.82	-29789.7	0.000000	0.000000	7.088677	196.647	NaN	0.000000	0.001628	0.001674	28.0825	59.1624	0.001740	33997.2	1.960348	178.245	197.743	1.080217	0.059656	0.059425	196.647	33997.2	0.055318	0.109557	1794.93	93841.9
731	2.000000	1.090455	7.37221e+06	-40539.1	1005.82	-29789.7	0.000000	0.000000	7.101237	258.781	NaN	0.000000	0.001631	0.001698	28.0821	68.3642	0.001773	38549.9	2.450178	176.859	259.253	1.090107	0.069663	0.069315	258.781	38549.9	0.064628	0.142927	1810.59	93162.1
731	2.000000	1.100509	7.37221e+06	-40539.1	1005.82	-29789.7	0.000000	0.000000	7.113562	314.037	NaN	0.000000	0.001640	0.001680	28.0821	78.9195	0.001765	44706.7	4.272525	173.602	318.068	1.100194	0.079717	0.079402	314.037	44706.7	0.074449	0.182654	1719.3	95572.3
731	2.000000	1.110441	7.37221e+06	-40539.1	1005.82	-29789.7	0.000000	0.000000	7.126755	393.389	NaN	0.000000	0.001607	0.001710	28.0813	87.6393	0.001800	48698.4	3.552502	174.119	393.261	1.110162	0.089649	0.089370	393.389	48698.4	0.083590	0.223723	1758.38	94066.1
731	2.000000	1.120308	7.37221e+06	-40539.1	1005.82	-29789.7	0.000000	0.000000	7.139796	470.61	NaN	0.000000	0.001610	0.001682	28.0808	96.7762	0.001711	56571	4.990301	171.158	467.032	1.120009	0.099516	0.099217	470.61	56571	0.093277	0.271461	1733.62	99200.4
731	2.000000	1.124870	7.37221e+06	-40539.1	1005.82	-29789.7	0.000000	0.000000	7.146020	511.085	NaN	0.000000	0.001604	0.001683	28.0811	98.25	0.001710	57449.9	-0.790964	-2.968302	506.333	1.124565	0.104077	0.103773	511.085	57449.9	0.097405	0.293114	1743.64	96949.2