File: remote_trans/data/nanoindenter/0828-1/data/Data_2025-08-06,11h17m57s/2025-07-22_16-23-58_1_1051.txt
2025-07-22, 16:23:58, 1
Index	Phase	Displacement	Time	Pos X	Pos Y	Pos Z	Rot A	Rot B	Piezo Z	Force A	Force B	Gripper	Voltage A	Voltage B	Temperature	Amplitude force	Amplitude pos	Stiffness	Phase shift	Phase excitation	Force A raw	Displacement raw	HMax	HMax raw	Real Force	Real Stiffness	Contact Depth	Area	Hardness	Reduced Mod.
[#]	[#]	[um]	[s]	[um]	[um]	[um]	[m°]	[m°]	[um]	[uN]	[uN]	[V]	[V]	[V]	[°C]	[uN]	[um]	[N/m]	[°]	[°]	[uN]	[um]	[um]	[um]	[uN]	[N/m]	[um]	[um^2]	[MPa]	[MPa]
1051	1.000000	0.002884	7.37532e+06	-52689.1	1055.82	-29748.4	0.000000	0.000000	6.002800	0.051626	NaN	0.000000	0.001706	0.001761	28.0842	0.058769	0.000975	60.281	129.221	-168.057	0.047913	0.001637	-0.702330	-0.703577	0.051626	60.281	-0.702972	-2.148394E+9	-2.403022E-11	NaN
1051	1.000000	0.032820	7.37532e+06	-52689.1	1055.82	-29748.4	0.000000	0.000000	6.032735	0.041617	NaN	0.000000	0.001626	0.001722	28.0834	0.063636	0.001981	32.1176	80.171	13.2113	0.045620	0.031472	-0.672394	-0.673742	0.041617	32.1176	-0.673366	-8.461603E+8	-4.918286E-11	NaN
1051	1.000000	0.062818	7.37532e+06	-52689.1	1055.82	-29748.4	0.000000	0.000000	6.062732	0.022206	NaN	0.000000	0.001687	0.001748	28.084	0.039954	0.001989	20.0855	57.3315	-167.674	0.059498	0.061543	-0.642396	-0.643671	0.022206	20.0855	-0.643225	-3.269919E+8	-6.790939E-11	NaN
1051	1.000000	0.092844	7.37532e+06	-52689.1	1055.82	-29748.4	0.000000	0.000000	6.092757	-0.020515	NaN	0.000000	0.001642	0.001774	28.0827	0.123928	0.002024	61.2278	-47.223	16.4879	0.037185	0.091419	-0.612369	-0.613795	-0.020515	61.2278	-0.612118	-1.222514E+8	1.678069E-10	NaN
1051	1.000000	0.122835	7.37532e+06	-52689.1	1055.82	-29748.4	0.000000	0.000000	6.122751	0.054731	NaN	0.000000	0.001682	0.001787	28.0826	0.088758	0.002002	44.3285	155.952	-162.077	0.012899	0.121514	-0.582378	-0.583699	0.054731	44.3285	-0.583304	-4.901439E+7	-1.116625E-9	NaN
1051	1.000000	0.152833	7.37532e+06	-52689.1	1055.82	-29748.4	0.000000	0.000000	6.152747	0.027753	NaN	0.000000	0.001675	0.001777	28.0828	0.153451	0.002051	74.8059	2.180605	14.3926	0.000704	0.151509	-0.552381	-0.553704	0.027753	74.8059	-0.552659	-1.848338E+7	-1.501516E-9	NaN
1051	1.000000	0.182900	7.37532e+06	-52689.1	1055.82	-29748.4	0.000000	0.000000	6.182813	0.004078	NaN	0.000000	0.001647	0.001710	28.0829	0.155633	0.001934	80.4668	-177.129	-162.026	0.061879	0.181581	-0.522314	-0.523633	0.004078	80.4668	-0.522352	-7.01945e+06	-5.809335E-10	NaN
1051	1.000000	0.212870	7.37533e+06	-52689.1	1055.82	-29748.4	0.000000	0.000000	6.212785	0.042987	NaN	0.000000	0.001659	0.001735	28.0826	0.066324	0.002065	32.1229	-164.962	10.6256	0.013110	0.211574	-0.492344	-0.493640	0.042987	32.1229	-0.493348	-2.76796e+06	-1.553020E-8	NaN
1051	1.000000	0.242906	7.37533e+06	-52689.1	1055.82	-29748.4	0.000000	0.000000	6.242819	-0.004504	NaN	0.000000	0.001732	0.001691	28.0842	0.135932	0.001909	71.189	-137.69	-162.371	-0.001186	0.241633	-0.462308	-0.463581	-0.004504	71.189	-0.462261	-1.01573e+06	4.433999E-9	NaN
1051	1.000000	0.272920	7.37533e+06	-52689.1	1055.82	-29748.4	0.000000	0.000000	6.272832	-0.041748	NaN	0.000000	0.001712	0.001703	28.084	0.054734	0.002188	25.0174	-72.2952	15.6	-0.072116	0.271555	-0.432294	-0.433658	-0.041748	25.0174	-0.431042	-368811	1.131965E-7	NaN
1051	1.000000	0.302921	7.37533e+06	-52689.1	1055.82	-29748.4	0.000000	0.000000	6.302833	-0.027545	NaN	0.000000	0.001685	0.001712	28.0838	0.151998	0.002120	71.6839	-28.9283	-167.739	-0.067633	0.301641	-0.402292	-0.403573	-0.027545	71.6839	-0.402004	-142748	1.929610E-7	NaN
1051	1.000000	0.332961	7.37533e+06	-52689.1	1055.82	-29748.4	0.000000	0.000000	6.332875	0.007870	NaN	0.000000	0.001667	0.001754	28.0845	0.062846	0.001968	31.9353	-101.94	19.6383	-0.029041	0.331556	-0.372252	-0.373658	0.007870	31.9353	-0.372437	-53853.2	-1.461388E-7	NaN
1051	1.000000	0.362964	7.37533e+06	-52689.1	1055.82	-29748.4	0.000000	0.000000	6.362875	-0.057134	NaN	0.000000	0.001636	0.001735	28.0837	0.052109	0.002188	23.8193	65.3035	-166.355	-0.041090	0.361655	-0.342250	-0.343558	-0.057134	23.8193	-0.340451	-18540.9	3.081533E-6	NaN
1051	1.000000	0.392968	7.37533e+06	-52689.1	1055.82	-29748.4	0.000000	0.000000	6.392884	0.083133	NaN	0.000000	0.001587	0.001717	28.0828	0.035683	0.001952	18.2832	-47.4455	13.2554	0.104345	0.391605	-0.312246	-0.313609	0.083133	18.2832	-0.315656	-8028.42	-1.035479E-5	NaN
1051	1.000000	0.422975	7.37533e+06	-52689.1	1055.82	-29748.4	0.000000	0.000000	6.422886	-0.057563	NaN	0.000000	0.001617	0.001731	28.0825	0.047014	0.002076	22.6478	-98.8042	-166.439	0.030769	0.421689	-0.282239	-0.283525	-0.057563	22.6478	-0.280333	-2387.74	2.410765E-5	NaN
1051	1.000000	0.452989	7.37533e+06	-52689.1	1055.82	-29748.4	0.000000	0.000000	6.452902	0.010861	NaN	0.000000	0.001617	0.001722	28.0826	0.041462	0.002034	20.3805	3.889225	14.3016	0.107433	0.451630	-0.252225	-0.253584	0.010861	20.3805	-0.252625	-902.635	-1.203226E-5	NaN
1051	1.000000	0.483030	7.37533e+06	-52689.1	1055.82	-29748.4	0.000000	0.000000	6.482945	0.030163	NaN	0.000000	0.001707	0.001718	28.083	0.061117	0.001950	31.3352	-14.8793	-164.817	-0.007233	0.481724	-0.222183	-0.223489	0.030163	31.3352	-0.222905	-309.046	-9.760147E-5	NaN
1051	1.000000	0.513009	7.37533e+06	-52689.1	1055.82	-29748.4	0.000000	0.000000	6.512921	-0.014810	NaN	0.000000	0.001612	0.001751	28.0841	0.099906	0.002059	48.5331	94.7691	14.7651	-0.014818	0.511669	-0.192205	-0.193544	-0.014810	48.5331	-0.191976	-97.0483	0.000153	NaN
1051	1.000000	0.543028	7.37533e+06	-52689.1	1055.82	-29748.4	0.000000	0.000000	6.542942	0.041733	NaN	0.000000	0.001586	0.001732	28.0843	0.133288	0.002093	63.6787	-68.0176	-164.536	0.022893	0.541729	-0.162186	-0.163485	0.041733	63.6787	-0.162678	-30.5786	-0.001365	NaN
1051	1.000000	0.573061	7.37533e+06	-52689.1	1055.82	-29748.4	0.000000	0.000000	6.572976	0.034660	NaN	0.000000	0.001613	0.001747	28.0841	0.028125	0.001970	14.2756	133.857	16.6643	0.053200	0.571706	-0.132153	-0.133508	0.034660	14.2756	-0.133973	-9.091966	-0.003812	NaN
1051	1.000000	0.603060	7.37533e+06	-52689.1	1055.82	-29748.4	0.000000	0.000000	6.602975	0.032329	NaN	0.000000	0.001585	0.001703	28.0844	0.104806	0.001823	57.4773	-116.23	-165.776	0.069266	0.601771	-0.102153	-0.103443	0.032329	57.4773	-0.102575	-2.081964	-0.015528	NaN
1051	1.000000	0.633075	7.37533e+06	-52689.1	1055.82	-29748.4	0.000000	0.000000	6.632988	-0.006899	NaN	0.000000	0.001613	0.001758	28.0839	0.049447	0.001972	25.0799	-58.3899	13.2432	0.060009	0.631709	-0.072139	-0.073505	-0.006899	25.0799	-0.071932	-0.383976	0.017968	NaN
1051	1.000000	0.663106	7.37533e+06	-52689.1	1055.82	-29748.4	0.000000	0.000000	6.663019	0.009396	NaN	0.000000	0.001651	0.001766	28.0832	0.035305	0.001935	18.2464	-13.8894	-164.285	0.007474	0.661754	-0.042108	-0.043460	0.009396	18.2464	-0.042494	-0.053874	-0.174411	NaN
1051	1.000000	0.693122	7.37533e+06	-52689.1	1055.82	-29748.4	0.000000	0.000000	6.693069	0.819259	NaN	0.000000	0.001706	0.001760	28.0829	0.568522	0.001975	287.864	22.4389	15.0841	0.807920	0.691743	-0.012092	-0.013470	0.819259	287.864	-0.014227	-0.008816	-92.9242	NaN
1051	2.000000	0.721667	7.37533e+06	-52689.1	1055.82	-29748.4	0.000000	0.000000	6.721926	8.415800	NaN	0.000000	0.001624	0.001792	28.083	4.258418	0.001823	2336.42	11.8852	-169.264	8.421964	0.721270	0.016453	0.016056	8.415800	2336.42	0.013751	0.013656	616.27	18266.8
1051	2.000000	0.729089	7.37533e+06	-52689.1	1055.82	-29748.4	0.000000	0.000000	6.729432	10.4593	NaN	0.000000	0.001631	0.001772	28.0828	4.955108	0.001933	2563.04	9.028615	12.1584	10.3747	0.728743	0.023875	0.023529	10.4593	2563.04	0.020814	0.023838	438.766	15166.8
1051	2.000000	0.736555	7.37533e+06	-52689.1	1055.82	-29748.4	0.000000	0.000000	6.737013	13.2504	NaN	0.000000	0.001618	0.001801	28.0841	5.405147	0.001943	2781.44	7.473337	-167.477	12.9701	0.736224	0.031341	0.031010	13.2504	2781.44	0.027768	0.036244	365.586	13348.2
1051	2.000000	0.744040	7.37533e+06	-52689.1	1055.82	-29748.4	0.000000	0.000000	6.744631	16.4719	NaN	0.000000	0.001623	0.001747	28.0841	5.709280	0.002032	2809.96	6.454026	12.1219	16.3071	0.743659	0.038826	0.038445	16.4719	2809.96	0.034430	0.050427	326.652	11432.6
1051	2.000000	0.751580	7.37533e+06	-52689.1	1055.82	-29748.4	0.000000	0.000000	6.752362	21.1245	NaN	0.000000	0.001624	0.001789	28.0841	6.140042	0.001859	3302.26	6.846613	-168.19	21.2272	0.751275	0.046366	0.046061	21.1245	3302.26	0.041568	0.068144	309.998	11557.7
1051	2.000000	0.759047	7.37533e+06	-52689.1	1055.82	-29748.4	0.000000	0.000000	6.759991	25.069	NaN	0.000000	0.001701	0.001767	28.0839	7.531243	0.002060	3655.38	10.7856	8.251426	24.9291	0.758630	0.053833	0.053416	25.069	3655.38	0.048689	0.088405	283.57	11232.3
1051	2.000000	0.766545	7.37533e+06	-52689.1	1055.82	-29748.4	0.000000	0.000000	6.767673	29.539	NaN	0.000000	0.001672	0.001768	28.084	8.100408	0.001941	4173.73	9.255322	-170.162	29.6694	0.766237	0.061331	0.061023	29.539	4173.73	0.056023	0.111935	263.894	11397.6
1051	2.000000	0.773993	7.37533e+06	-52689.1	1055.82	-29748.4	0.000000	0.000000	6.775308	34.0698	NaN	0.000000	0.001649	0.001796	28.0828	7.891189	0.002024	3898.18	4.242626	13.0582	33.5526	0.773676	0.068779	0.068462	34.0698	3898.18	0.062224	0.133905	254.433	9732.78
1051	2.000000	0.781505	7.37533e+06	-52689.1	1055.82	-29748.4	0.000000	0.000000	6.783033	39.2604	NaN	0.000000	0.001704	0.001711	28.0826	8.134767	0.001986	4096.32	8.933222	-169.859	39.187	0.781163	0.076291	0.075949	39.2604	4096.32	0.069102	0.160456	244.68	9343.05
1051	2.000000	0.789000	7.37533e+06	-52689.1	1055.82	-29748.4	0.000000	0.000000	6.790631	41.7677	NaN	0.000000	0.001634	0.001754	28.0828	8.705267	0.001857	4688.1	7.933728	9.492900	41.6637	0.788673	0.083786	0.083459	41.7677	4688.1	0.077104	0.194181	215.097	9720.01
1051	2.000000	0.796481	7.37533e+06	-52689.1	1055.82	-29748.4	0.000000	0.000000	6.798189	43.638	NaN	0.000000	0.001668	0.001748	28.083	9.184277	0.002021	4544.69	10.1283	-172.191	43.7562	0.796205	0.091268	0.090991	43.638	4544.69	0.084066	0.225967	193.117	8734.85
1051	2.000000	0.803991	7.37533e+06	-52689.1	1055.82	-29748.4	0.000000	0.000000	6.805718	44.0931	NaN	0.000000	0.001659	0.001760	28.0842	9.512025	0.001981	4802.59	9.527572	6.539484	43.8762	0.803642	0.098778	0.098428	44.0931	4802.59	0.091892	0.264371	166.785	8533.79
1051	2.000000	0.811492	7.37533e+06	-52689.1	1055.82	-29748.4	0.000000	0.000000	6.813245	44.7342	NaN	0.000000	0.001678	0.001734	28.0839	9.148291	0.001995	4584.57	7.195783	-169.495	44.8798	0.811147	0.106278	0.105933	44.7342	4584.57	0.098960	0.301469	148.387	7628.7
1051	2.000000	0.818983	7.37533e+06	-52689.1	1055.82	-29748.4	0.000000	0.000000	6.820720	44.3379	NaN	0.000000	0.001683	0.001792	28.084	9.572766	0.002059	4650.35	6.061037	12.5598	44.4787	0.818593	0.113769	0.113379	44.3379	4650.35	0.106618	0.344228	128.804	7241.63
1051	2.000000	0.819481	7.37533e+06	-52689.1	1055.82	-29748.4	0.000000	0.000000	6.821216	44.3006	NaN	0.000000	0.001689	0.001794	28.084	9.824656	0.002010	4887.32	9.323661	-170.673	44.3237	0.819142	0.114267	0.113928	44.3006	4887.32	0.107468	0.349139	126.885	7556.92