File: remote_trans/data/nanoindenter/0828-1/data/Data_2025-08-06,11h17m57s/2025-07-22_16-23-58_1_127.txt
2025-07-22, 16:23:58, 1
Index	Phase	Displacement	Time	Pos X	Pos Y	Pos Z	Rot A	Rot B	Piezo Z	Force A	Force B	Gripper	Voltage A	Voltage B	Temperature	Amplitude force	Amplitude pos	Stiffness	Phase shift	Phase excitation	Force A raw	Displacement raw	HMax	HMax raw	Real Force	Real Stiffness	Contact Depth	Area	Hardness	Reduced Mod.
[#]	[#]	[um]	[s]	[um]	[um]	[um]	[m°]	[m°]	[um]	[uN]	[uN]	[V]	[V]	[V]	[°C]	[uN]	[um]	[N/m]	[°]	[°]	[uN]	[um]	[um]	[um]	[uN]	[N/m]	[um]	[um^2]	[MPa]	[MPa]
127	1.000000	0.003293	7.36628e+06	-44989.1	955.818	-29774.4	0.000000	0.000000	6.002804	-0.016066	NaN	0.000000	0.001571	0.001747	28.0958	0.079122	0.000982	80.5565	-45.8034	-167.363	0.037614	0.002087	-1.148154	-1.149360	-0.016066	80.5565	-1.148004	-2.208323E+15	7.275151E-18	NaN
127	1.000000	0.045267	7.36628e+06	-44989.1	955.82	-29774.4	0.000000	0.000000	6.044778	-0.013525	NaN	0.000000	0.001580	0.001741	28.1299	0.099750	0.002035	49.0073	176.534	12.4265	0.081028	0.043880	-1.106180	-1.107567	-0.013525	49.0073	-1.105973	-6.029005E+14	2.243377E-17	NaN
127	1.000000	0.087249	7.36628e+06	-44989.1	955.818	-29774.4	0.000000	0.000000	6.086764	0.079012	NaN	0.000000	0.001561	0.001795	28.0975	0.049690	0.001871	26.5643	-109.478	-168.474	0.018465	0.085886	-1.064198	-1.065561	0.079012	26.5643	-1.066429	-1.775044E+14	-4.451248E-16	NaN
127	1.000000	0.129266	7.36628e+06	-44989.1	955.818	-29774.4	0.000000	0.000000	6.128777	-0.000322	NaN	0.000000	0.001544	0.001799	28.0803	0.050473	0.002147	23.5093	6.593385	10.7574	-0.023502	0.127928	-1.022181	-1.023519	-0.000322	23.5093	-1.022171	-4.509871E+13	7.148548E-18	NaN
127	1.000000	0.171279	7.36628e+06	-44989.1	955.818	-29774.4	0.000000	0.000000	6.170793	0.036984	NaN	0.000000	0.001565	0.001779	28.095	0.095406	0.002045	46.6449	-121.035	-165.32	-0.019246	0.170002	-0.980168	-0.981445	0.036984	46.6449	-0.980762	-1.249338E+13	-2.960319E-15	NaN
127	1.000000	0.213297	7.36628e+06	-44989.1	955.819	-29774.4	0.000000	0.000000	6.212808	-0.022839	NaN	0.000000	0.001543	0.001742	28.1318	0.020815	0.001960	10.6204	131.317	15.291	-0.011527	0.211962	-0.938150	-0.939485	-0.022839	10.6204	-0.936537	-3.165291E+12	7.215330E-15	NaN
127	1.000000	0.255321	7.36628e+06	-44989.1	955.818	-29774.4	0.000000	0.000000	6.254831	-0.039197	NaN	0.000000	0.001652	0.001743	28.1	0.122138	0.002051	59.5452	24.9394	-168.323	0.011364	0.253978	-0.896126	-0.897469	-0.039197	59.5452	-0.895632	-8.872446E+11	4.417857E-14	NaN
127	1.000000	0.297337	7.36628e+06	-44989.1	955.818	-29774.4	0.000000	0.000000	6.296848	-0.004144	NaN	0.000000	0.001607	0.001718	28.0802	0.026560	0.002003	13.2588	-7.760608	14.4933	-0.072453	0.295946	-0.854110	-0.855501	-0.004144	13.2588	-0.853876	-2.416667E+11	1.714950E-14	NaN
127	1.000000	0.339347	7.36628e+06	-44989.1	955.817	-29774.4	0.000000	0.000000	6.338854	-0.105809	NaN	0.000000	0.001589	0.001805	28.095	0.092456	0.002069	44.6879	-16.8032	-166.761	-0.037131	0.338026	-0.812100	-0.813421	-0.105809	44.6879	-0.810325	-6.208335E+10	1.704312E-12	NaN
127	1.000000	0.381386	7.36628e+06	-44989.1	955.818	-29774.4	0.000000	0.000000	6.380899	0.049077	NaN	0.000000	0.001560	0.001749	28.1298	0.072947	0.001975	36.9405	54.9525	12.3862	0.029477	0.380053	-0.770061	-0.771394	0.049077	36.9405	-0.771058	-1.818384E+10	-2.698920E-12	NaN
127	1.000000	0.423404	7.36628e+06	-44989.1	955.818	-29774.4	0.000000	0.000000	6.422917	0.024848	NaN	0.000000	0.001652	0.001738	28.1018	0.112735	0.002068	54.5018	3.757943	-165.395	-0.057460	0.422067	-0.728043	-0.729380	0.024848	54.5018	-0.728385	-4.773040E+9	-5.205839E-12	NaN
127	1.000000	0.465407	7.36628e+06	-44989.1	955.818	-29774.4	0.000000	0.000000	6.464922	0.068320	NaN	0.000000	0.001626	0.001770	28.0804	0.073061	0.002102	34.7633	-51.8439	13.2658	0.040553	0.464033	-0.686040	-0.687414	0.068320	34.7633	-0.687514	-1.321105E+9	-5.171401E-11	NaN
127	1.000000	0.507404	7.36628e+06	-44989.1	955.818	-29774.4	0.000000	0.000000	6.506918	0.070072	NaN	0.000000	0.001626	0.001756	28.0944	0.085956	0.002129	40.3678	156.749	-165.571	0.069635	0.506093	-0.644043	-0.645354	0.070072	40.3678	-0.645345	-3.496337E+8	-2.004145E-10	NaN
127	1.000000	0.549468	7.36628e+06	-44989.1	955.819	-29774.4	0.000000	0.000000	6.548981	0.013942	NaN	0.000000	0.001613	0.001775	28.1293	0.030472	0.001930	15.7851	19.6507	13.6324	-0.040896	0.548111	-0.601979	-0.603336	0.013942	15.7851	-0.602641	-9.053809E+7	-1.539897E-10	NaN
127	1.000000	0.591456	7.36628e+06	-44989.1	955.818	-29774.4	0.000000	0.000000	6.590970	0.066399	NaN	0.000000	0.001633	0.001754	28.1005	0.036254	0.002061	17.5904	-134.464	-165.943	0.067929	0.590133	-0.559991	-0.561314	0.066399	17.5904	-0.562822	-2.555152E+7	-2.598643E-9	NaN
127	1.000000	0.633476	7.36628e+06	-44989.1	955.818	-29774.4	0.000000	0.000000	6.632988	-0.002711	NaN	0.000000	0.001595	0.001757	28.0787	0.021759	0.002156	10.0912	6.965145	12.8568	-0.039418	0.632139	-0.517971	-0.519308	-0.002711	10.0912	-0.517769	-6.06135e+06	4.472399E-10	NaN
127	1.000000	0.675475	7.36628e+06	-44989.1	955.818	-29774.4	0.000000	0.000000	6.674984	-0.062145	NaN	0.000000	0.001620	0.001774	28.0941	0.040184	0.002145	18.737	-82.192	-169.578	-0.008795	0.674157	-0.475972	-0.477290	-0.062145	18.737	-0.473484	-1.45969e+06	4.257392E-8	NaN
127	1.000000	0.717490	7.36628e+06	-44989.1	955.818	-29774.4	0.000000	0.000000	6.717003	0.024495	NaN	0.000000	0.001652	0.001808	28.1298	0.082047	0.002098	39.1152	72.0215	15.3385	0.035064	0.716195	-0.433957	-0.435252	0.024495	39.1152	-0.434426	-411762	-5.948906E-8	NaN
127	1.000000	0.759532	7.36628e+06	-44989.1	955.819	-29774.4	0.000000	0.000000	6.759043	-0.020443	NaN	0.000000	0.001595	0.001774	28.1026	0.077770	0.001998	38.9279	67.636	-166.353	0.071073	0.758242	-0.391915	-0.393205	-0.020443	38.9279	-0.391521	-101139	2.021319E-7	NaN
127	1.000000	0.801570	7.36628e+06	-44989.1	955.818	-29774.4	0.000000	0.000000	6.801081	-0.032965	NaN	0.000000	0.001513	0.001767	28.0797	0.101144	0.001918	52.7269	-57.8424	13.1951	-0.028844	0.800192	-0.349877	-0.351255	-0.032965	52.7269	-0.349408	-25026.8	1.317199E-6	NaN
127	1.000000	0.843591	7.36628e+06	-44989.1	955.818	-29774.4	0.000000	0.000000	6.843104	0.036349	NaN	0.000000	0.001498	0.001762	28.0919	0.057165	0.001964	29.0996	19.1169	-167.256	0.030763	0.842289	-0.307856	-0.309158	0.036349	29.0996	-0.308793	-6356.1	-5.718756E-6	NaN
127	1.000000	0.885586	7.36628e+06	-44989.1	955.818	-29774.4	0.000000	0.000000	6.885098	-0.001467	NaN	0.000000	0.001549	0.001766	28.1286	0.082476	0.002150	38.3591	110.912	12.1742	0.010242	0.884275	-0.265861	-0.267172	-0.001467	38.3591	-0.265832	-1439.09	1.019236E-6	NaN
127	1.000000	0.927610	7.36628e+06	-44989.1	955.819	-29774.4	0.000000	0.000000	6.927120	-0.037523	NaN	0.000000	0.001551	0.001770	28.1022	0.033277	0.001935	17.2003	-132.847	-165.897	-0.036174	0.926313	-0.223837	-0.225134	-0.037523	17.2003	-0.222201	-301.165	0.000125	NaN
127	1.000000	0.969620	7.36628e+06	-44989.1	955.819	-29774.4	0.000000	0.000000	6.969132	0.013640	NaN	0.000000	0.001572	0.001785	28.0811	0.039461	0.001968	20.0506	-54.1672	12.2312	0.060328	0.968333	-0.181827	-0.183114	0.013640	20.0506	-0.182337	-66.8562	-0.000204	NaN
127	1.000000	1.011636	7.36628e+06	-44989.1	955.819	-29774.4	0.000000	0.000000	7.011149	0.029236	NaN	0.000000	0.001554	0.001749	28.0926	0.067081	0.002011	33.3503	119.204	-166.099	-0.037782	1.010404	-0.139811	-0.141043	0.029236	33.3503	-0.140468	-12.0713	-0.002422	NaN
127	1.000000	1.053657	7.36628e+06	-44989.1	955.819	-29774.4	0.000000	0.000000	7.053172	0.091806	NaN	0.000000	0.001593	0.001765	28.1296	0.034344	0.001834	18.7266	-18.0481	16.3559	0.037151	1.052291	-0.097790	-0.099156	0.091806	18.7266	-0.101467	-1.968666	-0.046633	NaN
127	1.000000	1.095650	7.36628e+06	-44989.1	955.82	-29774.4	0.000000	0.000000	7.095161	-0.034758	NaN	0.000000	0.001561	0.001764	28.1039	0.080708	0.001938	41.6373	168.891	-168.26	0.038259	1.094382	-0.055797	-0.057065	-0.034758	41.6373	-0.055171	-0.130281	0.266790	NaN
127	1.000000	1.137680	7.36628e+06	-44989.1	955.82	-29774.4	0.000000	0.000000	7.137192	-0.006624	NaN	0.000000	0.001609	0.001779	28.0789	0.076788	0.002036	37.7194	120.123	15.8506	0.010068	1.136346	-0.013767	-0.015101	-0.006624	37.7194	-0.013635	-0.008470	0.781984	NaN
127	2.000000	1.165276	7.36628e+06	-44989.1	955.82	-29774.4	0.000000	0.000000	7.165462	16.3978	NaN	0.000000	0.001583	0.001812	28.0897	15.1957	0.001790	8491.58	8.657080	-177.906	17.0568	1.164944	0.013829	0.013497	16.3978	8491.58	0.012381	0.011950	1372.22	70971
127	2.000000	1.175712	7.36628e+06	-44989.1	955.821	-29774.4	0.000000	0.000000	7.177079	45.1378	NaN	0.000000	0.001604	0.001761	28.1301	27.0946	0.001921	14101.9	6.425642	0.699780	45.5313	1.175394	0.024265	0.023947	45.1378	14101.9	0.021864	0.025557	1766.2	80593.5
127	2.000000	1.186181	7.36628e+06	-44989.1	955.821	-29774.4	0.000000	0.000000	7.189222	85.8545	NaN	0.000000	0.001557	0.001792	28.1052	36.6421	0.001657	22111.6	6.042137	175.897	84.8896	1.185811	0.034734	0.034364	85.8545	22111.6	0.031822	0.044605	1924.77	95653.6
127	2.000000	1.196690	7.36628e+06	-44989.1	955.82	-29774.4	0.000000	0.000000	7.201428	127.136	NaN	0.000000	0.001563	0.001773	28.0807	45.8044	0.001715	26714.8	3.700075	-3.754521	127.68	1.196481	0.045243	0.045034	127.136	26714.8	0.041674	0.068426	1858	93306.9
127	2.000000	1.207109	7.36628e+06	-44989.1	955.821	-29774.4	0.000000	0.000000	7.214359	188.242	NaN	0.000000	0.001551	0.001788	28.0902	56.6097	0.001897	29841.8	1.926939	177.278	185.131	1.206828	0.055662	0.055381	188.242	29841.8	0.050931	0.095314	1974.96	88312
127	2.000000	1.217673	7.36628e+06	-44989.1	955.82	-29774.4	0.000000	0.000000	7.227679	255.293	NaN	0.000000	0.001594	0.001775	28.1286	67.5739	0.001869	36151.4	3.863476	-4.988014	255.351	1.217339	0.066226	0.065892	255.293	36151.4	0.060930	0.129163	1976.52	91902.8
127	2.000000	1.228036	7.36629e+06	-44989.1	955.822	-29774.4	0.000000	0.000000	7.241034	328.084	NaN	0.000000	0.001565	0.001805	28.1037	78.7383	0.001910	41216.4	6.334253	170.383	322.917	1.227775	0.076589	0.076328	328.084	41216.4	0.070619	0.166617	1969.1	92253.7
127	2.000000	1.238605	7.36629e+06	-44989.1	955.822	-29774.4	0.000000	0.000000	7.255596	425.224	NaN	0.000000	0.001557	0.001790	28.079	87.5763	0.001885	46464.4	5.211751	-8.487060	422.434	1.238154	0.087158	0.086707	425.224	46464.4	0.080294	0.208467	2039.77	92976.8
127	2.000000	1.249087	7.36629e+06	-44989.1	955.821	-29774.4	0.000000	0.000000	7.270082	522.651	NaN	0.000000	0.001555	0.001779	28.09	96.4617	0.001743	55339.8	6.336345	168.326	519.981	1.248693	0.097639	0.097246	522.651	55339.8	0.090556	0.257618	2028.78	99614.6
127	2.000000	1.259128	7.36629e+06	-44989.1	955.82	-29774.4	0.000000	0.000000	7.283638	608.145	NaN	0.000000	0.001556	0.001775	28.0908	105.146	0.001766	59537.9	6.157069	169.049	610.51	1.258698	0.107681	0.107251	608.145	59537.9	0.100020	0.307228	1979.46	98137.9