File: remote_trans/data/nanoindenter/0828-1/data/Data_2025-08-06,11h17m57s/2025-07-22_16-23-58_1_1157.txt
2025-07-22, 16:23:58, 1
Index	Phase	Displacement	Time	Pos X	Pos Y	Pos Z	Rot A	Rot B	Piezo Z	Force A	Force B	Gripper	Voltage A	Voltage B	Temperature	Amplitude force	Amplitude pos	Stiffness	Phase shift	Phase excitation	Force A raw	Displacement raw	HMax	HMax raw	Real Force	Real Stiffness	Contact Depth	Area	Hardness	Reduced Mod.
[#]	[#]	[um]	[s]	[um]	[um]	[um]	[m°]	[m°]	[um]	[uN]	[uN]	[V]	[V]	[V]	[°C]	[uN]	[um]	[N/m]	[°]	[°]	[uN]	[um]	[um]	[um]	[uN]	[N/m]	[um]	[um^2]	[MPa]	[MPa]
1157	1.000000	0.002714	7.37637e+06	-57739.1	1105.82	-29736.4	0.000000	0.000000	6.002792	-0.061596	NaN	0.000000	0.001630	0.001738	28.0844	0.114783	0.001004	114.313	43.1588	-162.977	-0.047166	0.001488	-1.012813	-1.014039	-0.061596	114.313	-1.012409	-3.332744E+13	1.848200E-15	NaN
1157	1.000000	0.042668	7.37637e+06	-57739.1	1105.82	-29736.4	0.000000	0.000000	6.042746	-0.049198	NaN	0.000000	0.001602	0.001734	28.0838	0.099572	0.001783	55.8458	-61.7835	-167.767	-0.002499	0.041393	-0.972859	-0.974134	-0.049198	55.8458	-0.972199	-9.578398E+12	5.136326E-15	NaN
1157	1.000000	0.082702	7.37637e+06	-57739.1	1105.82	-29736.4	0.000000	0.000000	6.082782	-0.011000	NaN	0.000000	0.001589	0.001713	28.083	0.107077	0.002069	51.7625	99.0085	-165.031	0.007827	0.081385	-0.932825	-0.934142	-0.011000	51.7625	-0.932666	-2.806560E+12	3.919391E-15	NaN
1157	1.000000	0.122703	7.37637e+06	-57739.1	1105.82	-29736.4	0.000000	0.000000	6.122782	-0.026464	NaN	0.000000	0.001583	0.001737	28.0829	0.092748	0.002124	43.6719	145.316	-166.187	-0.055803	0.121369	-0.892825	-0.894158	-0.026464	43.6719	-0.892370	-8.015923E+11	3.301411E-14	NaN
1157	1.000000	0.162706	7.37637e+06	-57739.1	1105.82	-29736.4	0.000000	0.000000	6.162787	0.012986	NaN	0.000000	0.001624	0.001761	28.083	0.057207	0.001877	30.4767	-59.5528	-168.223	0.014565	0.161401	-0.852821	-0.854126	0.012986	30.4767	-0.853141	-2.361915E+11	-5.498260E-14	NaN
1157	1.000000	0.202741	7.37637e+06	-57739.1	1105.82	-29736.4	0.000000	0.000000	6.202821	-0.019894	NaN	0.000000	0.001556	0.001640	28.0827	0.074360	0.001920	38.7288	-64.9743	-167.304	0.050676	0.201397	-0.812786	-0.814131	-0.019894	38.7288	-0.812401	-6.624311E+10	3.003190E-13	NaN
1157	1.000000	0.242766	7.37637e+06	-57739.1	1105.82	-29736.4	0.000000	0.000000	6.242845	-0.020334	NaN	0.000000	0.001588	0.001692	28.084	0.078090	0.002022	38.6293	138.306	-168.998	0.046922	0.241497	-0.772762	-0.774030	-0.020334	38.6293	-0.772367	-1.894446E+10	1.073339E-12	NaN
1157	1.000000	0.282768	7.37637e+06	-57739.1	1105.82	-29736.4	0.000000	0.000000	6.282848	-0.018265	NaN	0.000000	0.001611	0.001660	28.0842	0.084033	0.002043	41.1292	69.4777	-166.251	-0.034975	0.281455	-0.732759	-0.734072	-0.018265	41.1292	-0.732426	-5.418382E+9	3.370889E-12	NaN
1157	1.000000	0.322776	7.37637e+06	-57739.1	1105.82	-29736.4	0.000000	0.000000	6.322857	0.012848	NaN	0.000000	0.001636	0.001667	28.0844	0.033434	0.002020	16.5518	-154.773	-165.132	0.010088	0.321480	-0.692752	-0.694047	0.012848	16.5518	-0.693334	-1.586625E+9	-8.097713E-12	NaN
1157	1.000000	0.362806	7.37637e+06	-57739.1	1105.82	-29736.4	0.000000	0.000000	6.362886	0.005625	NaN	0.000000	0.001667	0.001683	28.0828	0.039786	0.002030	19.6027	-136.275	-166.36	0.027153	0.361499	-0.652722	-0.654028	0.005625	19.6027	-0.652937	-4.443172E+8	-1.265999E-11	NaN
1157	1.000000	0.402837	7.37637e+06	-57739.1	1105.82	-29736.4	0.000000	0.000000	6.402920	0.048279	NaN	0.000000	0.001642	0.001705	28.0828	0.061603	0.001982	31.0831	-143.406	-167.377	0.018659	0.401490	-0.612690	-0.614037	0.048279	31.0831	-0.613855	-1.291641E+8	-3.737810E-10	NaN
1157	1.000000	0.442809	7.37637e+06	-57739.1	1105.82	-29736.4	0.000000	0.000000	6.442890	0.017366	NaN	0.000000	0.001650	0.001729	28.0827	0.179561	0.001889	95.0344	170.699	-166.11	0.102631	0.441508	-0.572718	-0.574019	0.017366	95.0344	-0.572855	-3.516229E+7	-4.938883E-10	NaN
1157	1.000000	0.482853	7.37637e+06	-57739.1	1105.82	-29736.4	0.000000	0.000000	6.482934	0.011681	NaN	0.000000	0.001605	0.001671	28.0837	0.057664	0.001924	29.9767	-149.434	-167.882	-0.083637	0.481563	-0.532674	-0.533964	0.011681	29.9767	-0.532966	-9.85736e+06	-1.185029E-9	NaN
1157	1.000000	0.522854	7.37637e+06	-57739.1	1105.82	-29736.4	0.000000	0.000000	6.522935	0.007868	NaN	0.000000	0.001628	0.001674	28.0835	0.053475	0.002228	23.9996	127.904	-166.267	-0.022529	0.521541	-0.492673	-0.493986	0.007868	23.9996	-0.492919	-2.73007e+06	-2.882093E-9	NaN
1157	1.000000	0.562869	7.37637e+06	-57739.1	1105.82	-29736.4	0.000000	0.000000	6.562949	-0.015516	NaN	0.000000	0.001687	0.001678	28.0839	0.090214	0.001974	45.7025	11.3347	-166.595	-0.057039	0.561586	-0.452658	-0.453941	-0.015516	45.7025	-0.452403	-738204	2.101913E-8	NaN
1157	1.000000	0.602912	7.37637e+06	-57739.1	1105.82	-29736.4	0.000000	0.000000	6.602995	0.047321	NaN	0.000000	0.001647	0.001702	28.0839	0.086826	0.002014	43.1103	115.541	-164.882	0.074924	0.601629	-0.412615	-0.413899	0.047321	43.1103	-0.413438	-207620	-2.279194E-7	NaN
1157	1.000000	0.642928	7.37637e+06	-57739.1	1105.82	-29736.4	0.000000	0.000000	6.643011	0.059384	NaN	0.000000	0.001634	0.001660	28.0829	0.070358	0.001960	35.8954	-28.4709	-166.455	0.082857	0.641623	-0.372599	-0.373904	0.059384	35.8954	-0.373840	-56414.2	-1.052638E-6	NaN
1157	1.000000	0.682943	7.37637e+06	-57739.1	1105.82	-29736.4	0.000000	0.000000	6.683022	-0.029337	NaN	0.000000	0.001605	0.001643	28.0825	0.102040	0.001896	53.8057	-126.231	-168.45	-0.071593	0.681653	-0.332585	-0.333874	-0.029337	53.8057	-0.332176	-14037.8	2.089832E-6	NaN
1157	1.000000	0.722912	7.37637e+06	-57739.1	1105.82	-29736.4	0.000000	0.000000	6.722993	0.029486	NaN	0.000000	0.001627	0.001688	28.0828	0.049304	0.002050	24.0539	38.8349	-169.936	-0.056627	0.721646	-0.292616	-0.293881	0.029486	24.0539	-0.293535	-3768.79	-7.823778E-6	NaN
1157	1.000000	0.762965	7.37637e+06	-57739.1	1105.82	-29736.4	0.000000	0.000000	6.763044	-0.024690	NaN	0.000000	0.001623	0.001675	28.0846	0.103688	0.001953	53.0947	-70.1895	-163.489	-0.031592	0.761629	-0.252562	-0.253898	-0.024690	53.0947	-0.252214	-889.544	2.775600E-5	NaN
1157	1.000000	0.803029	7.37637e+06	-57739.1	1105.82	-29736.4	0.000000	0.000000	6.803106	-0.070455	NaN	0.000000	0.001604	0.001697	28.0843	0.047392	0.002005	23.6376	-134.047	-164.537	-0.006184	0.801676	-0.212499	-0.213851	-0.070455	23.6376	-0.210263	-193.678	0.000364	NaN
1157	1.000000	0.842982	7.37637e+06	-57739.1	1105.82	-29736.4	0.000000	0.000000	6.843062	-0.021232	NaN	0.000000	0.001617	0.001703	28.084	0.125824	0.002050	61.3925	124.952	-166.586	-0.001813	0.841678	-0.172545	-0.173849	-0.021232	61.3925	-0.172286	-44.9996	0.000472	NaN
1157	1.000000	0.883025	7.37637e+06	-57739.1	1105.82	-29736.4	0.000000	0.000000	6.883103	-0.055556	NaN	0.000000	0.001594	0.001660	28.0841	0.141132	0.002069	68.2114	-144.662	-166.016	-0.055214	0.881650	-0.132503	-0.133877	-0.055556	68.2114	-0.131892	-8.291527	0.006700	NaN
1157	1.000000	0.923008	7.37637e+06	-57739.1	1105.82	-29736.4	0.000000	0.000000	6.923088	0.005137	NaN	0.000000	0.001639	0.001680	28.0827	0.055764	0.002062	27.0399	-156.491	-165.423	-0.014759	0.921743	-0.092520	-0.093784	0.005137	27.0399	-0.092662	-1.246770	-0.004120	NaN
1157	1.000000	0.963031	7.37637e+06	-57739.1	1105.82	-29736.4	0.000000	0.000000	6.963109	-0.066430	NaN	0.000000	0.001635	0.001694	28.0833	0.025821	0.002035	12.6896	-69.2553	-165.742	-0.066568	0.961760	-0.052496	-0.053767	-0.066430	12.6896	-0.048570	-0.082582	0.804412	NaN
1157	1.000000	1.003093	7.37637e+06	-57739.1	1105.82	-29736.4	0.000000	0.000000	7.003176	0.067621	NaN	0.000000	0.001672	0.001719	28.0828	0.025450	0.001906	13.3542	118.497	-167.299	0.092823	1.001716	-0.012434	-0.013812	0.067621	13.3542	-0.016232	-0.010027	-6.744073	NaN
1157	2.000000	1.029544	7.37637e+06	-57739.1	1105.82	-29736.4	0.000000	0.000000	7.030320	16.9045	NaN	0.000000	0.001726	0.001698	28.084	12.7163	0.001888	6735.59	8.428498	-175.871	17.3562	1.029282	0.014016	0.013754	16.9045	6735.59	0.012134	0.011651	1450.91	57012.3
1157	2.000000	1.039519	7.37637e+06	-57739.1	1105.82	-29736.4	0.000000	0.000000	7.040963	33.1536	NaN	0.000000	0.001710	0.001702	28.0839	23.3226	0.001956	11924.6	6.885057	-177.501	34.4746	1.039207	0.023991	0.023680	33.1536	11924.6	0.021906	0.025627	1293.71	68056.7
1157	2.000000	1.049457	7.37637e+06	-57739.1	1105.82	-29736.4	0.000000	0.000000	7.052137	63.1628	NaN	0.000000	0.001663	0.001693	28.084	33.9871	0.001896	17926.7	6.724774	179.378	64.063	1.049161	0.033930	0.033634	63.1628	17926.7	0.031288	0.043455	1453.53	78569.7
1157	2.000000	1.059480	7.37637e+06	-57739.1	1105.82	-29736.4	0.000000	0.000000	7.064237	113.669	NaN	0.000000	0.001717	0.001687	28.0841	44.4039	0.001774	25030.9	5.545407	175.834	116.152	1.059171	0.043953	0.043644	113.669	25030.9	0.040547	0.065449	1736.75	89391.6
1157	2.000000	1.069362	7.37637e+06	-57739.1	1105.82	-29736.4	0.000000	0.000000	7.076916	181.624	NaN	0.000000	0.001694	0.001692	28.0829	53.7933	0.001805	29807.9	3.148803	176.569	177.699	1.069141	0.053835	0.053613	181.624	29807.9	0.049265	0.090155	2014.57	90700.3
1157	2.000000	1.079390	7.37637e+06	-57739.1	1105.82	-29736.4	0.000000	0.000000	7.088753	225.584	NaN	0.000000	0.001638	0.001707	28.0824	63.2798	0.001844	34325.8	7.635370	170.691	222.848	1.079212	0.063863	0.063685	225.584	34325.8	0.058934	0.122015	1848.83	89781.8
1157	2.000000	1.089402	7.37638e+06	-57739.1	1105.82	-29736.4	0.000000	0.000000	7.100680	272.143	NaN	0.000000	0.001643	0.001664	28.0826	69.6238	0.001780	39119.3	3.586165	174.02	270.773	1.089031	0.073875	0.073504	272.143	39119.3	0.068657	0.158669	1715.16	89725.9
1157	2.000000	1.099394	7.37638e+06	-57739.1	1105.82	-29736.4	0.000000	0.000000	7.112655	320.338	NaN	0.000000	0.001642	0.001677	28.0841	79.5764	0.001751	45445.4	6.111560	170.251	320.447	1.099138	0.083867	0.083611	320.338	45445.4	0.078580	0.200732	1595.85	92673.3
1157	2.000000	1.109430	7.37638e+06	-57739.1	1105.82	-29736.4	0.000000	0.000000	7.124765	370.749	NaN	0.000000	0.001624	0.001702	28.0839	88.1147	0.001921	45870.1	7.608875	169.193	374.021	1.109133	0.093902	0.093606	370.749	45870.1	0.087840	0.244138	1518.61	84817.4
1157	2.000000	1.119345	7.37638e+06	-57739.1	1105.82	-29736.4	0.000000	0.000000	7.137483	438.865	NaN	0.000000	0.001626	0.001688	28.0842	96.5322	0.001780	54227	6.197137	169.122	436.968	1.119028	0.103818	0.103500	438.865	54227	0.097748	0.294945	1487.96	91226
1157	2.000000	1.123350	7.37638e+06	-57739.1	1105.82	-29736.4	0.000000	0.000000	7.142862	472.251	NaN	0.000000	0.001590	0.001689	28.0839	99.6424	0.001811	55015.4	5.170101	170.792	469.121	1.122952	0.107823	0.107424	472.251	55015.4	0.101385	0.314722	1500.54	89597.1