File: remote_trans/data/nanoindenter/0828-1/data/Data_2025-08-06,11h17m57s/2025-07-22_16-23-58_1_109.txt
2025-07-22, 16:23:58, 1
Index	Phase	Displacement	Time	Pos X	Pos Y	Pos Z	Rot A	Rot B	Piezo Z	Force A	Force B	Gripper	Voltage A	Voltage B	Temperature	Amplitude force	Amplitude pos	Stiffness	Phase shift	Phase excitation	Force A raw	Displacement raw	HMax	HMax raw	Real Force	Real Stiffness	Contact Depth	Area	Hardness	Reduced Mod.
[#]	[#]	[um]	[s]	[um]	[um]	[um]	[m°]	[m°]	[um]	[uN]	[uN]	[V]	[V]	[V]	[°C]	[uN]	[um]	[N/m]	[°]	[°]	[uN]	[um]	[um]	[um]	[uN]	[N/m]	[um]	[um^2]	[MPa]	[MPa]
109	1.000000	0.002840	7.3661e+06	-44089.1	955.818	-29777.5	0.000000	0.000000	6.002835	0.083158	NaN	0.000000	0.001636	0.001632	28.0787	0.069985	0.000949	73.7255	93.8194	-166.732	0.048808	0.001579	-1.010481	-1.011742	0.083158	73.7255	-1.011327	-3.222821E+13	-2.580276E-15	NaN
109	1.000000	0.040780	7.3661e+06	-44089.1	955.818	-29777.5	0.000000	0.000000	6.040775	0.093497	NaN	0.000000	0.001658	0.001660	28.0939	0.094034	0.002145	43.8412	174.721	11.5873	0.094227	0.039390	-0.972540	-0.973931	0.093497	43.8412	-0.974140	-1.017301E+13	-9.190718E-15	NaN
109	1.000000	0.078788	7.3661e+06	-44089.1	955.818	-29777.5	0.000000	0.000000	6.078779	0.003917	NaN	0.000000	0.001637	0.001636	28.1287	0.023357	0.002067	11.3011	135.06	-167.674	0.015338	0.077443	-0.934533	-0.935878	0.003917	11.3011	-0.934793	-2.998326E+12	-1.306363E-15	NaN
109	1.000000	0.116784	7.36611e+06	-44089.1	955.818	-29777.5	0.000000	0.000000	6.116780	0.106946	NaN	0.000000	0.001575	0.001670	28.0981	0.081604	0.001970	41.4186	96.1701	13.1187	0.108693	0.115422	-0.896537	-0.897899	0.106946	41.4186	-0.898473	-9.692489E+11	-1.103391E-13	NaN
109	1.000000	0.154806	7.36611e+06	-44089.1	955.818	-29777.5	0.000000	0.000000	6.154801	0.075684	NaN	0.000000	0.001564	0.001707	28.0806	0.034675	0.002045	16.9524	-1.163748	-164.565	0.069708	0.153455	-0.858514	-0.859865	0.075684	16.9524	-0.861863	-3.099778E+11	-2.441609E-13	NaN
109	1.000000	0.192791	7.36611e+06	-44089.1	955.818	-29777.5	0.000000	0.000000	6.192784	0.042346	NaN	0.000000	0.001560	0.001725	28.0957	0.042554	0.002025	21.0154	-168.877	8.865272	0.015068	0.191481	-0.820529	-0.821839	0.042346	21.0154	-0.822040	-8.951159E+10	-4.730777E-13	NaN
109	1.000000	0.230851	7.36611e+06	-44089.1	955.818	-29777.5	0.000000	0.000000	6.230845	0.068539	NaN	0.000000	0.001531	0.001729	28.1304	0.145104	0.001920	75.5652	-30.196	-166.292	0.060449	0.229503	-0.782470	-0.783817	0.068539	75.5652	-0.783150	-2.654812E+10	-2.581680E-12	NaN
109	1.000000	0.268839	7.36611e+06	-44089.1	955.819	-29777.5	0.000000	0.000000	6.268831	0.014714	NaN	0.000000	0.001563	0.001696	28.0953	0.157752	0.002180	72.3677	-23.1146	14.8375	0.010816	0.267549	-0.744481	-0.745771	0.014714	72.3677	-0.744634	-7.946206E+9	-1.851714E-12	NaN
109	1.000000	0.306876	7.36611e+06	-44089.1	955.818	-29777.5	0.000000	0.000000	6.306872	0.102690	NaN	0.000000	0.001578	0.001694	28.0801	0.041812	0.002031	20.5837	114.745	-163.592	0.042028	0.305558	-0.706444	-0.707762	0.102690	20.5837	-0.710186	-2.695154E+9	-3.810188E-11	NaN
109	1.000000	0.344890	7.36611e+06	-44089.1	955.819	-29777.5	0.000000	0.000000	6.344883	0.035828	NaN	0.000000	0.001578	0.001689	28.0956	0.071140	0.001972	36.0831	175.507	13.6577	0.023035	0.343520	-0.668431	-0.669800	0.035828	36.0831	-0.669175	-7.414855E+8	-4.831872E-11	NaN
109	1.000000	0.382892	7.36611e+06	-44089.1	955.818	-29777.5	0.000000	0.000000	6.382886	0.069914	NaN	0.000000	0.001575	0.001668	28.1301	0.078103	0.001982	39.4079	-168.802	-167.216	0.043897	0.381608	-0.630429	-0.631713	0.069914	39.4079	-0.631760	-2.276064E+8	-3.071709E-10	NaN
109	1.000000	0.420912	7.36611e+06	-44089.1	955.819	-29777.5	0.000000	0.000000	6.420906	0.063561	NaN	0.000000	0.001591	0.001653	28.0967	0.078975	0.002044	38.6316	-155.895	14.5726	0.009901	0.419584	-0.592408	-0.593737	0.063561	38.6316	-0.593642	-6.805723E+7	-9.339393E-10	NaN
109	1.000000	0.458942	7.36611e+06	-44089.1	955.819	-29777.5	0.000000	0.000000	6.458936	0.071945	NaN	0.000000	0.001590	0.001604	28.0792	0.044682	0.001892	23.6172	-51.8482	-165.645	0.010835	0.457643	-0.554379	-0.555677	0.071945	23.6172	-0.556664	-2.099978E+7	-3.426004E-9	NaN
109	1.000000	0.496943	7.36611e+06	-44089.1	955.818	-29777.5	0.000000	0.000000	6.496939	0.121458	NaN	0.000000	0.001556	0.001687	28.0965	0.063624	0.002018	31.5309	62.4066	14.7509	0.133639	0.495606	-0.516378	-0.517714	0.121458	31.5309	-0.519267	-6.35919e+06	-1.909967E-8	NaN
109	1.000000	0.534959	7.36611e+06	-44089.1	955.819	-29777.5	0.000000	0.000000	6.534953	0.069728	NaN	0.000000	0.001550	0.001657	28.1292	0.038035	0.001865	20.3941	-88.7847	-164.937	0.055049	0.533588	-0.478361	-0.479732	0.069728	20.3941	-0.480926	-1.8556e+06	-3.757728E-8	NaN
109	1.000000	0.572981	7.36611e+06	-44089.1	955.818	-29777.5	0.000000	0.000000	6.572972	-0.005287	NaN	0.000000	0.001583	0.001622	28.0943	0.084597	0.002028	41.7051	-142.227	14.0565	-0.050259	0.571595	-0.440339	-0.441726	-0.005287	41.7051	-0.440244	-497517	1.062697E-8	NaN
109	1.000000	0.611008	7.36611e+06	-44089.1	955.819	-29777.5	0.000000	0.000000	6.611002	0.059493	NaN	0.000000	0.001639	0.001633	28.0798	0.071975	0.002035	35.3651	13.1547	-165.356	0.048438	0.609689	-0.402312	-0.403632	0.059493	35.3651	-0.403574	-150292	-3.958492E-7	NaN
109	1.000000	0.649004	7.36611e+06	-44089.1	955.818	-29777.5	0.000000	0.000000	6.649000	0.112542	NaN	0.000000	0.001555	0.001690	28.0959	0.086286	0.002066	41.7679	-162.706	15.9781	0.125962	0.647651	-0.364316	-0.365669	0.112542	41.7679	-0.366337	-43988.8	-2.558431E-6	NaN
109	1.000000	0.687036	7.36611e+06	-44089.1	955.819	-29777.5	0.000000	0.000000	6.687027	-0.018285	NaN	0.000000	0.001559	0.001611	28.1304	0.033533	0.002017	16.6268	-35.6063	-168.509	-0.014426	0.685661	-0.326284	-0.327660	-0.018285	16.6268	-0.325460	-11191.3	1.633887E-6	NaN
109	1.000000	0.725059	7.36611e+06	-44089.1	955.818	-29777.5	0.000000	0.000000	6.725052	0.046396	NaN	0.000000	0.001617	0.001609	28.094	0.015710	0.002083	7.542030	136.695	12.7344	0.045770	0.723690	-0.288262	-0.289630	0.046396	7.542030	-0.292876	-3684.19	-1.259325E-5	NaN
109	1.000000	0.763053	7.36611e+06	-44089.1	955.819	-29777.5	0.000000	0.000000	6.763049	0.111615	NaN	0.000000	0.001511	0.001674	28.0806	0.076102	0.002046	37.1873	53.2022	-163.684	0.027634	0.761725	-0.250268	-0.251595	0.111615	37.1873	-0.252519	-899.242	-0.000124	NaN
109	1.000000	0.801066	7.36611e+06	-44089.1	955.818	-29777.5	0.000000	0.000000	6.801059	0.038805	NaN	0.000000	0.001566	0.001685	28.0978	0.060681	0.001963	30.9173	6.704188	13.1321	0.052345	0.799715	-0.212255	-0.213606	0.038805	30.9173	-0.213196	-216.005	-0.000180	NaN
109	1.000000	0.839088	7.36611e+06	-44089.1	955.818	-29777.5	0.000000	0.000000	6.839080	0.034966	NaN	0.000000	0.001526	0.001655	28.1277	0.093335	0.002047	45.5929	-145.14	-166.723	0.093556	0.837776	-0.174233	-0.175545	0.034966	45.5929	-0.174808	-49.737	-0.000703	NaN
109	1.000000	0.877077	7.36611e+06	-44089.1	955.818	-29777.5	0.000000	0.000000	6.877071	0.050517	NaN	0.000000	0.001538	0.001672	28.0928	0.030667	0.002038	15.0449	-72.4925	13.3751	0.080997	0.875739	-0.136243	-0.137582	0.050517	15.0449	-0.138761	-11.2113	-0.004506	NaN
109	1.000000	0.915127	7.36611e+06	-44089.1	955.818	-29777.5	0.000000	0.000000	6.915116	-0.043615	NaN	0.000000	0.001568	0.001677	28.0775	0.094526	0.001786	52.9166	-120.772	-168.697	-0.061112	0.913805	-0.098194	-0.099516	-0.043615	52.9166	-0.097576	-1.613163	0.027037	NaN
109	1.000000	0.953128	7.36611e+06	-44089.1	955.818	-29777.5	0.000000	0.000000	6.953122	0.057515	NaN	0.000000	0.001584	0.001668	28.0998	0.125613	0.001953	64.3084	-104.278	14.7763	0.076927	0.951809	-0.060192	-0.061512	0.057515	64.3084	-0.060863	-0.190627	-0.301714	NaN
109	1.000000	0.991174	7.36611e+06	-44089.1	955.818	-29777.5	0.000000	0.000000	6.991164	-0.031402	NaN	0.000000	0.001588	0.001657	28.1286	0.059801	0.002067	28.9365	-117.623	-168.133	-0.003933	0.989859	-0.022147	-0.023461	-0.031402	28.9365	-0.021333	-0.013580	2.312450	NaN
109	2.000000	1.024266	7.36611e+06	-44089.1	955.818	-29777.5	0.000000	0.000000	7.024676	10.1869	NaN	0.000000	0.001631	0.001638	28.094	10.1923	0.001627	6264.19	5.583923	7.119069	10.1509	1.023932	0.010945	0.010612	10.1869	6264.19	0.009726	0.008878	1147.41	60740.2
109	2.000000	1.033715	7.36611e+06	-44089.1	955.818	-29777.5	0.000000	0.000000	7.034725	24.777	NaN	0.000000	0.001642	0.001640	28.0775	19.9602	0.001727	11557	9.821116	179.884	25.6563	1.033341	0.020394	0.020021	24.777	11557	0.018786	0.020671	1198.63	73440.6
109	2.000000	1.043152	7.36611e+06	-44089.1	955.818	-29777.5	0.000000	0.000000	7.045041	46.1664	NaN	0.000000	0.001559	0.001633	28.0998	28.6327	0.001666	17185.8	6.328250	-2.323834	44.7021	1.042823	0.029831	0.029502	46.1664	17185.8	0.027817	0.036340	1270.42	82367
109	2.000000	1.052663	7.36611e+06	-44089.1	955.818	-29777.5	0.000000	0.000000	7.055659	73.1017	NaN	0.000000	0.001576	0.001603	28.1272	39.0624	0.001771	22059.9	4.998602	177.367	74.0602	1.052380	0.039342	0.039059	73.1017	22059.9	0.036857	0.056158	1301.71	85049.2
109	2.000000	1.062072	7.36611e+06	-44089.1	955.818	-29777.5	0.000000	0.000000	7.066637	111.27	NaN	0.000000	0.001573	0.001673	28.0922	46.9745	0.001819	25824.8	6.397821	-5.319006	107.824	1.061684	0.048751	0.048363	111.27	25824.8	0.045520	0.079070	1407.24	83908.4
109	2.000000	1.071583	7.36611e+06	-44089.1	955.818	-29777.5	0.000000	0.000000	7.077844	152.541	NaN	0.000000	0.001565	0.001621	28.0793	56.4355	0.001878	30043.3	7.796025	172.52	150.903	1.071186	0.058262	0.057866	152.541	30043.3	0.054454	0.106676	1429.95	84040.2
109	2.000000	1.081048	7.36611e+06	-44089.1	955.818	-29777.5	0.000000	0.000000	7.089116	196.503	NaN	0.000000	0.001533	0.001709	28.1015	66.1083	0.001795	36828.3	4.060392	-6.471614	192.198	1.080766	0.067728	0.067445	196.503	36828.3	0.063726	0.139507	1408.56	90086
109	2.000000	1.090580	7.36611e+06	-44089.1	955.818	-29777.5	0.000000	0.000000	7.101049	254.898	NaN	0.000000	0.001543	0.001640	28.1287	75.7866	0.001898	39929.2	4.186308	172.735	252.799	1.090263	0.077260	0.076942	254.898	39929.2	0.072472	0.174290	1462.5	87383.1
109	2.000000	1.100033	7.36611e+06	-44089.1	955.819	-29777.5	0.000000	0.000000	7.113340	323.947	NaN	0.000000	0.001558	0.001655	28.0922	81.606	0.001774	45995.7	3.816558	-7.389056	318.33	1.099629	0.086713	0.086308	323.947	45995.7	0.081431	0.213669	1516.12	90911.7
109	2.000000	1.109619	7.36611e+06	-44089.1	955.819	-29777.5	0.000000	0.000000	7.125305	381.823	NaN	0.000000	0.001507	0.001664	28.078	91.7529	0.001710	53659.6	5.603397	169.933	384.951	1.109200	0.096299	0.095880	381.823	53659.6	0.090962	0.259661	1470.47	96209.4
109	2.000000	1.119047	7.36611e+06	-44089.1	955.82	-29777.5	0.000000	0.000000	7.137743	455.054	NaN	0.000000	0.001563	0.001662	28.1016	101.025	0.001889	53487.8	3.827717	-7.969517	453.966	1.118641	0.105726	0.105320	455.054	53487.8	0.099346	0.303559	1499.06	88696.5
109	2.000000	1.121025	7.36611e+06	-44089.1	955.819	-29777.5	0.000000	0.000000	7.140185	466.368	NaN	0.000000	0.001566	0.001648	28.1008	102.822	0.001745	58912.8	2.948857	-8.596236	461.194	1.120732	0.107704	0.107411	466.368	58912.8	0.101767	0.316832	1471.97	95624.2