File: remote_trans/data/nanoindenter/0828-1/data/Data_2025-08-06,11h17m57s/2025-07-22_16-23-58_1_700.txt
2025-07-22, 16:23:58, 1
Index	Phase	Displacement	Time	Pos X	Pos Y	Pos Z	Rot A	Rot B	Piezo Z	Force A	Force B	Gripper	Voltage A	Voltage B	Temperature	Amplitude force	Amplitude pos	Stiffness	Phase shift	Phase excitation	Force A raw	Displacement raw	HMax	HMax raw	Real Force	Real Stiffness	Contact Depth	Area	Hardness	Reduced Mod.
[#]	[#]	[um]	[s]	[um]	[um]	[um]	[m°]	[m°]	[um]	[uN]	[uN]	[V]	[V]	[V]	[°C]	[uN]	[um]	[N/m]	[°]	[°]	[uN]	[um]	[um]	[um]	[uN]	[N/m]	[um]	[um^2]	[MPa]	[MPa]
700	1.000000	0.002744	7.3719e+06	-42089.1	1005.82	-29783.8	0.000000	0.000000	6.002800	-0.038352	NaN	0.000000	0.001605	0.001738	28.0844	0.023081	0.001036	22.277	-107.484	-164.498	-0.075444	0.001449	-1.071471	-1.072766	-0.038352	22.277	-1.070180	-1.993434E+14	1.923911E-16	NaN
700	1.000000	0.042691	7.3719e+06	-42089.1	1005.82	-29783.9	0.000000	0.000000	6.042745	-0.091127	NaN	0.000000	0.001588	0.001688	28.083	0.047470	0.002012	23.5885	-130.458	-165.667	-0.073932	0.041433	-1.031524	-1.032782	-0.091127	23.5885	-1.028627	-5.508182E+13	1.654396E-15	NaN
700	1.000000	0.082705	7.3719e+06	-42089.1	1005.82	-29783.9	0.000000	0.000000	6.082762	-0.025183	NaN	0.000000	0.001587	0.001714	28.0835	0.074757	0.001958	38.1734	85.3602	-164.316	-0.070134	0.081342	-0.991510	-0.992872	-0.025183	38.1734	-0.991015	-1.717049E+13	1.466623E-15	NaN
700	1.000000	0.122715	7.3719e+06	-42089.1	1005.82	-29783.9	0.000000	0.000000	6.122775	0.039270	NaN	0.000000	0.001519	0.001656	28.0834	0.076811	0.002013	38.1547	-58.9906	-166.435	-0.002129	0.121420	-0.951499	-0.952795	0.039270	38.1547	-0.952271	-5.160085E+12	-7.610436E-15	NaN
700	1.000000	0.162729	7.3719e+06	-42089.1	1005.82	-29783.9	0.000000	0.000000	6.162787	-0.008985	NaN	0.000000	0.001609	0.001638	28.0843	0.038430	0.002108	18.2279	151.088	-166.844	0.038668	0.161487	-0.911485	-0.912728	-0.008985	18.2279	-0.911116	-1.436259E+12	6.255754E-15	NaN
700	1.000000	0.202755	7.3719e+06	-42089.1	1005.82	-29783.9	0.000000	0.000000	6.202812	-0.015030	NaN	0.000000	0.001590	0.001605	28.0843	0.068423	0.001771	38.6275	-11.018	-164.474	-0.018566	0.201417	-0.871460	-0.872797	-0.015030	38.6275	-0.871168	-4.142335E+11	3.628382E-14	NaN
700	1.000000	0.242780	7.3719e+06	-42089.1	1005.82	-29783.9	0.000000	0.000000	6.242839	0.040395	NaN	0.000000	0.001570	0.001637	28.0844	0.144501	0.001969	73.3753	84.1978	-161.308	0.074146	0.241491	-0.831435	-0.832724	0.040395	73.3753	-0.831848	-1.215709E+11	-3.322758E-13	NaN
700	1.000000	0.282776	7.3719e+06	-42089.1	1005.82	-29783.9	0.000000	0.000000	6.282835	0.015081	NaN	0.000000	0.001563	0.001584	28.0838	0.023338	0.001973	11.8265	102.781	-160.525	0.137748	0.281444	-0.791438	-0.792771	0.015081	11.8265	-0.792395	-3.544897E+10	-4.254236E-13	NaN
700	1.000000	0.322820	7.3719e+06	-42089.1	1005.82	-29783.9	0.000000	0.000000	6.322876	-0.048703	NaN	0.000000	0.001645	0.001609	28.0829	0.115452	0.001882	61.3367	-111.584	-162.219	-0.022718	0.321505	-0.751395	-0.752710	-0.048703	61.3367	-0.750799	-9.640484E+9	5.051952E-12	NaN
700	1.000000	0.362807	7.3719e+06	-42089.1	1005.82	-29783.9	0.000000	0.000000	6.362866	0.018083	NaN	0.000000	0.001667	0.001599	28.0827	0.201402	0.002184	92.2115	-123.409	-165.795	0.078366	0.361541	-0.711408	-0.712673	0.018083	92.2115	-0.711555	-2.813624E+9	-6.426839E-12	NaN
700	1.000000	0.402844	7.3719e+06	-42089.1	1005.82	-29783.9	0.000000	0.000000	6.402904	0.025544	NaN	0.000000	0.001685	0.001642	28.0827	0.076171	0.001937	39.3294	-35.4597	-163.611	0.031552	0.401514	-0.671370	-0.672700	0.025544	39.3294	-0.671857	-8.068843E+8	-3.165718E-11	NaN
700	1.000000	0.442821	7.3719e+06	-42089.1	1005.82	-29783.9	0.000000	0.000000	6.442878	-0.020855	NaN	0.000000	0.001665	0.001608	28.0842	0.091369	0.002035	44.8907	-171.615	-163.871	-0.124766	0.441558	-0.631394	-0.632656	-0.020855	44.8907	-0.631045	-2.225258E+8	9.372102E-11	NaN
700	1.000000	0.482871	7.3719e+06	-42089.1	1005.82	-29783.9	0.000000	0.000000	6.482928	-0.027592	NaN	0.000000	0.001610	0.001587	28.0841	0.014706	0.001990	7.388400	-34.9608	-164.475	-0.040656	0.481569	-0.591343	-0.592645	-0.027592	7.388400	-0.588542	-5.788531E+7	4.766653E-10	NaN
700	1.000000	0.522895	7.3719e+06	-42089.1	1005.82	-29783.9	0.000000	0.000000	6.522954	0.015917	NaN	0.000000	0.001675	0.001620	28.0839	0.086630	0.001933	44.8066	-93.3675	-165.229	0.007630	0.521595	-0.551320	-0.552620	0.015917	44.8066	-0.551586	-1.786168E+7	-8.911019E-10	NaN
700	1.000000	0.562889	7.3719e+06	-42089.1	1005.82	-29783.9	0.000000	0.000000	6.562946	-0.012404	NaN	0.000000	0.001673	0.001597	28.0828	0.025414	0.001974	12.8724	-0.572926	-164.674	-0.023936	0.561588	-0.511326	-0.512626	-0.012404	12.8724	-0.510603	-4.81746e+06	2.574857E-9	NaN
700	1.000000	0.602935	7.3719e+06	-42089.1	1005.82	-29783.9	0.000000	0.000000	6.602991	-0.030331	NaN	0.000000	0.001623	0.001618	28.0828	0.145312	0.001884	77.1266	-12.9384	-166.967	0.077291	0.601649	-0.471280	-0.472565	-0.030331	77.1266	-0.470985	-1.34655e+06	2.252494E-8	NaN
700	1.000000	0.642951	7.3719e+06	-42089.1	1005.82	-29783.9	0.000000	0.000000	6.643009	-0.007644	NaN	0.000000	0.001603	0.001625	28.0833	0.151548	0.001936	78.2913	-46.0465	-162.746	0.037092	0.641631	-0.431263	-0.432584	-0.007644	78.2913	-0.431190	-370591	2.062656E-8	NaN
700	1.000000	0.682978	7.3719e+06	-42089.1	1005.82	-29783.9	0.000000	0.000000	6.683034	-0.035240	NaN	0.000000	0.001594	0.001641	28.083	0.042110	0.002017	20.8747	55.8319	-163.205	-0.006820	0.681679	-0.391237	-0.392536	-0.035240	20.8747	-0.389971	-96105.6	3.666813E-7	NaN
700	1.000000	0.722963	7.3719e+06	-42089.1	1005.82	-29783.9	0.000000	0.000000	6.723020	-0.029399	NaN	0.000000	0.001557	0.001588	28.0843	0.014131	0.002085	6.776147	175.703	-166.987	-0.012470	0.721670	-0.351251	-0.352545	-0.029399	6.776147	-0.347997	-23873.8	1.231424E-6	NaN
700	1.000000	0.762981	7.3719e+06	-42089.1	1005.82	-29783.9	0.000000	0.000000	6.763040	0.032322	NaN	0.000000	0.001620	0.001594	28.0842	0.010767	0.002000	5.383358	134.726	-160.111	0.015209	0.761709	-0.311234	-0.312506	0.032322	5.383358	-0.315737	-8050.4	-4.014906E-6	NaN
700	1.000000	0.803030	7.3719e+06	-42089.1	1005.82	-29783.9	0.000000	0.000000	6.803090	0.021957	NaN	0.000000	0.001604	0.001587	28.084	0.021627	0.001926	11.2291	149.438	-163.158	0.072919	0.801695	-0.271184	-0.272520	0.021957	11.2291	-0.272651	-1827.24	-1.201640E-5	NaN
700	1.000000	0.843017	7.3719e+06	-42089.1	1005.82	-29783.9	0.000000	0.000000	6.843074	-0.022191	NaN	0.000000	0.001598	0.001611	28.0829	0.023980	0.001986	12.0742	-104.051	-167.389	0.105935	0.841693	-0.231198	-0.232522	-0.022191	12.0742	-0.229820	-397.802	5.578525E-5	NaN
700	1.000000	0.883047	7.3719e+06	-42089.1	1005.82	-29783.9	0.000000	0.000000	6.883106	0.017523	NaN	0.000000	0.001638	0.001563	28.083	0.083961	0.001958	42.8747	-79.9916	-162.326	0.053644	0.881740	-0.191168	-0.192474	0.017523	42.8747	-0.191474	-95.1975	-0.000184	NaN
700	1.000000	0.923053	7.3719e+06	-42089.1	1005.82	-29783.9	0.000000	0.000000	6.923111	-0.000192	NaN	0.000000	0.001630	0.001598	28.0825	0.076014	0.001874	40.5676	-39.4662	-164.272	0.008290	0.921708	-0.151162	-0.152507	-0.000192	40.5676	-0.151159	-19.0152	1.008415E-5	NaN
700	1.000000	0.963057	7.3719e+06	-42089.1	1005.82	-29783.9	0.000000	0.000000	6.963113	-0.050998	NaN	0.000000	0.001616	0.001580	28.0828	0.013873	0.001933	7.178593	24.609	-162.615	-0.079089	0.961764	-0.111157	-0.112451	-0.050998	7.178593	-0.105829	-2.449352	0.020821	NaN
700	1.000000	1.003091	7.3719e+06	-42089.1	1005.82	-29783.9	0.000000	0.000000	7.003149	0.002471	NaN	0.000000	0.001619	0.001607	28.0838	0.137871	0.001993	69.175	-91.8443	-163.12	0.002995	1.001773	-0.071124	-0.072441	0.002471	69.175	-0.071151	-0.366093	-0.006749	NaN
700	1.000000	1.043100	7.3719e+06	-42089.1	1005.82	-29783.9	0.000000	0.000000	7.043157	-0.034829	NaN	0.000000	0.001666	0.001571	28.0841	0.031062	0.001999	15.5422	109.885	-164.876	-0.014403	1.041825	-0.031114	-0.032389	-0.034829	15.5422	-0.029434	-0.022194	1.569266	NaN
700	1.000000	1.083071	7.3719e+06	-42089.1	1005.82	-29783.9	0.000000	0.000000	7.083391	6.355815	NaN	0.000000	0.001643	0.001602	28.0838	4.320357	0.001715	2519.57	7.096032	-166.339	4.376456	1.081761	0.008857	0.007546	6.355815	2519.57	0.006965	0.005999	1059.45	29720.4
700	2.000000	1.095574	7.3719e+06	-42089.1	1005.82	-29783.9	0.000000	0.000000	7.096518	21.5585	NaN	0.000000	0.001594	0.001593	28.0826	15.8855	0.001782	8915.81	8.214638	-174.788	22.111	1.095260	0.021359	0.021045	21.5585	8915.81	0.019546	0.021834	987.4	55127.9
700	2.000000	1.105518	7.3719e+06	-42089.1	1005.82	-29783.9	0.000000	0.000000	7.107232	40.2855	NaN	0.000000	0.001600	0.001595	28.0826	26.571	0.001746	15221.2	3.684854	-176.092	39.1665	1.105256	0.031303	0.031041	40.2855	15221.2	0.029318	0.039342	1023.98	70112
700	2.000000	1.115503	7.3719e+06	-42089.1	1005.82	-29783.9	0.000000	0.000000	7.118551	72.7349	NaN	0.000000	0.001566	0.001701	28.0829	37.8864	0.001826	20754	8.424983	176.371	72.2005	1.115171	0.041288	0.040956	72.7349	20754	0.038660	0.060611	1200.03	77019.1
700	2.000000	1.125486	7.3719e+06	-42089.1	1005.82	-29783.9	0.000000	0.000000	7.130186	112.937	NaN	0.000000	0.001582	0.001644	28.0845	48.034	0.001785	26917.3	5.999469	177.421	112.992	1.125164	0.051271	0.050949	112.937	26917.3	0.048125	0.086705	1302.54	83518.6
700	2.000000	1.135507	7.3719e+06	-42089.1	1005.82	-29783.9	0.000000	0.000000	7.142510	168.988	NaN	0.000000	0.001627	0.001659	28.0842	57.6772	0.001685	34222.9	0.313458	-178.668	172.839	1.135158	0.061292	0.060944	168.988	34222.9	0.057589	0.117305	1440.59	91291.9
700	2.000000	1.145493	7.3719e+06	-42089.1	1005.82	-29783.9	0.000000	0.000000	7.154902	227.499	NaN	0.000000	0.001657	0.001710	28.0839	68.378	0.001745	39179.4	6.182525	173.11	230.155	1.145078	0.071279	0.070864	227.499	39179.4	0.066924	0.151800	1498.67	91874.5
700	2.000000	1.155436	7.3719e+06	-42089.1	1005.82	-29783.9	0.000000	0.000000	7.167535	292.975	NaN	0.000000	0.001739	0.001678	28.0839	77.8581	0.001909	40775	2.712665	176.242	290.872	1.155306	0.081221	0.081091	292.975	40775	0.075832	0.188618	1553.27	85777.9
700	2.000000	1.165486	7.3719e+06	-42089.1	1005.82	-29783.9	0.000000	0.000000	7.180508	364.112	NaN	0.000000	0.001688	0.001629	28.0826	87.3116	0.001707	51159.6	5.633479	171.908	366.041	1.165146	0.091271	0.090932	364.112	51159.6	0.085933	0.234873	1550.25	96445.9
700	2.000000	1.175393	7.3719e+06	-42089.1	1005.82	-29783.9	0.000000	0.000000	7.193811	446.71	NaN	0.000000	0.001698	0.001627	28.0833	96.1487	0.001753	54849.8	4.070901	172.958	446.454	1.175070	0.101178	0.100855	446.71	54849.8	0.095070	0.280771	1591.01	94574.1
700	2.000000	1.184859	7.3719e+06	-42089.1	1005.82	-29783.9	0.000000	0.000000	7.206792	532.236	NaN	0.000000	0.001607	0.001774	28.0828	105.412	0.001756	60014.5	5.112747	-8.857070	525.531	1.184563	0.110644	0.110348	532.236	60014.5	0.103993	0.329270	1616.41	95554.9