File: remote_trans/data/nanoindenter/0828-1/data/Data_2025-08-06,11h17m57s/2025-07-22_16-23-58_1_42.txt
2025-07-22, 16:23:58, 1
Index	Phase	Displacement	Time	Pos X	Pos Y	Pos Z	Rot A	Rot B	Piezo Z	Force A	Force B	Gripper	Voltage A	Voltage B	Temperature	Amplitude force	Amplitude pos	Stiffness	Phase shift	Phase excitation	Force A raw	Displacement raw	HMax	HMax raw	Real Force	Real Stiffness	Contact Depth	Area	Hardness	Reduced Mod.
[#]	[#]	[um]	[s]	[um]	[um]	[um]	[m°]	[m°]	[um]	[uN]	[uN]	[V]	[V]	[V]	[°C]	[uN]	[um]	[N/m]	[°]	[°]	[uN]	[um]	[um]	[um]	[uN]	[N/m]	[um]	[um^2]	[MPa]	[MPa]
42	1.000000	0.002464	7.36545e+06	-40739.1	955.819	-29789.4	0.000000	0.000000	6.002789	-0.015282	NaN	0.000000	0.001616	0.001789	28.082	0.057115	0.000843	67.7616	-17.2849	-163.079	-0.034859	0.001223	-1.118797	-1.120038	-0.015282	67.7616	-1.118628	-8.913707E+14	1.714469E-17	NaN
42	1.000000	0.044429	7.36545e+06	-40739.1	955.819	-29789.4	0.000000	0.000000	6.044751	-0.090169	NaN	0.000000	0.001629	0.001770	28.1163	0.065840	0.001891	34.814	158.295	15.8674	-0.086068	0.043025	-1.076831	-1.078235	-0.090169	34.814	-1.074889	-2.306015E+14	3.910173E-16	NaN
42	1.000000	0.086435	7.36545e+06	-40739.1	955.819	-29789.4	0.000000	0.000000	6.086760	-0.005381	NaN	0.000000	0.001659	0.001761	28.1267	0.057801	0.002031	28.4598	162.149	-167.468	-0.057877	0.085148	-1.034825	-1.036113	-0.005381	28.4598	-1.034684	-6.644689E+13	8.097901E-17	NaN
42	1.000000	0.128469	7.36545e+06	-40739.1	955.819	-29789.5	0.000000	0.000000	6.128795	0.018441	NaN	0.000000	0.001645	0.001786	28.0891	0.036130	0.002000	18.0649	107.056	18.3596	-0.056269	0.127081	-0.992791	-0.994179	0.018441	18.0649	-0.993557	-1.857874E+13	-9.926012E-16	NaN
42	1.000000	0.170458	7.36545e+06	-40739.1	955.819	-29789.5	0.000000	0.000000	6.170783	-0.027434	NaN	0.000000	0.001634	0.001759	28.0831	0.088025	0.001924	45.7511	-31.1045	-167.016	-0.036023	0.169153	-0.950802	-0.952107	-0.027434	45.7511	-0.950352	-4.861624E+12	5.642978E-15	NaN
42	1.000000	0.212513	7.36545e+06	-40739.1	955.818	-29789.5	0.000000	0.000000	6.212835	-0.094916	NaN	0.000000	0.001608	0.001755	28.1156	0.153056	0.001908	80.2134	168.758	15.5316	-0.021073	0.211118	-0.908747	-0.910143	-0.094916	80.2134	-0.907859	-1.297926E+12	7.312896E-14	NaN
42	1.000000	0.254513	7.36545e+06	-40739.1	955.818	-29789.5	0.000000	0.000000	6.254840	0.022562	NaN	0.000000	0.001631	0.001838	28.1265	0.088447	0.002035	43.4666	61.8974	-167.576	0.071331	0.253177	-0.866747	-0.868084	0.022562	43.4666	-0.867136	-3.653389E+11	-6.175645E-14	NaN
42	1.000000	0.296538	7.36545e+06	-40739.1	955.818	-29789.5	0.000000	0.000000	6.296868	0.089746	NaN	0.000000	0.001595	0.001774	28.0869	0.070108	0.001958	35.8002	83.9163	13.6656	0.043953	0.295177	-0.824722	-0.826083	0.089746	35.8002	-0.826602	-1.032116E+11	-8.695309E-13	NaN
42	1.000000	0.338583	7.36546e+06	-40739.1	955.819	-29789.5	0.000000	0.000000	6.338908	-0.035423	NaN	0.000000	0.001587	0.001794	28.0823	0.055714	0.002214	25.169	130.458	-164.224	-0.066366	0.337259	-0.782677	-0.784001	-0.035423	25.169	-0.781621	-2.530824E+10	1.399656E-12	NaN
42	1.000000	0.380563	7.36546e+06	-40739.1	955.819	-29789.5	0.000000	0.000000	6.380884	-0.123090	NaN	0.000000	0.001630	0.001793	28.1147	0.047095	0.002047	23.0088	179.408	13.034	-0.056025	0.379211	-0.740697	-0.742049	-0.123090	23.0088	-0.736685	-6.192941E+9	1.987585E-11	NaN
42	1.000000	0.422579	7.36546e+06	-40739.1	955.818	-29789.5	0.000000	0.000000	6.422905	-0.002831	NaN	0.000000	0.001626	0.001770	28.1283	0.060897	0.002086	29.1874	-134.631	-163.171	-0.088298	0.421274	-0.698681	-0.699987	-0.002831	29.1874	-0.698608	-1.872953E+9	1.511490E-12	NaN
42	1.000000	0.464588	7.36546e+06	-40739.1	955.819	-29789.5	0.000000	0.000000	6.464913	-0.031198	NaN	0.000000	0.001620	0.001807	28.0869	0.101498	0.002084	48.7072	5.047577	16.8816	0.008444	0.463245	-0.656672	-0.658016	-0.031198	48.7072	-0.656192	-4.923738E+8	6.336268E-11	NaN
42	1.000000	0.506623	7.36546e+06	-40739.1	955.818	-29789.5	0.000000	0.000000	6.506947	-0.028058	NaN	0.000000	0.001631	0.001802	28.0825	0.082319	0.001910	43.0946	-27.2175	-167.678	-0.004656	0.505310	-0.614638	-0.615950	-0.028058	43.0946	-0.614149	-1.303737E+8	2.152118E-10	NaN
42	1.000000	0.548642	7.36546e+06	-40739.1	955.819	-29789.5	0.000000	0.000000	6.548967	-0.019700	NaN	0.000000	0.001629	0.001798	28.1114	0.026962	0.001951	13.8181	6.615825	17.3823	0.018900	0.547268	-0.572618	-0.573993	-0.019700	13.8181	-0.571549	-3.373150E+7	5.840310E-10	NaN
42	1.000000	0.590669	7.36546e+06	-40739.1	955.817	-29789.5	0.000000	0.000000	6.590995	-0.010976	NaN	0.000000	0.001614	0.001822	28.1285	0.008326	0.001931	4.312282	-65.0951	-163.955	-0.006373	0.589323	-0.530591	-0.531938	-0.010976	4.312282	-0.528682	-8.59548e+06	1.276947E-9	NaN
42	1.000000	0.632659	7.36546e+06	-40739.1	955.817	-29789.5	0.000000	0.000000	6.632983	-0.044891	NaN	0.000000	0.001637	0.001790	28.0883	0.049013	0.002012	24.3654	-179.051	16.9275	-0.088880	0.631316	-0.488601	-0.489945	-0.044891	24.3654	-0.487219	-2.27261e+06	1.975308E-8	NaN
42	1.000000	0.674696	7.36546e+06	-40739.1	955.818	-29789.5	0.000000	0.000000	6.675019	-0.060567	NaN	0.000000	0.001610	0.001785	28.0818	0.090573	0.001959	46.227	119.742	-165.273	-0.001324	0.673386	-0.446565	-0.447875	-0.060567	46.227	-0.445582	-591692	1.023629E-7	NaN
42	1.000000	0.716730	7.36546e+06	-40739.1	955.818	-29789.5	0.000000	0.000000	6.717054	-0.043870	NaN	0.000000	0.001593	0.001829	28.1121	0.093244	0.001989	46.8805	-128.074	17.3809	-0.018118	0.715402	-0.404530	-0.405858	-0.043870	46.8805	-0.403829	-151553	2.894703E-7	NaN
42	1.000000	0.758715	7.36546e+06	-40739.1	955.818	-29789.5	0.000000	0.000000	6.759038	-0.061985	NaN	0.000000	0.001589	0.001833	28.1298	0.076031	0.001928	39.4424	133.401	-162.26	-0.096577	0.757419	-0.362545	-0.363841	-0.061985	39.4424	-0.361367	-37290.4	1.662226E-6	NaN
42	1.000000	0.800768	7.36546e+06	-40739.1	955.818	-29789.5	0.000000	0.000000	6.801093	-0.036073	NaN	0.000000	0.001605	0.001790	28.088	0.049328	0.002023	24.382	172.933	14.8653	-0.034565	0.799402	-0.320492	-0.321858	-0.036073	24.382	-0.319382	-9110.55	3.959438E-6	NaN
42	1.000000	0.842755	7.36546e+06	-40739.1	955.818	-29789.5	0.000000	0.000000	6.843078	-0.078484	NaN	0.000000	0.001625	0.001766	28.0814	0.023640	0.002083	11.3463	178.036	-162.834	-0.082241	0.841428	-0.278505	-0.279832	-0.078484	11.3463	-0.273317	-1870.27	4.196399E-5	NaN
42	1.000000	0.884770	7.36546e+06	-40739.1	955.818	-29789.5	0.000000	0.000000	6.885091	-0.108423	NaN	0.000000	0.001656	0.001783	28.1093	0.124552	0.002015	61.8104	-129.484	13.6783	-0.066252	0.883402	-0.236491	-0.237858	-0.108423	61.8104	-0.235175	-483.056	0.000224	NaN
42	1.000000	0.926833	7.36546e+06	-40739.1	955.819	-29789.5	0.000000	0.000000	6.927155	-0.111078	NaN	0.000000	0.001628	0.001826	28.1301	0.019442	0.001962	9.910291	20.3465	-167.112	-0.121007	0.925478	-0.194427	-0.195782	-0.111078	9.910291	-0.186021	-77.1467	0.001440	NaN
42	1.000000	0.968803	7.36546e+06	-40739.1	955.819	-29789.5	0.000000	0.000000	6.969125	-0.094209	NaN	0.000000	0.001607	0.001786	28.0895	0.068132	0.002095	32.5166	-85.6933	14.4829	-0.120257	0.967452	-0.152457	-0.153808	-0.094209	32.5166	-0.150284	-18.3311	0.005139	NaN
42	1.000000	1.010849	7.36546e+06	-40739.1	955.82	-29789.5	0.000000	0.000000	7.011171	-0.079175	NaN	0.000000	0.001580	0.001813	28.0827	0.031989	0.002007	15.941	-18.2602	-166.267	-0.109578	1.009480	-0.110412	-0.111780	-0.079175	15.941	-0.106687	-2.555385	0.030984	NaN
42	1.000000	1.052836	7.36546e+06	-40739.1	955.819	-29789.5	0.000000	0.000000	7.053158	-0.077455	NaN	0.000000	0.001554	0.001818	28.1091	0.162657	0.002172	74.8835	-128.315	13.0452	-0.037771	1.051507	-0.068425	-0.069753	-0.077455	74.8835	-0.067649	-0.294703	0.262824	NaN
42	1.000000	1.094865	7.36546e+06	-40739.1	955.819	-29789.5	0.000000	0.000000	7.095189	-0.054019	NaN	0.000000	0.001609	0.001759	28.1294	0.062681	0.002124	29.5167	105.969	-164.954	-0.010393	1.093555	-0.026395	-0.027705	-0.054019	29.5167	-0.025023	-0.016893	3.197624	NaN
42	2.000000	1.130025	7.36546e+06	-40739.1	955.82	-29789.5	0.000000	0.000000	7.130790	10.6837	NaN	0.000000	0.001566	0.001796	28.0901	11.142	0.001679	6636.43	6.583478	6.647467	10.096	1.129726	0.008764	0.008466	10.6837	6636.43	0.007557	0.006591	1621.05	74686.9
42	2.000000	1.140440	7.36546e+06	-40739.1	955.82	-29789.5	0.000000	0.000000	7.142012	30.3104	NaN	0.000000	0.001572	0.001773	28.0833	22.8238	0.001825	12505.9	9.096653	-178.673	29.5478	1.140046	0.019180	0.018785	30.3104	12505.9	0.017362	0.018565	1632.63	83856.2
42	2.000000	1.150902	7.36546e+06	-40739.1	955.82	-29789.5	0.000000	0.000000	7.153555	56.6239	NaN	0.000000	0.001635	0.001756	28.1083	33.1334	0.001786	18547.3	5.395135	0.158920	54.4708	1.150477	0.029641	0.029217	56.6239	18547.3	0.027352	0.035433	1598.04	90021.6
42	2.000000	1.161335	7.36546e+06	-40739.1	955.82	-29789.5	0.000000	0.000000	7.165750	99.5028	NaN	0.000000	0.001629	0.001748	28.13	43.3113	0.001809	23947.5	4.762181	177.774	96.4441	1.161054	0.040075	0.039793	99.5028	23947.5	0.036958	0.056404	1764.11	92125.4
42	2.000000	1.171906	7.36546e+06	-40739.1	955.82	-29789.5	0.000000	0.000000	7.178075	142.186	NaN	0.000000	0.001666	0.001689	28.0907	53.0871	0.001720	30871.4	5.787498	-5.094602	142.392	1.171543	0.050646	0.050283	142.186	30871.4	0.047192	0.083930	1694.1	97357.6
42	2.000000	1.182401	7.36546e+06	-40739.1	955.82	-29789.5	0.000000	0.000000	7.191053	202.608	NaN	0.000000	0.001574	0.001713	28.0801	64.216	0.001834	35020.4	5.431669	174.566	200.962	1.181995	0.061140	0.060735	202.608	35020.4	0.056801	0.114588	1768.14	94520.2
42	2.000000	1.192908	7.36546e+06	-40739.1	955.82	-29789.5	0.000000	0.000000	7.204210	267.082	NaN	0.000000	0.001605	0.001698	28.1077	75.8312	0.001833	41365.6	6.889570	-8.677582	268.456	1.192606	0.071648	0.071346	267.082	41365.6	0.066805	0.151335	1764.84	97149.9
42	2.000000	1.203213	7.36546e+06	-40739.1	955.819	-29789.5	0.000000	0.000000	7.217202	332.467	NaN	0.000000	0.001573	0.001713	28.1293	84.3522	0.001754	48101.2	3.276626	173.72	326.588	1.203006	0.081953	0.081746	332.467	48101.2	0.076769	0.192709	1725.23	100110
42	2.000000	1.213775	7.36546e+06	-40739.1	955.819	-29789.5	0.000000	0.000000	7.231139	414.599	NaN	0.000000	0.001590	0.001705	28.0927	93.4143	0.001819	51359.2	3.427442	-6.233854	409.535	1.213523	0.092514	0.092262	414.599	51359.2	0.086460	0.237416	1746.3	96302.2
42	2.000000	1.224400	7.36546e+06	-40739.1	955.821	-29789.5	0.000000	0.000000	7.245135	496.61	NaN	0.000000	0.001582	0.001727	28.0804	104.699	0.001863	56194.7	6.407744	169.682	500.692	1.223967	0.103140	0.102707	496.61	56194.7	0.096512	0.288362	1722.17	95609.1
42	2.000000	1.226326	7.36546e+06	-40739.1	955.82	-29789.5	0.000000	0.000000	7.247860	516.066	NaN	0.000000	0.001585	0.001699	28.0808	106.19	0.001608	66021.8	2.855759	172.108	513.272	1.225989	0.105065	0.104728	516.066	66021.8	0.099203	0.302784	1704.4	109621