File: remote_trans/data/nanoindenter/0828-1/data/Data_2025-08-06,11h17m57s/2025-07-22_16-23-58_1_50.txt
2025-07-22, 16:23:58, 1
Index	Phase	Displacement	Time	Pos X	Pos Y	Pos Z	Rot A	Rot B	Piezo Z	Force A	Force B	Gripper	Voltage A	Voltage B	Temperature	Amplitude force	Amplitude pos	Stiffness	Phase shift	Phase excitation	Force A raw	Displacement raw	HMax	HMax raw	Real Force	Real Stiffness	Contact Depth	Area	Hardness	Reduced Mod.
[#]	[#]	[um]	[s]	[um]	[um]	[um]	[m°]	[m°]	[um]	[uN]	[uN]	[V]	[V]	[V]	[°C]	[uN]	[um]	[N/m]	[°]	[°]	[uN]	[um]	[um]	[um]	[uN]	[N/m]	[um]	[um^2]	[MPa]	[MPa]
50	1.000000	0.001581	7.36553e+06	-41139.1	955.818	-29787.9	0.000000	0.000000	6.002789	0.012854	NaN	0.000000	0.001607	0.001662	28.1216	0.014440	0.000946	15.2608	76.3658	-172.548	-0.072444	0.000333	-1.119787	-1.121035	0.012854	15.2608	-1.120418	-9.420761E+14	-1.364431E-17	NaN
50	1.000000	0.043567	7.36553e+06	-41139.1	955.817	-29787.9	0.000000	0.000000	6.044773	-0.036396	NaN	0.000000	0.001605	0.001719	28.1233	0.100685	0.001928	52.2286	-24.3304	15.8903	-0.007442	0.042142	-1.077801	-1.079226	-0.036396	52.2286	-1.077278	-2.482918E+14	1.465843E-16	NaN
50	1.000000	0.085554	7.36553e+06	-41139.1	955.818	-29787.9	0.000000	0.000000	6.086757	-0.081003	NaN	0.000000	0.001642	0.001705	28.0853	0.027127	0.002055	13.2035	62.235	-166.07	-0.029098	0.084237	-1.035815	-1.037131	-0.081003	13.2035	-1.031213	-5.967618E+13	1.357373E-15	NaN
50	1.000000	0.127587	7.36553e+06	-41139.1	955.819	-29787.9	0.000000	0.000000	6.128789	-0.095573	NaN	0.000000	0.001597	0.001696	28.0851	0.092235	0.002074	44.4693	-26.3829	12.4886	-0.087145	0.126214	-0.993782	-0.995154	-0.095573	44.4693	-0.992170	-1.779642E+13	5.370369E-15	NaN
50	1.000000	0.169581	7.36553e+06	-41139.1	955.818	-29787.9	0.000000	0.000000	6.170786	-0.043006	NaN	0.000000	0.001657	0.001686	28.1195	0.071646	0.001882	38.0663	44.4321	-167.762	-0.013544	0.168255	-0.951787	-0.953114	-0.043006	38.0663	-0.950940	-4.951130E+12	8.686095E-15	NaN
50	1.000000	0.211610	7.36553e+06	-41139.1	955.818	-29787.9	0.000000	0.000000	6.212815	-0.040364	NaN	0.000000	0.001655	0.001674	28.125	0.146803	0.001956	75.0554	-128.807	10.2693	-0.053558	0.210268	-0.909758	-0.911100	-0.040364	75.0554	-0.909355	-1.359724E+12	2.968513E-14	NaN
50	1.000000	0.253645	7.36553e+06	-41139.1	955.818	-29787.9	0.000000	0.000000	6.254851	-0.038953	NaN	0.000000	0.001628	0.001684	28.0857	0.044310	0.002044	21.6742	-153.572	-167.35	-0.071421	0.252316	-0.867723	-0.869052	-0.038953	21.6742	-0.866375	-3.567746E+11	1.091797E-13	NaN
50	1.000000	0.295669	7.36553e+06	-41139.1	955.819	-29787.9	0.000000	0.000000	6.296872	-0.093450	NaN	0.000000	0.001569	0.001767	28.0858	0.059078	0.001988	29.7198	-50.2456	12.0931	-0.078131	0.294286	-0.825699	-0.827083	-0.093450	29.7198	-0.823341	-9.321959E+10	1.002467E-12	NaN
50	1.000000	0.337679	7.36554e+06	-41139.1	955.818	-29787.9	0.000000	0.000000	6.338883	-0.054192	NaN	0.000000	0.001666	0.001753	28.1193	0.009509	0.002083	4.566349	-177.963	-164.675	-0.049460	0.336369	-0.783689	-0.784999	-0.054192	4.566349	-0.774789	-2.043647E+10	2.651740E-12	NaN
50	1.000000	0.379682	7.36554e+06	-41139.1	955.819	-29787.9	0.000000	0.000000	6.380886	-0.066137	NaN	0.000000	0.001589	0.001746	28.1227	0.064172	0.002121	30.2601	-129.668	14.9932	0.017143	0.378313	-0.741686	-0.743056	-0.066137	30.2601	-0.740047	-6.881681E+9	9.610624E-12	NaN
50	1.000000	0.421727	7.36554e+06	-41139.1	955.818	-29787.9	0.000000	0.000000	6.422928	-0.148545	NaN	0.000000	0.001633	0.001753	28.0829	0.052703	0.001901	27.7171	4.406338	-164.976	-0.039953	0.420389	-0.699641	-0.700979	-0.148545	27.7171	-0.695622	-1.705026E+9	8.712157E-11	NaN
50	1.000000	0.463716	7.36554e+06	-41139.1	955.818	-29787.9	0.000000	0.000000	6.464921	-0.036343	NaN	0.000000	0.001634	0.001741	28.0834	0.040007	0.002012	19.88	2.347549	12.101	-0.041924	0.462371	-0.657652	-0.658997	-0.036343	19.88	-0.656281	-4.937637E+8	7.360372E-11	NaN
50	1.000000	0.505721	7.36554e+06	-41139.1	955.818	-29787.9	0.000000	0.000000	6.506928	0.007107	NaN	0.000000	0.001683	0.001754	28.1186	0.116074	0.001824	63.6206	-21.2416	-167.462	-0.006812	0.504385	-0.615647	-0.616983	0.007107	63.6206	-0.615731	-1.370689E+8	-5.185264E-11	NaN
50	1.000000	0.547771	7.36554e+06	-41139.1	955.818	-29787.9	0.000000	0.000000	6.548975	-0.070907	NaN	0.000000	0.001655	0.001765	28.1251	0.072987	0.001966	37.1301	-168.706	15.6481	-0.089498	0.546409	-0.573597	-0.574959	-0.070907	37.1301	-0.572165	-3.439879E+7	2.061325E-9	NaN
50	1.000000	0.589790	7.36554e+06	-41139.1	955.817	-29787.9	0.000000	0.000000	6.590996	-0.026829	NaN	0.000000	0.001691	0.001782	28.0854	0.036674	0.002072	17.6979	10.1795	-167.144	-0.132984	0.588511	-0.531578	-0.532857	-0.026829	17.6979	-0.530441	-9.09279e+06	2.950560E-9	NaN
50	1.000000	0.631803	7.36554e+06	-41139.1	955.818	-29787.9	0.000000	0.000000	6.633008	-0.052309	NaN	0.000000	0.001608	0.001770	28.083	0.063520	0.001966	32.3083	-95.8256	16.0943	-0.012589	0.630408	-0.489565	-0.490960	-0.052309	32.3083	-0.488351	-2.35691e+06	2.219392E-8	NaN
50	1.000000	0.673832	7.36554e+06	-41139.1	955.818	-29787.9	0.000000	0.000000	6.675037	-0.042503	NaN	0.000000	0.001666	0.001745	28.1162	0.040335	0.002028	19.8899	-15.8766	-166.634	-0.043845	0.672454	-0.447536	-0.448914	-0.042503	19.8899	-0.445933	-598475	7.101815E-8	NaN
50	1.000000	0.715846	7.36554e+06	-41139.1	955.819	-29787.9	0.000000	0.000000	6.717052	-0.034183	NaN	0.000000	0.001673	0.001672	28.125	0.042980	0.001946	22.0821	-52.4298	11.6028	-0.081173	0.714484	-0.405522	-0.406885	-0.034183	22.0821	-0.404361	-154222	2.216459E-7	NaN
50	1.000000	0.757848	7.36554e+06	-41139.1	955.819	-29787.9	0.000000	0.000000	6.759050	-0.133851	NaN	0.000000	0.001647	0.001723	28.0852	0.037643	0.001985	18.9619	-58.9062	-168.485	-0.129859	0.756541	-0.363520	-0.364827	-0.133851	18.9619	-0.358226	-33588.4	3.985045E-6	NaN
50	1.000000	0.799876	7.36554e+06	-41139.1	955.817	-29787.9	0.000000	0.000000	6.801081	-0.057579	NaN	0.000000	0.001616	0.001731	28.0832	0.088926	0.001986	44.7828	62.4998	14.1538	-0.084391	0.798455	-0.321492	-0.322913	-0.057579	44.7828	-0.320528	-9471.18	6.079342E-6	NaN
50	1.000000	0.841886	7.36554e+06	-41139.1	955.819	-29787.9	0.000000	0.000000	6.843092	-0.028157	NaN	0.000000	0.001636	0.001749	28.1176	0.045862	0.002049	22.3778	-30.487	-165.081	-0.020951	0.840555	-0.279482	-0.280814	-0.028157	22.3778	-0.278538	-2243.42	1.255085E-5	NaN
50	1.000000	0.883894	7.36554e+06	-41139.1	955.818	-29787.9	0.000000	0.000000	6.885099	-0.046379	NaN	0.000000	0.001671	0.001701	28.125	0.081240	0.002026	40.0889	7.014755	12.3759	-0.099431	0.882499	-0.237474	-0.238869	-0.046379	40.0889	-0.236606	-508.685	9.117469E-5	NaN
50	1.000000	0.925881	7.36554e+06	-41139.1	955.819	-29787.9	0.000000	0.000000	6.927082	-0.139258	NaN	0.000000	0.001639	0.001704	28.0866	0.067201	0.002076	32.377	166.583	-163.086	-0.176427	0.924616	-0.195487	-0.196752	-0.139258	32.377	-0.192261	-98.1131	0.001419	NaN
50	1.000000	0.967936	7.36554e+06	-41139.1	955.819	-29787.9	0.000000	0.000000	6.969142	-0.018354	NaN	0.000000	0.001670	0.001712	28.0817	0.057231	0.001996	28.6759	-87.5637	12.3039	-0.044843	0.966613	-0.153432	-0.154755	-0.018354	28.6759	-0.152952	-20.4941	0.000896	NaN
50	1.000000	1.009944	7.36554e+06	-41139.1	955.818	-29787.9	0.000000	0.000000	7.011152	0.024606	NaN	0.000000	0.001653	0.001762	28.1153	0.018517	0.002082	8.892504	-59.7108	-166.419	-0.068851	1.008693	-0.111424	-0.112675	0.024606	8.892504	-0.113499	-3.556877	-0.006918	NaN
50	1.000000	1.051960	7.36554e+06	-41139.1	955.819	-29787.9	0.000000	0.000000	7.053161	-0.140865	NaN	0.000000	0.001757	0.001761	28.1257	0.022696	0.002011	11.2844	-119.619	17.675	-0.017008	1.050587	-0.069408	-0.070782	-0.140865	11.2844	-0.060046	-0.180639	0.779813	NaN
50	1.000000	1.093996	7.36554e+06	-41139.1	955.819	-29787.9	0.000000	0.000000	7.095202	-0.009861	NaN	0.000000	0.001710	0.001729	28.0875	0.053308	0.001926	27.6815	3.707661	-169.559	-0.110332	1.092655	-0.027373	-0.028713	-0.009861	27.6815	-0.027105	-0.019179	0.514172	NaN
50	2.000000	1.133007	7.36554e+06	-41139.1	955.819	-29787.9	0.000000	0.000000	7.134751	13.0543	NaN	0.000000	0.001690	0.001712	28.0841	11.2956	0.001568	7202.55	5.688387	7.275575	12.1641	1.132639	0.011639	0.011271	13.0543	7202.55	0.010280	0.009494	1374.98	67535.1
50	2.000000	1.143401	7.36554e+06	-41139.1	955.819	-29787.9	0.000000	0.000000	7.145934	32.2646	NaN	0.000000	0.001696	0.001756	28.114	24.2091	0.001762	13737.2	5.156605	-176.864	32.9012	1.143080	0.022033	0.021712	32.2646	13737.2	0.020272	0.022971	1404.59	82810
50	2.000000	1.153890	7.36554e+06	-41139.1	955.817	-29787.9	0.000000	0.000000	7.158104	73.1705	NaN	0.000000	0.001628	0.001766	28.1247	34.7464	0.001752	19834.3	4.904901	-1.516106	71.6334	1.153508	0.032521	0.032139	73.1705	19834.3	0.029755	0.040237	1818.5	90339.9
50	2.000000	1.164281	7.36554e+06	-41139.1	955.818	-29787.9	0.000000	0.000000	7.171149	137.743	NaN	0.000000	0.001639	0.001724	28.0866	45.7242	0.001815	25192.6	5.476926	176.521	133.495	1.164022	0.042913	0.042654	137.743	25192.6	0.038812	0.060994	2258.29	93196.7
50	2.000000	1.174768	7.36554e+06	-41139.1	955.819	-29787.9	0.000000	0.000000	7.184818	215.182	NaN	0.000000	0.001654	0.001736	28.0825	54.5122	0.001786	30514.4	2.895373	-2.641902	209.278	1.174403	0.053400	0.053035	215.182	30514.4	0.048111	0.086665	2482.93	94701.6
50	2.000000	1.185338	7.36554e+06	-41139.1	955.818	-29787.9	0.000000	0.000000	7.199217	308.35	NaN	0.000000	0.001714	0.001736	28.1155	67.457	0.001701	39667.1	8.834860	170.262	307.841	1.184975	0.063970	0.063607	308.35	39667.1	0.058140	0.119222	2586.35	104960
50	2.000000	1.195790	7.36554e+06	-41139.1	955.819	-29787.9	0.000000	0.000000	7.213127	392.504	NaN	0.000000	0.001723	0.001777	28.1268	77.5515	0.001760	44071.8	6.054877	-9.525242	386.314	1.195560	0.074422	0.074192	392.504	44071.8	0.067742	0.155025	2531.87	102267
50	2.000000	1.206271	7.36554e+06	-41139.1	955.818	-29787.9	0.000000	0.000000	7.228372	508.421	NaN	0.000000	0.001716	0.001765	28.0887	86.8348	0.001717	50564.7	6.878474	169.287	505.477	1.205956	0.084903	0.084588	508.421	50564.7	0.077362	0.195317	2603.05	104532
50	2.000000	1.216760	7.36554e+06	-41139.1	955.819	-29787.9	0.000000	0.000000	7.243394	618.716	NaN	0.000000	0.001658	0.001769	28.0814	95.8383	0.001762	54391.3	1.537828	-5.925211	612.69	1.216405	0.095392	0.095036	618.716	54391.3	0.086860	0.239356	2584.91	101573
50	2.000000	1.227229	7.36554e+06	-41139.1	955.819	-29787.9	0.000000	0.000000	7.259660	759.792	NaN	0.000000	0.001689	0.001716	28.1126	106.119	0.001803	58853.8	3.732303	172.06	756.251	1.226848	0.105860	0.105480	759.792	58853.8	0.096178	0.286595	2651.1	100441
50	2.000000	1.230740	7.36554e+06	-41139.1	955.819	-29787.9	0.000000	0.000000	7.264272	786.563	NaN	0.000000	0.001691	0.001717	28.0815	109.175	0.001764	61874.7	1.966663	-7.032797	780.683	1.230357	0.109371	0.108989	786.563	61874.7	0.099837	0.306231	2568.52	102155