File: remote_trans/data/nanoindenter/0828-1/data/Data_2025-08-06,11h17m57s/2025-07-22_16-23-58_1_139.txt
2025-07-22, 16:23:58, 1
Index	Phase	Displacement	Time	Pos X	Pos Y	Pos Z	Rot A	Rot B	Piezo Z	Force A	Force B	Gripper	Voltage A	Voltage B	Temperature	Amplitude force	Amplitude pos	Stiffness	Phase shift	Phase excitation	Force A raw	Displacement raw	HMax	HMax raw	Real Force	Real Stiffness	Contact Depth	Area	Hardness	Reduced Mod.
[#]	[#]	[um]	[s]	[um]	[um]	[um]	[m°]	[m°]	[um]	[uN]	[uN]	[V]	[V]	[V]	[°C]	[uN]	[um]	[N/m]	[°]	[°]	[uN]	[um]	[um]	[um]	[uN]	[N/m]	[um]	[um^2]	[MPa]	[MPa]
139	1.000000	0.002059	7.3664e+06	-45589.1	955.818	-29772.4	0.000000	0.000000	6.002796	-0.025487	NaN	0.000000	0.001654	0.001609	28.129	0.066560	0.000977	68.1178	-5.499083	-169.293	-0.025892	0.000754	-1.057880	-1.059185	-0.025487	68.1178	-1.057600	-1.350708E+14	1.886901E-16	NaN
139	1.000000	0.042010	7.3664e+06	-45589.1	955.818	-29772.4	0.000000	0.000000	6.042748	-0.017712	NaN	0.000000	0.001649	0.001644	28.1268	0.137820	0.002093	65.8522	-53.2943	-163.594	-0.032799	0.040672	-1.017929	-1.019267	-0.017712	65.8522	-1.017727	-3.929822E+13	4.507147E-16	NaN
139	1.000000	0.082002	7.3664e+06	-45589.1	955.818	-29772.4	0.000000	0.000000	6.082742	0.040263	NaN	0.000000	0.001618	0.001646	28.1284	0.064976	0.001949	33.3428	11.3087	-163.839	-0.058846	0.080689	-0.977937	-0.979250	0.040263	33.3428	-0.978843	-1.177112E+13	-3.420516E-15	NaN
139	1.000000	0.122049	7.3664e+06	-45589.1	955.818	-29772.4	0.000000	0.000000	6.122786	-0.021010	NaN	0.000000	0.001591	0.001619	28.127	0.031865	0.002065	15.4323	140.38	-165.384	0.003627	0.120711	-0.937890	-0.939228	-0.021010	15.4323	-0.936869	-3.198133E+12	6.569564E-15	NaN
139	1.000000	0.162048	7.3664e+06	-45589.1	955.818	-29772.4	0.000000	0.000000	6.162786	-0.023996	NaN	0.000000	0.001647	0.001627	28.1295	0.115151	0.002046	56.2776	136.673	-166.241	-0.111534	0.160694	-0.897891	-0.899245	-0.023996	56.2776	-0.897571	-9.424261E+11	2.546221E-14	NaN
139	1.000000	0.202064	7.3664e+06	-45589.1	955.818	-29772.4	0.000000	0.000000	6.202798	-0.092068	NaN	0.000000	0.001681	0.001616	28.1289	0.031207	0.001994	15.6531	-6.534029	-169.6	-0.052919	0.200730	-0.857876	-0.859209	-0.092068	15.6531	-0.853464	-2.385856E+11	3.858914E-13	NaN
139	1.000000	0.242125	7.3664e+06	-45589.1	955.818	-29772.4	0.000000	0.000000	6.242864	0.007347	NaN	0.000000	0.001634	0.001645	28.1299	0.044277	0.002034	21.7644	51.6987	-166.784	-0.006168	0.240783	-0.817814	-0.819156	0.007347	21.7644	-0.818067	-7.906756E+10	-9.292376E-14	NaN
139	1.000000	0.282101	7.3664e+06	-45589.1	955.819	-29772.4	0.000000	0.000000	6.282838	-0.028235	NaN	0.000000	0.001687	0.001659	28.1294	0.054096	0.001856	29.1463	-148.101	-166.172	0.056471	0.280794	-0.777838	-0.779145	-0.028235	29.1463	-0.777112	-2.197774E+10	1.284727E-12	NaN
139	1.000000	0.322141	7.3664e+06	-45589.1	955.818	-29772.4	0.000000	0.000000	6.322881	0.042378	NaN	0.000000	0.001661	0.001597	28.1289	0.030729	0.001912	16.0756	-69.8959	-164.868	0.037819	0.320794	-0.737799	-0.739145	0.042378	16.0756	-0.739776	-6.823411E+9	-6.210747E-12	NaN
139	1.000000	0.362164	7.3664e+06	-45589.1	955.818	-29772.4	0.000000	0.000000	6.362904	0.037124	NaN	0.000000	0.001620	0.001604	28.1283	0.022569	0.001997	11.3016	-162.95	-167.361	0.093367	0.360822	-0.697775	-0.699117	0.037124	11.3016	-0.700238	-1.971449E+9	-1.883066E-11	NaN
139	1.000000	0.402139	7.3664e+06	-45589.1	955.819	-29772.4	0.000000	0.000000	6.402876	-0.042939	NaN	0.000000	0.001674	0.001631	28.1288	0.146765	0.002006	73.1626	176.511	-166.464	-0.064289	0.400807	-0.657800	-0.659132	-0.042939	73.1626	-0.657360	-5.108590E+8	8.405335E-11	NaN
139	1.000000	0.442175	7.3664e+06	-45589.1	955.819	-29772.4	0.000000	0.000000	6.442913	0.004792	NaN	0.000000	0.001591	0.001690	28.129	0.145642	0.002072	70.2808	44.8516	-165.836	-0.009099	0.440879	-0.617764	-0.619060	0.004792	70.2808	-0.617816	-1.464212E+8	-3.273005E-11	NaN
139	1.000000	0.482198	7.3664e+06	-45589.1	955.818	-29772.4	0.000000	0.000000	6.482935	-0.022232	NaN	0.000000	0.001635	0.001624	28.13	0.092742	0.001978	46.8954	175.705	-161.262	-0.061876	0.480894	-0.577741	-0.579046	-0.022232	46.8954	-0.577386	-4.061072E+7	5.474438E-10	NaN
139	1.000000	0.522211	7.3664e+06	-45589.1	955.818	-29772.4	0.000000	0.000000	6.522947	-0.069224	NaN	0.000000	0.001616	0.001661	28.1289	0.070653	0.001985	35.6003	86.9174	-166.178	-0.049678	0.520862	-0.537728	-0.539077	-0.069224	35.6003	-0.536269	-1.095484E+7	6.319015E-9	NaN
139	1.000000	0.562249	7.3664e+06	-45589.1	955.818	-29772.4	0.000000	0.000000	6.562986	-0.030727	NaN	0.000000	0.001593	0.001630	28.129	0.054458	0.001968	27.6748	56.0203	-164.667	-0.050844	0.560915	-0.497690	-0.499024	-0.030727	27.6748	-0.496858	-3.09862e+06	9.916215E-9	NaN
139	1.000000	0.602234	7.3664e+06	-45589.1	955.819	-29772.4	0.000000	0.000000	6.602972	-0.003206	NaN	0.000000	0.001627	0.001620	28.1281	0.059905	0.001915	31.2767	73.8868	-168.487	-0.058820	0.600952	-0.457705	-0.458987	-0.003206	31.2767	-0.457628	-874345	3.666930E-9	NaN
139	1.000000	0.642255	7.3664e+06	-45589.1	955.818	-29772.4	0.000000	0.000000	6.642993	-0.024407	NaN	0.000000	0.001621	0.001589	28.1293	0.082580	0.002006	41.1754	-35.8899	-165.303	-0.015503	0.640929	-0.417684	-0.419010	-0.024407	41.1754	-0.417239	-235097	1.038176E-7	NaN
139	1.000000	0.682269	7.3664e+06	-45589.1	955.818	-29772.4	0.000000	0.000000	6.683007	-0.030053	NaN	0.000000	0.001644	0.001617	28.1285	0.075067	0.001986	37.8035	135.238	-165.59	-0.023851	0.681002	-0.377670	-0.378937	-0.030053	37.8035	-0.377074	-62787	4.786430E-7	NaN
139	1.000000	0.722293	7.3664e+06	-45589.1	955.819	-29772.4	0.000000	0.000000	6.723032	0.009845	NaN	0.000000	0.001622	0.001614	28.131	0.090817	0.001973	46.0233	125.869	-165.222	-0.063433	0.720957	-0.337646	-0.338982	0.009845	46.0233	-0.337807	-16965.6	-5.803029E-7	NaN
139	1.000000	0.762310	7.3664e+06	-45589.1	955.818	-29772.4	0.000000	0.000000	6.763046	-0.049832	NaN	0.000000	0.001615	0.001605	28.13	0.048128	0.002016	23.8705	-24.7538	-169.981	-0.023752	0.760995	-0.297629	-0.298944	-0.049832	23.8705	-0.296063	-4111.15	1.212116E-5	NaN
139	1.000000	0.802313	7.3664e+06	-45589.1	955.818	-29772.4	0.000000	0.000000	6.803052	0.005297	NaN	0.000000	0.001626	0.001639	28.1311	0.100181	0.002053	48.7873	-59.5666	-165.988	-0.008632	0.801059	-0.257626	-0.258880	0.005297	48.7873	-0.257707	-1080.79	-4.900680E-6	NaN
139	1.000000	0.842351	7.3664e+06	-45589.1	955.818	-29772.4	0.000000	0.000000	6.843088	-0.033617	NaN	0.000000	0.001562	0.001657	28.1285	0.025434	0.001873	13.5778	-108.079	-165.34	-0.040223	0.841076	-0.217589	-0.218863	-0.033617	13.5778	-0.215732	-237.288	0.000142	NaN
139	1.000000	0.882367	7.3664e+06	-45589.1	955.818	-29772.4	0.000000	0.000000	6.883104	-0.016628	NaN	0.000000	0.001616	0.001605	28.1297	0.019124	0.002082	9.185705	-23.9691	-164.41	-0.060318	0.881049	-0.177572	-0.178890	-0.016628	9.185705	-0.176215	-52.581	0.000316	NaN
139	1.000000	0.922354	7.3664e+06	-45589.1	955.818	-29772.4	0.000000	0.000000	6.923090	-0.053446	NaN	0.000000	0.001625	0.001608	28.1286	0.051088	0.002027	25.1984	-173.599	-168.146	-0.029238	0.921090	-0.137585	-0.138849	-0.053446	25.1984	-0.135994	-9.936649	0.005379	NaN
139	1.000000	0.962409	7.3664e+06	-45589.1	955.818	-29772.4	0.000000	0.000000	6.963148	0.009134	NaN	0.000000	0.001622	0.001602	28.1297	0.067339	0.001943	34.6506	24.1292	-167.648	0.057326	0.961101	-0.097530	-0.098838	0.009134	34.6506	-0.097728	-1.625907	-0.005618	NaN
139	1.000000	1.002432	7.3664e+06	-45589.1	955.817	-29772.4	0.000000	0.000000	7.003170	-0.018426	NaN	0.000000	0.001642	0.001569	28.1298	0.004784	0.002013	2.376455	-162.878	-165.451	-0.044150	1.001080	-0.057507	-0.058859	-0.018426	2.376455	-0.051692	-0.102619	0.179557	NaN
139	2.000000	1.041883	7.3664e+06	-45589.1	955.817	-29772.4	0.000000	0.000000	7.043010	9.451785	NaN	0.000000	0.001723	0.001646	28.1306	2.141618	0.001838	1165.35	12.0328	-169.208	9.428405	1.041058	-0.018056	-0.018881	9.451785	1165.35	-0.024139	-0.016023	-589.905	NaN
139	2.000000	1.051972	7.3664e+06	-45589.1	955.818	-29772.4	0.000000	0.000000	7.053212	12.1936	NaN	0.000000	0.001682	0.001650	28.1296	2.725666	0.002148	1268.82	10.6651	-169.352	12.2564	1.051658	-0.007967	-0.008281	12.1936	1268.82	-0.015174	-0.009380	-1299.93	NaN
139	2.000000	1.061903	7.3664e+06	-45589.1	955.819	-29772.4	0.000000	0.000000	7.063184	13.1822	NaN	0.000000	0.001688	0.001628	28.1298	2.942548	0.002071	1420.61	8.820983	-167.607	13.2237	1.061629	0.001964	0.001690	13.1822	1420.61	-0.004995	-0.003414	-3861.59	NaN
139	2.000000	1.071898	7.3664e+06	-45589.1	955.819	-29772.4	0.000000	0.000000	7.073134	12.1025	NaN	0.000000	0.001603	0.001597	28.1285	3.518219	0.001941	1812.49	8.661894	-167.849	12.0103	1.071616	0.011959	0.011677	12.1025	1812.49	0.006951	0.005986	2021.93	21404
139	2.000000	1.081893	7.3664e+06	-45589.1	955.818	-29772.4	0.000000	0.000000	7.083588	23.2708	NaN	0.000000	0.001595	0.001643	28.1296	13.4202	0.001931	6951.34	6.079033	-171.799	22.8833	1.081541	0.021954	0.021602	23.2708	6951.34	0.019443	0.021675	1073.65	43138.7
139	2.000000	1.091874	7.3664e+06	-45589.1	955.819	-29772.4	0.000000	0.000000	7.094388	43.1972	NaN	0.000000	0.001636	0.001687	28.1295	26.4434	0.001989	13297.5	9.554916	179.165	42.8216	1.091580	0.031935	0.031641	43.1972	13297.5	0.029499	0.039711	1087.79	60966.2
139	2.000000	1.101854	7.3664e+06	-45589.1	955.819	-29772.4	0.000000	0.000000	7.105631	73.9026	NaN	0.000000	0.001661	0.001684	28.1313	34.7967	0.001856	18746.3	7.261324	177.094	73.5476	1.101530	0.041915	0.041591	73.9026	18746.3	0.038959	0.061365	1204.32	69140
139	2.000000	1.111825	7.3664e+06	-45589.1	955.819	-29772.4	0.000000	0.000000	7.116985	107.561	NaN	0.000000	0.001627	0.001672	28.1304	44.2462	0.001688	26213.7	4.753800	176.184	106.354	1.111575	0.051886	0.051636	107.561	26213.7	0.048808	0.088765	1211.75	80386.2
139	2.000000	1.121895	7.3664e+06	-45589.1	955.819	-29772.4	0.000000	0.000000	7.128836	150.893	NaN	0.000000	0.001626	0.001675	28.1316	54.8559	0.001780	30823.4	6.483389	173.03	152.165	1.121565	0.061956	0.061626	150.893	30823.4	0.058284	0.119728	1260.29	81386.9
139	2.000000	1.131844	7.3664e+06	-45589.1	955.819	-29772.4	0.000000	0.000000	7.140887	202.002	NaN	0.000000	0.001620	0.001680	28.1286	64.3022	0.001892	33979.9	10.0896	168.952	201.667	1.131438	0.071905	0.071499	202.002	33979.9	0.067447	0.153856	1312.93	79147.7
139	2.000000	1.140299	7.3664e+06	-45589.1	955.819	-29772.4	0.000000	0.000000	7.151155	246.135	NaN	0.000000	0.001646	0.001680	28.096	71.56	0.001847	38734.6	10.5705	-12.9434	243.643	1.139880	0.080359	0.079941	246.135	38734.6	0.075594	0.187583	1312.14	81710