File: remote_trans/data/nanoindenter/0828-1/data/Data_2025-08-06,11h17m57s/2025-07-22_16-23-58_1_1162.txt
2025-07-22, 16:23:58, 1
Index	Phase	Displacement	Time	Pos X	Pos Y	Pos Z	Rot A	Rot B	Piezo Z	Force A	Force B	Gripper	Voltage A	Voltage B	Temperature	Amplitude force	Amplitude pos	Stiffness	Phase shift	Phase excitation	Force A raw	Displacement raw	HMax	HMax raw	Real Force	Real Stiffness	Contact Depth	Area	Hardness	Reduced Mod.
[#]	[#]	[um]	[s]	[um]	[um]	[um]	[m°]	[m°]	[um]	[uN]	[uN]	[V]	[V]	[V]	[°C]	[uN]	[um]	[N/m]	[°]	[°]	[uN]	[um]	[um]	[um]	[uN]	[N/m]	[um]	[um^2]	[MPa]	[MPa]
1162	1.000000	0.002349	7.37642e+06	-57489.1	1105.82	-29736.7	0.000000	0.000000	6.002774	-0.032618	NaN	0.000000	0.001691	0.001682	28.0832	0.042445	0.000951	44.6365	-143.548	-169.239	-0.015097	0.001084	-1.051911	-1.053176	-0.032618	44.6365	-1.051363	-1.113622E+14	2.928974E-16	NaN
1162	1.000000	0.042302	7.37642e+06	-57489.1	1105.82	-29736.7	0.000000	0.000000	6.042726	-0.043045	NaN	0.000000	0.001686	0.001719	28.0835	0.073883	0.002219	33.2997	-37.3899	-167.96	-0.006619	0.041005	-1.011958	-1.013255	-0.043045	33.2997	-1.010989	-3.189248E+13	1.349700E-15	NaN
1162	1.000000	0.082343	7.37642e+06	-57489.1	1105.82	-29736.7	0.000000	0.000000	6.082770	0.031512	NaN	0.000000	0.001646	0.001676	28.0835	0.063821	0.001953	32.6779	138.635	-165.902	-0.078084	0.081086	-0.971917	-0.973174	0.031512	32.6779	-0.972640	-9.710598E+12	-3.245085E-15	NaN
1162	1.000000	0.122353	7.37642e+06	-57489.1	1105.82	-29736.7	0.000000	0.000000	6.122779	-0.012790	NaN	0.000000	0.001589	0.001706	28.0835	0.060670	0.002006	30.2428	30.391	-165.151	0.074149	0.120990	-0.931907	-0.933270	-0.012790	30.2428	-0.931590	-2.714278E+12	4.711991E-15	NaN
1162	1.000000	0.162342	7.37642e+06	-57489.1	1105.82	-29736.7	0.000000	0.000000	6.162769	0.022642	NaN	0.000000	0.001595	0.001694	28.0821	0.025447	0.001990	12.7855	-5.719018	-170.849	0.030485	0.161043	-0.891918	-0.893217	0.022642	12.7855	-0.893246	-8.237540E+11	-2.748693E-14	NaN
1162	1.000000	0.202379	7.37642e+06	-57489.1	1105.82	-29736.7	0.000000	0.000000	6.202806	0.023970	NaN	0.000000	0.001611	0.001726	28.0822	0.084846	0.001977	42.9215	-91.4696	-169.059	0.026058	0.201065	-0.851881	-0.853195	0.023970	42.9215	-0.852300	-2.300827E+11	-1.041798E-13	NaN
1162	1.000000	0.242405	7.37642e+06	-57489.1	1105.82	-29736.7	0.000000	0.000000	6.242831	-0.010352	NaN	0.000000	0.001557	0.001713	28.0821	0.091357	0.002065	44.2425	112.714	-167.685	-0.000672	0.241091	-0.811855	-0.813169	-0.010352	44.2425	-0.811679	-6.476660E+10	1.598410E-13	NaN
1162	1.000000	0.282419	7.37642e+06	-57489.1	1105.82	-29736.7	0.000000	0.000000	6.282847	0.026135	NaN	0.000000	0.001609	0.001739	28.0834	0.050172	0.001991	25.1983	44.0802	-167.011	-0.016529	0.281093	-0.771841	-0.773166	0.026135	25.1983	-0.772618	-1.909436E+10	-1.368742E-12	NaN
1162	1.000000	0.322414	7.37642e+06	-57489.1	1105.82	-29736.7	0.000000	0.000000	6.322838	-0.049981	NaN	0.000000	0.001582	0.001658	28.0832	0.060050	0.001997	30.0707	86.3495	-168.28	-0.008269	0.321121	-0.731846	-0.733139	-0.049981	30.0707	-0.730599	-5.116539E+9	9.768451E-12	NaN
1162	1.000000	0.362437	7.37642e+06	-57489.1	1105.82	-29736.7	0.000000	0.000000	6.362864	0.027209	NaN	0.000000	0.001600	0.001687	28.0835	0.049771	0.002004	24.8413	111.28	-165.151	0.055316	0.361132	-0.691823	-0.693128	0.027209	24.8413	-0.692645	-1.552591E+9	-1.752520E-11	NaN
1162	1.000000	0.402465	7.37642e+06	-57489.1	1105.82	-29736.7	0.000000	0.000000	6.402889	-0.036197	NaN	0.000000	0.001580	0.001643	28.0832	0.114559	0.001900	60.2866	124.746	-165.856	-0.067006	0.401134	-0.651795	-0.653126	-0.036197	60.2866	-0.651345	-4.225463E+8	8.566367E-11	NaN
1162	1.000000	0.442504	7.37642e+06	-57489.1	1105.82	-29736.7	0.000000	0.000000	6.442929	-0.027282	NaN	0.000000	0.001602	0.001664	28.0823	0.023511	0.001909	12.3155	168.306	-170.93	0.016720	0.441164	-0.611756	-0.613096	-0.027282	12.3155	-0.610094	-1.146592E+8	2.379434E-10	NaN
1162	1.000000	0.482504	7.37642e+06	-57489.1	1105.82	-29736.7	0.000000	0.000000	6.482927	-0.065980	NaN	0.000000	0.001584	0.001718	28.0821	0.080736	0.002028	39.8079	87.1118	-168.708	-0.048088	0.481197	-0.571756	-0.573062	-0.065980	39.8079	-0.570513	-3.263768E+7	2.021580E-9	NaN
1162	1.000000	0.522538	7.37642e+06	-57489.1	1105.82	-29736.7	0.000000	0.000000	6.522962	-0.057391	NaN	0.000000	0.001628	0.001685	28.082	0.106966	0.002115	50.568	-12.7448	-168.541	0.017684	0.521232	-0.531722	-0.533028	-0.057391	50.568	-0.530871	-9.2186e+06	6.225564E-9	NaN
1162	1.000000	0.562548	7.37642e+06	-57489.1	1105.82	-29736.7	0.000000	0.000000	6.562977	0.070071	NaN	0.000000	0.001599	0.001675	28.0833	0.014860	0.001924	7.724177	121.036	-165.821	0.029912	0.561218	-0.491712	-0.493041	0.070071	7.724177	-0.498516	-3.26823e+06	-2.143997E-8	NaN
1162	1.000000	0.602528	7.37642e+06	-57489.1	1105.82	-29736.7	0.000000	0.000000	6.602953	-0.032284	NaN	0.000000	0.001609	0.001680	28.0834	0.014937	0.001958	7.628606	-161.794	-167.943	0.010142	0.601221	-0.451731	-0.453039	-0.032284	7.628606	-0.448557	-651667	4.954009E-8	NaN
1162	1.000000	0.642579	7.37642e+06	-57489.1	1105.82	-29736.7	0.000000	0.000000	6.643002	-0.087203	NaN	0.000000	0.001574	0.001677	28.0832	0.034316	0.002098	16.3597	-150.141	-168.334	-0.141688	0.641248	-0.411681	-0.413012	-0.087203	16.3597	-0.407683	-171966	5.070959E-7	NaN
1162	1.000000	0.682584	7.37642e+06	-57489.1	1105.82	-29736.7	0.000000	0.000000	6.683010	0.007528	NaN	0.000000	0.001630	0.001648	28.0819	0.073354	0.001969	37.2537	60.9538	-167.347	-0.049001	0.681296	-0.371676	-0.372964	0.007528	37.2537	-0.371828	-52776.8	-1.426308E-7	NaN
1162	1.000000	0.722605	7.37642e+06	-57489.1	1105.82	-29736.7	0.000000	0.000000	6.723030	-0.033323	NaN	0.000000	0.001602	0.001718	28.0817	0.060289	0.001946	30.9757	100.103	-169.174	0.008277	0.721334	-0.331655	-0.332926	-0.033323	30.9757	-0.330848	-13423.6	2.482445E-6	NaN
1162	1.000000	0.762625	7.37642e+06	-57489.1	1105.82	-29736.7	0.000000	0.000000	6.763052	0.022945	NaN	0.000000	0.001623	0.001717	28.0818	0.067190	0.002094	32.0936	-159.706	-167.969	-0.013426	0.761318	-0.291635	-0.292942	0.022945	32.0936	-0.292171	-3595.86	-6.381062E-6	NaN
1162	1.000000	0.802644	7.37642e+06	-57489.1	1105.82	-29736.7	0.000000	0.000000	6.803068	-0.047376	NaN	0.000000	0.001594	0.001740	28.0818	0.042014	0.002045	20.5427	133.954	-167.94	-0.057939	0.801309	-0.251616	-0.252951	-0.047376	20.5427	-0.249887	-818.866	5.785541E-5	NaN
1162	1.000000	0.842667	7.37642e+06	-57489.1	1105.82	-29736.7	0.000000	0.000000	6.843093	-0.000233	NaN	0.000000	0.001607	0.001673	28.083	0.108422	0.002008	53.9931	-128.665	-170.676	0.074042	0.841351	-0.211593	-0.212909	-0.000233	53.9931	-0.211590	-203.485	1.144405E-6	NaN
1162	1.000000	0.882642	7.37642e+06	-57489.1	1105.82	-29736.7	0.000000	0.000000	6.883068	-0.014662	NaN	0.000000	0.001595	0.001662	28.083	0.067466	0.002036	33.1412	-148.793	-167.979	-0.053308	0.881339	-0.171618	-0.172921	-0.014662	33.1412	-0.171286	-43.2428	0.000339	NaN
1162	1.000000	0.922688	7.37642e+06	-57489.1	1105.82	-29736.7	0.000000	0.000000	6.923115	0.011978	NaN	0.000000	0.001645	0.001667	28.0826	0.037894	0.001994	19.0023	152.107	-166.781	0.020202	0.921367	-0.131572	-0.132893	0.011978	19.0023	-0.132045	-8.348049	-0.001435	NaN
1162	1.000000	0.962715	7.37642e+06	-57489.1	1105.82	-29736.7	0.000000	0.000000	6.963142	0.015526	NaN	0.000000	0.001591	0.001682	28.0818	0.033057	0.001950	16.9541	-53.1473	-165.81	0.071609	0.961411	-0.091545	-0.092849	0.015526	16.9541	-0.092232	-1.218505	-0.012742	NaN
1162	1.000000	1.002723	7.37642e+06	-57489.1	1105.82	-29736.7	0.000000	0.000000	7.003151	0.041682	NaN	0.000000	0.001635	0.001671	28.0817	0.059688	0.001992	29.9603	138.12	-167.315	0.023111	1.001371	-0.051537	-0.052888	0.041682	29.9603	-0.052580	-0.109110	-0.382019	NaN
1162	1.000000	1.042756	7.37642e+06	-57489.1	1105.82	-29736.7	0.000000	0.000000	7.043179	-0.074094	NaN	0.000000	0.001605	0.001663	28.0817	0.047573	0.002021	23.5387	112.556	-165.88	-0.045573	1.041400	-0.011504	-0.012860	-0.074094	23.5387	-0.009143	-0.005895	12.5682	NaN
1162	2.000000	1.065271	7.37642e+06	-57489.1	1105.82	-29736.7	0.000000	0.000000	7.066299	14.6193	NaN	0.000000	0.001601	0.001671	28.0817	14.9124	0.001811	8234.69	9.025546	-179.347	13.5131	1.064982	0.011011	0.010722	14.6193	8234.69	0.009679	0.008827	1656.12	80076
1162	2.000000	1.075211	7.37642e+06	-57489.1	1105.82	-29736.7	0.000000	0.000000	7.076987	32.8146	NaN	0.000000	0.001601	0.001652	28.0834	24.1191	0.001881	12825.5	5.874380	-178.505	31.2278	1.074959	0.020951	0.020699	32.8146	12825.5	0.019032	0.021044	1559.35	80776.7
1162	2.000000	1.085287	7.37642e+06	-57489.1	1105.82	-29736.7	0.000000	0.000000	7.088122	58.5464	NaN	0.000000	0.001582	0.001678	28.0832	34.0259	0.001870	18191.3	10.6222	175.013	60.0434	1.084864	0.031027	0.030604	58.5464	18191.3	0.028614	0.037919	1543.97	85350.4
1162	2.000000	1.095248	7.37642e+06	-57489.1	1105.82	-29736.7	0.000000	0.000000	7.099173	85.0254	NaN	0.000000	0.001613	0.001664	28.0833	43.189	0.001831	23591.9	3.262476	178.173	86.6786	1.094934	0.040989	0.040674	85.0254	23591.9	0.038286	0.059673	1424.86	88236.5
1162	2.000000	1.105213	7.37642e+06	-57489.1	1105.82	-29736.7	0.000000	0.000000	7.110862	126.955	NaN	0.000000	0.001634	0.001660	28.0822	52.5845	0.001869	28129.6	2.185404	177.715	125.978	1.104948	0.050953	0.050688	126.955	28129.6	0.047568	0.085044	1492.81	88128
1162	2.000000	1.115160	7.37642e+06	-57489.1	1105.82	-29736.7	0.000000	0.000000	7.122786	174.988	NaN	0.000000	0.001650	0.001625	28.0825	62.1438	0.001879	33078.5	4.371230	174.011	172.948	1.114927	0.060900	0.060667	174.988	33078.5	0.056933	0.115040	1521.11	89103.6
1162	2.000000	1.125117	7.37642e+06	-57489.1	1105.82	-29736.7	0.000000	0.000000	7.135063	231.359	NaN	0.000000	0.001675	0.001655	28.0821	71.0444	0.001804	39374.8	3.905180	174.378	228.325	1.124845	0.070857	0.070585	231.359	39374.8	0.066451	0.149950	1542.91	92900.6
1162	2.000000	1.135149	7.37642e+06	-57489.1	1105.82	-29736.7	0.000000	0.000000	7.147713	295.009	NaN	0.000000	0.001609	0.001649	28.0833	80.4367	0.001702	47271.1	3.168769	172.764	294.913	1.134873	0.080889	0.080614	295.009	47271.1	0.076209	0.190256	1550.59	99014.6
1162	2.000000	1.145079	7.37642e+06	-57489.1	1105.82	-29736.7	0.000000	0.000000	7.160213	357.46	NaN	0.000000	0.001622	0.001661	28.0835	91.1619	0.001729	52712.6	4.746996	170.516	354.199	1.144884	0.090820	0.090625	357.46	52712.6	0.085734	0.233913	1528.17	99577.2
1162	2.000000	1.155008	7.37642e+06	-57489.1	1105.82	-29736.7	0.000000	0.000000	7.173195	431.668	NaN	0.000000	0.001694	0.001673	28.0833	99.6046	0.001813	54940.1	6.063333	168.808	424.392	1.154812	0.100749	0.100552	431.668	54940.1	0.094856	0.279650	1543.6	94919.5
1162	2.000000	1.158124	7.37642e+06	-57489.1	1105.82	-29736.7	0.000000	0.000000	7.177617	463.411	NaN	0.000000	0.001662	0.001656	28.0835	102.003	0.001842	55364.2	6.997797	168.464	462.968	1.157691	0.103864	0.103432	463.411	55364.2	0.097587	0.294082	1575.79	93275.4