File: remote_trans/data/nanoindenter/0828-1/data/Data_2025-08-06,11h17m57s/2025-07-22_16-23-58_1_117.txt
2025-07-22, 16:23:58, 1
Index	Phase	Displacement	Time	Pos X	Pos Y	Pos Z	Rot A	Rot B	Piezo Z	Force A	Force B	Gripper	Voltage A	Voltage B	Temperature	Amplitude force	Amplitude pos	Stiffness	Phase shift	Phase excitation	Force A raw	Displacement raw	HMax	HMax raw	Real Force	Real Stiffness	Contact Depth	Area	Hardness	Reduced Mod.
[#]	[#]	[um]	[s]	[um]	[um]	[um]	[m°]	[m°]	[um]	[uN]	[uN]	[V]	[V]	[V]	[°C]	[uN]	[um]	[N/m]	[°]	[°]	[uN]	[um]	[um]	[um]	[uN]	[N/m]	[um]	[um^2]	[MPa]	[MPa]
117	1.000000	0.002206	7.36618e+06	-44489.1	955.819	-29776.2	0.000000	0.000000	6.002755	0.000573	NaN	0.000000	0.001564	0.001679	28.088	0.029376	0.000953	30.8361	86.4386	-165.902	-0.022280	0.000999	-1.047639	-1.048846	0.000573	30.8361	-1.047653	-9.928102E+13	-5.772125E-18	NaN
117	1.000000	0.042184	7.36618e+06	-44489.1	955.818	-29776.2	0.000000	0.000000	6.042736	0.066483	NaN	0.000000	0.001566	0.001666	28.0919	0.088888	0.001936	45.9211	59.3167	-163.626	-0.003820	0.040909	-1.007661	-1.008936	0.066483	45.9211	-1.008747	-2.975175E+13	-2.234604E-15	NaN
117	1.000000	0.082222	7.36618e+06	-44489.1	955.818	-29776.2	0.000000	0.000000	6.082769	-0.035646	NaN	0.000000	0.001542	0.001681	28.09	0.138271	0.001912	72.317	175.158	-163.403	-0.047430	0.080882	-0.967623	-0.968963	-0.035646	72.317	-0.967254	-8.215758E+12	4.338793E-15	NaN
117	1.000000	0.122224	7.36618e+06	-44489.1	955.819	-29776.2	0.000000	0.000000	6.122773	-0.001269	NaN	0.000000	0.001629	0.001705	28.0916	0.056051	0.002077	26.9925	-74.0226	-161.666	0.031441	0.120909	-0.927621	-0.928936	-0.001269	26.9925	-0.927585	-2.396664E+12	5.296877E-16	NaN
117	1.000000	0.162234	7.36618e+06	-44489.1	955.818	-29776.2	0.000000	0.000000	6.162782	-0.037972	NaN	0.000000	0.001655	0.001680	28.0898	0.010456	0.002007	5.210603	95.0497	-166.356	-0.009094	0.160902	-0.887611	-0.888943	-0.037972	5.210603	-0.882145	-5.830610E+11	6.512585E-14	NaN
117	1.000000	0.202277	7.36618e+06	-44489.1	955.818	-29776.2	0.000000	0.000000	6.202826	0.010679	NaN	0.000000	0.001605	0.001705	28.0908	0.063309	0.001939	32.6542	145.694	-162.101	-0.013580	0.200943	-0.847568	-0.848902	0.010679	32.6542	-0.847813	-2.000444E+11	-5.338317E-14	NaN
117	1.000000	0.242298	7.36618e+06	-44489.1	955.818	-29776.2	0.000000	0.000000	6.242849	0.042569	NaN	0.000000	0.001601	0.001677	28.0896	0.065849	0.001933	34.0706	154.362	-162.171	-0.079346	0.241026	-0.807547	-0.808819	0.042569	34.0706	-0.808484	-5.861342E+10	-7.262590E-13	NaN
117	1.000000	0.282284	7.36618e+06	-44489.1	955.819	-29776.2	0.000000	0.000000	6.282834	0.020875	NaN	0.000000	0.001622	0.001706	28.0916	0.042349	0.002063	20.5276	158.79	-163.788	-0.100565	0.281045	-0.767561	-0.768800	0.020875	20.5276	-0.768323	-1.669197E+10	-1.250594E-12	NaN
117	1.000000	0.322308	7.36618e+06	-44489.1	955.818	-29776.2	0.000000	0.000000	6.322858	0.034186	NaN	0.000000	0.001599	0.001663	28.0911	0.068266	0.002056	33.1991	147.559	-161.867	0.024175	0.320945	-0.727537	-0.728900	0.034186	33.1991	-0.728310	-4.761794E+9	-7.179299E-12	NaN
117	1.000000	0.362311	7.36618e+06	-44489.1	955.819	-29776.2	0.000000	0.000000	6.362858	-0.047831	NaN	0.000000	0.001631	0.001695	28.0925	0.169855	0.001953	86.9804	142.991	-162.676	-0.038574	0.361020	-0.687534	-0.688826	-0.047831	86.9804	-0.687122	-1.304912E+9	3.665434E-11	NaN
117	1.000000	0.402376	7.36618e+06	-44489.1	955.818	-29776.2	0.000000	0.000000	6.402924	-0.015552	NaN	0.000000	0.001594	0.001702	28.0911	0.030434	0.002073	14.6845	-76.7354	-165.798	-0.064826	0.401099	-0.647469	-0.648746	-0.015552	14.6845	-0.646675	-3.646218E+8	4.265374E-11	NaN
117	1.000000	0.442381	7.36618e+06	-44489.1	955.819	-29776.2	0.000000	0.000000	6.442928	-0.044782	NaN	0.000000	0.001662	0.001725	28.0916	0.079699	0.001947	40.9391	72.6405	-165.494	-0.049581	0.441088	-0.607464	-0.608757	-0.044782	40.9391	-0.606644	-1.027855E+8	4.356803E-10	NaN
117	1.000000	0.482400	7.36618e+06	-44489.1	955.819	-29776.2	0.000000	0.000000	6.482948	-0.020193	NaN	0.000000	0.001625	0.001680	28.0903	0.036640	0.002091	17.5269	7.816895	-165.276	-0.011233	0.481034	-0.567445	-0.568811	-0.020193	17.5269	-0.566581	-2.879887E+7	7.011802E-10	NaN
117	1.000000	0.522406	7.36618e+06	-44489.1	955.818	-29776.2	0.000000	0.000000	6.522955	0.001530	NaN	0.000000	0.001630	0.001674	28.0918	0.091330	0.001969	46.3841	165.673	-161.699	0.060874	0.521093	-0.527439	-0.528752	0.001530	46.3841	-0.527464	-8.26693e+06	-1.850891E-10	NaN
117	1.000000	0.562402	7.36618e+06	-44489.1	955.818	-29776.2	0.000000	0.000000	6.562950	-0.025471	NaN	0.000000	0.001654	0.001700	28.0923	0.053699	0.002005	26.7811	-139.877	-165.065	-0.120679	0.561135	-0.487443	-0.488710	-0.025471	26.7811	-0.486730	-2.23709e+06	1.138557E-8	NaN
117	1.000000	0.602452	7.36618e+06	-44489.1	955.818	-29776.2	0.000000	0.000000	6.603000	-0.003312	NaN	0.000000	0.001620	0.001668	28.092	0.034383	0.002069	16.622	14.9439	-166.948	-0.020467	0.601121	-0.447393	-0.448724	-0.003312	16.622	-0.447244	-624481	5.303971E-9	NaN
117	1.000000	0.642445	7.36618e+06	-44489.1	955.818	-29776.2	0.000000	0.000000	6.642992	-0.048645	NaN	0.000000	0.001613	0.001671	28.0929	0.113685	0.002007	56.6326	-140.91	-166.066	-0.018228	0.641165	-0.407400	-0.408680	-0.048645	56.6326	-0.406756	-166818	2.916031E-7	NaN
117	1.000000	0.682487	7.36618e+06	-44489.1	955.818	-29776.2	0.000000	0.000000	6.683034	-0.026022	NaN	0.000000	0.001611	0.001673	28.0935	0.067277	0.002022	33.2643	-15.2632	-165.414	0.007486	0.681188	-0.367358	-0.368657	-0.026022	33.2643	-0.366772	-44628	5.830829E-7	NaN
117	1.000000	0.722495	7.36619e+06	-44489.1	955.817	-29776.2	0.000000	0.000000	6.723045	0.010700	NaN	0.000000	0.001614	0.001722	28.0903	0.082302	0.001854	44.3967	24.896	-165.903	-0.015093	0.721210	-0.327350	-0.328635	0.010700	44.3967	-0.327530	-12002.3	-8.915259E-7	NaN
117	1.000000	0.762510	7.36619e+06	-44489.1	955.819	-29776.2	0.000000	0.000000	6.763057	-0.053501	NaN	0.000000	0.001661	0.001671	28.0923	0.113701	0.001982	57.3733	-167.899	-165.506	-0.168056	0.761240	-0.287335	-0.288605	-0.053501	57.3733	-0.286635	-2970.56	1.801045E-5	NaN
117	1.000000	0.802500	7.36619e+06	-44489.1	955.818	-29776.2	0.000000	0.000000	6.803049	0.020332	NaN	0.000000	0.001650	0.001725	28.0919	0.067424	0.001903	35.422	-81.8993	-163.76	0.003517	0.801238	-0.247345	-0.248607	0.020332	35.422	-0.247776	-759.51	-2.676980E-5	NaN
117	1.000000	0.842538	7.36619e+06	-44489.1	955.819	-29776.2	0.000000	0.000000	6.843088	0.016661	NaN	0.000000	0.001592	0.001668	28.0934	0.048700	0.001991	24.4631	-16.8181	-164.548	-0.051720	0.841197	-0.207307	-0.208648	0.016661	24.4631	-0.207818	-176.776	-9.424790E-5	NaN
117	1.000000	0.882550	7.36619e+06	-44489.1	955.818	-29776.2	0.000000	0.000000	6.883098	-0.027220	NaN	0.000000	0.001626	0.001670	28.0932	0.066445	0.002111	31.4722	166.915	-163.318	-0.022711	0.881275	-0.167295	-0.168570	-0.027220	31.4722	-0.166647	-35.9058	0.000758	NaN
117	1.000000	0.922549	7.36619e+06	-44489.1	955.818	-29776.2	0.000000	0.000000	6.923095	-0.070946	NaN	0.000000	0.001647	0.001693	28.0944	0.110353	0.001771	62.301	-7.208248	-164.763	-0.048876	0.921251	-0.127296	-0.128594	-0.070946	62.301	-0.126442	-6.493124	0.010926	NaN
117	1.000000	0.962579	7.36619e+06	-44489.1	955.818	-29776.2	0.000000	0.000000	6.963127	-0.040485	NaN	0.000000	0.001625	0.001728	28.0926	0.081949	0.002136	38.357	134.965	-167.83	-0.053032	0.961244	-0.087266	-0.088601	-0.040485	38.357	-0.086474	-0.891634	0.045406	NaN
117	1.000000	1.002614	7.36619e+06	-44489.1	955.818	-29776.2	0.000000	0.000000	7.003162	-0.029997	NaN	0.000000	0.001619	0.001701	28.0929	0.082901	0.001965	42.1936	105.16	-165.503	0.079500	1.001294	-0.047231	-0.048551	-0.029997	42.1936	-0.046698	-0.072421	0.414196	NaN
117	1.000000	1.042594	7.36619e+06	-44489.1	955.817	-29776.2	0.000000	0.000000	7.043143	-0.012845	NaN	0.000000	0.001671	0.001739	28.0926	0.071254	0.001942	36.6868	-84.8018	-166.678	-0.008936	1.041287	-0.007251	-0.008558	-0.012845	36.6868	-0.006988	-0.004633	2.772338	NaN
117	2.000000	1.065158	7.36619e+06	-44489.1	955.817	-29776.2	0.000000	0.000000	7.066340	15.4129	NaN	0.000000	0.001717	0.001745	28.0938	15.0713	0.001773	8502.11	5.085519	-171.189	15.9866	1.064854	0.015313	0.015009	15.4129	8502.11	0.013953	0.013914	1107.69	65851.8
117	2.000000	1.075052	7.36619e+06	-44489.1	955.818	-29776.2	0.000000	0.000000	7.077009	34.2416	NaN	0.000000	0.001692	0.001723	28.0946	26.287	0.001826	14392	3.118622	-176.007	33.0322	1.074829	0.025207	0.024984	34.2416	14392	0.023423	0.028209	1213.87	78289.4
117	2.000000	1.085033	7.36619e+06	-44489.1	955.817	-29776.2	0.000000	0.000000	7.088336	66.9973	NaN	0.000000	0.001725	0.001715	28.0944	36.3341	0.001792	20276.7	5.000683	179.696	64.9821	1.084759	0.035188	0.034914	66.9973	20276.7	0.032710	0.046548	1439.31	85865.8
117	2.000000	1.095104	7.36619e+06	-44489.1	955.817	-29776.2	0.000000	0.000000	7.099854	102.202	NaN	0.000000	0.001611	0.001680	28.0944	46.1632	0.001865	24757.5	4.152868	179.926	104.348	1.094684	0.045259	0.044839	102.202	24757.5	0.042163	0.069738	1465.52	85653.7
117	2.000000	1.105026	7.36619e+06	-44489.1	955.818	-29776.2	0.000000	0.000000	7.111627	147.236	NaN	0.000000	0.001580	0.001723	28.0949	57.0709	0.001889	30217	4.566561	176.624	145.54	1.104750	0.055181	0.054905	147.236	30217	0.051527	0.097191	1514.91	88554.7
117	2.000000	1.114975	7.36619e+06	-44489.1	955.817	-29776.2	0.000000	0.000000	7.123406	191.758	NaN	0.000000	0.001627	0.001701	28.0936	66.6488	0.001799	37039.7	1.901901	177.472	188.756	1.114682	0.065130	0.064837	191.758	37039.7	0.061247	0.130319	1471.45	93742.6
117	2.000000	1.125026	7.36619e+06	-44489.1	955.817	-29776.2	0.000000	0.000000	7.135894	251.041	NaN	0.000000	0.001589	0.001736	28.0939	76.2123	0.001785	42699.7	5.001589	173.871	252.027	1.124595	0.075181	0.074750	251.041	42699.7	0.070772	0.167241	1501.07	95395.1
117	2.000000	1.135005	7.36619e+06	-44489.1	955.819	-29776.2	0.000000	0.000000	7.148327	310.753	NaN	0.000000	0.001587	0.001695	28.0937	83.4122	0.001838	45383.5	4.923146	174.279	310.422	1.134608	0.085160	0.084763	310.753	45383.5	0.080024	0.207239	1499.49	91082.6
117	2.000000	1.145041	7.36619e+06	-44489.1	955.818	-29776.2	0.000000	0.000000	7.160969	374.161	NaN	0.000000	0.001622	0.001689	28.0953	92.7419	0.001813	51162.2	2.290902	175.344	376.434	1.144606	0.095196	0.094761	374.161	51162.2	0.089711	0.253384	1476.65	92860.9
117	2.000000	1.154971	7.36619e+06	-44489.1	955.818	-29776.2	0.000000	0.000000	7.173622	440.389	NaN	0.000000	0.001634	0.001696	28.0952	100.317	0.001749	57340.3	2.037308	174.595	439.249	1.154702	0.105126	0.104857	440.389	57340.3	0.099366	0.303669	1450.23	95067.6
117	2.000000	1.157977	7.36619e+06	-44489.1	955.818	-29776.2	0.000000	0.000000	7.177771	468.218	NaN	0.000000	0.001606	0.001697	28.0989	104.789	0.001897	55234.3	9.865791	167.664	468.989	1.157628	0.108132	0.107783	468.218	55234.3	0.101774	0.316870	1477.63	89648.2