File: remote_trans/data/nanoindenter/0828-1/data/Data_2025-08-06,11h17m57s/2025-07-22_16-23-58_1_466.txt
2025-07-22, 16:23:58, 1
Index	Phase	Displacement	Time	Pos X	Pos Y	Pos Z	Rot A	Rot B	Piezo Z	Force A	Force B	Gripper	Voltage A	Voltage B	Temperature	Amplitude force	Amplitude pos	Stiffness	Phase shift	Phase excitation	Force A raw	Displacement raw	HMax	HMax raw	Real Force	Real Stiffness	Contact Depth	Area	Hardness	Reduced Mod.
[#]	[#]	[um]	[s]	[um]	[um]	[um]	[m°]	[m°]	[um]	[uN]	[uN]	[V]	[V]	[V]	[°C]	[uN]	[um]	[N/m]	[°]	[°]	[uN]	[um]	[um]	[um]	[uN]	[N/m]	[um]	[um^2]	[MPa]	[MPa]
466	1.000000	0.002358	7.36961e+06	-53789.1	1005.82	-29745.3	0.000000	0.000000	6.002794	-0.025749	NaN	0.000000	0.001574	0.001697	28.0835	0.098291	0.000973	101.01	-57.6705	-168.346	-0.083819	0.001136	-1.128355	-1.129577	-0.025749	101.01	-1.128164	-1.196715E+15	2.151679E-17	NaN
466	1.000000	0.044316	7.36961e+06	-53789.1	1005.82	-29745.3	0.000000	0.000000	6.044753	-0.005285	NaN	0.000000	0.001526	0.001705	28.0832	0.054869	0.002065	26.5715	-80.4812	15.6667	-0.033449	0.042953	-1.086397	-1.087760	-0.005285	26.5715	-1.086248	-3.276598E+14	1.613049E-17	NaN
466	1.000000	0.086312	7.36961e+06	-53789.1	1005.82	-29745.3	0.000000	0.000000	6.086747	-0.040221	NaN	0.000000	0.001581	0.001694	28.0818	0.048771	0.002103	23.1934	-24.642	-164.325	-0.026741	0.084968	-1.044401	-1.045745	-0.040221	23.1934	-1.043101	-8.623005E+13	4.664392E-16	NaN
466	1.000000	0.128320	7.36962e+06	-53789.1	1005.82	-29745.3	0.000000	0.000000	6.128754	-0.083418	NaN	0.000000	0.001582	0.001699	28.082	0.033830	0.001958	17.2819	166.987	13.8089	-0.101211	0.126988	-1.002393	-1.003725	-0.083418	17.2819	-0.998773	-2.183985E+13	3.819530E-15	NaN
466	1.000000	0.170346	7.36962e+06	-53789.1	1005.82	-29745.3	0.000000	0.000000	6.170786	0.065138	NaN	0.000000	0.001594	0.001705	28.082	0.089320	0.001888	47.3184	-137.167	-165.935	-0.006330	0.169089	-0.960367	-0.961624	0.065138	47.3184	-0.961399	-6.850717E+12	-9.508155E-15	NaN
466	1.000000	0.212397	7.36962e+06	-53789.1	1005.82	-29745.3	0.000000	0.000000	6.212834	-0.007394	NaN	0.000000	0.001597	0.001715	28.0834	0.060872	0.001968	30.9251	140.569	14.8652	-0.008097	0.211026	-0.918316	-0.919687	-0.007394	30.9251	-0.918137	-1.786682E+12	4.138492E-15	NaN
466	1.000000	0.254397	7.36962e+06	-53789.1	1005.82	-29745.3	0.000000	0.000000	6.254832	-0.036687	NaN	0.000000	0.001539	0.001717	28.0831	0.048954	0.002124	23.0532	-38.7837	-164.622	-0.035127	0.253093	-0.876316	-0.877620	-0.036687	23.0532	-0.875123	-4.685372E+11	7.830128E-14	NaN
466	1.000000	0.296406	7.36962e+06	-53789.1	1005.82	-29745.3	0.000000	0.000000	6.296845	0.035832	NaN	0.000000	0.001568	0.001704	28.0832	0.123553	0.002071	59.6519	160.381	15.8175	0.080992	0.295118	-0.834307	-0.835595	0.035832	59.6519	-0.834757	-1.331246E+11	-2.691621E-13	NaN
466	1.000000	0.338435	7.36962e+06	-53789.1	1005.82	-29745.3	0.000000	0.000000	6.338871	-0.047735	NaN	0.000000	0.001564	0.001695	28.082	0.092500	0.002053	45.0483	109.17	-165.022	-0.006765	0.337166	-0.792278	-0.793547	-0.047735	45.0483	-0.791483	-3.445291E+10	1.385518E-12	NaN
466	1.000000	0.380462	7.36962e+06	-53789.1	1005.82	-29745.3	0.000000	0.000000	6.380897	-0.063607	NaN	0.000000	0.001538	0.001732	28.0821	0.081903	0.001971	41.5525	167.437	13.2112	-0.002682	0.379096	-0.750251	-0.751617	-0.063607	41.5525	-0.749103	-9.141221E+9	6.958295E-12	NaN
466	1.000000	0.422481	7.36962e+06	-53789.1	1005.82	-29745.3	0.000000	0.000000	6.422916	-0.049026	NaN	0.000000	0.001572	0.001663	28.082	0.114465	0.002000	57.2285	-54.9815	-168.353	-0.050760	0.421173	-0.708232	-0.709540	-0.049026	57.2285	-0.707590	-2.484019E+9	1.973665E-11	NaN
466	1.000000	0.464505	7.36962e+06	-53789.1	1005.82	-29745.3	0.000000	0.000000	6.464942	-0.009024	NaN	0.000000	0.001594	0.001736	28.083	0.037052	0.002059	17.9927	-84.1655	15.6073	-0.058434	0.463130	-0.666208	-0.667583	-0.009024	17.9927	-0.665832	-6.673188E+8	1.352348E-11	NaN
466	1.000000	0.506517	7.36962e+06	-53789.1	1005.82	-29745.3	0.000000	0.000000	6.506951	-0.087872	NaN	0.000000	0.001625	0.001658	28.0829	0.135096	0.002227	60.6544	-159.56	-166	-0.160855	0.505166	-0.624196	-0.625547	-0.087872	60.6544	-0.623109	-1.731277E+8	5.075588E-10	NaN
466	1.000000	0.548526	7.36962e+06	-53789.1	1005.82	-29745.3	0.000000	0.000000	6.548963	-0.009705	NaN	0.000000	0.001532	0.001636	28.0828	0.044905	0.002121	21.1713	-72.7754	11.1786	-0.018692	0.547145	-0.582187	-0.583568	-0.009705	21.1713	-0.581843	-4.679076E+7	2.074064E-10	NaN
466	1.000000	0.590553	7.36962e+06	-53789.1	1005.82	-29745.3	0.000000	0.000000	6.590989	-0.040453	NaN	0.000000	0.001614	0.001701	28.0832	0.075160	0.002027	37.0795	65.5021	-165.763	-0.074917	0.589232	-0.540160	-0.541481	-0.040453	37.0795	-0.539341	-1.208438E+7	3.347526E-9	NaN
466	1.000000	0.632592	7.36962e+06	-53789.1	1005.82	-29745.3	0.000000	0.000000	6.633028	-0.022260	NaN	0.000000	0.001552	0.001692	28.0819	0.040855	0.002019	20.2373	130.749	14.2838	-0.067758	0.631187	-0.498121	-0.499526	-0.022260	20.2373	-0.497296	-3.14261e+06	7.083242E-9	NaN
466	1.000000	0.674579	7.36962e+06	-53789.1	1005.82	-29745.3	0.000000	0.000000	6.675014	-0.062428	NaN	0.000000	0.001562	0.001676	28.082	0.074419	0.002159	34.4712	71.8313	-167.204	0.021528	0.673303	-0.456134	-0.457410	-0.062428	34.4712	-0.454775	-797185	7.831084E-8	NaN
466	1.000000	0.716594	7.36962e+06	-53789.1	1005.82	-29745.3	0.000000	0.000000	6.717028	-0.084224	NaN	0.000000	0.001580	0.001697	28.0819	0.104327	0.001991	52.3944	-115.37	14.0983	-0.116233	0.715250	-0.414119	-0.415463	-0.084224	52.3944	-0.412913	-204085	4.126907E-7	NaN
466	1.000000	0.758635	7.36962e+06	-53789.1	1005.82	-29745.3	0.000000	0.000000	6.759072	-0.011264	NaN	0.000000	0.001608	0.001696	28.0837	0.074337	0.002050	36.2642	78.2718	-168.093	-0.043077	0.757279	-0.372078	-0.373434	-0.011264	36.2642	-0.371845	-52806.4	2.133131E-7	NaN
466	1.000000	0.800609	7.36962e+06	-53789.1	1005.82	-29745.3	0.000000	0.000000	6.801044	-0.070419	NaN	0.000000	0.001608	0.001694	28.0833	0.077873	0.001956	39.806	29.5775	12.9538	-0.046341	0.799251	-0.330104	-0.331462	-0.070419	39.806	-0.328777	-12518	5.625427E-6	NaN
466	1.000000	0.842642	7.36962e+06	-53789.1	1005.82	-29745.3	0.000000	0.000000	6.843079	-0.011506	NaN	0.000000	0.001563	0.001744	28.0834	0.047924	0.002071	23.1381	-119.061	-165.407	-0.012164	0.841313	-0.288071	-0.289400	-0.011506	23.1381	-0.287698	-3081.72	3.733758E-6	NaN
466	1.000000	0.884642	7.36962e+06	-53789.1	1005.82	-29745.3	0.000000	0.000000	6.885079	-0.005112	NaN	0.000000	0.001564	0.001769	28.082	0.127932	0.001914	66.8377	-0.504849	13.4299	0.035301	0.883343	-0.246071	-0.247370	-0.005112	66.8377	-0.246013	-713.171	7.167822E-6	NaN
466	1.000000	0.926666	7.36962e+06	-53789.1	1005.82	-29745.3	0.000000	0.000000	6.927101	-0.045256	NaN	0.000000	0.001583	0.001704	28.0818	0.135347	0.001855	72.948	147.431	-168.102	0.026109	0.925348	-0.204047	-0.205365	-0.045256	72.948	-0.203582	-150.801	0.000300	NaN
466	1.000000	0.968707	7.36962e+06	-53789.1	1005.82	-29745.3	0.000000	0.000000	6.969141	-0.072696	NaN	0.000000	0.001557	0.001700	28.0818	0.030266	0.001930	15.6798	174.469	16.8789	-0.063898	0.967364	-0.162006	-0.163349	-0.072696	15.6798	-0.158529	-25.8108	0.002816	NaN
466	1.000000	1.010695	7.36962e+06	-53789.1	1005.82	-29745.3	0.000000	0.000000	7.011129	-0.077568	NaN	0.000000	0.001587	0.001708	28.0846	0.043349	0.002070	20.9364	-160.566	-167.368	-0.068868	1.009458	-0.120018	-0.121255	-0.077568	20.9364	-0.117240	-4.246687	0.018266	NaN
466	1.000000	1.052754	7.36962e+06	-53789.1	1005.82	-29745.3	0.000000	0.000000	7.053188	-0.083783	NaN	0.000000	0.001624	0.001717	28.0831	0.087609	0.002023	43.296	-76.1954	17.1113	-0.021009	1.051341	-0.077959	-0.079372	-0.083783	43.296	-0.076508	-0.505040	0.165894	NaN
466	1.000000	1.094700	7.36962e+06	-53789.1	1005.82	-29745.3	0.000000	0.000000	7.095136	-0.030750	NaN	0.000000	0.001588	0.001687	28.0833	0.116442	0.002026	57.4835	-151.802	-164.48	-0.097610	1.093457	-0.036013	-0.037256	-0.030750	57.4835	-0.035612	-0.033385	0.921074	NaN
466	2.000000	1.134894	7.36962e+06	-53789.1	1005.82	-29745.3	0.000000	0.000000	7.135710	9.199818	NaN	0.000000	0.001640	0.001707	28.0829	9.288494	0.001708	5438.6	11.4216	4.280389	9.294001	1.134468	0.004181	0.003755	9.199818	5438.6	0.002913	0.002306	3988.69	103463
466	2.000000	1.145265	7.36962e+06	-53789.1	1005.82	-29745.3	0.000000	0.000000	7.146780	26.1921	NaN	0.000000	0.001558	0.001756	28.0816	20.5114	0.001724	11896.2	5.058035	-177.111	24.916	1.144973	0.014552	0.014260	26.1921	11896.2	0.012901	0.012587	2080.93	96878.1
466	2.000000	1.155699	7.36962e+06	-53789.1	1005.82	-29745.3	0.000000	0.000000	7.158530	58.1868	NaN	0.000000	0.001543	0.001725	28.0816	31.239	0.001798	17378.6	8.743511	-3.023019	55.7085	1.155358	0.024986	0.024645	58.1868	17378.6	0.022475	0.026582	2188.95	97385.6
466	2.000000	1.166163	7.36962e+06	-53789.1	1005.82	-29745.3	0.000000	0.000000	7.170451	93.6073	NaN	0.000000	0.001527	0.001722	28.0816	39.008	0.001677	23265.9	2.718072	178.904	90.5316	1.165885	0.035450	0.035172	93.6073	23265.9	0.032433	0.045937	2037.71	99176.7
466	2.000000	1.176691	7.36962e+06	-53789.1	1005.82	-29745.3	0.000000	0.000000	7.183150	146.411	NaN	0.000000	0.001586	0.001752	28.0829	50.0525	0.001788	28001.2	3.977583	-3.075406	142.917	1.176328	0.045978	0.045616	146.411	28001.2	0.042056	0.069451	2108.13	97076
466	2.000000	1.187369	7.36962e+06	-53789.1	1005.82	-29745.3	0.000000	0.000000	7.195946	197.875	NaN	0.000000	0.001616	0.001748	28.0828	61.8887	0.001951	31721	8.253720	173.831	202.846	1.186837	0.056656	0.056124	197.875	31721	0.051978	0.098625	2006.34	92284.3
466	2.000000	1.197754	7.36962e+06	-53789.1	1005.82	-29745.3	0.000000	0.000000	7.209104	265.321	NaN	0.000000	0.001612	0.001727	28.0829	72.0731	0.001748	41242.3	6.208849	-8.569539	266.44	1.197383	0.067041	0.066670	265.321	41242.3	0.062216	0.133874	1981.87	102984
466	2.000000	1.208171	7.36962e+06	-53789.1	1005.82	-29745.3	0.000000	0.000000	7.222743	343.635	NaN	0.000000	0.001617	0.001720	28.0819	82.6248	0.001798	45960.3	7.444327	170.248	343.625	1.207846	0.077459	0.077133	343.635	45960.3	0.071851	0.171699	2001.38	101338
466	2.000000	1.218526	7.36962e+06	-53789.1	1005.82	-29745.3	0.000000	0.000000	7.236244	420.145	NaN	0.000000	0.001626	0.001725	28.0819	90.4074	0.001784	50681.1	1.836058	-4.972449	411.408	1.218241	0.087813	0.087528	420.145	50681.1	0.081595	0.214427	1959.38	99995.2
466	2.000000	1.229128	7.36962e+06	-53789.1	1005.82	-29745.3	0.000000	0.000000	7.250745	514.911	NaN	0.000000	0.001600	0.001745	28.0819	100.868	0.001830	55130.4	6.351230	169.071	513.656	1.228823	0.098415	0.098110	514.911	55130.4	0.091410	0.261927	1965.85	98417.9
466	2.000000	1.232644	7.36962e+06	-53789.1	1005.82	-29745.3	0.000000	0.000000	7.255369	541.852	NaN	0.000000	0.001609	0.001758	28.082	102.312	0.001835	55767.2	4.165404	-8.038530	540.152	1.232299	0.101931	0.101586	541.852	55767.2	0.094644	0.278546	1945.29	96539.2