File: remote_trans/data/nanoindenter/0828-1/data/Data_2025-08-06,11h17m57s/2025-07-22_16-23-58_1_72.txt
2025-07-22, 16:23:58, 1
Index	Phase	Displacement	Time	Pos X	Pos Y	Pos Z	Rot A	Rot B	Piezo Z	Force A	Force B	Gripper	Voltage A	Voltage B	Temperature	Amplitude force	Amplitude pos	Stiffness	Phase shift	Phase excitation	Force A raw	Displacement raw	HMax	HMax raw	Real Force	Real Stiffness	Contact Depth	Area	Hardness	Reduced Mod.
[#]	[#]	[um]	[s]	[um]	[um]	[um]	[m°]	[m°]	[um]	[uN]	[uN]	[V]	[V]	[V]	[°C]	[uN]	[um]	[N/m]	[°]	[°]	[uN]	[um]	[um]	[um]	[uN]	[N/m]	[um]	[um^2]	[MPa]	[MPa]
72	1.000000	0.002694	7.36575e+06	-42239.1	955.817	-29784.1	0.000000	0.000000	6.002796	-0.005995	NaN	0.000000	0.001611	0.001688	28.1187	0.053895	0.000938	57.4609	7.354073	-162.982	0.018183	0.001367	-0.966049	-0.967375	-0.005995	57.4609	-0.965970	-7.894997E+12	7.593671E-16	NaN
72	1.000000	0.040676	7.36575e+06	-42239.1	955.817	-29784.1	0.000000	0.000000	6.040777	-0.036959	NaN	0.000000	0.001643	0.001688	28.0851	0.088665	0.001914	46.3248	-156.607	13.3626	-0.015322	0.039293	-0.928067	-0.929449	-0.036959	46.3248	-0.927468	-2.387962E+12	1.547713E-14	NaN
72	1.000000	0.078650	7.36575e+06	-42239.1	955.818	-29784.1	0.000000	0.000000	6.078751	-0.059533	NaN	0.000000	0.001662	0.001684	28.0852	0.025706	0.001968	13.065	66.4001	-169.045	0.035545	0.077356	-0.890092	-0.891387	-0.059533	13.065	-0.886675	-6.713666E+11	8.867433E-14	NaN
72	1.000000	0.116673	7.36575e+06	-42239.1	955.818	-29784.1	0.000000	0.000000	6.116774	-0.054299	NaN	0.000000	0.001654	0.001694	28.1236	0.053629	0.001895	28.307	-37.1222	12.4334	-0.082098	0.115330	-0.852069	-0.853413	-0.054299	28.307	-0.850630	-2.184113E+11	2.486075E-13	NaN
72	1.000000	0.154697	7.36575e+06	-42239.1	955.818	-29784.1	0.000000	0.000000	6.154800	-0.007650	NaN	0.000000	0.001628	0.001639	28.1172	0.033648	0.002098	16.0388	68.7589	-166.25	-0.033658	0.153396	-0.814045	-0.815346	-0.007650	16.0388	-0.813687	-6.895892E+10	1.109413E-13	NaN
72	1.000000	0.192712	7.36575e+06	-42239.1	955.818	-29784.1	0.000000	0.000000	6.192812	-0.059145	NaN	0.000000	0.001614	0.001626	28.0827	0.111418	0.002027	54.9565	62.7001	11.8686	-0.044194	0.191397	-0.776030	-0.777345	-0.059145	54.9565	-0.775223	-2.071625E+10	2.855025E-12	NaN
72	1.000000	0.230700	7.36575e+06	-42239.1	955.818	-29784.1	0.000000	0.000000	6.230802	-0.039267	NaN	0.000000	0.001652	0.001620	28.0855	0.062005	0.001958	31.6606	-163.177	-166.153	-0.002808	0.229377	-0.738042	-0.739366	-0.039267	31.6606	-0.737112	-6.276421E+9	6.256213E-12	NaN
72	1.000000	0.268760	7.36575e+06	-42239.1	955.818	-29784.1	0.000000	0.000000	6.268861	-0.038738	NaN	0.000000	0.001655	0.001642	28.1229	0.082188	0.001987	41.3541	97.2648	13.7571	-0.029649	0.267392	-0.699982	-0.701350	-0.038738	41.3541	-0.699280	-1.912914E+9	2.025092E-11	NaN
72	1.000000	0.306786	7.36575e+06	-42239.1	955.818	-29784.1	0.000000	0.000000	6.306886	-0.078395	NaN	0.000000	0.001555	0.001631	28.1195	0.044245	0.002019	21.9152	78.0593	-161.896	-0.139443	0.305434	-0.661956	-0.663308	-0.078395	21.9152	-0.659273	-5.426388E+8	1.444702E-10	NaN
72	1.000000	0.344773	7.36575e+06	-42239.1	955.818	-29784.1	0.000000	0.000000	6.344874	-0.038397	NaN	0.000000	0.001558	0.001653	28.0839	0.055740	0.002101	26.5309	4.054308	15.171	-0.078964	0.343458	-0.623970	-0.625284	-0.038397	26.5309	-0.622884	-1.718982E+8	2.233683E-10	NaN
72	1.000000	0.382789	7.36575e+06	-42239.1	955.818	-29784.1	0.000000	0.000000	6.382889	-0.068988	NaN	0.000000	0.001528	0.001665	28.0875	0.072476	0.002045	35.4491	-144.423	-168.016	-0.059200	0.381469	-0.585953	-0.587274	-0.068988	35.4491	-0.584494	-5.090147E+7	1.355322E-9	NaN
72	1.000000	0.420829	7.36575e+06	-42239.1	955.818	-29784.1	0.000000	0.000000	6.420933	0.025389	NaN	0.000000	0.001547	0.001643	28.1229	0.052953	0.002003	26.4426	75.276	12.9298	0.003524	0.419504	-0.547914	-0.549239	0.025389	26.4426	-0.548634	-1.625660E+7	-1.561768E-9	NaN
72	1.000000	0.458833	7.36575e+06	-42239.1	955.818	-29784.1	0.000000	0.000000	6.458934	-0.042168	NaN	0.000000	0.001656	0.001690	28.1165	0.094637	0.001960	48.2904	-22.7041	-164.408	0.005457	0.457488	-0.509910	-0.511254	-0.042168	48.2904	-0.509255	-4.61353e+06	9.140147E-9	NaN
72	1.000000	0.496839	7.36575e+06	-42239.1	955.818	-29784.1	0.000000	0.000000	6.496939	-0.066091	NaN	0.000000	0.001545	0.001705	28.0816	0.106595	0.001968	54.1638	110.13	14.9895	0.006972	0.495469	-0.471903	-0.473274	-0.066091	54.1638	-0.470988	-1.34669e+06	4.907634E-8	NaN
72	1.000000	0.534843	7.36575e+06	-42239.1	955.817	-29784.1	0.000000	0.000000	6.534943	-0.072865	NaN	0.000000	0.001568	0.001620	28.085	0.172014	0.001971	87.2776	-114.221	-165.692	0.002854	0.533582	-0.433899	-0.435161	-0.072865	87.2776	-0.433273	-396595	1.837258E-7	NaN
72	1.000000	0.572869	7.36575e+06	-42239.1	955.818	-29784.1	0.000000	0.000000	6.572971	-0.024591	NaN	0.000000	0.001540	0.001651	28.1245	0.094347	0.001947	48.454	-90.3158	16.2573	0.001077	0.571529	-0.395873	-0.397213	-0.024591	48.454	-0.395493	-115258	2.133589E-7	NaN
72	1.000000	0.610876	7.36575e+06	-42239.1	955.818	-29784.1	0.000000	0.000000	6.610980	0.028061	NaN	0.000000	0.001584	0.001693	28.1172	0.076807	0.002111	36.3917	-104.389	-167.309	0.043003	0.609589	-0.357866	-0.359153	0.028061	36.3917	-0.358445	-33834.3	-8.293584E-7	NaN
72	1.000000	0.648876	7.36575e+06	-42239.1	955.818	-29784.1	0.000000	0.000000	6.648979	0.004648	NaN	0.000000	0.001585	0.001695	28.0821	0.052831	0.001910	27.6649	41.7494	10.789	0.065980	0.647550	-0.319866	-0.321192	0.004648	27.6649	-0.319992	-9300.78	-4.997757E-7	NaN
72	1.000000	0.686935	7.36575e+06	-42239.1	955.819	-29784.1	0.000000	0.000000	6.687040	0.060742	NaN	0.000000	0.001557	0.001664	28.0867	0.069714	0.001890	36.8878	130.101	-165.74	0.062957	0.685606	-0.281808	-0.283137	0.060742	36.8878	-0.283043	-2623.13	-2.315618E-5	NaN
72	1.000000	0.724940	7.36575e+06	-42239.1	955.819	-29784.1	0.000000	0.000000	6.725042	-0.011696	NaN	0.000000	0.001577	0.001724	28.1238	0.113976	0.002018	56.4774	157.476	13.4882	0.010633	0.723538	-0.243803	-0.245204	-0.011696	56.4774	-0.243647	-655.267	1.784880E-5	NaN
72	1.000000	0.762953	7.36575e+06	-42239.1	955.818	-29784.1	0.000000	0.000000	6.763056	0.003999	NaN	0.000000	0.001554	0.001653	28.1146	0.053979	0.001937	27.8715	120.41	-169.214	-0.054217	0.761600	-0.205790	-0.207142	0.003999	27.8715	-0.205897	-164.507	-2.431033E-5	NaN
72	1.000000	0.800980	7.36575e+06	-42239.1	955.818	-29784.1	0.000000	0.000000	6.801083	0.014632	NaN	0.000000	0.001548	0.001698	28.0804	0.064154	0.002079	30.8584	116.097	17.6398	0.044947	0.799619	-0.167762	-0.169123	0.014632	30.8584	-0.168118	-38.0947	-0.000384	NaN
72	1.000000	0.838968	7.36575e+06	-42239.1	955.818	-29784.1	0.000000	0.000000	6.839070	-0.020402	NaN	0.000000	0.001573	0.001704	28.0878	0.107748	0.002066	52.1466	-72.9973	-164.004	-0.030638	0.837660	-0.129774	-0.131082	-0.020402	52.1466	-0.129481	-7.445913	0.002740	NaN
72	1.000000	0.877027	7.36575e+06	-42239.1	955.819	-29784.1	0.000000	0.000000	6.877129	-0.007954	NaN	0.000000	0.001654	0.001652	28.1253	0.058270	0.001969	29.5906	95.4801	14.875	-0.001175	0.875643	-0.091716	-0.093099	-0.007954	29.5906	-0.091514	-1.172691	0.006783	NaN
72	1.000000	0.914991	7.36575e+06	-42239.1	955.818	-29784.1	0.000000	0.000000	6.915093	-0.034111	NaN	0.000000	0.001673	0.001650	28.1159	0.115867	0.002035	56.9285	-112.803	-166.66	-0.076397	0.913748	-0.053751	-0.054994	-0.034111	56.9285	-0.053302	-0.114662	0.297492	NaN
72	1.000000	0.953014	7.36575e+06	-42239.1	955.817	-29784.1	0.000000	0.000000	6.953119	0.044332	NaN	0.000000	0.001547	0.001673	28.0825	0.061941	0.002104	29.4358	175.921	14.088	0.070600	0.951628	-0.015728	-0.017115	0.044332	29.4358	-0.016858	-0.010420	-4.254593	NaN
72	2.000000	0.981675	7.36575e+06	-42239.1	955.817	-29784.1	0.000000	0.000000	6.982200	10.2717	NaN	0.000000	0.001576	0.001645	28.0871	10.8323	0.001727	6273.65	6.277027	-171.76	9.979569	0.981333	0.012933	0.012591	10.2717	6273.65	0.011705	0.011139	922.156	54309.5
72	2.000000	0.991072	7.36575e+06	-42239.1	955.818	-29784.1	0.000000	0.000000	6.992259	26.3726	NaN	0.000000	0.001618	0.001679	28.1264	21.3933	0.001802	11872.1	7.708087	1.968963	25.0889	0.990799	0.022330	0.022057	26.3726	11872.1	0.020664	0.023596	1117.66	70612.5
72	2.000000	1.000573	7.36575e+06	-42239.1	955.818	-29784.1	0.000000	0.000000	7.002891	53.8896	NaN	0.000000	0.001636	0.001663	28.1113	29.4497	0.001698	17348.1	3.200517	-177.507	51.9618	1.000252	0.031831	0.031509	53.8896	17348.1	0.029501	0.039716	1356.87	79532
72	2.000000	1.010058	7.36575e+06	-42239.1	955.818	-29784.1	0.000000	0.000000	7.013404	78.9042	NaN	0.000000	0.001664	0.001671	28.0834	38.4971	0.001767	21792.6	2.254811	1.904349	77.6234	1.009672	0.041316	0.040930	78.9042	21792.6	0.038600	0.060460	1305.06	80974.4
72	2.000000	1.019527	7.36575e+06	-42239.1	955.818	-29784.1	0.000000	0.000000	7.024375	115.46	NaN	0.000000	0.001596	0.001650	28.0873	48.1146	0.001790	26881	5.128236	177.187	113.093	1.019117	0.050784	0.050375	115.46	26881	0.047563	0.085029	1357.89	84223.8
72	2.000000	1.028963	7.36575e+06	-42239.1	955.818	-29784.1	0.000000	0.000000	7.035258	150.653	NaN	0.000000	0.001559	0.001656	28.1277	56.3517	0.001841	30617.3	4.812892	-3.383566	146.12	1.028671	0.060221	0.059928	150.653	30617.3	0.056530	0.113662	1325.45	82972.2
72	2.000000	1.038454	7.36575e+06	-42239.1	955.817	-29784.1	0.000000	0.000000	7.046771	199.86	NaN	0.000000	0.001582	0.001672	28.113	65.1869	0.001679	38827.8	6.630686	172.442	196.505	1.038194	0.069712	0.069451	199.86	38827.8	0.065851	0.147621	1353.87	92329.7
72	2.000000	1.047970	7.36575e+06	-42239.1	955.818	-29784.1	0.000000	0.000000	7.058553	254.983	NaN	0.000000	0.001589	0.001674	28.0828	74.8244	0.001742	42954.5	3.903750	-5.553774	251.744	1.047728	0.079228	0.078986	254.983	42954.5	0.074776	0.184057	1385.35	91475.7
72	2.000000	1.057472	7.36575e+06	-42239.1	955.818	-29784.1	0.000000	0.000000	7.070529	315.195	NaN	0.000000	0.001579	0.001646	28.0869	82.7644	0.001702	48636.8	3.274161	175.425	312.817	1.057149	0.088730	0.088407	315.195	48636.8	0.083870	0.225039	1400.63	93672
72	2.000000	1.066958	7.36575e+06	-42239.1	955.817	-29784.1	0.000000	0.000000	7.082510	375.889	NaN	0.000000	0.001592	0.001592	28.1272	91.8044	0.001794	51174	7.350227	-9.817832	372.716	1.066515	0.098216	0.097773	375.889	51174	0.092707	0.268534	1399.78	90224.3
72	2.000000	1.076526	7.36575e+06	-42239.1	955.816	-29784.1	0.000000	0.000000	7.095272	453.619	NaN	0.000000	0.001603	0.001643	28.112	100.493	0.001832	54853.9	8.395094	169.237	454.21	1.075992	0.107784	0.107250	453.619	54853.9	0.101582	0.315807	1436.38	89180.5
72	2.000000	1.077039	7.36575e+06	-42239.1	955.816	-29784.1	0.000000	0.000000	7.095617	449.532	NaN	0.000000	0.001589	0.001610	28.1273	101.841	0.001801	56543.5	6.905609	-10.2764	450.502	1.076798	0.108297	0.108056	449.532	56543.5	0.102334	0.319978	1404.88	91326.3