File: remote_trans/data/nanoindenter/0828-1/data/Data_2025-08-06,11h17m57s/2025-07-22_16-23-58_1_1164.txt
2025-07-22, 16:23:58, 1
Index	Phase	Displacement	Time	Pos X	Pos Y	Pos Z	Rot A	Rot B	Piezo Z	Force A	Force B	Gripper	Voltage A	Voltage B	Temperature	Amplitude force	Amplitude pos	Stiffness	Phase shift	Phase excitation	Force A raw	Displacement raw	HMax	HMax raw	Real Force	Real Stiffness	Contact Depth	Area	Hardness	Reduced Mod.
[#]	[#]	[um]	[s]	[um]	[um]	[um]	[m°]	[m°]	[um]	[uN]	[uN]	[V]	[V]	[V]	[°C]	[uN]	[um]	[N/m]	[°]	[°]	[uN]	[um]	[um]	[um]	[uN]	[N/m]	[um]	[um^2]	[MPa]	[MPa]
1164	1.000000	0.002607	7.37644e+06	-57389.1	1105.82	-29736.8	0.000000	0.000000	6.002789	0.024472	NaN	0.000000	0.001684	0.001671	28.0804	0.091481	0.001033	88.517	148.05	-165.171	0.042765	0.001361	-1.075901	-1.077148	0.024472	88.517	-1.076109	-2.394690E+14	-1.021948E-16	NaN
1164	1.000000	0.044559	7.37644e+06	-57389.1	1105.82	-29736.8	0.000000	0.000000	6.044738	-0.043957	NaN	0.000000	0.001623	0.001679	28.082	0.033439	0.001843	18.1416	115.796	14.3657	-0.010591	0.043260	-1.033949	-1.035249	-0.043957	18.1416	-1.032132	-6.139773E+13	7.159465E-16	NaN
1164	1.000000	0.086608	7.37644e+06	-57389.1	1105.82	-29736.8	0.000000	0.000000	6.086786	-0.067545	NaN	0.000000	0.001571	0.001695	28.083	0.040665	0.002082	19.534	11.2981	-164.888	-0.044579	0.085369	-0.991900	-0.993139	-0.067545	19.534	-0.989307	-1.628453E+13	4.147776E-15	NaN
1164	1.000000	0.128590	7.37644e+06	-57389.1	1105.82	-29736.8	0.000000	0.000000	6.128771	-0.001312	NaN	0.000000	0.001647	0.001660	28.0818	0.028069	0.001943	14.449	-85.5933	16.6353	-0.054246	0.127272	-0.949918	-0.951236	-0.001312	14.449	-0.949850	-4.786350E+12	2.741128E-16	NaN
1164	1.000000	0.170631	7.37644e+06	-57389.1	1105.82	-29736.8	0.000000	0.000000	6.170810	-0.033621	NaN	0.000000	0.001626	0.001679	28.0808	0.021408	0.001920	11.1473	-93.7565	-162.551	-0.020680	0.169304	-0.907878	-0.909204	-0.033621	11.1473	-0.905616	-1.210422E+12	2.777626E-14	NaN
1164	1.000000	0.212617	7.37644e+06	-57389.1	1105.82	-29736.8	0.000000	0.000000	6.212798	0.022012	NaN	0.000000	0.001661	0.001654	28.0807	0.113775	0.002193	51.8829	49.0574	11.2858	0.045219	0.211258	-0.865892	-0.867251	0.022012	51.8829	-0.866210	-3.549459E+11	-6.201612E-14	NaN
1164	1.000000	0.254623	7.37644e+06	-57389.1	1105.82	-29736.8	0.000000	0.000000	6.254805	0.028919	NaN	0.000000	0.001699	0.001689	28.0807	0.023509	0.001980	11.8747	-131.91	-164.597	0.020825	0.253371	-0.823886	-0.825137	0.028919	11.8747	-0.825712	-1.003827E+11	-2.880851E-13	NaN
1164	1.000000	0.296656	7.37644e+06	-57389.1	1105.82	-29736.8	0.000000	0.000000	6.296834	-0.080973	NaN	0.000000	0.001622	0.001649	28.0808	0.053226	0.002022	26.3265	-132.953	16.6625	-0.042106	0.295323	-0.781852	-0.783185	-0.080973	26.3265	-0.779545	-2.371649E+10	3.414217E-12	NaN
1164	1.000000	0.338695	7.37644e+06	-57389.1	1105.82	-29736.8	0.000000	0.000000	6.338876	-0.011632	NaN	0.000000	0.001642	0.001646	28.0822	0.092567	0.002021	45.7962	145.188	-167.996	-0.012394	0.337392	-0.739813	-0.741117	-0.011632	45.7962	-0.739623	-6.790711E+9	1.712981E-12	NaN
1164	1.000000	0.380702	7.37644e+06	-57389.1	1105.82	-29736.8	0.000000	0.000000	6.380884	0.012628	NaN	0.000000	0.001584	0.001694	28.0824	0.114519	0.002010	56.9665	159.022	13.1	0.060489	0.379328	-0.697806	-0.699180	0.012628	56.9665	-0.697972	-1.835849E+9	-6.878608E-12	NaN
1164	1.000000	0.422751	7.37644e+06	-57389.1	1105.82	-29736.8	0.000000	0.000000	6.422930	-0.033080	NaN	0.000000	0.001607	0.001680	28.0821	0.060715	0.002065	29.4042	-29.3612	-167.355	-0.092310	0.421438	-0.655757	-0.657070	-0.033080	29.4042	-0.654914	-4.729164E+8	6.994817E-11	NaN
1164	1.000000	0.464734	7.37644e+06	-57389.1	1105.82	-29736.8	0.000000	0.000000	6.464917	0.045171	NaN	0.000000	0.001602	0.001687	28.0811	0.083203	0.001831	45.43	-8.095026	11.6789	-0.018523	0.463363	-0.613775	-0.615145	0.045171	45.43	-0.614520	-1.319147E+8	-3.424287E-10	NaN
1164	1.000000	0.506764	7.37644e+06	-57389.1	1105.82	-29736.8	0.000000	0.000000	6.506943	-0.055049	NaN	0.000000	0.001535	0.001695	28.0809	0.056549	0.002042	27.691	-86.8804	-165.259	-0.054242	0.505491	-0.571744	-0.573017	-0.055049	27.691	-0.570253	-3.236881E+7	1.700674E-9	NaN
1164	1.000000	0.548778	7.37644e+06	-57389.1	1105.82	-29736.8	0.000000	0.000000	6.548956	-0.054853	NaN	0.000000	0.001595	0.001708	28.081	0.076087	0.002104	36.161	-107.148	15.9885	0.016555	0.547434	-0.529731	-0.531075	-0.054853	36.161	-0.528593	-8.57101e+06	6.399821E-9	NaN
1164	1.000000	0.590781	7.37644e+06	-57389.1	1105.82	-29736.8	0.000000	0.000000	6.590962	0.006823	NaN	0.000000	0.001580	0.001705	28.0823	0.080302	0.001876	42.7964	114.013	-163.718	0.059284	0.589467	-0.487727	-0.489041	0.006823	42.7964	-0.487847	-2.31898e+06	-2.942398E-9	NaN
1164	1.000000	0.632807	7.37644e+06	-57389.1	1105.82	-29736.8	0.000000	0.000000	6.632990	0.040527	NaN	0.000000	0.001544	0.001742	28.0822	0.046913	0.001983	23.6609	100.221	15.7994	0.075147	0.631424	-0.445701	-0.447085	0.040527	23.6609	-0.446986	-619267	-6.544354E-8	NaN
1164	1.000000	0.674883	7.37644e+06	-57389.1	1105.82	-29736.8	0.000000	0.000000	6.675065	0.035780	NaN	0.000000	0.001561	0.001679	28.0822	0.052477	0.002097	25.0227	129.842	-164.221	0.004693	0.673551	-0.403625	-0.404957	0.035780	25.0227	-0.404698	-155935	-2.294540E-7	NaN
1164	1.000000	0.716843	7.37644e+06	-57389.1	1105.82	-29736.8	0.000000	0.000000	6.717024	0.000187	NaN	0.000000	0.001570	0.001688	28.0813	0.049199	0.002087	23.5755	106.448	16.051	0.009679	0.715500	-0.361665	-0.363008	0.000187	23.5755	-0.361671	-37669.5	-4.959379E-9	NaN
1164	1.000000	0.758855	7.37644e+06	-57389.1	1105.82	-29736.8	0.000000	0.000000	6.759034	-0.047269	NaN	0.000000	0.001648	0.001664	28.0809	0.036071	0.002013	17.9176	-76.2359	-163.165	-0.052922	0.757592	-0.319653	-0.320916	-0.047269	17.9176	-0.317675	-8597.84	5.497779E-6	NaN
1164	1.000000	0.800889	7.37644e+06	-57389.1	1105.82	-29736.8	0.000000	0.000000	6.801069	-0.032836	NaN	0.000000	0.001660	0.001676	28.0808	0.045289	0.002025	22.3618	101.945	14.6675	-0.157636	0.799535	-0.277619	-0.278973	-0.032836	22.3618	-0.276518	-2091.09	1.570289E-5	NaN
1164	1.000000	0.842871	7.37644e+06	-57389.1	1105.82	-29736.8	0.000000	0.000000	6.843049	-0.058195	NaN	0.000000	0.001669	0.001682	28.0809	0.064810	0.002020	32.0884	-90.1492	-170.548	-0.021740	0.841615	-0.235638	-0.236893	-0.058195	32.0884	-0.234278	-467.627	0.000124	NaN
1164	1.000000	0.884912	7.37644e+06	-57389.1	1105.82	-29736.8	0.000000	0.000000	6.885092	-0.032236	NaN	0.000000	0.001634	0.001709	28.0822	0.093089	0.001916	48.5789	-167.21	17.5715	0.023437	0.883561	-0.193596	-0.194947	-0.032236	48.5789	-0.193098	-101.309	0.000318	NaN
1164	1.000000	0.926940	7.37644e+06	-57389.1	1105.82	-29736.8	0.000000	0.000000	6.927120	-0.031735	NaN	0.000000	0.001609	0.001691	28.082	0.068068	0.001909	35.6639	142.861	-167.383	-0.052263	0.925613	-0.151568	-0.152895	-0.031735	35.6639	-0.150901	-18.811	0.001687	NaN
1164	1.000000	0.968935	7.37644e+06	-57389.1	1105.82	-29736.8	0.000000	0.000000	6.969116	0.007866	NaN	0.000000	0.001596	0.001685	28.0821	0.045629	0.002004	22.7708	27.914	14.3746	-0.036653	0.967580	-0.109574	-0.110928	0.007866	22.7708	-0.109833	-2.980887	-0.002639	NaN
1164	1.000000	1.010952	7.37644e+06	-57389.1	1105.82	-29736.8	0.000000	0.000000	7.011134	0.045437	NaN	0.000000	0.001588	0.001672	28.0809	0.130875	0.002043	64.0739	-118.395	-165.631	0.051021	1.009695	-0.067557	-0.068814	0.045437	64.0739	-0.068089	-0.302931	-0.149992	NaN
1164	1.000000	1.052993	7.37644e+06	-57389.1	1105.82	-29736.8	0.000000	0.000000	7.053171	-0.076222	NaN	0.000000	0.001575	0.001674	28.081	0.026055	0.001984	13.1297	-129.201	13.8639	-1.545971E-6	1.051585	-0.025515	-0.026923	-0.076222	13.1297	-0.021161	-0.013444	5.669565	NaN
1164	2.000000	1.089529	7.37644e+06	-57389.1	1105.82	-29736.8	0.000000	0.000000	7.090176	11.3258	NaN	0.000000	0.001643	0.001722	28.0807	11.1593	0.001839	6068.1	13.0312	-177.078	12.2046	1.089214	0.011021	0.010705	11.3258	6068.1	0.009621	0.008763	1292.39	59222.7
1164	2.000000	1.099922	7.37644e+06	-57389.1	1105.82	-29736.8	0.000000	0.000000	7.101243	27.7072	NaN	0.000000	0.001621	0.001702	28.0821	21.6447	0.001672	12941.7	4.765873	2.950495	26.7494	1.099547	0.021414	0.021038	27.7072	12941.7	0.019808	0.022241	1245.76	79283.9
1164	2.000000	1.110373	7.37644e+06	-57389.1	1105.82	-29736.8	0.000000	0.000000	7.112863	56.1341	NaN	0.000000	0.001586	0.001692	28.0821	32.063	0.001685	19031.3	4.209507	-179.158	54.7252	1.109999	0.031864	0.031491	56.1341	19031.3	0.029652	0.040026	1402.44	86910.2
1164	2.000000	1.120843	7.37644e+06	-57389.1	1105.82	-29736.8	0.000000	0.000000	7.124492	84.2786	NaN	0.000000	0.001608	0.001693	28.0821	41.5414	0.001860	22337.9	1.995470	1.360603	82.243	1.120572	0.042335	0.042064	84.2786	22337.9	0.039505	0.062756	1342.95	81468.2
1164	2.000000	1.131338	7.37644e+06	-57389.1	1105.82	-29736.8	0.000000	0.000000	7.136749	127.114	NaN	0.000000	0.001596	0.001683	28.0808	51.1568	0.001869	27364.6	6.583965	175.642	125.625	1.130986	0.052829	0.052477	127.114	27364.6	0.049346	0.090401	1406.12	83152.7
1164	2.000000	1.141879	7.37644e+06	-57389.1	1105.82	-29736.8	0.000000	0.000000	7.149322	176.485	NaN	0.000000	0.001620	0.001697	28.0809	61.1635	0.001811	33781.9	9.234182	-9.028429	176.474	1.141447	0.063371	0.062939	176.485	33781.9	0.059453	0.123854	1424.95	87700.6
1164	2.000000	1.152267	7.37644e+06	-57389.1	1105.82	-29736.8	0.000000	0.000000	7.161751	226.116	NaN	0.000000	0.001605	0.001678	28.0814	71.4525	0.001824	39163.5	6.082490	172.58	222.285	1.152090	0.073758	0.073582	226.116	39163.5	0.069428	0.161769	1397.77	88962.4
1164	2.000000	1.162809	7.37644e+06	-57389.1	1105.82	-29736.8	0.000000	0.000000	7.175055	293.247	NaN	0.000000	0.001598	0.001719	28.0808	80.188	0.001786	44896.8	3.884274	-5.086993	289.421	1.162360	0.084300	0.083852	293.247	44896.8	0.079402	0.204421	1434.53	90724.8
1164	2.000000	1.173229	7.37644e+06	-57389.1	1105.82	-29736.8	0.000000	0.000000	7.187834	350.571	NaN	0.000000	0.001570	0.001689	28.082	88.9909	0.001665	53432.7	0.130080	176.31	345.961	1.173035	0.094721	0.094527	350.571	53432.7	0.089800	0.253831	1381.12	96896.4
1164	2.000000	1.183832	7.37644e+06	-57389.1	1105.82	-29736.8	0.000000	0.000000	7.201922	435.277	NaN	0.000000	0.001584	0.001683	28.0825	100.233	0.001831	54745.9	7.431464	-10.2397	435.108	1.183413	0.105323	0.104904	435.277	54745.9	0.099360	0.303636	1433.55	90771.2
1164	2.000000	1.186389	7.37644e+06	-57389.1	1105.82	-29736.8	0.000000	0.000000	7.204938	446.423	NaN	0.000000	0.001549	0.001718	28.0823	102.396	0.001831	55922.8	5.447193	171.502	451.597	1.186097	0.107881	0.107588	446.423	55922.8	0.101894	0.317534	1405.9	90670.6