File: remote_trans/data/nanoindenter/0828-1/data/Data_2025-08-06,11h17m57s/2025-07-22_16-23-58_1_379.txt
2025-07-22, 16:23:58, 1
Index	Phase	Displacement	Time	Pos X	Pos Y	Pos Z	Rot A	Rot B	Piezo Z	Force A	Force B	Gripper	Voltage A	Voltage B	Temperature	Amplitude force	Amplitude pos	Stiffness	Phase shift	Phase excitation	Force A raw	Displacement raw	HMax	HMax raw	Real Force	Real Stiffness	Contact Depth	Area	Hardness	Reduced Mod.
[#]	[#]	[um]	[s]	[um]	[um]	[um]	[m°]	[m°]	[um]	[uN]	[uN]	[V]	[V]	[V]	[°C]	[uN]	[um]	[N/m]	[°]	[°]	[uN]	[um]	[um]	[um]	[uN]	[N/m]	[um]	[um^2]	[MPa]	[MPa]
379	1.000000	0.003209	7.36877e+06	-57589.1	955.817	-29737	0.000000	0.000000	6.002788	0.027608	NaN	0.000000	0.001540	0.001753	28.0799	0.034370	0.001009	34.0768	56.0162	-162.014	0.126431	0.001961	-1.049050	-1.050297	0.027608	34.0768	-1.049657	-1.056350E+14	-2.613565E-16	NaN
379	1.000000	0.043186	7.36877e+06	-57589.1	955.818	-29737	0.000000	0.000000	6.042763	-0.049225	NaN	0.000000	0.001529	0.001761	28.0797	0.060501	0.001927	31.389	100.344	-161.127	-0.042435	0.041826	-1.009072	-1.010432	-0.049225	31.389	-1.007896	-2.897741E+13	1.698720E-15	NaN
379	1.000000	0.083157	7.36877e+06	-57589.1	955.818	-29737	0.000000	0.000000	6.082736	0.016448	NaN	0.000000	0.001578	0.001762	28.08	0.035500	0.001982	17.907	-150.212	-165.37	0.067652	0.081901	-0.969101	-0.970357	0.016448	17.907	-0.969790	-8.888645E+12	-1.850481E-15	NaN
379	1.000000	0.123217	7.36877e+06	-57589.1	955.819	-29737	0.000000	0.000000	6.122797	0.050958	NaN	0.000000	0.001644	0.001757	28.0786	0.058899	0.002088	28.2055	-157.235	-166.556	0.037295	0.121924	-0.929042	-0.930334	0.050958	28.2055	-0.930397	-2.615478E+12	-1.948338E-14	NaN
379	1.000000	0.163183	7.36877e+06	-57589.1	955.82	-29737	0.000000	0.000000	6.162764	0.058351	NaN	0.000000	0.001591	0.001766	28.0785	0.096733	0.002094	46.1949	-99.3167	-166.349	0.046504	0.161934	-0.889075	-0.890324	0.058351	46.1949	-0.890023	-7.451117E+11	-7.831213E-14	NaN
379	1.000000	0.203233	7.36877e+06	-57589.1	955.818	-29737	0.000000	0.000000	6.202811	-0.007476	NaN	0.000000	0.001665	0.001715	28.0784	0.064117	0.002010	31.8944	-71.2693	-161.744	0.042076	0.201882	-0.849026	-0.850376	-0.007476	31.8944	-0.848850	-2.066159E+11	3.618128E-14	NaN
379	1.000000	0.243253	7.36877e+06	-57589.1	955.818	-29737	0.000000	0.000000	6.242833	0.038271	NaN	0.000000	0.001692	0.001751	28.0783	0.067197	0.001995	33.6872	-61.4084	-164.551	0.039418	0.241962	-0.809006	-0.810296	0.038271	33.6872	-0.809858	-6.118434E+10	-6.255094E-13	NaN
379	1.000000	0.283261	7.36877e+06	-57589.1	955.818	-29737	0.000000	0.000000	6.282842	0.054910	NaN	0.000000	0.001670	0.001748	28.0795	0.004788	0.001970	2.430017	32.7122	-166.46	0.035829	0.281975	-0.768997	-0.770283	0.054910	2.430017	-0.785945	-2.897357E+10	-1.895191E-12	NaN
379	1.000000	0.323264	7.36877e+06	-57589.1	955.818	-29737	0.000000	0.000000	6.322845	0.068256	NaN	0.000000	0.001637	0.001743	28.0796	0.052261	0.001890	27.6529	113.097	-167.121	0.015901	0.321947	-0.728994	-0.730311	0.068256	27.6529	-0.730846	-5.156227E+9	-1.323752E-11	NaN
379	1.000000	0.363309	7.36877e+06	-57589.1	955.819	-29737	0.000000	0.000000	6.362890	0.060420	NaN	0.000000	0.001665	0.001690	28.0797	0.081805	0.002097	39.0165	-156.463	-165.788	0.067202	0.361972	-0.688950	-0.690286	0.060420	39.0165	-0.690111	-1.433628E+9	-4.214504E-11	NaN
379	1.000000	0.403317	7.36877e+06	-57589.1	955.819	-29737	0.000000	0.000000	6.402897	0.043572	NaN	0.000000	0.001635	0.001717	28.0783	0.091767	0.001958	46.8632	49.8509	-163.373	-0.007740	0.402036	-0.648941	-0.650222	0.043572	46.8632	-0.649639	-4.003916E+8	-1.088222E-10	NaN
379	1.000000	0.443333	7.36877e+06	-57589.1	955.819	-29737	0.000000	0.000000	6.442913	0.029808	NaN	0.000000	0.001623	0.001708	28.0783	0.045292	0.001908	23.7371	83.364	-164.21	0.089201	0.441967	-0.608925	-0.610291	0.029808	23.7371	-0.609867	-1.138369E+8	-2.618524E-10	NaN
379	1.000000	0.483377	7.36877e+06	-57589.1	955.819	-29737	0.000000	0.000000	6.482956	0.013266	NaN	0.000000	0.001651	0.001720	28.0784	0.097097	0.002055	47.2535	-79.7169	-164.795	-0.023105	0.482007	-0.568881	-0.570252	0.013266	47.2535	-0.569092	-3.119464E+7	-4.252546E-10	NaN
379	1.000000	0.523393	7.36877e+06	-57589.1	955.817	-29737	0.000000	0.000000	6.522973	0.049479	NaN	0.000000	0.001641	0.001759	28.0786	0.089675	0.001989	45.0806	37.1636	-166.332	0.038573	0.522083	-0.528865	-0.530175	0.049479	45.0806	-0.529689	-8.87667e+06	-5.574071E-9	NaN
379	1.000000	0.563376	7.36877e+06	-57589.1	955.818	-29737	0.000000	0.000000	6.562955	0.015534	NaN	0.000000	0.001648	0.001759	28.08	0.024461	0.002164	11.3052	35.9243	-164.893	-0.035112	0.562126	-0.488882	-0.490132	0.015534	11.3052	-0.489913	-2.47841e+06	-6.267863E-9	NaN
379	1.000000	0.603384	7.36877e+06	-57589.1	955.818	-29737	0.000000	0.000000	6.602964	0.037662	NaN	0.000000	0.001652	0.001708	28.0802	0.040253	0.001920	20.964	103.848	-165.594	0.038230	0.602101	-0.448875	-0.450157	0.037662	20.964	-0.450222	-687813	-5.475637E-8	NaN
379	1.000000	0.643418	7.36877e+06	-57589.1	955.819	-29737	0.000000	0.000000	6.642998	0.033163	NaN	0.000000	0.001663	0.001694	28.0798	0.077422	0.002004	38.6275	120.645	-164.107	0.020006	0.642129	-0.408840	-0.410129	0.033163	38.6275	-0.409484	-182415	-1.818008E-7	NaN
379	1.000000	0.683445	7.36877e+06	-57589.1	955.819	-29737	0.000000	0.000000	6.683023	-0.017554	NaN	0.000000	0.001644	0.001728	28.0787	0.105893	0.001875	56.4819	173.297	-163.4	-0.010280	0.682132	-0.368813	-0.370126	-0.017554	56.4819	-0.368580	-47388.3	3.704279E-7	NaN
379	1.000000	0.723469	7.36877e+06	-57589.1	955.818	-29737	0.000000	0.000000	6.723046	-0.022235	NaN	0.000000	0.001672	0.001675	28.0787	0.023953	0.001896	12.6324	-80.6441	-160.788	-0.004053	0.722109	-0.328789	-0.330150	-0.022235	12.6324	-0.327469	-11977.5	1.856397E-6	NaN
379	1.000000	0.763452	7.36877e+06	-57589.1	955.819	-29737	0.000000	0.000000	6.763031	0.012264	NaN	0.000000	0.001661	0.001673	28.0785	0.068005	0.002103	32.3443	-178.651	-165.153	-0.016532	0.762181	-0.288806	-0.290077	0.012264	32.3443	-0.289090	-3233.48	-3.792919E-6	NaN
379	1.000000	0.803486	7.36877e+06	-57589.1	955.818	-29737	0.000000	0.000000	6.803068	0.063889	NaN	0.000000	0.001678	0.001726	28.0799	0.099632	0.002034	48.987	-12.5267	-166.355	0.060618	0.802184	-0.248772	-0.250075	0.063889	48.987	-0.249750	-814.891	-7.840166E-5	NaN
379	1.000000	0.843522	7.36877e+06	-57589.1	955.819	-29737	0.000000	0.000000	6.843101	-0.003024	NaN	0.000000	0.001639	0.001734	28.08	0.097635	0.001873	52.1252	57.6726	-164.986	0.080989	0.842253	-0.208736	-0.210006	-0.003024	52.1252	-0.208692	-182.652	1.655369E-5	NaN
379	1.000000	0.883508	7.36877e+06	-57589.1	955.818	-29737	0.000000	0.000000	6.883086	-0.002460	NaN	0.000000	0.001675	0.001708	28.08	0.017195	0.001966	8.744408	59.6609	-159.829	0.022981	0.882168	-0.168750	-0.170090	-0.002460	8.744408	-0.168539	-38.7444	6.349464E-5	NaN
379	1.000000	0.923535	7.36877e+06	-57589.1	955.818	-29737	0.000000	0.000000	6.923114	0.019947	NaN	0.000000	0.001683	0.001769	28.0796	0.079926	0.002083	38.3705	-97.5861	-163.966	-0.067454	0.922231	-0.128723	-0.130027	0.019947	38.3705	-0.129113	-7.324149	-0.002723	NaN
379	1.000000	0.963537	7.36877e+06	-57589.1	955.818	-29737	0.000000	0.000000	6.963117	0.033758	NaN	0.000000	0.001658	0.001724	28.0788	0.083809	0.002025	41.3819	7.389895	-164.683	0.007222	0.962200	-0.088721	-0.090058	0.033758	41.3819	-0.089333	-1.042645	-0.032377	NaN
379	1.000000	1.003542	7.36877e+06	-57589.1	955.819	-29737	0.000000	0.000000	7.003123	0.057024	NaN	0.000000	0.001662	0.001735	28.0789	0.070219	0.002009	34.9498	27.4013	-161.533	0.056815	1.002197	-0.048716	-0.050061	0.057024	34.9498	-0.049940	-0.090871	-0.627527	NaN
379	1.000000	1.043575	7.36877e+06	-57589.1	955.819	-29737	0.000000	0.000000	7.043156	0.040423	NaN	0.000000	0.001628	0.001715	28.0788	0.199442	0.001973	101.095	-71.521	-165.928	0.066083	1.042326	-0.008683	-0.009932	0.040423	101.095	-0.008983	-0.005803	-6.965953	NaN
379	2.000000	1.069138	7.36877e+06	-57589.1	955.818	-29737	0.000000	0.000000	7.069232	12.523	NaN	0.000000	0.001685	0.001735	28.0804	14.1275	0.001857	7608.68	6.946790	-172.864	12.2122	1.068856	0.016880	0.016597	12.523	7608.68	0.015645	0.016155	775.155	54691.8
379	2.000000	1.079110	7.36877e+06	-57589.1	955.819	-29737	0.000000	0.000000	7.079881	28.9593	NaN	0.000000	0.001635	0.001712	28.0809	25.3865	0.001906	13317.3	10.2072	-178.81	29.6575	1.078827	0.026852	0.026569	28.9593	13317.3	0.025221	0.031419	921.701	68641.9
379	2.000000	1.089150	7.36877e+06	-57589.1	955.819	-29737	0.000000	0.000000	7.090769	49.5889	NaN	0.000000	0.001648	0.001745	28.0805	35.275	0.001847	19097.4	5.661811	179.987	51.6543	1.088800	0.036892	0.036542	49.5889	19097.4	0.034944	0.051617	960.717	76798.5
379	2.000000	1.099047	7.36877e+06	-57589.1	955.818	-29737	0.000000	0.000000	7.102139	85.3758	NaN	0.000000	0.001672	0.001691	28.0802	44.177	0.001759	25118.3	6.513380	176.46	84.4901	1.098690	0.046789	0.046432	85.3758	25118.3	0.044240	0.075444	1131.64	83550.5
379	2.000000	1.109030	7.36878e+06	-57589.1	955.819	-29737	0.000000	0.000000	7.113656	122.662	NaN	0.000000	0.001677	0.001716	28.0789	54.0454	0.001694	31907.7	3.674240	176.93	120.674	1.108781	0.056772	0.056523	122.662	31907.7	0.053889	0.104811	1170.32	90046.4
379	2.000000	1.119121	7.36878e+06	-57589.1	955.819	-29737	0.000000	0.000000	7.124902	150.74	NaN	0.000000	0.001641	0.001730	28.0788	64.2472	0.001919	33484.6	4.051541	176.25	154.152	1.118934	0.066863	0.066676	150.74	33484.6	0.063486	0.138606	1087.54	82172.5
379	2.000000	1.128983	7.36878e+06	-57589.1	955.819	-29737	0.000000	0.000000	7.137583	219.263	NaN	0.000000	0.001635	0.001707	28.0787	73.0425	0.001831	39887.9	5.301402	174.325	218.012	1.128682	0.076725	0.076423	219.263	39887.9	0.072602	0.174834	1254.12	87156.8
379	2.000000	1.139016	7.36878e+06	-57589.1	955.82	-29737	0.000000	0.000000	7.149628	268.17	NaN	0.000000	0.001655	0.001714	28.08	82.2289	0.001900	43278.2	2.844408	175.726	265.863	1.138797	0.086757	0.086539	268.17	43278.2	0.082110	0.216809	1236.9	84918.8
379	2.000000	1.149057	7.36878e+06	-57589.1	955.819	-29737	0.000000	0.000000	7.162628	340.066	NaN	0.000000	0.001676	0.001735	28.08	90.6855	0.001746	51926.6	3.594144	173.789	344.225	1.148666	0.096799	0.096408	340.066	51926.6	0.091887	0.264348	1286.44	92273.2
379	2.000000	1.158934	7.36878e+06	-57589.1	955.821	-29737	0.000000	0.000000	7.175711	417.992	NaN	0.000000	0.001738	0.001724	28.0799	101.159	0.001898	53300.2	4.087826	172.881	415.37	1.158627	0.106676	0.106369	417.992	53300.2	0.100794	0.311468	1342.01	87256
379	2.000000	1.162999	7.36878e+06	-57589.1	955.82	-29737	0.000000	0.000000	7.180907	445.479	NaN	0.000000	0.001695	0.001673	28.0799	102.858	0.001725	59613.3	2.980986	173.357	447.977	1.162747	0.110741	0.110489	445.479	59613.3	0.105136	0.335745	1326.84	93996.5