File: remote_trans/data/nanoindenter/0828-1/data/Data_2025-08-06,11h17m57s/2025-07-22_16-23-58_1_692.txt
2025-07-22, 16:23:58, 1
Index	Phase	Displacement	Time	Pos X	Pos Y	Pos Z	Rot A	Rot B	Piezo Z	Force A	Force B	Gripper	Voltage A	Voltage B	Temperature	Amplitude force	Amplitude pos	Stiffness	Phase shift	Phase excitation	Force A raw	Displacement raw	HMax	HMax raw	Real Force	Real Stiffness	Contact Depth	Area	Hardness	Reduced Mod.
[#]	[#]	[um]	[s]	[um]	[um]	[um]	[m°]	[m°]	[um]	[uN]	[uN]	[V]	[V]	[V]	[°C]	[uN]	[um]	[N/m]	[°]	[°]	[uN]	[um]	[um]	[um]	[uN]	[N/m]	[um]	[um^2]	[MPa]	[MPa]
692	1.000000	0.002584	7.37182e+06	-42489.1	1005.82	-29782.6	0.000000	0.000000	6.002805	-0.103423	NaN	0.000000	0.001781	0.001690	28.0829	0.039689	0.000983	40.3713	-25.0474	-163.651	-0.055532	0.001362	-1.026598	-1.027820	-0.103423	40.3713	-1.024677	-4.873823E+13	2.122009E-15	NaN
692	1.000000	0.042554	7.37182e+06	-42489.1	1005.82	-29782.6	0.000000	0.000000	6.042777	-0.051459	NaN	0.000000	0.001769	0.001685	28.0818	0.037237	0.001918	19.4116	-10.2177	-166.117	-0.057471	0.041294	-0.986627	-0.987887	-0.051459	19.4116	-0.984639	-1.408983E+13	3.652216E-15	NaN
692	1.000000	0.082559	7.37182e+06	-42489.1	1005.82	-29782.6	0.000000	0.000000	6.082783	-0.031548	NaN	0.000000	0.001713	0.001682	28.0819	0.096872	0.001912	50.6641	-9.733464	-164.68	0.050695	0.081301	-0.946622	-0.947881	-0.031548	50.6641	-0.946155	-4.267495E+12	7.392555E-15	NaN
692	1.000000	0.122573	7.37182e+06	-42489.1	1005.82	-29782.6	0.000000	0.000000	6.122796	-0.067957	NaN	0.000000	0.001717	0.001679	28.0816	0.099826	0.001979	50.4417	17.469	-167.191	-0.054536	0.121221	-0.906609	-0.907960	-0.067957	50.4417	-0.905598	-1.209767E+12	5.617393E-14	NaN
692	1.000000	0.162592	7.37182e+06	-42489.1	1005.82	-29782.6	0.000000	0.000000	6.162813	-0.097737	NaN	0.000000	0.001709	0.001658	28.0829	0.045901	0.001950	23.5354	61.3699	-166.928	-0.101123	0.161253	-0.866590	-0.867929	-0.097737	23.5354	-0.863475	-3.259510E+11	2.998506E-13	NaN
692	1.000000	0.202624	7.37182e+06	-42489.1	1005.82	-29782.6	0.000000	0.000000	6.202846	-0.089231	NaN	0.000000	0.001761	0.001666	28.0829	0.014643	0.001933	7.574423	-163.007	-166.554	-0.191159	0.201332	-0.826558	-0.827850	-0.089231	7.574423	-0.817722	-7.822050E+10	1.140762E-12	NaN
692	1.000000	0.242647	7.37182e+06	-42489.1	1005.82	-29782.6	0.000000	0.000000	6.242869	-0.091504	NaN	0.000000	0.001690	0.001668	28.0832	0.073399	0.001842	39.8536	7.733651	-169.358	-0.093233	0.241318	-0.786535	-0.787863	-0.091504	39.8536	-0.784813	-2.796533E+10	3.272048E-12	NaN
692	1.000000	0.282652	7.37182e+06	-42489.1	1005.82	-29782.6	0.000000	0.000000	6.282872	-0.137687	NaN	0.000000	0.001757	0.001678	28.083	0.078209	0.001982	39.4607	30.5834	-168.21	-0.100565	0.281323	-0.746529	-0.747858	-0.137687	39.4607	-0.743912	-7.768549E+9	1.772366E-11	NaN
692	1.000000	0.322648	7.37182e+06	-42489.1	1005.82	-29782.6	0.000000	0.000000	6.322869	-0.087045	NaN	0.000000	0.001737	0.001661	28.0817	0.141843	0.002042	69.4797	45.0864	-167.108	-0.149678	0.321393	-0.706534	-0.707788	-0.087045	69.4797	-0.705594	-2.333001E+9	3.731018E-11	NaN
692	1.000000	0.362696	7.37182e+06	-42489.1	1005.82	-29782.6	0.000000	0.000000	6.362913	-0.199415	NaN	0.000000	0.001693	0.001619	28.0815	0.076020	0.001979	38.4095	-49.0301	-168.69	-0.145903	0.361407	-0.666485	-0.667774	-0.199415	38.4095	-0.662592	-6.025076E+8	3.309750E-10	NaN
692	1.000000	0.402685	7.37182e+06	-42489.1	1005.82	-29782.6	0.000000	0.000000	6.402906	-0.113462	NaN	0.000000	0.001682	0.001665	28.0817	0.043696	0.001957	22.3256	45.6846	-167.417	-0.057232	0.401353	-0.626496	-0.627828	-0.113462	22.3256	-0.622685	-1.708171E+8	6.642290E-10	NaN
692	1.000000	0.442729	7.37182e+06	-42489.1	1005.82	-29782.6	0.000000	0.000000	6.442954	-0.012408	NaN	0.000000	0.001642	0.001686	28.083	0.150412	0.001968	76.4191	11.4278	-163.433	0.013049	0.441403	-0.586453	-0.587778	-0.012408	76.4191	-0.586331	-5.395982E+7	2.299452E-10	NaN
692	1.000000	0.482726	7.37182e+06	-42489.1	1005.82	-29782.6	0.000000	0.000000	6.482950	-0.025658	NaN	0.000000	0.001683	0.001650	28.0833	0.052971	0.002141	24.7449	-39.5446	-167.754	0.005487	0.481422	-0.546456	-0.547759	-0.025658	24.7449	-0.545678	-1.479375E+7	1.734355E-9	NaN
692	1.000000	0.522745	7.37182e+06	-42489.1	1005.82	-29782.6	0.000000	0.000000	6.522969	-0.043583	NaN	0.000000	0.001706	0.001635	28.0832	0.055538	0.001989	27.9225	-61.5567	-166.094	-0.002570	0.521449	-0.506436	-0.507732	-0.043583	27.9225	-0.505265	-4.05924e+06	1.073667E-8	NaN
692	1.000000	0.562772	7.37182e+06	-42489.1	1005.82	-29782.6	0.000000	0.000000	6.562995	-0.058551	NaN	0.000000	0.001630	0.001658	28.0832	0.025389	0.001981	12.8189	-84.7641	-166.03	-0.082630	0.561461	-0.466409	-0.467720	-0.058551	12.8189	-0.462983	-1.03975e+06	5.631243E-8	NaN
692	1.000000	0.602814	7.37182e+06	-42489.1	1005.82	-29782.6	0.000000	0.000000	6.603041	0.036299	NaN	0.000000	0.001745	0.001682	28.082	0.053581	0.002010	26.6594	-163.589	-166.095	-0.014922	0.601518	-0.426367	-0.427663	0.036299	26.6594	-0.427389	-327420	-1.108637E-7	NaN
692	1.000000	0.642818	7.37182e+06	-42489.1	1005.82	-29782.6	0.000000	0.000000	6.643042	-0.028975	NaN	0.000000	0.001634	0.001652	28.0815	0.131054	0.002054	63.8137	0.091485	-170.168	0.063623	0.641531	-0.386363	-0.387650	-0.028975	63.8137	-0.386023	-84379.8	3.433882E-7	NaN
692	1.000000	0.682832	7.37182e+06	-42489.1	1005.82	-29782.6	0.000000	0.000000	6.683052	-0.109909	NaN	0.000000	0.001704	0.001635	28.0816	0.173174	0.002021	85.6665	66.357	-162.916	-0.064688	0.681464	-0.346350	-0.347717	-0.109909	85.6665	-0.345388	-21877.4	5.023844E-6	NaN
692	1.000000	0.722845	7.37182e+06	-42489.1	1005.82	-29782.6	0.000000	0.000000	6.723067	-0.090436	NaN	0.000000	0.001641	0.001674	28.0829	0.082836	0.001850	44.7732	128.481	-169.298	-0.169049	0.721534	-0.306336	-0.307648	-0.090436	44.7732	-0.304821	-5550.15	1.629431E-5	NaN
692	1.000000	0.762835	7.37182e+06	-42489.1	1005.82	-29782.6	0.000000	0.000000	6.763059	-0.056622	NaN	0.000000	0.001668	0.001665	28.0829	0.058792	0.002132	27.5776	67.7203	-166.473	-0.131277	0.761589	-0.266346	-0.267592	-0.056622	27.5776	-0.264806	-1388.12	4.079056E-5	NaN
692	1.000000	0.802850	7.37182e+06	-42489.1	1005.82	-29782.6	0.000000	0.000000	6.803075	0.000797	NaN	0.000000	0.001628	0.001663	28.0829	0.119217	0.002085	57.1879	143.177	-168.301	-0.019640	0.801542	-0.226332	-0.227639	0.000797	57.1879	-0.226342	-350.461	-2.275014E-6	NaN
692	1.000000	0.842901	7.37182e+06	-42489.1	1005.82	-29782.6	0.000000	0.000000	6.843125	-0.035317	NaN	0.000000	0.001638	0.001660	28.0816	0.075776	0.001947	38.9141	40.3377	-167.905	-0.005405	0.841572	-0.186280	-0.187610	-0.035317	38.9141	-0.185600	-75.8989	0.000465	NaN
692	1.000000	0.882907	7.37182e+06	-42489.1	1005.82	-29782.6	0.000000	0.000000	6.883131	-0.038883	NaN	0.000000	0.001739	0.001730	28.0818	0.040696	0.002081	19.5568	-58.7206	-167.586	-0.001382	0.881581	-0.146275	-0.147601	-0.038883	19.5568	-0.144784	-14.5266	0.002677	NaN
692	1.000000	0.922872	7.37182e+06	-42489.1	1005.82	-29782.6	0.000000	0.000000	6.923097	-0.005388	NaN	0.000000	0.001719	0.001747	28.0817	0.105038	0.001942	54.0977	21.914	-164.287	-0.050468	0.921629	-0.106310	-0.107553	-0.005388	54.0977	-0.106235	-2.499012	0.002156	NaN
692	1.000000	0.962920	7.37182e+06	-42489.1	1005.82	-29782.6	0.000000	0.000000	6.963143	-0.047975	NaN	0.000000	0.001640	0.001733	28.0814	0.006823	0.002092	3.261454	97.2593	-161.744	-0.029963	0.961638	-0.066262	-0.067543	-0.047975	3.261454	-0.055229	-0.130803	0.366775	NaN
692	1.000000	1.002963	7.37182e+06	-42489.1	1005.82	-29782.6	0.000000	0.000000	7.003190	0.029911	NaN	0.000000	0.001616	0.001748	28.0826	0.083398	0.001983	42.0566	40.8231	-166.31	0.019546	1.001649	-0.026218	-0.027532	0.029911	42.0566	-0.026752	-0.018766	-1.593898	NaN
692	2.000000	1.036511	7.37182e+06	-42489.1	1005.82	-29782.6	0.000000	0.000000	7.037211	11.5443	NaN	0.000000	0.001648	0.001743	28.0829	11.4463	0.001760	6505.07	7.814602	-173.487	11.5048	1.036267	0.007330	0.007086	11.5443	6505.07	0.005999	0.005063	2279.98	83523.2
692	2.000000	1.046404	7.37182e+06	-42489.1	1005.82	-29782.6	0.000000	0.000000	7.047809	28.7004	NaN	0.000000	0.001617	0.001716	28.0829	22.2144	0.001795	12372.9	5.530498	-177.677	27.65	1.046144	0.017223	0.016962	28.7004	12372.9	0.015483	0.015935	1801.08	89550.1
692	2.000000	1.056389	7.37182e+06	-42489.1	1005.82	-29782.6	0.000000	0.000000	7.058688	50.4579	NaN	0.000000	0.001582	0.001732	28.0818	31.1095	0.001771	17563	6.505656	177.732	49.8921	1.056071	0.027208	0.026890	50.4579	17563	0.025053	0.031112	1621.82	90972.4
692	2.000000	1.066368	7.37182e+06	-42489.1	1005.82	-29782.6	0.000000	0.000000	7.069848	79.2009	NaN	0.000000	0.001599	0.001747	28.082	38.4269	0.001736	22131.4	2.476948	179.562	77.7253	1.066008	0.037186	0.036826	79.2009	22131.4	0.034502	0.050594	1565.43	89894.8
692	2.000000	1.076331	7.37182e+06	-42489.1	1005.82	-29782.6	0.000000	0.000000	7.081310	115.636	NaN	0.000000	0.001601	0.001764	28.082	47.4562	0.001781	26646.5	3.122287	177.352	112.55	1.076064	0.047150	0.046882	115.636	26646.5	0.043895	0.074482	1552.54	89204.7
692	2.000000	1.086370	7.37182e+06	-42489.1	1005.82	-29782.6	0.000000	0.000000	7.093278	162.586	NaN	0.000000	0.001643	0.001748	28.0821	56.4867	0.001720	32837.1	3.652298	175.374	162.033	1.085961	0.057188	0.056780	162.586	32837.1	0.053475	0.103456	1571.55	93274
692	2.000000	1.096311	7.37182e+06	-42489.1	1005.82	-29782.6	0.000000	0.000000	7.105159	209.795	NaN	0.000000	0.001637	0.001730	28.083	65.5497	0.001838	35661.9	2.257929	175.34	208.047	1.096206	0.067130	0.067024	209.795	35661.9	0.062717	0.135732	1545.65	88437.4
692	2.000000	1.106247	7.37182e+06	-42489.1	1005.82	-29782.6	0.000000	0.000000	7.117637	271.626	NaN	0.000000	0.001669	0.001693	28.083	72.5981	0.001666	43582	1.475029	174.989	267.25	1.106084	0.077066	0.076902	271.626	43582	0.072391	0.173952	1561.5	95469.7
692	2.000000	1.116228	7.37183e+06	-42489.1	1005.82	-29782.6	0.000000	0.000000	7.130225	335.077	NaN	0.000000	0.001659	0.001728	28.0828	83.2398	0.001847	45075.6	3.625955	172.671	328.474	1.115964	0.087046	0.086782	335.077	45075.6	0.081471	0.213856	1566.84	89054.1
692	2.000000	1.126257	7.37183e+06	-42489.1	1005.82	-29782.6	0.000000	0.000000	7.143461	413.096	NaN	0.000000	0.001623	0.001737	28.0819	93.3866	0.001843	50679.3	3.947796	172.177	409.157	1.125933	0.097076	0.096751	413.096	50679.3	0.090963	0.259664	1590.89	90865.4
692	2.000000	1.132813	7.37183e+06	-42489.1	1005.82	-29782.6	0.000000	0.000000	7.152124	464.373	NaN	0.000000	0.001670	0.001728	28.0819	99.5335	0.001827	54487	6.069524	-10.8487	463.131	1.132511	0.103632	0.103330	464.373	54487	0.097240	0.292231	1589.06	92088