File: remote_trans/data/nanoindenter/0828-1/data/Data_2025-08-06,11h17m57s/2025-07-22_16-23-58_1_1072.txt
2025-07-22, 16:23:58, 1
Index	Phase	Displacement	Time	Pos X	Pos Y	Pos Z	Rot A	Rot B	Piezo Z	Force A	Force B	Gripper	Voltage A	Voltage B	Temperature	Amplitude force	Amplitude pos	Stiffness	Phase shift	Phase excitation	Force A raw	Displacement raw	HMax	HMax raw	Real Force	Real Stiffness	Contact Depth	Area	Hardness	Reduced Mod.
[#]	[#]	[um]	[s]	[um]	[um]	[um]	[m°]	[m°]	[um]	[uN]	[uN]	[V]	[V]	[V]	[°C]	[uN]	[um]	[N/m]	[°]	[°]	[uN]	[um]	[um]	[um]	[uN]	[N/m]	[um]	[um^2]	[MPa]	[MPa]
1072	1.000000	0.002815	7.37554e+06	-53739.1	1055.82	-29745.3	0.000000	0.000000	6.002762	0.003662	NaN	0.000000	0.001611	0.001652	28.0832	0.047024	0.000990	47.5094	147.441	-171.452	0.017718	0.001618	-1.139250	-1.140447	0.003662	47.5094	-1.139308	-1.688316E+15	-2.169304E-18	NaN
1072	1.000000	0.044819	7.37554e+06	-53739.1	1055.82	-29745.3	0.000000	0.000000	6.044765	-0.035703	NaN	0.000000	0.001540	0.001642	28.0843	0.089625	0.002029	44.1781	-137.52	13.0639	-0.057657	0.043502	-1.097245	-1.098563	-0.035703	44.1781	-1.096639	-4.518062E+14	7.902393E-17	NaN
1072	1.000000	0.086791	7.37554e+06	-53739.1	1055.82	-29745.3	0.000000	0.000000	6.086739	0.038427	NaN	0.000000	0.001534	0.001730	28.0845	0.038147	0.001927	19.8005	-12.706	-165.027	0.030148	0.085520	-1.055274	-1.056545	0.038427	19.8005	-1.056730	-1.314826E+14	-2.922572E-16	NaN
1072	1.000000	0.128805	7.37554e+06	-53739.1	1055.82	-29745.3	0.000000	0.000000	6.128751	-0.036789	NaN	0.000000	0.001602	0.001703	28.0846	0.152477	0.002041	74.6988	20.9037	16.1546	-0.090281	0.127487	-1.013259	-1.014578	-0.036789	74.6988	-1.012890	-3.382807E+13	1.087530E-15	NaN
1072	1.000000	0.170870	7.37554e+06	-53739.1	1055.82	-29745.3	0.000000	0.000000	6.170814	-0.060957	NaN	0.000000	0.001617	0.001701	28.0843	0.041048	0.002059	19.9384	38.2542	-163.535	-0.027350	0.169525	-0.971195	-0.972540	-0.060957	19.9384	-0.968902	-8.647066E+12	7.049460E-15	NaN
1072	1.000000	0.212879	7.37554e+06	-53739.1	1055.82	-29745.3	0.000000	0.000000	6.212824	-0.059672	NaN	0.000000	0.001546	0.001707	28.0833	0.039698	0.001961	20.2436	-70.2238	15.0075	-0.062175	0.211501	-0.929185	-0.930564	-0.059672	20.2436	-0.926975	-2.351587E+12	2.537537E-14	NaN
1072	1.000000	0.254913	7.37554e+06	-53739.1	1055.82	-29745.3	0.000000	0.000000	6.254858	-0.039349	NaN	0.000000	0.001571	0.001686	28.083	0.020085	0.001922	10.4496	-141.061	-164.25	-0.011321	0.253612	-0.887152	-0.888453	-0.039349	10.4496	-0.884328	-6.240635E+11	6.305301E-14	NaN
1072	1.000000	0.296909	7.37554e+06	-53739.1	1055.82	-29745.3	0.000000	0.000000	6.296855	-0.019683	NaN	0.000000	0.001557	0.001713	28.0834	0.084811	0.001898	44.6908	-135.068	15.2801	0.042882	0.295520	-0.845155	-0.846545	-0.019683	44.6908	-0.844825	-1.822447E+11	1.080037E-13	NaN
1072	1.000000	0.338927	7.37554e+06	-53739.1	1055.82	-29745.3	0.000000	0.000000	6.338871	-0.068709	NaN	0.000000	0.001557	0.001723	28.0842	0.099779	0.002003	49.8242	-172.908	-166.947	-0.074999	0.337565	-0.803138	-0.804500	-0.068709	49.8242	-0.802103	-4.801912E+10	1.430876E-12	NaN
1072	1.000000	0.380931	7.37554e+06	-53739.1	1055.82	-29745.3	0.000000	0.000000	6.380875	-0.055176	NaN	0.000000	0.001565	0.001729	28.0843	0.044510	0.002159	20.6209	109.767	14.1826	0.000856	0.379604	-0.761134	-0.762460	-0.055176	20.6209	-0.759127	-1.251486E+10	4.408865E-12	NaN
1072	1.000000	0.422991	7.37554e+06	-53739.1	1055.82	-29745.3	0.000000	0.000000	6.422936	-0.048830	NaN	0.000000	0.001594	0.001665	28.0844	0.011959	0.001931	6.193817	6.236744	-165.503	-0.018124	0.421691	-0.719073	-0.720374	-0.048830	6.193817	-0.713161	-2.959232E+9	1.650086E-11	NaN
1072	1.000000	0.465006	7.37554e+06	-53739.1	1055.82	-29745.3	0.000000	0.000000	6.464954	0.034883	NaN	0.000000	0.001624	0.001703	28.0833	0.026374	0.002075	12.7122	-93.7346	13.7538	-0.040454	0.463617	-0.677059	-0.678448	0.034883	12.7122	-0.679117	-1.014205E+9	-3.439420E-11	NaN
1072	1.000000	0.506986	7.37554e+06	-53739.1	1055.82	-29745.3	0.000000	0.000000	6.506936	0.083466	NaN	0.000000	0.001628	0.001700	28.0833	0.063727	0.001945	32.762	53.1071	-168.043	0.126330	0.505688	-0.635079	-0.636377	0.083466	32.762	-0.636989	-2.685203E+8	-3.108381E-10	NaN
1072	1.000000	0.549000	7.37554e+06	-53739.1	1055.82	-29745.3	0.000000	0.000000	6.548944	-0.075315	NaN	0.000000	0.001618	0.001729	28.0835	0.054404	0.002044	26.6228	-140.143	17.2292	-0.095070	0.547692	-0.593065	-0.594373	-0.075315	26.6228	-0.590943	-6.246944E+7	1.205629E-9	NaN
1072	1.000000	0.591009	7.37554e+06	-53739.1	1055.82	-29745.3	0.000000	0.000000	6.590955	-0.035016	NaN	0.000000	0.001585	0.001713	28.0844	0.166920	0.002073	80.5246	172.381	-165.817	-0.057136	0.589734	-0.551055	-0.552331	-0.035016	80.5246	-0.550729	-1.738023E+7	2.014717E-9	NaN
1072	1.000000	0.633043	7.37554e+06	-53739.1	1055.82	-29745.3	0.000000	0.000000	6.632987	-0.072549	NaN	0.000000	0.001639	0.001702	28.0845	0.115542	0.002144	53.8954	142.983	13.0484	-0.025409	0.631685	-0.509021	-0.510379	-0.072549	53.8954	-0.508012	-4.43321e+06	1.636482E-8	NaN
1072	1.000000	0.675055	7.37554e+06	-53739.1	1055.82	-29745.3	0.000000	0.000000	6.675001	-0.026516	NaN	0.000000	0.001626	0.001646	28.0844	0.061236	0.001917	31.9446	-155.829	-166.747	-0.065985	0.673817	-0.467009	-0.468247	-0.026516	31.9446	-0.466387	-1.16068e+06	2.284497E-8	NaN
1072	1.000000	0.717098	7.37554e+06	-53739.1	1055.82	-29745.3	0.000000	0.000000	6.717042	-0.053893	NaN	0.000000	0.001649	0.001697	28.085	0.096855	0.001924	50.3317	-134.571	14.5225	-0.067625	0.715732	-0.424967	-0.426333	-0.053893	50.3317	-0.424164	-294739	1.828487E-7	NaN
1072	1.000000	0.759099	7.37554e+06	-53739.1	1055.82	-29745.3	0.000000	0.000000	6.759043	-0.060900	NaN	0.000000	0.001643	0.001638	28.0836	0.119381	0.002018	59.1585	172.147	-167.712	-0.108646	0.757847	-0.382966	-0.384218	-0.060900	59.1585	-0.382193	-74363	8.189510E-7	NaN
1072	1.000000	0.801138	7.37554e+06	-53739.1	1055.82	-29745.3	0.000000	0.000000	6.801084	-0.010646	NaN	0.000000	0.001639	0.001660	28.0839	0.146312	0.001975	74.0929	160.049	14.4749	-0.012201	0.799798	-0.340927	-0.342267	-0.010646	74.0929	-0.340819	-18771.2	5.671330E-7	NaN
1072	1.000000	0.843178	7.37554e+06	-53739.1	1055.82	-29745.3	0.000000	0.000000	6.843122	-0.051785	NaN	0.000000	0.001577	0.001691	28.0838	0.142730	0.001880	75.9333	-36.9178	-169.826	0.011963	0.841797	-0.298887	-0.300268	-0.051785	75.9333	-0.298376	-4450.84	1.163493E-5	NaN
1072	1.000000	0.885205	7.37554e+06	-53739.1	1055.82	-29745.3	0.000000	0.000000	6.885151	-0.011463	NaN	0.000000	0.001634	0.001680	28.0851	0.022371	0.002058	10.8716	-33.0248	10.0288	-0.029551	0.883807	-0.256859	-0.258257	-0.011463	10.8716	-0.256069	-1019.9	1.123954E-5	NaN
1072	1.000000	0.927174	7.37554e+06	-53739.1	1055.82	-29745.3	0.000000	0.000000	6.927118	-0.064759	NaN	0.000000	0.001566	0.001668	28.0849	0.014505	0.001999	7.255440	128.625	-163.9	-0.007037	0.925847	-0.214891	-0.216217	-0.064759	7.255440	-0.208196	-179.298	0.000361	NaN
1072	1.000000	0.969191	7.37554e+06	-53739.1	1055.82	-29745.3	0.000000	0.000000	6.969136	-0.037375	NaN	0.000000	0.001613	0.001675	28.085	0.078633	0.001925	40.8553	96.4453	11.7772	-0.006210	0.967854	-0.172873	-0.174210	-0.037375	40.8553	-0.172187	-44.8237	0.000834	NaN
1072	1.000000	1.011203	7.37554e+06	-53739.1	1055.82	-29745.3	0.000000	0.000000	7.011147	-0.054722	NaN	0.000000	0.001566	0.001704	28.0834	0.042699	0.002086	20.4724	91.6447	-165.804	-0.060559	1.009856	-0.130862	-0.132209	-0.054722	20.4724	-0.128857	-7.240421	0.007558	NaN
1072	1.000000	1.053205	7.37554e+06	-53739.1	1055.82	-29745.3	0.000000	0.000000	7.053147	-0.100464	NaN	0.000000	0.001536	0.001677	28.0835	0.109997	0.001972	55.7897	165.577	14.4889	-0.010048	1.051879	-0.088860	-0.090185	-0.100464	55.7897	-0.087510	-0.943932	0.106432	NaN
1072	1.000000	1.095223	7.37554e+06	-53739.1	1055.82	-29745.3	0.000000	0.000000	7.095170	-0.003937	NaN	0.000000	0.001616	0.001722	28.0838	0.052697	0.001832	28.7598	130.038	-166.394	-0.011319	1.093962	-0.046842	-0.048103	-0.003937	28.7598	-0.046739	-0.072632	0.054204	NaN
1072	1.000000	1.137235	7.37554e+06	-53739.1	1055.82	-29745.3	0.000000	0.000000	7.137178	-0.098303	NaN	0.000000	0.001588	0.001739	28.085	0.044472	0.002023	21.9785	164.095	16.9788	-0.121282	1.135848	-0.004830	-0.006217	-0.098303	21.9785	-0.001475	-0.001072	91.7121	NaN
1072	2.000000	1.158901	7.37554e+06	-53739.1	1055.82	-29745.3	0.000000	0.000000	7.159535	16.7114	NaN	0.000000	0.001530	0.001695	28.0847	16.2561	0.001935	8399.99	6.724134	-174.482	16.7318	1.158583	0.016836	0.016519	16.7114	8399.99	0.015344	0.015747	1061.26	61158.5
1072	2.000000	1.169312	7.37554e+06	-53739.1	1055.82	-29745.3	0.000000	0.000000	7.170990	42.0902	NaN	0.000000	0.001601	0.001720	28.0845	26.5484	0.001739	15265.7	2.160187	3.535399	40.367	1.169058	0.027248	0.026993	42.0902	15265.7	0.025180	0.031343	1342.87	78779.9
1072	2.000000	1.179808	7.37554e+06	-53739.1	1055.82	-29745.3	0.000000	0.000000	7.182894	76.3151	NaN	0.000000	0.001636	0.001717	28.0846	37.177	0.001697	21907	4.235374	177.816	74.2274	1.179461	0.037743	0.037396	76.3151	21907	0.035131	0.052050	1466.18	87729.3
1072	2.000000	1.190304	7.37554e+06	-53739.1	1055.82	-29745.3	0.000000	0.000000	7.195269	121.993	NaN	0.000000	0.001546	0.001675	28.0831	47.4141	0.001645	28821.8	6.484015	-6.752652	120.103	1.189932	0.048239	0.047867	121.993	28821.8	0.045065	0.077772	1568.6	94424.1
1072	2.000000	1.200782	7.37554e+06	-53739.1	1055.82	-29745.3	0.000000	0.000000	7.207933	175.164	NaN	0.000000	0.001509	0.001698	28.0833	58.3709	0.001716	34007.4	3.880855	176.25	173.069	1.200425	0.058717	0.058360	175.164	34007.4	0.054854	0.108005	1621.82	94542.1
1072	2.000000	1.211339	7.37554e+06	-53739.1	1055.82	-29745.3	0.000000	0.000000	7.220860	232.766	NaN	0.000000	0.001528	0.001713	28.0836	71.1146	0.001835	38745	5.067888	-7.131782	234.494	1.210914	0.069274	0.068849	232.766	38745	0.064769	0.143461	1622.5	93459.1
1072	2.000000	1.221679	7.37554e+06	-53739.1	1055.82	-29745.3	0.000000	0.000000	7.234065	302.445	NaN	0.000000	0.001528	0.001713	28.0856	79.7941	0.001744	45742.5	3.189732	172.906	297.263	1.221438	0.079614	0.079373	302.445	45742.5	0.074655	0.183538	1647.86	97550.8
1072	2.000000	1.232229	7.37554e+06	-53739.1	1055.82	-29745.3	0.000000	0.000000	7.247533	373.383	NaN	0.000000	0.001517	0.001664	28.085	91.189	0.001744	52286.4	6.635534	-11.5282	369.56	1.232017	0.090164	0.089952	373.383	52286.4	0.084808	0.229487	1627.03	99720.1
1072	2.000000	1.242690	7.37554e+06	-53739.1	1055.82	-29745.3	0.000000	0.000000	7.261204	451.404	NaN	0.000000	0.001523	0.001697	28.0849	99.8908	0.001855	53863.2	6.967731	168.116	447.167	1.242434	0.100626	0.100370	451.404	53863.2	0.094340	0.276964	1629.83	93509
1072	2.000000	1.250902	7.37554e+06	-53739.1	1055.82	-29745.3	0.000000	0.000000	7.272199	519.07	NaN	0.000000	0.001552	0.001700	28.0835	109.298	0.001805	60565.2	11.7102	164.535	525.488	1.250247	0.108837	0.108182	519.07	60565.2	0.102409	0.320397	1620.08	97758