File: remote_trans/data/nanoindenter/0828-1/data/Data_2025-08-06,11h17m57s/2025-07-22_16-23-58_1_1037.txt
2025-07-22, 16:23:58, 1
Index	Phase	Displacement	Time	Pos X	Pos Y	Pos Z	Rot A	Rot B	Piezo Z	Force A	Force B	Gripper	Voltage A	Voltage B	Temperature	Amplitude force	Amplitude pos	Stiffness	Phase shift	Phase excitation	Force A raw	Displacement raw	HMax	HMax raw	Real Force	Real Stiffness	Contact Depth	Area	Hardness	Reduced Mod.
[#]	[#]	[um]	[s]	[um]	[um]	[um]	[m°]	[m°]	[um]	[uN]	[uN]	[V]	[V]	[V]	[°C]	[uN]	[um]	[N/m]	[°]	[°]	[uN]	[um]	[um]	[um]	[uN]	[N/m]	[um]	[um^2]	[MPa]	[MPa]
1037	1.000000	0.002756	7.37519e+06	-51989.1	1055.82	-29750.4	0.000000	0.000000	6.002791	-0.011321	NaN	0.000000	0.001552	0.001757	28.0852	0.111785	0.000995	112.305	-45.1852	-166.468	0.026590	0.001527	-1.081483	-1.082712	-0.011321	112.305	-1.081407	-2.821105E+14	4.012825E-17	NaN
1037	1.000000	0.042692	7.37519e+06	-51989.1	1055.82	-29750.4	0.000000	0.000000	6.042729	0.010298	NaN	0.000000	0.001592	0.001783	28.0845	0.128327	0.002097	61.203	-132.162	-168.208	0.014244	0.041408	-1.041546	-1.042830	0.010298	61.203	-1.041672	-8.250020E+13	-1.248292E-16	NaN
1037	1.000000	0.082736	7.37519e+06	-51989.1	1055.82	-29750.4	0.000000	0.000000	6.082773	0.022036	NaN	0.000000	0.001601	0.001704	28.083	0.028601	0.001996	14.3286	113.092	-167.669	0.035568	0.081416	-1.001502	-1.002822	0.022036	14.3286	-1.002656	-2.463335E+13	-8.945605E-16	NaN
1037	1.000000	0.122760	7.37519e+06	-51989.1	1055.82	-29750.4	0.000000	0.000000	6.122796	0.011829	NaN	0.000000	0.001610	0.001711	28.0834	0.065983	0.002063	31.9885	2.159970	-166.005	0.034821	0.121410	-0.961479	-0.962828	0.011829	31.9885	-0.961756	-6.926967E+12	-1.707700E-15	NaN
1037	1.000000	0.162750	7.37519e+06	-51989.1	1055.82	-29750.4	0.000000	0.000000	6.162786	-9.951578E-5	NaN	0.000000	0.001589	0.001760	28.0832	0.067565	0.002106	32.0839	80.9304	-165.965	0.078097	0.161452	-0.921488	-0.922786	-9.951578E-5	32.0839	-0.921486	-1.982745E+12	5.019091E-17	NaN
1037	1.000000	0.202766	7.37519e+06	-51989.1	1055.82	-29750.4	0.000000	0.000000	6.202803	0.033982	NaN	0.000000	0.001586	0.001798	28.0849	0.090494	0.002191	41.297	134.373	-168.333	0.060436	0.201472	-0.881472	-0.882767	0.033982	41.297	-0.882089	-5.820552E+11	-5.838269E-14	NaN
1037	1.000000	0.242811	7.37519e+06	-51989.1	1055.82	-29750.4	0.000000	0.000000	6.242847	0.005443	NaN	0.000000	0.001569	0.001778	28.0847	0.116635	0.002068	56.4099	178.463	-166.839	0.054828	0.241508	-0.841428	-0.842730	0.005443	56.4099	-0.841500	-1.642907E+11	-3.312751E-14	NaN
1037	1.000000	0.282829	7.37519e+06	-51989.1	1055.82	-29750.4	0.000000	0.000000	6.282866	0.029936	NaN	0.000000	0.001603	0.001760	28.0848	0.077537	0.002036	38.0866	41.7153	-167.411	-0.004899	0.281465	-0.801409	-0.802774	0.029936	38.0866	-0.801999	-4.786205E+10	-6.254707E-13	NaN
1037	1.000000	0.322822	7.37519e+06	-51989.1	1055.82	-29750.4	0.000000	0.000000	6.322863	0.119149	NaN	0.000000	0.001615	0.001775	28.0835	0.078227	0.002010	38.9175	-120.736	-167.371	0.078022	0.321516	-0.761416	-0.762723	0.119149	38.9175	-0.763712	-1.444768E+10	-8.246906E-12	NaN
1037	1.000000	0.362823	7.37519e+06	-51989.1	1055.82	-29750.4	0.000000	0.000000	6.362860	0.035506	NaN	0.000000	0.001564	0.001806	28.0837	0.034048	0.002017	16.877	32.7874	-167.686	-0.061074	0.361553	-0.721416	-0.722685	0.035506	16.877	-0.722994	-4.029926E+9	-8.810639E-12	NaN
1037	1.000000	0.402858	7.37519e+06	-51989.1	1055.82	-29750.4	0.000000	0.000000	6.402895	0.027863	NaN	0.000000	0.001578	0.001743	28.0836	0.140896	0.001906	73.904	73.4358	-166.308	-0.015364	0.401592	-0.681381	-0.682646	0.027863	73.904	-0.681664	-1.098896E+9	-2.535501E-11	NaN
1037	1.000000	0.442870	7.37519e+06	-51989.1	1055.82	-29750.4	0.000000	0.000000	6.442908	0.039821	NaN	0.000000	0.001602	0.001741	28.0832	0.101492	0.001894	53.5824	-69.1222	-165.712	0.041417	0.441594	-0.641368	-0.642644	0.039821	53.5824	-0.641925	-3.138373E+8	-1.268828E-10	NaN
1037	1.000000	0.482898	7.37519e+06	-51989.1	1055.82	-29750.4	0.000000	0.000000	6.482939	0.119752	NaN	0.000000	0.001500	0.001773	28.0846	0.072645	0.002031	35.7739	136.2	-165.699	0.093673	0.481613	-0.601340	-0.602625	0.119752	35.7739	-0.603851	-9.407704E+7	-1.272913E-9	NaN
1037	1.000000	0.522933	7.37519e+06	-51989.1	1055.82	-29750.4	0.000000	0.000000	6.522971	0.068430	NaN	0.000000	0.001534	0.001743	28.0847	0.054757	0.001949	28.095	-151.609	-169.399	0.084454	0.521640	-0.561306	-0.562598	0.068430	28.095	-0.563133	-2.580509E+7	-2.651816E-9	NaN
1037	1.000000	0.562931	7.37519e+06	-51989.1	1055.82	-29750.4	0.000000	0.000000	6.562963	-0.075657	NaN	0.000000	0.001601	0.001760	28.0846	0.120071	0.001908	62.9367	-45.8766	-169.74	-0.009518	0.561599	-0.521308	-0.522639	-0.075657	62.9367	-0.520406	-6.59547e+06	1.147109E-8	NaN
1037	1.000000	0.602954	7.37519e+06	-51989.1	1055.82	-29750.4	0.000000	0.000000	6.602990	0.014867	NaN	0.000000	0.001574	0.001753	28.0833	0.080145	0.001992	40.2326	-81.9959	-164.616	0.010591	0.601617	-0.481285	-0.482621	0.014867	40.2326	-0.481562	-1.89403e+06	-7.849526E-9	NaN
1037	1.000000	0.642937	7.37519e+06	-51989.1	1055.82	-29750.4	0.000000	0.000000	6.642975	0.057523	NaN	0.000000	0.001597	0.001772	28.0831	0.074181	0.001943	38.1823	-44.6737	-165.48	-0.035868	0.641656	-0.441302	-0.442582	0.057523	38.1823	-0.442432	-534161	-1.076880E-7	NaN
1037	1.000000	0.682987	7.37519e+06	-51989.1	1055.82	-29750.4	0.000000	0.000000	6.683024	0.039798	NaN	0.000000	0.001584	0.001752	28.0833	0.145355	0.001991	73.0136	-22.7046	-168.84	0.012276	0.681663	-0.401252	-0.402575	0.039798	73.0136	-0.401661	-141146	-2.819617E-7	NaN
1037	1.000000	0.722978	7.37519e+06	-51989.1	1055.82	-29750.4	0.000000	0.000000	6.723016	0.057350	NaN	0.000000	0.001592	0.001754	28.0833	0.070738	0.002015	35.1121	-115.084	-167.616	0.067432	0.721692	-0.361261	-0.362546	0.057350	35.1121	-0.362486	-38704.4	-1.481736E-6	NaN
1037	1.000000	0.763026	7.37519e+06	-51989.1	1055.82	-29750.4	0.000000	0.000000	6.763062	0.003692	NaN	0.000000	0.001634	0.001743	28.0844	0.041850	0.002000	20.929	85.0651	-166.483	-0.018362	0.761727	-0.321212	-0.322511	0.003692	20.929	-0.321345	-9736.95	-3.791458E-7	NaN
1037	1.000000	0.803014	7.37519e+06	-51989.1	1055.82	-29750.4	0.000000	0.000000	6.803051	0.018268	NaN	0.000000	0.001573	0.001744	28.0848	0.085330	0.002095	40.7377	102.736	-166.699	0.027954	0.801726	-0.281224	-0.282512	0.018268	40.7377	-0.281561	-2491.73	-7.331498E-6	NaN
1037	1.000000	0.843025	7.37519e+06	-51989.1	1055.82	-29750.4	0.000000	0.000000	6.843062	0.024665	NaN	0.000000	0.001596	0.001773	28.085	0.019932	0.001922	10.3691	-2.085315	-166.591	-0.025955	0.841700	-0.241214	-0.242538	0.024665	10.3691	-0.242998	-640.183	-3.852824E-5	NaN
1037	1.000000	0.883073	7.37519e+06	-51989.1	1055.82	-29750.4	0.000000	0.000000	6.883110	0.027288	NaN	0.000000	0.001569	0.001766	28.0837	0.055915	0.001997	27.9944	122.239	-162.887	-0.060679	0.881759	-0.201165	-0.202479	0.027288	27.9944	-0.201896	-141.521	-0.000193	NaN
1037	1.000000	0.923052	7.3752e+06	-51989.1	1055.82	-29750.4	0.000000	0.000000	6.923086	-0.053887	NaN	0.000000	0.001636	0.001766	28.0835	0.038017	0.001935	19.6459	171.884	-164.133	0.022235	0.921740	-0.161186	-0.162498	-0.053887	19.6459	-0.159129	-26.4539	0.002037	NaN
1037	1.000000	0.963033	7.3752e+06	-51989.1	1055.82	-29750.4	0.000000	0.000000	6.963068	-0.032229	NaN	0.000000	0.001710	0.001818	28.0837	0.068698	0.001944	35.344	165.77	-166.769	-0.039935	0.961821	-0.121205	-0.122418	-0.032229	35.344	-0.120521	-4.949822	0.006511	NaN
1037	1.000000	1.003111	7.3752e+06	-51989.1	1055.82	-29750.4	0.000000	0.000000	7.003145	-0.032441	NaN	0.000000	0.001563	0.001754	28.0837	0.032437	0.002051	15.8162	-173.165	-166.412	-0.017001	1.001773	-0.081128	-0.082465	-0.032441	15.8162	-0.079589	-0.604509	0.053666	NaN
1037	1.000000	1.043116	7.3752e+06	-51989.1	1055.82	-29750.4	0.000000	0.000000	7.043153	0.023271	NaN	0.000000	0.001572	0.001754	28.0847	0.077186	0.001905	40.5119	112.443	-165.919	0.024832	1.041761	-0.041122	-0.042478	0.023271	40.5119	-0.041553	-0.050424	-0.461496	NaN
1037	1.000000	1.083118	7.3752e+06	-51989.1	1055.82	-29750.4	0.000000	0.000000	7.083192	0.908316	NaN	0.000000	0.001593	0.001721	28.0848	1.447868	0.002010	720.169	9.493800	-166.015	0.131369	1.081831	-0.001120	-0.002407	0.908316	720.169	-0.002066	-0.001485	-611.658	NaN
1037	2.000000	1.098624	7.3752e+06	-51989.1	1055.82	-29750.4	0.000000	0.000000	7.099580	22.3604	NaN	0.000000	0.001609	0.001782	28.0847	19.4554	0.001901	10234.6	6.166226	-176.765	21.3842	1.098349	0.014386	0.014110	22.3604	10234.6	0.012747	0.012398	1803.6	83979.4
1037	2.000000	1.108574	7.3752e+06	-51989.1	1055.82	-29750.4	0.000000	0.000000	7.110539	46.9149	NaN	0.000000	0.001607	0.001712	28.0837	28.9621	0.001804	16057.1	5.647475	179.995	45.215	1.108235	0.024335	0.023997	46.9149	16057.1	0.022144	0.026024	1802.75	90939.2
1037	2.000000	1.118582	7.3752e+06	-51989.1	1055.82	-29750.4	0.000000	0.000000	7.121696	74.8438	NaN	0.000000	0.001612	0.001767	28.0837	40.2056	0.001823	22054.8	7.659227	174.265	75.1604	1.118282	0.034344	0.034043	74.8438	22054.8	0.031798	0.044554	1679.86	95462.9
1037	2.000000	1.128560	7.3752e+06	-51989.1	1055.82	-29750.4	0.000000	0.000000	7.133183	111.534	NaN	0.000000	0.001565	0.001741	28.0841	49.203	0.001776	27703.8	3.893972	175.789	109.305	1.128277	0.044322	0.044039	111.534	27703.8	0.041302	0.067437	1653.9	97468.4
1037	2.000000	1.138529	7.3752e+06	-51989.1	1055.82	-29750.4	0.000000	0.000000	7.144889	153.789	NaN	0.000000	0.001636	0.001709	28.0852	58.9755	0.001859	31715.9	4.171054	175.063	151.847	1.138265	0.054290	0.054027	153.789	31715.9	0.050654	0.094444	1628.36	94289.5
1037	2.000000	1.148533	7.3752e+06	-51989.1	1055.82	-29750.4	0.000000	0.000000	7.156979	204.484	NaN	0.000000	0.001631	0.001724	28.085	68.0792	0.001885	36113.7	5.310549	174.211	203.601	1.148168	0.064295	0.063930	204.484	36113.7	0.060048	0.125981	1623.13	92959
1037	2.000000	1.158544	7.3752e+06	-51989.1	1055.82	-29750.4	0.000000	0.000000	7.169234	259.044	NaN	0.000000	0.001640	0.001720	28.085	78.3232	0.001715	45674	5.178619	172.316	258.288	1.158160	0.074306	0.073922	259.044	45674	0.070052	0.164301	1576.65	102949
1037	2.000000	1.168516	7.3752e+06	-51989.1	1055.82	-29750.4	0.000000	0.000000	7.181551	316.072	NaN	0.000000	0.001625	0.001765	28.0849	88.18	0.001733	50889.7	4.422182	171.382	317.286	1.168362	0.084278	0.084123	316.072	50889.7	0.079619	0.205404	1538.78	102588
1037	2.000000	1.178478	7.3752e+06	-51989.1	1055.82	-29750.4	0.000000	0.000000	7.194930	399.146	NaN	0.000000	0.001576	0.001714	28.0837	98.8867	0.001855	53308.2	4.242414	171.621	397.379	1.178183	0.094240	0.093945	399.146	53308.2	0.088624	0.247993	1609.5	97801.8
1037	2.000000	1.188526	7.3752e+06	-51989.1	1055.82	-29750.4	0.000000	0.000000	7.207647	464.061	NaN	0.000000	0.001598	0.001693	28.0837	107.296	0.001727	62143.5	2.836539	171.66	465.528	1.188423	0.104287	0.104185	464.061	62143.5	0.098687	0.299992	1546.91	103661
1037	2.000000	1.188885	7.3752e+06	-51989.1	1055.82	-29750.4	0.000000	0.000000	7.208382	473.218	NaN	0.000000	0.001561	0.001713	28.0838	107.414	0.001784	60217.2	2.573442	-7.875163	464.471	1.188596	0.104647	0.104357	473.218	60217.2	0.098753	0.300348	1575.57	100388