File: remote_trans/data/nanoindenter/0828-1/data/Data_2025-08-06,11h17m57s/2025-07-22_16-23-58_1_793.txt
2025-07-22, 16:23:58, 1
Index	Phase	Displacement	Time	Pos X	Pos Y	Pos Z	Rot A	Rot B	Piezo Z	Force A	Force B	Gripper	Voltage A	Voltage B	Temperature	Amplitude force	Amplitude pos	Stiffness	Phase shift	Phase excitation	Force A raw	Displacement raw	HMax	HMax raw	Real Force	Real Stiffness	Contact Depth	Area	Hardness	Reduced Mod.
[#]	[#]	[um]	[s]	[um]	[um]	[um]	[m°]	[m°]	[um]	[uN]	[uN]	[V]	[V]	[V]	[°C]	[uN]	[um]	[N/m]	[°]	[°]	[uN]	[um]	[um]	[um]	[uN]	[N/m]	[um]	[um^2]	[MPa]	[MPa]
793	1.000000	0.002139	7.37281e+06	-39789.1	1055.82	-29792.5	0.000000	0.000000	6.002792	0.094971	NaN	0.000000	0.001645	0.001763	28.0808	0.092738	0.000902	102.795	-106.85	-163.271	0.069475	0.000874	-1.122457	-1.123722	0.094971	102.795	-1.123150	-1.025031E+15	-9.265213E-17	NaN
793	1.000000	0.044097	7.37281e+06	-39789.1	1055.82	-29792.5	0.000000	0.000000	6.044748	0.030794	NaN	0.000000	0.001635	0.001712	28.0806	0.070478	0.002051	34.3695	-162.271	13.142	0.047768	0.042752	-1.080499	-1.081845	0.030794	34.3695	-1.081171	-2.800591E+14	-1.099541E-16	NaN
793	1.000000	0.086085	7.37281e+06	-39789.1	1055.82	-29792.5	0.000000	0.000000	6.086735	0.016782	NaN	0.000000	0.001593	0.001765	28.0815	0.048519	0.002038	23.8015	-101.714	-164.777	0.031965	0.084777	-1.038512	-1.039819	0.016782	23.8015	-1.039041	-7.604414E+13	-2.206924E-16	NaN
793	1.000000	0.128096	7.37281e+06	-39789.1	1055.82	-29792.5	0.000000	0.000000	6.128744	-0.030030	NaN	0.000000	0.001611	0.001747	28.0815	0.115141	0.001873	61.4897	-41.1215	15.1217	0.013354	0.126759	-0.996501	-0.997837	-0.030030	61.4897	-0.996135	-2.012446E+13	1.492232E-15	NaN
793	1.000000	0.170148	7.37281e+06	-39789.1	1055.82	-29792.5	0.000000	0.000000	6.170800	0.066469	NaN	0.000000	0.001674	0.001773	28.0819	0.139696	0.001870	74.7007	-142.755	-167.386	0.091384	0.168859	-0.954449	-0.955738	0.066469	74.7007	-0.955116	-5.636690E+12	-1.179229E-14	NaN
793	1.000000	0.212142	7.37281e+06	-39789.1	1055.82	-29792.5	0.000000	0.000000	6.212792	0.030367	NaN	0.000000	0.001635	0.001837	28.0806	0.034121	0.001977	17.2547	-162.941	13.8284	0.023966	0.210775	-0.912455	-0.913822	0.030367	17.2547	-0.913775	-1.560087E+12	-1.946502E-14	NaN
793	1.000000	0.254167	7.37281e+06	-39789.1	1055.82	-29792.5	0.000000	0.000000	6.254815	-0.031965	NaN	0.000000	0.001644	0.001809	28.0807	0.069064	0.001913	36.1029	-58.5557	-169.164	0.000895	0.252861	-0.870430	-0.871736	-0.031965	36.1029	-0.869766	-3.965260E+11	8.061326E-14	NaN
793	1.000000	0.296148	7.37281e+06	-39789.1	1055.82	-29792.5	0.000000	0.000000	6.296799	0.054639	NaN	0.000000	0.001648	0.001757	28.0806	0.070904	0.002010	35.2839	-22.0792	14.6258	-0.006842	0.294837	-0.828449	-0.829759	0.054639	35.2839	-0.829610	-1.133708E+11	-4.819536E-13	NaN
793	1.000000	0.338229	7.37281e+06	-39789.1	1055.82	-29792.5	0.000000	0.000000	6.338880	0.039512	NaN	0.000000	0.001596	0.001754	28.0817	0.097796	0.001949	50.1823	150.365	-167.883	0.059966	0.336899	-0.786367	-0.787697	0.039512	50.1823	-0.786958	-2.990638E+10	-1.321186E-12	NaN
793	1.000000	0.380259	7.37281e+06	-39789.1	1055.82	-29792.5	0.000000	0.000000	6.380909	0.024129	NaN	0.000000	0.001679	0.001758	28.0816	0.024996	0.002045	12.2227	164.79	14.5975	0.038935	0.378883	-0.744338	-0.745714	0.024129	12.2227	-0.745818	-8.246871E+9	-2.925787E-12	NaN
793	1.000000	0.422280	7.37281e+06	-39789.1	1055.82	-29792.5	0.000000	0.000000	6.422929	0.016684	NaN	0.000000	0.001635	0.001699	28.0816	0.149886	0.001994	75.1722	144.274	-165.515	-0.043980	0.420971	-0.702317	-0.703626	0.016684	75.1722	-0.702484	-2.115659E+9	-7.885833E-12	NaN
793	1.000000	0.464244	7.37281e+06	-39789.1	1055.82	-29792.5	0.000000	0.000000	6.464892	-0.020743	NaN	0.000000	0.001631	0.001754	28.0816	0.022834	0.002060	11.0841	88.5746	13.7489	0.058164	0.462881	-0.660353	-0.661716	-0.020743	11.0841	-0.658949	-5.371268E+8	3.861928E-11	NaN
793	1.000000	0.506290	7.37281e+06	-39789.1	1055.82	-29792.5	0.000000	0.000000	6.506941	0.051517	NaN	0.000000	0.001647	0.001738	28.0806	0.045745	0.002057	22.2335	-42.1804	-166.892	-0.003932	0.505000	-0.618307	-0.619597	0.051517	22.2335	-0.620045	-1.571255E+8	-3.278729E-10	NaN
793	1.000000	0.548329	7.37281e+06	-39789.1	1055.82	-29792.5	0.000000	0.000000	6.548977	-0.017598	NaN	0.000000	0.001671	0.001706	28.0805	0.076504	0.002001	38.2369	141.315	17.3844	-0.000217	0.546905	-0.576268	-0.577692	-0.017598	38.2369	-0.575923	-3.876482E+7	4.539627E-10	NaN
793	1.000000	0.590301	7.37281e+06	-39789.1	1055.82	-29792.5	0.000000	0.000000	6.590952	0.050603	NaN	0.000000	0.001641	0.001760	28.0808	0.031415	0.001898	16.5539	118.784	-164.41	-0.075263	0.588975	-0.534296	-0.535621	0.050603	16.5539	-0.536589	-1.106714E+7	-4.572346E-9	NaN
793	1.000000	0.632359	7.37281e+06	-39789.1	1055.82	-29792.5	0.000000	0.000000	6.633010	0.063704	NaN	0.000000	0.001637	0.001734	28.0819	0.016320	0.001925	8.477194	-170.939	14.5455	-0.002694	0.630999	-0.492238	-0.493598	0.063704	8.477194	-0.497874	-3.20152e+06	-1.989817E-8	NaN
793	1.000000	0.674392	7.37281e+06	-39789.1	1055.82	-29792.5	0.000000	0.000000	6.675038	-0.081417	NaN	0.000000	0.001695	0.001758	28.0819	0.055346	0.001946	28.4337	168.754	-164.816	-0.103782	0.673097	-0.450204	-0.451500	-0.081417	28.4337	-0.448057	-641171	1.269810E-7	NaN
793	1.000000	0.716372	7.37281e+06	-39789.1	1055.82	-29792.5	0.000000	0.000000	6.717023	0.027782	NaN	0.000000	0.001690	0.001710	28.0821	0.070650	0.002064	34.2247	132.84	13.7214	0.013732	0.715036	-0.408225	-0.409561	0.027782	34.2247	-0.408833	-178570	-1.555790E-7	NaN
793	1.000000	0.758359	7.37282e+06	-39789.1	1055.82	-29792.5	0.000000	0.000000	6.759008	0.008655	NaN	0.000000	0.001650	0.001726	28.0808	0.123745	0.001890	65.4896	142.211	-166.688	0.017042	0.757122	-0.366238	-0.367474	0.008655	65.4896	-0.366337	-43988.7	-1.967624E-7	NaN
793	1.000000	0.800434	7.37282e+06	-39789.1	1055.82	-29792.5	0.000000	0.000000	6.801078	-0.111908	NaN	0.000000	0.001597	0.001750	28.0808	0.043699	0.002050	21.3196	5.185189	15.8151	-0.119026	0.799053	-0.324163	-0.325544	-0.111908	21.3196	-0.320226	-9374.92	1.193699E-5	NaN
793	1.000000	0.842429	7.37282e+06	-39789.1	1055.82	-29792.5	0.000000	0.000000	6.843077	-0.014384	NaN	0.000000	0.001623	0.001735	28.0806	0.062104	0.002046	30.3473	146.679	-168.718	0.023535	0.841115	-0.282168	-0.283481	-0.014384	30.3473	-0.281812	-2513.59	5.722324E-6	NaN
793	1.000000	0.884412	7.37282e+06	-39789.1	1055.82	-29792.5	0.000000	0.000000	6.885064	0.073263	NaN	0.000000	0.001660	0.001735	28.0818	0.061153	0.001974	30.9798	-48.9548	14.2026	-0.040129	0.883125	-0.240185	-0.241472	0.073263	30.9798	-0.241958	-616.753	-0.000119	NaN
793	1.000000	0.926478	7.37282e+06	-39789.1	1055.82	-29792.5	0.000000	0.000000	6.927129	0.040872	NaN	0.000000	0.001674	0.001774	28.0821	0.024101	0.002097	11.4914	-131.054	-166.346	0.065341	0.925166	-0.198118	-0.199431	0.040872	11.4914	-0.200786	-135.708	-0.000301	NaN
793	1.000000	0.968469	7.37282e+06	-39789.1	1055.82	-29792.5	0.000000	0.000000	6.969116	-0.060527	NaN	0.000000	0.001667	0.001749	28.0828	0.053596	0.002000	26.8013	104.788	13.8648	-0.081404	0.967131	-0.156127	-0.157466	-0.060527	26.8013	-0.154434	-21.7962	0.002777	NaN
793	1.000000	1.010502	7.37282e+06	-39789.1	1055.82	-29792.5	0.000000	0.000000	7.011154	0.068026	NaN	0.000000	0.001630	0.001712	28.0822	0.133183	0.001820	73.177	18.767	-165.744	0.110896	1.009125	-0.114095	-0.115472	0.068026	73.177	-0.114792	-3.782864	-0.017983	NaN
793	1.000000	1.052489	7.37282e+06	-39789.1	1055.82	-29792.5	0.000000	0.000000	7.053136	-0.063632	NaN	0.000000	0.001640	0.001705	28.0808	0.026762	0.001999	13.3884	155.342	13.2631	-0.042397	1.051183	-0.072107	-0.073414	-0.063632	13.3884	-0.068543	-0.311643	0.204182	NaN
793	1.000000	1.094533	7.37282e+06	-39789.1	1055.82	-29792.5	0.000000	0.000000	7.095180	-0.058057	NaN	0.000000	0.001734	0.001719	28.0807	0.056209	0.002100	26.7604	8.826090	-166.274	0.031113	1.093212	-0.030064	-0.031384	-0.058057	26.7604	-0.028437	-0.020838	2.786154	NaN
793	2.000000	1.133641	7.37282e+06	-39789.1	1055.82	-29792.5	0.000000	0.000000	7.134700	9.955117	NaN	0.000000	0.001728	0.001720	28.0807	9.793039	0.001650	5936.4	9.338321	4.231900	9.398690	1.133288	0.009045	0.008691	9.955117	5936.4	0.007787	0.006824	1458.8	65655.6
793	2.000000	1.144033	7.37282e+06	-39789.1	1055.82	-29792.5	0.000000	0.000000	7.145863	28.7206	NaN	0.000000	0.001734	0.001690	28.0826	20.9207	0.001684	12425.9	10.0922	176.521	27.2857	1.143705	0.019437	0.019108	28.7206	12425.9	0.017703	0.019061	1506.79	82229.9
793	2.000000	1.154512	7.37282e+06	-39789.1	1055.82	-29792.5	0.000000	0.000000	7.157563	58.4616	NaN	0.000000	0.001729	0.001692	28.0821	30.8337	0.001858	16591	1.783570	2.766508	55.5248	1.154156	0.029915	0.029559	58.4616	16591	0.027272	0.035280	1657.09	80701.9
793	2.000000	1.164930	7.37282e+06	-39789.1	1055.82	-29792.5	0.000000	0.000000	7.169549	96.6046	NaN	0.000000	0.001666	0.001703	28.082	39.7804	0.001749	22747.6	-0.237619	-177.95	93.132	1.164722	0.040333	0.040125	96.6046	22747.6	0.037148	0.056865	1698.83	87153.4
793	2.000000	1.175496	7.37282e+06	-39789.1	1055.82	-29792.5	0.000000	0.000000	7.181749	136.369	NaN	0.000000	0.001640	0.001709	28.0807	49.6142	0.001732	28647.1	2.769350	-2.055515	135.213	1.175162	0.050899	0.050565	136.369	28647.1	0.047329	0.084337	1616.96	90125
793	2.000000	1.186012	7.37282e+06	-39789.1	1055.82	-29792.5	0.000000	0.000000	7.194708	195.803	NaN	0.000000	0.001681	0.001709	28.0806	60.7605	0.001855	32751.2	8.684346	171.228	195.571	1.185623	0.061416	0.061026	195.803	32751.2	0.056932	0.115036	1702.1	88223.4
793	2.000000	1.196481	7.37282e+06	-39789.1	1055.82	-29792.5	0.000000	0.000000	7.207281	247.005	NaN	0.000000	0.001630	0.001689	28.0808	68.5054	0.001771	38681	3.419890	-5.987694	245.589	1.196173	0.071885	0.071577	247.005	38681	0.067095	0.152474	1619.99	90505.3
793	2.000000	1.206970	7.37282e+06	-39789.1	1055.82	-29792.5	0.000000	0.000000	7.220749	319.51	NaN	0.000000	0.001666	0.001675	28.0819	78.4711	0.001779	44118.9	5.601644	171.445	319.081	1.206645	0.082373	0.082048	319.51	44118.9	0.076941	0.193465	1651.51	91642.3
793	2.000000	1.217332	7.37282e+06	-39789.1	1055.82	-29792.5	0.000000	0.000000	7.234359	398.529	NaN	0.000000	0.001644	0.001739	28.082	87.5844	0.001785	49056.2	7.400206	-11.2823	391.554	1.216958	0.092736	0.092361	398.529	49056.2	0.086643	0.238301	1672.38	91813
793	2.000000	1.227873	7.37282e+06	-39789.1	1055.82	-29792.5	0.000000	0.000000	7.248524	486.738	NaN	0.000000	0.001691	0.001723	28.082	97.5074	0.001731	56325.2	6.385080	169.425	482.477	1.227503	0.103276	0.102906	486.738	56325.2	0.096795	0.289864	1679.2	95582.6
793	2.000000	1.230800	7.37282e+06	-39789.1	1055.82	-29792.5	0.000000	0.000000	7.252195	504.838	NaN	0.000000	0.001695	0.001728	28.0821	100.333	0.001785	56219.7	4.206832	170.939	495.567	1.230536	0.106203	0.105939	504.838	56219.7	0.099468	0.304223	1659.43	93124.9