File: remote_trans/data/nanoindenter/0828-1/data/Data_2025-08-06,11h17m57s/2025-07-22_16-23-58_1_392.txt
2025-07-22, 16:23:58, 1
Index	Phase	Displacement	Time	Pos X	Pos Y	Pos Z	Rot A	Rot B	Piezo Z	Force A	Force B	Gripper	Voltage A	Voltage B	Temperature	Amplitude force	Amplitude pos	Stiffness	Phase shift	Phase excitation	Force A raw	Displacement raw	HMax	HMax raw	Real Force	Real Stiffness	Contact Depth	Area	Hardness	Reduced Mod.
[#]	[#]	[um]	[s]	[um]	[um]	[um]	[m°]	[m°]	[um]	[uN]	[uN]	[V]	[V]	[V]	[°C]	[uN]	[um]	[N/m]	[°]	[°]	[uN]	[um]	[um]	[um]	[uN]	[N/m]	[um]	[um^2]	[MPa]	[MPa]
392	1.000000	0.002555	7.3689e+06	-57489.1	1005.82	-29737	0.000000	0.000000	6.002815	0.033833	NaN	0.000000	0.001676	0.001577	28.0807	0.109878	0.000957	114.857	137.859	-166.703	0.029081	0.001234	-1.080091	-1.081411	0.033833	114.857	-1.080311	-2.727109E+14	-1.240618E-16	NaN
392	1.000000	0.042465	7.3689e+06	-57489.1	1005.82	-29737	0.000000	0.000000	6.042723	-0.027538	NaN	0.000000	0.001666	0.001620	28.0815	0.088114	0.002005	43.9418	100.817	-163.411	-0.024841	0.041212	-1.040180	-1.041434	-0.027538	43.9418	-1.039710	-7.763774E+13	3.547019E-16	NaN
392	1.000000	0.082486	7.3689e+06	-57489.1	1005.82	-29737	0.000000	0.000000	6.082743	-0.062777	NaN	0.000000	0.001651	0.001598	28.0817	0.034834	0.001943	17.9318	33.849	-164.95	-0.019021	0.081196	-1.000159	-1.001449	-0.062777	17.9318	-0.997533	-2.101642E+13	2.987049E-15	NaN
392	1.000000	0.122527	7.3689e+06	-57489.1	1005.82	-29737	0.000000	0.000000	6.122786	0.007808	NaN	0.000000	0.001697	0.001567	28.0818	0.041374	0.002010	20.5793	98.6529	-168.039	-0.087612	0.121283	-0.960118	-0.961363	0.007808	20.5793	-0.960403	-6.642022E+12	-1.175545E-15	NaN
392	1.000000	0.162535	7.3689e+06	-57489.1	1005.82	-29737	0.000000	0.000000	6.162795	0.029130	NaN	0.000000	0.001695	0.001553	28.0802	0.082209	0.002095	39.2434	-57.0487	-168.369	0.006856	0.161198	-0.920111	-0.921447	0.029130	39.2434	-0.920667	-1.932930E+12	-1.507020E-14	NaN
392	1.000000	0.202573	7.3689e+06	-57489.1	1005.82	-29737	0.000000	0.000000	6.202828	-0.096424	NaN	0.000000	0.001632	0.001606	28.0803	0.029642	0.002083	14.2271	-25.3909	-166.253	-0.061471	0.201236	-0.880072	-0.881409	-0.096424	14.2271	-0.874989	-4.665852E+11	2.066582E-13	NaN
392	1.000000	0.242548	7.3689e+06	-57489.1	1005.82	-29737	0.000000	0.000000	6.242808	0.009944	NaN	0.000000	0.001630	0.001585	28.0801	0.061085	0.001926	31.722	172.103	-163.604	-0.096826	0.241270	-0.840097	-0.841375	0.009944	31.722	-0.840332	-1.584132E+11	-6.277062E-14	NaN
392	1.000000	0.282595	7.3689e+06	-57489.1	1005.82	-29737	0.000000	0.000000	6.282856	0.033390	NaN	0.000000	0.001576	0.001614	28.0809	0.084401	0.002038	41.4224	152.613	-164.444	-0.008337	0.281290	-0.800050	-0.801356	0.033390	41.4224	-0.800655	-4.589328E+10	-7.275678E-13	NaN
392	1.000000	0.322598	7.3689e+06	-57489.1	1005.82	-29737	0.000000	0.000000	6.322857	-0.007785	NaN	0.000000	0.001568	0.001573	28.0815	0.027189	0.002091	13.0052	-34.3574	-162.716	-0.047612	0.321227	-0.760047	-0.761418	-0.007785	13.0052	-0.759598	-1.270092E+10	6.129317E-13	NaN
392	1.000000	0.362642	7.3689e+06	-57489.1	1005.82	-29737	0.000000	0.000000	6.362900	-0.024397	NaN	0.000000	0.001612	0.001628	28.0812	0.057438	0.002140	26.837	-44.0473	-167.555	0.048998	0.361373	-0.720003	-0.721272	-0.024397	26.837	-0.719321	-3.591003E+9	6.793823E-12	NaN
392	1.000000	0.402656	7.3689e+06	-57489.1	1005.82	-29737	0.000000	0.000000	6.402913	-0.047734	NaN	0.000000	0.001584	0.001679	28.0814	0.051340	0.002001	25.6536	-2.096442	-168.312	0.039008	0.401354	-0.679989	-0.681292	-0.047734	25.6536	-0.678594	-9.976383E+8	4.784696E-11	NaN
392	1.000000	0.442642	7.3689e+06	-57489.1	1005.82	-29737	0.000000	0.000000	6.442901	-0.002791	NaN	0.000000	0.001603	0.001646	28.08	0.125230	0.002045	61.2478	-170.791	-166.724	-0.023349	0.441344	-0.640003	-0.641301	-0.002791	61.2478	-0.639969	-2.950294E+8	9.459499E-12	NaN
392	1.000000	0.482660	7.3689e+06	-57489.1	1005.82	-29737	0.000000	0.000000	6.482918	-0.025956	NaN	0.000000	0.001573	0.001635	28.0801	0.090432	0.002067	43.7462	-26.9346	-165.298	-0.012692	0.481360	-0.599986	-0.601286	-0.025956	43.7462	-0.599541	-8.206020E+7	3.163026E-10	NaN
392	1.000000	0.522692	7.3689e+06	-57489.1	1005.82	-29737	0.000000	0.000000	6.522951	0.017868	NaN	0.000000	0.001587	0.001620	28.0801	0.081749	0.001949	41.9356	53.2123	-167.391	-0.076977	0.521403	-0.559954	-0.561242	0.017868	41.9356	-0.560273	-2.355906E+7	-7.584423E-10	NaN
392	1.000000	0.562726	7.3689e+06	-57489.1	1005.82	-29737	0.000000	0.000000	6.562983	-0.059497	NaN	0.000000	0.001594	0.001579	28.0816	0.035697	0.001949	18.3187	36.7711	-164.003	-0.083691	0.561397	-0.519919	-0.521248	-0.059497	18.3187	-0.517483	-6.00605e+06	9.906120E-9	NaN
392	1.000000	0.602730	7.3689e+06	-57489.1	1005.82	-29737	0.000000	0.000000	6.602992	0.064774	NaN	0.000000	0.001619	0.001634	28.0815	0.033495	0.002166	15.4663	-90.9024	-165.766	0.081929	0.601419	-0.479915	-0.481226	0.064774	15.4663	-0.483056	-1.98744e+06	-3.259167E-8	NaN
392	1.000000	0.642756	7.3689e+06	-57489.1	1005.82	-29737	0.000000	0.000000	6.643015	-0.001053	NaN	0.000000	0.001597	0.001642	28.0818	0.043376	0.001944	22.315	147.389	-169.524	0.018309	0.641440	-0.439889	-0.441206	-0.001053	22.315	-0.439854	-491251	2.144215E-9	NaN
392	1.000000	0.682751	7.3689e+06	-57489.1	1005.82	-29737	0.000000	0.000000	6.683008	-0.043303	NaN	0.000000	0.001588	0.001666	28.0816	0.039398	0.001995	19.7534	125.389	-168.039	-0.053798	0.681466	-0.399895	-0.401180	-0.043303	19.7534	-0.398251	-126194	3.431449E-7	NaN
392	1.000000	0.722802	7.3689e+06	-57489.1	1005.82	-29737	0.000000	0.000000	6.723059	-0.056845	NaN	0.000000	0.001641	0.001702	28.0801	0.095518	0.002058	46.4104	105.305	-162.199	-0.055674	0.721461	-0.359843	-0.361185	-0.056845	46.4104	-0.358924	-34379	1.653471E-6	NaN
392	1.000000	0.762783	7.3689e+06	-57489.1	1005.82	-29737	0.000000	0.000000	6.763044	0.032531	NaN	0.000000	0.001638	0.001644	28.0802	0.113426	0.002017	56.2377	55.8151	-163.396	0.053553	0.761482	-0.319862	-0.321163	0.032531	56.2377	-0.320296	-9397.04	-3.461836E-6	NaN
392	1.000000	0.802809	7.3689e+06	-57489.1	1005.82	-29737	0.000000	0.000000	6.803066	-0.047618	NaN	0.000000	0.001565	0.001679	28.0801	0.090608	0.001969	46.007	152.482	-167.802	-0.025012	0.801506	-0.279837	-0.281140	-0.047618	46.007	-0.279060	-2284.48	2.084395E-5	NaN
392	1.000000	0.842811	7.3689e+06	-57489.1	1005.82	-29737	0.000000	0.000000	6.843071	0.046926	NaN	0.000000	0.001632	0.001669	28.082	0.081156	0.001990	40.7785	85.3706	-167.595	0.028912	0.841478	-0.239835	-0.241167	0.046926	40.7785	-0.240698	-589.451	-7.961044E-5	NaN
392	1.000000	0.882869	7.3689e+06	-57489.1	1005.82	-29737	0.000000	0.000000	6.883128	-0.000201	NaN	0.000000	0.001573	0.001642	28.0816	0.062016	0.002045	30.3306	-65.9071	-166.647	-0.013547	0.881551	-0.199777	-0.201094	-0.000201	30.3306	-0.199772	-130.601	1.536963E-6	NaN
392	1.000000	0.922866	7.3689e+06	-57489.1	1005.82	-29737	0.000000	0.000000	6.923124	-0.019554	NaN	0.000000	0.001560	0.001626	28.0816	0.124229	0.001880	66.0779	-43.2066	-166.485	-0.051218	0.921515	-0.159780	-0.161130	-0.019554	66.0779	-0.159558	-26.9229	0.000726	NaN
392	1.000000	0.962873	7.3689e+06	-57489.1	1005.82	-29737	0.000000	0.000000	6.963131	-0.015937	NaN	0.000000	0.001624	0.001636	28.0816	0.040482	0.002038	19.8626	158.216	-164.328	0.016035	0.961588	-0.119773	-0.121057	-0.015937	19.8626	-0.119171	-4.648571	0.003428	NaN
392	1.000000	1.002874	7.3689e+06	-57489.1	1005.82	-29737	0.000000	0.000000	7.003136	0.063565	NaN	0.000000	0.001705	0.001650	28.0804	0.042617	0.002047	20.8208	36.9689	-167.405	0.022972	1.001634	-0.079771	-0.081011	0.063565	20.8208	-0.082061	-0.696419	-0.091274	NaN
392	1.000000	1.042893	7.3689e+06	-57489.1	1005.82	-29737	0.000000	0.000000	7.043150	-0.048979	NaN	0.000000	0.001689	0.001656	28.0802	0.154210	0.001932	79.8182	-42.9784	-167.299	-0.050933	1.041577	-0.039752	-0.041069	-0.048979	79.8182	-0.039292	-0.043040	1.137986	NaN
392	1.000000	1.082934	7.3689e+06	-57489.1	1005.82	-29737	0.000000	0.000000	7.083222	0.714566	NaN	0.000000	0.001703	0.001660	28.08	0.847864	0.001991	425.887	9.743741	-164.578	0.907439	1.081579	0.000289	-0.001067	0.714566	425.887	-0.000970	-0.000711	-1004.57	NaN
392	2.000000	1.099487	7.3689e+06	-57489.1	1005.82	-29737	0.000000	0.000000	7.100652	22.0183	NaN	0.000000	0.001623	0.001658	28.0813	17.4738	0.001723	10142.6	5.364881	-176.765	21.594	1.099194	0.016842	0.016549	22.0183	10142.6	0.015214	0.015572	1413.98	74259.7
392	2.000000	1.109460	7.3689e+06	-57489.1	1005.82	-29737	0.000000	0.000000	7.111428	41.5404	NaN	0.000000	0.001691	0.001697	28.0815	26.9044	0.001814	14832.8	4.233808	-177.964	41.0931	1.109160	0.026815	0.026515	41.5404	14832.8	0.024714	0.030498	1362.09	77600.3
392	2.000000	1.119382	7.3689e+06	-57489.1	1005.82	-29737	0.000000	0.000000	7.122967	80.8474	NaN	0.000000	0.001674	0.001621	28.0824	37.3696	0.001842	20292.6	4.568515	178.642	77.0665	1.119083	0.036736	0.036438	80.8474	20292.6	0.033748	0.048872	1654.29	83865.6
392	2.000000	1.129354	7.3689e+06	-57489.1	1005.82	-29737	0.000000	0.000000	7.134940	129.478	NaN	0.000000	0.001710	0.001654	28.0807	48.1015	0.001867	25764.7	6.609349	173.593	126.001	1.129087	0.046708	0.046441	129.478	25764.7	0.042939	0.071845	1802.19	87821.3
392	2.000000	1.139448	7.3689e+06	-57489.1	1005.82	-29737	0.000000	0.000000	7.147651	193.081	NaN	0.000000	0.001699	0.001619	28.0805	57.262	0.001843	31070.8	2.758205	176.449	193.555	1.139088	0.056803	0.056442	193.081	31070.8	0.052142	0.099149	1947.39	90153.2
392	2.000000	1.149401	7.3689e+06	-57489.1	1005.82	-29737	0.000000	0.000000	7.160392	260.854	NaN	0.000000	0.001621	0.001662	28.0803	67.3771	0.001886	35719.5	4.396193	173.467	259.638	1.149153	0.066755	0.066508	260.854	35719.5	0.061278	0.130431	1999.93	90362.4
392	2.000000	1.159380	7.3689e+06	-57489.1	1005.82	-29737	0.000000	0.000000	7.173037	325.626	NaN	0.000000	0.001651	0.001661	28.0801	76.0921	0.001775	42860.5	2.317307	174.119	323.807	1.159073	0.076735	0.076427	325.626	42860.5	0.071037	0.168332	1934.42	95443.5
392	2.000000	1.169335	7.3689e+06	-57489.1	1005.82	-29737	0.000000	0.000000	7.186131	401.931	NaN	0.000000	0.001639	0.001677	28.0813	85.4919	0.001755	48700.3	1.676892	173.744	398.667	1.169124	0.086690	0.086479	401.931	48700.3	0.080500	0.209402	1919.42	97233.1
392	2.000000	1.179435	7.3689e+06	-57489.1	1005.82	-29737	0.000000	0.000000	7.199341	477.517	NaN	0.000000	0.001636	0.001669	28.0814	95.4605	0.001854	51502.6	5.297476	170.187	479.643	1.179073	0.096790	0.096428	477.517	51502.6	0.089836	0.254010	1879.91	93363.4
392	2.000000	1.189476	7.3689e+06	-57489.1	1005.82	-29737	0.000000	0.000000	7.212586	555.362	NaN	0.000000	0.001604	0.001641	28.0814	105.039	0.001780	59000	11.776	163.731	560.438	1.189033	0.106831	0.106388	555.362	59000	0.099771	0.305872	1815.67	97466.5
392	2.000000	1.190261	7.3689e+06	-57489.1	1005.82	-29737	0.000000	0.000000	7.213190	550.975	NaN	0.000000	0.001638	0.001627	28.0817	103.556	0.001635	63317.7	2.180993	171.589	542.989	1.190059	0.107616	0.107413	550.975	63317.7	0.101090	0.313092	1759.78	103386