File: remote_trans/data/nanoindenter/0828-1/data/Data_2025-08-06,11h17m57s/2025-07-22_16-23-58_1_398.txt
2025-07-22, 16:23:58, 1
Index	Phase	Displacement	Time	Pos X	Pos Y	Pos Z	Rot A	Rot B	Piezo Z	Force A	Force B	Gripper	Voltage A	Voltage B	Temperature	Amplitude force	Amplitude pos	Stiffness	Phase shift	Phase excitation	Force A raw	Displacement raw	HMax	HMax raw	Real Force	Real Stiffness	Contact Depth	Area	Hardness	Reduced Mod.
[#]	[#]	[um]	[s]	[um]	[um]	[um]	[m°]	[m°]	[um]	[uN]	[uN]	[V]	[V]	[V]	[°C]	[uN]	[um]	[N/m]	[°]	[°]	[uN]	[um]	[um]	[um]	[uN]	[N/m]	[um]	[um^2]	[MPa]	[MPa]
398	1.000000	0.002925	7.36895e+06	-57189.1	1005.82	-29737.4	0.000000	0.000000	6.002827	0.004147	NaN	0.000000	0.001650	0.001624	28.082	0.070493	0.000964	73.1205	-114.551	-166.504	-0.005474	0.001636	-1.162813	-1.164102	0.004147	73.1205	-1.162855	-3.492498E+15	-1.187278E-18	NaN
398	1.000000	0.046867	7.36895e+06	-57189.1	1005.82	-29737.4	0.000000	0.000000	6.046770	0.038611	NaN	0.000000	0.001724	0.001594	28.0809	0.034474	0.002004	17.2005	-130.941	-165.682	0.093401	0.045519	-1.118871	-1.120219	0.038611	17.2005	-1.120554	-9.460431E+14	-4.081349E-17	NaN
398	1.000000	0.090862	7.36895e+06	-57189.1	1005.82	-29737.4	0.000000	0.000000	6.090760	-0.084617	NaN	0.000000	0.001645	0.001628	28.0809	0.068255	0.002002	34.0868	145.052	-165.681	-0.100655	0.089541	-1.074876	-1.076197	-0.084617	34.0868	-1.073014	-2.176100E+14	3.888465E-16	NaN
398	1.000000	0.134866	7.36895e+06	-57189.1	1005.82	-29737.4	0.000000	0.000000	6.134770	0.062150	NaN	0.000000	0.001658	0.001598	28.0809	0.087840	0.001949	45.0696	37.8799	-165.791	-0.020549	0.133564	-1.030872	-1.032174	0.062150	45.0696	-1.031906	-6.096994E+13	-1.019354E-15	NaN
398	1.000000	0.178900	7.36895e+06	-57189.1	1005.82	-29737.4	0.000000	0.000000	6.178803	0.007525	NaN	0.000000	0.001618	0.001606	28.0823	0.105095	0.002014	52.1888	-138.256	-164.509	-0.009207	0.177568	-0.986837	-0.988169	0.007525	52.1888	-0.986945	-1.513458E+13	-4.971903E-16	NaN
398	1.000000	0.222920	7.36895e+06	-57189.1	1005.82	-29737.4	0.000000	0.000000	6.222823	0.035603	NaN	0.000000	0.001635	0.001616	28.0822	0.098424	0.002128	46.2454	-151.911	-163.389	0.025688	0.221618	-0.942818	-0.944120	0.035603	46.2454	-0.943395	-3.916892E+12	-9.089703E-15	NaN
398	1.000000	0.266925	7.36896e+06	-57189.1	1005.82	-29737.4	0.000000	0.000000	6.266828	0.029400	NaN	0.000000	0.001663	0.001632	28.0822	0.113953	0.001968	57.8971	-68.9975	-167.028	0.014792	0.265595	-0.898813	-0.900142	0.029400	57.8971	-0.899194	-9.912174E+11	-2.966084E-14	NaN
398	1.000000	0.310933	7.36896e+06	-57189.1	1005.82	-29737.4	0.000000	0.000000	6.310838	0.081256	NaN	0.000000	0.001621	0.001631	28.0809	0.037935	0.002167	17.5095	-111.861	-164.36	0.070095	0.309614	-0.854804	-0.856123	0.081256	17.5095	-0.858285	-2.772725E+11	-2.930541E-13	NaN
398	1.000000	0.354973	7.36896e+06	-57189.1	1005.82	-29737.4	0.000000	0.000000	6.354875	-0.017452	NaN	0.000000	0.001655	0.001680	28.0812	0.073129	0.001971	37.0967	-99.2665	-162.174	-0.059471	0.353645	-0.810764	-0.812092	-0.017452	37.0967	-0.810411	-6.225157E+10	2.803453E-13	NaN
398	1.000000	0.398973	7.36896e+06	-57189.1	1005.82	-29737.4	0.000000	0.000000	6.398873	-0.054944	NaN	0.000000	0.001623	0.001625	28.0811	0.020278	0.001943	10.4356	-115.838	-164.133	-0.031005	0.397648	-0.766764	-0.768090	-0.054944	10.4356	-0.762815	-1.404752E+10	3.911329E-12	NaN
398	1.000000	0.443021	7.36896e+06	-57189.1	1005.82	-29737.4	0.000000	0.000000	6.442927	0.084927	NaN	0.000000	0.001656	0.001674	28.0809	0.062013	0.001970	31.4856	-29.1083	-163.351	0.034542	0.441661	-0.722716	-0.724077	0.084927	31.4856	-0.724739	-4.256945E+9	-1.995017E-11	NaN
398	1.000000	0.486994	7.36896e+06	-57189.1	1005.82	-29737.4	0.000000	0.000000	6.486894	-0.039888	NaN	0.000000	0.001619	0.001637	28.0823	0.123235	0.002007	61.4145	6.186827	-162.941	0.030567	0.485714	-0.678744	-0.680023	-0.039888	61.4145	-0.678257	-9.871022E+8	4.040869E-11	NaN
398	1.000000	0.531049	7.36896e+06	-57189.1	1005.82	-29737.4	0.000000	0.000000	6.530950	-0.015191	NaN	0.000000	0.001650	0.001631	28.0825	0.087060	0.001947	44.7163	-142.856	-163.101	-0.068032	0.529699	-0.634688	-0.636038	-0.015191	44.7163	-0.634434	-2.476842E+8	6.133328E-11	NaN
398	1.000000	0.575050	7.36896e+06	-57189.1	1005.82	-29737.4	0.000000	0.000000	6.574954	0.064611	NaN	0.000000	0.001623	0.001582	28.0824	0.031349	0.001883	16.6445	78.3518	-163.255	0.069625	0.573711	-0.590688	-0.592026	0.064611	16.6445	-0.593599	-6.796392E+7	-9.506704E-10	NaN
398	1.000000	0.619071	7.36896e+06	-57189.1	1005.82	-29737.4	0.000000	0.000000	6.618974	0.009924	NaN	0.000000	0.001719	0.001559	28.0808	0.029641	0.002030	14.6017	68.3432	-169.725	0.036606	0.617776	-0.546666	-0.547961	0.009924	14.6017	-0.547176	-1.551789E+7	-6.395328E-10	NaN
398	1.000000	0.663113	7.36896e+06	-57189.1	1005.82	-29737.4	0.000000	0.000000	6.663015	-0.001944	NaN	0.000000	0.001564	0.001553	28.0807	0.067276	0.001915	35.133	-84.646	-163.819	-0.003313	0.661794	-0.502624	-0.503943	-0.001944	35.133	-0.502582	-3.72424e+06	5.220682E-10	NaN
398	1.000000	0.707115	7.36896e+06	-57189.1	1005.82	-29737.4	0.000000	0.000000	6.707016	-0.024120	NaN	0.000000	0.001600	0.001587	28.0809	0.067393	0.001981	34.0244	-61.4091	-166.037	-0.001501	0.705788	-0.458623	-0.459949	-0.024120	34.0244	-0.458091	-887534	2.717653E-8	NaN
398	1.000000	0.751145	7.36896e+06	-57189.1	1005.82	-29737.4	0.000000	0.000000	6.751049	0.044124	NaN	0.000000	0.001637	0.001623	28.0821	0.083162	0.002108	39.443	135.179	-164.749	0.020965	0.749832	-0.414592	-0.415905	0.044124	39.443	-0.415431	-221603	-1.991106E-7	NaN
398	1.000000	0.795146	7.36896e+06	-57189.1	1005.82	-29737.4	0.000000	0.000000	6.795050	0.031193	NaN	0.000000	0.001638	0.001599	28.0825	0.032014	0.001959	16.341	-173.21	-166.594	-0.013906	0.793856	-0.370591	-0.371881	0.031193	16.341	-0.372023	-53118.8	-5.872316E-7	NaN
398	1.000000	0.839213	7.36896e+06	-57189.1	1005.82	-29737.4	0.000000	0.000000	6.839115	-0.006306	NaN	0.000000	0.001604	0.001621	28.0821	0.099093	0.001842	53.7953	-49.2716	-164.776	-0.043529	0.837867	-0.326525	-0.327871	-0.006306	53.7953	-0.326437	-11567	5.452034E-7	NaN
398	1.000000	0.883214	7.36896e+06	-57189.1	1005.82	-29737.4	0.000000	0.000000	6.883116	-0.013069	NaN	0.000000	0.001605	0.001626	28.0809	0.059529	0.001949	30.5441	-137.144	-163.878	0.032572	0.881897	-0.282523	-0.283841	-0.013069	30.5441	-0.282202	-2547.81	5.129420E-6	NaN
398	1.000000	0.927200	7.36896e+06	-57189.1	1005.82	-29737.4	0.000000	0.000000	6.927105	0.060491	NaN	0.000000	0.001596	0.001610	28.0808	0.072294	0.002025	35.7079	-152.738	-167.038	0.045028	0.925915	-0.238537	-0.239822	0.060491	35.7079	-0.239808	-570.89	-0.000106	NaN
398	1.000000	0.971254	7.36896e+06	-57189.1	1005.82	-29737.4	0.000000	0.000000	6.971157	0.022033	NaN	0.000000	0.001603	0.001603	28.0809	0.101317	0.002078	48.7459	13.2708	-164.96	0.109457	0.969949	-0.194484	-0.195788	0.022033	48.7459	-0.194823	-108.209	-0.000204	NaN
398	1.000000	1.015259	7.36896e+06	-57189.1	1005.82	-29737.4	0.000000	0.000000	7.015159	-0.057120	NaN	0.000000	0.001595	0.001572	28.0822	0.090189	0.002018	44.6939	-155.485	-166.322	-0.007518	1.013916	-0.150478	-0.151821	-0.057120	44.6939	-0.149520	-17.7516	0.003218	NaN
398	1.000000	1.059268	7.36896e+06	-57189.1	1005.82	-29737.4	0.000000	0.000000	7.059169	-0.017213	NaN	0.000000	0.001612	0.001583	28.0822	0.080754	0.001917	42.1178	118.699	-164.692	-0.002217	1.057973	-0.106470	-0.107764	-0.017213	42.1178	-0.106163	-2.490154	0.006913	NaN
398	1.000000	1.103279	7.36896e+06	-57189.1	1005.82	-29737.4	0.000000	0.000000	7.103179	-0.041341	NaN	0.000000	0.001582	0.001590	28.082	0.091478	0.001918	47.6904	179.362	-165.838	-0.072032	1.101941	-0.062458	-0.063796	-0.041341	47.6904	-0.061808	-0.202797	0.203853	NaN
398	1.000000	1.147302	7.36896e+06	-57189.1	1005.82	-29737.4	0.000000	0.000000	7.147208	0.091584	NaN	0.000000	0.001593	0.001626	28.0812	0.031754	0.002074	15.3132	-110.109	-164.311	0.108515	1.146016	-0.018435	-0.019721	0.091584	15.3132	-0.022920	-0.014906	-6.143925	NaN
398	2.000000	1.178870	7.36896e+06	-57189.1	1005.82	-29737.4	0.000000	0.000000	7.179326	13.4768	NaN	0.000000	0.001692	0.001629	28.081	13.114	0.001753	7482.71	6.923295	-172.001	13.4309	1.178563	0.013132	0.012825	13.4768	7482.71	0.011782	0.011230	1200.12	64513.7
398	2.000000	1.189821	7.36896e+06	-57189.1	1005.82	-29737.4	0.000000	0.000000	7.191249	37.093	NaN	0.000000	0.001676	0.001635	28.081	23.8308	0.001633	14597	7.768179	-179.669	36.1088	1.189471	0.024083	0.023733	37.093	14597	0.022177	0.026080	1422.29	82582
398	2.000000	1.200781	7.36896e+06	-57189.1	1005.82	-29737.4	0.000000	0.000000	7.203446	67.1505	NaN	0.000000	0.001624	0.001668	28.0821	34.882	0.001778	19623.1	6.300219	179.051	65.6172	1.200485	0.035044	0.034748	67.1505	19623.1	0.032477	0.046035	1458.7	83560.2
398	2.000000	1.211814	7.36896e+06	-57189.1	1005.82	-29737.4	0.000000	0.000000	7.216100	106.541	NaN	0.000000	0.001618	0.001562	28.082	46.2911	0.001808	25600.1	2.394703	179.815	106.699	1.211472	0.046077	0.045735	106.541	25600.1	0.042955	0.071889	1482.01	87233.3
398	2.000000	1.222703	7.36896e+06	-57189.1	1005.82	-29737.4	0.000000	0.000000	7.229333	163.529	NaN	0.000000	0.001608	0.001665	28.0822	55.167	0.001864	29603.1	9.108545	173.236	160.984	1.222347	0.056965	0.056609	163.529	29603.1	0.052822	0.101336	1613.74	84962.8
398	2.000000	1.233755	7.36896e+06	-57189.1	1005.82	-29737.4	0.000000	0.000000	7.243011	227.359	NaN	0.000000	0.001593	0.001628	28.0811	64.9591	0.001710	37995.6	8.140863	171.67	227.369	1.233324	0.068017	0.067587	227.359	37995.6	0.063529	0.138768	1638.42	93188.5
398	2.000000	1.244677	7.36896e+06	-57189.1	1005.82	-29737.4	0.000000	0.000000	7.256418	287.734	NaN	0.000000	0.001680	0.001651	28.0812	76.9223	0.001877	40978	2.917200	176.676	282.713	1.244481	0.078940	0.078744	287.734	40978	0.073674	0.179353	1604.29	88403.7
398	2.000000	1.255739	7.36896e+06	-57189.1	1005.82	-29737.4	0.000000	0.000000	7.270724	366.6	NaN	0.000000	0.001634	0.001701	28.081	87.3711	0.001845	47359.8	5.321057	172.722	366.817	1.255526	0.090001	0.089788	366.6	47359.8	0.084196	0.226579	1617.98	90901.8
398	2.000000	1.266698	7.36896e+06	-57189.1	1005.82	-29737.4	0.000000	0.000000	7.285709	464.438	NaN	0.000000	0.001638	0.001694	28.0821	94.4591	0.001716	55038.9	2.490891	174.571	462.728	1.266384	0.100961	0.100647	464.438	55038.9	0.094632	0.278482	1667.75	95289.5
398	2.000000	1.273270	7.36896e+06	-57189.1	1005.82	-29737.4	0.000000	0.000000	7.294683	522.814	NaN	0.000000	0.001621	0.001693	28.082	99.6934	0.001728	57686.4	0.942374	-4.086234	524.287	1.272766	0.107533	0.107028	522.814	57686.4	0.100735	0.311143	1680.3	94485.7