File: remote_trans/data/nanoindenter/0828-1/data/Data_2025-08-06,11h17m57s/2025-07-22_16-23-58_1_1144.txt
2025-07-22, 16:23:58, 1
Index	Phase	Displacement	Time	Pos X	Pos Y	Pos Z	Rot A	Rot B	Piezo Z	Force A	Force B	Gripper	Voltage A	Voltage B	Temperature	Amplitude force	Amplitude pos	Stiffness	Phase shift	Phase excitation	Force A raw	Displacement raw	HMax	HMax raw	Real Force	Real Stiffness	Contact Depth	Area	Hardness	Reduced Mod.
[#]	[#]	[um]	[s]	[um]	[um]	[um]	[m°]	[m°]	[um]	[uN]	[uN]	[V]	[V]	[V]	[°C]	[uN]	[um]	[N/m]	[°]	[°]	[uN]	[um]	[um]	[um]	[uN]	[N/m]	[um]	[um^2]	[MPa]	[MPa]
1144	1.000000	0.002563	7.37625e+06	-57339.1	1055.82	-29737.1	0.000000	0.000000	6.002775	-0.061151	NaN	0.000000	0.001616	0.001681	28.0819	0.034132	0.001044	32.7048	175.465	-165.504	-0.007499	0.001298	-1.002297	-1.003561	-0.061151	32.7048	-1.000894	-2.332443E+13	2.621768E-15	NaN
1144	1.000000	0.040552	7.37625e+06	-57339.1	1055.82	-29737.1	0.000000	0.000000	6.040765	-0.032584	NaN	0.000000	0.001580	0.001656	28.0817	0.093264	0.002002	46.5804	-63.1043	17.1232	-0.047669	0.039232	-0.964308	-0.965627	-0.032584	46.5804	-0.963783	-7.376790E+12	4.417098E-15	NaN
1144	1.000000	0.078551	7.37625e+06	-57339.1	1055.82	-29737.1	0.000000	0.000000	6.078766	0.018175	NaN	0.000000	0.001592	0.001690	28.0828	0.023277	0.002025	11.4966	-50.6122	-168.125	0.018777	0.077165	-0.926309	-0.927695	0.018175	11.4966	-0.927495	-2.389924E+12	-7.604646E-15	NaN
1144	1.000000	0.116557	7.37625e+06	-57339.1	1055.82	-29737.1	0.000000	0.000000	6.116770	-0.017032	NaN	0.000000	0.001622	0.001674	28.0826	0.028507	0.002039	13.9788	-137.037	11.4476	-0.041234	0.115171	-0.888303	-0.889689	-0.017032	13.9788	-0.887389	-6.864706E+11	2.481120E-14	NaN
1144	1.000000	0.154588	7.37625e+06	-57339.1	1055.82	-29737.1	0.000000	0.000000	6.154804	0.038335	NaN	0.000000	0.001696	0.001680	28.0831	0.037833	0.002104	17.9775	136.924	-164.648	0.066265	0.153272	-0.850272	-0.851588	0.038335	17.9775	-0.851871	-2.270258E+11	-1.688558E-13	NaN
1144	1.000000	0.192579	7.37625e+06	-57339.1	1055.82	-29737.1	0.000000	0.000000	6.192790	-0.082522	NaN	0.000000	0.001676	0.001694	28.0826	0.033376	0.001961	17.0212	87.4248	13.274	-0.161986	0.191297	-0.812280	-0.813563	-0.082522	17.0212	-0.808644	-5.890838E+10	1.400860E-12	NaN
1144	1.000000	0.230632	7.37625e+06	-57339.1	1055.82	-29737.1	0.000000	0.000000	6.230843	-0.080820	NaN	0.000000	0.001606	0.001710	28.0816	0.038627	0.001956	19.7518	42.7433	-166.938	-0.008601	0.229322	-0.774228	-0.775538	-0.080820	19.7518	-0.771159	-1.824179E+10	4.430493E-12	NaN
1144	1.000000	0.268611	7.37625e+06	-57339.1	1055.82	-29737.1	0.000000	0.000000	6.268823	-0.046807	NaN	0.000000	0.001562	0.001659	28.0814	0.014261	0.001939	7.354159	128.965	14.1762	-0.092225	0.267277	-0.736249	-0.737582	-0.046807	7.354159	-0.731475	-5.259140E+9	8.900194E-12	NaN
1144	1.000000	0.306656	7.37625e+06	-57339.1	1055.82	-29737.1	0.000000	0.000000	6.306870	0.009465	NaN	0.000000	0.001599	0.001676	28.082	0.063128	0.002058	30.6814	-53.0148	-163.283	0.018172	0.305339	-0.698204	-0.699520	0.009465	30.6814	-0.698435	-1.862792E+9	-5.081131E-12	NaN
1144	1.000000	0.344652	7.37625e+06	-57339.1	1055.82	-29737.1	0.000000	0.000000	6.344862	-0.103975	NaN	0.000000	0.001583	0.001616	28.083	0.090333	0.001982	45.5655	6.739622	13.5617	-0.036959	0.343295	-0.660208	-0.661565	-0.103975	45.5655	-0.658496	-5.295046E+8	1.963624E-10	NaN
1144	1.000000	0.382672	7.37625e+06	-57339.1	1055.82	-29737.1	0.000000	0.000000	6.382887	0.038973	NaN	0.000000	0.001591	0.001686	28.0828	0.083585	0.001988	42.0524	-15.4075	-166.56	0.018177	0.381362	-0.622188	-0.623498	0.038973	42.0524	-0.622883	-1.718936E+8	-2.267249E-10	NaN
1144	1.000000	0.420684	7.37625e+06	-57339.1	1055.82	-29737.1	0.000000	0.000000	6.420898	-0.002633	NaN	0.000000	0.001591	0.001656	28.0828	0.059463	0.002066	28.7783	-107.955	15.157	-0.108395	0.419362	-0.584175	-0.585497	-0.002633	28.7783	-0.584107	-5.027982E+7	5.236446E-11	NaN
1144	1.000000	0.458663	7.37625e+06	-57339.1	1055.82	-29737.1	0.000000	0.000000	6.458876	-0.035812	NaN	0.000000	0.001621	0.001661	28.0829	0.031947	0.002000	15.9721	31.0878	-166.721	-0.048179	0.457407	-0.546196	-0.547453	-0.035812	15.9721	-0.544515	-1.425460E+7	2.512345E-9	NaN
1144	1.000000	0.496727	7.37625e+06	-57339.1	1055.82	-29737.1	0.000000	0.000000	6.496939	-0.060336	NaN	0.000000	0.001617	0.001662	28.0814	0.083484	0.002051	40.6957	153.248	15.4932	-0.070207	0.495421	-0.508133	-0.509439	-0.060336	40.6957	-0.507021	-4.29448e+06	1.404955E-8	NaN
1144	1.000000	0.534737	7.37625e+06	-57339.1	1055.82	-29737.1	0.000000	0.000000	6.534953	0.034090	NaN	0.000000	0.001600	0.001672	28.0813	0.088529	0.002036	43.4837	-161.635	-164.692	0.027782	0.533435	-0.470123	-0.471424	0.034090	43.4837	-0.470711	-1.33468e+06	-2.554161E-8	NaN
1144	1.000000	0.572743	7.37625e+06	-57339.1	1055.82	-29737.1	0.000000	0.000000	6.572958	0.028005	NaN	0.000000	0.001558	0.001685	28.0816	0.074632	0.001919	38.8817	-90.8221	14.616	0.017354	0.571397	-0.432117	-0.433463	0.028005	38.8817	-0.432657	-388721	-7.204398E-8	NaN
1144	1.000000	0.610742	7.37625e+06	-57339.1	1055.82	-29737.1	0.000000	0.000000	6.610956	-0.009379	NaN	0.000000	0.001524	0.001650	28.0817	0.061431	0.001994	30.8021	159.765	-168.176	0.019104	0.609450	-0.394117	-0.395410	-0.009379	30.8021	-0.393889	-109336	8.577940E-8	NaN
1144	1.000000	0.648787	7.37625e+06	-57339.1	1055.82	-29737.1	0.000000	0.000000	6.649000	-0.025759	NaN	0.000000	0.001586	0.001684	28.0826	0.020307	0.001950	10.4145	131.963	12.8553	-0.057741	0.647471	-0.356073	-0.357389	-0.025759	10.4145	-0.354218	-29387.9	8.765330E-7	NaN
1144	1.000000	0.686774	7.37625e+06	-57339.1	1055.82	-29737.1	0.000000	0.000000	6.686985	-0.071746	NaN	0.000000	0.001567	0.001693	28.0825	0.007503	0.002132	3.518602	-170.637	-164.043	-0.106619	0.685487	-0.318086	-0.319373	-0.071746	3.518602	-0.302793	-5178.15	1.385549E-5	NaN
1144	1.000000	0.724833	7.37625e+06	-57339.1	1055.82	-29737.1	0.000000	0.000000	6.725046	-0.025449	NaN	0.000000	0.001588	0.001659	28.0826	0.062351	0.002043	30.522	-102.115	13.5653	-0.056891	0.723448	-0.280027	-0.281412	-0.025449	30.522	-0.279401	-2311.73	1.100882E-5	NaN
1144	1.000000	0.762865	7.37625e+06	-57339.1	1055.82	-29737.1	0.000000	0.000000	6.763079	-0.009216	NaN	0.000000	0.001583	0.001666	28.0815	0.055811	0.002012	27.7354	166.626	-161.74	0.056863	0.761506	-0.241994	-0.243354	-0.009216	27.7354	-0.241745	-612.048	1.505834E-5	NaN
1144	1.000000	0.800840	7.37625e+06	-57339.1	1055.82	-29737.1	0.000000	0.000000	6.801058	0.093688	NaN	0.000000	0.001530	0.001701	28.0811	0.081562	0.002082	39.1728	168.87	14.7115	0.045307	0.799539	-0.204020	-0.205320	0.093688	39.1728	-0.205814	-163.993	-0.000571	NaN
1144	1.000000	0.838869	7.37625e+06	-57339.1	1055.82	-29737.1	0.000000	0.000000	6.839083	0.005542	NaN	0.000000	0.001571	0.001721	28.0812	0.027144	0.002031	13.3637	104.523	-166.02	0.057268	0.837547	-0.165991	-0.167313	0.005542	13.3637	-0.166302	-35.4108	-0.000157	NaN
1144	1.000000	0.876888	7.37625e+06	-57339.1	1055.82	-29737.1	0.000000	0.000000	6.877102	0.006588	NaN	0.000000	0.001552	0.001738	28.0816	0.078097	0.002011	38.8281	-146.005	12.7195	0.046269	0.875517	-0.127972	-0.129343	0.006588	38.8281	-0.128099	-6.997771	-0.000941	NaN
1144	1.000000	0.914906	7.37625e+06	-57339.1	1055.82	-29737.1	0.000000	0.000000	6.915120	-0.015403	NaN	0.000000	0.001581	0.001726	28.0829	0.108481	0.002143	50.6312	-42.0962	-164.363	-0.104026	0.913555	-0.089954	-0.091305	-0.015403	50.6312	-0.089726	-1.065066	0.014462	NaN
1144	1.000000	0.952928	7.37625e+06	-57339.1	1055.82	-29737.1	0.000000	0.000000	6.953139	-0.085405	NaN	0.000000	0.001574	0.001736	28.0831	0.099961	0.002043	48.9169	-135.205	13.1022	-0.094904	0.951559	-0.051931	-0.053301	-0.085405	48.9169	-0.050622	-0.095285	0.896319	NaN
1144	1.000000	0.990912	7.37625e+06	-57339.1	1055.82	-29737.1	0.000000	0.000000	6.991127	0.016360	NaN	0.000000	0.001573	0.001723	28.0829	0.136493	0.002052	66.5243	126.538	-163.132	-0.033439	0.989577	-0.013948	-0.015283	0.016360	66.5243	-0.014132	-0.008761	-1.867399	NaN
1144	2.000000	1.014000	7.37625e+06	-57339.1	1055.82	-29737.1	0.000000	0.000000	7.014854	15.5256	NaN	0.000000	0.001603	0.001744	28.0816	15.5953	0.001670	9338.79	5.749131	3.436774	15.2768	1.013667	0.009141	0.008807	15.5256	9338.79	0.007894	0.006933	2239.26	102469
1144	2.000000	1.023484	7.37625e+06	-57339.1	1055.82	-29737.1	0.000000	0.000000	7.025213	36.8087	NaN	0.000000	0.001548	0.001692	28.0817	25.9393	0.001807	14351.5	6.086636	-179.405	36.7381	1.023079	0.018624	0.018220	36.8087	14351.5	0.016701	0.017620	2088.99	98778.8
1144	2.000000	1.032931	7.37625e+06	-57339.1	1055.82	-29737.1	0.000000	0.000000	7.035658	61.0894	NaN	0.000000	0.001589	0.001680	28.0815	34.9438	0.001797	19443	6.787541	-2.850566	60.5507	1.032564	0.028071	0.027704	61.0894	19443	0.025714	0.032328	1889.68	98797.8
1144	2.000000	1.042367	7.37625e+06	-57339.1	1055.82	-29737.1	0.000000	0.000000	7.046355	91.7261	NaN	0.000000	0.001646	0.001695	28.0818	44.5594	0.001788	24921.2	5.989828	174.5	89.9789	1.042115	0.037507	0.037255	91.7261	24921.2	0.034747	0.051158	1792.98	100666
1144	2.000000	1.051836	7.37625e+06	-57339.1	1055.82	-29737.1	0.000000	0.000000	7.057473	131.802	NaN	0.000000	0.001641	0.001691	28.0829	53.9814	0.001687	32004.6	5.877733	-6.660656	126.752	1.051507	0.046976	0.046648	131.802	32004.6	0.043887	0.074460	1770.11	107158
1144	2.000000	1.061366	7.37625e+06	-57339.1	1055.82	-29737.1	0.000000	0.000000	7.068871	177.209	NaN	0.000000	0.001680	0.001676	28.083	64.0912	0.001705	37599.2	5.815379	172.224	176.401	1.060951	0.056506	0.056091	177.209	37599.2	0.052971	0.101817	1740.47	107657
1144	2.000000	1.070843	7.37625e+06	-57339.1	1055.82	-29737.1	0.000000	0.000000	7.080518	229.948	NaN	0.000000	0.001693	0.001714	28.0832	73.7765	0.001767	41750.2	5.590433	-8.421260	228.183	1.070615	0.065983	0.065755	229.948	41750.2	0.061852	0.132533	1735.02	104778
1144	2.000000	1.080325	7.37625e+06	-57339.1	1055.82	-29737.1	0.000000	0.000000	7.092315	286.207	NaN	0.000000	0.001695	0.001661	28.0827	82.4025	0.001696	48595	4.327840	171.607	282.438	1.080166	0.075465	0.075307	286.207	48595	0.071048	0.168376	1699.81	108199
1144	2.000000	1.089814	7.37625e+06	-57339.1	1055.82	-29737.1	0.000000	0.000000	7.104606	354.316	NaN	0.000000	0.001665	0.001647	28.0815	90.5303	0.001790	50564.8	2.736096	-6.506405	350.047	1.089537	0.084954	0.084677	354.316	50564.8	0.079699	0.205763	1721.96	101845
1144	2.000000	1.099191	7.37625e+06	-57339.1	1055.82	-29737.1	0.000000	0.000000	7.116938	426.127	NaN	0.000000	0.001656	0.001663	28.0815	98.5378	0.001692	58251.5	2.554513	172.569	417.975	1.098876	0.094331	0.094016	426.127	58251.5	0.088845	0.249084	1710.77	106637
1144	2.000000	1.107215	7.37625e+06	-57339.1	1055.82	-29737.1	0.000000	0.000000	7.127877	496.974	NaN	0.000000	0.001646	0.001683	28.0816	110.476	0.001754	62985.2	6.720043	167.496	491.352	1.107144	0.102355	0.102285	496.974	62985.2	0.096438	0.287969	1725.79	107236