File: remote_trans/data/nanoindenter/0828-1/data/Data_2025-08-06,11h17m57s/2025-07-22_16-23-58_1_1071.txt
2025-07-22, 16:23:58, 1
Index	Phase	Displacement	Time	Pos X	Pos Y	Pos Z	Rot A	Rot B	Piezo Z	Force A	Force B	Gripper	Voltage A	Voltage B	Temperature	Amplitude force	Amplitude pos	Stiffness	Phase shift	Phase excitation	Force A raw	Displacement raw	HMax	HMax raw	Real Force	Real Stiffness	Contact Depth	Area	Hardness	Reduced Mod.
[#]	[#]	[um]	[s]	[um]	[um]	[um]	[m°]	[m°]	[um]	[uN]	[uN]	[V]	[V]	[V]	[°C]	[uN]	[um]	[N/m]	[°]	[°]	[uN]	[um]	[um]	[um]	[uN]	[N/m]	[um]	[um^2]	[MPa]	[MPa]
1071	1.000000	0.002676	7.37552e+06	-53689.1	1055.82	-29744.9	0.000000	0.000000	6.002732	-0.054762	NaN	0.000000	0.001622	0.001707	28.0815	0.062395	0.000997	62.5839	-158.163	-158.266	-0.032610	0.001449	-1.753075	-1.754301	-0.054762	62.5839	-1.752419	-2.526847E+23	2.167219E-25	NaN
1071	1.000000	0.062709	7.37552e+06	-53689.1	1055.82	-29744.9	0.000000	0.000000	6.062769	0.021487	NaN	0.000000	0.001629	0.001728	28.0804	0.055601	0.001826	30.4433	107.178	-167.322	0.023449	0.061383	-1.693041	-1.694367	0.021487	30.4433	-1.693570	-4.178500E+22	-5.142234E-25	NaN
1071	1.000000	0.122707	7.37552e+06	-53689.1	1055.82	-29744.9	0.000000	0.000000	6.122766	0.018737	NaN	0.000000	0.001582	0.001748	28.0805	0.030212	0.002075	14.5581	-53.65	-165.006	-0.019346	0.121360	-1.633043	-1.634391	0.018737	14.5581	-1.634009	-6.752325E+21	-2.774878E-24	NaN
1071	1.000000	0.182733	7.37552e+06	-53689.1	1055.82	-29744.9	0.000000	0.000000	6.182793	0.049204	NaN	0.000000	0.001593	0.001757	28.0818	0.129637	0.001932	67.1028	178.008	-162.416	-0.009619	0.181439	-1.573018	-1.574312	0.049204	67.1028	-1.573568	-1.060735E+21	-4.638685E-23	NaN
1071	1.000000	0.242746	7.37552e+06	-53689.1	1055.82	-29744.9	0.000000	0.000000	6.242807	0.067600	NaN	0.000000	0.001568	0.001754	28.0817	0.116039	0.001974	58.7746	71.7184	-167.231	0.082087	0.241504	-1.513004	-1.514246	0.067600	58.7746	-1.513867	-1.702058E+20	-3.971669E-22	NaN
1071	1.000000	0.302771	7.37552e+06	-53689.1	1055.82	-29744.9	0.000000	0.000000	6.302832	0.077765	NaN	0.000000	0.001539	0.001755	28.0817	0.039650	0.001959	20.2371	-66.763	-166.399	0.066210	0.301511	-1.452980	-1.454239	0.077765	20.2371	-1.455862	-2.872591E+19	-2.707125E-21	NaN
1071	1.000000	0.362832	7.37552e+06	-53689.1	1055.82	-29744.9	0.000000	0.000000	6.362888	-0.032528	NaN	0.000000	0.001509	0.001717	28.0805	0.029276	0.002038	14.3649	57.472	-167.235	-0.014083	0.361501	-1.392919	-1.394250	-0.032528	14.3649	-1.391220	-3.947727E+18	8.239589E-21	NaN
1071	1.000000	0.422833	7.37552e+06	-53689.1	1055.82	-29744.9	0.000000	0.000000	6.422891	-0.010011	NaN	0.000000	0.001571	0.001803	28.0804	0.047573	0.001999	23.7963	-122.513	-163.003	0.048435	0.421490	-1.332918	-1.334260	-0.010011	23.7963	-1.332602	-6.515091E+17	1.536638E-20	NaN
1071	1.000000	0.482902	7.37552e+06	-53689.1	1055.82	-29744.9	0.000000	0.000000	6.482959	-0.022926	NaN	0.000000	0.001538	0.001754	28.0815	0.071787	0.002064	34.7858	174.119	-168.247	-0.093914	0.481496	-1.272848	-1.274254	-0.022926	34.7858	-1.272354	-1.020621E+17	2.246307E-19	NaN
1071	1.000000	0.542897	7.37552e+06	-53689.1	1055.82	-29744.9	0.000000	0.000000	6.542955	-0.009834	NaN	0.000000	0.001532	0.001714	28.0817	0.015154	0.002105	7.200515	168.446	-167.776	0.002528	0.541571	-1.212853	-1.214179	-0.009834	7.200515	-1.211829	-1.581692E+16	6.217345E-19	NaN
1071	1.000000	0.602922	7.37553e+06	-53689.1	1055.82	-29744.9	0.000000	0.000000	6.602978	-0.053823	NaN	0.000000	0.001552	0.001745	28.0803	0.121773	0.001973	61.7097	-150.73	-166.852	-0.056069	0.601655	-1.152828	-1.154095	-0.053823	61.7097	-1.152174	-2.511670E+15	2.142898E-17	NaN
1071	1.000000	0.662960	7.37553e+06	-53689.1	1055.82	-29744.9	0.000000	0.000000	6.663019	0.026356	NaN	0.000000	0.001562	0.001739	28.0802	0.141592	0.001904	74.3849	71.2449	-167.742	0.065027	0.661621	-1.092790	-1.094130	0.026356	74.3849	-1.093056	-4.044328E+14	-6.516722E-17	NaN
1071	1.000000	0.722970	7.37553e+06	-53689.1	1055.82	-29744.9	0.000000	0.000000	6.723027	-0.015350	NaN	0.000000	0.001539	0.001764	28.0803	0.102614	0.001960	52.3409	76.4634	-166.046	-0.035862	0.721695	-1.032781	-1.034055	-0.015350	52.3409	-1.032561	-6.221869E+13	2.467157E-16	NaN
1071	1.000000	0.782946	7.37553e+06	-53689.1	1055.82	-29744.9	0.000000	0.000000	6.783002	-0.062214	NaN	0.000000	0.001561	0.001756	28.0813	0.049779	0.001912	26.0413	94.6022	-164	-0.028011	0.781681	-0.972804	-0.974069	-0.062214	26.0413	-0.971013	-9.232283E+12	6.738765E-15	NaN
1071	1.000000	0.842996	7.37553e+06	-53689.1	1055.82	-29744.9	0.000000	0.000000	6.843053	-0.024047	NaN	0.000000	0.001580	0.001756	28.0814	0.085896	0.002063	41.6286	-98.5414	-168.549	-0.017414	0.841719	-0.912754	-0.914031	-0.024047	41.6286	-0.912321	-1.491111E+12	1.612670E-14	NaN
1071	1.000000	0.903015	7.37553e+06	-53689.1	1055.82	-29744.9	0.000000	0.000000	6.903072	-0.026231	NaN	0.000000	0.001550	0.001725	28.0805	0.068539	0.001939	35.3497	137.091	-166.598	0.007588	0.901740	-0.852735	-0.854010	-0.026231	35.3497	-0.852179	-2.292122E+11	1.144418E-13	NaN
1071	1.000000	0.963064	7.37553e+06	-53689.1	1055.82	-29744.9	0.000000	0.000000	6.963123	0.023985	NaN	0.000000	0.001612	0.001773	28.0804	0.019231	0.002029	9.476976	-32.9044	-162.583	0.088428	0.961750	-0.792687	-0.794000	0.023985	9.476976	-0.794585	-3.796171E+10	-6.318172E-13	NaN
1071	1.000000	1.023088	7.37553e+06	-53689.1	1055.82	-29744.9	0.000000	0.000000	7.023146	-0.002727	NaN	0.000000	0.001602	0.001782	28.0819	0.049695	0.001987	25.0096	27.0018	-167.257	0.041607	1.021745	-0.732662	-0.734005	-0.002727	25.0096	-0.732580	-5.444704E+9	5.007801E-13	NaN
1071	1.000000	1.083120	7.37553e+06	-53689.1	1055.82	-29744.9	0.000000	0.000000	7.083179	0.016122	NaN	0.000000	0.001553	0.001802	28.0818	0.110197	0.001918	57.4416	10.3498	-162.231	-0.086807	1.081805	-0.672630	-0.673946	0.016122	57.4416	-0.672841	-8.322720E+8	-1.937161E-11	NaN
1071	1.000000	1.143132	7.37553e+06	-53689.1	1055.82	-29744.9	0.000000	0.000000	7.143185	-0.124550	NaN	0.000000	0.001652	0.001777	28.0806	0.097115	0.002095	46.3464	-12.1062	-164.888	-0.128529	1.141792	-0.612619	-0.613958	-0.124550	46.3464	-0.610603	-1.165228E+8	1.068892E-9	NaN
1071	1.000000	1.203145	7.37553e+06	-53689.1	1055.82	-29744.9	0.000000	0.000000	7.203204	0.008952	NaN	0.000000	0.001623	0.001773	28.0807	0.065294	0.001902	34.3344	161.207	-164.953	0.015216	1.201865	-0.552605	-0.553885	0.008952	34.3344	-0.552801	-1.856696E+7	-4.821660E-10	NaN
1071	1.000000	1.263187	7.37553e+06	-53689.1	1055.82	-29744.9	0.000000	0.000000	7.263243	-0.031943	NaN	0.000000	0.001623	0.001745	28.0801	0.062599	0.002013	31.0983	-149.317	-163.127	-0.096864	1.261873	-0.492564	-0.493878	-0.031943	31.0983	-0.491793	-2.633e+06	1.213160E-8	NaN
1071	1.000000	1.323213	7.37553e+06	-53689.1	1055.82	-29744.9	0.000000	0.000000	7.323271	0.005623	NaN	0.000000	0.001546	0.001716	28.0816	0.080590	0.001988	40.5317	80.7973	-168.627	0.035024	1.321896	-0.432538	-0.433855	0.005623	40.5317	-0.432642	-388527	-1.447349E-8	NaN
1071	1.000000	1.383233	7.37553e+06	-53689.1	1055.82	-29744.9	0.000000	0.000000	7.383290	-0.012966	NaN	0.000000	0.001600	0.001728	28.0822	0.101323	0.001902	53.2632	87.641	-166.019	-0.043995	1.381923	-0.372518	-0.373827	-0.012966	53.2632	-0.372335	-53671.6	2.415863E-7	NaN
1071	1.000000	1.443277	7.37553e+06	-53689.1	1055.82	-29744.9	0.000000	0.000000	7.443331	-0.100190	NaN	0.000000	0.001624	0.001759	28.0808	0.030224	0.002094	14.432	-54.5778	-168.47	-0.030119	1.442002	-0.312473	-0.313748	-0.100190	14.432	-0.307266	-6033.51	1.660560E-5	NaN
1071	1.000000	1.503299	7.37553e+06	-53689.1	1055.82	-29744.9	0.000000	0.000000	7.503356	-0.034658	NaN	0.000000	0.001623	0.001720	28.0805	0.035561	0.001980	17.9556	-83.5662	-165.618	-0.085071	1.502008	-0.252451	-0.253742	-0.034658	17.9556	-0.251003	-852.07	4.067564E-5	NaN
1071	1.000000	1.563338	7.37553e+06	-53689.1	1055.82	-29744.9	0.000000	0.000000	7.563396	0.007178	NaN	0.000000	0.001585	0.001756	28.0821	0.072202	0.002014	35.8522	128.252	-167.61	-0.084671	1.562039	-0.192413	-0.193711	0.007178	35.8522	-0.192563	-99.2536	-7.232025E-5	NaN
1071	1.000000	1.623366	7.37553e+06	-53689.1	1055.82	-29744.9	0.000000	0.000000	7.623424	0.015536	NaN	0.000000	0.001573	0.001722	28.0818	0.098968	0.002074	47.7182	-103.362	-163.815	0.084417	1.622030	-0.132385	-0.133720	0.015536	47.7182	-0.132629	-8.567291	-0.001813	NaN
1071	1.000000	1.683409	7.37553e+06	-53689.1	1055.82	-29744.9	0.000000	0.000000	7.683468	0.021560	NaN	0.000000	0.001656	0.001759	28.0813	0.144414	0.001993	72.4571	40.0798	-163.334	-0.019964	1.682038	-0.072342	-0.073713	0.021560	72.4571	-0.072565	-0.399016	-0.054032	NaN
1071	1.000000	1.743416	7.37553e+06	-53689.1	1055.82	-29744.9	0.000000	0.000000	7.743472	-0.059137	NaN	0.000000	0.001567	0.001767	28.0806	0.083183	0.001958	42.4812	-143.346	-169.388	-0.026318	1.742105	-0.012334	-0.013646	-0.059137	42.4812	-0.011290	-0.007123	8.301842	NaN
1071	2.000000	1.771905	7.37553e+06	-53689.1	1055.82	-29744.9	0.000000	0.000000	7.772662	16.9911	NaN	0.000000	0.001617	0.001745	28.0806	17.9738	0.001797	9999.76	9.806687	179.645	16.5299	1.771649	0.016154	0.015898	16.9911	9999.76	0.014880	0.015126	1123.32	74285.4
1071	2.000000	1.786918	7.37553e+06	-53689.1	1055.82	-29744.9	0.000000	0.000000	7.788865	45.9165	NaN	0.000000	0.001549	0.001709	28.082	32.0638	0.001871	17135.8	7.243029	177.578	47.2348	1.786505	0.031168	0.030755	45.9165	17135.8	0.029158	0.039016	1176.85	79260.2
1071	2.000000	1.801849	7.37553e+06	-53689.1	1055.82	-29744.9	0.000000	0.000000	7.805459	86.3509	NaN	0.000000	0.001605	0.001700	28.0818	47.9532	0.001836	26121.4	6.339956	174.441	85.3025	1.801549	0.046099	0.045798	86.3509	26121.4	0.043620	0.073717	1171.38	87899.1
1071	2.000000	1.816854	7.37553e+06	-53689.1	1055.82	-29744.9	0.000000	0.000000	7.823071	149.726	NaN	0.000000	0.001523	0.001742	28.0807	58.7433	0.001717	34212.3	6.297488	173.232	148.646	1.816405	0.061104	0.060655	149.726	34212.3	0.057822	0.118113	1267.65	90950.9
1071	2.000000	1.831834	7.37553e+06	-53689.1	1055.82	-29744.9	0.000000	0.000000	7.840798	216.503	NaN	0.000000	0.001510	0.001741	28.0805	74.2891	0.001954	38025.6	2.958361	175.763	217.231	1.831537	0.076084	0.075787	216.503	38025.6	0.071814	0.171544	1262.09	83880.6
1071	2.000000	1.846688	7.37553e+06	-53689.1	1055.82	-29744.9	0.000000	0.000000	7.858993	297.745	NaN	0.000000	0.001609	0.001736	28.0816	85.837	0.001784	48116.8	4.526413	172.353	289.845	1.846282	0.090937	0.090532	297.745	48116.8	0.086296	0.236624	1258.3	90373.3
1071	2.000000	1.860303	7.37553e+06	-53689.1	1055.82	-29744.9	0.000000	0.000000	7.876096	382.529	NaN	0.000000	0.001641	0.001716	28.0818	97.8512	0.001763	55516.1	4.351611	-8.563555	381.424	1.859898	0.104553	0.104147	382.529	55516.1	0.099385	0.303772	1259.26	92027.5