File: remote_trans/data/nanoindenter/0828-1/data/Data_2025-08-06,11h17m57s/2025-07-22_16-23-58_1_511.txt
2025-07-22, 16:23:58, 1
Index	Phase	Displacement	Time	Pos X	Pos Y	Pos Z	Rot A	Rot B	Piezo Z	Force A	Force B	Gripper	Voltage A	Voltage B	Temperature	Amplitude force	Amplitude pos	Stiffness	Phase shift	Phase excitation	Force A raw	Displacement raw	HMax	HMax raw	Real Force	Real Stiffness	Contact Depth	Area	Hardness	Reduced Mod.
[#]	[#]	[um]	[s]	[um]	[um]	[um]	[m°]	[m°]	[um]	[uN]	[uN]	[V]	[V]	[V]	[°C]	[uN]	[um]	[N/m]	[°]	[°]	[uN]	[um]	[um]	[um]	[uN]	[N/m]	[um]	[um^2]	[MPa]	[MPa]
511	1.000000	0.002148	7.37005e+06	-51539.1	1005.82	-29752	0.000000	0.000000	6.002809	0.003999	NaN	0.000000	0.001535	0.001814	28.0816	0.067777	0.001007	67.3202	-89.7529	-169.13	-0.030455	0.000780	-1.130731	-1.132099	0.003999	67.3202	-1.130775	-1.297236E+15	-3.082860E-18	NaN
511	1.000000	0.044064	7.37005e+06	-51539.1	1005.82	-29752	0.000000	0.000000	6.044726	0.039918	NaN	0.000000	0.001535	0.001799	28.0815	0.033047	0.002005	16.4859	-51.3214	14.0018	-0.010062	0.042732	-1.088815	-1.090146	0.039918	16.4859	-1.090631	-3.752162E+14	-1.063876E-16	NaN
511	1.000000	0.086102	7.37005e+06	-51539.1	1005.82	-29752	0.000000	0.000000	6.086763	0.012440	NaN	0.000000	0.001540	0.001766	28.0815	0.112724	0.001808	62.3327	-130.002	-167.565	0.041178	0.084758	-1.046776	-1.048120	0.012440	62.3327	-1.046926	-9.707077E+13	-1.281527E-16	NaN
511	1.000000	0.128126	7.37005e+06	-51539.1	1005.82	-29752	0.000000	0.000000	6.128786	0.008764	NaN	0.000000	0.001556	0.001814	28.0803	0.062960	0.001996	31.5503	94.251	16.5961	0.035886	0.126780	-1.004753	-1.006099	0.008764	31.5503	-1.004961	-2.645815E+13	-3.312241E-16	NaN
511	1.000000	0.170116	7.37005e+06	-51539.1	1005.82	-29752	0.000000	0.000000	6.170777	0.014806	NaN	0.000000	0.001594	0.001818	28.0803	0.103697	0.002081	49.8348	101.762	-163	0.007310	0.168814	-0.962762	-0.964065	0.014806	49.8348	-0.962985	-7.196336E+12	-2.057412E-15	NaN
511	1.000000	0.212203	7.37005e+06	-51539.1	1005.82	-29752	0.000000	0.000000	6.212864	0.024054	NaN	0.000000	0.001609	0.001841	28.0804	0.100321	0.002039	49.1935	-135.046	13.8705	0.002649	0.210737	-0.920676	-0.922142	0.024054	49.1935	-0.921043	-1.955614E+12	-1.229980E-14	NaN
511	1.000000	0.254174	7.37005e+06	-51539.1	1005.82	-29752	0.000000	0.000000	6.254835	0.020958	NaN	0.000000	0.001500	0.001779	28.0805	0.036963	0.001947	18.9814	114.565	-169.448	-0.027306	0.252868	-0.878705	-0.880011	0.020958	18.9814	-0.879533	-5.375114E+11	-3.899036E-14	NaN
511	1.000000	0.296215	7.37005e+06	-51539.1	1005.82	-29752	0.000000	0.000000	6.296878	0.062878	NaN	0.000000	0.001510	0.001758	28.0818	0.028487	0.002137	13.3327	-173.135	13.3075	-0.006488	0.294828	-0.836664	-0.838050	0.062878	13.3327	-0.840201	-1.577665E+11	-3.985497E-13	NaN
511	1.000000	0.338218	7.37005e+06	-51539.1	1005.82	-29752	0.000000	0.000000	6.338883	0.101217	NaN	0.000000	0.001509	0.001744	28.0825	0.037087	0.002065	17.9566	-148.145	-164.298	0.128456	0.336836	-0.794660	-0.796043	0.101217	17.9566	-0.798888	-4.342784E+10	-2.330704E-12	NaN
511	1.000000	0.380213	7.37005e+06	-51539.1	1005.82	-29752	0.000000	0.000000	6.380878	0.112664	NaN	0.000000	0.001556	0.001811	28.0819	0.053776	0.002011	26.7476	55.6738	11.696	0.124414	0.378873	-0.752665	-0.754006	0.112664	26.7476	-0.755824	-1.128470E+10	-9.983759E-12	NaN
511	1.000000	0.422258	7.37005e+06	-51539.1	1005.82	-29752	0.000000	0.000000	6.422919	0.001769	NaN	0.000000	0.001571	0.001767	28.0807	0.116160	0.001998	58.1301	23.7079	-168.63	-0.031558	0.420910	-0.710620	-0.711968	0.001769	58.1301	-0.710643	-2.734160E+9	-6.471373E-13	NaN
511	1.000000	0.464253	7.37005e+06	-51539.1	1005.82	-29752	0.000000	0.000000	6.464913	-0.023424	NaN	0.000000	0.001541	0.001800	28.0808	0.101703	0.001961	51.8741	-60.3501	11.4743	0.061156	0.462914	-0.668625	-0.669965	-0.023424	51.8741	-0.668287	-7.210056E+8	3.248785E-11	NaN
511	1.000000	0.506261	7.37005e+06	-51539.1	1005.82	-29752	0.000000	0.000000	6.506928	0.152786	NaN	0.000000	0.001543	0.001806	28.0807	0.009782	0.002032	4.812843	58.5256	-167.774	0.135222	0.504934	-0.626617	-0.627944	0.152786	4.812843	-0.650426	-4.104703E+8	-3.722208E-10	NaN
511	1.000000	0.548301	7.37005e+06	-51539.1	1005.82	-29752	0.000000	0.000000	6.548961	-0.008475	NaN	0.000000	0.001580	0.001814	28.0824	0.038026	0.002011	18.9055	-88.3364	14.38	0.045087	0.546936	-0.584577	-0.585943	-0.008475	18.9055	-0.584241	-5.049455E+7	1.678450E-10	NaN
511	1.000000	0.590306	7.37005e+06	-51539.1	1005.82	-29752	0.000000	0.000000	6.590966	-0.012299	NaN	0.000000	0.001564	0.001770	28.0819	0.027514	0.001871	14.7077	86.2271	-171.04	0.017015	0.589048	-0.542572	-0.543831	-0.012299	14.7077	-0.541945	-1.313201E+7	9.365616E-10	NaN
511	1.000000	0.632321	7.37005e+06	-51539.1	1005.82	-29752	0.000000	0.000000	6.632982	0.015828	NaN	0.000000	0.001553	0.001793	28.0819	0.037256	0.001913	19.4739	-99.4375	15.0133	0.017668	0.630996	-0.500558	-0.501883	0.015828	19.4739	-0.501168	-3.55881e+06	-4.447434E-9	NaN
511	1.000000	0.674317	7.37005e+06	-51539.1	1005.82	-29752	0.000000	0.000000	6.674977	-0.015757	NaN	0.000000	0.001547	0.001808	28.0806	0.042077	0.002001	21.0295	-167.604	-165.318	0.012583	0.673053	-0.458562	-0.459826	-0.015757	21.0295	-0.458000	-884921	1.780665E-8	NaN
511	1.000000	0.716358	7.37005e+06	-51539.1	1005.82	-29752	0.000000	0.000000	6.717019	-0.007206	NaN	0.000000	0.001552	0.001803	28.0808	0.079587	0.001908	41.7045	145.162	14.446	0.010135	0.714989	-0.416520	-0.417889	-0.007206	41.7045	-0.416391	-228665	3.151367E-8	NaN
511	1.000000	0.758386	7.37005e+06	-51539.1	1005.82	-29752	0.000000	0.000000	6.759045	-0.037321	NaN	0.000000	0.001566	0.001738	28.0808	0.013230	0.001957	6.760288	-175.247	-165.314	-0.026656	0.757109	-0.374493	-0.375769	-0.037321	6.760288	-0.370352	-50257.7	7.425961E-7	NaN
511	1.000000	0.800387	7.37005e+06	-51539.1	1005.82	-29752	0.000000	0.000000	6.801045	-0.039332	NaN	0.000000	0.001605	0.001735	28.0808	0.100179	0.002054	48.763	96.5707	14.1367	-0.040981	0.799033	-0.332492	-0.333845	-0.039332	48.763	-0.331887	-13901.9	2.829259E-6	NaN
511	1.000000	0.842423	7.37005e+06	-51539.1	1005.82	-29752	0.000000	0.000000	6.843083	-0.005707	NaN	0.000000	0.001607	0.001773	28.0822	0.055321	0.002158	25.6402	88.308	-168.03	-0.048696	0.841094	-0.290456	-0.291785	-0.005707	25.6402	-0.290289	-3369.98	1.693436E-6	NaN
511	1.000000	0.884444	7.37005e+06	-51539.1	1005.82	-29752	0.000000	0.000000	6.885103	-0.022492	NaN	0.000000	0.001587	0.001737	28.0821	0.040192	0.002032	19.7771	-22.6916	13.2307	0.009785	0.883062	-0.248435	-0.249817	-0.022492	19.7771	-0.247582	-754.265	2.981988E-5	NaN
511	1.000000	0.926439	7.37005e+06	-51539.1	1005.82	-29752	0.000000	0.000000	6.927098	-0.033643	NaN	0.000000	0.001605	0.001795	28.0821	0.051115	0.001906	26.8205	90.2617	-166.253	-0.015652	0.925140	-0.206439	-0.207738	-0.033643	26.8205	-0.205499	-162.065	0.000208	NaN
511	1.000000	0.968501	7.37005e+06	-51539.1	1005.82	-29752	0.000000	0.000000	6.969165	0.079009	NaN	0.000000	0.001570	0.001755	28.0809	0.093957	0.001987	47.2891	25.692	12.8913	0.047188	0.967133	-0.164377	-0.165745	0.079009	47.2891	-0.165630	-34.4641	-0.002292	NaN
511	1.000000	1.010468	7.37005e+06	-51539.1	1005.82	-29752	0.000000	0.000000	7.011130	0.036514	NaN	0.000000	0.001564	0.001767	28.0813	0.029954	0.001999	14.9853	-150.321	-162.252	0.035876	1.009179	-0.122411	-0.123700	0.036514	14.9853	-0.124238	-5.873572	-0.006217	NaN
511	1.000000	1.052493	7.37005e+06	-51539.1	1005.82	-29752	0.000000	0.000000	7.053151	-0.052357	NaN	0.000000	0.001548	0.001800	28.0809	0.055918	0.002074	26.9653	108.949	14.7659	-0.053717	1.051127	-0.080386	-0.081752	-0.052357	26.9653	-0.078930	-0.581876	0.089980	NaN
511	1.000000	1.094563	7.37006e+06	-51539.1	1005.82	-29752	0.000000	0.000000	7.095225	0.038649	NaN	0.000000	0.001526	0.001752	28.0821	0.077089	0.002053	37.5562	3.619792	-166.605	0.079458	1.093234	-0.038316	-0.039645	0.038649	37.5562	-0.039087	-0.042431	-0.910873	NaN
511	1.000000	1.136486	7.37006e+06	-51539.1	1005.82	-29752	0.000000	0.000000	7.137463	7.688918	NaN	0.000000	0.001552	0.001755	28.0822	7.685897	0.001630	4715.36	12.964	4.123586	5.959762	1.135189	0.003607	0.002311	7.688918	4715.36	0.002385	0.001868	4115.78	99673.8
511	2.000000	1.147994	7.37006e+06	-51539.1	1005.82	-29752	0.000000	0.000000	7.149581	22.548	NaN	0.000000	0.001609	0.001790	28.0819	19.9074	0.001801	11054.3	4.334843	-176.462	21.0758	1.147719	0.015115	0.014840	22.548	11054.3	0.013585	0.013445	1677.07	87101.5
511	2.000000	1.158492	7.37006e+06	-51539.1	1005.82	-29752	0.000000	0.000000	7.161132	48.1331	NaN	0.000000	0.001548	0.001802	28.0807	30.2766	0.001759	17208.2	6.581544	-3.178979	47.5421	1.158140	0.025613	0.025261	48.1331	17208.2	0.023516	0.028370	1696.6	93341.7
511	2.000000	1.168957	7.37006e+06	-51539.1	1005.82	-29752	0.000000	0.000000	7.172974	81.6189	NaN	0.000000	0.001615	0.001813	28.0806	40.5	0.001885	21487.4	8.302327	174.529	82.9024	1.168628	0.036079	0.035749	81.6189	21487.4	0.033230	0.047704	1710.94	89883
511	2.000000	1.179410	7.37006e+06	-51539.1	1005.82	-29752	0.000000	0.000000	7.185176	124.157	NaN	0.000000	0.001634	0.001851	28.0805	50.5194	0.001800	28074.1	5.864615	-6.175537	120.476	1.179075	0.046531	0.046196	124.157	28074.1	0.043215	0.072599	1710.17	95194.5
511	2.000000	1.189948	7.37006e+06	-51539.1	1005.82	-29752	0.000000	0.000000	7.197589	169.742	NaN	0.000000	0.001622	0.001848	28.0809	60.4214	0.001750	34526.5	3.271110	175.098	167.816	1.189564	0.057069	0.056686	169.742	34526.5	0.053382	0.103152	1645.55	98217.1
511	2.000000	1.200435	7.37006e+06	-51539.1	1005.82	-29752	0.000000	0.000000	7.210647	232.245	NaN	0.000000	0.001540	0.001822	28.0821	70.8227	0.001841	38466.3	5.530751	-8.320912	228.794	1.200071	0.067557	0.067193	232.245	38466.3	0.063028	0.136891	1696.57	94987.4
511	2.000000	1.210870	7.37006e+06	-51539.1	1005.82	-29752	0.000000	0.000000	7.223858	299.763	NaN	0.000000	0.001596	0.001771	28.0822	79.6345	0.001874	42504	3.463752	173.615	297.463	1.210572	0.077991	0.077693	299.763	42504	0.072702	0.175252	1710.47	92762.4
511	2.000000	1.221372	7.37006e+06	-51539.1	1005.82	-29752	0.000000	0.000000	7.237330	371.989	NaN	0.000000	0.001562	0.001758	28.082	89.8547	0.001771	50729.8	3.989690	-8.754916	369.061	1.221117	0.088493	0.088239	371.989	50729.8	0.082994	0.220925	1683.78	98608.5
511	2.000000	1.231834	7.37006e+06	-51539.1	1005.82	-29752	0.000000	0.000000	7.251569	463.811	NaN	0.000000	0.001596	0.001726	28.0808	99.9652	0.001789	55889.1	4.751521	170.463	459.816	1.231430	0.098955	0.098552	463.811	55889.1	0.092731	0.268658	1726.4	98514.6
511	2.000000	1.236322	7.37006e+06	-51539.1	1005.82	-29752	0.000000	0.000000	7.257466	498.073	NaN	0.000000	0.001548	0.001768	28.0809	103.639	0.001789	57939.4	4.553684	-9.860595	492.76	1.236010	0.103444	0.103131	498.073	57939.4	0.096996	0.290934	1711.98	98140.9