File: remote_trans/data/nanoindenter/0828-1/data/Data_2025-08-06,11h17m57s/2025-07-22_16-23-58_1_679.txt
2025-07-22, 16:23:58, 1
Index	Phase	Displacement	Time	Pos X	Pos Y	Pos Z	Rot A	Rot B	Piezo Z	Force A	Force B	Gripper	Voltage A	Voltage B	Temperature	Amplitude force	Amplitude pos	Stiffness	Phase shift	Phase excitation	Force A raw	Displacement raw	HMax	HMax raw	Real Force	Real Stiffness	Contact Depth	Area	Hardness	Reduced Mod.
[#]	[#]	[um]	[s]	[um]	[um]	[um]	[m°]	[m°]	[um]	[uN]	[uN]	[V]	[V]	[V]	[°C]	[uN]	[um]	[N/m]	[°]	[°]	[uN]	[um]	[um]	[um]	[uN]	[N/m]	[um]	[um^2]	[MPa]	[MPa]
679	1.000000	0.002339	7.37169e+06	-43139.1	1005.82	-29780.1	0.000000	0.000000	6.002800	0.030416	NaN	0.000000	0.001640	0.001625	28.0821	0.113741	0.000898	126.664	109.974	-165.483	0.110581	0.001108	-1.123108	-1.124339	0.030416	126.664	-1.123288	-1.029388E+15	-2.954799E-17	NaN
679	1.000000	0.044296	7.37169e+06	-43139.1	1005.82	-29780.1	0.000000	0.000000	6.044757	0.021355	NaN	0.000000	0.001631	0.001632	28.0808	0.059885	0.002098	28.5405	-31.903	15.8748	-0.006210	0.042954	-1.081150	-1.082493	0.021355	28.5405	-1.081711	-2.847773E+14	-7.499008E-17	NaN
679	1.000000	0.086320	7.37169e+06	-43139.1	1005.82	-29780.1	0.000000	0.000000	6.086781	0.020289	NaN	0.000000	0.001587	0.001727	28.0807	0.075353	0.002002	37.6318	-150.85	-163.919	0.091823	0.085037	-1.039126	-1.040410	0.020289	37.6318	-1.039531	-7.720695E+13	-2.627924E-16	NaN
679	1.000000	0.128314	7.37169e+06	-43139.1	1005.82	-29780.1	0.000000	0.000000	6.128773	-0.016073	NaN	0.000000	0.001586	0.001792	28.0807	0.043650	0.001811	24.1026	-39.5315	14.2794	-0.026293	0.126962	-0.997133	-0.998484	-0.016073	24.1026	-0.996633	-2.043776E+13	7.864350E-16	NaN
679	1.000000	0.170307	7.37169e+06	-43139.1	1005.82	-29780.1	0.000000	0.000000	6.170765	-0.046087	NaN	0.000000	0.001632	0.001777	28.082	0.030890	0.002110	14.6372	-157.566	-160.554	-0.063901	0.169011	-0.955139	-0.956436	-0.046087	14.6372	-0.952778	-5.241927E+12	8.792060E-15	NaN
679	1.000000	0.212331	7.37169e+06	-43139.1	1005.82	-29780.1	0.000000	0.000000	6.212793	0.054635	NaN	0.000000	0.001637	0.001740	28.0818	0.041283	0.001855	22.2546	15.6903	10.8577	0.022551	0.211006	-0.913115	-0.914441	0.054635	22.2546	-0.914956	-1.618466E+12	-3.375728E-14	NaN
679	1.000000	0.254374	7.37169e+06	-43139.1	1005.82	-29780.1	0.000000	0.000000	6.254835	0.030468	NaN	0.000000	0.001656	0.001760	28.0817	0.061017	0.002020	30.2	-173.761	-163.156	-0.004201	0.253069	-0.871072	-0.872377	0.030468	30.2	-0.871829	-4.228537E+11	-7.205339E-14	NaN
679	1.000000	0.296381	7.37169e+06	-43139.1	1005.82	-29780.1	0.000000	0.000000	6.296844	0.082221	NaN	0.000000	0.001621	0.001813	28.0816	0.042306	0.002075	20.386	-120.017	14.4163	0.164437	0.295042	-0.829066	-0.830405	0.082221	20.386	-0.832091	-1.224960E+11	-6.712176E-13	NaN
679	1.000000	0.338390	7.37169e+06	-43139.1	1005.82	-29780.1	0.000000	0.000000	6.338852	0.060232	NaN	0.000000	0.001605	0.001766	28.0804	0.068803	0.002057	33.4489	-179.95	-162.361	0.117321	0.337073	-0.787056	-0.788374	0.060232	33.4489	-0.788407	-3.129277E+10	-1.924804E-12	NaN
679	1.000000	0.380434	7.37169e+06	-43139.1	1005.82	-29780.1	0.000000	0.000000	6.380892	-0.030997	NaN	0.000000	0.001611	0.001745	28.0804	0.043142	0.002003	21.5422	51.0883	13.9633	0.047810	0.379033	-0.745013	-0.746414	-0.030997	21.5422	-0.743933	-7.773650E+9	3.987426E-12	NaN
679	1.000000	0.422458	7.37169e+06	-43139.1	1005.82	-29780.1	0.000000	0.000000	6.422918	0.008280	NaN	0.000000	0.001607	0.001787	28.081	0.095032	0.001969	48.273	83.5494	-164.603	-0.016792	0.421125	-0.702989	-0.704322	0.008280	48.273	-0.703117	-2.158233E+9	-3.836404E-12	NaN
679	1.000000	0.464474	7.37169e+06	-43139.1	1005.82	-29780.1	0.000000	0.000000	6.464933	-0.008921	NaN	0.000000	0.001599	0.001779	28.0819	0.107716	0.001977	54.4796	93.3162	15.7284	0.034690	0.463090	-0.660973	-0.662357	-0.008921	54.4796	-0.660850	-5.703056E+8	1.564301E-11	NaN
679	1.000000	0.506464	7.37169e+06	-43139.1	1005.82	-29780.1	0.000000	0.000000	6.506923	-0.022583	NaN	0.000000	0.001597	0.001780	28.0818	0.027725	0.002014	13.7664	-105.363	-161.377	-0.052525	0.505221	-0.618983	-0.620226	-0.022583	13.7664	-0.617752	-1.461285E+8	1.545421E-10	NaN
679	1.000000	0.548493	7.37169e+06	-43139.1	1005.82	-29780.1	0.000000	0.000000	6.548954	0.047881	NaN	0.000000	0.001618	0.001770	28.0816	0.140779	0.002072	67.9406	103.201	11.8612	0.087273	0.547182	-0.576954	-0.578264	0.047881	67.9406	-0.577483	-4.073582E+7	-1.175411E-9	NaN
679	1.000000	0.590476	7.37169e+06	-43139.1	1005.82	-29780.1	0.000000	0.000000	6.590937	0.036946	NaN	0.000000	0.001596	0.001750	28.0805	0.066008	0.002111	31.2678	173.013	-166.46	0.070949	0.589214	-0.534971	-0.536233	0.036946	31.2678	-0.535857	-1.081141E+7	-3.417275E-9	NaN
679	1.000000	0.632521	7.37169e+06	-43139.1	1005.82	-29780.1	0.000000	0.000000	6.632983	0.068335	NaN	0.000000	0.001634	0.001783	28.0803	0.075764	0.001856	40.8118	63.0036	11.2843	0.043108	0.631178	-0.492926	-0.494269	0.068335	40.8118	-0.494182	-2.84322e+06	-2.403455E-8	NaN
679	1.000000	0.674551	7.37169e+06	-43139.1	1005.82	-29780.1	0.000000	0.000000	6.675011	0.017070	NaN	0.000000	0.001633	0.001771	28.0805	0.117045	0.001956	59.8492	72.8528	-164.445	0.024473	0.673192	-0.450896	-0.452255	0.017070	59.8492	-0.451110	-707892	-2.411438E-8	NaN
679	1.000000	0.716571	7.37169e+06	-43139.1	1005.82	-29780.1	0.000000	0.000000	6.717031	0.007935	NaN	0.000000	0.001614	0.001752	28.0818	0.088432	0.002030	43.5586	-167.166	15.4032	0.057482	0.715239	-0.408876	-0.410207	0.007935	43.5586	-0.409012	-179619	-4.417505E-8	NaN
679	1.000000	0.758589	7.3717e+06	-43139.1	1005.82	-29780.1	0.000000	0.000000	6.759047	-0.061810	NaN	0.000000	0.001590	0.001759	28.0817	0.044262	0.001959	22.5905	-36.1006	-161.209	0.037005	0.757227	-0.366857	-0.368219	-0.061810	22.5905	-0.364805	-41806.2	1.478497E-6	NaN
679	1.000000	0.800603	7.3717e+06	-43139.1	1005.82	-29780.1	0.000000	0.000000	6.801064	0.043348	NaN	0.000000	0.001645	0.001750	28.0815	0.057432	0.001989	28.8743	-140.614	13.3654	0.046852	0.799195	-0.324844	-0.326252	0.043348	28.8743	-0.325970	-11386	-3.807099E-6	NaN
679	1.000000	0.842637	7.3717e+06	-43139.1	1005.82	-29780.1	0.000000	0.000000	6.843098	0.031585	NaN	0.000000	0.001644	0.001766	28.0815	0.104627	0.001919	54.5151	-60.9816	-162.525	0.099660	0.841303	-0.282810	-0.284144	0.031585	54.5151	-0.283244	-2641.54	-1.195713E-5	NaN
679	1.000000	0.884613	7.3717e+06	-43139.1	1005.82	-29780.1	0.000000	0.000000	6.885073	0.000395	NaN	0.000000	0.001624	0.001776	28.08	0.047514	0.002033	23.3696	-48.3122	15.9183	-0.019273	0.883253	-0.240834	-0.242193	0.000395	23.3696	-0.240846	-592.607	-6.670226E-7	NaN
679	1.000000	0.926630	7.3717e+06	-43139.1	1005.82	-29780.1	0.000000	0.000000	6.927092	0.058816	NaN	0.000000	0.001612	0.001769	28.0806	0.058592	0.001972	29.7053	91.7007	-164.12	0.100447	0.925380	-0.198817	-0.200067	0.058816	29.7053	-0.200302	-133.247	-0.000441	NaN
679	1.000000	0.968696	7.3717e+06	-43139.1	1005.82	-29780.1	0.000000	0.000000	6.969157	0.028266	NaN	0.000000	0.001728	0.001761	28.0805	0.065967	0.002051	32.1667	25.2845	19.153	0.026493	0.967296	-0.156751	-0.158151	0.028266	32.1667	-0.157410	-24.6496	-0.001147	NaN
679	1.000000	1.010684	7.3717e+06	-43139.1	1005.82	-29780.1	0.000000	0.000000	7.011145	0.025859	NaN	0.000000	0.001689	0.001782	28.0818	0.143823	0.001979	72.6904	4.361148	-163.956	0.054928	1.009380	-0.114762	-0.116066	0.025859	72.6904	-0.115029	-3.825674	-0.006759	NaN
679	1.000000	1.052679	7.3717e+06	-43139.1	1005.82	-29780.1	0.000000	0.000000	7.053139	0.010878	NaN	0.000000	0.001719	0.001726	28.0817	0.044563	0.002093	21.2945	-6.094961	14.4656	-0.059426	1.051367	-0.072767	-0.074079	0.010878	21.2945	-0.073150	-0.413393	-0.026314	NaN
679	1.000000	1.094701	7.3717e+06	-43139.1	1005.82	-29780.1	0.000000	0.000000	7.095157	-0.078634	NaN	0.000000	0.001734	0.001644	28.0818	0.072753	0.001882	38.6513	-72.5868	-164.048	-0.117330	1.093424	-0.030746	-0.032023	-0.078634	38.6513	-0.029220	-0.021895	3.591357	NaN
679	2.000000	1.131766	7.3717e+06	-43139.1	1005.82	-29780.1	0.000000	0.000000	7.132731	12.2804	NaN	0.000000	0.001742	0.001649	28.0806	11.1922	0.001730	6469.8	9.815277	5.645901	12.0525	1.131434	0.006320	0.005988	12.2804	6469.8	0.004896	0.004039	3040.55	93011
679	2.000000	1.142212	7.3717e+06	-43139.1	1005.82	-29780.1	0.000000	0.000000	7.144064	33.8855	NaN	0.000000	0.001666	0.001613	28.0814	22.8288	0.001963	11631.8	6.810460	-176.196	33.7843	1.141852	0.016765	0.016405	33.8855	11631.8	0.014581	0.014730	2300.42	87562.1
679	2.000000	1.152693	7.3717e+06	-43139.1	1005.82	-29780.1	0.000000	0.000000	7.155770	63.6841	NaN	0.000000	0.001651	0.001641	28.0807	31.5767	0.001769	17850.9	2.916889	2.382555	62.097	1.152303	0.027246	0.026857	63.6841	17850.9	0.024571	0.030239	2106.01	93787.9
679	2.000000	1.163103	7.3717e+06	-43139.1	1005.82	-29780.1	0.000000	0.000000	7.167642	99.2341	NaN	0.000000	0.001619	0.001653	28.082	41.4945	0.001834	22625.8	5.236633	178.154	96.2982	1.162820	0.037657	0.037373	99.2341	22625.8	0.034367	0.050283	1973.51	92186.2
679	2.000000	1.173621	7.3717e+06	-43139.1	1005.82	-29780.1	0.000000	0.000000	7.180275	150.698	NaN	0.000000	0.001626	0.001645	28.0821	49.7162	0.001710	29071.3	5.559159	-3.420126	147.609	1.173259	0.048175	0.047812	150.698	29071.3	0.044287	0.075576	1993.98	96615
679	2.000000	1.184105	7.3717e+06	-43139.1	1005.82	-29780.1	0.000000	0.000000	7.192601	195.515	NaN	0.000000	0.001585	0.001692	28.0819	61.3486	0.001831	33504.2	2.922770	177.83	196.613	1.183819	0.058659	0.058372	195.515	33504.2	0.054282	0.106108	1842.62	93972.3
679	2.000000	1.194629	7.3717e+06	-43139.1	1005.82	-29780.1	0.000000	0.000000	7.205688	257.889	NaN	0.000000	0.001633	0.001660	28.0819	71.6614	0.001852	38684.8	4.936150	-5.530469	255.748	1.194191	0.069182	0.068744	257.889	38684.8	0.064182	0.141231	1826.01	94047.7
679	2.000000	1.205070	7.3717e+06	-43139.1	1005.82	-29780.1	0.000000	0.000000	7.218919	325.77	NaN	0.000000	0.001660	0.001685	28.0806	79.668	0.001741	45757.2	1.184506	176.434	322.277	1.204821	0.079623	0.079374	325.77	45757.2	0.074284	0.181949	1790.44	98007.1
679	2.000000	1.215598	7.3717e+06	-43139.1	1005.82	-29780.1	0.000000	0.000000	7.232611	402.745	NaN	0.000000	0.001641	0.001676	28.0805	88.9085	0.001727	51480.9	2.372496	-4.928678	400.065	1.215266	0.090151	0.089820	402.745	51480.9	0.084284	0.226997	1774.23	98721
679	2.000000	1.226006	7.3717e+06	-43139.1	1005.82	-29780.1	0.000000	0.000000	7.246321	483.088	NaN	0.000000	0.001708	0.001692	28.0804	98.188	0.001749	56143.6	0.306897	176.504	477.45	1.225763	0.100559	0.100317	483.088	56143.6	0.094106	0.275746	1751.93	97683
679	2.000000	1.228497	7.3717e+06	-43139.1	1005.82	-29780.1	0.000000	0.000000	7.249981	511.535	NaN	0.000000	0.001656	0.001688	28.0805	102.548	0.001813	56548.8	6.832861	-10.1189	503.447	1.228205	0.103050	0.102758	511.535	56548.8	0.096266	0.287059	1781.99	96429.8