File: remote_trans/data/nanoindenter/0828-1/data/Data_2025-08-06,11h17m57s/2025-07-22_16-23-58_1_148.txt
2025-07-22, 16:23:58, 1
Index	Phase	Displacement	Time	Pos X	Pos Y	Pos Z	Rot A	Rot B	Piezo Z	Force A	Force B	Gripper	Voltage A	Voltage B	Temperature	Amplitude force	Amplitude pos	Stiffness	Phase shift	Phase excitation	Force A raw	Displacement raw	HMax	HMax raw	Real Force	Real Stiffness	Contact Depth	Area	Hardness	Reduced Mod.
[#]	[#]	[um]	[s]	[um]	[um]	[um]	[m°]	[m°]	[um]	[uN]	[uN]	[V]	[V]	[V]	[°C]	[uN]	[um]	[N/m]	[°]	[°]	[uN]	[um]	[um]	[um]	[uN]	[N/m]	[um]	[um^2]	[MPa]	[MPa]
148	1.000000	0.002381	7.36649e+06	-46039.1	955.818	-29770.9	0.000000	0.000000	6.002731	0.046863	NaN	0.000000	0.001571	0.001735	28.0994	0.053766	0.001007	53.3661	-9.671003	174.595	0.031107	0.001148	-1.069808	-1.071041	0.046863	53.3661	-1.070467	-2.011211E+14	-2.330094E-16	NaN
148	1.000000	0.042350	7.36649e+06	-46039.1	955.818	-29770.9	0.000000	0.000000	6.042699	0.023463	NaN	0.000000	0.001608	0.001736	28.1004	0.057544	0.001864	30.8727	62.1714	177.542	-0.053950	0.041000	-1.029839	-1.031189	0.023463	30.8727	-1.030409	-5.820713E+13	-4.030992E-16	NaN
148	1.000000	0.082337	7.36649e+06	-46039.1	955.818	-29770.9	0.000000	0.000000	6.082687	0.050203	NaN	0.000000	0.001636	0.001742	28.098	0.062125	0.001887	32.9181	74.2049	172.62	0.003131	0.081034	-0.989852	-0.991154	0.050203	32.9181	-0.990996	-1.716024E+13	-2.925540E-15	NaN
148	1.000000	0.122406	7.36649e+06	-46039.1	955.818	-29770.9	0.000000	0.000000	6.122753	-0.035690	NaN	0.000000	0.001603	0.001782	28.0996	0.124093	0.001986	62.4691	-74.9015	173.051	-0.015533	0.121053	-0.949783	-0.951136	-0.035690	62.4691	-0.949354	-4.713212E+12	7.572374E-15	NaN
148	1.000000	0.162364	7.36649e+06	-46039.1	955.818	-29770.9	0.000000	0.000000	6.162714	0.065762	NaN	0.000000	0.001582	0.001795	28.0988	0.037260	0.001963	18.9803	49.2894	-179.699	0.041690	0.161092	-0.909825	-0.911096	0.065762	18.9803	-0.912424	-1.495877E+12	-4.396189E-14	NaN
148	1.000000	0.202411	7.36649e+06	-46039.1	955.818	-29770.9	0.000000	0.000000	6.202760	0.023423	NaN	0.000000	0.001576	0.001773	28.1	0.180399	0.001938	93.0675	-27.8127	173.509	0.042468	0.201131	-0.869778	-0.871057	0.023423	93.0675	-0.869967	-3.990184E+11	-5.870096E-14	NaN
148	1.000000	0.242400	7.36649e+06	-46039.1	955.818	-29770.9	0.000000	0.000000	6.242747	-0.026182	NaN	0.000000	0.001563	0.001773	28.0988	0.090623	0.002034	44.5565	-79.1424	177.618	-0.036177	0.241093	-0.829789	-0.831095	-0.026182	44.5565	-0.829348	-1.124479E+11	2.328381E-13	NaN
148	1.000000	0.282439	7.36649e+06	-46039.1	955.818	-29770.9	0.000000	0.000000	6.282787	0.003312	NaN	0.000000	0.001609	0.001803	28.0984	0.069473	0.001984	35.0199	-85.1208	174.382	-0.002761	0.281101	-0.789750	-0.791088	0.003312	35.0199	-0.789821	-3.270779E+10	-1.012566E-13	NaN
148	1.000000	0.322442	7.36649e+06	-46039.1	955.819	-29770.9	0.000000	0.000000	6.322788	-0.047393	NaN	0.000000	0.001629	0.001760	28.0977	0.009909	0.002028	4.886978	177.878	178.044	-0.033889	0.321132	-0.749747	-0.751056	-0.047393	4.886978	-0.742474	-7.425858E+9	6.382107E-12	NaN
148	1.000000	0.362499	7.36649e+06	-46039.1	955.819	-29770.9	0.000000	0.000000	6.362851	0.096520	NaN	0.000000	0.001560	0.001740	28.0985	0.120732	0.001892	63.7971	-85.9586	175.655	0.125066	0.361195	-0.709689	-0.710994	0.096520	63.7971	-0.710824	-2.749762E+9	-3.510105E-11	NaN
148	1.000000	0.402495	7.36649e+06	-46039.1	955.818	-29770.9	0.000000	0.000000	6.402840	-0.084239	NaN	0.000000	0.001606	0.001768	28.0984	0.086433	0.002080	41.5581	120.586	174.404	0.044993	0.401134	-0.669694	-0.671055	-0.084239	41.5581	-0.668173	-7.184355E+8	1.172531E-10	NaN
148	1.000000	0.442550	7.36649e+06	-46039.1	955.818	-29770.9	0.000000	0.000000	6.442899	0.029453	NaN	0.000000	0.001697	0.001781	28.098	0.015666	0.001794	8.733032	-100.355	178.914	-0.008713	0.441142	-0.629639	-0.631046	0.029453	8.733032	-0.632168	-2.305668E+8	-1.277398E-10	NaN
148	1.000000	0.482527	7.36649e+06	-46039.1	955.819	-29770.9	0.000000	0.000000	6.482875	-0.003553	NaN	0.000000	0.001689	0.001770	28.0982	0.066758	0.001895	35.2203	152.419	174.236	-0.017663	0.481203	-0.589661	-0.590985	-0.003553	35.2203	-0.589586	-5.983473E+7	5.938279E-11	NaN
148	1.000000	0.522556	7.36649e+06	-46039.1	955.818	-29770.9	0.000000	0.000000	6.522903	-0.016788	NaN	0.000000	0.001698	0.001783	28.0979	0.091982	0.002077	44.2887	-91.825	175.385	0.048794	0.521321	-0.549633	-0.550867	-0.016788	44.2887	-0.549349	-1.663153E+7	1.009419E-9	NaN
148	1.000000	0.562566	7.36649e+06	-46039.1	955.818	-29770.9	0.000000	0.000000	6.562915	0.034527	NaN	0.000000	0.001587	0.001733	28.0954	0.029997	0.002041	14.6997	102.87	175.521	-0.028492	0.561270	-0.509623	-0.510919	0.034527	14.6997	-0.511384	-4.93966e+06	-6.989710E-9	NaN
148	1.000000	0.602578	7.36649e+06	-46039.1	955.818	-29770.9	0.000000	0.000000	6.602924	-0.041255	NaN	0.000000	0.001608	0.001769	28.0962	0.104173	0.002056	50.6788	-174.271	176.078	0.033291	0.601264	-0.469611	-0.470924	-0.041255	50.6788	-0.469000	-1.26296e+06	3.266511E-8	NaN
148	1.000000	0.642607	7.36649e+06	-46039.1	955.818	-29770.9	0.000000	0.000000	6.642955	0.013945	NaN	0.000000	0.001601	0.001800	28.0946	0.087348	0.002063	42.341	69.2969	172.509	0.108007	0.641260	-0.429582	-0.430929	0.013945	42.341	-0.429829	-354521	-3.933398E-8	NaN
148	1.000000	0.682582	7.36649e+06	-46039.1	955.818	-29770.9	0.000000	0.000000	6.682928	-0.049313	NaN	0.000000	0.001586	0.001788	28.0971	0.077596	0.002051	37.8327	39.888	172.029	-0.103288	0.681303	-0.389606	-0.390885	-0.049313	37.8327	-0.388629	-91948.7	5.363079E-7	NaN
148	1.000000	0.722621	7.36649e+06	-46039.1	955.819	-29770.9	0.000000	0.000000	6.722970	0.038757	NaN	0.000000	0.001575	0.001802	28.0969	0.033059	0.002014	16.4136	-2.119130	173.92	0.055012	0.721346	-0.349568	-0.350843	0.038757	16.4136	-0.351339	-26695	-1.451829E-6	NaN
148	1.000000	0.762626	7.36649e+06	-46039.1	955.819	-29770.9	0.000000	0.000000	6.762973	-0.026592	NaN	0.000000	0.001571	0.001765	28.0974	0.153603	0.002038	75.3798	86.8843	172.414	-0.080615	0.761351	-0.309563	-0.310838	-0.026592	75.3798	-0.309298	-6466.53	4.112256E-6	NaN
148	1.000000	0.802664	7.36649e+06	-46039.1	955.819	-29770.9	0.000000	0.000000	6.803013	0.028739	NaN	0.000000	0.001575	0.001803	28.0959	0.050692	0.002054	24.6825	-49.5777	173.81	0.013820	0.801379	-0.269525	-0.270810	0.028739	24.6825	-0.270398	-1688.87	-1.701691E-5	NaN
148	1.000000	0.842676	7.36649e+06	-46039.1	955.818	-29770.9	0.000000	0.000000	6.843021	-0.067703	NaN	0.000000	0.001650	0.001786	28.0967	0.047155	0.002045	23.0566	65.6932	177.278	-0.029277	0.841329	-0.229513	-0.230860	-0.067703	23.0566	-0.227310	-363.06	0.000186	NaN
148	1.000000	0.882691	7.36649e+06	-46039.1	955.819	-29770.9	0.000000	0.000000	6.883041	0.058257	NaN	0.000000	0.001684	0.001795	28.094	0.106997	0.002060	51.9389	-50.4015	178.256	0.047521	0.881410	-0.189498	-0.190779	0.058257	51.9389	-0.190339	-91.137	-0.000639	NaN
148	1.000000	0.922701	7.36649e+06	-46039.1	955.818	-29770.9	0.000000	0.000000	6.923049	-0.002395	NaN	0.000000	0.001594	0.001803	28.0954	0.117862	0.002117	55.6853	120.674	174.711	-0.086331	0.921388	-0.149488	-0.150801	-0.002395	55.6853	-0.149456	-17.7041	0.000135	NaN
148	1.000000	0.962702	7.36649e+06	-46039.1	955.819	-29770.9	0.000000	0.000000	6.963050	0.012847	NaN	0.000000	0.001589	0.001765	28.0952	0.057410	0.002033	28.2394	-48.876	173.7	-0.044984	0.961416	-0.109487	-0.110773	0.012847	28.2394	-0.109828	-2.980193	-0.004311	NaN
148	1.000000	1.002765	7.36649e+06	-46039.1	955.819	-29770.9	0.000000	0.000000	7.003111	-0.037044	NaN	0.000000	0.001606	0.001788	28.095	0.041544	0.002057	20.2002	80.0932	174.05	-0.046676	1.001371	-0.069424	-0.070817	-0.037044	20.2002	-0.068048	-0.302171	0.122591	NaN
148	1.000000	1.042745	7.36649e+06	-46039.1	955.817	-29770.9	0.000000	0.000000	7.043093	0.003788	NaN	0.000000	0.001588	0.001802	28.0948	0.098207	0.001943	50.5356	117.407	176.613	-0.056292	1.041365	-0.029444	-0.030823	0.003788	50.5356	-0.029500	-0.022289	-0.169970	NaN
148	2.000000	1.082249	7.36649e+06	-46039.1	955.819	-29770.9	0.000000	0.000000	7.082973	9.134877	NaN	0.000000	0.001614	0.001783	28.0948	8.531387	0.001531	5571.76	9.529000	165.331	8.353997	1.081390	0.010061	0.009201	9.134877	5571.76	0.008831	0.007911	1154.7	57233.3
148	2.000000	1.092352	7.36649e+06	-46039.1	955.818	-29770.9	0.000000	0.000000	7.093609	22.1185	NaN	0.000000	0.001559	0.001819	28.094	17.8102	0.001774	10042	6.568779	165.75	22.1947	1.092045	0.020163	0.019856	22.1185	10042	0.018511	0.020257	1091.89	64462.6
148	2.000000	1.102295	7.36649e+06	-46039.1	955.818	-29770.9	0.000000	0.000000	7.104554	46.4777	NaN	0.000000	0.001581	0.001788	28.0957	28.9573	0.001960	14775.8	6.982040	160.395	45.7267	1.102037	0.030107	0.029848	46.4777	14775.8	0.027747	0.036204	1283.77	70948.8
148	2.000000	1.112268	7.36649e+06	-46039.1	955.818	-29770.9	0.000000	0.000000	7.115777	76.8844	NaN	0.000000	0.001617	0.001763	28.0933	39.5244	0.001791	22063.3	4.690524	158.939	75.2077	1.111999	0.040080	0.039811	76.8844	22063.3	0.037466	0.057644	1333.79	83958.9
148	2.000000	1.122280	7.36649e+06	-46039.1	955.818	-29770.9	0.000000	0.000000	7.127352	114.909	NaN	0.000000	0.001609	0.001818	28.095	48.4252	0.001832	26436.7	3.428858	158.831	113.311	1.122008	0.050091	0.049819	114.909	26436.7	0.046831	0.082872	1386.6	83903.2
148	2.000000	1.132247	7.36649e+06	-46039.1	955.818	-29770.9	0.000000	0.000000	7.139196	160.568	NaN	0.000000	0.001581	0.001778	28.0942	57.552	0.001769	32528	5.578194	155.524	160.767	1.131899	0.060058	0.059710	160.568	32528	0.056356	0.113067	1420.11	88381.7
148	2.000000	1.142246	7.36649e+06	-46039.1	955.818	-29770.9	0.000000	0.000000	7.151153	208.219	NaN	0.000000	0.001629	0.001771	28.0943	67.9754	0.001713	39681.2	5.737590	153.657	206.909	1.142034	0.070057	0.069845	208.219	39681.2	0.066122	0.148670	1400.54	94025.6
148	2.000000	1.152261	7.36649e+06	-46039.1	955.818	-29770.9	0.000000	0.000000	7.163722	270.321	NaN	0.000000	0.001590	0.001775	28.0917	77.1447	0.001843	41854.1	6.512615	152.788	271.809	1.151909	0.080073	0.079720	270.321	41854.1	0.075229	0.186005	1453.3	88664.3
148	2.000000	1.162197	7.36649e+06	-46039.1	955.818	-29770.9	0.000000	0.000000	7.176452	338.283	NaN	0.000000	0.001638	0.001757	28.0936	85.5976	0.001915	44692.9	4.544189	154.442	335.664	1.161938	0.090008	0.089749	338.283	44692.9	0.084332	0.227224	1488.77	85661.4
148	2.000000	1.172132	7.36649e+06	-46039.1	955.818	-29770.9	0.000000	0.000000	7.189459	413.032	NaN	0.000000	0.001681	0.001768	28.0918	95.6452	0.001840	51972.9	4.622386	152.986	408.275	1.171970	0.099943	0.099781	413.032	51972.9	0.093983	0.275110	1501.33	90531
148	2.000000	1.180638	7.36649e+06	-46039.1	955.818	-29770.9	0.000000	0.000000	7.200222	467.924	NaN	0.000000	0.001593	0.001743	28.1299	102.929	0.001774	58018.5	5.123019	-28.7526	461.656	1.180436	0.108449	0.108247	467.924	58018.5	0.102401	0.320350	1460.67	93654.2