File: remote_trans/data/nanoindenter/0828-1/data/Data_2025-08-06,11h17m57s/2025-07-22_16-23-58_1_580.txt
2025-07-22, 16:23:58, 1
Index	Phase	Displacement	Time	Pos X	Pos Y	Pos Z	Rot A	Rot B	Piezo Z	Force A	Force B	Gripper	Voltage A	Voltage B	Temperature	Amplitude force	Amplitude pos	Stiffness	Phase shift	Phase excitation	Force A raw	Displacement raw	HMax	HMax raw	Real Force	Real Stiffness	Contact Depth	Area	Hardness	Reduced Mod.
[#]	[#]	[um]	[s]	[um]	[um]	[um]	[m°]	[m°]	[um]	[uN]	[uN]	[V]	[V]	[V]	[°C]	[uN]	[um]	[N/m]	[°]	[°]	[uN]	[um]	[um]	[um]	[uN]	[N/m]	[um]	[um^2]	[MPa]	[MPa]
580	1.000000	0.002773	7.37072e+06	-48089.1	1005.82	-29763.6	0.000000	0.000000	6.002800	0.046713	NaN	0.000000	0.001577	0.001799	28.0793	0.103965	0.000910	114.277	170.794	-171.676	0.067662	0.001521	-1.145382	-1.146635	0.046713	114.277	-1.145689	-2.055992E+15	-2.272021E-17	NaN
580	1.000000	0.044723	7.37072e+06	-48089.1	1005.82	-29763.6	0.000000	0.000000	6.044748	0.016271	NaN	0.000000	0.001571	0.001782	28.0794	0.069403	0.002091	33.192	-75.4483	13.9926	-0.022045	0.043367	-1.103432	-1.104788	0.016271	33.192	-1.103800	-5.637371E+14	-2.886332E-17	NaN
580	1.000000	0.086715	7.37072e+06	-48089.1	1005.82	-29763.6	0.000000	0.000000	6.086737	-0.058491	NaN	0.000000	0.001584	0.001738	28.0804	0.041505	0.001983	20.9331	130.488	-168.113	0.011805	0.085437	-1.061441	-1.062719	-0.058491	20.9331	-1.059345	-1.425666E+14	4.102715E-16	NaN
580	1.000000	0.128739	7.37072e+06	-48089.1	1005.82	-29763.6	0.000000	0.000000	6.128764	-0.011002	NaN	0.000000	0.001630	0.001721	28.0803	0.120356	0.002091	57.5491	-137.218	11.009	-0.006949	0.127424	-1.019416	-1.020731	-0.011002	57.5491	-1.019273	-4.122556E+13	2.668800E-16	NaN
580	1.000000	0.170734	7.37072e+06	-48089.1	1005.82	-29763.6	0.000000	0.000000	6.170760	0.040023	NaN	0.000000	0.001659	0.001710	28.0801	0.062898	0.001978	31.8001	-55.3848	-167.263	0.023273	0.169473	-0.977421	-0.978682	0.040023	31.8001	-0.978365	-1.159813E+13	-3.450847E-15	NaN
580	1.000000	0.212790	7.37072e+06	-48089.1	1005.82	-29763.6	0.000000	0.000000	6.212812	-0.062489	NaN	0.000000	0.001576	0.001711	28.0799	0.049759	0.002066	24.0786	-17.2584	16.5963	0.016057	0.211417	-0.935366	-0.936738	-0.062489	24.0786	-0.933419	-2.873042E+12	2.175020E-14	NaN
580	1.000000	0.254831	7.37072e+06	-48089.1	1005.82	-29763.6	0.000000	0.000000	6.254854	-0.042534	NaN	0.000000	0.001634	0.001746	28.0788	0.049233	0.001913	25.7414	-62.4343	-165.985	-0.058704	0.253553	-0.893324	-0.894602	-0.042534	25.7414	-0.892085	-7.945042E+11	5.353497E-14	NaN
580	1.000000	0.296826	7.37072e+06	-48089.1	1005.82	-29763.6	0.000000	0.000000	6.296853	0.049459	NaN	0.000000	0.001620	0.001740	28.0789	0.090492	0.001971	45.9217	-147.686	15.3018	0.060792	0.295489	-0.851329	-0.852667	0.049459	45.9217	-0.852137	-2.289146E+11	-2.160569E-13	NaN
580	1.000000	0.338848	7.37072e+06	-48089.1	1005.82	-29763.6	0.000000	0.000000	6.338872	-0.024997	NaN	0.000000	0.001603	0.001759	28.0788	0.055349	0.001920	28.8314	-169.18	-166.652	-0.088510	0.337559	-0.809307	-0.810597	-0.024997	28.8314	-0.808657	-5.893149E+10	4.241714E-13	NaN
580	1.000000	0.380855	7.37072e+06	-48089.1	1005.82	-29763.6	0.000000	0.000000	6.380881	0.009015	NaN	0.000000	0.001609	0.001777	28.0799	0.024612	0.001896	12.9816	-110.752	13.0521	-0.051160	0.379467	-0.767300	-0.768688	0.009015	12.9816	-0.767821	-1.643134E+10	-5.486353E-13	NaN
580	1.000000	0.422915	7.37072e+06	-48089.1	1005.82	-29763.6	0.000000	0.000000	6.422944	0.092350	NaN	0.000000	0.001555	0.001791	28.0799	0.098753	0.002025	48.7774	179.921	-164.893	0.090806	0.421549	-0.725240	-0.726606	0.092350	48.7774	-0.726660	-4.521505E+9	-2.042462E-11	NaN
580	1.000000	0.464893	7.37072e+06	-48089.1	1005.82	-29763.6	0.000000	0.000000	6.464916	-0.044179	NaN	0.000000	0.001524	0.001787	28.0799	0.124238	0.001970	63.0768	-23.7475	11.0386	-0.012937	0.463552	-0.683263	-0.684603	-0.044179	63.0768	-0.682737	-1.136682E+9	3.886674E-11	NaN
580	1.000000	0.506913	7.37072e+06	-48089.1	1005.82	-29763.6	0.000000	0.000000	6.506934	-0.085284	NaN	0.000000	0.001570	0.001801	28.0791	0.065533	0.001975	33.1876	94.7659	-166.142	-0.152805	0.505614	-0.641243	-0.642541	-0.085284	33.1876	-0.639315	-2.889977E+8	2.951040E-10	NaN
580	1.000000	0.548935	7.37072e+06	-48089.1	1005.82	-29763.6	0.000000	0.000000	6.548958	-0.034636	NaN	0.000000	0.001520	0.001807	28.079	0.101570	0.002081	48.8077	125.497	12.5098	-0.071059	0.547552	-0.599221	-0.600604	-0.034636	48.8077	-0.598688	-7.987207E+7	4.336378E-10	NaN
580	1.000000	0.590954	7.37072e+06	-48089.1	1005.82	-29763.6	0.000000	0.000000	6.590974	-0.094296	NaN	0.000000	0.001521	0.001806	28.079	0.075217	0.002029	37.073	159.888	-163.115	-0.070940	0.589651	-0.557202	-0.558505	-0.094296	37.073	-0.555294	-2.010293E+7	4.690646E-9	NaN
580	1.000000	0.632965	7.37072e+06	-48089.1	1005.82	-29763.6	0.000000	0.000000	6.632988	-0.025638	NaN	0.000000	0.001556	0.001754	28.0803	0.029747	0.001984	14.991	77.537	10.7992	-0.014102	0.631584	-0.515191	-0.516572	-0.025638	14.991	-0.513908	-5.3559e+06	4.786823E-9	NaN
580	1.000000	0.674991	7.37072e+06	-48089.1	1005.82	-29763.6	0.000000	0.000000	6.675019	0.080496	NaN	0.000000	0.001625	0.001764	28.0803	0.049152	0.001889	26.0154	-23.5504	-164.429	-0.016935	0.673617	-0.473164	-0.474538	0.080496	26.0154	-0.475485	-1.55702e+06	-5.169859E-8	NaN
580	1.000000	0.717010	7.37072e+06	-48089.1	1005.82	-29763.6	0.000000	0.000000	6.717031	-0.081893	NaN	0.000000	0.001628	0.001811	28.0801	0.080476	0.001937	41.5412	-21.8149	15.2864	-0.041534	0.715648	-0.431146	-0.432507	-0.081893	41.5412	-0.429667	-352657	2.322179E-7	NaN
580	1.000000	0.759027	7.37072e+06	-48089.1	1005.82	-29763.6	0.000000	0.000000	6.759051	-0.007861	NaN	0.000000	0.001571	0.001778	28.0804	0.019651	0.001903	10.3278	-148.747	-167.021	0.037005	0.757714	-0.389129	-0.390441	-0.007861	10.3278	-0.388558	-91734.1	8.569118E-8	NaN
580	1.000000	0.801024	7.37072e+06	-48089.1	1005.82	-29763.6	0.000000	0.000000	6.801048	-0.008829	NaN	0.000000	0.001605	0.001741	28.0791	0.061043	0.002038	29.9515	175.628	11.9151	-0.162837	0.799615	-0.347131	-0.348540	-0.008829	29.9515	-0.346910	-23021.3	3.835159E-7	NaN
580	1.000000	0.843052	7.37073e+06	-48089.1	1005.82	-29763.6	0.000000	0.000000	6.843075	-0.046371	NaN	0.000000	0.001549	0.001749	28.0789	0.049779	0.001929	25.8108	94.4414	-164.38	-0.025414	0.841773	-0.305103	-0.306382	-0.046371	25.8108	-0.303756	-5351.61	8.664817E-6	NaN
580	1.000000	0.885093	7.37073e+06	-48089.1	1005.82	-29763.6	0.000000	0.000000	6.885116	-0.033921	NaN	0.000000	0.001555	0.001773	28.0791	0.037201	0.001983	18.7587	35.0056	12.3603	-0.042130	0.883713	-0.263063	-0.264442	-0.033921	18.7587	-0.261706	-1244.67	2.725341E-5	NaN
580	1.000000	0.927062	7.37073e+06	-48089.1	1005.82	-29763.6	0.000000	0.000000	6.927083	-0.084209	NaN	0.000000	0.001534	0.001739	28.0802	0.094234	0.001990	47.3424	-74.9197	-165.925	-0.131678	0.925784	-0.221094	-0.222371	-0.084209	47.3424	-0.219760	-275.317	0.000306	NaN
580	1.000000	0.969123	7.37073e+06	-48089.1	1005.82	-29763.6	0.000000	0.000000	6.969146	-0.035676	NaN	0.000000	0.001511	0.001731	28.0802	0.055139	0.001996	27.6301	106.545	14.909	-0.082298	0.967767	-0.179033	-0.180388	-0.035676	27.6301	-0.178064	-56.5553	0.000631	NaN
580	1.000000	1.011100	7.37073e+06	-48089.1	1005.82	-29763.6	0.000000	0.000000	7.011124	-0.022692	NaN	0.000000	0.001530	0.001695	28.0804	0.033779	0.002156	15.6708	118.929	-165.974	-0.077896	1.009793	-0.137055	-0.138363	-0.022692	15.6708	-0.135969	-9.925814	0.002286	NaN
580	1.000000	1.053139	7.37073e+06	-48089.1	1005.82	-29763.6	0.000000	0.000000	7.053165	0.036450	NaN	0.000000	0.001522	0.001728	28.0791	0.050913	0.001785	28.525	30.1516	14.9957	0.048706	1.051768	-0.095016	-0.096387	0.036450	28.525	-0.095975	-1.484445	-0.024554	NaN
580	1.000000	1.095140	7.37073e+06	-48089.1	1005.82	-29763.6	0.000000	0.000000	7.095164	-0.013167	NaN	0.000000	0.001541	0.001764	28.079	0.052238	0.001995	26.1888	171.178	-169.504	0.001205	1.093860	-0.053015	-0.054296	-0.013167	26.1888	-0.052638	-0.109549	0.120197	NaN
580	1.000000	1.137183	7.37073e+06	-48089.1	1005.82	-29763.6	0.000000	0.000000	7.137211	0.080960	NaN	0.000000	0.001562	0.001768	28.0789	0.022299	0.002002	11.1384	-150.2	15.638	0.008311	1.135791	-0.010972	-0.012364	0.080960	11.1384	-0.016424	-0.010146	-7.979374	NaN
580	2.000000	1.158692	7.37073e+06	-48089.1	1005.82	-29763.6	0.000000	0.000000	7.159484	18.6419	NaN	0.000000	0.001588	0.001750	28.0801	16.8371	0.001624	10365.3	8.754352	-179.084	18.7836	1.158386	0.010537	0.010231	18.6419	10365.3	0.009188	0.008293	2247.83	103990
580	2.000000	1.169121	7.37073e+06	-48089.1	1005.82	-29763.6	0.000000	0.000000	7.170780	39.7358	NaN	0.000000	0.001561	0.001745	28.0801	27.17	0.001756	15476.1	7.350155	-0.888063	39.6199	1.168777	0.020966	0.020622	39.7358	15476.1	0.019040	0.021057	1887.1	97441.1
580	2.000000	1.179568	7.37073e+06	-48089.1	1005.82	-29763.6	0.000000	0.000000	7.182726	76.2054	NaN	0.000000	0.001583	0.001744	28.08	37.2948	0.001885	19787.2	6.210100	178.133	74.4668	1.179281	0.031413	0.031126	76.2054	19787.2	0.028524	0.037740	2019.2	93058
580	2.000000	1.190116	7.37073e+06	-48089.1	1005.82	-29763.6	0.000000	0.000000	7.195004	118.305	NaN	0.000000	0.001610	0.001729	28.08	47.725	0.001794	26602.2	7.783183	-6.532781	117.787	1.189658	0.041960	0.041503	118.305	26602.2	0.038625	0.060523	1954.72	98793.9
580	2.000000	1.200653	7.37073e+06	-48089.1	1005.82	-29763.6	0.000000	0.000000	7.207283	160.666	NaN	0.000000	0.001583	0.001724	28.0786	57.3389	0.001832	31301.3	5.063826	175.217	161.536	1.200301	0.052498	0.052145	160.666	31301.3	0.048648	0.088280	1819.96	96250.9
580	2.000000	1.211054	7.37073e+06	-48089.1	1005.82	-29763.6	0.000000	0.000000	7.220008	217.18	NaN	0.000000	0.001575	0.001748	28.0786	68.3967	0.001834	37302.8	6.490850	-8.205863	214.149	1.210698	0.062899	0.062543	217.18	37302.8	0.058532	0.120599	1800.85	98139.5
580	2.000000	1.221577	7.37073e+06	-48089.1	1005.82	-29763.6	0.000000	0.000000	7.233202	282.147	NaN	0.000000	0.001584	0.001735	28.0785	77.04	0.001813	42492.9	6.895018	171.427	282.947	1.221161	0.073421	0.073005	282.147	42492.9	0.068442	0.157806	1787.94	97730
580	2.000000	1.232060	7.37073e+06	-48089.1	1005.82	-29763.6	0.000000	0.000000	7.246282	345.303	NaN	0.000000	0.001544	0.001745	28.0798	86.496	0.001851	46723.2	5.615621	-8.786235	344.533	1.231728	0.083905	0.083573	345.303	46723.2	0.078362	0.199758	1728.61	95511.1
580	2.000000	1.242485	7.37073e+06	-48089.1	1005.82	-29763.6	0.000000	0.000000	7.260485	437.221	NaN	0.000000	0.001598	0.001760	28.0799	94.9923	0.001832	51847.7	4.964685	171.603	435.03	1.242164	0.094329	0.094008	437.221	51847.7	0.088005	0.244943	1784.99	95712.8
580	2.000000	1.250467	7.37073e+06	-48089.1	1005.82	-29763.6	0.000000	0.000000	7.271166	502.851	NaN	0.000000	0.001570	0.001790	28.0796	103.512	0.001853	55861.5	4.589123	171.781	498.021	1.250154	0.102311	0.101999	502.851	55861.5	0.095560	0.283339	1774.73	95881