File: remote_trans/data/nanoindenter/0828-1/data/Data_2025-08-06,11h17m57s/2025-07-22_16-23-58_1_135.txt
2025-07-22, 16:23:58, 1
Index	Phase	Displacement	Time	Pos X	Pos Y	Pos Z	Rot A	Rot B	Piezo Z	Force A	Force B	Gripper	Voltage A	Voltage B	Temperature	Amplitude force	Amplitude pos	Stiffness	Phase shift	Phase excitation	Force A raw	Displacement raw	HMax	HMax raw	Real Force	Real Stiffness	Contact Depth	Area	Hardness	Reduced Mod.
[#]	[#]	[um]	[s]	[um]	[um]	[um]	[m°]	[m°]	[um]	[uN]	[uN]	[V]	[V]	[V]	[°C]	[uN]	[um]	[N/m]	[°]	[°]	[uN]	[um]	[um]	[um]	[uN]	[N/m]	[um]	[um^2]	[MPa]	[MPa]
135	1.000000	0.002350	7.36636e+06	-45389.1	955.818	-29773.1	0.000000	0.000000	6.002752	-0.026908	NaN	0.000000	0.001640	0.001758	28.0953	0.109085	0.000775	140.807	-2.841115	178.257	-0.017024	0.001139	-1.120592	-1.121803	-0.026908	140.807	-1.120448	-9.429500E+14	2.853631E-17	NaN
135	1.000000	0.044281	7.36636e+06	-45389.1	955.818	-29773.1	0.000000	0.000000	6.044683	-0.056092	NaN	0.000000	0.001642	0.001743	28.0802	0.061867	0.002001	30.9208	3.470617	-6.781175	-0.045603	0.042943	-1.078660	-1.079998	-0.056092	30.9208	-1.077300	-2.484549E+14	2.257618E-16	NaN
135	1.000000	0.086269	7.36636e+06	-45389.1	955.819	-29773.1	0.000000	0.000000	6.086672	-0.003045	NaN	0.000000	0.001682	0.001760	28.0976	0.051355	0.002110	24.3366	-65.3747	178.139	-0.021707	0.085013	-1.036673	-1.037929	-0.003045	24.3366	-1.036579	-7.046331E+13	4.321746E-17	NaN
135	1.000000	0.128288	7.36636e+06	-45389.1	955.818	-29773.1	0.000000	0.000000	6.128694	0.057320	NaN	0.000000	0.001638	0.001698	28.1304	0.070461	0.002009	35.0755	-23.0248	-5.500372	0.010003	0.126977	-0.994654	-0.995964	0.057320	35.0755	-0.995879	-1.996569E+13	-2.870935E-15	NaN
135	1.000000	0.170369	7.36636e+06	-45389.1	955.819	-29773.1	0.000000	0.000000	6.170772	-0.026879	NaN	0.000000	0.001631	0.001752	28.0943	0.108920	0.002099	51.883	150.842	173.423	0.115544	0.169009	-0.952572	-0.953932	-0.026879	51.883	-0.952183	-5.146053E+12	5.223294E-15	NaN
135	1.000000	0.212365	7.36636e+06	-45389.1	955.819	-29773.1	0.000000	0.000000	6.212767	-0.046268	NaN	0.000000	0.001595	0.001757	28.0806	0.060902	0.001949	31.2542	-2.784673	-3.000542	-0.073141	0.210999	-0.910576	-0.911943	-0.046268	31.2542	-0.909466	-1.364432E+12	3.391036E-14	NaN
135	1.000000	0.254367	7.36636e+06	-45389.1	955.818	-29773.1	0.000000	0.000000	6.254771	-8.824446E-5	NaN	0.000000	0.001601	0.001739	28.098	0.096252	0.001966	48.9699	164.758	178.632	0.094765	0.253035	-0.868574	-0.869906	-8.824446E-5	48.9699	-0.868573	-3.820613E+11	2.309694E-16	NaN
135	1.000000	0.296374	7.36636e+06	-45389.1	955.819	-29773.1	0.000000	0.000000	6.296777	-0.032160	NaN	0.000000	0.001565	0.001799	28.1314	0.052461	0.002125	24.6866	92.0098	-3.258313	-0.057043	0.295034	-0.826567	-0.827907	-0.032160	24.6866	-0.825590	-1.000011E+11	3.216007E-13	NaN
135	1.000000	0.338404	7.36636e+06	-45389.1	955.819	-29773.1	0.000000	0.000000	6.338810	0.040118	NaN	0.000000	0.001573	0.001746	28.0943	0.075831	0.001937	39.1566	-9.732263	176.286	0.065825	0.337097	-0.784537	-0.785844	0.040118	39.1566	-0.785305	-2.839973E+10	-1.412637E-12	NaN
135	1.000000	0.380401	7.36636e+06	-45389.1	955.818	-29773.1	0.000000	0.000000	6.380804	-0.013990	NaN	0.000000	0.001601	0.001749	28.0788	0.027698	0.002062	13.432	-50.8704	-3.508909	-0.025764	0.379077	-0.742540	-0.743864	-0.013990	13.432	-0.741759	-7.261295E+9	1.926638E-12	NaN
135	1.000000	0.422450	7.36636e+06	-45389.1	955.818	-29773.1	0.000000	0.000000	6.422855	0.017199	NaN	0.000000	0.001559	0.001700	28.0963	0.056699	0.001898	29.8771	-43.3483	178.21	0.037853	0.421140	-0.700491	-0.701802	0.017199	29.8771	-0.700923	-2.014357E+9	-8.538040E-12	NaN
135	1.000000	0.464474	7.36636e+06	-45389.1	955.818	-29773.1	0.000000	0.000000	6.464879	0.029305	NaN	0.000000	0.001579	0.001715	28.1315	0.081748	0.001924	42.4885	4.594950	-0.968431	0.037790	0.463133	-0.658467	-0.659808	0.029305	42.4885	-0.658984	-5.377225E+8	-5.449868E-11	NaN
135	1.000000	0.506456	7.36636e+06	-45389.1	955.818	-29773.1	0.000000	0.000000	6.506859	-0.029325	NaN	0.000000	0.001650	0.001732	28.0966	0.050684	0.001953	25.9583	127.272	-178.26	0.002368	0.505200	-0.616485	-0.617741	-0.029325	25.9583	-0.615638	-1.366661E+8	2.145710E-10	NaN
135	1.000000	0.548470	7.36636e+06	-45389.1	955.819	-29773.1	0.000000	0.000000	6.548873	-0.029694	NaN	0.000000	0.001574	0.001691	28.081	0.076024	0.002089	36.4004	-177.395	-1.481531	-0.068389	0.547087	-0.574471	-0.575854	-0.029694	36.4004	-0.573859	-3.630317E+7	8.179371E-10	NaN
135	1.000000	0.590509	7.36636e+06	-45389.1	955.818	-29773.1	0.000000	0.000000	6.590912	-0.026896	NaN	0.000000	0.001569	0.001756	28.0942	0.016609	0.001939	8.567353	-43.1909	177.705	-0.025532	0.589129	-0.532432	-0.533812	-0.026896	8.567353	-0.530078	-8.98786e+06	2.992430E-9	NaN
135	1.000000	0.632531	7.36636e+06	-45389.1	955.819	-29773.1	0.000000	0.000000	6.632935	0.001785	NaN	0.000000	0.001658	0.001731	28.1297	0.053989	0.002033	26.5524	-83.7172	-2.171476	0.034438	0.631167	-0.490410	-0.491775	0.001785	26.5524	-0.490460	-2.52247e+06	-7.077604E-10	NaN
135	1.000000	0.674524	7.36636e+06	-45389.1	955.819	-29773.1	0.000000	0.000000	6.674928	-0.009097	NaN	0.000000	0.001599	0.001705	28.0961	0.019897	0.001967	10.1178	25.9327	178.438	0.021061	0.673212	-0.448417	-0.449729	-0.009097	10.1178	-0.447743	-634667	1.433316E-8	NaN
135	1.000000	0.716563	7.36636e+06	-45389.1	955.818	-29773.1	0.000000	0.000000	6.716964	-0.070992	NaN	0.000000	0.001624	0.001709	28.0797	0.014678	0.001965	7.470608	-108.027	-2.537079	-0.000830	0.715187	-0.406379	-0.407754	-0.070992	7.470608	-0.399252	-130412	5.443636E-7	NaN
135	1.000000	0.758592	7.36636e+06	-45389.1	955.819	-29773.1	0.000000	0.000000	6.758995	-0.016617	NaN	0.000000	0.001609	0.001748	28.0966	0.060844	0.001933	31.4687	-106.792	-179.281	-0.035151	0.757233	-0.364349	-0.365708	-0.016617	31.4687	-0.363953	-40639.3	4.088835E-7	NaN
135	1.000000	0.800589	7.36636e+06	-45389.1	955.819	-29773.1	0.000000	0.000000	6.800990	-0.082925	NaN	0.000000	0.001615	0.001694	28.1312	0.104372	0.002078	50.2235	-70.9248	0.310065	-0.031007	0.799229	-0.322352	-0.323713	-0.082925	50.2235	-0.321114	-9661.11	8.583373E-6	NaN
135	1.000000	0.842616	7.36636e+06	-45389.1	955.819	-29773.1	0.000000	0.000000	6.843022	0.053692	NaN	0.000000	0.001593	0.001708	28.1012	0.018263	0.002109	8.659894	-50.9819	176.476	0.056087	0.841345	-0.280325	-0.281596	0.053692	8.659894	-0.284975	-2804.76	-1.914327E-5	NaN
135	1.000000	0.884635	7.36636e+06	-45389.1	955.818	-29773.1	0.000000	0.000000	6.885038	-0.015395	NaN	0.000000	0.001592	0.001688	28.0783	0.060658	0.002008	30.2006	31.6363	-1.453313	0.044919	0.883302	-0.238306	-0.239640	-0.015395	30.2006	-0.237924	-533.444	2.885914E-5	NaN
135	1.000000	0.926644	7.36636e+06	-45389.1	955.819	-29773.1	0.000000	0.000000	6.927048	0.000648	NaN	0.000000	0.001587	0.001725	28.0963	0.034947	0.001969	17.7474	-174.864	176.119	-0.009065	0.925352	-0.196297	-0.197589	0.000648	17.7474	-0.196324	-114.582	-5.651745E-6	NaN
135	1.000000	0.968662	7.36636e+06	-45389.1	955.818	-29773.1	0.000000	0.000000	6.969064	-0.042755	NaN	0.000000	0.001577	0.001750	28.1296	0.040783	0.001970	20.6986	-73.9782	-2.557959	0.001146	0.967280	-0.154279	-0.155661	-0.042755	20.6986	-0.152730	-20.3053	0.002106	NaN
135	1.000000	1.010692	7.36636e+06	-45389.1	955.819	-29773.1	0.000000	0.000000	7.011097	0.033920	NaN	0.000000	0.001526	0.001752	28.1006	0.053537	0.001996	26.8171	105.668	178.534	0.038445	1.009411	-0.112249	-0.113530	0.033920	26.8171	-0.113198	-3.505994	-0.009675	NaN
135	1.000000	1.052676	7.36636e+06	-45389.1	955.818	-29773.1	0.000000	0.000000	7.053080	0.001664	NaN	0.000000	0.001512	0.001710	28.0796	0.103635	0.001915	54.1087	-2.286485	-5.072203	0.032938	1.051341	-0.070266	-0.071601	0.001664	54.1087	-0.070289	-0.347228	-0.004793	NaN
135	1.000000	1.094699	7.36636e+06	-45389.1	955.819	-29773.1	0.000000	0.000000	7.095101	-0.051193	NaN	0.000000	0.001517	0.001690	28.095	0.015522	0.002078	7.469123	-123.416	178.657	-0.047011	1.093449	-0.028242	-0.029493	-0.051193	7.469123	-0.023102	-0.015067	3.397763	NaN
135	2.000000	1.133780	7.36636e+06	-45389.1	955.818	-29773.1	0.000000	0.000000	7.134712	12.8361	NaN	0.000000	0.001542	0.001732	28.1289	11.2423	0.001519	7400.5	6.479636	-13.1694	11.8792	1.133396	0.010839	0.010455	12.8361	7400.5	0.009538	0.008673	1480.05	72603.2
135	2.000000	1.144186	7.36636e+06	-45389.1	955.819	-29773.1	0.000000	0.000000	7.146092	36.5481	NaN	0.000000	0.001588	0.001719	28.1	23.9912	0.001692	14177	3.395481	166.809	35.0131	1.143837	0.021244	0.020896	36.5481	14177	0.019311	0.021471	1702.2	88395.9
135	2.000000	1.154625	7.36636e+06	-45389.1	955.819	-29773.1	0.000000	0.000000	7.157805	67.5514	NaN	0.000000	0.001555	0.001714	28.0774	34.5065	0.001839	18764.3	7.537368	-20.4986	64.8427	1.154330	0.031683	0.031388	67.5514	18764.3	0.028983	0.038663	1747.19	87188.1
135	2.000000	1.165094	7.36636e+06	-45389.1	955.818	-29773.1	0.000000	0.000000	7.169852	105.914	NaN	0.000000	0.001585	0.001717	28.0931	43.1485	0.001704	25317.5	4.219787	160.49	103.479	1.164841	0.042153	0.041899	105.914	25317.5	0.039015	0.061508	1721.95	93267.2
135	2.000000	1.175619	7.36636e+06	-45389.1	955.819	-29773.1	0.000000	0.000000	7.182500	157.586	NaN	0.000000	0.001600	0.001700	28.13	53.5801	0.001696	31598.5	6.682472	-24.1099	154.493	1.175197	0.052677	0.052256	157.586	31598.5	0.048937	0.089156	1767.53	96686.4
135	2.000000	1.186150	7.36636e+06	-45389.1	955.819	-29773.1	0.000000	0.000000	7.195244	211.403	NaN	0.000000	0.001536	0.001741	28.1029	64.8765	0.001804	35955.6	7.313467	154.886	210.928	1.185730	0.063209	0.062789	211.403	35955.6	0.058799	0.121537	1739.42	94229.4
135	2.000000	1.196614	7.36637e+06	-45389.1	955.819	-29773.1	0.000000	0.000000	7.208191	271.801	NaN	0.000000	0.001610	0.001724	28.0788	73.48	0.001759	41775.7	1.773054	-21.1346	271.427	1.196386	0.073673	0.073445	271.801	41775.7	0.068793	0.159213	1707.15	95655
135	2.000000	1.207029	7.36637e+06	-45389.1	955.82	-29773.1	0.000000	0.000000	7.221792	349.32	NaN	0.000000	0.001621	0.001729	28.0931	83.6069	0.001858	45002.5	4.564639	155.147	343.927	1.206652	0.084087	0.083711	349.32	45002.5	0.078266	0.199327	1752.49	92092.9
135	2.000000	1.217636	7.36637e+06	-45389.1	955.819	-29773.1	0.000000	0.000000	7.235580	426.69	NaN	0.000000	0.001629	0.001713	28.1292	93.5816	0.001857	50383.3	5.866705	-26.9339	425.972	1.217235	0.094695	0.094294	426.69	50383.3	0.088343	0.246607	1730.24	92695.2
135	2.000000	1.228027	7.36637e+06	-45389.1	955.819	-29773.1	0.000000	0.000000	7.249587	514.655	NaN	0.000000	0.001620	0.001691	28.1032	102.968	0.001772	58122.9	6.846512	151.563	512.139	1.227671	0.105086	0.104729	514.655	58122.9	0.098445	0.298690	1723.04	97165.1
135	2.000000	1.231012	7.36637e+06	-45389.1	955.819	-29773.1	0.000000	0.000000	7.253811	544.782	NaN	0.000000	0.001618	0.001714	28.091	107.166	0.001817	58969.7	4.921986	153.321	542.915	1.230619	0.108071	0.107678	544.782	58969.7	0.101142	0.313382	1738.4	96242.1