File: remote_trans/data/nanoindenter/0828-1/data/Data_2025-08-06,11h17m57s/2025-07-22_16-23-58_1_262.txt
2025-07-22, 16:23:58, 1
Index	Phase	Displacement	Time	Pos X	Pos Y	Pos Z	Rot A	Rot B	Piezo Z	Force A	Force B	Gripper	Voltage A	Voltage B	Temperature	Amplitude force	Amplitude pos	Stiffness	Phase shift	Phase excitation	Force A raw	Displacement raw	HMax	HMax raw	Real Force	Real Stiffness	Contact Depth	Area	Hardness	Reduced Mod.
[#]	[#]	[um]	[s]	[um]	[um]	[um]	[m°]	[m°]	[um]	[uN]	[uN]	[V]	[V]	[V]	[°C]	[uN]	[um]	[N/m]	[°]	[°]	[uN]	[um]	[um]	[um]	[uN]	[N/m]	[um]	[um^2]	[MPa]	[MPa]
262	1.000000	0.002920	7.36762e+06	-51739.1	955.817	-29751.6	0.000000	0.000000	6.002812	0.021959	NaN	0.000000	0.001632	0.001563	28.0792	0.073719	0.000945	78.0112	-87.4814	-170.388	0.080210	0.001674	-1.077662	-1.078909	0.021959	78.0112	-1.077873	-2.529035E+14	-8.682900E-17	NaN
262	1.000000	0.042866	7.36762e+06	-51739.1	955.82	-29751.6	0.000000	0.000000	6.042759	0.056829	NaN	0.000000	0.001661	0.001572	28.0788	0.062180	0.001963	31.6717	86.379	-166.314	0.039228	0.041551	-1.037716	-1.039032	0.056829	31.6717	-1.039062	-7.609499E+13	-7.468141E-16	NaN
262	1.000000	0.082841	7.36762e+06	-51739.1	955.819	-29751.6	0.000000	0.000000	6.082735	0.065417	NaN	0.000000	0.001617	0.001596	28.0789	0.048663	0.002023	24.0528	137.439	-164.911	0.083426	0.081597	-0.997741	-0.998985	0.065417	24.0528	-0.999781	-2.253281E+13	-2.903180E-15	NaN
262	1.000000	0.122898	7.36762e+06	-51739.1	955.819	-29751.6	0.000000	0.000000	6.122788	-0.016071	NaN	0.000000	0.001524	0.001601	28.0792	0.058651	0.001936	30.302	-122.971	-165.946	0.021286	0.121621	-0.957684	-0.958961	-0.016071	30.302	-0.957286	-6.029536E+12	2.665443E-15	NaN
262	1.000000	0.162906	7.36762e+06	-51739.1	955.819	-29751.6	0.000000	0.000000	6.162797	0.017399	NaN	0.000000	0.001579	0.001682	28.0776	0.037190	0.001948	19.0929	130.235	-162.124	0.056687	0.161640	-0.917677	-0.918942	0.017399	19.0929	-0.918360	-1.799140E+12	-9.670893E-15	NaN
262	1.000000	0.202929	7.36762e+06	-51739.1	955.818	-29751.6	0.000000	0.000000	6.202822	0.036331	NaN	0.000000	0.001659	0.001656	28.0773	0.032253	0.001934	16.6777	179.503	-167.281	0.102230	0.201622	-0.877653	-0.878960	0.036331	16.6777	-0.879287	-5.334128E+11	-6.811058E-14	NaN
262	1.000000	0.242941	7.36762e+06	-51739.1	955.819	-29751.6	0.000000	0.000000	6.242833	0.025357	NaN	0.000000	0.001616	0.001629	28.0774	0.057967	0.001928	30.072	110.963	-164.117	0.031951	0.241615	-0.837641	-0.838967	0.025357	30.072	-0.838273	-1.485589E+11	-1.706880E-13	NaN
262	1.000000	0.282913	7.36762e+06	-51739.1	955.819	-29751.6	0.000000	0.000000	6.282802	-0.029439	NaN	0.000000	0.001618	0.001636	28.0786	0.031025	0.002098	14.7868	-63.8082	-167.474	-0.007149	0.281635	-0.797670	-0.798947	-0.029439	14.7868	-0.796177	-3.989856E+10	7.378512E-13	NaN
262	1.000000	0.322949	7.36762e+06	-51739.1	955.819	-29751.6	0.000000	0.000000	6.322840	0.005255	NaN	0.000000	0.001610	0.001668	28.0786	0.064705	0.001969	32.8536	129.672	-167.375	-0.042371	0.321703	-0.757633	-0.758880	0.005255	32.8536	-0.757753	-1.198774E+10	-4.383853E-13	NaN
262	1.000000	0.362997	7.36762e+06	-51739.1	955.818	-29751.6	0.000000	0.000000	6.362888	0.002643	NaN	0.000000	0.001589	0.001687	28.0784	0.043805	0.002081	21.0499	-33.1019	-163.436	0.047694	0.361664	-0.717586	-0.718918	0.002643	21.0499	-0.717680	-3.410570E+9	-7.750451E-13	NaN
262	1.000000	0.403007	7.36762e+06	-51739.1	955.818	-29751.6	0.000000	0.000000	6.402900	0.050300	NaN	0.000000	0.001597	0.001698	28.0784	0.069889	0.002154	32.4388	-157.937	-166.129	0.054814	0.401689	-0.677575	-0.678893	0.050300	32.4388	-0.678738	-1.002185E+9	-5.019056E-11	NaN
262	1.000000	0.442995	7.36762e+06	-51739.1	955.819	-29751.6	0.000000	0.000000	6.442890	0.106391	NaN	0.000000	0.001549	0.001695	28.0774	0.077201	0.002062	37.4365	-120.527	-167.366	0.044411	0.441702	-0.637587	-0.638880	0.106391	37.4365	-0.639719	-2.927046E+8	-3.634771E-10	NaN
262	1.000000	0.483039	7.36762e+06	-51739.1	955.818	-29751.6	0.000000	0.000000	6.482931	0.008129	NaN	0.000000	0.001576	0.001690	28.0776	0.079527	0.001978	40.2084	88.3726	-166.603	-0.034583	0.481715	-0.597543	-0.598867	0.008129	40.2084	-0.597694	-7.739350E+7	-1.050350E-10	NaN
262	1.000000	0.523049	7.36762e+06	-51739.1	955.819	-29751.6	0.000000	0.000000	6.522941	0.032749	NaN	0.000000	0.001565	0.001673	28.0786	0.098695	0.002083	47.3812	26.1287	-166.584	-0.011207	0.521782	-0.557533	-0.558800	0.032749	47.3812	-0.558052	-2.194928E+7	-1.492032E-9	NaN
262	1.000000	0.563087	7.36762e+06	-51739.1	955.819	-29751.6	0.000000	0.000000	6.562975	-0.052948	NaN	0.000000	0.001594	0.001654	28.0788	0.070424	0.002076	33.9212	-143.354	-163.163	0.005715	0.561808	-0.517496	-0.518775	-0.052948	33.9212	-0.516325	-5.78727e+06	9.149079E-9	NaN
262	1.000000	0.603116	7.36762e+06	-51739.1	955.819	-29751.6	0.000000	0.000000	6.603006	-0.032635	NaN	0.000000	0.001630	0.001684	28.0788	0.144714	0.001948	74.2787	47.8731	-167.503	-0.065286	0.601766	-0.477466	-0.478816	-0.032635	74.2787	-0.477137	-1.64223e+06	1.987214E-8	NaN
262	1.000000	0.643113	7.36762e+06	-51739.1	955.818	-29751.6	0.000000	0.000000	6.643007	0.072275	NaN	0.000000	0.001638	0.001666	28.079	0.043706	0.002030	21.5313	-131.401	-166.649	0.076864	0.641794	-0.437469	-0.438789	0.072275	21.5313	-0.439987	-493377	-1.464895E-7	NaN
262	1.000000	0.683126	7.36762e+06	-51739.1	955.818	-29751.6	0.000000	0.000000	6.683016	-0.020704	NaN	0.000000	0.001660	0.001680	28.0777	0.081412	0.002063	39.455	-143.509	-162.142	-0.009177	0.681790	-0.397456	-0.398792	-0.020704	39.455	-0.397063	-121363	1.705968E-7	NaN
262	1.000000	0.723160	7.36762e+06	-51739.1	955.818	-29751.6	0.000000	0.000000	6.723051	0.015233	NaN	0.000000	0.001647	0.001675	28.0778	0.061358	0.001835	33.433	146.699	-166.364	-0.084884	0.721786	-0.357422	-0.358796	0.015233	33.433	-0.357764	-33075.9	-4.605373E-7	NaN
262	1.000000	0.763153	7.36762e+06	-51739.1	955.818	-29751.6	0.000000	0.000000	6.763043	-0.026089	NaN	0.000000	0.001589	0.001689	28.0777	0.027076	0.002010	13.4725	-115.69	-165.493	-0.074878	0.761843	-0.317429	-0.318739	-0.026089	13.4725	-0.315977	-8116.24	3.214379E-6	NaN
262	1.000000	0.803166	7.36762e+06	-51739.1	955.818	-29751.6	0.000000	0.000000	6.803055	-0.032031	NaN	0.000000	0.001549	0.001686	28.0776	0.058611	0.001990	29.4556	79.085	-166.853	0.035973	0.801825	-0.277416	-0.278757	-0.032031	29.4556	-0.276601	-2097.13	1.527368E-5	NaN
262	1.000000	0.843180	7.36762e+06	-51739.1	955.819	-29751.6	0.000000	0.000000	6.843069	-0.041553	NaN	0.000000	0.001570	0.001669	28.0787	0.111719	0.002063	54.1485	-63.4569	-164.089	0.016052	0.841898	-0.237403	-0.238685	-0.041553	54.1485	-0.236827	-512.757	8.103848E-5	NaN
262	1.000000	0.883208	7.36762e+06	-51739.1	955.819	-29751.6	0.000000	0.000000	6.883097	-0.063401	NaN	0.000000	0.001536	0.001701	28.0787	0.027916	0.002002	13.9451	-121.999	-165.316	-0.008539	0.881918	-0.197374	-0.198665	-0.063401	13.9451	-0.193964	-104.719	0.000605	NaN
262	1.000000	0.923216	7.36762e+06	-51739.1	955.819	-29751.6	0.000000	0.000000	6.923107	0.005664	NaN	0.000000	0.001549	0.001676	28.0785	0.037321	0.002093	17.8295	-138.615	-163.245	-0.091229	0.921907	-0.157366	-0.158675	0.005664	17.8295	-0.157605	-24.8482	-0.000228	NaN
262	1.000000	0.963238	7.36762e+06	-51739.1	955.818	-29751.6	0.000000	0.000000	6.963128	-0.008006	NaN	0.000000	0.001576	0.001708	28.0775	0.053259	0.001983	26.8569	178.384	-164.483	0.032124	0.961946	-0.117345	-0.118636	-0.008006	26.8569	-0.117121	-4.223109	0.001896	NaN
262	1.000000	1.003267	7.36762e+06	-51739.1	955.819	-29751.6	0.000000	0.000000	7.003158	0.000875	NaN	0.000000	0.001546	0.001684	28.0777	0.132276	0.002009	65.84	-130.816	-161.58	0.026879	1.001937	-0.077315	-0.078645	0.000875	65.84	-0.077325	-0.529904	-0.001651	NaN
262	1.000000	1.043262	7.36762e+06	-51739.1	955.818	-29751.6	0.000000	0.000000	7.043154	0.010853	NaN	0.000000	0.001532	0.001691	28.0777	0.054881	0.001989	27.5888	-111.287	-168.798	-0.008100	1.042027	-0.037320	-0.038555	0.010853	27.5888	-0.037615	-0.038309	-0.283310	NaN
262	1.000000	1.083291	7.36762e+06	-51739.1	955.819	-29751.6	0.000000	0.000000	7.083221	0.957117	NaN	0.000000	0.001539	0.001674	28.0776	1.660068	0.001875	885.4	13.8412	-168.129	0.402891	1.081956	0.002708	0.001374	0.957117	885.4	0.001898	0.001472	650.149	21083.2
262	2.000000	1.098777	7.36762e+06	-51739.1	955.82	-29751.6	0.000000	0.000000	7.099463	19.3431	NaN	0.000000	0.001540	0.001689	28.0787	18.0561	0.001982	9110.1	8.114791	-175.781	18.2337	1.098523	0.018194	0.017941	19.3431	9110.1	0.016602	0.017481	1106.51	62952.4
262	2.000000	1.108814	7.36762e+06	-51739.1	955.82	-29751.6	0.000000	0.000000	7.110461	42.6926	NaN	0.000000	0.001612	0.001677	28.0788	28.2577	0.001756	16092	0.358048	-175.007	42.9136	1.108608	0.028232	0.028026	42.6926	16092	0.026242	0.033314	1281.53	80551
262	2.000000	1.118734	7.36762e+06	-51739.1	955.82	-29751.6	0.000000	0.000000	7.121745	75.8727	NaN	0.000000	0.001603	0.001654	28.0789	37.9424	0.001736	21857.8	7.367415	175.76	74.0322	1.118461	0.038152	0.037879	75.8727	21857.8	0.035548	0.053031	1430.73	86719.5
262	2.000000	1.128801	7.36762e+06	-51739.1	955.82	-29751.6	0.000000	0.000000	7.133212	109.903	NaN	0.000000	0.001623	0.001649	28.0777	46.609	0.001717	27149.6	4.736487	176.424	111.845	1.128469	0.048219	0.047887	109.903	27149.6	0.045183	0.078106	1407.09	88755.1
262	2.000000	1.138698	7.36762e+06	-51739.1	955.819	-29751.6	0.000000	0.000000	7.145263	162.283	NaN	0.000000	0.001628	0.001674	28.0774	56.9137	0.001753	32465.5	5.659482	174.317	160.065	1.138318	0.058116	0.057736	162.283	32465.5	0.054367	0.106387	1525.4	90939.2
262	2.000000	1.148781	7.36762e+06	-51739.1	955.82	-29751.6	0.000000	0.000000	7.157697	219.468	NaN	0.000000	0.001599	0.001696	28.0775	67.3695	0.001745	38612.4	4.495241	173.569	222.952	1.148457	0.068198	0.067874	219.468	38612.4	0.063935	0.140297	1564.31	94183.7
262	2.000000	1.158619	7.36762e+06	-51739.1	955.819	-29751.6	0.000000	0.000000	7.169889	276.696	NaN	0.000000	0.001574	0.001679	28.0777	76.2733	0.001786	42696	4.740696	172.342	271.299	1.158408	0.078036	0.077825	276.696	42696	0.073176	0.177247	1561.08	92655.6
262	2.000000	1.168685	7.36762e+06	-51739.1	955.821	-29751.6	0.000000	0.000000	7.182783	345.476	NaN	0.000000	0.001638	0.001688	28.0789	86.5268	0.001735	49861.2	9.588897	166.44	344.887	1.168502	0.088102	0.087919	345.476	49861.2	0.082906	0.220513	1566.69	97010.7
262	2.000000	1.178664	7.36762e+06	-51739.1	955.82	-29751.6	0.000000	0.000000	7.195858	420.761	NaN	0.000000	0.001637	0.001677	28.0792	94.7673	0.001817	52155.3	2.326713	173.387	418.482	1.178591	0.098081	0.098009	420.761	52155.3	0.092031	0.265078	1587.31	92551.7
262	2.000000	1.188799	7.36762e+06	-51739.1	955.821	-29751.6	0.000000	0.000000	7.209516	506.407	NaN	0.000000	0.001598	0.001720	28.0788	104.842	0.001732	60538.3	4.627749	170.664	514.526	1.188461	0.108217	0.107879	506.407	60538.3	0.101943	0.317806	1593.45	98112.1
262	2.000000	1.189084	7.36762e+06	-51739.1	955.82	-29751.6	0.000000	0.000000	7.210016	511.631	NaN	0.000000	0.001618	0.001715	28.0791	104.34	0.001826	57134.4	1.358033	-5.879407	503.803	1.188892	0.108502	0.108310	511.631	57134.4	0.101786	0.316936	1614.3	92722.5