File: remote_trans/data/nanoindenter/0828-1/data/Data_2025-08-06,11h17m57s/2025-07-22_16-23-58_1_1208.txt
2025-07-22, 16:23:58, 1
Index	Phase	Displacement	Time	Pos X	Pos Y	Pos Z	Rot A	Rot B	Piezo Z	Force A	Force B	Gripper	Voltage A	Voltage B	Temperature	Amplitude force	Amplitude pos	Stiffness	Phase shift	Phase excitation	Force A raw	Displacement raw	HMax	HMax raw	Real Force	Real Stiffness	Contact Depth	Area	Hardness	Reduced Mod.
[#]	[#]	[um]	[s]	[um]	[um]	[um]	[m°]	[m°]	[um]	[uN]	[uN]	[V]	[V]	[V]	[°C]	[uN]	[um]	[N/m]	[°]	[°]	[uN]	[um]	[um]	[um]	[uN]	[N/m]	[um]	[um^2]	[MPa]	[MPa]
1208	1.000000	0.002632	7.37685e+06	-55189.1	1105.82	-29739.7	0.000000	0.000000	6.002802	0.023705	NaN	0.000000	0.001558	0.001742	28.083	0.069458	0.000985	70.4999	-64.0293	-164.85	0.049295	0.001344	-1.270277	-1.271565	0.023705	70.4999	-1.270530	-9.648799E+16	-2.456732E-19	NaN
1208	1.000000	0.048562	7.37686e+06	-55189.1	1105.82	-29739.7	0.000000	0.000000	6.048731	-0.019047	NaN	0.000000	0.001555	0.001756	28.0817	0.099353	0.001830	54.277	155.631	14.5707	-0.029249	0.047199	-1.224347	-1.225711	-0.019047	54.277	-1.224084	-2.307642E+16	8.253701E-19	NaN
1208	1.000000	0.094617	7.37686e+06	-55189.1	1105.82	-29739.7	0.000000	0.000000	6.094787	0.016521	NaN	0.000000	0.001540	0.001743	28.0815	0.064559	0.002069	31.2093	-12.7464	-165.025	-0.014822	0.093272	-1.178292	-1.179637	0.016521	31.2093	-1.178689	-5.692634E+15	-2.902112E-18	NaN
1208	1.000000	0.140589	7.37686e+06	-55189.1	1105.82	-29739.7	0.000000	0.000000	6.140759	-0.007901	NaN	0.000000	0.001593	0.001735	28.082	0.032940	0.001981	16.6322	-158.002	7.923583	0.015015	0.139199	-1.132320	-1.133710	-0.007901	16.6322	-1.131964	-1.345739E+15	5.871081E-18	NaN
1208	1.000000	0.186607	7.37686e+06	-55189.1	1105.82	-29739.7	0.000000	0.000000	6.186779	0.056600	NaN	0.000000	0.001586	0.001759	28.0832	0.093215	0.002013	46.3005	-97.8767	-168.573	0.035730	0.185299	-1.086302	-1.087611	0.056600	46.3005	-1.087219	-3.376511E+14	-1.676279E-16	NaN
1208	1.000000	0.232648	7.37686e+06	-55189.1	1105.82	-29739.7	0.000000	0.000000	6.232820	0.039615	NaN	0.000000	0.001581	0.001734	28.083	0.127089	0.002046	62.111	155.93	11.3312	-0.083848	0.231282	-1.040261	-1.041627	0.039615	62.111	-1.040739	-8.015096E+13	-4.942494E-16	NaN
1208	1.000000	0.278655	7.37686e+06	-55189.1	1105.82	-29739.7	0.000000	0.000000	6.278828	0.064334	NaN	0.000000	0.001549	0.001735	28.0832	0.074084	0.001824	40.6211	-85.2735	-166.094	0.003140	0.277338	-0.994254	-0.995572	0.064334	40.6211	-0.995442	-1.969677E+13	-3.266218E-15	NaN
1208	1.000000	0.324695	7.37686e+06	-55189.1	1105.82	-29739.7	0.000000	0.000000	6.324867	0.049980	NaN	0.000000	0.001581	0.001761	28.0817	0.079024	0.002076	38.0655	68.842	15.0862	0.030027	0.323310	-0.948214	-0.949599	0.049980	38.0655	-0.949199	-4.690549E+12	-1.065547E-14	NaN
1208	1.000000	0.370688	7.37686e+06	-55189.1	1105.82	-29739.7	0.000000	0.000000	6.370859	0.027070	NaN	0.000000	0.001577	0.001769	28.0821	0.043073	0.001995	21.5947	90.3262	-165.1	0.049027	0.369447	-0.902221	-0.903462	0.027070	21.5947	-0.903161	-1.121443E+12	-2.413824E-14	NaN
1208	1.000000	0.416778	7.37686e+06	-55189.1	1105.82	-29739.7	0.000000	0.000000	6.416949	0.036345	NaN	0.000000	0.001550	0.001773	28.082	0.021048	0.001971	10.6785	7.372448	12.3032	0.125388	0.415396	-0.856131	-0.857513	0.036345	10.6785	-0.858684	-2.807438E+11	-1.294590E-13	NaN
1208	1.000000	0.462754	7.37686e+06	-55189.1	1105.82	-29739.7	0.000000	0.000000	6.462923	0.002177	NaN	0.000000	0.001562	0.001769	28.083	0.107054	0.002043	52.4037	118.239	-166.154	0.050386	0.461439	-0.810156	-0.811470	0.002177	52.4037	-0.810187	-6.181682E+10	-3.521923E-14	NaN
1208	1.000000	0.508763	7.37686e+06	-55189.1	1105.82	-29739.7	0.000000	0.000000	6.508934	0.038796	NaN	0.000000	0.001579	0.001753	28.0829	0.026306	0.002096	12.5496	-154.673	13.483	0.076190	0.507451	-0.764147	-0.765458	0.038796	12.5496	-0.766465	-1.574856E+10	-2.463474E-12	NaN
1208	1.000000	0.554783	7.37686e+06	-55189.1	1105.82	-29739.7	0.000000	0.000000	6.554953	0.012111	NaN	0.000000	0.001564	0.001755	28.0826	0.106006	0.001940	54.6399	-124.192	-162.797	0.000334	0.553423	-0.718127	-0.719486	0.012111	54.6399	-0.718293	-3.476894E+9	-3.483317E-12	NaN
1208	1.000000	0.600850	7.37686e+06	-55189.1	1105.82	-29739.7	0.000000	0.000000	6.601022	0.062612	NaN	0.000000	0.001515	0.001766	28.0817	0.065413	0.001904	34.3639	28.5963	15.3289	0.031944	0.599499	-0.672060	-0.673410	0.062612	34.3639	-0.673426	-8.477653E+8	-7.385554E-11	NaN
1208	1.000000	0.646794	7.37686e+06	-55189.1	1105.82	-29739.7	0.000000	0.000000	6.646964	0.014599	NaN	0.000000	0.001602	0.001750	28.0818	0.062568	0.001952	32.0493	-18.0175	-169.9	0.003758	0.645497	-0.626116	-0.627412	0.014599	32.0493	-0.626457	-1.924701E+8	-7.585114E-11	NaN
1208	1.000000	0.692848	7.37686e+06	-55189.1	1105.82	-29739.7	0.000000	0.000000	6.693021	0.090549	NaN	0.000000	0.001618	0.001713	28.0817	0.104348	0.001906	54.7424	110.696	11.5672	0.078059	0.691561	-0.580062	-0.581348	0.090549	54.7424	-0.581302	-4.599340E+7	-1.968728E-9	NaN
1208	1.000000	0.738868	7.37686e+06	-55189.1	1105.82	-29739.7	0.000000	0.000000	6.739040	0.057519	NaN	0.000000	0.001633	0.001762	28.0831	0.118288	0.002045	57.8337	-46.6596	-167.902	-0.001232	0.737532	-0.534042	-0.535378	0.057519	57.8337	-0.534788	-1.044823E+7	-5.505095E-9	NaN
1208	1.000000	0.784897	7.37686e+06	-55189.1	1105.82	-29739.7	0.000000	0.000000	6.785069	0.046672	NaN	0.000000	0.001592	0.001715	28.083	0.147330	0.001904	77.3659	-102.756	13.9003	0.033792	0.783494	-0.488012	-0.489415	0.046672	77.3659	-0.488464	-2.36555e+06	-1.972993E-8	NaN
1208	1.000000	0.830902	7.37686e+06	-55189.1	1105.82	-29739.7	0.000000	0.000000	6.831072	0.013524	NaN	0.000000	0.001598	0.001742	28.083	0.103304	0.001946	53.0718	11.3756	-166.092	-0.064002	0.829594	-0.442007	-0.443316	0.013524	53.0718	-0.442199	-530134	-2.550974E-8	NaN
1208	1.000000	0.876908	7.37686e+06	-55189.1	1105.82	-29739.7	0.000000	0.000000	6.877078	0.002092	NaN	0.000000	0.001571	0.001751	28.0817	0.062057	0.001964	31.6016	5.167972	19.2255	0.021113	0.875523	-0.396001	-0.397387	0.002092	31.6016	-0.396051	-117394	-1.782445E-8	NaN
1208	1.000000	0.922946	7.37686e+06	-55189.1	1105.82	-29739.7	0.000000	0.000000	6.923115	-0.017161	NaN	0.000000	0.001559	0.001769	28.0819	0.042603	0.001943	21.9284	62.9911	-169.657	0.029206	0.921625	-0.349964	-0.351284	-0.017161	21.9284	-0.349377	-25000.9	6.864312E-7	NaN
1208	1.000000	0.968963	7.37686e+06	-55189.1	1105.82	-29739.7	0.000000	0.000000	6.969130	-0.054740	NaN	0.000000	0.001543	0.001737	28.082	0.057415	0.001935	29.6675	-170.752	15.6856	-0.037575	0.967569	-0.303946	-0.305341	-0.054740	29.6675	-0.302562	-5137.5	1.065505E-5	NaN
1208	1.000000	1.014976	7.37686e+06	-55189.1	1105.82	-29739.7	0.000000	0.000000	7.015149	0.060782	NaN	0.000000	0.001553	0.001739	28.0832	0.096917	0.002020	47.9701	47.5708	-168.422	0.013566	1.013689	-0.257933	-0.259220	0.060782	47.9701	-0.258883	-1126.66	-5.394870E-5	NaN
1208	1.000000	1.061008	7.37686e+06	-55189.1	1105.82	-29739.7	0.000000	0.000000	7.061180	0.061049	NaN	0.000000	0.001561	0.001735	28.0834	0.073457	0.002208	33.2654	107.248	14.1016	0.077362	1.059699	-0.211901	-0.213211	0.061049	33.2654	-0.213277	-216.659	-0.000282	NaN
1208	1.000000	1.107022	7.37686e+06	-55189.1	1105.82	-29739.7	0.000000	0.000000	7.107196	0.099528	NaN	0.000000	0.001589	0.001722	28.0832	0.085264	0.002043	41.7252	55.2308	-162.501	0.106899	1.105696	-0.165887	-0.167213	0.099528	41.7252	-0.167676	-37.4248	-0.002659	NaN
1208	1.000000	1.153050	7.37686e+06	-55189.1	1105.82	-29739.7	0.000000	0.000000	7.153223	0.083171	NaN	0.000000	0.001563	0.001778	28.0822	0.040763	0.002061	19.78	100.991	13.5532	0.059950	1.151656	-0.119859	-0.121254	0.083171	19.78	-0.123013	-5.552898	-0.014978	NaN
1208	1.000000	1.199070	7.37686e+06	-55189.1	1105.82	-29739.7	0.000000	0.000000	7.199238	-0.024415	NaN	0.000000	0.001557	0.001773	28.082	0.035992	0.002182	16.4927	170.629	-169.946	0.014492	1.197729	-0.073840	-0.075180	-0.024415	16.4927	-0.072729	-0.403009	0.060582	NaN
1208	1.000000	1.245076	7.37686e+06	-55189.1	1105.82	-29739.7	0.000000	0.000000	7.245314	1.653262	NaN	0.000000	0.001519	0.001778	28.0821	0.930571	0.001783	521.847	15.5725	10.3744	1.221185	1.243685	-0.027833	-0.029224	1.653262	521.847	-0.030209	-0.023324	-70.8832	NaN
1208	2.000000	1.275648	7.37686e+06	-55189.1	1105.82	-29739.7	0.000000	0.000000	7.276367	13.3549	NaN	0.000000	0.001633	0.001750	28.0831	5.999231	0.001802	3328.58	8.622879	-171.203	13.0503	1.275266	0.002739	0.002356	13.3549	3328.58	-0.000270	-0.000201	-66411.3	NaN
1208	2.000000	1.287110	7.37686e+06	-55189.1	1105.82	-29739.7	0.000000	0.000000	7.288443	28.2639	NaN	0.000000	0.001599	0.001796	28.0831	9.489671	0.002102	4515.45	9.350423	7.026024	27.5636	1.286746	0.014201	0.013837	28.2639	4515.45	0.009507	0.008638	3271.91	44387.3
1208	2.000000	1.298563	7.37686e+06	-55189.1	1105.82	-29739.7	0.000000	0.000000	7.300462	42.0394	NaN	0.000000	0.001588	0.001752	28.0844	11.5959	0.002040	5684.07	8.423972	-173.005	42.3804	1.298242	0.025654	0.025333	42.0394	5684.07	0.020107	0.022710	1851.12	34460.5
1208	2.000000	1.310038	7.37686e+06	-55189.1	1105.82	-29739.7	0.000000	0.000000	7.312676	60.0049	NaN	0.000000	0.001615	0.001724	28.0824	13.5941	0.002027	6707.85	7.912493	5.896054	58.8375	1.309719	0.037128	0.036809	60.0049	6707.85	0.030419	0.041617	1441.82	30041.3
1208	2.000000	1.321521	7.37686e+06	-55189.1	1105.82	-29739.7	0.000000	0.000000	7.325120	83.3672	NaN	0.000000	0.001580	0.001724	28.082	16.0563	0.001882	8533.17	7.962175	-178.197	82.5973	1.321180	0.048612	0.048271	83.3672	8533.17	0.041284	0.067390	1237.09	30032.2
1208	2.000000	1.333021	7.37686e+06	-55189.1	1105.82	-29739.7	0.000000	0.000000	7.337555	106.107	NaN	0.000000	0.001597	0.001753	28.0828	18.6579	0.001971	9465.23	11.67	-2.093632	105.292	1.332660	0.060112	0.059750	106.107	9465.23	0.051704	0.097753	1085.47	27659.3
1208	2.000000	1.344492	7.37686e+06	-55189.1	1105.82	-29739.7	0.000000	0.000000	7.350102	132.238	NaN	0.000000	0.001547	0.001734	28.0833	20.697	0.001975	10480.8	9.101688	-179.958	131.664	1.344143	0.071583	0.071234	132.238	10480.8	0.062120	0.133520	990.397	26205.6
1208	2.000000	1.356017	7.37686e+06	-55189.1	1105.82	-29739.7	0.000000	0.000000	7.362771	160.072	NaN	0.000000	0.001575	0.001729	28.0835	22.5455	0.001970	11442.3	6.405310	1.995659	159.401	1.355632	0.083107	0.082723	160.072	11442.3	0.072615	0.174889	915.277	24998
1208	2.000000	1.367440	7.37686e+06	-55189.1	1105.82	-29739.7	0.000000	0.000000	7.375402	189.427	NaN	0.000000	0.001583	0.001732	28.0833	24.6476	0.001789	13779.9	5.818888	179.93	188.773	1.367184	0.094531	0.094274	189.427	13779.9	0.084221	0.226699	835.59	26442
1208	2.000000	1.368978	7.37686e+06	-55189.1	1105.82	-29739.7	0.000000	0.000000	7.377131	194.057	NaN	0.000000	0.001609	0.001742	28.0831	25.2259	0.001881	13407.7	9.293364	-3.082868	192.966	1.368622	0.096069	0.095713	194.057	13407.7	0.085214	0.231423	838.537	25463.7