File: remote_trans/data/nanoindenter/0828-1/data/Data_2025-08-06,11h17m57s/2025-07-22_16-23-58_1_546.txt
2025-07-22, 16:23:58, 1
Index	Phase	Displacement	Time	Pos X	Pos Y	Pos Z	Rot A	Rot B	Piezo Z	Force A	Force B	Gripper	Voltage A	Voltage B	Temperature	Amplitude force	Amplitude pos	Stiffness	Phase shift	Phase excitation	Force A raw	Displacement raw	HMax	HMax raw	Real Force	Real Stiffness	Contact Depth	Area	Hardness	Reduced Mod.
[#]	[#]	[um]	[s]	[um]	[um]	[um]	[m°]	[m°]	[um]	[uN]	[uN]	[V]	[V]	[V]	[°C]	[uN]	[um]	[N/m]	[°]	[°]	[uN]	[um]	[um]	[um]	[uN]	[N/m]	[um]	[um^2]	[MPa]	[MPa]
546	1.000000	0.002441	7.37039e+06	-49789.1	1005.82	-29757.8	0.000000	0.000000	6.002801	0.024016	NaN	0.000000	0.001612	0.001707	28.0808	0.091910	0.001016	90.4197	-42.1914	-164.522	0.017672	0.001169	-1.056772	-1.058044	0.024016	90.4197	-1.056971	-1.324690E+14	-1.812970E-16	NaN
546	1.000000	0.042419	7.37039e+06	-49789.1	1005.82	-29757.8	0.000000	0.000000	6.042779	0.006670	NaN	0.000000	0.001626	0.001755	28.0809	0.073760	0.001881	39.2062	111.094	-168.069	0.024649	0.041081	-1.016793	-1.018132	0.006670	39.2062	-1.016921	-3.832844E+13	-1.740139E-16	NaN
546	1.000000	0.082414	7.37039e+06	-49789.1	1005.82	-29757.8	0.000000	0.000000	6.082771	-0.037824	NaN	0.000000	0.001609	0.001695	28.0806	0.088549	0.001890	46.8541	127.644	-165.304	-0.106818	0.081060	-0.976799	-0.978153	-0.037824	46.8541	-0.976194	-1.084238E+13	3.488577E-15	NaN
546	1.000000	0.122421	7.37039e+06	-49789.1	1005.82	-29757.8	0.000000	0.000000	6.122777	-0.076844	NaN	0.000000	0.001643	0.001735	28.0817	0.027571	0.002066	13.3427	117.793	-164.758	-0.104398	0.121123	-0.936792	-0.938089	-0.076844	13.3427	-0.932473	-2.789759E+12	2.754516E-14	NaN
546	1.000000	0.162444	7.37039e+06	-49789.1	1005.82	-29757.8	0.000000	0.000000	6.162802	-0.051600	NaN	0.000000	0.001636	0.001733	28.0818	0.094747	0.002206	42.9564	-90.8848	-163.468	0.008089	0.161140	-0.896768	-0.898073	-0.051600	42.9564	-0.895867	-8.937605E+11	5.773354E-14	NaN
546	1.000000	0.202444	7.37039e+06	-49789.1	1005.82	-29757.8	0.000000	0.000000	6.202808	0.095576	NaN	0.000000	0.001627	0.001726	28.0816	0.054838	0.001972	27.8076	-168.053	-162.96	0.008102	0.201146	-0.856768	-0.858067	0.095576	27.8076	-0.859346	-2.865963E+11	-3.334880E-13	NaN
546	1.000000	0.242464	7.37039e+06	-49789.1	1005.82	-29757.8	0.000000	0.000000	6.242821	-0.050038	NaN	0.000000	0.001622	0.001758	28.0803	0.076857	0.001978	38.8462	-43.1552	-166.601	-0.017222	0.241169	-0.816748	-0.818044	-0.050038	38.8462	-0.815782	-7.362263E+10	6.796523E-13	NaN
546	1.000000	0.282504	7.37039e+06	-49789.1	1005.82	-29757.8	0.000000	0.000000	6.282859	-0.100870	NaN	0.000000	0.001714	0.001717	28.0807	0.056778	0.002111	26.8914	-88.5564	-165.082	-0.038925	0.281197	-0.776709	-0.778016	-0.100870	26.8914	-0.773896	-1.987317E+10	5.075712E-12	NaN
546	1.000000	0.322517	7.37039e+06	-49789.1	1005.82	-29757.8	0.000000	0.000000	6.322875	-0.016259	NaN	0.000000	0.001733	0.001741	28.0806	0.096655	0.001984	48.7104	128.676	-165.873	0.056055	0.321197	-0.736696	-0.738016	-0.016259	48.7104	-0.736446	-6.146629E+9	2.645226E-12	NaN
546	1.000000	0.362498	7.37039e+06	-49789.1	1005.82	-29757.8	0.000000	0.000000	6.362858	0.009452	NaN	0.000000	0.001726	0.001780	28.0805	0.094571	0.001935	48.8841	13.3646	-163.724	0.004704	0.361223	-0.696715	-0.697990	0.009452	48.8841	-0.696860	-1.772733E+9	-5.331605E-12	NaN
546	1.000000	0.402537	7.37039e+06	-49789.1	1005.82	-29757.8	0.000000	0.000000	6.402897	0.007196	NaN	0.000000	0.001667	0.001727	28.0819	0.037908	0.002027	18.7018	99.422	-160.781	0.007363	0.401235	-0.656675	-0.657978	0.007196	18.7018	-0.656964	-5.045180E+8	-1.426352E-11	NaN
546	1.000000	0.442574	7.37039e+06	-49789.1	1005.82	-29757.8	0.000000	0.000000	6.442934	0.009835	NaN	0.000000	0.001626	0.001740	28.0822	0.152386	0.002112	72.1551	-103.082	-167.777	0.072460	0.441275	-0.616639	-0.617937	0.009835	72.1551	-0.616741	-1.415237E+8	-6.949245E-11	NaN
546	1.000000	0.482575	7.37039e+06	-49789.1	1005.82	-29757.8	0.000000	0.000000	6.482936	0.030705	NaN	0.000000	0.001624	0.001716	28.0824	0.103853	0.001952	53.2034	-116.592	-165.099	-0.011349	0.481322	-0.576637	-0.577890	0.030705	53.2034	-0.577070	-4.020541E+7	-7.637034E-10	NaN
546	1.000000	0.522602	7.37039e+06	-49789.1	1005.82	-29757.8	0.000000	0.000000	6.522959	-0.059370	NaN	0.000000	0.001629	0.001749	28.0807	0.034620	0.002031	17.042	86.6194	-168.362	-0.018674	0.521260	-0.536610	-0.537953	-0.059370	17.042	-0.533998	-1.018773E+7	5.827631E-9	NaN
546	1.000000	0.562616	7.37039e+06	-49789.1	1005.82	-29757.8	0.000000	0.000000	6.562981	0.128101	NaN	0.000000	0.001641	0.001747	28.0805	0.114449	0.001916	59.7403	-7.784020	-162.841	0.030642	0.561277	-0.496596	-0.497936	0.128101	59.7403	-0.498205	-3.23568e+06	-3.958998E-8	NaN
546	1.000000	0.602608	7.37039e+06	-49789.1	1005.82	-29757.8	0.000000	0.000000	6.602970	0.055175	NaN	0.000000	0.001601	0.001740	28.0805	0.042476	0.001920	22.1203	10.3273	-162.668	0.094454	0.601301	-0.456605	-0.457912	0.055175	22.1203	-0.458475	-898645	-6.139798E-8	NaN
546	1.000000	0.642653	7.37039e+06	-49789.1	1005.82	-29757.8	0.000000	0.000000	6.643009	-0.086784	NaN	0.000000	0.001652	0.001733	28.0805	0.033572	0.001971	17.0332	-25.9298	-163.612	-0.122577	0.641333	-0.416559	-0.417880	-0.086784	17.0332	-0.412738	-202920	4.276757E-7	NaN
546	1.000000	0.682666	7.37039e+06	-49789.1	1005.82	-29757.8	0.000000	0.000000	6.683025	0.005569	NaN	0.000000	0.001612	0.001751	28.0818	0.078400	0.002054	38.1662	107.759	-163.954	-0.015783	0.681333	-0.376547	-0.377879	0.005569	38.1662	-0.376656	-61926.6	-8.993347E-8	NaN
546	1.000000	0.722664	7.37039e+06	-49789.1	1005.82	-29757.8	0.000000	0.000000	6.723024	0.018887	NaN	0.000000	0.001617	0.001833	28.0818	0.022606	0.002075	10.8969	160.632	-167.31	-0.037885	0.721365	-0.336549	-0.337848	0.018887	10.8969	-0.337849	-16989.6	-1.111670E-6	NaN
546	1.000000	0.762697	7.37039e+06	-49789.1	1005.82	-29757.8	0.000000	0.000000	6.763055	-0.048806	NaN	0.000000	0.001559	0.001749	28.0819	0.081731	0.002113	38.6848	58.2762	-166.29	0.032284	0.761388	-0.296515	-0.297824	-0.048806	38.6848	-0.295569	-4041.91	1.207508E-5	NaN
546	1.000000	0.802691	7.37039e+06	-49789.1	1005.82	-29757.8	0.000000	0.000000	6.803050	-0.023539	NaN	0.000000	0.001649	0.001784	28.0806	0.040608	0.002044	19.866	-57.968	-163.97	0.003175	0.801419	-0.256521	-0.257793	-0.023539	19.866	-0.255633	-1004.28	2.343843E-5	NaN
546	1.000000	0.842727	7.37039e+06	-49789.1	1005.82	-29757.8	0.000000	0.000000	6.843086	-0.013469	NaN	0.000000	0.001592	0.001760	28.0808	0.056884	0.001951	29.1579	137.479	-166.952	-0.053751	0.841421	-0.216486	-0.217792	-0.013469	29.1579	-0.216139	-240.894	5.591218E-5	NaN
546	1.000000	0.882729	7.37039e+06	-49789.1	1005.82	-29757.8	0.000000	0.000000	6.883088	0.010821	NaN	0.000000	0.001631	0.001762	28.0804	0.030986	0.002037	15.2099	127.773	-165.089	-0.004734	0.881393	-0.176484	-0.177819	0.010821	15.2099	-0.177018	-54.2724	-0.000199	NaN
546	1.000000	0.922739	7.37039e+06	-49789.1	1005.82	-29757.8	0.000000	0.000000	6.923098	0.000984	NaN	0.000000	0.001689	0.001740	28.0816	0.211212	0.002010	105.085	-175.885	-169.366	0.027993	0.921443	-0.136474	-0.137770	0.000984	105.085	-0.136481	-10.1506	-9.690737E-5	NaN
546	1.000000	0.962779	7.37039e+06	-49789.1	1005.82	-29757.8	0.000000	0.000000	6.963138	-0.000925	NaN	0.000000	0.001686	0.001718	28.0817	0.040548	0.002066	19.6299	159.169	-166.792	-0.048504	0.961467	-0.096434	-0.097745	-0.000925	19.6299	-0.096398	-1.517573	0.000610	NaN
546	1.000000	1.002771	7.37039e+06	-49789.1	1005.82	-29757.8	0.000000	0.000000	7.003126	-0.099562	NaN	0.000000	0.001666	0.001748	28.0817	0.002664	0.002103	1.267031	147.009	-164.487	-0.102855	1.001478	-0.056442	-0.057735	-0.099562	1.267031	0.002493	0.001957	-50.8715	26.1668
546	1.000000	1.042794	7.37039e+06	-49789.1	1005.82	-29757.8	0.000000	0.000000	7.043153	-0.011989	NaN	0.000000	0.001702	0.001733	28.0815	0.080368	0.002027	39.6469	5.627309	-163.415	-0.083591	1.041528	-0.016419	-0.017685	-0.011989	39.6469	-0.016192	-0.010002	1.198655	NaN
546	2.000000	1.069364	7.37039e+06	-49789.1	1005.82	-29757.8	0.000000	0.000000	7.070241	12.5921	NaN	0.000000	0.001730	0.001696	28.0806	13.7635	0.001904	7227.11	8.636269	-173.757	12.7051	1.069079	0.010152	0.009866	12.5921	7227.11	0.008845	0.007926	1588.73	74167.6
546	2.000000	1.079333	7.37039e+06	-49789.1	1005.82	-29757.8	0.000000	0.000000	7.080898	29.3159	NaN	0.000000	0.001616	0.001727	28.0805	23.551	0.001802	13069.9	4.517023	-175.609	30.5446	1.079055	0.020121	0.019843	29.3159	13069.9	0.018438	0.020147	1455.07	84126.9
546	2.000000	1.089312	7.37039e+06	-49789.1	1005.82	-29757.8	0.000000	0.000000	7.091795	51.629	NaN	0.000000	0.001653	0.001707	28.0805	34.1175	0.001785	19115.7	4.182577	-179.585	52.3679	1.089019	0.030100	0.029807	51.629	19115.7	0.028074	0.036846	1401.21	90984.6
546	2.000000	1.099241	7.3704e+06	-49789.1	1005.82	-29757.8	0.000000	0.000000	7.103178	87.0042	NaN	0.000000	0.001631	0.001689	28.0828	44.0383	0.001727	25506.1	5.177332	176.949	85.806	1.098898	0.040029	0.039686	87.0042	25506.1	0.037470	0.057654	1509.07	97051.4
546	2.000000	1.109182	7.3704e+06	-49789.1	1005.82	-29757.8	0.000000	0.000000	7.115027	133.404	NaN	0.000000	0.001629	0.001694	28.0819	53.7634	0.001851	29037.8	1.959523	178.225	130.485	1.108988	0.049970	0.049776	133.404	29037.8	0.046524	0.081972	1627.43	92662.5
546	2.000000	1.119218	7.3704e+06	-49789.1	1005.82	-29757.8	0.000000	0.000000	7.127143	184.002	NaN	0.000000	0.001599	0.001716	28.0819	64.2538	0.001789	35911.6	3.239832	175.235	181.106	1.119016	0.060005	0.059803	184.002	35911.6	0.056162	0.112408	1636.91	97861
546	2.000000	1.129217	7.3704e+06	-49789.1	1005.82	-29757.8	0.000000	0.000000	7.139874	250.434	NaN	0.000000	0.001602	0.001737	28.0817	74.6117	0.001888	39517.6	3.938298	174.07	246.853	1.129021	0.070004	0.069809	250.434	39517.6	0.065251	0.145309	1723.46	94714.7
546	2.000000	1.139313	7.3704e+06	-49789.1	1005.82	-29757.8	0.000000	0.000000	7.152673	316.174	NaN	0.000000	0.001600	0.001698	28.0804	84.0398	0.001837	45760.4	5.859580	172.119	318.921	1.138962	0.080100	0.079749	316.174	45760.4	0.074918	0.184667	1712.13	97289.9
546	2.000000	1.149097	7.3704e+06	-49789.1	1005.82	-29757.8	0.000000	0.000000	7.165755	396.359	NaN	0.000000	0.001585	0.001733	28.0804	92.4747	0.001732	53397.6	6.294795	169.31	389.696	1.148811	0.089885	0.089598	396.359	53397.6	0.084318	0.227157	1744.87	102360
546	2.000000	1.159193	7.3704e+06	-49789.1	1005.82	-29757.8	0.000000	0.000000	7.179234	478.659	NaN	0.000000	0.001690	0.001776	28.0804	102.887	0.001865	55173.9	4.063700	171.64	475.564	1.158911	0.099980	0.099699	478.659	55173.9	0.093473	0.272475	1756.71	96570.3
546	2.000000	1.163147	7.3704e+06	-49789.1	1005.82	-29757.8	0.000000	0.000000	7.184414	508.45	NaN	0.000000	0.001607	0.001729	28.0806	105.429	0.001803	58488.2	2.963453	171.987	504.349	1.162864	0.103934	0.103652	508.45	58488.2	0.097415	0.293163	1734.36	98693.2