File: remote_trans/data/nanoindenter/0828-1/data/Data_2025-08-06,11h17m57s/2025-07-22_16-23-58_1_640.txt
2025-07-22, 16:23:58, 1
Index	Phase	Displacement	Time	Pos X	Pos Y	Pos Z	Rot A	Rot B	Piezo Z	Force A	Force B	Gripper	Voltage A	Voltage B	Temperature	Amplitude force	Amplitude pos	Stiffness	Phase shift	Phase excitation	Force A raw	Displacement raw	HMax	HMax raw	Real Force	Real Stiffness	Contact Depth	Area	Hardness	Reduced Mod.
[#]	[#]	[um]	[s]	[um]	[um]	[um]	[m°]	[m°]	[um]	[uN]	[uN]	[V]	[V]	[V]	[°C]	[uN]	[um]	[N/m]	[°]	[°]	[uN]	[um]	[um]	[um]	[uN]	[N/m]	[um]	[um^2]	[MPa]	[MPa]
640	1.000000	0.002855	7.37131e+06	-45089.1	1005.82	-29773.6	0.000000	0.000000	6.002816	0.065681	NaN	0.000000	0.001732	0.001673	28.0822	0.036124	0.001029	35.1117	-83.7461	-170.512	0.035727	0.001562	-1.115829	-1.117122	0.065681	35.1117	-1.117232	-8.537562E+14	-7.693167E-17	NaN
640	1.000000	0.044803	7.37131e+06	-45089.1	1005.82	-29773.6	0.000000	0.000000	6.044760	-0.032479	NaN	0.000000	0.001727	0.001697	28.0822	0.085506	0.001974	43.318	-69.4742	15.0158	0.011921	0.043457	-1.073881	-1.075228	-0.032479	43.318	-1.073318	-2.196699E+14	1.478516E-16	NaN
640	1.000000	0.086804	7.37131e+06	-45089.1	1005.82	-29773.6	0.000000	0.000000	6.086761	-0.017789	NaN	0.000000	0.001704	0.001632	28.0834	0.079167	0.002094	37.8039	-61.7775	-163.027	-0.036701	0.085455	-1.031880	-1.033229	-0.017789	37.8039	-1.031527	-6.025944E+13	2.951995E-16	NaN
640	1.000000	0.128816	7.37131e+06	-45089.1	1005.82	-29773.6	0.000000	0.000000	6.128776	0.044176	NaN	0.000000	0.001712	0.001656	28.0833	0.005617	0.002103	2.671167	130.387	12.9794	0.106950	0.127479	-0.989868	-0.991205	0.044176	2.671167	-1.002272	-2.434170E+13	-1.814821E-15	NaN
640	1.000000	0.170837	7.37131e+06	-45089.1	1005.82	-29773.6	0.000000	0.000000	6.170798	0.075406	NaN	0.000000	0.001691	0.001683	28.0832	0.089778	0.001922	46.7055	-130.385	-169.066	0.013740	0.169520	-0.947847	-0.949164	0.075406	46.7055	-0.949058	-4.670098E+12	-1.614654E-14	NaN
640	1.000000	0.212828	7.37131e+06	-45089.1	1005.82	-29773.6	0.000000	0.000000	6.212788	0.038224	NaN	0.000000	0.001662	0.001696	28.0819	0.037253	0.002015	18.4906	16.5458	14.5165	-0.028377	0.211461	-0.905856	-0.907223	0.038224	18.4906	-0.907406	-1.279759E+12	-2.986786E-14	NaN
640	1.000000	0.254866	7.37131e+06	-45089.1	1005.82	-29773.6	0.000000	0.000000	6.254827	0.063968	NaN	0.000000	0.001686	0.001669	28.0819	0.131870	0.002057	64.12	152.365	-167.458	0.047229	0.253587	-0.863818	-0.865097	0.063968	64.12	-0.864566	-3.372251E+11	-1.896900E-13	NaN
640	1.000000	0.296891	7.37131e+06	-45089.1	1005.82	-29773.6	0.000000	0.000000	6.296849	0.007043	NaN	0.000000	0.001754	0.001637	28.0819	0.084218	0.002095	40.1997	-68.1811	10.5804	0.008773	0.295536	-0.821793	-0.823149	0.007043	40.1997	-0.821925	-8.918907E+10	-7.896887E-14	NaN
640	1.000000	0.338887	7.37131e+06	-45089.1	1005.82	-29773.6	0.000000	0.000000	6.338843	-0.039328	NaN	0.000000	0.001658	0.001646	28.082	0.031417	0.002025	15.513	-168.338	-168.63	-0.065078	0.337649	-0.779797	-0.781035	-0.039328	15.513	-0.777896	-2.252370E+10	1.746057E-12	NaN
640	1.000000	0.380913	7.37131e+06	-45089.1	1005.82	-29773.6	0.000000	0.000000	6.380870	-0.023027	NaN	0.000000	0.001658	0.001667	28.0833	0.059589	0.002017	29.5455	108.462	13.3061	0.105202	0.379538	-0.737771	-0.739146	-0.023027	29.5455	-0.737187	-6.291248E+9	3.660218E-12	NaN
640	1.000000	0.422963	7.37131e+06	-45089.1	1005.82	-29773.6	0.000000	0.000000	6.422924	0.093951	NaN	0.000000	0.001640	0.001679	28.0836	0.110868	0.001971	56.2598	79.08	-168.333	0.162388	0.421629	-0.695722	-0.697055	0.093951	56.2598	-0.696974	-1.779109E+9	-5.280763E-11	NaN
640	1.000000	0.464955	7.37131e+06	-45089.1	1005.82	-29773.6	0.000000	0.000000	6.464912	-0.029711	NaN	0.000000	0.001596	0.001709	28.0833	0.035250	0.002071	17.0223	47.6152	14.2188	-0.026243	0.463635	-0.653729	-0.655049	-0.029711	17.0223	-0.652420	-4.371223E+8	6.796851E-11	NaN
640	1.000000	0.506984	7.37131e+06	-45089.1	1005.82	-29773.6	0.000000	0.000000	6.506942	0.013534	NaN	0.000000	0.001656	0.001719	28.082	0.069677	0.002110	33.0197	45.2363	-167.58	0.034791	0.505672	-0.611700	-0.613013	0.013534	33.0197	-0.612008	-1.218244E+8	-1.110933E-10	NaN
640	1.000000	0.549021	7.37131e+06	-45089.1	1005.82	-29773.6	0.000000	0.000000	6.548979	0.015312	NaN	0.000000	0.001659	0.001677	28.082	0.081806	0.002076	39.4021	113.719	15.4386	0.027422	0.547659	-0.569664	-0.571026	0.015312	39.4021	-0.569955	-3.206341E+7	-4.775588E-10	NaN
640	1.000000	0.591003	7.37131e+06	-45089.1	1005.82	-29773.6	0.000000	0.000000	6.590961	0.008297	NaN	0.000000	0.001648	0.001678	28.0819	0.057781	0.002004	28.8353	-57.1951	-167.139	0.028954	0.589701	-0.527681	-0.528983	0.008297	28.8353	-0.527897	-8.38226e+06	-9.898426E-10	NaN
640	1.000000	0.633027	7.37131e+06	-45089.1	1005.82	-29773.6	0.000000	0.000000	6.632984	-0.015841	NaN	0.000000	0.001607	0.001713	28.0829	0.026806	0.002057	13.0288	137.874	19.0533	-0.060326	0.631632	-0.485657	-0.487052	-0.015841	13.0288	-0.484745	-2.09857e+06	7.548261E-9	NaN
640	1.000000	0.675048	7.37131e+06	-45089.1	1005.82	-29773.6	0.000000	0.000000	6.675005	-0.038743	NaN	0.000000	0.001601	0.001666	28.083	0.053373	0.002055	25.9709	-176.605	-171.197	-0.061928	0.673746	-0.443636	-0.444938	-0.038743	25.9709	-0.442517	-535645	7.232957E-8	NaN
640	1.000000	0.717082	7.37131e+06	-45089.1	1005.82	-29773.6	0.000000	0.000000	6.717043	0.069596	NaN	0.000000	0.001666	0.001672	28.0832	0.046591	0.002037	22.8693	-67.1793	11.3479	0.122812	0.715744	-0.401602	-0.402940	0.069596	22.8693	-0.403884	-151829	-4.583851E-7	NaN
640	1.000000	0.759077	7.37131e+06	-45089.1	1005.82	-29773.6	0.000000	0.000000	6.759035	0.001908	NaN	0.000000	0.001653	0.001655	28.0819	0.104466	0.001992	52.4374	-80.2222	-167.209	0.070791	0.757793	-0.359607	-0.360891	0.001908	52.4374	-0.359634	-35201.5	-5.420817E-8	NaN
640	1.000000	0.801127	7.37131e+06	-45089.1	1005.82	-29773.6	0.000000	0.000000	6.801086	0.010856	NaN	0.000000	0.001651	0.001677	28.082	0.055130	0.002059	26.779	170.709	12.175	0.002722	0.799767	-0.317557	-0.318917	0.010856	26.779	-0.317861	-8652.34	-1.254728E-6	NaN
640	1.000000	0.843140	7.37131e+06	-45089.1	1005.82	-29773.6	0.000000	0.000000	6.843097	-0.000820	NaN	0.000000	0.001638	0.001668	28.0818	0.027420	0.002046	13.4007	-113.273	-166.696	0.053160	0.841804	-0.275545	-0.276880	-0.000820	13.4007	-0.275499	-2018.14	4.062321E-7	NaN
640	1.000000	0.885151	7.37132e+06	-45089.1	1005.82	-29773.6	0.000000	0.000000	6.885108	-0.018719	NaN	0.000000	0.001634	0.001677	28.0821	0.033724	0.002066	16.3251	-105.304	15.736	-0.054289	0.883753	-0.233533	-0.234931	-0.018719	16.3251	-0.232673	-441.231	4.242468E-5	NaN
640	1.000000	0.927152	7.37132e+06	-45089.1	1005.82	-29773.6	0.000000	0.000000	6.927110	-0.014264	NaN	0.000000	0.001716	0.001722	28.0832	0.014478	0.001874	7.727895	-144.781	-166.564	-0.003873	0.925842	-0.191532	-0.192842	-0.014264	7.727895	-0.190147	-90.4665	0.000158	NaN
640	1.000000	0.969146	7.37132e+06	-45089.1	1005.82	-29773.6	0.000000	0.000000	6.969104	-0.002031	NaN	0.000000	0.001674	0.001715	28.0835	0.058262	0.001977	29.471	54.1583	14.7802	-0.049809	0.967817	-0.149538	-0.150867	-0.002031	29.471	-0.149486	-17.7266	0.000115	NaN
640	1.000000	1.011183	7.37132e+06	-45089.1	1005.82	-29773.6	0.000000	0.000000	7.011141	0.001804	NaN	0.000000	0.001633	0.001678	28.0835	0.083761	0.001904	43.9856	-85.9812	-167.383	0.058316	1.009884	-0.107501	-0.108801	0.001804	43.9856	-0.107532	-2.663996	-0.000677	NaN
640	1.000000	1.053193	7.37132e+06	-45089.1	1005.82	-29773.6	0.000000	0.000000	7.053150	-0.003102	NaN	0.000000	0.001640	0.001781	28.0821	0.052172	0.002063	25.2932	163.198	14.0386	-0.041692	1.051874	-0.065491	-0.066810	-0.003102	25.2932	-0.065399	-0.255647	0.012135	NaN
640	1.000000	1.095205	7.37132e+06	-45089.1	1005.82	-29773.6	0.000000	0.000000	7.095165	0.042604	NaN	0.000000	0.001619	0.001749	28.0822	0.029206	0.001884	15.4996	15.4988	-167.29	-0.006291	1.093910	-0.023479	-0.024774	0.042604	15.4996	-0.025540	-0.017430	-2.444375	NaN
640	2.000000	1.126303	7.37132e+06	-45089.1	1005.82	-29773.6	0.000000	0.000000	7.126841	14.1055	NaN	0.000000	0.001674	0.001697	28.082	13.4509	0.001663	8089.81	7.535728	3.303966	13.9452	1.125915	0.007619	0.007231	14.1055	8089.81	0.006312	0.005362	2630.45	100933
640	2.000000	1.136712	7.37132e+06	-45089.1	1005.82	-29773.6	0.000000	0.000000	7.138144	35.878	NaN	0.000000	0.001641	0.001721	28.0833	25.1962	0.001841	13685.9	4.632341	-177.104	34.7885	1.136415	0.018027	0.017730	35.878	13685.9	0.016061	0.016727	2144.94	96681.1
640	2.000000	1.147213	7.37132e+06	-45089.1	1005.82	-29773.6	0.000000	0.000000	7.149960	67.8548	NaN	0.000000	0.001670	0.001708	28.0833	35.3762	0.001694	20877.4	7.264690	-5.067089	65.6905	1.146827	0.028528	0.028143	67.8548	20877.4	0.026091	0.033030	2054.33	104953
640	2.000000	1.157696	7.37132e+06	-45089.1	1005.82	-29773.6	0.000000	0.000000	7.161986	105.399	NaN	0.000000	0.001661	0.001717	28.0833	45.5344	0.001844	24693.4	5.681771	175.776	104.393	1.157335	0.039012	0.038651	105.399	24693.4	0.035810	0.053650	1964.58	97402.7
640	2.000000	1.168189	7.37132e+06	-45089.1	1005.82	-29773.6	0.000000	0.000000	7.174453	153.402	NaN	0.000000	0.001688	0.001717	28.0823	55.6514	0.001818	30610.6	7.836267	-8.146839	152.813	1.167830	0.049505	0.049146	153.402	30610.6	0.045747	0.079721	1924.24	99051
640	2.000000	1.178772	7.37132e+06	-45089.1	1005.82	-29773.6	0.000000	0.000000	7.187405	211.053	NaN	0.000000	0.001760	0.001734	28.0824	65.9289	0.001898	34731.8	7.114157	172.977	212.647	1.178309	0.060088	0.059625	211.053	34731.8	0.055530	0.110270	1913.96	95559
640	2.000000	1.189186	7.37132e+06	-45089.1	1005.82	-29773.6	0.000000	0.000000	7.200576	278.104	NaN	0.000000	0.001653	0.001706	28.082	75.5203	0.001830	41271.2	4.263008	-6.604907	276.595	1.188840	0.070502	0.070156	278.104	41271.2	0.065448	0.146066	1903.96	98661
640	2.000000	1.199542	7.37132e+06	-45089.1	1005.82	-29773.6	0.000000	0.000000	7.213859	349.319	NaN	0.000000	0.001664	0.001712	28.0821	83.5944	0.001832	45633.4	3.812734	173.163	344.396	1.199320	0.080858	0.080636	349.319	45633.4	0.075117	0.185522	1882.89	96796.2
640	2.000000	1.210104	7.37132e+06	-45089.1	1005.82	-29773.6	0.000000	0.000000	7.227795	431.412	NaN	0.000000	0.001649	0.001717	28.0827	95.0104	0.001875	50669.2	6.568240	-10.7121	427.288	1.209719	0.091420	0.091035	431.412	50669.2	0.085034	0.230564	1871.12	96409.9
640	2.000000	1.220629	7.37132e+06	-45089.1	1005.82	-29773.6	0.000000	0.000000	7.241696	513.534	NaN	0.000000	0.001678	0.001694	28.0828	103.333	0.001873	55175.7	4.197549	171.428	512.131	1.220372	0.101945	0.101688	513.534	55175.7	0.094964	0.280218	1832.62	95229.8
640	2.000000	1.221033	7.37132e+06	-45089.1	1005.82	-29773.6	0.000000	0.000000	7.242399	520.802	NaN	0.000000	0.001709	0.001683	28.0826	103.729	0.001787	58031.5	7.587752	-11.8703	513.982	1.220770	0.102349	0.102086	520.802	58031.5	0.095618	0.283643	1836.12	99552.3