File: remote_trans/data/nanoindenter/0828-1/data/Data_2025-08-06,11h17m57s/2025-07-22_16-23-58_1_682.txt
2025-07-22, 16:23:58, 1
Index	Phase	Displacement	Time	Pos X	Pos Y	Pos Z	Rot A	Rot B	Piezo Z	Force A	Force B	Gripper	Voltage A	Voltage B	Temperature	Amplitude force	Amplitude pos	Stiffness	Phase shift	Phase excitation	Force A raw	Displacement raw	HMax	HMax raw	Real Force	Real Stiffness	Contact Depth	Area	Hardness	Reduced Mod.
[#]	[#]	[um]	[s]	[um]	[um]	[um]	[m°]	[m°]	[um]	[uN]	[uN]	[V]	[V]	[V]	[°C]	[uN]	[um]	[N/m]	[°]	[°]	[uN]	[um]	[um]	[um]	[uN]	[N/m]	[um]	[um^2]	[MPa]	[MPa]
682	1.000000	0.002649	7.37172e+06	-42989.1	1005.82	-29780.7	0.000000	0.000000	6.002796	-0.023903	NaN	0.000000	0.001607	0.001753	28.0815	0.083804	0.000917	91.3668	-166.172	-162.715	-0.035811	0.001340	-1.105103	-1.106413	-0.023903	91.3668	-1.104907	-5.833498E+14	4.097464E-17	NaN
682	1.000000	0.044610	7.37172e+06	-42989.1	1005.82	-29780.7	0.000000	0.000000	6.044757	-0.022121	NaN	0.000000	0.001571	0.001782	28.081	0.034160	0.001865	18.3172	111.591	11.8253	0.052129	0.043318	-1.063142	-1.064434	-0.022121	18.3172	-1.062236	-1.559089E+14	1.418845E-16	NaN
682	1.000000	0.086574	7.37172e+06	-42989.1	1005.82	-29780.7	0.000000	0.000000	6.086719	-0.039099	NaN	0.000000	0.001557	0.001783	28.0813	0.043777	0.001961	22.3259	28.4657	-168.389	-0.104349	0.085297	-1.021179	-1.022456	-0.039099	22.3259	-1.019865	-4.198932E+13	9.311642E-16	NaN
682	1.000000	0.128634	7.37172e+06	-42989.1	1005.82	-29780.7	0.000000	0.000000	6.128779	-0.054741	NaN	0.000000	0.001623	0.001722	28.0826	0.025611	0.002106	12.1602	170.435	13.5861	-0.081444	0.127275	-0.979119	-0.980478	-0.054741	12.1602	-0.975742	-1.069166E+13	5.119959E-15	NaN
682	1.000000	0.170651	7.37172e+06	-42989.1	1005.82	-29780.7	0.000000	0.000000	6.170801	0.068534	NaN	0.000000	0.001649	0.001720	28.0823	0.039890	0.002051	19.4537	-85.2515	-164.664	-0.016652	0.169308	-0.937101	-0.938444	0.068534	19.4537	-0.939744	-3.496859E+12	-1.959868E-14	NaN
682	1.000000	0.212656	7.37172e+06	-42989.1	1005.82	-29780.7	0.000000	0.000000	6.212801	-0.038924	NaN	0.000000	0.001616	0.001744	28.0823	0.075861	0.001982	38.2697	87.9504	10.7248	-0.052806	0.211306	-0.895097	-0.896446	-0.038924	38.2697	-0.894334	-8.521101E+11	4.567913E-14	NaN
682	1.000000	0.254653	7.37172e+06	-42989.1	1005.82	-29780.7	0.000000	0.000000	6.254802	0.031311	NaN	0.000000	0.001604	0.001742	28.0827	0.094302	0.001928	48.9133	43.1325	-165.268	-0.004071	0.253391	-0.853099	-0.854362	0.031311	48.9133	-0.853579	-2.394415E+11	-1.307689E-13	NaN
682	1.000000	0.296730	7.37172e+06	-42989.1	1005.82	-29780.7	0.000000	0.000000	6.296876	-0.025284	NaN	0.000000	0.001584	0.001744	28.0812	0.081659	0.001976	41.3251	164.03	15.235	-0.074356	0.295307	-0.811022	-0.812446	-0.025284	41.3251	-0.810564	-6.254853E+10	4.042377E-13	NaN
682	1.000000	0.338724	7.37172e+06	-42989.1	1005.82	-29780.7	0.000000	0.000000	6.338871	-0.004899	NaN	0.000000	0.001587	0.001773	28.0812	0.057826	0.002011	28.7499	-51.0687	-164.426	0.008078	0.337433	-0.769028	-0.770319	-0.004899	28.7499	-0.768900	-1.699628E+10	2.882487E-13	NaN
682	1.000000	0.380732	7.37172e+06	-42989.1	1005.82	-29780.7	0.000000	0.000000	6.380879	-0.014653	NaN	0.000000	0.001585	0.001781	28.0813	0.094589	0.002038	46.4055	-52.2074	12.2516	0.021299	0.379373	-0.727020	-0.728379	-0.014653	46.4055	-0.726783	-4.539030E+9	3.228160E-12	NaN
682	1.000000	0.422766	7.37172e+06	-42989.1	1005.82	-29780.7	0.000000	0.000000	6.422911	-0.047975	NaN	0.000000	0.001594	0.001736	28.0826	0.048263	0.002014	23.9646	127.281	-165.384	-0.027226	0.421428	-0.684986	-0.686324	-0.047975	23.9646	-0.683485	-1.163749E+9	4.122474E-11	NaN
682	1.000000	0.464755	7.37172e+06	-42989.1	1005.82	-29780.7	0.000000	0.000000	6.464902	-0.007506	NaN	0.000000	0.001519	0.001730	28.0824	0.062076	0.001943	31.9459	-146.882	14.0377	-0.092342	0.463384	-0.642998	-0.644368	-0.007506	31.9459	-0.642821	-3.228467E+8	2.325061E-11	NaN
682	1.000000	0.506767	7.37172e+06	-42989.1	1005.82	-29780.7	0.000000	0.000000	6.506914	0.002498	NaN	0.000000	0.001591	0.001754	28.0824	0.090841	0.001964	46.2468	-151.743	-164.19	-0.015843	0.505475	-0.600986	-0.602278	0.002498	46.2468	-0.601026	-8.601883E+7	-2.903805E-11	NaN
682	1.000000	0.548810	7.37172e+06	-42989.1	1005.82	-29780.7	0.000000	0.000000	6.548956	-0.045949	NaN	0.000000	0.001595	0.001751	28.081	0.045309	0.002087	21.7087	-63.7277	15.8305	-0.049888	0.547440	-0.558942	-0.560312	-0.045949	21.7087	-0.557355	-2.146723E+7	2.140410E-9	NaN
682	1.000000	0.590806	7.37172e+06	-42989.1	1005.82	-29780.7	0.000000	0.000000	6.590951	-0.060995	NaN	0.000000	0.001606	0.001761	28.0814	0.111831	0.002002	55.8525	-148.407	-164.597	-0.057842	0.589514	-0.516946	-0.518238	-0.060995	55.8525	-0.516127	-5.75069e+06	1.060653E-8	NaN
682	1.000000	0.632837	7.37172e+06	-42989.1	1005.82	-29780.7	0.000000	0.000000	6.632982	-0.062340	NaN	0.000000	0.001607	0.001769	28.0813	0.027606	0.001949	14.1635	-179.777	16.0625	0.019784	0.631473	-0.474915	-0.476279	-0.062340	14.1635	-0.471614	-1.37417e+06	4.536566E-8	NaN
682	1.000000	0.674902	7.37172e+06	-42989.1	1005.82	-29780.7	0.000000	0.000000	6.675049	0.012933	NaN	0.000000	0.001587	0.001772	28.0826	0.168084	0.002098	80.1347	-145.722	-162.451	0.019316	0.673591	-0.432851	-0.434161	0.012933	80.1347	-0.432972	-392725	-3.293149E-8	NaN
682	1.000000	0.716880	7.37173e+06	-42989.1	1005.82	-29780.7	0.000000	0.000000	6.717026	-0.019741	NaN	0.000000	0.001585	0.001742	28.0825	0.057874	0.001986	29.1345	-77.7824	11.9182	-0.061020	0.715547	-0.390872	-0.392206	-0.019741	29.1345	-0.390364	-97359.3	2.027602E-7	NaN
682	1.000000	0.758894	7.37173e+06	-42989.1	1005.82	-29780.7	0.000000	0.000000	6.759039	-0.046062	NaN	0.000000	0.001582	0.001819	28.0825	0.044135	0.002015	21.9085	48.1339	-167.699	0.032567	0.757604	-0.348859	-0.350149	-0.046062	21.9085	-0.347282	-23309.2	1.976109E-6	NaN
682	1.000000	0.800922	7.37173e+06	-42989.1	1005.82	-29780.7	0.000000	0.000000	6.801069	-0.013139	NaN	0.000000	0.001642	0.001812	28.0826	0.062708	0.002020	31.0449	-4.660561	14.1128	0.048600	0.799546	-0.306831	-0.308207	-0.013139	31.0449	-0.306513	-5880.36	2.234456E-6	NaN
682	1.000000	0.842951	7.37173e+06	-42989.1	1005.82	-29780.7	0.000000	0.000000	6.843099	0.004293	NaN	0.000000	0.001662	0.001758	28.0814	0.101415	0.002043	49.6341	-44.969	-163.769	-0.015088	0.841620	-0.264801	-0.266132	0.004293	49.6341	-0.264866	-1391.04	-3.086085E-6	NaN
682	1.000000	0.884926	7.37173e+06	-42989.1	1005.82	-29780.7	0.000000	0.000000	6.885074	0.026111	NaN	0.000000	0.001611	0.001734	28.0811	0.091136	0.002028	44.9355	82.692	12.1288	0.032120	0.883592	-0.222827	-0.224160	0.026111	44.9355	-0.223262	-313.118	-8.338895E-5	NaN
682	1.000000	0.926919	7.37173e+06	-42989.1	1005.82	-29780.7	0.000000	0.000000	6.927068	0.042968	NaN	0.000000	0.001558	0.001720	28.0813	0.035858	0.002074	17.2894	-137.952	-163.252	-0.049748	0.925612	-0.180834	-0.182140	0.042968	17.2894	-0.182698	-67.8023	-0.000634	NaN
682	1.000000	0.968986	7.37173e+06	-42989.1	1005.82	-29780.7	0.000000	0.000000	6.969133	-0.013922	NaN	0.000000	0.001584	0.001745	28.0826	0.045496	0.001837	24.7665	-2.402624	14.0784	0.010684	0.967629	-0.138767	-0.140123	-0.013922	24.7665	-0.138345	-11.0103	0.001264	NaN
682	1.000000	1.010988	7.37173e+06	-42989.1	1005.82	-29780.7	0.000000	0.000000	7.011134	-0.041055	NaN	0.000000	0.001593	0.001718	28.0824	0.086741	0.001952	44.4361	68.0557	-168.207	-0.069662	1.009694	-0.096764	-0.098058	-0.041055	44.4361	-0.096071	-1.491931	0.027518	NaN
682	1.000000	1.053021	7.37173e+06	-42989.1	1005.82	-29780.7	0.000000	0.000000	7.053170	0.021328	NaN	0.000000	0.001602	0.001706	28.0826	0.098214	0.001983	49.522	153.353	17.517	-0.003914	1.051639	-0.054731	-0.056113	0.021328	49.522	-0.055054	-0.129252	-0.165012	NaN
682	1.000000	1.095010	7.37173e+06	-42989.1	1005.82	-29780.7	0.000000	0.000000	7.095157	-0.012172	NaN	0.000000	0.001574	0.001742	28.0816	0.048272	0.001988	24.2799	94.6311	-164.964	0.029649	1.093739	-0.012742	-0.014013	-0.012172	24.2799	-0.012366	-0.007738	1.573006	NaN
682	2.000000	1.118062	7.37173e+06	-42989.1	1005.82	-29780.7	0.000000	0.000000	7.118959	18.2206	NaN	0.000000	0.001680	0.001732	28.0816	16.0491	0.001728	9289.27	4.540758	7.365250	18.5841	1.117676	0.010310	0.009923	18.2206	9289.27	0.008839	0.007920	2300.71	95368.3
682	2.000000	1.128442	7.37173e+06	-42989.1	1005.82	-29780.7	0.000000	0.000000	7.130289	41.3383	NaN	0.000000	0.001593	0.001721	28.0816	27.1752	0.001974	13763.7	7.902681	-179.814	39.0877	1.128105	0.020690	0.020352	41.3383	13763.7	0.018438	0.020146	2051.91	88595.2
682	2.000000	1.138949	7.37173e+06	-42989.1	1005.82	-29780.7	0.000000	0.000000	7.142172	74.8341	NaN	0.000000	0.001626	0.001696	28.083	37.0627	0.001738	21324	4.957433	-1.424326	74.045	1.138627	0.031197	0.030874	74.8341	21324	0.028565	0.037821	1978.61	100178
682	2.000000	1.149390	7.37173e+06	-42989.1	1005.82	-29780.7	0.000000	0.000000	7.154719	126.089	NaN	0.000000	0.001624	0.001717	28.083	46.9819	0.001617	29055.7	5.603098	174.028	122.619	1.149104	0.041637	0.041352	126.089	29055.7	0.038383	0.059915	2104.44	108451
682	2.000000	1.159862	7.37173e+06	-42989.1	1005.82	-29780.7	0.000000	0.000000	7.167552	183.527	NaN	0.000000	0.001599	0.001736	28.0827	57.3398	0.001799	31878.8	4.381695	-4.659720	179.971	1.159627	0.052109	0.051874	183.527	31878.8	0.047792	0.085709	2141.27	99485.6
682	2.000000	1.170481	7.37173e+06	-42989.1	1005.82	-29780.7	0.000000	0.000000	7.180313	235.651	NaN	0.000000	0.001614	0.001712	28.0829	68.5786	0.001777	38585	5.080669	172.757	234.357	1.170241	0.062728	0.062488	235.651	38585	0.058148	0.119250	1976.1	102085
682	2.000000	1.181018	7.37173e+06	-42989.1	1005.82	-29780.7	0.000000	0.000000	7.193495	299.976	NaN	0.000000	0.001603	0.001703	28.0814	79.2172	0.001879	42162	1.818371	-3.712453	303.829	1.180807	0.073265	0.073055	299.976	42162	0.067929	0.155767	1925.8	97601.5
682	2.000000	1.191395	7.37173e+06	-42989.1	1005.82	-29780.7	0.000000	0.000000	7.207347	384.516	NaN	0.000000	0.001607	0.001718	28.0813	89.1603	0.001866	47777.8	3.399376	173.029	382.955	1.191210	0.083643	0.083458	384.516	47777.8	0.077607	0.196401	1957.81	98498.1
682	2.000000	1.201839	7.37173e+06	-42989.1	1005.82	-29780.7	0.000000	0.000000	7.221319	470.385	NaN	0.000000	0.001586	0.001729	28.0816	97.2301	0.001825	53272.4	0.325327	-4.278133	465.017	1.201476	0.094086	0.093724	470.385	53272.4	0.087464	0.242296	1941.36	98878.5
682	2.000000	1.210420	7.37173e+06	-42989.1	1005.82	-29780.7	0.000000	0.000000	7.232734	539.327	NaN	0.000000	0.001580	0.001734	28.0829	104.716	0.001782	58750.6	3.695317	172.013	538.03	1.210081	0.102667	0.102328	539.327	58750.6	0.095782	0.284509	1895.64	100632