File: remote_trans/data/nanoindenter/0828-1/data/Data_2025-08-06,11h17m57s/2025-07-22_16-23-58_1_182.txt
2025-07-22, 16:23:58, 1
Index	Phase	Displacement	Time	Pos X	Pos Y	Pos Z	Rot A	Rot B	Piezo Z	Force A	Force B	Gripper	Voltage A	Voltage B	Temperature	Amplitude force	Amplitude pos	Stiffness	Phase shift	Phase excitation	Force A raw	Displacement raw	HMax	HMax raw	Real Force	Real Stiffness	Contact Depth	Area	Hardness	Reduced Mod.
[#]	[#]	[um]	[s]	[um]	[um]	[um]	[m°]	[m°]	[um]	[uN]	[uN]	[V]	[V]	[V]	[°C]	[uN]	[um]	[N/m]	[°]	[°]	[uN]	[um]	[um]	[um]	[uN]	[N/m]	[um]	[um^2]	[MPa]	[MPa]
182	1.000000	0.002452	7.36682e+06	-47739.1	955.819	-29765.3	0.000000	0.000000	6.002814	0.054428	NaN	0.000000	0.001566	0.001721	28.0781	0.089801	0.000913	98.409	-91.4308	-169.012	0.086521	0.001169	-1.076571	-1.077854	0.054428	98.409	-1.076986	-2.460581E+14	-2.212015E-16	NaN
182	1.000000	0.042415	7.36682e+06	-47739.1	955.818	-29765.3	0.000000	0.000000	6.042772	-0.047873	NaN	0.000000	0.001567	0.001703	28.078	0.103624	0.001947	53.2225	-174.838	-168.295	-0.053090	0.041101	-1.036608	-1.037922	-0.047873	53.2225	-1.035934	-6.906950E+13	6.931095E-16	NaN
182	1.000000	0.082425	7.36682e+06	-47739.1	955.818	-29765.3	0.000000	0.000000	6.082788	0.072886	NaN	0.000000	0.001606	0.001685	28.0792	0.091584	0.001992	45.9661	14.6203	-163.463	0.114739	0.081048	-0.996598	-0.997976	0.072886	45.9661	-0.997787	-2.118258E+13	-3.440836E-15	NaN
182	1.000000	0.122402	7.36682e+06	-47739.1	955.818	-29765.3	0.000000	0.000000	6.122765	0.071672	NaN	0.000000	0.001562	0.001683	28.0789	0.071253	0.002133	33.4061	57.5115	-165.596	0.072538	0.121110	-0.956621	-0.957913	0.071672	33.4061	-0.958230	-6.208800E+12	-1.154363E-14	NaN
182	1.000000	0.162444	7.36682e+06	-47739.1	955.818	-29765.3	0.000000	0.000000	6.162807	0.089707	NaN	0.000000	0.001607	0.001727	28.0789	0.016814	0.002095	8.025893	34.2114	-165.266	0.039631	0.161113	-0.916579	-0.917910	0.089707	8.025893	-0.924962	-2.209006E+12	-4.060950E-14	NaN
182	1.000000	0.202442	7.36682e+06	-47739.1	955.819	-29765.3	0.000000	0.000000	6.202805	0.076037	NaN	0.000000	0.001621	0.001698	28.0778	0.070967	0.001940	36.5818	-98.7444	-164.406	0.093369	0.201137	-0.876581	-0.877886	0.076037	36.5818	-0.878140	-5.147025E+11	-1.477304E-13	NaN
182	1.000000	0.242459	7.36682e+06	-47739.1	955.819	-29765.3	0.000000	0.000000	6.242821	0.046010	NaN	0.000000	0.001572	0.001670	28.0779	0.083076	0.002100	39.5515	-160.211	-168.504	0.006055	0.241159	-0.836564	-0.837864	0.046010	39.5515	-0.837437	-1.447310E+11	-3.178974E-13	NaN
182	1.000000	0.282483	7.36682e+06	-47739.1	955.817	-29765.3	0.000000	0.000000	6.282846	0.089473	NaN	0.000000	0.001597	0.001676	28.0779	0.071502	0.001945	36.7621	-25.6932	-163.198	0.181165	0.281199	-0.796540	-0.797825	0.089473	36.7621	-0.798366	-4.272450E+10	-2.094194E-12	NaN
182	1.000000	0.322505	7.36682e+06	-47739.1	955.819	-29765.3	0.000000	0.000000	6.322868	0.073009	NaN	0.000000	0.001639	0.001701	28.0778	0.123939	0.002116	58.5587	-172.957	-166.716	0.000862	0.321199	-0.756518	-0.757824	0.073009	58.5587	-0.757453	-1.187556E+10	-6.147826E-12	NaN
182	1.000000	0.362517	7.36682e+06	-47739.1	955.817	-29765.3	0.000000	0.000000	6.362876	0.005083	NaN	0.000000	0.001576	0.001658	28.0792	0.041591	0.002080	19.9939	-142.232	-168.678	0.025719	0.361220	-0.716507	-0.717803	0.005083	19.9939	-0.716698	-3.306966E+9	-1.536997E-12	NaN
182	1.000000	0.402514	7.36682e+06	-47739.1	955.818	-29765.3	0.000000	0.000000	6.402877	0.083983	NaN	0.000000	0.001604	0.001662	28.0789	0.147275	0.002079	70.8381	84.2922	-166.023	0.041217	0.401188	-0.676509	-0.677836	0.083983	70.8381	-0.677398	-9.607723E+8	-8.741249E-11	NaN
182	1.000000	0.442552	7.36682e+06	-47739.1	955.818	-29765.3	0.000000	0.000000	6.442913	0.034374	NaN	0.000000	0.001558	0.001662	28.0794	0.013974	0.001886	7.408278	56.4626	-164.195	0.064282	0.441267	-0.636471	-0.637756	0.034374	7.408278	-0.639951	-2.948621E+8	-1.165757E-10	NaN
182	1.000000	0.482559	7.36682e+06	-47739.1	955.819	-29765.3	0.000000	0.000000	6.482919	0.032271	NaN	0.000000	0.001595	0.001680	28.0773	0.095766	0.001926	49.7144	73.081	-162.096	0.059929	0.481290	-0.596465	-0.597733	0.032271	49.7144	-0.596952	-7.559099E+7	-4.269135E-10	NaN
182	1.000000	0.522584	7.36682e+06	-47739.1	955.819	-29765.3	0.000000	0.000000	6.522946	0.057121	NaN	0.000000	0.001565	0.001717	28.0774	0.045397	0.002026	22.4028	-62.393	-162.392	0.067755	0.521227	-0.556439	-0.557796	0.057121	22.4028	-0.558351	-2.215997E+7	-2.577668E-9	NaN
182	1.000000	0.562637	7.36682e+06	-47739.1	955.817	-29765.3	0.000000	0.000000	6.563000	0.089704	NaN	0.000000	0.001583	0.001707	28.0779	0.062566	0.002023	30.9265	115.789	-166.862	0.079688	0.561305	-0.516387	-0.517718	0.089704	30.9265	-0.518562	-6.21722e+06	-1.442832E-8	NaN
182	1.000000	0.602638	7.36682e+06	-47739.1	955.818	-29765.3	0.000000	0.000000	6.602998	0.028140	NaN	0.000000	0.001617	0.001721	28.079	0.123476	0.002037	60.6283	138.706	-164.418	-0.022892	0.601238	-0.476386	-0.477785	0.028140	60.6283	-0.476734	-1.62102e+06	-1.735936E-8	NaN
182	1.000000	0.642639	7.36682e+06	-47739.1	955.817	-29765.3	0.000000	0.000000	6.642999	0.023442	NaN	0.000000	0.001613	0.001692	28.079	0.040893	0.002034	20.1052	74.3508	-166.61	0.048903	0.641292	-0.436384	-0.437732	0.023442	20.1052	-0.437259	-451507	-5.192056E-8	NaN
182	1.000000	0.682662	7.36683e+06	-47739.1	955.817	-29765.3	0.000000	0.000000	6.683023	0.030823	NaN	0.000000	0.001618	0.001712	28.079	0.089673	0.002095	42.7981	-142.149	-164.195	0.032853	0.681310	-0.396361	-0.397714	0.030823	42.7981	-0.396901	-120721	-2.553256E-7	NaN
182	1.000000	0.722673	7.36683e+06	-47739.1	955.818	-29765.3	0.000000	0.000000	6.723037	0.105596	NaN	0.000000	0.001622	0.001695	28.0789	0.067677	0.002005	33.7541	3.724547	-162.979	0.033557	0.721352	-0.356350	-0.357671	0.105596	33.7541	-0.358697	-34119.1	-3.094922E-6	NaN
182	1.000000	0.762690	7.36683e+06	-47739.1	955.817	-29765.3	0.000000	0.000000	6.763053	0.093295	NaN	0.000000	0.001593	0.001697	28.078	0.111894	0.002007	55.7391	169.648	-164.617	0.006370	0.761363	-0.316333	-0.317661	0.093295	55.7391	-0.317589	-8572.84	-1.088261E-5	NaN
182	1.000000	0.802692	7.36683e+06	-47739.1	955.819	-29765.3	0.000000	0.000000	6.803052	0.019556	NaN	0.000000	0.001679	0.001686	28.0778	0.048077	0.002030	23.6841	-58.1813	-166.638	0.099815	0.801358	-0.276331	-0.277666	0.019556	23.6841	-0.276950	-2122.81	-9.212418E-6	NaN
182	1.000000	0.842713	7.36683e+06	-47739.1	955.818	-29765.3	0.000000	0.000000	6.843074	0.035876	NaN	0.000000	0.001643	0.001705	28.078	0.090527	0.001938	46.7112	-61.9651	-166.157	0.120415	0.841436	-0.236310	-0.237587	0.035876	46.7112	-0.236886	-513.854	-6.981692E-5	NaN
182	1.000000	0.882767	7.36683e+06	-47739.1	955.818	-29765.3	0.000000	0.000000	6.883126	-0.012951	NaN	0.000000	0.001648	0.001695	28.0797	0.071882	0.001936	37.1312	3.583194	-165.3	0.054421	0.881452	-0.196257	-0.197571	-0.012951	37.1312	-0.195995	-113.155	0.000114	NaN
182	1.000000	0.922781	7.36683e+06	-47739.1	955.818	-29765.3	0.000000	0.000000	6.923145	0.101019	NaN	0.000000	0.001655	0.001717	28.0796	0.043742	0.002041	21.4284	77.8558	-166.451	0.145845	0.921471	-0.156242	-0.157552	0.101019	21.4284	-0.159778	-27.1667	-0.003718	NaN
182	1.000000	0.962776	7.36683e+06	-47739.1	955.818	-29765.3	0.000000	0.000000	6.963136	0.009926	NaN	0.000000	0.001635	0.001689	28.0798	0.085078	0.001964	43.3149	84.3567	-165.102	-0.050906	0.961405	-0.116248	-0.117619	0.009926	43.3149	-0.116419	-4.085796	-0.002429	NaN
182	1.000000	1.002801	7.36683e+06	-47739.1	955.818	-29765.3	0.000000	0.000000	7.003159	-0.030318	NaN	0.000000	0.001601	0.001691	28.0791	0.093172	0.002003	46.5162	94.6977	-165.256	0.045002	1.001455	-0.076222	-0.077569	-0.030318	46.5162	-0.075734	-0.482448	0.062843	NaN
182	1.000000	1.042793	7.36683e+06	-47739.1	955.819	-29765.3	0.000000	0.000000	7.043154	0.040443	NaN	0.000000	0.001651	0.001689	28.0775	0.023615	0.002101	11.2407	-34.7338	-164.072	0.183764	1.041530	-0.036231	-0.037494	0.040443	11.2407	-0.038929	-0.041965	-0.963715	NaN
182	1.000000	1.082799	7.36683e+06	-47739.1	955.818	-29765.3	0.000000	0.000000	7.083283	3.034210	NaN	0.000000	0.001645	0.001788	28.0774	3.799577	0.001606	2365.59	5.623263	-164.056	1.594455	1.081515	0.003776	0.002492	3.034210	2365.59	0.002814	0.002224	1364.52	45833.1
182	2.000000	1.096377	7.36683e+06	-47739.1	955.819	-29765.3	0.000000	0.000000	7.097753	24.7158	NaN	0.000000	0.001627	0.001675	28.0774	18.9951	0.001818	10445.9	5.921155	-175.586	24.0633	1.096049	0.017354	0.017025	24.7158	10445.9	0.015579	0.016065	1538.45	75296
182	2.000000	1.106342	7.36683e+06	-47739.1	955.819	-29765.3	0.000000	0.000000	7.108658	47.6018	NaN	0.000000	0.001598	0.001722	28.0788	29.7082	0.001912	15538.7	5.881890	179.597	47.5417	1.106067	0.027318	0.027044	47.6018	15538.7	0.025021	0.031053	1532.92	80563.1
182	2.000000	1.116280	7.36683e+06	-47739.1	955.818	-29765.3	0.000000	0.000000	7.120083	83.7702	NaN	0.000000	0.001619	0.001711	28.0786	39.5725	0.001823	21709.8	5.240957	177.706	81.4266	1.115915	0.037257	0.036891	83.7702	21709.8	0.034363	0.050272	1666.34	88463.9
182	2.000000	1.126276	7.36683e+06	-47739.1	955.819	-29765.3	0.000000	0.000000	7.131613	121.049	NaN	0.000000	0.001646	0.001690	28.0788	48.9232	0.001868	26190.2	1.405070	-179.351	120.802	1.126008	0.047253	0.046984	121.049	26190.2	0.043787	0.074180	1631.83	87855.5
182	2.000000	1.136247	7.36683e+06	-47739.1	955.82	-29765.3	0.000000	0.000000	7.143673	171.876	NaN	0.000000	0.001667	0.001715	28.0774	57.3075	0.001765	32477.7	0.980714	178.961	169.804	1.136051	0.057223	0.057028	171.876	32477.7	0.053254	0.102737	1672.97	92575.3
182	2.000000	1.146340	7.36683e+06	-47739.1	955.82	-29765.3	0.000000	0.000000	7.156039	227.164	NaN	0.000000	0.001671	0.001709	28.0773	68.3537	0.001838	37195.7	5.498781	173.802	231.07	1.145953	0.067317	0.066929	227.164	37195.7	0.062736	0.135803	1672.74	92217
182	2.000000	1.156291	7.36683e+06	-47739.1	955.82	-29765.3	0.000000	0.000000	7.169016	300.763	NaN	0.000000	0.001680	0.001655	28.0779	76.71	0.001790	42852.3	6.838696	171.475	302.981	1.155841	0.077268	0.076817	300.763	42852.3	0.072004	0.172334	1745.23	94310.8
182	2.000000	1.166244	7.36683e+06	-47739.1	955.82	-29765.3	0.000000	0.000000	7.182082	376.51	NaN	0.000000	0.001648	0.001684	28.0773	86.9836	0.001740	49990.3	2.374480	174.286	375.889	1.165883	0.087220	0.086860	376.51	49990.3	0.081571	0.214317	1756.79	98657.6
182	2.000000	1.176229	7.36683e+06	-47739.1	955.82	-29765.3	0.000000	0.000000	7.195414	457.891	NaN	0.000000	0.001675	0.001691	28.079	96.1384	0.001774	54183.2	2.715146	174.316	455.396	1.175749	0.097206	0.096726	457.891	54183.2	0.090868	0.259185	1766.66	97237.3
182	2.000000	1.186381	7.36683e+06	-47739.1	955.818	-29765.3	0.000000	0.000000	7.208212	522.248	NaN	0.000000	0.001659	0.001667	28.0791	107.263	0.001820	58922.5	5.094273	171.142	531.207	1.186021	0.107357	0.106998	522.248	58922.5	0.100710	0.311004	1679.23	96532