File: remote_trans/data/nanoindenter/0828-1/data/Data_2025-08-06,11h17m57s/2025-07-22_16-23-58_1_1205.txt
2025-07-22, 16:23:58, 1
Index	Phase	Displacement	Time	Pos X	Pos Y	Pos Z	Rot A	Rot B	Piezo Z	Force A	Force B	Gripper	Voltage A	Voltage B	Temperature	Amplitude force	Amplitude pos	Stiffness	Phase shift	Phase excitation	Force A raw	Displacement raw	HMax	HMax raw	Real Force	Real Stiffness	Contact Depth	Area	Hardness	Reduced Mod.
[#]	[#]	[um]	[s]	[um]	[um]	[um]	[m°]	[m°]	[um]	[uN]	[uN]	[V]	[V]	[V]	[°C]	[uN]	[um]	[N/m]	[°]	[°]	[uN]	[um]	[um]	[um]	[uN]	[N/m]	[um]	[um^2]	[MPa]	[MPa]
1205	1.000000	0.002368	7.37682e+06	-55339.1	1105.82	-29741.6	0.000000	0.000000	6.002800	0.132924	NaN	0.000000	0.001648	0.001726	28.0823	0.024274	0.000917	26.4682	148.936	-162.121	0.056896	0.001107	-1.057567	-1.058827	0.132924	26.4682	-1.061333	-1.516126E+14	-8.767356E-16	NaN
1205	1.000000	0.042322	7.37682e+06	-55339.1	1105.82	-29741.6	0.000000	0.000000	6.042747	-0.022371	NaN	0.000000	0.001633	0.001740	28.0824	0.050889	0.002027	25.1083	-29.3736	-166.244	0.088846	0.041037	-1.017613	-1.018898	-0.022371	25.1083	-1.016944	-3.835621E+13	5.832519E-16	NaN
1205	1.000000	0.082322	7.37682e+06	-55339.1	1105.82	-29741.6	0.000000	0.000000	6.082749	0.024612	NaN	0.000000	0.001600	0.001740	28.0827	0.050345	0.002021	24.9052	78.9263	-165.093	0.036271	0.081021	-0.977613	-0.978913	0.024612	24.9052	-0.978354	-1.159393E+13	-2.122868E-15	NaN
1205	1.000000	0.122341	7.37682e+06	-55339.1	1105.82	-29741.6	0.000000	0.000000	6.122770	0.055388	NaN	0.000000	0.001525	0.001756	28.0843	0.109211	0.002051	53.2404	97.2146	-165.106	0.102161	0.121060	-0.937593	-0.938875	0.055388	53.2404	-0.938373	-3.351130E+12	-1.652825E-14	NaN
1205	1.000000	0.162371	7.37682e+06	-55339.1	1105.82	-29741.6	0.000000	0.000000	6.162799	0.046812	NaN	0.000000	0.001554	0.001709	28.084	0.069656	0.002132	32.6755	147.83	-166.89	0.019536	0.161081	-0.897563	-0.898854	0.046812	32.6755	-0.898638	-9.742253E+11	-4.805020E-14	NaN
1205	1.000000	0.202374	7.37682e+06	-55339.1	1105.82	-29741.6	0.000000	0.000000	6.202799	-0.030191	NaN	0.000000	0.001547	0.001734	28.0837	0.055676	0.002192	25.4022	-79.5966	-165.337	0.048963	0.201011	-0.857560	-0.858924	-0.030191	25.4022	-0.856669	-2.636521E+11	1.145089E-13	NaN
1205	1.000000	0.242374	7.37683e+06	-55339.1	1105.82	-29741.6	0.000000	0.000000	6.242804	0.092902	NaN	0.000000	0.001551	0.001744	28.0823	0.085836	0.002021	42.4763	132.971	-163.847	0.050197	0.241090	-0.817560	-0.818844	0.092902	42.4763	-0.819201	-8.191650E+10	-1.134103E-12	NaN
1205	1.000000	0.282395	7.37683e+06	-55339.1	1105.82	-29741.6	0.000000	0.000000	6.282824	0.089458	NaN	0.000000	0.001540	0.001752	28.0823	0.093450	0.001846	50.6197	52.0301	-168.226	0.089131	0.281102	-0.777540	-0.778832	0.089458	50.6197	-0.778865	-2.321742E+10	-3.853052E-12	NaN
1205	1.000000	0.322423	7.37683e+06	-55339.1	1105.82	-29741.6	0.000000	0.000000	6.322850	0.018065	NaN	0.000000	0.001590	0.001726	28.0822	0.072022	0.001993	36.1419	-39.7358	-167.595	0.061314	0.321124	-0.737511	-0.738811	0.018065	36.1419	-0.737886	-6.430748E+9	-2.809214E-12	NaN
1205	1.000000	0.362458	7.37683e+06	-55339.1	1105.82	-29741.6	0.000000	0.000000	6.362886	0.052672	NaN	0.000000	0.001552	0.001743	28.0838	0.134851	0.001933	69.7506	-179.468	-165.624	0.034082	0.361146	-0.697477	-0.698788	0.052672	69.7506	-0.698043	-1.839948E+9	-2.862708E-11	NaN
1205	1.000000	0.402486	7.37683e+06	-55339.1	1105.82	-29741.6	0.000000	0.000000	6.402914	0.054776	NaN	0.000000	0.001521	0.001680	28.0835	0.074648	0.001993	37.4508	149.763	-165.985	-0.000623	0.401201	-0.657449	-0.658733	0.054776	37.4508	-0.658546	-5.303314E+8	-1.032862E-10	NaN
1205	1.000000	0.442457	7.37683e+06	-55339.1	1105.82	-29741.6	0.000000	0.000000	6.442882	-0.018577	NaN	0.000000	0.001529	0.001682	28.0837	0.007853	0.002061	3.809259	11.7583	-163.644	0.001752	0.441196	-0.617478	-0.618738	-0.018577	3.809259	-0.613820	-1.290224E+8	1.439857E-10	NaN
1205	1.000000	0.482489	7.37683e+06	-55339.1	1105.82	-29741.6	0.000000	0.000000	6.482917	0.036370	NaN	0.000000	0.001546	0.001709	28.0837	0.026504	0.001970	13.4541	124.002	-169.661	-0.016046	0.481190	-0.577446	-0.578744	0.036370	13.4541	-0.579473	-4.339645E+7	-8.380782E-10	NaN
1205	1.000000	0.522529	7.37683e+06	-55339.1	1105.82	-29741.6	0.000000	0.000000	6.522955	-0.007231	NaN	0.000000	0.001521	0.001692	28.0822	0.079796	0.002083	38.3091	-65.0275	-160.109	-0.019818	0.521228	-0.537405	-0.538707	-0.007231	38.3091	-0.537264	-1.130838E+7	6.394327E-10	NaN
1205	1.000000	0.562554	7.37683e+06	-55339.1	1105.82	-29741.6	0.000000	0.000000	6.562980	0.004853	NaN	0.000000	0.001525	0.001712	28.0824	0.041096	0.002078	19.7743	-55.4487	-166.88	0.064613	0.561258	-0.497381	-0.498676	0.004853	19.7743	-0.497565	-3.16987e+06	-1.530965E-9	NaN
1205	1.000000	0.602549	7.37683e+06	-55339.1	1105.82	-29741.6	0.000000	0.000000	6.602979	0.101307	NaN	0.000000	0.001535	0.001696	28.083	0.095829	0.002150	44.5758	-159.17	-162.551	0.093994	0.601279	-0.457386	-0.458655	0.101307	44.5758	-0.459090	-916716	-1.105106E-7	NaN
1205	1.000000	0.642591	7.37683e+06	-55339.1	1105.82	-29741.7	0.000000	0.000000	6.643018	0.021760	NaN	0.000000	0.001525	0.001670	28.0835	0.054280	0.002040	26.6118	89.3868	-165.658	0.087278	0.641300	-0.417343	-0.418634	0.021760	26.6118	-0.417957	-240672	-9.041379E-8	NaN
1205	1.000000	0.682569	7.37683e+06	-55339.1	1105.82	-29741.7	0.000000	0.000000	6.682996	0.005077	NaN	0.000000	0.001525	0.001721	28.0829	0.019451	0.002093	9.292969	121.503	-166.367	-0.061472	0.681305	-0.377365	-0.378629	0.005077	9.292969	-0.377775	-64260.3	-7.901343E-8	NaN
1205	1.000000	0.722575	7.37683e+06	-55339.1	1105.82	-29741.7	0.000000	0.000000	6.723003	0.054076	NaN	0.000000	0.001505	0.001696	28.0831	0.044970	0.001979	22.723	78.7568	-163.368	0.028700	0.721318	-0.337360	-0.338616	0.054076	22.723	-0.339145	-17745.3	-3.047331E-6	NaN
1205	1.000000	0.762639	7.37683e+06	-55339.1	1105.82	-29741.7	0.000000	0.000000	6.763066	0.014124	NaN	0.000000	0.001519	0.001695	28.0831	0.085909	0.001997	43.018	-42.1188	-165.716	0.046583	0.761303	-0.297296	-0.298631	0.014124	43.018	-0.297542	-4325.28	-3.265536E-6	NaN
1205	1.000000	0.802623	7.37683e+06	-55339.1	1105.82	-29741.7	0.000000	0.000000	6.803053	0.072068	NaN	0.000000	0.001526	0.001679	28.0819	0.043782	0.002047	21.3851	51.2957	-165.519	0.018152	0.801365	-0.257311	-0.258570	0.072068	21.3851	-0.259839	-1165.32	-6.184381E-5	NaN
1205	1.000000	0.842675	7.37683e+06	-55339.1	1105.82	-29741.7	0.000000	0.000000	6.843103	0.029462	NaN	0.000000	0.001556	0.001668	28.082	0.010344	0.001972	5.246343	-90.3621	-166.056	0.035329	0.841320	-0.217259	-0.218614	0.029462	5.246343	-0.221471	-293.199	-0.000100	NaN
1205	1.000000	0.882639	7.37683e+06	-55339.1	1105.82	-29741.7	0.000000	0.000000	6.883066	0.016854	NaN	0.000000	0.001560	0.001638	28.0821	0.127918	0.001983	64.5183	-57.1157	-166.486	-0.009402	0.881336	-0.177296	-0.178599	0.016854	64.5183	-0.177491	-55.2947	-0.000305	NaN
1205	1.000000	0.922663	7.37683e+06	-55339.1	1105.82	-29741.7	0.000000	0.000000	6.923089	-0.012694	NaN	0.000000	0.001516	0.001685	28.0836	0.035406	0.001954	18.1155	61.364	-167.89	-0.039155	0.921328	-0.137272	-0.138607	-0.012694	18.1155	-0.136746	-10.2689	0.001236	NaN
1205	1.000000	0.962718	7.37683e+06	-55339.1	1105.82	-29741.7	0.000000	0.000000	6.963145	0.023450	NaN	0.000000	0.001516	0.001722	28.0836	0.094035	0.001982	47.4337	145.011	-163.543	0.024863	0.961383	-0.097217	-0.098552	0.023450	47.4337	-0.097588	-1.614181	-0.014528	NaN
1205	1.000000	1.002704	7.37683e+06	-55339.1	1105.82	-29741.7	0.000000	0.000000	7.003130	-0.004571	NaN	0.000000	0.001551	0.001729	28.0834	0.078119	0.002031	38.4634	-146.731	-161.182	0.051914	1.001354	-0.057231	-0.058580	-0.004571	38.4634	-0.057142	-0.148856	0.030710	NaN
1205	1.000000	1.042741	7.37683e+06	-55339.1	1105.82	-29741.7	0.000000	0.000000	7.043167	5.245193E-5	NaN	0.000000	0.001540	0.001681	28.0831	0.066102	0.002038	32.4349	93.0067	-163.904	0.000939	1.041418	-0.017193	-0.018517	5.245193E-5	32.4349	-0.017195	-0.010635	-0.004932	NaN
1205	2.000000	1.071360	7.37683e+06	-55339.1	1105.82	-29741.7	0.000000	0.000000	7.072339	13.4408	NaN	0.000000	0.001551	0.001678	28.0823	12.9024	0.001693	7620.62	5.620354	-173.73	12.4361	1.071030	0.011425	0.011095	13.4408	7620.62	0.010103	0.009296	1445.93	72214.4
1205	2.000000	1.081307	7.37683e+06	-55339.1	1105.82	-29741.7	0.000000	0.000000	7.083043	31.8325	NaN	0.000000	0.001521	0.001692	28.0824	24.024	0.001836	13083.5	7.094095	-178.014	33.1117	1.081023	0.021373	0.021089	31.8325	13083.5	0.019548	0.021837	1457.72	80891
1205	2.000000	1.091325	7.37683e+06	-55339.1	1105.82	-29741.7	0.000000	0.000000	7.094089	56.8225	NaN	0.000000	0.001539	0.001669	28.0824	34.3558	0.001702	20185.3	5.675239	178.753	59.361	1.091030	0.031391	0.031095	56.8225	20185.3	0.029280	0.039264	1447.2	93070.7
1205	2.000000	1.101238	7.37683e+06	-55339.1	1105.82	-29741.7	0.000000	0.000000	7.105664	97.235	NaN	0.000000	0.001573	0.001654	28.0837	45.2308	0.001970	22962.2	4.159996	-179.926	96.7471	1.100876	0.041303	0.040942	97.235	22962.2	0.038127	0.059278	1640.32	86167
1205	2.000000	1.111170	7.37683e+06	-55339.1	1105.82	-29741.7	0.000000	0.000000	7.117428	141.774	NaN	0.000000	0.001568	0.001649	28.0838	53.5054	0.001772	30200	4.455747	176.549	138.775	1.110892	0.051235	0.050958	141.774	30200	0.047714	0.085479	1658.57	94373.2
1205	2.000000	1.121181	7.37683e+06	-55339.1	1105.82	-29741.7	0.000000	0.000000	7.129680	196.228	NaN	0.000000	0.001551	0.001635	28.0838	64.2845	0.001759	36547.7	5.720471	174.597	195.117	1.120822	0.061247	0.060887	196.228	36547.7	0.057220	0.116028	1691.2	98028.1
1205	2.000000	1.131153	7.37683e+06	-55339.1	1105.82	-29741.7	0.000000	0.000000	7.141943	251.934	NaN	0.000000	0.001574	0.001668	28.0827	74.29	0.001774	41882	1.973592	176.17	247.375	1.130948	0.071218	0.071014	251.934	41882	0.066707	0.150951	1668.99	98488
1205	2.000000	1.141140	7.37683e+06	-55339.1	1105.82	-29741.7	0.000000	0.000000	7.154860	323.158	NaN	0.000000	0.001547	0.001660	28.0824	83.392	0.001788	46637.8	5.082660	172.393	318.169	1.140925	0.081205	0.080990	323.158	46637.8	0.076009	0.189385	1706.35	97912.4
1205	2.000000	1.151196	7.37683e+06	-55339.1	1105.82	-29741.7	0.000000	0.000000	7.168135	401.395	NaN	0.000000	0.001570	0.001632	28.0826	94.7811	0.001751	54120.7	4.721395	171.593	401.389	1.150947	0.091262	0.091013	401.395	54120.7	0.085699	0.233748	1717.21	102273
1205	2.000000	1.161166	7.37683e+06	-55339.1	1105.82	-29741.7	0.000000	0.000000	7.181648	487.537	NaN	0.000000	0.001567	0.001680	28.0829	104.385	0.001748	59717.5	4.374231	171.788	487.041	1.160871	0.101231	0.100937	487.537	59717.5	0.095108	0.280970	1735.2	102931
1205	2.000000	1.166144	7.37683e+06	-55339.1	1105.82	-29741.7	0.000000	0.000000	7.188306	528.361	NaN	0.000000	0.001547	0.001629	28.0837	107.884	0.001819	59311.3	2.532459	173.861	524.898	1.165837	0.106210	0.105903	528.361	59311.3	0.099528	0.304551	1734.89	98193