File: remote_trans/data/nanoindenter/0828-1/data/Data_2025-08-06,11h17m57s/2025-07-22_16-23-58_1_1194.txt
2025-07-22, 16:23:58, 1
Index	Phase	Displacement	Time	Pos X	Pos Y	Pos Z	Rot A	Rot B	Piezo Z	Force A	Force B	Gripper	Voltage A	Voltage B	Temperature	Amplitude force	Amplitude pos	Stiffness	Phase shift	Phase excitation	Force A raw	Displacement raw	HMax	HMax raw	Real Force	Real Stiffness	Contact Depth	Area	Hardness	Reduced Mod.
[#]	[#]	[um]	[s]	[um]	[um]	[um]	[m°]	[m°]	[um]	[uN]	[uN]	[V]	[V]	[V]	[°C]	[uN]	[um]	[N/m]	[°]	[°]	[uN]	[um]	[um]	[um]	[uN]	[N/m]	[um]	[um^2]	[MPa]	[MPa]
1194	1.000000	0.002298	7.37672e+06	-55889.1	1105.82	-29740.4	0.000000	0.000000	6.002822	-0.073558	NaN	0.000000	0.001670	0.001715	28.0823	0.085251	0.000882	96.635	11.3006	-164.103	-0.037444	0.001005	-1.037215	-1.038508	-0.073558	96.635	-1.036644	-7.060537E+13	1.041813E-15	NaN
1194	1.000000	0.042212	7.37672e+06	-55889.1	1105.82	-29740.4	0.000000	0.000000	6.042739	0.016807	NaN	0.000000	0.001645	0.001677	28.0823	0.064947	0.001971	32.9471	-29.6231	-165.51	-0.047690	0.040982	-0.997301	-0.998532	0.016807	32.9471	-0.997684	-2.111455E+13	-7.959736E-16	NaN
1194	1.000000	0.082217	7.37672e+06	-55889.1	1105.82	-29740.4	0.000000	0.000000	6.082742	-0.031727	NaN	0.000000	0.001634	0.001652	28.0824	0.070303	0.002155	32.6167	109.4	-167.472	0.079324	0.081001	-0.957296	-0.958513	-0.031727	32.6167	-0.956566	-5.896262E+12	5.380796E-15	NaN
1194	1.000000	0.122256	7.37672e+06	-55889.1	1105.82	-29740.4	0.000000	0.000000	6.122781	-0.033116	NaN	0.000000	0.001565	0.001668	28.081	0.016224	0.001898	8.548363	153.291	-164.629	-0.061360	0.120900	-0.917257	-0.918613	-0.033116	8.548363	-0.914352	-1.588318E+12	2.084957E-14	NaN
1194	1.000000	0.162263	7.37672e+06	-55889.1	1105.82	-29740.4	0.000000	0.000000	6.162790	-0.002419	NaN	0.000000	0.001536	0.001646	28.0812	0.093468	0.002106	44.3784	174.974	-164.041	-0.008639	0.160977	-0.877250	-0.878536	-0.002419	44.3784	-0.877209	-4.999898E+11	4.838131E-15	NaN
1194	1.000000	0.202271	7.37672e+06	-55889.1	1105.82	-29740.4	0.000000	0.000000	6.202794	-0.074157	NaN	0.000000	0.001578	0.001610	28.0809	0.025724	0.001990	12.9287	-164.243	-165.583	-0.048082	0.200941	-0.837243	-0.838573	-0.074157	12.9287	-0.832941	-1.257885E+11	5.895374E-13	NaN
1194	1.000000	0.242267	7.37672e+06	-55889.1	1105.82	-29740.4	0.000000	0.000000	6.242797	0.065878	NaN	0.000000	0.001596	0.001604	28.0823	0.021946	0.001978	11.0927	34.9818	-166.765	0.118730	0.240989	-0.797246	-0.798524	0.065878	11.0927	-0.801700	-4.741733E+10	-1.389315E-12	NaN
1194	1.000000	0.282315	7.37672e+06	-55889.1	1105.82	-29740.4	0.000000	0.000000	6.282841	-0.009249	NaN	0.000000	0.001600	0.001661	28.082	0.016262	0.002130	7.633729	157.521	-167.649	-1.804436E-5	0.281004	-0.757199	-0.758509	-0.009249	7.633729	-0.756290	-1.145051E+10	8.077488E-13	NaN
1194	1.000000	0.322331	7.37672e+06	-55889.1	1105.82	-29740.4	0.000000	0.000000	6.322858	0.008686	NaN	0.000000	0.001598	0.001629	28.0821	0.112276	0.001956	57.4156	138.614	-163.136	0.063544	0.321025	-0.717182	-0.718488	0.008686	57.4156	-0.717295	-3.369648E+9	-2.577762E-12	NaN
1194	1.000000	0.362348	7.37672e+06	-55889.1	1105.82	-29740.4	0.000000	0.000000	6.362875	0.015212	NaN	0.000000	0.001568	0.001616	28.0817	0.073441	0.002026	36.2543	24.6701	-168.45	-0.024457	0.361094	-0.677166	-0.678420	0.015212	36.2543	-0.677480	-9.632585E+8	-1.579274E-11	NaN
1194	1.000000	0.402353	7.37672e+06	-55889.1	1105.82	-29740.4	0.000000	0.000000	6.402881	0.054433	NaN	0.000000	0.001557	0.001649	28.0807	0.009709	0.001934	5.018825	-114.878	-166.853	0.035133	0.401067	-0.637161	-0.638446	0.054433	5.018825	-0.645295	-3.490782E+8	-1.559350E-10	NaN
1194	1.000000	0.442370	7.37672e+06	-55889.1	1105.82	-29740.4	0.000000	0.000000	6.442896	-0.018745	NaN	0.000000	0.001607	0.001642	28.0806	0.099089	0.001934	51.2315	150.684	-167.108	-0.034942	0.441071	-0.597143	-0.598442	-0.018745	51.2315	-0.596869	-7.539229E+7	2.486301E-10	NaN
1194	1.000000	0.482406	7.37672e+06	-55889.1	1105.82	-29740.4	0.000000	0.000000	6.482930	-0.050945	NaN	0.000000	0.001611	0.001633	28.0807	0.079165	0.002014	39.3056	55.1058	-165.197	-0.036866	0.481094	-0.557108	-0.558419	-0.050945	39.3056	-0.556135	-2.064924E+7	2.467155E-9	NaN
1194	1.000000	0.522399	7.37672e+06	-55889.1	1105.82	-29740.4	0.000000	0.000000	6.522924	-0.026745	NaN	0.000000	0.001580	0.001608	28.0819	0.036082	0.002038	17.701	1.525781	-162.501	-0.030781	0.521136	-0.517114	-0.518377	-0.026745	17.701	-0.515981	-5.72382e+06	4.672641E-9	NaN
1194	1.000000	0.562415	7.37672e+06	-55889.1	1105.82	-29740.4	0.000000	0.000000	6.562943	0.020803	NaN	0.000000	0.001570	0.001646	28.082	0.023165	0.001900	12.1934	-7.609161	-167.789	0.010468	0.561101	-0.477098	-0.478412	0.020803	12.1934	-0.478377	-1.70927e+06	-1.217048E-8	NaN
1194	1.000000	0.602446	7.37673e+06	-55889.1	1105.82	-29740.4	0.000000	0.000000	6.602972	-0.008249	NaN	0.000000	0.001569	0.001620	28.0823	0.101226	0.002218	45.6451	86.0239	-165.135	-0.072175	0.601145	-0.437067	-0.438369	-0.008249	45.6451	-0.436931	-446725	1.846586E-8	NaN
1194	1.000000	0.642509	7.37673e+06	-55889.1	1105.82	-29740.4	0.000000	0.000000	6.643038	0.060470	NaN	0.000000	0.001587	0.001637	28.0809	0.049520	0.002010	24.6384	130.857	-168.116	-0.002767	0.641166	-0.397005	-0.398347	0.060470	24.6384	-0.398845	-128684	-4.699101E-7	NaN
1194	1.000000	0.682478	7.37673e+06	-55889.1	1105.82	-29740.4	0.000000	0.000000	6.683005	0.006021	NaN	0.000000	0.001568	0.001648	28.081	0.024245	0.002019	12.0063	134.401	-166.724	0.041343	0.681193	-0.357035	-0.358320	0.006021	12.0063	-0.357411	-32689.4	-1.841749E-7	NaN
1194	1.000000	0.722486	7.37673e+06	-55889.1	1105.82	-29740.4	0.000000	0.000000	6.723011	-0.020667	NaN	0.000000	0.001568	0.001639	28.0812	0.024937	0.001858	13.4221	-118.792	-167.494	0.009385	0.721184	-0.317028	-0.318329	-0.020667	13.4221	-0.315873	-8087.7	2.555363E-6	NaN
1194	1.000000	0.762524	7.37673e+06	-55889.1	1105.82	-29740.4	0.000000	0.000000	6.763048	-0.058447	NaN	0.000000	0.001544	0.001613	28.081	0.115512	0.001999	57.7751	32.0237	-163.835	-0.057712	0.761188	-0.276989	-0.278325	-0.058447	57.7751	-0.276230	-2070.24	2.823214E-5	NaN
1194	1.000000	0.802527	7.37673e+06	-55889.1	1105.82	-29740.4	0.000000	0.000000	6.803054	0.004588	NaN	0.000000	0.001518	0.001617	28.0824	0.030438	0.001929	15.7824	-111.182	-162.076	0.025121	0.801133	-0.236986	-0.238380	0.004588	15.7824	-0.237204	-519.773	-8.826033E-6	NaN
1194	1.000000	0.842576	7.37673e+06	-55889.1	1105.82	-29740.4	0.000000	0.000000	6.843102	-0.005796	NaN	0.000000	0.001531	0.001672	28.0825	0.059123	0.002025	29.1995	-13.6269	-165.281	-0.036618	0.841250	-0.196937	-0.198263	-0.005796	29.1995	-0.196788	-116.623	4.969693E-5	NaN
1194	1.000000	0.882563	7.37673e+06	-55889.1	1105.82	-29740.4	0.000000	0.000000	6.883089	-0.013627	NaN	0.000000	0.001560	0.001628	28.0825	0.076583	0.002004	38.2064	-120.761	-167.315	-0.022301	0.881243	-0.156950	-0.158270	-0.013627	38.2064	-0.156683	-23.922	0.000570	NaN
1194	1.000000	0.922560	7.37673e+06	-55889.1	1105.82	-29740.4	0.000000	0.000000	6.923084	-0.056631	NaN	0.000000	0.001538	0.001645	28.0809	0.098513	0.001956	50.3684	155.63	-168.304	-0.061205	0.921287	-0.116953	-0.118227	-0.056631	50.3684	-0.116110	-4.026550	0.014064	NaN
1194	1.000000	0.962599	7.37673e+06	-55889.1	1105.82	-29740.4	0.000000	0.000000	6.963126	0.022044	NaN	0.000000	0.001512	0.001637	28.0809	0.074462	0.002089	35.6418	-118.873	-168.016	0.033078	0.961296	-0.076914	-0.078217	0.022044	35.6418	-0.077378	-0.531547	-0.041471	NaN
1194	1.000000	1.002629	7.37673e+06	-55889.1	1105.82	-29740.4	0.000000	0.000000	7.003155	0.003222	NaN	0.000000	0.001529	0.001627	28.0808	0.035187	0.001941	18.1299	39.9027	-163.133	-0.033119	1.001332	-0.036885	-0.038181	0.003222	18.1299	-0.037018	-0.036762	-0.087645	NaN
1194	1.000000	1.042617	7.37673e+06	-55889.1	1105.82	-29740.4	0.000000	0.000000	7.043359	5.236029	NaN	0.000000	0.001530	0.001664	28.0808	6.087943	0.001930	3153.67	14.4103	-172.873	4.174717	1.041330	0.003104	0.001817	5.236029	3153.67	0.001859	0.001441	3633.45	75901.1
1194	2.000000	1.055126	7.37673e+06	-55889.1	1105.82	-29740.4	0.000000	0.000000	7.056503	20.6656	NaN	0.000000	0.001566	0.001648	28.0822	19.6057	0.002027	9671.84	5.846256	-175.034	20.1589	1.054790	0.015613	0.015276	20.6656	9671.84	0.014010	0.013988	1477.38	74714.6
1194	2.000000	1.065122	7.37673e+06	-55889.1	1105.82	-29740.4	0.000000	0.000000	7.067409	42.7951	NaN	0.000000	0.001545	0.001643	28.0823	29.176	0.001786	16338.1	7.729697	177.517	42.4767	1.064753	0.025609	0.025240	42.7951	16338.1	0.023644	0.028595	1496.59	88273.1
1194	2.000000	1.075044	7.37673e+06	-55889.1	1105.82	-29740.4	0.000000	0.000000	7.078689	75.7826	NaN	0.000000	0.001542	0.001671	28.0822	37.6725	0.001741	21636.2	3.744840	179.062	74.7877	1.074761	0.035531	0.035248	75.7826	21636.2	0.032904	0.046979	1613.12	91201.8
1194	2.000000	1.085008	7.37673e+06	-55889.1	1105.82	-29740.4	0.000000	0.000000	7.090034	109.364	NaN	0.000000	0.001565	0.001670	28.0811	47.6605	0.001884	25292.9	4.278520	177.404	106.624	1.084796	0.045495	0.045283	109.364	25292.9	0.042252	0.069979	1562.82	87355.3
1194	2.000000	1.095061	7.37673e+06	-55889.1	1105.82	-29740.4	0.000000	0.000000	7.101860	152.475	NaN	0.000000	0.001577	0.001671	28.0812	58.1213	0.001816	32012.1	7.164727	171.457	151.944	1.094681	0.055548	0.055168	152.475	32012.1	0.051975	0.098617	1546.14	93134.9
1194	2.000000	1.105034	7.37673e+06	-55889.1	1105.82	-29740.4	0.000000	0.000000	7.114160	209.036	NaN	0.000000	0.001593	0.001615	28.0811	66.6917	0.001832	36405.4	5.617912	172.825	207.589	1.104664	0.065520	0.065151	209.036	36405.4	0.061214	0.130197	1605.53	92180.3
1194	2.000000	1.114979	7.37673e+06	-55889.1	1105.82	-29740.4	0.000000	0.000000	7.126560	268.694	NaN	0.000000	0.001585	0.001624	28.0821	76.3232	0.001867	40881.4	4.070848	173.178	265.521	1.114722	0.075466	0.075209	268.694	40881.4	0.070537	0.166279	1615.92	91596.8
1194	2.000000	1.124973	7.37673e+06	-55889.1	1105.82	-29740.4	0.000000	0.000000	7.139134	331.42	NaN	0.000000	0.001601	0.001640	28.0819	85.2011	0.001775	48007.4	4.070629	172.075	328.769	1.124695	0.085460	0.085181	331.42	48007.4	0.080282	0.208412	1590.22	96077.1
1194	2.000000	1.134936	7.37673e+06	-55889.1	1105.82	-29740.4	0.000000	0.000000	7.152460	413.179	NaN	0.000000	0.001600	0.001618	28.082	94.1412	0.001821	51710.1	3.437794	172.609	410.662	1.134593	0.095423	0.095080	413.179	51710.1	0.089430	0.251986	1639.69	94115.4
1194	2.000000	1.144510	7.37673e+06	-55889.1	1105.82	-29740.4	0.000000	0.000000	7.165128	488.367	NaN	0.000000	0.001658	0.001605	28.0821	104.778	0.001764	59392.8	7.307004	-11.4057	489.414	1.143898	0.104997	0.104385	488.367	59392.8	0.098830	0.300766	1623.75	98944.8