File: remote_trans/data/nanoindenter/0828-1/data/Data_2025-08-06,11h17m57s/2025-07-22_16-23-58_1_547.txt
2025-07-22, 16:23:58, 1
Index	Phase	Displacement	Time	Pos X	Pos Y	Pos Z	Rot A	Rot B	Piezo Z	Force A	Force B	Gripper	Voltage A	Voltage B	Temperature	Amplitude force	Amplitude pos	Stiffness	Phase shift	Phase excitation	Force A raw	Displacement raw	HMax	HMax raw	Real Force	Real Stiffness	Contact Depth	Area	Hardness	Reduced Mod.
[#]	[#]	[um]	[s]	[um]	[um]	[um]	[m°]	[m°]	[um]	[uN]	[uN]	[V]	[V]	[V]	[°C]	[uN]	[um]	[N/m]	[°]	[°]	[uN]	[um]	[um]	[um]	[uN]	[N/m]	[um]	[um^2]	[MPa]	[MPa]
547	1.000000	0.002400	7.3704e+06	-49739.1	1005.82	-29757.9	0.000000	0.000000	6.002782	-0.001747	NaN	0.000000	0.001668	0.001792	28.0816	0.085710	0.001032	83.0733	-162.543	-165.366	0.040676	0.001151	-1.129669	-1.130917	-0.001747	83.0733	-1.129653	-1.253053E+15	1.393910E-18	NaN
547	1.000000	0.044379	7.3704e+06	-49739.1	1005.82	-29757.9	0.000000	0.000000	6.044762	0.052295	NaN	0.000000	0.001699	0.001733	28.0814	0.052131	0.001894	27.5252	144.803	13.0282	-0.001341	0.042935	-1.087690	-1.089134	0.052295	27.5252	-1.089115	-3.580383E+14	-1.460607E-16	NaN
547	1.000000	0.086375	7.3704e+06	-49739.1	1005.82	-29757.9	0.000000	0.000000	6.086758	0.028901	NaN	0.000000	0.001645	0.001757	28.0816	0.034607	0.001866	18.5451	88.2009	-167.014	0.015181	0.085065	-1.045694	-1.047004	0.028901	18.5451	-1.046863	-9.688070E+13	-2.983202E-16	NaN
547	1.000000	0.128377	7.3704e+06	-49739.1	1005.82	-29757.9	0.000000	0.000000	6.128760	0.022558	NaN	0.000000	0.001582	0.001785	28.0821	0.086128	0.001996	43.1596	113.72	15.2426	-0.001148	0.127072	-1.003691	-1.004996	0.022558	43.1596	-1.004083	-2.574796E+13	-8.761002E-16	NaN
547	1.000000	0.170404	7.3704e+06	-49739.1	1005.82	-29757.9	0.000000	0.000000	6.170788	0.072830	NaN	0.000000	0.001660	0.001785	28.0824	0.049107	0.001934	25.3978	-83.2707	-167.005	0.081710	0.169071	-0.961665	-0.962997	0.072830	25.3978	-0.963816	-7.384292E+12	-9.862824E-15	NaN
547	1.000000	0.212412	7.3704e+06	-49739.1	1005.82	-29757.9	0.000000	0.000000	6.212794	0.007679	NaN	0.000000	0.001622	0.001768	28.0823	0.056161	0.001924	29.1915	-25.22	13.3058	-0.084485	0.211069	-0.919657	-0.921000	0.007679	29.1915	-0.919854	-1.884670E+12	-4.074319E-15	NaN
547	1.000000	0.254435	7.3704e+06	-49739.1	1005.82	-29757.9	0.000000	0.000000	6.254816	-0.017590	NaN	0.000000	0.001590	0.001779	28.0826	0.012653	0.002085	6.068056	176.149	-167.598	-0.018645	0.253146	-0.877634	-0.878923	-0.017590	6.068056	-0.875460	-4.734793E+11	3.714947E-14	NaN
547	1.000000	0.296475	7.3704e+06	-49739.1	1005.82	-29757.9	0.000000	0.000000	6.296859	0.062208	NaN	0.000000	0.001626	0.001794	28.0814	0.131629	0.002065	63.7458	123.861	9.979941	0.097163	0.295105	-0.835594	-0.836964	0.062208	63.7458	-0.836326	-1.398033E+11	-4.449698E-13	NaN
547	1.000000	0.338512	7.3704e+06	-49739.1	1005.82	-29757.9	0.000000	0.000000	6.338892	-0.033797	NaN	0.000000	0.001655	0.001795	28.0812	0.147344	0.001961	75.137	12.1156	-168.954	0.029180	0.337193	-0.793557	-0.794876	-0.033797	75.137	-0.793220	-3.637534E+10	9.291314E-13	NaN
547	1.000000	0.380534	7.3704e+06	-49739.1	1005.82	-29757.9	0.000000	0.000000	6.380913	-0.053670	NaN	0.000000	0.001684	0.001782	28.0814	0.035781	0.001885	18.9786	3.321959	13.9032	-0.064695	0.379146	-0.751535	-0.752923	-0.053670	18.9786	-0.749414	-9.230905E+9	5.814212E-12	NaN
547	1.000000	0.422516	7.3704e+06	-49739.1	1005.82	-29757.9	0.000000	0.000000	6.422901	0.082769	NaN	0.000000	0.001610	0.001795	28.0826	0.027449	0.002129	12.8923	-54.5711	-168.851	0.105202	0.421196	-0.709553	-0.710873	0.082769	12.8923	-0.714368	-3.073591E+9	-2.692897E-11	NaN
547	1.000000	0.464546	7.3704e+06	-49739.1	1005.82	-29757.9	0.000000	0.000000	6.464928	0.006727	NaN	0.000000	0.001609	0.001749	28.0827	0.034225	0.001892	18.0901	-157.177	14.0243	0.010922	0.463211	-0.667523	-0.668858	0.006727	18.0901	-0.667801	-7.100618E+8	-9.474002E-12	NaN
547	1.000000	0.506563	7.3704e+06	-49739.1	1005.82	-29757.9	0.000000	0.000000	6.506945	0.012670	NaN	0.000000	0.001593	0.001779	28.0825	0.073340	0.002018	36.3414	-113.687	-167.447	0.024584	0.505288	-0.625506	-0.626781	0.012670	36.3414	-0.625768	-1.883170E+8	-6.728208E-11	NaN
547	1.000000	0.548571	7.3704e+06	-49739.1	1005.82	-29757.9	0.000000	0.000000	6.548950	-0.055878	NaN	0.000000	0.001632	0.001754	28.0815	0.049196	0.002015	24.4184	-137.254	12.4642	0.030463	0.547190	-0.583498	-0.584879	-0.055878	24.4184	-0.581782	-4.669988E+7	1.196526E-9	NaN
547	1.000000	0.590586	7.3704e+06	-49739.1	1005.82	-29757.9	0.000000	0.000000	6.590967	-0.007598	NaN	0.000000	0.001623	0.001750	28.0814	0.142110	0.002001	71.0183	-173.105	-166.25	-0.016976	0.589231	-0.541483	-0.542838	-0.007598	71.0183	-0.541403	-1.290671E+7	5.886791E-10	NaN
547	1.000000	0.632613	7.3704e+06	-49739.1	1005.82	-29757.9	0.000000	0.000000	6.632996	0.040319	NaN	0.000000	0.001635	0.001706	28.0814	0.020613	0.002094	9.844913	53.5649	11.3936	-0.071505	0.631255	-0.499456	-0.500813	0.040319	9.844913	-0.502528	-3.71768e+06	-1.084508E-8	NaN
547	1.000000	0.674645	7.3704e+06	-49739.1	1005.82	-29757.9	0.000000	0.000000	6.675028	0.039347	NaN	0.000000	0.001569	0.001768	28.0827	0.131665	0.001910	68.9478	-26.7433	-165.674	0.054329	0.673296	-0.457424	-0.458773	0.039347	68.9478	-0.457852	-880697	-4.467731E-8	NaN
547	1.000000	0.716651	7.3704e+06	-49739.1	1005.82	-29757.9	0.000000	0.000000	6.717034	0.036084	NaN	0.000000	0.001632	0.001742	28.0826	0.087777	0.001960	44.786	30.6029	15.1892	0.032669	0.715332	-0.415418	-0.416737	0.036084	44.786	-0.416022	-225929	-1.597118E-7	NaN
547	1.000000	0.758654	7.3704e+06	-49739.1	1005.82	-29757.9	0.000000	0.000000	6.759037	0.039977	NaN	0.000000	0.001614	0.001729	28.0826	0.107642	0.002039	52.7942	156.427	-168.507	0.034706	0.757344	-0.373415	-0.374725	0.039977	52.7942	-0.373983	-56681.6	-7.052897E-7	NaN
547	1.000000	0.800687	7.3704e+06	-49739.1	1005.82	-29757.9	0.000000	0.000000	6.801069	-0.002833	NaN	0.000000	0.001667	0.001779	28.0825	0.138053	0.001955	70.6331	128.092	14.9713	0.022395	0.799354	-0.331382	-0.332715	-0.002833	70.6331	-0.331351	-13653.3	2.075106E-7	NaN
547	1.000000	0.842704	7.3704e+06	-49739.1	1005.82	-29757.9	0.000000	0.000000	6.843086	0.016907	NaN	0.000000	0.001663	0.001767	28.0813	0.042791	0.001948	21.9671	-140.356	-166.708	-0.012129	0.841359	-0.289365	-0.290710	0.016907	21.9671	-0.289942	-3329.96	-5.077153E-6	NaN
547	1.000000	0.884717	7.3704e+06	-49739.1	1005.82	-29757.9	0.000000	0.000000	6.885100	0.035232	NaN	0.000000	0.001651	0.001747	28.0813	0.085489	0.002006	42.6169	104.642	15.3302	0.059654	0.883373	-0.247352	-0.248696	0.035232	42.6169	-0.247972	-764.841	-4.606403E-5	NaN
547	1.000000	0.926719	7.3704e+06	-49739.1	1005.82	-29757.9	0.000000	0.000000	6.927101	0.021019	NaN	0.000000	0.001666	0.001748	28.0813	0.072559	0.002004	36.2024	-18.7558	-161.914	0.032400	0.925364	-0.205350	-0.206705	0.021019	36.2024	-0.205786	-163.819	-0.000128	NaN
547	1.000000	0.968737	7.3704e+06	-49739.1	1005.82	-29757.9	0.000000	0.000000	6.969121	0.061525	NaN	0.000000	0.001612	0.001754	28.0825	0.060870	0.002065	29.4744	-65.1002	13.2067	-0.024867	0.967407	-0.163332	-0.164662	0.061525	29.4744	-0.164897	-33.4584	-0.001839	NaN
547	1.000000	1.010746	7.3704e+06	-49739.1	1005.82	-29757.9	0.000000	0.000000	7.011129	0.026918	NaN	0.000000	0.001628	0.001757	28.0828	0.016768	0.001939	8.647768	-60.3893	-167.36	-0.044288	1.009449	-0.121323	-0.122620	0.026918	8.647768	-0.123657	-5.719507	-0.004706	NaN
547	1.000000	1.052815	7.3704e+06	-49739.1	1005.82	-29757.9	0.000000	0.000000	7.053197	-0.004572	NaN	0.000000	0.001599	0.001728	28.0825	0.014871	0.002064	7.204210	-164.071	12.2659	-0.013705	1.051420	-0.079253	-0.080649	-0.004572	7.204210	-0.078777	-0.576751	0.007928	NaN
547	1.000000	1.094787	7.3704e+06	-49739.1	1005.82	-29757.9	0.000000	0.000000	7.095169	0.010743	NaN	0.000000	0.001608	0.001751	28.0811	0.068656	0.001999	34.3453	144.368	-168.384	-0.057034	1.093455	-0.037282	-0.038614	0.010743	34.3453	-0.037517	-0.038050	-0.282346	NaN
547	1.000000	1.136786	7.3704e+06	-49739.1	1005.82	-29757.9	0.000000	0.000000	7.137323	3.767304	NaN	0.000000	0.001638	0.001746	28.0812	4.664307	0.001845	2528.41	10.239	8.821274	2.508080	1.135414	0.004717	0.003345	3.767304	2528.41	0.003600	0.002891	1303.12	42963.4
547	2.000000	1.150390	7.3704e+06	-49739.1	1005.82	-29757.9	0.000000	0.000000	7.151693	22.3917	NaN	0.000000	0.001627	0.001767	28.0812	18.2097	0.001730	10523.6	3.462086	-175.446	21.0801	1.150069	0.018321	0.018000	22.3917	10523.6	0.016726	0.017656	1268.23	72359.2
547	2.000000	1.160870	7.3704e+06	-49739.1	1005.82	-29757.9	0.000000	0.000000	7.163370	51.4998	NaN	0.000000	0.001645	0.001737	28.0822	29.6374	0.001799	16476.6	1.678478	2.325691	50.5948	1.160559	0.028802	0.028490	51.4998	16476.6	0.026457	0.033720	1527.27	81977.5
547	2.000000	1.171296	7.3704e+06	-49739.1	1005.82	-29757.9	0.000000	0.000000	7.175308	88.2947	NaN	0.000000	0.001616	0.001750	28.0832	39.0016	0.001747	22319.1	5.273527	175.814	85.6056	1.171061	0.039227	0.038992	88.2947	22319.1	0.036260	0.054721	1613.55	87171.2
547	2.000000	1.181864	7.3704e+06	-49739.1	1005.82	-29757.9	0.000000	0.000000	7.187547	128.946	NaN	0.000000	0.001645	0.001773	28.0829	48.519	0.001776	27326.3	3.085767	-4.147083	129.7	1.181577	0.049795	0.049508	128.946	27326.3	0.046256	0.081192	1588.17	87619.1
547	2.000000	1.192347	7.37041e+06	-49739.1	1005.82	-29757.9	0.000000	0.000000	7.200340	185.097	NaN	0.000000	0.001624	0.001727	28.0826	60.0757	0.001871	32109.3	8.764113	170.801	183.985	1.191962	0.060278	0.059894	185.097	32109.3	0.055955	0.111704	1657.03	87774.6
547	2.000000	1.202903	7.37041e+06	-49739.1	1005.82	-29757.9	0.000000	0.000000	7.213192	240.942	NaN	0.000000	0.001639	0.001793	28.0814	69.3977	0.001777	39047.5	3.732538	-6.946862	243.763	1.202624	0.070834	0.070555	240.942	39047.5	0.066206	0.148998	1617.08	92422.4
547	2.000000	1.213330	7.37041e+06	-49739.1	1005.82	-29757.9	0.000000	0.000000	7.226506	311.149	NaN	0.000000	0.001597	0.001746	28.0813	78.107	0.001686	46319.6	3.870131	171.651	311.333	1.212956	0.081262	0.080887	311.149	46319.6	0.076223	0.190322	1634.86	97005.1
547	2.000000	1.223659	7.37041e+06	-49739.1	1005.82	-29757.9	0.000000	0.000000	7.240351	396.672	NaN	0.000000	0.001588	0.001738	28.0814	89.1077	0.001916	46503	6.566958	-10.0122	387.81	1.223293	0.091590	0.091224	396.672	46503	0.085192	0.231319	1714.83	88338.3
547	2.000000	1.234473	7.37041e+06	-49739.1	1005.82	-29757.9	0.000000	0.000000	7.253725	458.923	NaN	0.000000	0.001628	0.001723	28.0827	98.3448	0.001784	55124	7.800667	167.697	472.132	1.234024	0.102404	0.101955	458.923	55124	0.096160	0.286502	1601.81	94091.3
547	2.000000	1.239222	7.37041e+06	-49739.1	1005.82	-29757.9	0.000000	0.000000	7.260654	511.947	NaN	0.000000	0.001602	0.001732	28.0825	101.694	0.001813	56087.5	5.056828	169.396	508.15	1.239041	0.107153	0.106972	511.947	56087.5	0.100307	0.308796	1657.88	92215.4