File: remote_trans/data/nanoindenter/0828-1/data/Data_2025-08-06,11h17m57s/2025-07-22_16-23-58_1_187.txt
2025-07-22, 16:23:58, 1
Index	Phase	Displacement	Time	Pos X	Pos Y	Pos Z	Rot A	Rot B	Piezo Z	Force A	Force B	Gripper	Voltage A	Voltage B	Temperature	Amplitude force	Amplitude pos	Stiffness	Phase shift	Phase excitation	Force A raw	Displacement raw	HMax	HMax raw	Real Force	Real Stiffness	Contact Depth	Area	Hardness	Reduced Mod.
[#]	[#]	[um]	[s]	[um]	[um]	[um]	[m°]	[m°]	[um]	[uN]	[uN]	[V]	[V]	[V]	[°C]	[uN]	[um]	[N/m]	[°]	[°]	[uN]	[um]	[um]	[um]	[uN]	[N/m]	[um]	[um^2]	[MPa]	[MPa]
187	1.000000	0.002153	7.36687e+06	-47989.1	955.818	-29764.5	0.000000	0.000000	6.002779	-0.031312	NaN	0.000000	0.001605	0.001628	28.0787	0.087327	0.000991	88.1013	32.4285	-166.918	-0.038391	0.000948	-1.067623	-1.068828	-0.031312	88.1013	-1.067357	-1.826724E+14	1.714119E-16	NaN
187	1.000000	0.042133	7.36687e+06	-47989.1	955.819	-29764.5	0.000000	0.000000	6.042762	0.059073	NaN	0.000000	0.001605	0.001599	28.0786	0.071427	0.002118	33.7234	162.798	-167.545	0.064724	0.040797	-1.027643	-1.028979	0.059073	33.7234	-1.028957	-5.564792E+13	-1.061557E-15	NaN
187	1.000000	0.082156	7.36687e+06	-47989.1	955.818	-29764.5	0.000000	0.000000	6.082784	0.021452	NaN	0.000000	0.001658	0.001608	28.0798	0.062734	0.001990	31.5302	89.406	-167.604	0.050594	0.080876	-0.987620	-0.988900	0.021452	31.5302	-0.988130	-1.570112E+13	-1.366273E-15	NaN
187	1.000000	0.122151	7.36687e+06	-47989.1	955.818	-29764.5	0.000000	0.000000	6.122779	0.034667	NaN	0.000000	0.001656	0.001626	28.0799	0.082127	0.002075	39.5763	-132.801	-164.972	0.056008	0.120852	-0.947625	-0.948924	0.034667	39.5763	-0.948282	-4.558886E+12	-7.604277E-15	NaN
187	1.000000	0.162145	7.36687e+06	-47989.1	955.817	-29764.5	0.000000	0.000000	6.162772	0.000478	NaN	0.000000	0.001640	0.001639	28.0797	0.097523	0.001979	49.2741	-125.141	-166.012	0.030540	0.160873	-0.907631	-0.908903	0.000478	49.2741	-0.907638	-1.289019E+12	-3.705834E-16	NaN
187	1.000000	0.202191	7.36687e+06	-47989.1	955.819	-29764.5	0.000000	0.000000	6.202818	-0.004615	NaN	0.000000	0.001672	0.001602	28.0791	0.022268	0.001815	12.2661	-133.004	-162.802	0.096726	0.200861	-0.867585	-0.868915	-0.004615	12.2661	-0.867303	-3.672384E+11	1.256589E-14	NaN
187	1.000000	0.242214	7.36687e+06	-47989.1	955.819	-29764.5	0.000000	0.000000	6.242839	-0.046284	NaN	0.000000	0.001607	0.001627	28.0784	0.068820	0.002001	34.3968	167.56	-165.269	-0.086219	0.240939	-0.827562	-0.828837	-0.046284	34.3968	-0.826553	-1.030524E+11	4.491342E-13	NaN
187	1.000000	0.282236	7.36687e+06	-47989.1	955.82	-29764.5	0.000000	0.000000	6.282860	-0.061559	NaN	0.000000	0.001615	0.001620	28.0784	0.050124	0.001946	25.7629	-174.046	-161.622	-0.057479	0.280869	-0.787540	-0.788907	-0.061559	25.7629	-0.785748	-2.879600E+10	2.137769E-12	NaN
187	1.000000	0.322228	7.36687e+06	-47989.1	955.818	-29764.5	0.000000	0.000000	6.322857	0.047354	NaN	0.000000	0.001604	0.001693	28.0797	0.062000	0.001891	32.7865	-168.827	-167.592	0.028348	0.320934	-0.747548	-0.748842	0.047354	32.7865	-0.748631	-9.007220E+9	-5.257364E-12	NaN
187	1.000000	0.362281	7.36687e+06	-47989.1	955.819	-29764.5	0.000000	0.000000	6.362909	0.019531	NaN	0.000000	0.001598	0.001628	28.0795	0.048400	0.001853	26.1246	-33.6109	-167.034	0.004929	0.360999	-0.707495	-0.708777	0.019531	26.1246	-0.708056	-2.520637E+9	-7.748242E-12	NaN
187	1.000000	0.402273	7.36687e+06	-47989.1	955.818	-29764.5	0.000000	0.000000	6.402898	-0.034154	NaN	0.000000	0.001637	0.001634	28.0797	0.068377	0.001956	34.9488	-135.29	-169.744	0.007202	0.400975	-0.667503	-0.668801	-0.034154	34.9488	-0.666770	-6.873517E+8	4.968861E-11	NaN
187	1.000000	0.442295	7.36687e+06	-47989.1	955.818	-29764.5	0.000000	0.000000	6.442924	0.043576	NaN	0.000000	0.001648	0.001641	28.0801	0.038646	0.002104	18.3707	34.2109	-167.162	-0.011120	0.441001	-0.627481	-0.628775	0.043576	18.3707	-0.629260	-2.103111E+8	-2.072002E-10	NaN
187	1.000000	0.482320	7.36687e+06	-47989.1	955.819	-29764.5	0.000000	0.000000	6.482947	0.014188	NaN	0.000000	0.001673	0.001652	28.0784	0.032756	0.002095	15.6389	43.2738	-166.82	0.050568	0.481027	-0.587456	-0.588749	0.014188	15.6389	-0.588137	-5.714427E+7	-2.482810E-10	NaN
187	1.000000	0.522365	7.36687e+06	-47989.1	955.818	-29764.5	0.000000	0.000000	6.522995	0.063059	NaN	0.000000	0.001655	0.001629	28.0783	0.077603	0.001933	40.1562	27.2329	-162.723	0.065958	0.521048	-0.547411	-0.548728	0.063059	40.1562	-0.548588	-1.623307E+7	-3.884607E-9	NaN
187	1.000000	0.562358	7.36687e+06	-47989.1	955.817	-29764.5	0.000000	0.000000	6.562985	-0.009498	NaN	0.000000	0.001688	0.001707	28.0782	0.055749	0.002111	26.408	-178.745	-164.111	-0.053676	0.561029	-0.507417	-0.508747	-0.009498	26.408	-0.507148	-4.312e+06	2.202612E-9	NaN
187	1.000000	0.602363	7.36687e+06	-47989.1	955.819	-29764.5	0.000000	0.000000	6.602988	-0.049196	NaN	0.000000	0.001656	0.001757	28.0796	0.096617	0.001959	49.3302	-74.9131	-166.167	-0.035277	0.601065	-0.467413	-0.468710	-0.049196	49.3302	-0.466665	-1.17116e+06	4.200638E-8	NaN
187	1.000000	0.642374	7.36687e+06	-47989.1	955.818	-29764.5	0.000000	0.000000	6.643001	0.009349	NaN	0.000000	0.001630	0.001746	28.0794	0.107318	0.001824	58.8237	-59.3962	-165.28	0.027121	0.641005	-0.427402	-0.428771	0.009349	58.8237	-0.427522	-328843	-2.843039E-8	NaN
187	1.000000	0.682387	7.36687e+06	-47989.1	955.819	-29764.5	0.000000	0.000000	6.683011	-0.068744	NaN	0.000000	0.001652	0.001703	28.0793	0.065356	0.002005	32.6042	-142.204	-165.659	-0.096687	0.681070	-0.387389	-0.388705	-0.068744	32.6042	-0.385808	-83784.2	8.204848E-7	NaN
187	1.000000	0.722405	7.36687e+06	-47989.1	955.817	-29764.5	0.000000	0.000000	6.723031	-0.039022	NaN	0.000000	0.001645	0.001728	28.0794	0.073855	0.002112	34.9722	129.519	-167.054	0.035392	0.721075	-0.347371	-0.348701	-0.039022	34.9722	-0.346534	-22733	1.716517E-6	NaN
187	1.000000	0.762434	7.36687e+06	-47989.1	955.818	-29764.5	0.000000	0.000000	6.763059	-0.030245	NaN	0.000000	0.001752	0.001728	28.0778	0.153412	0.002048	74.9105	30.2866	-163.254	0.025800	0.761087	-0.307342	-0.308689	-0.030245	74.9105	-0.307039	-5986.94	5.051903E-6	NaN
187	1.000000	0.802457	7.36687e+06	-47989.1	955.819	-29764.5	0.000000	0.000000	6.803086	0.041012	NaN	0.000000	0.001693	0.001718	28.0779	0.026325	0.001981	13.29	54.0968	-165.568	0.042805	0.801105	-0.267319	-0.268671	0.041012	13.29	-0.269633	-1644.25	-2.494269E-5	NaN
187	1.000000	0.842464	7.36687e+06	-47989.1	955.818	-29764.5	0.000000	0.000000	6.843092	0.030401	NaN	0.000000	0.001717	0.001725	28.0777	0.093432	0.001860	50.2207	-12.8059	-165.322	0.006816	0.841171	-0.227312	-0.228605	0.030401	50.2207	-0.227766	-369.145	-8.235437E-5	NaN
187	1.000000	0.882495	7.36687e+06	-47989.1	955.817	-29764.5	0.000000	0.000000	6.883123	0.014964	NaN	0.000000	0.001669	0.001719	28.0795	0.105058	0.001952	53.8168	174.596	-163.028	0.067544	0.881180	-0.187281	-0.188596	0.014964	53.8168	-0.187489	-81.657	-0.000183	NaN
187	1.000000	0.922500	7.36687e+06	-47989.1	955.817	-29764.5	0.000000	0.000000	6.923127	0.000329	NaN	0.000000	0.001654	0.001730	28.0794	0.046663	0.002067	22.5789	111.103	-162.675	-0.022541	0.921177	-0.147276	-0.148599	0.000329	22.5789	-0.147287	-16.1558	-2.036182E-5	NaN
187	1.000000	0.962503	7.36687e+06	-47989.1	955.818	-29764.5	0.000000	0.000000	6.963131	0.033943	NaN	0.000000	0.001690	0.001717	28.0803	0.051912	0.002005	25.8863	-23.2171	-163.307	0.037616	0.961213	-0.107273	-0.108563	0.033943	25.8863	-0.108257	-2.760317	-0.012297	NaN
187	1.000000	1.002479	7.36687e+06	-47989.1	955.817	-29764.5	0.000000	0.000000	7.003105	-0.027044	NaN	0.000000	0.001681	0.001724	28.0782	0.049870	0.001917	26.0171	-120.516	-162.001	-0.051380	1.001225	-0.067297	-0.068551	-0.027044	26.0171	-0.066517	-0.274434	0.098543	NaN
187	1.000000	1.042537	7.36687e+06	-47989.1	955.818	-29764.5	0.000000	0.000000	7.043165	0.014422	NaN	0.000000	0.001676	0.001725	28.0779	0.134186	0.002090	64.2077	148.099	-165.488	0.018853	1.041254	-0.027239	-0.028522	0.014422	64.2077	-0.027407	-0.019541	-0.738057	NaN
187	2.000000	1.080117	7.36687e+06	-47989.1	955.818	-29764.5	0.000000	0.000000	7.081135	9.520483	NaN	0.000000	0.001625	0.001741	28.0778	9.324479	0.001618	5761.54	6.567519	-173.091	9.297741	1.079757	0.010341	0.009981	9.520483	5761.54	0.009102	0.008200	1161.01	58130.1
187	2.000000	1.090031	7.36688e+06	-47989.1	955.818	-29764.5	0.000000	0.000000	7.091590	22.6719	NaN	0.000000	0.001684	0.001773	28.078	18.1755	0.001821	9980.32	7.670815	-176.317	22.5511	1.089714	0.020255	0.019938	22.6719	9980.32	0.018551	0.020317	1115.93	63972.5
187	2.000000	1.099978	7.36688e+06	-47989.1	955.818	-29764.5	0.000000	0.000000	7.102447	44.7966	NaN	0.000000	0.001752	0.001675	28.0792	27.8105	0.001783	15601.8	6.868882	179.879	44.0453	1.099736	0.030202	0.029960	44.7966	15601.8	0.028049	0.036796	1217.43	74310.1
187	2.000000	1.109958	7.36688e+06	-47989.1	955.818	-29764.5	0.000000	0.000000	7.114010	83.2975	NaN	0.000000	0.001667	0.001697	28.0791	38.757	0.001814	21362.7	4.616922	179.918	81.5901	1.109618	0.040182	0.039842	83.2975	21362.7	0.037258	0.057134	1457.92	81654.6
187	2.000000	1.119963	7.36688e+06	-47989.1	955.819	-29764.5	0.000000	0.000000	7.125800	126.71	NaN	0.000000	0.001644	0.001683	28.079	49.5449	0.001912	25919.3	9.057325	173.051	126.954	1.119614	0.050187	0.049838	126.71	25919.3	0.046521	0.081963	1545.94	82715.5
187	2.000000	1.129916	7.36688e+06	-47989.1	955.818	-29764.5	0.000000	0.000000	7.137648	172.833	NaN	0.000000	0.001679	0.001679	28.0778	57.3381	0.001751	32744.3	0.755379	179.17	170.571	1.129713	0.060140	0.059937	172.833	32744.3	0.056181	0.112471	1536.69	89204.9
187	2.000000	1.139857	7.36688e+06	-47989.1	955.818	-29764.5	0.000000	0.000000	7.149975	230.847	NaN	0.000000	0.001687	0.001669	28.0778	67.7788	0.001859	36460.9	6.670819	172.592	227.243	1.139652	0.070081	0.069876	230.847	36460.9	0.065333	0.145623	1585.24	87294.3
187	2.000000	1.149884	7.36688e+06	-47989.1	955.818	-29764.5	0.000000	0.000000	7.162597	293.945	NaN	0.000000	0.001705	0.001717	28.0778	75.5271	0.001870	40379.5	0.956365	177.604	291.603	1.149724	0.080108	0.079948	293.945	40379.5	0.074649	0.183511	1601.79	86119.8
187	2.000000	1.159900	7.36688e+06	-47989.1	955.818	-29764.5	0.000000	0.000000	7.175803	371.573	NaN	0.000000	0.001683	0.001693	28.0777	84.9487	0.001747	48614.2	2.004907	175.586	369.26	1.159623	0.090124	0.089847	371.573	48614.2	0.084391	0.227506	1633.24	93119.5
187	2.000000	1.169835	7.36688e+06	-47989.1	955.819	-29764.5	0.000000	0.000000	7.189021	451.401	NaN	0.000000	0.001663	0.001712	28.079	94.0794	0.001842	51069	3.890523	173.585	447.089	1.169584	0.100059	0.099808	451.401	51069	0.093429	0.272247	1658.05	89422.9
187	2.000000	1.177878	7.36688e+06	-47989.1	955.818	-29764.5	0.000000	0.000000	7.199660	514.538	NaN	0.000000	0.001664	0.001725	28.0791	100.833	0.001754	57494.8	3.166975	173.135	511.167	1.177698	0.108102	0.107922	514.538	57494.8	0.101390	0.314748	1634.76	93631.2