File: remote_trans/data/nanoindenter/0828-1/data/Data_2025-08-06,11h17m57s/2025-07-22_16-23-58_1_525.txt
2025-07-22, 16:23:58, 1
Index	Phase	Displacement	Time	Pos X	Pos Y	Pos Z	Rot A	Rot B	Piezo Z	Force A	Force B	Gripper	Voltage A	Voltage B	Temperature	Amplitude force	Amplitude pos	Stiffness	Phase shift	Phase excitation	Force A raw	Displacement raw	HMax	HMax raw	Real Force	Real Stiffness	Contact Depth	Area	Hardness	Reduced Mod.
[#]	[#]	[um]	[s]	[um]	[um]	[um]	[m°]	[m°]	[um]	[uN]	[uN]	[V]	[V]	[V]	[°C]	[uN]	[um]	[N/m]	[°]	[°]	[uN]	[um]	[um]	[um]	[uN]	[N/m]	[um]	[um^2]	[MPa]	[MPa]
525	1.000000	0.002035	7.37019e+06	-50839.1	1005.82	-29754.4	0.000000	0.000000	6.002805	-0.051961	NaN	0.000000	0.001647	0.001699	28.083	0.085016	0.000929	91.5439	80.8235	-170.045	-0.049628	0.000735	-1.057883	-1.059183	-0.051961	91.5439	-1.057457	-1.344767E+14	3.863915E-16	NaN
525	1.000000	0.042002	7.37019e+06	-50839.1	1005.82	-29754.4	0.000000	0.000000	6.042775	0.027645	NaN	0.000000	0.001644	0.001730	28.0829	0.095509	0.001906	50.123	160.918	-163.857	0.004373	0.040677	-1.017916	-1.019241	0.027645	50.123	-1.018330	-4.003903E+13	-6.904508E-16	NaN
525	1.000000	0.081992	7.37019e+06	-50839.1	1005.82	-29754.4	0.000000	0.000000	6.082763	-0.011513	NaN	0.000000	0.001570	0.001723	28.0819	0.150044	0.001975	75.9735	29.4344	-163.959	-0.023714	0.080661	-0.977926	-0.979257	-0.011513	75.9735	-0.977812	-1.140088E+13	1.009840E-15	NaN
525	1.000000	0.122022	7.37019e+06	-50839.1	1005.82	-29754.4	0.000000	0.000000	6.122794	-0.009718	NaN	0.000000	0.001614	0.001716	28.082	0.055931	0.002174	25.7308	32.5243	-167.363	0.107842	0.120657	-0.937896	-0.939261	-0.009718	25.7308	-0.937613	-3.272849E+12	2.969419E-15	NaN
525	1.000000	0.162005	7.37019e+06	-50839.1	1005.82	-29754.4	0.000000	0.000000	6.162771	-0.146722	NaN	0.000000	0.001731	0.001714	28.0819	0.068481	0.002096	32.6698	-90.3344	-165.141	-0.082305	0.160744	-0.897913	-0.899174	-0.146722	32.6698	-0.894544	-8.577075E+11	1.710635E-13	NaN
525	1.000000	0.202043	7.37019e+06	-50839.1	1005.82	-29754.4	0.000000	0.000000	6.202814	-0.022890	NaN	0.000000	0.001662	0.001702	28.083	0.044034	0.001939	22.7102	13.5163	-164.59	-0.026008	0.200710	-0.857875	-0.859208	-0.022890	22.7102	-0.857119	-2.673757E+11	8.561033E-14	NaN
525	1.000000	0.242051	7.37019e+06	-50839.1	1005.82	-29754.4	0.000000	0.000000	6.242825	0.060914	NaN	0.000000	0.001688	0.001739	28.083	0.043317	0.001864	23.2392	156.217	-167.933	0.069097	0.240707	-0.817867	-0.819211	0.060914	23.2392	-0.819833	-8.355058E+10	-7.290670E-13	NaN
525	1.000000	0.282088	7.37019e+06	-50839.1	1005.82	-29754.4	0.000000	0.000000	6.282859	-0.009022	NaN	0.000000	0.001715	0.001711	28.0833	0.058723	0.001884	31.1725	16.5944	-165.981	-0.096294	0.280749	-0.777830	-0.779169	-0.009022	31.1725	-0.777613	-2.232531E+10	4.041212E-13	NaN
525	1.000000	0.322097	7.37019e+06	-50839.1	1005.82	-29754.4	0.000000	0.000000	6.322869	0.015942	NaN	0.000000	0.001666	0.001732	28.0832	0.010993	0.001807	6.084194	177.754	-164.68	0.038246	0.320769	-0.737822	-0.739149	0.015942	6.084194	-0.739787	-6.825777E+9	-2.335625E-12	NaN
525	1.000000	0.362093	7.37019e+06	-50839.1	1005.82	-29754.4	0.000000	0.000000	6.362865	-0.014132	NaN	0.000000	0.001649	0.001746	28.082	0.025246	0.002109	11.9723	52.3544	-161.49	-0.013426	0.360700	-0.697825	-0.699218	-0.014132	11.9723	-0.696940	-1.777184E+9	7.951662E-12	NaN
525	1.000000	0.402113	7.37019e+06	-50839.1	1005.82	-29754.4	0.000000	0.000000	6.402885	-0.000667	NaN	0.000000	0.001654	0.001743	28.0818	0.104754	0.001897	55.2189	25.4692	-166.946	3.735010E-5	0.400832	-0.657805	-0.659086	-0.000667	55.2189	-0.657796	-5.179347E+8	1.287294E-12	NaN
525	1.000000	0.442145	7.37019e+06	-50839.1	1005.82	-29754.4	0.000000	0.000000	6.442916	-0.031785	NaN	0.000000	0.001663	0.001707	28.0816	0.018167	0.001982	9.168350	31.1943	-164.136	0.024477	0.440848	-0.617773	-0.619070	-0.031785	9.168350	-0.615173	-1.346688E+8	2.360209E-10	NaN
525	1.000000	0.482197	7.37019e+06	-50839.1	1005.82	-29754.4	0.000000	0.000000	6.482969	0.002337	NaN	0.000000	0.001655	0.001710	28.0829	0.038142	0.001997	19.1021	60.4299	-164.413	0.040417	0.480858	-0.577721	-0.579060	0.002337	19.1021	-0.577813	-4.116585E+7	-5.678050E-11	NaN
525	1.000000	0.522221	7.37019e+06	-50839.1	1005.82	-29754.4	0.000000	0.000000	6.522993	-0.016845	NaN	0.000000	0.001645	0.001734	28.083	0.141920	0.002008	70.6758	150.881	-163.329	0.034205	0.520875	-0.537697	-0.539043	-0.016845	70.6758	-0.537518	-1.140060E+7	1.477520E-9	NaN
525	1.000000	0.562229	7.37019e+06	-50839.1	1005.82	-29754.4	0.000000	0.000000	6.562999	-0.042354	NaN	0.000000	0.001633	0.001719	28.0831	0.054081	0.001859	29.089	-111.236	-163.668	0.004719	0.560887	-0.497689	-0.499031	-0.042354	29.089	-0.496597	-3.0728e+06	1.378357E-8	NaN
525	1.000000	0.602200	7.37019e+06	-50839.1	1005.82	-29754.4	0.000000	0.000000	6.602968	-0.083790	NaN	0.000000	0.001654	0.001725	28.0818	0.053415	0.001907	28.016	-152.623	-169.398	-0.010472	0.600864	-0.457718	-0.459054	-0.083790	28.016	-0.455475	-815457	1.027526E-7	NaN
525	1.000000	0.642253	7.37019e+06	-50839.1	1005.82	-29754.4	0.000000	0.000000	6.643024	-0.018170	NaN	0.000000	0.001632	0.001746	28.0821	0.128779	0.001954	65.9193	-148.053	-166.099	0.016813	0.640861	-0.417665	-0.419057	-0.018170	65.9193	-0.417458	-236786	7.673475E-8	NaN
525	1.000000	0.682254	7.37019e+06	-50839.1	1005.82	-29754.4	0.000000	0.000000	6.683024	-0.063176	NaN	0.000000	0.001650	0.001749	28.082	0.120657	0.002037	59.2257	73.9185	-164.479	0.004785	0.680949	-0.377664	-0.378969	-0.063176	59.2257	-0.376864	-62353	1.013195E-6	NaN
525	1.000000	0.722278	7.37019e+06	-50839.1	1005.82	-29754.4	0.000000	0.000000	6.723050	0.005731	NaN	0.000000	0.001613	0.001705	28.0823	0.042191	0.002062	20.4594	-124.066	-163.517	0.004935	0.720963	-0.337640	-0.338955	0.005731	20.4594	-0.337851	-16990.5	-3.372975E-7	NaN
525	1.000000	0.762265	7.37019e+06	-50839.1	1005.82	-29754.4	0.000000	0.000000	6.763036	-0.010549	NaN	0.000000	0.001592	0.001709	28.0835	0.060188	0.001903	31.63	-81.0635	-164.056	-0.003729	0.760933	-0.297653	-0.298985	-0.010549	31.63	-0.297403	-4304.74	2.450608E-6	NaN
525	1.000000	0.802303	7.37019e+06	-50839.1	1005.82	-29754.4	0.000000	0.000000	6.803076	0.034534	NaN	0.000000	0.001604	0.001752	28.0835	0.079267	0.002050	38.6643	85.7734	-163.355	0.005915	0.800998	-0.257615	-0.258921	0.034534	38.6643	-0.258285	-1103.09	-3.130678E-5	NaN
525	1.000000	0.842317	7.37019e+06	-50839.1	1005.82	-29754.4	0.000000	0.000000	6.843083	-0.144133	NaN	0.000000	0.001676	0.001744	28.0835	0.122557	0.001950	62.846	109.371	-163.954	-0.149866	0.841002	-0.217601	-0.218916	-0.144133	62.846	-0.215881	-238.603	0.000604	NaN
525	1.000000	0.882320	7.37019e+06	-50839.1	1005.82	-29754.4	0.000000	0.000000	6.883090	-0.053271	NaN	0.000000	0.001631	0.001732	28.0822	0.034110	0.002041	16.7087	52.7553	-164.753	-0.127020	0.881056	-0.177598	-0.178862	-0.053271	16.7087	-0.175207	-50.5276	0.001054	NaN
525	1.000000	0.922340	7.37019e+06	-50839.1	1005.82	-29754.4	0.000000	0.000000	6.923113	0.033709	NaN	0.000000	0.001598	0.001704	28.0836	0.058697	0.001972	29.7602	53.6435	-162.013	-0.017184	0.921042	-0.137578	-0.138876	0.033709	29.7602	-0.138428	-11.05	-0.003051	NaN
525	1.000000	0.962339	7.37019e+06	-50839.1	1005.82	-29754.4	0.000000	0.000000	6.963109	-0.040944	NaN	0.000000	0.001573	0.001731	28.0823	0.091756	0.002019	45.4537	-49.4788	-162.95	-0.031857	0.961044	-0.097580	-0.098874	-0.040944	45.4537	-0.096904	-1.557996	0.026280	NaN
525	1.000000	1.002384	7.37019e+06	-50839.1	1005.82	-29754.4	0.000000	0.000000	7.003155	-0.026987	NaN	0.000000	0.001578	0.001722	28.0824	0.063751	0.002068	30.8322	-15.019	-164.773	0.018799	1.001056	-0.057534	-0.058862	-0.026987	30.8322	-0.056877	-0.146231	0.184548	NaN
525	1.000000	1.042398	7.37019e+06	-50839.1	1005.82	-29754.4	0.000000	0.000000	7.043168	-0.068400	NaN	0.000000	0.001565	0.001697	28.0832	0.067044	0.001855	36.1366	-139.336	-165.726	-0.028614	1.041093	-0.017520	-0.018825	-0.068400	36.1366	-0.016100	-0.009945	6.877986	NaN
525	2.000000	1.075873	7.37019e+06	-50839.1	1005.82	-29754.4	0.000000	0.000000	7.077187	13.1669	NaN	0.000000	0.001625	0.001736	28.0828	11.2132	0.001725	6501.36	5.122893	-170.764	13.1583	1.075574	0.015955	0.015656	13.1669	6501.36	0.014436	0.014541	905.516	49258.8
525	2.000000	1.085803	7.37019e+06	-50839.1	1005.82	-29754.4	0.000000	0.000000	7.087806	29.9369	NaN	0.000000	0.001634	0.001735	28.0829	20.6095	0.001692	12177.2	2.164781	-173.08	29.9219	1.085452	0.025885	0.025534	29.9369	12177.2	0.024041	0.029295	1021.92	65001.6
525	2.000000	1.095815	7.37019e+06	-50839.1	1005.82	-29754.4	0.000000	0.000000	7.098908	56.4487	NaN	0.000000	0.001650	0.001748	28.0819	31.2608	0.001869	16728.3	6.938093	-179.932	56.3389	1.095428	0.035896	0.035510	56.4487	16728.3	0.033366	0.048009	1175.8	69753.3
525	2.000000	1.105776	7.37019e+06	-50839.1	1005.82	-29754.4	0.000000	0.000000	7.110056	85.3111	NaN	0.000000	0.001708	0.001733	28.0819	41.6915	0.001903	21906.8	3.774067	179.586	84.484	1.105565	0.045858	0.045647	85.3111	21906.8	0.042937	0.071838	1187.54	74674.8
525	2.000000	1.115802	7.37019e+06	-50839.1	1005.82	-29754.4	0.000000	0.000000	7.121970	131.21	NaN	0.000000	0.001682	0.001729	28.0816	49.6734	0.001814	27386.4	1.906764	-179.605	133.88	1.115491	0.055884	0.055573	131.21	27386.4	0.052291	0.099625	1317.03	79272.6
525	2.000000	1.125739	7.37019e+06	-50839.1	1005.82	-29754.4	0.000000	0.000000	7.133991	181.905	NaN	0.000000	0.001730	0.001722	28.0828	59.8039	0.001825	32773.1	4.164017	176.302	179.995	1.125457	0.065821	0.065539	181.905	32773.1	0.061658	0.131822	1379.93	82470.2
525	2.000000	1.135668	7.37019e+06	-50839.1	1005.82	-29754.4	0.000000	0.000000	7.146129	235.601	NaN	0.000000	0.001658	0.001679	28.0828	69.0785	0.001778	38854.8	5.155166	173.587	232.34	1.135387	0.075750	0.075469	235.601	38854.8	0.071202	0.169013	1393.98	86349
525	2.000000	1.145641	7.37019e+06	-50839.1	1005.82	-29754.4	0.000000	0.000000	7.158633	297.166	NaN	0.000000	0.001623	0.001717	28.083	77.3376	0.001762	43881.4	2.524184	175.675	292.96	1.145373	0.085723	0.085455	297.166	43881.4	0.080644	0.210060	1414.67	87474.7
525	2.000000	1.155769	7.37019e+06	-50839.1	1005.82	-29754.4	0.000000	0.000000	7.171281	358.437	NaN	0.000000	0.001669	0.001721	28.0832	86.3821	0.001873	46130.9	2.920348	174.845	360.144	1.155622	0.095851	0.095704	358.437	46130.9	0.090024	0.254949	1405.92	83471.5
525	2.000000	1.165736	7.37019e+06	-50839.1	1005.82	-29754.4	0.000000	0.000000	7.184861	446.306	NaN	0.000000	0.001702	0.001678	28.0822	95.4758	0.001809	52789.1	1.867619	175.44	447.688	1.165406	0.105818	0.105488	446.306	52789.1	0.099477	0.304273	1466.8	87435.2
525	2.000000	1.172194	7.37019e+06	-50839.1	1005.82	-29754.4	0.000000	0.000000	7.193411	497.172	NaN	0.000000	0.001709	0.001740	28.082	101.302	0.001842	55000.9	4.427177	-7.179488	495.916	1.171864	0.112276	0.111946	497.172	55000.9	0.105497	0.337800	1471.79	86459.6