File: remote_trans/data/nanoindenter/0828-1/data/Data_2025-08-06,11h17m57s/2025-07-22_16-23-58_1_461.txt
2025-07-22, 16:23:58, 1
Index	Phase	Displacement	Time	Pos X	Pos Y	Pos Z	Rot A	Rot B	Piezo Z	Force A	Force B	Gripper	Voltage A	Voltage B	Temperature	Amplitude force	Amplitude pos	Stiffness	Phase shift	Phase excitation	Force A raw	Displacement raw	HMax	HMax raw	Real Force	Real Stiffness	Contact Depth	Area	Hardness	Reduced Mod.
[#]	[#]	[um]	[s]	[um]	[um]	[um]	[m°]	[m°]	[um]	[uN]	[uN]	[V]	[V]	[V]	[°C]	[uN]	[um]	[N/m]	[°]	[°]	[uN]	[um]	[um]	[um]	[uN]	[N/m]	[um]	[um^2]	[MPa]	[MPa]
461	1.000000	0.002462	7.36957e+06	-54039.1	1005.82	-29744.7	0.000000	0.000000	6.002820	-0.039336	NaN	0.000000	0.001638	0.001668	28.0832	0.057079	0.001012	56.385	174.92	-164.116	-0.040953	0.001194	-1.069983	-1.071251	-0.039336	56.385	-1.069460	-1.949550E+14	2.017707E-16	NaN
461	1.000000	0.042386	7.36957e+06	-54039.1	1005.82	-29744.7	0.000000	0.000000	6.042744	-0.044503	NaN	0.000000	0.001572	0.001671	28.0823	0.052736	0.002124	24.828	50.1735	-164.362	0.037671	0.041079	-1.030059	-1.031367	-0.044503	24.828	-1.028715	-5.523223E+13	8.057343E-16	NaN
461	1.000000	0.082433	7.36957e+06	-54039.1	1005.82	-29744.7	0.000000	0.000000	6.082792	-0.002035	NaN	0.000000	0.001550	0.001723	28.0824	0.092352	0.002040	45.2671	164.26	-168.915	-0.025887	0.081181	-0.990012	-0.991265	-0.002035	45.2671	-0.989979	-1.662740E+13	1.223798E-16	NaN
461	1.000000	0.122382	7.36957e+06	-54039.1	1005.82	-29744.7	0.000000	0.000000	6.122739	-0.047865	NaN	0.000000	0.001566	0.001703	28.0814	0.120746	0.001965	61.4585	-92.1712	-165.702	-0.009089	0.121079	-0.950063	-0.951366	-0.047865	61.4585	-0.949479	-4.731568E+12	1.011606E-14	NaN
461	1.000000	0.162445	7.36957e+06	-54039.1	1005.82	-29744.7	0.000000	0.000000	6.162801	-0.078418	NaN	0.000000	0.001559	0.001723	28.081	0.089479	0.002024	44.2142	177.727	-162.514	-0.043616	0.161124	-0.910000	-0.911322	-0.078418	44.2142	-0.908670	-1.331066E+12	5.891369E-14	NaN
461	1.000000	0.202498	7.36957e+06	-54039.1	1005.82	-29744.7	0.000000	0.000000	6.202858	0.015233	NaN	0.000000	0.001570	0.001700	28.0811	0.090678	0.001913	47.4037	146.695	-167.56	-0.004934	0.201170	-0.869948	-0.871276	0.015233	47.4037	-0.870189	-4.017892E+11	-3.791305E-14	NaN
461	1.000000	0.242443	7.36957e+06	-54039.1	1005.82	-29744.7	0.000000	0.000000	6.242801	-0.045953	NaN	0.000000	0.001604	0.001707	28.0823	0.100745	0.001957	51.4737	142.639	-165.306	-0.036755	0.241184	-0.830002	-0.831261	-0.045953	51.4737	-0.829333	-1.123925E+11	4.088627E-13	NaN
461	1.000000	0.282474	7.36957e+06	-54039.1	1005.82	-29744.7	0.000000	0.000000	6.282832	-0.026587	NaN	0.000000	0.001548	0.001718	28.0824	0.191149	0.002044	93.5012	118.393	-166.148	-0.050693	0.281198	-0.789971	-0.791247	-0.026587	93.5012	-0.789758	-3.264357E+10	8.144483E-13	NaN
461	1.000000	0.322521	7.36957e+06	-54039.1	1005.82	-29744.7	0.000000	0.000000	6.322881	0.006255	NaN	0.000000	0.001521	0.001742	28.0822	0.079289	0.002030	39.0684	1.101652	-166.244	0.041457	0.321216	-0.749924	-0.751229	0.006255	39.0684	-0.750044	-9.415085E+9	-6.643803E-13	NaN
461	1.000000	0.362532	7.36957e+06	-54039.1	1005.82	-29744.7	0.000000	0.000000	6.362890	-0.020433	NaN	0.000000	0.001558	0.001722	28.0824	0.056809	0.001949	29.1414	31.5207	-166.815	-0.081693	0.361232	-0.709913	-0.711214	-0.020433	29.1414	-0.709388	-2.628396E+9	7.774035E-12	NaN
461	1.000000	0.402527	7.36957e+06	-54039.1	1005.82	-29744.7	0.000000	0.000000	6.402885	-0.049988	NaN	0.000000	0.001525	0.001806	28.0809	0.050951	0.002050	24.855	-23.7928	-167.601	-0.098310	0.401269	-0.669918	-0.671176	-0.049988	24.855	-0.668410	-7.238058E+8	6.906334E-11	NaN
461	1.000000	0.442552	7.36957e+06	-54039.1	1005.82	-29744.7	0.000000	0.000000	6.442914	0.059174	NaN	0.000000	0.001575	0.001768	28.0808	0.045332	0.001929	23.4951	-113.234	-167.047	0.028607	0.441244	-0.629893	-0.631201	0.059174	23.4951	-0.631782	-2.277700E+8	-2.597970E-10	NaN
461	1.000000	0.482577	7.36957e+06	-54039.1	1005.82	-29744.7	0.000000	0.000000	6.482939	0.083072	NaN	0.000000	0.001607	0.001771	28.0808	0.127373	0.002006	63.4991	-39.4876	-165.628	0.048407	0.481254	-0.589869	-0.591192	0.083072	63.4991	-0.590850	-6.228555E+7	-1.333731E-9	NaN
461	1.000000	0.522585	7.36957e+06	-54039.1	1005.82	-29744.7	0.000000	0.000000	6.522944	-0.007817	NaN	0.000000	0.001631	0.001727	28.082	0.061656	0.001975	31.2197	-67.2262	-164.897	-0.055620	0.521306	-0.549861	-0.551140	-0.007817	31.2197	-0.549673	-1.680448E+7	4.651862E-10	NaN
461	1.000000	0.562621	7.36957e+06	-54039.1	1005.82	-29744.7	0.000000	0.000000	6.562979	-0.027174	NaN	0.000000	0.001597	0.001776	28.0822	0.038939	0.001950	19.97	170.766	-169.282	-0.040904	0.561258	-0.509824	-0.511187	-0.027174	19.97	-0.508804	-4.54729e+06	5.975857E-9	NaN
461	1.000000	0.602663	7.36957e+06	-54039.1	1005.82	-29744.7	0.000000	0.000000	6.603022	-0.030823	NaN	0.000000	0.001586	0.001775	28.0822	0.053155	0.002025	26.2541	48.4988	-165.84	0.065392	0.601336	-0.469782	-0.471110	-0.030823	26.2541	-0.468901	-1.25892e+06	2.448384E-8	NaN
461	1.000000	0.642632	7.36957e+06	-54039.1	1005.82	-29744.7	0.000000	0.000000	6.642991	0.012628	NaN	0.000000	0.001628	0.001805	28.0821	0.039583	0.001926	20.5525	-71.3903	-164.543	-0.075792	0.641324	-0.429814	-0.431121	0.012628	20.5525	-0.430275	-359707	-3.510621E-8	NaN
461	1.000000	0.682676	7.36957e+06	-54039.1	1005.82	-29744.7	0.000000	0.000000	6.683035	0.002512	NaN	0.000000	0.001603	0.001754	28.0811	0.100002	0.002049	48.8096	-152.958	-165.873	-0.003012	0.681384	-0.389770	-0.391061	0.002512	48.8096	-0.389808	-95593	-2.628205E-8	NaN
461	1.000000	0.722674	7.36957e+06	-54039.1	1005.82	-29744.7	0.000000	0.000000	6.723030	-0.072850	NaN	0.000000	0.001625	0.001737	28.0808	0.037491	0.001963	19.0961	-20.0974	-167.372	-0.100979	0.721396	-0.349771	-0.351049	-0.072850	19.0961	-0.346910	-23021.3	3.164480E-6	NaN
461	1.000000	0.762678	7.36957e+06	-54039.1	1005.82	-29744.7	0.000000	0.000000	6.763033	-0.106265	NaN	0.000000	0.001526	0.001745	28.081	0.188882	0.001919	98.4126	68.6508	-160.757	-0.173733	0.761349	-0.309768	-0.311097	-0.106265	98.4126	-0.308958	-6391.86	1.662499E-5	NaN
461	1.000000	0.802704	7.36957e+06	-54039.1	1005.82	-29744.7	0.000000	0.000000	6.803065	0.045742	NaN	0.000000	0.001562	0.001713	28.0825	0.096807	0.001919	50.4423	-176.776	-167.961	0.046153	0.801356	-0.269741	-0.271090	0.045742	50.4423	-0.270421	-1690.25	-2.706229E-5	NaN
461	1.000000	0.842720	7.36957e+06	-54039.1	1005.82	-29744.7	0.000000	0.000000	6.843081	0.034825	NaN	0.000000	0.001559	0.001740	28.0824	0.050617	0.001856	27.2792	122.941	-165.693	0.025537	0.841396	-0.229726	-0.231049	0.034825	27.2792	-0.230683	-410.487	-8.483861E-5	NaN
461	1.000000	0.882713	7.36957e+06	-54039.1	1005.82	-29744.7	0.000000	0.000000	6.883071	-0.028097	NaN	0.000000	0.001590	0.001784	28.0819	0.042345	0.001917	22.0923	22.9839	-163.785	0.047115	0.881383	-0.189733	-0.191063	-0.028097	22.0923	-0.188779	-85.8235	0.000327	NaN
461	1.000000	0.922761	7.36957e+06	-54039.1	1005.82	-29744.7	0.000000	0.000000	6.923120	-0.009694	NaN	0.000000	0.001558	0.001777	28.0806	0.036057	0.001914	18.8401	-16.1631	-165.492	-0.050301	0.921422	-0.149685	-0.151023	-0.009694	18.8401	-0.149299	-17.5876	0.000551	NaN
461	1.000000	0.962795	7.36957e+06	-54039.1	1005.82	-29744.7	0.000000	0.000000	6.963155	0.030402	NaN	0.000000	0.001502	0.001772	28.0809	0.058879	0.001922	30.6384	30.9932	-164.801	-0.050486	0.961437	-0.109651	-0.111008	0.030402	30.6384	-0.110395	-3.063328	-0.009924	NaN
461	1.000000	1.002812	7.36957e+06	-54039.1	1005.82	-29744.7	0.000000	0.000000	7.003171	-0.015057	NaN	0.000000	0.001496	0.001745	28.0811	0.172159	0.002024	85.0602	129.783	-165.429	-0.015161	1.001476	-0.069634	-0.070969	-0.015057	85.0602	-0.069501	-0.330749	0.045524	NaN
461	1.000000	1.042827	7.36957e+06	-54039.1	1005.82	-29744.7	0.000000	0.000000	7.043185	-0.022903	NaN	0.000000	0.001518	0.001759	28.0811	0.108336	0.002169	49.9359	78.9485	-166.376	-0.015934	1.041432	-0.029619	-0.031013	-0.022903	49.9359	-0.029275	-0.021971	1.042397	NaN
461	1.000000	1.082807	7.36957e+06	-54039.1	1005.82	-29744.7	0.000000	0.000000	7.083366	4.865987	NaN	0.000000	0.001560	0.001734	28.0823	5.843940	0.001810	3228.42	12.3649	-171.021	3.833859	1.081518	0.010361	0.009073	4.865987	3228.42	0.009231	0.008339	583.507	32299.9
461	2.000000	1.095348	7.36957e+06	-54039.1	1005.82	-29744.7	0.000000	0.000000	7.096822	27.1069	NaN	0.000000	0.001578	0.001783	28.0827	21.123	0.001872	11281.4	6.602185	-177.512	26.9113	1.095054	0.022902	0.022608	27.1069	11281.4	0.021100	0.024301	1115.48	66119.3
461	2.000000	1.105343	7.36957e+06	-54039.1	1005.82	-29744.7	0.000000	0.000000	7.107843	52.0513	NaN	0.000000	0.001572	0.001755	28.0826	32.6326	0.001804	18090.5	8.897906	176.278	52.6517	1.105017	0.032898	0.032572	52.0513	18090.5	0.030740	0.042291	1230.8	80371.5
461	2.000000	1.115235	7.36957e+06	-54039.1	1005.82	-29744.7	0.000000	0.000000	7.119128	85.9248	NaN	0.000000	0.001546	0.001722	28.0814	42.3427	0.001816	23316	6.278087	176.405	82.8399	1.114964	0.042789	0.042518	85.9248	23316	0.040025	0.064094	1340.61	84143.2
461	2.000000	1.125279	7.36957e+06	-54039.1	1005.82	-29744.7	0.000000	0.000000	7.130890	127.682	NaN	0.000000	0.001547	0.001763	28.0814	51.8081	0.001707	30355.2	5.261904	175.459	126.646	1.124964	0.052833	0.052519	127.682	30355.2	0.049678	0.091422	1396.63	91723.6
461	2.000000	1.135286	7.36957e+06	-54039.1	1005.82	-29744.7	0.000000	0.000000	7.142628	169.751	NaN	0.000000	0.001550	0.001751	28.0812	61.2841	0.001935	31674.3	4.424548	176.163	170.304	1.135020	0.062841	0.062575	169.751	31674.3	0.058821	0.121615	1395.8	82982.3
461	2.000000	1.145228	7.36957e+06	-54039.1	1005.82	-29744.7	0.000000	0.000000	7.154603	219.169	NaN	0.000000	0.001538	0.001751	28.0813	69.5529	0.001785	38966.8	1.880958	176.514	218.034	1.145161	0.072783	0.072715	219.169	38966.8	0.068564	0.158297	1384.54	89481
461	2.000000	1.155225	7.36957e+06	-54039.1	1005.82	-29744.7	0.000000	0.000000	7.167804	297.085	NaN	0.000000	0.001541	0.001794	28.0825	79.7281	0.001821	43770.6	5.211299	173.3	297.713	1.154881	0.082779	0.082435	297.085	43770.6	0.077689	0.196764	1509.85	90153.6
461	2.000000	1.165225	7.36957e+06	-54039.1	1005.82	-29744.7	0.000000	0.000000	7.179943	349.088	NaN	0.000000	0.001510	0.001811	28.0826	88.1469	0.001718	51308.6	3.229621	173.04	346.942	1.165030	0.092779	0.092585	349.088	51308.6	0.087676	0.243335	1434.6	95030.2
461	2.000000	1.175165	7.36957e+06	-54039.1	1005.82	-29744.7	0.000000	0.000000	7.192855	421.337	NaN	0.000000	0.001541	0.001826	28.0826	98.835	0.001765	55994.5	3.745654	172.041	419.17	1.174998	0.102719	0.102552	421.337	55994.5	0.097076	0.291358	1446.11	94777.4
461	2.000000	1.184633	7.36957e+06	-54039.1	1005.82	-29744.7	0.000000	0.000000	7.205636	501.892	NaN	0.000000	0.001517	0.001770	28.0816	107.349	0.001817	59067.9	7.782707	-11.6558	496.203	1.184192	0.112187	0.111746	501.892	59067.9	0.105814	0.339614	1477.83	92604.5