File: remote_trans/data/nanoindenter/0828-1/data/Data_2025-08-06,11h17m57s/2025-07-22_16-23-58_1_278.txt
2025-07-22, 16:23:58, 1
Index	Phase	Displacement	Time	Pos X	Pos Y	Pos Z	Rot A	Rot B	Piezo Z	Force A	Force B	Gripper	Voltage A	Voltage B	Temperature	Amplitude force	Amplitude pos	Stiffness	Phase shift	Phase excitation	Force A raw	Displacement raw	HMax	HMax raw	Real Force	Real Stiffness	Contact Depth	Area	Hardness	Reduced Mod.
[#]	[#]	[um]	[s]	[um]	[um]	[um]	[m°]	[m°]	[um]	[uN]	[uN]	[V]	[V]	[V]	[°C]	[uN]	[um]	[N/m]	[°]	[°]	[uN]	[um]	[um]	[um]	[uN]	[N/m]	[um]	[um^2]	[MPa]	[MPa]
278	1.000000	0.002337	7.36777e+06	-52539.1	955.818	-29749.2	0.000000	0.000000	6.002773	-0.025558	NaN	0.000000	0.001565	0.001728	28.08	0.079241	0.001044	75.9174	120.629	-167.526	-0.012609	0.001012	-1.035006	-1.036332	-0.025558	75.9174	-1.034754	-6.659174E+13	3.837990E-16	NaN
278	1.000000	0.042326	7.36777e+06	-52539.1	955.818	-29749.2	0.000000	0.000000	6.042761	-0.057491	NaN	0.000000	0.001596	0.001756	28.0811	0.069218	0.001995	34.7006	-28.2637	-165.987	-0.126361	0.040974	-0.995017	-0.996370	-0.057491	34.7006	-0.993774	-1.870432E+13	3.073667E-15	NaN
278	1.000000	0.082304	7.36777e+06	-52539.1	955.818	-29749.3	0.000000	0.000000	6.082739	-0.053257	NaN	0.000000	0.001586	0.001702	28.0811	0.035356	0.001982	17.8344	-154.364	-168.838	-0.068783	0.081054	-0.955039	-0.956290	-0.053257	17.8344	-0.952800	-5.245445E+12	1.015308E-14	NaN
278	1.000000	0.122362	7.36777e+06	-52539.1	955.819	-29749.3	0.000000	0.000000	6.122800	0.020617	NaN	0.000000	0.001590	0.001754	28.0809	0.057838	0.001953	29.6096	25.7452	-166.843	-0.022631	0.121048	-0.914982	-0.916295	0.020617	29.6096	-0.915504	-1.646253E+12	-1.252353E-14	NaN
278	1.000000	0.162377	7.36777e+06	-52539.1	955.818	-29749.3	0.000000	0.000000	6.162812	-0.058425	NaN	0.000000	0.001580	0.001786	28.0796	0.132140	0.001972	67.0148	163.331	-164.54	-0.119923	0.161048	-0.874967	-0.876295	-0.058425	67.0148	-0.874313	-4.568649E+11	1.278832E-13	NaN
278	1.000000	0.202362	7.36777e+06	-52539.1	955.819	-29749.3	0.000000	0.000000	6.202800	0.011828	NaN	0.000000	0.001599	0.001745	28.0797	0.078536	0.002012	39.0318	-170.492	-165.306	0.016483	0.201059	-0.834981	-0.836285	0.011828	39.0318	-0.835209	-1.350130E+11	-8.760672E-14	NaN
278	1.000000	0.242383	7.36777e+06	-52539.1	955.819	-29749.3	0.000000	0.000000	6.242817	-0.098217	NaN	0.000000	0.001601	0.001708	28.0798	0.108945	0.002071	52.5949	-89.3174	-167.166	-0.125640	0.241084	-0.794960	-0.796260	-0.098217	52.5949	-0.793560	-3.676410E+10	2.671559E-12	NaN
278	1.000000	0.282415	7.36777e+06	-52539.1	955.818	-29749.3	0.000000	0.000000	6.282851	-0.015655	NaN	0.000000	0.001572	0.001705	28.0799	0.045477	0.001861	24.4324	-3.632514	-164.314	-0.044852	0.281070	-0.754929	-0.756273	-0.015655	24.4324	-0.754448	-1.080844E+10	1.448372E-12	NaN
278	1.000000	0.322419	7.36778e+06	-52539.1	955.818	-29749.3	0.000000	0.000000	6.322856	-0.015894	NaN	0.000000	0.001580	0.001697	28.0812	0.026956	0.002142	12.5849	-156.386	-165.813	-0.047343	0.321164	-0.714924	-0.716179	-0.015894	12.5849	-0.713977	-3.036072E+9	5.235190E-12	NaN
278	1.000000	0.362443	7.36778e+06	-52539.1	955.819	-29749.3	0.000000	0.000000	6.362880	-0.015927	NaN	0.000000	0.001601	0.001722	28.0806	0.096199	0.002022	47.568	96.4544	-166.293	-0.013269	0.361140	-0.674901	-0.676203	-0.015927	47.568	-0.674649	-8.810804E+8	1.807694E-11	NaN
278	1.000000	0.402491	7.36778e+06	-52539.1	955.819	-29749.3	0.000000	0.000000	6.402925	-0.087180	NaN	0.000000	0.001551	0.001710	28.0806	0.088407	0.002107	41.9564	-137.407	-167.707	-0.144732	0.401183	-0.634853	-0.636160	-0.087180	41.9564	-0.633294	-2.389212E+8	3.648892E-10	NaN
278	1.000000	0.442495	7.36778e+06	-52539.1	955.818	-29749.3	0.000000	0.000000	6.442928	-0.111625	NaN	0.000000	0.001580	0.001712	28.0795	0.127206	0.001931	65.8801	-174.492	-163.174	-0.029147	0.441147	-0.594849	-0.596197	-0.111625	65.8801	-0.593578	-6.791778E+7	1.643530E-9	NaN
278	1.000000	0.482500	7.36778e+06	-52539.1	955.817	-29749.3	0.000000	0.000000	6.482939	0.036696	NaN	0.000000	0.001555	0.001689	28.0795	0.087203	0.002075	42.0192	-63.1907	-165.438	0.049173	0.481219	-0.554843	-0.556125	0.036696	42.0192	-0.555498	-2.023418E+7	-1.813546E-9	NaN
278	1.000000	0.522542	7.36778e+06	-52539.1	955.819	-29749.3	0.000000	0.000000	6.522979	-0.004923	NaN	0.000000	0.001549	0.001664	28.0795	0.047539	0.001935	24.5637	86.2604	-163.857	-0.028993	0.521185	-0.514801	-0.516158	-0.004923	24.5637	-0.514651	-5.48498e+06	8.975733E-10	NaN
278	1.000000	0.562545	7.36778e+06	-52539.1	955.819	-29749.3	0.000000	0.000000	6.562984	0.030621	NaN	0.000000	0.001531	0.001716	28.0806	0.181191	0.002090	86.7089	-164.222	-166.302	0.055337	0.561220	-0.474799	-0.476123	0.030621	86.7089	-0.475063	-1.53599e+06	-1.993593E-8	NaN
278	1.000000	0.602578	7.36778e+06	-52539.1	955.819	-29749.3	0.000000	0.000000	6.603016	0.019180	NaN	0.000000	0.001564	0.001692	28.0806	0.081702	0.002061	39.6423	-117.361	-162.747	0.124985	0.601231	-0.434766	-0.436112	0.019180	39.6423	-0.435128	-421279	-4.552893E-8	NaN
278	1.000000	0.642569	7.36778e+06	-52539.1	955.819	-29749.3	0.000000	0.000000	6.643005	-0.035487	NaN	0.000000	0.001517	0.001707	28.0809	0.096881	0.002039	47.5102	158.673	-165.973	0.020492	0.641279	-0.394774	-0.396064	-0.035487	47.5102	-0.394214	-110512	3.211142E-7	NaN
278	1.000000	0.682574	7.36778e+06	-52539.1	955.818	-29749.3	0.000000	0.000000	6.683009	-0.059856	NaN	0.000000	0.001614	0.001709	28.0812	0.061354	0.001983	30.9396	-97.5657	-168.646	-0.058390	0.681303	-0.354770	-0.356040	-0.059856	30.9396	-0.353319	-28519.2	2.098798E-6	NaN
278	1.000000	0.722591	7.36778e+06	-52539.1	955.817	-29749.3	0.000000	0.000000	6.723027	-0.032423	NaN	0.000000	0.001531	0.001726	28.08	0.036117	0.002104	17.1668	-26.3628	-167.621	-0.051566	0.721318	-0.314753	-0.316025	-0.032423	17.1668	-0.313336	-7419.64	4.369929E-6	NaN
278	1.000000	0.762600	7.36778e+06	-52539.1	955.818	-29749.3	0.000000	0.000000	6.763036	-0.024729	NaN	0.000000	0.001550	0.001696	28.0801	0.120253	0.002076	57.9114	-172.804	-163.59	-0.053940	0.761315	-0.274743	-0.276029	-0.024729	57.9114	-0.274423	-1943.86	1.272157E-5	NaN
278	1.000000	0.802633	7.36778e+06	-52539.1	955.818	-29749.3	0.000000	0.000000	6.803069	-0.051454	NaN	0.000000	0.001571	0.001717	28.0799	0.065935	0.001829	36.0537	27.6104	-165.148	-0.090448	0.801323	-0.234710	-0.236020	-0.051454	36.0537	-0.233640	-456.953	0.000113	NaN
278	1.000000	0.842651	7.36778e+06	-52539.1	955.818	-29749.3	0.000000	0.000000	6.843089	-0.002968	NaN	0.000000	0.001561	0.001691	28.0815	0.112438	0.001956	57.4926	102.395	-163.74	0.016788	0.841364	-0.194692	-0.195980	-0.002968	57.4926	-0.194653	-107.512	2.760922E-5	NaN
278	1.000000	0.882666	7.36778e+06	-52539.1	955.817	-29749.3	0.000000	0.000000	6.883102	-0.022535	NaN	0.000000	0.001582	0.001743	28.0814	0.032469	0.002059	15.7724	-44.9451	-168.785	0.042567	0.881406	-0.154677	-0.155937	-0.022535	15.7724	-0.153606	-21.0594	0.001070	NaN
278	1.000000	0.922645	7.36778e+06	-52539.1	955.818	-29749.3	0.000000	0.000000	6.923081	-0.033720	NaN	0.000000	0.001596	0.001742	28.0816	0.081155	0.001840	44.1145	49.088	-168.158	-0.020560	0.921369	-0.114699	-0.115975	-0.033720	44.1145	-0.114125	-3.664712	0.009201	NaN
278	1.000000	0.962677	7.36778e+06	-52539.1	955.818	-29749.3	0.000000	0.000000	6.963113	-0.041743	NaN	0.000000	0.001565	0.001734	28.0816	0.078126	0.001987	39.317	132.929	-165.954	0.017046	0.961435	-0.074666	-0.075909	-0.041743	39.317	-0.073870	-0.431684	0.096699	NaN
278	1.000000	1.002716	7.36778e+06	-52539.1	955.818	-29749.3	0.000000	0.000000	7.003150	-0.090626	NaN	0.000000	0.001601	0.001703	28.0803	0.017492	0.001941	9.013432	-113.222	-166.482	-0.019008	1.001410	-0.034627	-0.035933	-0.090626	9.013432	-0.027086	-0.019156	4.730841	NaN
278	1.000000	1.042668	7.36778e+06	-52539.1	955.817	-29749.3	0.000000	0.000000	7.043272	4.054735	NaN	0.000000	0.001600	0.001754	28.0802	4.610530	0.001860	2479.35	7.904004	-166.069	2.466409	1.041400	0.005324	0.004056	4.054735	2479.35	0.004098	0.003325	1219.55	39285.2
278	2.000000	1.055328	7.36778e+06	-52539.1	955.818	-29749.3	0.000000	0.000000	7.056569	19.553	NaN	0.000000	0.001587	0.001727	28.0801	18.8079	0.001997	9417.57	11.9517	179.917	19.4298	1.055022	0.017984	0.017678	19.553	9417.57	0.016427	0.017236	1134.44	65538.4
278	2.000000	1.065338	7.36778e+06	-52539.1	955.818	-29749.3	0.000000	0.000000	7.067540	42.8969	NaN	0.000000	0.001571	0.001726	28.0811	28.9131	0.001785	16195.2	5.823337	179.811	42.6729	1.064966	0.027995	0.027623	42.8969	16195.2	0.026008	0.032875	1304.84	81606.7
278	2.000000	1.075282	7.36778e+06	-52539.1	955.817	-29749.3	0.000000	0.000000	7.078766	74.0871	NaN	0.000000	0.001591	0.001688	28.0823	38.1425	0.001711	22288.2	3.539663	178.362	72.3176	1.074999	0.037938	0.037655	74.0871	22288.2	0.035445	0.052787	1403.5	88630.3
278	2.000000	1.085272	7.36778e+06	-52539.1	955.817	-29749.3	0.000000	0.000000	7.090485	116.107	NaN	0.000000	0.001584	0.001714	28.0812	47.8306	0.001772	26998.9	3.936392	176.828	115.392	1.084919	0.047929	0.047576	116.107	26998.9	0.044703	0.076747	1512.85	89040.6
278	2.000000	1.095199	7.36778e+06	-52539.1	955.817	-29749.3	0.000000	0.000000	7.102136	158.02	NaN	0.000000	0.001560	0.001733	28.0802	58.8277	0.001892	31088.2	2.591865	177.092	152.843	1.094923	0.057856	0.057579	158.02	31088.2	0.054044	0.105320	1500.38	87521.1
278	2.000000	1.105276	7.36778e+06	-52539.1	955.818	-29749.3	0.000000	0.000000	7.114523	214.195	NaN	0.000000	0.001587	0.001719	28.0803	69.0234	0.001811	38115.6	6.522459	171.974	213.316	1.104918	0.067933	0.067574	214.195	38115.6	0.063718	0.139477	1535.7	93244.6
278	2.000000	1.115179	7.36778e+06	-52539.1	955.819	-29749.3	0.000000	0.000000	7.126885	273.99	NaN	0.000000	0.001557	0.001706	28.0804	78.8752	0.001840	42856.8	5.197487	172.19	269.265	1.114887	0.077836	0.077544	273.99	42856.8	0.073041	0.176678	1550.79	93154
278	2.000000	1.125355	7.36778e+06	-52539.1	955.817	-29749.3	0.000000	0.000000	7.139531	334.052	NaN	0.000000	0.001636	0.001633	28.0801	88.7717	0.001827	48587.9	7.305791	169.055	339.826	1.124930	0.088011	0.087587	334.052	48587.9	0.082855	0.220275	1516.52	94584.2
278	2.000000	1.135145	7.36778e+06	-52539.1	955.817	-29749.3	0.000000	0.000000	7.152671	415.493	NaN	0.000000	0.001549	0.001689	28.081	97.053	0.001888	51394.4	1.437959	175.066	411.716	1.134932	0.097801	0.097589	415.493	51394.4	0.091738	0.263590	1576.28	91458.5
278	2.000000	1.144678	7.36778e+06	-52539.1	955.818	-29749.3	0.000000	0.000000	7.165616	498.465	NaN	0.000000	0.001578	0.001689	28.0816	106.453	0.001716	62051.3	3.597586	-9.136569	491.997	1.144444	0.107335	0.107101	498.465	62051.3	0.101310	0.314305	1585.93	101123