File: remote_trans/data/nanoindenter/0828-1/data/Data_2025-08-06,11h17m57s/2025-07-22_16-23-58_1_422.txt
2025-07-22, 16:23:58, 1
Index	Phase	Displacement	Time	Pos X	Pos Y	Pos Z	Rot A	Rot B	Piezo Z	Force A	Force B	Gripper	Voltage A	Voltage B	Temperature	Amplitude force	Amplitude pos	Stiffness	Phase shift	Phase excitation	Force A raw	Displacement raw	HMax	HMax raw	Real Force	Real Stiffness	Contact Depth	Area	Hardness	Reduced Mod.
[#]	[#]	[um]	[s]	[um]	[um]	[um]	[m°]	[m°]	[um]	[uN]	[uN]	[V]	[V]	[V]	[°C]	[uN]	[um]	[N/m]	[°]	[°]	[uN]	[um]	[um]	[um]	[uN]	[N/m]	[um]	[um^2]	[MPa]	[MPa]
422	1.000000	0.001999	7.36919e+06	-55989.1	1005.82	-29740.3	0.000000	0.000000	6.002806	0.026708	NaN	0.000000	0.001646	0.001685	28.0792	0.057346	0.000928	61.7931	94.5429	-156.086	0.112661	0.000742	-1.054396	-1.055653	0.026708	61.7931	-1.054720	-1.235552E+14	-2.161648E-16	NaN
422	1.000000	0.041913	7.36919e+06	-55989.1	1005.82	-29740.3	0.000000	0.000000	6.042718	0.003472	NaN	0.000000	0.001689	0.001692	28.0793	0.075822	0.001999	37.9216	52.5174	-165.156	0.020824	0.040643	-1.014483	-1.015752	0.003472	37.9216	-1.014552	-3.561537E+13	-9.749226E-17	NaN
422	1.000000	0.081954	7.36919e+06	-55989.1	1005.82	-29740.3	0.000000	0.000000	6.082760	0.000307	NaN	0.000000	0.001659	0.001686	28.0793	0.061207	0.001972	31.0373	-158.313	-164.213	0.002932	0.080637	-0.974441	-0.975758	0.000307	31.0373	-0.974448	-1.027092E+13	-2.985053E-17	NaN
422	1.000000	0.121940	7.36919e+06	-55989.1	1005.82	-29740.3	0.000000	0.000000	6.122745	0.006236	NaN	0.000000	0.001676	0.001701	28.0804	0.038527	0.001924	20.0232	-14.8435	-165.571	0.018165	0.120627	-0.934456	-0.935768	0.006236	20.0232	-0.934689	-2.988700E+12	-2.086483E-15	NaN
422	1.000000	0.162005	7.36919e+06	-55989.1	1005.82	-29740.3	0.000000	0.000000	6.162808	-0.062469	NaN	0.000000	0.001681	0.001702	28.0805	0.086423	0.002109	40.9859	-81.3277	-166.879	-0.042471	0.160701	-0.894391	-0.895694	-0.062469	40.9859	-0.893248	-8.237812E+11	7.583237E-14	NaN
422	1.000000	0.201994	7.36919e+06	-55989.1	1005.82	-29740.3	0.000000	0.000000	6.202802	0.063904	NaN	0.000000	0.001666	0.001701	28.0806	0.037573	0.001979	18.9833	60.7139	-161.913	0.000267	0.200688	-0.854402	-0.855707	0.063904	18.9833	-0.856926	-2.657763E+11	-2.404422E-13	NaN
422	1.000000	0.242026	7.36919e+06	-55989.1	1005.82	-29740.3	0.000000	0.000000	6.242832	0.016291	NaN	0.000000	0.001655	0.001700	28.0806	0.039020	0.001977	19.7335	130.065	-167.972	0.023529	0.240690	-0.814370	-0.815705	0.016291	19.7335	-0.814989	-7.182063E+10	-2.268286E-13	NaN
422	1.000000	0.282032	7.36919e+06	-55989.1	1005.82	-29740.3	0.000000	0.000000	6.282837	-0.014012	NaN	0.000000	0.001680	0.001684	28.0794	0.041103	0.002075	19.8095	135.612	-167.381	0.004766	0.280791	-0.774363	-0.775604	-0.014012	19.8095	-0.773833	-1.983414E+10	7.064389E-13	NaN
422	1.000000	0.322081	7.36919e+06	-55989.1	1005.82	-29740.3	0.000000	0.000000	6.322886	-0.006916	NaN	0.000000	0.001690	0.001790	28.0796	0.127318	0.002065	61.6545	93.815	-165.088	-0.059503	0.320712	-0.734315	-0.735683	-0.006916	61.6545	-0.734231	-5.734024E+9	1.206212E-12	NaN
422	1.000000	0.362057	7.36919e+06	-55989.1	1005.82	-29740.3	0.000000	0.000000	6.362861	-0.022085	NaN	0.000000	0.001660	0.001751	28.0796	0.049061	0.001974	24.8478	79.9049	-167.881	0.092659	0.360727	-0.694339	-0.695669	-0.022085	24.8478	-0.693672	-1.603592E+9	1.377194E-11	NaN
422	1.000000	0.402081	7.36919e+06	-55989.1	1005.82	-29740.3	0.000000	0.000000	6.402888	0.031016	NaN	0.000000	0.001640	0.001737	28.0807	0.049207	0.002082	23.629	-18.8737	-163.977	0.016099	0.400769	-0.654314	-0.655627	0.031016	23.629	-0.655299	-4.786955E+8	-6.479370E-11	NaN
422	1.000000	0.442098	7.36919e+06	-55989.1	1005.82	-29740.3	0.000000	0.000000	6.442903	0.001209	NaN	0.000000	0.001624	0.001777	28.0808	0.064151	0.002035	31.5243	-151.059	-161.491	0.013016	0.440870	-0.614298	-0.615526	0.001209	31.5243	-0.614327	-1.311078E+8	-9.218585E-12	NaN
422	1.000000	0.482143	7.36919e+06	-55989.1	1005.82	-29740.3	0.000000	0.000000	6.482950	0.045458	NaN	0.000000	0.001666	0.001770	28.0805	0.032514	0.002097	15.5071	-57.369	-163.645	-0.063392	0.480802	-0.574252	-0.575593	0.045458	15.5071	-0.576451	-3.942161E+7	-1.153132E-9	NaN
422	1.000000	0.522139	7.36919e+06	-55989.1	1005.82	-29740.3	0.000000	0.000000	6.522944	0.006647	NaN	0.000000	0.001656	0.001808	28.0794	0.027505	0.002180	12.6139	-142.269	-166.338	0.011590	0.520842	-0.534257	-0.535553	0.006647	12.6139	-0.534652	-1.040300E+7	-6.389744E-10	NaN
422	1.000000	0.562154	7.36919e+06	-55989.1	1005.82	-29740.3	0.000000	0.000000	6.562961	0.043242	NaN	0.000000	0.001637	0.001817	28.0792	0.104860	0.001965	53.3748	-162.94	-162.681	0.059723	0.560810	-0.494242	-0.495585	0.043242	53.3748	-0.494849	-2.9049e+06	-1.488591E-8	NaN
422	1.000000	0.602169	7.36919e+06	-55989.1	1005.82	-29740.3	0.000000	0.000000	6.602973	-0.031035	NaN	0.000000	0.001626	0.001809	28.0794	0.080991	0.001937	41.8206	-78.8914	-163.332	0.002114	0.600865	-0.454227	-0.455530	-0.031035	41.8206	-0.453670	-769144	4.035003E-8	NaN
422	1.000000	0.642206	7.36919e+06	-55989.1	1005.82	-29740.3	0.000000	0.000000	6.643011	-0.011871	NaN	0.000000	0.001686	0.001789	28.0792	0.111711	0.001947	57.3861	15.6894	-166.389	0.081574	0.640899	-0.414189	-0.415496	-0.011871	57.3861	-0.414034	-211706	5.607147E-8	NaN
422	1.000000	0.682236	7.36919e+06	-55989.1	1005.82	-29740.3	0.000000	0.000000	6.683043	0.040669	NaN	0.000000	0.001691	0.001749	28.0806	0.056671	0.002110	26.8594	-159.152	-163.348	-0.027995	0.680945	-0.374159	-0.375450	0.040669	26.8594	-0.375295	-59197.9	-6.870002E-7	NaN
422	1.000000	0.722246	7.36919e+06	-55989.1	1005.82	-29740.3	0.000000	0.000000	6.723051	-0.001333	NaN	0.000000	0.001690	0.001778	28.0804	0.038528	0.002057	18.7271	114.795	-166.452	0.054906	0.720908	-0.334150	-0.335488	-0.001333	18.7271	-0.334096	-14975.5	8.901523E-8	NaN
422	1.000000	0.762251	7.36919e+06	-55989.1	1005.82	-29740.3	0.000000	0.000000	6.763053	-0.082996	NaN	0.000000	0.001615	0.001791	28.0807	0.035359	0.002048	17.2683	-43.3828	-160.838	-0.069920	0.760945	-0.294144	-0.295450	-0.082996	17.2683	-0.290540	-3399.29	2.441557E-5	NaN
422	1.000000	0.802260	7.36919e+06	-55989.1	1005.82	-29740.3	0.000000	0.000000	6.803066	0.017095	NaN	0.000000	0.001709	0.001756	28.0795	0.029921	0.002069	14.4641	0.581670	-164.284	0.023899	0.800962	-0.254136	-0.255433	0.017095	14.4641	-0.255022	-982.783	-1.739498E-5	NaN
422	1.000000	0.842300	7.36919e+06	-55989.1	1005.82	-29740.3	0.000000	0.000000	6.843107	0.039161	NaN	0.000000	0.001732	0.001791	28.0793	0.045093	0.002035	22.1581	60.5997	-163.963	0.026031	0.840983	-0.214096	-0.215413	0.039161	22.1581	-0.215421	-234.578	-0.000167	NaN
422	1.000000	0.882305	7.36919e+06	-55989.1	1005.82	-29740.3	0.000000	0.000000	6.883110	-0.008191	NaN	0.000000	0.001659	0.001730	28.0794	0.093213	0.001936	48.1591	54.8784	-168.966	0.009438	0.881003	-0.174090	-0.175393	-0.008191	48.1591	-0.173962	-48.0985	0.000170	NaN
422	1.000000	0.922310	7.36919e+06	-55989.1	1005.82	-29740.3	0.000000	0.000000	6.923118	0.051032	NaN	0.000000	0.001714	0.001797	28.0796	0.072978	0.001939	37.6302	115.321	-166.153	0.003401	0.921023	-0.134085	-0.135372	0.051032	37.6302	-0.135102	-9.555287	-0.005341	NaN
422	1.000000	0.962359	7.36919e+06	-55989.1	1005.82	-29740.3	0.000000	0.000000	6.963166	0.038973	NaN	0.000000	0.001597	0.001758	28.0808	0.058849	0.001925	30.5778	-93.4468	-165.581	0.033042	0.960973	-0.094036	-0.095422	0.038973	30.5778	-0.094992	-1.410033	-0.027640	NaN
422	1.000000	1.002324	7.36919e+06	-55989.1	1005.82	-29740.3	0.000000	0.000000	7.003129	0.006052	NaN	0.000000	0.001603	0.001774	28.0807	0.005474	0.002062	2.655200	-140.838	-166.712	0.037856	1.001057	-0.054072	-0.055339	0.006052	2.655200	-0.055781	-0.135792	-0.044565	NaN
422	1.000000	1.042344	7.36919e+06	-55989.1	1005.82	-29740.3	0.000000	0.000000	7.043150	0.020843	NaN	0.000000	0.001627	0.001759	28.0805	0.051508	0.001863	27.651	12.9904	-166.757	0.047520	1.041108	-0.014051	-0.015287	0.020843	27.651	-0.014617	-0.009047	-2.303893	NaN
422	2.000000	1.067957	7.36919e+06	-55989.1	1005.82	-29740.3	0.000000	0.000000	7.069535	18.7775	NaN	0.000000	0.001568	0.001741	28.0793	12.0168	0.001675	7175.7	7.116018	-174.105	18.2007	1.067594	0.011562	0.011199	18.7775	7175.7	0.009599	0.008739	2148.64	70129.3
422	2.000000	1.077910	7.36919e+06	-55989.1	1005.82	-29740.3	0.000000	0.000000	7.080292	38.3253	NaN	0.000000	0.001606	0.001742	28.0793	21.0591	0.001757	11983.1	6.738648	-177.819	37.4455	1.077619	0.021515	0.021223	38.3253	11983.1	0.019116	0.021173	1810.14	75241.2
422	2.000000	1.087888	7.36919e+06	-55989.1	1005.82	-29740.3	0.000000	0.000000	7.091162	60.0157	NaN	0.000000	0.001610	0.001758	28.0796	29.5256	0.001812	16295.6	3.947823	-177.744	59.0537	1.087555	0.031492	0.031159	60.0157	16295.6	0.028730	0.038153	1573.04	76222.3
422	2.000000	1.097902	7.36919e+06	-55989.1	1005.82	-29740.3	0.000000	0.000000	7.102331	88.0705	NaN	0.000000	0.001619	0.001757	28.0804	39.3184	0.001701	23114	2.674788	-179.265	88.1345	1.097536	0.041507	0.041140	88.0705	23114	0.038649	0.060584	1453.69	85796.2
422	2.000000	1.107892	7.36919e+06	-55989.1	1005.82	-29740.3	0.000000	0.000000	7.113867	125.66	NaN	0.000000	0.001677	0.001796	28.0809	49.1755	0.001862	26409.6	4.235545	177.78	125.926	1.107512	0.051496	0.051116	125.66	26409.6	0.047928	0.086115	1459.2	82223.4
422	2.000000	1.117862	7.36919e+06	-55989.1	1005.82	-29740.3	0.000000	0.000000	7.125727	171.611	NaN	0.000000	0.001713	0.001853	28.0809	57.2797	0.001800	31830	6.985309	173.851	172.431	1.117564	0.061466	0.061169	171.611	31830	0.057423	0.116729	1470.16	85117.7
422	2.000000	1.127920	7.36919e+06	-55989.1	1005.82	-29740.3	0.000000	0.000000	7.137792	220.388	NaN	0.000000	0.001595	0.001764	28.0807	65.7993	0.001794	36672.4	5.427049	174.153	225.96	1.127524	0.071525	0.071129	220.388	36672.4	0.067017	0.152167	1448.32	85891.7
422	2.000000	1.137805	7.36919e+06	-55989.1	1005.82	-29740.3	0.000000	0.000000	7.150312	284.443	NaN	0.000000	0.001571	0.001790	28.0795	75.6327	0.001851	40858.9	3.046986	175.633	282.193	1.137629	0.081409	0.081234	284.443	40858.9	0.076188	0.190168	1495.75	85603.4
422	2.000000	1.147819	7.36919e+06	-55989.1	1005.82	-29740.3	0.000000	0.000000	7.163048	350.606	NaN	0.000000	0.001636	0.001792	28.0794	83.4201	0.001769	47147.3	3.033576	175.136	350.725	1.147517	0.091423	0.091122	350.606	47147.3	0.085846	0.234454	1495.41	88961.4
422	2.000000	1.157749	7.36919e+06	-55989.1	1005.82	-29740.3	0.000000	0.000000	7.176339	432.316	NaN	0.000000	0.001630	0.001798	28.0794	92.3235	0.001791	51554.5	6.592653	171.126	428.138	1.157384	0.101353	0.100988	432.316	51554.5	0.095064	0.280739	1539.92	88897.3
422	2.000000	1.161899	7.36919e+06	-55989.1	1005.82	-29740.3	0.000000	0.000000	7.181195	449.463	NaN	0.000000	0.001615	0.001786	28.0794	95.4226	0.001674	57006.1	2.410921	173.529	451.719	1.161610	0.105503	0.105215	449.463	57006.1	0.099590	0.304886	1474.2	94324.7