File: remote_trans/data/nanoindenter/0828-1/data/Data_2025-08-06,11h17m57s/2025-07-22_16-23-58_1_503.txt
2025-07-22, 16:23:58, 1
Index	Phase	Displacement	Time	Pos X	Pos Y	Pos Z	Rot A	Rot B	Piezo Z	Force A	Force B	Gripper	Voltage A	Voltage B	Temperature	Amplitude force	Amplitude pos	Stiffness	Phase shift	Phase excitation	Force A raw	Displacement raw	HMax	HMax raw	Real Force	Real Stiffness	Contact Depth	Area	Hardness	Reduced Mod.
[#]	[#]	[um]	[s]	[um]	[um]	[um]	[m°]	[m°]	[um]	[uN]	[uN]	[V]	[V]	[V]	[°C]	[uN]	[um]	[N/m]	[°]	[°]	[uN]	[um]	[um]	[um]	[uN]	[N/m]	[um]	[um^2]	[MPa]	[MPa]
503	1.000000	0.002476	7.36997e+06	-51939.1	1005.82	-29750.6	0.000000	0.000000	6.002801	-0.026234	NaN	0.000000	0.001619	0.001738	28.081	0.152113	0.000917	165.931	-129.384	-165.815	-0.140543	0.001184	-1.169349	-1.170641	-0.026234	165.931	-1.169230	-4.251765E+15	6.170221E-18	NaN
503	1.000000	0.046422	7.36997e+06	-51939.1	1005.82	-29750.6	0.000000	0.000000	6.046744	-0.078521	NaN	0.000000	0.001559	0.001756	28.0806	0.089506	0.001989	44.9937	-69.3131	-164.298	-0.046910	0.045126	-1.125403	-1.126699	-0.078521	44.9937	-1.124094	-1.055357E+15	7.440208E-17	NaN
503	1.000000	0.090425	7.36997e+06	-51939.1	1005.82	-29750.6	0.000000	0.000000	6.090748	-0.059846	NaN	0.000000	0.001624	0.001748	28.0803	0.065657	0.001870	35.1015	-151.344	-163.792	-0.038841	0.089110	-1.081400	-1.082715	-0.059846	35.1015	-1.080121	-2.711116E+14	2.207445E-16	NaN
503	1.000000	0.134441	7.36997e+06	-51939.1	1005.82	-29750.6	0.000000	0.000000	6.134767	0.002979	NaN	0.000000	0.001596	0.001687	28.0819	0.111604	0.002019	55.2729	-79.4562	-168.066	-0.020063	0.133132	-1.037384	-1.038693	0.002979	55.2729	-1.037424	-7.233215E+13	-4.119166E-17	NaN
503	1.000000	0.178455	7.36997e+06	-51939.1	1005.82	-29750.6	0.000000	0.000000	6.178782	0.017785	NaN	0.000000	0.001563	0.001699	28.0818	0.082275	0.002025	40.6348	53.6325	-164.111	0.012578	0.177212	-0.993369	-0.994612	0.017785	40.6348	-0.993697	-1.865974E+13	-9.531190E-16	NaN
503	1.000000	0.222477	7.36997e+06	-51939.1	1005.82	-29750.6	0.000000	0.000000	6.222806	0.058688	NaN	0.000000	0.001550	0.001704	28.0817	0.071482	0.001921	37.2156	-17.2669	-166.92	0.040858	0.221162	-0.949347	-0.950663	0.058688	37.2156	-0.950530	-4.888500E+12	-1.200536E-14	NaN
503	1.000000	0.266496	7.36997e+06	-51939.1	1005.82	-29750.6	0.000000	0.000000	6.266819	-0.069956	NaN	0.000000	0.001503	0.001735	28.0805	0.040013	0.001979	20.2197	-86.899	-163.175	0.012791	0.265152	-0.905329	-0.906673	-0.069956	20.2197	-0.902734	-1.106644E+12	6.321457E-14	NaN
503	1.000000	0.310540	7.36997e+06	-51939.1	1005.82	-29750.6	0.000000	0.000000	6.310863	-0.071683	NaN	0.000000	0.001565	0.001760	28.0803	0.111239	0.002048	54.307	-57.0105	-164.25	-0.072416	0.309261	-0.861284	-0.862564	-0.071683	54.307	-0.860294	-2.951926E+11	2.428350E-13	NaN
503	1.000000	0.354566	7.36997e+06	-51939.1	1005.82	-29750.6	0.000000	0.000000	6.354889	-0.047748	NaN	0.000000	0.001537	0.001733	28.0806	0.050045	0.001907	26.2445	-90.9661	-164.612	-0.070230	0.353214	-0.817259	-0.818611	-0.047748	26.2445	-0.815895	-7.388112E+10	6.462759E-13	NaN
503	1.000000	0.398561	7.36997e+06	-51939.1	1005.82	-29750.6	0.000000	0.000000	6.398885	-0.042155	NaN	0.000000	0.001552	0.001733	28.0819	0.029628	0.002138	13.8605	-147.573	-165.445	-0.016002	0.397236	-0.773264	-0.774588	-0.042155	13.8605	-0.770983	-1.814127E+10	2.323717E-12	NaN
503	1.000000	0.442597	7.36997e+06	-51939.1	1005.82	-29750.6	0.000000	0.000000	6.442921	-0.038874	NaN	0.000000	0.001543	0.001693	28.082	0.033590	0.001924	17.4547	30.2396	-166.132	-0.103113	0.441343	-0.729227	-0.730482	-0.038874	17.4547	-0.727557	-4.650617E+9	8.358820E-12	NaN
503	1.000000	0.486606	7.36997e+06	-51939.1	1005.82	-29750.6	0.000000	0.000000	6.486929	-0.072709	NaN	0.000000	0.001528	0.001696	28.0817	0.086152	0.001980	43.5068	147.713	-164.372	-0.105026	0.485295	-0.685219	-0.686529	-0.072709	43.5068	-0.683965	-1.181480E+9	6.154080E-11	NaN
503	1.000000	0.530609	7.36997e+06	-51939.1	1005.82	-29750.6	0.000000	0.000000	6.530933	-0.030137	NaN	0.000000	0.001531	0.001722	28.0801	0.049020	0.001970	24.8877	52.9623	-161.21	-0.078855	0.529383	-0.641216	-0.642442	-0.030137	24.8877	-0.640308	-2.982015E+8	1.010618E-10	NaN
503	1.000000	0.574623	7.36997e+06	-51939.1	1005.82	-29750.6	0.000000	0.000000	6.574947	-0.037421	NaN	0.000000	0.001557	0.001685	28.0801	0.062308	0.002038	30.5677	-101.941	-163.369	0.049357	0.573351	-0.597201	-0.598474	-0.037421	30.5677	-0.596283	-7.400543E+7	5.056576E-10	NaN
503	1.000000	0.618684	7.36997e+06	-51939.1	1005.82	-29750.6	0.000000	0.000000	6.619010	0.012233	NaN	0.000000	0.001637	0.001719	28.0804	0.157434	0.001978	79.5886	14.6278	-162.186	-0.037637	0.617328	-0.553141	-0.554497	0.012233	79.5886	-0.553256	-1.883849E+7	-6.493693E-10	NaN
503	1.000000	0.662676	7.36997e+06	-51939.1	1005.82	-29750.6	0.000000	0.000000	6.663003	0.023127	NaN	0.000000	0.001624	0.001717	28.0818	0.063007	0.001901	33.1429	-122.584	-165.68	0.047261	0.661367	-0.509149	-0.510458	0.023127	33.1429	-0.509672	-4.67573e+06	-4.946245E-9	NaN
503	1.000000	0.706663	7.36997e+06	-51939.1	1005.82	-29750.6	0.000000	0.000000	6.706987	-0.031386	NaN	0.000000	0.001679	0.001714	28.0817	0.091328	0.002015	45.33	-35.8797	-166.583	-0.074322	0.705454	-0.465162	-0.466370	-0.031386	45.33	-0.464643	-1.09706e+06	2.860900E-8	NaN
503	1.000000	0.750734	7.36997e+06	-51939.1	1005.82	-29750.6	0.000000	0.000000	6.751057	-0.080822	NaN	0.000000	0.001630	0.001689	28.0816	0.045836	0.002003	22.88	-145.148	-163.764	-0.109963	0.749431	-0.421091	-0.422393	-0.080822	22.88	-0.418441	-244514	3.305401E-7	NaN
503	1.000000	0.794730	7.36998e+06	-51939.1	1005.82	-29750.6	0.000000	0.000000	6.795053	-0.079918	NaN	0.000000	0.001613	0.001713	28.0814	0.117293	0.001939	60.5049	92.517	-163.516	-0.042553	0.793387	-0.377095	-0.378438	-0.079918	60.5049	-0.376104	-60804.8	1.314338E-6	NaN
503	1.000000	0.838754	7.36998e+06	-51939.1	1005.82	-29750.6	0.000000	0.000000	6.839077	-0.088138	NaN	0.000000	0.001601	0.001704	28.0807	0.020583	0.001938	10.6232	129.69	-164.606	-0.134475	0.837426	-0.333070	-0.334399	-0.088138	10.6232	-0.326848	-11728.7	7.514754E-6	NaN
503	1.000000	0.882758	7.36998e+06	-51939.1	1005.82	-29750.6	0.000000	0.000000	6.883082	-0.042414	NaN	0.000000	0.001668	0.001643	28.0805	0.041859	0.002026	20.6646	-81.1406	-163.818	-0.109909	0.881488	-0.289066	-0.290337	-0.042414	20.6646	-0.287527	-3063.53	1.384481E-5	NaN
503	1.000000	0.926790	7.36998e+06	-51939.1	1005.82	-29750.6	0.000000	0.000000	6.927116	0.010664	NaN	0.000000	0.001598	0.001640	28.0803	0.032722	0.001952	16.7637	100.086	-158.514	-0.001673	0.925497	-0.245035	-0.246327	0.010664	16.7637	-0.245512	-700.498	-1.522369E-5	NaN
503	1.000000	0.970807	7.36998e+06	-51939.1	1005.82	-29750.6	0.000000	0.000000	6.971132	-0.026828	NaN	0.000000	0.001569	0.001646	28.0816	0.011602	0.002137	5.427816	-126.922	-163.842	-0.021233	0.969500	-0.201018	-0.202325	-0.026828	5.427816	-0.197311	-118.962	0.000226	NaN
503	1.000000	1.014818	7.36998e+06	-51939.1	1005.82	-29750.6	0.000000	0.000000	7.015141	-0.083351	NaN	0.000000	0.001585	0.001666	28.0814	0.155588	0.002098	74.1709	-162.9	-166.55	-0.058995	1.013585	-0.157006	-0.158239	-0.083351	74.1709	-0.156163	-23.4145	0.003560	NaN
503	1.000000	1.058850	7.36998e+06	-51939.1	1005.82	-29750.6	0.000000	0.000000	7.059172	-0.077794	NaN	0.000000	0.001551	0.001735	28.0818	0.052073	0.002062	25.2491	53.7206	-166.528	-0.137546	1.057513	-0.112975	-0.114311	-0.077794	25.2491	-0.110664	-3.103516	0.025066	NaN
503	1.000000	1.102857	7.36998e+06	-51939.1	1005.82	-29750.6	0.000000	0.000000	7.103180	-0.066893	NaN	0.000000	0.001561	0.001701	28.08	0.027252	0.002030	13.4247	-63.7036	-165.098	-0.142105	1.101575	-0.068968	-0.070250	-0.066893	13.4247	-0.065231	-0.252917	0.264485	NaN
503	1.000000	1.146835	7.36998e+06	-51939.1	1005.82	-29750.6	0.000000	0.000000	7.147158	-0.084972	NaN	0.000000	0.001568	0.001695	28.08	0.025584	0.001893	13.515	-113.933	-165.871	-0.069557	1.145542	-0.024989	-0.026282	-0.084972	13.515	-0.020274	-0.012764	6.657275	NaN
503	2.000000	1.181372	7.36998e+06	-51939.1	1005.82	-29750.6	0.000000	0.000000	7.182225	12.8114	NaN	0.000000	0.001519	0.001687	28.0802	12.3119	0.001674	7354.29	7.672181	-174.313	12.2153	1.181119	0.009547	0.009294	12.8114	7354.29	0.008241	0.007291	1757.1	78689.2
503	2.000000	1.192339	7.36998e+06	-51939.1	1005.82	-29750.6	0.000000	0.000000	7.194141	35.8764	NaN	0.000000	0.001637	0.001690	28.082	23.302	0.001609	14484.6	6.580725	179.911	34.7215	1.192074	0.020515	0.020249	35.8764	14484.6	0.018657	0.020476	1752.14	92482.6
503	2.000000	1.203349	7.36998e+06	-51939.1	1005.82	-29750.6	0.000000	0.000000	7.206507	68.8734	NaN	0.000000	0.001558	0.001669	28.0818	33.9208	0.001757	19304	4.184253	-178.524	69.6885	1.202963	0.031524	0.031138	68.8734	19304	0.028848	0.038391	1794.01	90013.6
503	2.000000	1.214279	7.36998e+06	-51939.1	1005.82	-29750.6	0.000000	0.000000	7.219313	114.496	NaN	0.000000	0.001564	0.001672	28.0818	45.2232	0.001753	25794.4	6.047689	177.503	112.342	1.213867	0.042454	0.042042	114.496	25794.4	0.039125	0.061786	1853.09	94809.7
503	2.000000	1.225239	7.36998e+06	-51939.1	1005.82	-29750.6	0.000000	0.000000	7.232451	167.456	NaN	0.000000	0.001560	0.001729	28.0801	55.3758	0.001720	32202.2	1.460048	179.912	165.789	1.224931	0.053414	0.053106	167.456	32202.2	0.049514	0.090917	1841.85	97574.4
503	2.000000	1.236235	7.36998e+06	-51939.1	1005.82	-29750.6	0.000000	0.000000	7.246110	232.191	NaN	0.000000	0.001549	0.001708	28.0805	65.9055	0.001657	39781	3.713891	175.032	229.316	1.236003	0.064410	0.064178	232.191	39781	0.060033	0.125925	1843.88	102422
503	2.000000	1.247311	7.36998e+06	-51939.1	1005.82	-29750.6	0.000000	0.000000	7.260014	300.954	NaN	0.000000	0.001530	0.001740	28.0802	79.4706	0.001798	44195.8	3.873089	174.695	302.718	1.247006	0.075486	0.075181	300.954	44195.8	0.070379	0.165634	1816.98	99215.3
503	2.000000	1.258206	7.36998e+06	-51939.1	1005.82	-29750.6	0.000000	0.000000	7.274458	387.254	NaN	0.000000	0.001555	0.001739	28.0812	87.7541	0.001795	48889.2	5.435005	172.504	385.671	1.257874	0.086382	0.086050	387.254	48889.2	0.080441	0.209134	1851.7	97672.7
503	2.000000	1.269222	7.36998e+06	-51939.1	1005.82	-29750.6	0.000000	0.000000	7.289051	474.214	NaN	0.000000	0.001588	0.001736	28.0814	99.6767	0.001957	50933	5.679564	171.505	471.796	1.269041	0.097398	0.097217	474.214	50933	0.090415	0.256908	1845.85	91808.6
503	2.000000	1.276723	7.36998e+06	-51939.1	1005.82	-29750.6	0.000000	0.000000	7.299615	548.691	NaN	0.000000	0.001590	0.001702	28.0809	106.386	0.001757	60562.4	6.004566	-9.590043	543.652	1.276332	0.104899	0.104508	548.691	60562.4	0.098104	0.296853	1848.36	101556