File: remote_trans/data/nanoindenter/0828-1/data/Data_2025-08-06,11h17m57s/2025-07-22_16-23-58_1_44.txt
2025-07-22, 16:23:58, 1
Index	Phase	Displacement	Time	Pos X	Pos Y	Pos Z	Rot A	Rot B	Piezo Z	Force A	Force B	Gripper	Voltage A	Voltage B	Temperature	Amplitude force	Amplitude pos	Stiffness	Phase shift	Phase excitation	Force A raw	Displacement raw	HMax	HMax raw	Real Force	Real Stiffness	Contact Depth	Area	Hardness	Reduced Mod.
[#]	[#]	[um]	[s]	[um]	[um]	[um]	[m°]	[m°]	[um]	[uN]	[uN]	[V]	[V]	[V]	[°C]	[uN]	[um]	[N/m]	[°]	[°]	[uN]	[um]	[um]	[um]	[uN]	[N/m]	[um]	[um^2]	[MPa]	[MPa]
44	1.000000	0.002324	7.36547e+06	-40839.1	955.818	-29789.1	0.000000	0.000000	6.002817	-0.017280	NaN	0.000000	0.001592	0.001671	28.079	0.098929	0.000925	106.984	26.7951	-175.649	-0.069534	0.001085	-1.097381	-1.098621	-0.017280	106.984	-1.097260	-4.605632E+14	3.751834E-17	NaN
44	1.000000	0.044257	7.36547e+06	-40839.1	955.818	-29789.1	0.000000	0.000000	6.044748	-0.058654	NaN	0.000000	0.001602	0.001727	28.0964	0.133058	0.001845	72.1276	41.7725	12.7043	0.011086	0.042945	-1.055448	-1.056761	-0.058654	72.1276	-1.054838	-1.240083E+14	4.729839E-16	NaN
44	1.000000	0.086290	7.36547e+06	-40839.1	955.817	-29789.1	0.000000	0.000000	6.086781	-0.044983	NaN	0.000000	0.001582	0.001700	28.1318	0.123667	0.002056	60.1613	-66.9023	-164.524	-0.108459	0.084963	-1.013416	-1.014742	-0.044983	60.1613	-1.012855	-3.379112E+13	1.331200E-15	NaN
44	1.000000	0.128301	7.36547e+06	-40839.1	955.817	-29789.1	0.000000	0.000000	6.128796	0.041358	NaN	0.000000	0.001605	0.001748	28.1022	0.024461	0.002075	11.7893	-48.5385	16.3604	0.026971	0.126953	-0.971404	-0.972753	0.041358	11.7893	-0.974035	-1.014017E+13	-4.078663E-15	NaN
44	1.000000	0.170306	7.36547e+06	-40839.1	955.818	-29789.1	0.000000	0.000000	6.170800	0.022230	NaN	0.000000	0.001573	0.001699	28.0803	0.093409	0.002084	44.8293	154.363	-166.151	0.014606	0.168992	-0.929400	-0.930714	0.022230	44.8293	-0.929771	-2.565149E+12	-8.666355E-15	NaN
44	1.000000	0.212335	7.36547e+06	-40839.1	955.818	-29789.1	0.000000	0.000000	6.212826	-0.053803	NaN	0.000000	0.001596	0.001696	28.094	0.064947	0.001944	33.4049	-126.126	17.7622	-0.088791	0.211043	-0.887371	-0.888662	-0.053803	33.4049	-0.886163	-6.607495E+11	8.142756E-14	NaN
44	1.000000	0.254355	7.36547e+06	-40839.1	955.819	-29789.1	0.000000	0.000000	6.254847	-0.003792	NaN	0.000000	0.001623	0.001733	28.131	0.097044	0.001890	51.3408	-36.9199	-162.081	-0.060981	0.253080	-0.845351	-0.846626	-0.003792	51.3408	-0.845296	-1.849391E+11	2.050349E-14	NaN
44	1.000000	0.296365	7.36547e+06	-40839.1	955.818	-29789.1	0.000000	0.000000	6.296858	-0.002160	NaN	0.000000	0.001623	0.001706	28.1051	0.094535	0.002007	47.0934	15.8451	13.0462	-0.011186	0.295017	-0.803340	-0.804689	-0.002160	47.0934	-0.803306	-4.985777E+10	4.332269E-14	NaN
44	1.000000	0.338376	7.36547e+06	-40839.1	955.818	-29789.1	0.000000	0.000000	6.338869	-0.017653	NaN	0.000000	0.001623	0.001729	28.0805	0.037627	0.002053	18.3241	27.8172	-167.984	-0.010363	0.337023	-0.761329	-0.762683	-0.017653	18.3241	-0.760607	-1.310865E+10	1.346667E-12	NaN
44	1.000000	0.380393	7.36547e+06	-40839.1	955.818	-29789.1	0.000000	0.000000	6.380885	-0.028186	NaN	0.000000	0.001626	0.001757	28.0934	0.033384	0.001982	16.8414	97.5386	10.9331	-0.014879	0.379040	-0.719313	-0.720665	-0.028186	16.8414	-0.718057	-3.451275E+9	8.166923E-12	NaN
44	1.000000	0.422420	7.36548e+06	-40839.1	955.818	-29789.1	0.000000	0.000000	6.422913	0.004893	NaN	0.000000	0.001554	0.001715	28.1301	0.030250	0.002032	14.8884	159.531	-169.028	-0.001654	0.421127	-0.677286	-0.678578	0.004893	14.8884	-0.677533	-9.648431E+8	-5.071237E-12	NaN
44	1.000000	0.464432	7.36548e+06	-40839.1	955.819	-29789.1	0.000000	0.000000	6.464924	-0.035997	NaN	0.000000	0.001579	0.001706	28.1032	0.061630	0.001912	32.2296	-61.3463	13.2981	-0.027379	0.463119	-0.635273	-0.636587	-0.035997	32.2296	-0.634435	-2.476982E+8	1.453259E-10	NaN
44	1.000000	0.506451	7.36548e+06	-40839.1	955.819	-29789.1	0.000000	0.000000	6.506941	-0.072256	NaN	0.000000	0.001622	0.001730	28.0812	0.036499	0.001803	20.247	-58.047	-167.41	-0.016420	0.505141	-0.593255	-0.594565	-0.072256	20.247	-0.590578	-6.174977E+7	1.170147E-9	NaN
44	1.000000	0.548461	7.36548e+06	-40839.1	955.818	-29789.1	0.000000	0.000000	6.548955	0.029837	NaN	0.000000	0.001630	0.001701	28.0921	0.108638	0.001948	55.7628	-82.8677	15.3624	0.012817	0.547129	-0.551245	-0.552577	0.029837	55.7628	-0.551646	-1.789600E+7	-1.667243E-9	NaN
44	1.000000	0.590486	7.36548e+06	-40839.1	955.819	-29789.1	0.000000	0.000000	6.590981	0.028428	NaN	0.000000	0.001597	0.001721	28.1311	0.080746	0.002032	39.7414	17.3936	-165.957	0.026370	0.589187	-0.509219	-0.510519	0.028428	39.7414	-0.509756	-4.6883e+06	-6.063515E-9	NaN
44	1.000000	0.632525	7.36548e+06	-40839.1	955.818	-29789.1	0.000000	0.000000	6.633016	-0.054299	NaN	0.000000	0.001580	0.001726	28.1057	0.027897	0.002077	13.4306	-76.8422	13.642	-0.053494	0.631152	-0.467180	-0.468554	-0.054299	13.4306	-0.464148	-1.07966e+06	5.029253E-8	NaN
44	1.000000	0.674550	7.36548e+06	-40839.1	955.819	-29789.1	0.000000	0.000000	6.675042	-0.021209	NaN	0.000000	0.001583	0.001724	28.0797	0.065417	0.001943	33.6629	133.436	-165.302	-0.028441	0.673241	-0.425155	-0.426465	-0.021209	33.6629	-0.424683	-299772	7.074944E-8	NaN
44	1.000000	0.716530	7.36548e+06	-40839.1	955.817	-29789.1	0.000000	0.000000	6.717022	-0.040021	NaN	0.000000	0.001596	0.001750	28.0909	0.120992	0.002092	57.8279	-83.3942	12.2669	-0.072344	0.715193	-0.383175	-0.384513	-0.040021	57.8279	-0.382656	-75508	5.300284E-7	NaN
44	1.000000	0.758551	7.36548e+06	-40839.1	955.818	-29789.1	0.000000	0.000000	6.759044	-0.007215	NaN	0.000000	0.001599	0.001727	28.1308	0.104172	0.002064	50.471	97.6568	-166.7	-0.021836	0.757216	-0.341154	-0.342489	-0.007215	50.471	-0.341047	-18915.3	3.814241E-7	NaN
44	1.000000	0.800591	7.36548e+06	-40839.1	955.818	-29789.1	0.000000	0.000000	6.801085	0.018219	NaN	0.000000	0.001570	0.001705	28.1058	0.036874	0.002055	17.9467	-157.589	15.1813	0.017242	0.799168	-0.299114	-0.300538	0.018219	17.9467	-0.299876	-4685.83	-3.888051E-6	NaN
44	1.000000	0.842591	7.36548e+06	-40839.1	955.818	-29789.1	0.000000	0.000000	6.843083	-0.049139	NaN	0.000000	0.001619	0.001752	28.0825	0.028661	0.001885	15.2028	135.864	-165.049	-0.048330	0.841293	-0.257114	-0.258413	-0.049139	15.2028	-0.254690	-971.275	5.059228E-5	NaN
44	1.000000	0.884631	7.36548e+06	-40839.1	955.82	-29789.1	0.000000	0.000000	6.885122	-0.037130	NaN	0.000000	0.001650	0.001721	28.0913	0.057883	0.002015	28.7325	-0.332817	14.5886	-0.003102	0.883253	-0.215075	-0.216453	-0.037130	28.7325	-0.214106	-223.419	0.000166	NaN
44	1.000000	0.926620	7.36548e+06	-40839.1	955.818	-29789.1	0.000000	0.000000	6.927113	0.007524	NaN	0.000000	0.001656	0.001719	28.1311	0.209405	0.002050	102.166	-23.988	-164.564	-0.051863	0.925269	-0.173086	-0.174436	0.007524	102.166	-0.173141	-46.5566	-0.000162	NaN
44	1.000000	0.968632	7.36548e+06	-40839.1	955.818	-29789.1	0.000000	0.000000	6.969123	-0.038219	NaN	0.000000	0.001569	0.001677	28.1065	0.087161	0.001937	44.9956	-81.3236	13.7246	-0.094130	0.967295	-0.131074	-0.132411	-0.038219	44.9956	-0.130437	-7.771299	0.004918	NaN
44	1.000000	1.010670	7.36548e+06	-40839.1	955.818	-29789.1	0.000000	0.000000	7.011163	-0.017018	NaN	0.000000	0.001583	0.001683	28.0816	0.131785	0.001953	67.4861	113.166	-167.475	-0.049661	1.009319	-0.089035	-0.090387	-0.017018	67.4861	-0.088846	-1.015435	0.016759	NaN
44	1.000000	1.052685	7.36548e+06	-40839.1	955.819	-29789.1	0.000000	0.000000	7.053177	-0.033433	NaN	0.000000	0.001596	0.001686	28.0901	0.051841	0.001968	26.3374	-1.776846	12.8655	0.010041	1.051343	-0.047021	-0.048363	-0.033433	26.3374	-0.046069	-0.069289	0.482515	NaN
44	1.000000	1.094704	7.36548e+06	-40839.1	955.818	-29789.1	0.000000	0.000000	7.095198	0.017780	NaN	0.000000	0.001669	0.001665	28.131	0.043400	0.001952	22.2379	38.6688	-163.809	-0.077059	1.093404	-0.005002	-0.006302	0.017780	22.2379	-0.005601	-0.003791	-4.689617	NaN
44	2.000000	1.116720	7.36548e+06	-40839.1	955.819	-29789.1	0.000000	0.000000	7.117971	18.4498	NaN	0.000000	0.001652	0.001636	28.1073	16.4538	0.001826	9008.7	3.938663	6.458525	17.9664	1.116426	0.017014	0.016720	18.4498	9008.7	0.015478	0.015928	1158.3	65215.5
44	2.000000	1.127168	7.36548e+06	-40839.1	955.819	-29789.1	0.000000	0.000000	7.129483	44.3244	NaN	0.000000	0.001654	0.001628	28.082	27.2913	0.001799	15171.1	4.232732	-179.067	43.9132	1.126851	0.027463	0.027145	44.3244	15171.1	0.025272	0.031512	1406.61	78082.8
44	2.000000	1.137612	7.36548e+06	-40839.1	955.819	-29789.1	0.000000	0.000000	7.141387	79.8633	NaN	0.000000	0.001665	0.001658	28.0886	37.9322	0.001851	20492.9	4.690026	-1.836155	77.535	1.137323	0.037906	0.037618	79.8633	20492.9	0.034983	0.051707	1544.54	82338.5
44	2.000000	1.148073	7.36548e+06	-40839.1	955.819	-29789.1	0.000000	0.000000	7.153581	122.046	NaN	0.000000	0.001653	0.001699	28.1278	47.2481	0.001761	26831.1	4.807611	175.375	120.559	1.147867	0.048367	0.048161	122.046	26831.1	0.044955	0.077461	1575.58	88078.7
44	2.000000	1.158594	7.36548e+06	-40839.1	955.818	-29789.1	0.000000	0.000000	7.166420	178.437	NaN	0.000000	0.001602	0.001670	28.1093	57.2479	0.001770	32347.3	4.700501	-4.803958	177.028	1.158153	0.058888	0.058448	178.437	32347.3	0.054751	0.107661	1657.4	90070.3
44	2.000000	1.169045	7.36548e+06	-40839.1	955.818	-29789.1	0.000000	0.000000	7.179569	244.075	NaN	0.000000	0.001577	0.001687	28.0804	66.6291	0.001785	37331.7	2.134706	176.442	241.572	1.168732	0.069340	0.069026	244.075	37331.7	0.064436	0.142195	1716.49	90450.2
44	2.000000	1.179631	7.36548e+06	-40839.1	955.819	-29789.1	0.000000	0.000000	7.192515	301.516	NaN	0.000000	0.001610	0.001719	28.0903	78.5071	0.001808	43424.2	3.412421	-6.831770	302.105	1.179328	0.079925	0.079622	301.516	43424.2	0.074717	0.183806	1640.41	92539.1
44	2.000000	1.190129	7.36548e+06	-40839.1	955.819	-29789.1	0.000000	0.000000	7.206106	376.776	NaN	0.000000	0.001597	0.001647	28.1286	87.8546	0.001782	49307.3	4.235940	171.877	380.014	1.189726	0.090423	0.090020	376.776	49307.3	0.084692	0.228934	1645.78	94151.9
44	2.000000	1.200453	7.36548e+06	-40839.1	955.819	-29789.1	0.000000	0.000000	7.219931	461.976	NaN	0.000000	0.001615	0.001646	28.1114	97.3819	0.001849	52673.1	6.460805	-10.9585	453.547	1.200014	0.100747	0.100309	461.976	52673.1	0.094169	0.276074	1673.38	91590.2
44	2.000000	1.208458	7.36548e+06	-40839.1	955.818	-29789.1	0.000000	0.000000	7.230717	529.618	NaN	0.000000	0.001581	0.001654	28.1082	101.811	0.001784	57078.7	3.837510	-8.735681	522.128	1.208225	0.108753	0.108519	529.618	57078.7	0.101794	0.316979	1670.83	92625.8