File: remote_trans/data/nanoindenter/0828-1/data/Data_2025-08-06,11h17m57s/2025-07-22_16-23-58_1_1198.txt
2025-07-22, 16:23:58, 1
Index	Phase	Displacement	Time	Pos X	Pos Y	Pos Z	Rot A	Rot B	Piezo Z	Force A	Force B	Gripper	Voltage A	Voltage B	Temperature	Amplitude force	Amplitude pos	Stiffness	Phase shift	Phase excitation	Force A raw	Displacement raw	HMax	HMax raw	Real Force	Real Stiffness	Contact Depth	Area	Hardness	Reduced Mod.
[#]	[#]	[um]	[s]	[um]	[um]	[um]	[m°]	[m°]	[um]	[uN]	[uN]	[V]	[V]	[V]	[°C]	[uN]	[um]	[N/m]	[°]	[°]	[uN]	[um]	[um]	[um]	[uN]	[N/m]	[um]	[um^2]	[MPa]	[MPa]
1198	1.000000	0.002284	7.37676e+06	-55689.1	1105.82	-29740.9	0.000000	0.000000	6.002788	-0.017375	NaN	0.000000	0.001595	0.001766	28.0827	0.065672	0.001024	64.142	117.703	-167.068	-0.055405	0.000995	-0.996600	-0.997890	-0.017375	64.142	-0.996397	-2.028896E+13	8.563597E-16	NaN
1198	1.000000	0.040260	7.37676e+06	-55689.1	1105.82	-29740.9	0.000000	0.000000	6.040764	-0.005784	NaN	0.000000	0.001594	0.001743	28.0827	0.105093	0.001865	56.3584	-21.4979	13.8806	-0.020094	0.038826	-0.958625	-0.960058	-0.005784	56.3584	-0.958548	-6.270420E+12	9.224682E-16	NaN
1198	1.000000	0.078249	7.37676e+06	-55689.1	1105.82	-29740.9	0.000000	0.000000	6.078754	0.026302	NaN	0.000000	0.001696	0.001646	28.0823	0.098321	0.001952	50.3661	171.383	-164.378	-0.025256	0.076944	-0.920636	-0.921941	0.026302	50.3661	-0.921028	-1.954709E+12	-1.345554E-14	NaN
1198	1.000000	0.116308	7.37676e+06	-55689.1	1105.82	-29740.9	0.000000	0.000000	6.116811	-0.043788	NaN	0.000000	0.001625	0.001633	28.0812	0.099723	0.001999	49.8852	4.389460	18.2252	-0.080089	0.114919	-0.882577	-0.883966	-0.043788	49.8852	-0.881918	-5.789604E+11	7.563276E-14	NaN
1198	1.000000	0.154294	7.37676e+06	-55689.1	1105.82	-29740.9	0.000000	0.000000	6.154799	0.015419	NaN	0.000000	0.001588	0.001667	28.0812	0.102918	0.001990	51.7063	138.744	-165.688	-0.054318	0.152974	-0.844591	-0.845911	0.015419	51.7063	-0.844815	-1.821848E+11	-8.463169E-14	NaN
1198	1.000000	0.192316	7.37676e+06	-55689.1	1105.82	-29740.9	0.000000	0.000000	6.192822	0.030118	NaN	0.000000	0.001548	0.001668	28.0814	0.054645	0.002047	26.6963	-24.9892	17.6904	0.033359	0.190994	-0.806568	-0.807891	0.030118	26.6963	-0.807414	-5.668780E+10	-5.312906E-13	NaN
1198	1.000000	0.230318	7.37676e+06	-55689.1	1105.82	-29740.9	0.000000	0.000000	6.230820	-0.053177	NaN	0.000000	0.001579	0.001659	28.0825	0.113804	0.002078	54.759	-9.216985	-163.316	0.022984	0.229022	-0.768567	-0.769863	-0.053177	54.759	-0.767839	-1.644066E+10	3.234456E-12	NaN
1198	1.000000	0.268331	7.37676e+06	-55689.1	1105.82	-29740.9	0.000000	0.000000	6.268833	-0.039689	NaN	0.000000	0.001566	0.001664	28.0828	0.169752	0.001975	85.9403	-117.594	15.8007	-0.086037	0.266976	-0.730554	-0.731908	-0.039689	85.9403	-0.730208	-5.054024E+9	7.852870E-12	NaN
1198	1.000000	0.306348	7.37676e+06	-55689.1	1105.82	-29740.9	0.000000	0.000000	6.306850	-0.044539	NaN	0.000000	0.001615	0.001672	28.083	0.038510	0.002016	19.0974	3.296378	-167.376	-0.037217	0.305042	-0.692537	-0.693842	-0.044539	19.0974	-0.690788	-1.464497E+9	3.041238E-11	NaN
1198	1.000000	0.344344	7.37676e+06	-55689.1	1105.82	-29740.9	0.000000	0.000000	6.344847	-0.028127	NaN	0.000000	0.001600	0.001673	28.0826	0.086834	0.001886	46.0486	44.6267	17.3233	-0.018592	0.342981	-0.654540	-0.655904	-0.028127	46.0486	-0.654082	-4.606721E+8	6.105609E-11	NaN
1198	1.000000	0.382370	7.37676e+06	-55689.1	1105.82	-29740.9	0.000000	0.000000	6.382875	0.010677	NaN	0.000000	0.001597	0.001627	28.0811	0.050500	0.002079	24.2952	-68.6041	-165.443	0.000772	0.381066	-0.616515	-0.617819	0.010677	24.2952	-0.616844	-1.419884E+8	-7.519441E-11	NaN
1198	1.000000	0.420396	7.37676e+06	-55689.1	1105.82	-29740.9	0.000000	0.000000	6.420901	0.026656	NaN	0.000000	0.001562	0.001694	28.0814	0.051258	0.001954	26.2263	-5.330755	13.878	0.005978	0.419022	-0.578489	-0.579862	0.026656	26.2263	-0.579251	-4.309132E+7	-6.185866E-10	NaN
1198	1.000000	0.458395	7.37676e+06	-55689.1	1105.82	-29740.9	0.000000	0.000000	6.458899	0.008629	NaN	0.000000	0.001549	0.001667	28.0813	0.041653	0.001926	21.6289	-37.8104	-164.42	-0.037231	0.457091	-0.540490	-0.541794	0.008629	21.6289	-0.540789	-1.265621E+7	-6.817883E-10	NaN
1198	1.000000	0.496429	7.37676e+06	-55689.1	1105.82	-29740.9	0.000000	0.000000	6.496934	0.033016	NaN	0.000000	0.001533	0.001664	28.0825	0.113966	0.001974	57.748	54.9336	13.4436	0.040781	0.495058	-0.502456	-0.503827	0.033016	57.748	-0.502885	-3.76058e+06	-8.779449E-9	NaN
1198	1.000000	0.534459	7.37676e+06	-55689.1	1105.82	-29740.9	0.000000	0.000000	6.534962	-0.029351	NaN	0.000000	0.001561	0.001661	28.0826	0.036887	0.001922	19.1871	-59.4319	-166.092	-0.003097	0.533150	-0.464426	-0.465735	-0.029351	19.1871	-0.463279	-1.04974e+06	2.796008E-8	NaN
1198	1.000000	0.572465	7.37676e+06	-55689.1	1105.82	-29740.9	0.000000	0.000000	6.572969	-0.013677	NaN	0.000000	0.001568	0.001658	28.0824	0.019543	0.002027	9.640004	174.333	16.7547	-0.067428	0.571130	-0.426420	-0.427755	-0.013677	9.640004	-0.425355	-306420	4.463616E-8	NaN
1198	1.000000	0.610473	7.37676e+06	-55689.1	1105.82	-29740.9	0.000000	0.000000	6.610976	-0.049258	NaN	0.000000	0.001558	0.001647	28.0822	0.011128	0.002006	5.546627	-145.776	-166.481	-0.027967	0.609172	-0.388411	-0.389713	-0.049258	5.546627	-0.381751	-73284.2	6.721458E-7	NaN
1198	1.000000	0.648510	7.37676e+06	-55689.1	1105.82	-29740.9	0.000000	0.000000	6.649013	-0.034777	NaN	0.000000	0.001584	0.001676	28.081	0.019615	0.001938	10.121	-86.1799	13.8491	-0.059837	0.647149	-0.350375	-0.351736	-0.034777	10.121	-0.347798	-23715.1	1.466435E-6	NaN
1198	1.000000	0.686527	7.37676e+06	-55689.1	1105.82	-29740.9	0.000000	0.000000	6.687032	0.022328	NaN	0.000000	0.001530	0.001672	28.0811	0.042774	0.001948	21.9595	24.3001	-165.136	0.026908	0.685217	-0.312358	-0.313668	0.022328	21.9595	-0.313121	-7365.41	-3.031486E-6	NaN
1198	1.000000	0.724532	7.37676e+06	-55689.1	1105.82	-29740.9	0.000000	0.000000	6.725038	0.040213	NaN	0.000000	0.001566	0.001666	28.0822	0.078604	0.002001	39.2753	158.47	13.7634	-0.002079	0.723127	-0.274353	-0.275757	0.040213	39.2753	-0.275121	-1991.73	-2.018986E-5	NaN
1198	1.000000	0.762548	7.37676e+06	-55689.1	1105.82	-29740.9	0.000000	0.000000	6.763053	0.034602	NaN	0.000000	0.001552	0.001716	28.0822	0.052160	0.002080	25.0745	-103.902	-163.813	0.031566	0.761209	-0.236337	-0.237675	0.034602	25.0745	-0.237372	-522.938	-6.616871E-5	NaN
1198	1.000000	0.800546	7.37676e+06	-55689.1	1105.82	-29740.9	0.000000	0.000000	6.801050	-0.011930	NaN	0.000000	0.001547	0.001674	28.0826	0.033745	0.002006	16.8199	-25.729	15.1305	0.050275	0.799249	-0.198338	-0.199636	-0.011930	16.8199	-0.197806	-121.224	9.841527E-5	NaN
1198	1.000000	0.838556	7.37676e+06	-55689.1	1105.82	-29740.9	0.000000	0.000000	6.839061	0.022403	NaN	0.000000	0.001578	0.001681	28.0824	0.055411	0.001987	27.88	-22.5996	-164.827	0.077615	0.837242	-0.160329	-0.161643	0.022403	27.88	-0.160932	-28.4791	-0.000787	NaN
1198	1.000000	0.876604	7.37676e+06	-55689.1	1105.82	-29740.9	0.000000	0.000000	6.877109	0.023972	NaN	0.000000	0.001602	0.001659	28.0823	0.029415	0.002012	14.6173	103.867	14.4039	-0.007858	0.875223	-0.122281	-0.123662	0.023972	14.6173	-0.123511	-5.681288	-0.004219	NaN
1198	1.000000	0.914616	7.37676e+06	-55689.1	1105.82	-29740.9	0.000000	0.000000	6.915122	0.039866	NaN	0.000000	0.001555	0.001648	28.081	0.073672	0.001894	38.9014	158.667	-165.675	0.033707	0.913307	-0.084269	-0.085578	0.039866	38.9014	-0.085038	-0.823359	-0.048419	NaN
1198	1.000000	0.952602	7.37676e+06	-55689.1	1105.82	-29740.9	0.000000	0.000000	6.953105	-0.038277	NaN	0.000000	0.001519	0.001647	28.0811	0.116868	0.002028	57.6376	-75.873	16.5017	-0.002544	0.951257	-0.046283	-0.047627	-0.038277	57.6376	-0.045785	-0.067918	0.563577	NaN
1198	1.000000	0.990651	7.37676e+06	-55689.1	1105.82	-29740.9	0.000000	0.000000	6.991155	-0.029314	NaN	0.000000	0.001532	0.001635	28.0811	0.014688	0.002056	7.145305	-65.3978	-164.964	-0.004820	0.989301	-0.008233	-0.009584	-0.029314	7.145305	-0.005156	-0.003515	8.340339	NaN
1198	2.000000	1.011567	7.37676e+06	-55689.1	1105.82	-29740.9	0.000000	0.000000	7.012817	18.124	NaN	0.000000	0.001593	0.001683	28.081	15.301	0.001788	8558.61	4.419575	6.634234	17.46	1.011340	0.012682	0.012455	18.124	8558.61	0.011094	0.010422	1738.95	76593.6
1198	2.000000	1.021070	7.37676e+06	-55689.1	1105.82	-29740.9	0.000000	0.000000	7.023143	38.1286	NaN	0.000000	0.001623	0.001710	28.0822	24.2758	0.001902	12760.5	6.689395	-177.03	37.2267	1.020658	0.022185	0.021773	38.1286	12760.5	0.019944	0.022454	1698.05	77802.1
1198	2.000000	1.030479	7.37676e+06	-55689.1	1105.82	-29740.9	0.000000	0.000000	7.033598	63.5576	NaN	0.000000	0.001618	0.001708	28.0822	31.1562	0.001657	18801.5	2.598142	1.452992	60.2591	1.030230	0.031594	0.031345	63.5576	18801.5	0.029059	0.038816	1637.42	87188.8
1198	2.000000	1.040011	7.37676e+06	-55689.1	1105.82	-29740.9	0.000000	0.000000	7.044385	94.0769	NaN	0.000000	0.001621	0.001724	28.0828	41.665	0.001785	23338.2	7.883473	174.855	93.6398	1.039590	0.041126	0.040705	94.0769	23338.2	0.038103	0.059218	1588.66	87622.4
1198	2.000000	1.049461	7.37676e+06	-55689.1	1105.82	-29740.9	0.000000	0.000000	7.055528	135.199	NaN	0.000000	0.001661	0.001694	28.0815	50.2894	0.001717	29280.6	6.246024	-4.807456	131.502	1.049183	0.050577	0.050298	135.199	29280.6	0.047114	0.083701	1615.26	92467.5
1198	2.000000	1.058943	7.37676e+06	-55689.1	1105.82	-29740.9	0.000000	0.000000	7.066838	179.659	NaN	0.000000	0.001584	0.001675	28.0811	59.685	0.001819	32811.7	7.916347	172.264	177.167	1.058588	0.060058	0.059703	179.659	32811.7	0.055952	0.111693	1608.51	89699.6
1198	2.000000	1.068492	7.37676e+06	-55689.1	1105.82	-29740.9	0.000000	0.000000	7.078075	220.695	NaN	0.000000	0.001651	0.001654	28.0815	67.0068	0.001802	37189.3	5.619445	-5.017671	221.03	1.068102	0.069607	0.069217	220.695	37189.3	0.065156	0.144944	1522.62	89246.5
1198	2.000000	1.077953	7.37676e+06	-55689.1	1105.82	-29740.9	0.000000	0.000000	7.089497	268.339	NaN	0.000000	0.001607	0.001652	28.081	75.9934	0.001710	44429.6	5.026627	172.931	268.341	1.077721	0.079068	0.078836	268.339	44429.6	0.074539	0.183040	1466.02	94879.6
1198	2.000000	1.087486	7.37676e+06	-55689.1	1105.82	-29740.9	0.000000	0.000000	7.101509	328.598	NaN	0.000000	0.001573	0.001738	28.0826	84.2391	0.001771	47571.3	8.025184	-9.781587	328.229	1.087083	0.088602	0.088198	328.598	47571.3	0.083421	0.222926	1474.02	92052.9
1198	2.000000	1.097008	7.37676e+06	-55689.1	1105.82	-29740.9	0.000000	0.000000	7.113791	395.696	NaN	0.000000	0.001571	0.001696	28.082	92.5965	0.001681	55078.3	4.295793	172.478	398.873	1.096600	0.098123	0.097715	395.696	55078.3	0.092735	0.268677	1472.76	97082
1198	2.000000	1.104435	7.37676e+06	-55689.1	1105.82	-29740.9	0.000000	0.000000	7.123926	461.553	NaN	0.000000	0.001565	0.001689	28.0826	99.1944	0.001712	57952	6.266974	-9.551514	459.821	1.103959	0.105550	0.105075	461.553	57952	0.099576	0.304812	1514.22	95901.6