File: remote_trans/data/nanoindenter/0828-1/data/Data_2025-08-06,11h17m57s/2025-07-22_16-23-58_1_102.txt
2025-07-22, 16:23:58, 1
Index	Phase	Displacement	Time	Pos X	Pos Y	Pos Z	Rot A	Rot B	Piezo Z	Force A	Force B	Gripper	Voltage A	Voltage B	Temperature	Amplitude force	Amplitude pos	Stiffness	Phase shift	Phase excitation	Force A raw	Displacement raw	HMax	HMax raw	Real Force	Real Stiffness	Contact Depth	Area	Hardness	Reduced Mod.
[#]	[#]	[um]	[s]	[um]	[um]	[um]	[m°]	[m°]	[um]	[uN]	[uN]	[V]	[V]	[V]	[°C]	[uN]	[um]	[N/m]	[°]	[°]	[uN]	[um]	[um]	[um]	[uN]	[N/m]	[um]	[um^2]	[MPa]	[MPa]
102	1.000000	0.002233	7.36603e+06	-43739.1	955.818	-29778.5	0.000000	0.000000	6.002782	-0.002927	NaN	0.000000	0.001583	0.001616	28.0868	0.071275	0.000992	71.8756	-95.3306	-174.565	-0.047343	0.001004	-1.092483	-1.093712	-0.002927	71.8756	-1.092452	-3.969507E+14	7.372830E-18	NaN
102	1.000000	0.044205	7.36603e+06	-43739.1	955.819	-29778.5	0.000000	0.000000	6.044754	0.003369	NaN	0.000000	0.001569	0.001646	28.1277	0.074783	0.002085	35.8655	70.4109	13.497	0.018947	0.042832	-1.050511	-1.051884	0.003369	35.8655	-1.050582	-1.087018E+14	-3.098953E-17	NaN
102	1.000000	0.086236	7.36603e+06	-43739.1	955.818	-29778.6	0.000000	0.000000	6.086786	0.026393	NaN	0.000000	0.001546	0.001655	28.1148	0.117172	0.001883	62.2286	38.0998	-169.806	0.007961	0.084869	-1.008480	-1.009847	0.026393	62.2286	-1.008798	-2.979927E+13	-8.856951E-16	NaN
102	1.000000	0.128240	7.36603e+06	-43739.1	955.818	-29778.6	0.000000	0.000000	6.128787	-0.051811	NaN	0.000000	0.001621	0.001652	28.0825	0.030007	0.001939	15.4753	89.9608	14.7548	-0.062207	0.126879	-0.966476	-0.967837	-0.051811	15.4753	-0.963965	-7.418562E+12	6.984026E-15	NaN
102	1.000000	0.170263	7.36603e+06	-43739.1	955.818	-29778.6	0.000000	0.000000	6.170811	-0.009867	NaN	0.000000	0.001575	0.001671	28.0878	0.122599	0.002124	57.7294	-179.14	-169.382	-0.095452	0.168921	-0.924453	-0.925795	-0.009867	57.7294	-0.924325	-2.165691E+12	4.555871E-15	NaN
102	1.000000	0.212267	7.36603e+06	-43739.1	955.819	-29778.6	0.000000	0.000000	6.212817	0.027458	NaN	0.000000	0.001602	0.001673	28.1252	0.121835	0.002058	59.2025	48.7174	11.0166	-0.008686	0.210891	-0.882449	-0.883825	0.027458	59.2025	-0.882797	-5.950116E+11	-4.614714E-14	NaN
102	1.000000	0.254306	7.36604e+06	-43739.1	955.818	-29778.6	0.000000	0.000000	6.254854	-0.036102	NaN	0.000000	0.001591	0.001704	28.1132	0.060357	0.001987	30.3704	97.2417	-165.873	-0.009282	0.253011	-0.840410	-0.841705	-0.036102	30.3704	-0.839518	-1.544426E+11	2.337552E-13	NaN
102	1.000000	0.296302	7.36604e+06	-43739.1	955.818	-29778.6	0.000000	0.000000	6.296849	-0.034078	NaN	0.000000	0.001561	0.001690	28.0807	0.069710	0.002059	33.8601	-16.8025	11.8319	-0.074651	0.294939	-0.798414	-0.799777	-0.034078	33.8601	-0.797660	-4.179177E+10	8.154125E-13	NaN
102	1.000000	0.338331	7.36604e+06	-43739.1	955.818	-29778.6	0.000000	0.000000	6.338881	0.038130	NaN	0.000000	0.001583	0.001628	28.0878	0.017457	0.002056	8.488796	-80.2102	-164.069	0.011684	0.337020	-0.756385	-0.757696	0.038130	8.488796	-0.759754	-1.276318E+10	-2.987478E-12	NaN
102	1.000000	0.380336	7.36604e+06	-43739.1	955.818	-29778.6	0.000000	0.000000	6.380885	-0.010545	NaN	0.000000	0.001589	0.001664	28.126	0.059508	0.002012	29.5823	83.1198	16.8277	-0.029831	0.378977	-0.714380	-0.715739	-0.010545	29.5823	-0.714113	-3.049052E+9	3.458359E-12	NaN
102	1.000000	0.422380	7.36604e+06	-43739.1	955.819	-29778.6	0.000000	0.000000	6.422929	0.014476	NaN	0.000000	0.001570	0.001664	28.115	0.074300	0.002043	36.3698	84.4171	-167.719	-0.107630	0.421035	-0.672336	-0.673681	0.014476	36.3698	-0.672635	-8.268870E+8	-1.750680E-11	NaN
102	1.000000	0.464372	7.36604e+06	-43739.1	955.818	-29778.6	0.000000	0.000000	6.464919	-0.042909	NaN	0.000000	0.001595	0.001667	28.0812	0.056154	0.001932	29.0713	-48.9539	13.4089	-0.126010	0.463005	-0.630344	-0.631711	-0.042909	29.0713	-0.629237	-2.101598E+8	2.041750E-10	NaN
102	1.000000	0.506381	7.36604e+06	-43739.1	955.818	-29778.6	0.000000	0.000000	6.506931	0.034627	NaN	0.000000	0.001589	0.001680	28.086	0.054036	0.001998	27.0381	-112.396	-166.486	-0.002942	0.504986	-0.588335	-0.589730	0.034627	27.0381	-0.589295	-5.928602E+7	-5.840642E-10	NaN
102	1.000000	0.548388	7.36604e+06	-43739.1	955.818	-29778.6	0.000000	0.000000	6.548937	0.012444	NaN	0.000000	0.001577	0.001647	28.1234	0.076103	0.002043	37.2425	-71.8619	14.6152	0.050541	0.547040	-0.546328	-0.547676	0.012444	37.2425	-0.546579	-1.522505E+7	-8.173465E-10	NaN
102	1.000000	0.590425	7.36604e+06	-43739.1	955.818	-29778.6	0.000000	0.000000	6.590975	0.024226	NaN	0.000000	0.001568	0.001673	28.1153	0.035697	0.002029	17.5968	-42.9375	-167.949	0.010434	0.589118	-0.504291	-0.505598	0.024226	17.5968	-0.505324	-4.06685e+06	-5.956964E-9	NaN
102	1.000000	0.632460	7.36604e+06	-43739.1	955.818	-29778.6	0.000000	0.000000	6.633009	0.016854	NaN	0.000000	0.001560	0.001630	28.0827	0.051813	0.002054	25.2217	-124.086	16.5776	-0.022262	0.631117	-0.462256	-0.463599	0.016854	25.2217	-0.462758	-1.03219e+06	-1.632800E-8	NaN
102	1.000000	0.674481	7.36604e+06	-43739.1	955.818	-29778.6	0.000000	0.000000	6.675029	-0.033299	NaN	0.000000	0.001517	0.001642	28.0875	0.092158	0.001898	48.5566	179.079	-164.217	-0.078073	0.673160	-0.420235	-0.421556	-0.033299	48.5566	-0.419720	-254946	1.306123E-7	NaN
102	1.000000	0.716478	7.36604e+06	-43739.1	955.818	-29778.6	0.000000	0.000000	6.717027	-0.015837	NaN	0.000000	0.001569	0.001652	28.1228	0.015250	0.001954	7.804827	174.023	12.6005	-0.051696	0.715129	-0.378238	-0.379587	-0.015837	7.804827	-0.376716	-62048.5	2.552393E-7	NaN
102	1.000000	0.758514	7.36604e+06	-43739.1	955.818	-29778.6	0.000000	0.000000	6.759062	-0.025617	NaN	0.000000	0.001649	0.001705	28.1149	0.060449	0.001899	31.8299	-168.433	-167.137	-0.042535	0.757183	-0.336202	-0.337533	-0.025617	31.8299	-0.335599	-15751.9	1.626261E-6	NaN
102	1.000000	0.800523	7.36604e+06	-43739.1	955.818	-29778.6	0.000000	0.000000	6.801070	-0.038829	NaN	0.000000	0.001596	0.001642	28.0813	0.026578	0.002046	12.9911	-156.754	14.07	-0.025376	0.799151	-0.294193	-0.295565	-0.038829	12.9911	-0.291951	-3568.78	1.088019E-5	NaN
102	1.000000	0.842523	7.36604e+06	-43739.1	955.818	-29778.6	0.000000	0.000000	6.843071	-0.012013	NaN	0.000000	0.001577	0.001691	28.086	0.141343	0.002010	70.312	-123.777	-168.842	-0.037357	0.841188	-0.252193	-0.253528	-0.012013	70.312	-0.252065	-884.863	1.357561E-5	NaN
102	1.000000	0.884553	7.36604e+06	-43739.1	955.819	-29778.6	0.000000	0.000000	6.885101	-0.038944	NaN	0.000000	0.001522	0.001618	28.1247	0.084517	0.002051	41.2059	-173.708	13.1292	0.008493	0.883220	-0.210163	-0.211496	-0.038944	41.2059	-0.209454	-187.919	0.000207	NaN
102	1.000000	0.926575	7.36604e+06	-43739.1	955.818	-29778.6	0.000000	0.000000	6.927122	-0.046933	NaN	0.000000	0.001581	0.001654	28.116	0.045461	0.001938	23.459	-23.8224	-165.472	-0.000937	0.925269	-0.168141	-0.169447	-0.046933	23.459	-0.166641	-35.8975	0.001307	NaN
102	1.000000	0.968580	7.36604e+06	-43739.1	955.818	-29778.6	0.000000	0.000000	6.969127	-0.046752	NaN	0.000000	0.001596	0.001636	28.0845	0.051916	0.001887	27.5194	-105.383	16.0963	-0.050612	0.967229	-0.126136	-0.127487	-0.046752	27.5194	-0.124862	-6.043033	0.007736	NaN
102	1.000000	1.010612	7.36604e+06	-43739.1	955.818	-29778.6	0.000000	0.000000	7.011160	-0.015743	NaN	0.000000	0.001581	0.001640	28.0846	0.079198	0.002034	38.9294	-75.4669	-165.782	-0.004958	1.009372	-0.084104	-0.085344	-0.015743	38.9294	-0.083801	-0.768321	0.020490	NaN
102	1.000000	1.052627	7.36604e+06	-43739.1	955.818	-29778.6	0.000000	0.000000	7.053175	-0.025472	NaN	0.000000	0.001568	0.001647	28.123	0.033805	0.002001	16.8962	-42.1462	15.9578	0.034535	1.051261	-0.042089	-0.043455	-0.025472	16.8962	-0.040958	-0.048360	0.526716	NaN
102	1.000000	1.094612	7.36604e+06	-43739.1	955.818	-29778.6	0.000000	0.000000	7.095161	0.007736	NaN	0.000000	0.001555	0.001646	28.1161	0.109831	0.002014	54.5444	35.6125	-168.1	-0.067647	1.093339	-0.000104	-0.001377	0.007736	54.5444	-0.000211	-0.000157	-49.2992	NaN
102	2.000000	1.112589	7.36604e+06	-43739.1	955.818	-29778.6	0.000000	0.000000	7.114242	26.8601	NaN	0.000000	0.001548	0.001659	28.0843	18.8266	0.001772	10626	7.068855	2.472565	25.6052	1.112145	0.017873	0.017429	26.8601	10626	0.015977	0.016611	1617.02	75326.7
102	2.000000	1.122988	7.36604e+06	-43739.1	955.819	-29778.6	0.000000	0.000000	7.125883	57.0833	NaN	0.000000	0.001610	0.001651	28.0843	28.9708	0.001826	15869.3	6.129071	179.921	54.4432	1.122703	0.028272	0.027987	57.0833	15869.3	0.025574	0.032068	1780.08	80964.6
102	2.000000	1.133507	7.36604e+06	-43739.1	955.818	-29778.6	0.000000	0.000000	7.137630	86.9636	NaN	0.000000	0.001569	0.001703	28.1239	38.347	0.001808	21210.9	5.127863	-1.225578	85.185	1.133159	0.038791	0.038443	86.9636	21210.9	0.035716	0.053426	1627.73	83840.8
102	2.000000	1.143990	7.36604e+06	-43739.1	955.818	-29778.6	0.000000	0.000000	7.150094	135.165	NaN	0.000000	0.001612	0.001680	28.1167	47.5883	0.001813	26242.2	1.466381	-178.601	133.366	1.143661	0.049274	0.048945	135.165	26242.2	0.045411	0.078758	1716.21	85433.2
102	2.000000	1.154479	7.36604e+06	-43739.1	955.817	-29778.6	0.000000	0.000000	7.163019	194.435	NaN	0.000000	0.001571	0.001692	28.0826	57.7303	0.001821	31694.1	6.720552	-4.857770	193.723	1.154004	0.059763	0.059288	194.435	31694.1	0.055161	0.109032	1783.28	87694.8
102	2.000000	1.164989	7.36604e+06	-43739.1	955.818	-29778.6	0.000000	0.000000	7.176194	259.272	NaN	0.000000	0.001562	0.001718	28.0828	68.5606	0.001828	37503.1	8.171285	171.905	256.922	1.164582	0.070272	0.069866	259.272	37503.1	0.065087	0.144681	1792.03	90081.5
102	2.000000	1.175493	7.36604e+06	-43739.1	955.819	-29778.6	0.000000	0.000000	7.189403	325.081	NaN	0.000000	0.001602	0.001665	28.1219	78.4885	0.001732	45313.5	2.666893	-4.624959	325.095	1.175262	0.080777	0.080546	325.081	45313.5	0.075396	0.186729	1740.92	95806.5
102	2.000000	1.185883	7.36604e+06	-43739.1	955.819	-29778.6	0.000000	0.000000	7.203203	408.033	NaN	0.000000	0.001572	0.001706	28.1187	89.4675	0.001818	49224.2	5.210129	172.157	403.917	1.185665	0.091167	0.090949	408.033	49224.2	0.084950	0.230161	1772.81	93742.4
102	2.000000	1.196209	7.36604e+06	-43739.1	955.819	-29778.6	0.000000	0.000000	7.217032	493.267	NaN	0.000000	0.001510	0.001697	28.084	98.7448	0.001813	54468.9	3.896016	-7.064066	479.156	1.196012	0.101493	0.101296	493.267	54468.9	0.094701	0.278841	1768.99	94241.7
102	2.000000	1.202937	7.36604e+06	-43739.1	955.819	-29778.6	0.000000	0.000000	7.226462	558.985	NaN	0.000000	0.001578	0.001659	28.0838	105.524	0.001828	57715	2.699941	174	557.803	1.202544	0.108221	0.107828	558.985	57715	0.100957	0.312361	1789.55	94348.1