File: remote_trans/data/nanoindenter/0828-1/data/Data_2025-08-06,11h17m57s/2025-07-22_16-23-58_1_383.txt
2025-07-22, 16:23:58, 1
Index	Phase	Displacement	Time	Pos X	Pos Y	Pos Z	Rot A	Rot B	Piezo Z	Force A	Force B	Gripper	Voltage A	Voltage B	Temperature	Amplitude force	Amplitude pos	Stiffness	Phase shift	Phase excitation	Force A raw	Displacement raw	HMax	HMax raw	Real Force	Real Stiffness	Contact Depth	Area	Hardness	Reduced Mod.
[#]	[#]	[um]	[s]	[um]	[um]	[um]	[m°]	[m°]	[um]	[uN]	[uN]	[V]	[V]	[V]	[°C]	[uN]	[um]	[N/m]	[°]	[°]	[uN]	[um]	[um]	[um]	[uN]	[N/m]	[um]	[um^2]	[MPa]	[MPa]
383	1.000000	0.002286	7.36881e+06	-57789.1	955.818	-29736.6	0.000000	0.000000	6.002758	0.028165	NaN	0.000000	0.001609	0.001650	28.0795	0.083691	0.000959	87.2963	-120.883	-159.153	0.100721	0.001075	-1.083768	-1.084980	0.028165	87.2963	-1.084010	-3.057575E+14	-9.211604E-17	NaN
383	1.000000	0.044293	7.36881e+06	-57789.1	955.819	-29736.6	0.000000	0.000000	6.044765	0.032412	NaN	0.000000	0.001574	0.001659	28.0799	0.008919	0.002058	4.334492	56.0007	18.9303	0.087587	0.042903	-1.041762	-1.043152	0.032412	4.334492	-1.047370	-9.841385E+13	-3.293394E-16	NaN
383	1.000000	0.086293	7.36881e+06	-57789.1	955.819	-29736.6	0.000000	0.000000	6.086766	0.041470	NaN	0.000000	0.001625	0.001670	28.0812	0.054044	0.002043	26.4593	-134.317	-163.761	0.075043	0.085024	-0.999762	-1.001031	0.041470	26.4593	-1.000937	-2.335529E+13	-1.775596E-15	NaN
383	1.000000	0.128303	7.36881e+06	-57789.1	955.819	-29736.6	0.000000	0.000000	6.128774	0.006617	NaN	0.000000	0.001639	0.001610	28.0811	0.064191	0.002010	31.9399	157.976	14.6405	0.082681	0.126959	-0.957752	-0.959095	0.006617	31.9399	-0.957907	-6.146892E+12	-1.076463E-15	NaN
383	1.000000	0.170312	7.36881e+06	-57789.1	955.819	-29736.6	0.000000	0.000000	6.170784	0.025790	NaN	0.000000	0.001593	0.001634	28.0814	0.037977	0.001951	19.4632	-160.928	-165.258	0.016799	0.168993	-0.915742	-0.917062	0.025790	19.4632	-0.916736	-1.710557E+12	-1.507686E-14	NaN
383	1.000000	0.212342	7.36881e+06	-57789.1	955.819	-29736.6	0.000000	0.000000	6.212811	-0.035028	NaN	0.000000	0.001617	0.001655	28.081	0.050688	0.002013	25.1767	-26.5916	16.4426	-0.021191	0.210982	-0.873713	-0.875072	-0.035028	25.1767	-0.872669	-4.340652E+11	8.069746E-14	NaN
383	1.000000	0.254362	7.36881e+06	-57789.1	955.819	-29736.6	0.000000	0.000000	6.254834	0.019738	NaN	0.000000	0.001608	0.001618	28.0799	0.180977	0.002002	90.3859	170.296	-165.459	0.023763	0.253067	-0.831692	-0.832987	0.019738	90.3859	-0.831856	-1.216016E+11	-1.623184E-13	NaN
383	1.000000	0.296372	7.36881e+06	-57789.1	955.82	-29736.6	0.000000	0.000000	6.296846	0.080122	NaN	0.000000	0.001625	0.001662	28.0799	0.021390	0.001943	11.0094	133.606	15.7927	0.061102	0.294921	-0.789682	-0.791133	0.080122	11.0094	-0.795141	-3.862698E+10	-2.074241E-12	NaN
383	1.000000	0.338407	7.36881e+06	-57789.1	955.819	-29736.6	0.000000	0.000000	6.338878	-0.007099	NaN	0.000000	0.001570	0.001626	28.0799	0.068652	0.001983	34.6275	-59.9559	-166.368	-0.004000	0.337150	-0.747647	-0.748904	-0.007099	34.6275	-0.747493	-8.691561E+9	8.168005E-13	NaN
383	1.000000	0.380429	7.36881e+06	-57789.1	955.819	-29736.6	0.000000	0.000000	6.380900	0.012647	NaN	0.000000	0.001583	0.001687	28.0809	0.090835	0.001880	48.3229	176.439	15.9102	-0.045670	0.379024	-0.705626	-0.707031	0.012647	48.3229	-0.705822	-2.349752E+9	-5.382280E-12	NaN
383	1.000000	0.422441	7.36881e+06	-57789.1	955.818	-29736.6	0.000000	0.000000	6.422915	0.077881	NaN	0.000000	0.001646	0.001645	28.0809	0.077877	0.002077	37.4913	122.097	-167.957	-0.005984	0.421188	-0.663614	-0.664867	0.077881	37.4913	-0.665172	-6.535700E+8	-1.191622E-10	NaN
383	1.000000	0.464449	7.36881e+06	-57789.1	955.819	-29736.6	0.000000	0.000000	6.464922	0.051348	NaN	0.000000	0.001597	0.001661	28.0809	0.049619	0.001993	24.8976	-7.771522	12.4433	0.049312	0.463091	-0.621606	-0.622964	0.051348	24.8976	-0.623152	-1.733633E+8	-2.961862E-10	NaN
383	1.000000	0.506512	7.36881e+06	-57789.1	955.819	-29736.6	0.000000	0.000000	6.506984	0.016559	NaN	0.000000	0.001578	0.001665	28.0797	0.140381	0.001977	71.0075	153.574	-165.005	0.024108	0.505127	-0.579542	-0.580927	0.016559	71.0075	-0.579717	-4.373423E+7	-3.786307E-10	NaN
383	1.000000	0.548490	7.36881e+06	-57789.1	955.819	-29736.6	0.000000	0.000000	6.548962	0.025645	NaN	0.000000	0.001588	0.001696	28.0795	0.061371	0.002068	29.6723	-22.1787	16.1709	-0.057726	0.547192	-0.537564	-0.538863	0.025645	29.6723	-0.538212	-1.165638E+7	-2.200040E-9	NaN
383	1.000000	0.590507	7.36881e+06	-57789.1	955.82	-29736.6	0.000000	0.000000	6.590979	0.020197	NaN	0.000000	0.001613	0.001673	28.0795	0.089531	0.001960	45.6897	-150.5	-164.144	0.035969	0.589229	-0.495548	-0.496826	0.020197	45.6897	-0.495879	-3.00267e+06	-6.726427E-9	NaN
383	1.000000	0.632537	7.36881e+06	-57789.1	955.819	-29736.6	0.000000	0.000000	6.633010	0.047157	NaN	0.000000	0.001597	0.001638	28.0805	0.030782	0.001990	15.4649	-3.435367	16.3226	-0.020567	0.631143	-0.453517	-0.454911	0.047157	15.4649	-0.455804	-824195	-5.721565E-8	NaN
383	1.000000	0.674540	7.36881e+06	-57789.1	955.819	-29736.6	0.000000	0.000000	6.675010	-0.010885	NaN	0.000000	0.001559	0.001669	28.0807	0.084110	0.001834	45.8603	-105.039	-167.392	-0.033126	0.673205	-0.411515	-0.412850	-0.010885	45.8603	-0.411337	-193823	5.616171E-8	NaN
383	1.000000	0.716548	7.36881e+06	-57789.1	955.82	-29736.6	0.000000	0.000000	6.717021	0.052142	NaN	0.000000	0.001646	0.001651	28.0806	0.101937	0.001977	51.5669	62.7484	15.851	-0.027969	0.715197	-0.369506	-0.370858	0.052142	51.5669	-0.370265	-50111.6	-1.040508E-6	NaN
383	1.000000	0.758590	7.36881e+06	-57789.1	955.819	-29736.6	0.000000	0.000000	6.759059	-0.049973	NaN	0.000000	0.001662	0.001662	28.081	0.072012	0.001941	37.1061	38.5612	-165.926	0.045839	0.757255	-0.327465	-0.328800	-0.049973	37.1061	-0.326455	-11574.1	4.317696E-6	NaN
383	1.000000	0.800602	7.36881e+06	-57789.1	955.819	-29736.6	0.000000	0.000000	6.801074	0.010463	NaN	0.000000	0.001593	0.001623	28.0796	0.101086	0.002118	47.7222	-72.5753	15.5075	0.075566	0.799187	-0.285452	-0.286868	0.010463	47.7222	-0.285617	-2867.7	-3.648590E-6	NaN
383	1.000000	0.842614	7.36881e+06	-57789.1	955.818	-29736.6	0.000000	0.000000	6.843082	-0.058243	NaN	0.000000	0.001604	0.001643	28.0794	0.053053	0.001917	27.6805	-44.4023	-165.173	-0.026745	0.841347	-0.243441	-0.244707	-0.058243	27.6805	-0.241863	-614.635	9.476086E-5	NaN
383	1.000000	0.884653	7.36881e+06	-57789.1	955.819	-29736.6	0.000000	0.000000	6.885123	-0.014407	NaN	0.000000	0.001580	0.001589	28.0797	0.068199	0.001852	36.8316	-85.4892	13.9354	-0.010571	0.883232	-0.201402	-0.202822	-0.014407	36.8316	-0.201108	-137.372	0.000105	NaN
383	1.000000	0.926632	7.36881e+06	-57789.1	955.819	-29736.6	0.000000	0.000000	6.927103	-0.003586	NaN	0.000000	0.001549	0.001622	28.0809	0.097754	0.002109	46.3505	75.5947	-166.332	-0.098789	0.925344	-0.159423	-0.160710	-0.003586	46.3505	-0.159364	-26.7106	0.000134	NaN
383	1.000000	0.968669	7.36881e+06	-57789.1	955.82	-29736.6	0.000000	0.000000	6.969141	0.016414	NaN	0.000000	0.001573	0.001628	28.081	0.074990	0.001951	38.4421	162.884	13.4617	0.049780	0.967302	-0.117386	-0.118753	0.016414	38.4421	-0.117706	-4.340686	-0.003782	NaN
383	1.000000	1.010682	7.36881e+06	-57789.1	955.819	-29736.6	0.000000	0.000000	7.011154	0.042283	NaN	0.000000	0.001565	0.001653	28.0816	0.063047	0.001889	33.3835	-28.5759	-163.973	0.019031	1.009383	-0.075373	-0.076672	0.042283	33.3835	-0.076323	-0.499562	-0.084639	NaN
383	1.000000	1.052709	7.36881e+06	-57789.1	955.819	-29736.6	0.000000	0.000000	7.053183	0.065394	NaN	0.000000	0.001580	0.001590	28.0798	0.017718	0.002040	8.683567	142.59	14.0644	0.003689	1.051322	-0.033345	-0.034733	0.065394	8.683567	-0.038993	-0.042154	-1.551336	NaN
383	1.000000	1.094709	7.36881e+06	-57789.1	955.82	-29736.6	0.000000	0.000000	7.095400	5.329553	NaN	0.000000	0.001678	0.001600	28.0797	5.831965	0.001818	3207.9	11.9871	-168.745	4.581124	1.093348	0.008655	0.007294	5.329553	3207.9	0.007409	0.006441	827.397	36517.8
383	2.000000	1.107687	7.36881e+06	-57789.1	955.82	-29736.6	0.000000	0.000000	7.108919	18.4964	NaN	0.000000	0.001572	0.001602	28.0796	16.5739	0.001827	9070.2	10.7982	2.526487	18.4086	1.107313	0.021632	0.021258	18.4964	9070.2	0.020103	0.022704	814.678	54997.1
383	2.000000	1.118196	7.36881e+06	-57789.1	955.82	-29736.6	0.000000	0.000000	7.120303	39.7676	NaN	0.000000	0.001555	0.001604	28.0807	26.2213	0.001738	15084.9	4.092689	-178.088	39.9018	1.117872	0.032141	0.031818	39.7676	15084.9	0.030164	0.041084	967.961	67995.3
383	2.000000	1.128659	7.36881e+06	-57789.1	955.819	-29736.6	0.000000	0.000000	7.132134	73.0089	NaN	0.000000	0.001562	0.001599	28.0809	36.3824	0.001721	21139	6.211879	-2.519789	72.849	1.128165	0.042605	0.042111	73.0089	21139	0.040014	0.064065	1139.6	76304
383	2.000000	1.139096	7.36881e+06	-57789.1	955.821	-29736.6	0.000000	0.000000	7.144027	108.388	NaN	0.000000	0.001607	0.001648	28.0808	46.1324	0.001935	23845.2	7.188542	176.047	106.662	1.138790	0.053042	0.052735	108.388	23845.2	0.049633	0.091281	1187.41	72108.2
383	2.000000	1.149622	7.36881e+06	-57789.1	955.821	-29736.6	0.000000	0.000000	7.156352	152.122	NaN	0.000000	0.001671	0.001639	28.081	55.2422	0.001804	30627.6	4.647411	-4.111482	151.032	1.149169	0.063568	0.063114	152.122	30627.6	0.059843	0.125244	1214.6	79069.2
383	2.000000	1.160173	7.36881e+06	-57789.1	955.821	-29736.6	0.000000	0.000000	7.168937	201.551	NaN	0.000000	0.001609	0.001640	28.08	66.2207	0.001825	36294.8	2.840220	176.399	204.726	1.159870	0.074119	0.073816	201.551	36294.8	0.069954	0.163900	1229.72	81908.5
383	2.000000	1.170618	7.36881e+06	-57789.1	955.822	-29736.6	0.000000	0.000000	7.181873	262.098	NaN	0.000000	0.001600	0.001626	28.0801	74.9777	0.001836	40837.8	4.073592	-5.603718	261.918	1.170314	0.084564	0.084259	262.098	40837.8	0.079750	0.205996	1272.35	82206.5
383	2.000000	1.181086	7.36881e+06	-57789.1	955.821	-29736.6	0.000000	0.000000	7.195030	327.445	NaN	0.000000	0.001587	0.001552	28.08	84.1316	0.001767	47603.6	4.516299	172.332	327.471	1.180688	0.095031	0.094633	327.445	47603.6	0.089872	0.254190	1288.19	86264.8
383	2.000000	1.191548	7.36881e+06	-57789.1	955.82	-29736.6	0.000000	0.000000	7.208129	391.527	NaN	0.000000	0.001569	0.001513	28.0815	92.9383	0.001812	51288.2	5.921192	-9.331139	388.412	1.191073	0.105494	0.105019	391.527	51288.2	0.099768	0.305855	1280.11	84729.2
383	2.000000	1.196543	7.36881e+06	-57789.1	955.821	-29736.6	0.000000	0.000000	7.214734	430.653	NaN	0.000000	0.001545	0.001557	28.0812	97.0936	0.001784	54413.4	9.588534	-13.5884	425.926	1.196128	0.110489	0.110073	430.653	54413.4	0.104553	0.332434	1295.45	86223.7