File: remote_trans/data/nanoindenter/0828-1/data/Data_2025-08-06,11h17m57s/2025-07-22_16-23-58_1_1127.txt
2025-07-22, 16:23:58, 1
Index	Phase	Displacement	Time	Pos X	Pos Y	Pos Z	Rot A	Rot B	Piezo Z	Force A	Force B	Gripper	Voltage A	Voltage B	Temperature	Amplitude force	Amplitude pos	Stiffness	Phase shift	Phase excitation	Force A raw	Displacement raw	HMax	HMax raw	Real Force	Real Stiffness	Contact Depth	Area	Hardness	Reduced Mod.
[#]	[#]	[um]	[s]	[um]	[um]	[um]	[m°]	[m°]	[um]	[uN]	[uN]	[V]	[V]	[V]	[°C]	[uN]	[um]	[N/m]	[°]	[°]	[uN]	[um]	[um]	[um]	[uN]	[N/m]	[um]	[um^2]	[MPa]	[MPa]
1127	1.000000	0.002163	7.37607e+06	-56489.1	1055.82	-29738.6	0.000000	0.000000	6.002775	-0.072764	NaN	0.000000	0.001620	0.001758	28.0838	0.067226	0.001052	63.9012	29.2231	-166.359	-0.012188	0.000955	-1.233365	-1.234572	-0.072764	63.9012	-1.232511	-2.991830E+16	2.432101E-18	NaN
1127	1.000000	0.048133	7.37608e+06	-56489.1	1055.82	-29738.6	0.000000	0.000000	6.048748	-0.036805	NaN	0.000000	0.001647	0.001791	28.0837	0.076969	0.002036	37.808	-95.2604	12.6565	-0.051051	0.046734	-1.187394	-1.188793	-0.036805	37.808	-1.186664	-7.280131E+15	5.055491E-18	NaN
1127	1.000000	0.094173	7.37608e+06	-56489.1	1055.82	-29738.6	0.000000	0.000000	6.094787	-0.051375	NaN	0.000000	0.001650	0.001639	28.0836	0.036650	0.002043	17.941	77.1046	-167.241	-0.032537	0.092881	-1.141354	-1.142646	-0.051375	17.941	-1.139206	-1.683048E+15	3.052493E-17	NaN
1127	1.000000	0.140137	7.37608e+06	-56489.1	1055.82	-29738.6	0.000000	0.000000	6.140753	0.000232	NaN	0.000000	0.001694	0.001733	28.0825	0.144182	0.002027	71.1286	76.1872	14.25	0.017300	0.138817	-1.095391	-1.096710	0.000232	71.1286	-1.095393	-4.347309E+14	-5.332779E-19	NaN
1127	1.000000	0.186192	7.37608e+06	-56489.1	1055.82	-29738.6	0.000000	0.000000	6.186809	0.032946	NaN	0.000000	0.001630	0.001687	28.0824	0.057543	0.002002	28.7453	170.411	-165.153	0.018186	0.184851	-1.049335	-1.050676	0.032946	28.7453	-1.050195	-1.074081E+14	-3.067404E-16	NaN
1127	1.000000	0.232192	7.37608e+06	-56489.1	1055.82	-29738.6	0.000000	0.000000	6.232808	0.014495	NaN	0.000000	0.001654	0.001722	28.0823	0.050294	0.002016	24.951	101.117	13.3215	0.019012	0.230878	-1.003335	-1.004649	0.014495	24.951	-1.003771	-2.549980E+13	-5.684314E-16	NaN
1127	1.000000	0.278220	7.37608e+06	-56489.1	1055.82	-29738.7	0.000000	0.000000	6.278836	-0.003764	NaN	0.000000	0.001643	0.001715	28.0837	0.024425	0.002030	12.0304	67.749	-171.637	-0.023965	0.276930	-0.957308	-0.958597	-0.003764	12.0304	-0.957073	-5.989686E+12	6.284112E-16	NaN
1127	1.000000	0.324246	7.37608e+06	-56489.1	1055.82	-29738.7	0.000000	0.000000	6.324861	-0.015738	NaN	0.000000	0.001617	0.001747	28.0835	0.120700	0.002016	59.8667	69.4935	13.2835	0.103467	0.322922	-0.911281	-0.912606	-0.015738	59.8667	-0.911084	-1.434847E+12	1.096807E-14	NaN
1127	1.000000	0.370274	7.37608e+06	-56489.1	1055.82	-29738.7	0.000000	0.000000	6.370886	-0.089049	NaN	0.000000	0.001693	0.001723	28.0836	0.047919	0.001961	24.4405	-85.4816	-169.096	-0.111094	0.368965	-0.865253	-0.866562	-0.089049	24.4405	-0.862521	-3.164022E+11	2.814409E-13	NaN
1127	1.000000	0.416293	7.37608e+06	-56489.1	1055.82	-29738.7	0.000000	0.000000	6.416908	-0.024266	NaN	0.000000	0.001681	0.001698	28.0831	0.044120	0.002037	21.6591	-119.565	13.5756	-0.055792	0.414977	-0.819235	-0.820551	-0.024266	21.6591	-0.818394	-7.987977E+10	3.037769E-13	NaN
1127	1.000000	0.462289	7.37608e+06	-56489.1	1055.82	-29738.7	0.000000	0.000000	6.462904	-0.022390	NaN	0.000000	0.001662	0.001724	28.0824	0.032806	0.001952	16.8091	-102.791	-165.622	-0.005008	0.461017	-0.773239	-0.774510	-0.022390	16.8091	-0.772240	-1.886923E+10	1.186564E-12	NaN
1127	1.000000	0.508322	7.37608e+06	-56489.1	1055.82	-29738.7	0.000000	0.000000	6.508938	0.010534	NaN	0.000000	0.001667	0.001710	28.0826	0.020487	0.001986	10.3178	167.262	16.5781	-0.054889	0.506941	-0.727205	-0.728587	0.010534	10.3178	-0.727971	-4.711414E+9	-2.235881E-12	NaN
1127	1.000000	0.554339	7.37608e+06	-56489.1	1055.82	-29738.7	0.000000	0.000000	6.554955	0.007079	NaN	0.000000	0.001656	0.001707	28.0838	0.040265	0.002044	19.7013	-51.9488	-166.026	0.028433	0.553016	-0.681188	-0.682511	0.007079	19.7013	-0.681458	-1.091800E+9	-6.483425E-12	NaN
1127	1.000000	0.600325	7.37608e+06	-56489.1	1055.82	-29738.7	0.000000	0.000000	6.600942	0.027279	NaN	0.000000	0.001620	0.001702	28.0838	0.049769	0.001943	25.609	136.591	16.9554	0.036599	0.599012	-0.635203	-0.636516	0.027279	25.609	-0.636002	-2.602679E+8	-1.048107E-10	NaN
1127	1.000000	0.646384	7.37608e+06	-56489.1	1055.82	-29738.7	0.000000	0.000000	6.646999	-0.031567	NaN	0.000000	0.001630	0.001691	28.084	0.009394	0.002089	4.496435	-77.5798	-167.18	-0.010424	0.645076	-0.589143	-0.590452	-0.031567	4.496435	-0.583878	-4.991519E+7	6.324209E-10	NaN
1127	1.000000	0.692368	7.37608e+06	-56489.1	1055.82	-29738.7	0.000000	0.000000	6.692984	-0.009267	NaN	0.000000	0.001707	0.001705	28.0827	0.120337	0.002078	57.9177	58.6087	13.5821	-0.002826	0.691027	-0.543159	-0.544500	-0.009267	57.9177	-0.543039	-1.359876E+7	6.814894E-10	NaN
1127	1.000000	0.738431	7.37608e+06	-56489.1	1055.82	-29738.7	0.000000	0.000000	6.739047	0.003702	NaN	0.000000	0.001704	0.001649	28.0825	0.046470	0.001995	23.2932	136.339	-165.605	0.072736	0.737094	-0.497096	-0.498433	0.003702	23.2932	-0.497215	-3.13443e+06	-1.181134E-9	NaN
1127	1.000000	0.784405	7.37608e+06	-56489.1	1055.82	-29738.7	0.000000	0.000000	6.785020	-0.017164	NaN	0.000000	0.001640	0.001752	28.0826	0.098366	0.002187	44.9819	41.2315	12.7048	-0.107058	0.783087	-0.451122	-0.452440	-0.017164	44.9819	-0.450836	-701638	2.446289E-8	NaN
1127	1.000000	0.830443	7.37608e+06	-56489.1	1055.82	-29738.7	0.000000	0.000000	6.831055	-0.073205	NaN	0.000000	0.001654	0.001703	28.0841	0.096549	0.002011	48.0012	139.347	-166.081	-0.049235	0.829158	-0.405085	-0.406369	-0.073205	48.0012	-0.403941	-152113	4.812552E-7	NaN
1127	1.000000	0.876463	7.37608e+06	-56489.1	1055.82	-29738.7	0.000000	0.000000	6.877077	-0.025439	NaN	0.000000	0.001661	0.001699	28.0841	0.012455	0.001979	6.293836	-52.5873	13.599	-0.030336	0.875185	-0.359065	-0.360342	-0.025439	6.293836	-0.356033	-31221.8	8.147965E-7	NaN
1127	1.000000	0.922478	7.37608e+06	-56489.1	1055.82	-29738.7	0.000000	0.000000	6.923095	0.024350	NaN	0.000000	0.001643	0.001711	28.0838	0.047376	0.002097	22.5903	-90.5466	-167.047	-0.132945	0.921174	-0.313050	-0.314353	0.024350	22.5903	-0.313858	-7552.46	-3.224159E-6	NaN
1127	1.000000	0.968504	7.37608e+06	-56489.1	1055.82	-29738.7	0.000000	0.000000	6.969121	0.031693	NaN	0.000000	0.001688	0.001672	28.083	0.073686	0.002018	36.5184	-93.38	10.0973	0.026324	0.967146	-0.267023	-0.268382	0.031693	36.5184	-0.267674	-1535.17	-2.064480E-5	NaN
1127	1.000000	1.014510	7.37608e+06	-56489.1	1055.82	-29738.7	0.000000	0.000000	7.015122	-0.079105	NaN	0.000000	0.001684	0.001698	28.0827	0.086229	0.002024	42.5997	142.184	-168.449	-0.010588	1.013208	-0.221018	-0.222319	-0.079105	42.5997	-0.219625	-273.955	0.000289	NaN
1127	1.000000	1.060602	7.37608e+06	-56489.1	1055.82	-29738.7	0.000000	0.000000	7.061217	-0.011771	NaN	0.000000	0.001684	0.001674	28.0827	0.009850	0.002177	4.524170	29.5696	15.0231	-0.028496	1.059184	-0.174925	-0.176343	-0.011771	4.524170	-0.172974	-46.248	0.000255	NaN
1127	1.000000	1.106543	7.37608e+06	-56489.1	1055.82	-29738.7	0.000000	0.000000	7.107159	0.002317	NaN	0.000000	0.001655	0.001700	28.0841	0.072376	0.001920	37.7009	59.9544	-165.245	-0.021251	1.105245	-0.128985	-0.130282	0.002317	37.7009	-0.129031	-7.297100	-0.000317	NaN
1127	1.000000	1.152575	7.37608e+06	-56489.1	1055.82	-29738.7	0.000000	0.000000	7.153192	0.027292	NaN	0.000000	0.001673	0.001677	28.0839	0.090605	0.001952	46.4113	-32.7175	15.4267	0.019047	1.151236	-0.082952	-0.084291	0.027292	46.4113	-0.083393	-0.750909	-0.036345	NaN
1127	1.000000	1.198592	7.37608e+06	-56489.1	1055.82	-29738.7	0.000000	0.000000	7.199209	0.025233	NaN	0.000000	0.001699	0.001724	28.0837	0.040324	0.002081	19.3729	31.2236	-168.831	-0.010400	1.197323	-0.036935	-0.038204	0.025233	19.3729	-0.037912	-0.039103	-0.645279	NaN
1127	2.000000	1.240825	7.37608e+06	-56489.1	1055.82	-29738.7	0.000000	0.000000	7.241809	8.948993	NaN	0.000000	0.001656	0.001691	28.0829	9.489714	0.001541	6156.92	7.965125	4.914737	8.455658	1.240500	0.005298	0.004973	8.948993	6156.92	0.004208	0.003422	2615.13	96160.5
1127	2.000000	1.252254	7.37608e+06	-56489.1	1055.82	-29738.7	0.000000	0.000000	7.254217	32.7472	NaN	0.000000	0.001635	0.001731	28.0827	22.5113	0.001693	13296.3	5.024804	-177.492	33.7698	1.251930	0.016726	0.016402	32.7472	13296.3	0.014879	0.015125	2165.15	98778.1
1127	2.000000	1.263782	7.37608e+06	-56489.1	1055.82	-29738.7	0.000000	0.000000	7.267140	66.6554	NaN	0.000000	0.001624	0.001724	28.0825	36.9089	0.001871	19731	7.134758	-1.984096	67.4868	1.263295	0.028254	0.027768	66.6554	19731	0.025721	0.032340	2061.1	100243
1127	2.000000	1.275205	7.37608e+06	-56489.1	1055.82	-29738.7	0.000000	0.000000	7.280453	112.577	NaN	0.000000	0.001651	0.001763	28.0842	47.6983	0.001795	26571.4	4.288242	177.932	112.63	1.274898	0.039678	0.039370	112.577	26571.4	0.036500	0.055297	2035.86	103237
1127	2.000000	1.286747	7.37608e+06	-56489.1	1055.82	-29738.7	0.000000	0.000000	7.293908	159.078	NaN	0.000000	0.001678	0.001727	28.0839	59.0427	0.001718	34370.1	0.586488	-0.922815	159.712	1.286421	0.051220	0.050894	159.078	34370.1	0.047749	0.085582	1858.78	107340
1127	2.000000	1.298164	7.37608e+06	-56489.1	1055.82	-29738.7	0.000000	0.000000	7.308157	227.923	NaN	0.000000	0.001630	0.001723	28.0836	70.9202	0.001850	38336.4	7.944303	171.65	227.422	1.297749	0.062636	0.062222	227.923	38336.4	0.058177	0.119354	1909.64	101383
1127	2.000000	1.309666	7.37608e+06	-56489.1	1055.82	-29738.7	0.000000	0.000000	7.322587	299.103	NaN	0.000000	0.001620	0.001693	28.0834	80.6325	0.001798	44838	5.017384	-6.641345	297.436	1.309273	0.074138	0.073746	299.103	44838	0.069135	0.160588	1862.54	102226
1127	2.000000	1.321057	7.37608e+06	-56489.1	1055.82	-29738.7	0.000000	0.000000	7.337523	385.262	NaN	0.000000	0.001643	0.001729	28.0825	90.7765	0.001738	52238	5.784809	171.315	380.382	1.320832	0.085529	0.085305	385.262	52238	0.079998	0.207120	1860.09	104869
1127	2.000000	1.332562	7.37608e+06	-56489.1	1055.82	-29738.7	0.000000	0.000000	7.352961	480.848	NaN	0.000000	0.001614	0.001694	28.0826	102.499	0.001814	56510.6	6.270568	-9.661309	471.851	1.332246	0.097035	0.096718	480.848	56510.6	0.090653	0.258104	1863	101626
1127	2.000000	1.338039	7.37608e+06	-56489.1	1055.82	-29738.7	0.000000	0.000000	7.360626	534.047	NaN	0.000000	0.001629	0.001720	28.0838	108.693	0.001756	61900.2	10.1439	165.99	529.074	1.337681	0.102512	0.102154	534.047	61900.2	0.096041	0.285872	1868.14	105774