File: remote_trans/data/nanoindenter/0828-1/data/Data_2025-08-06,11h17m57s/2025-07-22_16-23-58_1_765.txt
2025-07-22, 16:23:58, 1
Index	Phase	Displacement	Time	Pos X	Pos Y	Pos Z	Rot A	Rot B	Piezo Z	Force A	Force B	Gripper	Voltage A	Voltage B	Temperature	Amplitude force	Amplitude pos	Stiffness	Phase shift	Phase excitation	Force A raw	Displacement raw	HMax	HMax raw	Real Force	Real Stiffness	Contact Depth	Area	Hardness	Reduced Mod.
[#]	[#]	[um]	[s]	[um]	[um]	[um]	[m°]	[m°]	[um]	[uN]	[uN]	[V]	[V]	[V]	[°C]	[uN]	[um]	[N/m]	[°]	[°]	[uN]	[um]	[um]	[um]	[uN]	[N/m]	[um]	[um^2]	[MPa]	[MPa]
765	1.000000	0.002820	7.37254e+06	-38839.1	1005.82	-29795.9	0.000000	0.000000	6.002835	0.023745	NaN	0.000000	0.001597	0.001795	28.0841	0.044836	0.000929	48.2461	134.329	-171.948	-0.021666	0.001536	-1.142671	-1.143956	0.023745	48.2461	-1.143041	-1.894566E+15	-1.253330E-17	NaN
765	1.000000	0.044756	7.37254e+06	-38839.1	1005.82	-29795.9	0.000000	0.000000	6.044769	-0.014946	NaN	0.000000	0.001618	0.001805	28.0838	0.030927	0.001833	16.8692	66.6108	12.4306	-0.102604	0.043415	-1.100736	-1.102077	-0.014946	16.8692	-1.100071	-5.023709E+14	2.975040E-17	NaN
765	1.000000	0.086720	7.37254e+06	-38839.1	1005.82	-29795.9	0.000000	0.000000	6.086734	0.006695	NaN	0.000000	0.001593	0.001794	28.084	0.048347	0.002045	23.6392	14.0002	-162.464	0.062258	0.085418	-1.058771	-1.060073	0.006695	23.6392	-1.058984	-1.409816E+14	-4.748838E-17	NaN
765	1.000000	0.128750	7.37254e+06	-38839.1	1005.82	-29795.9	0.000000	0.000000	6.128762	-0.023011	NaN	0.000000	0.001563	0.001788	28.082	0.069382	0.002059	33.6954	178.683	13.7983	0.015019	0.127382	-1.016742	-1.018109	-0.023011	33.6954	-1.016230	-3.751638E+13	6.133518E-16	NaN
765	1.000000	0.170791	7.37254e+06	-38839.1	1005.82	-29795.9	0.000000	0.000000	6.170804	-0.033303	NaN	0.000000	0.001585	0.001791	28.0821	0.100038	0.002040	49.029	-83.0907	-166.527	-0.019521	0.169461	-0.974700	-0.976030	-0.033303	49.029	-0.974191	-1.018911E+13	3.268456E-15	NaN
765	1.000000	0.212801	7.37254e+06	-38839.1	1005.82	-29795.9	0.000000	0.000000	6.212814	-0.011590	NaN	0.000000	0.001581	0.001758	28.0821	0.010893	0.001950	5.584811	-102.903	16.5734	0.047087	0.211389	-0.932691	-0.934103	-0.011590	5.584811	-0.931134	-2.676124E+12	4.330711E-15	NaN
765	1.000000	0.254821	7.37254e+06	-38839.1	1005.82	-29795.9	0.000000	0.000000	6.254835	0.022136	NaN	0.000000	0.001560	0.001758	28.0833	0.010660	0.001938	5.499779	-23.1165	-166.346	0.043880	0.253478	-0.890671	-0.892014	0.022136	5.499779	-0.893689	-8.351892E+11	-2.650403E-14	NaN
765	1.000000	0.296842	7.37254e+06	-38839.1	1005.82	-29795.9	0.000000	0.000000	6.296854	-0.025769	NaN	0.000000	0.001574	0.001779	28.083	0.046964	0.001967	23.8772	65.0512	12.9814	-0.000586	0.295514	-0.848650	-0.849978	-0.025769	23.8772	-0.847840	-2.002118E+11	1.287094E-13	NaN
765	1.000000	0.338836	7.37254e+06	-38839.1	1005.82	-29795.9	0.000000	0.000000	6.338848	-0.046384	NaN	0.000000	0.001612	0.001748	28.083	0.093810	0.001883	49.8207	-85.0965	-166.758	-0.035782	0.337518	-0.806655	-0.807973	-0.046384	49.8207	-0.805957	-5.416393E+10	8.563668E-13	NaN
765	1.000000	0.380879	7.37254e+06	-38839.1	1005.82	-29795.9	0.000000	0.000000	6.380893	0.008612	NaN	0.000000	0.001661	0.001787	28.0814	0.070361	0.002132	32.9981	-35.3473	12.2073	0.080953	0.379511	-0.764613	-0.765980	0.008612	32.9981	-0.764808	-1.495230E+10	-5.759341E-13	NaN
765	1.000000	0.422900	7.37254e+06	-38839.1	1005.82	-29795.9	0.000000	0.000000	6.422916	0.054846	NaN	0.000000	0.001645	0.001752	28.0814	0.024653	0.002048	12.0385	138.802	-165.86	0.024101	0.421572	-0.722592	-0.723920	0.054846	12.0385	-0.726009	-4.429995E+9	-1.238068E-11	NaN
765	1.000000	0.464860	7.37254e+06	-38839.1	1005.82	-29795.9	0.000000	0.000000	6.464874	-0.002084	NaN	0.000000	0.001658	0.001738	28.0817	0.125291	0.002025	61.86	-54.151	15.7811	0.034604	0.463552	-0.680631	-0.681940	-0.002084	61.86	-0.680606	-1.062901E+9	1.960843E-12	NaN
765	1.000000	0.506918	7.37254e+06	-38839.1	1005.82	-29796	0.000000	0.000000	6.506931	-0.023739	NaN	0.000000	0.001654	0.001722	28.0817	0.066271	0.001955	33.8921	-75.5222	-168.455	0.001729	0.505603	-0.638573	-0.639888	-0.023739	33.8921	-0.638048	-2.776539E+8	8.549731E-11	NaN
765	1.000000	0.548931	7.37254e+06	-38839.1	1005.82	-29796	0.000000	0.000000	6.548946	0.023353	NaN	0.000000	0.001607	0.001773	28.0831	0.182779	0.001941	94.1899	-147.271	12.0846	0.025815	0.547601	-0.596560	-0.597891	0.023353	94.1899	-0.596746	-7.510002E+7	-3.109558E-10	NaN
765	1.000000	0.590944	7.37254e+06	-38839.1	1005.82	-29796	0.000000	0.000000	6.590957	-0.022328	NaN	0.000000	0.001606	0.001710	28.0833	0.063367	0.001902	33.3186	97.2877	-164.118	0.001640	0.589609	-0.554547	-0.555882	-0.022328	33.3186	-0.554045	-1.931800E+7	1.155833E-9	NaN
765	1.000000	0.632981	7.37254e+06	-38839.1	1005.82	-29796	0.000000	0.000000	6.632995	0.000533	NaN	0.000000	0.001664	0.001682	28.0829	0.090782	0.002149	42.2517	-118.131	13.0152	0.001015	0.631619	-0.512510	-0.513873	0.000533	42.2517	-0.512520	-5.1228e+06	-1.041324E-10	NaN
765	1.000000	0.674976	7.37254e+06	-38839.1	1005.82	-29796	0.000000	0.000000	6.674988	-0.037577	NaN	0.000000	0.001610	0.001711	28.0817	0.114618	0.001845	62.1334	-41.1474	-169.457	-0.065875	0.673662	-0.470515	-0.471830	-0.037577	62.1334	-0.470061	-1.30698e+06	2.875080E-8	NaN
765	1.000000	0.717024	7.37254e+06	-38839.1	1005.82	-29796	0.000000	0.000000	6.717038	0.009614	NaN	0.000000	0.001609	0.001758	28.0817	0.082521	0.001920	42.9886	-135.759	14.4395	-0.020847	0.715639	-0.428468	-0.429852	0.009614	42.9886	-0.428635	-340998	-2.819469E-8	NaN
765	1.000000	0.759017	7.37254e+06	-38839.1	1005.82	-29796	0.000000	0.000000	6.759029	-0.044544	NaN	0.000000	0.001617	0.001775	28.0819	0.059523	0.002047	29.0787	-91.4052	-166.275	-0.040257	0.757753	-0.386474	-0.387739	-0.044544	29.0787	-0.385325	-82460.4	5.401829E-7	NaN
765	1.000000	0.801040	7.37254e+06	-38839.1	1005.82	-29796	0.000000	0.000000	6.801056	0.055032	NaN	0.000000	0.001588	0.001694	28.0835	0.064701	0.001903	33.9912	150.35	11.0915	0.042733	0.799659	-0.344452	-0.345832	0.055032	33.9912	-0.345666	-22082.1	-2.492143E-6	NaN
765	1.000000	0.843094	7.37254e+06	-38839.1	1005.82	-29796	0.000000	0.000000	6.843109	0.026525	NaN	0.000000	0.001643	0.001744	28.0831	0.132038	0.002067	63.8785	131.85	-166.953	-0.002814	0.841740	-0.302397	-0.303751	0.026525	63.8785	-0.302709	-5163.25	-5.137274E-6	NaN
765	1.000000	0.885067	7.37254e+06	-38839.1	1005.82	-29796	0.000000	0.000000	6.885081	-0.005105	NaN	0.000000	0.001707	0.001748	28.0831	0.047330	0.001965	24.0819	-115.43	13.3151	0.039128	0.883692	-0.260424	-0.261799	-0.005105	24.0819	-0.260265	-1182.98	4.315424E-6	NaN
765	1.000000	0.927127	7.37254e+06	-38839.1	1005.82	-29796	0.000000	0.000000	6.927142	0.027117	NaN	0.000000	0.001668	0.001754	28.0821	0.110299	0.002050	53.8135	-126.374	-167.649	-0.006158	0.925805	-0.218364	-0.219686	0.027117	53.8135	-0.218742	-265.191	-0.000102	NaN
765	1.000000	0.969102	7.37254e+06	-38839.1	1005.82	-29796	0.000000	0.000000	6.969117	0.044348	NaN	0.000000	0.001613	0.001685	28.0822	0.096468	0.002022	47.7124	137.974	14.3969	0.054402	0.967769	-0.176390	-0.177723	0.044348	47.7124	-0.177087	-54.4203	-0.000815	NaN
765	1.000000	1.011142	7.37254e+06	-38839.1	1005.82	-29796	0.000000	0.000000	7.011154	-0.044818	NaN	0.000000	0.001703	0.001667	28.0821	0.019720	0.002056	9.589167	168.796	-167.003	-0.051658	1.009790	-0.134350	-0.135701	-0.044818	9.589167	-0.130844	-7.913802	0.005663	NaN
765	1.000000	1.053140	7.37254e+06	-38839.1	1005.82	-29796	0.000000	0.000000	7.053150	-0.096526	NaN	0.000000	0.001720	0.001733	28.0818	0.008222	0.001937	4.243526	13.3636	17.0783	0.038743	1.051776	-0.092351	-0.093715	-0.096526	4.243526	-0.075291	-0.469937	0.205403	NaN
765	1.000000	1.095155	7.37254e+06	-38839.1	1005.82	-29796	0.000000	0.000000	7.095169	0.007158	NaN	0.000000	0.001694	0.001693	28.0832	0.026123	0.002085	12.5303	-55.3818	-164.749	0.021417	1.093811	-0.050336	-0.051680	0.007158	12.5303	-0.050765	-0.096235	-0.074385	NaN
765	1.000000	1.137174	7.37254e+06	-38839.1	1005.82	-29796	0.000000	0.000000	7.137204	0.380874	NaN	0.000000	0.001648	0.001689	28.0831	0.432642	0.001951	221.702	28.8608	12.3331	0.387519	1.135744	-0.008317	-0.009747	0.380874	221.702	-0.009606	-0.006161	-61.8161	NaN
765	2.000000	1.171714	7.37254e+06	-38839.1	1005.82	-29796	0.000000	0.000000	7.172186	11.1777	NaN	0.000000	0.001676	0.001656	28.0833	7.441336	0.001889	3939.02	13.5215	-170.971	11.0621	1.171479	0.026222	0.025987	11.1777	3939.02	0.024094	0.029388	380.351	20993.2
765	2.000000	1.182191	7.37254e+06	-38839.1	1005.82	-29796	0.000000	0.000000	7.183092	21.6115	NaN	0.000000	0.001698	0.001703	28.0821	14.435	0.001849	7807.87	14.0198	1.781586	21.7688	1.181846	0.036699	0.036354	21.6115	7807.87	0.034623	0.050872	424.82	31627.5
765	2.000000	1.192631	7.37254e+06	-38839.1	1005.82	-29796	0.000000	0.000000	7.194285	39.9233	NaN	0.000000	0.001686	0.001672	28.0852	23.4884	0.001629	14416.6	9.394772	178.612	39.4152	1.192324	0.047140	0.046833	39.9233	14416.6	0.045063	0.077766	513.379	47232.6
765	2.000000	1.203083	7.37254e+06	-38839.1	1005.82	-29796	0.000000	0.000000	7.207398	104.687	NaN	0.000000	0.001685	0.001773	28.0824	34.6016	0.001725	20055.6	6.695085	-2.537704	101.064	1.202680	0.057592	0.057189	104.687	20055.6	0.053677	0.104116	1005.48	56787.3
765	2.000000	1.213628	7.37254e+06	-38839.1	1005.82	-29796	0.000000	0.000000	7.220817	174.616	NaN	0.000000	0.001731	0.001697	28.0836	44.9587	0.001883	23881.6	5.714508	176.998	173.335	1.213290	0.068136	0.067798	174.616	23881.6	0.062652	0.135491	1288.76	59276.4
765	2.000000	1.224041	7.37254e+06	-38839.1	1005.82	-29796	0.000000	0.000000	7.234736	259.942	NaN	0.000000	0.001675	0.001719	28.0832	53.3154	0.001700	31353.9	3.908469	-4.403496	256.644	1.223696	0.078549	0.078204	259.942	31353.9	0.072331	0.173700	1496.5	68732.8
765	2.000000	1.234534	7.37254e+06	-38839.1	1005.82	-29796	0.000000	0.000000	7.249903	373.683	NaN	0.000000	0.001627	0.001714	28.083	63.24	0.001867	33872.8	5.063008	173.724	370.828	1.234175	0.089042	0.088684	373.683	33872.8	0.080768	0.210629	1774.13	67431.9
765	2.000000	1.245021	7.37254e+06	-38839.1	1005.82	-29796	0.000000	0.000000	7.264332	469.598	NaN	0.000000	0.001665	0.001687	28.0819	71.4084	0.001750	40796	2.379772	-5.432118	465.246	1.244832	0.099530	0.099340	469.598	40796	0.090897	0.259331	1810.81	73192.1
765	2.000000	1.255545	7.37254e+06	-38839.1	1005.82	-29796	0.000000	0.000000	7.280579	608.879	NaN	0.000000	0.001624	0.001704	28.0815	80.9889	0.001809	44774.7	0.885787	176.116	608.705	1.255237	0.110054	0.109745	608.879	44774.7	0.099855	0.306327	1987.68	73911.7
765	2.000000	1.266110	7.37254e+06	-38839.1	1005.82	-29796	0.000000	0.000000	7.297292	758.5	NaN	0.000000	0.001657	0.001717	28.0819	90.3004	0.001744	51784.5	2.879761	-6.305938	760.094	1.265571	0.120619	0.120080	758.5	51784.5	0.109633	0.361792	2096.51	78658.1
765	2.000000	1.267991	7.37254e+06	-38839.1	1005.82	-29796	0.000000	0.000000	7.299696	771.23	NaN	0.000000	0.001646	0.001673	28.0822	92.6793	0.001833	50570.8	6.185568	-10.7028	763.631	1.267570	0.122500	0.122079	771.23	50570.8	0.111062	0.370259	2082.95	75931.2