File: remote_trans/data/nanoindenter/0828-1/data/Data_2025-08-06,11h17m57s/2025-07-22_16-23-58_1_707.txt
2025-07-22, 16:23:58, 1
Index	Phase	Displacement	Time	Pos X	Pos Y	Pos Z	Rot A	Rot B	Piezo Z	Force A	Force B	Gripper	Voltage A	Voltage B	Temperature	Amplitude force	Amplitude pos	Stiffness	Phase shift	Phase excitation	Force A raw	Displacement raw	HMax	HMax raw	Real Force	Real Stiffness	Contact Depth	Area	Hardness	Reduced Mod.
[#]	[#]	[um]	[s]	[um]	[um]	[um]	[m°]	[m°]	[um]	[uN]	[uN]	[V]	[V]	[V]	[°C]	[uN]	[um]	[N/m]	[°]	[°]	[uN]	[um]	[um]	[um]	[uN]	[N/m]	[um]	[um^2]	[MPa]	[MPa]
707	1.000000	0.002642	7.37197e+06	-41739.1	1005.82	-29785.1	0.000000	0.000000	6.002803	0.055296	NaN	0.000000	0.001645	0.001744	28.0838	0.077646	0.000956	81.242	98.991	-166.4	0.088550	0.001368	-1.104001	-1.105275	0.055296	81.242	-1.104512	-5.762699E+14	-9.595588E-17	NaN
707	1.000000	0.044576	7.37197e+06	-41739.1	1005.82	-29785.1	0.000000	0.000000	6.044739	0.101320	NaN	0.000000	0.001624	0.001704	28.084	0.019619	0.001962	9.998054	-23.2469	13.8398	-0.004561	0.043246	-1.062067	-1.063397	0.101320	9.998054	-1.069668	-1.962114E+14	-5.163793E-16	NaN
707	1.000000	0.086613	7.37197e+06	-41739.1	1005.82	-29785.1	0.000000	0.000000	6.086773	0.033314	NaN	0.000000	0.001645	0.001764	28.0827	0.074299	0.001955	38.0069	-138.85	-163.322	0.046117	0.085272	-1.020030	-1.021371	0.033314	38.0069	-1.020688	-4.307298E+13	-7.734278E-16	NaN
707	1.000000	0.128631	7.37197e+06	-41739.1	1005.82	-29785.2	0.000000	0.000000	6.128793	0.079814	NaN	0.000000	0.001622	0.001738	28.0825	0.054832	0.002033	26.9685	131.729	14.1158	0.040103	0.127254	-0.978012	-0.979389	0.079814	26.9685	-0.980232	-1.228947E+13	-6.494539E-15	NaN
707	1.000000	0.170656	7.37197e+06	-41739.1	1005.82	-29785.2	0.000000	0.000000	6.170816	0.034582	NaN	0.000000	0.001598	0.001728	28.0824	0.022009	0.002006	10.9739	63.0673	-166.88	0.048924	0.169274	-0.935987	-0.937369	0.034582	10.9739	-0.938350	-3.348697E+12	-1.032692E-14	NaN
707	1.000000	0.212642	7.37197e+06	-41739.1	1005.82	-29785.2	0.000000	0.000000	6.212802	0.029463	NaN	0.000000	0.001597	0.001791	28.0838	0.049515	0.001926	25.709	42.4289	11.8096	0.052209	0.211321	-0.894001	-0.895322	0.029463	25.709	-0.894860	-8.661799E+11	-3.401462E-14	NaN
707	1.000000	0.254668	7.37197e+06	-41739.1	1005.82	-29785.2	0.000000	0.000000	6.254830	0.082433	NaN	0.000000	0.001736	0.001791	28.0839	0.071690	0.002035	35.2228	-145.047	-165.625	0.043877	0.253376	-0.851975	-0.853267	0.082433	35.2228	-0.853731	-2.405753E+11	-3.426496E-13	NaN
707	1.000000	0.296700	7.37197e+06	-41739.1	1005.82	-29785.2	0.000000	0.000000	6.296858	-0.008721	NaN	0.000000	0.001709	0.001782	28.0837	0.023756	0.002043	11.6276	-0.248751	15.6356	0.025213	0.295297	-0.809943	-0.811346	-0.008721	11.6276	-0.809380	-6.027882E+10	1.446837E-13	NaN
707	1.000000	0.338727	7.37197e+06	-41739.1	1005.82	-29785.2	0.000000	0.000000	6.338884	-0.036063	NaN	0.000000	0.001654	0.001728	28.0836	0.060432	0.001935	31.224	125.123	-166.049	-0.093304	0.337415	-0.767916	-0.769228	-0.036063	31.224	-0.767050	-1.603964E+10	2.248389E-12	NaN
707	1.000000	0.380726	7.37197e+06	-41739.1	1005.82	-29785.2	0.000000	0.000000	6.380887	0.049585	NaN	0.000000	0.001683	0.001821	28.0827	0.150338	0.002021	74.3927	-95.7796	9.267790	-0.000794	0.379367	-0.725917	-0.727276	0.049585	74.3927	-0.726416	-4.487061E+9	-1.105074E-11	NaN
707	1.000000	0.422741	7.37197e+06	-41739.1	1005.82	-29785.2	0.000000	0.000000	6.422899	-0.005901	NaN	0.000000	0.001636	0.001792	28.0829	0.050989	0.002096	24.3234	169.38	-166.587	0.031057	0.421419	-0.683902	-0.685224	-0.005901	24.3234	-0.683720	-1.172394E+9	5.033404E-12	NaN
707	1.000000	0.464772	7.37197e+06	-41739.1	1005.82	-29785.2	0.000000	0.000000	6.464929	-0.036987	NaN	0.000000	0.001626	0.001813	28.0829	0.018063	0.002024	8.924684	40.4492	10.894	0.024567	0.463425	-0.641871	-0.643218	-0.036987	8.924684	-0.638763	-2.839959E+8	1.302379E-10	NaN
707	1.000000	0.506767	7.37197e+06	-41739.1	1005.82	-29785.2	0.000000	0.000000	6.506924	-0.018133	NaN	0.000000	0.001646	0.001777	28.0841	0.095409	0.002072	46.0416	-164.359	-166.164	-0.010446	0.505504	-0.599876	-0.601139	-0.018133	46.0416	-0.599581	-8.216566E+7	2.206826E-10	NaN
707	1.000000	0.548800	7.37197e+06	-41739.1	1005.82	-29785.2	0.000000	0.000000	6.548959	0.011824	NaN	0.000000	0.001681	0.001770	28.0841	0.048520	0.001834	26.4526	106.703	11.2699	0.018170	0.547463	-0.557843	-0.559180	0.011824	26.4526	-0.558178	-2.203784E+7	-5.365339E-10	NaN
707	1.000000	0.590789	7.37197e+06	-41739.1	1005.82	-29785.2	0.000000	0.000000	6.590950	0.050338	NaN	0.000000	0.001639	0.001758	28.0836	0.035520	0.002064	17.2123	83.4485	-165.938	0.126452	0.589523	-0.515854	-0.517120	0.050338	17.2123	-0.518047	-6.11552e+06	-8.231260E-9	NaN
707	1.000000	0.632817	7.37197e+06	-41739.1	1005.82	-29785.2	0.000000	0.000000	6.632976	0.001636	NaN	0.000000	0.001635	0.001780	28.0827	0.044415	0.002134	20.8169	-123.809	11.6461	0.033533	0.631488	-0.473826	-0.475155	0.001636	20.8169	-0.473885	-1.47868e+06	-1.106494E-9	NaN
707	1.000000	0.674834	7.37197e+06	-41739.1	1005.82	-29785.2	0.000000	0.000000	6.674993	0.009525	NaN	0.000000	0.001610	0.001756	28.0827	0.036433	0.001955	18.6381	28.4605	-170.253	0.026475	0.673598	-0.431809	-0.433045	0.009525	18.6381	-0.432192	-382886	-2.487654E-8	NaN
707	1.000000	0.716901	7.37197e+06	-41739.1	1005.82	-29785.2	0.000000	0.000000	6.717060	-0.009270	NaN	0.000000	0.001625	0.001764	28.0831	0.093604	0.001996	46.8897	130.108	12.1651	0.072519	0.715521	-0.389742	-0.391122	-0.009270	46.8897	-0.389593	-94918	9.766417E-8	NaN
707	1.000000	0.758915	7.37197e+06	-41739.1	1005.82	-29785.2	0.000000	0.000000	6.759073	-0.020321	NaN	0.000000	0.001593	0.001781	28.0844	0.061372	0.001849	33.1946	101.899	-163.557	0.025925	0.757585	-0.347728	-0.349058	-0.020321	33.1946	-0.347269	-23299.2	8.721973E-7	NaN
707	1.000000	0.800890	7.37197e+06	-41739.1	1005.82	-29785.2	0.000000	0.000000	6.801049	0.015849	NaN	0.000000	0.001642	0.001770	28.0839	0.036020	0.001973	18.2592	-106.939	11.7833	-0.018989	0.799560	-0.305753	-0.307083	0.015849	18.2592	-0.306404	-5858.42	-2.705390E-6	NaN
707	1.000000	0.842939	7.37197e+06	-41739.1	1005.82	-29785.2	0.000000	0.000000	6.843101	0.076505	NaN	0.000000	0.001656	0.001715	28.0839	0.037468	0.002062	18.1711	171.265	-164.614	0.051831	0.841613	-0.263704	-0.265030	0.076505	18.1711	-0.266862	-1492.05	-5.127493E-5	NaN
707	1.000000	0.884920	7.37197e+06	-41739.1	1005.82	-29785.2	0.000000	0.000000	6.885078	0.004243	NaN	0.000000	0.001620	0.001770	28.084	0.042076	0.001939	21.7019	-79.9681	14.2238	0.047363	0.883600	-0.221723	-0.223043	0.004243	21.7019	-0.221870	-297.527	-1.425938E-5	NaN
707	1.000000	0.926965	7.37197e+06	-41739.1	1005.82	-29785.2	0.000000	0.000000	6.927124	0.014303	NaN	0.000000	0.001661	0.001792	28.0823	0.134925	0.001871	72.0944	-27.2914	-162.922	0.028655	0.925677	-0.179678	-0.180966	0.014303	72.0944	-0.179827	-60.6065	-0.000236	NaN
707	1.000000	0.968963	7.37197e+06	-41739.1	1005.82	-29785.2	0.000000	0.000000	6.969125	0.075765	NaN	0.000000	0.001636	0.001765	28.0829	0.071471	0.001961	36.4394	-146.098	13.8052	0.051283	0.967630	-0.137680	-0.139013	0.075765	36.4394	-0.139239	-11.4463	-0.006619	NaN
707	1.000000	1.010978	7.37197e+06	-41739.1	1005.82	-29785.2	0.000000	0.000000	7.011139	0.064726	NaN	0.000000	0.001685	0.001745	28.0831	0.058322	0.002169	26.8854	115.494	-165.121	0.021348	1.009641	-0.095665	-0.097002	0.064726	26.8854	-0.097470	-1.604408	-0.040342	NaN
707	1.000000	1.053019	7.37197e+06	-41739.1	1005.82	-29785.2	0.000000	0.000000	7.053180	0.047428	NaN	0.000000	0.001691	0.001755	28.0841	0.162114	0.001988	81.5421	5.197690	15.4117	0.023690	1.051621	-0.053624	-0.055022	0.047428	81.5421	-0.054060	-0.120780	-0.392684	NaN
707	1.000000	1.095004	7.37197e+06	-41739.1	1005.82	-29785.2	0.000000	0.000000	7.095163	0.028647	NaN	0.000000	0.001633	0.001746	28.0842	0.015844	0.001970	8.041369	73.82	-167.604	-0.007725	1.093750	-0.011640	-0.012893	0.028647	8.041369	-0.014311	-0.008866	-3.231057	NaN
707	2.000000	1.118145	7.37197e+06	-41739.1	1005.82	-29785.2	0.000000	0.000000	7.119075	18.7483	NaN	0.000000	0.001605	0.001807	28.0842	16.3871	0.001703	9621.42	2.875566	6.755267	17.6744	1.117803	0.011502	0.011160	18.7483	9621.42	0.010041	0.009227	2031.87	91512.5
707	2.000000	1.128600	7.37197e+06	-41739.1	1005.82	-29785.2	0.000000	0.000000	7.130802	49.7051	NaN	0.000000	0.001645	0.001781	28.0829	29.4472	0.001898	15515.2	7.846095	178.658	50.4329	1.128315	0.021957	0.021672	49.7051	15515.2	0.019555	0.021847	2275.12	95903.2
707	2.000000	1.139030	7.37197e+06	-41739.1	1005.82	-29785.2	0.000000	0.000000	7.143256	98.9824	NaN	0.000000	0.001599	0.001786	28.0825	40.2886	0.001733	23248.2	4.799998	-2.367179	95.3163	1.138693	0.032387	0.032050	98.9824	23248.2	0.029194	0.039089	2532.24	107432
707	2.000000	1.149478	7.37197e+06	-41739.1	1005.82	-29785.2	0.000000	0.000000	7.156697	171.784	NaN	0.000000	0.001644	0.001772	28.0829	49.7129	0.001636	30384.3	0.748103	178.56	168.424	1.149186	0.042835	0.042543	171.784	30384.3	0.038595	0.060447	2841.89	112911
707	2.000000	1.159895	7.37197e+06	-41739.1	1005.82	-29785.2	0.000000	0.000000	7.170408	251.922	NaN	0.000000	0.001627	0.001751	28.0845	62.0869	0.001742	35636.1	2.305822	-4.395607	244.285	1.159684	0.053252	0.053041	251.922	35636.1	0.047951	0.086184	2923.08	110905
707	2.000000	1.170518	7.37197e+06	-41739.1	1005.82	-29785.2	0.000000	0.000000	7.184375	333.332	NaN	0.000000	0.001709	0.001790	28.0847	74.4082	0.001882	39537.7	10.1137	167.601	329.997	1.170100	0.063874	0.063457	333.332	39537.7	0.057551	0.117175	2844.75	105528
707	2.000000	1.181012	7.37198e+06	-41739.1	1005.82	-29785.2	0.000000	0.000000	7.197949	408.254	NaN	0.000000	0.001600	0.001766	28.0844	83.9707	0.001802	46596.8	8.357494	-12.4123	407.652	1.180686	0.074368	0.074043	408.254	46596.8	0.067797	0.155244	2629.76	108049
707	2.000000	1.191641	7.37198e+06	-41739.1	1005.82	-29785.2	0.000000	0.000000	7.211833	487.432	NaN	0.000000	0.001635	0.001757	28.0844	92.7839	0.001877	49441.2	5.815067	169.846	493.324	1.191305	0.084998	0.084662	487.432	49441.2	0.077604	0.196389	2481.97	101930
707	2.000000	1.201855	7.37198e+06	-41739.1	1005.82	-29785.2	0.000000	0.000000	7.225389	568.781	NaN	0.000000	0.001632	0.001766	28.0829	101.876	0.001824	55845.7	9.107193	-14.576	559.587	1.201488	0.095212	0.094845	568.781	55845.7	0.087573	0.242828	2342.32	103541
707	2.000000	1.210436	7.37198e+06	-41739.1	1005.82	-29785.2	0.000000	0.000000	7.237316	650.19	NaN	0.000000	0.001675	0.001751	28.0831	109.015	0.001863	58517	4.465162	170.557	646.467	1.210036	0.103793	0.103393	650.19	58517	0.095460	0.282812	2299.02	100533