File: remote_trans/data/nanoindenter/0828-1/data/Data_2025-08-06,11h17m57s/2025-07-22_16-23-58_1_468.txt
2025-07-22, 16:23:58, 1
Index	Phase	Displacement	Time	Pos X	Pos Y	Pos Z	Rot A	Rot B	Piezo Z	Force A	Force B	Gripper	Voltage A	Voltage B	Temperature	Amplitude force	Amplitude pos	Stiffness	Phase shift	Phase excitation	Force A raw	Displacement raw	HMax	HMax raw	Real Force	Real Stiffness	Contact Depth	Area	Hardness	Reduced Mod.
[#]	[#]	[um]	[s]	[um]	[um]	[um]	[m°]	[m°]	[um]	[uN]	[uN]	[V]	[V]	[V]	[°C]	[uN]	[um]	[N/m]	[°]	[°]	[uN]	[um]	[um]	[um]	[uN]	[N/m]	[um]	[um^2]	[MPa]	[MPa]
468	1.000000	0.002758	7.36963e+06	-53689.1	1005.82	-29745.7	0.000000	0.000000	6.002819	0.065976	NaN	0.000000	0.001655	0.001721	28.0795	0.022287	0.001020	21.8483	170.784	-166.744	0.127395	0.001524	-1.048976	-1.050210	0.065976	21.8483	-1.051241	-1.109422E+14	-5.946869E-16	NaN
468	1.000000	0.042701	7.36963e+06	-53689.1	1005.82	-29745.7	0.000000	0.000000	6.042761	0.039899	NaN	0.000000	0.001643	0.001689	28.0794	0.083803	0.001937	43.2565	138.397	-165.948	-0.007869	0.041412	-1.009033	-1.010323	0.039899	43.2565	-1.009725	-3.066779E+13	-1.300998E-15	NaN
468	1.000000	0.082704	7.36963e+06	-53689.1	1005.82	-29745.7	0.000000	0.000000	6.082764	0.032690	NaN	0.000000	0.001630	0.001739	28.0791	0.088082	0.002102	41.9075	127.801	-165.726	0.009756	0.081404	-0.969030	-0.970330	0.032690	41.9075	-0.969615	-8.840533E+12	-3.697748E-15	NaN
468	1.000000	0.122714	7.36963e+06	-53689.1	1005.82	-29745.7	0.000000	0.000000	6.122773	0.030186	NaN	0.000000	0.001618	0.001699	28.0805	0.008798	0.001997	4.406144	-73.4473	-165.235	0.056796	0.121406	-0.929020	-0.930329	0.030186	4.406144	-0.934159	-2.939807E+12	-1.026819E-14	NaN
468	1.000000	0.162721	7.36963e+06	-53689.1	1005.82	-29745.7	0.000000	0.000000	6.162781	0.034025	NaN	0.000000	0.001640	0.001714	28.0805	0.129953	0.001960	66.2961	2.636589	-165.179	0.100214	0.161429	-0.889013	-0.890305	0.034025	66.2961	-0.889398	-7.307703E+11	-4.656107E-14	NaN
468	1.000000	0.202749	7.36963e+06	-53689.1	1005.82	-29745.7	0.000000	0.000000	6.202811	0.101790	NaN	0.000000	0.001592	0.001719	28.0806	0.042638	0.001941	21.9712	45.8221	-164.529	0.057968	0.201458	-0.848986	-0.850276	0.101790	21.9712	-0.852460	-2.312346E+11	-4.402025E-13	NaN
468	1.000000	0.242746	7.36964e+06	-53689.1	1005.82	-29745.7	0.000000	0.000000	6.242808	0.096295	NaN	0.000000	0.001509	0.001727	28.08	0.026866	0.001850	14.526	-30.2785	-166.899	0.032158	0.241464	-0.808988	-0.810271	0.096295	14.526	-0.813960	-6.954965E+10	-1.384548E-12	NaN
468	1.000000	0.282748	7.36964e+06	-53689.1	1005.82	-29745.7	0.000000	0.000000	6.282809	0.063134	NaN	0.000000	0.001534	0.001738	28.0794	0.087454	0.002109	41.4659	-34.7933	-168.751	-0.037755	0.281487	-0.768986	-0.770247	0.063134	41.4659	-0.770128	-1.766225E+10	-3.574497E-12	NaN
468	1.000000	0.322832	7.36964e+06	-53689.1	1005.82	-29745.7	0.000000	0.000000	6.322893	0.073899	NaN	0.000000	0.001539	0.001750	28.0794	0.066318	0.001929	34.3757	73.6741	-162.404	-0.004573	0.321493	-0.728902	-0.730242	0.073899	34.3757	-0.730515	-5.102974E+9	-1.448151E-11	NaN
468	1.000000	0.362811	7.36964e+06	-53689.1	1005.82	-29745.7	0.000000	0.000000	6.362870	0.020363	NaN	0.000000	0.001535	0.001722	28.0792	0.046246	0.002042	22.6493	-37.0119	-165.029	-0.023623	0.361498	-0.688923	-0.690236	0.020363	22.6493	-0.689598	-1.410654E+9	-1.443535E-11	NaN
468	1.000000	0.402833	7.36964e+06	-53689.1	1005.82	-29745.7	0.000000	0.000000	6.402892	0.005934	NaN	0.000000	0.001561	0.001679	28.0805	0.128221	0.001883	68.0773	4.183006	-164.389	-0.025543	0.401566	-0.648901	-0.650168	0.005934	68.0773	-0.648966	-3.919834E+8	-1.513783E-11	NaN
468	1.000000	0.442841	7.36964e+06	-53689.1	1005.82	-29745.7	0.000000	0.000000	6.442903	0.073388	NaN	0.000000	0.001597	0.001664	28.0808	0.123126	0.001904	64.6637	177.403	-166.723	0.058890	0.441547	-0.608893	-0.610188	0.073388	64.6637	-0.609744	-1.133950E+8	-6.471873E-10	NaN
468	1.000000	0.482861	7.36964e+06	-53689.1	1005.82	-29745.7	0.000000	0.000000	6.482920	0.034486	NaN	0.000000	0.001598	0.001753	28.0806	0.070178	0.002000	35.0937	23.8226	-163.161	0.003358	0.481560	-0.568873	-0.570174	0.034486	35.0937	-0.569611	-3.171394E+7	-1.087422E-9	NaN
468	1.000000	0.522900	7.36964e+06	-53689.1	1005.82	-29745.7	0.000000	0.000000	6.522962	0.081689	NaN	0.000000	0.001634	0.001691	28.079	0.048016	0.001988	24.1505	-141.839	-163.747	0.107712	0.521607	-0.528834	-0.530127	0.081689	24.1505	-0.531371	-9.36724e+06	-8.720706E-9	NaN
468	1.000000	0.562911	7.36964e+06	-53689.1	1005.82	-29745.7	0.000000	0.000000	6.562971	0.042096	NaN	0.000000	0.001600	0.001759	28.0789	0.102401	0.001923	53.2587	-0.415235	-167.662	0.102956	0.561605	-0.488823	-0.490129	0.042096	53.2587	-0.489416	-2.43913e+06	-1.725870E-8	NaN
468	1.000000	0.602960	7.36964e+06	-53689.1	1005.82	-29745.7	0.000000	0.000000	6.603017	-0.031435	NaN	0.000000	0.001609	0.001703	28.0791	0.094666	0.002024	46.7808	-47.4651	-165.799	-0.059378	0.601581	-0.448774	-0.450154	-0.031435	46.7808	-0.448270	-645627	4.868842E-8	NaN
468	1.000000	0.642951	7.36964e+06	-53689.1	1005.82	-29745.7	0.000000	0.000000	6.643009	0.007931	NaN	0.000000	0.001646	0.001705	28.0791	0.119318	0.001874	63.6652	-83.6485	-163.139	-0.013981	0.641614	-0.408783	-0.410121	0.007931	63.6652	-0.408877	-178824	-4.434883E-8	NaN
468	1.000000	0.682946	7.36964e+06	-53689.1	1005.82	-29745.7	0.000000	0.000000	6.683005	0.010632	NaN	0.000000	0.001567	0.001689	28.0802	0.045320	0.002062	21.9841	158.471	-161.827	-0.012678	0.681608	-0.368788	-0.370127	0.010632	21.9841	-0.369151	-48294.2	-2.201523E-7	NaN
468	1.000000	0.722955	7.36964e+06	-53689.1	1005.82	-29745.7	0.000000	0.000000	6.723014	0.026319	NaN	0.000000	0.001549	0.001729	28.0804	0.046541	0.002071	22.4719	50.0232	-165.009	-0.034583	0.721701	-0.328779	-0.330033	0.026319	22.4719	-0.329657	-12895.4	-2.040934E-6	NaN
468	1.000000	0.762965	7.36964e+06	-53689.1	1005.82	-29745.7	0.000000	0.000000	6.763024	0.023218	NaN	0.000000	0.001517	0.001722	28.0805	0.030212	0.002086	14.4845	126.587	-166.235	0.010923	0.761688	-0.288769	-0.290046	0.023218	14.4845	-0.289972	-3333.31	-6.965553E-6	NaN
468	1.000000	0.802995	7.36964e+06	-53689.1	1005.82	-29745.7	0.000000	0.000000	6.803053	-0.004502	NaN	0.000000	0.001536	0.001723	28.0792	0.048512	0.002124	22.8404	76.1452	-166.396	-0.067002	0.801721	-0.248739	-0.250014	-0.004502	22.8404	-0.248591	-781.918	5.758114E-6	NaN
468	1.000000	0.843037	7.36964e+06	-53689.1	1005.82	-29745.7	0.000000	0.000000	6.843097	0.043430	NaN	0.000000	0.001552	0.001726	28.0788	0.028925	0.002049	14.115	141.822	-163.343	0.019346	0.841697	-0.208697	-0.210037	0.043430	14.115	-0.211005	-199.106	-0.000218	NaN
468	1.000000	0.883031	7.36964e+06	-53689.1	1005.82	-29745.7	0.000000	0.000000	6.883091	0.055228	NaN	0.000000	0.001573	0.001713	28.079	0.054266	0.002133	25.4379	78.8516	-164.053	0.063682	0.881756	-0.168703	-0.169978	0.055228	25.4379	-0.170332	-41.6266	-0.001327	NaN
468	1.000000	0.923060	7.36964e+06	-53689.1	1005.82	-29745.7	0.000000	0.000000	6.923122	0.075555	NaN	0.000000	0.001571	0.001719	28.0791	0.114287	0.002079	54.9587	-78.803	-165.146	0.136344	0.921768	-0.128674	-0.129966	0.075555	54.9587	-0.129705	-7.521089	-0.010046	NaN
468	1.000000	0.963081	7.36964e+06	-53689.1	1005.82	-29745.7	0.000000	0.000000	6.963140	0.034007	NaN	0.000000	0.001551	0.001752	28.0804	0.102248	0.002026	50.4563	-65.8702	-164.116	0.047773	0.961759	-0.088654	-0.089976	0.034007	50.4563	-0.089159	-1.032852	-0.032925	NaN
468	1.000000	1.003092	7.36964e+06	-53689.1	1005.82	-29745.7	0.000000	0.000000	7.003153	0.050131	NaN	0.000000	0.001562	0.001714	28.0805	0.049672	0.002085	23.8225	49.4945	-166.108	0.094138	1.001744	-0.048642	-0.049991	0.050131	23.8225	-0.050220	-0.092660	-0.541018	NaN
468	1.000000	1.043084	7.36964e+06	-53689.1	1005.82	-29745.7	0.000000	0.000000	7.043146	0.092295	NaN	0.000000	0.001574	0.001714	28.0804	0.051892	0.001987	26.1127	-60.6583	-167.48	0.071354	1.041800	-0.008650	-0.009934	0.092295	26.1127	-0.011301	-0.007130	-12.9453	NaN
468	2.000000	1.065625	7.36964e+06	-53689.1	1005.82	-29745.7	0.000000	0.000000	7.066251	13.8099	NaN	0.000000	0.001660	0.001723	28.0797	14.6355	0.001765	8292.93	9.066084	-176.588	13.3318	1.065374	0.013891	0.013640	13.8099	8292.93	0.012642	0.012268	1125.69	68406.1
468	2.000000	1.075642	7.36964e+06	-53689.1	1005.82	-29745.7	0.000000	0.000000	7.077203	36.5181	NaN	0.000000	0.001613	0.001690	28.0793	23.5219	0.001767	13314.9	1.725026	-173.121	35.9711	1.075274	0.023908	0.023540	36.5181	13314.9	0.021851	0.025535	1430.13	76128
468	2.000000	1.085610	7.36964e+06	-53689.1	1005.82	-29745.7	0.000000	0.000000	7.088353	65.2828	NaN	0.000000	0.001570	0.001733	28.0794	34.6307	0.001872	18499.6	6.194707	178.991	63.9544	1.085276	0.033875	0.033541	65.2828	18499.6	0.031229	0.043329	1506.67	81198.1
468	2.000000	1.095640	7.36964e+06	-53689.1	1005.82	-29745.7	0.000000	0.000000	7.099729	98.0136	NaN	0.000000	0.001544	0.001737	28.0804	43.5945	0.001887	23102.8	4.958648	178.857	100.012	1.095306	0.043905	0.043572	98.0136	23102.8	0.040723	0.065911	1487.05	82216.2
468	2.000000	1.105583	7.36964e+06	-53689.1	1005.82	-29745.7	0.000000	0.000000	7.111256	136.505	NaN	0.000000	0.001575	0.001737	28.0805	53.4921	0.001848	28938.7	2.419040	178.468	135.499	1.105404	0.053849	0.053669	136.505	28938.7	0.050311	0.093377	1461.86	86522.9
468	2.000000	1.115503	7.36964e+06	-53689.1	1005.82	-29745.7	0.000000	0.000000	7.123556	194.368	NaN	0.000000	0.001546	0.001737	28.0804	63.7663	0.001761	36208.2	4.570337	174.487	191.397	1.115326	0.063769	0.063591	194.368	36208.2	0.059743	0.124888	1556.34	93609.6
468	2.000000	1.125473	7.36964e+06	-53689.1	1005.82	-29745.7	0.000000	0.000000	7.135997	254.443	NaN	0.000000	0.001541	0.001726	28.0804	71.7776	0.001832	39175.3	3.272060	175.426	250.937	1.125185	0.073739	0.073451	254.443	39175.3	0.068868	0.159512	1595.14	89616.8
468	2.000000	1.135455	7.36964e+06	-53689.1	1005.82	-29745.7	0.000000	0.000000	7.148625	318.775	NaN	0.000000	0.001535	0.001706	28.0792	81.0536	0.001768	45851.5	4.357759	173.505	314.921	1.135233	0.083720	0.083498	318.775	45851.5	0.078506	0.200401	1590.69	93578.8
468	2.000000	1.145500	7.36964e+06	-53689.1	1005.82	-29745.7	0.000000	0.000000	7.161183	379.866	NaN	0.000000	0.001546	0.001737	28.0793	90.0841	0.001839	48986	3.835511	173.324	378.009	1.145391	0.093766	0.093657	379.866	48986	0.087950	0.244676	1552.53	90479.4
468	2.000000	1.155637	7.36964e+06	-53689.1	1005.82	-29745.7	0.000000	0.000000	7.174517	457.606	NaN	0.000000	0.001597	0.001698	28.0791	99.8121	0.001893	52740.1	3.697441	173.313	465.69	1.155334	0.103902	0.103600	457.606	52740.1	0.097395	0.293058	1561.49	89009.7
468	2.000000	1.158473	7.36964e+06	-53689.1	1005.82	-29745.7	0.000000	0.000000	7.178620	488.421	NaN	0.000000	0.001568	0.001722	28.0795	102.768	0.001779	57756.8	4.586116	171.79	486.463	1.158199	0.106738	0.106464	488.421	57756.8	0.100396	0.309283	1579.21	94885.3