File: remote_trans/data/nanoindenter/0828-1/data/Data_2025-08-06,11h17m57s/2025-07-22_16-23-58_1_808.txt
2025-07-22, 16:23:58, 1
Index	Phase	Displacement	Time	Pos X	Pos Y	Pos Z	Rot A	Rot B	Piezo Z	Force A	Force B	Gripper	Voltage A	Voltage B	Temperature	Amplitude force	Amplitude pos	Stiffness	Phase shift	Phase excitation	Force A raw	Displacement raw	HMax	HMax raw	Real Force	Real Stiffness	Contact Depth	Area	Hardness	Reduced Mod.
[#]	[#]	[um]	[s]	[um]	[um]	[um]	[m°]	[m°]	[um]	[uN]	[uN]	[V]	[V]	[V]	[°C]	[uN]	[um]	[N/m]	[°]	[°]	[uN]	[um]	[um]	[um]	[uN]	[N/m]	[um]	[um^2]	[MPa]	[MPa]
808	1.000000	0.002405	7.37296e+06	-40539.1	1055.82	-29789.7	0.000000	0.000000	6.002783	-0.100405	NaN	0.000000	0.001629	0.001637	28.0833	0.045052	0.000952	47.336	-141.461	-161.23	-0.030799	0.001206	-0.989575	-0.990774	-0.100405	47.336	-0.987984	-1.563002E+13	6.423849E-15	NaN
808	1.000000	0.040342	7.37296e+06	-40539.1	1055.82	-29789.7	0.000000	0.000000	6.040721	-0.044712	NaN	0.000000	0.001634	0.001637	28.0834	0.146782	0.002037	72.0705	70.2517	15.4465	-0.035451	0.038963	-0.951639	-0.953017	-0.044712	72.0705	-0.951173	-4.987147E+12	8.965376E-15	NaN
808	1.000000	0.078374	7.37296e+06	-40539.1	1055.82	-29789.7	0.000000	0.000000	6.078753	-0.056147	NaN	0.000000	0.001586	0.001658	28.0834	0.095681	0.002065	46.3458	-47.0732	-166.437	0.058332	0.077003	-0.913606	-0.914977	-0.056147	46.3458	-0.912698	-1.508681E+12	3.721623E-14	NaN
808	1.000000	0.116415	7.37296e+06	-40539.1	1055.82	-29789.7	0.000000	0.000000	6.116795	-0.048481	NaN	0.000000	0.001625	0.001624	28.0818	0.018609	0.001942	9.582871	-51.3935	11.7548	-0.023852	0.115000	-0.875565	-0.876980	-0.048481	9.582871	-0.871771	-4.220866E+11	1.148610E-13	NaN
808	1.000000	0.154396	7.37296e+06	-40539.1	1055.82	-29789.7	0.000000	0.000000	6.154777	-0.024194	NaN	0.000000	0.001644	0.001679	28.0818	0.100333	0.002046	49.0387	67.8709	-166.216	-0.016444	0.153081	-0.837584	-0.838899	-0.024194	49.0387	-0.837214	-1.437296E+11	1.683287E-13	NaN
808	1.000000	0.192391	7.37296e+06	-40539.1	1055.82	-29789.7	0.000000	0.000000	6.192769	-0.085542	NaN	0.000000	0.001605	0.001665	28.0824	0.033577	0.002020	16.6198	99.6681	12.0145	-0.053207	0.191055	-0.799589	-0.800925	-0.085542	16.6198	-0.795729	-3.934366E+10	2.174220E-12	NaN
808	1.000000	0.230437	7.37296e+06	-40539.1	1055.82	-29789.7	0.000000	0.000000	6.230818	-0.019498	NaN	0.000000	0.001612	0.001723	28.0824	0.092945	0.002066	44.9863	-91.1583	-165.067	0.079824	0.229118	-0.761543	-0.762862	-0.019498	44.9863	-0.761218	-1.336214E+10	1.459189E-12	NaN
808	1.000000	0.268471	7.37296e+06	-40539.1	1055.82	-29789.7	0.000000	0.000000	6.268852	0.000630	NaN	0.000000	0.001632	0.001730	28.0837	0.072718	0.001961	37.0813	115.49	13.6184	-0.029020	0.267113	-0.723510	-0.724868	0.000630	37.0813	-0.723522	-4.097368E+9	-1.538537E-13	NaN
808	1.000000	0.306475	7.37296e+06	-40539.1	1055.82	-29789.7	0.000000	0.000000	6.306854	-0.054918	NaN	0.000000	0.001638	0.001701	28.0837	0.046627	0.002072	22.4995	124.898	-162.658	-0.029277	0.305162	-0.685505	-0.686818	-0.054918	22.4995	-0.683675	-1.170730E+9	4.690955E-11	NaN
808	1.000000	0.344485	7.37296e+06	-40539.1	1055.82	-29789.7	0.000000	0.000000	6.344868	0.029665	NaN	0.000000	0.001590	0.001699	28.0839	0.151969	0.001932	78.6487	-119.382	15.1784	0.104324	0.343109	-0.647495	-0.648871	0.029665	78.6487	-0.647778	-3.775457E+8	-7.857284E-11	NaN
808	1.000000	0.382483	7.37296e+06	-40539.1	1055.82	-29789.7	0.000000	0.000000	6.382864	-0.023590	NaN	0.000000	0.001612	0.001721	28.0825	0.064628	0.001945	33.2329	-166.764	-165.689	0.001674	0.381167	-0.609497	-0.610814	-0.023590	33.2329	-0.608965	-1.106292E+8	2.132362E-10	NaN
808	1.000000	0.420504	7.37296e+06	-40539.1	1055.82	-29789.7	0.000000	0.000000	6.420882	-0.081552	NaN	0.000000	0.001661	0.001748	28.0826	0.014929	0.002059	7.249935	42.9688	12.1156	-0.050313	0.419168	-0.571476	-0.572812	-0.081552	7.249935	-0.563040	-2.572893E+7	3.169656E-9	NaN
808	1.000000	0.458547	7.37296e+06	-40539.1	1055.82	-29789.7	0.000000	0.000000	6.458927	-0.042115	NaN	0.000000	0.001594	0.001763	28.0825	0.117018	0.001969	59.4403	-106.293	-166.801	-0.024468	0.457229	-0.533433	-0.534751	-0.042115	59.4403	-0.532902	-9.83704e+06	4.281274E-9	NaN
808	1.000000	0.496565	7.37296e+06	-40539.1	1055.82	-29789.7	0.000000	0.000000	6.496947	0.017084	NaN	0.000000	0.001614	0.001713	28.0827	0.118231	0.002079	56.8638	162.985	14.3395	0.069539	0.495228	-0.495415	-0.496752	0.017084	56.8638	-0.495641	-2.97974e+06	-5.733396E-9	NaN
808	1.000000	0.534579	7.37296e+06	-40539.1	1055.82	-29789.7	0.000000	0.000000	6.534958	-0.045675	NaN	0.000000	0.001589	0.001726	28.0838	0.112878	0.001861	60.6615	-83.4439	-167.509	-0.039667	0.533276	-0.457402	-0.458704	-0.045675	60.6615	-0.456837	-852225	5.359442E-8	NaN
808	1.000000	0.572591	7.37296e+06	-40539.1	1055.82	-29789.7	0.000000	0.000000	6.572972	-0.015232	NaN	0.000000	0.001637	0.001742	28.0836	0.071810	0.001928	37.2401	-130.646	8.969612	-0.007926	0.571188	-0.419389	-0.420792	-0.015232	37.2401	-0.419082	-249686	6.100370E-8	NaN
808	1.000000	0.610611	7.37296e+06	-40539.1	1055.82	-29789.7	0.000000	0.000000	6.610992	-0.008222	NaN	0.000000	0.001604	0.001758	28.0836	0.116155	0.002063	56.3004	-66.5806	-167.088	0.024590	0.609283	-0.381369	-0.382697	-0.008222	56.3004	-0.381260	-72105	1.140266E-7	NaN
808	1.000000	0.648620	7.37296e+06	-40539.1	1055.82	-29789.7	0.000000	0.000000	6.648999	-0.066362	NaN	0.000000	0.001664	0.001773	28.0828	0.025447	0.002066	12.3168	-149.261	9.954643	-0.044935	0.647270	-0.343360	-0.344710	-0.066362	12.3168	-0.339319	-17849.4	3.717864E-6	NaN
808	1.000000	0.686673	7.37296e+06	-40539.1	1055.82	-29789.7	0.000000	0.000000	6.687056	0.031142	NaN	0.000000	0.001654	0.001710	28.0822	0.027008	0.002077	13.0019	58.1861	-164.339	0.061878	0.685306	-0.305307	-0.306675	0.031142	13.0019	-0.307104	-6000.13	-5.190231E-6	NaN
808	1.000000	0.724649	7.37296e+06	-40539.1	1055.82	-29789.7	0.000000	0.000000	6.725028	-0.050033	NaN	0.000000	0.001629	0.001770	28.0823	0.028618	0.002213	12.9315	140.8	10.6973	-0.108379	0.723277	-0.267331	-0.268703	-0.050033	12.9315	-0.264430	-1369.88	3.652347E-5	NaN
808	1.000000	0.762672	7.37296e+06	-40539.1	1055.82	-29789.7	0.000000	0.000000	6.763056	0.040161	NaN	0.000000	0.001643	0.001755	28.0824	0.067300	0.002017	33.3582	-118.361	-168.9	0.036895	0.761367	-0.229308	-0.230613	0.040161	33.3582	-0.230211	-403.501	-9.953045E-5	NaN
808	1.000000	0.800698	7.37296e+06	-40539.1	1055.82	-29789.7	0.000000	0.000000	6.801080	0.023040	NaN	0.000000	0.001671	0.001742	28.0835	0.031242	0.001908	16.3784	-110.501	11.7145	-0.012627	0.799319	-0.191283	-0.192661	0.023040	16.3784	-0.192338	-98.4011	-0.000234	NaN
808	1.000000	0.838668	7.37296e+06	-40539.1	1055.82	-29789.7	0.000000	0.000000	6.839048	-0.033416	NaN	0.000000	0.001612	0.001701	28.0833	0.075439	0.001982	38.0619	-164.396	-165.953	-0.003583	0.837362	-0.153312	-0.154618	-0.033416	38.0619	-0.152654	-20.2411	0.001651	NaN
808	1.000000	0.876716	7.37296e+06	-40539.1	1055.82	-29789.7	0.000000	0.000000	6.877097	-0.019252	NaN	0.000000	0.001610	0.001755	28.0834	0.123064	0.002136	57.614	178.765	12.0313	0.023730	0.875401	-0.115264	-0.116579	-0.019252	57.614	-0.115013	-3.822788	0.005036	NaN
808	1.000000	0.914755	7.37296e+06	-40539.1	1055.82	-29789.7	0.000000	0.000000	6.915134	-0.051765	NaN	0.000000	0.001637	0.001703	28.0835	0.041194	0.001979	20.811	178.183	-167.026	0.043116	0.913421	-0.077226	-0.078559	-0.051765	20.811	-0.075360	-0.471872	0.109701	NaN
808	1.000000	0.952736	7.37296e+06	-40539.1	1055.82	-29789.7	0.000000	0.000000	6.953118	0.007553	NaN	0.000000	0.001633	0.001714	28.0822	0.050362	0.001874	26.8743	-84.9383	14.3584	-0.039999	0.951445	-0.039244	-0.040535	0.007553	26.8743	-0.039455	-0.043532	-0.173507	NaN
808	1.000000	0.990761	7.37296e+06	-40539.1	1055.82	-29789.7	0.000000	0.000000	6.991140	-0.045246	NaN	0.000000	0.001639	0.001694	28.0821	0.062042	0.002094	29.6253	-172.38	-165.362	-0.045351	0.989450	-0.001220	-0.002530	-0.045246	29.6253	-7.419844E-5	-5.536974E-5	817.158	NaN
808	2.000000	1.011764	7.37296e+06	-40539.1	1055.82	-29789.7	0.000000	0.000000	7.012901	18.3711	NaN	0.000000	0.001648	0.001751	28.0824	15.606	0.001928	8093.44	8.041145	3.297847	17.0248	1.011433	0.019784	0.019452	18.3711	8093.44	0.018082	0.019617	936.484	52794.5
808	2.000000	1.021235	7.37296e+06	-40539.1	1055.82	-29789.7	0.000000	0.000000	7.023364	42.5225	NaN	0.000000	0.001621	0.001735	28.084	24.2983	0.001745	13926.9	5.844259	-179.354	41.2377	1.020805	0.029254	0.028824	42.5225	13926.9	0.026964	0.034687	1225.91	68319.9
808	2.000000	1.030704	7.37296e+06	-40539.1	1055.82	-29789.7	0.000000	0.000000	7.033848	67.2033	NaN	0.000000	0.001657	0.001698	28.0847	32.8051	0.001745	18801.3	1.797599	1.348221	65.9726	1.030430	0.038724	0.038450	67.2033	18801.3	0.036043	0.054203	1239.85	73782.2
808	2.000000	1.040147	7.37296e+06	-40539.1	1055.82	-29789.7	0.000000	0.000000	7.044947	107.518	NaN	0.000000	0.001622	0.001701	28.0837	41.6432	0.001853	22469.2	4.186737	178.268	107.055	1.039929	0.048167	0.047948	107.518	22469.2	0.044578	0.076394	1407.4	74272.9
808	2.000000	1.049715	7.37296e+06	-40539.1	1055.82	-29789.7	0.000000	0.000000	7.056422	153.91	NaN	0.000000	0.001619	0.001750	28.0838	50.4578	0.001734	29093.9	6.626483	-6.189796	154.705	1.049263	0.057735	0.057283	153.91	29093.9	0.053767	0.104412	1474.06	82262
808	2.000000	1.059125	7.37296e+06	-40539.1	1055.82	-29789.7	0.000000	0.000000	7.067702	199.416	NaN	0.000000	0.001689	0.001739	28.0825	59.6281	0.001786	33379.7	6.003172	172.79	197.728	1.058856	0.067145	0.066875	199.416	33379.7	0.062664	0.135535	1471.32	82838
808	2.000000	1.068583	7.37296e+06	-40539.1	1055.82	-29789.7	0.000000	0.000000	7.079209	249.283	NaN	0.000000	0.001590	0.001725	28.0825	67.9628	0.001749	38853.2	-1.816155	-0.969879	242.777	1.068348	0.076603	0.076367	249.283	38853.2	0.071791	0.171448	1453.98	85730.1
808	2.000000	1.078233	7.37296e+06	-40539.1	1055.82	-29789.7	0.000000	0.000000	7.091602	316.036	NaN	0.000000	0.001626	0.001722	28.0825	78.2031	0.001748	44737.7	5.034700	171.871	320.838	1.077868	0.086253	0.085888	316.036	44737.7	0.080955	0.211483	1494.38	88881
808	2.000000	1.087609	7.37296e+06	-40539.1	1055.82	-29789.7	0.000000	0.000000	7.104117	392.408	NaN	0.000000	0.001597	0.001725	28.0837	85.764	0.001741	49259.9	4.784134	-8.501147	387.957	1.087189	0.095629	0.095209	392.408	49259.9	0.089654	0.253103	1550.39	89457.7
808	2.000000	1.097089	7.37296e+06	-40539.1	1055.82	-29789.7	0.000000	0.000000	7.116505	463.155	NaN	0.000000	0.001589	0.001750	28.0836	94.6873	0.001728	54805.8	3.578363	171.746	460.339	1.096897	0.105109	0.104917	463.155	54805.8	0.098771	0.300447	1541.55	91351.5
808	2.000000	1.104678	7.37296e+06	-40539.1	1055.82	-29789.7	0.000000	0.000000	7.126622	524.672	NaN	0.000000	0.001581	0.001725	28.0836	103.977	0.001906	54547.4	3.140925	-7.577073	524.488	1.104368	0.112698	0.112388	524.672	54547.4	0.105484	0.337728	1553.54	85755.9