File: remote_trans/data/nanoindenter/0828-1/data/Data_2025-08-06,11h17m57s/2025-07-22_16-23-58_1_1156.txt
2025-07-22, 16:23:58, 1
Index	Phase	Displacement	Time	Pos X	Pos Y	Pos Z	Rot A	Rot B	Piezo Z	Force A	Force B	Gripper	Voltage A	Voltage B	Temperature	Amplitude force	Amplitude pos	Stiffness	Phase shift	Phase excitation	Force A raw	Displacement raw	HMax	HMax raw	Real Force	Real Stiffness	Contact Depth	Area	Hardness	Reduced Mod.
[#]	[#]	[um]	[s]	[um]	[um]	[um]	[m°]	[m°]	[um]	[uN]	[uN]	[V]	[V]	[V]	[°C]	[uN]	[um]	[N/m]	[°]	[°]	[uN]	[um]	[um]	[um]	[uN]	[N/m]	[um]	[um^2]	[MPa]	[MPa]
1156	1.000000	0.002242	7.37636e+06	-57789.1	1105.82	-29736.3	0.000000	0.000000	6.002799	-0.071381	NaN	0.000000	0.001675	0.001682	28.0834	0.120690	0.000828	145.829	160.66	-164.623	-0.013649	0.000987	-1.043604	-1.044858	-0.071381	145.829	-1.043236	-8.659340E+13	8.243190E-16	NaN
1156	1.000000	0.042248	7.37636e+06	-57789.1	1105.82	-29736.3	0.000000	0.000000	6.042806	-0.045687	NaN	0.000000	0.001669	0.001627	28.0821	0.064341	0.001920	33.5097	-54.59	-166.039	-0.044893	0.040883	-1.003597	-1.004962	-0.045687	33.5097	-1.002574	-2.457122E+13	1.859376E-15	NaN
1156	1.000000	0.082183	7.37636e+06	-57789.1	1105.82	-29736.3	0.000000	0.000000	6.082742	-0.021421	NaN	0.000000	0.001612	0.001664	28.0813	0.093457	0.002033	45.9617	-173.311	-166.569	-0.070964	0.080891	-0.963662	-0.964954	-0.021421	45.9617	-0.963313	-7.269876E+12	2.946516E-15	NaN
1156	1.000000	0.122216	7.37636e+06	-57789.1	1105.82	-29736.3	0.000000	0.000000	6.122774	-0.056627	NaN	0.000000	0.001611	0.001665	28.0809	0.063608	0.001966	32.3503	-94.6936	-164.1	-0.024333	0.120903	-0.923629	-0.924942	-0.056627	32.3503	-0.922316	-2.034595E+12	2.783188E-14	NaN
1156	1.000000	0.162211	7.37636e+06	-57789.1	1105.82	-29736.3	0.000000	0.000000	6.162770	-0.029616	NaN	0.000000	0.001646	0.001668	28.0809	0.093020	0.001916	48.5371	161.036	-165.187	-0.084047	0.160926	-0.883634	-0.884919	-0.029616	48.5371	-0.883176	-6.020856E+11	4.918901E-14	NaN
1156	1.000000	0.202257	7.37636e+06	-57789.1	1105.82	-29736.3	0.000000	0.000000	6.202815	-0.043345	NaN	0.000000	0.001639	0.001650	28.0812	0.161186	0.001926	83.6699	67.398	-167.39	-0.008144	0.200955	-0.843589	-0.844890	-0.043345	83.6699	-0.843200	-1.732377E+11	2.502075E-13	NaN
1156	1.000000	0.242270	7.37636e+06	-57789.1	1105.82	-29736.3	0.000000	0.000000	6.242827	-0.051806	NaN	0.000000	0.001622	0.001665	28.0823	0.041141	0.002108	19.5191	-138.32	-166.736	-0.061441	0.240930	-0.803576	-0.804915	-0.051806	19.5191	-0.801585	-4.724736E+10	1.096484E-12	NaN
1156	1.000000	0.282290	7.37636e+06	-57789.1	1105.82	-29736.3	0.000000	0.000000	6.282850	-0.013799	NaN	0.000000	0.001676	0.001656	28.0824	0.044969	0.002039	22.0503	167.141	-163.763	-0.031495	0.280964	-0.763555	-0.764881	-0.013799	22.0503	-0.763085	-1.416685E+10	9.740137E-13	NaN
1156	1.000000	0.322311	7.37636e+06	-57789.1	1105.82	-29736.3	0.000000	0.000000	6.322870	-0.007630	NaN	0.000000	0.001655	0.001617	28.0823	0.038528	0.002004	19.222	128.212	-166.028	0.039347	0.320982	-0.723535	-0.724863	-0.007630	19.222	-0.723237	-4.060807E+9	1.878906E-12	NaN
1156	1.000000	0.362326	7.37636e+06	-57789.1	1105.82	-29736.3	0.000000	0.000000	6.362886	-0.006379	NaN	0.000000	0.001714	0.001654	28.0812	0.060923	0.002029	30.0316	-113.305	-164.365	-0.004318	0.360996	-0.683519	-0.684849	-0.006379	30.0316	-0.683360	-1.159181E+9	5.503033E-12	NaN
1156	1.000000	0.402347	7.37636e+06	-57789.1	1105.82	-29736.3	0.000000	0.000000	6.402906	-0.026392	NaN	0.000000	0.001585	0.001681	28.0815	0.078553	0.002072	37.9128	-47.7554	-168.029	0.023539	0.400978	-0.643498	-0.644867	-0.026392	37.9128	-0.642976	-3.244244E+8	8.135129E-11	NaN
1156	1.000000	0.442348	7.37636e+06	-57789.1	1105.82	-29736.3	0.000000	0.000000	6.442905	-0.078020	NaN	0.000000	0.001594	0.001635	28.0814	0.023597	0.001947	12.1177	80.4617	-164.523	-0.029128	0.441005	-0.603497	-0.604840	-0.078020	12.1177	-0.598668	-7.982145E+7	9.774270E-10	NaN
1156	1.000000	0.482343	7.37636e+06	-57789.1	1105.82	-29736.3	0.000000	0.000000	6.482901	-0.053022	NaN	0.000000	0.001648	0.001669	28.0812	0.085598	0.002018	42.4068	-144.689	-164.948	0.001969	0.481095	-0.563502	-0.564750	-0.053022	42.4068	-0.562564	-2.534244E+7	2.092209E-9	NaN
1156	1.000000	0.522351	7.37636e+06	-57789.1	1105.82	-29736.3	0.000000	0.000000	6.522909	-0.051713	NaN	0.000000	0.001621	0.001711	28.0821	0.078485	0.002007	39.1094	17.9975	-168.315	-0.033493	0.521089	-0.523495	-0.524756	-0.051713	39.1094	-0.522503	-7.05344e+06	7.331534E-9	NaN
1156	1.000000	0.562377	7.37636e+06	-57789.1	1105.82	-29736.3	0.000000	0.000000	6.562935	-0.041805	NaN	0.000000	0.001626	0.001671	28.0824	0.035366	0.002133	16.5788	120.671	-165.984	-0.045925	0.561120	-0.483469	-0.484726	-0.041805	16.5788	-0.481577	-1.89498e+06	2.206084E-8	NaN
1156	1.000000	0.602398	7.37636e+06	-57789.1	1105.82	-29736.3	0.000000	0.000000	6.602959	0.020699	NaN	0.000000	0.001612	0.001664	28.0824	0.026613	0.002114	12.5895	75.4601	-167.047	-0.006523	0.601101	-0.443447	-0.444744	0.020699	12.5895	-0.444680	-574619	-3.602288E-8	NaN
1156	1.000000	0.642451	7.37636e+06	-57789.1	1105.82	-29736.3	0.000000	0.000000	6.643010	-0.040264	NaN	0.000000	0.001624	0.001675	28.0813	0.076580	0.001895	40.4175	-170.317	-163.155	-0.016157	0.641106	-0.403394	-0.404739	-0.040264	40.4175	-0.402647	-145789	2.761819E-7	NaN
1156	1.000000	0.682487	7.37636e+06	-57789.1	1105.82	-29736.3	0.000000	0.000000	6.683045	-0.041514	NaN	0.000000	0.001649	0.001678	28.0813	0.083566	0.002026	41.2504	-80.3555	-167.301	0.000547	0.681179	-0.363358	-0.364667	-0.041514	41.2504	-0.362603	-38856.2	1.068402E-6	NaN
1156	1.000000	0.722475	7.37636e+06	-57789.1	1105.82	-29736.3	0.000000	0.000000	6.723033	-0.048251	NaN	0.000000	0.001635	0.001699	28.0815	0.083111	0.001980	41.9813	135.796	-167.068	-0.122434	0.721169	-0.323370	-0.324676	-0.048251	41.9813	-0.322508	-10128	4.764100E-6	NaN
1156	1.000000	0.762486	7.37636e+06	-57789.1	1105.82	-29736.3	0.000000	0.000000	6.763046	0.005020	NaN	0.000000	0.001631	0.001691	28.0814	0.068237	0.001986	34.3574	133.44	-166.065	0.015429	0.761162	-0.283359	-0.284683	0.005020	34.3574	-0.283469	-2662.16	-1.885537E-6	NaN
1156	1.000000	0.802507	7.37636e+06	-57789.1	1105.82	-29736.3	0.000000	0.000000	6.803066	-0.017195	NaN	0.000000	0.001651	0.001720	28.0824	0.067924	0.001948	34.8718	-124.342	-166.25	0.034462	0.801160	-0.243338	-0.244685	-0.017195	34.8718	-0.242968	-639.511	2.688766E-5	NaN
1156	1.000000	0.842524	7.37636e+06	-57789.1	1105.82	-29736.3	0.000000	0.000000	6.843082	-0.049331	NaN	0.000000	0.001693	0.001676	28.0825	0.043511	0.002131	20.4194	-125.979	-167.075	-0.040335	0.841199	-0.203321	-0.204646	-0.049331	20.4194	-0.201509	-139.468	0.000354	NaN
1156	1.000000	0.882548	7.37636e+06	-57789.1	1105.82	-29736.3	0.000000	0.000000	6.883109	0.012640	NaN	0.000000	0.001671	0.001710	28.0825	0.122919	0.002027	60.6274	-90.266	-166.839	0.004139	0.881192	-0.163297	-0.164653	0.012640	60.6274	-0.163454	-31.5573	-0.000401	NaN
1156	1.000000	0.922556	7.37636e+06	-57789.1	1105.82	-29736.3	0.000000	0.000000	6.923115	-0.037893	NaN	0.000000	0.001640	0.001698	28.0811	0.109971	0.002098	52.4071	-12.9416	-167.828	-0.112241	0.921278	-0.123289	-0.124567	-0.037893	52.4071	-0.122746	-5.485374	0.006908	NaN
1156	1.000000	0.962585	7.37636e+06	-57789.1	1105.82	-29736.3	0.000000	0.000000	6.963144	-0.024443	NaN	0.000000	0.001613	0.001697	28.0811	0.049319	0.002007	24.5781	-130.562	-166.231	-0.058112	0.961316	-0.083260	-0.084529	-0.024443	24.5781	-0.082515	-0.714569	0.034207	NaN
1156	1.000000	1.002628	7.37636e+06	-57789.1	1105.82	-29736.3	0.000000	0.000000	7.003186	-0.061290	NaN	0.000000	0.001670	0.001734	28.0814	0.067873	0.002128	31.8884	-150.677	-166.739	-0.023019	1.001276	-0.043217	-0.044569	-0.061290	31.8884	-0.041775	-0.051217	1.196670	NaN
1156	1.000000	1.042615	7.37636e+06	-57789.1	1105.82	-29736.3	0.000000	0.000000	7.043188	0.314945	NaN	0.000000	0.001624	0.001741	28.083	0.536671	0.001935	277.342	12.3103	-166.481	0.117810	1.041309	-0.003230	-0.004536	0.314945	277.342	-0.004082	-0.002832	-111.211	NaN
1156	2.000000	1.058079	7.37636e+06	-57789.1	1105.82	-29736.3	0.000000	0.000000	7.059701	25.8186	NaN	0.000000	0.001627	0.001700	28.0827	18.6399	0.001739	10718	3.212322	-176.05	24.0929	1.057799	0.012234	0.011954	25.8186	10718	0.010427	0.009660	2672.76	99632
1156	2.000000	1.067993	7.37636e+06	-57789.1	1105.82	-29736.3	0.000000	0.000000	7.070565	48.8979	NaN	0.000000	0.001652	0.001707	28.083	28.6826	0.001807	15876.3	5.327022	179.802	46.3199	1.067709	0.022148	0.021863	48.8979	15876.3	0.019838	0.022288	2193.93	97160.3
1156	2.000000	1.078017	7.37636e+06	-57789.1	1105.82	-29736.3	0.000000	0.000000	7.082091	85.3973	NaN	0.000000	0.001624	0.001753	28.0826	39.5374	0.001817	21758.7	4.864442	177.854	84.0299	1.077607	0.032172	0.031762	85.3973	21758.7	0.029229	0.039160	2180.72	100458
1156	2.000000	1.088086	7.37637e+06	-57789.1	1105.82	-29736.3	0.000000	0.000000	7.093680	122.337	NaN	0.000000	0.001602	0.001728	28.0816	49.5217	0.001828	27089.6	4.836762	175.616	124.021	1.087717	0.042241	0.041872	122.337	27089.6	0.038854	0.061100	2002.23	100128
1156	2.000000	1.098024	7.37637e+06	-57789.1	1105.82	-29736.3	0.000000	0.000000	7.105388	165.368	NaN	0.000000	0.001621	0.001710	28.0819	58.1811	0.001830	31796.3	3.684427	175.317	165.859	1.097775	0.052179	0.051930	165.368	31796.3	0.048278	0.087165	1897.18	98396.4
1156	2.000000	1.107992	7.37637e+06	-57789.1	1105.82	-29736.3	0.000000	0.000000	7.117704	222.413	NaN	0.000000	0.001573	0.001728	28.0815	67.5187	0.001841	36666.6	4.863057	172.96	222.189	1.107695	0.062147	0.061849	222.413	36666.6	0.057598	0.117335	1895.54	97798
1156	2.000000	1.117978	7.37637e+06	-57789.1	1105.82	-29736.3	0.000000	0.000000	7.130560	292.195	NaN	0.000000	0.001590	0.001673	28.0828	76.3072	0.001821	41914.7	1.292011	176.201	290.439	1.117685	0.072133	0.071840	292.195	41914.7	0.066904	0.151723	1925.85	98313.7
1156	2.000000	1.127999	7.37637e+06	-57789.1	1105.82	-29736.3	0.000000	0.000000	7.143694	367.836	NaN	0.000000	0.001622	0.001723	28.0828	87.0231	0.001785	48761.4	3.258914	172.913	368.037	1.127610	0.082154	0.081765	367.836	48761.4	0.076496	0.191511	1920.7	101801
1156	2.000000	1.137849	7.37637e+06	-57789.1	1105.82	-29736.3	0.000000	0.000000	7.157332	459.9	NaN	0.000000	0.001613	0.001719	28.0826	97.1263	0.001761	55142.9	3.937947	171.151	455.172	1.137535	0.092004	0.091690	459.9	55142.9	0.085749	0.233988	1965.48	104152
1156	2.000000	1.147855	7.37637e+06	-57789.1	1105.82	-29736.3	0.000000	0.000000	7.171049	550.096	NaN	0.000000	0.001675	0.001726	28.0828	105.61	0.001780	59339.3	3.941491	171.124	544.778	1.147488	0.102010	0.101643	550.096	59339.3	0.095057	0.280703	1959.71	102327
1156	2.000000	1.148397	7.37637e+06	-57789.1	1105.82	-29736.3	0.000000	0.000000	7.171780	554.681	NaN	0.000000	0.001689	0.001754	28.0824	106.691	0.001885	56600	4.308866	-8.992699	551.21	1.148083	0.102552	0.102238	554.681	56600	0.095202	0.281459	1970.73	97472.3