File: remote_trans/data/nanoindenter/0828-1/data/Data_2025-08-06,11h17m57s/2025-07-22_16-23-58_1_132.txt
2025-07-22, 16:23:58, 1
Index	Phase	Displacement	Time	Pos X	Pos Y	Pos Z	Rot A	Rot B	Piezo Z	Force A	Force B	Gripper	Voltage A	Voltage B	Temperature	Amplitude force	Amplitude pos	Stiffness	Phase shift	Phase excitation	Force A raw	Displacement raw	HMax	HMax raw	Real Force	Real Stiffness	Contact Depth	Area	Hardness	Reduced Mod.
[#]	[#]	[um]	[s]	[um]	[um]	[um]	[m°]	[m°]	[um]	[uN]	[uN]	[V]	[V]	[V]	[°C]	[uN]	[um]	[N/m]	[°]	[°]	[uN]	[um]	[um]	[um]	[uN]	[N/m]	[um]	[um^2]	[MPa]	[MPa]
132	1.000000	0.002636	7.36633e+06	-45239.1	955.818	-29773.6	0.000000	0.000000	6.002807	0.051053	NaN	0.000000	0.001549	0.001681	28.0834	0.011776	0.001027	11.4656	-25.9692	-163.573	0.033769	0.001384	-1.067572	-1.068823	0.051053	11.4656	-1.070911	-2.039073E+14	-2.503715E-16	NaN
132	1.000000	0.042605	7.36633e+06	-45239.1	955.818	-29773.6	0.000000	0.000000	6.042770	-0.094269	NaN	0.000000	0.001586	0.001663	28.0816	0.063526	0.002059	30.8518	70.9643	-162.295	-0.044740	0.041326	-1.027603	-1.028882	-0.094269	30.8518	-1.025311	-4.970572E+13	1.896543E-15	NaN
132	1.000000	0.082590	7.36633e+06	-45239.1	955.818	-29773.6	0.000000	0.000000	6.082761	0.031106	NaN	0.000000	0.001594	0.001677	28.0821	0.044260	0.002061	21.4745	-85.8196	-165.07	-0.012728	0.081297	-0.987617	-0.988910	0.031106	21.4745	-0.988704	-1.598288E+13	-1.946217E-15	NaN
132	1.000000	0.122609	7.36633e+06	-45239.1	955.818	-29773.6	0.000000	0.000000	6.122776	-0.044553	NaN	0.000000	0.001550	0.001638	28.0798	0.095407	0.001927	49.5205	-128.363	-163.686	-0.059706	0.121259	-0.947599	-0.948949	-0.044553	49.5205	-0.946924	-4.370595E+12	1.019380E-14	NaN
132	1.000000	0.162625	7.36633e+06	-45239.1	955.817	-29773.6	0.000000	0.000000	6.162795	0.010013	NaN	0.000000	0.001583	0.001756	28.0812	0.120337	0.001905	63.1559	77.465	-166.08	-0.014834	0.161346	-0.907582	-0.908861	0.010013	63.1559	-0.907701	-1.291545E+12	-7.752690E-15	NaN
132	1.000000	0.202664	7.36633e+06	-45239.1	955.818	-29773.6	0.000000	0.000000	6.202836	0.047320	NaN	0.000000	0.001559	0.001726	28.0811	0.085575	0.001880	45.5304	-139.086	-161.966	0.102212	0.201302	-0.867543	-0.868905	0.047320	45.5304	-0.868323	-3.790983E+11	-1.248237E-13	NaN
132	1.000000	0.242679	7.36633e+06	-45239.1	955.817	-29773.6	0.000000	0.000000	6.242849	0.008654	NaN	0.000000	0.001573	0.001706	28.0838	0.072779	0.002005	36.2952	-41.1882	-164.046	0.008461	0.241353	-0.827528	-0.828854	0.008654	36.2952	-0.827707	-1.068323E+11	-8.100433E-14	NaN
132	1.000000	0.282668	7.36633e+06	-45239.1	955.818	-29773.6	0.000000	0.000000	6.282838	0.006592	NaN	0.000000	0.001611	0.001738	28.0815	0.059412	0.001967	30.204	-152.037	-166.398	0.041940	0.281383	-0.787540	-0.788824	0.006592	30.204	-0.787703	-3.061188E+10	-2.153440E-13	NaN
132	1.000000	0.322691	7.36633e+06	-45239.1	955.819	-29773.6	0.000000	0.000000	6.322862	0.043943	NaN	0.000000	0.001547	0.001726	28.082	0.062056	0.001949	31.8454	63.5226	-162.727	-0.003654	0.321454	-0.747517	-0.748753	0.043943	31.8454	-0.748552	-8.984664E+9	-4.890906E-12	NaN
132	1.000000	0.362723	7.36633e+06	-45239.1	955.819	-29773.6	0.000000	0.000000	6.362894	0.027234	NaN	0.000000	0.001577	0.001757	28.0804	0.052161	0.002022	25.7937	-145.139	-165.537	0.073186	0.361366	-0.707484	-0.708841	0.027234	25.7937	-0.708276	-2.538181E+9	-1.072984E-11	NaN
132	1.000000	0.402753	7.36633e+06	-45239.1	955.819	-29773.6	0.000000	0.000000	6.402922	-0.021819	NaN	0.000000	0.001566	0.001747	28.0808	0.005144	0.002020	2.546535	23.2935	-162.183	0.003734	0.401430	-0.667454	-0.668777	-0.021819	2.546535	-0.661028	-5.735273E+8	3.804344E-11	NaN
132	1.000000	0.442736	7.36633e+06	-45239.1	955.818	-29773.6	0.000000	0.000000	6.442907	0.029750	NaN	0.000000	0.001563	0.001722	28.0805	0.056828	0.002089	27.205	-27.3422	-166.972	0.024559	0.441475	-0.627471	-0.628732	0.029750	27.205	-0.628291	-2.039643E+8	-1.458605E-10	NaN
132	1.000000	0.482770	7.36633e+06	-45239.1	955.819	-29773.6	0.000000	0.000000	6.482941	0.013196	NaN	0.000000	0.001591	0.001740	28.0816	0.028617	0.001954	14.6438	-150.945	-165.778	0.033827	0.481493	-0.587437	-0.588714	0.013196	14.6438	-0.588113	-5.710121E+7	-2.311042E-10	NaN
132	1.000000	0.522785	7.36633e+06	-45239.1	955.819	-29773.6	0.000000	0.000000	6.522954	-0.026751	NaN	0.000000	0.001556	0.001726	28.082	0.086990	0.001955	44.5019	37.9623	-168.625	0.047262	0.521483	-0.547422	-0.548724	-0.026751	44.5019	-0.546971	-1.541700E+7	1.735179E-9	NaN
132	1.000000	0.562821	7.36633e+06	-45239.1	955.818	-29773.6	0.000000	0.000000	6.562989	-0.026473	NaN	0.000000	0.001529	0.001741	28.0817	0.017654	0.001941	9.095391	-157.113	-166.53	-0.052681	0.561511	-0.507387	-0.508696	-0.026473	9.095391	-0.505204	-4.05119e+06	6.534598E-9	NaN
132	1.000000	0.602785	7.36633e+06	-45239.1	955.818	-29773.6	0.000000	0.000000	6.602956	0.027652	NaN	0.000000	0.001628	0.001721	28.0809	0.061345	0.001971	31.1164	112.863	-165.26	-0.021644	0.601498	-0.467422	-0.468710	0.027652	31.1164	-0.468088	-1.22629e+06	-2.254967E-8	NaN
132	1.000000	0.642825	7.36633e+06	-45239.1	955.819	-29773.6	0.000000	0.000000	6.642995	0.010642	NaN	0.000000	0.001563	0.001732	28.0812	0.102938	0.002060	49.9695	84.9244	-161.369	-0.004071	0.641546	-0.427382	-0.428662	0.010642	49.9695	-0.427542	-329060	-3.234040E-8	NaN
132	1.000000	0.682836	7.36633e+06	-45239.1	955.819	-29773.6	0.000000	0.000000	6.683006	0.017126	NaN	0.000000	0.001557	0.001734	28.0804	0.036665	0.002032	18.0441	177.107	-164.998	0.042479	0.681522	-0.387372	-0.388685	0.017126	18.0441	-0.388083	-90311.5	-1.896356E-7	NaN
132	1.000000	0.722874	7.36633e+06	-45239.1	955.818	-29773.6	0.000000	0.000000	6.723042	-0.039019	NaN	0.000000	0.001557	0.001755	28.0798	0.173007	0.002029	85.2747	-117.428	-164.671	-0.009089	0.721598	-0.347333	-0.348609	-0.039019	85.2747	-0.346990	-23082.8	1.690398E-6	NaN
132	1.000000	0.762878	7.36633e+06	-45239.1	955.818	-29773.6	0.000000	0.000000	6.763050	0.050244	NaN	0.000000	0.001508	0.001744	28.082	0.012100	0.001984	6.098224	-109.366	-165.799	0.075727	0.761592	-0.307329	-0.308616	0.050244	6.098224	-0.313508	-7463.19	-6.732205E-6	NaN
132	1.000000	0.802908	7.36633e+06	-45239.1	955.818	-29773.6	0.000000	0.000000	6.803081	0.081518	NaN	0.000000	0.001505	0.001723	28.0831	0.094459	0.002015	46.8862	-80.2567	-161.204	0.166192	0.801610	-0.267300	-0.268597	0.081518	46.8862	-0.268603	-1586.01	-5.139797E-5	NaN
132	1.000000	0.842895	7.36633e+06	-45239.1	955.819	-29773.6	0.000000	0.000000	6.843067	0.058563	NaN	0.000000	0.001596	0.001741	28.0826	0.082140	0.002036	40.3369	111.67	-163.44	-0.004491	0.841592	-0.227312	-0.228616	0.058563	40.3369	-0.228401	-377.785	-0.000155	NaN
132	1.000000	0.882948	7.36633e+06	-45239.1	955.818	-29773.6	0.000000	0.000000	6.883118	0.008332	NaN	0.000000	0.001533	0.001721	28.0831	0.064329	0.001943	33.1009	-26.2539	-164.768	0.029752	0.881651	-0.187260	-0.188556	0.008332	33.1009	-0.187449	-81.5288	-0.000102	NaN
132	1.000000	0.922945	7.36633e+06	-45239.1	955.819	-29773.6	0.000000	0.000000	6.923117	0.058085	NaN	0.000000	0.001515	0.001758	28.0799	0.015579	0.001956	7.964905	-113.409	-163.782	0.098595	0.921617	-0.147262	-0.148591	0.058085	7.964905	-0.152731	-20.3066	-0.002860	NaN
132	1.000000	0.962967	7.36633e+06	-45239.1	955.819	-29773.6	0.000000	0.000000	6.963138	0.030085	NaN	0.000000	0.001515	0.001730	28.0813	0.032149	0.002058	15.6187	62.1995	-165.797	0.028668	0.961697	-0.107240	-0.108510	0.030085	15.6187	-0.108685	-2.818768	-0.010673	NaN
132	1.000000	1.002978	7.36633e+06	-45239.1	955.819	-29773.6	0.000000	0.000000	7.003149	0.024245	NaN	0.000000	0.001536	0.001714	28.081	0.106736	0.001976	54.0104	-104.842	-162.161	-0.001583	1.001673	-0.067230	-0.068535	0.024245	54.0104	-0.067566	-0.293179	-0.082696	NaN
132	1.000000	1.043010	7.36633e+06	-45239.1	955.819	-29773.6	0.000000	0.000000	7.043181	0.038944	NaN	0.000000	0.001546	0.001759	28.083	0.027830	0.002018	13.7943	-74.0956	-163.766	0.070380	1.041672	-0.027198	-0.028535	0.038944	13.7943	-0.029315	-0.022028	-1.767960	NaN
132	2.000000	1.079501	7.36633e+06	-45239.1	955.819	-29773.6	0.000000	0.000000	7.080155	11.7786	NaN	0.000000	0.001552	0.001715	28.0819	9.687403	0.001644	5893.92	6.554872	-174.082	11.2242	1.079257	0.009293	0.009050	11.7786	5893.92	0.007794	0.006832	1724.07	65149.1
132	2.000000	1.089487	7.36633e+06	-45239.1	955.821	-29773.6	0.000000	0.000000	7.090717	25.8132	NaN	0.000000	0.001536	0.001720	28.0822	19.1129	0.001819	10510.2	7.180648	-178.198	26.0797	1.089162	0.019279	0.018955	25.8132	10510.2	0.017437	0.018674	1382.3	70269
132	2.000000	1.099403	7.36634e+06	-45239.1	955.82	-29773.6	0.000000	0.000000	7.101892	56.4148	NaN	0.000000	0.001545	0.001695	28.081	28.8656	0.001784	16178	5.837596	179.815	56.0626	1.099078	0.029196	0.028871	56.4148	16178	0.026581	0.033954	1661.49	80214.2
132	2.000000	1.109339	7.36634e+06	-45239.1	955.82	-29773.6	0.000000	0.000000	7.112984	84.526	NaN	0.000000	0.001574	0.001691	28.0807	38.8491	0.001912	20318.4	3.869251	-179.626	82.451	1.109015	0.039132	0.038808	84.526	20318.4	0.036012	0.054128	1561.59	79790.3
132	2.000000	1.119387	7.36634e+06	-45239.1	955.819	-29773.6	0.000000	0.000000	7.124551	121.506	NaN	0.000000	0.001524	0.001694	28.0815	48.26	0.001828	26393.3	5.326811	176.872	121.871	1.119083	0.049180	0.048876	121.506	26393.3	0.045727	0.079664	1525.23	85434.9
132	2.000000	1.129338	7.36634e+06	-45239.1	955.819	-29773.6	0.000000	0.000000	7.136695	174.848	NaN	0.000000	0.001532	0.001683	28.082	58.0275	0.001815	31969.6	4.939718	176.192	174.477	1.129041	0.059130	0.058833	174.848	31969.6	0.055028	0.108587	1610.21	88638.3
132	2.000000	1.139314	7.36634e+06	-45239.1	955.819	-29773.6	0.000000	0.000000	7.148940	230.042	NaN	0.000000	0.001518	0.001683	28.0819	68.112	0.001868	36464.7	9.246068	170.832	227.66	1.138879	0.069106	0.068672	230.042	36464.7	0.064375	0.141961	1620.45	88422
132	2.000000	1.149346	7.36634e+06	-45239.1	955.819	-29773.6	0.000000	0.000000	7.161252	285.522	NaN	0.000000	0.001542	0.001713	28.0843	75.4792	0.001821	41454.7	2.295821	176.383	285.323	1.149008	0.079138	0.078801	285.522	41454.7	0.073973	0.180622	1580.77	89117.1
132	2.000000	1.159354	7.36634e+06	-45239.1	955.819	-29773.6	0.000000	0.000000	7.173651	343.67	NaN	0.000000	0.001538	0.001692	28.0834	84.5854	0.001848	45763.4	2.891460	174.755	342.453	1.159150	0.089147	0.088943	343.67	45763.4	0.083515	0.223367	1538.59	88467.2
132	2.000000	1.169267	7.36634e+06	-45239.1	955.817	-29773.6	0.000000	0.000000	7.186922	425.371	NaN	0.000000	0.001563	0.001712	28.0824	94.4312	0.001889	49981.3	3.353251	173.868	420.949	1.169071	0.099060	0.098864	425.371	49981.3	0.092677	0.268378	1584.97	88147
132	2.000000	1.176758	7.36634e+06	-45239.1	955.819	-29773.6	0.000000	0.000000	7.196949	487.066	NaN	0.000000	0.001586	0.001671	28.1151	102.131	0.001949	52404.1	6.415548	-9.454996	482.905	1.176470	0.106551	0.106262	487.066	52404.1	0.099580	0.304830	1597.83	86718.1