File: remote_trans/data/nanoindenter/0828-1/data/Data_2025-08-06,11h17m57s/2025-07-22_16-23-58_1_1073.txt
2025-07-22, 16:23:58, 1
Index	Phase	Displacement	Time	Pos X	Pos Y	Pos Z	Rot A	Rot B	Piezo Z	Force A	Force B	Gripper	Voltage A	Voltage B	Temperature	Amplitude force	Amplitude pos	Stiffness	Phase shift	Phase excitation	Force A raw	Displacement raw	HMax	HMax raw	Real Force	Real Stiffness	Contact Depth	Area	Hardness	Reduced Mod.
[#]	[#]	[um]	[s]	[um]	[um]	[um]	[m°]	[m°]	[um]	[uN]	[uN]	[V]	[V]	[V]	[°C]	[uN]	[um]	[N/m]	[°]	[°]	[uN]	[um]	[um]	[um]	[uN]	[N/m]	[um]	[um^2]	[MPa]	[MPa]
1073	1.000000	0.002668	7.37555e+06	-53789.1	1055.82	-29745.3	0.000000	0.000000	6.002793	-0.019940	NaN	0.000000	0.001622	0.001730	28.0835	0.028080	0.000986	28.4845	-156.006	-166.686	-0.026759	0.001428	-1.060301	-1.061542	-0.019940	28.4845	-1.059776	-1.444830E+14	1.380098E-16	NaN
1073	1.000000	0.042622	7.37555e+06	-53789.1	1055.82	-29745.3	0.000000	0.000000	6.042749	0.055926	NaN	0.000000	0.001534	0.001747	28.0831	0.022656	0.001949	11.6231	-176.845	-163.182	0.091991	0.041288	-1.020348	-1.021682	0.055926	11.6231	-1.023957	-4.766401E+13	-1.173345E-15	NaN
1073	1.000000	0.082646	7.37555e+06	-53789.1	1055.82	-29745.3	0.000000	0.000000	6.082773	0.042737	NaN	0.000000	0.001484	0.001720	28.0831	0.071671	0.002082	34.4256	13.883	-168.221	0.018946	0.081378	-0.980323	-0.981592	0.042737	34.4256	-0.981254	-1.268560E+13	-3.368972E-15	NaN
1073	1.000000	0.122634	7.37555e+06	-53789.1	1055.82	-29745.3	0.000000	0.000000	6.122759	-0.004736	NaN	0.000000	0.001534	0.001734	28.082	0.126754	0.002074	61.1193	-132.737	-164.216	-0.020880	0.121353	-0.940336	-0.941617	-0.004736	61.1193	-0.940277	-3.555330E+12	1.332116E-15	NaN
1073	1.000000	0.162678	7.37555e+06	-53789.1	1055.82	-29745.3	0.000000	0.000000	6.162801	-0.053416	NaN	0.000000	0.001565	0.001767	28.082	0.116840	0.001954	59.7905	3.979795	-165.656	-0.045956	0.161323	-0.900292	-0.901647	-0.053416	59.7905	-0.899622	-1.004523E+12	5.317517E-14	NaN
1073	1.000000	0.202694	7.37555e+06	-53789.1	1055.82	-29745.3	0.000000	0.000000	6.202818	-0.017849	NaN	0.000000	0.001530	0.001728	28.082	0.146057	0.002064	70.7492	-35.144	-164.343	-0.028583	0.201439	-0.860276	-0.861531	-0.017849	70.7492	-0.860087	-2.932890E+11	6.085880E-14	NaN
1073	1.000000	0.242693	7.37555e+06	-53789.1	1055.82	-29745.3	0.000000	0.000000	6.242819	0.027101	NaN	0.000000	0.001585	0.001720	28.0822	0.049296	0.001939	25.4192	-50.5757	-165.227	0.001464	0.241357	-0.820277	-0.821613	0.027101	25.4192	-0.821077	-8.685825E+10	-3.120106E-13	NaN
1073	1.000000	0.282724	7.37555e+06	-53789.1	1055.82	-29745.3	0.000000	0.000000	6.282845	-0.094823	NaN	0.000000	0.001527	0.001758	28.0833	0.061713	0.002023	30.4992	-95.9127	-167.349	-0.061169	0.281430	-0.780246	-0.781540	-0.094823	30.4992	-0.777914	-2.253652E+10	4.207520E-12	NaN
1073	1.000000	0.322740	7.37555e+06	-53789.1	1055.82	-29745.3	0.000000	0.000000	6.322868	0.062253	NaN	0.000000	0.001588	0.001757	28.083	0.050214	0.002082	24.1127	96.4416	-164.8	0.042950	0.321464	-0.740230	-0.741506	0.062253	24.1127	-0.742166	-7.354512E+9	-8.464548E-12	NaN
1073	1.000000	0.362728	7.37555e+06	-53789.1	1055.82	-29745.3	0.000000	0.000000	6.362852	-0.026236	NaN	0.000000	0.001586	0.001750	28.0841	0.097428	0.001899	51.3014	24.631	-164.548	-0.007760	0.361472	-0.700242	-0.701498	-0.026236	51.3014	-0.699859	-1.948054E+9	1.346799E-11	NaN
1073	1.000000	0.402759	7.37555e+06	-53789.1	1055.82	-29745.3	0.000000	0.000000	6.402885	0.022622	NaN	0.000000	0.001517	0.001795	28.082	0.109798	0.002064	53.2079	38.4914	-167.171	0.130900	0.401433	-0.660211	-0.661537	0.022622	53.2079	-0.660530	-5.645785E+8	-4.006911E-11	NaN
1073	1.000000	0.442772	7.37555e+06	-53789.1	1055.82	-29745.3	0.000000	0.000000	6.442896	-0.028767	NaN	0.000000	0.001526	0.001790	28.082	0.034186	0.001903	17.9625	-125.729	-163.638	0.004223	0.441429	-0.620198	-0.621541	-0.028767	17.9625	-0.618997	-1.520007E+8	1.892557E-10	NaN
1073	1.000000	0.482785	7.37555e+06	-53789.1	1055.82	-29745.3	0.000000	0.000000	6.482907	-0.058709	NaN	0.000000	0.001505	0.001743	28.0819	0.122340	0.002137	57.2458	-81.2634	-165.145	0.042686	0.481487	-0.580185	-0.581483	-0.058709	57.2458	-0.579416	-4.331778E+7	1.355313E-9	NaN
1073	1.000000	0.522828	7.37555e+06	-53789.1	1055.82	-29745.3	0.000000	0.000000	6.522954	0.025522	NaN	0.000000	0.001519	0.001753	28.0821	0.088164	0.001952	45.1696	127.223	-166.427	0.035658	0.521530	-0.540142	-0.541440	0.025522	45.1696	-0.540566	-1.256632E+7	-2.030994E-9	NaN
1073	1.000000	0.562835	7.37555e+06	-53789.1	1055.82	-29745.3	0.000000	0.000000	6.562958	-0.058853	NaN	0.000000	0.001567	0.001762	28.0833	0.061238	0.001889	32.4192	44.5595	-166.508	-0.007949	0.561505	-0.500134	-0.501465	-0.058853	32.4192	-0.498773	-3.29531e+06	1.785967E-8	NaN
1073	1.000000	0.602860	7.37555e+06	-53789.1	1055.82	-29745.3	0.000000	0.000000	6.602984	-0.029988	NaN	0.000000	0.001580	0.001759	28.0831	0.071476	0.002057	34.7465	-23.21	-164.885	-0.059296	0.601577	-0.460110	-0.461393	-0.029988	34.7465	-0.459463	-927831	3.232065E-8	NaN
1073	1.000000	0.642874	7.37555e+06	-53789.1	1055.82	-29745.3	0.000000	0.000000	6.642998	-0.028365	NaN	0.000000	0.001573	0.001749	28.0831	0.090091	0.002006	44.912	-137.639	-164.294	0.007204	0.641546	-0.420096	-0.421424	-0.028365	44.912	-0.419622	-254131	1.116160E-7	NaN
1073	1.000000	0.682898	7.37555e+06	-53789.1	1055.82	-29745.3	0.000000	0.000000	6.683021	-0.063165	NaN	0.000000	0.001609	0.001708	28.0819	0.138258	0.001897	72.8883	37.4419	-164.588	-0.033992	0.681592	-0.380072	-0.381378	-0.063165	72.8883	-0.379422	-67855.8	9.308689E-7	NaN
1073	1.000000	0.722931	7.37555e+06	-53789.1	1055.82	-29745.3	0.000000	0.000000	6.723055	-0.032159	NaN	0.000000	0.001561	0.001737	28.0817	0.066126	0.001941	34.0647	-61.8042	-164.518	-0.041637	0.721597	-0.340039	-0.341373	-0.032159	34.0647	-0.339331	-17856.5	1.800997E-6	NaN
1073	1.000000	0.762929	7.37555e+06	-53789.1	1055.82	-29745.3	0.000000	0.000000	6.763057	0.074609	NaN	0.000000	0.001516	0.001715	28.0818	0.041894	0.002044	20.4912	132.697	-164.951	0.100767	0.761608	-0.300041	-0.301362	0.074609	20.4912	-0.302772	-5174.42	-1.441886E-5	NaN
1073	1.000000	0.802936	7.37555e+06	-53789.1	1055.82	-29745.3	0.000000	0.000000	6.803060	-0.013858	NaN	0.000000	0.001529	0.001717	28.0835	0.035217	0.001857	18.9621	157.134	-167.003	0.002022	0.801583	-0.260034	-0.261387	-0.013858	18.9621	-0.259486	-1150.9	1.204097E-5	NaN
1073	1.000000	0.842948	7.37555e+06	-53789.1	1055.82	-29745.3	0.000000	0.000000	6.843074	0.026476	NaN	0.000000	0.001513	0.001718	28.0836	0.085454	0.001989	42.9708	-87.8304	-166.762	-0.010344	0.841679	-0.220022	-0.221291	0.026476	42.9708	-0.220484	-282.755	-9.363725E-5	NaN
1073	1.000000	0.882998	7.37555e+06	-53789.1	1055.82	-29745.3	0.000000	0.000000	6.883122	-0.043770	NaN	0.000000	0.001557	0.001736	28.0833	0.061382	0.001987	30.8947	102.82	-162.018	-0.010802	0.881671	-0.179971	-0.181299	-0.043770	30.8947	-0.178909	-58.4632	0.000749	NaN
1073	1.000000	0.922996	7.37555e+06	-53789.1	1055.82	-29745.3	0.000000	0.000000	6.923121	-0.003463	NaN	0.000000	0.001534	0.001677	28.083	0.016617	0.002014	8.248947	48.487	-160.009	-0.017522	0.921635	-0.139973	-0.141335	-0.003463	8.248947	-0.139659	-11.656	0.000297	NaN
1073	1.000000	0.963017	7.37555e+06	-53789.1	1055.82	-29745.3	0.000000	0.000000	6.963144	0.040382	NaN	0.000000	0.001551	0.001679	28.0818	0.013047	0.002036	6.406884	117.193	-162.129	0.029566	0.961685	-0.099953	-0.101285	0.040382	6.406884	-0.104680	-2.313459	-0.017455	NaN
1073	1.000000	1.003027	7.37555e+06	-53789.1	1055.82	-29745.3	0.000000	0.000000	7.003152	-0.004683	NaN	0.000000	0.001536	0.001673	28.0818	0.202906	0.001859	109.13	-142.981	-169.207	-0.043320	1.001728	-0.059943	-0.061242	-0.004683	109.13	-0.059911	-0.179032	0.026158	NaN
1073	1.000000	1.043021	7.37555e+06	-53789.1	1055.82	-29745.3	0.000000	0.000000	7.043145	-0.013561	NaN	0.000000	0.001550	0.001717	28.0817	0.074140	0.001954	37.9466	-37.5917	-163.287	0.001906	1.041779	-0.019949	-0.021191	-0.013561	37.9466	-0.019681	-0.012328	1.100011	NaN
1073	2.000000	1.072616	7.37555e+06	-53789.1	1055.82	-29745.3	0.000000	0.000000	7.073244	12.2147	NaN	0.000000	0.001553	0.001672	28.083	12.0681	0.001746	6913.38	6.407273	-173.175	11.5999	1.072332	0.009646	0.009363	12.2147	6913.38	0.008321	0.007375	1656.24	73550.4
1073	2.000000	1.082513	7.37555e+06	-53789.1	1055.82	-29745.3	0.000000	0.000000	7.083719	26.2847	NaN	0.000000	0.001615	0.001703	28.0834	22.5419	0.001848	12194.9	8.574976	179.693	24.3706	1.082210	0.019543	0.019240	26.2847	12194.9	0.017927	0.019389	1355.67	80016.4
1073	2.000000	1.092519	7.37555e+06	-53789.1	1055.82	-29745.3	0.000000	0.000000	7.094533	45.9151	NaN	0.000000	0.001623	0.001690	28.0831	31.3015	0.001782	17565.4	4.658783	-179.515	44.4392	1.092276	0.029549	0.029306	45.9151	17565.4	0.027589	0.035894	1279.19	84707.5
1073	2.000000	1.102488	7.37555e+06	-53789.1	1055.82	-29745.3	0.000000	0.000000	7.105661	74.0931	NaN	0.000000	0.001625	0.001751	28.0832	42.1452	0.001937	21761.7	9.574611	174.844	72.6654	1.102202	0.039518	0.039232	74.0931	21761.7	0.036965	0.056419	1313.26	83705.1
1073	2.000000	1.112490	7.37555e+06	-53789.1	1055.82	-29745.3	0.000000	0.000000	7.117262	112.997	NaN	0.000000	0.001610	0.001744	28.082	51.8018	0.001883	27514.1	3.856038	177.91	110.641	1.112204	0.049520	0.049234	112.997	27514.1	0.046440	0.081727	1382.63	87931.9
1073	2.000000	1.122535	7.37555e+06	-53789.1	1055.82	-29745.3	0.000000	0.000000	7.129042	155.161	NaN	0.000000	0.001641	0.001664	28.082	60.7342	0.001838	33049.3	2.897382	177.52	155.122	1.122209	0.059565	0.059239	155.161	33049.3	0.056044	0.112005	1385.3	90222.7
1073	2.000000	1.132401	7.37555e+06	-53789.1	1055.82	-29745.3	0.000000	0.000000	7.141044	207.076	NaN	0.000000	0.001652	0.001729	28.0818	70.5571	0.001800	39189.7	3.344657	175.19	202.647	1.132129	0.069431	0.069160	207.076	39189.7	0.065468	0.146143	1416.94	93660.2
1073	2.000000	1.142418	7.37555e+06	-53789.1	1055.82	-29745.3	0.000000	0.000000	7.153147	257.783	NaN	0.000000	0.001550	0.001706	28.0828	80.412	0.001824	44082.6	2.836258	175.728	256	1.142185	0.079448	0.079215	257.783	44082.6	0.075063	0.185290	1391.25	93565.3
1073	2.000000	1.152421	7.37555e+06	-53789.1	1055.82	-29745.3	0.000000	0.000000	7.165389	312.243	NaN	0.000000	0.001582	0.001724	28.0828	90.112	0.001764	51079.4	1.722276	174.938	309.37	1.152312	0.089451	0.089342	312.243	51079.4	0.084867	0.229766	1358.96	97359.1
1073	2.000000	1.162478	7.37555e+06	-53789.1	1055.82	-29745.3	0.000000	0.000000	7.178793	393.604	NaN	0.000000	0.001547	0.001732	28.0828	100.99	0.001870	53994.5	5.716526	171.005	395.279	1.162272	0.099509	0.099302	393.604	53994.5	0.094041	0.275412	1429.15	94000.8
1073	2.000000	1.167409	7.37555e+06	-53789.1	1055.82	-29745.3	0.000000	0.000000	7.185095	426.927	NaN	0.000000	0.001584	0.001721	28.0829	104.51	0.001738	60148.6	5.802737	169.691	424.318	1.167289	0.104439	0.104319	426.927	60148.6	0.099116	0.302312	1412.21	99947.3