File: remote_trans/data/nanoindenter/0828-1/data/Data_2025-08-06,11h17m57s/2025-07-22_16-23-58_1_1056.txt
2025-07-22, 16:23:58, 1
Index	Phase	Displacement	Time	Pos X	Pos Y	Pos Z	Rot A	Rot B	Piezo Z	Force A	Force B	Gripper	Voltage A	Voltage B	Temperature	Amplitude force	Amplitude pos	Stiffness	Phase shift	Phase excitation	Force A raw	Displacement raw	HMax	HMax raw	Real Force	Real Stiffness	Contact Depth	Area	Hardness	Reduced Mod.
[#]	[#]	[um]	[s]	[um]	[um]	[um]	[m°]	[m°]	[um]	[uN]	[uN]	[V]	[V]	[V]	[°C]	[uN]	[um]	[N/m]	[°]	[°]	[uN]	[um]	[um]	[um]	[uN]	[N/m]	[um]	[um^2]	[MPa]	[MPa]
1056	1.000000	0.003280	7.37537e+06	-52939.1	1055.82	-29747.2	0.000000	0.000000	6.002829	0.089473	NaN	0.000000	0.001689	0.001707	28.0811	0.078169	0.001010	77.3916	55.1818	-168.369	0.008620	0.001959	-1.699511	-1.700832	0.089473	77.3916	-1.700378	-5.145889E+22	-1.738728E-24	NaN
1056	1.000000	0.061219	7.37537e+06	-52939.1	1055.82	-29747.2	0.000000	0.000000	6.060766	0.039487	NaN	0.000000	0.001671	0.001692	28.0826	0.046262	0.002020	22.9022	139.917	14.1629	-0.012875	0.059888	-1.641572	-1.642903	0.039487	22.9022	-1.642865	-8.854940E+21	-4.459296E-24	NaN
1056	1.000000	0.119223	7.37537e+06	-52939.1	1055.82	-29747.2	0.000000	0.000000	6.118768	-0.020561	NaN	0.000000	0.001594	0.001691	28.0826	0.040933	0.002145	19.0835	172.548	-164.803	-0.027459	0.117958	-1.583568	-1.584833	-0.020561	19.0835	-1.582759	-1.405712E+21	1.462664E-23	NaN
1056	1.000000	0.177259	7.37537e+06	-52939.1	1055.82	-29747.2	0.000000	0.000000	6.176806	0.035706	NaN	0.000000	0.001640	0.001692	28.0814	0.068765	0.002040	33.7128	-147.41	15.0627	0.010802	0.175908	-1.525532	-1.526883	0.035706	33.7128	-1.526326	-2.493840E+20	-1.431782E-22	NaN
1056	1.000000	0.235255	7.37537e+06	-52939.1	1055.82	-29747.2	0.000000	0.000000	6.234803	0.067471	NaN	0.000000	0.001678	0.001702	28.0815	0.056514	0.002035	27.7713	-12.1455	-164.179	0.115938	0.233950	-1.467536	-1.468841	0.067471	27.7713	-1.469358	-4.346274E+19	-1.552379E-21	NaN
1056	1.000000	0.293290	7.37537e+06	-52939.1	1055.82	-29747.2	0.000000	0.000000	6.292838	0.069159	NaN	0.000000	0.001655	0.001696	28.0825	0.028383	0.002001	14.1845	-31.3578	12.9046	0.111045	0.291963	-1.409501	-1.410828	0.069159	14.1845	-1.413158	-7.743843E+18	-8.930784E-21	NaN
1056	1.000000	0.351310	7.37537e+06	-52939.1	1055.82	-29747.2	0.000000	0.000000	6.350856	0.027676	NaN	0.000000	0.001644	0.001763	28.0824	0.043279	0.001963	22.0464	40.7001	-165.469	-0.020113	0.350035	-1.351481	-1.352756	0.027676	22.0464	-1.352423	-1.198316E+18	-2.309555E-20	NaN
1056	1.000000	0.409315	7.37537e+06	-52939.1	1055.82	-29747.2	0.000000	0.000000	6.408863	0.067102	NaN	0.000000	0.001638	0.001757	28.0823	0.019155	0.001906	10.0522	-175.473	12.9106	0.045041	0.407999	-1.293476	-1.294792	0.067102	10.0522	-1.298482	-2.280959E+17	-2.941841E-19	NaN
1056	1.000000	0.467373	7.37537e+06	-52939.1	1055.82	-29747.2	0.000000	0.000000	6.466920	0.058917	NaN	0.000000	0.001703	0.001766	28.0816	0.056910	0.002001	28.4447	122.598	-166.498	0.056384	0.466095	-1.235418	-1.236695	0.058917	28.4447	-1.236972	-3.432629E+16	-1.716388E-18	NaN
1056	1.000000	0.525407	7.37537e+06	-52939.1	1055.82	-29747.2	0.000000	0.000000	6.524955	0.071401	NaN	0.000000	0.001661	0.001754	28.0815	0.099507	0.002040	48.7768	-175.993	12.9427	0.020604	0.524063	-1.177384	-1.178727	0.071401	48.7768	-1.178482	-5.656312E+15	-1.262331E-17	NaN
1056	1.000000	0.583405	7.37537e+06	-52939.1	1055.82	-29747.2	0.000000	0.000000	6.582954	0.093089	NaN	0.000000	0.001663	0.001775	28.0827	0.047093	0.001983	23.7487	-156.018	-167.6	-0.004809	0.582103	-1.119386	-1.120688	0.093089	23.7487	-1.122326	-9.992610E+14	-9.315797E-17	NaN
1056	1.000000	0.641456	7.37537e+06	-52939.1	1055.82	-29747.2	0.000000	0.000000	6.641006	0.118868	NaN	0.000000	0.001527	0.001742	28.0825	0.025116	0.002055	12.2235	120.558	14.8905	0.058812	0.640083	-1.061335	-1.062708	0.118868	12.2235	-1.068629	-1.900042E+14	-6.256090E-16	NaN
1056	1.000000	0.699482	7.37538e+06	-52939.1	1055.82	-29747.2	0.000000	0.000000	6.699029	0.031424	NaN	0.000000	0.001552	0.001774	28.0818	0.134681	0.001840	73.2125	126.825	-167.465	-0.070632	0.698164	-1.003309	-1.004626	0.031424	73.2125	-1.003630	-2.538894E+13	-1.237692E-15	NaN
1056	1.000000	0.757500	7.37538e+06	-52939.1	1055.82	-29747.2	0.000000	0.000000	6.757047	0.035173	NaN	0.000000	0.001644	0.001737	28.0816	0.050609	0.002021	25.0415	133.496	12.1183	0.053608	0.756149	-0.945290	-0.946642	0.035173	25.0415	-0.946344	-4.292557E+12	-8.193874E-15	NaN
1056	1.000000	0.815518	7.37538e+06	-52939.1	1055.82	-29747.1	0.000000	0.000000	6.815066	0.082685	NaN	0.000000	0.001582	0.001712	28.0816	0.058718	0.002106	27.8861	-146.032	-166.355	0.066963	0.814228	-0.887273	-0.888563	0.082685	27.8861	-0.889497	-7.330153E+11	-1.128016E-13	NaN
1056	1.000000	0.873529	7.37538e+06	-52939.1	1055.82	-29747.1	0.000000	0.000000	6.873074	-0.011676	NaN	0.000000	0.001598	0.001746	28.0826	0.016409	0.001933	8.486597	-109.487	11.1201	-0.027267	0.872187	-0.829262	-0.830603	-0.011676	8.486597	-0.828230	-1.085903E+11	1.075254E-13	NaN
1056	1.000000	0.931580	7.37538e+06	-52939.1	1055.82	-29747.1	0.000000	0.000000	6.931127	0.036317	NaN	0.000000	0.001548	0.001753	28.0827	0.074404	0.001991	37.3788	-51.9323	-170.359	0.090686	0.930217	-0.771210	-0.772574	0.036317	37.3788	-0.771939	-1.869253E+10	-1.942851E-12	NaN
1056	1.000000	0.989557	7.37538e+06	-52939.1	1055.82	-29747.1	0.000000	0.000000	6.989105	0.081670	NaN	0.000000	0.001543	0.001747	28.0816	0.151017	0.001981	76.2344	-174.453	12.4069	0.113923	0.988240	-0.713234	-0.714551	0.081670	76.2344	-0.714038	-3.041898E+9	-2.684831E-11	NaN
1056	1.000000	1.047613	7.37538e+06	-52939.1	1055.82	-29747.1	0.000000	0.000000	7.047161	0.055298	NaN	0.000000	0.001548	0.001749	28.0814	0.090830	0.001933	46.9958	176.217	-164.185	0.103622	1.046318	-0.655178	-0.656472	0.055298	46.9958	-0.656060	-4.903363E+8	-1.127757E-10	NaN
1056	1.000000	1.105626	7.37538e+06	-52939.1	1055.82	-29747.1	0.000000	0.000000	7.105172	0.024529	NaN	0.000000	0.001501	0.001716	28.0828	0.066665	0.002095	31.8231	165.084	17.4144	-0.030569	1.104315	-0.597165	-0.598476	0.024529	31.8231	-0.597743	-7.751236E+7	-3.164488E-10	NaN
1056	1.000000	1.163662	7.37538e+06	-52939.1	1055.82	-29747.1	0.000000	0.000000	7.163210	0.064625	NaN	0.000000	0.001478	0.001749	28.0833	0.078169	0.001826	42.8094	-102.945	-167.535	0.050383	1.162392	-0.539129	-0.540399	0.064625	42.8094	-0.540261	-1.244453E+7	-5.193038E-9	NaN
1056	1.000000	1.221657	7.37538e+06	-52939.1	1055.82	-29747.1	0.000000	0.000000	7.221206	0.080346	NaN	0.000000	0.001563	0.001767	28.0826	0.093613	0.002039	45.916	-108.368	14.7333	0.058629	1.220378	-0.481134	-0.482413	0.080346	45.916	-0.482446	-1.94878e+06	-4.122874E-8	NaN
1056	1.000000	1.279732	7.37538e+06	-52939.1	1055.82	-29747.1	0.000000	0.000000	7.279281	0.095383	NaN	0.000000	0.001527	0.001763	28.0824	0.079791	0.001951	40.8898	-176.367	-164.202	0.128501	1.278409	-0.423059	-0.424382	0.095383	40.8898	-0.424808	-300998	-3.168889E-7	NaN
1056	1.000000	1.337739	7.37538e+06	-52939.1	1055.82	-29747.1	0.000000	0.000000	7.337284	-0.004617	NaN	0.000000	0.001528	0.001720	28.0812	0.120901	0.002050	58.963	23.7194	16.2514	0.046266	1.336381	-0.365052	-0.366409	-0.004617	58.963	-0.364993	-42068.2	1.097444E-7	NaN
1056	1.000000	1.395770	7.37538e+06	-52939.1	1055.82	-29747.1	0.000000	0.000000	7.395316	0.024977	NaN	0.000000	0.001514	0.001763	28.0827	0.065108	0.002064	31.5388	6.716357	-166.641	0.028517	1.394481	-0.307021	-0.308310	0.024977	31.5388	-0.307615	-6105.76	-4.090786E-6	NaN
1056	1.000000	1.453781	7.37538e+06	-52939.1	1055.82	-29747.1	0.000000	0.000000	7.453330	0.100032	NaN	0.000000	0.001522	0.001771	28.0834	0.062382	0.002033	30.6867	-40.0721	16.2519	0.135208	1.452442	-0.249010	-0.250349	0.100032	30.6867	-0.251455	-865.859	-0.000116	NaN
1056	1.000000	1.511795	7.37538e+06	-52939.1	1055.82	-29747.1	0.000000	0.000000	7.511343	0.060201	NaN	0.000000	0.001564	0.001783	28.082	0.126237	0.002006	62.9292	157.535	-166.129	-0.007810	1.510469	-0.190996	-0.192322	0.060201	62.9292	-0.191713	-96.0737	-0.000627	NaN
1056	1.000000	1.569805	7.37538e+06	-52939.1	1055.82	-29747.1	0.000000	0.000000	7.569352	0.051957	NaN	0.000000	0.001546	0.001731	28.0816	0.008498	0.002082	4.081331	-134.953	13.7396	0.062006	1.568506	-0.132986	-0.134285	0.051957	4.081331	-0.142534	-13.1939	-0.003938	NaN
1056	1.000000	1.627886	7.37538e+06	-52939.1	1055.82	-29747.1	0.000000	0.000000	7.627436	0.138533	NaN	0.000000	0.001534	0.001743	28.0816	0.008784	0.001981	4.433292	76.6781	-165.033	0.145696	1.626569	-0.074905	-0.076222	0.138533	4.433292	-0.098341	-1.678202	-0.082548	NaN
1056	1.000000	1.685906	7.37538e+06	-52939.1	1055.82	-29747.1	0.000000	0.000000	7.685451	-0.019371	NaN	0.000000	0.001602	0.001762	28.0827	0.071023	0.002051	34.6283	157.68	16.7177	-0.029796	1.684576	-0.016885	-0.018215	-0.019371	34.6283	-0.016465	-0.010172	1.904342	NaN
1056	2.000000	1.721335	7.37538e+06	-52939.1	1055.82	-29747.1	0.000000	0.000000	7.721624	18.0844	NaN	0.000000	0.001628	0.001744	28.0829	15.5519	0.001772	8778.33	9.216122	-179.688	17.3272	1.720982	0.018544	0.018191	18.0844	8778.33	0.016999	0.018044	1002.21	59705.3
1056	2.000000	1.735820	7.37538e+06	-52939.1	1055.82	-29747.1	0.000000	0.000000	7.737096	42.0783	NaN	0.000000	0.001592	0.001738	28.0815	28.4138	0.001927	14747.5	6.121002	1.120768	42.1914	1.735483	0.033029	0.032693	42.0783	14747.5	0.030889	0.042607	987.597	65275.7
1056	2.000000	1.750227	7.37538e+06	-52939.1	1055.82	-29747.1	0.000000	0.000000	7.753316	86.1616	NaN	0.000000	0.001506	0.001763	28.0814	40.8651	0.001813	22538.7	6.747872	174.704	83.9887	1.749941	0.047436	0.047150	86.1616	22538.7	0.044569	0.076369	1128.22	74515
1056	2.000000	1.764797	7.37538e+06	-52939.1	1055.82	-29747.1	0.000000	0.000000	7.770183	142.02	NaN	0.000000	0.001496	0.001692	28.0813	53.5185	0.001863	28723.3	6.062957	-4.668761	143.307	1.764317	0.062006	0.061526	142.02	28723.3	0.058298	0.119775	1185.72	75827
1056	2.000000	1.779219	7.37538e+06	-52939.1	1055.82	-29747.1	0.000000	0.000000	7.787548	213.565	NaN	0.000000	0.001584	0.001677	28.0825	66.1884	0.001731	38239.3	2.734578	175.378	213.372	1.778940	0.076428	0.076149	213.565	38239.3	0.072240	0.173318	1232.22	83919.1
1056	2.000000	1.793831	7.37538e+06	-52939.1	1055.82	-29747.1	0.000000	0.000000	7.805359	291.343	NaN	0.000000	0.001601	0.001751	28.0822	79.2759	0.001852	42816.6	8.854352	-10.6099	296.967	1.793252	0.091040	0.090461	291.343	42816.6	0.085937	0.234890	1240.34	80714.8
1056	2.000000	1.808092	7.37538e+06	-52939.1	1055.82	-29747.1	0.000000	0.000000	7.823799	392.945	NaN	0.000000	0.001544	0.001711	28.0821	90.0552	0.001771	50861.4	2.428879	173.715	387.652	1.807782	0.105302	0.104991	392.945	50861.4	0.099507	0.304436	1290.73	84219.7
1056	2.000000	1.812197	7.37538e+06	-52939.1	1055.82	-29747.1	0.000000	0.000000	7.828883	416.765	NaN	0.000000	0.001592	0.001746	28.0812	95.5727	0.001816	52633.4	7.146557	169.353	415.95	1.811899	0.109406	0.109109	416.765	52633.4	0.103467	0.326313	1277.19	84181.7