File: remote_trans/data/nanoindenter/0828-1/data/Data_2025-08-06,11h17m57s/2025-07-22_16-23-58_1_1076.txt
2025-07-22, 16:23:58, 1
Index	Phase	Displacement	Time	Pos X	Pos Y	Pos Z	Rot A	Rot B	Piezo Z	Force A	Force B	Gripper	Voltage A	Voltage B	Temperature	Amplitude force	Amplitude pos	Stiffness	Phase shift	Phase excitation	Force A raw	Displacement raw	HMax	HMax raw	Real Force	Real Stiffness	Contact Depth	Area	Hardness	Reduced Mod.
[#]	[#]	[um]	[s]	[um]	[um]	[um]	[m°]	[m°]	[um]	[uN]	[uN]	[V]	[V]	[V]	[°C]	[uN]	[um]	[N/m]	[°]	[°]	[uN]	[um]	[um]	[um]	[uN]	[N/m]	[um]	[um^2]	[MPa]	[MPa]
1076	1.000000	0.002071	7.37558e+06	-53939.1	1055.82	-29744.8	0.000000	0.000000	6.002788	0.013623	NaN	0.000000	0.001553	0.001681	28.0838	0.131462	0.000855	153.673	154.004	-166.229	0.047498	0.000865	-1.047939	-1.049145	0.013623	153.673	-1.048006	-1.003703E+14	-1.357288E-16	NaN
1076	1.000000	0.042051	7.37558e+06	-53939.1	1055.82	-29744.8	0.000000	0.000000	6.042766	-0.038786	NaN	0.000000	0.001559	0.001642	28.0835	0.118574	0.002011	58.9483	-123.076	-163.359	-0.002524	0.040760	-1.007959	-1.009250	-0.038786	58.9483	-1.007465	-2.859355E+13	1.356469E-15	NaN
1076	1.000000	0.082035	7.37558e+06	-53939.1	1055.82	-29744.8	0.000000	0.000000	6.082753	0.033840	NaN	0.000000	0.001554	0.001692	28.0833	0.028618	0.001956	14.6293	-119.847	-167.099	-0.023155	0.080719	-0.967975	-0.969291	0.033840	14.6293	-0.969710	-8.866587E+12	-3.816574E-15	NaN
1076	1.000000	0.122076	7.37558e+06	-53939.1	1055.82	-29744.8	0.000000	0.000000	6.122792	-0.015374	NaN	0.000000	0.001641	0.001678	28.0831	0.021466	0.002005	10.7046	155.841	-165.046	-0.009805	0.120737	-0.927934	-0.929274	-0.015374	10.7046	-0.926857	-2.343012E+12	6.561474E-15	NaN
1076	1.000000	0.162060	7.37558e+06	-53939.1	1055.82	-29744.8	0.000000	0.000000	6.162778	0.032363	NaN	0.000000	0.001590	0.001641	28.082	0.012593	0.002046	6.156369	-176.089	-163.807	-0.004001	0.160730	-0.887950	-0.889281	0.032363	6.156369	-0.891893	-7.897733E+11	-4.097774E-14	NaN
1076	1.000000	0.202099	7.37558e+06	-53939.1	1055.82	-29744.8	0.000000	0.000000	6.202815	-0.007406	NaN	0.000000	0.001577	0.001684	28.0822	0.075118	0.001942	38.6759	-86.2999	-167.286	-0.053746	0.200793	-0.847912	-0.849217	-0.007406	38.6759	-0.847768	-1.997625E+11	3.707170E-14	NaN
1076	1.000000	0.242123	7.37558e+06	-53939.1	1055.82	-29744.8	0.000000	0.000000	6.242839	-0.007453	NaN	0.000000	0.001524	0.001689	28.0824	0.051148	0.002010	25.4446	-103.406	-164.674	-0.045524	0.240837	-0.807887	-0.809173	-0.007453	25.4446	-0.807667	-5.713751E+10	1.304446E-13	NaN
1076	1.000000	0.282139	7.37558e+06	-53939.1	1055.82	-29744.8	0.000000	0.000000	6.282856	0.011352	NaN	0.000000	0.001573	0.001664	28.0838	0.029501	0.001980	14.9006	-62.4475	-165.424	0.013410	0.280854	-0.767871	-0.769156	0.011352	14.9006	-0.768443	-1.675448E+10	-6.775751E-13	NaN
1076	1.000000	0.322141	7.37558e+06	-53939.1	1055.82	-29744.8	0.000000	0.000000	6.322859	0.042611	NaN	0.000000	0.001540	0.001627	28.0839	0.113176	0.002035	55.6138	-126.51	-164.315	-0.001445	0.320856	-0.727870	-0.729154	0.042611	55.6138	-0.728444	-4.781932E+9	-8.910805E-12	NaN
1076	1.000000	0.362132	7.37558e+06	-53939.1	1055.82	-29744.8	0.000000	0.000000	6.362849	0.022906	NaN	0.000000	0.001510	0.001630	28.084	0.025266	0.002120	11.9161	128.812	-167.243	-0.018196	0.360903	-0.687878	-0.689108	0.022906	11.9161	-0.689320	-1.398378E+9	-1.638076E-11	NaN
1076	1.000000	0.402194	7.37558e+06	-53939.1	1055.82	-29744.8	0.000000	0.000000	6.402909	-0.040614	NaN	0.000000	0.001556	0.001641	28.0829	0.007857	0.002010	3.908148	-38.4725	-164.215	-0.080167	0.400853	-0.647816	-0.649158	-0.040614	3.908148	-0.640022	-2.955218E+8	1.374316E-10	NaN
1076	1.000000	0.442192	7.37558e+06	-53939.1	1055.82	-29744.8	0.000000	0.000000	6.442905	-0.072453	NaN	0.000000	0.001627	0.001681	28.0826	0.050378	0.002091	24.094	-100.774	-166.112	-0.057388	0.440892	-0.607819	-0.609119	-0.072453	24.094	-0.605563	-9.932534E+7	7.294523E-10	NaN
1076	1.000000	0.482221	7.37558e+06	-53939.1	1055.82	-29744.8	0.000000	0.000000	6.482938	0.022464	NaN	0.000000	0.001640	0.001593	28.0829	0.127126	0.002012	63.1937	-178.82	-167.568	-0.051104	0.480944	-0.567790	-0.569066	0.022464	63.1937	-0.568056	-3.018365E+7	-7.442332E-10	NaN
1076	1.000000	0.522232	7.37558e+06	-53939.1	1055.82	-29744.8	0.000000	0.000000	6.522947	-0.040033	NaN	0.000000	0.001556	0.001590	28.0831	0.061572	0.002082	29.5758	-24.1787	-166.172	0.038730	0.520957	-0.527778	-0.529054	-0.040033	29.5758	-0.526763	-8.08371e+06	4.952247E-9	NaN
1076	1.000000	0.562238	7.37558e+06	-53939.1	1055.82	-29744.8	0.000000	0.000000	6.562955	0.022885	NaN	0.000000	0.001594	0.001610	28.0843	0.163263	0.002051	79.6082	-136.27	-165.136	0.051583	0.560959	-0.487773	-0.489051	0.022885	79.6082	-0.487988	-2.32957e+06	-9.823807E-9	NaN
1076	1.000000	0.602275	7.37558e+06	-53939.1	1055.82	-29744.8	0.000000	0.000000	6.602989	-0.043694	NaN	0.000000	0.001544	0.001587	28.084	0.149849	0.001971	76.023	115.671	-165.188	-0.061374	0.600958	-0.447735	-0.449053	-0.043694	76.023	-0.447304	-625707	6.983179E-8	NaN
1076	1.000000	0.642309	7.37558e+06	-53939.1	1055.82	-29744.8	0.000000	0.000000	6.643024	-0.034094	NaN	0.000000	0.001554	0.001630	28.0838	0.013696	0.001894	7.230945	-179.995	-167.463	-0.009604	0.640925	-0.407701	-0.409086	-0.034094	7.230945	-0.404165	-153233	2.224998E-7	NaN
1076	1.000000	0.682284	7.37558e+06	-53939.1	1055.82	-29744.8	0.000000	0.000000	6.682999	-0.036998	NaN	0.000000	0.001571	0.001578	28.0829	0.118140	0.001921	61.4984	-21.7027	-162.412	-0.015896	0.681019	-0.367726	-0.368992	-0.036998	61.4984	-0.367275	-45380.2	8.152878E-7	NaN
1076	1.000000	0.722304	7.37558e+06	-53939.1	1055.82	-29744.9	0.000000	0.000000	6.723019	-0.035742	NaN	0.000000	0.001544	0.001612	28.0829	0.020311	0.002059	9.866245	12.5646	-165.141	0.020129	0.721026	-0.327706	-0.328985	-0.035742	9.866245	-0.324989	-11014.8	3.244939E-6	NaN
1076	1.000000	0.762351	7.37558e+06	-53939.1	1055.82	-29744.8	0.000000	0.000000	6.763065	-0.052803	NaN	0.000000	0.001580	0.001593	28.0826	0.024979	0.001920	13.0087	56.6218	-163.281	-0.044621	0.760998	-0.287659	-0.289013	-0.052803	13.0087	-0.284615	-2769.99	1.906254E-5	NaN
1076	1.000000	0.802321	7.37558e+06	-53939.1	1055.82	-29744.9	0.000000	0.000000	6.803039	0.030398	NaN	0.000000	0.001601	0.001603	28.0829	0.012933	0.001827	7.080647	2.113398	-166.814	0.022801	0.801038	-0.247689	-0.248973	0.030398	7.080647	-0.250909	-849.215	-3.579531E-5	NaN
1076	1.000000	0.842373	7.37558e+06	-53939.1	1055.82	-29744.9	0.000000	0.000000	6.843089	-0.018018	NaN	0.000000	0.001575	0.001617	28.0842	0.095276	0.002032	46.8853	133.467	-165.757	-0.000522	0.841069	-0.207637	-0.208941	-0.018018	46.8853	-0.207349	-173.703	0.000104	NaN
1076	1.000000	0.882389	7.37558e+06	-53939.1	1055.82	-29744.9	0.000000	0.000000	6.883109	0.102489	NaN	0.000000	0.001573	0.001586	28.0843	0.098994	0.001895	52.2452	9.846356	-163.238	0.070516	0.881061	-0.167622	-0.168949	0.102489	52.2452	-0.169093	-39.6139	-0.002587	NaN
1076	1.000000	0.922432	7.37558e+06	-53939.1	1055.82	-29744.9	0.000000	0.000000	6.923152	0.082244	NaN	0.000000	0.001604	0.001567	28.0841	0.094195	0.002070	45.496	77.3382	-166.301	0.093960	0.921129	-0.127578	-0.128881	0.082244	45.496	-0.128934	-7.265420	-0.011320	NaN
1076	1.000000	0.962407	7.37558e+06	-53939.1	1055.82	-29744.9	0.000000	0.000000	6.963123	0.008595	NaN	0.000000	0.001641	0.001583	28.0829	0.122856	0.001962	62.6132	-103.51	-162.663	-0.079379	0.961142	-0.087604	-0.088868	0.008595	62.6132	-0.087707	-0.954174	-0.009008	NaN
1076	1.000000	1.002444	7.37558e+06	-53939.1	1055.82	-29744.9	0.000000	0.000000	7.003158	-0.040464	NaN	0.000000	0.001606	0.001584	28.0828	0.024608	0.002022	12.1719	-150.54	-164.877	-0.014135	1.001118	-0.047567	-0.048892	-0.040464	12.1719	-0.045073	-0.064601	0.626362	NaN
1076	1.000000	1.042448	7.37558e+06	-53939.1	1055.82	-29744.9	0.000000	0.000000	7.043163	-0.035070	NaN	0.000000	0.001566	0.001631	28.0823	0.044584	0.002080	21.4297	131.849	-164.085	-0.037157	1.041159	-0.007562	-0.008852	-0.035070	21.4297	-0.006335	-0.004240	8.271184	NaN
1076	2.000000	1.064986	7.37558e+06	-53939.1	1055.82	-29744.9	0.000000	0.000000	7.066412	17.2601	NaN	0.000000	0.001563	0.001575	28.0836	15.2972	0.001912	8002.09	10.9537	-176.424	16.6898	1.064730	0.014975	0.014719	17.2601	8002.09	0.013357	0.013157	1311.86	63738.2
1076	2.000000	1.074939	7.37558e+06	-53939.1	1055.82	-29744.9	0.000000	0.000000	7.077129	35.8415	NaN	0.000000	0.001608	0.001574	28.0837	24.822	0.001687	14712.8	8.568002	178.905	34.1237	1.074611	0.024928	0.024601	35.8415	14712.8	0.023101	0.027651	1296.19	80837
1076	2.000000	1.084947	7.37558e+06	-53939.1	1055.82	-29744.9	0.000000	0.000000	7.088241	62.6652	NaN	0.000000	0.001596	0.001581	28.0841	34.181	0.001802	18970.9	6.759956	178.467	62.2521	1.084626	0.034937	0.034615	62.6652	18970.9	0.032459	0.045996	1362.42	80817.3
1076	2.000000	1.094904	7.37558e+06	-53939.1	1055.82	-29744.9	0.000000	0.000000	7.099675	98.5741	NaN	0.000000	0.001556	0.001580	28.0838	45.0539	0.001742	25863.1	8.827619	174.255	97.4043	1.094598	0.044894	0.044588	98.5741	25863.1	0.042035	0.069395	1420.49	89699.7
1076	2.000000	1.104847	7.37558e+06	-53939.1	1055.82	-29744.9	0.000000	0.000000	7.111044	133.234	NaN	0.000000	0.001564	0.001592	28.0826	54.9045	0.001888	29084	6.421979	174.588	131.039	1.104667	0.054837	0.054657	133.234	29084	0.051401	0.096794	1376.48	85409.2
1076	2.000000	1.114821	7.37558e+06	-53939.1	1055.82	-29744.9	0.000000	0.000000	7.122936	179.877	NaN	0.000000	0.001574	0.001630	28.0827	63.003	0.001904	33082.6	4.935468	174.833	174.7	1.114551	0.064810	0.064541	179.877	33082.6	0.060733	0.128448	1400.38	84335.1
1076	2.000000	1.124858	7.37558e+06	-53939.1	1055.82	-29744.9	0.000000	0.000000	7.135263	235.557	NaN	0.000000	0.001599	0.001577	28.0824	71.9609	0.001678	42878.1	2.057229	176.826	232.715	1.124424	0.074848	0.074413	235.557	42878.1	0.070728	0.167060	1410.02	95845.7
1076	2.000000	1.134835	7.37558e+06	-53939.1	1055.82	-29744.9	0.000000	0.000000	7.147671	294.656	NaN	0.000000	0.001553	0.001563	28.0838	82.3135	0.001727	47662.6	7.233057	170.664	291.778	1.134545	0.084824	0.084534	294.656	47662.6	0.080188	0.207982	1416.74	95485.6
1076	2.000000	1.144884	7.37558e+06	-53939.1	1055.82	-29744.9	0.000000	0.000000	7.160646	365.78	NaN	0.000000	0.001591	0.001621	28.0838	93.0808	0.001773	52495.8	4.732332	171.824	365.985	1.144675	0.094873	0.094665	365.78	52495.8	0.089648	0.253070	1445.37	95340.5
1076	2.000000	1.154750	7.37558e+06	-53939.1	1055.82	-29744.9	0.000000	0.000000	7.173578	440.333	NaN	0.000000	0.001617	0.001581	28.0839	101.199	0.001727	58602.3	2.056056	173.906	436.278	1.154538	0.104739	0.104528	440.333	58602.3	0.099104	0.302246	1456.87	97388.4
1076	2.000000	1.157854	7.37558e+06	-53939.1	1055.82	-29744.9	0.000000	0.000000	7.177742	466.096	NaN	0.000000	0.001593	0.001604	28.0841	105.952	0.001857	57067.8	6.090146	169.971	465.604	1.157613	0.107844	0.107602	466.096	57067.8	0.101718	0.316561	1472.37	92669.2