File: remote_trans/data/nanoindenter/0828-1/data/Data_2025-08-06,11h17m57s/2025-07-22_16-23-58_1_160.txt
2025-07-22, 16:23:58, 1
Index	Phase	Displacement	Time	Pos X	Pos Y	Pos Z	Rot A	Rot B	Piezo Z	Force A	Force B	Gripper	Voltage A	Voltage B	Temperature	Amplitude force	Amplitude pos	Stiffness	Phase shift	Phase excitation	Force A raw	Displacement raw	HMax	HMax raw	Real Force	Real Stiffness	Contact Depth	Area	Hardness	Reduced Mod.
[#]	[#]	[um]	[s]	[um]	[um]	[um]	[m°]	[m°]	[um]	[uN]	[uN]	[V]	[V]	[V]	[°C]	[uN]	[um]	[N/m]	[°]	[°]	[uN]	[um]	[um]	[um]	[uN]	[N/m]	[um]	[um^2]	[MPa]	[MPa]
160	1.000000	0.002715	7.3666e+06	-46639.1	955.82	-29769	0.000000	0.000000	6.002784	-0.001834	NaN	0.000000	0.001592	0.001663	28.1269	0.018649	0.001004	18.5836	20.1623	-165.624	-0.067077	0.001468	-1.099622	-1.100869	-0.001834	18.5836	-1.099548	-4.943160E+14	3.709908E-18	NaN
160	1.000000	0.044673	7.3666e+06	-46639.1	955.819	-29769	0.000000	0.000000	6.044740	-0.040441	NaN	0.000000	0.001596	0.001703	28.0832	0.093909	0.001989	47.2109	-87.7585	15.5988	-0.041687	0.043304	-1.057664	-1.059033	-0.040441	47.2109	-1.057022	-1.326770E+14	3.048113E-16	NaN
160	1.000000	0.086665	7.3666e+06	-46639.1	955.818	-29769	0.000000	0.000000	6.086733	-0.020070	NaN	0.000000	0.001621	0.001679	28.0788	0.042752	0.001973	21.6656	-66.0376	-163.743	0.017624	0.085391	-1.015672	-1.016946	-0.020070	21.6656	-1.014977	-3.608839E+13	5.561474E-16	NaN
160	1.000000	0.128706	7.3666e+06	-46639.1	955.818	-29769	0.000000	0.000000	6.128774	-0.042924	NaN	0.000000	0.001588	0.001682	28.1085	0.026980	0.002069	13.0398	-72.7666	11.7475	-0.031681	0.127338	-0.973631	-0.974999	-0.042924	13.0398	-0.971162	-9.275274E+12	4.627776E-15	NaN
160	1.000000	0.170731	7.3666e+06	-46639.1	955.818	-29769	0.000000	0.000000	6.170799	-0.016374	NaN	0.000000	0.001589	0.001746	28.1269	0.090865	0.001988	45.7073	102.732	-159.353	-0.028298	0.169405	-0.931606	-0.932932	-0.016374	45.7073	-0.931338	-2.693097E+12	6.080072E-15	NaN
160	1.000000	0.212761	7.36661e+06	-46639.1	955.818	-29769	0.000000	0.000000	6.212831	0.023676	NaN	0.000000	0.001560	0.001701	28.0856	0.073899	0.002039	36.2513	-177.786	18.5917	0.014950	0.211402	-0.889576	-0.890935	0.023676	36.2513	-0.890066	-7.461192E+11	-3.173168E-14	NaN
160	1.000000	0.254735	7.36661e+06	-46639.1	955.817	-29769	0.000000	0.000000	6.254804	-0.013694	NaN	0.000000	0.001584	0.001694	28.0814	0.013309	0.001985	6.703139	72.3305	-163.233	-0.023060	0.253480	-0.847602	-0.848857	-0.013694	6.703139	-0.846070	-1.894563E+11	7.228167E-14	NaN
160	1.000000	0.296803	7.36661e+06	-46639.1	955.818	-29769	0.000000	0.000000	6.296873	0.008242	NaN	0.000000	0.001565	0.001730	28.1077	0.068774	0.001849	37.1932	-40.3295	16.341	0.070913	0.295464	-0.805534	-0.806873	0.008242	37.1932	-0.805700	-5.373154E+10	-1.533832E-13	NaN
160	1.000000	0.338794	7.36661e+06	-46639.1	955.817	-29769	0.000000	0.000000	6.338863	-0.008705	NaN	0.000000	0.001611	0.001704	28.1261	0.086622	0.001854	46.7161	35.9368	-165.313	0.008284	0.337485	-0.763543	-0.764852	-0.008705	46.7161	-0.763403	-1.430841E+10	6.083844E-13	NaN
160	1.000000	0.380819	7.36661e+06	-46639.1	955.818	-29769	0.000000	0.000000	6.380884	-0.091105	NaN	0.000000	0.001566	0.001774	28.0855	0.136470	0.001976	69.0612	-140.729	16.4305	-0.076527	0.379459	-0.721518	-0.722878	-0.091105	69.0612	-0.720529	-3.729809E+9	2.442629E-11	NaN
160	1.000000	0.422847	7.36661e+06	-46639.1	955.819	-29769	0.000000	0.000000	6.422918	0.026990	NaN	0.000000	0.001564	0.001766	28.0799	0.126143	0.002013	62.6635	-175.047	-166.953	0.004979	0.421554	-0.679490	-0.680783	0.026990	62.6635	-0.679813	-1.036675E+9	-2.603489E-11	NaN
160	1.000000	0.464855	7.36661e+06	-46639.1	955.818	-29769	0.000000	0.000000	6.464925	0.012972	NaN	0.000000	0.001557	0.001750	28.109	0.052517	0.001993	26.3566	-87.1851	13.9562	0.035544	0.463489	-0.637482	-0.638848	0.012972	26.3566	-0.637851	-2.759326E+8	-4.701303E-11	NaN
160	1.000000	0.506864	7.36661e+06	-46639.1	955.818	-29769	0.000000	0.000000	6.506931	-0.052968	NaN	0.000000	0.001586	0.001732	28.1267	0.108875	0.001986	54.8286	-32.9974	-165.96	-0.031594	0.505544	-0.595473	-0.596793	-0.052968	54.8286	-0.594749	-7.048864E+7	7.514434E-10	NaN
160	1.000000	0.548913	7.36661e+06	-46639.1	955.818	-29769	0.000000	0.000000	6.548980	-0.046529	NaN	0.000000	0.001569	0.001753	28.0889	0.052355	0.002150	24.3541	6.379628	14.891	-0.007855	0.547525	-0.553424	-0.554812	-0.046529	24.3541	-0.551992	-1.809412E+7	2.571492E-9	NaN
160	1.000000	0.590919	7.36661e+06	-46639.1	955.817	-29769	0.000000	0.000000	6.590990	0.024953	NaN	0.000000	0.001590	0.001755	28.0787	0.037169	0.001984	18.7364	-119.429	-166.469	0.014835	0.589570	-0.511418	-0.512767	0.024953	18.7364	-0.512417	-5.10586e+06	-4.887164E-9	NaN
160	1.000000	0.632966	7.36661e+06	-46639.1	955.819	-29769	0.000000	0.000000	6.633034	-0.043267	NaN	0.000000	0.001598	0.001735	28.108	0.044631	0.001981	22.5312	85.2771	14.7033	-0.100662	0.631582	-0.469371	-0.470755	-0.043267	22.5312	-0.467931	-1.22005e+06	3.546344E-8	NaN
160	1.000000	0.674931	7.36661e+06	-46639.1	955.819	-29769	0.000000	0.000000	6.674999	-0.022627	NaN	0.000000	0.001559	0.001704	28.126	0.106739	0.001860	57.3996	90.3022	-164.243	-0.068562	0.673648	-0.427406	-0.428689	-0.022627	57.3996	-0.427111	-324466	6.973488E-8	NaN
160	1.000000	0.716987	7.36661e+06	-46639.1	955.817	-29769	0.000000	0.000000	6.717054	-0.066222	NaN	0.000000	0.001598	0.001692	28.0897	0.045934	0.002094	21.9396	91.599	15.0293	-0.081333	0.715636	-0.385350	-0.386701	-0.066222	21.9396	-0.383086	-76587.1	8.646623E-7	NaN
160	1.000000	0.758953	7.36661e+06	-46639.1	955.818	-29769	0.000000	0.000000	6.759022	-0.017464	NaN	0.000000	0.001594	0.001697	28.0783	0.057117	0.001963	29.1005	-52.6491	-161.672	-0.043032	0.757637	-0.343384	-0.344700	-0.017464	29.1005	-0.342934	-20150.9	8.666444E-7	NaN
160	1.000000	0.800999	7.36661e+06	-46639.1	955.818	-29769	0.000000	0.000000	6.801065	-0.081827	NaN	0.000000	0.001527	0.001692	28.1073	0.088054	0.002023	43.5213	-19.4764	13.5175	-0.125388	0.799599	-0.301338	-0.302738	-0.081827	43.5213	-0.299928	-4694.22	1.743134E-5	NaN
160	1.000000	0.843001	7.36661e+06	-46639.1	955.818	-29769	0.000000	0.000000	6.843069	-0.035056	NaN	0.000000	0.001597	0.001697	28.1275	0.157881	0.002062	76.5544	-160.188	-163.19	-0.033664	0.841692	-0.259336	-0.260645	-0.035056	76.5544	-0.258992	-1131.01	3.099512E-5	NaN
160	1.000000	0.885048	7.36661e+06	-46639.1	955.819	-29769	0.000000	0.000000	6.885114	-0.083537	NaN	0.000000	0.001560	0.001723	28.0885	0.015039	0.001989	7.561493	-123.681	14.165	0.068028	0.883707	-0.217289	-0.218630	-0.083537	7.561493	-0.209003	-184.783	0.000452	NaN
160	1.000000	0.927049	7.36661e+06	-46639.1	955.818	-29769	0.000000	0.000000	6.927117	-0.030213	NaN	0.000000	0.001596	0.001707	28.0784	0.101350	0.001947	52.0495	68.4295	-165.661	-0.065413	0.925731	-0.175289	-0.176606	-0.030213	52.0495	-0.174853	-49.826	0.000606	NaN
160	1.000000	0.969072	7.36661e+06	-46639.1	955.817	-29769	0.000000	0.000000	6.969139	-0.056303	NaN	0.000000	0.001539	0.001663	28.1048	0.049028	0.001956	25.0634	112.052	15.1708	-0.065863	0.967707	-0.133265	-0.134630	-0.056303	25.0634	-0.131581	-8.177662	0.006885	NaN
160	1.000000	1.011085	7.36661e+06	-46639.1	955.817	-29769	0.000000	0.000000	7.011155	0.007956	NaN	0.000000	0.001541	0.001682	28.1278	0.089229	0.001879	47.4757	-18.553	-164.136	-0.009670	1.009775	-0.091252	-0.092562	0.007956	47.4757	-0.091377	-1.164128	-0.006834	NaN
160	1.000000	1.053093	7.36661e+06	-46639.1	955.818	-29769	0.000000	0.000000	7.053160	-0.054628	NaN	0.000000	0.001557	0.001696	28.0908	0.056837	0.002016	28.1879	57.4265	12.5032	-0.040841	1.051723	-0.049244	-0.050614	-0.054628	28.1879	-0.047790	-0.078193	0.698623	NaN
160	1.000000	1.095103	7.36661e+06	-46639.1	955.818	-29769	0.000000	0.000000	7.095171	-0.043544	NaN	0.000000	0.001530	0.001721	28.0796	0.129794	0.002058	63.0687	-133.197	-170.63	-0.033504	1.093843	-0.007234	-0.008494	-0.043544	63.0687	-0.006716	-0.004470	9.740856	NaN
160	2.000000	1.117182	7.36661e+06	-46639.1	955.818	-29769	0.000000	0.000000	7.118001	18.2336	NaN	0.000000	0.001587	0.001647	28.1048	15.1023	0.001870	8077.86	10.7161	1.570538	17.4818	1.116871	0.014845	0.014534	18.2336	8077.86	0.013152	0.012900	1413.48	64979.6
160	2.000000	1.127677	7.36661e+06	-46639.1	955.818	-29769	0.000000	0.000000	7.129330	38.5228	NaN	0.000000	0.001638	0.001644	28.127	24.4028	0.001820	13406.8	3.761435	-175.178	37.932	1.127386	0.025340	0.025049	38.5228	13406.8	0.023185	0.027797	1385.88	73468.8
160	2.000000	1.138191	7.36661e+06	-46639.1	955.821	-29769	0.000000	0.000000	7.141220	72.0091	NaN	0.000000	0.001636	0.001689	28.0898	33.7828	0.001782	18954.6	6.122400	0.219176	74.0501	1.137760	0.035854	0.035423	72.0091	18954.6	0.033004	0.047201	1525.58	79709.7
160	2.000000	1.148605	7.36661e+06	-46639.1	955.82	-29769	0.000000	0.000000	7.153254	111.381	NaN	0.000000	0.001619	0.001669	28.0804	43.0939	0.001804	23886.3	4.803534	178.145	109.01	1.148289	0.046268	0.045952	111.381	23886.3	0.042771	0.071386	1560.27	81680.2
160	2.000000	1.159053	7.36661e+06	-46639.1	955.819	-29769	0.000000	0.000000	7.165771	161.74	NaN	0.000000	0.001629	0.001684	28.1045	52.7982	0.001669	31626.4	2.404572	-2.024011	156.659	1.158757	0.056716	0.056420	161.74	31626.4	0.052880	0.101522	1593.15	90686.4
160	2.000000	1.169559	7.36661e+06	-46639.1	955.818	-29769	0.000000	0.000000	7.178689	220.401	NaN	0.000000	0.001623	0.001666	28.1294	63.0753	0.001842	34247.6	3.747926	177.235	216.015	1.169249	0.067222	0.066912	220.401	34247.6	0.062395	0.134538	1638.21	85306.5
160	2.000000	1.180145	7.36661e+06	-46639.1	955.819	-29769	0.000000	0.000000	7.192068	288.341	NaN	0.000000	0.001639	0.001658	28.0886	74.6614	0.001902	39255.6	5.813737	-6.562514	289.229	1.179711	0.077808	0.077374	288.341	39255.6	0.072299	0.173566	1661.27	86088
160	2.000000	1.190502	7.36661e+06	-46639.1	955.819	-29769	0.000000	0.000000	7.205728	368.674	NaN	0.000000	0.001616	0.001691	28.0788	82.011	0.001739	47168.5	2.223809	175.211	361.837	1.190243	0.088165	0.087906	368.674	47168.5	0.082303	0.217704	1693.47	92361.8
160	2.000000	1.200996	7.36661e+06	-46639.1	955.819	-29769	0.000000	0.000000	7.219645	451.965	NaN	0.000000	0.001701	0.001683	28.1024	92.5419	0.001916	48309.5	6.450113	-8.689541	446.632	1.200678	0.098659	0.098341	451.965	48309.5	0.091642	0.263101	1717.84	86048.7
160	2.000000	1.208979	7.36661e+06	-46639.1	955.819	-29769	0.000000	0.000000	7.230561	523.298	NaN	0.000000	0.001711	0.001698	28.1022	97.2375	0.001768	54983.6	3.286922	-6.445287	516.225	1.208736	0.106642	0.106399	523.298	54983.6	0.099504	0.304417	1719.02	91048.4