File: remote_trans/data/nanoindenter/0828-1/data/Data_2025-08-06,11h17m57s/2025-07-22_16-23-58_1_632.txt
2025-07-22, 16:23:58, 1
Index	Phase	Displacement	Time	Pos X	Pos Y	Pos Z	Rot A	Rot B	Piezo Z	Force A	Force B	Gripper	Voltage A	Voltage B	Temperature	Amplitude force	Amplitude pos	Stiffness	Phase shift	Phase excitation	Force A raw	Displacement raw	HMax	HMax raw	Real Force	Real Stiffness	Contact Depth	Area	Hardness	Reduced Mod.
[#]	[#]	[um]	[s]	[um]	[um]	[um]	[m°]	[m°]	[um]	[uN]	[uN]	[V]	[V]	[V]	[°C]	[uN]	[um]	[N/m]	[°]	[°]	[uN]	[um]	[um]	[um]	[uN]	[N/m]	[um]	[um^2]	[MPa]	[MPa]
632	1.000000	0.002322	7.37123e+06	-45489.1	1005.82	-29772.3	0.000000	0.000000	6.002801	-0.059335	NaN	0.000000	0.001585	0.001746	28.0824	0.030296	0.000918	33.0145	-157.147	-170.243	-0.130432	0.001042	-1.077300	-1.078580	-0.059335	33.0145	-1.075952	-2.383158E+14	2.489754E-16	NaN
632	1.000000	0.042266	7.37123e+06	-45489.1	1005.82	-29772.3	0.000000	0.000000	6.042747	-0.024091	NaN	0.000000	0.001651	0.001691	28.0825	0.086589	0.002141	40.4424	154.105	-167.162	-0.010390	0.040953	-1.037356	-1.038669	-0.024091	40.4424	-1.036909	-7.118719E+13	3.384208E-16	NaN
632	1.000000	0.082252	7.37123e+06	-45489.1	1005.82	-29772.3	0.000000	0.000000	6.082733	-0.022324	NaN	0.000000	0.001602	0.001704	28.0824	0.032885	0.001959	16.7906	76.4977	-167.086	0.009400	0.081021	-0.997370	-0.998601	-0.022324	16.7906	-0.996373	-2.027375E+13	1.101111E-15	NaN
632	1.000000	0.122261	7.37123e+06	-45489.1	1005.82	-29772.3	0.000000	0.000000	6.122743	0.001131	NaN	0.000000	0.001623	0.001728	28.0836	0.034492	0.002099	16.4322	131.858	-168.356	-0.046574	0.120996	-0.957361	-0.958626	0.001131	16.4322	-0.957413	-6.053267E+12	-1.868093E-16	NaN
632	1.000000	0.162310	7.37123e+06	-45489.1	1005.82	-29772.3	0.000000	0.000000	6.162790	-0.052202	NaN	0.000000	0.001610	0.001703	28.0839	0.078304	0.001971	39.7315	29.1565	-166.73	-0.034770	0.160986	-0.917312	-0.918636	-0.052202	39.7315	-0.916327	-1.688918E+12	3.090828E-14	NaN
632	1.000000	0.202324	7.37123e+06	-45489.1	1005.82	-29772.3	0.000000	0.000000	6.202806	-0.023140	NaN	0.000000	0.001607	0.001707	28.0841	0.041251	0.002140	19.2794	34.9399	-168.108	-0.048383	0.201061	-0.877298	-0.878561	-0.023140	19.2794	-0.876397	-4.875104E+11	4.746554E-14	NaN
632	1.000000	0.242356	7.37123e+06	-45489.1	1005.82	-29772.3	0.000000	0.000000	6.242835	-0.074363	NaN	0.000000	0.001605	0.001743	28.0826	0.089275	0.001986	44.955	51.6215	-160.044	-0.022075	0.240978	-0.837266	-0.838644	-0.074363	44.955	-0.836025	-1.384955E+11	5.369354E-13	NaN
632	1.000000	0.282379	7.37123e+06	-45489.1	1005.82	-29772.3	0.000000	0.000000	6.282857	-0.088131	NaN	0.000000	0.001634	0.001731	28.0823	0.132893	0.002120	62.6976	-65.2725	-166.623	-0.000228	0.281000	-0.797243	-0.798622	-0.088131	62.6976	-0.796189	-3.991357E+10	2.208042E-12	NaN
632	1.000000	0.322402	7.37123e+06	-45489.1	1005.82	-29772.3	0.000000	0.000000	6.322882	-0.053185	NaN	0.000000	0.001636	0.001716	28.0826	0.062308	0.002021	30.8297	-36.8566	-163.329	-0.018920	0.321128	-0.757220	-0.758494	-0.053185	30.8297	-0.755926	-1.132063E+10	4.698054E-12	NaN
632	1.000000	0.362389	7.37123e+06	-45489.1	1005.82	-29772.3	0.000000	0.000000	6.362870	-0.025144	NaN	0.000000	0.001658	0.001763	28.0823	0.043116	0.001978	21.8015	-59.4267	-164.076	0.012035	0.361098	-0.717233	-0.718524	-0.025144	21.8015	-0.716368	-3.272905E+9	7.682608E-12	NaN
632	1.000000	0.402419	7.37123e+06	-45489.1	1005.82	-29772.3	0.000000	0.000000	6.402901	0.020570	NaN	0.000000	0.001584	0.001736	28.0836	0.058470	0.002033	28.766	-12.7678	-167.688	-0.038152	0.401098	-0.677203	-0.678524	0.020570	28.766	-0.677740	-9.711588E+8	-2.118109E-11	NaN
632	1.000000	0.442428	7.37124e+06	-45489.1	1005.82	-29772.3	0.000000	0.000000	6.442910	-0.003667	NaN	0.000000	0.001633	0.001782	28.0838	0.037184	0.002000	18.5912	152.565	-162.316	-0.089341	0.441115	-0.637194	-0.638508	-0.003667	18.5912	-0.637046	-2.690016E+8	1.363345E-11	NaN
632	1.000000	0.482461	7.37124e+06	-45489.1	1005.82	-29772.3	0.000000	0.000000	6.482941	-0.043205	NaN	0.000000	0.001635	0.001721	28.0837	0.047129	0.002028	23.2395	-63.5342	-166.239	-0.074218	0.481132	-0.597161	-0.598490	-0.043205	23.2395	-0.595766	-7.280191E+7	5.934619E-10	NaN
632	1.000000	0.522438	7.37124e+06	-45489.1	1005.82	-29772.3	0.000000	0.000000	6.522918	-0.042354	NaN	0.000000	0.001638	0.001764	28.0825	0.173600	0.001988	87.3211	100.863	-164.98	-0.080993	0.521153	-0.557184	-0.558469	-0.042354	87.3211	-0.556820	-2.110488E+7	2.006826E-9	NaN
632	1.000000	0.562496	7.37124e+06	-45489.1	1005.82	-29772.3	0.000000	0.000000	6.562976	-0.052341	NaN	0.000000	0.001627	0.001766	28.0825	0.027840	0.002018	13.7958	-57.0795	-166.845	0.006556	0.561194	-0.517126	-0.518428	-0.052341	13.7958	-0.514280	-5.4202e+06	9.656637E-9	NaN
632	1.000000	0.602523	7.37124e+06	-45489.1	1005.82	-29772.3	0.000000	0.000000	6.603002	-0.057701	NaN	0.000000	0.001598	0.001777	28.0827	0.089459	0.002082	42.9582	-77.8213	-160.902	-0.136031	0.601204	-0.477099	-0.478418	-0.057701	42.9582	-0.476092	-1.58782e+06	3.633957E-8	NaN
632	1.000000	0.642526	7.37124e+06	-45489.1	1005.82	-29772.3	0.000000	0.000000	6.643007	-0.014300	NaN	0.000000	0.001589	0.001770	28.0837	0.004632	0.002012	2.302527	41.9115	-161.772	-0.039909	0.641275	-0.437096	-0.438347	-0.014300	2.302527	-0.432438	-385964	3.704957E-8	NaN
632	1.000000	0.682511	7.37124e+06	-45489.1	1005.82	-29772.3	0.000000	0.000000	6.682989	-0.078370	NaN	0.000000	0.001597	0.001767	28.084	0.054816	0.001894	28.9484	114.675	-167.263	-0.092132	0.681247	-0.397111	-0.398375	-0.078370	28.9484	-0.395081	-113708	6.892195E-7	NaN
632	1.000000	0.722530	7.37124e+06	-45489.1	1005.82	-29772.3	0.000000	0.000000	6.723010	-0.051374	NaN	0.000000	0.001614	0.001764	28.0842	0.031802	0.001983	16.0392	74.8875	-167.95	-0.019398	0.721247	-0.357092	-0.358375	-0.051374	16.0392	-0.354690	-29854.3	1.720835E-6	NaN
632	1.000000	0.762618	7.37124e+06	-45489.1	1005.82	-29772.3	0.000000	0.000000	6.763097	-0.087153	NaN	0.000000	0.001632	0.001777	28.0839	0.034472	0.002042	16.8854	-105.586	-166.218	-0.079553	0.761207	-0.317004	-0.318415	-0.087153	16.8854	-0.313132	-7368.4	1.182789E-5	NaN
632	1.000000	0.802612	7.37124e+06	-45489.1	1005.82	-29772.3	0.000000	0.000000	6.803090	-0.095665	NaN	0.000000	0.001561	0.001801	28.0823	0.036219	0.002034	17.8073	-145.397	-162.603	-0.032779	0.801254	-0.277010	-0.278368	-0.095665	17.8073	-0.272981	-1848.45	5.175429E-5	NaN
632	1.000000	0.842593	7.37124e+06	-45489.1	1005.82	-29772.3	0.000000	0.000000	6.843073	-0.039560	NaN	0.000000	0.001617	0.001713	28.0823	0.067476	0.001897	35.5645	41.2404	-164.965	0.003448	0.841322	-0.237029	-0.238300	-0.039560	35.5645	-0.236195	-501.188	7.893346E-5	NaN
632	1.000000	0.882620	7.37124e+06	-45489.1	1005.82	-29772.3	0.000000	0.000000	6.883098	-0.099083	NaN	0.000000	0.001623	0.001708	28.0825	0.081441	0.002013	40.4543	-91.145	-162.08	-0.046997	0.881317	-0.197002	-0.198305	-0.099083	40.4543	-0.195165	-109.633	0.000904	NaN
632	1.000000	0.922627	7.37124e+06	-45489.1	1005.82	-29772.3	0.000000	0.000000	6.923109	0.007746	NaN	0.000000	0.001610	0.001738	28.084	0.061951	0.002020	30.6756	94.503	-164.112	0.067339	0.921291	-0.156995	-0.158331	0.007746	30.6756	-0.157185	-24.4222	-0.000317	NaN
632	1.000000	0.962652	7.37124e+06	-45489.1	1005.82	-29772.3	0.000000	0.000000	6.963132	-0.048692	NaN	0.000000	0.001632	0.001711	28.0837	0.034429	0.002084	16.5194	116.288	-165.277	-0.067123	0.961338	-0.116970	-0.118284	-0.048692	16.5194	-0.114759	-3.776955	0.012892	NaN
632	1.000000	1.002682	7.37124e+06	-45489.1	1005.82	-29772.3	0.000000	0.000000	7.003163	-0.024916	NaN	0.000000	0.001627	0.001742	28.0835	0.141721	0.001990	71.2015	159.108	-166.996	-0.029971	1.001347	-0.076940	-0.078276	-0.024916	71.2015	-0.076677	-0.510105	0.048845	NaN
632	1.000000	1.042686	7.37124e+06	-45489.1	1005.82	-29772.3	0.000000	0.000000	7.043166	-0.051548	NaN	0.000000	0.001654	0.001729	28.0834	0.077499	0.002094	37.0157	-166.854	-164.267	0.032695	1.041363	-0.036936	-0.038259	-0.051548	37.0157	-0.035892	-0.034029	1.514823	NaN
632	1.000000	1.082642	7.37124e+06	-45489.1	1005.82	-29772.3	0.000000	0.000000	7.083365	5.855330	NaN	0.000000	0.001705	0.001772	28.0822	5.433384	0.001815	2993.25	4.969459	-166.52	3.637720	1.081335	0.003020	0.001713	5.855330	2993.25	0.001553	0.001197	4892.41	79050
632	2.000000	1.096124	7.37124e+06	-45489.1	1005.82	-29772.3	0.000000	0.000000	7.097621	24.7075	NaN	0.000000	0.001684	0.001714	28.0822	19.1698	0.001787	10724.9	4.276717	-174.464	24.4248	1.095806	0.016502	0.016184	24.7075	10724.9	0.014774	0.014985	1648.8	80045.5
632	2.000000	1.106081	7.37124e+06	-45489.1	1005.82	-29772.3	0.000000	0.000000	7.108579	49.0514	NaN	0.000000	0.001627	0.001743	28.082	29.698	0.001950	15228.7	1.988636	-174.813	47.5726	1.105834	0.026459	0.026212	49.0514	15228.7	0.024043	0.029297	1674.26	81287
632	2.000000	1.116014	7.37124e+06	-45489.1	1005.82	-29772.3	0.000000	0.000000	7.120191	89.8854	NaN	0.000000	0.001620	0.001725	28.0836	39.6761	0.001799	22054.9	5.970393	177.803	87.0929	1.115784	0.036392	0.036162	89.8854	22054.9	0.033336	0.047941	1874.9	92028.6
632	2.000000	1.126055	7.37124e+06	-45489.1	1005.82	-29772.3	0.000000	0.000000	7.131898	130.409	NaN	0.000000	0.001618	0.001764	28.0837	49.464	0.001850	26730.7	6.639337	175.728	129.997	1.125727	0.046433	0.046105	130.409	26730.7	0.042774	0.071395	1826.6	91400.8
632	2.000000	1.136048	7.37124e+06	-45489.1	1005.82	-29772.3	0.000000	0.000000	7.143894	179.14	NaN	0.000000	0.001590	0.001750	28.0835	59.3594	0.001848	32120.9	6.069701	174.537	179.363	1.135772	0.056426	0.056150	179.14	32120.9	0.052243	0.099474	1800.88	93048.1
632	2.000000	1.146033	7.37124e+06	-45489.1	1005.82	-29772.3	0.000000	0.000000	7.156279	237.536	NaN	0.000000	0.001625	0.001769	28.0827	66.3572	0.001702	38995.3	4.100553	174.739	236.981	1.145764	0.066411	0.066142	237.536	38995.3	0.061842	0.132496	1792.77	97877.6
632	2.000000	1.155977	7.37124e+06	-45489.1	1005.82	-29772.3	0.000000	0.000000	7.168585	294.985	NaN	0.000000	0.001608	0.001773	28.0822	77.8257	0.001776	43820.5	4.897489	173.422	293.995	1.155755	0.076355	0.076133	294.985	43820.5	0.071306	0.169443	1740.91	97261
632	2.000000	1.165983	7.37124e+06	-45489.1	1005.82	-29772.3	0.000000	0.000000	7.181522	366.303	NaN	0.000000	0.001573	0.001740	28.0825	87.6962	0.001818	48241.8	6.931193	170.624	365.491	1.165747	0.086361	0.086125	366.303	48241.8	0.080666	0.210161	1742.96	96143.7
632	2.000000	1.176031	7.37124e+06	-45489.1	1005.82	-29772.3	0.000000	0.000000	7.194773	444.202	NaN	0.000000	0.001506	0.001730	28.0822	96.1497	0.001787	53796.9	5.762917	171.263	445.533	1.175636	0.096409	0.096014	444.202	53796.9	0.090216	0.255913	1735.75	97159.3
632	2.000000	1.185797	7.37124e+06	-45489.1	1005.82	-29772.3	0.000000	0.000000	7.208124	531.407	NaN	0.000000	0.001547	0.001727	28.0833	106.088	0.001858	57088	5.853411	171.076	520.058	1.185578	0.106175	0.105956	531.407	57088	0.099194	0.302733	1755.36	94795.5