File: remote_trans/data/nanoindenter/0828-1/data/Data_2025-08-06,11h17m57s/2025-07-22_16-23-58_1_1148.txt
2025-07-22, 16:23:58, 1
Index	Phase	Displacement	Time	Pos X	Pos Y	Pos Z	Rot A	Rot B	Piezo Z	Force A	Force B	Gripper	Voltage A	Voltage B	Temperature	Amplitude force	Amplitude pos	Stiffness	Phase shift	Phase excitation	Force A raw	Displacement raw	HMax	HMax raw	Real Force	Real Stiffness	Contact Depth	Area	Hardness	Reduced Mod.
[#]	[#]	[um]	[s]	[um]	[um]	[um]	[m°]	[m°]	[um]	[uN]	[uN]	[V]	[V]	[V]	[°C]	[uN]	[um]	[N/m]	[°]	[°]	[uN]	[um]	[um]	[um]	[uN]	[N/m]	[um]	[um^2]	[MPa]	[MPa]
1148	1.000000	0.002198	7.37629e+06	-57539.1	1055.82	-29736.7	0.000000	0.000000	6.002793	0.037681	NaN	0.000000	0.001539	0.001723	28.0811	0.033262	0.000893	37.2668	-25.6383	-159.526	0.113893	0.000941	-1.067933	-1.069189	0.037681	37.2668	-1.068692	-1.903752E+14	-1.979305E-16	NaN
1148	1.000000	0.042189	7.37629e+06	-57539.1	1055.82	-29736.7	0.000000	0.000000	6.042782	-0.020710	NaN	0.000000	0.001567	0.001672	28.0812	0.113164	0.001928	58.684	166.092	-167.659	0.045077	0.040871	-1.027942	-1.029260	-0.020710	58.684	-1.027677	-5.348503E+13	3.872022E-16	NaN
1148	1.000000	0.082185	7.37629e+06	-57539.1	1055.82	-29736.7	0.000000	0.000000	6.082778	-0.014775	NaN	0.000000	0.001544	0.001697	28.0825	0.111130	0.001962	56.637	85.5366	-164.677	-0.015385	0.080859	-0.987946	-0.989272	-0.014775	56.637	-0.987750	-1.551694E+13	9.522027E-16	NaN
1148	1.000000	0.122161	7.37629e+06	-57539.1	1055.82	-29736.7	0.000000	0.000000	6.122755	-0.000678	NaN	0.000000	0.001576	0.001671	28.0824	0.068471	0.002087	32.8123	49.8807	-161.913	-0.035224	0.120863	-0.947970	-0.949268	-0.000678	32.8123	-0.947954	-4.512692E+12	1.503040E-16	NaN
1148	1.000000	0.162173	7.37629e+06	-57539.1	1055.82	-29736.7	0.000000	0.000000	6.162766	0.008670	NaN	0.000000	0.001620	0.001658	28.0826	0.056812	0.001893	30.011	160.969	-165.501	-0.014005	0.160900	-0.907958	-0.909231	0.008670	30.011	-0.908175	-1.310724E+12	-6.615010E-15	NaN
1148	1.000000	0.202220	7.37629e+06	-57539.1	1055.82	-29736.7	0.000000	0.000000	6.202813	-0.007819	NaN	0.000000	0.001531	0.001690	28.0812	0.061771	0.001899	32.5263	157.2	-163.353	0.020926	0.200865	-0.867911	-0.869266	-0.007819	32.5263	-0.867731	-3.721707E+11	2.100841E-14	NaN
1148	1.000000	0.242243	7.37629e+06	-57539.1	1055.82	-29736.7	0.000000	0.000000	6.242837	0.018496	NaN	0.000000	0.001584	0.001672	28.0809	0.077892	0.002058	37.8554	-27.0776	-166.279	-0.005399	0.240931	-0.827888	-0.829200	0.018496	37.8554	-0.828254	-1.086730E+11	-1.701979E-13	NaN
1148	1.000000	0.282240	7.37629e+06	-57539.1	1055.82	-29736.7	0.000000	0.000000	6.282834	-0.010657	NaN	0.000000	0.001609	0.001691	28.0809	0.148741	0.002159	68.8884	-48.889	-165.573	-0.035089	0.280963	-0.787890	-0.789168	-0.010657	68.8884	-0.787774	-3.067990E+10	3.473463E-13	NaN
1148	1.000000	0.322280	7.37629e+06	-57539.1	1055.82	-29736.7	0.000000	0.000000	6.322873	-0.009416	NaN	0.000000	0.001563	0.001726	28.081	0.070027	0.001920	36.4662	146.558	-165.009	0.001877	0.320962	-0.747851	-0.749169	-0.009416	36.4662	-0.747657	-8.736283E+9	1.077861E-12	NaN
1148	1.000000	0.362264	7.37629e+06	-57539.1	1055.82	-29736.7	0.000000	0.000000	6.362858	0.014890	NaN	0.000000	0.001604	0.001723	28.0823	0.019988	0.002015	9.918237	-141.409	-164.578	0.064442	0.360998	-0.707867	-0.709133	0.014890	9.918237	-0.708993	-2.595981E+9	-5.735606E-12	NaN
1148	1.000000	0.402264	7.37629e+06	-57539.1	1055.82	-29736.7	0.000000	0.000000	6.402858	-0.007603	NaN	0.000000	0.001599	0.001701	28.0825	0.036288	0.001966	18.4583	9.572406	-164.848	-0.006473	0.400953	-0.667866	-0.669177	-0.007603	18.4583	-0.667557	-7.046222E+8	1.079020E-11	NaN
1148	1.000000	0.442297	7.37629e+06	-57539.1	1055.82	-29736.7	0.000000	0.000000	6.442890	-0.008376	NaN	0.000000	0.001609	0.001682	28.0826	0.071507	0.001861	38.4164	-30.8199	-167.232	-0.011909	0.441040	-0.627834	-0.629091	-0.008376	38.4164	-0.627670	-1.999972E+8	4.187851E-11	NaN
1148	1.000000	0.482340	7.37629e+06	-57539.1	1055.82	-29736.7	0.000000	0.000000	6.482935	0.027918	NaN	0.000000	0.001609	0.001742	28.0812	0.036620	0.001958	18.7014	98.0978	-165.46	0.023624	0.481001	-0.587790	-0.589129	0.027918	18.7014	-0.588910	-5.856484E+7	-4.766958E-10	NaN
1148	1.000000	0.522374	7.37629e+06	-57539.1	1055.82	-29736.7	0.000000	0.000000	6.522967	-0.001195	NaN	0.000000	0.001565	0.001683	28.0812	0.124261	0.001885	65.9171	152.595	-164.015	0.017541	0.520999	-0.547757	-0.549132	-0.001195	65.9171	-0.547743	-1.580139E+7	7.559805E-11	NaN
1148	1.000000	0.562402	7.37629e+06	-57539.1	1055.82	-29736.7	0.000000	0.000000	6.562993	-0.043141	NaN	0.000000	0.001582	0.001673	28.0811	0.028886	0.002036	14.1884	-101.62	-167.071	-0.005608	0.561054	-0.507729	-0.509076	-0.043141	14.1884	-0.505449	-4.0832e+06	1.056542E-8	NaN
1148	1.000000	0.602382	7.37629e+06	-57539.1	1055.82	-29736.7	0.000000	0.000000	6.602980	0.104737	NaN	0.000000	0.001577	0.001645	28.0809	0.029834	0.002007	14.8681	22.6392	-162.009	0.086527	0.601118	-0.467749	-0.469013	0.104737	14.8681	-0.473032	-1.43853e+06	-7.280838E-8	NaN
1148	1.000000	0.642397	7.37629e+06	-57539.1	1055.82	-29736.7	0.000000	0.000000	6.642991	-0.007859	NaN	0.000000	0.001551	0.001653	28.0822	0.065439	0.001988	32.9183	167.008	-166.594	0.019209	0.641091	-0.427733	-0.429040	-0.007859	32.9183	-0.427554	-329194	2.387197E-8	NaN
1148	1.000000	0.682404	7.37629e+06	-57539.1	1055.82	-29736.7	0.000000	0.000000	6.682996	-0.028672	NaN	0.000000	0.001545	0.001689	28.0822	0.108401	0.002104	51.5275	43.7322	-162.323	-0.008315	0.681072	-0.387727	-0.389058	-0.028672	51.5275	-0.387310	-88037.4	3.256789E-7	NaN
1148	1.000000	0.722445	7.37629e+06	-57539.1	1055.82	-29736.7	0.000000	0.000000	6.723036	-0.067619	NaN	0.000000	0.001569	0.001685	28.0822	0.127325	0.001966	64.751	71.7003	-163.595	-0.010106	0.721076	-0.347686	-0.349055	-0.067619	64.751	-0.346902	-23015.3	2.938001E-6	NaN
1148	1.000000	0.762480	7.37629e+06	-57539.1	1055.82	-29736.7	0.000000	0.000000	6.763075	0.037718	NaN	0.000000	0.001561	0.001655	28.0813	0.131285	0.001850	70.9481	-135.596	-167.585	0.089796	0.761138	-0.307651	-0.308993	0.037718	70.9481	-0.308049	-6196.89	-6.086627E-6	NaN
1148	1.000000	0.802458	7.37629e+06	-57539.1	1055.82	-29736.7	0.000000	0.000000	6.803052	0.020491	NaN	0.000000	0.001544	0.001682	28.0812	0.058759	0.001866	31.4828	145.581	-164.373	0.017628	0.801161	-0.267673	-0.268970	0.020491	31.4828	-0.268161	-1561.61	-1.312175E-5	NaN
1148	1.000000	0.842491	7.37629e+06	-57539.1	1055.82	-29736.7	0.000000	0.000000	6.843084	-0.022204	NaN	0.000000	0.001531	0.001684	28.081	0.129689	0.002036	63.6881	126.651	-167.122	0.012005	0.841200	-0.227640	-0.228931	-0.022204	63.6881	-0.227378	-363.962	6.100608E-5	NaN
1148	1.000000	0.882521	7.37629e+06	-57539.1	1055.82	-29736.7	0.000000	0.000000	6.883111	-0.084294	NaN	0.000000	0.001597	0.001661	28.0818	0.117561	0.002141	54.9003	-133.869	-165.56	0.038824	0.881171	-0.187610	-0.188960	-0.084294	54.9003	-0.186459	-78.4666	0.001074	NaN
1148	1.000000	0.922506	7.37629e+06	-57539.1	1055.82	-29736.7	0.000000	0.000000	6.923100	-0.001490	NaN	0.000000	0.001542	0.001667	28.0821	0.089166	0.002070	43.0737	98.0728	-164.673	0.065544	0.921260	-0.147624	-0.148871	-0.001490	43.0737	-0.147598	-16.3704	9.101076E-5	NaN
1148	1.000000	0.962547	7.37629e+06	-57539.1	1055.82	-29736.7	0.000000	0.000000	6.963145	0.091017	NaN	0.000000	0.001528	0.001679	28.0821	0.151494	0.002056	73.6792	-137.411	-163.803	0.009982	0.961187	-0.107583	-0.108944	0.091017	73.6792	-0.108510	-2.794737	-0.032567	NaN
1148	1.000000	1.002577	7.37629e+06	-57539.1	1055.82	-29736.7	0.000000	0.000000	7.003171	0.003914	NaN	0.000000	0.001580	0.001686	28.0819	0.027297	0.001969	13.8636	-173.128	-164.435	-0.094924	1.001252	-0.067554	-0.068879	0.003914	13.8636	-0.067765	-0.296862	-0.013184	NaN
1148	1.000000	1.042581	7.37629e+06	-57539.1	1055.82	-29736.7	0.000000	0.000000	7.043178	0.078160	NaN	0.000000	0.001550	0.001685	28.0806	0.015138	0.001926	7.860925	6.458933	-166.038	0.032919	1.041240	-0.027549	-0.028891	0.078160	7.860925	-0.035006	-0.032038	-2.439563	NaN
1148	1.000000	1.082440	7.37629e+06	-57539.1	1055.82	-29736.7	0.000000	0.000000	7.083414	9.245650	NaN	0.000000	0.001561	0.001711	28.0811	5.183419	0.001899	2730.18	13.0522	-168.498	8.344525	1.081249	0.012310	0.011118	9.245650	2730.18	0.009770	0.008927	1035.73	26400.9
1148	2.000000	1.092996	7.37629e+06	-57539.1	1055.82	-29736.7	0.000000	0.000000	7.094222	15.3707	NaN	0.000000	0.001590	0.001677	28.0812	7.768060	0.001899	4091.24	7.827825	-169.602	15.6017	1.092724	0.022865	0.022593	15.3707	4091.24	0.020047	0.022617	679.614	24854.9
1148	2.000000	1.102986	7.37629e+06	-57539.1	1055.82	-29736.7	0.000000	0.000000	7.104694	27.0969	NaN	0.000000	0.001527	0.001694	28.0824	11.7277	0.002009	5838.22	5.838400	-169.132	26.4545	1.102671	0.032855	0.032541	27.0969	5838.22	0.029374	0.039456	686.758	26853.2
1148	2.000000	1.113003	7.37629e+06	-57539.1	1055.82	-29736.7	0.000000	0.000000	7.115659	50.1276	NaN	0.000000	0.001568	0.001678	28.0826	20.5324	0.001789	11476.7	7.975643	-177.479	50.3966	1.112702	0.042872	0.042571	50.1276	11476.7	0.039597	0.062990	795.804	41778.7
1148	2.000000	1.122977	7.37629e+06	-57539.1	1055.82	-29736.7	0.000000	0.000000	7.127868	104.432	NaN	0.000000	0.001573	0.001707	28.0831	31.1292	0.001909	16303.8	5.943887	-178.004	105.268	1.122663	0.052846	0.052532	104.432	16303.8	0.048042	0.086459	1207.88	50659.1
1148	2.000000	1.132901	7.37629e+06	-57539.1	1055.82	-29736.7	0.000000	0.000000	7.140174	162.346	NaN	0.000000	0.001558	0.001713	28.0827	40.0752	0.001788	22416.4	3.707430	-179.906	160.298	1.132613	0.062770	0.062482	162.346	22416.4	0.057339	0.116438	1394.27	60019.5
1148	2.000000	1.142902	7.37629e+06	-57539.1	1055.82	-29736.7	0.000000	0.000000	7.154433	265.841	NaN	0.000000	0.001569	0.001727	28.0812	47.6701	0.001767	26977.9	2.351139	179.284	262.089	1.142611	0.072771	0.072480	265.841	26977.9	0.065381	0.145806	1823.25	64549.6
1148	2.000000	1.152893	7.37629e+06	-57539.1	1055.82	-29736.7	0.000000	0.000000	7.169077	378.922	NaN	0.000000	0.001590	0.001701	28.0811	56.8278	0.001840	30891.4	3.746910	177.737	378.66	1.152674	0.082762	0.082543	378.922	30891.4	0.073563	0.178882	2118.28	66731
1148	2.000000	1.162798	7.37629e+06	-57539.1	1055.82	-29736.7	0.000000	0.000000	7.182642	467.877	NaN	0.000000	0.001561	0.001677	28.0812	65.5827	0.001903	34467	3.153276	176.463	461.252	1.162573	0.092667	0.092443	467.877	34467	0.082486	0.218554	2140.78	67359.2
1148	2.000000	1.172887	7.37629e+06	-57539.1	1055.82	-29736.7	0.000000	0.000000	7.198944	618.875	NaN	0.000000	0.001576	0.001711	28.0824	72.9677	0.001898	38435.3	7.208261	172.169	618.058	1.172562	0.102756	0.102431	618.875	38435.3	0.090680	0.258239	2396.52	69102.3
1148	2.000000	1.182127	7.37629e+06	-57539.1	1055.82	-29736.7	0.000000	0.000000	7.209954	661.902	NaN	0.000000	0.001568	0.001683	28.0822	78.2048	0.001802	43393.2	2.048913	175.766	669.246	1.182250	0.111996	0.112119	661.902	43393.2	0.100556	0.310158	2134.08	71187.5