File: remote_trans/data/nanoindenter/0828-1/data/Data_2025-08-06,11h17m57s/2025-07-22_16-23-58_1_616.txt
2025-07-22, 16:23:58, 1
Index	Phase	Displacement	Time	Pos X	Pos Y	Pos Z	Rot A	Rot B	Piezo Z	Force A	Force B	Gripper	Voltage A	Voltage B	Temperature	Amplitude force	Amplitude pos	Stiffness	Phase shift	Phase excitation	Force A raw	Displacement raw	HMax	HMax raw	Real Force	Real Stiffness	Contact Depth	Area	Hardness	Reduced Mod.
[#]	[#]	[um]	[s]	[um]	[um]	[um]	[m°]	[m°]	[um]	[uN]	[uN]	[V]	[V]	[V]	[°C]	[uN]	[um]	[N/m]	[°]	[°]	[uN]	[um]	[um]	[um]	[uN]	[N/m]	[um]	[um^2]	[MPa]	[MPa]
616	1.000000	0.002444	7.37108e+06	-46289.1	1005.82	-29769.7	0.000000	0.000000	6.002802	-0.026116	NaN	0.000000	0.001605	0.001713	28.0827	0.140121	0.001012	138.516	-54.1641	-163.242	0.000851	0.001144	-1.084895	-1.086195	-0.026116	138.516	-1.084754	-3.128671E+14	8.347309E-17	NaN
616	1.000000	0.044393	7.37108e+06	-46289.1	1005.82	-29769.7	0.000000	0.000000	6.044753	0.000366	NaN	0.000000	0.001606	0.001699	28.0816	0.101626	0.001980	51.3299	-177.079	14.0336	-0.032857	0.043025	-1.042946	-1.044314	0.000366	51.3299	-1.042951	-8.583121E+13	-4.265739E-18	NaN
616	1.000000	0.086419	7.37108e+06	-46289.1	1005.82	-29769.7	0.000000	0.000000	6.086780	0.040890	NaN	0.000000	0.001599	0.001700	28.0818	0.023703	0.001876	12.6341	143.22	-167.949	0.054179	0.085101	-1.000920	-1.002238	0.040890	12.6341	-1.003347	-2.516718E+13	-1.624746E-15	NaN
616	1.000000	0.128406	7.37108e+06	-46289.1	1005.82	-29769.7	0.000000	0.000000	6.128766	0.011273	NaN	0.000000	0.001603	0.001727	28.0816	0.061009	0.001978	30.839	-36.0294	16.2742	-0.024480	0.127076	-0.958933	-0.960263	0.011273	30.839	-0.959207	-6.399931E+12	-1.761374E-15	NaN
616	1.000000	0.170428	7.37108e+06	-46289.1	1005.82	-29769.7	0.000000	0.000000	6.170786	-0.017513	NaN	0.000000	0.001602	0.001708	28.0828	0.066108	0.001842	35.8974	-59.6722	-167.153	-0.030258	0.169105	-0.916911	-0.918234	-0.017513	35.8974	-0.916545	-1.700427E+12	1.029909E-14	NaN
616	1.000000	0.212487	7.37108e+06	-46289.1	1005.82	-29769.7	0.000000	0.000000	6.212843	-0.074573	NaN	0.000000	0.001537	0.001709	28.0826	0.118659	0.001987	59.7102	-176.527	13.3014	-0.060813	0.211093	-0.874852	-0.876246	-0.074573	59.7102	-0.873916	-4.512484E+11	1.652592E-13	NaN
616	1.000000	0.254475	7.37108e+06	-46289.1	1005.82	-29769.7	0.000000	0.000000	6.254834	-0.010860	NaN	0.000000	0.001571	0.001727	28.0825	0.055129	0.002005	27.502	-123.945	-164.787	0.060954	0.253139	-0.832864	-0.834200	-0.010860	27.502	-0.832568	-1.243330E+11	8.734367E-14	NaN
616	1.000000	0.296492	7.37108e+06	-46289.1	1005.82	-29769.7	0.000000	0.000000	6.296850	-0.030661	NaN	0.000000	0.001529	0.001686	28.0812	0.070400	0.002057	34.227	2.407713	12.8462	-0.038491	0.295144	-0.790847	-0.792195	-0.030661	34.227	-0.790175	-3.307179E+10	9.271149E-13	NaN
616	1.000000	0.338490	7.37108e+06	-46289.1	1005.82	-29769.7	0.000000	0.000000	6.338846	-0.068576	NaN	0.000000	0.001542	0.001735	28.0812	0.047156	0.002011	23.4547	-37.7891	-163.385	-0.025798	0.337203	-0.748849	-0.750136	-0.068576	23.4547	-0.746656	-8.466473E+9	8.099744E-12	NaN
616	1.000000	0.380524	7.37108e+06	-46289.1	1005.82	-29769.7	0.000000	0.000000	6.380881	-0.035188	NaN	0.000000	0.001474	0.001739	28.081	0.083097	0.002008	41.3757	-18.5407	14.7751	-0.034190	0.379169	-0.706815	-0.708170	-0.035188	41.3757	-0.706178	-2.376166E+9	1.480858E-11	NaN
616	1.000000	0.422563	7.37108e+06	-46289.1	1005.82	-29769.7	0.000000	0.000000	6.422922	-0.019521	NaN	0.000000	0.001536	0.001709	28.0824	0.050848	0.002027	25.0863	-75.107	-165.088	-0.001734	0.421286	-0.664776	-0.666053	-0.019521	25.0863	-0.664192	-6.336998E+8	3.080419E-11	NaN
616	1.000000	0.464575	7.37108e+06	-46289.1	1005.82	-29769.7	0.000000	0.000000	6.464935	-0.002787	NaN	0.000000	0.001512	0.001690	28.0825	0.039616	0.001977	20.0429	-85.2272	10.1677	-0.027635	0.463226	-0.622764	-0.624113	-0.002787	20.0429	-0.622659	-1.706800E+8	1.632799E-11	NaN
616	1.000000	0.506589	7.37108e+06	-46289.1	1005.82	-29769.7	0.000000	0.000000	6.506948	-0.017609	NaN	0.000000	0.001521	0.001736	28.0822	0.160732	0.002011	79.9191	163.187	-167.979	0.038785	0.505276	-0.580750	-0.582063	-0.017609	79.9191	-0.580585	-4.495662E+7	3.916922E-10	NaN
616	1.000000	0.548621	7.37108e+06	-46289.1	1005.82	-29769.7	0.000000	0.000000	6.548979	-0.011840	NaN	0.000000	0.001542	0.001729	28.0824	0.028298	0.002030	13.9418	-77.5721	14.0397	0.042450	0.547189	-0.538718	-0.540150	-0.011840	13.9418	-0.538081	-1.160772E+7	1.020005E-9	NaN
616	1.000000	0.590603	7.37108e+06	-46289.1	1005.82	-29769.7	0.000000	0.000000	6.590960	-0.047583	NaN	0.000000	0.001508	0.001752	28.0815	0.050051	0.001922	26.0444	-41.3585	-159.79	-0.007320	0.589265	-0.496736	-0.498074	-0.047583	26.0444	-0.495366	-2.95353e+06	1.611063E-8	NaN
616	1.000000	0.632679	7.37108e+06	-46289.1	1005.82	-29769.7	0.000000	0.000000	6.633038	-0.019016	NaN	0.000000	0.001522	0.001713	28.0812	0.072408	0.001943	37.2739	140.654	14.4317	-0.002688	0.631256	-0.454659	-0.456083	-0.019016	37.2739	-0.454277	-784411	2.424213E-8	NaN
616	1.000000	0.674649	7.37108e+06	-46289.1	1005.82	-29769.7	0.000000	0.000000	6.675007	-0.039043	NaN	0.000000	0.001512	0.001736	28.0816	0.061988	0.002162	28.6651	-20.7691	-163.124	-0.018453	0.673412	-0.412690	-0.413927	-0.039043	28.6651	-0.411668	-195939	1.992632E-7	NaN
616	1.000000	0.716663	7.37108e+06	-46289.1	1005.82	-29769.7	0.000000	0.000000	6.717019	-0.061773	NaN	0.000000	0.001541	0.001703	28.0828	0.045114	0.001923	23.462	43.1892	11.4749	-0.038886	0.715298	-0.370676	-0.372041	-0.061773	23.462	-0.368702	-47580.3	1.298286E-6	NaN
616	1.000000	0.758686	7.37108e+06	-46289.1	1005.82	-29769.7	0.000000	0.000000	6.759044	-0.027225	NaN	0.000000	0.001544	0.001669	28.0828	0.046165	0.002155	21.4227	14.5253	-163.479	-0.012117	0.757399	-0.328653	-0.329940	-0.027225	21.4227	-0.327700	-12071.3	2.255392E-6	NaN
616	1.000000	0.800701	7.37108e+06	-46289.1	1005.82	-29769.7	0.000000	0.000000	6.801062	0.038948	NaN	0.000000	0.001530	0.001719	28.0829	0.053093	0.002058	25.8037	142.605	13.3132	-0.054887	0.799280	-0.286638	-0.288059	0.038948	25.8037	-0.287770	-3089.31	-1.260724E-5	NaN
616	1.000000	0.842738	7.37108e+06	-46289.1	1005.82	-29769.7	0.000000	0.000000	6.843099	0.034533	NaN	0.000000	0.001555	0.001738	28.0814	0.091748	0.001958	46.8675	-45.9874	-167.672	0.090536	0.841400	-0.244601	-0.245939	0.034533	46.8675	-0.245153	-691.571	-4.993451E-5	NaN
616	1.000000	0.884736	7.37108e+06	-46289.1	1005.82	-29769.7	0.000000	0.000000	6.885094	-0.027205	NaN	0.000000	0.001514	0.001726	28.0813	0.041218	0.001984	20.7777	121.824	14.3984	-0.060564	0.883403	-0.202603	-0.203936	-0.027205	20.7777	-0.201621	-140.057	0.000194	NaN
616	1.000000	0.926764	7.37108e+06	-46289.1	1005.82	-29769.7	0.000000	0.000000	6.927123	-0.003780	NaN	0.000000	0.001528	0.001797	28.0813	0.060177	0.001954	30.7973	159.457	-166.824	-0.051063	0.925429	-0.160575	-0.161910	-0.003780	30.7973	-0.160483	-27.962	0.000135	NaN
616	1.000000	0.968792	7.37108e+06	-46289.1	1005.82	-29769.7	0.000000	0.000000	6.969151	-0.016747	NaN	0.000000	0.001528	0.001708	28.0827	0.067883	0.001932	35.1279	-106.877	12.974	-0.068460	0.967411	-0.118547	-0.119927	-0.016747	35.1279	-0.118189	-4.440158	0.003772	NaN
616	1.000000	1.010778	7.37108e+06	-46289.1	1005.82	-29769.7	0.000000	0.000000	7.011137	0.000812	NaN	0.000000	0.001537	0.001711	28.0826	0.032184	0.002004	16.0627	129.116	-166.689	-0.014224	1.009482	-0.076561	-0.077856	0.000812	16.0627	-0.076599	-0.507771	-0.001599	NaN
616	1.000000	1.052816	7.37108e+06	-46289.1	1005.82	-29769.7	0.000000	0.000000	7.053172	-0.084673	NaN	0.000000	0.001600	0.001732	28.0825	0.107337	0.002112	50.822	-30.7362	14.1414	-0.120797	1.051462	-0.034523	-0.035877	-0.084673	50.822	-0.033273	-0.028512	2.969679	NaN
616	2.000000	1.092361	7.37108e+06	-46289.1	1005.82	-29769.7	0.000000	0.000000	7.093166	10.8416	NaN	0.000000	0.001513	0.001761	28.0826	10.6967	0.001671	6401.19	5.247938	-171.144	10.2486	1.092048	0.005022	0.004709	10.8416	6401.19	0.003752	0.003022	3587.17	106381
616	2.000000	1.102824	7.37108e+06	-46289.1	1005.82	-29769.7	0.000000	0.000000	7.104322	27.6915	NaN	0.000000	0.001555	0.001780	28.0815	22.3924	0.001881	11906.7	3.951190	5.280713	27.5446	1.102458	0.015485	0.015119	27.6915	11906.7	0.013741	0.013643	2029.79	93136.2
616	2.000000	1.113280	7.37108e+06	-46289.1	1005.82	-29769.7	0.000000	0.000000	7.115940	55.9614	NaN	0.000000	0.001549	0.001710	28.0819	31.2854	0.001643	19046.7	1.020784	-175.38	56.3357	1.112933	0.025941	0.025594	55.9614	19046.7	0.023737	0.028759	1945.9	102614
616	2.000000	1.123695	7.37108e+06	-46289.1	1005.82	-29769.7	0.000000	0.000000	7.127570	85.5029	NaN	0.000000	0.001501	0.001731	28.0814	42.0821	0.001818	23145.2	6.220112	-3.801250	82.4044	1.123414	0.036356	0.036075	85.5029	23145.2	0.033586	0.048504	1762.8	96016.4
616	2.000000	1.134231	7.37108e+06	-46289.1	1005.82	-29769.7	0.000000	0.000000	7.140041	132.596	NaN	0.000000	0.001554	0.001737	28.0827	50.6735	0.001833	27640.6	2.726011	-179.536	132.539	1.133874	0.046892	0.046535	132.596	27640.6	0.043294	0.072819	1820.91	93583.5
616	2.000000	1.144686	7.37108e+06	-46289.1	1005.82	-29769.7	0.000000	0.000000	7.152727	186.859	NaN	0.000000	0.001507	0.001759	28.0827	60.6904	0.001647	36853.3	2.481409	-3.241759	183.504	1.144324	0.057347	0.056985	186.859	36853.3	0.053544	0.103683	1802.23	104568
616	2.000000	1.155202	7.37108e+06	-46289.1	1005.82	-29769.7	0.000000	0.000000	7.165508	241.938	NaN	0.000000	0.001482	0.001734	28.0826	70.9959	0.001763	40265.4	1.995455	176.555	239.38	1.154968	0.067864	0.067629	241.938	40265.4	0.063357	0.138121	1751.64	98986.4
616	2.000000	1.165684	7.37108e+06	-46289.1	1005.82	-29769.7	0.000000	0.000000	7.178615	305.804	NaN	0.000000	0.001516	0.001733	28.0816	81.33	0.001754	46356.7	3.790664	-6.388529	302.365	1.165493	0.078345	0.078154	305.804	46356.7	0.073398	0.178183	1716.24	100335
616	2.000000	1.176185	7.37108e+06	-46289.1	1005.82	-29769.7	0.000000	0.000000	7.192374	385.06	NaN	0.000000	0.001502	0.001715	28.0814	92.5487	0.001832	50508.7	5.396338	172.134	384.312	1.175859	0.088846	0.088520	385.06	50508.7	0.083128	0.221554	1737.99	98039.1
616	2.000000	1.186688	7.37108e+06	-46289.1	1005.82	-29769.7	0.000000	0.000000	7.206364	469.867	NaN	0.000000	0.001568	0.001716	28.0817	101.461	0.001789	56702.7	8.289080	-11.551	469.682	1.186231	0.099349	0.098892	469.867	56702.7	0.093134	0.270728	1735.57	99565.9
616	2.000000	1.190157	7.37108e+06	-46289.1	1005.82	-29769.7	0.000000	0.000000	7.210857	494.787	NaN	0.000000	0.001530	0.001702	28.0815	102.771	0.001765	58226.1	0.620684	175.895	493.332	1.189906	0.102818	0.102567	494.787	58226.1	0.096445	0.288006	1717.97	99126.5