File: remote_trans/data/nanoindenter/0828-1/data/Data_2025-08-06,11h17m57s/2025-07-22_16-23-58_1_562.txt
2025-07-22, 16:23:58, 1
Index	Phase	Displacement	Time	Pos X	Pos Y	Pos Z	Rot A	Rot B	Piezo Z	Force A	Force B	Gripper	Voltage A	Voltage B	Temperature	Amplitude force	Amplitude pos	Stiffness	Phase shift	Phase excitation	Force A raw	Displacement raw	HMax	HMax raw	Real Force	Real Stiffness	Contact Depth	Area	Hardness	Reduced Mod.
[#]	[#]	[um]	[s]	[um]	[um]	[um]	[m°]	[m°]	[um]	[uN]	[uN]	[V]	[V]	[V]	[°C]	[uN]	[um]	[N/m]	[°]	[°]	[uN]	[um]	[um]	[um]	[uN]	[N/m]	[um]	[um^2]	[MPa]	[MPa]
562	1.000000	0.002790	7.37054e+06	-48989.1	1005.82	-29760.4	0.000000	0.000000	6.002716	0.048849	NaN	0.000000	0.001550	0.001725	28.08	0.170803	0.000981	174.057	22.5897	170.868	0.043785	0.001564	-1.155552	-1.156777	0.048849	174.057	-1.155762	-2.805875E+15	-1.740969E-17	NaN
562	1.000000	0.044746	7.37055e+06	-48989.1	1005.82	-29760.4	0.000000	0.000000	6.044670	-0.016192	NaN	0.000000	0.001549	0.001704	28.0811	0.056454	0.001868	30.2236	74.9513	-1.114265	0.001018	0.043372	-1.113596	-1.114969	-0.016192	30.2236	-1.113194	-7.536138E+14	2.148621E-17	NaN
562	1.000000	0.086751	7.37055e+06	-48989.1	1005.82	-29760.4	0.000000	0.000000	6.086677	0.032076	NaN	0.000000	0.001538	0.001697	28.0808	0.046718	0.002073	22.5318	-162.957	172.476	0.076471	0.085489	-1.071590	-1.072853	0.032076	22.5318	-1.072658	-2.152265E+14	-1.490321E-16	NaN
562	1.000000	0.128759	7.37055e+06	-48989.1	1005.82	-29760.4	0.000000	0.000000	6.128689	0.126845	NaN	0.000000	0.001488	0.001728	28.0812	0.178862	0.002021	88.5024	171.561	-6.607936	0.019746	0.127404	-1.029582	-1.030938	0.126845	88.5024	-1.030657	-5.865720E+13	-2.162478E-15	NaN
562	1.000000	0.170798	7.37055e+06	-48989.1	1005.82	-29760.4	0.000000	0.000000	6.170723	0.028674	NaN	0.000000	0.001527	0.001745	28.0802	0.062685	0.001927	32.5289	-65.3027	177.004	0.018694	0.169435	-0.987544	-0.988906	0.028674	32.5289	-0.988205	-1.573744E+13	-1.822047E-15	NaN
562	1.000000	0.212817	7.37055e+06	-48989.1	1005.82	-29760.4	0.000000	0.000000	6.212744	0.071363	NaN	0.000000	0.001531	0.001653	28.0799	0.083393	0.001924	43.3354	110.476	-2.979303	0.121468	0.211501	-0.945525	-0.946841	0.071363	43.3354	-0.946760	-4.348380E+12	-1.641135E-14	NaN
562	1.000000	0.254820	7.37055e+06	-48989.1	1005.82	-29760.4	0.000000	0.000000	6.254742	-0.062483	NaN	0.000000	0.001507	0.001744	28.0798	0.101989	0.002093	48.7352	39.8772	177.65	-0.025858	0.253551	-0.903521	-0.904790	-0.062483	48.7352	-0.902560	-1.100654E+12	5.676944E-14	NaN
562	1.000000	0.296878	7.37055e+06	-48989.1	1005.82	-29760.4	0.000000	0.000000	6.296807	0.114461	NaN	0.000000	0.001547	0.001742	28.0799	0.050292	0.002239	22.4617	48.8929	-4.155526	0.076734	0.295456	-0.861463	-0.862885	0.114461	22.4617	-0.865285	-3.448662E+11	-3.318996E-13	NaN
562	1.000000	0.338876	7.37055e+06	-48989.1	1005.82	-29760.4	0.000000	0.000000	6.338803	0.065288	NaN	0.000000	0.001524	0.001744	28.081	0.049817	0.001933	25.7693	115.818	175.458	0.118763	0.337559	-0.819466	-0.820782	0.065288	25.7693	-0.821366	-8.764677E+10	-7.449045E-13	NaN
562	1.000000	0.380882	7.37055e+06	-48989.1	1005.82	-29760.4	0.000000	0.000000	6.380803	-0.077098	NaN	0.000000	0.001557	0.001758	28.0813	0.034444	0.001957	17.5968	-154.173	-0.752812	-0.037216	0.379579	-0.777460	-0.778762	-0.077098	17.5968	-0.774174	-2.004702E+10	3.845851E-12	NaN
562	1.000000	0.422886	7.37055e+06	-48989.1	1005.82	-29760.4	0.000000	0.000000	6.422812	0.040085	NaN	0.000000	0.001565	0.001741	28.0811	0.042750	0.001909	22.3897	-50.2285	174.104	0.015027	0.421592	-0.735456	-0.736749	0.040085	22.3897	-0.736798	-6.215026E+9	-6.449624E-12	NaN
562	1.000000	0.464933	7.37055e+06	-48989.1	1005.82	-29760.4	0.000000	0.000000	6.464858	0.021416	NaN	0.000000	0.001534	0.001695	28.08	0.054163	0.001984	27.2992	-112.465	-0.057190	0.118379	0.463544	-0.693409	-0.694798	0.021416	27.2992	-0.693997	-1.620093E+9	-1.321914E-11	NaN
562	1.000000	0.506975	7.37055e+06	-48989.1	1005.82	-29760.4	0.000000	0.000000	6.506904	0.091530	NaN	0.000000	0.001600	0.001736	28.0798	0.099249	0.001939	51.1817	58.5068	-179.961	0.052389	0.505589	-0.651366	-0.652752	0.091530	51.1817	-0.652707	-4.411103E+8	-2.074992E-10	NaN
562	1.000000	0.548940	7.37055e+06	-48989.1	1005.82	-29760.4	0.000000	0.000000	6.548866	0.040596	NaN	0.000000	0.001561	0.001783	28.0798	0.113537	0.002080	54.587	-90.5073	-4.515157	0.014768	0.547596	-0.609402	-0.610746	0.040596	54.587	-0.609960	-1.141720E+8	-3.555684E-10	NaN
562	1.000000	0.590992	7.37055e+06	-48989.1	1005.82	-29760.4	0.000000	0.000000	6.590919	0.053499	NaN	0.000000	0.001542	0.001714	28.0812	0.097901	0.002024	48.3623	-109.044	176.659	0.025980	0.589636	-0.567349	-0.568706	0.053499	48.3623	-0.568179	-3.030179E+7	-1.765525E-9	NaN
562	1.000000	0.632997	7.37055e+06	-48989.1	1005.82	-29760.4	0.000000	0.000000	6.632923	0.025961	NaN	0.000000	0.001562	0.001724	28.0814	0.104320	0.002044	51.0389	33.0841	-0.186366	-0.011087	0.631646	-0.525344	-0.526696	0.025961	51.0389	-0.525726	-7.81981e+06	-3.319950E-9	NaN
562	1.000000	0.675019	7.37055e+06	-48989.1	1005.82	-29760.4	0.000000	0.000000	6.674942	-0.019620	NaN	0.000000	0.001554	0.001714	28.0813	0.020232	0.002059	9.825110	66.7344	173.227	0.014706	0.673719	-0.483323	-0.484623	-0.019620	9.825110	-0.481825	-1.91018e+06	1.027125E-8	NaN
562	1.000000	0.717037	7.37055e+06	-48989.1	1005.82	-29760.4	0.000000	0.000000	6.716962	0.021201	NaN	0.000000	0.001490	0.001708	28.0803	0.016021	0.001919	8.350425	166.764	-3.170690	0.011095	0.715644	-0.441305	-0.442697	0.021201	8.350425	-0.443209	-547817	-3.870109E-8	NaN
562	1.000000	0.759056	7.37055e+06	-48989.1	1005.82	-29760.4	0.000000	0.000000	6.758979	-0.053864	NaN	0.000000	0.001531	0.001721	28.0798	0.057923	0.002044	28.3412	84.5703	175.889	-0.005036	0.757757	-0.399285	-0.400585	-0.053864	28.3412	-0.397860	-124584	4.323503E-7	NaN
562	1.000000	0.801072	7.37055e+06	-48989.1	1005.82	-29760.4	0.000000	0.000000	6.800995	-0.032050	NaN	0.000000	0.001497	0.001739	28.0798	0.068791	0.002090	32.9129	43.2435	-4.530627	-0.031597	0.799729	-0.357269	-0.358613	-0.032050	32.9129	-0.356539	-31752.5	1.009367E-6	NaN
562	1.000000	0.843105	7.37055e+06	-48989.1	1005.82	-29760.4	0.000000	0.000000	6.843031	0.034253	NaN	0.000000	0.001540	0.001669	28.0797	0.100665	0.002043	49.2738	-165.035	179.46	0.096386	0.841771	-0.315236	-0.316570	0.034253	49.2738	-0.315758	-8056.15	-4.251836E-6	NaN
562	1.000000	0.885080	7.37055e+06	-48989.1	1005.82	-29760.4	0.000000	0.000000	6.885009	0.100881	NaN	0.000000	0.001553	0.001640	28.0814	0.098866	0.001954	50.6029	167.439	1.008094	0.089787	0.883739	-0.273261	-0.274603	0.100881	50.6029	-0.274757	-1966.59	-5.129736E-5	NaN
562	1.000000	0.927116	7.37055e+06	-48989.1	1005.82	-29760.4	0.000000	0.000000	6.927043	0.070648	NaN	0.000000	0.001563	0.001575	28.0815	0.086187	0.001924	44.7992	-148.465	174.999	0.092852	0.925802	-0.231226	-0.232540	0.070648	44.7992	-0.232408	-437.012	-0.000162	NaN
562	1.000000	0.969124	7.37055e+06	-48989.1	1005.82	-29760.4	0.000000	0.000000	6.969048	-0.017099	NaN	0.000000	0.001564	0.001664	28.0815	0.050730	0.001997	25.3981	48.6819	-4.094019	-0.043182	0.967762	-0.189217	-0.190580	-0.017099	25.3981	-0.188712	-85.6035	0.000200	NaN
562	1.000000	1.011143	7.37055e+06	-48989.1	1005.82	-29760.4	0.000000	0.000000	7.011068	0.032582	NaN	0.000000	0.001544	0.001662	28.0802	0.103238	0.002179	47.3702	-102.306	175.672	-0.016309	1.009837	-0.147199	-0.148504	0.032582	47.3702	-0.147715	-16.451	-0.001981	NaN
562	1.000000	1.053179	7.37055e+06	-48989.1	1005.82	-29760.4	0.000000	0.000000	7.053103	-0.002449	NaN	0.000000	0.001501	0.001650	28.0801	0.019571	0.001973	9.916810	-65.5606	-0.688573	-0.039967	1.051808	-0.105163	-0.106534	-0.002449	9.916810	-0.104977	-2.347930	0.001043	NaN
562	1.000000	1.095222	7.37055e+06	-48989.1	1005.82	-29760.4	0.000000	0.000000	7.095146	-0.002705	NaN	0.000000	0.001544	0.001662	28.0801	0.154293	0.001952	79.0531	-145.382	173.841	-0.009448	1.093868	-0.063120	-0.064473	-0.002705	79.0531	-0.063094	-0.220477	0.012268	NaN
562	1.000000	1.137204	7.37055e+06	-48989.1	1005.82	-29760.4	0.000000	0.000000	7.137130	0.053122	NaN	0.000000	0.001508	0.001649	28.0813	0.026270	0.001917	13.7009	54.8979	-3.420495	0.049546	1.135876	-0.021138	-0.022466	0.053122	13.7009	-0.024046	-0.015934	-3.333891	NaN
562	2.000000	1.167755	7.37055e+06	-48989.1	1005.82	-29760.4	0.000000	0.000000	7.168241	13.6582	NaN	0.000000	0.001503	0.001604	28.0811	12.9403	0.001740	7435	6.624484	169.365	12.9103	1.167479	0.009413	0.009138	13.6582	7435	0.008036	0.007079	1929.4	80736.1
562	2.000000	1.178266	7.37055e+06	-48989.1	1005.82	-29760.4	0.000000	0.000000	7.179555	33.2099	NaN	0.000000	0.001471	0.001692	28.0812	24.5512	0.001909	12859.7	10.711	-18.8521	34.3307	1.177782	0.019924	0.019440	33.2099	12859.7	0.017987	0.019478	1705.04	84185.6
562	2.000000	1.188712	7.37055e+06	-48989.1	1005.82	-29760.4	0.000000	0.000000	7.191178	61.8167	NaN	0.000000	0.001534	0.001701	28.0805	34.5655	0.001690	20455.9	10.5393	154.39	61.9032	1.188298	0.030370	0.029956	61.8167	20455.9	0.028104	0.036905	1675.02	97285.6
562	2.000000	1.199117	7.37055e+06	-48989.1	1005.82	-29760.4	0.000000	0.000000	7.203213	101.466	NaN	0.000000	0.001531	0.001699	28.08	43.3327	0.001748	24792.7	3.844429	-19.3096	97.2931	1.198836	0.040775	0.040495	101.466	24792.7	0.037706	0.058234	1742.4	93866.5
562	2.000000	1.209675	7.37055e+06	-48989.1	1005.82	-29760.4	0.000000	0.000000	7.215628	146.628	NaN	0.000000	0.001505	0.001739	28.0804	54.414	0.001863	29209.3	4.737857	158.907	145.087	1.209285	0.051333	0.050944	146.628	29209.3	0.047568	0.085045	1724.13	91510.5
562	2.000000	1.220153	7.37055e+06	-48989.1	1005.82	-29760.4	0.000000	0.000000	7.228478	204.311	NaN	0.000000	0.001600	0.001706	28.0804	63.5027	0.001735	36598.5	3.726155	-21.7147	201.487	1.219852	0.061812	0.061510	204.311	36598.5	0.057625	0.117429	1739.88	97577.4
562	2.000000	1.230598	7.37055e+06	-48989.1	1005.82	-29760.4	0.000000	0.000000	7.241000	254.845	NaN	0.000000	0.001527	0.001740	28.0816	73.4427	0.001729	42475.7	4.102188	156.155	251.161	1.230288	0.072256	0.071947	254.845	42475.7	0.067756	0.155080	1643.31	98545.2
562	2.000000	1.241259	7.37055e+06	-48989.1	1005.82	-29760.4	0.000000	0.000000	7.253671	303.712	NaN	0.000000	0.001571	0.001709	28.0814	82.8433	0.001857	44610.7	3.883368	-23.8275	309.086	1.241040	0.082917	0.082698	303.712	44610.7	0.077811	0.197307	1539.28	91757.4
562	2.000000	1.251709	7.37055e+06	-48989.1	1005.82	-29760.4	0.000000	0.000000	7.267619	388.79	NaN	0.000000	0.001549	0.001704	28.0813	92.3484	0.001957	47194.9	6.309148	153.588	393.083	1.251318	0.093367	0.092976	388.79	47194.9	0.087189	0.240953	1613.55	87842
562	2.000000	1.262177	7.37055e+06	-48989.1	1005.82	-29760.4	0.000000	0.000000	7.281434	470.173	NaN	0.000000	0.001491	0.001707	28.0802	100.39	0.001758	57104.8	6.161731	-27.241	471.407	1.261806	0.103836	0.103465	470.173	57104.8	0.097661	0.294478	1596.63	96143.4
562	2.000000	1.262590	7.37055e+06	-48989.1	1005.82	-29760.4	0.000000	0.000000	7.281906	471.611	NaN	0.000000	0.001488	0.001708	28.08	99.5462	0.001712	58145.5	1.302752	157.146	469.618	1.262380	0.104249	0.104039	471.611	58145.5	0.098165	0.297185	1586.93	97448.7