File: remote_trans/data/nanoindenter/0828-1/data/Data_2025-08-06,11h17m57s/2025-07-22_16-23-58_1_1014.txt
2025-07-22, 16:23:58, 1
Index	Phase	Displacement	Time	Pos X	Pos Y	Pos Z	Rot A	Rot B	Piezo Z	Force A	Force B	Gripper	Voltage A	Voltage B	Temperature	Amplitude force	Amplitude pos	Stiffness	Phase shift	Phase excitation	Force A raw	Displacement raw	HMax	HMax raw	Real Force	Real Stiffness	Contact Depth	Area	Hardness	Reduced Mod.
[#]	[#]	[um]	[s]	[um]	[um]	[um]	[m°]	[m°]	[um]	[uN]	[uN]	[V]	[V]	[V]	[°C]	[uN]	[um]	[N/m]	[°]	[°]	[uN]	[um]	[um]	[um]	[uN]	[N/m]	[um]	[um^2]	[MPa]	[MPa]
1014	1.000000	0.003123	7.37497e+06	-50839.1	1055.82	-29754.3	0.000000	0.000000	6.002783	0.064817	NaN	0.000000	0.001547	0.001721	28.0829	0.046529	0.000975	47.699	-152.23	-161.854	-0.002280	0.001939	-1.123311	-1.124495	0.064817	47.699	-1.124330	-1.063090E+15	-6.097078E-17	NaN
1014	1.000000	0.045095	7.37497e+06	-50839.1	1055.82	-29754.3	0.000000	0.000000	6.044751	-0.008051	NaN	0.000000	0.001591	0.001702	28.0828	0.022054	0.001961	11.2459	84.7981	11.5374	0.020114	0.043715	-1.081340	-1.082719	-0.008051	11.2459	-1.080803	-2.768893E+14	2.907802E-17	NaN
1014	1.000000	0.087100	7.37497e+06	-50839.1	1055.82	-29754.3	0.000000	0.000000	6.086758	0.036836	NaN	0.000000	0.001571	0.001688	28.0811	0.069175	0.001927	35.9045	129.127	-164.914	-0.004796	0.085776	-1.039335	-1.040658	0.036836	35.9045	-1.040104	-7.859098E+13	-4.687000E-16	NaN
1014	1.000000	0.129109	7.37497e+06	-50839.1	1055.82	-29754.3	0.000000	0.000000	6.128769	0.081446	NaN	0.000000	0.001538	0.001759	28.0811	0.074503	0.002120	35.136	153.351	11.9366	0.054967	0.127785	-0.997325	-0.998650	0.081446	35.136	-0.999064	-2.203755E+13	-3.695762E-15	NaN
1014	1.000000	0.171123	7.37497e+06	-50839.1	1055.82	-29754.3	0.000000	0.000000	6.170781	0.029250	NaN	0.000000	0.001538	0.001681	28.081	0.139544	0.002075	67.261	-78.7489	-166.42	0.034929	0.169850	-0.955311	-0.956585	0.029250	67.261	-0.955637	-5.728614E+12	-5.105980E-15	NaN
1014	1.000000	0.213158	7.37497e+06	-50839.1	1055.82	-29754.3	0.000000	0.000000	6.212816	0.033025	NaN	0.000000	0.001552	0.001713	28.0808	0.055934	0.001998	27.9947	-56.055	12.257	-0.015154	0.211822	-0.913276	-0.914613	0.033025	27.9947	-0.914161	-1.578931E+12	-2.091588E-14	NaN
1014	1.000000	0.255166	7.37497e+06	-50839.1	1055.82	-29754.3	0.000000	0.000000	6.254825	0.047229	NaN	0.000000	0.001545	0.001709	28.0824	0.045907	0.002028	22.6381	139.244	-166.916	0.093591	0.253881	-0.871268	-0.872553	0.047229	22.6381	-0.872833	-4.362826E+11	-1.082525E-13	NaN
1014	1.000000	0.297201	7.37497e+06	-50839.1	1055.82	-29754.3	0.000000	0.000000	6.296857	-0.004072	NaN	0.000000	0.001602	0.001688	28.0824	0.064658	0.002032	31.8201	6.855897	15.0612	-0.016701	0.295865	-0.829234	-0.830570	-0.004072	31.8201	-0.829138	-1.117125E+11	3.645295E-14	NaN
1014	1.000000	0.339235	7.37497e+06	-50839.1	1055.82	-29754.3	0.000000	0.000000	6.338894	0.069997	NaN	0.000000	0.001644	0.001652	28.0823	0.094753	0.001998	47.418	143.409	-166.788	-0.038089	0.337923	-0.787200	-0.788511	0.069997	47.418	-0.788307	-3.119531E+10	-2.243840E-12	NaN
1014	1.000000	0.381224	7.37497e+06	-50839.1	1055.82	-29754.3	0.000000	0.000000	6.380883	0.053256	NaN	0.000000	0.001610	0.001673	28.0809	0.091309	0.002141	42.6416	-150.238	13.5281	0.058796	0.379844	-0.745211	-0.746591	0.053256	42.6416	-0.746147	-8.332419E+9	-6.391420E-12	NaN
1014	1.000000	0.423248	7.37497e+06	-50839.1	1055.82	-29754.3	0.000000	0.000000	6.422907	0.065134	NaN	0.000000	0.001666	0.001671	28.0809	0.038358	0.001951	19.6648	-48.9916	-167.02	0.046404	0.421975	-0.703187	-0.704459	0.065134	19.6648	-0.705671	-2.338617E+9	-2.785165E-11	NaN
1014	1.000000	0.465226	7.37497e+06	-50839.1	1055.82	-29754.3	0.000000	0.000000	6.464884	0.041348	NaN	0.000000	0.001645	0.001654	28.0809	0.023070	0.001983	11.6324	-125.918	11.876	-0.045461	0.463905	-0.661209	-0.662529	0.041348	11.6324	-0.663875	-6.273920E+8	-6.590429E-11	NaN
1014	1.000000	0.507264	7.37497e+06	-50839.1	1055.82	-29754.3	0.000000	0.000000	6.506924	0.094331	NaN	0.000000	0.001535	0.001673	28.0822	0.063399	0.001988	31.8886	7.346956	-166.6	0.105057	0.505987	-0.619171	-0.620447	0.094331	31.8886	-0.621390	-1.639576E+8	-5.753365E-10	NaN
1014	1.000000	0.549282	7.37497e+06	-50839.1	1055.82	-29754.3	0.000000	0.000000	6.548939	0.024056	NaN	0.000000	0.001542	0.001678	28.0823	0.110189	0.001895	58.1398	166.928	12.0634	0.094318	0.547942	-0.577153	-0.578493	0.024056	58.1398	-0.577463	-4.071093E+7	-5.908911E-10	NaN
1014	1.000000	0.591330	7.37497e+06	-50839.1	1055.82	-29754.3	0.000000	0.000000	6.590990	0.091811	NaN	0.000000	0.001573	0.001715	28.0822	0.111549	0.002057	54.2373	83.0029	-163.938	0.081852	0.590028	-0.535105	-0.536407	0.091811	54.2373	-0.536374	-1.099165E+7	-8.352819E-9	NaN
1014	1.000000	0.633330	7.37497e+06	-50839.1	1055.82	-29754.3	0.000000	0.000000	6.632988	0.041170	NaN	0.000000	0.001574	0.001659	28.0812	0.101695	0.002101	48.4015	52.1225	17.211	0.056744	0.631973	-0.493105	-0.494462	0.041170	48.4015	-0.493743	-2.80335e+06	-1.468615E-8	NaN
1014	1.000000	0.675359	7.37497e+06	-50839.1	1055.82	-29754.3	0.000000	0.000000	6.675016	0.021638	NaN	0.000000	0.001560	0.001676	28.081	0.076624	0.001958	39.138	90.2796	-164.858	0.040996	0.674044	-0.451076	-0.452391	0.021638	39.138	-0.451491	-716688	-3.019187E-8	NaN
1014	1.000000	0.717376	7.37497e+06	-50839.1	1055.82	-29754.3	0.000000	0.000000	6.717034	0.050275	NaN	0.000000	0.001578	0.001685	28.081	0.052744	0.002101	25.1065	82.255	15.8787	0.055145	0.716043	-0.409059	-0.410392	0.050275	25.1065	-0.410561	-188963	-2.660574E-7	NaN
1014	1.000000	0.759383	7.37497e+06	-50839.1	1055.82	-29754.3	0.000000	0.000000	6.759043	0.068015	NaN	0.000000	0.001603	0.001695	28.0813	0.115743	0.001985	58.3017	-57.2373	-168.632	0.135490	0.758125	-0.367051	-0.368310	0.068015	58.3017	-0.367926	-46371.7	-1.466744E-6	NaN
1014	1.000000	0.801430	7.37497e+06	-50839.1	1055.82	-29754.3	0.000000	0.000000	6.801089	0.067179	NaN	0.000000	0.001602	0.001678	28.0826	0.067960	0.001981	34.2995	123.089	9.785246	0.013495	0.799986	-0.325005	-0.326449	0.067179	34.2995	-0.326474	-11581.6	-5.800476E-6	NaN
1014	1.000000	0.843404	7.37497e+06	-50839.1	1055.82	-29754.3	0.000000	0.000000	6.843063	0.060971	NaN	0.000000	0.001641	0.001711	28.0822	0.140265	0.002040	68.7525	-150.657	-166.131	-0.001239	0.842166	-0.283030	-0.284269	0.060971	68.7525	-0.283696	-2683.17	-2.272353E-5	NaN
1014	1.000000	0.885434	7.37497e+06	-50839.1	1055.82	-29754.3	0.000000	0.000000	6.885094	0.060725	NaN	0.000000	0.001610	0.001704	28.0823	0.155550	0.002012	77.323	20.8602	13.76	0.081639	0.884130	-0.241000	-0.242304	0.060725	77.323	-0.241589	-608.635	-9.977218E-5	NaN
1014	1.000000	0.927469	7.37497e+06	-50839.1	1055.82	-29754.3	0.000000	0.000000	6.927127	0.027265	NaN	0.000000	0.001658	0.001689	28.081	0.058883	0.002018	29.1725	-109.455	-165.759	0.035850	0.926149	-0.198966	-0.200285	0.027265	29.1725	-0.199667	-130.084	-0.000210	NaN
1014	1.000000	0.969454	7.37497e+06	-50839.1	1055.82	-29754.3	0.000000	0.000000	6.969113	0.060669	NaN	0.000000	0.001643	0.001706	28.0813	0.137719	0.002074	66.3921	48.2882	14.5448	0.083123	0.968122	-0.156981	-0.158312	0.060669	66.3921	-0.157666	-24.9112	-0.002435	NaN
1014	1.000000	1.011444	7.37497e+06	-50839.1	1055.82	-29754.3	0.000000	0.000000	7.011101	0.011419	NaN	0.000000	0.001592	0.001697	28.0807	0.065381	0.001910	34.2309	-156.036	-164.51	0.056391	1.010154	-0.114991	-0.116281	0.011419	34.2309	-0.115241	-3.864325	-0.002955	NaN
1014	1.000000	1.053505	7.37497e+06	-50839.1	1055.82	-29754.3	0.000000	0.000000	7.053164	0.069126	NaN	0.000000	0.001617	0.001710	28.082	0.014116	0.001926	7.328311	-16.1915	14.8861	-0.008053	1.052182	-0.072930	-0.074253	0.069126	7.328311	-0.080005	-0.619154	-0.111646	NaN
1014	1.000000	1.095515	7.37497e+06	-50839.1	1055.82	-29754.3	0.000000	0.000000	7.095171	-0.012780	NaN	0.000000	0.001592	0.001701	28.082	0.083072	0.002051	40.5036	37.5769	-166.112	-0.073547	1.094199	-0.030920	-0.032236	-0.012780	40.5036	-0.030683	-0.024049	0.531395	NaN
1014	1.000000	1.137514	7.37497e+06	-50839.1	1055.82	-29754.3	0.000000	0.000000	7.137385	5.209966	NaN	0.000000	0.001629	0.001632	28.0819	5.691398	0.001811	3143.21	15.3335	5.936473	3.878209	1.136137	0.011080	0.009702	5.209966	3143.21	0.009837	0.009001	578.847	30269.9
1014	2.000000	1.150081	7.37497e+06	-50839.1	1055.82	-29754.3	0.000000	0.000000	7.150575	20.3744	NaN	0.000000	0.001578	0.001672	28.0807	17.0229	0.001839	9257.38	6.145653	-174.435	19.2555	1.149805	0.023646	0.023371	20.3744	9257.38	0.021995	0.025775	790.461	52681.6
1014	2.000000	1.160585	7.37497e+06	-50839.1	1055.82	-29754.3	0.000000	0.000000	7.161979	42.2511	NaN	0.000000	0.001577	0.001727	28.0814	27.9505	0.001845	15153.2	4.321249	1.799613	41.4851	1.160233	0.034150	0.033798	42.2511	15153.2	0.032059	0.045119	936.438	65177.4
1014	2.000000	1.171005	7.37497e+06	-50839.1	1055.82	-29754.3	0.000000	0.000000	7.173813	76.628	NaN	0.000000	0.001598	0.001685	28.081	36.9811	0.001709	21645.2	5.478147	178.436	73.8778	1.170744	0.044570	0.044309	76.628	21645.2	0.041915	0.069072	1109.4	75246.1
1014	2.000000	1.181581	7.37497e+06	-50839.1	1055.82	-29754.3	0.000000	0.000000	7.186204	120.774	NaN	0.000000	0.001575	0.001732	28.0805	48.3621	0.001760	27474.2	7.732156	-6.844870	120.193	1.181115	0.055147	0.054680	120.774	27474.2	0.051850	0.098216	1229.68	80095.2
1014	2.000000	1.192005	7.37497e+06	-50839.1	1055.82	-29754.3	0.000000	0.000000	7.198901	176.05	NaN	0.000000	0.001574	0.001687	28.0817	58.6037	0.001754	33410.6	7.580421	172.358	172.347	1.191596	0.065570	0.065161	176.05	33410.6	0.061618	0.131674	1337.02	84121.5
1014	2.000000	1.202606	7.37497e+06	-50839.1	1055.82	-29754.3	0.000000	0.000000	7.211923	234.911	NaN	0.000000	0.001582	0.001647	28.0816	67.6419	0.001823	37094.7	4.017649	-4.876803	235.638	1.202181	0.076172	0.075746	234.911	37094.7	0.071422	0.169920	1382.48	82217.1
1014	2.000000	1.213015	7.37497e+06	-50839.1	1055.82	-29754.3	0.000000	0.000000	7.225248	305.807	NaN	0.000000	0.001587	0.001670	28.0819	78.0658	0.001843	42359.9	6.589266	171.664	304.227	1.212623	0.086581	0.086188	305.807	42359.9	0.081166	0.212453	1439.41	83964.6
1014	2.000000	1.223487	7.37497e+06	-50839.1	1055.82	-29754.3	0.000000	0.000000	7.238393	370.828	NaN	0.000000	0.001571	0.001701	28.0807	86.1108	0.001746	49328.7	3.913280	-7.617266	368.71	1.223246	0.097052	0.096811	370.828	49328.7	0.091414	0.261945	1415.67	88057.9
1014	2.000000	1.233935	7.37497e+06	-50839.1	1055.82	-29754.3	0.000000	0.000000	7.252444	458.438	NaN	0.000000	0.001537	0.001717	28.0807	96.095	0.001824	52685.4	6.755786	169.719	456.503	1.233670	0.107501	0.107235	458.438	52685.4	0.100975	0.312460	1467.19	86112.6
1014	2.000000	1.238988	7.37497e+06	-50839.1	1055.82	-29754.3	0.000000	0.000000	7.259454	506.041	NaN	0.000000	0.001550	0.001666	28.0809	102.03	0.001770	57632.4	3.261551	172.827	505.586	1.238639	0.112553	0.112205	506.041	57632.4	0.105968	0.340492	1486.21	90237.5