File: remote_trans/data/nanoindenter/0828-1/data/Data_2025-08-06,11h17m57s/2025-07-22_16-23-58_1_666.txt
2025-07-22, 16:23:58, 1
Index	Phase	Displacement	Time	Pos X	Pos Y	Pos Z	Rot A	Rot B	Piezo Z	Force A	Force B	Gripper	Voltage A	Voltage B	Temperature	Amplitude force	Amplitude pos	Stiffness	Phase shift	Phase excitation	Force A raw	Displacement raw	HMax	HMax raw	Real Force	Real Stiffness	Contact Depth	Area	Hardness	Reduced Mod.
[#]	[#]	[um]	[s]	[um]	[um]	[um]	[m°]	[m°]	[um]	[uN]	[uN]	[V]	[V]	[V]	[°C]	[uN]	[um]	[N/m]	[°]	[°]	[uN]	[um]	[um]	[um]	[uN]	[N/m]	[um]	[um^2]	[MPa]	[MPa]
666	1.000000	0.002209	7.37156e+06	-43789.1	1005.82	-29778	0.000000	0.000000	6.002792	0.002327	NaN	0.000000	0.001746	0.001637	28.0817	0.125546	0.001023	122.779	165.574	-162.234	-0.016016	0.000977	-1.019521	-1.020753	0.002327	122.779	-1.019535	-4.156227E+13	-5.599879E-17	NaN
666	1.000000	0.040184	7.37157e+06	-43789.1	1005.82	-29778	0.000000	0.000000	6.040764	-0.058106	NaN	0.000000	0.001732	0.001633	28.0825	0.085378	0.001993	42.8482	-48.4574	16.1407	-0.087828	0.038852	-0.981546	-0.982878	-0.058106	42.8482	-0.980529	-1.240346E+13	4.684639E-15	NaN
666	1.000000	0.078199	7.37157e+06	-43789.1	1005.82	-29778	0.000000	0.000000	6.078778	-0.061618	NaN	0.000000	0.001745	0.001654	28.0823	0.083062	0.002042	40.673	-81.0281	-164.65	-0.018375	0.076885	-0.943532	-0.944845	-0.061618	40.673	-0.942396	-3.797154E+12	1.622740E-14	NaN
666	1.000000	0.116201	7.37157e+06	-43789.1	1005.82	-29778	0.000000	0.000000	6.116782	-0.034782	NaN	0.000000	0.001745	0.001634	28.0822	0.066962	0.002007	33.3662	125.071	15.0237	0.010068	0.114857	-0.905530	-0.906874	-0.034782	33.3662	-0.904748	-1.178197E+12	2.952128E-14	NaN
666	1.000000	0.154184	7.37157e+06	-43789.1	1005.82	-29778	0.000000	0.000000	6.154765	-0.043231	NaN	0.000000	0.001700	0.001669	28.0826	0.052270	0.001975	26.4606	83.0693	-162.852	-0.017484	0.152893	-0.867546	-0.868837	-0.043231	26.4606	-0.866321	-3.561764E+11	1.213758E-13	NaN
666	1.000000	0.192240	7.37157e+06	-43789.1	1005.82	-29778	0.000000	0.000000	6.192821	-0.050370	NaN	0.000000	0.001714	0.001647	28.0813	0.073904	0.002049	36.06	139.711	16.9793	-0.090587	0.190945	-0.829490	-0.830786	-0.050370	36.06	-0.828443	-1.093139E+11	4.607786E-13	NaN
666	1.000000	0.230279	7.37157e+06	-43789.1	1005.82	-29778	0.000000	0.000000	6.230859	-0.058627	NaN	0.000000	0.001738	0.001638	28.0811	0.144095	0.002046	70.4171	104.771	-164.776	-0.047665	0.228986	-0.791451	-0.792745	-0.058627	70.4171	-0.790827	-3.375326E+10	1.736917E-12	NaN
666	1.000000	0.268284	7.37157e+06	-43789.1	1005.82	-29778	0.000000	0.000000	6.268866	-0.016609	NaN	0.000000	0.001759	0.001670	28.0811	0.080324	0.002199	36.5238	32.4957	15.2472	-0.038662	0.266890	-0.753446	-0.754841	-0.016609	36.5238	-0.753105	-1.036296E+10	1.602686E-12	NaN
666	1.000000	0.306258	7.37157e+06	-43789.1	1005.82	-29778	0.000000	0.000000	6.306837	-0.075653	NaN	0.000000	0.001689	0.001640	28.0827	0.035838	0.002129	16.8327	179.422	-161.247	0.000114	0.304940	-0.715473	-0.716790	-0.075653	16.8327	-0.712102	-2.862404E+9	2.642981E-11	NaN
666	1.000000	0.344303	7.37157e+06	-43789.1	1005.82	-29778	0.000000	0.000000	6.344882	-0.073868	NaN	0.000000	0.001699	0.001654	28.0822	0.027327	0.002049	13.3379	-104.422	14.9116	-0.173613	0.342899	-0.677428	-0.678832	-0.073868	13.3379	-0.673274	-8.437226E+8	8.755052E-11	NaN
666	1.000000	0.382324	7.37157e+06	-43789.1	1005.82	-29778	0.000000	0.000000	6.382905	-0.035394	NaN	0.000000	0.001713	0.001724	28.0821	0.079970	0.002045	39.0968	-86.2286	-164.791	-0.099715	0.381013	-0.639407	-0.640718	-0.035394	39.0968	-0.638728	-2.836824E+8	1.247657E-10	NaN
666	1.000000	0.420314	7.37157e+06	-43789.1	1005.82	-29778	0.000000	0.000000	6.420897	0.000410	NaN	0.000000	0.001719	0.001742	28.0821	0.013632	0.001903	7.163064	12.9309	21.7874	-0.010701	0.419020	-0.601416	-0.602710	0.000410	7.163064	-0.601459	-8.720748E+7	-4.702666E-12	NaN
666	1.000000	0.458356	7.37157e+06	-43789.1	1005.82	-29778	0.000000	0.000000	6.458937	-0.038876	NaN	0.000000	0.001660	0.001760	28.0809	0.051801	0.002162	23.9606	87.1377	-164.367	-0.043685	0.457024	-0.563375	-0.564707	-0.038876	23.9606	-0.562158	-2.501644E+7	1.554010E-9	NaN
666	1.000000	0.496370	7.37157e+06	-43789.1	1005.82	-29778	0.000000	0.000000	6.496951	-0.036556	NaN	0.000000	0.001666	0.001728	28.0808	0.049326	0.001950	25.3016	-152.793	13.1138	0.004264	0.495001	-0.525360	-0.526730	-0.036556	25.3016	-0.524277	-7.46554e+06	4.896595E-9	NaN
666	1.000000	0.534377	7.37157e+06	-43789.1	1005.82	-29778	0.000000	0.000000	6.534957	-0.057100	NaN	0.000000	0.001661	0.001720	28.081	0.019604	0.002112	9.281291	-177.232	-164.91	0.040155	0.533071	-0.487353	-0.488659	-0.057100	9.281291	-0.482739	-1.96726e+06	2.902523E-8	NaN
666	1.000000	0.572386	7.37157e+06	-43789.1	1005.82	-29778	0.000000	0.000000	6.572966	-0.051712	NaN	0.000000	0.001581	0.001734	28.0822	0.045439	0.002042	22.2528	-40.1095	17.5008	-0.019725	0.571064	-0.449345	-0.450667	-0.051712	22.2528	-0.447602	-631778	8.185192E-8	NaN
666	1.000000	0.610398	7.37157e+06	-43789.1	1005.82	-29778	0.000000	0.000000	6.610979	-0.028872	NaN	0.000000	0.001682	0.001749	28.0822	0.065554	0.002038	32.1586	-105.67	-166.271	0.050149	0.609032	-0.411332	-0.412699	-0.028872	32.1586	-0.410659	-189571	1.522995E-7	NaN
666	1.000000	0.648459	7.37157e+06	-43789.1	1005.82	-29778	0.000000	0.000000	6.649041	-0.001494	NaN	0.000000	0.001609	0.001706	28.0822	0.104622	0.002105	49.6978	-171.088	18.7222	-0.026779	0.647004	-0.373272	-0.374727	-0.001494	49.6978	-0.373249	-55321.9	2.700093E-8	NaN
666	1.000000	0.686441	7.37157e+06	-43789.1	1005.82	-29778	0.000000	0.000000	6.687019	-0.100850	NaN	0.000000	0.001656	0.001714	28.0821	0.104348	0.001957	53.3331	-48.3606	-161.144	-0.088138	0.685184	-0.335290	-0.336546	-0.100850	53.3331	-0.333872	-14862.7	6.785483E-6	NaN
666	1.000000	0.724471	7.37157e+06	-43789.1	1005.82	-29778	0.000000	0.000000	6.725051	-0.057866	NaN	0.000000	0.001696	0.001734	28.0811	0.165653	0.002119	78.1567	-30.0332	13.5357	-0.035190	0.723129	-0.297259	-0.298601	-0.057866	78.1567	-0.296704	-4202.63	1.376906E-5	NaN
666	1.000000	0.762457	7.37157e+06	-43789.1	1005.82	-29778	0.000000	0.000000	6.763036	-0.079466	NaN	0.000000	0.001659	0.001694	28.081	0.031601	0.001929	16.3778	-98.6507	-165.379	-0.072631	0.761135	-0.259274	-0.260596	-0.079466	16.3778	-0.255635	-1004.35	7.912181E-5	NaN
666	1.000000	0.800478	7.37157e+06	-43789.1	1005.82	-29778	0.000000	0.000000	6.801058	-0.058548	NaN	0.000000	0.001634	0.001706	28.081	0.036364	0.002078	17.5032	113.143	13.6984	-0.112280	0.799141	-0.221252	-0.222590	-0.058548	17.5032	-0.218744	-265.207	0.000221	NaN
666	1.000000	0.838535	7.37157e+06	-43789.1	1005.82	-29778	0.000000	0.000000	6.839115	-0.045082	NaN	0.000000	0.001658	0.001710	28.081	0.128740	0.002138	60.211	-158.49	-164.383	-0.022669	0.837130	-0.183196	-0.184600	-0.045082	60.211	-0.182634	-67.6353	0.000667	NaN
666	1.000000	0.876524	7.37157e+06	-43789.1	1005.82	-29778	0.000000	0.000000	6.877104	-0.056594	NaN	0.000000	0.001623	0.001701	28.0826	0.040357	0.002040	19.7784	18.9602	13.3526	0.005925	0.875171	-0.145206	-0.146560	-0.056594	19.7784	-0.143060	-13.4953	0.004194	NaN
666	1.000000	0.914535	7.37157e+06	-43789.1	1005.82	-29778	0.000000	0.000000	6.915113	-0.093593	NaN	0.000000	0.001659	0.001709	28.0822	0.063673	0.001929	33.0015	28.9783	-166.322	-0.049395	0.913261	-0.107196	-0.108469	-0.093593	33.0015	-0.105069	-2.358621	0.039681	NaN
666	1.000000	0.952564	7.37157e+06	-43789.1	1005.82	-29778	0.000000	0.000000	6.953143	-0.063301	NaN	0.000000	0.001659	0.001701	28.0822	0.064812	0.002028	31.9649	58.3476	13.0105	0.000706	0.951241	-0.069167	-0.070490	-0.063301	31.9649	-0.067682	-0.295309	0.214356	NaN
666	1.000000	0.990553	7.37157e+06	-43789.1	1005.82	-29778	0.000000	0.000000	6.991135	-0.010915	NaN	0.000000	0.001610	0.001704	28.081	0.071555	0.002100	34.0688	-164.325	-166.653	-0.036047	0.989193	-0.031178	-0.032537	-0.010915	34.0688	-0.030938	-0.024449	0.446436	NaN
666	2.000000	1.026703	7.37157e+06	-43789.1	1005.82	-29778	0.000000	0.000000	7.027672	9.420112	NaN	0.000000	0.001611	0.001724	28.0811	9.338591	0.001553	6011.81	6.913832	7.624712	9.619247	1.026339	0.004972	0.004608	9.420112	6011.81	0.003797	0.003062	3076.87	99266.9
666	2.000000	1.036166	7.37157e+06	-43789.1	1005.82	-29778	0.000000	0.000000	7.037926	28.6452	NaN	0.000000	0.001600	0.001721	28.081	20.4132	0.001670	12221.2	3.944502	-174.594	28.7283	1.035814	0.014436	0.014083	28.6452	12221.2	0.012678	0.012312	2326.57	100628
666	2.000000	1.045527	7.37157e+06	-43789.1	1005.82	-29778	0.000000	0.000000	7.048282	52.8498	NaN	0.000000	0.001595	0.001712	28.0809	29.7993	0.001702	17511.7	5.193794	-0.425800	50.0147	1.045210	0.023797	0.023480	52.8498	17511.7	0.021533	0.025009	2113.19	101170
666	2.000000	1.055010	7.37157e+06	-43789.1	1005.82	-29778	0.000000	0.000000	7.059280	89.7091	NaN	0.000000	0.001636	0.001730	28.0825	39.8882	0.001819	21928	7.588141	176.715	87.3871	1.054686	0.033280	0.032955	89.7091	21928	0.030211	0.041183	2178.3	98721.6
666	2.000000	1.064435	7.37157e+06	-43789.1	1005.82	-29778	0.000000	0.000000	7.070407	131.12	NaN	0.000000	0.001615	0.001723	28.0825	47.4538	0.001798	26395.5	5.329935	-3.338377	125.676	1.064172	0.042705	0.042441	131.12	26395.5	0.038979	0.061416	2134.94	97310.9
666	2.000000	1.073981	7.37157e+06	-43789.1	1005.82	-29778	0.000000	0.000000	7.082050	182.161	NaN	0.000000	0.001570	0.001729	28.0826	57.4556	0.001912	30042.8	8.293336	173.178	180.265	1.073667	0.052250	0.051937	182.161	30042.8	0.047703	0.085445	2131.91	93901.1
666	2.000000	1.083435	7.37157e+06	-43789.1	1005.82	-29778	0.000000	0.000000	7.093885	240.052	NaN	0.000000	0.001615	0.001740	28.0811	63.0613	0.001646	38314.6	1.331514	-2.328120	233.569	1.083100	0.061705	0.061369	240.052	38314.6	0.057006	0.115292	2082.12	103095
666	2.000000	1.093061	7.37157e+06	-43789.1	1005.82	-29778	0.000000	0.000000	7.106040	301.605	NaN	0.000000	0.001667	0.001731	28.081	73.4005	0.001747	42010.4	6.546724	172.902	303.484	1.092639	0.071330	0.070908	301.605	42010.4	0.065946	0.147988	2038.04	99774
666	2.000000	1.102539	7.37157e+06	-43789.1	1005.82	-29778	0.000000	0.000000	7.118024	362.557	NaN	0.000000	0.001644	0.001749	28.0811	82.9234	0.001812	45752.4	6.014062	-7.548501	362.465	1.102188	0.080809	0.080458	362.557	45752.4	0.074865	0.184441	1965.7	97332.5
666	2.000000	1.112083	7.37157e+06	-43789.1	1005.82	-29778	0.000000	0.000000	7.130359	430.46	NaN	0.000000	0.001618	0.001803	28.0812	92.0431	0.001914	48088.6	7.091220	170.709	436.183	1.111675	0.090353	0.089944	430.46	48088.6	0.083639	0.223954	1922.09	92840.2
666	2.000000	1.121556	7.37157e+06	-43789.1	1005.82	-29778	0.000000	0.000000	7.142954	506.448	NaN	0.000000	0.001619	0.001771	28.0825	100.347	0.001855	54094.9	6.831103	-9.696041	509.158	1.121012	0.099825	0.099281	506.448	54094.9	0.092803	0.269028	1882.51	95286.5
666	2.000000	1.124444	7.37157e+06	-43789.1	1005.82	-29778	0.000000	0.000000	7.147076	536.445	NaN	0.000000	0.001609	0.001762	28.0822	102.691	0.001912	53700.9	5.145897	-8.310648	534.969	1.124210	0.102714	0.102479	536.445	53700.9	0.095222	0.281563	1905.24	92462.7