File: remote_trans/data/nanoindenter/0828-1/data/Data_2025-08-06,11h17m57s/2025-07-22_16-23-58_1_559.txt
2025-07-22, 16:23:58, 1
Index	Phase	Displacement	Time	Pos X	Pos Y	Pos Z	Rot A	Rot B	Piezo Z	Force A	Force B	Gripper	Voltage A	Voltage B	Temperature	Amplitude force	Amplitude pos	Stiffness	Phase shift	Phase excitation	Force A raw	Displacement raw	HMax	HMax raw	Real Force	Real Stiffness	Contact Depth	Area	Hardness	Reduced Mod.
[#]	[#]	[um]	[s]	[um]	[um]	[um]	[m°]	[m°]	[um]	[uN]	[uN]	[V]	[V]	[V]	[°C]	[uN]	[um]	[N/m]	[°]	[°]	[uN]	[um]	[um]	[um]	[uN]	[N/m]	[um]	[um^2]	[MPa]	[MPa]
559	1.000000	0.002300	7.37052e+06	-49139.1	1005.82	-29759.9	0.000000	0.000000	6.002783	0.033496	NaN	0.000000	0.001588	0.001679	28.0825	0.021837	0.001002	21.7883	-105.865	-166.715	0.041825	0.001019	-1.155094	-1.156376	0.033496	21.7883	-1.156247	-2.848203E+15	-1.176039E-17	NaN
559	1.000000	0.044259	7.37052e+06	-49139.1	1005.82	-29759.9	0.000000	0.000000	6.044741	0.016041	NaN	0.000000	0.001559	0.001658	28.0825	0.049499	0.002044	24.2143	-128.199	13.4391	0.028444	0.042884	-1.113135	-1.114510	0.016041	24.2143	-1.113632	-7.638909E+14	-2.099962E-17	NaN
559	1.000000	0.086272	7.37052e+06	-49139.1	1005.82	-29759.9	0.000000	0.000000	6.086756	0.052970	NaN	0.000000	0.001621	0.001674	28.0825	0.013893	0.001966	7.067335	146.012	-169.555	0.048278	0.084916	-1.071122	-1.072479	0.052970	7.067335	-1.076744	-2.442200E+14	-2.168956E-16	NaN
559	1.000000	0.128283	7.37052e+06	-49139.1	1005.82	-29759.9	0.000000	0.000000	6.128767	0.045991	NaN	0.000000	0.001556	0.001664	28.0824	0.035163	0.001958	17.9567	5.851444	15.5249	0.033764	0.126966	-1.029111	-1.030428	0.045991	17.9567	-1.031032	-5.934225E+13	-7.750084E-16	NaN
559	1.000000	0.170297	7.37052e+06	-49139.1	1005.82	-29759.9	0.000000	0.000000	6.170781	0.039249	NaN	0.000000	0.001546	0.001691	28.081	0.074632	0.001876	39.7922	-47.5085	-167.622	0.050176	0.169036	-0.987097	-0.988358	0.039249	39.7922	-0.987837	-1.555878E+13	-2.522639E-15	NaN
559	1.000000	0.212341	7.37052e+06	-49139.1	1005.82	-29759.9	0.000000	0.000000	6.212825	0.047576	NaN	0.000000	0.001647	0.001674	28.0809	0.019372	0.001952	9.926495	-86.1644	15.8735	0.049896	0.210951	-0.945053	-0.946443	0.047576	9.926495	-0.948647	-4.610890E+12	-1.031817E-14	NaN
559	1.000000	0.254350	7.37052e+06	-49139.1	1005.82	-29759.9	0.000000	0.000000	6.254831	-0.037641	NaN	0.000000	0.001609	0.001672	28.0811	0.143322	0.001917	74.7602	-57.8737	-163.568	-0.001363	0.253049	-0.903044	-0.904345	-0.037641	74.7602	-0.902667	-1.104321E+12	3.408543E-14	NaN
559	1.000000	0.296394	7.37052e+06	-49139.1	1005.82	-29759.9	0.000000	0.000000	6.296877	0.022698	NaN	0.000000	0.001601	0.001689	28.0823	0.036172	0.002082	17.376	-154.627	12.9986	0.087221	0.294976	-0.861000	-0.862418	0.022698	17.376	-0.861980	-3.111134E+11	-7.295787E-14	NaN
559	1.000000	0.338385	7.37052e+06	-49139.1	1005.82	-29759.9	0.000000	0.000000	6.338866	-0.007450	NaN	0.000000	0.001596	0.001668	28.0822	0.066825	0.002011	33.232	124.238	-164.907	0.057171	0.337050	-0.819010	-0.820344	-0.007450	33.232	-0.818842	-8.100308E+10	9.197692E-14	NaN
559	1.000000	0.380378	7.37052e+06	-49139.1	1005.82	-29759.9	0.000000	0.000000	6.380862	0.042131	NaN	0.000000	0.001611	0.001689	28.0816	0.033723	0.001941	17.3713	149.889	16.8151	0.073718	0.378997	-0.777016	-0.778397	0.042131	17.3713	-0.778835	-2.319527E+10	-1.816366E-12	NaN
559	1.000000	0.422413	7.37052e+06	-49139.1	1005.82	-29759.9	0.000000	0.000000	6.422897	0.055170	NaN	0.000000	0.001525	0.001689	28.0807	0.035081	0.002108	16.6387	71.7489	-162.969	0.089044	0.421129	-0.734982	-0.736266	0.055170	16.6387	-0.737468	-6.347051E+9	-8.692296E-12	NaN
559	1.000000	0.464441	7.37052e+06	-49139.1	1005.82	-29759.9	0.000000	0.000000	6.464923	0.010231	NaN	0.000000	0.001608	0.001696	28.0809	0.014733	0.002056	7.166051	-26.9264	17.8247	-0.026583	0.463097	-0.692953	-0.694297	0.010231	7.166051	-0.694024	-1.621454E+9	-6.310067E-12	NaN
559	1.000000	0.506474	7.37052e+06	-49139.1	1005.82	-29759.9	0.000000	0.000000	6.506955	-0.025429	NaN	0.000000	0.001569	0.001651	28.0809	0.079927	0.002123	37.6479	55.0551	-167.614	0.022533	0.505163	-0.650920	-0.652231	-0.025429	37.6479	-0.650414	-4.103058E+8	6.197548E-11	NaN
559	1.000000	0.548480	7.37052e+06	-49139.1	1005.82	-29759.9	0.000000	0.000000	6.548964	0.046681	NaN	0.000000	0.001562	0.001670	28.0825	0.067710	0.002108	32.1198	-13.4208	16.0404	0.097091	0.547119	-0.608914	-0.610276	0.046681	32.1198	-0.610004	-1.143331E+8	-4.082919E-10	NaN
559	1.000000	0.590487	7.37052e+06	-49139.1	1005.82	-29759.9	0.000000	0.000000	6.590970	0.005997	NaN	0.000000	0.001578	0.001639	28.0822	0.052554	0.001970	26.6714	162.003	-167.393	0.067939	0.589170	-0.566907	-0.568224	0.005997	26.6714	-0.567075	-2.925609E+7	-2.049685E-10	NaN
559	1.000000	0.632501	7.37052e+06	-49139.1	1005.82	-29759.9	0.000000	0.000000	6.632984	0.003041	NaN	0.000000	0.001654	0.001687	28.0825	0.067022	0.002029	33.0389	17.2268	19.7476	-0.085600	0.631104	-0.524893	-0.526290	0.003041	33.0389	-0.524962	-7.63097e+06	-3.985553E-10	NaN
559	1.000000	0.674532	7.37052e+06	-49139.1	1005.82	-29759.9	0.000000	0.000000	6.675015	0.017206	NaN	0.000000	0.001672	0.001656	28.0824	0.067904	0.001977	34.3434	-150.026	-164.119	-0.053413	0.673179	-0.482862	-0.484215	0.017206	34.3434	-0.483238	-1.99911e+06	-8.606692E-9	NaN
559	1.000000	0.716556	7.37052e+06	-49139.1	1005.82	-29759.9	0.000000	0.000000	6.717038	0.006867	NaN	0.000000	0.001649	0.001628	28.081	0.003894	0.002103	1.852268	-29.1681	13.1351	0.098064	0.715181	-0.440838	-0.442213	0.006867	1.852268	-0.443619	-555154	-1.236962E-8	NaN
559	1.000000	0.758572	7.37052e+06	-49139.1	1005.82	-29759.9	0.000000	0.000000	6.759055	0.014952	NaN	0.000000	0.001667	0.001597	28.0809	0.025913	0.002018	12.8395	-16.9084	-163.272	0.043041	0.757258	-0.398822	-0.400136	0.014952	12.8395	-0.399696	-132329	-1.129893E-7	NaN
559	1.000000	0.800555	7.37052e+06	-49139.1	1005.82	-29759.9	0.000000	0.000000	6.801035	-0.047065	NaN	0.000000	0.001626	0.001623	28.0808	0.124461	0.001927	64.5917	-160.354	17.4896	-0.005820	0.799181	-0.356839	-0.358213	-0.047065	64.5917	-0.356293	-31493.3	1.494462E-6	NaN
559	1.000000	0.842586	7.37052e+06	-49139.1	1005.82	-29759.9	0.000000	0.000000	6.843070	0.051962	NaN	0.000000	0.001634	0.001688	28.0823	0.034617	0.001899	18.2328	-69.2433	-166.979	0.072921	0.841284	-0.314809	-0.316111	0.051962	18.2328	-0.316946	-8387.9	-6.194936E-6	NaN
559	1.000000	0.884636	7.37052e+06	-49139.1	1005.82	-29759.9	0.000000	0.000000	6.885118	0.008213	NaN	0.000000	0.001622	0.001679	28.0822	0.136871	0.002068	66.1959	-65.166	12.9675	0.115047	0.883272	-0.272758	-0.274122	0.008213	66.1959	-0.272851	-1840.08	-4.463523E-6	NaN
559	1.000000	0.926625	7.37052e+06	-49139.1	1005.82	-29759.9	0.000000	0.000000	6.927108	0.029557	NaN	0.000000	0.001604	0.001727	28.082	0.101840	0.002049	49.7031	-139.162	-165.472	0.059017	0.925347	-0.230769	-0.232048	0.029557	49.7031	-0.231215	-418.493	-7.062727E-5	NaN
559	1.000000	0.968665	7.37052e+06	-49139.1	1005.82	-29759.9	0.000000	0.000000	6.969151	0.080507	NaN	0.000000	0.001622	0.001652	28.0811	0.135008	0.001854	72.8367	-99.9435	14.2896	0.036505	0.967263	-0.188729	-0.190132	0.080507	72.8367	-0.189558	-88.438	-0.000910	NaN
559	1.000000	1.010679	7.37052e+06	-49139.1	1005.82	-29759.9	0.000000	0.000000	7.011165	0.109707	NaN	0.000000	0.001606	0.001661	28.081	0.050837	0.002041	24.905	-92.6047	-164.91	0.073593	1.009292	-0.146715	-0.148102	0.109707	24.905	-0.150019	-18.1282	-0.006052	NaN
559	1.000000	1.052674	7.37052e+06	-49139.1	1005.82	-29759.9	0.000000	0.000000	7.053157	0.006651	NaN	0.000000	0.001595	0.001672	28.0807	0.083684	0.001959	42.7234	-172.337	15.8103	-0.006135	1.051332	-0.104720	-0.106062	0.006651	42.7234	-0.104837	-2.331532	-0.002853	NaN
559	1.000000	1.094683	7.37052e+06	-49139.1	1005.82	-29759.9	0.000000	0.000000	7.095164	-0.009184	NaN	0.000000	0.001617	0.001648	28.0822	0.128234	0.001988	64.5108	-45.3291	-168.698	0.023961	1.093403	-0.062712	-0.063991	-0.009184	64.5108	-0.062605	-0.213594	0.042996	NaN
559	1.000000	1.136734	7.37052e+06	-49139.1	1005.82	-29759.9	0.000000	0.000000	7.137217	0.025424	NaN	0.000000	0.001611	0.001689	28.0821	0.038098	0.002052	18.5632	103.662	15.1757	-0.003453	1.135374	-0.020661	-0.022020	0.025424	18.5632	-0.021688	-0.013865	-1.833712	NaN
559	2.000000	1.166292	7.37052e+06	-49139.1	1005.82	-29759.9	0.000000	0.000000	7.167275	12.1691	NaN	0.000000	0.001557	0.001685	28.0823	13.2669	0.001775	7473.09	8.113351	-175.185	11.8051	1.165999	0.008898	0.008604	12.1691	7473.09	0.007677	0.006712	1813.03	83338.6
559	2.000000	1.176679	7.37052e+06	-49139.1	1005.82	-29759.9	0.000000	0.000000	7.178499	32.5433	NaN	0.000000	0.001520	0.001666	28.0826	23.5592	0.001723	13671.7	6.898573	-0.260505	28.986	1.176366	0.019285	0.018972	32.5433	13671.7	0.017500	0.018764	1734.31	91186.3
559	2.000000	1.187248	7.37052e+06	-49139.1	1005.82	-29759.9	0.000000	0.000000	7.190059	56.6509	NaN	0.000000	0.001570	0.001688	28.0825	33.6917	0.001704	19777.8	3.838994	179.523	58.0504	1.186879	0.029854	0.029484	56.6509	19777.8	0.027705	0.036122	1568.32	95074.6
559	2.000000	1.197670	7.37052e+06	-49139.1	1005.82	-29759.9	0.000000	0.000000	7.201906	91.3011	NaN	0.000000	0.001619	0.001683	28.082	44.1665	0.001826	24186.8	5.226957	-4.634295	88.0532	1.197361	0.040276	0.039967	91.3011	24186.8	0.037445	0.057592	1585.3	92080.7
559	2.000000	1.208183	7.37052e+06	-49139.1	1005.82	-29759.9	0.000000	0.000000	7.214408	139.664	NaN	0.000000	0.001604	0.001688	28.0809	53.4743	0.001631	32777.6	2.333384	176.755	137.955	1.207896	0.050789	0.050502	139.664	32777.6	0.047593	0.085119	1640.81	102645
559	2.000000	1.218585	7.37052e+06	-49139.1	1005.82	-29759.9	0.000000	0.000000	7.226698	185.59	NaN	0.000000	0.001623	0.001606	28.0822	64.2829	0.001772	36270.9	2.035845	-4.310481	179.541	1.218280	0.061191	0.060886	185.59	36270.9	0.057354	0.116490	1593.18	97092.7
559	2.000000	1.229137	7.37052e+06	-49139.1	1005.82	-29759.9	0.000000	0.000000	7.239777	247.048	NaN	0.000000	0.001595	0.001618	28.0822	75.074	0.001782	42117.9	4.852953	170.973	245.434	1.228912	0.071743	0.071518	247.048	42117.9	0.067343	0.153449	1609.96	98233.2
559	2.000000	1.239553	7.37052e+06	-49139.1	1005.82	-29759.9	0.000000	0.000000	7.253350	323.836	NaN	0.000000	0.001574	0.001618	28.0822	85.1228	0.001863	45686.3	6.676904	-9.460761	316.771	1.239073	0.082158	0.081678	323.836	45686.3	0.076842	0.193029	1677.65	95005.2
559	2.000000	1.250151	7.37052e+06	-49139.1	1005.82	-29759.9	0.000000	0.000000	7.266889	395.34	NaN	0.000000	0.001558	0.001686	28.0808	93.0655	0.001831	50825.4	3.514785	171.559	394.967	1.249732	0.092757	0.092338	395.34	50825.4	0.086923	0.239662	1649.57	94853.7
559	2.000000	1.260611	7.37052e+06	-49139.1	1005.82	-29759.9	0.000000	0.000000	7.280961	483.202	NaN	0.000000	0.001573	0.001719	28.0811	105.106	0.001955	53766.4	7.831710	-12.5298	481.498	1.260142	0.103217	0.102748	483.202	53766.4	0.096477	0.288176	1676.76	91507.2