File: remote_trans/data/nanoindenter/0828-1/data/Data_2025-08-06,11h17m57s/2025-07-22_16-23-58_1_635.txt
2025-07-22, 16:23:58, 1
Index	Phase	Displacement	Time	Pos X	Pos Y	Pos Z	Rot A	Rot B	Piezo Z	Force A	Force B	Gripper	Voltage A	Voltage B	Temperature	Amplitude force	Amplitude pos	Stiffness	Phase shift	Phase excitation	Force A raw	Displacement raw	HMax	HMax raw	Real Force	Real Stiffness	Contact Depth	Area	Hardness	Reduced Mod.
[#]	[#]	[um]	[s]	[um]	[um]	[um]	[m°]	[m°]	[um]	[uN]	[uN]	[V]	[V]	[V]	[°C]	[uN]	[um]	[N/m]	[°]	[°]	[uN]	[um]	[um]	[um]	[uN]	[N/m]	[um]	[um^2]	[MPa]	[MPa]
635	1.000000	0.002168	7.37126e+06	-45339.1	1005.82	-29772.8	0.000000	0.000000	6.002795	0.019398	NaN	0.000000	0.001671	0.001742	28.0827	0.081767	0.001001	81.7079	48.8543	-176.476	-0.042913	0.000889	-1.057118	-1.058397	0.019398	81.7079	-1.057296	-1.338081E+14	-1.449698E-16	NaN
635	1.000000	0.042113	7.37126e+06	-45339.1	1005.82	-29772.8	0.000000	0.000000	6.042739	-0.016831	NaN	0.000000	0.001611	0.001708	28.0824	0.089513	0.002085	42.9278	117.396	-165.095	0.055220	0.040859	-1.017173	-1.018427	-0.016831	42.9278	-1.016879	-3.827841E+13	4.397026E-16	NaN
635	1.000000	0.082106	7.37126e+06	-45339.1	1005.82	-29772.8	0.000000	0.000000	6.082731	-0.046395	NaN	0.000000	0.001639	0.001742	28.0811	0.093913	0.002020	46.4854	-124.674	-161.338	-0.036777	0.080791	-0.977179	-0.978494	-0.046395	46.4854	-0.976431	-1.092250E+13	4.247617E-15	NaN
635	1.000000	0.122141	7.37126e+06	-45339.1	1005.82	-29772.8	0.000000	0.000000	6.122767	-0.023237	NaN	0.000000	0.001622	0.001751	28.081	0.065044	0.001990	32.6859	-141.749	-165.048	0.012169	0.120855	-0.937144	-0.938430	-0.023237	32.6859	-0.936611	-3.172599E+12	7.324242E-15	NaN
635	1.000000	0.162139	7.37126e+06	-45339.1	1005.82	-29772.8	0.000000	0.000000	6.162762	-0.105947	NaN	0.000000	0.001603	0.001747	28.081	0.151447	0.002042	74.1605	-56.1506	-167.038	-0.102194	0.160828	-0.897147	-0.898458	-0.105947	74.1605	-0.896075	-8.995579E+11	1.177771E-13	NaN
635	1.000000	0.202160	7.37126e+06	-45339.1	1005.82	-29772.8	0.000000	0.000000	6.202787	0.003341	NaN	0.000000	0.001576	0.001767	28.0808	0.126680	0.001957	64.7206	-102.48	-166.809	-0.062609	0.200854	-0.857125	-0.858432	0.003341	64.7206	-0.857164	-2.677529E+11	-1.247691E-14	NaN
635	1.000000	0.242178	7.37126e+06	-45339.1	1005.82	-29772.8	0.000000	0.000000	6.242805	-0.013215	NaN	0.000000	0.001630	0.001750	28.0822	0.059994	0.001922	31.2207	76.868	-167.636	0.012281	0.240948	-0.817108	-0.818338	-0.013215	31.2207	-0.816790	-7.597674E+10	1.739412E-13	NaN
635	1.000000	0.282216	7.37126e+06	-45339.1	1005.82	-29772.8	0.000000	0.000000	6.282840	-0.056026	NaN	0.000000	0.001629	0.001745	28.0822	0.102153	0.002064	49.4811	-132.279	-165.794	-0.045708	0.280939	-0.777070	-0.778347	-0.056026	49.4811	-0.776221	-2.137335E+10	2.621291E-12	NaN
635	1.000000	0.322230	7.37126e+06	-45339.1	1005.82	-29772.8	0.000000	0.000000	6.322857	0.002099	NaN	0.000000	0.001611	0.001682	28.0822	0.126215	0.002040	61.8704	-71.4664	-164.799	0.044496	0.320926	-0.737055	-0.738359	0.002099	61.8704	-0.737081	-6.270368E+9	-3.347757E-13	NaN
635	1.000000	0.362277	7.37126e+06	-45339.1	1005.82	-29772.8	0.000000	0.000000	6.362900	-0.092368	NaN	0.000000	0.001613	0.001700	28.0809	0.040252	0.002008	20.0431	92.8001	-169.725	-0.056299	0.360976	-0.697008	-0.698309	-0.092368	20.0431	-0.693552	-1.597554E+9	5.781825E-11	NaN
635	1.000000	0.402279	7.37126e+06	-45339.1	1005.82	-29772.8	0.000000	0.000000	6.402905	-0.023110	NaN	0.000000	0.001617	0.001677	28.0809	0.078558	0.002012	39.0479	175.341	-163.914	-0.034715	0.400953	-0.657007	-0.658332	-0.023110	39.0479	-0.656563	-4.981793E+8	4.638823E-11	NaN
635	1.000000	0.442289	7.37126e+06	-45339.1	1005.82	-29772.8	0.000000	0.000000	6.442913	-0.067246	NaN	0.000000	0.001591	0.001687	28.0808	0.074685	0.001945	38.3988	9.289600	-166.219	0.070286	0.440983	-0.616997	-0.618303	-0.067246	38.3988	-0.615684	-1.368649E+8	4.913295E-10	NaN
635	1.000000	0.482330	7.37126e+06	-45339.1	1005.82	-29772.8	0.000000	0.000000	6.482956	-0.008007	NaN	0.000000	0.001611	0.001705	28.081	0.085621	0.002061	41.5355	-135.936	-164.654	-0.028725	0.480999	-0.576956	-0.578287	-0.008007	41.5355	-0.576812	-3.987601E+7	2.008032E-10	NaN
635	1.000000	0.522338	7.37126e+06	-45339.1	1005.82	-29772.8	0.000000	0.000000	6.522964	-0.028850	NaN	0.000000	0.001605	0.001685	28.0823	0.064588	0.002094	30.8468	-43.4117	-165.7	-0.054759	0.521021	-0.536948	-0.538265	-0.028850	30.8468	-0.536246	-1.094681E+7	2.635453E-9	NaN
635	1.000000	0.562343	7.37127e+06	-45339.1	1005.82	-29772.8	0.000000	0.000000	6.562969	-0.010454	NaN	0.000000	0.001665	0.001688	28.0825	0.050066	0.002076	24.1187	132.996	-166.026	-0.060512	0.561073	-0.496943	-0.498213	-0.010454	24.1187	-0.496618	-3.07485e+06	3.399797E-9	NaN
635	1.000000	0.602347	7.37127e+06	-45339.1	1005.82	-29772.8	0.000000	0.000000	6.602974	-0.014103	NaN	0.000000	0.001655	0.001693	28.0823	0.066491	0.001996	33.3165	-86.0756	-166.923	0.033800	0.601064	-0.456938	-0.458221	-0.014103	33.3165	-0.456621	-846282	1.666490E-8	NaN
635	1.000000	0.642368	7.37127e+06	-45339.1	1005.82	-29772.8	0.000000	0.000000	6.642994	-0.014935	NaN	0.000000	0.001610	0.001688	28.0808	0.078765	0.001945	40.4958	174.628	-166.037	0.031672	0.641013	-0.416918	-0.418273	-0.014935	40.4958	-0.416641	-230547	6.477954E-8	NaN
635	1.000000	0.682405	7.37127e+06	-45339.1	1005.82	-29772.8	0.000000	0.000000	6.683033	0.015832	NaN	0.000000	0.001652	0.001672	28.0806	0.077079	0.001982	38.8951	-23.6899	-168.773	0.020200	0.681066	-0.376881	-0.378220	0.015832	38.8951	-0.377186	-63020.7	-2.512214E-7	NaN
635	1.000000	0.722408	7.37127e+06	-45339.1	1005.82	-29772.8	0.000000	0.000000	6.723035	-0.014868	NaN	0.000000	0.001677	0.001625	28.0806	0.072909	0.001978	36.8682	-68.2593	-164.4	-0.016064	0.721093	-0.336877	-0.338193	-0.014868	36.8682	-0.336575	-16277.6	9.134182E-7	NaN
635	1.000000	0.762434	7.37127e+06	-45339.1	1005.82	-29772.8	0.000000	0.000000	6.763061	-0.003100	NaN	0.000000	0.001687	0.001699	28.0822	0.093312	0.002098	44.4833	60.6898	-164.473	0.019079	0.761157	-0.296851	-0.298129	-0.003100	44.4833	-0.296799	-4216.37	7.351652E-7	NaN
635	1.000000	0.802438	7.37127e+06	-45339.1	1005.82	-29772.8	0.000000	0.000000	6.803063	-0.031909	NaN	0.000000	0.001729	0.001707	28.0817	0.050639	0.002039	24.8375	109.585	-165.606	-0.082007	0.801154	-0.256848	-0.258131	-0.031909	24.8375	-0.255885	-1013.27	3.149125E-5	NaN
635	1.000000	0.842456	7.37127e+06	-45339.1	1005.82	-29772.8	0.000000	0.000000	6.843081	-0.041850	NaN	0.000000	0.001640	0.001684	28.0818	0.058471	0.002096	27.8938	149.692	-164.728	0.023038	0.841154	-0.216830	-0.218131	-0.041850	27.8938	-0.215705	-237.051	0.000177	NaN
635	1.000000	0.882470	7.37127e+06	-45339.1	1005.82	-29772.8	0.000000	0.000000	6.883098	0.021868	NaN	0.000000	0.001594	0.001679	28.0819	0.010072	0.002057	4.895832	-116.23	-165.515	-0.053790	0.881136	-0.176816	-0.178150	0.021868	4.895832	-0.180166	-61.4164	-0.000356	NaN
635	1.000000	0.922500	7.37127e+06	-45339.1	1005.82	-29772.8	0.000000	0.000000	6.923130	0.077331	NaN	0.000000	0.001578	0.001757	28.0807	0.104670	0.001923	54.4167	155.959	-163.236	0.053924	0.921170	-0.136786	-0.138115	0.077331	54.4167	-0.137851	-10.7763	-0.007176	NaN
635	1.000000	0.962512	7.37127e+06	-45339.1	1005.82	-29772.8	0.000000	0.000000	6.963141	0.040006	NaN	0.000000	0.001607	0.001683	28.0811	0.049183	0.002014	24.4248	-36.1729	-167.506	0.024150	0.961182	-0.096773	-0.098104	0.040006	24.4248	-0.098002	-1.649085	-0.024259	NaN
635	1.000000	1.002535	7.37127e+06	-45339.1	1005.82	-29772.8	0.000000	0.000000	7.003161	-0.017186	NaN	0.000000	0.001677	0.001740	28.0811	0.038193	0.002006	19.0429	-21.4576	-164.167	-0.033396	1.001250	-0.056751	-0.058036	-0.017186	19.0429	-0.056074	-0.138513	0.124073	NaN
635	1.000000	1.042532	7.37127e+06	-45339.1	1005.82	-29772.8	0.000000	0.000000	7.043159	-0.003560	NaN	0.000000	0.001703	0.001733	28.082	0.077770	0.002011	38.6809	-45.2934	-165.586	0.036073	1.041283	-0.016754	-0.018003	-0.003560	38.6809	-0.016685	-0.010310	0.345292	NaN
635	2.000000	1.068163	7.37127e+06	-45339.1	1005.82	-29772.8	0.000000	0.000000	7.069355	13.7593	NaN	0.000000	0.001711	0.001737	28.0819	13.9766	0.001709	8179.86	8.614527	-176.529	13.3669	1.067793	0.008877	0.008507	13.7593	8179.86	0.007616	0.006650	2069.08	91645.3
635	2.000000	1.078150	7.37127e+06	-45339.1	1005.82	-29772.8	0.000000	0.000000	7.080090	31.9406	NaN	0.000000	0.001680	0.001677	28.082	24.4851	0.001875	13060.6	5.170951	-175.977	32.862	1.077846	0.018865	0.018561	31.9406	13060.6	0.017031	0.018089	1765.73	88721
635	2.000000	1.088077	7.37127e+06	-45339.1	1005.82	-29772.8	0.000000	0.000000	7.091250	61.9225	NaN	0.000000	0.001706	0.001707	28.0818	34.5683	0.001826	18930	5.178586	178.718	60.4525	1.087766	0.028791	0.028480	61.9225	18930	0.026338	0.033495	1848.71	94500.1
635	2.000000	1.098035	7.37127e+06	-45339.1	1005.82	-29772.8	0.000000	0.000000	7.102882	102.668	NaN	0.000000	0.001682	0.001691	28.0806	43.8866	0.001861	23577.8	2.821383	-179.866	99.939	1.097807	0.038749	0.038521	102.668	23577.8	0.035483	0.052877	1941.64	93679.3
635	2.000000	1.108057	7.37127e+06	-45339.1	1005.82	-29772.8	0.000000	0.000000	7.114808	148.979	NaN	0.000000	0.001723	0.001659	28.0805	53.4574	0.001809	29557	6.997682	173.743	149.027	1.107707	0.048772	0.048421	148.979	29557	0.044991	0.077563	1920.75	96963.3
635	2.000000	1.118018	7.37127e+06	-45339.1	1005.82	-29772.8	0.000000	0.000000	7.127056	204.611	NaN	0.000000	0.001658	0.001667	28.0805	61.6901	0.001813	34019.2	6.512725	173.79	203.29	1.117617	0.058732	0.058331	204.611	34019.2	0.054221	0.105906	1932.01	95507.6
635	2.000000	1.128040	7.37127e+06	-45339.1	1005.82	-29772.8	0.000000	0.000000	7.139309	258.88	NaN	0.000000	0.001663	0.001694	28.082	71.5163	0.001792	39903.1	1.800321	176.145	257.456	1.127936	0.068754	0.068651	258.88	39903.1	0.063889	0.140121	1847.55	97393.3
635	2.000000	1.137988	7.37127e+06	-45339.1	1005.82	-29772.8	0.000000	0.000000	7.152379	334.843	NaN	0.000000	0.001659	0.001727	28.0819	81.1308	0.001850	43860.3	5.191510	172.827	332.192	1.137659	0.078702	0.078374	334.843	43860.3	0.072976	0.176404	1898.15	95409.2
635	2.000000	1.147931	7.37127e+06	-45339.1	1005.82	-29772.8	0.000000	0.000000	7.165294	407.142	NaN	0.000000	0.001695	0.001660	28.082	89.9455	0.001859	48382.9	4.017443	172.853	402.97	1.147700	0.088645	0.088414	407.142	48382.9	0.082334	0.217848	1868.93	94708.4
635	2.000000	1.157923	7.37127e+06	-45339.1	1005.82	-29772.8	0.000000	0.000000	7.178465	484.453	NaN	0.000000	0.001744	0.001645	28.0806	100.508	0.001913	52541.8	5.277728	171.593	481.981	1.157721	0.098638	0.098436	484.453	52541.8	0.091722	0.263510	1838.46	93514.7
635	2.000000	1.161926	7.37127e+06	-45339.1	1005.82	-29772.8	0.000000	0.000000	7.184129	524.886	NaN	0.000000	0.001745	0.001676	28.0805	103.924	0.001822	57030.5	6.162256	169.972	520.643	1.161649	0.102640	0.102364	524.886	57030.5	0.095737	0.284272	1846.42	97726.7