File: remote_trans/data/nanoindenter/0828-1/data/Data_2025-08-06,11h17m57s/2025-07-22_16-23-58_1_561.txt
2025-07-22, 16:23:58, 1
Index	Phase	Displacement	Time	Pos X	Pos Y	Pos Z	Rot A	Rot B	Piezo Z	Force A	Force B	Gripper	Voltage A	Voltage B	Temperature	Amplitude force	Amplitude pos	Stiffness	Phase shift	Phase excitation	Force A raw	Displacement raw	HMax	HMax raw	Real Force	Real Stiffness	Contact Depth	Area	Hardness	Reduced Mod.
[#]	[#]	[um]	[s]	[um]	[um]	[um]	[m°]	[m°]	[um]	[uN]	[uN]	[V]	[V]	[V]	[°C]	[uN]	[um]	[N/m]	[°]	[°]	[uN]	[um]	[um]	[um]	[uN]	[N/m]	[um]	[um^2]	[MPa]	[MPa]
561	1.000000	0.002538	7.37053e+06	-49039.1	1005.82	-29760.3	0.000000	0.000000	6.002809	0.004466	NaN	0.000000	0.001550	0.001677	28.0817	0.101696	0.001049	96.9528	147.164	-164.111	0.056252	0.001309	-1.150864	-1.152094	0.004466	96.9528	-1.150899	-2.414735E+15	-1.849471E-18	NaN
561	1.000000	0.044451	7.37054e+06	-49039.1	1005.82	-29760.3	0.000000	0.000000	6.044721	-0.001230	NaN	0.000000	0.001573	0.001727	28.0815	0.062341	0.001834	33.998	148.457	15.4686	0.093124	0.043164	-1.108952	-1.110238	-0.001230	33.998	-1.108925	-6.604747E+14	1.863030E-18	NaN
561	1.000000	0.086477	7.37054e+06	-49039.1	1005.82	-29760.3	0.000000	0.000000	6.086751	0.099236	NaN	0.000000	0.001531	0.001704	28.0817	0.106925	0.001979	54.0242	16.4553	-165.771	0.041073	0.085174	-1.066926	-1.068228	0.099236	54.0242	-1.068303	-1.881031E+14	-5.275632E-16	NaN
561	1.000000	0.128541	7.37054e+06	-49039.1	1005.82	-29760.3	0.000000	0.000000	6.128812	0.028206	NaN	0.000000	0.001516	0.001823	28.0822	0.010886	0.001976	5.509477	91.3024	17.2114	0.064922	0.127180	-1.024861	-1.026223	0.028206	5.509477	-1.028701	-5.520898E+13	-5.108967E-16	NaN
561	1.000000	0.170514	7.37054e+06	-49039.1	1005.82	-29760.3	0.000000	0.000000	6.170784	0.001078	NaN	0.000000	0.001552	0.001718	28.083	0.014063	0.002022	6.954639	-24.297	-167.242	0.023159	0.169220	-0.982889	-0.984183	0.001078	6.954639	-0.983005	-1.339362E+13	-8.052223E-17	NaN
561	1.000000	0.212539	7.37054e+06	-49039.1	1005.82	-29760.3	0.000000	0.000000	6.212812	0.063307	NaN	0.000000	0.001579	0.001742	28.0829	0.122999	0.002006	61.3107	-114.313	12.7669	0.066480	0.211153	-0.940863	-0.942250	0.063307	61.3107	-0.941638	-3.708781E+12	-1.706938E-14	NaN
561	1.000000	0.254553	7.37054e+06	-49039.1	1005.82	-29760.3	0.000000	0.000000	6.254820	-0.075602	NaN	0.000000	0.001540	0.001708	28.0829	0.099627	0.002009	49.5989	145.137	-166.974	-0.072240	0.253238	-0.898850	-0.900164	-0.075602	49.5989	-0.897707	-9.464021E+11	7.988355E-14	NaN
561	1.000000	0.296582	7.37054e+06	-49039.1	1005.82	-29760.3	0.000000	0.000000	6.296852	0.006165	NaN	0.000000	0.001515	0.001715	28.0817	0.089207	0.001905	46.839	-94.3763	16.2378	0.043691	0.295289	-0.856821	-0.858113	0.006165	46.839	-0.856919	-2.657184E+11	-2.320209E-14	NaN
561	1.000000	0.338612	7.37054e+06	-49039.1	1005.82	-29760.3	0.000000	0.000000	6.338882	-0.002328	NaN	0.000000	0.001587	0.001681	28.0816	0.102506	0.002020	50.7571	-12.2685	-165.013	-0.013724	0.337286	-0.814790	-0.816117	-0.002328	50.7571	-0.814756	-7.130029E+10	3.265072E-14	NaN
561	1.000000	0.380577	7.37054e+06	-49039.1	1005.82	-29760.3	0.000000	0.000000	6.380848	0.018608	NaN	0.000000	0.001556	0.001707	28.0819	0.102064	0.002014	50.6878	39.7994	11.7679	0.059057	0.379300	-0.772825	-0.774102	0.018608	50.6878	-0.773101	-1.938476E+10	-9.599236E-13	NaN
561	1.000000	0.422611	7.37054e+06	-49039.1	1005.82	-29760.3	0.000000	0.000000	6.422881	0.003405	NaN	0.000000	0.001572	0.001780	28.0831	0.100137	0.001976	50.6714	112.235	-165.809	0.018627	0.421359	-0.730792	-0.732043	0.003405	50.6714	-0.730842	-5.155715E+9	-6.605211E-13	NaN
561	1.000000	0.464663	7.37054e+06	-49039.1	1005.82	-29760.3	0.000000	0.000000	6.464934	0.016316	NaN	0.000000	0.001589	0.001753	28.0828	0.065780	0.001988	33.0882	-149.999	11.6104	-0.014778	0.463289	-0.688739	-0.690114	0.016316	33.0882	-0.689109	-1.389128E+9	-1.174539E-11	NaN
561	1.000000	0.506687	7.37054e+06	-49039.1	1005.82	-29760.3	0.000000	0.000000	6.506956	-0.031788	NaN	0.000000	0.001574	0.001750	28.0829	0.078391	0.002020	38.801	155.345	-167.638	-0.036988	0.505374	-0.646716	-0.648028	-0.031788	38.801	-0.646101	-3.580823E+8	8.877228E-11	NaN
561	1.000000	0.548661	7.37054e+06	-49039.1	1005.82	-29760.3	0.000000	0.000000	6.548931	-0.001592	NaN	0.000000	0.001606	0.001724	28.0816	0.053347	0.002052	25.9999	-39.3642	13.199	-0.005357	0.547318	-0.604742	-0.606085	-0.001592	25.9999	-0.604696	-9.663246E+7	1.647229E-11	NaN
561	1.000000	0.590708	7.37054e+06	-49039.1	1005.82	-29760.3	0.000000	0.000000	6.590978	-0.019476	NaN	0.000000	0.001588	0.001677	28.0817	0.028059	0.001974	14.2138	40.1955	-165.515	0.030152	0.589426	-0.562694	-0.563977	-0.019476	14.2138	-0.561667	-2.462807E+7	7.907882E-10	NaN
561	1.000000	0.632727	7.37054e+06	-49039.1	1005.82	-29760.3	0.000000	0.000000	6.632997	-0.002423	NaN	0.000000	0.001664	0.001722	28.0817	0.040924	0.002077	19.6997	110.636	12.83	0.032662	0.631350	-0.520676	-0.522053	-0.002423	19.6997	-0.520584	-6.63305e+06	3.653037E-10	NaN
561	1.000000	0.674753	7.37054e+06	-49039.1	1005.82	-29760.3	0.000000	0.000000	6.675025	0.040042	NaN	0.000000	0.001622	0.001717	28.0817	0.071373	0.002017	35.3935	117.096	-164.833	0.033361	0.673442	-0.478650	-0.479961	0.040042	35.3935	-0.479498	-1.77217e+06	-2.259501E-8	NaN
561	1.000000	0.716782	7.37054e+06	-49039.1	1005.82	-29760.3	0.000000	0.000000	6.717055	0.080224	NaN	0.000000	0.001621	0.001719	28.083	0.093930	0.001994	47.0946	-170.695	12.8921	0.105940	0.715435	-0.436621	-0.437967	0.080224	47.0946	-0.437898	-460991	-1.740262E-7	NaN
561	1.000000	0.758782	7.37054e+06	-49039.1	1005.82	-29760.3	0.000000	0.000000	6.759051	-0.023587	NaN	0.000000	0.001680	0.001741	28.0829	0.067537	0.001952	34.5926	143.37	-164.855	-0.039307	0.757473	-0.394620	-0.395930	-0.023587	34.5926	-0.394109	-110130	2.141726E-7	NaN
561	1.000000	0.800803	7.37054e+06	-49039.1	1005.82	-29760.3	0.000000	0.000000	6.801073	0.003042	NaN	0.000000	0.001633	0.001761	28.0829	0.075876	0.001878	40.412	-82.5431	13.449	0.060519	0.799451	-0.352600	-0.353951	0.003042	40.412	-0.352656	-27895.2	-1.090469E-7	NaN
561	1.000000	0.842801	7.37054e+06	-49039.1	1005.82	-29760.3	0.000000	0.000000	6.843067	-0.078306	NaN	0.000000	0.001580	0.001751	28.0818	0.023091	0.002029	11.3793	-14.3241	-165.219	-0.097769	0.841499	-0.310602	-0.311904	-0.078306	11.3793	-0.305441	-5668.93	1.381316E-5	NaN
561	1.000000	0.884842	7.37054e+06	-49039.1	1005.82	-29760.3	0.000000	0.000000	6.885115	0.064940	NaN	0.000000	0.001589	0.001741	28.0819	0.125380	0.001986	63.1381	-43.9269	14.469	0.055767	0.883455	-0.268561	-0.269948	0.064940	63.1381	-0.269332	-1627.02	-3.991354E-5	NaN
561	1.000000	0.926829	7.37054e+06	-49039.1	1005.82	-29760.3	0.000000	0.000000	6.927100	0.036351	NaN	0.000000	0.001556	0.001757	28.0818	0.086307	0.002052	42.056	56.2787	-163.683	0.022343	0.925528	-0.226574	-0.227874	0.036351	42.056	-0.227222	-361.896	-0.000100	NaN
561	1.000000	0.968837	7.37054e+06	-49039.1	1005.82	-29760.3	0.000000	0.000000	6.969107	0.009355	NaN	0.000000	0.001609	0.001745	28.0831	0.045587	0.001916	23.7937	112.011	13.5985	0.021453	0.967534	-0.184566	-0.185869	0.009355	23.7937	-0.184861	-73.7536	-0.000127	NaN
561	1.000000	1.010884	7.37054e+06	-49039.1	1005.82	-29760.3	0.000000	0.000000	7.011155	0.022479	NaN	0.000000	0.001574	0.001767	28.0831	0.146814	0.001959	74.9575	6.654605	-161.734	-0.089441	1.009543	-0.142519	-0.143860	0.022479	74.9575	-0.142744	-13.3135	-0.001688	NaN
561	1.000000	1.052883	7.37054e+06	-49039.1	1005.82	-29760.3	0.000000	0.000000	7.053153	-0.014132	NaN	0.000000	0.001645	0.001731	28.0829	0.036447	0.001970	18.4994	-64.7853	14.9725	0.005631	1.051512	-0.100519	-0.101891	-0.014132	18.4994	-0.099946	-1.822154	0.007756	NaN
561	1.000000	1.094885	7.37054e+06	-49039.1	1005.82	-29760.3	0.000000	0.000000	7.095156	0.024815	NaN	0.000000	0.001619	0.001696	28.0819	0.045985	0.002010	22.8819	69.0437	-166.524	-0.012641	1.093561	-0.058518	-0.059842	0.024815	22.8819	-0.059331	-0.172294	-0.144025	NaN
561	1.000000	1.136919	7.37054e+06	-49039.1	1005.82	-29760.3	0.000000	0.000000	7.137189	-0.004121	NaN	0.000000	0.001561	0.001684	28.0818	0.032941	0.001986	16.5834	40.3592	11.1163	0.011382	1.135597	-0.016484	-0.017805	-0.004121	16.5834	-0.016298	-0.010067	0.409358	NaN
561	2.000000	1.164541	7.37054e+06	-49039.1	1005.82	-29760.3	0.000000	0.000000	7.165307	12.0645	NaN	0.000000	0.001583	0.001658	28.0818	12.937	0.001884	6867.07	9.272710	-174.089	12.4379	1.164213	0.011138	0.010811	12.0645	6867.07	0.009820	0.008982	1343.13	66198.7
561	2.000000	1.174902	7.37054e+06	-49039.1	1005.82	-29760.3	0.000000	0.000000	7.176629	35.4461	NaN	0.000000	0.001543	0.001671	28.0821	23.4041	0.001711	13681.2	6.227476	0.666589	33.0364	1.174537	0.021499	0.021134	35.4461	13681.2	0.019556	0.021849	1622.31	84563.1
561	2.000000	1.185407	7.37054e+06	-49039.1	1005.82	-29760.3	0.000000	0.000000	7.188418	66.6481	NaN	0.000000	0.001550	0.001677	28.0834	35.7636	0.001869	19133.3	8.944399	175.39	66.9239	1.185045	0.032005	0.031642	66.6481	19133.3	0.029392	0.039493	1687.59	87963.3
561	2.000000	1.195875	7.37054e+06	-49039.1	1005.82	-29760.3	0.000000	0.000000	7.200402	103.553	NaN	0.000000	0.001597	0.001668	28.0833	45.3344	0.001788	25360.5	6.560165	-6.168653	100.952	1.195561	0.042472	0.042159	103.553	25360.5	0.039409	0.062511	1656.55	92672.8
561	2.000000	1.206377	7.37054e+06	-49039.1	1005.82	-29760.3	0.000000	0.000000	7.213097	156.858	NaN	0.000000	0.001607	0.001666	28.0829	56.853	0.001879	30257	8.019270	172.407	154.932	1.206079	0.052975	0.052676	156.858	30257	0.049086	0.089610	1750.44	92346.6
561	2.000000	1.216914	7.37054e+06	-49039.1	1005.82	-29760.3	0.000000	0.000000	7.225755	208.458	NaN	0.000000	0.001607	0.001679	28.0817	65.3356	0.001847	35368.4	6.264587	-7.800153	208.583	1.216617	0.063511	0.063215	208.458	35368.4	0.059091	0.122569	1700.75	92299.4
561	2.000000	1.227297	7.37054e+06	-49039.1	1005.82	-29760.3	0.000000	0.000000	7.238940	276.608	NaN	0.000000	0.001536	0.001672	28.0819	74.5273	0.001806	41259.5	6.910681	170.771	272.207	1.226976	0.073894	0.073573	276.608	41259.5	0.068866	0.159505	1734.16	94386.3
561	2.000000	1.237842	7.37054e+06	-49039.1	1005.82	-29760.3	0.000000	0.000000	7.251984	337.376	NaN	0.000000	0.001513	0.001667	28.0818	84.5884	0.001772	47749.4	5.526144	-9.598365	334.95	1.237624	0.084439	0.084221	337.376	47749.4	0.079140	0.203242	1659.97	96768.5
561	2.000000	1.248316	7.37054e+06	-49039.1	1005.82	-29760.3	0.000000	0.000000	7.265745	417.309	NaN	0.000000	0.001510	0.001675	28.083	94.0974	0.001851	50846.4	4.632701	171.278	414.925	1.248093	0.094914	0.094691	417.309	50846.4	0.088758	0.248655	1678.26	93161.1
561	2.000000	1.258248	7.37054e+06	-49039.1	1005.82	-29760.3	0.000000	0.000000	7.279143	501.605	NaN	0.000000	0.001498	0.001684	28.0831	101.555	0.001696	59890.9	3.461901	171.624	497.984	1.258036	0.104845	0.104633	501.605	59890.9	0.098564	0.299329	1675.76	100014