File: remote_trans/data/nanoindenter/0828-1/data/Data_2025-08-06,11h17m57s/2025-07-22_16-23-58_1_680.txt
2025-07-22, 16:23:58, 1
Index	Phase	Displacement	Time	Pos X	Pos Y	Pos Z	Rot A	Rot B	Piezo Z	Force A	Force B	Gripper	Voltage A	Voltage B	Temperature	Amplitude force	Amplitude pos	Stiffness	Phase shift	Phase excitation	Force A raw	Displacement raw	HMax	HMax raw	Real Force	Real Stiffness	Contact Depth	Area	Hardness	Reduced Mod.
[#]	[#]	[um]	[s]	[um]	[um]	[um]	[m°]	[m°]	[um]	[uN]	[uN]	[V]	[V]	[V]	[°C]	[uN]	[um]	[N/m]	[°]	[°]	[uN]	[um]	[um]	[um]	[uN]	[N/m]	[um]	[um^2]	[MPa]	[MPa]
680	1.000000	0.002619	7.3717e+06	-43089.1	1005.82	-29780.1	0.000000	0.000000	6.002790	0.018742	NaN	0.000000	0.001625	0.001717	28.0828	0.043196	0.000965	44.7858	-43.9273	-163.394	-0.021818	0.001409	-1.239552	-1.240762	0.018742	44.7858	-1.239866	-3.752716E+16	-4.994346E-19	NaN
680	1.000000	0.048562	7.3717e+06	-43089.1	1005.82	-29780.1	0.000000	0.000000	6.048731	-0.011195	NaN	0.000000	0.001611	0.001688	28.084	0.051891	0.001895	27.378	155.93	15.1941	-0.076826	0.047272	-1.193609	-1.194899	-0.011195	27.378	-1.193302	-8.934111E+15	1.253040E-18	NaN
680	1.000000	0.094595	7.3717e+06	-43089.1	1005.82	-29780.2	0.000000	0.000000	6.094764	-0.011442	NaN	0.000000	0.001610	0.001756	28.0841	0.142025	0.001881	75.4908	-103.793	-160.848	-0.015374	0.093293	-1.147576	-1.148878	-0.011442	75.4908	-1.147462	-2.171676E+15	5.268689E-18	NaN
680	1.000000	0.140611	7.3717e+06	-43089.1	1005.82	-29780.2	0.000000	0.000000	6.140779	-0.035574	NaN	0.000000	0.001637	0.001736	28.0837	0.118480	0.001980	59.8323	-42.3294	13.1877	-0.024608	0.139231	-1.101560	-1.102940	-0.035574	59.8323	-1.101114	-5.188278E+14	6.856671E-17	NaN
680	1.000000	0.186639	7.3717e+06	-43089.1	1005.82	-29780.2	0.000000	0.000000	6.186808	-0.007908	NaN	0.000000	0.001625	0.001811	28.083	0.070999	0.002017	35.2054	126.454	-165.238	-0.020932	0.185273	-1.055532	-1.056898	-0.007908	35.2054	-1.055364	-1.260413E+14	6.274239E-17	NaN
680	1.000000	0.232644	7.3717e+06	-43089.1	1005.82	-29780.2	0.000000	0.000000	6.232813	-0.030828	NaN	0.000000	0.001619	0.001732	28.0828	0.018848	0.001968	9.578890	3.952407	17.2809	-0.026801	0.231321	-1.009527	-1.010850	-0.030828	9.578890	-1.007113	-2.828300E+13	1.089969E-15	NaN
680	1.000000	0.278666	7.3717e+06	-43089.1	1005.82	-29780.2	0.000000	0.000000	6.278835	-0.031588	NaN	0.000000	0.001621	0.001736	28.0827	0.099235	0.002015	49.255	-50.7371	-164.834	0.003790	0.277393	-0.963505	-0.964777	-0.031588	49.255	-0.963024	-7.204925E+12	4.384173E-15	NaN
680	1.000000	0.324676	7.3717e+06	-43089.1	1005.82	-29780.2	0.000000	0.000000	6.324844	-0.036612	NaN	0.000000	0.001617	0.001732	28.084	0.068106	0.002144	31.7714	-45.8994	16.7656	-0.032182	0.323340	-0.917495	-0.918831	-0.036612	31.7714	-0.916631	-1.704962E+12	2.147373E-14	NaN
680	1.000000	0.370725	7.3717e+06	-43089.1	1005.82	-29780.2	0.000000	0.000000	6.370893	-0.029515	NaN	0.000000	0.001695	0.001694	28.0839	0.040578	0.002017	20.1226	133.772	-165.414	0.097011	0.369400	-0.871446	-0.872771	-0.029515	20.1226	-0.870346	-4.037596E+11	7.310128E-14	NaN
680	1.000000	0.416714	7.3717e+06	-43089.1	1005.82	-29780.2	0.000000	0.000000	6.416882	-0.038016	NaN	0.000000	0.001621	0.001670	28.0843	0.044835	0.002053	21.8428	-146.628	15.8996	-0.112889	0.415376	-0.825457	-0.826795	-0.038016	21.8428	-0.824151	-9.560960E+10	3.976200E-13	NaN
680	1.000000	0.462759	7.3717e+06	-43089.1	1005.82	-29780.2	0.000000	0.000000	6.462927	-0.038105	NaN	0.000000	0.001609	0.001736	28.0828	0.080794	0.001985	40.6922	-59.8791	-161.932	-0.067139	0.461398	-0.779412	-0.780773	-0.038105	40.6922	-0.778710	-2.310441E+10	1.649245E-12	NaN
680	1.000000	0.508790	7.3717e+06	-43089.1	1005.82	-29780.2	0.000000	0.000000	6.508961	0.037451	NaN	0.000000	0.001621	0.001740	28.0831	0.071984	0.002075	34.6984	80.9883	16.0629	0.088612	0.507373	-0.733381	-0.734797	0.037451	34.6984	-0.734191	-5.726850E+9	-6.539597E-12	NaN
680	1.000000	0.554799	7.3717e+06	-43089.1	1005.82	-29780.2	0.000000	0.000000	6.554968	-0.007997	NaN	0.000000	0.001666	0.001721	28.0831	0.035595	0.001899	18.7467	176.164	-162.106	-0.011382	0.553511	-0.687372	-0.688660	-0.007997	18.7467	-0.687052	-1.302047E+9	6.142079E-12	NaN
680	1.000000	0.600833	7.3717e+06	-43089.1	1005.82	-29780.2	0.000000	0.000000	6.601001	-0.050639	NaN	0.000000	0.001611	0.001807	28.0843	0.116309	0.001972	58.9712	-157.187	16.4248	-0.076025	0.599431	-0.641338	-0.642740	-0.050639	58.9712	-0.640694	-3.018631E+8	1.677543E-10	NaN
680	1.000000	0.646827	7.3717e+06	-43089.1	1005.82	-29780.2	0.000000	0.000000	6.646997	0.004504	NaN	0.000000	0.001600	0.001804	28.0844	0.024511	0.002047	11.9746	124.124	-163.762	0.020677	0.645541	-0.595344	-0.596630	0.004504	11.9746	-0.595626	-7.247886E+7	-6.214260E-11	NaN
680	1.000000	0.692861	7.3717e+06	-43089.1	1005.82	-29780.2	0.000000	0.000000	6.693030	-0.032959	NaN	0.000000	0.001638	0.001805	28.0849	0.089193	0.002082	42.8453	130.779	18.7618	-0.134247	0.691447	-0.549310	-0.550724	-0.032959	42.8453	-0.548733	-1.630807E+7	2.021014E-9	NaN
680	1.000000	0.738850	7.37171e+06	-43089.1	1005.82	-29780.2	0.000000	0.000000	6.739016	-0.090084	NaN	0.000000	0.001619	0.001736	28.0832	0.064359	0.002027	31.7504	-103.922	-164.037	-0.139363	0.737586	-0.503321	-0.504585	-0.090084	31.7504	-0.501193	-3.56168e+06	2.529265E-8	NaN
680	1.000000	0.784888	7.37171e+06	-43089.1	1005.82	-29780.2	0.000000	0.000000	6.785055	-0.065768	NaN	0.000000	0.001657	0.001803	28.0833	0.071745	0.001989	36.0774	129.75	13.207	-0.097325	0.783552	-0.457282	-0.458619	-0.065768	36.0774	-0.455915	-827162	7.951025E-8	NaN
680	1.000000	0.830901	7.37171e+06	-43089.1	1005.82	-29780.2	0.000000	0.000000	6.831068	-0.063439	NaN	0.000000	0.001609	0.001808	28.0831	0.086596	0.002021	42.853	102.848	-167.724	0.022006	0.829585	-0.411270	-0.412586	-0.063439	42.853	-0.410160	-186497	3.401583E-7	NaN
680	1.000000	0.876931	7.37171e+06	-43089.1	1005.82	-29780.2	0.000000	0.000000	6.877102	0.022879	NaN	0.000000	0.001684	0.001764	28.0846	0.126979	0.001988	63.8844	146.065	15.9574	0.008983	0.875551	-0.365240	-0.366620	0.022879	63.8844	-0.365508	-42794.5	-5.346155E-7	NaN
680	1.000000	0.922920	7.37171e+06	-43089.1	1005.82	-29780.2	0.000000	0.000000	6.923088	-0.055742	NaN	0.000000	0.001668	0.001813	28.0845	0.088354	0.001875	47.1118	88.1064	-165.067	-0.012230	0.921610	-0.319251	-0.320561	-0.055742	47.1118	-0.318363	-8801.15	6.333502E-6	NaN
680	1.000000	0.968965	7.37171e+06	-43089.1	1005.82	-29780.2	0.000000	0.000000	6.969135	-0.009807	NaN	0.000000	0.001680	0.001785	28.0847	0.086285	0.001973	43.7329	9.490594	14.7365	-0.025029	0.967608	-0.273206	-0.274563	-0.009807	43.7329	-0.273037	-1852.08	5.295113E-6	NaN
680	1.000000	1.015013	7.37171e+06	-43089.1	1005.82	-29780.2	0.000000	0.000000	7.015179	-0.088832	NaN	0.000000	0.001654	0.001772	28.0831	0.063922	0.001952	32.7539	-42.9319	-163.159	-0.097098	1.013653	-0.227158	-0.228517	-0.088832	32.7539	-0.225124	-335.197	0.000265	NaN
680	1.000000	1.060994	7.37171e+06	-43089.1	1005.82	-29780.2	0.000000	0.000000	7.061163	-0.030488	NaN	0.000000	0.001560	0.001805	28.0833	0.030143	0.001999	15.0795	83.9951	17.6359	-0.042412	1.059643	-0.181177	-0.182528	-0.030488	15.0795	-0.179660	-60.2121	0.000506	NaN
680	1.000000	1.106996	7.37171e+06	-43089.1	1005.82	-29780.2	0.000000	0.000000	7.107166	-0.006280	NaN	0.000000	0.001615	0.001780	28.0832	0.053103	0.002041	26.0214	14.145	-165.214	-0.071294	1.105714	-0.135175	-0.136457	-0.006280	26.0214	-0.134994	-9.509699	0.000660	NaN
680	1.000000	1.153011	7.37171e+06	-43089.1	1005.82	-29780.2	0.000000	0.000000	7.153177	-0.109572	NaN	0.000000	0.001676	0.001756	28.0847	0.070129	0.001895	37.0075	95.7557	19.2109	-0.178327	1.151632	-0.089159	-0.090539	-0.109572	37.0075	-0.086939	-0.914780	0.119779	NaN
680	1.000000	1.199026	7.37171e+06	-43089.1	1005.82	-29780.2	0.000000	0.000000	7.199196	0.001130	NaN	0.000000	0.001667	0.001759	28.0849	0.043075	0.001996	21.5816	-64.5423	-165.994	-0.018281	1.197755	-0.043145	-0.044416	0.001130	21.5816	-0.043184	-0.056554	-0.019984	NaN
680	1.000000	1.244974	7.37171e+06	-43089.1	1005.82	-29780.2	0.000000	0.000000	7.245458	7.656715	NaN	0.000000	0.001614	0.001760	28.0848	7.924851	0.001794	4417.4	12.0755	6.081702	5.481124	1.243731	0.002803	0.001560	7.656715	4417.4	0.001503	0.001157	6619.6	118668
680	2.000000	1.257505	7.37171e+06	-43089.1	1005.82	-29780.2	0.000000	0.000000	7.259013	32.5572	NaN	0.000000	0.001644	0.001740	28.0835	20.5856	0.001694	12153.2	5.813704	-177.892	31.3468	1.257199	0.015334	0.015028	32.5572	12153.2	0.013325	0.013116	2482.27	96954
680	2.000000	1.268986	7.37171e+06	-43089.1	1005.82	-29780.2	0.000000	0.000000	7.271710	62.1371	NaN	0.000000	0.001641	0.001798	28.0839	31.9745	0.001864	17153.3	4.556089	0.863131	59.4075	1.268647	0.026815	0.026476	62.1371	17153.3	0.024098	0.029396	2113.81	91406.5
680	2.000000	1.280421	7.37171e+06	-43089.1	1005.82	-29780.2	0.000000	0.000000	7.284917	105.264	NaN	0.000000	0.001586	0.001791	28.0838	41.1155	0.001803	22800.5	3.627247	-179.914	102.242	1.280167	0.038250	0.037996	105.264	22800.5	0.034787	0.051251	2053.87	92016.2
680	2.000000	1.291974	7.37171e+06	-43089.1	1005.82	-29780.2	0.000000	0.000000	7.298781	161.466	NaN	0.000000	0.001596	0.001794	28.0858	54.4222	0.001782	30548.4	4.721577	-3.734460	159.329	1.291725	0.049804	0.049554	161.466	30548.4	0.045839	0.079988	2018.62	98684.6
680	2.000000	1.303506	7.37171e+06	-43089.1	1005.82	-29780.2	0.000000	0.000000	7.313317	234.569	NaN	0.000000	0.001611	0.001777	28.0851	65.858	0.001823	36120.2	5.676117	175.063	235.459	1.303103	0.061335	0.060932	234.569	36120.2	0.056465	0.113437	2067.84	97981.9
680	2.000000	1.315054	7.37171e+06	-43089.1	1005.82	-29780.2	0.000000	0.000000	7.327842	306.998	NaN	0.000000	0.001592	0.001767	28.0848	76.7633	0.001768	43423.3	6.354111	-6.722521	309.845	1.314480	0.072883	0.072309	306.998	43423.3	0.067581	0.154386	1988.51	100970
680	2.000000	1.326411	7.37171e+06	-43089.1	1005.82	-29780.2	0.000000	0.000000	7.342824	395.205	NaN	0.000000	0.001568	0.001813	28.0836	86.0256	0.001679	51246.2	9.740209	167.844	393.909	1.326029	0.084240	0.083858	395.205	51246.2	0.078456	0.200176	1974.29	104647
680	2.000000	1.337904	7.37171e+06	-43089.1	1005.82	-29780.2	0.000000	0.000000	7.358410	494.778	NaN	0.000000	0.001645	0.001756	28.0835	96.4684	0.001763	54704.5	4.995272	-6.946343	489.824	1.337520	0.095733	0.095349	494.778	54704.5	0.088950	0.249603	1982.26	100039
680	2.000000	1.345000	7.37171e+06	-43089.1	1005.82	-29780.2	0.000000	0.000000	7.367909	553.246	NaN	0.000000	0.001666	0.001802	28.0834	104.655	0.001780	58795.6	7.936963	-10.7342	554.037	1.344362	0.102829	0.102192	553.246	58795.6	0.095772	0.284454	1944.94	100719