File: remote_trans/data/nanoindenter/0828-1/data/Data_2025-08-06,11h17m57s/2025-07-22_16-23-58_1_8.txt
2025-07-22, 16:23:58, 1
Index	Phase	Displacement	Time	Pos X	Pos Y	Pos Z	Rot A	Rot B	Piezo Z	Force A	Force B	Gripper	Voltage A	Voltage B	Temperature	Amplitude force	Amplitude pos	Stiffness	Phase shift	Phase excitation	Force A raw	Displacement raw	HMax	HMax raw	Real Force	Real Stiffness	Contact Depth	Area	Hardness	Reduced Mod.
[#]	[#]	[um]	[s]	[um]	[um]	[um]	[m°]	[m°]	[um]	[uN]	[uN]	[V]	[V]	[V]	[°C]	[uN]	[um]	[N/m]	[°]	[°]	[uN]	[um]	[um]	[um]	[uN]	[N/m]	[um]	[um^2]	[MPa]	[MPa]
8.000000	1.000000	0.002798	7.36512e+06	-39039.1	955.818	-29796	0.000000	0.000000	6.002831	-0.053004	NaN	0.000000	0.001509	0.001713	28.0812	0.076307	0.000928	82.2043	165.641	-167.138	-0.038568	0.001562	-1.140698	-1.141934	-0.053004	82.2043	-1.140215	-1.736260E+15	3.052756E-17	NaN
8.000000	1.000000	0.046742	7.36512e+06	-39039.1	955.818	-29796	0.000000	0.000000	6.046778	0.005679	NaN	0.000000	0.001588	0.001734	28.1306	0.055857	0.001899	29.4121	139.996	-164.33	0.028389	0.045433	-1.096754	-1.098062	0.005679	29.4121	-1.096898	-4.554402E+14	-1.246843E-17	NaN
8.000000	1.000000	0.090728	7.36512e+06	-39039.1	955.818	-29796	0.000000	0.000000	6.090763	-0.026793	NaN	0.000000	0.001593	0.001717	28.0815	0.129277	0.001980	65.2881	20.9905	-163.494	-0.088744	0.089466	-1.052768	-1.054030	-0.026793	65.2881	-1.052460	-1.152072E+14	2.325627E-16	NaN
8.000000	1.000000	0.134781	7.36512e+06	-39039.1	955.817	-29796	0.000000	0.000000	6.134816	-0.007276	NaN	0.000000	0.001674	0.001760	28.129	0.151901	0.001946	78.043	-143.331	-162.104	-0.026058	0.133430	-1.008715	-1.010066	-0.007276	78.043	-1.008645	-2.965845E+13	2.453269E-16	NaN
8.000000	1.000000	0.178776	7.36512e+06	-39039.1	955.819	-29796	0.000000	0.000000	6.178813	0.014554	NaN	0.000000	0.001663	0.001759	28.0786	0.078848	0.001792	43.9924	123.725	-165.766	0.080073	0.177501	-0.964720	-0.965995	0.014554	43.9924	-0.964968	-7.653121E+12	-1.901761E-15	NaN
8.000000	1.000000	0.222804	7.36512e+06	-39039.1	955.818	-29796	0.000000	0.000000	6.222839	-0.014074	NaN	0.000000	0.001689	0.001765	28.129	0.080151	0.002007	39.9412	-113.324	-162.387	0.068704	0.221493	-0.920692	-0.922003	-0.014074	39.9412	-0.920428	-1.918573E+12	7.335613E-15	NaN
8.000000	1.000000	0.266835	7.36512e+06	-39039.1	955.819	-29796	0.000000	0.000000	6.266873	0.040066	NaN	0.000000	0.001664	0.001724	28.0805	0.048309	0.001900	25.4192	-91.9422	-164.505	-0.024340	0.265459	-0.876660	-0.878036	0.040066	25.4192	-0.877842	-5.099514E+11	-7.856771E-14	NaN
8.000000	1.000000	0.310811	7.36512e+06	-39039.1	955.818	-29796	0.000000	0.000000	6.310849	0.047956	NaN	0.000000	0.001574	0.001768	28.1304	0.086151	0.001958	43.9931	61.2157	-166.371	0.024411	0.309534	-0.832685	-0.833962	0.047956	43.9931	-0.833502	-1.280114E+11	-3.746197E-13	NaN
8.000000	1.000000	0.354848	7.36512e+06	-39039.1	955.818	-29796	0.000000	0.000000	6.354886	0.065465	NaN	0.000000	0.001535	0.001713	28.0804	0.045324	0.001954	23.1951	163.005	-163.765	0.040341	0.353523	-0.788648	-0.789973	0.065465	23.1951	-0.790765	-3.368786E+10	-1.943287E-12	NaN
8.000000	1.000000	0.398861	7.36512e+06	-39039.1	955.819	-29796	0.000000	0.000000	6.398895	-0.035164	NaN	0.000000	0.001553	0.001728	28.1308	0.088130	0.002010	43.8472	-5.172113	-164.243	-0.028124	0.397561	-0.744635	-0.745934	-0.035164	43.8472	-0.744033	-7.798025E+9	4.509323E-12	NaN
8.000000	1.000000	0.442864	7.36512e+06	-39039.1	955.818	-29796	0.000000	0.000000	6.442900	-0.003772	NaN	0.000000	0.001577	0.001695	28.0781	0.051896	0.002139	24.2566	143.16	-164.841	-0.073104	0.441572	-0.700631	-0.701923	-0.003772	24.2566	-0.700515	-1.988658E+9	1.896709E-12	NaN
8.000000	1.000000	0.486872	7.36512e+06	-39039.1	955.818	-29796	0.000000	0.000000	6.486907	-0.019457	NaN	0.000000	0.001591	0.001702	28.1303	0.143424	0.002109	67.9906	136.938	-166.185	-0.062800	0.485577	-0.656624	-0.657919	-0.019457	67.9906	-0.656410	-4.957722E+8	3.924614E-11	NaN
8.000000	1.000000	0.530980	7.36512e+06	-39039.1	955.818	-29796	0.000000	0.000000	6.531016	0.004484	NaN	0.000000	0.001561	0.001665	28.0783	0.024974	0.001890	13.2164	-151.829	-162.61	-0.003562	0.529652	-0.612516	-0.613843	0.004484	13.2164	-0.612770	-1.248029E+8	-3.592562E-11	NaN
8.000000	1.000000	0.574952	7.36512e+06	-39039.1	955.818	-29796	0.000000	0.000000	6.574990	0.050423	NaN	0.000000	0.001572	0.001702	28.1317	0.046716	0.002069	22.5775	43.729	-164.308	0.030204	0.573648	-0.568544	-0.569848	0.050423	22.5775	-0.570219	-3.233399E+7	-1.559456E-9	NaN
8.000000	1.000000	0.619020	7.36512e+06	-39039.1	955.818	-29796	0.000000	0.000000	6.619058	0.034789	NaN	0.000000	0.001569	0.001711	28.0797	0.051801	0.001960	26.4269	95.0804	-165.415	0.013956	0.617688	-0.524476	-0.525807	0.034789	26.4269	-0.525463	-7.75431e+06	-4.486423E-9	NaN
8.000000	1.000000	0.662989	7.36512e+06	-39039.1	955.818	-29796	0.000000	0.000000	6.663027	0.047910	NaN	0.000000	0.001559	0.001720	28.1318	0.058638	0.001920	30.5396	5.991074	-164.742	0.065786	0.661694	-0.480507	-0.481802	0.047910	30.5396	-0.481683	-1.90145e+06	-2.519670E-8	NaN
8.000000	1.000000	0.706978	7.36512e+06	-39039.1	955.817	-29796	0.000000	0.000000	6.707014	-0.002677	NaN	0.000000	0.001574	0.001716	28.0774	0.079718	0.002027	39.3193	131.827	-167.58	-0.015631	0.705658	-0.436518	-0.437838	-0.002677	39.3193	-0.436467	-440025	6.083767E-9	NaN
8.000000	1.000000	0.751018	7.36512e+06	-39039.1	955.819	-29796	0.000000	0.000000	6.751053	-0.029727	NaN	0.000000	0.001554	0.001673	28.1306	0.043349	0.002012	21.5436	107.664	-166.046	0.013993	0.749683	-0.392478	-0.393813	-0.029727	21.5436	-0.391443	-100880	2.946752E-7	NaN
8.000000	1.000000	0.795041	7.36512e+06	-39039.1	955.818	-29796	0.000000	0.000000	6.795078	0.008642	NaN	0.000000	0.001506	0.001709	28.0788	0.059230	0.001981	29.8959	12.6668	-165.02	0.004487	0.793700	-0.348454	-0.349796	0.008642	29.8959	-0.348671	-24418.1	-3.539231E-7	NaN
8.000000	1.000000	0.839065	7.36512e+06	-39039.1	955.818	-29796	0.000000	0.000000	6.839097	-0.072650	NaN	0.000000	0.001555	0.001763	28.1309	0.026429	0.001880	14.0611	164.532	-168.277	-0.154000	0.837746	-0.304431	-0.305750	-0.072650	14.0611	-0.300556	-4796.38	1.514678E-5	NaN
8.000000	1.000000	0.883091	7.36513e+06	-39039.1	955.818	-29796	0.000000	0.000000	6.883125	-0.033848	NaN	0.000000	0.001566	0.001719	28.081	0.022272	0.001984	11.2245	109.383	-166.508	-0.065205	0.881718	-0.260405	-0.261778	-0.033848	11.2245	-0.258143	-1097.58	3.083892E-5	NaN
8.000000	1.000000	0.927109	7.36513e+06	-39039.1	955.818	-29796	0.000000	0.000000	6.927147	0.047524	NaN	0.000000	0.001634	0.001765	28.1311	0.123055	0.001903	64.6771	-41.8951	-165.212	0.126095	0.925782	-0.216387	-0.217714	0.047524	64.6771	-0.216938	-248.108	-0.000192	NaN
8.000000	1.000000	0.971094	7.36513e+06	-39039.1	955.817	-29796	0.000000	0.000000	6.971129	-0.027146	NaN	0.000000	0.001551	0.001745	28.0802	0.106280	0.002024	52.5006	117.829	-166.209	-0.077063	0.969853	-0.172402	-0.173643	-0.027146	52.5006	-0.172014	-44.5153	0.000610	NaN
8.000000	1.000000	1.015095	7.36513e+06	-39039.1	955.818	-29796	0.000000	0.000000	7.015133	0.066679	NaN	0.000000	0.001582	0.001739	28.1302	0.084888	0.002102	40.3942	21.7884	-165.801	0.025185	1.013818	-0.128401	-0.129678	0.066679	40.3942	-0.129639	-7.498867	-0.008892	NaN
8.000000	1.000000	1.059152	7.36513e+06	-39039.1	955.818	-29796	0.000000	0.000000	7.059186	-0.034861	NaN	0.000000	0.001613	0.001751	28.078	0.083681	0.002030	41.2236	-99.0527	-166.982	0.076510	1.057892	-0.084344	-0.085604	-0.034861	41.2236	-0.083710	-0.764396	0.045606	NaN
8.000000	1.000000	1.103137	7.36513e+06	-39039.1	955.819	-29796	0.000000	0.000000	7.103174	0.025538	NaN	0.000000	0.001572	0.001737	28.1311	0.037909	0.001937	19.567	-3.517516	-162.573	0.049717	1.101845	-0.040359	-0.041651	0.025538	19.567	-0.041338	-0.049666	-0.514188	NaN
8.000000	1.000000	1.147160	7.36513e+06	-39039.1	955.819	-29796	0.000000	0.000000	7.147316	2.929299	NaN	0.000000	0.001561	0.001745	28.0805	3.766527	0.001839	2048.46	6.994672	-166.077	1.479782	1.145833	0.003664	0.002337	2.929299	2048.46	0.002592	0.002039	1436.72	41448.1
8.000000	2.000000	1.161817	7.36513e+06	-39039.1	955.819	-29796	0.000000	0.000000	7.163011	28.194	NaN	0.000000	0.001577	0.001729	28.1312	18.4662	0.001771	10428.8	7.752760	-177.765	29.1041	1.161492	0.018321	0.017996	28.194	10428.8	0.016293	0.017049	1653.73	72972.6
8.000000	2.000000	1.172754	7.36513e+06	-39039.1	955.82	-29796	0.000000	0.000000	7.175151	57.4598	NaN	0.000000	0.001538	0.001746	28.0792	29.0787	0.001814	16031.3	5.411875	-179.426	56.6203	1.172408	0.029258	0.028912	57.4598	16031.3	0.026570	0.033934	1693.28	79510.6
8.000000	2.000000	1.183749	7.36513e+06	-39039.1	955.82	-29796	0.000000	0.000000	7.187932	100.915	NaN	0.000000	0.001544	0.001762	28.1306	39.3032	0.001838	21389.4	5.054477	178.257	100.074	1.183449	0.040253	0.039953	100.915	21389.4	0.036715	0.055814	1808.08	82718.3
8.000000	2.000000	1.194751	7.36513e+06	-39039.1	955.82	-29796	0.000000	0.000000	7.201026	151.832	NaN	0.000000	0.001583	0.001686	28.0776	49.75	0.001813	27438.6	5.071545	175.817	150.036	1.194402	0.051255	0.050906	151.832	27438.6	0.047105	0.083676	1814.53	86663.3
8.000000	2.000000	1.205653	7.36513e+06	-39039.1	955.82	-29796	0.000000	0.000000	7.214359	210.98	NaN	0.000000	0.001537	0.001684	28.132	59.9069	0.001771	33819.9	6.226194	172.899	207.623	1.205334	0.062157	0.061839	210.98	33819.9	0.057479	0.116922	1804.45	90364.3
8.000000	2.000000	1.216704	7.36513e+06	-39039.1	955.82	-29796	0.000000	0.000000	7.228192	278.71	NaN	0.000000	0.001538	0.001666	28.0795	68.0875	0.001783	38180.2	2.728911	176.156	277.885	1.216334	0.073208	0.072838	278.71	38180.2	0.067733	0.154988	1798.27	88605.8
8.000000	2.000000	1.227690	7.36513e+06	-39039.1	955.819	-29796	0.000000	0.000000	7.242253	353.532	NaN	0.000000	0.001554	0.001693	28.132	79.0384	0.001819	43444.2	6.668837	171.611	351.933	1.227285	0.084194	0.083789	353.532	43444.2	0.078091	0.198549	1780.58	89078
8.000000	2.000000	1.238647	7.36513e+06	-39039.1	955.82	-29796	0.000000	0.000000	7.256662	437.529	NaN	0.000000	0.001554	0.001684	28.0773	88.3761	0.001818	48599	6.449524	170.316	435.232	1.238299	0.095151	0.094803	437.529	48599	0.088399	0.246883	1772.21	89362.3
8.000000	2.000000	1.249544	7.36513e+06	-39039.1	955.82	-29796	0.000000	0.000000	7.271110	523.954	NaN	0.000000	0.001546	0.001695	28.1315	96.1189	0.001718	55932	3.733193	172.05	517.891	1.249308	0.106048	0.105812	523.954	55932	0.099022	0.301806	1736.06	93018.6
8.000000	2.000000	1.250693	7.36513e+06	-39039.1	955.82	-29796	0.000000	0.000000	7.272569	531.488	NaN	0.000000	0.001529	0.001656	28.0793	99.1536	0.001857	53389.9	7.186885	169.323	530.69	1.250376	0.107197	0.106880	531.488	53389.9	0.099731	0.305653	1738.86	88230.4