File: remote_trans/data/nanoindenter/0828-1/data/Data_2025-08-06,11h17m57s/2025-07-22_16-23-58_1_1137.txt
2025-07-22, 16:23:58, 1
Index	Phase	Displacement	Time	Pos X	Pos Y	Pos Z	Rot A	Rot B	Piezo Z	Force A	Force B	Gripper	Voltage A	Voltage B	Temperature	Amplitude force	Amplitude pos	Stiffness	Phase shift	Phase excitation	Force A raw	Displacement raw	HMax	HMax raw	Real Force	Real Stiffness	Contact Depth	Area	Hardness	Reduced Mod.
[#]	[#]	[um]	[s]	[um]	[um]	[um]	[m°]	[m°]	[um]	[uN]	[uN]	[V]	[V]	[V]	[°C]	[uN]	[um]	[N/m]	[°]	[°]	[uN]	[um]	[um]	[um]	[uN]	[N/m]	[um]	[um^2]	[MPa]	[MPa]
1137	1.000000	0.002567	7.37618e+06	-56989.1	1055.82	-29737.7	0.000000	0.000000	6.002782	0.023898	NaN	0.000000	0.001557	0.001694	28.0834	0.023434	0.000958	24.4542	-86.5058	-164.136	-0.042559	0.001329	-1.067275	-1.068513	0.023898	24.4542	-1.068008	-1.863911E+14	-1.282158E-16	NaN
1137	1.000000	0.042555	7.37618e+06	-56989.1	1055.82	-29737.7	0.000000	0.000000	6.042770	-0.001288	NaN	0.000000	0.001580	0.001702	28.0832	0.085103	0.001993	42.6947	65.4653	-163.198	-0.047155	0.041196	-1.027287	-1.028646	-0.001288	42.6947	-1.027264	-5.280518E+13	2.439503E-17	NaN
1137	1.000000	0.082570	7.37618e+06	-56989.1	1055.82	-29737.7	0.000000	0.000000	6.082788	0.091119	NaN	0.000000	0.001628	0.001687	28.0821	0.042998	0.001776	24.2093	-77.433	-161.589	0.117052	0.081181	-0.987272	-0.988661	0.091119	24.2093	-0.990095	-1.668747E+13	-5.460317E-15	NaN
1137	1.000000	0.122554	7.37618e+06	-56989.1	1055.82	-29737.7	0.000000	0.000000	6.122769	0.018734	NaN	0.000000	0.001549	0.001657	28.0822	0.089823	0.002012	44.6332	-118.113	-165.95	-0.006746	0.121249	-0.947288	-0.948593	0.018734	44.6332	-0.947603	-4.463730E+12	-4.196836E-15	NaN
1137	1.000000	0.162591	7.37618e+06	-56989.1	1055.82	-29737.7	0.000000	0.000000	6.162804	-0.030756	NaN	0.000000	0.001591	0.001703	28.0823	0.064115	0.001972	32.5106	-71.6359	-163.321	-0.080999	0.161281	-0.907251	-0.908561	-0.030756	32.5106	-0.906542	-1.245794E+12	2.468756E-14	NaN
1137	1.000000	0.202563	7.37618e+06	-56989.1	1055.82	-29737.7	0.000000	0.000000	6.202776	-0.011671	NaN	0.000000	0.001517	0.001650	28.0831	0.114046	0.001950	58.4709	-8.251510	-164.333	0.054849	0.201263	-0.867279	-0.868579	-0.011671	58.4709	-0.867130	-3.652656E+11	3.195194E-14	NaN
1137	1.000000	0.242598	7.37618e+06	-56989.1	1055.82	-29737.7	0.000000	0.000000	6.242810	-0.060069	NaN	0.000000	0.001653	0.001595	28.0831	0.143860	0.001987	72.3833	-51.0093	-165.659	0.013180	0.241254	-0.827244	-0.828588	-0.060069	72.3833	-0.826622	-1.032741E+11	5.816428E-13	NaN
1137	1.000000	0.282577	7.37618e+06	-56989.1	1055.82	-29737.7	0.000000	0.000000	6.282789	-0.059942	NaN	0.000000	0.001560	0.001606	28.0832	0.015090	0.002041	7.395309	-15.0443	-161.459	-0.014257	0.281394	-0.787265	-0.788448	-0.059942	7.395309	-0.781186	-2.496577E+10	2.400952E-12	NaN
1137	1.000000	0.322635	7.37618e+06	-56989.1	1055.82	-29737.7	0.000000	0.000000	6.322849	-0.001435	NaN	0.000000	0.001571	0.001595	28.0834	0.126122	0.001938	65.0876	-80.6544	-164.581	-0.015289	0.321369	-0.747207	-0.748473	-0.001435	65.0876	-0.747190	-8.609384E+9	1.666212E-13	NaN
1137	1.000000	0.362666	7.37618e+06	-56989.1	1055.82	-29737.7	0.000000	0.000000	6.362882	0.052401	NaN	0.000000	0.001577	0.001631	28.0819	0.030792	0.002070	14.8766	136.05	-162.936	0.106549	0.361374	-0.707176	-0.708468	0.052401	14.8766	-0.709818	-2.664182E+9	-1.966857E-11	NaN
1137	1.000000	0.402702	7.37618e+06	-56989.1	1055.82	-29737.7	0.000000	0.000000	6.402913	-0.077054	NaN	0.000000	0.001589	0.001584	28.082	0.102968	0.002132	48.297	-117.006	-163.378	-0.098929	0.401387	-0.667140	-0.668455	-0.077054	48.297	-0.665944	-6.696797E+8	1.150612E-10	NaN
1137	1.000000	0.442726	7.37618e+06	-56989.1	1055.82	-29737.7	0.000000	0.000000	6.442939	-0.035579	NaN	0.000000	0.001642	0.001583	28.0818	0.068698	0.002040	33.6817	174.522	-161.409	0.085348	0.441360	-0.627116	-0.628482	-0.035579	33.6817	-0.626323	-1.916569E+8	1.856375E-10	NaN
1137	1.000000	0.482703	7.37618e+06	-56989.1	1055.82	-29737.7	0.000000	0.000000	6.482915	-0.057064	NaN	0.000000	0.001627	0.001607	28.0831	0.048917	0.001868	26.1876	121.334	-167.918	-0.093846	0.481418	-0.587139	-0.588424	-0.057064	26.1876	-0.585505	-5.256226E+7	1.085653E-9	NaN
1137	1.000000	0.522736	7.37618e+06	-56989.1	1055.82	-29737.7	0.000000	0.000000	6.522952	0.023463	NaN	0.000000	0.001654	0.001617	28.0829	0.047279	0.002100	22.5179	25.1918	-166.823	0.012122	0.521436	-0.547106	-0.548406	0.023463	22.5179	-0.547887	-1.587402E+7	-1.478069E-9	NaN
1137	1.000000	0.562730	7.37618e+06	-56989.1	1055.82	-29737.7	0.000000	0.000000	6.562944	0.003285	NaN	0.000000	0.001635	0.001599	28.0828	0.025363	0.002063	12.2945	-36.7111	-165.115	0.009338	0.561394	-0.507112	-0.508448	0.003285	12.2945	-0.507313	-4.33489e+06	-7.579076E-10	NaN
1137	1.000000	0.602781	7.37618e+06	-56989.1	1055.82	-29737.7	0.000000	0.000000	6.602996	0.019887	NaN	0.000000	0.001698	0.001579	28.0829	0.041910	0.001990	21.0602	-151.925	-163.785	0.071651	0.601462	-0.467061	-0.468380	0.019887	21.0602	-0.467769	-1.21371e+06	-1.638520E-8	NaN
1137	1.000000	0.642780	7.37618e+06	-56989.1	1055.82	-29737.7	0.000000	0.000000	6.642997	0.070196	NaN	0.000000	0.001636	0.001594	28.082	0.047241	0.002098	22.5217	52.656	-164.15	0.008907	0.641439	-0.427062	-0.428403	0.070196	22.5217	-0.429400	-349601	-2.007887E-7	NaN
1137	1.000000	0.682801	7.37618e+06	-56989.1	1055.82	-29737.7	0.000000	0.000000	6.683014	-0.030149	NaN	0.000000	0.001664	0.001584	28.0821	0.026721	0.001951	13.6982	102.041	-167.333	-0.063954	0.681488	-0.387041	-0.388354	-0.030149	13.6982	-0.385391	-82638.3	3.648346E-7	NaN
1137	1.000000	0.722804	7.37618e+06	-56989.1	1055.82	-29737.7	0.000000	0.000000	6.723020	0.033411	NaN	0.000000	0.001636	0.001605	28.0818	0.066411	0.002024	32.8161	-163.777	-168.465	0.024121	0.721509	-0.347038	-0.348333	0.033411	32.8161	-0.347802	-23718.1	-1.408678E-6	NaN
1137	1.000000	0.762847	7.37618e+06	-56989.1	1055.82	-29737.7	0.000000	0.000000	6.763061	0.003884	NaN	0.000000	0.001671	0.001694	28.0832	0.019536	0.001942	10.0588	-67.1946	-167.148	-0.057293	0.761485	-0.306995	-0.308357	0.003884	10.0588	-0.307285	-6037.26	-6.432877E-7	NaN
1137	1.000000	0.802842	7.37618e+06	-56989.1	1055.82	-29737.7	0.000000	0.000000	6.803055	-0.035516	NaN	0.000000	0.001643	0.001623	28.0831	0.042690	0.002054	20.7797	-176.14	-169.799	0.000207	0.801518	-0.267000	-0.268324	-0.035516	20.7797	-0.265718	-1433.32	2.477897E-5	NaN
1137	1.000000	0.842877	7.37618e+06	-56989.1	1055.82	-29737.7	0.000000	0.000000	6.843093	0.036383	NaN	0.000000	0.001653	0.001606	28.0828	0.173196	0.001964	88.189	23.6882	-165.505	-0.015443	0.841562	-0.226965	-0.228280	0.036383	88.189	-0.227274	-362.581	-0.000100	NaN
1137	1.000000	0.882886	7.37618e+06	-56989.1	1055.82	-29737.7	0.000000	0.000000	6.883102	0.045993	NaN	0.000000	0.001653	0.001584	28.082	0.136843	0.002040	67.0717	154.025	-167.984	0.085573	0.881597	-0.186956	-0.188245	0.045993	67.0717	-0.187471	-81.5986	-0.000564	NaN
1137	1.000000	0.922871	7.37618e+06	-56989.1	1055.82	-29737.7	0.000000	0.000000	6.923088	0.050081	NaN	0.000000	0.001647	0.001610	28.0818	0.148822	0.002027	73.4333	6.439272	-166.625	0.029208	0.921571	-0.146971	-0.148271	0.050081	73.4333	-0.147482	-16.29	-0.003074	NaN
1137	1.000000	0.962908	7.37618e+06	-56989.1	1055.82	-29737.7	0.000000	0.000000	6.963122	-0.016659	NaN	0.000000	0.001651	0.001599	28.0818	0.068285	0.002015	33.8948	-49.6212	-166.413	0.013640	0.961661	-0.106934	-0.108181	-0.016659	33.8948	-0.106565	-2.540135	0.006558	NaN
1137	1.000000	1.002954	7.37618e+06	-56989.1	1055.82	-29737.7	0.000000	0.000000	7.003164	-0.107964	NaN	0.000000	0.001652	0.001565	28.0817	0.078081	0.002023	38.5952	106.297	-169.489	-0.048367	1.001622	-0.066888	-0.068220	-0.107964	38.5952	-0.064790	-0.245888	0.439076	NaN
1137	1.000000	1.042945	7.37618e+06	-56989.1	1055.82	-29737.7	0.000000	0.000000	7.043214	1.334147	NaN	0.000000	0.001622	0.001627	28.0832	0.966941	0.001943	497.765	11.5622	-165.174	1.095691	1.041597	-0.026897	-0.028245	1.334147	497.765	-0.028907	-0.021466	-62.1529	NaN
1137	2.000000	1.073486	7.37618e+06	-56989.1	1055.82	-29737.7	0.000000	0.000000	7.074217	12.5509	NaN	0.000000	0.001606	0.001599	28.0831	8.553891	0.001739	4918.42	6.428412	-172.191	11.8512	1.073154	0.003644	0.003312	12.5509	4918.42	0.001730	0.001338	9381.33	122855
1137	2.000000	1.083407	7.37618e+06	-56989.1	1055.82	-29737.7	0.000000	0.000000	7.085412	43.5328	NaN	0.000000	0.001609	0.001635	28.0828	18.6589	0.001902	9811.59	7.670150	-179.339	43.1813	1.083141	0.013565	0.013299	43.5328	9811.59	0.010237	0.009446	4608.42	92231.7
1137	2.000000	1.093367	7.37618e+06	-56989.1	1055.82	-29737.7	0.000000	0.000000	7.097752	101.369	NaN	0.000000	0.001592	0.001668	28.0816	26.587	0.001841	14441.3	3.245776	-178.499	98.7214	1.093034	0.023525	0.023192	101.369	14441.3	0.018261	0.019882	5098.44	93571.6
1137	2.000000	1.103392	7.37618e+06	-56989.1	1055.82	-29737.7	0.000000	0.000000	7.110614	170.34	NaN	0.000000	0.001569	0.001685	28.0816	35.9873	0.001860	19350.2	6.761669	174.48	169.481	1.103117	0.033550	0.033275	170.34	19350.2	0.026947	0.034654	4915.45	94968.9
1137	2.000000	1.113382	7.37618e+06	-56989.1	1055.82	-29737.7	0.000000	0.000000	7.123186	233.063	NaN	0.000000	0.001530	0.001660	28.0819	41.8496	0.001888	22166.4	0.684996	-179.504	232.568	1.113096	0.043540	0.043254	233.063	22166.4	0.035655	0.053281	4374.23	87736.8
1137	2.000000	1.123299	7.37618e+06	-56989.1	1055.82	-29737.7	0.000000	0.000000	7.134947	277.898	NaN	0.000000	0.001603	0.001663	28.0814	46.8198	0.001781	26284.1	3.034686	176.319	275.671	1.123075	0.053457	0.053233	277.898	26284.1	0.045527	0.079091	3513.66	85389.4
1137	2.000000	1.133294	7.37618e+06	-56989.1	1055.82	-29737.7	0.000000	0.000000	7.146342	311.924	NaN	0.000000	0.001626	0.001701	28.0828	53.1582	0.002035	26119.5	6.421594	173.818	308.302	1.132915	0.063452	0.063073	311.924	26119.5	0.054495	0.106812	2920.31	73017.6
1137	2.000000	1.143434	7.37618e+06	-56989.1	1055.82	-29737.7	0.000000	0.000000	7.157469	335.91	NaN	0.000000	0.001617	0.001643	28.083	56.6295	0.001761	32149.6	3.320357	176.154	342.421	1.143115	0.073592	0.073273	335.91	32149.6	0.065756	0.147253	2281.18	76545
1137	2.000000	1.153432	7.37618e+06	-56989.1	1055.82	-29737.7	0.000000	0.000000	7.168839	369.271	NaN	0.000000	0.001595	0.001661	28.0831	66.1837	0.001859	35598.9	6.713417	171.184	374.503	1.153020	0.083590	0.083178	369.271	35598.9	0.075810	0.188523	1958.76	74907.9
1137	2.000000	1.163309	7.37618e+06	-56989.1	1055.82	-29737.7	0.000000	0.000000	7.180163	404.429	NaN	0.000000	0.001571	0.001659	28.082	74.8773	0.001871	40010.4	4.726800	172.173	402.832	1.163185	0.093467	0.093343	404.429	40010.4	0.085886	0.234645	1723.58	75464.1
1137	2.000000	1.168768	7.37618e+06	-56989.1	1055.82	-29737.7	0.000000	0.000000	7.187468	449.297	NaN	0.000000	0.001611	0.001698	28.0815	79.0777	0.001780	44417.9	4.378943	-8.101407	445.212	1.168524	0.098926	0.098682	449.297	44417.9	0.091340	0.261571	1717.69	79348.1