File: remote_trans/data/nanoindenter/0828-1/data/Data_2025-08-06,11h17m57s/2025-07-22_16-23-58_1_419.txt
2025-07-22, 16:23:58, 1
Index	Phase	Displacement	Time	Pos X	Pos Y	Pos Z	Rot A	Rot B	Piezo Z	Force A	Force B	Gripper	Voltage A	Voltage B	Temperature	Amplitude force	Amplitude pos	Stiffness	Phase shift	Phase excitation	Force A raw	Displacement raw	HMax	HMax raw	Real Force	Real Stiffness	Contact Depth	Area	Hardness	Reduced Mod.
[#]	[#]	[um]	[s]	[um]	[um]	[um]	[m°]	[m°]	[um]	[uN]	[uN]	[V]	[V]	[V]	[°C]	[uN]	[um]	[N/m]	[°]	[°]	[uN]	[um]	[um]	[um]	[uN]	[N/m]	[um]	[um^2]	[MPa]	[MPa]
419	1.000000	0.002671	7.36916e+06	-56139.1	1005.82	-29739.9	0.000000	0.000000	6.002806	-0.037813	NaN	0.000000	0.001677	0.001680	28.0812	0.019974	0.001024	19.5055	-64.3	-171.026	-0.033592	0.001396	-1.117681	-1.118956	-0.037813	19.5055	-1.116227	-8.276445E+14	4.568769E-17	NaN
419	1.000000	0.042650	7.36916e+06	-56139.1	1005.82	-29739.9	0.000000	0.000000	6.042784	-0.073829	NaN	0.000000	0.001714	0.001697	28.0806	0.027041	0.001954	13.8396	-15.7388	-165.27	-0.027743	0.041278	-1.077701	-1.079073	-0.073829	13.8396	-1.073700	-2.222781E+14	3.321459E-16	NaN
419	1.000000	0.082621	7.36916e+06	-56139.1	1005.82	-29739.9	0.000000	0.000000	6.082755	-0.051635	NaN	0.000000	0.001710	0.001668	28.0811	0.079397	0.001935	41.0327	-45.2282	-164.63	-0.019020	0.081321	-1.037731	-1.039030	-0.051635	41.0327	-1.036787	-7.091864E+13	7.280848E-16	NaN
419	1.000000	0.122634	7.36916e+06	-56139.1	1005.82	-29739.9	0.000000	0.000000	6.122766	-0.091660	NaN	0.000000	0.001685	0.001670	28.0812	0.100881	0.001990	50.6839	101.227	-165.773	0.037907	0.121329	-0.997718	-0.999022	-0.091660	50.6839	-0.996361	-2.026632E+13	4.522754E-15	NaN
419	1.000000	0.162637	7.36916e+06	-56139.1	1005.82	-29739.9	0.000000	0.000000	6.162771	-0.057672	NaN	0.000000	0.001666	0.001628	28.0824	0.100675	0.001877	53.6435	83.6249	-164.747	-0.092860	0.161308	-0.957714	-0.959043	-0.057672	53.6435	-0.956908	-5.959064E+12	9.678063E-15	NaN
419	1.000000	0.202683	7.36916e+06	-56139.1	1005.82	-29739.9	0.000000	0.000000	6.202820	0.007203	NaN	0.000000	0.001719	0.001688	28.0822	0.027980	0.001905	14.6878	43.6156	-167.292	-0.012159	0.201376	-0.917668	-0.918975	0.007203	14.6878	-0.918036	-1.781086E+12	-4.043899E-15	NaN
419	1.000000	0.242679	7.36916e+06	-56139.1	1005.82	-29739.9	0.000000	0.000000	6.242817	0.045574	NaN	0.000000	0.001651	0.001618	28.0822	0.059130	0.001877	31.4992	-10.0554	-166.458	0.081284	0.241376	-0.877672	-0.878976	0.045574	31.4992	-0.878757	-5.246883E+11	-8.685979E-14	NaN
419	1.000000	0.282671	7.36916e+06	-56139.1	1005.82	-29739.9	0.000000	0.000000	6.282806	-0.032915	NaN	0.000000	0.001671	0.001658	28.081	0.123657	0.001841	67.1801	128.051	-165.907	-0.113246	0.281384	-0.837681	-0.838968	-0.032915	67.1801	-0.837313	-1.441746E+11	2.282979E-13	NaN
419	1.000000	0.322754	7.36916e+06	-56139.1	1005.82	-29739.9	0.000000	0.000000	6.322888	-0.046525	NaN	0.000000	0.001639	0.001686	28.0808	0.056272	0.002123	26.509	-26.4826	-167.387	-0.037301	0.321446	-0.797598	-0.798906	-0.046525	26.509	-0.796282	-4.002982E+10	1.162269E-12	NaN
419	1.000000	0.362741	7.36916e+06	-56139.1	1005.82	-29739.9	0.000000	0.000000	6.362877	-0.013141	NaN	0.000000	0.001650	0.001669	28.0808	0.011665	0.002067	5.643199	9.136556	-164.943	-0.016623	0.361431	-0.757610	-0.758920	-0.013141	5.643199	-0.755864	-1.129872E+10	1.163010E-12	NaN
419	1.000000	0.402752	7.36916e+06	-56139.1	1005.82	-29739.9	0.000000	0.000000	6.402886	-0.046470	NaN	0.000000	0.001723	0.001626	28.0808	0.027954	0.002063	13.5507	-8.975862	-165.771	-0.076687	0.401444	-0.717599	-0.718907	-0.046470	13.5507	-0.715027	-3.137951E+9	1.480901E-11	NaN
419	1.000000	0.442801	7.36916e+06	-56139.1	1005.82	-29739.9	0.000000	0.000000	6.442938	0.018279	NaN	0.000000	0.001716	0.001627	28.0821	0.030955	0.001981	15.6273	101.773	-163.221	-0.002014	0.441480	-0.677550	-0.678871	0.018279	15.6273	-0.678428	-9.924267E+8	-1.841840E-11	NaN
419	1.000000	0.482790	7.36916e+06	-56139.1	1005.82	-29739.9	0.000000	0.000000	6.482926	-0.017119	NaN	0.000000	0.001706	0.001657	28.0819	0.083106	0.002002	41.517	160.927	-168.422	-0.011150	0.481477	-0.637561	-0.638874	-0.017119	41.517	-0.637252	-2.707599E+8	6.322414E-11	NaN
419	1.000000	0.522807	7.36916e+06	-56139.1	1005.82	-29739.9	0.000000	0.000000	6.522943	-0.007618	NaN	0.000000	0.001709	0.001694	28.0818	0.061299	0.001894	32.367	-14.7343	-165.416	-0.032337	0.521493	-0.597544	-0.598858	-0.007618	32.367	-0.597367	-7.659486E+7	9.946098E-11	NaN
419	1.000000	0.562846	7.36916e+06	-56139.1	1005.82	-29739.9	0.000000	0.000000	6.562980	-0.042193	NaN	0.000000	0.001733	0.001674	28.0808	0.078469	0.001941	40.4209	85.0547	-167.635	-0.082517	0.561559	-0.557506	-0.558792	-0.042193	40.4209	-0.556723	-2.103937E+7	2.005408E-9	NaN
419	1.000000	0.602835	7.36916e+06	-56139.1	1005.82	-29739.9	0.000000	0.000000	6.602972	0.018663	NaN	0.000000	0.001648	0.001638	28.0809	0.055922	0.002003	27.9158	-163.351	-164.826	0.005123	0.601502	-0.517516	-0.518850	0.018663	27.9158	-0.518018	-6.10976e+06	-3.054661E-9	NaN
419	1.000000	0.642840	7.36916e+06	-56139.1	1005.82	-29739.9	0.000000	0.000000	6.642977	0.003812	NaN	0.000000	0.001700	0.001666	28.081	0.026661	0.002036	13.0953	105.62	-160.478	0.015281	0.641589	-0.477511	-0.478762	0.003812	13.0953	-0.477729	-1.67392e+06	-2.277292E-9	NaN
419	1.000000	0.682879	7.36916e+06	-56139.1	1005.82	-29739.9	0.000000	0.000000	6.683015	-0.014737	NaN	0.000000	0.001634	0.001652	28.082	0.033103	0.002036	16.2579	116.362	-166.278	-0.022083	0.681571	-0.437473	-0.438781	-0.014737	16.2579	-0.436793	-444713	3.313800E-8	NaN
419	1.000000	0.722898	7.36916e+06	-56139.1	1005.82	-29739.9	0.000000	0.000000	6.723033	-0.016395	NaN	0.000000	0.001628	0.001619	28.0822	0.074679	0.002047	36.4862	111.801	-167.681	-0.023892	0.721551	-0.397454	-0.398800	-0.016395	36.4862	-0.397117	-121579	1.348522E-7	NaN
419	1.000000	0.762906	7.36916e+06	-56139.1	1005.82	-29739.9	0.000000	0.000000	6.763041	-0.034046	NaN	0.000000	0.001622	0.001640	28.0821	0.089035	0.002009	44.3226	-127.566	-167.701	0.008898	0.761624	-0.357445	-0.358727	-0.034046	44.3226	-0.356869	-32104.1	1.060490E-6	NaN
419	1.000000	0.802952	7.36916e+06	-56139.1	1005.82	-29739.9	0.000000	0.000000	6.803088	-0.002952	NaN	0.000000	0.001730	0.001591	28.082	0.079762	0.002164	36.8506	14.3422	-167.271	0.036420	0.801639	-0.317399	-0.318713	-0.002952	36.8506	-0.317339	-8500.62	3.472630E-7	NaN
419	1.000000	0.842935	7.36916e+06	-56139.1	1005.82	-29739.9	0.000000	0.000000	6.843070	-0.038917	NaN	0.000000	0.001654	0.001630	28.0807	0.124889	0.002095	59.6139	54.4832	-168.473	-0.045339	0.841646	-0.277416	-0.278705	-0.038917	59.6139	-0.276927	-2121.05	1.834812E-5	NaN
419	1.000000	0.882981	7.36916e+06	-56139.1	1005.82	-29739.9	0.000000	0.000000	6.883117	0.013456	NaN	0.000000	0.001590	0.001655	28.0807	0.052845	0.002046	25.8284	4.577165	-162.338	-0.019015	0.881644	-0.237371	-0.238708	0.013456	25.8284	-0.237762	-530.333	-2.537260E-5	NaN
419	1.000000	0.922988	7.36916e+06	-56139.1	1005.82	-29739.9	0.000000	0.000000	6.923151	0.651255	NaN	0.000000	0.001680	0.001641	28.0808	0.192814	0.001915	100.673	13.0076	-169.048	0.631326	0.921686	-0.197364	-0.198666	0.651255	100.673	-0.202216	-143.235	-0.004547	NaN
419	1.000000	0.962976	7.36916e+06	-56139.1	1005.82	-29739.9	0.000000	0.000000	6.963179	1.616697	NaN	0.000000	0.001702	0.001687	28.0821	0.497196	0.001833	271.289	9.893357	-169.569	1.598065	0.961683	-0.157376	-0.158669	1.616697	271.289	-0.161845	-29.5597	-0.054693	NaN
419	1.000000	1.003008	7.36916e+06	-56139.1	1005.82	-29739.9	0.000000	0.000000	7.003283	3.382176	NaN	0.000000	0.001703	0.001616	28.082	1.002263	0.001896	528.608	10.4725	-166.948	3.400124	1.001692	-0.117344	-0.118659	3.382176	528.608	-0.122142	-5.335012	-0.633959	NaN
419	1.000000	1.043029	7.36916e+06	-56139.1	1005.82	-29739.9	0.000000	0.000000	7.043440	6.687009	NaN	0.000000	0.001701	0.001657	28.082	1.656559	0.001948	850.216	14.3792	-167.462	6.665892	1.041722	-0.077323	-0.078629	6.687009	850.216	-0.083222	-0.743686	-8.991711	NaN
419	2.000000	1.069564	7.36916e+06	-56139.1	1005.82	-29739.9	0.000000	0.000000	7.070040	8.261726	NaN	0.000000	0.001759	0.001632	28.0821	2.560737	0.001999	1280.81	8.873103	-165.647	8.291440	1.069204	-0.050788	-0.051147	8.261726	1280.81	-0.055625	-0.134367	-61.4865	NaN
419	2.000000	1.079479	7.36916e+06	-56139.1	1005.82	-29739.9	0.000000	0.000000	7.080022	9.875308	NaN	0.000000	0.001745	0.001633	28.0809	3.364511	0.002056	1636.65	14.4515	-170.156	9.882607	1.079212	-0.040872	-0.041140	9.875308	1636.65	-0.045398	-0.066093	-149.416	NaN
419	2.000000	1.089506	7.36916e+06	-56139.1	1005.82	-29739.9	0.000000	0.000000	7.090104	11.2064	NaN	0.000000	0.001704	0.001670	28.0811	3.701145	0.002013	1838.43	14.2356	-171.311	11.1976	1.089107	-0.030845	-0.031244	11.2064	1838.43	-0.035417	-0.032945	-340.159	NaN
419	2.000000	1.099469	7.36916e+06	-56139.1	1005.82	-29739.9	0.000000	0.000000	7.100122	12.545	NaN	0.000000	0.001681	0.001687	28.081	4.499686	0.002187	2057.01	18.3277	-171.392	12.4825	1.099126	-0.020882	-0.021225	12.545	2057.01	-0.025456	-0.017341	-723.439	NaN
419	2.000000	1.109439	7.36916e+06	-56139.1	1005.82	-29739.9	0.000000	0.000000	7.110338	18.5329	NaN	0.000000	0.001680	0.001673	28.0824	10.1698	0.001909	5326.44	13.6008	-176.242	18.3285	1.109155	-0.010912	-0.011196	18.5329	5326.44	-0.013522	-0.008404	-2205.19	NaN
419	2.000000	1.119411	7.36916e+06	-56139.1	1005.82	-29739.9	0.000000	0.000000	7.120911	33.1356	NaN	0.000000	0.001664	0.001646	28.0824	20.9396	0.001894	11053.2	7.509391	-176.741	32.4571	1.119111	-0.000940	-0.001240	33.1356	11053.2	-0.003189	-0.002246	-14751	NaN
419	2.000000	1.129413	7.36916e+06	-56139.1	1005.82	-29739.9	0.000000	0.000000	7.131853	56.0075	NaN	0.000000	0.001713	0.001672	28.0825	30.1358	0.001727	17454.2	4.639146	-178.742	55.577	1.129079	0.009061	0.008728	56.0075	17454.2	0.006655	0.005695	9834.94	211317
419	2.000000	1.139414	7.36916e+06	-56139.1	1005.82	-29739.9	0.000000	0.000000	7.143156	87.6493	NaN	0.000000	0.001667	0.001668	28.0818	41.1142	0.001938	21213.9	6.149803	178.371	86.2087	1.139022	0.019062	0.018671	87.6493	21213.9	0.015963	0.016591	5282.8	150471
419	2.000000	1.149338	7.36916e+06	-56139.1	1005.82	-29739.9	0.000000	0.000000	7.154711	127.298	NaN	0.000000	0.001637	0.001705	28.0813	50.2621	0.001749	28739.5	4.271232	176.745	124.599	1.149068	0.028986	0.028717	127.298	28739.5	0.025664	0.032235	3949.06	146247
419	2.000000	1.159425	7.36916e+06	-56139.1	1005.82	-29739.9	0.000000	0.000000	7.166658	172.488	NaN	0.000000	0.001746	0.001674	28.0812	60.7841	0.001899	32004.1	3.787491	176.246	173.166	1.159091	0.039074	0.038739	172.488	32004.1	0.035032	0.051820	3328.59	128449
419	2.000000	1.163339	7.36916e+06	-56139.1	1005.82	-29739.9	0.000000	0.000000	7.171380	192.142	NaN	0.000000	0.001732	0.001654	28.0811	64.7506	0.001830	35387.1	4.722582	173.947	190.361	1.163050	0.042987	0.042698	192.142	35387.1	0.038915	0.061254	3136.79	130632