File: remote_trans/data/nanoindenter/0828-1/data/Data_2025-08-06,11h17m57s/2025-07-22_16-23-58_1_1123.txt
2025-07-22, 16:23:58, 1
Index	Phase	Displacement	Time	Pos X	Pos Y	Pos Z	Rot A	Rot B	Piezo Z	Force A	Force B	Gripper	Voltage A	Voltage B	Temperature	Amplitude force	Amplitude pos	Stiffness	Phase shift	Phase excitation	Force A raw	Displacement raw	HMax	HMax raw	Real Force	Real Stiffness	Contact Depth	Area	Hardness	Reduced Mod.
[#]	[#]	[um]	[s]	[um]	[um]	[um]	[m°]	[m°]	[um]	[uN]	[uN]	[V]	[V]	[V]	[°C]	[uN]	[um]	[N/m]	[°]	[°]	[uN]	[um]	[um]	[um]	[uN]	[N/m]	[um]	[um^2]	[MPa]	[MPa]
1123	1.000000	0.002526	7.37603e+06	-56289.1	1055.82	-29739.1	0.000000	0.000000	6.002806	-0.028960	NaN	0.000000	0.001591	0.001682	28.0833	0.075950	0.000946	80.3228	155.576	-166.87	-0.103260	0.001227	-1.214246	-1.215545	-0.028960	80.3228	-1.213975	-1.689886E+16	1.713706E-18	NaN
1123	1.000000	0.046470	7.37604e+06	-56289.1	1055.82	-29739.1	0.000000	0.000000	6.046748	-0.058995	NaN	0.000000	0.001576	0.001724	28.0831	0.080590	0.002150	37.4884	-90.3875	-167.207	-0.112572	0.045150	-1.170302	-1.171621	-0.058995	37.4884	-1.169121	-4.237516E+15	1.392216E-17	NaN
1123	1.000000	0.090483	7.37604e+06	-56289.1	1055.82	-29739.2	0.000000	0.000000	6.090763	-0.038077	NaN	0.000000	0.001531	0.001686	28.0843	0.080391	0.001956	41.0973	158.595	-167.813	-0.092363	0.089187	-1.126288	-1.127584	-0.038077	41.0973	-1.125593	-1.105379E+15	3.444658E-17	NaN
1123	1.000000	0.134512	7.37604e+06	-56289.1	1055.82	-29739.2	0.000000	0.000000	6.134789	-0.103411	NaN	0.000000	0.001624	0.001654	28.0842	0.043350	0.001935	22.4046	-73.0819	-164.323	-0.065101	0.133213	-1.082259	-1.083558	-0.103411	22.4046	-1.078798	-2.602385E+14	3.973713E-16	NaN
1123	1.000000	0.178540	7.37604e+06	-56289.1	1055.82	-29739.2	0.000000	0.000000	6.178817	-0.095944	NaN	0.000000	0.001590	0.001643	28.0844	0.111848	0.002069	54.0578	15.7583	-164.173	-0.018985	0.177275	-1.038231	-1.039496	-0.095944	54.0578	-1.036900	-7.116797E+13	1.348141E-15	NaN
1123	1.000000	0.222530	7.37604e+06	-56289.1	1055.82	-29739.2	0.000000	0.000000	6.222804	-0.168406	NaN	0.000000	0.001607	0.001663	28.0829	0.023246	0.002070	11.2283	-6.250320	-166.91	-0.079208	0.221250	-0.994242	-0.995521	-0.168406	11.2283	-0.982993	-1.338846E+13	1.257844E-14	NaN
1123	1.000000	0.266586	7.37604e+06	-56289.1	1055.82	-29739.2	0.000000	0.000000	6.266862	-0.125392	NaN	0.000000	0.001563	0.001642	28.0829	0.074884	0.002016	37.1529	-46.4539	-167	-0.136343	0.265235	-0.950185	-0.951536	-0.125392	37.1529	-0.947654	-4.470842E+12	2.804655E-14	NaN
1123	1.000000	0.310570	7.37604e+06	-56289.1	1055.82	-29739.2	0.000000	0.000000	6.310849	-0.060998	NaN	0.000000	0.001565	0.001665	28.083	0.121364	0.001971	61.5657	-0.823593	-168.462	-0.048511	0.309239	-0.906201	-0.907533	-0.060998	61.5657	-0.905458	-1.204504E+12	5.064173E-14	NaN
1123	1.000000	0.354615	7.37604e+06	-56289.1	1055.82	-29739.2	0.000000	0.000000	6.354893	-0.064255	NaN	0.000000	0.001602	0.001696	28.0844	0.044281	0.002016	21.9678	54.1773	-166.19	-0.105701	0.353264	-0.862156	-0.863507	-0.064255	21.9678	-0.859963	-2.921562E+11	2.199350E-13	NaN
1123	1.000000	0.398648	7.37604e+06	-56289.1	1055.82	-29739.2	0.000000	0.000000	6.398926	-0.088280	NaN	0.000000	0.001630	0.001699	28.0843	0.044515	0.001957	22.7465	-143.151	-165.172	-0.088972	0.397279	-0.818123	-0.819493	-0.088280	22.7465	-0.815212	-7.232385E+10	1.220620E-12	NaN
1123	1.000000	0.442621	7.37604e+06	-56289.1	1055.82	-29739.2	0.000000	0.000000	6.442898	-0.110075	NaN	0.000000	0.001544	0.001681	28.0846	0.025237	0.001953	12.9206	-6.831730	-165.958	-0.137475	0.441329	-0.774150	-0.775442	-0.110075	12.9206	-0.767761	-1.640048E+10	6.711676E-12	NaN
1123	1.000000	0.486659	7.37604e+06	-56289.1	1055.82	-29739.2	0.000000	0.000000	6.486941	0.007966	NaN	0.000000	0.001553	0.001675	28.0831	0.046210	0.001963	23.5431	135.961	-164.488	0.006112	0.485360	-0.730112	-0.731411	0.007966	23.5431	-0.730366	-5.079194E+9	-1.568356E-12	NaN
1123	1.000000	0.530654	7.37604e+06	-56289.1	1055.82	-29739.2	0.000000	0.000000	6.530932	-0.076305	NaN	0.000000	0.001583	0.001671	28.0832	0.078301	0.001995	39.2586	-171.898	-167.441	-0.041447	0.529341	-0.686118	-0.687430	-0.076305	39.2586	-0.684660	-1.207603E+9	6.318685E-11	NaN
1123	1.000000	0.574693	7.37604e+06	-56289.1	1055.82	-29739.2	0.000000	0.000000	6.574970	-0.105173	NaN	0.000000	0.001628	0.001640	28.0836	0.050037	0.002017	24.8124	-176.531	-166.061	-0.094656	0.573358	-0.642078	-0.643413	-0.105173	24.8124	-0.638899	-2.852188E+8	3.687450E-10	NaN
1123	1.000000	0.618675	7.37604e+06	-56289.1	1055.82	-29739.2	0.000000	0.000000	6.618953	-0.092943	NaN	0.000000	0.001584	0.001647	28.0847	0.086132	0.001981	43.4869	176.031	-165.431	-0.121206	0.617423	-0.598096	-0.599348	-0.092943	43.4869	-0.596493	-7.449903E+7	1.247569E-9	NaN
1123	1.000000	0.662724	7.37604e+06	-56289.1	1055.82	-29739.2	0.000000	0.000000	6.662999	-0.144464	NaN	0.000000	0.001608	0.001678	28.0847	0.089678	0.002092	42.8628	-179.327	-165.895	-0.117082	0.661452	-0.554047	-0.555319	-0.144464	42.8628	-0.551520	-1.782383E+7	8.105094E-9	NaN
1123	1.000000	0.706728	7.37604e+06	-56289.1	1055.82	-29739.2	0.000000	0.000000	6.707005	-0.102645	NaN	0.000000	0.001594	0.001665	28.0846	0.074732	0.001933	38.6646	-165.519	-164.907	-0.038639	0.705432	-0.510043	-0.511339	-0.102645	38.6646	-0.508052	-4.43897e+06	2.312354E-8	NaN
1123	1.000000	0.750778	7.37604e+06	-56289.1	1055.82	-29739.2	0.000000	0.000000	6.751056	-0.078399	NaN	0.000000	0.001628	0.001663	28.0835	0.025843	0.001990	12.984	-106.327	-166.505	-0.107130	0.749450	-0.465994	-0.467322	-0.078399	12.984	-0.461465	-989928	7.919656E-8	NaN
1123	1.000000	0.794793	7.37604e+06	-56289.1	1055.82	-29739.2	0.000000	0.000000	6.795071	-0.071763	NaN	0.000000	0.001602	0.001679	28.0829	0.040640	0.001879	21.6297	137.461	-166.693	-0.073615	0.793438	-0.421978	-0.423333	-0.071763	21.6297	-0.419490	-253033	2.836130E-7	NaN
1123	1.000000	0.838813	7.37604e+06	-56289.1	1055.82	-29739.2	0.000000	0.000000	6.839091	-0.079374	NaN	0.000000	0.001673	0.001722	28.0829	0.077463	0.002011	38.5239	-107.946	-166.087	-0.057866	0.837459	-0.377958	-0.379313	-0.079374	38.5239	-0.376413	-61429.9	1.292110E-6	NaN
1123	1.000000	0.882816	7.37604e+06	-56289.1	1055.82	-29739.2	0.000000	0.000000	6.883093	-0.104493	NaN	0.000000	0.001680	0.001654	28.083	0.057431	0.002028	28.3194	49.5752	-165.343	-0.098052	0.881499	-0.333955	-0.335273	-0.104493	28.3194	-0.331188	-13578	7.695705E-6	NaN
1123	1.000000	0.926819	7.37604e+06	-56289.1	1055.82	-29739.2	0.000000	0.000000	6.927097	-0.073266	NaN	0.000000	0.001637	0.001664	28.0845	0.037012	0.002016	18.3547	-24.8134	-165.449	-0.096647	0.925520	-0.289952	-0.291251	-0.073266	18.3547	-0.286958	-3003.92	2.439004E-5	NaN
1123	1.000000	0.970849	7.37604e+06	-56289.1	1055.82	-29739.2	0.000000	0.000000	6.971126	-0.104007	NaN	0.000000	0.001629	0.001639	28.0843	0.092407	0.001966	46.9994	-148.853	-169.125	-0.050155	0.969519	-0.245922	-0.247252	-0.104007	46.9994	-0.244262	-669.863	0.000155	NaN
1123	1.000000	1.014866	7.37604e+06	-56289.1	1055.82	-29739.2	0.000000	0.000000	7.015143	-0.087902	NaN	0.000000	0.001604	0.001683	28.0843	0.102846	0.001994	51.5834	-145.411	-166.682	-0.158118	1.013551	-0.201905	-0.203221	-0.087902	51.5834	-0.200627	-134.898	0.000652	NaN
1123	1.000000	1.058889	7.37604e+06	-56289.1	1055.82	-29739.2	0.000000	0.000000	7.059164	-0.145111	NaN	0.000000	0.001591	0.001668	28.0833	0.037617	0.002005	18.7595	-22.2963	-165.603	-0.180695	1.057584	-0.157883	-0.159187	-0.145111	18.7595	-0.152081	-19.7629	0.007343	NaN
1123	1.000000	1.102924	7.37604e+06	-56289.1	1055.82	-29739.2	0.000000	0.000000	7.103202	-0.081843	NaN	0.000000	0.001601	0.001678	28.0831	0.147759	0.001985	74.4488	-104.993	-166.626	-0.075001	1.101568	-0.113847	-0.115203	-0.081843	74.4488	-0.113023	-3.476715	0.023540	NaN
1123	1.000000	1.146927	7.37604e+06	-56289.1	1055.82	-29739.2	0.000000	0.000000	7.147204	-0.109620	NaN	0.000000	0.001596	0.001675	28.0832	0.020548	0.001951	10.5325	-109.822	-164.868	-0.131213	1.145591	-0.069844	-0.071180	-0.109620	10.5325	-0.062038	-0.205859	0.532502	NaN
1123	1.000000	1.190948	7.37604e+06	-56289.1	1055.82	-29739.2	0.000000	0.000000	7.191226	-0.084326	NaN	0.000000	0.001619	0.001676	28.0845	0.085212	0.002035	41.8833	-175.469	-165.481	-0.070442	1.189685	-0.025823	-0.027086	-0.084326	41.8833	-0.024313	-0.016190	5.208450	NaN
1123	2.000000	1.229515	7.37604e+06	-56289.1	1055.82	-29739.2	0.000000	0.000000	7.230194	9.688451	NaN	0.000000	0.001639	0.001654	28.0846	9.442785	0.001484	6361.32	2.262976	-170.454	8.846220	1.229209	0.012743	0.012438	9.688451	6361.32	0.011601	0.011016	879.506	55374.8
1123	2.000000	1.240414	7.37604e+06	-56289.1	1055.82	-29739.2	0.000000	0.000000	7.241908	29.4767	NaN	0.000000	0.001588	0.001653	28.0842	20.3281	0.001733	11728.1	4.548744	-175.251	27.5213	1.240088	0.023643	0.023316	29.4767	11728.1	0.021758	0.025380	1161.41	67259.7
1123	2.000000	1.251378	7.37604e+06	-56289.1	1055.82	-29739.2	0.000000	0.000000	7.254028	57.5714	NaN	0.000000	0.001587	0.001690	28.083	32.9306	0.001924	17114.3	5.193097	179.842	55.7926	1.251114	0.034607	0.034343	57.5714	17114.3	0.032084	0.045174	1274.43	73567.6
1123	2.000000	1.262377	7.37604e+06	-56289.1	1055.82	-29739.2	0.000000	0.000000	7.266680	97.7612	NaN	0.000000	0.001617	0.001654	28.084	43.5866	0.001806	24132.2	7.696990	174.136	97.8023	1.262016	0.045606	0.045245	97.7612	24132.2	0.042567	0.070832	1380.19	82843
1123	2.000000	1.273340	7.37604e+06	-56289.1	1055.82	-29739.2	0.000000	0.000000	7.279931	153.391	NaN	0.000000	0.001605	0.001663	28.0841	52.1936	0.001614	32328.9	6.442653	173.317	151.861	1.272952	0.056568	0.056181	153.391	32328.9	0.053010	0.101943	1504.68	92509.4
1123	2.000000	1.284304	7.37604e+06	-56289.1	1055.82	-29739.2	0.000000	0.000000	7.293198	209.349	NaN	0.000000	0.001611	0.001692	28.0841	65.3063	0.001852	35264.5	4.839369	173.779	206.306	1.284004	0.067533	0.067233	209.349	35264.5	0.063080	0.137085	1527.15	87019.4
1123	2.000000	1.295304	7.37604e+06	-56289.1	1055.82	-29739.2	0.000000	0.000000	7.307357	286.135	NaN	0.000000	0.001612	0.001645	28.0841	74.5237	0.001876	39731.5	3.954656	174.374	283.972	1.294999	0.078532	0.078227	286.135	39731.5	0.073131	0.177058	1616.06	86268.2
1123	2.000000	1.306358	7.37604e+06	-56289.1	1055.82	-29739.2	0.000000	0.000000	7.321237	354.822	NaN	0.000000	0.001623	0.001719	28.0841	82.969	0.001710	48518.5	4.485011	172.65	355.914	1.305994	0.089587	0.089222	354.822	48518.5	0.084102	0.226137	1569.06	93216.8
1123	2.000000	1.317307	7.37604e+06	-56289.1	1055.82	-29739.2	0.000000	0.000000	7.336116	450.334	NaN	0.000000	0.001607	0.001687	28.0834	94.8589	0.001892	50127.4	3.733207	173.591	447.664	1.317089	0.100536	0.100317	450.334	50127.4	0.093798	0.274153	1642.64	87468.5
1123	2.000000	1.326161	7.37604e+06	-56289.1	1055.82	-29739.2	0.000000	0.000000	7.348165	528.011	NaN	0.000000	0.001632	0.001658	28.0829	102.941	0.001738	59243	4.016874	171.403	520.667	1.325941	0.109389	0.109169	528.011	59243	0.102705	0.322046	1639.55	95378.6