File: remote_trans/data/nanoindenter/0828-1/data/Data_2025-08-06,11h17m57s/2025-07-22_16-23-58_1_552.txt
2025-07-22, 16:23:58, 1
Index	Phase	Displacement	Time	Pos X	Pos Y	Pos Z	Rot A	Rot B	Piezo Z	Force A	Force B	Gripper	Voltage A	Voltage B	Temperature	Amplitude force	Amplitude pos	Stiffness	Phase shift	Phase excitation	Force A raw	Displacement raw	HMax	HMax raw	Real Force	Real Stiffness	Contact Depth	Area	Hardness	Reduced Mod.
[#]	[#]	[um]	[s]	[um]	[um]	[um]	[m°]	[m°]	[um]	[uN]	[uN]	[V]	[V]	[V]	[°C]	[uN]	[um]	[N/m]	[°]	[°]	[uN]	[um]	[um]	[um]	[uN]	[N/m]	[um]	[um^2]	[MPa]	[MPa]
552	1.000000	0.002676	7.37045e+06	-49489.1	1005.82	-29758.8	0.000000	0.000000	6.002802	0.029423	NaN	0.000000	0.001588	0.001602	28.0818	0.054229	0.000996	54.4503	146.613	-160.849	-0.043998	0.001395	-1.130737	-1.132018	0.029423	54.4503	-1.131142	-1.312029E+15	-2.242555E-17	NaN
552	1.000000	0.044603	7.37045e+06	-49489.1	1005.82	-29758.8	0.000000	0.000000	6.044726	-0.051546	NaN	0.000000	0.001596	0.001588	28.0811	0.123568	0.001986	62.2085	-138.059	16.3002	0.013185	0.043279	-1.088809	-1.090133	-0.051546	62.2085	-1.088188	-3.479189E+14	1.481548E-16	NaN
552	1.000000	0.086636	7.37045e+06	-49489.1	1005.82	-29758.8	0.000000	0.000000	6.086758	-0.083355	NaN	0.000000	0.001575	0.001579	28.0806	0.146733	0.001914	76.6613	65.6572	-167.918	-0.012343	0.085323	-1.046776	-1.048089	-0.083355	76.6613	-1.045961	-9.421352E+13	8.847426E-16	NaN
552	1.000000	0.128650	7.37045e+06	-49489.1	1005.82	-29758.8	0.000000	0.000000	6.128774	-0.026599	NaN	0.000000	0.001581	0.001611	28.0807	0.047642	0.001945	24.5002	71.1024	15.6371	0.007692	0.127328	-1.004762	-1.006084	-0.026599	24.5002	-1.003948	-2.564004E+13	1.037387E-15	NaN
552	1.000000	0.170664	7.37045e+06	-49489.1	1005.82	-29758.8	0.000000	0.000000	6.170788	-0.044481	NaN	0.000000	0.001583	0.001643	28.0818	0.147231	0.001902	77.3887	-72.6349	-166.809	-0.114024	0.169364	-0.962748	-0.964049	-0.044481	77.3887	-0.962317	-7.048640E+12	6.310574E-15	NaN
552	1.000000	0.212690	7.37045e+06	-49489.1	1005.82	-29758.8	0.000000	0.000000	6.212814	-0.028127	NaN	0.000000	0.001604	0.001590	28.0817	0.048021	0.001987	24.1677	-91.0041	13.7318	-0.061029	0.211296	-0.920723	-0.922117	-0.028127	24.1677	-0.919850	-1.884413E+12	1.492614E-14	NaN
552	1.000000	0.254745	7.37045e+06	-49489.1	1005.82	-29758.8	0.000000	0.000000	6.254869	-0.020443	NaN	0.000000	0.001635	0.001611	28.0821	0.104020	0.001973	52.7211	10.4628	-163.11	-0.028219	0.253389	-0.878668	-0.880024	-0.020443	52.7211	-0.878377	-5.185120E+11	3.942553E-14	NaN
552	1.000000	0.296737	7.37045e+06	-49489.1	1005.82	-29758.8	0.000000	0.000000	6.296861	-0.020315	NaN	0.000000	0.001584	0.001597	28.0806	0.119297	0.002089	57.1039	-39.1387	13.7716	-0.069700	0.295350	-0.836676	-0.838063	-0.020315	57.1039	-0.836409	-1.401649E+11	1.449389E-13	NaN
552	1.000000	0.338750	7.37045e+06	-49489.1	1005.82	-29758.8	0.000000	0.000000	6.338874	-0.015303	NaN	0.000000	0.001595	0.001598	28.0806	0.047988	0.001932	24.8433	-94.638	-164.048	-0.034469	0.337447	-0.794663	-0.795966	-0.015303	24.8433	-0.794201	-3.750842E+10	4.079878E-13	NaN
552	1.000000	0.380766	7.37045e+06	-49489.1	1005.82	-29758.8	0.000000	0.000000	6.380891	0.011542	NaN	0.000000	0.001570	0.001605	28.0806	0.025468	0.002032	12.5341	5.860287	16.5043	0.025518	0.379408	-0.752647	-0.754005	0.011542	12.5341	-0.753337	-1.043867E+10	-1.105722E-12	NaN
552	1.000000	0.422778	7.37045e+06	-49489.1	1005.82	-29758.8	0.000000	0.000000	6.422901	-0.049238	NaN	0.000000	0.001515	0.001649	28.0818	0.053607	0.001999	26.8184	-42.0656	-162.086	-0.043519	0.421450	-0.710635	-0.711963	-0.049238	26.8184	-0.709258	-2.617677E+9	1.880995E-11	NaN
552	1.000000	0.464792	7.37045e+06	-49489.1	1005.82	-29758.8	0.000000	0.000000	6.464920	0.067971	NaN	0.000000	0.001552	0.001627	28.0819	0.080517	0.002128	37.8395	-161.955	19.0275	0.093725	0.463428	-0.668621	-0.669984	0.067971	37.8395	-0.669968	-7.602452E+8	-8.940607E-11	NaN
552	1.000000	0.506804	7.37045e+06	-49489.1	1005.82	-29758.8	0.000000	0.000000	6.506927	-0.052035	NaN	0.000000	0.001557	0.001580	28.0821	0.118789	0.002063	57.575	38.7173	-165.485	0.014288	0.505518	-0.626608	-0.627895	-0.052035	57.575	-0.625930	-1.892892E+8	2.748990E-10	NaN
552	1.000000	0.548824	7.37045e+06	-49489.1	1005.82	-29758.8	0.000000	0.000000	6.548948	-0.025866	NaN	0.000000	0.001575	0.001653	28.0814	0.027209	0.001976	13.7706	-179.809	18.3126	-0.150485	0.547485	-0.584589	-0.585928	-0.025866	13.7706	-0.583180	-4.882117E+7	5.298137E-10	NaN
552	1.000000	0.590828	7.37045e+06	-49489.1	1005.82	-29758.8	0.000000	0.000000	6.590951	-0.046860	NaN	0.000000	0.001581	0.001668	28.0804	0.069023	0.002012	34.3078	129.129	-163.484	-0.122639	0.589544	-0.542584	-0.543868	-0.046860	34.3078	-0.541560	-1.297154E+7	3.612503E-9	NaN
552	1.000000	0.632884	7.37045e+06	-49489.1	1005.82	-29758.8	0.000000	0.000000	6.633009	-0.003895	NaN	0.000000	0.001582	0.001643	28.0807	0.127139	0.002014	63.1223	-23.6518	12.9482	0.005349	0.631480	-0.500529	-0.501933	-0.003895	63.1223	-0.500483	-3.48137e+06	1.118914E-9	NaN
552	1.000000	0.674867	7.37045e+06	-49489.1	1005.82	-29758.8	0.000000	0.000000	6.674990	-0.050970	NaN	0.000000	0.001554	0.001607	28.0808	0.047426	0.001957	24.2358	19.174	-163.139	-0.052625	0.673567	-0.458546	-0.459845	-0.050970	24.2358	-0.456969	-855863	5.955411E-8	NaN
552	1.000000	0.716936	7.37045e+06	-49489.1	1005.82	-29758.8	0.000000	0.000000	6.717059	-0.060310	NaN	0.000000	0.001580	0.001613	28.0821	0.093949	0.001922	48.8889	40.1432	13.2323	-0.005077	0.715573	-0.416476	-0.417840	-0.060310	48.8889	-0.415551	-222474	2.710887E-7	NaN
552	1.000000	0.758909	7.37045e+06	-49489.1	1005.82	-29758.8	0.000000	0.000000	6.759032	-0.036302	NaN	0.000000	0.001566	0.001618	28.0821	0.097671	0.002035	47.9873	-101.952	-167.509	-0.022239	0.757588	-0.374504	-0.375824	-0.036302	47.9873	-0.373936	-56595.1	6.414390E-7	NaN
552	1.000000	0.800947	7.37045e+06	-49489.1	1005.82	-29758.8	0.000000	0.000000	6.801070	-0.050175	NaN	0.000000	0.001597	0.001575	28.082	0.059810	0.002009	29.7681	-109.018	13.8477	-0.103231	0.799523	-0.332465	-0.333890	-0.050175	29.7681	-0.331201	-13584.2	3.693622E-6	NaN
552	1.000000	0.842942	7.37045e+06	-49489.1	1005.82	-29758.8	0.000000	0.000000	6.843067	-0.016731	NaN	0.000000	0.001578	0.001568	28.0807	0.025633	0.002011	12.7475	130.817	-165.468	0.043645	0.841634	-0.290470	-0.291779	-0.016731	12.7475	-0.289486	-3277.91	5.104072E-6	NaN
552	1.000000	0.884965	7.37045e+06	-49489.1	1005.82	-29758.8	0.000000	0.000000	6.885088	-0.058226	NaN	0.000000	0.001663	0.001647	28.0807	0.123083	0.001991	61.8104	80.0382	16.5802	-0.085528	0.883615	-0.248447	-0.249797	-0.058226	61.8104	-0.247741	-758.561	7.675906E-5	NaN
552	1.000000	0.926966	7.37045e+06	-49489.1	1005.82	-29758.8	0.000000	0.000000	6.927088	-0.063310	NaN	0.000000	0.001609	0.001626	28.0808	0.084489	0.001923	43.9354	-75.4544	-162.921	0.015895	0.925695	-0.206447	-0.207718	-0.063310	43.9354	-0.205366	-161.259	0.000393	NaN
552	1.000000	0.969035	7.37045e+06	-49489.1	1005.82	-29758.8	0.000000	0.000000	6.969161	0.010462	NaN	0.000000	0.001615	0.001600	28.0821	0.096982	0.001999	48.5178	-169.913	15.5222	-0.069709	0.967621	-0.164378	-0.165791	0.010462	48.5178	-0.164539	-32.9769	-0.000317	NaN
552	1.000000	1.011020	7.37045e+06	-49489.1	1005.82	-29758.8	0.000000	0.000000	7.011146	0.005323	NaN	0.000000	0.001609	0.001655	28.0822	0.113145	0.002005	56.4192	-83.6056	-165.476	-0.019069	1.009712	-0.122392	-0.123701	0.005323	56.4192	-0.122463	-5.414318	-0.000983	NaN
552	1.000000	1.053030	7.37045e+06	-49489.1	1005.82	-29758.8	0.000000	0.000000	7.053154	-0.030454	NaN	0.000000	0.001598	0.001595	28.0824	0.135619	0.002087	64.9784	157.228	15.5642	-0.051118	1.051686	-0.080382	-0.081726	-0.030454	64.9784	-0.080031	-0.620090	0.049112	NaN
552	1.000000	1.095009	7.37045e+06	-49489.1	1005.82	-29758.8	0.000000	0.000000	7.095134	-0.012732	NaN	0.000000	0.001674	0.001648	28.0819	0.076686	0.002042	37.5571	56.1896	-166.532	0.014531	1.093774	-0.038404	-0.039639	-0.012732	37.5571	-0.038149	-0.039752	0.320296	NaN
552	1.000000	1.137043	7.37045e+06	-49489.1	1005.82	-29758.8	0.000000	0.000000	7.137223	1.334670	NaN	0.000000	0.001649	0.001695	28.081	2.111799	0.001903	1109.84	10.2376	14.9263	0.508243	1.135663	0.003631	0.002250	1.334670	1109.84	0.002729	0.002153	619.937	21853.4
552	2.000000	1.152646	7.37045e+06	-49489.1	1005.82	-29758.8	0.000000	0.000000	7.153588	19.8743	NaN	0.000000	0.001646	0.001702	28.0809	16.7859	0.001678	10005.4	6.276416	-176.404	18.9513	1.152306	0.019233	0.018893	19.8743	10005.4	0.017743	0.019119	1039.48	66110.7
552	2.000000	1.163114	7.37045e+06	-49489.1	1005.82	-29758.8	0.000000	0.000000	7.165072	44.5651	NaN	0.000000	0.001621	0.001727	28.0812	28.2695	0.001833	15422.8	2.607084	4.204338	43.47	1.162825	0.029702	0.029412	44.5651	15422.8	0.027535	0.035789	1245.23	74484.1
552	2.000000	1.173535	7.37045e+06	-49489.1	1005.82	-29758.8	0.000000	0.000000	7.177156	85.0311	NaN	0.000000	0.001564	0.001682	28.0821	37.6903	0.001744	21611.6	6.470903	178.04	81.8507	1.173254	0.040122	0.039841	85.0311	21611.6	0.037171	0.056923	1493.8	82759.5
552	2.000000	1.184089	7.37045e+06	-49489.1	1005.82	-29758.8	0.000000	0.000000	7.189350	124.912	NaN	0.000000	0.001594	0.001748	28.0822	47.8194	0.001818	26301.4	6.060296	-3.362734	123.782	1.183668	0.050676	0.050255	124.912	26301.4	0.047114	0.083702	1492.34	83058.3
552	2.000000	1.194576	7.37045e+06	-49489.1	1005.82	-29758.8	0.000000	0.000000	7.201955	176.409	NaN	0.000000	0.001545	0.001681	28.0819	59.0151	0.001816	32503.7	4.049487	177.156	174.197	1.194256	0.061163	0.060843	176.409	32503.7	0.057093	0.115590	1526.16	87346.4
552	2.000000	1.205047	7.37045e+06	-49489.1	1005.82	-29758.8	0.000000	0.000000	7.214549	228.054	NaN	0.000000	0.001542	0.001739	28.0807	68.7299	0.001798	38227.8	3.693387	-4.487317	225.594	1.204736	0.071634	0.071324	228.054	38227.8	0.067160	0.152727	1493.21	89370.4
552	2.000000	1.215430	7.37045e+06	-49489.1	1005.82	-29758.8	0.000000	0.000000	7.227215	283.568	NaN	0.000000	0.001631	0.001709	28.0807	78.7573	0.001767	44564.3	7.392103	170.4	277.717	1.215242	0.082018	0.081830	283.568	44564.3	0.077245	0.194804	1455.66	92249.1
552	2.000000	1.225970	7.37045e+06	-49489.1	1005.82	-29758.8	0.000000	0.000000	7.240997	362.413	NaN	0.000000	0.001595	0.001746	28.0807	88.3937	0.001750	50513.3	4.291441	-7.426162	357.007	1.225650	0.092557	0.092238	362.413	50513.3	0.087176	0.240893	1504.45	94030
552	2.000000	1.236477	7.37046e+06	-49489.1	1005.82	-29758.8	0.000000	0.000000	7.254857	443.957	NaN	0.000000	0.001591	0.001759	28.0823	97.743	0.001775	55057	-0.233563	177.146	440.703	1.236127	0.103064	0.102714	443.957	55057	0.097016	0.291041	1525.41	93241.3
552	2.000000	1.242479	7.37046e+06	-49489.1	1005.82	-29758.8	0.000000	0.000000	7.263012	496.325	NaN	0.000000	0.001547	0.001736	28.0822	103.823	0.001718	60438.3	4.682135	171.416	495.14	1.242203	0.109066	0.108790	496.325	60438.3	0.102907	0.323174	1535.78	97133.1