File: remote_trans/data/nanoindenter/0828-1/data/Data_2025-08-06,11h17m57s/2025-07-22_16-23-58_1_1204.txt
2025-07-22, 16:23:58, 1
Index	Phase	Displacement	Time	Pos X	Pos Y	Pos Z	Rot A	Rot B	Piezo Z	Force A	Force B	Gripper	Voltage A	Voltage B	Temperature	Amplitude force	Amplitude pos	Stiffness	Phase shift	Phase excitation	Force A raw	Displacement raw	HMax	HMax raw	Real Force	Real Stiffness	Contact Depth	Area	Hardness	Reduced Mod.
[#]	[#]	[um]	[s]	[um]	[um]	[um]	[m°]	[m°]	[um]	[uN]	[uN]	[V]	[V]	[V]	[°C]	[uN]	[um]	[N/m]	[°]	[°]	[uN]	[um]	[um]	[um]	[uN]	[N/m]	[um]	[um^2]	[MPa]	[MPa]
1204	1.000000	0.002400	7.37682e+06	-55389.1	1105.82	-29741.6	0.000000	0.000000	6.002770	-0.007900	NaN	0.000000	0.001570	0.001682	28.0804	0.080855	0.001060	76.2673	156.093	-161.688	-0.018696	0.001192	-0.539401	-0.540610	-0.007900	76.2673	-0.539324	-1.207753E+7	6.540914E-10	NaN
1204	1.000000	0.034337	7.37682e+06	-55389.1	1105.82	-29741.6	0.000000	0.000000	6.034707	-0.008456	NaN	0.000000	0.001546	0.001698	28.0803	0.107796	0.001972	54.6548	24.9526	-169.986	-0.032438	0.033132	-0.507464	-0.508669	-0.008456	54.6548	-0.507348	-4.33985e+06	1.948524E-9	NaN
1204	1.000000	0.066394	7.37682e+06	-55389.1	1105.82	-29741.6	0.000000	0.000000	6.066764	-0.016920	NaN	0.000000	0.001553	0.001674	28.0807	0.068958	0.002151	32.0601	159.843	-167.724	0.005835	0.065070	-0.475407	-0.476732	-0.016920	32.0601	-0.475011	-1.53341e+06	1.103424E-8	NaN
1204	1.000000	0.098399	7.37682e+06	-55389.1	1105.82	-29741.6	0.000000	0.000000	6.098770	0.018898	NaN	0.000000	0.001566	0.001688	28.0816	0.163275	0.002017	80.9437	102.054	-164.541	-0.048407	0.097076	-0.443403	-0.444726	0.018898	80.9437	-0.443578	-554424	-3.408617E-8	NaN
1204	1.000000	0.130421	7.37682e+06	-55389.1	1105.82	-29741.6	0.000000	0.000000	6.130791	-0.002062	NaN	0.000000	0.001571	0.001679	28.0818	0.131376	0.001990	66.0259	-43.0159	-163.688	-0.012019	0.129114	-0.411380	-0.412688	-0.002062	66.0259	-0.411357	-193952	1.062927E-8	NaN
1204	1.000000	0.162400	7.37682e+06	-55389.1	1105.82	-29741.6	0.000000	0.000000	6.162770	0.009350	NaN	0.000000	0.001576	0.001646	28.082	0.010299	0.002015	5.111278	51.1739	-167.092	0.009474	0.161099	-0.379402	-0.380703	0.009350	5.111278	-0.380774	-70956.6	-1.317687E-7	NaN
1204	1.000000	0.194438	7.37682e+06	-55389.1	1105.82	-29741.6	0.000000	0.000000	6.194808	-0.008017	NaN	0.000000	0.001550	0.001685	28.0818	0.023766	0.001919	12.3817	-83.9028	-163.163	0.059192	0.193077	-0.347364	-0.348724	-0.008017	12.3817	-0.346878	-22996.4	3.486315E-7	NaN
1204	1.000000	0.226424	7.37682e+06	-55389.1	1105.82	-29741.6	0.000000	0.000000	6.226795	0.012140	NaN	0.000000	0.001550	0.001715	28.0804	0.011215	0.002074	5.406266	79.5103	-166.957	-0.009062	0.225171	-0.315377	-0.316630	0.012140	5.406266	-0.317061	-8420.71	-1.441632E-6	NaN
1204	1.000000	0.258467	7.37682e+06	-55389.1	1105.82	-29741.6	0.000000	0.000000	6.258838	0.007743	NaN	0.000000	0.001593	0.001688	28.0805	0.009020	0.002065	4.367032	144.028	-165.181	-0.009981	0.257138	-0.283334	-0.284664	0.007743	4.367032	-0.284664	-2774.68	-2.790612E-6	NaN
1204	1.000000	0.290439	7.37682e+06	-55389.1	1105.82	-29741.6	0.000000	0.000000	6.290809	-0.027341	NaN	0.000000	0.001488	0.001699	28.0806	0.090364	0.002075	43.5449	-115.738	-166.045	-0.087010	0.289203	-0.251362	-0.252598	-0.027341	43.5449	-0.250891	-848.677	3.221550E-5	NaN
1204	1.000000	0.322495	7.37682e+06	-55389.1	1105.82	-29741.6	0.000000	0.000000	6.322869	0.075460	NaN	0.000000	0.001538	0.001723	28.0804	0.012117	0.002016	6.009230	-144.119	-168.975	0.021427	0.321151	-0.219307	-0.220651	0.075460	6.009230	-0.228724	-382.262	-0.000197	NaN
1204	1.000000	0.354517	7.37682e+06	-55389.1	1105.82	-29741.6	0.000000	0.000000	6.354888	0.031384	NaN	0.000000	0.001533	0.001709	28.081	0.058160	0.002007	28.9809	-89.8351	-165.784	0.121493	0.353147	-0.187285	-0.188654	0.031384	28.9809	-0.188097	-83.5963	-0.000375	NaN
1204	1.000000	0.386566	7.37682e+06	-55389.1	1105.82	-29741.6	0.000000	0.000000	6.386937	0.009463	NaN	0.000000	0.001554	0.001640	28.0817	0.069264	0.002149	32.2256	45.8942	-164.516	0.084357	0.385220	-0.155236	-0.156582	0.009463	32.2256	-0.155456	-22.7396	-0.000416	NaN
1204	1.000000	0.418559	7.37682e+06	-55389.1	1105.82	-29741.6	0.000000	0.000000	6.418927	-0.061451	NaN	0.000000	0.001523	0.001684	28.0818	0.087789	0.002026	43.3383	132.954	-171.52	-0.092096	0.417214	-0.123243	-0.124588	-0.061451	43.3383	-0.122179	-5.344115	0.011499	NaN
1204	1.000000	0.450532	7.37682e+06	-55389.1	1105.82	-29741.6	0.000000	0.000000	6.450904	0.024264	NaN	0.000000	0.001580	0.001706	28.082	0.039001	0.001985	19.6478	-110.61	-165.47	-0.013670	0.449302	-0.091269	-0.092499	0.024264	19.6478	-0.092196	-1.216175	-0.019951	NaN
1204	1.000000	0.482538	7.37682e+06	-55389.1	1105.82	-29741.6	0.000000	0.000000	6.482911	0.060282	NaN	0.000000	0.001545	0.001687	28.0818	0.016762	0.001998	8.390432	172.902	-166.627	-0.012616	0.481205	-0.059264	-0.060596	0.060282	8.390432	-0.064652	-0.243735	-0.247324	NaN
1204	1.000000	0.514601	7.37682e+06	-55389.1	1105.82	-29741.6	0.000000	0.000000	6.514976	0.108671	NaN	0.000000	0.001553	0.001694	28.0806	0.071549	0.001968	36.3586	33.9738	-166.076	0.074181	0.513260	-0.027200	-0.028541	0.108671	36.3586	-0.029442	-0.022206	-4.893735	NaN
1204	1.000000	0.546587	7.37682e+06	-55389.1	1105.82	-29741.6	0.000000	0.000000	6.546964	0.161972	NaN	0.000000	0.001549	0.001700	28.0808	0.100773	0.002006	50.2259	-51.8003	-164.393	0.185363	0.545253	0.004786	0.003452	0.161972	50.2259	0.002367	0.001854	87.3654	1065.74
1204	1.000000	0.578615	7.37682e+06	-55389.1	1105.82	-29741.6	0.000000	0.000000	6.578995	0.235275	NaN	0.000000	0.001607	0.001678	28.0805	0.093204	0.001995	46.719	53.78	-167.057	0.263124	0.577301	0.036813	0.035499	0.235275	46.719	0.033036	0.047273	4.976989	196.319
1204	1.000000	0.610625	7.37682e+06	-55389.1	1105.82	-29741.6	0.000000	0.000000	6.611028	0.790495	NaN	0.000000	0.001549	0.001658	28.0806	0.266568	0.001923	138.605	22.2061	-171.021	0.751932	0.609337	0.068824	0.067535	0.790495	138.605	0.064546	0.142614	5.542893	335.329
1204	1.000000	0.642641	7.37682e+06	-55389.1	1105.82	-29741.6	0.000000	0.000000	6.643068	1.364087	NaN	0.000000	0.001572	0.001648	28.0821	0.538348	0.002047	262.995	31.2076	-166.263	1.307723	0.641325	0.100840	0.099524	1.364087	262.995	0.096949	0.290685	4.692670	445.666
1204	1.000000	0.674645	7.37682e+06	-55389.1	1105.82	-29741.6	0.000000	0.000000	6.675149	3.232168	NaN	0.000000	0.001548	0.001657	28.0816	1.183472	0.001907	620.689	15.3343	-165.86	3.174445	0.673309	0.132844	0.131508	3.232168	620.689	0.128938	0.484030	6.677613	815.099
1204	1.000000	0.706661	7.37682e+06	-55389.1	1105.82	-29741.6	0.000000	0.000000	6.707267	5.723986	NaN	0.000000	0.001561	0.001651	28.0819	1.991051	0.001975	1008.27	14.4198	-172.695	5.593354	0.705308	0.164860	0.163507	5.723986	1008.27	0.160602	0.721543	7.932985	1084.47
1204	1.000000	0.738649	7.37682e+06	-55389.1	1105.82	-29741.6	0.000000	0.000000	6.739342	7.834061	NaN	0.000000	0.001548	0.001670	28.0819	2.552215	0.001893	1348.29	15.8039	-171.964	7.807336	0.737357	0.196848	0.195555	7.834061	1348.29	0.192490	1.008534	7.767771	1226.62
1204	2.000000	0.758203	7.37682e+06	-55389.1	1105.82	-29741.6	0.000000	0.000000	6.758912	8.221965	NaN	0.000000	0.001531	0.001675	28.0806	2.852698	0.001929	1478.54	6.493897	-165.311	8.135378	0.757858	0.216402	0.216057	8.221965	1478.54	0.212231	1.211000	6.789404	1227.54
1204	2.000000	0.766176	7.37682e+06	-55389.1	1105.82	-29741.6	0.000000	0.000000	6.766904	8.695939	NaN	0.000000	0.001554	0.001662	28.0807	3.072625	0.001995	1540.14	8.982442	-166.693	8.639589	0.765798	0.224374	0.223996	8.695939	1540.14	0.220140	1.297538	6.701874	1235.3
1204	2.000000	0.774127	7.37682e+06	-55389.1	1105.82	-29741.6	0.000000	0.000000	6.774909	9.999479	NaN	0.000000	0.001479	0.001695	28.0808	3.619255	0.001949	1857.31	11.1666	-168.327	10.072	0.773840	0.232326	0.232039	9.999479	1857.31	0.228288	1.389974	7.194005	1439.31
1204	2.000000	0.782093	7.37682e+06	-55389.1	1105.82	-29741.6	0.000000	0.000000	6.782913	10.9222	NaN	0.000000	0.001520	0.001631	28.0804	4.315749	0.001986	2172.98	10.4885	-168.64	11.0787	0.781791	0.240292	0.239989	10.9222	2172.98	0.236522	1.486785	7.346165	1628.19
1204	2.000000	0.790098	7.37682e+06	-55389.1	1105.82	-29741.6	0.000000	0.000000	6.790984	12.5121	NaN	0.000000	0.001543	0.001640	28.0803	4.401629	0.001998	2203.05	10.8886	-169.139	12.5173	0.789769	0.248297	0.247968	12.5121	2203.05	0.244037	1.578152	7.928322	1602.22
1204	2.000000	0.798101	7.37682e+06	-55389.1	1105.82	-29741.6	0.000000	0.000000	6.799020	13.3436	NaN	0.000000	0.001534	0.001650	28.082	4.746994	0.002090	2271.09	6.918555	-168.06	13.695	0.797860	0.256299	0.256058	13.3436	2271.09	0.251893	1.676722	7.958175	1602.42
1204	2.000000	0.806087	7.37682e+06	-55389.1	1105.82	-29741.6	0.000000	0.000000	6.807083	15.2091	NaN	0.000000	0.001506	0.001665	28.0814	5.492350	0.001975	2781.38	13.2654	-174.026	15.3179	0.805808	0.264285	0.264006	15.2091	2781.38	0.260184	1.784191	8.524357	1902.45
1204	2.000000	0.814063	7.37682e+06	-55389.1	1105.82	-29741.6	0.000000	0.000000	6.815194	18.4826	NaN	0.000000	0.001566	0.001680	28.0814	6.037588	0.001978	3052.74	10.687	-172.108	18.2374	0.813764	0.272262	0.271962	18.4826	3052.74	0.267721	1.884943	9.805369	2031.49
1204	2.000000	0.822083	7.37682e+06	-55389.1	1105.82	-29741.6	0.000000	0.000000	6.823347	21.715	NaN	0.000000	0.001522	0.001656	28.0816	6.290614	0.001872	3360.47	6.790995	-171.586	21.5193	0.821736	0.280282	0.279935	21.715	3360.47	0.275435	1.991091	10.9061	2175.84
1204	2.000000	0.830074	7.37682e+06	-55389.1	1105.82	-29741.6	0.000000	0.000000	6.831474	25.0298	NaN	0.000000	0.001499	0.001673	28.0806	7.018435	0.001981	3542.33	11.4091	-173.881	25.4175	0.829765	0.288273	0.287964	25.0298	3542.33	0.282973	2.097785	11.9315	2234.5
1204	2.000000	0.838035	7.37682e+06	-55389.1	1105.82	-29741.6	0.000000	0.000000	6.839615	29.3978	NaN	0.000000	0.001482	0.001648	28.0803	7.456955	0.001906	3911.46	7.612562	-171.241	29.3541	0.837717	0.296233	0.295916	29.3978	3911.46	0.290597	2.208680	13.3101	2404.61
1204	2.000000	0.846040	7.37682e+06	-55389.1	1105.82	-29741.6	0.000000	0.000000	6.847865	35.37	NaN	0.000000	0.001567	0.001729	28.0806	8.532719	0.002074	4114.67	8.650538	-173.075	34.9379	0.845720	0.304238	0.303919	35.37	4114.67	0.297791	2.316107	15.2713	2470.18
1204	2.000000	0.852054	7.37682e+06	-55389.1	1105.82	-29741.6	0.000000	0.000000	6.854080	40.2406	NaN	0.000000	0.001487	0.001741	28.0806	8.666639	0.001871	4632.95	4.535311	-169.69	40.2106	0.851682	0.310252	0.309880	40.2406	4632.95	0.303738	2.406928	16.7186	2728.34