File: remote_trans/data/nanoindenter/0828-1/data/Data_2025-08-06,11h17m57s/2025-07-22_16-23-58_1_770.txt
2025-07-22, 16:23:58, 1
Index	Phase	Displacement	Time	Pos X	Pos Y	Pos Z	Rot A	Rot B	Piezo Z	Force A	Force B	Gripper	Voltage A	Voltage B	Temperature	Amplitude force	Amplitude pos	Stiffness	Phase shift	Phase excitation	Force A raw	Displacement raw	HMax	HMax raw	Real Force	Real Stiffness	Contact Depth	Area	Hardness	Reduced Mod.
[#]	[#]	[um]	[s]	[um]	[um]	[um]	[m°]	[m°]	[um]	[uN]	[uN]	[V]	[V]	[V]	[°C]	[uN]	[um]	[N/m]	[°]	[°]	[uN]	[um]	[um]	[um]	[uN]	[N/m]	[um]	[um^2]	[MPa]	[MPa]
770	1.000000	0.002025	7.37259e+06	-38639.1	1055.82	-29793.6	0.000000	0.000000	6.002798	0.005897	NaN	0.000000	0.001646	0.001800	28.0811	0.123121	0.000907	135.81	176.629	-161.489	0.002853	0.000759	-1.074967	-1.076234	0.005897	135.81	-1.075000	-2.313953E+14	-2.548279E-17	NaN
770	1.000000	0.043968	7.37259e+06	-38639.1	1055.82	-29793.6	0.000000	0.000000	6.044738	-0.058886	NaN	0.000000	0.001665	0.001757	28.0811	0.103989	0.001922	54.1086	-68.1171	13.9996	-0.037200	0.042577	-1.033024	-1.034416	-0.058886	54.1086	-1.032208	-6.154354E+13	9.568124E-16	NaN
770	1.000000	0.085994	7.37259e+06	-38639.1	1055.82	-29793.6	0.000000	0.000000	6.086768	0.041138	NaN	0.000000	0.001691	0.001701	28.0808	0.042829	0.002075	20.64	-45.2834	-164.758	-0.013145	0.084681	-0.990999	-0.992311	0.041138	20.64	-0.992493	-1.797597E+13	-2.288484E-15	NaN
770	1.000000	0.127976	7.37259e+06	-38639.1	1055.82	-29793.6	0.000000	0.000000	6.128750	0.029153	NaN	0.000000	0.001725	0.001754	28.0807	0.131179	0.001911	68.6572	-168.861	15.6898	-0.004928	0.126660	-0.949016	-0.950332	0.029153	68.6572	-0.949335	-4.710344E+12	-6.189149E-15	NaN
770	1.000000	0.170029	7.37259e+06	-38639.1	1055.82	-29793.6	0.000000	0.000000	6.170802	0.044681	NaN	0.000000	0.001699	0.001746	28.0818	0.049261	0.001975	24.9424	-145.175	-166.459	0.018600	0.168755	-0.906964	-0.908237	0.044681	24.9424	-0.908307	-1.316136E+12	-3.394894E-14	NaN
770	1.000000	0.212057	7.37259e+06	-38639.1	1055.82	-29793.6	0.000000	0.000000	6.212831	0.060432	NaN	0.000000	0.001695	0.001714	28.0818	0.048842	0.002066	23.637	114.284	16.1446	0.019089	0.210714	-0.864936	-0.866278	0.060432	23.637	-0.866853	-3.621321E+11	-1.668796E-13	NaN
770	1.000000	0.254067	7.37259e+06	-38639.1	1055.82	-29793.6	0.000000	0.000000	6.254837	-0.041694	NaN	0.000000	0.001697	0.001742	28.0819	0.136606	0.002044	66.8487	137.011	-165.204	0.017344	0.252764	-0.822926	-0.824229	-0.041694	66.8487	-0.822458	-9.068640E+10	4.597588E-13	NaN
770	1.000000	0.296061	7.37259e+06	-38639.1	1055.82	-29793.6	0.000000	0.000000	6.296830	-0.057275	NaN	0.000000	0.001698	0.001689	28.0806	0.071157	0.002082	34.1787	157.65	12.9974	-0.011254	0.294728	-0.780932	-0.782265	-0.057275	34.1787	-0.779675	-2.381306E+10	2.405193E-12	NaN
770	1.000000	0.338100	7.37259e+06	-38639.1	1055.82	-29793.6	0.000000	0.000000	6.338872	0.012091	NaN	0.000000	0.001689	0.001671	28.0803	0.046148	0.002083	22.1549	22.8953	-163.568	0.051573	0.336768	-0.738893	-0.740225	0.012091	22.1549	-0.739302	-6.722773E+9	-1.798494E-12	NaN
770	1.000000	0.380123	7.37259e+06	-38639.1	1055.82	-29793.6	0.000000	0.000000	6.380894	-0.033693	NaN	0.000000	0.001666	0.001654	28.0803	0.020555	0.001901	10.81	-169.611	14.2072	-0.044758	0.378733	-0.696869	-0.698260	-0.033693	10.81	-0.694532	-1.647554E+9	2.045047E-11	NaN
770	1.000000	0.422152	7.37259e+06	-38639.1	1055.82	-29793.6	0.000000	0.000000	6.422929	0.119239	NaN	0.000000	0.001659	0.001662	28.0816	0.053668	0.002015	26.6403	138.349	-165.263	0.066691	0.420780	-0.654841	-0.656212	0.119239	26.6403	-0.658198	-5.245422E+8	-2.273207E-10	NaN
770	1.000000	0.464163	7.37259e+06	-38639.1	1055.82	-29793.6	0.000000	0.000000	6.464937	0.035770	NaN	0.000000	0.001648	0.001668	28.0821	0.046968	0.001942	24.1819	18.8052	16.1286	0.024861	0.462816	-0.612829	-0.614177	0.035770	24.1819	-0.613939	-1.295072E+8	-2.762007E-10	NaN
770	1.000000	0.506118	7.37259e+06	-38639.1	1055.82	-29793.6	0.000000	0.000000	6.506892	0.048382	NaN	0.000000	0.001620	0.001732	28.0819	0.041602	0.001972	21.1004	76.7953	-164.681	0.011433	0.504832	-0.570875	-0.572161	0.048382	21.1004	-0.572594	-3.487178E+7	-1.387431E-9	NaN
770	1.000000	0.548181	7.37259e+06	-38639.1	1055.82	-29793.6	0.000000	0.000000	6.548953	0.008812	NaN	0.000000	0.001667	0.001707	28.0807	0.060488	0.001915	31.5865	-113.215	13.5854	-0.053556	0.546867	-0.528812	-0.530125	0.008812	31.5865	-0.529021	-8.68923e+06	-1.014142E-9	NaN
770	1.000000	0.590210	7.37259e+06	-38639.1	1055.82	-29793.6	0.000000	0.000000	6.590986	0.088847	NaN	0.000000	0.001685	0.001662	28.0805	0.046767	0.001948	24.0059	-12.7833	-167.191	0.114078	0.588913	-0.486782	-0.488080	0.088847	24.0059	-0.489558	-2.45029e+06	-3.625965E-8	NaN
770	1.000000	0.632250	7.37259e+06	-38639.1	1055.82	-29793.6	0.000000	0.000000	6.633024	0.034555	NaN	0.000000	0.001663	0.001689	28.0804	0.064560	0.002109	30.6111	163.363	14.1103	0.012280	0.630802	-0.444742	-0.446191	0.034555	30.6111	-0.445589	-591823	-5.838808E-8	NaN
770	1.000000	0.674261	7.37259e+06	-38639.1	1055.82	-29793.6	0.000000	0.000000	6.675032	-0.019580	NaN	0.000000	0.001689	0.001771	28.0803	0.036918	0.001989	18.5566	120.724	-165.23	0.023826	0.672929	-0.402731	-0.404063	-0.019580	18.5566	-0.401940	-142446	1.374537E-7	NaN
770	1.000000	0.716261	7.37259e+06	-38639.1	1055.82	-29793.6	0.000000	0.000000	6.717035	0.039938	NaN	0.000000	0.001691	0.001741	28.0819	0.031769	0.001966	16.1574	-7.213274	12.0632	0.018664	0.714920	-0.360731	-0.362073	0.039938	16.1574	-0.362585	-38832.7	-1.028473E-6	NaN
770	1.000000	0.758284	7.37259e+06	-38639.1	1055.82	-29793.6	0.000000	0.000000	6.759057	0.014980	NaN	0.000000	0.001680	0.001713	28.0818	0.022985	0.002047	11.2293	96.5043	-166.867	0.015788	0.756936	-0.318708	-0.320057	0.014980	11.2293	-0.319709	-9211.95	-1.626102E-6	NaN
770	1.000000	0.800267	7.37259e+06	-38639.1	1055.82	-29793.6	0.000000	0.000000	6.801040	0.027673	NaN	0.000000	0.001692	0.001749	28.0817	0.007357	0.001940	3.792031	-17.8268	15.7618	0.036830	0.798964	-0.276725	-0.278028	0.027673	3.792031	-0.282198	-2547.47	-1.086277E-5	NaN
770	1.000000	0.842331	7.37259e+06	-38639.1	1055.82	-29793.6	0.000000	0.000000	6.843105	0.037509	NaN	0.000000	0.001650	0.001747	28.0806	0.038154	0.002040	18.7014	80.0151	-164.326	0.030588	0.840984	-0.234661	-0.236009	0.037509	18.7014	-0.236166	-500.659	-7.491942E-5	NaN
770	1.000000	0.884317	7.37259e+06	-38639.1	1055.82	-29793.6	0.000000	0.000000	6.885091	0.045855	NaN	0.000000	0.001668	0.001756	28.0806	0.080311	0.001905	42.1484	46.3479	14.27	0.034556	0.882951	-0.192675	-0.194042	0.045855	42.1484	-0.193491	-102.844	-0.000446	NaN
770	1.000000	0.926362	7.37259e+06	-38639.1	1055.82	-29793.6	0.000000	0.000000	6.927134	0.008951	NaN	0.000000	0.001625	0.001760	28.0805	0.073067	0.002069	35.3184	-136.281	-167.458	-0.039912	0.925041	-0.150631	-0.151951	0.008951	35.3184	-0.150821	-18.7481	-0.000477	NaN
770	1.000000	0.968342	7.37259e+06	-38639.1	1055.82	-29793.6	0.000000	0.000000	6.969117	0.060840	NaN	0.000000	0.001775	0.001751	28.0824	0.027483	0.001969	13.9605	-14.0949	18.7383	0.042457	0.966964	-0.108650	-0.110028	0.060840	13.9605	-0.111919	-3.297262	-0.018452	NaN
770	1.000000	1.010342	7.37259e+06	-38639.1	1055.82	-29793.6	0.000000	0.000000	7.011115	0.023692	NaN	0.000000	0.001714	0.001809	28.0821	0.053022	0.001880	28.2005	-64.2684	-169.328	0.091607	1.009029	-0.066650	-0.067964	0.023692	28.2005	-0.067281	-0.287966	-0.082273	NaN
770	1.000000	1.052360	7.37259e+06	-38639.1	1055.82	-29793.6	0.000000	0.000000	7.053183	1.254396	NaN	0.000000	0.001753	0.001752	28.082	0.611559	0.001903	321.361	22.2595	12.7443	1.207818	1.051041	-0.024633	-0.025951	1.254396	321.361	-0.027561	-0.019728	-63.586	NaN
770	1.000000	1.094405	7.37259e+06	-38639.1	1055.82	-29793.6	0.000000	0.000000	7.095473	7.209005	NaN	0.000000	0.001747	0.001742	28.0807	2.328632	0.002109	1103.94	15.8566	-168.629	6.935825	1.093107	0.017412	0.016115	7.209005	1103.94	0.012514	0.012112	595.197	9164.59
770	2.000000	1.111395	7.37259e+06	-38639.1	1055.82	-29793.6	0.000000	0.000000	7.112658	11.9469	NaN	0.000000	0.001831	0.001746	28.0808	3.644447	0.001829	1992.57	9.150230	11.4588	11.7688	1.110998	0.034402	0.034005	11.9469	1992.57	0.029905	0.040548	294.636	9040.69
770	2.000000	1.121856	7.37259e+06	-38639.1	1055.82	-29793.6	0.000000	0.000000	7.123300	16.3679	NaN	0.000000	0.001708	0.001715	28.0809	4.434695	0.002059	2154.2	5.339694	-164.326	16.2907	1.121617	0.044863	0.044624	16.3679	2154.2	0.039164	0.061887	264.48	7911.52
770	2.000000	1.132343	7.37259e+06	-38639.1	1055.82	-29793.6	0.000000	0.000000	7.133998	21.4915	NaN	0.000000	0.001723	0.001730	28.0807	5.310382	0.002128	2495.54	10.5663	10.118	21.3679	1.131979	0.055350	0.054987	21.4915	2495.54	0.048891	0.089017	241.432	7641.92
770	2.000000	1.142827	7.37259e+06	-38639.1	1055.82	-29793.6	0.000000	0.000000	7.144804	29.3274	NaN	0.000000	0.001690	0.001726	28.083	6.460443	0.001953	3307.18	7.114782	-170.06	29.3073	1.142556	0.065834	0.065564	29.3274	3307.18	0.059183	0.122895	238.637	8619.13
770	2.000000	1.153321	7.37259e+06	-38639.1	1055.82	-29793.6	0.000000	0.000000	7.155647	37.8134	NaN	0.000000	0.001697	0.001738	28.0824	7.472746	0.001982	3771.19	11.0895	5.934990	37.7674	1.152939	0.076328	0.075947	37.8134	3771.19	0.068808	0.159274	237.411	8633.34
770	2.000000	1.163816	7.37259e+06	-38639.1	1055.82	-29793.6	0.000000	0.000000	7.166516	46.9316	NaN	0.000000	0.001705	0.001706	28.0822	8.066785	0.001963	4109.39	7.190686	-171.014	47.4531	1.163500	0.086823	0.086508	46.9316	4109.39	0.078258	0.199292	235.491	8410.19
770	2.000000	1.174266	7.37259e+06	-38639.1	1055.82	-29793.6	0.000000	0.000000	7.177370	56.7719	NaN	0.000000	0.001733	0.001685	28.0811	8.891285	0.001966	4521.43	7.100320	8.635487	55.724	1.173934	0.097273	0.096942	56.7719	4521.43	0.087856	0.244214	232.468	8359.18
770	2.000000	1.184785	7.37259e+06	-38639.1	1055.82	-29793.6	0.000000	0.000000	7.188330	67.4779	NaN	0.000000	0.001691	0.001739	28.0808	9.514314	0.001944	4895.16	5.031918	-169.136	67.1841	1.184475	0.107792	0.107483	67.4779	4895.16	0.097454	0.293373	230.007	8257.14
770	2.000000	1.195274	7.37259e+06	-38639.1	1055.82	-29793.6	0.000000	0.000000	7.199294	79.0447	NaN	0.000000	0.001686	0.001733	28.0808	10.214	0.001864	5480.38	9.358962	3.904693	78.1884	1.194899	0.118281	0.117907	79.0447	5480.38	0.107464	0.349112	226.416	8474.26
770	2.000000	1.201779	7.37259e+06	-38639.1	1055.82	-29793.6	0.000000	0.000000	7.206064	85.4871	NaN	0.000000	0.001711	0.001697	28.0809	10.5744	0.001922	5500.87	3.461341	-170.02	85.505	1.201484	0.124787	0.124491	85.4871	5500.87	0.113131	0.382687	223.386	8124.24