File: remote_trans/data/nanoindenter/0828-1/data/Data_2025-08-06,11h17m57s/2025-07-22_16-23-58_1_518.txt
2025-07-22, 16:23:58, 1
Index	Phase	Displacement	Time	Pos X	Pos Y	Pos Z	Rot A	Rot B	Piezo Z	Force A	Force B	Gripper	Voltage A	Voltage B	Temperature	Amplitude force	Amplitude pos	Stiffness	Phase shift	Phase excitation	Force A raw	Displacement raw	HMax	HMax raw	Real Force	Real Stiffness	Contact Depth	Area	Hardness	Reduced Mod.
[#]	[#]	[um]	[s]	[um]	[um]	[um]	[m°]	[m°]	[um]	[uN]	[uN]	[V]	[V]	[V]	[°C]	[uN]	[um]	[N/m]	[°]	[°]	[uN]	[um]	[um]	[um]	[uN]	[N/m]	[um]	[um^2]	[MPa]	[MPa]
518	1.000000	0.002254	7.37012e+06	-51189.1	1005.82	-29753.1	0.000000	0.000000	6.002810	-0.092334	NaN	0.000000	0.001587	0.001722	28.0802	0.101099	0.000924	109.418	65.1518	-166.426	-0.077578	0.000988	-1.002748	-1.004013	-0.092334	109.418	-1.002115	-2.422383E+13	3.811683E-15	NaN
518	1.000000	0.042184	7.37012e+06	-51189.1	1005.82	-29753.1	0.000000	0.000000	6.042742	-0.047596	NaN	0.000000	0.001613	0.001694	28.0814	0.025861	0.002057	12.5744	48.2229	-165.267	-0.075337	0.040943	-0.962818	-0.964058	-0.047596	12.5744	-0.959979	-6.555221E+12	7.260705E-15	NaN
518	1.000000	0.082204	7.37012e+06	-51189.1	1005.82	-29753.1	0.000000	0.000000	6.082762	-0.051918	NaN	0.000000	0.001599	0.001653	28.0813	0.063435	0.002082	30.4692	-145.681	-164.187	-0.034838	0.080909	-0.922797	-0.924092	-0.051918	30.4692	-0.921520	-1.984822E+12	2.615762E-14	NaN
518	1.000000	0.122200	7.37012e+06	-51189.1	1005.82	-29753.1	0.000000	0.000000	6.122758	-0.050018	NaN	0.000000	0.001610	0.001698	28.0816	0.147071	0.001866	78.837	-77.2464	-167.468	-0.056964	0.120916	-0.882802	-0.884086	-0.050018	78.837	-0.882326	-5.863546E+11	8.530410E-14	NaN
518	1.000000	0.162260	7.37012e+06	-51189.1	1005.82	-29753.1	0.000000	0.000000	6.162816	-0.077620	NaN	0.000000	0.001622	0.001677	28.0804	0.064709	0.001971	32.8248	167.593	-165.57	-0.089105	0.160945	-0.842742	-0.844056	-0.077620	32.8248	-0.840968	-1.615888E+11	4.803559E-13	NaN
518	1.000000	0.202257	7.37012e+06	-51189.1	1005.82	-29753.1	0.000000	0.000000	6.202817	-0.019304	NaN	0.000000	0.001642	0.001696	28.0802	0.082569	0.002048	40.3193	-93.6497	-164.225	0.007958	0.200958	-0.802744	-0.804043	-0.019304	40.3193	-0.802385	-4.844365E+10	3.984776E-13	NaN
518	1.000000	0.242289	7.37012e+06	-51189.1	1005.82	-29753.1	0.000000	0.000000	6.242850	0.029753	NaN	0.000000	0.001655	0.001695	28.0801	0.063662	0.002076	30.6714	109.139	-165.459	0.015873	0.240920	-0.762713	-0.764081	0.029753	30.6714	-0.763440	-1.432518E+10	-2.076994E-12	NaN
518	1.000000	0.282278	7.37012e+06	-51189.1	1005.82	-29753.1	0.000000	0.000000	6.282835	-0.083994	NaN	0.000000	0.001643	0.001686	28.0799	0.035051	0.001964	17.8482	166.009	-164.153	-0.021433	0.281005	-0.722723	-0.723997	-0.083994	17.8482	-0.719194	-3.576673E+9	2.348387E-11	NaN
518	1.000000	0.322320	7.37012e+06	-51189.1	1005.82	-29753.1	0.000000	0.000000	6.322879	-0.039694	NaN	0.000000	0.001609	0.001729	28.0812	0.054291	0.001944	27.9234	-135.678	-165.877	-0.034628	0.320959	-0.682681	-0.684043	-0.039694	27.9234	-0.681615	-1.097219E+9	3.617722E-11	NaN
518	1.000000	0.362325	7.37012e+06	-51189.1	1005.82	-29753.1	0.000000	0.000000	6.362883	-0.042004	NaN	0.000000	0.001600	0.001663	28.0812	0.087444	0.001996	43.8062	-50.8781	-163.051	-0.022614	0.361004	-0.642677	-0.643997	-0.042004	43.8062	-0.641958	-3.141561E+8	1.337049E-10	NaN
518	1.000000	0.402366	7.37012e+06	-51189.1	1005.82	-29753.1	0.000000	0.000000	6.402924	-0.047815	NaN	0.000000	0.001576	0.001672	28.0815	0.074380	0.001810	41.1014	-64.7811	-166.483	-0.073154	0.401067	-0.602635	-0.603935	-0.047815	41.1014	-0.601763	-8.805186E+7	5.430299E-10	NaN
518	1.000000	0.442353	7.37012e+06	-51189.1	1005.82	-29753.1	0.000000	0.000000	6.442913	-0.017812	NaN	0.000000	0.001593	0.001721	28.0803	0.058881	0.001998	29.4758	-76.8864	-167.089	-0.005629	0.441068	-0.562648	-0.563934	-0.017812	29.4758	-0.562195	-2.504600E+7	7.111656E-10	NaN
518	1.000000	0.482379	7.37012e+06	-51189.1	1005.82	-29753.1	0.000000	0.000000	6.482935	-0.088287	NaN	0.000000	0.001600	0.001647	28.0803	0.045617	0.001921	23.7416	-36.5492	-165.404	-0.104756	0.481100	-0.522623	-0.523901	-0.088287	23.7416	-0.519834	-6.47571e+06	1.363363E-8	NaN
518	1.000000	0.522404	7.37012e+06	-51189.1	1005.82	-29753.1	0.000000	0.000000	6.522966	0.066432	NaN	0.000000	0.001628	0.001662	28.0805	0.037266	0.001997	18.6601	-86.1263	-165.03	0.050728	0.521060	-0.482598	-0.483942	0.066432	18.6601	-0.485268	-2.13421e+06	-3.112728E-8	NaN
518	1.000000	0.562373	7.37012e+06	-51189.1	1005.82	-29753.1	0.000000	0.000000	6.562930	-0.076589	NaN	0.000000	0.001631	0.001635	28.0814	0.134287	0.002016	66.6198	76.0147	-168.042	-0.073979	0.561072	-0.442628	-0.443929	-0.076589	66.6198	-0.441766	-522733	1.465174E-7	NaN
518	1.000000	0.602411	7.37012e+06	-51189.1	1005.82	-29753.1	0.000000	0.000000	6.602970	-0.031001	NaN	0.000000	0.001642	0.001677	28.0814	0.071872	0.001985	36.203	106.56	-162.824	-0.068085	0.601134	-0.402590	-0.403868	-0.031001	36.203	-0.401948	-142485	2.175714E-7	NaN
518	1.000000	0.642427	7.37012e+06	-51189.1	1005.82	-29753.1	0.000000	0.000000	6.642984	-0.070626	NaN	0.000000	0.001663	0.001723	28.0811	0.117207	0.002053	57.0844	-108.34	-167.619	-0.160132	0.641124	-0.362574	-0.363877	-0.070626	57.0844	-0.361646	-37638.7	1.876415E-6	NaN
518	1.000000	0.682451	7.37012e+06	-51189.1	1005.82	-29753.1	0.000000	0.000000	6.683010	-0.029459	NaN	0.000000	0.001672	0.001747	28.0812	0.025796	0.001987	12.9839	145.701	-165.497	-0.073539	0.681158	-0.322551	-0.323843	-0.029459	12.9839	-0.320849	-9574.82	3.076671E-6	NaN
518	1.000000	0.722464	7.37012e+06	-51189.1	1005.82	-29753.1	0.000000	0.000000	6.723024	-0.011705	NaN	0.000000	0.001649	0.001711	28.08	0.087438	0.001972	44.3472	-137.303	-169.006	0.004112	0.721139	-0.282537	-0.283863	-0.011705	44.3472	-0.282339	-2559.94	4.572205E-6	NaN
518	1.000000	0.762488	7.37012e+06	-51189.1	1005.82	-29753.1	0.000000	0.000000	6.763049	0.007548	NaN	0.000000	0.001634	0.001646	28.0801	0.091740	0.002153	42.6169	-159.479	-165.221	-0.092857	0.761172	-0.242513	-0.243829	0.007548	42.6169	-0.242646	-632.16	-1.194021E-5	NaN
518	1.000000	0.802501	7.37012e+06	-51189.1	1005.82	-29753.1	0.000000	0.000000	6.803059	-0.073185	NaN	0.000000	0.001656	0.001683	28.0801	0.142197	0.002043	69.6129	153.002	-166.617	-0.124309	0.801225	-0.202500	-0.203776	-0.073185	69.6129	-0.201711	-140.536	0.000521	NaN
518	1.000000	0.842544	7.37012e+06	-51189.1	1005.82	-29753.1	0.000000	0.000000	6.843102	-0.039634	NaN	0.000000	0.001568	0.001683	28.0815	0.048617	0.001833	26.5219	-100.778	-163.552	-0.059784	0.841211	-0.162457	-0.163790	-0.039634	26.5219	-0.161337	-28.9535	0.001369	NaN
518	1.000000	0.882562	7.37012e+06	-51189.1	1005.82	-29753.1	0.000000	0.000000	6.883121	-0.034277	NaN	0.000000	0.001664	0.001628	28.0815	0.076032	0.001886	40.3094	29.1511	-166.41	-0.050596	0.881237	-0.122439	-0.123764	-0.034277	40.3094	-0.121801	-5.251776	0.006527	NaN
518	1.000000	0.922541	7.37012e+06	-51189.1	1005.82	-29753.1	0.000000	0.000000	6.923099	-0.039817	NaN	0.000000	0.001655	0.001685	28.0816	0.023811	0.001909	12.4705	36.3563	-166.961	-0.083503	0.921244	-0.082461	-0.083757	-0.039817	12.4705	-0.080066	-0.621353	0.064080	NaN
518	1.000000	0.962559	7.37012e+06	-51189.1	1005.82	-29753.1	0.000000	0.000000	6.963114	-0.110621	NaN	0.000000	0.001641	0.001690	28.0816	0.114764	0.002170	52.8977	48.5359	-167.698	-0.043712	0.961292	-0.042443	-0.043709	-0.110621	52.8977	-0.040874	-0.048077	2.300917	NaN
518	1.000000	1.002601	7.37012e+06	-51189.1	1005.82	-29753.1	0.000000	0.000000	7.003293	3.208096	NaN	0.000000	0.001635	0.001655	28.0805	1.192892	0.002001	596.228	19.4086	-171.165	3.108728	1.001282	-0.002401	-0.003719	3.208096	596.228	-0.006436	-0.004302	-745.799	NaN
518	1.000000	1.042618	7.37012e+06	-51189.1	1005.82	-29753.1	0.000000	0.000000	7.043423	5.948319	NaN	0.000000	0.001613	0.001668	28.0807	3.230639	0.001846	1750.14	23.9407	-171.697	5.921490	1.041274	0.037617	0.036273	5.948319	1750.14	0.035068	0.051904	114.603	7018.55
518	2.000000	1.068239	7.37012e+06	-51189.1	1005.82	-29753.1	0.000000	0.000000	7.069108	7.514976	NaN	0.000000	0.001671	0.001691	28.0805	5.576889	0.002027	2751.02	14.9722	-168.535	7.707059	1.067912	0.063238	0.062910	7.514976	2751.02	0.061189	0.130107	57.7602	6968.15
518	2.000000	1.078177	7.37012e+06	-51189.1	1005.82	-29753.1	0.000000	0.000000	7.079137	9.722875	NaN	0.000000	0.001623	0.001671	28.0814	7.098335	0.001948	3643.78	15.9294	-171.437	9.572802	1.077841	0.073175	0.072839	9.722875	3643.78	0.071174	0.168897	57.567	8100.57
518	2.000000	1.088158	7.37012e+06	-51189.1	1005.82	-29753.1	0.000000	0.000000	7.089272	13.4574	NaN	0.000000	0.001633	0.001658	28.0818	9.459383	0.002081	4545	16.8753	-174.303	13.5144	1.087764	0.083157	0.082762	13.4574	4545	0.080936	0.211398	63.6589	9031.44
518	2.000000	1.098125	7.37012e+06	-51189.1	1005.82	-29753.1	0.000000	0.000000	7.099394	17.2454	NaN	0.000000	0.001699	0.001668	28.0817	11.5888	0.001912	6060.6	12.9331	-176.14	17.353	1.097830	0.093123	0.092828	17.2454	6060.6	0.090989	0.259798	66.3799	10863.5
518	2.000000	1.108109	7.37012e+06	-51189.1	1005.82	-29753.1	0.000000	0.000000	7.109766	26.6759	NaN	0.000000	0.001641	0.001695	28.0807	14.4814	0.001996	7255.57	13.5475	-177.105	26.0513	1.107752	0.103107	0.102751	26.6759	7255.57	0.100350	0.309032	86.321	11924.6
518	2.000000	1.118118	7.37012e+06	-51189.1	1005.82	-29753.1	0.000000	0.000000	7.120150	35.7839	NaN	0.000000	0.001659	0.001691	28.0808	17.6862	0.001918	9219.85	11.3986	-177.85	35.7066	1.117852	0.113117	0.112850	35.7839	9219.85	0.110206	0.365174	97.9915	13939.5
518	2.000000	1.128076	7.37012e+06	-51189.1	1005.82	-29753.1	0.000000	0.000000	7.130700	50.18	NaN	0.000000	0.001671	0.001685	28.0803	21.9428	0.001941	11303.5	11.5577	-179.502	49.853	1.127835	0.123075	0.122834	50.18	11303.5	0.119745	0.423711	118.43	15865.5
518	2.000000	1.138103	7.37012e+06	-51189.1	1005.82	-29753.1	0.000000	0.000000	7.141632	72.2096	NaN	0.000000	0.001652	0.001693	28.0802	29.3949	0.001918	15323.6	10.2545	177.081	72.7455	1.137823	0.133101	0.132821	72.2096	15323.6	0.129567	0.488297	147.88	20035.1
518	2.000000	1.148096	7.37012e+06	-51189.1	1005.82	-29753.1	0.000000	0.000000	7.152794	100.612	NaN	0.000000	0.001646	0.001677	28.0812	37.7291	0.001858	20310.1	7.905239	176.145	101.129	1.147763	0.143095	0.142761	100.612	20310.1	0.139380	0.557226	180.558	24858.1
518	2.000000	1.158043	7.37012e+06	-51189.1	1005.82	-29753.1	0.000000	0.000000	7.163860	127.812	NaN	0.000000	0.001667	0.001665	28.0814	45.9058	0.001839	24957.7	7.181576	174.344	126.685	1.157785	0.153042	0.152784	127.812	24957.7	0.149201	0.630661	202.664	28713.1
518	2.000000	1.161989	7.37012e+06	-51189.1	1005.82	-29753.1	0.000000	0.000000	7.168436	143.15	NaN	0.000000	0.001599	0.001702	28.0817	48.933	0.001802	27152.5	3.428584	176.571	139.097	1.161697	0.156988	0.156696	143.15	27152.5	0.153034	0.660535	216.718	30523.6