File: remote_trans/data/nanoindenter/0828-1/data/Data_2025-08-06,11h17m57s/2025-07-22_16-23-58_1_298.txt
2025-07-22, 16:23:58, 1
Index	Phase	Displacement	Time	Pos X	Pos Y	Pos Z	Rot A	Rot B	Piezo Z	Force A	Force B	Gripper	Voltage A	Voltage B	Temperature	Amplitude force	Amplitude pos	Stiffness	Phase shift	Phase excitation	Force A raw	Displacement raw	HMax	HMax raw	Real Force	Real Stiffness	Contact Depth	Area	Hardness	Reduced Mod.
[#]	[#]	[um]	[s]	[um]	[um]	[um]	[m°]	[m°]	[um]	[uN]	[uN]	[V]	[V]	[V]	[°C]	[uN]	[um]	[N/m]	[°]	[°]	[uN]	[um]	[um]	[um]	[uN]	[N/m]	[um]	[um^2]	[MPa]	[MPa]
298	1.000000	0.003031	7.36798e+06	-53539.1	955.818	-29746.3	0.000000	0.000000	6.002830	-0.050777	NaN	0.000000	0.001701	0.001578	28.0808	0.032934	0.000953	34.5616	139.919	-165.025	-0.040949	0.001710	-1.088878	-1.090199	-0.050777	34.5616	-1.087777	-3.435229E+14	1.478132E-16	NaN
298	1.000000	0.042953	7.36798e+06	-53539.1	955.819	-29746.3	0.000000	0.000000	6.042751	-0.089946	NaN	0.000000	0.001739	0.001587	28.0807	0.134022	0.002028	66.0885	-129.202	-167.78	-0.070580	0.041634	-1.048956	-1.050275	-0.089946	66.0885	-1.047936	-1.001527E+14	8.980910E-16	NaN
298	1.000000	0.082980	7.36798e+06	-53539.1	955.819	-29746.3	0.000000	0.000000	6.082780	-0.044276	NaN	0.000000	0.001665	0.001577	28.0806	0.117424	0.002029	57.8862	165.219	-165.864	0.000520	0.081621	-1.008929	-1.010288	-0.044276	57.8862	-1.008356	-2.939337E+13	1.506336E-15	NaN
298	1.000000	0.122927	7.36798e+06	-53539.1	955.818	-29746.3	0.000000	0.000000	6.122728	-0.014651	NaN	0.000000	0.001591	0.001591	28.0795	0.033825	0.002076	16.2931	-117.699	-167.52	-0.017857	0.121687	-0.968982	-0.970221	-0.014651	16.2931	-0.968308	-8.489046E+12	1.725907E-15	NaN
298	1.000000	0.163008	7.36798e+06	-53539.1	955.817	-29746.3	0.000000	0.000000	6.162807	-0.051381	NaN	0.000000	0.001666	0.001600	28.0793	0.102600	0.002016	50.8858	-172.877	-165.145	0.003986	0.161730	-0.928901	-0.930179	-0.051381	50.8858	-0.928144	-2.438622E+12	2.106984E-14	NaN
298	1.000000	0.202998	7.36798e+06	-53539.1	955.818	-29746.3	0.000000	0.000000	6.202800	0.024468	NaN	0.000000	0.001660	0.001636	28.0799	0.096870	0.001987	48.7496	111.223	-163.505	0.070884	0.201674	-0.888911	-0.890235	0.024468	48.7496	-0.889288	-7.282570E+11	-3.359850E-14	NaN
298	1.000000	0.243014	7.36798e+06	-53539.1	955.819	-29746.3	0.000000	0.000000	6.242814	-0.059205	NaN	0.000000	0.001660	0.001632	28.0798	0.065352	0.002040	32.0379	-96.2779	-165.223	-0.082686	0.241701	-0.848895	-0.850208	-0.059205	32.0379	-0.847509	-1.981519E+11	2.987871E-13	NaN
298	1.000000	0.283051	7.36798e+06	-53539.1	955.818	-29746.3	0.000000	0.000000	6.282851	-0.042380	NaN	0.000000	0.001654	0.001623	28.0808	0.057442	0.002097	27.3963	43.8517	-164.481	-0.137573	0.281714	-0.808858	-0.810195	-0.042380	27.3963	-0.807697	-5.719111E+10	7.410275E-13	NaN
298	1.000000	0.323061	7.36798e+06	-53539.1	955.818	-29746.3	0.000000	0.000000	6.322860	-0.050803	NaN	0.000000	0.001685	0.001614	28.0809	0.096028	0.001984	48.4082	-145.815	-166.759	-0.089201	0.321757	-0.768848	-0.770152	-0.050803	48.4082	-0.768061	-1.655542E+10	3.068677E-12	NaN
298	1.000000	0.363104	7.36798e+06	-53539.1	955.819	-29746.3	0.000000	0.000000	6.362906	-0.008214	NaN	0.000000	0.001640	0.001635	28.0808	0.025472	0.002135	11.9284	59.2357	-167.756	-0.030747	0.361792	-0.728805	-0.730117	-0.008214	11.9284	-0.728288	-4.758580E+9	1.726143E-12	NaN
298	1.000000	0.403112	7.36798e+06	-53539.1	955.818	-29746.3	0.000000	0.000000	6.402911	-0.053469	NaN	0.000000	0.001608	0.001619	28.08	0.048516	0.001990	24.3743	-178.861	-163.31	-0.066872	0.401747	-0.688797	-0.690162	-0.053469	24.3743	-0.687152	-1.306151E+9	4.093593E-11	NaN
298	1.000000	0.443102	7.36798e+06	-53539.1	955.818	-29746.3	0.000000	0.000000	6.442902	-0.048619	NaN	0.000000	0.001605	0.001624	28.0802	0.070059	0.002033	34.4529	-29.3153	-164.118	-0.027205	0.441799	-0.648807	-0.650110	-0.048619	34.4529	-0.647748	-3.771926E+8	1.288976E-10	NaN
298	1.000000	0.483139	7.36798e+06	-53539.1	955.818	-29746.3	0.000000	0.000000	6.482942	0.029131	NaN	0.000000	0.001657	0.001584	28.0795	0.088875	0.002044	43.4761	-149.636	-168.108	-0.019312	0.481840	-0.608770	-0.610069	0.029131	43.4761	-0.609273	-1.117134E+8	-2.607620E-10	NaN
298	1.000000	0.523133	7.36798e+06	-53539.1	955.818	-29746.3	0.000000	0.000000	6.522930	-0.114331	NaN	0.000000	0.001667	0.001603	28.0795	0.120731	0.002039	59.215	-21.4266	-168.678	-0.173529	0.521836	-0.568776	-0.570073	-0.114331	59.215	-0.567328	-2.949213E+7	3.876656E-9	NaN
298	1.000000	0.563178	7.36798e+06	-53539.1	955.818	-29746.3	0.000000	0.000000	6.562980	-0.010011	NaN	0.000000	0.001654	0.001571	28.0809	0.095490	0.001989	47.9972	-141.594	-167.325	-0.040100	0.561846	-0.528730	-0.530063	-0.010011	47.9972	-0.528574	-8.56582e+06	1.168696E-9	NaN
298	1.000000	0.603174	7.36798e+06	-53539.1	955.818	-29746.3	0.000000	0.000000	6.602972	-0.090535	NaN	0.000000	0.001622	0.001582	28.0807	0.091496	0.001969	46.4634	-163.01	-166.713	-0.035985	0.601873	-0.488735	-0.490036	-0.090535	46.4634	-0.487273	-2.27655e+06	3.976827E-8	NaN
298	1.000000	0.643181	7.36798e+06	-53539.1	955.818	-29746.3	0.000000	0.000000	6.642983	0.012796	NaN	0.000000	0.001632	0.001628	28.0808	0.013021	0.001942	6.704553	-147.728	-162.645	-0.038640	0.641818	-0.448728	-0.450091	0.012796	6.704553	-0.450160	-686420	-1.864149E-8	NaN
298	1.000000	0.683233	7.36798e+06	-53539.1	955.818	-29746.3	0.000000	0.000000	6.683034	-0.000642	NaN	0.000000	0.001648	0.001582	28.0793	0.069976	0.001960	35.7102	-111.593	-167.491	-0.086189	0.681890	-0.408676	-0.410019	-0.000642	35.7102	-0.408663	-177576	3.614479E-9	NaN
298	1.000000	0.723223	7.36798e+06	-53539.1	955.819	-29746.3	0.000000	0.000000	6.723025	-0.002266	NaN	0.000000	0.001639	0.001597	28.0792	0.061265	0.001988	30.8185	-70.1847	-165.454	-0.008658	0.721975	-0.368685	-0.369934	-0.002266	30.8185	-0.368630	-47467.6	4.774390E-8	NaN
298	1.000000	0.763234	7.36798e+06	-53539.1	955.818	-29746.3	0.000000	0.000000	6.763035	-0.026809	NaN	0.000000	0.001645	0.001590	28.0791	0.059777	0.002057	29.0591	-96.6067	-164.163	0.023884	0.761943	-0.328675	-0.329966	-0.026809	29.0591	-0.327983	-12187.1	2.199819E-6	NaN
298	1.000000	0.803296	7.36798e+06	-53539.1	955.818	-29746.3	0.000000	0.000000	6.803098	0.002591	NaN	0.000000	0.001627	0.001613	28.0807	0.101239	0.002024	50.0266	155.797	-165.809	0.027373	0.801931	-0.288613	-0.289978	0.002591	50.0266	-0.288652	-3184.89	-8.134413E-7	NaN
298	1.000000	0.843287	7.36798e+06	-53539.1	955.818	-29746.3	0.000000	0.000000	6.843087	-0.031994	NaN	0.000000	0.001724	0.001632	28.0812	0.015736	0.002053	7.665890	38.8677	-167.493	-0.043127	0.841936	-0.248622	-0.249973	-0.031994	7.665890	-0.245492	-699.997	4.570527E-5	NaN
298	1.000000	0.883300	7.36798e+06	-53539.1	955.817	-29746.3	0.000000	0.000000	6.883102	0.005278	NaN	0.000000	0.001676	0.001625	28.0807	0.175898	0.002121	82.9244	56.7002	-168.279	0.027846	0.881993	-0.208609	-0.209916	0.005278	82.9244	-0.208656	-182.406	-2.893463E-5	NaN
298	1.000000	0.923337	7.36798e+06	-53539.1	955.817	-29746.3	0.000000	0.000000	6.923136	-0.066605	NaN	0.000000	0.001672	0.001614	28.0806	0.124008	0.001997	62.1057	-179.935	-167.324	-0.070826	0.922006	-0.168572	-0.169903	-0.066605	62.1057	-0.167768	-37.5628	0.001773	NaN
298	1.000000	0.963347	7.36798e+06	-53539.1	955.818	-29746.3	0.000000	0.000000	6.963148	-0.029041	NaN	0.000000	0.001667	0.001606	28.0794	0.102450	0.002070	49.4813	-139.897	-168.407	-0.017982	0.962050	-0.128562	-0.129859	-0.029041	49.4813	-0.128122	-7.004845	0.004146	NaN
298	1.000000	1.003320	7.36798e+06	-53539.1	955.819	-29746.3	0.000000	0.000000	7.003120	-0.032165	NaN	0.000000	0.001629	0.001657	28.0793	0.012527	0.001840	6.810011	22.7362	-167.282	0.010262	1.002034	-0.088589	-0.089875	-0.032165	6.810011	-0.085047	-0.823779	0.039045	NaN
298	1.000000	1.043378	7.36798e+06	-53539.1	955.818	-29746.3	0.000000	0.000000	7.043200	0.485508	NaN	0.000000	0.001673	0.001649	28.0828	0.607570	0.002054	295.797	34.4184	-167.753	0.531683	1.042020	-0.048531	-0.049889	0.485508	295.797	-0.049762	-0.089751	-5.409511	NaN
298	2.000000	1.082820	7.36798e+06	-53539.1	955.819	-29746.3	0.000000	0.000000	7.082954	8.077215	NaN	0.000000	0.001676	0.001704	28.0806	7.908828	0.001722	4593.16	18.9776	-177.356	7.878472	1.082006	-0.009089	-0.009903	8.077215	4593.16	-0.010408	-0.006620	-1220.05	NaN
298	2.000000	1.092887	7.36798e+06	-53539.1	955.818	-29746.3	0.000000	0.000000	7.094035	32.74	NaN	0.000000	0.001680	0.001616	28.0809	20.8606	0.001762	11839.9	6.470675	-176.822	32.1215	1.092654	0.000978	0.000745	32.74	11839.9	-0.001096	-0.000802	-40806.8	NaN
298	2.000000	1.102866	7.36798e+06	-53539.1	955.82	-29746.3	0.000000	0.000000	7.106750	99.2594	NaN	0.000000	0.001671	0.001628	28.0806	31.9043	0.001791	17809.1	6.975658	177.809	97.6719	1.102448	0.010957	0.010539	99.2594	17809.1	0.006777	0.005814	17072.6	213392
298	2.000000	1.112889	7.36798e+06	-53539.1	955.819	-29746.3	0.000000	0.000000	7.120249	183.777	NaN	0.000000	0.001675	0.001659	28.0807	41.3274	0.001726	23947.5	6.127001	175.02	183.988	1.112506	0.020980	0.020597	183.777	23947.5	0.015224	0.015585	11791.6	175257
298	2.000000	1.122797	7.36798e+06	-53539.1	955.818	-29746.3	0.000000	0.000000	7.133970	276.469	NaN	0.000000	0.001660	0.001673	28.0795	50.1155	0.001910	26240.5	4.845805	175.71	274.965	1.122449	0.030888	0.030540	276.469	26240.5	0.022986	0.027454	10070.4	144692
298	2.000000	1.132715	7.36798e+06	-53539.1	955.819	-29746.3	0.000000	0.000000	7.148302	383.778	NaN	0.000000	0.001683	0.001650	28.0795	56.3809	0.001875	30062.7	2.914431	176.825	377.584	1.132363	0.040806	0.040454	383.778	30062.7	0.031231	0.043334	8856.19	131943
298	2.000000	1.142921	7.36798e+06	-53539.1	955.82	-29746.3	0.000000	0.000000	7.162120	471.595	NaN	0.000000	0.001677	0.001668	28.0794	64.0499	0.001804	35507.6	4.685612	174.652	478.266	1.142578	0.051012	0.050669	471.595	35507.6	0.041051	0.066773	7062.65	125543
298	2.000000	1.152863	7.36798e+06	-53539.1	955.821	-29746.3	0.000000	0.000000	7.176107	569.928	NaN	0.000000	0.001659	0.001683	28.0809	73.0467	0.001924	37969.4	7.145191	172.473	572.35	1.152466	0.060954	0.060557	569.928	37969.4	0.049696	0.091477	6230.27	114697
298	2.000000	1.162856	7.36798e+06	-53539.1	955.819	-29746.3	0.000000	0.000000	7.188989	640.166	NaN	0.000000	0.001652	0.001658	28.0809	79.9276	0.001874	42656	7.101343	170.863	642.126	1.162433	0.070947	0.070524	640.166	42656	0.059692	0.124705	5133.44	110360
298	2.000000	1.172736	7.36798e+06	-53539.1	955.819	-29746.3	0.000000	0.000000	7.201947	715.009	NaN	0.000000	0.001666	0.001678	28.0807	85.8821	0.001892	45403.1	2.639191	174.288	711.603	1.172498	0.080827	0.080589	715.009	45403.1	0.069016	0.160110	4465.75	103669
298	2.000000	1.181157	7.36798e+06	-53539.1	955.82	-29746.3	0.000000	0.000000	7.212561	768.313	NaN	0.000000	0.001700	0.001679	28.0807	91.3509	0.001721	53073.3	-0.300707	-3.972076	759.339	1.180898	0.089249	0.088989	768.313	53073.3	0.078391	0.199887	3843.73	108457