File: remote_trans/data/nanoindenter/0828-1/data/Data_2025-08-06,11h17m57s/2025-07-22_16-23-58_1_344.txt
2025-07-22, 16:23:58, 1
Index	Phase	Displacement	Time	Pos X	Pos Y	Pos Z	Rot A	Rot B	Piezo Z	Force A	Force B	Gripper	Voltage A	Voltage B	Temperature	Amplitude force	Amplitude pos	Stiffness	Phase shift	Phase excitation	Force A raw	Displacement raw	HMax	HMax raw	Real Force	Real Stiffness	Contact Depth	Area	Hardness	Reduced Mod.
[#]	[#]	[um]	[s]	[um]	[um]	[um]	[m°]	[m°]	[um]	[uN]	[uN]	[V]	[V]	[V]	[°C]	[uN]	[um]	[N/m]	[°]	[°]	[uN]	[um]	[um]	[um]	[uN]	[N/m]	[um]	[um^2]	[MPa]	[MPa]
344	1.000000	0.002517	7.36843e+06	-55839.1	955.818	-29740.9	0.000000	0.000000	6.002798	0.001817	NaN	0.000000	0.001598	0.001720	28.0784	0.070648	0.000861	82.0111	154.317	-169.597	-0.023369	0.001240	-1.022481	-1.023757	0.001817	82.0111	-1.022498	-4.555749E+13	-3.987775E-17	NaN
344	1.000000	0.042476	7.36843e+06	-55839.1	955.819	-29740.9	0.000000	0.000000	6.042754	-0.059739	NaN	0.000000	0.001603	0.001708	28.0783	0.062997	0.001909	32.9957	122.963	-167.185	-0.066500	0.041160	-0.982522	-0.983838	-0.059739	32.9957	-0.981164	-1.265015E+13	4.722370E-15	NaN
344	1.000000	0.082483	7.36843e+06	-55839.1	955.818	-29740.9	0.000000	0.000000	6.082763	-0.023844	NaN	0.000000	0.001565	0.001710	28.0798	0.063363	0.001977	32.0464	12.862	-168.858	-0.016304	0.081164	-0.942515	-0.943834	-0.023844	32.0464	-0.941957	-3.745779E+12	6.365645E-15	NaN
344	1.000000	0.122507	7.36843e+06	-55839.1	955.818	-29740.9	0.000000	0.000000	6.122789	0.010504	NaN	0.000000	0.001622	0.001677	28.0794	0.026170	0.001938	13.5014	79.3657	-167.206	0.034686	0.121175	-0.902491	-0.903823	0.010504	13.5014	-0.903074	-1.118423E+12	-9.391610E-15	NaN
344	1.000000	0.162508	7.36843e+06	-55839.1	955.819	-29740.9	0.000000	0.000000	6.162789	-0.003652	NaN	0.000000	0.001601	0.001721	28.0797	0.075115	0.001939	38.7437	168.191	-166.741	0.013392	0.161159	-0.862490	-0.863839	-0.003652	38.7437	-0.862419	-3.154022E+11	1.157827E-14	NaN
344	1.000000	0.202537	7.36843e+06	-55839.1	955.819	-29740.9	0.000000	0.000000	6.202819	0.006901	NaN	0.000000	0.001592	0.001741	28.0783	0.073782	0.002093	35.2519	-114.155	-169.524	0.028030	0.201159	-0.822461	-0.823838	0.006901	35.2519	-0.822607	-9.111034E+10	-7.573959E-14	NaN
344	1.000000	0.242546	7.36843e+06	-55839.1	955.818	-29740.9	0.000000	0.000000	6.242829	0.042830	NaN	0.000000	0.001606	0.001698	28.0781	0.083965	0.001955	42.9559	-27.9359	-168.799	0.030483	0.241194	-0.782452	-0.783804	0.042830	42.9559	-0.783199	-2.658911E+10	-1.610825E-12	NaN
344	1.000000	0.282562	7.36843e+06	-55839.1	955.818	-29740.9	0.000000	0.000000	6.282846	0.061980	NaN	0.000000	0.001589	0.001703	28.078	0.099053	0.001958	50.5912	1.154286	-164.781	0.034880	0.281253	-0.742436	-0.743745	0.061980	50.5912	-0.743355	-7.633911E+9	-8.119005E-12	NaN
344	1.000000	0.322593	7.36843e+06	-55839.1	955.818	-29740.9	0.000000	0.000000	6.322875	0.003146	NaN	0.000000	0.001570	0.001678	28.0791	0.101021	0.002019	50.0395	-25.821	-165.61	-0.027311	0.321258	-0.702405	-0.703739	0.003146	50.0395	-0.702452	-2.113543E+9	-1.488417E-12	NaN
344	1.000000	0.362595	7.36843e+06	-55839.1	955.818	-29740.9	0.000000	0.000000	6.362874	-0.049487	NaN	0.000000	0.001610	0.001639	28.0793	0.014803	0.001999	7.403995	-172.999	-163.42	0.005107	0.361283	-0.662403	-0.663715	-0.049487	7.403995	-0.657390	-5.113513E+8	9.677758E-11	NaN
344	1.000000	0.402608	7.36843e+06	-55839.1	955.818	-29740.9	0.000000	0.000000	6.402890	0.018596	NaN	0.000000	0.001563	0.001674	28.0793	0.173075	0.001896	91.2732	-99.5971	-165.367	-0.020551	0.401353	-0.622389	-0.623645	0.018596	91.2732	-0.622542	-1.700486E+8	-1.093553E-10	NaN
344	1.000000	0.442627	7.36843e+06	-55839.1	955.819	-29740.9	0.000000	0.000000	6.442907	-0.025713	NaN	0.000000	0.001630	0.001683	28.0795	0.031069	0.001870	16.6121	179.421	-168.912	0.008532	0.441330	-0.582371	-0.583668	-0.025713	16.6121	-0.581210	-4.585880E+7	5.606970E-10	NaN
344	1.000000	0.482659	7.36843e+06	-55839.1	955.817	-29740.9	0.000000	0.000000	6.482942	0.033129	NaN	0.000000	0.001579	0.001638	28.0781	0.063780	0.002055	31.0389	-115.649	-165.476	-0.044139	0.481352	-0.542338	-0.543646	0.033129	31.0389	-0.543139	-1.364211E+7	-2.428456E-9	NaN
344	1.000000	0.522658	7.36843e+06	-55839.1	955.818	-29740.9	0.000000	0.000000	6.522940	-0.000402	NaN	0.000000	0.001583	0.001577	28.0785	0.030913	0.002080	14.8632	13.7033	-166.315	-0.012597	0.521343	-0.502339	-0.503655	-0.000402	14.8632	-0.502319	-3.69288e+06	1.089308E-10	NaN
344	1.000000	0.562668	7.36843e+06	-55839.1	955.818	-29740.9	0.000000	0.000000	6.562951	0.039236	NaN	0.000000	0.001577	0.001578	28.0779	0.067522	0.001915	35.2542	-71.3765	-164.464	-0.011901	0.561325	-0.462330	-0.463673	0.039236	35.2542	-0.463165	-1.04586e+06	-3.751581E-8	NaN
344	1.000000	0.602683	7.36843e+06	-55839.1	955.819	-29740.9	0.000000	0.000000	6.602963	-0.023591	NaN	0.000000	0.001644	0.001576	28.0794	0.039319	0.002070	18.9928	-78.1996	-165.601	0.073471	0.601404	-0.422315	-0.423594	-0.023591	18.9928	-0.421383	-269169	8.764285E-8	NaN
344	1.000000	0.642698	7.36843e+06	-55839.1	955.818	-29740.9	0.000000	0.000000	6.642980	0.029114	NaN	0.000000	0.001637	0.001597	28.0792	0.060783	0.001984	30.6438	-72.4601	-164.692	0.014331	0.641405	-0.382300	-0.383592	0.029114	30.6438	-0.383013	-76401.3	-3.810693E-7	NaN
344	1.000000	0.682763	7.36843e+06	-55839.1	955.818	-29740.9	0.000000	0.000000	6.683043	-0.028267	NaN	0.000000	0.001682	0.001599	28.0796	0.097699	0.001934	50.515	-16.5559	-164.728	0.070540	0.681449	-0.342235	-0.343548	-0.028267	50.515	-0.341815	-19409	1.456388E-6	NaN
344	1.000000	0.722764	7.36843e+06	-55839.1	955.818	-29740.9	0.000000	0.000000	6.723046	0.032831	NaN	0.000000	0.001601	0.001608	28.0796	0.071476	0.002056	34.7573	90.1867	-164.412	0.004228	0.721408	-0.302234	-0.303590	0.032831	34.7573	-0.302942	-5204.73	-6.307935E-6	NaN
344	1.000000	0.762770	7.36843e+06	-55839.1	955.818	-29740.9	0.000000	0.000000	6.763049	-0.042361	NaN	0.000000	0.001618	0.001672	28.078	0.059664	0.001962	30.4024	14.8921	-164.01	-0.020153	0.761464	-0.262228	-0.263534	-0.042361	30.4024	-0.261183	-1221.92	3.466792E-5	NaN
344	1.000000	0.802771	7.36843e+06	-55839.1	955.819	-29740.9	0.000000	0.000000	6.803052	-0.008757	NaN	0.000000	0.001562	0.001627	28.078	0.164669	0.002101	78.3695	-38.5678	-166.597	-0.066481	0.801459	-0.222227	-0.223539	-0.008757	78.3695	-0.222143	-300.525	2.913857E-5	NaN
344	1.000000	0.842808	7.36843e+06	-55839.1	955.818	-29740.9	0.000000	0.000000	6.843088	-0.027003	NaN	0.000000	0.001610	0.001689	28.0783	0.044597	0.002058	21.6715	114.635	-165.608	-0.058972	0.841466	-0.182190	-0.183532	-0.027003	21.6715	-0.181256	-64.0921	0.000421	NaN
344	1.000000	0.882826	7.36843e+06	-55839.1	955.819	-29740.9	0.000000	0.000000	6.883109	0.043523	NaN	0.000000	0.001568	0.001669	28.0794	0.053896	0.001933	27.8813	109.722	-165.689	0.001942	0.881516	-0.142172	-0.143482	0.043523	27.8813	-0.143343	-13.6595	-0.003186	NaN
344	1.000000	0.922823	7.36843e+06	-55839.1	955.819	-29740.9	0.000000	0.000000	6.923103	-0.031969	NaN	0.000000	0.001594	0.001678	28.0793	0.098349	0.001889	52.0734	107.822	-170.37	-0.112122	0.921515	-0.102175	-0.103483	-0.031969	52.0734	-0.101714	-1.993433	0.016037	NaN
344	1.000000	0.962820	7.36843e+06	-55839.1	955.817	-29740.9	0.000000	0.000000	6.963099	-0.062081	NaN	0.000000	0.001592	0.001701	28.0794	0.041369	0.001878	22.025	164.021	-166.137	-0.012139	0.961531	-0.062178	-0.063466	-0.062081	22.025	-0.060064	-0.180850	0.343273	NaN
344	1.000000	1.002842	7.36843e+06	-55839.1	955.819	-29740.9	0.000000	0.000000	7.003122	-0.029740	NaN	0.000000	0.001664	0.001688	28.0783	0.139641	0.001916	72.8772	-114.323	-166.64	-0.029112	1.001544	-0.022156	-0.023454	-0.029740	72.8772	-0.021850	-0.013997	2.124721	NaN
344	2.000000	1.037519	7.36843e+06	-55839.1	955.817	-29740.9	0.000000	0.000000	7.038229	10.4242	NaN	0.000000	0.001619	0.001627	28.0786	10.4674	0.001777	5890.91	10.2968	-176.436	10.4106	1.037206	0.012521	0.012209	10.4242	5890.91	0.011194	0.010538	989.162	52428.5
344	2.000000	1.047491	7.36843e+06	-55839.1	955.819	-29740.9	0.000000	0.000000	7.048760	24.0113	NaN	0.000000	0.001617	0.001684	28.0785	20.4277	0.002025	10088	7.391640	-178.047	23.9244	1.047173	0.022493	0.022176	24.0113	10088	0.020708	0.023666	1014.57	59911.8
344	2.000000	1.057420	7.36843e+06	-55839.1	955.818	-29740.9	0.000000	0.000000	7.059504	43.8076	NaN	0.000000	0.001614	0.001696	28.079	28.9	0.001703	16966.4	7.537770	176.946	43.4721	1.057096	0.032423	0.032098	43.8076	16966.4	0.030486	0.041757	1049.1	75857
344	2.000000	1.067345	7.36843e+06	-55839.1	955.819	-29740.9	0.000000	0.000000	7.070634	73.1091	NaN	0.000000	0.001660	0.001693	28.0795	39.1653	0.001769	22137.9	5.230056	176.303	71.0086	1.067139	0.042347	0.042141	73.1091	22137.9	0.039871	0.063694	1147.81	80141.7
344	2.000000	1.077414	7.36843e+06	-55839.1	955.819	-29740.9	0.000000	0.000000	7.082240	110.46	NaN	0.000000	0.001622	0.001679	28.0795	47.721	0.001724	27679.3	6.048512	174.314	111.176	1.077089	0.052417	0.052091	110.46	27679.3	0.049423	0.090639	1218.68	83998.2
344	2.000000	1.087371	7.36843e+06	-55839.1	955.821	-29740.9	0.000000	0.000000	7.093576	144.005	NaN	0.000000	0.001653	0.001684	28.0794	58.1831	0.001736	33522.9	6.515225	171.587	143.412	1.087044	0.062373	0.062047	144.005	33522.9	0.059151	0.122782	1172.85	87407.1
344	2.000000	1.097388	7.36843e+06	-55839.1	955.82	-29740.9	0.000000	0.000000	7.105580	192.27	NaN	0.000000	0.001612	0.001692	28.078	66.3126	0.001772	37428.9	7.552670	170.479	193.915	1.097131	0.072391	0.072134	192.27	37428.9	0.068538	0.158192	1215.42	85978.3
344	2.000000	1.107326	7.36843e+06	-55839.1	955.82	-29740.9	0.000000	0.000000	7.117410	238.302	NaN	0.000000	0.001637	0.001694	28.0781	74.9591	0.001767	42429.5	1.682449	175.068	236.815	1.107246	0.082328	0.082248	238.302	42429.5	0.078115	0.198658	1199.56	86973.7
344	2.000000	1.117275	7.36843e+06	-55839.1	955.82	-29740.9	0.000000	0.000000	7.130380	311.718	NaN	0.000000	0.001616	0.001685	28.0782	83.4445	0.001742	47905.1	1.107077	174.904	307.39	1.117020	0.092278	0.092022	311.718	47905.1	0.087397	0.241971	1288.25	88976.2
344	2.000000	1.127345	7.36843e+06	-55839.1	955.821	-29740.9	0.000000	0.000000	7.142805	368.967	NaN	0.000000	0.001635	0.001664	28.078	94.9856	0.001839	51659.1	6.862683	168.281	367.882	1.127105	0.102347	0.102108	368.967	51659.1	0.096991	0.290904	1268.35	87507.4
344	2.000000	1.134296	7.36843e+06	-55839.1	955.82	-29740.9	0.000000	0.000000	7.151946	422.18	NaN	0.000000	0.001658	0.001724	28.0789	99.2253	0.001747	56801.9	3.731202	170.978	420.483	1.134024	0.109298	0.109026	422.18	56801.9	0.103724	0.327755	1288.09	90648.6