File: remote_trans/data/nanoindenter/0828-1/data/Data_2025-08-06,11h17m57s/2025-07-22_16-23-58_1_799.txt
2025-07-22, 16:23:58, 1
Index	Phase	Displacement	Time	Pos X	Pos Y	Pos Z	Rot A	Rot B	Piezo Z	Force A	Force B	Gripper	Voltage A	Voltage B	Temperature	Amplitude force	Amplitude pos	Stiffness	Phase shift	Phase excitation	Force A raw	Displacement raw	HMax	HMax raw	Real Force	Real Stiffness	Contact Depth	Area	Hardness	Reduced Mod.
[#]	[#]	[um]	[s]	[um]	[um]	[um]	[m°]	[m°]	[um]	[uN]	[uN]	[V]	[V]	[V]	[°C]	[uN]	[um]	[N/m]	[°]	[°]	[uN]	[um]	[um]	[um]	[uN]	[N/m]	[um]	[um^2]	[MPa]	[MPa]
799	1.000000	0.002885	7.37287e+06	-40089.1	1055.82	-29791.3	0.000000	0.000000	6.002810	0.001217	NaN	0.000000	0.001524	0.001799	28.0826	0.046474	0.000991	46.8855	95.975	-166.2	-0.015462	0.001637	-1.129050	-1.130298	0.001217	46.8855	-1.129070	-1.230681E+15	-9.886716E-19	NaN
799	1.000000	0.044791	7.37287e+06	-40089.1	1055.82	-29791.3	0.000000	0.000000	6.044715	-0.004724	NaN	0.000000	0.001567	0.001788	28.0824	0.071013	0.002050	34.6388	-86.6792	13.9942	-0.008900	0.043447	-1.087145	-1.088489	-0.004724	34.6388	-1.087043	-3.358161E+14	1.406686E-17	NaN
799	1.000000	0.086832	7.37287e+06	-40089.1	1055.82	-29791.3	0.000000	0.000000	6.086756	-0.004956	NaN	0.000000	0.001552	0.001810	28.0828	0.049968	0.002031	24.6	-52.5594	-165.19	0.014238	0.085518	-1.045104	-1.046418	-0.004956	24.6	-1.044953	-9.131957E+13	5.427114E-17	NaN
799	1.000000	0.128865	7.37287e+06	-40089.1	1055.82	-29791.3	0.000000	0.000000	6.128789	-0.030106	NaN	0.000000	0.001551	0.001824	28.084	0.017396	0.001995	8.721915	1.573028	15.6091	0.016712	0.127495	-1.003070	-1.004440	-0.030106	8.721915	-1.000481	-2.302773E+13	1.307388E-15	NaN
799	1.000000	0.170864	7.37287e+06	-40089.1	1055.82	-29791.3	0.000000	0.000000	6.170787	-0.023412	NaN	0.000000	0.001607	0.001838	28.084	0.089954	0.001979	45.4524	144.415	-163.704	-0.084402	0.169573	-0.961072	-0.962363	-0.023412	45.4524	-0.960685	-6.700533E+12	3.494008E-15	NaN
799	1.000000	0.212886	7.37287e+06	-40089.1	1055.82	-29791.3	0.000000	0.000000	6.212810	-0.013675	NaN	0.000000	0.001619	0.001795	28.0839	0.016959	0.001930	8.785628	-97.6445	15.645	-0.050302	0.211537	-0.919049	-0.920399	-0.013675	8.785628	-0.917882	-1.772593E+12	7.714942E-15	NaN
799	1.000000	0.254908	7.37287e+06	-40089.1	1055.82	-29791.3	0.000000	0.000000	6.254834	0.035454	NaN	0.000000	0.001613	0.001807	28.0826	0.045303	0.002047	22.1357	172.635	-165.246	0.031076	0.253605	-0.877028	-0.878331	0.035454	22.1357	-0.878229	-5.161319E+11	-6.869221E-14	NaN
799	1.000000	0.296897	7.37287e+06	-40089.1	1055.82	-29791.3	0.000000	0.000000	6.296821	-0.019858	NaN	0.000000	0.001575	0.001798	28.0827	0.028364	0.002073	13.6853	41.4044	15.3013	0.004811	0.295596	-0.835038	-0.836340	-0.019858	13.6853	-0.833950	-1.298129E+11	1.529741E-13	NaN
799	1.000000	0.338914	7.37287e+06	-40089.1	1055.82	-29791.3	0.000000	0.000000	6.338837	-0.032764	NaN	0.000000	0.001548	0.001820	28.0826	0.112148	0.002155	52.0309	-106.455	-165.548	-0.089686	0.337608	-0.793021	-0.794327	-0.032764	52.0309	-0.792549	-3.562061E+10	9.197910E-13	NaN
799	1.000000	0.380927	7.37287e+06	-40089.1	1055.82	-29791.3	0.000000	0.000000	6.380851	-0.009346	NaN	0.000000	0.001543	0.001843	28.0842	0.149713	0.002047	73.151	-128.903	15.581	-0.104859	0.379675	-0.751009	-0.752260	-0.009346	73.151	-0.750913	-9.675055E+9	9.660315E-13	NaN
799	1.000000	0.422981	7.37287e+06	-40089.1	1055.82	-29791.3	0.000000	0.000000	6.422905	-0.013760	NaN	0.000000	0.001611	0.001806	28.0843	0.101260	0.002140	47.3119	-164.467	-167.606	-0.039201	0.421687	-0.708955	-0.710249	-0.013760	47.3119	-0.708737	-2.575194E+9	5.343291E-12	NaN
799	1.000000	0.464972	7.37287e+06	-40089.1	1055.82	-29791.3	0.000000	0.000000	6.464896	-0.000444	NaN	0.000000	0.001630	0.001806	28.0841	0.065276	0.001895	34.4386	-158.611	15.6252	-0.026512	0.463593	-0.666964	-0.668343	-0.000444	34.4386	-0.666954	-6.913492E+8	6.423291E-13	NaN
799	1.000000	0.507018	7.37287e+06	-40089.1	1055.82	-29791.3	0.000000	0.000000	6.506942	-0.010366	NaN	0.000000	0.001575	0.001833	28.0827	0.049193	0.002055	23.9368	-108.069	-166.038	0.001082	0.505670	-0.624918	-0.626266	-0.010366	23.9368	-0.624593	-1.814501E+8	5.712648E-11	NaN
799	1.000000	0.549021	7.37287e+06	-40089.1	1055.82	-29791.3	0.000000	0.000000	6.548943	-0.054349	NaN	0.000000	0.001626	0.001786	28.0831	0.033458	0.001917	17.4564	-113.836	13.0699	-0.048131	0.547645	-0.582915	-0.584291	-0.054349	17.4564	-0.580580	-4.494987E+7	1.209104E-9	NaN
799	1.000000	0.591034	7.37287e+06	-40089.1	1055.82	-29791.3	0.000000	0.000000	6.590959	0.012057	NaN	0.000000	0.001631	0.001825	28.083	0.152529	0.002004	76.1131	-97.7297	-163.375	0.067818	0.589722	-0.540902	-0.542214	0.012057	76.1131	-0.541020	-1.274995E+7	-9.456155E-10	NaN
799	1.000000	0.633056	7.37287e+06	-40089.1	1055.82	-29791.3	0.000000	0.000000	6.632978	-0.052779	NaN	0.000000	0.001619	0.001813	28.0831	0.056085	0.002010	27.9029	44.4518	15.5308	0.024821	0.631720	-0.498880	-0.500216	-0.052779	27.9029	-0.497461	-3.15929e+06	1.670593E-8	NaN
799	1.000000	0.675110	7.37287e+06	-40089.1	1055.82	-29791.3	0.000000	0.000000	6.675035	0.013349	NaN	0.000000	0.001701	0.001785	28.0842	0.097854	0.002082	47.0035	-143.839	-165.257	0.052516	0.673799	-0.456825	-0.458137	0.013349	47.0035	-0.457038	-857798	-1.556137E-8	NaN
799	1.000000	0.717118	7.37287e+06	-40089.1	1055.82	-29791.3	0.000000	0.000000	6.717042	0.000622	NaN	0.000000	0.001663	0.001833	28.084	0.143857	0.002000	71.9281	90.5119	10.9875	0.021295	0.715714	-0.414818	-0.416222	0.000622	71.9281	-0.414824	-217250	-2.864501E-9	NaN
799	1.000000	0.759077	7.37287e+06	-40089.1	1055.82	-29791.3	0.000000	0.000000	6.759002	0.018769	NaN	0.000000	0.001637	0.001782	28.0845	0.042196	0.001882	22.4169	147.539	-167.332	0.041405	0.757786	-0.372859	-0.374150	0.018769	22.4169	-0.373487	-55759.3	-3.366065E-7	NaN
799	1.000000	0.801114	7.37287e+06	-40089.1	1055.82	-29791.3	0.000000	0.000000	6.801041	0.050968	NaN	0.000000	0.001675	0.001808	28.0831	0.061691	0.001858	33.194	-84.5428	18.2027	-0.013983	0.799738	-0.330822	-0.332198	0.050968	33.194	-0.331973	-13942.3	-3.655644E-6	NaN
799	1.000000	0.843173	7.37287e+06	-40089.1	1055.82	-29791.3	0.000000	0.000000	6.843097	-0.027853	NaN	0.000000	0.001677	0.001815	28.0831	0.054597	0.001980	27.5766	-43.3249	-165.159	-0.031548	0.841817	-0.288762	-0.290119	-0.027853	27.5766	-0.288005	-3114.52	8.942919E-6	NaN
799	1.000000	0.885175	7.37287e+06	-40089.1	1055.82	-29791.3	0.000000	0.000000	6.885098	-0.034867	NaN	0.000000	0.001624	0.001753	28.0828	0.119488	0.002020	59.1415	-86.9662	15.9783	-0.058270	0.883797	-0.246760	-0.248139	-0.034867	59.1415	-0.246318	-720.98	4.835990E-5	NaN
799	1.000000	0.927185	7.37287e+06	-40089.1	1055.82	-29791.3	0.000000	0.000000	6.927108	-0.019547	NaN	0.000000	0.001632	0.001800	28.0839	0.044895	0.001961	22.8898	153.94	-166.875	-0.028511	0.925873	-0.204751	-0.206063	-0.019547	22.8898	-0.204110	-153.83	0.000127	NaN
799	1.000000	0.969187	7.37287e+06	-40089.1	1055.82	-29791.3	0.000000	0.000000	6.969110	-0.032857	NaN	0.000000	0.001593	0.001766	28.0842	0.126495	0.002045	61.8547	150.067	13.0783	-0.080574	0.967852	-0.162749	-0.164084	-0.032857	61.8547	-0.162350	-30.1739	0.001089	NaN
799	1.000000	1.011199	7.37287e+06	-40089.1	1055.82	-29791.3	0.000000	0.000000	7.011123	-0.017631	NaN	0.000000	0.001665	0.001788	28.0841	0.089598	0.001905	47.0446	90.6175	-169.035	-0.016522	1.009884	-0.120737	-0.122051	-0.017631	47.0446	-0.120456	-4.934847	0.003573	NaN
799	1.000000	1.053234	7.37288e+06	-40089.1	1055.82	-29791.3	0.000000	0.000000	7.053156	-0.060950	NaN	0.000000	0.001561	0.001783	28.0829	0.022930	0.002079	11.0315	104.316	18.2818	0.019271	1.051895	-0.078702	-0.080041	-0.060950	11.0315	-0.074558	-0.449848	0.135491	NaN
799	1.000000	1.095283	7.37288e+06	-40089.1	1055.82	-29791.3	0.000000	0.000000	7.095210	0.057605	NaN	0.000000	0.001615	0.001783	28.0831	0.046432	0.001937	23.9745	43.4293	-165.516	0.031590	1.093982	-0.036653	-0.037954	0.057605	23.9745	-0.038455	-0.040604	-1.418683	NaN
799	2.000000	1.135341	7.37288e+06	-40089.1	1055.82	-29791.3	0.000000	0.000000	7.135670	9.843877	NaN	0.000000	0.001575	0.001807	28.0827	9.324131	0.001673	5574.76	4.792543	11.2049	8.992404	1.134991	0.003405	0.003055	9.843877	5574.76	0.002081	0.001620	6075.35	126532
799	2.000000	1.145803	7.37288e+06	-40089.1	1055.82	-29791.3	0.000000	0.000000	7.146811	26.3662	NaN	0.000000	0.001584	0.001769	28.0828	20.6051	0.001906	10808	6.655543	-177.742	25.9045	1.145507	0.013867	0.013571	26.3662	10808	0.012038	0.011535	2285.67	91939.7
799	2.000000	1.156294	7.37288e+06	-40089.1	1055.82	-29791.3	0.000000	0.000000	7.158301	50.689	NaN	0.000000	0.001584	0.001787	28.0841	28.7073	0.001682	17065.5	4.715215	-0.616074	50.625	1.155935	0.024358	0.023999	50.689	17065.5	0.022130	0.026001	1949.52	96693.6
799	2.000000	1.166697	7.37288e+06	-40089.1	1055.82	-29791.3	0.000000	0.000000	7.170340	90.4881	NaN	0.000000	0.001617	0.001817	28.0839	38.9004	0.001783	21812.1	6.417344	176.708	89.1441	1.166410	0.034761	0.034475	90.4881	21812.1	0.031650	0.044233	2045.71	94753.9
799	2.000000	1.177217	7.37288e+06	-40089.1	1055.82	-29791.3	0.000000	0.000000	7.182810	137.946	NaN	0.000000	0.001558	0.001837	28.0838	48.4458	0.001753	27633.2	5.827429	-4.029542	136.849	1.176819	0.045281	0.044883	137.946	27633.2	0.041537	0.068062	2026.78	96772.8
799	2.000000	1.187713	7.37288e+06	-40089.1	1055.82	-29791.3	0.000000	0.000000	7.195583	193.341	NaN	0.000000	0.001634	0.001813	28.0826	59.4656	0.001794	33145.6	5.131125	173.858	191.554	1.187414	0.055777	0.055478	193.341	33145.6	0.051403	0.096797	1997.38	97334.5
799	2.000000	1.198313	7.37288e+06	-40089.1	1055.82	-29791.3	0.000000	0.000000	7.208610	252.4	NaN	0.000000	0.001551	0.001816	28.0828	71.3194	0.001840	38758.9	4.822331	-7.015360	255.375	1.197984	0.066378	0.066048	252.4	38758.9	0.061494	0.131219	1923.51	97756.7
799	2.000000	1.208680	7.37288e+06	-40089.1	1055.82	-29791.3	0.000000	0.000000	7.222151	329.642	NaN	0.000000	0.001618	0.001807	28.0829	80.2588	0.001779	45104.5	2.648724	173.772	329.217	1.208433	0.076744	0.076497	329.642	45104.5	0.071263	0.169264	1947.5	100164
799	2.000000	1.219098	7.37288e+06	-40089.1	1055.82	-29791.3	0.000000	0.000000	7.236137	416.455	NaN	0.000000	0.001616	0.001806	28.084	89.7063	0.001866	48064.2	4.282804	-8.131527	408.814	1.218893	0.087163	0.086957	416.455	48064.2	0.080664	0.210154	1981.67	95791.5
799	2.000000	1.229621	7.37288e+06	-40089.1	1055.82	-29791.3	0.000000	0.000000	7.250593	512.19	NaN	0.000000	0.001569	0.001807	28.0839	98.8116	0.001836	53820.3	8.138108	167.882	510.389	1.229298	0.097685	0.097362	512.19	53820.3	0.090547	0.257574	1988.52	96887.6
799	2.000000	1.233278	7.37288e+06	-40089.1	1055.82	-29791.3	0.000000	0.000000	7.254781	525.106	NaN	0.000000	0.001632	0.001816	28.084	100.598	0.001791	56167.4	1.728422	-6.504661	529.096	1.233050	0.101342	0.101114	525.106	56167.4	0.094331	0.276913	1896.28	97518.1