File: remote_trans/data/nanoindenter/0828-1/data/Data_2025-08-06,11h17m57s/2025-07-22_16-23-58_1_1151.txt
2025-07-22, 16:23:58, 1
Index	Phase	Displacement	Time	Pos X	Pos Y	Pos Z	Rot A	Rot B	Piezo Z	Force A	Force B	Gripper	Voltage A	Voltage B	Temperature	Amplitude force	Amplitude pos	Stiffness	Phase shift	Phase excitation	Force A raw	Displacement raw	HMax	HMax raw	Real Force	Real Stiffness	Contact Depth	Area	Hardness	Reduced Mod.
[#]	[#]	[um]	[s]	[um]	[um]	[um]	[m°]	[m°]	[um]	[uN]	[uN]	[V]	[V]	[V]	[°C]	[uN]	[um]	[N/m]	[°]	[°]	[uN]	[um]	[um]	[um]	[uN]	[N/m]	[um]	[um^2]	[MPa]	[MPa]
1151	1.000000	0.002674	7.37632e+06	-57689.1	1055.82	-29736.7	0.000000	0.000000	6.002810	-0.004799	NaN	0.000000	0.001549	0.001676	28.0815	0.076228	0.000849	89.7964	-78.4851	-161.343	0.011311	0.001435	-0.933772	-0.935011	-0.004799	89.7964	-0.933732	-2.901102E+12	1.654090E-15	NaN
1151	1.000000	0.038594	7.37632e+06	-57689.1	1055.82	-29736.7	0.000000	0.000000	6.038732	0.041834	NaN	0.000000	0.001589	0.001707	28.0816	0.032780	0.001888	17.3615	-42.0137	-165.774	0.005288	0.037327	-0.897851	-0.899119	0.041834	17.3615	-0.899659	-1.005663E+12	-4.159865E-14	NaN
1151	1.000000	0.074621	7.37632e+06	-57689.1	1055.82	-29736.7	0.000000	0.000000	6.074761	0.093869	NaN	0.000000	0.001628	0.001689	28.0804	0.015663	0.001900	8.242202	142.541	-163.829	0.062197	0.073334	-0.861825	-0.863112	0.093869	8.242202	-0.870366	-4.040170E+11	-2.323394E-13	NaN
1151	1.000000	0.110631	7.37632e+06	-57689.1	1055.82	-29736.7	0.000000	0.000000	6.110769	0.023590	NaN	0.000000	0.001625	0.001685	28.0803	0.056242	0.002042	27.5376	2.236864	-162.47	-0.100233	0.109306	-0.825814	-0.827140	0.023590	27.5376	-0.826457	-1.027441E+11	-2.295988E-13	NaN
1151	1.000000	0.146660	7.37632e+06	-57689.1	1055.82	-29736.7	0.000000	0.000000	6.146796	-0.004761	NaN	0.000000	0.001654	0.001695	28.0802	0.040328	0.002149	18.7703	-117.059	-163.947	0.083949	0.145281	-0.789786	-0.791164	-0.004761	18.7703	-0.789595	-3.247780E+10	1.466078E-13	NaN
1151	1.000000	0.182654	7.37632e+06	-57689.1	1055.82	-29736.7	0.000000	0.000000	6.182791	0.019742	NaN	0.000000	0.001671	0.001732	28.0813	0.052633	0.002100	25.0602	-141.924	-167.918	-0.022689	0.181299	-0.753792	-0.755147	0.019742	25.0602	-0.754383	-1.078641E+10	-1.830249E-12	NaN
1151	1.000000	0.218675	7.37632e+06	-57689.1	1055.82	-29736.7	0.000000	0.000000	6.218816	0.091567	NaN	0.000000	0.001574	0.001680	28.0818	0.033273	0.001872	17.7696	140.826	-169.4	0.030822	0.217367	-0.717770	-0.719079	0.091567	17.7696	-0.721635	-3.861638E+9	-2.371195E-11	NaN
1151	1.000000	0.254705	7.37632e+06	-57689.1	1055.82	-29736.7	0.000000	0.000000	6.254840	-0.029983	NaN	0.000000	0.001575	0.001690	28.0817	0.079449	0.002035	39.0435	-7.778172	-166.925	0.028477	0.253324	-0.681741	-0.683122	-0.029983	39.0435	-0.681165	-1.081785E+9	2.771659E-11	NaN
1151	1.000000	0.290725	7.37632e+06	-57689.1	1055.82	-29736.7	0.000000	0.000000	6.290863	0.035259	NaN	0.000000	0.001553	0.001654	28.082	0.099796	0.001941	51.4022	-46.0847	-168.644	0.014571	0.289384	-0.645721	-0.647062	0.035259	51.4022	-0.646235	-3.595994E+8	-9.805213E-11	NaN
1151	1.000000	0.326718	7.37632e+06	-57689.1	1055.82	-29736.7	0.000000	0.000000	6.326856	0.040596	NaN	0.000000	0.001578	0.001659	28.0803	0.076052	0.001980	38.4029	110.252	-165.668	0.043924	0.325456	-0.609727	-0.610990	0.040596	38.4029	-0.610520	-1.162177E+8	-3.493081E-10	NaN
1151	1.000000	0.362706	7.37632e+06	-57689.1	1055.82	-29736.7	0.000000	0.000000	6.362845	0.068245	NaN	0.000000	0.001661	0.001660	28.0803	0.022560	0.001990	11.3348	-89.9836	-167.049	0.013051	0.361454	-0.573740	-0.574992	0.068245	11.3348	-0.578255	-4.174884E+7	-1.634646E-9	NaN
1151	1.000000	0.398785	7.37632e+06	-57689.1	1055.82	-29736.7	0.000000	0.000000	6.398923	0.050087	NaN	0.000000	0.001673	0.001681	28.0803	0.070054	0.002055	34.0814	77.4823	-164.819	0.061535	0.397474	-0.537661	-0.538972	0.050087	34.0814	-0.538764	-1.186338E+7	-4.221961E-9	NaN
1151	1.000000	0.434771	7.37632e+06	-57689.1	1055.82	-29736.7	0.000000	0.000000	6.434908	0.024049	NaN	0.000000	0.001621	0.001669	28.0802	0.117892	0.002006	58.7611	117.457	-164.407	0.024255	0.433445	-0.501675	-0.503001	0.024049	58.7611	-0.501982	-3.65314e+06	-6.583233E-9	NaN
1151	1.000000	0.470769	7.37632e+06	-57689.1	1055.82	-29736.7	0.000000	0.000000	6.470907	0.035780	NaN	0.000000	0.001624	0.001624	28.0822	0.095841	0.001939	49.4176	85.9788	-164.705	0.001070	0.469533	-0.465677	-0.466913	0.035780	49.4176	-0.466220	-1.15445e+06	-3.099297E-8	NaN
1151	1.000000	0.506819	7.37632e+06	-57689.1	1055.82	-29736.7	0.000000	0.000000	6.506954	-0.037119	NaN	0.000000	0.001565	0.001652	28.0818	0.064873	0.002069	31.3586	-127.222	-163.893	-0.034841	0.505532	-0.429627	-0.430913	-0.037119	31.3586	-0.428739	-342155	1.084845E-7	NaN
1151	1.000000	0.542839	7.37632e+06	-57689.1	1055.82	-29736.7	0.000000	0.000000	6.542976	0.020662	NaN	0.000000	0.001541	0.001650	28.0818	0.109144	0.001941	56.228	-62.2258	-162.268	-0.054092	0.541504	-0.393607	-0.394942	0.020662	56.228	-0.393882	-109313	-1.890163E-7	NaN
1151	1.000000	0.578850	7.37632e+06	-57689.1	1055.82	-29736.7	0.000000	0.000000	6.578985	-0.035322	NaN	0.000000	0.001548	0.001679	28.0816	0.183973	0.001935	95.0989	-165.051	-162.661	-0.049347	0.577509	-0.357596	-0.358937	-0.035322	95.0989	-0.357317	-32586.7	1.083935E-6	NaN
1151	1.000000	0.614841	7.37632e+06	-57689.1	1055.82	-29736.7	0.000000	0.000000	6.614979	0.028445	NaN	0.000000	0.001575	0.001675	28.0806	0.074148	0.001855	39.9631	169.6	-164.784	0.051633	0.613486	-0.321605	-0.322960	0.028445	39.9631	-0.322138	-10002.2	-2.843858E-6	NaN
1151	1.000000	0.650871	7.37632e+06	-57689.1	1055.82	-29736.7	0.000000	0.000000	6.651008	0.029961	NaN	0.000000	0.001633	0.001664	28.0808	0.093511	0.001976	47.3242	155.275	-164.513	-0.009528	0.649552	-0.285575	-0.286894	0.029961	47.3242	-0.286050	-2911.01	-1.029230E-5	NaN
1151	1.000000	0.686860	7.37632e+06	-57689.1	1055.82	-29736.7	0.000000	0.000000	6.686996	0.003304	NaN	0.000000	0.001582	0.001680	28.0804	0.057967	0.001969	29.4453	-80.6649	-163.416	-0.013752	0.685571	-0.249586	-0.250875	0.003304	29.4453	-0.249670	-812.577	-4.066320E-6	NaN
1151	1.000000	0.722910	7.37632e+06	-57689.1	1055.82	-29736.7	0.000000	0.000000	6.723047	0.000582	NaN	0.000000	0.001601	0.001685	28.0806	0.025033	0.002064	12.131	118.228	-164.553	0.017582	0.721634	-0.213536	-0.214812	0.000582	12.131	-0.213572	-219.036	-2.656316E-6	NaN
1151	1.000000	0.758926	7.37632e+06	-57689.1	1055.82	-29736.7	0.000000	0.000000	6.759062	-0.012306	NaN	0.000000	0.001557	0.001729	28.0819	0.100090	0.001947	51.418	-76.2796	-166.173	0.006377	0.757591	-0.177520	-0.178855	-0.012306	51.418	-0.177340	-54.967	0.000224	NaN
1151	1.000000	0.794915	7.37632e+06	-57689.1	1055.82	-29736.7	0.000000	0.000000	6.795051	0.003617	NaN	0.000000	0.001594	0.001656	28.0817	0.051206	0.001949	26.269	-51.0492	-166.493	0.006879	0.793638	-0.141531	-0.142808	0.003617	26.269	-0.141635	-12.6938	-0.000285	NaN
1151	1.000000	0.830926	7.37632e+06	-57689.1	1055.82	-29736.7	0.000000	0.000000	6.831066	0.073717	NaN	0.000000	0.001562	0.001654	28.0817	0.080092	0.002053	39.0029	44.3217	-161.279	-0.040171	0.829609	-0.105519	-0.106837	0.073717	39.0029	-0.106937	-2.587110	-0.028494	NaN
1151	1.000000	0.866943	7.37632e+06	-57689.1	1055.82	-29736.7	0.000000	0.000000	6.867078	-0.026714	NaN	0.000000	0.001578	0.001673	28.0805	0.011538	0.001958	5.892334	166.147	-166.199	0.011169	0.865631	-0.069503	-0.070815	-0.026714	5.892334	-0.066103	-0.267337	0.099927	NaN
1151	1.000000	0.902949	7.37632e+06	-57689.1	1055.82	-29736.7	0.000000	0.000000	6.903085	0.002976	NaN	0.000000	0.001551	0.001647	28.0805	0.044791	0.002035	22.0151	-101.812	-165.368	0.049766	0.901694	-0.033497	-0.034751	0.002976	22.0151	-0.033599	-0.029139	-0.102137	NaN
1151	1.000000	0.938817	7.37632e+06	-57689.1	1055.82	-29736.7	0.000000	0.000000	6.939289	8.157480	NaN	0.000000	0.001546	0.001653	28.0807	7.719678	0.001666	4632.66	7.233876	-167.034	5.907084	0.937622	0.002371	0.001176	8.157480	4632.66	0.001051	0.000802	10177.2	149500
1151	2.000000	0.948453	7.37632e+06	-57689.1	1055.82	-29736.7	0.000000	0.000000	6.949445	20.7982	NaN	0.000000	0.001560	0.001687	28.0809	19.1387	0.001820	10517	8.844031	-177.431	21.6918	0.948266	0.012007	0.011820	20.7982	10517	0.010524	0.009769	2128.92	97214.9
1151	2.000000	0.957454	7.37632e+06	-57689.1	1055.82	-29736.7	0.000000	0.000000	6.959285	41.1724	NaN	0.000000	0.001569	0.001695	28.082	26.5863	0.001636	16247.9	3.824191	-177.824	40.6516	0.957125	0.021008	0.020679	41.1724	16247.9	0.019108	0.021160	1945.79	102051
1151	2.000000	0.966391	7.37632e+06	-57689.1	1055.82	-29736.7	0.000000	0.000000	6.969065	61.6598	NaN	0.000000	0.001565	0.001748	28.0817	34.8224	0.001778	19587.8	2.784638	-177.597	61.9832	0.966090	0.029946	0.029644	61.6598	19587.8	0.027585	0.035886	1718.21	94470.7
1151	2.000000	0.975373	7.37632e+06	-57689.1	1055.82	-29736.7	0.000000	0.000000	6.979311	92.4007	NaN	0.000000	0.001542	0.001697	28.0817	43.9872	0.001806	24354.9	4.768930	178.384	92.6344	0.975111	0.038927	0.038665	92.4007	24354.9	0.036081	0.054294	1701.87	95495.9
1151	2.000000	0.984338	7.37632e+06	-57689.1	1055.82	-29736.7	0.000000	0.000000	6.989927	132.508	NaN	0.000000	0.001549	0.001715	28.0819	50.3892	0.001619	31133.2	1.883830	178.524	129.768	0.984098	0.047892	0.047652	132.508	31133.2	0.044700	0.076739	1726.74	102681
1151	2.000000	0.993301	7.37632e+06	-57689.1	1055.82	-29736.7	0.000000	0.000000	7.000707	176.671	NaN	0.000000	0.001532	0.001711	28.0804	58.6009	0.001699	34498.6	2.825554	177.195	172.905	0.993020	0.056855	0.056574	176.671	34498.6	0.053014	0.101958	1732.78	98710.6
1151	2.000000	1.002256	7.37632e+06	-57689.1	1055.82	-29736.7	0.000000	0.000000	7.011475	220.729	NaN	0.000000	0.001524	0.001727	28.0805	69.7724	0.001903	36673.2	6.593189	173.743	216.885	1.001987	0.065811	0.065541	220.729	36673.2	0.061297	0.130499	1691.43	92751.1
1151	2.000000	1.011325	7.37632e+06	-57689.1	1055.82	-29736.7	0.000000	0.000000	7.022613	271.024	NaN	0.000000	0.001534	0.001745	28.0806	76.5551	0.001825	41956.8	1.326787	177.493	267.972	1.011073	0.074879	0.074628	271.024	41956.8	0.070035	0.164229	1650.28	94591.3
1151	2.000000	1.020286	7.37632e+06	-57689.1	1055.82	-29736.7	0.000000	0.000000	7.033754	324.029	NaN	0.000000	0.001600	0.001704	28.0806	83.4006	0.001784	46742	4.776909	172.878	319.962	1.020047	0.083840	0.083601	324.029	46742	0.078641	0.201003	1612.06	95253.2
1151	2.000000	1.029345	7.37632e+06	-57689.1	1055.82	-29736.7	0.000000	0.000000	7.045226	382.667	NaN	0.000000	0.001607	0.001712	28.0818	91.0365	0.001827	49831.8	5.267084	172.971	381.604	1.028956	0.092899	0.092510	382.667	49831.8	0.087139	0.240712	1589.73	92796.2
1151	2.000000	1.038311	7.37632e+06	-57689.1	1055.82	-29736.7	0.000000	0.000000	7.056574	440.557	NaN	0.000000	0.001564	0.001724	28.0818	101.816	0.001755	58013	7.479557	168.923	439.315	1.037963	0.101865	0.101517	440.557	58013	0.096169	0.286550	1537.45	99014.4