File: remote_trans/data/nanoindenter/0828-1/data/Data_2025-08-06,11h17m57s/2025-07-22_16-23-58_1_1104.txt
2025-07-22, 16:23:58, 1
Index	Phase	Displacement	Time	Pos X	Pos Y	Pos Z	Rot A	Rot B	Piezo Z	Force A	Force B	Gripper	Voltage A	Voltage B	Temperature	Amplitude force	Amplitude pos	Stiffness	Phase shift	Phase excitation	Force A raw	Displacement raw	HMax	HMax raw	Real Force	Real Stiffness	Contact Depth	Area	Hardness	Reduced Mod.
[#]	[#]	[um]	[s]	[um]	[um]	[um]	[m°]	[m°]	[um]	[uN]	[uN]	[V]	[V]	[V]	[°C]	[uN]	[um]	[N/m]	[°]	[°]	[uN]	[um]	[um]	[um]	[uN]	[N/m]	[um]	[um^2]	[MPa]	[MPa]
1104	1.000000	0.002660	7.37585e+06	-55339.1	1055.82	-29741.8	0.000000	0.000000	6.002806	-0.056842	NaN	0.000000	0.001621	0.001698	28.0838	0.037359	0.001025	36.4481	128.137	-170.334	-0.035202	0.001429	-1.012653	-1.013884	-0.056842	36.4481	-1.011483	-3.238479E+13	1.755192E-15	NaN
1104	1.000000	0.042609	7.37585e+06	-55339.1	1055.82	-29741.8	0.000000	0.000000	6.042756	-0.004687	NaN	0.000000	0.001640	0.001733	28.0838	0.157287	0.001889	83.247	-23.2769	-165.093	-0.047629	0.041315	-0.972704	-0.973998	-0.004687	83.247	-0.972662	-9.717174E+12	4.823174E-16	NaN
1104	1.000000	0.082609	7.37585e+06	-55339.1	1055.82	-29741.8	0.000000	0.000000	6.082754	-0.064539	NaN	0.000000	0.001592	0.001753	28.0845	0.138830	0.002056	67.5119	-98.5358	-165.57	-0.053533	0.081316	-0.932704	-0.933997	-0.064539	67.5119	-0.931987	-2.747978E+12	2.348595E-14	NaN
1104	1.000000	0.122629	7.37585e+06	-55339.1	1055.82	-29741.8	0.000000	0.000000	6.122775	-0.028906	NaN	0.000000	0.001536	0.001697	28.0847	0.142495	0.001858	76.6945	12.8033	-165.809	-0.041112	0.121310	-0.892684	-0.894003	-0.028906	76.6945	-0.892401	-8.023689E+11	3.602619E-14	NaN
1104	1.000000	0.162654	7.37585e+06	-55339.1	1055.82	-29741.8	0.000000	0.000000	6.162802	0.020396	NaN	0.000000	0.001566	0.001707	28.0845	0.067172	0.001935	34.7126	166.15	-165.968	0.013860	0.161303	-0.852659	-0.854010	0.020396	34.7126	-0.853100	-2.358892E+11	-8.646496E-14	NaN
1104	1.000000	0.202657	7.37585e+06	-55339.1	1055.82	-29741.8	0.000000	0.000000	6.202805	0.019512	NaN	0.000000	0.001682	0.001684	28.0833	0.043473	0.002214	19.6347	47.3204	-164.695	-0.064662	0.201398	-0.812656	-0.813916	0.019512	19.6347	-0.813401	-6.834629E+10	-2.854822E-13	NaN
1104	1.000000	0.242690	7.37585e+06	-55339.1	1055.82	-29741.8	0.000000	0.000000	6.242838	0.005905	NaN	0.000000	0.001559	0.001697	28.083	0.025224	0.002059	12.2527	-67.6516	-164.108	-0.068200	0.241400	-0.772623	-0.773914	0.005905	12.2527	-0.772984	-1.931432E+10	-3.057253E-13	NaN
1104	1.000000	0.282708	7.37585e+06	-55339.1	1055.82	-29741.8	0.000000	0.000000	6.282854	-0.032818	NaN	0.000000	0.001551	0.001727	28.0833	0.022010	0.002036	10.8106	-123.102	-168.614	-0.102655	0.281399	-0.732605	-0.733914	-0.032818	10.8106	-0.730328	-5.073163E+9	6.469003E-12	NaN
1104	1.000000	0.322740	7.37585e+06	-55339.1	1055.82	-29741.8	0.000000	0.000000	6.322886	-0.026730	NaN	0.000000	0.001638	0.001736	28.0848	0.045995	0.002002	22.9786	-85.3	-164.141	-0.076408	0.321406	-0.692573	-0.693908	-0.026730	22.9786	-0.691701	-1.507163E+9	1.773542E-11	NaN
1104	1.000000	0.362746	7.37585e+06	-55339.1	1055.82	-29741.8	0.000000	0.000000	6.362892	-0.036613	NaN	0.000000	0.001648	0.001740	28.0851	0.082633	0.002078	39.7717	87.9227	-167.059	-0.059907	0.361460	-0.652567	-0.653853	-0.036613	39.7717	-0.651877	-4.296963E+8	8.520632E-11	NaN
1104	1.000000	0.402752	7.37585e+06	-55339.1	1055.82	-29741.8	0.000000	0.000000	6.402898	-0.036505	NaN	0.000000	0.001645	0.001768	28.0851	0.069845	0.002068	33.7791	117.023	-168.892	-0.028161	0.401402	-0.612561	-0.613911	-0.036505	33.7791	-0.611751	-1.208374E+8	3.021030E-10	NaN
1104	1.000000	0.442749	7.37585e+06	-55339.1	1055.82	-29741.8	0.000000	0.000000	6.442893	-0.065282	NaN	0.000000	0.001587	0.001715	28.0848	0.069177	0.002015	34.3342	-31.347	-166.434	-0.077094	0.441407	-0.572565	-0.573906	-0.065282	34.3342	-0.571139	-3.329373E+7	1.960795E-9	NaN
1104	1.000000	0.482797	7.37585e+06	-55339.1	1055.82	-29741.8	0.000000	0.000000	6.482944	-0.007468	NaN	0.000000	0.001620	0.001732	28.0835	0.071881	0.002021	35.5646	12.1504	-165.877	0.025755	0.481497	-0.532517	-0.533816	-0.007468	35.5646	-0.532359	-9.66791e+06	7.724780E-10	NaN
1104	1.000000	0.522786	7.37585e+06	-55339.1	1055.82	-29741.8	0.000000	0.000000	6.522930	-0.084436	NaN	0.000000	0.001589	0.001728	28.0835	0.041935	0.002044	20.5126	-152.418	-165.179	-0.052601	0.521544	-0.492527	-0.493769	-0.084436	20.5126	-0.489440	-2.44099e+06	3.459074E-8	NaN
1104	1.000000	0.562834	7.37585e+06	-55339.1	1055.82	-29741.8	0.000000	0.000000	6.562981	-0.002343	NaN	0.000000	0.001559	0.001751	28.0836	0.124806	0.002053	60.8064	-156.642	-165.778	0.001330	0.561568	-0.452479	-0.453745	-0.002343	60.8064	-0.452450	-739337	3.169417E-9	NaN
1104	1.000000	0.602834	7.37585e+06	-55339.1	1055.82	-29741.8	0.000000	0.000000	6.602980	-0.018246	NaN	0.000000	0.001585	0.001735	28.0847	0.104798	0.002073	50.5605	57.1939	-166.913	-0.117030	0.601496	-0.412479	-0.413818	-0.018246	50.5605	-0.412209	-199435	9.149012E-8	NaN
1104	1.000000	0.642854	7.37585e+06	-55339.1	1055.82	-29741.8	0.000000	0.000000	6.642998	-0.068031	NaN	0.000000	0.001603	0.001738	28.0849	0.068058	0.002014	33.7999	95.559	-166.468	-0.091526	0.641489	-0.372459	-0.373824	-0.068031	33.7999	-0.370950	-51263.2	1.327090E-6	NaN
1104	1.000000	0.682870	7.37585e+06	-55339.1	1055.82	-29741.8	0.000000	0.000000	6.683015	-0.044413	NaN	0.000000	0.001604	0.001717	28.0846	0.089879	0.001986	45.2525	101.225	-169.014	-0.032017	0.681521	-0.332443	-0.333792	-0.044413	45.2525	-0.331707	-13817.9	3.214197E-6	NaN
1104	1.000000	0.722886	7.37585e+06	-55339.1	1055.82	-29741.8	0.000000	0.000000	6.723030	-0.065262	NaN	0.000000	0.001614	0.001705	28.0847	0.057894	0.002086	27.7477	19.5943	-166.747	-0.039827	0.721570	-0.292427	-0.293743	-0.065262	27.7477	-0.290663	-3413.8	1.911700E-5	NaN
1104	1.000000	0.762862	7.37585e+06	-55339.1	1055.82	-29741.8	0.000000	0.000000	6.763006	-0.071485	NaN	0.000000	0.001589	0.001738	28.0831	0.063335	0.001937	32.7031	83.3284	-165.274	-0.123685	0.761636	-0.252451	-0.253677	-0.071485	32.7031	-0.250812	-846.285	8.446978E-5	NaN
1104	1.000000	0.802943	7.37585e+06	-55339.1	1055.82	-29741.8	0.000000	0.000000	6.803090	-0.001640	NaN	0.000000	0.001603	0.001725	28.083	0.054119	0.001925	28.1166	129.957	-168.097	0.029560	0.801609	-0.212370	-0.213704	-0.001640	28.1166	-0.212326	-209.138	7.840953E-6	NaN
1104	1.000000	0.842956	7.37585e+06	-55339.1	1055.82	-29741.8	0.000000	0.000000	6.843102	-0.047982	NaN	0.000000	0.001617	0.001750	28.0832	0.025400	0.001832	13.863	143.714	-165.208	-0.025759	0.841603	-0.172357	-0.173711	-0.047982	13.863	-0.169761	-40.6874	0.001179	NaN
1104	1.000000	0.882975	7.37585e+06	-55339.1	1055.82	-29741.8	0.000000	0.000000	6.883121	-0.043446	NaN	0.000000	0.001578	0.001761	28.0845	0.018674	0.002001	9.334421	-151.845	-162.557	-0.027690	0.881657	-0.132338	-0.133656	-0.043446	9.334421	-0.128847	-7.237183	0.006003	NaN
1104	1.000000	0.922976	7.37585e+06	-55339.1	1055.82	-29741.8	0.000000	0.000000	6.923121	-0.042895	NaN	0.000000	0.001583	0.001724	28.0841	0.161016	0.001988	81.0012	73.4404	-167.484	-0.066094	0.921665	-0.092338	-0.093648	-0.042895	81.0012	-0.091940	-1.199723	0.035754	NaN
1104	1.000000	0.963009	7.37585e+06	-55339.1	1055.82	-29741.8	0.000000	0.000000	6.963154	-0.044748	NaN	0.000000	0.001649	0.001763	28.0842	0.106546	0.001923	55.4196	-127.016	-168.92	-0.028647	0.961674	-0.052304	-0.053639	-0.044748	55.4196	-0.051699	-0.102671	0.435835	NaN
1104	1.000000	1.003001	7.37585e+06	-55339.1	1055.82	-29741.8	0.000000	0.000000	7.003149	0.007961	NaN	0.000000	0.001626	0.001783	28.0829	0.073611	0.001948	37.7896	67.8676	-164.19	-0.032372	1.001686	-0.012312	-0.013627	0.007961	37.7896	-0.012470	-0.007798	-1.020959	NaN
1104	2.000000	1.024524	7.37585e+06	-55339.1	1055.82	-29741.8	0.000000	0.000000	7.025375	17.1185	NaN	0.000000	0.001563	0.001694	28.0829	16.1693	0.001731	9340.33	6.980032	-176.339	17.2117	1.024192	0.009211	0.008879	17.1185	9340.33	0.007836	0.006874	2490.28	102926
1104	2.000000	1.034459	7.37585e+06	-55339.1	1055.82	-29741.8	0.000000	0.000000	7.036325	41.787	NaN	0.000000	0.001581	0.001767	28.0835	26.6954	0.001852	14413	5.857567	179.073	41.6387	1.034182	0.019145	0.018869	41.787	14413	0.016971	0.018004	2320.96	98138.5
1104	2.000000	1.044395	7.37585e+06	-55339.1	1055.82	-29741.8	0.000000	0.000000	7.047671	76.0582	NaN	0.000000	0.001609	0.001733	28.0833	36.2175	0.001818	19921.9	1.565062	-178.583	72.3243	1.044125	0.029082	0.028812	76.0582	19921.9	0.026218	0.033270	2286.11	99788.1
1104	2.000000	1.054388	7.37585e+06	-55339.1	1055.82	-29741.8	0.000000	0.000000	7.059443	119.296	NaN	0.000000	0.001590	0.001737	28.0846	47.5262	0.001930	24623.2	3.575178	177.647	115.643	1.054089	0.039075	0.038776	119.296	24623.2	0.035442	0.052779	2260.27	97923.1
1104	2.000000	1.064361	7.37585e+06	-55339.1	1055.82	-29741.8	0.000000	0.000000	7.071496	169.849	NaN	0.000000	0.001569	0.001684	28.0854	56.3713	0.001725	32686.8	1.677634	177.958	167.424	1.064086	0.049048	0.048773	169.849	32686.8	0.045151	0.078016	2177.11	106919
1104	2.000000	1.074338	7.37585e+06	-55339.1	1055.82	-29741.8	0.000000	0.000000	7.083558	220.53	NaN	0.000000	0.001589	0.001738	28.0843	64.9972	0.001821	35690.2	0.602222	177.912	217.947	1.074168	0.059025	0.058855	220.53	35690.2	0.054391	0.106467	2071.34	99934.3
1104	2.000000	1.084361	7.37585e+06	-55339.1	1055.82	-29741.8	0.000000	0.000000	7.095939	277.861	NaN	0.000000	0.001605	0.001685	28.0829	74.5249	0.001736	42937.6	3.127596	173.641	275.538	1.083989	0.069048	0.068676	277.861	42937.6	0.064195	0.141278	1966.76	104370
1104	2.000000	1.094395	7.37585e+06	-55339.1	1055.82	-29741.8	0.000000	0.000000	7.108565	340.892	NaN	0.000000	0.001664	0.001701	28.083	85.3639	0.001809	47196.8	6.302121	170.103	339.78	1.093994	0.079082	0.078681	340.892	47196.8	0.073665	0.179313	1901.1	101831
1104	2.000000	1.104281	7.37585e+06	-55339.1	1055.82	-29741.8	0.000000	0.000000	7.121447	413.695	NaN	0.000000	0.001699	0.001763	28.083	94.5221	0.001748	54072	7.596427	168.101	409.72	1.103954	0.088968	0.088641	413.695	54072	0.083230	0.222030	1863.24	104843
1104	2.000000	1.114498	7.37585e+06	-55339.1	1055.82	-29741.8	0.000000	0.000000	7.134454	481.525	NaN	0.000000	0.001677	0.001710	28.083	103.48	0.001753	59042	6.636179	168.793	491.183	1.114047	0.099185	0.098734	481.525	59042	0.093068	0.270387	1780.87	103739
1104	2.000000	1.116932	7.37585e+06	-55339.1	1055.82	-29741.8	0.000000	0.000000	7.137730	502.005	NaN	0.000000	0.001677	0.001715	28.0845	104.487	0.001808	57801.2	3.603491	-8.497436	502.358	1.116729	0.101619	0.101416	502.005	57801.2	0.095105	0.280952	1786.8	99630.8