File: remote_trans/data/nanoindenter/0828-1/data/Data_2025-08-06,11h17m57s/2025-07-22_16-23-58_1_112.txt
2025-07-22, 16:23:58, 1
Index	Phase	Displacement	Time	Pos X	Pos Y	Pos Z	Rot A	Rot B	Piezo Z	Force A	Force B	Gripper	Voltage A	Voltage B	Temperature	Amplitude force	Amplitude pos	Stiffness	Phase shift	Phase excitation	Force A raw	Displacement raw	HMax	HMax raw	Real Force	Real Stiffness	Contact Depth	Area	Hardness	Reduced Mod.
[#]	[#]	[um]	[s]	[um]	[um]	[um]	[m°]	[m°]	[um]	[uN]	[uN]	[V]	[V]	[V]	[°C]	[uN]	[um]	[N/m]	[°]	[°]	[uN]	[um]	[um]	[um]	[uN]	[N/m]	[um]	[um^2]	[MPa]	[MPa]
112	1.000000	0.002972	7.36613e+06	-44239.1	955.818	-29776.9	0.000000	0.000000	6.002795	-0.018341	NaN	0.000000	0.001554	0.001730	28.1223	0.097271	0.000963	101.058	95.6002	-164.966	-0.000360	0.001724	-1.116425	-1.117673	-0.018341	101.058	-1.116289	-8.292344E+14	2.211840E-17	NaN
112	1.000000	0.044927	7.36613e+06	-44239.1	955.818	-29776.9	0.000000	0.000000	6.044753	0.036298	NaN	0.000000	0.001537	0.001722	28.0848	0.048017	0.001940	24.7534	167.457	17.4404	0.009808	0.043602	-1.074470	-1.075795	0.036298	24.7534	-1.075570	-2.355109E+14	-1.541243E-16	NaN
112	1.000000	0.086971	7.36613e+06	-44239.1	955.817	-29776.9	0.000000	0.000000	6.086794	-0.021668	NaN	0.000000	0.001588	0.001661	28.0795	0.040972	0.001999	20.5007	133.18	-164.667	-0.004363	0.085617	-1.032426	-1.033780	-0.021668	20.5007	-1.031634	-6.045795E+13	3.584048E-16	NaN
112	1.000000	0.128934	7.36613e+06	-44239.1	955.818	-29776.9	0.000000	0.000000	6.128758	0.000561	NaN	0.000000	0.001563	0.001691	28.114	0.068582	0.002054	33.387	-175.772	11.9557	-0.021428	0.127565	-0.990463	-0.991832	0.000561	33.387	-0.990476	-1.688572E+13	-3.319555E-17	NaN
112	1.000000	0.170980	7.36613e+06	-44239.1	955.818	-29776.9	0.000000	0.000000	6.170805	0.017406	NaN	0.000000	0.001587	0.001656	28.1233	0.076955	0.001880	40.9418	6.943829	-165.989	0.019160	0.169654	-0.948417	-0.949743	0.017406	40.9418	-0.948736	-4.623564E+12	-3.764684E-15	NaN
112	1.000000	0.212987	7.36613e+06	-44239.1	955.818	-29776.9	0.000000	0.000000	6.212811	0.014087	NaN	0.000000	0.001581	0.001648	28.0857	0.137719	0.002003	68.7678	-147.617	14.3144	-0.000395	0.211657	-0.906410	-0.907740	0.014087	68.7678	-0.906564	-1.246653E+12	-1.129949E-14	NaN
112	1.000000	0.255007	7.36613e+06	-44239.1	955.818	-29776.9	0.000000	0.000000	6.254832	0.014609	NaN	0.000000	0.001557	0.001665	28.0774	0.096731	0.002096	46.1392	-53.1068	-170.602	-0.047963	0.253673	-0.864390	-0.865724	0.014609	46.1392	-0.864627	-3.378687E+11	-4.323750E-14	NaN
112	1.000000	0.297014	7.36613e+06	-44239.1	955.819	-29776.9	0.000000	0.000000	6.296842	0.097259	NaN	0.000000	0.001562	0.001701	28.1119	0.073479	0.002048	35.8702	79.3663	14.2066	0.047274	0.295671	-0.822383	-0.823726	0.097259	35.8702	-0.824417	-9.640460E+10	-1.008860E-12	NaN
112	1.000000	0.339053	7.36614e+06	-44239.1	955.818	-29776.9	0.000000	0.000000	6.338879	0.043214	NaN	0.000000	0.001574	0.001710	28.1224	0.050813	0.002091	24.2991	77.6506	-166.353	0.043278	0.337708	-0.780344	-0.781689	0.043214	24.2991	-0.781678	-2.535310E+10	-1.704467E-12	NaN
112	1.000000	0.381068	7.36614e+06	-44239.1	955.818	-29776.9	0.000000	0.000000	6.380895	0.069474	NaN	0.000000	0.001563	0.001755	28.0861	0.035978	0.001944	18.5036	111.333	11.9189	0.199219	0.379680	-0.738329	-0.739717	0.069474	18.5036	-0.741145	-7.122807E+9	-9.753691E-12	NaN
112	1.000000	0.423070	7.36614e+06	-44239.1	955.818	-29776.9	0.000000	0.000000	6.422894	0.000503	NaN	0.000000	0.001603	0.001706	28.0809	0.097806	0.001999	48.9192	-177.827	-168.122	-0.037325	0.421758	-0.696327	-0.697638	0.000503	48.9192	-0.696335	-1.743688E+9	-2.883120E-13	NaN
112	1.000000	0.465081	7.36614e+06	-44239.1	955.818	-29776.9	0.000000	0.000000	6.464904	-0.009207	NaN	0.000000	0.001580	0.001727	28.1122	0.025647	0.002009	12.7635	146.627	14.7632	-0.060592	0.463734	-0.654316	-0.655662	-0.009207	12.7635	-0.653775	-4.562299E+8	2.018011E-11	NaN
112	1.000000	0.507138	7.36614e+06	-44239.1	955.818	-29776.9	0.000000	0.000000	6.506962	-0.000795	NaN	0.000000	0.001449	0.001716	28.1227	0.055790	0.002035	27.4204	-115.085	-162.453	-0.061941	0.505783	-0.612259	-0.613614	-0.000795	27.4204	-0.612237	-1.227125E+8	6.479209E-12	NaN
112	1.000000	0.549117	7.36614e+06	-44239.1	955.818	-29776.9	0.000000	0.000000	6.548938	-0.052368	NaN	0.000000	0.001503	0.001764	28.0855	0.104766	0.002144	48.8739	168.015	14.4825	-0.041871	0.547715	-0.570280	-0.571682	-0.052368	48.8739	-0.569477	-3.157927E+7	1.658299E-9	NaN
112	1.000000	0.591152	7.36614e+06	-44239.1	955.818	-29776.9	0.000000	0.000000	6.590976	0.016868	NaN	0.000000	0.001539	0.001707	28.0803	0.083364	0.001931	43.1626	121.155	-163.447	-0.011787	0.589844	-0.528245	-0.529553	0.016868	43.1626	-0.528538	-8.55604e+06	-1.971489E-9	NaN
112	1.000000	0.633173	7.36614e+06	-44239.1	955.818	-29776.9	0.000000	0.000000	6.632997	0.012851	NaN	0.000000	0.001568	0.001730	28.1115	0.158790	0.001931	82.227	6.809895	18.0361	0.067615	0.631807	-0.486224	-0.487590	0.012851	82.227	-0.486341	-2.20926e+06	-5.817052E-9	NaN
112	1.000000	0.675211	7.36614e+06	-44239.1	955.818	-29776.9	0.000000	0.000000	6.675035	-0.000474	NaN	0.000000	0.001535	0.001738	28.1248	0.013277	0.002016	6.584615	-66.0167	-166.224	0.044590	0.673930	-0.444185	-0.445467	-0.000474	6.584615	-0.444131	-564476	8.402570E-10	NaN
112	1.000000	0.717190	7.36614e+06	-44239.1	955.818	-29776.9	0.000000	0.000000	6.717018	0.106235	NaN	0.000000	0.001558	0.001719	28.0875	0.073004	0.001954	37.3698	67.0067	14.5822	-0.030609	0.715841	-0.402207	-0.403556	0.106235	37.3698	-0.404339	-154111	-6.893432E-7	NaN
112	1.000000	0.759223	7.36614e+06	-44239.1	955.818	-29776.9	0.000000	0.000000	6.759047	-0.009949	NaN	0.000000	0.001544	0.001686	28.0817	0.029701	0.001965	15.1118	-46.7123	-162.277	-0.033929	0.757894	-0.360174	-0.361503	-0.009949	15.1118	-0.359680	-35254.6	2.822096E-7	NaN
112	1.000000	0.801226	7.36614e+06	-44239.1	955.818	-29776.9	0.000000	0.000000	6.801053	0.081551	NaN	0.000000	0.001565	0.001662	28.11	0.060753	0.002041	29.7728	173.564	13.0521	0.093229	0.799922	-0.318171	-0.319475	0.081551	29.7728	-0.320225	-9374.68	-8.699053E-6	NaN
112	1.000000	0.843298	7.36614e+06	-44239.1	955.819	-29776.9	0.000000	0.000000	6.843124	0.046680	NaN	0.000000	0.001538	0.001675	28.124	0.039415	0.001898	20.7651	-176.728	-162.292	-0.011299	0.841923	-0.276099	-0.277474	0.046680	20.7651	-0.277785	-2185.35	-2.136032E-5	NaN
112	1.000000	0.885271	7.36614e+06	-44239.1	955.819	-29776.9	0.000000	0.000000	6.885095	-0.010729	NaN	0.000000	0.001513	0.001728	28.0852	0.087374	0.001889	46.263	163.838	14.6452	-0.021178	0.883983	-0.234126	-0.235414	-0.010729	46.263	-0.233952	-462.144	2.321560E-5	NaN
112	1.000000	0.927284	7.36614e+06	-44239.1	955.818	-29776.9	0.000000	0.000000	6.927109	0.027331	NaN	0.000000	0.001578	0.001720	28.0812	0.062511	0.001944	32.1497	-56.953	-163.051	0.036111	0.926007	-0.192113	-0.193389	0.027331	32.1497	-0.192751	-99.9698	-0.000273	NaN
112	1.000000	0.969314	7.36614e+06	-44239.1	955.818	-29776.9	0.000000	0.000000	6.969141	0.071074	NaN	0.000000	0.001620	0.001728	28.1088	0.056735	0.001899	29.8745	162.933	13.9995	0.079762	0.967970	-0.150083	-0.151427	0.071074	29.8745	-0.151867	-19.5871	-0.003629	NaN
112	1.000000	1.011336	7.36614e+06	-44239.1	955.819	-29776.9	0.000000	0.000000	7.011160	0.008382	NaN	0.000000	0.001672	0.001688	28.1268	0.088975	0.002050	43.4043	33.9431	-167.881	-0.007678	1.010015	-0.108061	-0.109382	0.008382	43.4043	-0.108206	-2.753499	-0.003044	NaN
112	1.000000	1.053353	7.36614e+06	-44239.1	955.819	-29776.9	0.000000	0.000000	7.053180	0.062222	NaN	0.000000	0.001666	0.001678	28.0858	0.086064	0.001900	45.3046	164.058	12.9766	0.060251	1.052007	-0.066044	-0.067390	0.062222	45.3046	-0.067074	-0.284244	-0.218905	NaN
112	1.000000	1.095352	7.36614e+06	-44239.1	955.819	-29776.9	0.000000	0.000000	7.095176	-0.004565	NaN	0.000000	0.001601	0.001674	28.0787	0.091322	0.002009	45.4663	83.8838	-162.095	0.001858	1.094111	-0.024045	-0.025286	-0.004565	45.4663	-0.023970	-0.015862	0.287765	NaN
112	2.000000	1.132448	7.36614e+06	-44239.1	955.818	-29776.9	0.000000	0.000000	7.132693	10.2455	NaN	0.000000	0.001574	0.001711	28.107	10.9878	0.001756	6256.37	8.084967	6.468466	9.776206	1.132068	0.013051	0.012671	10.2455	6256.37	0.011823	0.011279	908.371	53822.2
112	2.000000	1.142818	7.36614e+06	-44239.1	955.819	-29776.9	0.000000	0.000000	7.143754	27.0456	NaN	0.000000	0.001569	0.001714	28.1276	23.0976	0.001981	11659.3	6.677175	-177.519	25.6287	1.142532	0.023422	0.023135	27.0456	11659.3	0.021682	0.025254	1070.93	67031.5
112	2.000000	1.153385	7.36614e+06	-44239.1	955.82	-29776.9	0.000000	0.000000	7.155258	49.8584	NaN	0.000000	0.001573	0.001740	28.0882	32.2044	0.001775	18143.7	7.268962	-1.134883	52.1419	1.152912	0.033988	0.033515	49.8584	18143.7	0.031927	0.044833	1112.09	78288.9
112	2.000000	1.163788	7.36614e+06	-44239.1	955.819	-29776.9	0.000000	0.000000	7.167108	85.043	NaN	0.000000	0.001593	0.001749	28.0809	42.3576	0.001861	22766.5	6.639845	177.218	84.4571	1.163442	0.044391	0.044045	85.043	22766.5	0.041590	0.068201	1246.95	79648
112	2.000000	1.174247	7.36614e+06	-44239.1	955.82	-29776.9	0.000000	0.000000	7.179117	122.763	NaN	0.000000	0.001553	0.001778	28.1075	53.034	0.001897	27955.3	5.154893	-3.506208	119.652	1.173905	0.054850	0.054508	122.763	27955.3	0.051556	0.097284	1261.91	81887.5
112	2.000000	1.184773	7.36614e+06	-44239.1	955.82	-29776.9	0.000000	0.000000	7.191448	166.676	NaN	0.000000	0.001578	0.001795	28.127	62.2268	0.001764	35284.1	0.647496	179.836	166.412	1.184504	0.065376	0.065107	166.676	35284.1	0.061834	0.132465	1258.27	88572.9
112	2.000000	1.195221	7.36614e+06	-44239.1	955.819	-29776.9	0.000000	0.000000	7.204036	218.74	NaN	0.000000	0.001545	0.001811	28.0875	74.2814	0.001884	39425.7	3.231555	-4.536421	214.191	1.194929	0.075824	0.075532	218.74	39425.7	0.071663	0.170917	1279.8	87128.3
112	2.000000	1.205701	7.36614e+06	-44239.1	955.82	-29776.9	0.000000	0.000000	7.217082	281.155	NaN	0.000000	0.001549	0.001795	28.0789	83.152	0.001850	44935.7	5.222583	173.109	280.097	1.205399	0.086304	0.086002	281.155	44935.7	0.081611	0.214503	1310.73	88643.8
112	2.000000	1.216207	7.36614e+06	-44239.1	955.821	-29776.9	0.000000	0.000000	7.230665	356.015	NaN	0.000000	0.001538	0.001832	28.1061	92.895	0.001793	51819.5	8.480852	-11.1248	352.821	1.215778	0.096810	0.096381	356.015	51819.5	0.091658	0.263181	1352.74	92286.7
112	2.000000	1.226676	7.36614e+06	-44239.1	955.822	-29776.9	0.000000	0.000000	7.244219	431.067	NaN	0.000000	0.001542	0.001825	28.1284	102.016	0.001810	56376.7	2.392830	174.245	427.786	1.226284	0.107279	0.106887	431.067	56376.7	0.101544	0.315601	1365.86	91686.2
112	2.000000	1.229193	7.36614e+06	-44239.1	955.821	-29776.9	0.000000	0.000000	7.247580	451.62	NaN	0.000000	0.001563	0.001793	28.0882	105.5	0.001822	57892.9	7.156957	-10.6286	448.086	1.228798	0.109796	0.109401	451.62	57892.9	0.103945	0.329000	1372.7	92214.7