File: remote_trans/data/nanoindenter/0828-1/data/Data_2025-08-06,11h17m57s/2025-07-22_16-23-58_1_598.txt
2025-07-22, 16:23:58, 1
Index	Phase	Displacement	Time	Pos X	Pos Y	Pos Z	Rot A	Rot B	Piezo Z	Force A	Force B	Gripper	Voltage A	Voltage B	Temperature	Amplitude force	Amplitude pos	Stiffness	Phase shift	Phase excitation	Force A raw	Displacement raw	HMax	HMax raw	Real Force	Real Stiffness	Contact Depth	Area	Hardness	Reduced Mod.
[#]	[#]	[um]	[s]	[um]	[um]	[um]	[m°]	[m°]	[um]	[uN]	[uN]	[V]	[V]	[V]	[°C]	[uN]	[um]	[N/m]	[°]	[°]	[uN]	[um]	[um]	[um]	[uN]	[N/m]	[um]	[um^2]	[MPa]	[MPa]
598	1.000000	0.002701	7.3709e+06	-47189.1	1005.82	-29766.8	0.000000	0.000000	6.002801	-0.056969	NaN	0.000000	0.001569	0.001792	28.0791	0.061499	0.000974	63.1724	146.211	-171.963	-0.073365	0.001464	-1.126080	-1.127317	-0.056969	63.1724	-1.125404	-1.098924E+15	5.184057E-17	NaN
598	1.000000	0.044640	7.3709e+06	-47189.1	1005.82	-29766.8	0.000000	0.000000	6.044741	-0.065531	NaN	0.000000	0.001587	0.001771	28.0789	0.109770	0.001983	55.3672	99.6043	19.2172	-0.054115	0.043288	-1.084140	-1.085493	-0.065531	55.3672	-1.083253	-2.986796E+14	2.194010E-16	NaN
598	1.000000	0.086683	7.3709e+06	-47189.1	1005.82	-29766.8	0.000000	0.000000	6.086787	0.028277	NaN	0.000000	0.001533	0.001746	28.0788	0.130967	0.001997	65.5848	-161.732	-165.435	-0.017963	0.085320	-1.042098	-1.043460	0.028277	65.5848	-1.042421	-8.443457E+13	-3.348973E-16	NaN
598	1.000000	0.128669	7.3709e+06	-47189.1	1005.82	-29766.8	0.000000	0.000000	6.128770	-0.055208	NaN	0.000000	0.001490	0.001806	28.0802	0.024475	0.001977	12.3812	177.102	13.3432	-0.031631	0.127332	-1.000112	-1.001449	-0.055208	12.3812	-0.996768	-2.052327E+13	2.690007E-15	NaN
598	1.000000	0.170674	7.3709e+06	-47189.1	1005.82	-29766.8	0.000000	0.000000	6.170774	-0.071698	NaN	0.000000	0.001536	0.001817	28.0801	0.050124	0.001927	26.0159	-129.732	-168.617	-0.076368	0.169385	-0.958107	-0.959396	-0.071698	26.0159	-0.956040	-5.800659E+12	1.236031E-14	NaN
598	1.000000	0.212725	7.3709e+06	-47189.1	1005.82	-29766.8	0.000000	0.000000	6.212824	-0.094550	NaN	0.000000	0.001511	0.001811	28.0802	0.076229	0.001938	39.3346	-43.4398	17.2133	0.031585	0.211348	-0.916056	-0.917432	-0.094550	39.3346	-0.914253	-1.583451E+12	5.971165E-14	NaN
598	1.000000	0.254734	7.3709e+06	-47189.1	1005.82	-29766.8	0.000000	0.000000	6.254835	-0.044468	NaN	0.000000	0.001548	0.001813	28.0792	0.033371	0.001976	16.8847	46.256	-164.287	-0.055916	0.253489	-0.874047	-0.875292	-0.044468	16.8847	-0.872072	-4.260620E+11	1.043700E-13	NaN
598	1.000000	0.296737	7.3709e+06	-47189.1	1005.82	-29766.8	0.000000	0.000000	6.296838	-0.052468	NaN	0.000000	0.001532	0.001832	28.0795	0.077922	0.001807	43.1123	-36.375	18.4219	-0.129179	0.295392	-0.832044	-0.833389	-0.052468	43.1123	-0.831131	-1.188809E+11	4.413513E-13	NaN
598	1.000000	0.338757	7.3709e+06	-47189.1	1005.82	-29766.8	0.000000	0.000000	6.338857	-0.063784	NaN	0.000000	0.001536	0.001775	28.0793	0.040404	0.001934	20.8885	-24.1784	-164.469	-0.028679	0.337435	-0.790024	-0.791346	-0.063784	20.8885	-0.787734	-3.064083E+10	2.081665E-12	NaN
598	1.000000	0.380781	7.3709e+06	-47189.1	1005.82	-29766.8	0.000000	0.000000	6.380879	-0.104858	NaN	0.000000	0.001546	0.001750	28.079	0.013241	0.001977	6.698988	157.506	13.1033	-0.102769	0.379450	-0.748000	-0.749331	-0.104858	6.698988	-0.736261	-6.111069E+9	1.715863E-11	NaN
598	1.000000	0.422797	7.3709e+06	-47189.1	1005.82	-29766.8	0.000000	0.000000	6.422898	-0.043747	NaN	0.000000	0.001556	0.001783	28.0799	0.075087	0.001913	39.2571	126.711	-163.382	-0.055921	0.421484	-0.705984	-0.707297	-0.043747	39.2571	-0.705148	-2.300528E+9	1.901599E-11	NaN
598	1.000000	0.464836	7.3709e+06	-47189.1	1005.82	-29766.8	0.000000	0.000000	6.464938	-0.021670	NaN	0.000000	0.001581	0.001771	28.0801	0.095636	0.002002	47.782	29.9626	15.0623	0.021011	0.463460	-0.663945	-0.665321	-0.021670	47.782	-0.663604	-6.220610E+8	3.483511E-11	NaN
598	1.000000	0.506837	7.3709e+06	-47189.1	1005.82	-29766.8	0.000000	0.000000	6.506937	-0.055686	NaN	0.000000	0.001589	0.001780	28.0802	0.081826	0.001858	44.0443	128.022	-165.708	0.007478	0.505558	-0.621944	-0.623222	-0.055686	44.0443	-0.620996	-1.619265E+8	3.438978E-10	NaN
598	1.000000	0.548848	7.3709e+06	-47189.1	1005.82	-29766.8	0.000000	0.000000	6.548948	-0.084688	NaN	0.000000	0.001569	0.001767	28.079	0.042266	0.002050	20.6209	123.568	12.1332	-0.093424	0.547453	-0.579932	-0.581328	-0.084688	20.6209	-0.576852	-3.992770E+7	2.121024E-9	NaN
598	1.000000	0.590882	7.3709e+06	-47189.1	1005.82	-29766.8	0.000000	0.000000	6.590985	0.002448	NaN	0.000000	0.001562	0.001788	28.0789	0.071441	0.001930	37.0105	-167.717	-165.662	0.042257	0.589534	-0.537898	-0.539247	0.002448	37.0105	-0.537948	-1.155833E+7	-2.117656E-10	NaN
598	1.000000	0.632890	7.3709e+06	-47189.1	1005.82	-29766.8	0.000000	0.000000	6.632987	-0.142080	NaN	0.000000	0.001545	0.001812	28.0789	0.065333	0.001936	33.7404	165.149	14.1987	-0.142888	0.631554	-0.495891	-0.497227	-0.142080	33.7404	-0.492732	-2.71373e+06	5.235618E-8	NaN
598	1.000000	0.674886	7.3709e+06	-47189.1	1005.82	-29766.8	0.000000	0.000000	6.674987	-0.040755	NaN	0.000000	0.001519	0.001788	28.0802	0.014292	0.001947	7.342059	-71.4925	-165.156	-0.112117	0.673607	-0.453895	-0.455174	-0.040755	7.342059	-0.449732	-676973	6.020125E-8	NaN
598	1.000000	0.716914	7.3709e+06	-47189.1	1005.82	-29766.8	0.000000	0.000000	6.717009	-0.197027	NaN	0.000000	0.001590	0.001783	28.0802	0.127961	0.002035	62.8673	154.55	12.4018	-0.183195	0.715549	-0.411867	-0.413232	-0.197027	62.8673	-0.409516	-182610	1.078951E-6	NaN
598	1.000000	0.758961	7.3709e+06	-47189.1	1005.82	-29766.8	0.000000	0.000000	6.759063	-0.030024	NaN	0.000000	0.001540	0.001804	28.0805	0.030920	0.002211	13.9828	-71.1722	-161.601	-0.028458	0.757579	-0.369820	-0.371202	-0.030024	13.9828	-0.368209	-46809	6.414245E-7	NaN
598	1.000000	0.800966	7.3709e+06	-47189.1	1005.82	-29766.8	0.000000	0.000000	6.801064	-0.116219	NaN	0.000000	0.001532	0.001829	28.0791	0.065271	0.001994	32.7317	-8.495732	10.9017	-0.144040	0.799629	-0.327815	-0.329152	-0.116219	32.7317	-0.325152	-11075.7	1.049314E-5	NaN
598	1.000000	0.842984	7.3709e+06	-47189.1	1005.82	-29766.8	0.000000	0.000000	6.843085	-0.063023	NaN	0.000000	0.001536	0.001814	28.0791	0.068575	0.002080	32.9751	59.351	-162.591	-0.083761	0.841671	-0.285796	-0.287110	-0.063023	32.9751	-0.284363	-2745.92	2.295160E-5	NaN
598	1.000000	0.885010	7.3709e+06	-47189.1	1005.82	-29766.8	0.000000	0.000000	6.885114	0.031817	NaN	0.000000	0.001613	0.001826	28.0791	0.047491	0.002105	22.5564	126.949	10.8038	-0.085263	0.883666	-0.243771	-0.245115	0.031817	22.5564	-0.244828	-683.575	-4.654544E-5	NaN
598	1.000000	0.927040	7.3709e+06	-47189.1	1005.82	-29766.8	0.000000	0.000000	6.927142	-0.023688	NaN	0.000000	0.001567	0.001799	28.0794	0.058463	0.001939	30.1575	111.532	-164.504	0.007657	0.925720	-0.201741	-0.203061	-0.023688	30.1575	-0.201152	-137.599	0.000172	NaN
598	1.000000	0.969049	7.3709e+06	-47189.1	1005.82	-29766.8	0.000000	0.000000	6.969148	-0.079476	NaN	0.000000	0.001557	0.001775	28.0801	0.067722	0.001947	34.7909	-109.467	14.0648	-0.065605	0.967653	-0.159732	-0.161128	-0.079476	34.7909	-0.158019	-25.2751	0.003144	NaN
598	1.000000	1.011032	7.3709e+06	-47189.1	1005.82	-29766.8	0.000000	0.000000	7.011133	-0.048223	NaN	0.000000	0.001546	0.001775	28.0799	0.063434	0.001890	33.5638	-105.004	-168.565	-0.064065	1.009787	-0.117749	-0.118994	-0.048223	33.5638	-0.116671	-4.134637	0.011663	NaN
598	1.000000	1.053050	7.3709e+06	-47189.1	1005.82	-29766.8	0.000000	0.000000	7.053150	-0.070455	NaN	0.000000	0.001521	0.001796	28.0797	0.031756	0.001930	16.456	99.4626	12.2309	-0.047169	1.051708	-0.075731	-0.077073	-0.070455	16.456	-0.072520	-0.397922	0.177056	NaN
598	1.000000	1.095075	7.37091e+06	-47189.1	1005.82	-29766.8	0.000000	0.000000	7.095178	0.008298	NaN	0.000000	0.001512	0.001806	28.0787	0.077053	0.002052	37.5534	155.01	-166.369	-0.072581	1.093841	-0.033706	-0.034940	0.008298	37.5534	-0.033872	-0.029677	-0.279600	NaN
598	1.000000	1.137075	7.37091e+06	-47189.1	1005.82	-29766.8	0.000000	0.000000	7.137424	5.999037	NaN	0.000000	0.001525	0.001748	28.0787	6.341245	0.001791	3540.74	14.1738	6.529724	4.421298	1.135698	0.008294	0.006917	5.999037	3540.74	0.007023	0.006057	990.502	41567.5
598	2.000000	1.149525	7.37091e+06	-47189.1	1005.82	-29766.8	0.000000	0.000000	7.150678	25.5397	NaN	0.000000	0.001596	0.001796	28.0786	18.8728	0.001821	10364.5	5.872998	-175.145	24.092	1.149254	0.020745	0.020473	25.5397	10364.5	0.018897	0.020838	1225.64	65598.7
598	2.000000	1.160033	7.37091e+06	-47189.1	1005.82	-29766.8	0.000000	0.000000	7.162324	53.2298	NaN	0.000000	0.001599	0.001828	28.0801	29.907	0.001673	17873.3	4.695506	-0.739149	51.3944	1.159752	0.031252	0.030971	53.2298	17873.3	0.029018	0.038733	1374.27	82972.8
598	2.000000	1.170445	7.37091e+06	-47189.1	1005.82	-29766.8	0.000000	0.000000	7.174256	90.1942	NaN	0.000000	0.001599	0.001812	28.0806	40.2799	0.001872	21517.4	5.708834	178.388	87.496	1.170209	0.041664	0.041429	90.1942	21517.4	0.038520	0.060260	1496.75	80084.5
598	2.000000	1.181015	7.37091e+06	-47189.1	1005.82	-29766.8	0.000000	0.000000	7.186327	126.704	NaN	0.000000	0.001605	0.001838	28.0802	49.8234	0.001740	28627.2	3.187685	-2.995848	124.531	1.180738	0.052235	0.051957	126.704	28627.2	0.048915	0.089089	1422.22	87627.5
598	2.000000	1.191563	7.37091e+06	-47189.1	1005.82	-29766.8	0.000000	0.000000	7.198785	173.173	NaN	0.000000	0.001585	0.001791	28.0787	61.5554	0.001966	31309.4	5.784814	174.654	176.436	1.191176	0.062782	0.062396	173.173	31309.4	0.058634	0.120954	1431.73	82250.5
598	2.000000	1.201970	7.37091e+06	-47189.1	1005.82	-29766.8	0.000000	0.000000	7.211311	224.697	NaN	0.000000	0.001602	0.001853	28.0788	72.0965	0.001747	41263	6.034724	-8.786526	221.419	1.201630	0.073189	0.072849	224.697	41263	0.069105	0.160467	1400.28	94111.4
598	2.000000	1.212432	7.37091e+06	-47189.1	1005.82	-29766.8	0.000000	0.000000	7.224623	294.02	NaN	0.000000	0.001512	0.001827	28.0789	80.9296	0.001758	46045.2	8.582351	169.169	290.433	1.212041	0.083652	0.083260	294.02	46045.2	0.078862	0.201996	1455.58	93602.2
598	2.000000	1.222966	7.37091e+06	-47189.1	1005.82	-29766.8	0.000000	0.000000	7.237459	350.023	NaN	0.000000	0.001525	0.001820	28.0788	90.766	0.001831	49568.8	3.932073	-7.201619	349.648	1.222612	0.094185	0.093832	350.023	49568.8	0.088889	0.249302	1404.01	90702.4
598	2.000000	1.233500	7.37091e+06	-47189.1	1005.82	-29766.8	0.000000	0.000000	7.251011	423.42	NaN	0.000000	0.001522	0.001854	28.0804	99.4196	0.001648	60312.7	4.551711	171.047	426.461	1.233141	0.104720	0.104361	423.42	60312.7	0.099454	0.304148	1392.15	99917.1
598	2.000000	1.238438	7.37091e+06	-47189.1	1005.82	-29766.8	0.000000	0.000000	7.257573	462.949	NaN	0.000000	0.001545	0.001816	28.0805	106.338	0.001840	57804.7	8.485211	167.212	463.345	1.238114	0.109657	0.109333	462.949	57804.7	0.103650	0.327341	1414.27	92307.3