File: remote_trans/data/nanoindenter/0828-1/data/Data_2025-08-06,11h17m57s/2025-07-22_16-23-58_1_709.txt
2025-07-22, 16:23:58, 1
Index	Phase	Displacement	Time	Pos X	Pos Y	Pos Z	Rot A	Rot B	Piezo Z	Force A	Force B	Gripper	Voltage A	Voltage B	Temperature	Amplitude force	Amplitude pos	Stiffness	Phase shift	Phase excitation	Force A raw	Displacement raw	HMax	HMax raw	Real Force	Real Stiffness	Contact Depth	Area	Hardness	Reduced Mod.
[#]	[#]	[um]	[s]	[um]	[um]	[um]	[m°]	[m°]	[um]	[uN]	[uN]	[V]	[V]	[V]	[°C]	[uN]	[um]	[N/m]	[°]	[°]	[uN]	[um]	[um]	[um]	[uN]	[N/m]	[um]	[um^2]	[MPa]	[MPa]
709	1.000000	0.002670	7.37199e+06	-41639.1	1005.82	-29785.6	0.000000	0.000000	6.002826	-0.040367	NaN	0.000000	0.001653	0.001749	28.0843	0.016843	0.000932	18.0763	103.95	-171.058	-0.031676	0.001424	-1.045753	-1.046998	-0.040367	18.0763	-1.044078	-8.888022E+13	4.541728E-16	NaN
709	1.000000	0.042634	7.37199e+06	-41639.1	1005.82	-29785.6	0.000000	0.000000	6.042793	0.009095	NaN	0.000000	0.001589	0.001797	28.0838	0.115423	0.001808	63.8231	59.0532	-166.359	0.033927	0.041275	-1.005788	-1.007148	0.009095	63.8231	-1.005895	-2.723529E+13	-3.339473E-16	NaN
709	1.000000	0.082605	7.37199e+06	-41639.1	1005.82	-29785.6	0.000000	0.000000	6.082762	-0.041292	NaN	0.000000	0.001591	0.001812	28.084	0.135718	0.001881	72.1664	-60.4797	-165.492	0.079964	0.081292	-0.965818	-0.967131	-0.041292	72.1664	-0.965388	-7.753684E+12	5.325462E-15	NaN
709	1.000000	0.122612	7.37199e+06	-41639.1	1005.82	-29785.6	0.000000	0.000000	6.122772	0.014107	NaN	0.000000	0.001621	0.001757	28.0838	0.065130	0.002103	30.9634	136.073	-169.641	0.040331	0.121213	-0.925810	-0.927210	0.014107	30.9634	-0.926152	-2.292245E+12	-6.154247E-15	NaN
709	1.000000	0.162616	7.37199e+06	-41639.1	1005.82	-29785.6	0.000000	0.000000	6.162777	0.055639	NaN	0.000000	0.001599	0.001747	28.0821	0.043589	0.001869	23.3273	-84.5406	-168.335	-0.026932	0.161271	-0.885806	-0.887152	0.055639	23.3273	-0.887595	-6.908867E+11	-8.053238E-14	NaN
709	1.000000	0.202623	7.37199e+06	-41639.1	1005.82	-29785.6	0.000000	0.000000	6.202784	0.052825	NaN	0.000000	0.001573	0.001731	28.0822	0.065122	0.002012	32.3703	-128.127	-163.789	-0.014899	0.201356	-0.845800	-0.847067	0.052825	32.3703	-0.847024	-1.951776E+11	-2.706515E-13	NaN
709	1.000000	0.242681	7.37199e+06	-41639.1	1005.82	-29785.6	0.000000	0.000000	6.242841	0.049329	NaN	0.000000	0.001583	0.001688	28.0825	0.049500	0.001985	24.9411	-38.451	-164.425	0.008910	0.241327	-0.805742	-0.807096	0.049329	24.9411	-0.807226	-5.635417E+10	-8.753377E-13	NaN
709	1.000000	0.282680	7.37199e+06	-41639.1	1005.82	-29785.6	0.000000	0.000000	6.282840	0.022857	NaN	0.000000	0.001589	0.001694	28.0836	0.103342	0.001960	52.7391	48.3596	-168.465	0.065805	0.281386	-0.765742	-0.767037	0.022857	52.7391	-0.766067	-1.555358E+10	-1.469579E-12	NaN
709	1.000000	0.322717	7.37199e+06	-41639.1	1005.82	-29785.6	0.000000	0.000000	6.322876	-0.001581	NaN	0.000000	0.001558	0.001663	28.0836	0.049952	0.001949	25.6245	-64.954	-164.09	-0.013936	0.321444	-0.725705	-0.726979	-0.001581	25.6245	-0.725659	-4.381643E+9	3.607927E-13	NaN
709	1.000000	0.362745	7.37199e+06	-41639.1	1005.82	-29785.6	0.000000	0.000000	6.362904	0.018006	NaN	0.000000	0.001648	0.001690	28.0837	0.076542	0.001853	41.2989	-133.54	-165.29	-0.049080	0.361392	-0.685678	-0.687030	0.018006	41.2989	-0.686005	-1.259825E+9	-1.429256E-11	NaN
709	1.000000	0.402750	7.37199e+06	-41639.1	1005.82	-29785.6	0.000000	0.000000	6.402908	-0.008064	NaN	0.000000	0.001593	0.001652	28.0839	0.111674	0.002095	53.3095	-37.5019	-168.783	-0.024296	0.401458	-0.645673	-0.646965	-0.008064	53.3095	-0.645560	-3.520073E+8	2.290855E-11	NaN
709	1.000000	0.442745	7.37199e+06	-41639.1	1005.82	-29785.6	0.000000	0.000000	6.442904	-0.001689	NaN	0.000000	0.001609	0.001751	28.0827	0.111431	0.001949	57.186	14.871	-165.631	-0.007835	0.441450	-0.605678	-0.606972	-0.001689	57.186	-0.605655	-9.961557E+7	1.695338E-11	NaN
709	1.000000	0.482744	7.37199e+06	-41639.1	1005.82	-29785.6	0.000000	0.000000	6.482903	0.009756	NaN	0.000000	0.001642	0.001710	28.0826	0.013430	0.001908	7.037694	86.5364	-169.481	0.038228	0.481540	-0.565679	-0.566883	0.009756	7.037694	-0.566719	-2.892577E+7	-3.372599E-10	NaN
709	1.000000	0.522775	7.37199e+06	-41639.1	1005.82	-29785.6	0.000000	0.000000	6.522931	-0.060825	NaN	0.000000	0.001631	0.001698	28.0828	0.126714	0.002047	61.9057	-106.845	-165.886	-0.011268	0.521440	-0.525648	-0.526983	-0.060825	61.9057	-0.524911	-7.61857e+06	7.983753E-9	NaN
709	1.000000	0.562820	7.37199e+06	-41639.1	1005.82	-29785.6	0.000000	0.000000	6.562976	-0.064346	NaN	0.000000	0.001554	0.001753	28.084	0.022735	0.001917	11.8583	76.5771	-171.043	-0.055607	0.561530	-0.485603	-0.486893	-0.064346	11.8583	-0.481533	-1.89231e+06	3.400406E-8	NaN
709	1.000000	0.602830	7.37199e+06	-41639.1	1005.82	-29785.6	0.000000	0.000000	6.602988	0.000196	NaN	0.000000	0.001610	0.001735	28.0839	0.083276	0.002046	40.694	0.952996	-164.168	-0.016092	0.601524	-0.445593	-0.446899	0.000196	40.694	-0.445597	-591979	-3.310865E-10	NaN
709	1.000000	0.642853	7.37199e+06	-41639.1	1005.82	-29785.6	0.000000	0.000000	6.643012	0.007639	NaN	0.000000	0.001624	0.001733	28.0841	0.092201	0.001922	47.9816	-97.0935	-166.103	0.019689	0.641525	-0.405570	-0.406898	0.007639	47.9816	-0.405690	-161089	-4.742026E-8	NaN
709	1.000000	0.682848	7.37199e+06	-41639.1	1005.82	-29785.6	0.000000	0.000000	6.683006	-0.006198	NaN	0.000000	0.001564	0.001733	28.0827	0.137216	0.001832	74.9045	74.4528	-165.101	-0.038451	0.681510	-0.365575	-0.366913	-0.006198	74.9045	-0.365513	-42800.6	1.448097E-7	NaN
709	1.000000	0.722878	7.37199e+06	-41639.1	1005.82	-29785.6	0.000000	0.000000	6.723035	-0.042934	NaN	0.000000	0.001582	0.001745	28.0826	0.038872	0.002039	19.0673	-48.2939	-165.358	-0.068443	0.721614	-0.325545	-0.326809	-0.042934	19.0673	-0.323856	-10600.8	4.050069E-6	NaN
709	1.000000	0.762891	7.37199e+06	-41639.1	1005.82	-29785.6	0.000000	0.000000	6.763048	-0.040680	NaN	0.000000	0.001593	0.001735	28.0826	0.019694	0.001924	10.2371	94.7005	-163.988	0.036560	0.761515	-0.285532	-0.286908	-0.040680	10.2371	-0.282551	-2578.84	1.577441E-5	NaN
709	1.000000	0.802916	7.37199e+06	-41639.1	1005.82	-29785.6	0.000000	0.000000	6.803074	-0.003058	NaN	0.000000	0.001610	0.001700	28.0827	0.117902	0.001894	62.2543	67.198	-166.105	0.031878	0.801571	-0.245507	-0.246852	-0.003058	62.2543	-0.245470	-699.457	4.372192E-6	NaN
709	1.000000	0.842912	7.37199e+06	-41639.1	1005.82	-29785.6	0.000000	0.000000	6.843069	-0.051600	NaN	0.000000	0.001540	0.001735	28.0841	0.062238	0.002116	29.4117	76.8083	-166.037	-0.031728	0.841613	-0.205511	-0.206810	-0.051600	29.4117	-0.204195	-154.318	0.000334	NaN
709	1.000000	0.882955	7.37199e+06	-41639.1	1005.82	-29785.6	0.000000	0.000000	6.883115	0.036413	NaN	0.000000	0.001590	0.001713	28.0841	0.072376	0.001857	38.9721	58.1594	-165.652	-0.013313	0.881659	-0.165468	-0.166764	0.036413	38.9721	-0.166168	-35.2204	-0.001034	NaN
709	1.000000	0.922939	7.37199e+06	-41639.1	1005.82	-29785.6	0.000000	0.000000	6.923100	0.058196	NaN	0.000000	0.001617	0.001730	28.0841	0.062418	0.001966	31.7538	-2.560172	-167.701	0.043895	0.921631	-0.125484	-0.126792	0.058196	31.7538	-0.126858	-6.616610	-0.008795	NaN
709	1.000000	0.962953	7.37199e+06	-41639.1	1005.82	-29785.6	0.000000	0.000000	6.963116	0.112470	NaN	0.000000	0.001612	0.001765	28.0828	0.150702	0.001991	75.6933	22.7635	-167.592	0.118682	0.961676	-0.085470	-0.086747	0.112470	75.6933	-0.086584	-0.897072	-0.125375	NaN
709	1.000000	1.002969	7.37199e+06	-41639.1	1005.82	-29785.6	0.000000	0.000000	7.003162	0.849465	NaN	0.000000	0.001550	0.001751	28.0832	0.357699	0.002132	167.812	22.0449	-164.279	0.815900	1.001614	-0.045454	-0.046809	0.849465	167.812	-0.049250	-0.086604	-9.808592	NaN
709	1.000000	1.043014	7.37199e+06	-41639.1	1005.82	-29785.6	0.000000	0.000000	7.043264	2.210465	NaN	0.000000	0.001575	0.001738	28.0826	0.808015	0.002203	366.785	19.9088	-165.401	2.156832	1.041683	-0.005409	-0.006740	2.210465	366.785	-0.009929	-0.006347	-348.295	NaN
709	2.000000	1.062613	7.37199e+06	-41639.1	1005.82	-29785.6	0.000000	0.000000	7.063616	20.5652	NaN	0.000000	0.001573	0.001769	28.0825	14.3314	0.001843	7775.7	7.754788	-174.002	20.8979	1.062332	0.014190	0.013909	20.5652	7775.7	0.012206	0.011738	1752.01	65571.4
709	2.000000	1.072572	7.37199e+06	-41639.1	1005.82	-29785.6	0.000000	0.000000	7.074201	35.7884	NaN	0.000000	0.001619	0.001740	28.0838	21.4403	0.001775	12081.8	4.642006	-175.829	35.6599	1.072312	0.024149	0.023889	35.7884	12081.8	0.021927	0.025661	1394.64	68907.2
709	2.000000	1.082540	7.37199e+06	-41639.1	1005.82	-29785.6	0.000000	0.000000	7.084961	55.0493	NaN	0.000000	0.001594	0.001738	28.0841	29.5466	0.001843	16033.6	5.190722	-178.011	54.4101	1.082205	0.034117	0.033782	55.0493	16033.6	0.031542	0.044000	1251.11	69835.4
709	2.000000	1.092516	7.37199e+06	-41639.1	1005.82	-29785.6	0.000000	0.000000	7.095842	77.0767	NaN	0.000000	0.001648	0.001744	28.0843	38.4464	0.001926	19959.7	3.132617	-178.373	76.4764	1.092258	0.044093	0.043836	77.0767	19959.7	0.041197	0.067158	1147.69	70368.4
709	2.000000	1.102516	7.37199e+06	-41639.1	1005.82	-29785.6	0.000000	0.000000	7.107165	109.273	NaN	0.000000	0.001592	0.001758	28.0832	47.3292	0.001770	26743.3	2.992115	178.563	108.625	1.102353	0.054093	0.053930	109.273	26743.3	0.051029	0.095619	1142.8	79016.1
709	2.000000	1.112526	7.37199e+06	-41639.1	1005.82	-29785.6	0.000000	0.000000	7.119187	158.23	NaN	0.000000	0.001622	0.001724	28.0831	57.7057	0.001905	30291.2	5.911349	174.762	158.268	1.112188	0.064103	0.063765	158.23	30291.2	0.060185	0.126473	1251.1	77820.1
709	2.000000	1.122492	7.37199e+06	-41639.1	1005.82	-29785.6	0.000000	0.000000	7.130988	202.869	NaN	0.000000	0.001611	0.001705	28.0829	66.6433	0.001870	35638.1	8.927801	171.617	202.106	1.122119	0.074069	0.073696	202.869	35638.1	0.069800	0.163275	1242.5	80580
709	2.000000	1.132424	7.372e+06	-41639.1	1005.82	-29785.6	0.000000	0.000000	7.143262	259.851	NaN	0.000000	0.001601	0.001714	28.0836	76.4076	0.001987	38452.3	7.375244	171.971	257.445	1.132090	0.084001	0.083668	259.851	38452.3	0.078933	0.202311	1284.41	78106.2
709	2.000000	1.142366	7.372e+06	-41639.1	1005.82	-29785.6	0.000000	0.000000	7.155806	323.166	NaN	0.000000	0.001619	0.001718	28.0838	82.5522	0.001754	47067.6	2.898656	175.156	318.492	1.142145	0.093943	0.093722	323.166	47067.6	0.088793	0.248829	1298.75	86207.5
709	2.000000	1.152457	7.372e+06	-41639.1	1005.82	-29785.6	0.000000	0.000000	7.168976	398.089	NaN	0.000000	0.001693	0.001689	28.0839	93.3835	0.001674	55799.3	7.255187	169.703	398.31	1.152079	0.104034	0.103656	398.089	55799.3	0.098684	0.299975	1327.07	93080.7
709	2.000000	1.154528	7.372e+06	-41639.1	1005.82	-29785.6	0.000000	0.000000	7.170936	395.37	NaN	0.000000	0.001657	0.001723	28.0843	93.4261	0.001741	53664.3	1.203635	175.636	397.275	1.154393	0.106105	0.105970	395.37	53664.3	0.100580	0.310290	1274.2	88018.7