File: remote_trans/data/nanoindenter/0828-1/data/Data_2025-08-06,11h17m57s/2025-07-22_16-23-58_1_648.txt
2025-07-22, 16:23:58, 1
Index	Phase	Displacement	Time	Pos X	Pos Y	Pos Z	Rot A	Rot B	Piezo Z	Force A	Force B	Gripper	Voltage A	Voltage B	Temperature	Amplitude force	Amplitude pos	Stiffness	Phase shift	Phase excitation	Force A raw	Displacement raw	HMax	HMax raw	Real Force	Real Stiffness	Contact Depth	Area	Hardness	Reduced Mod.
[#]	[#]	[um]	[s]	[um]	[um]	[um]	[m°]	[m°]	[um]	[uN]	[uN]	[V]	[V]	[V]	[°C]	[uN]	[um]	[N/m]	[°]	[°]	[uN]	[um]	[um]	[um]	[uN]	[N/m]	[um]	[um^2]	[MPa]	[MPa]
648	1.000000	0.002358	7.37139e+06	-44689.1	1005.82	-29775.1	0.000000	0.000000	6.002806	-0.010042	NaN	0.000000	0.001633	0.001637	28.0823	0.067574	0.000829	81.4807	-62.4618	-165.632	0.054832	0.001090	-1.048828	-1.050096	-0.010042	81.4807	-1.048736	-1.026642E+14	9.781534E-17	NaN
648	1.000000	0.042311	7.37139e+06	-44689.1	1005.82	-29775.1	0.000000	0.000000	6.042760	0.010694	NaN	0.000000	0.001658	0.001666	28.0824	0.115658	0.001975	58.5601	-13.0192	-163.734	-0.030980	0.040979	-1.008875	-1.010207	0.010694	58.5601	-1.009012	-2.999759E+13	-3.564804E-16	NaN
648	1.000000	0.082307	7.37139e+06	-44689.1	1005.82	-29775.1	0.000000	0.000000	6.082755	-0.012633	NaN	0.000000	0.001618	0.001681	28.0803	0.149647	0.002037	73.4707	55.0901	-165.133	-0.003755	0.081055	-0.968879	-0.970131	-0.012633	73.4707	-0.968750	-8.606279E+12	1.467906E-15	NaN
648	1.000000	0.122295	7.37139e+06	-44689.1	1005.82	-29775.1	0.000000	0.000000	6.122742	-0.026642	NaN	0.000000	0.001649	0.001646	28.0807	0.008533	0.002112	4.039566	-163.834	-169.934	-0.029832	0.121013	-0.928891	-0.930173	-0.026642	4.039566	-0.923945	-2.140254E+12	1.244811E-14	NaN
648	1.000000	0.162339	7.37139e+06	-44689.1	1005.82	-29775.1	0.000000	0.000000	6.162789	0.036203	NaN	0.000000	0.001650	0.001668	28.0807	0.048390	0.002010	24.0793	-118.208	-163.529	0.042844	0.161004	-0.888847	-0.890182	0.036203	24.0793	-0.889975	-7.439969E+11	-4.866003E-14	NaN
648	1.000000	0.202338	7.37139e+06	-44689.1	1005.82	-29775.1	0.000000	0.000000	6.202785	-0.057099	NaN	0.000000	0.001643	0.001679	28.0821	0.099622	0.001908	52.2022	179.326	-165.981	0.020599	0.201087	-0.848848	-0.850099	-0.057099	52.2022	-0.848027	-2.013837E+11	2.835346E-13	NaN
648	1.000000	0.242379	7.37139e+06	-44689.1	1005.82	-29775.1	0.000000	0.000000	6.242827	-0.018068	NaN	0.000000	0.001707	0.001709	28.0821	0.122689	0.001945	63.0741	89.6854	-167.323	0.011966	0.241080	-0.808807	-0.810106	-0.018068	63.0741	-0.808592	-5.881236E+10	3.072081E-13	NaN
648	1.000000	0.282407	7.37139e+06	-44689.1	1005.82	-29775.1	0.000000	0.000000	6.282854	-0.038832	NaN	0.000000	0.001724	0.001694	28.0819	0.067492	0.002072	32.5744	50.8917	-163.326	-0.038594	0.281083	-0.768779	-0.770103	-0.038832	32.5744	-0.767885	-1.646423E+10	2.358595E-12	NaN
648	1.000000	0.322429	7.37139e+06	-44689.1	1005.82	-29775.1	0.000000	0.000000	6.322878	0.023808	NaN	0.000000	0.001679	0.001705	28.0805	0.076806	0.002064	37.2193	166.99	-164.974	-0.010706	0.321073	-0.728757	-0.730113	0.023808	37.2193	-0.729237	-4.902429E+9	-4.856306E-12	NaN
648	1.000000	0.362426	7.37139e+06	-44689.1	1005.82	-29775.1	0.000000	0.000000	6.362873	-0.036251	NaN	0.000000	0.001671	0.001642	28.0808	0.056195	0.002095	26.8207	24.0946	-167.315	-0.057079	0.361118	-0.688760	-0.690068	-0.036251	26.8207	-0.687747	-1.330824E+9	2.723923E-11	NaN
648	1.000000	0.402427	7.37139e+06	-44689.1	1005.82	-29775.1	0.000000	0.000000	6.402874	-0.025846	NaN	0.000000	0.001738	0.001660	28.0809	0.122418	0.002050	59.7195	149.75	-164.701	-0.021410	0.401146	-0.648759	-0.650040	-0.025846	59.7195	-0.648435	-3.854567E+8	6.705195E-11	NaN
648	1.000000	0.442487	7.37139e+06	-44689.1	1005.82	-29775.1	0.000000	0.000000	6.442933	-0.066067	NaN	0.000000	0.001589	0.001668	28.0809	0.059034	0.002063	28.6221	-80.2298	-166.407	-0.019734	0.441123	-0.608699	-0.610063	-0.066067	28.6221	-0.606968	-1.038472E+8	6.361988E-10	NaN
648	1.000000	0.482494	7.37139e+06	-44689.1	1005.82	-29775.1	0.000000	0.000000	6.482942	-0.015747	NaN	0.000000	0.001603	0.001701	28.0821	0.038033	0.001973	19.2738	90.4792	-164.611	-0.065026	0.481180	-0.568692	-0.570006	-0.015747	19.2738	-0.568079	-3.020570E+7	5.213392E-10	NaN
648	1.000000	0.522486	7.37139e+06	-44689.1	1005.82	-29775.1	0.000000	0.000000	6.522936	0.016813	NaN	0.000000	0.001609	0.001711	28.0821	0.093006	0.001919	48.464	5.201511	-171.138	0.055981	0.521144	-0.528700	-0.530042	0.016813	48.464	-0.528960	-8.67218e+06	-1.938767E-9	NaN
648	1.000000	0.562523	7.37139e+06	-44689.1	1005.82	-29775.1	0.000000	0.000000	6.562970	-0.039809	NaN	0.000000	0.001677	0.001670	28.0821	0.059078	0.001905	31.0192	15.0518	-166.546	-0.091265	0.561223	-0.488663	-0.489963	-0.039809	31.0192	-0.487701	-2.30812e+06	1.724761E-8	NaN
648	1.000000	0.602558	7.37139e+06	-44689.1	1005.82	-29775.1	0.000000	0.000000	6.603003	-0.088225	NaN	0.000000	0.001621	0.001706	28.0809	0.161633	0.001962	82.3699	-169.834	-165.365	-0.091648	0.601221	-0.448628	-0.449965	-0.088225	82.3699	-0.447825	-636364	1.386394E-7	NaN
648	1.000000	0.642566	7.37139e+06	-44689.1	1005.82	-29775.1	0.000000	0.000000	6.643011	-0.089445	NaN	0.000000	0.001628	0.001724	28.0808	0.040102	0.001987	20.1777	118.436	-164.757	-0.084463	0.641206	-0.408620	-0.409980	-0.089445	20.1777	-0.405295	-159019	5.624803E-7	NaN
648	1.000000	0.682558	7.37139e+06	-44689.1	1005.82	-29775.1	0.000000	0.000000	6.683005	-0.051822	NaN	0.000000	0.001621	0.001688	28.0811	0.049750	0.001984	25.0724	176.058	-169.222	-0.173971	0.681274	-0.368628	-0.369913	-0.051822	25.0724	-0.367078	-45083.5	1.149473E-6	NaN
648	1.000000	0.722581	7.37139e+06	-44689.1	1005.82	-29775.1	0.000000	0.000000	6.723029	-0.025066	NaN	0.000000	0.001568	0.001741	28.0814	0.008969	0.001920	4.671225	-46.2429	-160.424	-0.062521	0.721259	-0.328605	-0.329927	-0.025066	4.671225	-0.324580	-10863.6	2.307293E-6	NaN
648	1.000000	0.762635	7.37139e+06	-44689.1	1005.82	-29775.1	0.000000	0.000000	6.763081	-0.052469	NaN	0.000000	0.001562	0.001704	28.0825	0.080127	0.001939	41.3155	-129.776	-163.249	-0.027118	0.761294	-0.288551	-0.289892	-0.052469	41.3155	-0.287599	-3071.1	1.708489E-5	NaN
648	1.000000	0.802611	7.37139e+06	-44689.1	1005.82	-29775.1	0.000000	0.000000	6.803060	0.026362	NaN	0.000000	0.001667	0.001634	28.0823	0.156296	0.001890	82.7173	-109.786	-167.565	-0.009842	0.801331	-0.248575	-0.249855	0.026362	82.7173	-0.248814	-788.171	-3.344749E-5	NaN
648	1.000000	0.842631	7.37139e+06	-44689.1	1005.82	-29775.1	0.000000	0.000000	6.843076	-0.077027	NaN	0.000000	0.001686	0.001683	28.082	0.099955	0.002016	49.5929	140.97	-167.494	-0.048865	0.841328	-0.208556	-0.209858	-0.077027	49.5929	-0.207391	-173.974	0.000443	NaN
648	1.000000	0.882682	7.37139e+06	-44689.1	1005.82	-29775.1	0.000000	0.000000	6.883131	0.013885	NaN	0.000000	0.001586	0.001658	28.0806	0.050299	0.002017	24.9409	-28.9531	-163.916	0.032207	0.881342	-0.168504	-0.169844	0.013885	24.9409	-0.168922	-39.3434	-0.000353	NaN
648	1.000000	0.922650	7.37139e+06	-44689.1	1005.82	-29775.1	0.000000	0.000000	6.923097	-0.023657	NaN	0.000000	0.001624	0.001643	28.0805	0.030092	0.001991	15.1167	32.598	-164.394	-0.133097	0.921386	-0.128536	-0.129800	-0.023657	15.1167	-0.127363	-6.769208	0.003495	NaN
648	1.000000	0.962690	7.37139e+06	-44689.1	1005.82	-29775.1	0.000000	0.000000	6.963136	-0.072647	NaN	0.000000	0.001673	0.001648	28.0808	0.110949	0.001937	57.2728	148.96	-167.361	-0.079222	0.961368	-0.088496	-0.089818	-0.072647	57.2728	-0.087545	-0.945744	0.076814	NaN
648	1.000000	1.002681	7.37139e+06	-44689.1	1005.82	-29775.1	0.000000	0.000000	7.003130	0.008428	NaN	0.000000	0.001686	0.001669	28.0811	0.050999	0.001994	25.578	-27.2503	-168.294	0.066733	1.001363	-0.048505	-0.049823	0.008428	25.578	-0.048752	-0.083639	-0.100772	NaN
648	1.000000	1.042688	7.37139e+06	-44689.1	1005.82	-29775.1	0.000000	0.000000	7.043138	0.042643	NaN	0.000000	0.001579	0.001671	28.0822	0.037613	0.002087	18.0217	165.179	-166.867	0.048834	1.041389	-0.008498	-0.009798	0.042643	18.0217	-0.010273	-0.006543	-6.517198	NaN
648	2.000000	1.069236	7.37139e+06	-44689.1	1005.82	-29775.1	0.000000	0.000000	7.070186	12.2034	NaN	0.000000	0.001618	0.001702	28.0823	13.2889	0.001721	7720.3	6.015609	-172.8	12.913	1.068905	0.018050	0.017719	12.2034	7720.3	0.016864	0.017852	683.585	52791.3
648	2.000000	1.079153	7.37139e+06	-44689.1	1005.82	-29775.1	0.000000	0.000000	7.080644	25.3602	NaN	0.000000	0.001655	0.001652	28.0824	23.8164	0.001860	12805.1	5.075655	-177.713	24.1863	1.078925	0.027966	0.027739	25.3602	12805.1	0.026481	0.033765	751.074	63668
648	2.000000	1.089122	7.37139e+06	-44689.1	1005.82	-29775.1	0.000000	0.000000	7.091964	58.2193	NaN	0.000000	0.001606	0.001674	28.0811	34.0187	0.001804	18857	7.877596	175.437	56.0749	1.088853	0.037936	0.037667	58.2193	18857	0.035621	0.053201	1094.33	74694.3
648	2.000000	1.099122	7.37139e+06	-44689.1	1005.82	-29775.1	0.000000	0.000000	7.103968	106.982	NaN	0.000000	0.001602	0.001660	28.0812	44.3673	0.001888	23496.7	6.600406	175.499	105.542	1.098806	0.047936	0.047620	106.982	23496.7	0.044521	0.076234	1403.34	77751.1
648	2.000000	1.109126	7.37139e+06	-44689.1	1005.82	-29775.1	0.000000	0.000000	7.116326	164.255	NaN	0.000000	0.001651	0.001715	28.0809	55.8095	0.001824	30599.9	3.145156	176.205	161.954	1.108952	0.057940	0.057766	164.255	30599.9	0.053914	0.104894	1565.91	86321.4
648	2.000000	1.119078	7.37139e+06	-44689.1	1005.82	-29775.1	0.000000	0.000000	7.129844	250.995	NaN	0.000000	0.001659	0.001621	28.0822	65.8156	0.001720	38261.9	1.161702	176.618	248.371	1.118784	0.067892	0.067598	250.995	38261.9	0.062972	0.136682	1836.34	94554.7
648	2.000000	1.129055	7.37139e+06	-44689.1	1005.82	-29775.1	0.000000	0.000000	7.143426	338.705	NaN	0.000000	0.001598	0.001677	28.082	76.0449	0.001824	41696.9	2.582365	174.541	336.159	1.128813	0.077869	0.077627	338.705	41696.9	0.071777	0.171391	1976.21	92020.1
648	2.000000	1.138990	7.37139e+06	-44689.1	1005.82	-29775.1	0.000000	0.000000	7.157503	439.481	NaN	0.000000	0.001573	0.001701	28.0821	82.1496	0.001804	45540.5	2.819904	174.051	433.977	1.138703	0.087804	0.087517	439.481	45540.5	0.080566	0.209704	2095.72	90858.9
648	2.000000	1.149043	7.3714e+06	-44689.1	1005.82	-29775.1	0.000000	0.000000	7.172047	548.719	NaN	0.000000	0.001595	0.001656	28.0821	93.5841	0.001880	49789.2	4.897512	171.56	546.661	1.148592	0.097857	0.097406	548.719	49789.2	0.089591	0.252790	2170.65	90475
648	2.000000	1.158890	7.3714e+06	-44689.1	1005.82	-29775.1	0.000000	0.000000	7.186515	661.129	NaN	0.000000	0.001681	0.001684	28.0808	102.638	0.001744	58855.1	6.273012	168.128	652.339	1.158671	0.107704	0.107485	661.129	58855.1	0.099279	0.303198	2180.52	97654.9
648	2.000000	1.163591	7.3714e+06	-44689.1	1005.82	-29775.1	0.000000	0.000000	7.192466	691.545	NaN	0.000000	0.001677	0.001696	28.0808	104.97	0.001885	55694.3	2.449345	-7.466468	687.41	1.163381	0.112405	0.112195	691.545	55694.3	0.103093	0.324212	2133	89365.4