File: remote_trans/data/nanoindenter/0828-1/data/Data_2025-08-06,11h17m57s/2025-07-22_16-23-58_1_575.txt
2025-07-22, 16:23:58, 1
Index	Phase	Displacement	Time	Pos X	Pos Y	Pos Z	Rot A	Rot B	Piezo Z	Force A	Force B	Gripper	Voltage A	Voltage B	Temperature	Amplitude force	Amplitude pos	Stiffness	Phase shift	Phase excitation	Force A raw	Displacement raw	HMax	HMax raw	Real Force	Real Stiffness	Contact Depth	Area	Hardness	Reduced Mod.
[#]	[#]	[um]	[s]	[um]	[um]	[um]	[m°]	[m°]	[um]	[uN]	[uN]	[V]	[V]	[V]	[°C]	[uN]	[um]	[N/m]	[°]	[°]	[uN]	[um]	[um]	[um]	[uN]	[N/m]	[um]	[um^2]	[MPa]	[MPa]
575	1.000000	0.002640	7.37067e+06	-48339.1	1005.82	-29762.6	0.000000	0.000000	6.002788	0.017684	NaN	0.000000	0.001551	0.001675	28.0827	0.049229	0.000968	50.8417	-55.9204	-157.811	0.004178	0.001352	-1.196927	-1.198215	0.017684	50.8417	-1.197188	-1.007132E+16	-1.755885E-18	NaN
575	1.000000	0.046604	7.37067e+06	-48339.1	1005.82	-29762.6	0.000000	0.000000	6.046753	0.038167	NaN	0.000000	0.001591	0.001651	28.0824	0.012117	0.001896	6.390509	-175.646	-165.427	-0.043686	0.045270	-1.152962	-1.154296	0.038167	6.390509	-1.157441	-2.955116E+15	-1.291540E-17	NaN
575	1.000000	0.090621	7.37067e+06	-48339.1	1005.82	-29762.6	0.000000	0.000000	6.090770	0.027886	NaN	0.000000	0.001563	0.001715	28.0812	0.029341	0.002039	14.3868	11.2057	-165.45	0.035235	0.089341	-1.108945	-1.110225	0.027886	14.3868	-1.110398	-6.912497E+14	-4.034148E-17	NaN
575	1.000000	0.134634	7.37067e+06	-48339.1	1005.82	-29762.6	0.000000	0.000000	6.134783	0.025690	NaN	0.000000	0.001668	0.001694	28.0813	0.098126	0.002075	47.2894	-28.0837	-164.096	-0.020196	0.133326	-1.064932	-1.066240	0.025690	47.2894	-1.065340	-1.716218E+14	-1.496915E-16	NaN
575	1.000000	0.178644	7.37067e+06	-48339.1	1005.82	-29762.6	0.000000	0.000000	6.178793	0.048975	NaN	0.000000	0.001673	0.001719	28.0814	0.088242	0.002012	43.864	125.284	-165.553	0.094840	0.177333	-1.020923	-1.022233	0.048975	43.864	-1.021760	-4.452802E+13	-1.099874E-15	NaN
575	1.000000	0.222683	7.37067e+06	-48339.1	1005.82	-29762.6	0.000000	0.000000	6.222833	0.053133	NaN	0.000000	0.001656	0.001676	28.0823	0.042636	0.001951	21.8555	-34.9369	-165.406	0.039156	0.221360	-0.976883	-0.978206	0.053133	21.8555	-0.978706	-1.172140E+13	-4.532994E-15	NaN
575	1.000000	0.266709	7.37067e+06	-48339.1	1005.82	-29762.6	0.000000	0.000000	6.266859	0.067378	NaN	0.000000	0.001585	0.001673	28.0825	0.064073	0.002146	29.8513	-93.662	-165.175	0.077517	0.265353	-0.932858	-0.934213	0.067378	29.8513	-0.934550	-2.975822E+12	-2.264183E-14	NaN
575	1.000000	0.310694	7.37067e+06	-48339.1	1005.82	-29762.6	0.000000	0.000000	6.310845	0.070355	NaN	0.000000	0.001600	0.001698	28.0822	0.088573	0.001937	45.7176	49.1526	-161.729	0.038185	0.309444	-0.888872	-0.890122	0.070355	45.7176	-0.890026	-7.451878E+11	-9.441216E-14	NaN
575	1.000000	0.354732	7.37067e+06	-48339.1	1005.82	-29762.6	0.000000	0.000000	6.354878	-0.028018	NaN	0.000000	0.001576	0.001688	28.0808	0.100191	0.001917	52.2565	-97.9578	-166.628	0.055640	0.353409	-0.844834	-0.846157	-0.028018	52.2565	-0.844432	-1.800253E+11	1.556341E-13	NaN
575	1.000000	0.398755	7.37067e+06	-48339.1	1005.82	-29762.6	0.000000	0.000000	6.398902	-0.023780	NaN	0.000000	0.001564	0.001674	28.0812	0.096558	0.002035	47.4445	-74.0905	-169.144	0.018981	0.397463	-0.800811	-0.802103	-0.023780	47.4445	-0.800435	-4.557938E+10	5.217208E-13	NaN
575	1.000000	0.442766	7.37067e+06	-48339.1	1005.82	-29762.6	0.000000	0.000000	6.442916	0.082081	NaN	0.000000	0.001638	0.001712	28.0811	0.113805	0.001968	57.8332	156.319	-164.541	0.056503	0.441465	-0.756801	-0.758102	0.082081	57.8332	-0.757865	-1.202976E+10	-6.823145E-12	NaN
575	1.000000	0.486774	7.37067e+06	-48339.1	1005.82	-29762.6	0.000000	0.000000	6.486919	-0.051051	NaN	0.000000	0.001617	0.001701	28.0829	0.015781	0.001974	7.994917	100.844	-163.841	-0.050283	0.485425	-0.712793	-0.714141	-0.051051	7.994917	-0.708003	-2.516516E+9	2.028636E-11	NaN
575	1.000000	0.530786	7.37067e+06	-48339.1	1005.82	-29762.6	0.000000	0.000000	6.530935	0.051319	NaN	0.000000	0.001626	0.001663	28.0827	0.047968	0.002051	23.3911	23.0862	-166.605	0.101624	0.529525	-0.668781	-0.670041	0.051319	23.3911	-0.670426	-7.712977E+8	-6.653633E-11	NaN
575	1.000000	0.574816	7.37067e+06	-48339.1	1005.82	-29762.6	0.000000	0.000000	6.574960	-0.081360	NaN	0.000000	0.001659	0.001673	28.0825	0.072199	0.001979	36.4835	124.216	-162.297	-0.083213	0.573507	-0.624751	-0.626059	-0.081360	36.4835	-0.623078	-1.729565E+8	4.704075E-10	NaN
575	1.000000	0.618868	7.37067e+06	-48339.1	1005.82	-29762.6	0.000000	0.000000	6.619017	0.024309	NaN	0.000000	0.001557	0.001679	28.0813	0.104747	0.002073	50.5311	-72.6434	-167.528	0.050535	0.617515	-0.580698	-0.582051	0.024309	50.5311	-0.581059	-4.563904E+7	-5.326361E-10	NaN
575	1.000000	0.662857	7.37067e+06	-48339.1	1005.82	-29762.6	0.000000	0.000000	6.663004	-0.010052	NaN	0.000000	0.001583	0.001688	28.0811	0.088748	0.001996	44.4636	21.0542	-165.311	-0.007401	0.661620	-0.536710	-0.537946	-0.010052	44.4636	-0.536540	-1.104997E+7	9.096874E-10	NaN
575	1.000000	0.706835	7.37067e+06	-48339.1	1005.82	-29762.6	0.000000	0.000000	6.706983	0.010799	NaN	0.000000	0.001590	0.001703	28.0817	0.027307	0.002143	12.7448	-141.396	-166.851	-0.004225	0.705583	-0.492731	-0.493983	0.010799	12.7448	-0.493367	-2.76967e+06	-3.899177E-9	NaN
575	1.000000	0.750917	7.37067e+06	-48339.1	1005.82	-29762.6	0.000000	0.000000	6.751064	-0.023996	NaN	0.000000	0.001544	0.001695	28.0828	0.021416	0.001901	11.265	22.8313	-167.526	0.021584	0.749600	-0.448649	-0.449966	-0.023996	11.265	-0.447051	-620593	3.866650E-8	NaN
575	1.000000	0.794904	7.37068e+06	-48339.1	1005.82	-29762.6	0.000000	0.000000	6.795053	0.043858	NaN	0.000000	0.001595	0.001714	28.0829	0.034448	0.001934	17.8122	-87.3501	-170.005	-0.008803	0.793604	-0.404662	-0.405962	0.043858	17.8122	-0.406509	-165476	-2.650441E-7	NaN
575	1.000000	0.838898	7.37068e+06	-48339.1	1005.82	-29762.6	0.000000	0.000000	6.839044	-0.016558	NaN	0.000000	0.001627	0.001750	28.0829	0.063877	0.002079	30.7219	-93.7761	-162.816	0.003205	0.837590	-0.360669	-0.361976	-0.016558	30.7219	-0.360264	-35947.4	4.606166E-7	NaN
575	1.000000	0.882959	7.37068e+06	-48339.1	1005.82	-29762.6	0.000000	0.000000	6.883107	0.023720	NaN	0.000000	0.001594	0.001750	28.0816	0.074137	0.002077	35.6931	144.868	-166.423	-0.055639	0.881692	-0.316607	-0.317875	0.023720	35.6931	-0.317106	-8433.5	-2.812554E-6	NaN
575	1.000000	0.926933	7.37068e+06	-48339.1	1005.82	-29762.6	0.000000	0.000000	6.927082	0.040390	NaN	0.000000	0.001537	0.001718	28.0815	0.056552	0.001858	30.4306	166.405	-170.544	0.111344	0.925703	-0.272633	-0.273864	0.040390	30.4306	-0.273629	-1890.7	-2.136264E-5	NaN
575	1.000000	0.970957	7.37068e+06	-48339.1	1005.82	-29762.6	0.000000	0.000000	6.971107	0.070261	NaN	0.000000	0.001539	0.001702	28.0816	0.125329	0.001916	65.3953	139.905	-168.176	-0.013407	0.969644	-0.228610	-0.229922	0.070261	65.3953	-0.229415	-391.997	-0.000179	NaN
575	1.000000	1.015027	7.37068e+06	-48339.1	1005.82	-29762.6	0.000000	0.000000	7.015175	0.017490	NaN	0.000000	0.001595	0.001688	28.0831	0.108969	0.002015	54.0869	-72.6774	-166.171	0.010703	1.013730	-0.184539	-0.185836	0.017490	54.0869	-0.184781	-73.5273	-0.000238	NaN
575	1.000000	1.059026	7.37068e+06	-48339.1	1005.82	-29762.6	0.000000	0.000000	7.059174	0.020169	NaN	0.000000	0.001602	0.001673	28.0829	0.013043	0.002074	6.287421	75.6302	-166.877	0.114806	1.057713	-0.140540	-0.141854	0.020169	6.287421	-0.142946	-13.4292	-0.001502	NaN
575	1.000000	1.103037	7.37068e+06	-48339.1	1005.82	-29762.6	0.000000	0.000000	7.103186	0.035534	NaN	0.000000	0.001592	0.001677	28.0832	0.060870	0.001978	30.7743	-77.5407	-166.849	0.061329	1.101723	-0.096530	-0.097843	0.035534	30.7743	-0.097395	-1.598203	-0.022233	NaN
575	1.000000	1.147028	7.37068e+06	-48339.1	1005.82	-29762.6	0.000000	0.000000	7.147176	0.008097	NaN	0.000000	0.001527	0.001730	28.0817	0.094712	0.001869	50.6727	92.6387	-166.562	-0.028055	1.145709	-0.052538	-0.053857	0.008097	50.6727	-0.052658	-0.109698	-0.073807	NaN
575	1.000000	1.191067	7.37068e+06	-48339.1	1005.82	-29762.6	0.000000	0.000000	7.191214	0.002759	NaN	0.000000	0.001577	0.001714	28.0815	0.066187	0.001974	33.5295	178.78	-166.022	-0.078401	1.189801	-0.008499	-0.009765	0.002759	33.5295	-0.008561	-0.005559	-0.496332	NaN
575	2.000000	1.213658	7.37068e+06	-48339.1	1005.82	-29762.6	0.000000	0.000000	7.214627	19.9784	NaN	0.000000	0.001553	0.001710	28.0815	16.0475	0.001656	9691.24	6.917945	-179.592	18.9177	1.213387	0.014092	0.013821	19.9784	9691.24	0.012546	0.012150	1644.29	80327
575	2.000000	1.224603	7.37068e+06	-48339.1	1005.82	-29762.6	0.000000	0.000000	7.226653	46.2769	NaN	0.000000	0.001528	0.001727	28.0833	26.6271	0.001729	15397.7	6.873686	178.512	44.8054	1.224323	0.025037	0.024757	46.2769	15397.7	0.022783	0.027106	1707.27	85447.5
575	2.000000	1.235568	7.37068e+06	-48339.1	1005.82	-29762.6	0.000000	0.000000	7.238945	78.5546	NaN	0.000000	0.001557	0.001742	28.0826	38.5579	0.001727	22325.5	5.425477	175.441	77.2524	1.235331	0.036002	0.035764	78.5546	22325.5	0.033363	0.048003	1636.45	93098
575	2.000000	1.246569	7.37068e+06	-48339.1	1005.82	-29762.6	0.000000	0.000000	7.251910	126.308	NaN	0.000000	0.001583	0.001706	28.083	48.3835	0.001607	30116.1	4.684572	174.389	123.086	1.246261	0.047003	0.046695	126.308	30116.1	0.043858	0.074377	1698.2	100891
575	2.000000	1.257527	7.37068e+06	-48339.1	1005.82	-29762.6	0.000000	0.000000	7.265187	182.708	NaN	0.000000	0.001559	0.001706	28.0827	58.9041	0.001710	34441.1	5.113632	173.428	179.818	1.257243	0.057961	0.057677	182.708	34441.1	0.053982	0.105119	1738.1	97053.3
575	2.000000	1.268592	7.37068e+06	-48339.1	1005.82	-29762.6	0.000000	0.000000	7.278632	240.593	NaN	0.000000	0.001549	0.001661	28.0818	73.0958	0.001898	38519.1	3.985109	173.642	241.61	1.268292	0.069026	0.068726	240.593	38519.1	0.064342	0.141835	1696.28	93445.2
575	2.000000	1.279565	7.37068e+06	-48339.1	1005.82	-29762.6	0.000000	0.000000	7.292945	321.828	NaN	0.000000	0.001507	0.001698	28.0816	80.6847	0.001839	43884.8	5.798182	171.887	324.156	1.279169	0.079999	0.079603	321.828	43884.8	0.074499	0.182869	1759.88	93759.9
575	2.000000	1.290492	7.37068e+06	-48339.1	1005.82	-29762.6	0.000000	0.000000	7.307291	405.011	NaN	0.000000	0.001542	0.001645	28.0814	90.1772	0.001828	49322	5.982999	170.315	401.202	1.290095	0.090926	0.090529	405.011	49322	0.084767	0.229291	1766.36	94106.5
575	2.000000	1.301479	7.37068e+06	-48339.1	1005.82	-29762.6	0.000000	0.000000	7.322179	499.872	NaN	0.000000	0.001582	0.001654	28.0826	100.812	0.001789	56344.2	4.085828	171.113	495.763	1.301275	0.101913	0.101709	499.872	56344.2	0.095259	0.281760	1774.11	96980.1
575	2.000000	1.305037	7.37068e+06	-48339.1	1005.82	-29762.6	0.000000	0.000000	7.326950	529.391	NaN	0.000000	0.001584	0.001675	28.0827	103.473	0.001762	58718.9	3.568782	-8.041013	526.713	1.304630	0.105470	0.105064	529.391	58718.9	0.098709	0.300110	1763.99	97928.9