File: remote_trans/data/nanoindenter/0828-1/data/Data_2025-08-06,11h17m57s/2025-07-22_16-23-58_1_588.txt
2025-07-22, 16:23:58, 1
Index	Phase	Displacement	Time	Pos X	Pos Y	Pos Z	Rot A	Rot B	Piezo Z	Force A	Force B	Gripper	Voltage A	Voltage B	Temperature	Amplitude force	Amplitude pos	Stiffness	Phase shift	Phase excitation	Force A raw	Displacement raw	HMax	HMax raw	Real Force	Real Stiffness	Contact Depth	Area	Hardness	Reduced Mod.
[#]	[#]	[um]	[s]	[um]	[um]	[um]	[m°]	[m°]	[um]	[uN]	[uN]	[V]	[V]	[V]	[°C]	[uN]	[um]	[N/m]	[°]	[°]	[uN]	[um]	[um]	[um]	[uN]	[N/m]	[um]	[um^2]	[MPa]	[MPa]
588	1.000000	0.002406	7.3708e+06	-47689.1	1005.82	-29764.9	0.000000	0.000000	6.002790	0.047537	NaN	0.000000	0.001579	0.001768	28.0792	0.090687	0.000973	93.164	168.08	-167.443	0.101250	0.001152	-1.160736	-1.161990	0.047537	93.164	-1.161118	-3.310223E+15	-1.436073E-17	NaN
588	1.000000	0.044359	7.3708e+06	-47689.1	1005.82	-29764.9	0.000000	0.000000	6.044740	-0.014827	NaN	0.000000	0.001571	0.001766	28.0794	0.103741	0.002017	51.4451	83.4421	13.5433	-0.002540	0.043040	-1.118782	-1.120102	-0.014827	51.4451	-1.118566	-8.896839E+14	1.666547E-17	NaN
588	1.000000	0.086363	7.3708e+06	-47689.1	1005.82	-29765	0.000000	0.000000	6.086748	0.072470	NaN	0.000000	0.001548	0.001696	28.0809	0.125064	0.001966	63.6263	-150.22	-169.319	0.104261	0.085060	-1.076778	-1.078082	0.072470	63.6263	-1.077633	-2.510281E+14	-2.886931E-16	NaN
588	1.000000	0.128377	7.3708e+06	-47689.1	1005.82	-29765	0.000000	0.000000	6.128759	0.015601	NaN	0.000000	0.001557	0.001719	28.0806	0.066108	0.002038	32.4371	165.221	11.2607	0.005127	0.127008	-1.034765	-1.036134	0.015601	32.4371	-1.035126	-6.736309E+13	-2.315900E-16	NaN
588	1.000000	0.170394	7.3708e+06	-47689.1	1005.82	-29765	0.000000	0.000000	6.170773	-0.041947	NaN	0.000000	0.001529	0.001714	28.0805	0.155407	0.001979	78.5105	-161.413	-165.627	-0.044717	0.169035	-0.992748	-0.994107	-0.041947	78.5105	-0.992348	-1.789485E+13	2.344108E-15	NaN
588	1.000000	0.212447	7.3708e+06	-47689.1	1005.82	-29765	0.000000	0.000000	6.212827	-0.027923	NaN	0.000000	0.001540	0.001727	28.0805	0.044924	0.001856	24.2055	-92.0093	14.669	-0.000758	0.211102	-0.950695	-0.952040	-0.027923	24.2055	-0.949830	-4.783387E+12	5.837411E-15	NaN
588	1.000000	0.254455	7.3708e+06	-47689.1	1005.82	-29765	0.000000	0.000000	6.254840	0.063603	NaN	0.000000	0.001528	0.001792	28.079	0.015637	0.001964	7.960658	-73.6853	-165.764	0.022781	0.253144	-0.908686	-0.909998	0.063603	7.960658	-0.914679	-1.604540E+12	-3.963912E-14	NaN
588	1.000000	0.296485	7.3708e+06	-47689.1	1005.82	-29765	0.000000	0.000000	6.296866	-0.006599	NaN	0.000000	0.001529	0.001784	28.0793	0.103627	0.002085	49.6963	-160.142	13.626	0.029992	0.295115	-0.866657	-0.868027	-0.006599	49.6963	-0.866558	-3.588116E+11	1.839125E-14	NaN
588	1.000000	0.338521	7.3708e+06	-47689.1	1005.82	-29765	0.000000	0.000000	6.338906	0.074725	NaN	0.000000	0.001556	0.001808	28.0793	0.066859	0.002074	32.2426	-136.738	-171.3	0.080530	0.337204	-0.824620	-0.825938	0.074725	32.2426	-0.826359	-1.024294E+11	-7.295236E-13	NaN
588	1.000000	0.380524	7.3708e+06	-47689.1	1005.82	-29765	0.000000	0.000000	6.380904	-0.020983	NaN	0.000000	0.001560	0.001800	28.0807	0.125731	0.001960	64.1579	-33.3156	14.8942	-0.005602	0.379136	-0.782618	-0.784006	-0.020983	64.1579	-0.782373	-2.591040E+10	8.098337E-13	NaN
588	1.000000	0.422550	7.3708e+06	-47689.1	1005.82	-29765	0.000000	0.000000	6.422930	-0.039833	NaN	0.000000	0.001587	0.001740	28.0806	0.113325	0.002028	55.8764	172.73	-163.483	0.010282	0.421245	-0.740591	-0.741896	-0.039833	55.8764	-0.740057	-6.883828E+9	5.786456E-12	NaN
588	1.000000	0.464549	7.3708e+06	-47689.1	1005.82	-29765	0.000000	0.000000	6.464934	0.061598	NaN	0.000000	0.001592	0.001774	28.0808	0.039620	0.002006	19.7544	159.709	13.3498	0.148182	0.463170	-0.698592	-0.699971	0.061598	19.7544	-0.700931	-2.014861E+9	-3.057168E-11	NaN
588	1.000000	0.506560	7.3708e+06	-47689.1	1005.82	-29765	0.000000	0.000000	6.506944	0.043664	NaN	0.000000	0.001576	0.001764	28.0797	0.110505	0.001860	59.4225	-110.057	-168.86	0.072817	0.505243	-0.656581	-0.657899	0.043664	59.4225	-0.657133	-5.072088E+8	-8.608648E-11	NaN
588	1.000000	0.548577	7.3708e+06	-47689.1	1005.82	-29765	0.000000	0.000000	6.548960	0.022233	NaN	0.000000	0.001573	0.001781	28.0794	0.099354	0.002193	45.3077	164.122	13.1953	0.011792	0.547214	-0.614564	-0.615928	0.022233	45.3077	-0.614932	-1.336474E+8	-1.663565E-10	NaN
588	1.000000	0.590620	7.3708e+06	-47689.1	1005.82	-29765	0.000000	0.000000	6.591003	0.029560	NaN	0.000000	0.001587	0.001753	28.0789	0.042602	0.001835	23.2177	70.0153	-166.912	-0.038273	0.589302	-0.572522	-0.573840	0.029560	23.2177	-0.573477	-3.586415E+7	-8.242315E-10	NaN
588	1.000000	0.632621	7.3708e+06	-47689.1	1005.82	-29765	0.000000	0.000000	6.633003	0.006778	NaN	0.000000	0.001601	0.001799	28.0802	0.021751	0.001908	11.4028	72.5511	15.8533	-0.046267	0.631246	-0.530521	-0.531896	0.006778	11.4028	-0.530967	-9.24706e+06	-7.329450E-10	NaN
588	1.000000	0.674609	7.3708e+06	-47689.1	1005.82	-29765	0.000000	0.000000	6.674992	0.015811	NaN	0.000000	0.001604	0.001785	28.0812	0.028271	0.002012	14.0508	144.114	-165.109	0.039823	0.673299	-0.488532	-0.489843	0.015811	14.0508	-0.489376	-2.436e+06	-6.490367E-9	NaN
588	1.000000	0.716640	7.3708e+06	-47689.1	1005.82	-29765	0.000000	0.000000	6.717023	0.041188	NaN	0.000000	0.001634	0.001777	28.0843	0.058325	0.002071	28.1562	-97.2513	10.4359	-0.032667	0.715246	-0.446502	-0.447896	0.041188	28.1562	-0.447599	-631716	-6.520075E-8	NaN
588	1.000000	0.758652	7.3708e+06	-47689.1	1005.82	-29765	0.000000	0.000000	6.759037	0.084529	NaN	0.000000	0.001630	0.001782	28.0805	0.055348	0.002064	26.817	158.415	-165.629	0.116161	0.757351	-0.404490	-0.405791	0.084529	26.817	-0.406854	-167355	-5.050909E-7	NaN
588	1.000000	0.800684	7.3708e+06	-47689.1	1005.82	-29765	0.000000	0.000000	6.801068	0.056909	NaN	0.000000	0.001647	0.001741	28.0793	0.058226	0.001915	30.4103	0.908780	11.6624	0.047948	0.799338	-0.362457	-0.363804	0.056909	30.4103	-0.363861	-40515	-1.404635E-6	NaN
588	1.000000	0.842703	7.3708e+06	-47689.1	1005.82	-29765	0.000000	0.000000	6.843082	-0.062142	NaN	0.000000	0.001673	0.001763	28.0795	0.128324	0.001940	66.145	177.887	-165.604	-0.013759	0.841364	-0.320439	-0.321778	-0.062142	66.145	-0.319735	-9220.04	6.739931E-6	NaN
588	1.000000	0.884695	7.3708e+06	-47689.1	1005.82	-29765	0.000000	0.000000	6.885077	0.013535	NaN	0.000000	0.001665	0.001774	28.0794	0.044849	0.001905	23.5402	-134.288	19.9538	-0.013292	0.883334	-0.278447	-0.279808	0.013535	23.5402	-0.278878	-2270.07	-5.962427E-6	NaN
588	1.000000	0.926724	7.3708e+06	-47689.1	1005.82	-29765	0.000000	0.000000	6.927108	0.077734	NaN	0.000000	0.001624	0.001754	28.0804	0.019574	0.001767	11.0766	-133.776	-167.456	0.037181	0.925423	-0.236418	-0.237719	0.077734	11.0766	-0.241682	-610.654	-0.000127	NaN
588	1.000000	0.968752	7.3708e+06	-47689.1	1005.82	-29765	0.000000	0.000000	6.969135	0.033562	NaN	0.000000	0.001623	0.001743	28.0801	0.096993	0.002089	46.4331	-174.787	16.0686	0.015339	0.967398	-0.194390	-0.195744	0.033562	46.4331	-0.194932	-108.663	-0.000309	NaN
588	1.000000	1.010786	7.3708e+06	-47689.1	1005.82	-29765	0.000000	0.000000	7.011168	0.005678	NaN	0.000000	0.001589	0.001760	28.0802	0.039540	0.002129	18.5748	106.881	-166.001	0.030684	1.009498	-0.152355	-0.153644	0.005678	18.5748	-0.152585	-20.1827	-0.000281	NaN
588	1.000000	1.052798	7.3708e+06	-47689.1	1005.82	-29765	0.000000	0.000000	7.053178	-0.035551	NaN	0.000000	0.001605	0.001743	28.0791	0.140134	0.001955	71.6867	-47.5312	14.8814	0.030625	1.051439	-0.110344	-0.111703	-0.035551	71.6867	-0.109972	-3.001127	0.011846	NaN
588	1.000000	1.094818	7.3708e+06	-47689.1	1005.82	-29765	0.000000	0.000000	7.095199	-0.013344	NaN	0.000000	0.001619	0.001772	28.0789	0.037293	0.002006	18.5916	-1.558073	-165.382	0.094632	1.093508	-0.068324	-0.069634	-0.013344	18.5916	-0.067786	-0.297248	0.044890	NaN
588	1.000000	1.136805	7.3708e+06	-47689.1	1005.82	-29765	0.000000	0.000000	7.137187	0.003582	NaN	0.000000	0.001619	0.001803	28.0792	0.011792	0.002234	5.278679	-97.327	14.7973	0.023847	1.135472	-0.026337	-0.027669	0.003582	5.278679	-0.026846	-0.018875	-0.189758	NaN
588	2.000000	1.169460	7.3708e+06	-47689.1	1005.82	-29765	0.000000	0.000000	7.170250	9.931990	NaN	0.000000	0.001670	0.001790	28.0803	10.5262	0.001801	5844.85	9.927596	-175.453	9.997185	1.169205	0.006318	0.006063	9.931990	5844.85	0.005044	0.004174	2379.73	82659.4
588	2.000000	1.179947	7.3708e+06	-47689.1	1005.82	-29765	0.000000	0.000000	7.181542	29.5097	NaN	0.000000	0.001600	0.001747	28.0803	21.9416	0.001911	11484	8.736605	3.844827	33.1295	1.179554	0.016805	0.016412	29.5097	11484	0.014878	0.015123	1951.34	85320.3
588	2.000000	1.190361	7.37081e+06	-47689.1	1005.82	-29765	0.000000	0.000000	7.193335	63.055	NaN	0.000000	0.001602	0.001769	28.0802	31.6911	0.001761	17999.8	7.490576	177.851	62.9945	1.189929	0.027219	0.026787	63.055	17999.8	0.024592	0.030278	2082.55	94509.9
588	2.000000	1.200783	7.37081e+06	-47689.1	1005.82	-29765	0.000000	0.000000	7.205371	102.307	NaN	0.000000	0.001591	0.001749	28.0804	41.2891	0.001765	23389.3	4.257589	-1.696677	97.7026	1.200429	0.037641	0.037287	102.307	23389.3	0.034361	0.050268	2035.24	95311.3
588	2.000000	1.211319	7.37081e+06	-47689.1	1005.82	-29765	0.000000	0.000000	7.217952	152.063	NaN	0.000000	0.001588	0.001749	28.079	51.8264	0.001862	27840.2	4.134604	178.006	148.593	1.210909	0.048177	0.047767	152.063	27840.2	0.044081	0.074999	2027.54	92879.3
588	2.000000	1.221823	7.37081e+06	-47689.1	1005.82	-29765	0.000000	0.000000	7.230631	204.94	NaN	0.000000	0.001602	0.001779	28.0791	62.143	0.001903	32648.9	1.582777	-1.949418	203.271	1.221560	0.058681	0.058418	204.94	32648.9	0.053974	0.105090	1950.15	92015.5
588	2.000000	1.232245	7.37081e+06	-47689.1	1005.82	-29765	0.000000	0.000000	7.243942	275.245	NaN	0.000000	0.001623	0.001767	28.0794	71.7156	0.001869	38374.7	4.062125	174.334	270.529	1.232021	0.069103	0.068879	275.245	38374.7	0.063723	0.139497	1973.12	93872
588	2.000000	1.242748	7.37081e+06	-47689.1	1005.82	-29765	0.000000	0.000000	7.257928	359.954	NaN	0.000000	0.001610	0.001771	28.0804	80.9786	0.001769	45770.3	2.487742	-4.838866	355.259	1.242361	0.079606	0.079219	359.954	45770.3	0.073708	0.179496	2005.36	98702.8
588	2.000000	1.253228	7.37081e+06	-47689.1	1005.82	-29765	0.000000	0.000000	7.271792	442.249	NaN	0.000000	0.001596	0.001786	28.0807	91.7788	0.001741	52726.2	6.613466	170.049	438.509	1.252864	0.090086	0.089723	442.249	52726.2	0.083795	0.224688	1968.28	101627
588	2.000000	1.263688	7.37081e+06	-47689.1	1005.82	-29765	0.000000	0.000000	7.286156	537.206	NaN	0.000000	0.001658	0.001747	28.0802	100.148	0.001644	60924.2	5.236454	-9.340592	531.141	1.263482	0.100546	0.100340	537.206	60924.2	0.093933	0.274849	1954.55	106173
588	2.000000	1.264896	7.37081e+06	-47689.1	1005.82	-29765	0.000000	0.000000	7.287599	542.94	NaN	0.000000	0.001675	0.001754	28.0804	102.613	0.001776	57763.3	1.016587	-4.502688	545.591	1.264478	0.101754	0.101336	542.94	57763.3	0.094704	0.278860	1947	99938.5