File: remote_trans/data/nanoindenter/0828-1/data/Data_2025-08-06,11h17m57s/2025-07-22_16-23-58_1_1002.txt
2025-07-22, 16:23:58, 1
Index	Phase	Displacement	Time	Pos X	Pos Y	Pos Z	Rot A	Rot B	Piezo Z	Force A	Force B	Gripper	Voltage A	Voltage B	Temperature	Amplitude force	Amplitude pos	Stiffness	Phase shift	Phase excitation	Force A raw	Displacement raw	HMax	HMax raw	Real Force	Real Stiffness	Contact Depth	Area	Hardness	Reduced Mod.
[#]	[#]	[um]	[s]	[um]	[um]	[um]	[m°]	[m°]	[um]	[uN]	[uN]	[V]	[V]	[V]	[°C]	[uN]	[um]	[N/m]	[°]	[°]	[uN]	[um]	[um]	[um]	[uN]	[N/m]	[um]	[um^2]	[MPa]	[MPa]
1002	1.000000	0.002374	7.37485e+06	-50239.1	1055.82	-29756.3	0.000000	0.000000	6.002804	0.075918	NaN	0.000000	0.001579	0.001719	28.0819	0.057171	0.000979	58.4251	-60.1171	-166.959	0.061905	0.001132	-1.057164	-1.058406	0.075918	58.4251	-1.058138	-1.373414E+14	-5.527656E-16	NaN
1002	1.000000	0.042309	7.37485e+06	-50239.1	1055.82	-29756.3	0.000000	0.000000	6.042736	0.008136	NaN	0.000000	0.001604	0.001702	28.082	0.039154	0.001938	20.2004	-45.6554	-169.486	-0.004812	0.041056	-1.017229	-1.018482	0.008136	20.2004	-1.017531	-3.905994E+13	-2.082907E-16	NaN
1002	1.000000	0.082330	7.37485e+06	-50239.1	1055.82	-29756.3	0.000000	0.000000	6.082759	0.069805	NaN	0.000000	0.001577	0.001678	28.0822	0.094927	0.002069	45.8752	-17.7312	-163.921	0.053504	0.081023	-0.977208	-0.978515	0.069805	45.8752	-0.978349	-1.159222E+13	-6.021717E-15	NaN
1002	1.000000	0.122348	7.37485e+06	-50239.1	1055.82	-29756.3	0.000000	0.000000	6.122772	-0.058688	NaN	0.000000	0.001567	0.001673	28.0835	0.057949	0.001979	29.2841	-150.865	-163.605	-0.081320	0.121026	-0.937190	-0.938512	-0.058688	29.2841	-0.935687	-3.082795E+12	1.903718E-14	NaN
1002	1.000000	0.162394	7.37485e+06	-50239.1	1055.82	-29756.3	0.000000	0.000000	6.162823	0.079101	NaN	0.000000	0.001538	0.001675	28.0838	0.041636	0.002067	20.1406	-55.4892	-164.931	0.085617	0.161012	-0.897144	-0.898526	0.079101	20.1406	-0.900090	-1.019253E+12	-7.760664E-14	NaN
1002	1.000000	0.202405	7.37485e+06	-50239.1	1055.82	-29756.3	0.000000	0.000000	6.202831	-0.016546	NaN	0.000000	0.001532	0.001691	28.0837	0.062219	0.002018	30.8389	-115.312	-166.751	0.023345	0.201074	-0.857133	-0.858464	-0.016546	30.8389	-0.856730	-2.641581E+11	6.263509E-14	NaN
1002	1.000000	0.242412	7.37485e+06	-50239.1	1055.82	-29756.3	0.000000	0.000000	6.242837	-0.044556	NaN	0.000000	0.001559	0.001794	28.0836	0.044527	0.001973	22.5648	172.63	-163.539	0.010340	0.241075	-0.817126	-0.818463	-0.044556	22.5648	-0.815645	-7.330662E+10	6.078072E-13	NaN
1002	1.000000	0.282386	7.37485e+06	-50239.1	1055.82	-29756.3	0.000000	0.000000	6.282813	0.002668	NaN	0.000000	0.001556	0.001669	28.0822	0.111859	0.002151	52.0032	21.5728	-167.279	-0.035820	0.281149	-0.777152	-0.778389	0.002668	52.0032	-0.777190	-2.203166E+10	-1.210917E-13	NaN
1002	1.000000	0.322423	7.37485e+06	-50239.1	1055.82	-29756.3	0.000000	0.000000	6.322854	0.108450	NaN	0.000000	0.001559	0.001722	28.082	0.027796	0.001839	15.116	-118.883	-162.933	0.116821	0.321155	-0.737115	-0.738383	0.108450	15.116	-0.742496	-7.431056E+9	-1.459420E-11	NaN
1002	1.000000	0.362447	7.37485e+06	-50239.1	1055.82	-29756.3	0.000000	0.000000	6.362872	-0.013054	NaN	0.000000	0.001552	0.001737	28.0823	0.034283	0.001961	17.4791	142.798	-168.415	-0.059095	0.361151	-0.697091	-0.698387	-0.013054	17.4791	-0.696531	-1.754511E+9	7.440025E-12	NaN
1002	1.000000	0.402460	7.37485e+06	-50239.1	1055.82	-29756.3	0.000000	0.000000	6.402886	-0.001358	NaN	0.000000	0.001530	0.001696	28.0832	0.041451	0.001926	21.5164	155.983	-163.5	-0.039960	0.401120	-0.657078	-0.658418	-0.001358	21.5164	-0.657031	-5.055854E+8	2.686891E-12	NaN
1002	1.000000	0.442485	7.37485e+06	-50239.1	1055.82	-29756.3	0.000000	0.000000	6.442909	-0.051140	NaN	0.000000	0.001551	0.001700	28.0831	0.060636	0.001988	30.4957	-96.9872	-165.191	-0.044066	0.441172	-0.617053	-0.618366	-0.051140	30.4957	-0.615795	-1.373480E+8	3.723412E-10	NaN
1002	1.000000	0.482492	7.37485e+06	-50239.1	1055.82	-29756.3	0.000000	0.000000	6.482919	0.028014	NaN	0.000000	0.001553	0.001702	28.083	0.110068	0.001982	55.5408	-165.342	-164.275	0.022993	0.481219	-0.577046	-0.578319	0.028014	55.5408	-0.577425	-4.066096E+7	-6.889670E-10	NaN
1002	1.000000	0.522516	7.37485e+06	-50239.1	1055.82	-29756.3	0.000000	0.000000	6.522944	0.032606	NaN	0.000000	0.001586	0.001694	28.0835	0.032710	0.002222	14.7231	-136.281	-162.717	-0.005313	0.521203	-0.537022	-0.538335	0.032606	14.7231	-0.538682	-1.183268E+7	-2.755555E-9	NaN
1002	1.000000	0.562537	7.37485e+06	-50239.1	1055.82	-29756.3	0.000000	0.000000	6.562963	-0.005664	NaN	0.000000	0.001556	0.001732	28.0824	0.006753	0.002101	3.214695	-132.02	-168.125	-0.073153	0.561182	-0.497001	-0.498356	-0.005664	3.214695	-0.495679	-2.98345e+06	1.898570E-9	NaN
1002	1.000000	0.602543	7.37485e+06	-50239.1	1055.82	-29756.3	0.000000	0.000000	6.602971	0.033339	NaN	0.000000	0.001564	0.001697	28.0821	0.052325	0.001894	27.6254	57.2165	-160.098	0.038906	0.601300	-0.456995	-0.458238	0.033339	27.6254	-0.457900	-882058	-3.779712E-8	NaN
1002	1.000000	0.642578	7.37485e+06	-50239.1	1055.82	-29756.3	0.000000	0.000000	6.643008	0.095827	NaN	0.000000	0.001595	0.001692	28.0821	0.088619	0.002115	41.8974	-72.0124	-166.462	0.037832	0.641279	-0.416960	-0.418259	0.095827	41.8974	-0.418675	-246391	-3.889241E-7	NaN
1002	1.000000	0.682598	7.37485e+06	-50239.1	1055.82	-29756.3	0.000000	0.000000	6.683028	0.091585	NaN	0.000000	0.001554	0.001663	28.0836	0.083022	0.002055	40.4058	31.9629	-163.163	0.102209	0.681281	-0.376940	-0.378257	0.091585	40.4058	-0.378639	-66124.1	-1.385053E-6	NaN
1002	1.000000	0.722618	7.37485e+06	-50239.1	1055.82	-29756.3	0.000000	0.000000	6.723044	0.009106	NaN	0.000000	0.001527	0.001666	28.0835	0.023867	0.001968	12.1251	-116.582	-165.169	0.006161	0.721287	-0.336920	-0.338251	0.009106	12.1251	-0.337484	-16782.4	-5.425698E-7	NaN
1002	1.000000	0.762613	7.37485e+06	-50239.1	1055.82	-29756.3	0.000000	0.000000	6.763043	0.077811	NaN	0.000000	0.001587	0.001664	28.0837	0.222029	0.001932	114.904	-110.578	-165.378	0.088921	0.761318	-0.296925	-0.298220	0.077811	114.904	-0.297433	-4309.1	-1.805749E-5	NaN
1002	1.000000	0.802613	7.37485e+06	-50239.1	1055.82	-29756.3	0.000000	0.000000	6.803039	0.010128	NaN	0.000000	0.001576	0.001625	28.0821	0.043082	0.001813	23.761	136.036	-164.463	-0.003539	0.801287	-0.256925	-0.258251	0.010128	23.761	-0.257245	-1063.27	-9.525607E-6	NaN
1002	1.000000	0.842654	7.37486e+06	-50239.1	1055.82	-29756.3	0.000000	0.000000	6.843078	-0.042365	NaN	0.000000	0.001539	0.001649	28.0821	0.036781	0.001967	18.7028	4.774079	-162.509	-0.017171	0.841347	-0.216884	-0.218191	-0.042365	18.7028	-0.215186	-232.541	0.000182	NaN
1002	1.000000	0.882672	7.37486e+06	-50239.1	1055.82	-29756.3	0.000000	0.000000	6.883100	0.031598	NaN	0.000000	0.001624	0.001684	28.0823	0.117453	0.001997	58.8096	94.5401	-166.162	0.013747	0.881359	-0.176866	-0.178179	0.031598	58.8096	-0.177269	-54.8119	-0.000576	NaN
1002	1.000000	0.922678	7.37486e+06	-50239.1	1055.82	-29756.3	0.000000	0.000000	6.923105	0.024125	NaN	0.000000	0.001643	0.001675	28.0826	0.057902	0.002046	28.2982	-85.7111	-165.151	0.009523	0.921384	-0.136860	-0.138154	0.024125	28.2982	-0.137500	-10.6124	-0.002273	NaN
1002	1.000000	0.962699	7.37486e+06	-50239.1	1055.82	-29756.3	0.000000	0.000000	6.963126	0.018628	NaN	0.000000	0.001547	0.001652	28.0837	0.053376	0.002002	26.6625	-165.396	-164.631	-0.008096	0.961339	-0.096839	-0.098199	0.018628	26.6625	-0.097363	-1.595485	-0.011676	NaN
1002	1.000000	1.002711	7.37486e+06	-50239.1	1055.82	-29756.3	0.000000	0.000000	7.003139	0.051756	NaN	0.000000	0.001520	0.001650	28.0835	0.056749	0.001960	28.9529	-83.9128	-162.946	-0.020059	1.001382	-0.056827	-0.058156	0.051756	28.9529	-0.058168	-0.159454	-0.324582	NaN
1002	1.000000	1.042726	7.37486e+06	-50239.1	1055.82	-29756.3	0.000000	0.000000	7.043154	0.041062	NaN	0.000000	0.001546	0.001663	28.0836	0.069534	0.001955	35.5603	-20.4591	-166.436	0.064142	1.041417	-0.016812	-0.018121	0.041062	35.5603	-0.017678	-0.010950	-3.750108	NaN
1002	2.000000	1.071251	7.37486e+06	-50239.1	1055.82	-29756.3	0.000000	0.000000	7.072288	14.8322	NaN	0.000000	0.001545	0.001612	28.0823	13.9542	0.001903	7333.29	7.008013	-172.738	14.4737	1.070997	0.011713	0.011459	14.8322	7333.29	0.010197	0.009401	1577.78	69102.2
1002	2.000000	1.081214	7.37486e+06	-50239.1	1055.82	-29756.3	0.000000	0.000000	7.083068	34.7237	NaN	0.000000	0.001514	0.001676	28.0823	24.3267	0.001786	13618.5	7.511156	179.639	33.4851	1.080894	0.021676	0.021356	34.7237	13618.5	0.019764	0.022172	1566.08	83559.2
1002	2.000000	1.091168	7.37486e+06	-50239.1	1055.82	-29756.3	0.000000	0.000000	7.094071	60.2295	NaN	0.000000	0.001454	0.001668	28.0825	33.3144	0.001785	18661.2	5.813797	179.145	59.3837	1.090916	0.031630	0.031378	60.2295	18661.2	0.029209	0.039121	1539.59	86200.5
1002	2.000000	1.101136	7.37486e+06	-50239.1	1055.82	-29756.3	0.000000	0.000000	7.105482	95.3167	NaN	0.000000	0.001512	0.001648	28.0823	42.3646	0.001731	24467.3	6.448947	175.512	93.7814	1.100866	0.041598	0.041328	95.3167	24467.3	0.038676	0.060652	1571.54	90768.9
1002	2.000000	1.111100	7.37486e+06	-50239.1	1055.82	-29756.3	0.000000	0.000000	7.116867	129.889	NaN	0.000000	0.001526	0.001667	28.0837	50.9895	0.001799	28343.2	5.031568	175.739	126.5	1.110984	0.051562	0.051446	129.889	28343.2	0.048125	0.086705	1498.06	87942.7
1002	2.000000	1.121113	7.37486e+06	-50239.1	1055.82	-29756.3	0.000000	0.000000	7.128979	180.915	NaN	0.000000	0.001508	0.001656	28.0835	60.5101	0.001912	31647.4	2.378408	178.891	179.603	1.120834	0.061575	0.061296	180.915	31647.4	0.057288	0.116263	1556.08	84799
1002	2.000000	1.131087	7.37486e+06	-50239.1	1055.82	-29756.3	0.000000	0.000000	7.141327	238.661	NaN	0.000000	0.001506	0.001641	28.0835	68.4403	0.001724	39701.7	5.419227	172.741	234.836	1.130844	0.071549	0.071306	238.661	39701.7	0.067041	0.152258	1567.48	92959.2
1002	2.000000	1.141101	7.37486e+06	-50239.1	1055.82	-29756.3	0.000000	0.000000	7.154026	303.941	NaN	0.000000	0.001511	0.001649	28.0824	78.3306	0.001893	41375.8	2.067572	177.475	302.331	1.140750	0.081563	0.081212	303.941	41375.8	0.076054	0.189582	1603.22	86820.2
1002	2.000000	1.151111	7.37486e+06	-50239.1	1055.82	-29756.3	0.000000	0.000000	7.166103	354.233	NaN	0.000000	0.001534	0.001599	28.0824	88.5463	0.001832	48335	1.744520	175.375	353.141	1.150940	0.091573	0.091402	354.233	48335	0.086076	0.235562	1503.77	90987.5
1002	2.000000	1.161193	7.37486e+06	-50239.1	1055.82	-29756.3	0.000000	0.000000	7.179251	428.76	NaN	0.000000	0.001459	0.001636	28.0822	98.6295	0.001916	51484.2	6.015656	171.366	432.748	1.160749	0.101655	0.101211	428.76	51484.2	0.095409	0.282549	1517.47	88491.3
1002	2.000000	1.166087	7.37486e+06	-50239.1	1055.82	-29756.3	0.000000	0.000000	7.186104	476.425	NaN	0.000000	0.001517	0.001634	28.082	101.795	0.001829	55643.4	5.736612	171.286	476.658	1.165666	0.106549	0.106128	476.425	55643.4	0.100127	0.307813	1547.77	91631.2