File: remote_trans/data/nanoindenter/0828-1/data/Data_2025-08-06,11h17m57s/2025-07-22_16-23-58_1_1005.txt
2025-07-22, 16:23:58, 1
Index	Phase	Displacement	Time	Pos X	Pos Y	Pos Z	Rot A	Rot B	Piezo Z	Force A	Force B	Gripper	Voltage A	Voltage B	Temperature	Amplitude force	Amplitude pos	Stiffness	Phase shift	Phase excitation	Force A raw	Displacement raw	HMax	HMax raw	Real Force	Real Stiffness	Contact Depth	Area	Hardness	Reduced Mod.
[#]	[#]	[um]	[s]	[um]	[um]	[um]	[m°]	[m°]	[um]	[uN]	[uN]	[V]	[V]	[V]	[°C]	[uN]	[um]	[N/m]	[°]	[°]	[uN]	[um]	[um]	[um]	[uN]	[N/m]	[um]	[um^2]	[MPa]	[MPa]
1005	1.000000	0.002552	7.37488e+06	-50389.1	1055.82	-29755.8	0.000000	0.000000	6.002822	-0.007847	NaN	0.000000	0.001533	0.001761	28.0828	0.091871	0.000863	106.479	63.7432	-166.346	0.024995	0.001336	-1.110616	-1.111831	-0.007847	106.479	-1.110560	-6.947184E+14	1.129525E-17	NaN
1005	1.000000	0.044494	7.37488e+06	-50389.1	1055.82	-29755.8	0.000000	0.000000	6.044765	0.017181	NaN	0.000000	0.001570	0.001807	28.0828	0.074421	0.001976	37.6711	-119.678	16.6866	-0.001901	0.043085	-1.068673	-1.070083	0.017181	37.6711	-1.069015	-1.922900E+14	-8.935039E-17	NaN
1005	1.000000	0.086496	7.37488e+06	-50389.1	1055.82	-29755.8	0.000000	0.000000	6.086766	0.010414	NaN	0.000000	0.001607	0.001790	28.0817	0.040220	0.001991	20.1996	164.332	-162.455	0.039622	0.085149	-1.026672	-1.028019	0.010414	20.1996	-1.027058	-5.246979E+13	-1.984780E-16	NaN
1005	1.000000	0.128483	7.37488e+06	-50389.1	1055.82	-29755.8	0.000000	0.000000	6.128751	-0.038520	NaN	0.000000	0.001625	0.001850	28.0816	0.089103	0.001916	46.498	156.15	15.1683	-0.042490	0.127126	-0.984685	-0.986041	-0.038520	46.498	-0.984063	-1.384040E+13	2.783127E-15	NaN
1005	1.000000	0.170534	7.37488e+06	-50389.1	1055.82	-29755.8	0.000000	0.000000	6.170805	0.036528	NaN	0.000000	0.001633	0.001763	28.0815	0.074396	0.002021	36.8203	22.0849	-163.519	0.045952	0.169204	-0.942634	-0.943963	0.036528	36.8203	-0.943378	-3.914753E+12	-9.330740E-15	NaN
1005	1.000000	0.212539	7.37488e+06	-50389.1	1055.82	-29755.8	0.000000	0.000000	6.212811	0.049683	NaN	0.000000	0.001576	0.001796	28.0821	0.082671	0.002003	41.2774	-88.6975	19.6186	0.045852	0.211154	-0.900628	-0.902013	0.049683	41.2774	-0.901531	-1.065991E+12	-4.660778E-14	NaN
1005	1.000000	0.254550	7.37488e+06	-50389.1	1055.82	-29755.8	0.000000	0.000000	6.254822	0.033272	NaN	0.000000	0.001556	0.001787	28.0827	0.060324	0.001968	30.6484	138.488	-163.035	-0.009645	0.253256	-0.858617	-0.859912	0.033272	30.6484	-0.859431	-2.873588E+11	-1.157861E-13	NaN
1005	1.000000	0.296571	7.37488e+06	-50389.1	1055.82	-29755.8	0.000000	0.000000	6.296842	0.022807	NaN	0.000000	0.001553	0.001832	28.0828	0.061808	0.002047	30.2002	-69.6914	14.4559	0.004667	0.295191	-0.816596	-0.817977	0.022807	30.2002	-0.817163	-7.686596E+10	-2.967145E-13	NaN
1005	1.000000	0.338597	7.37488e+06	-50389.1	1055.82	-29755.8	0.000000	0.000000	6.338868	0.017911	NaN	0.000000	0.001574	0.001785	28.0829	0.068577	0.001858	36.9071	145.406	-165.437	0.013841	0.337290	-0.774570	-0.775877	0.017911	36.9071	-0.774934	-2.052984E+10	-8.724417E-13	NaN
1005	1.000000	0.380628	7.37488e+06	-50389.1	1055.82	-29755.8	0.000000	0.000000	6.380895	-0.075251	NaN	0.000000	0.001641	0.001789	28.0817	0.100979	0.001925	52.4565	152.9	16.0681	-0.064331	0.379302	-0.732540	-0.733866	-0.075251	52.4565	-0.731464	-5.257217E+9	1.431380E-11	NaN
1005	1.000000	0.422584	7.37488e+06	-50389.1	1055.82	-29755.8	0.000000	0.000000	6.422854	0.008236	NaN	0.000000	0.001592	0.001781	28.0816	0.053122	0.001923	27.6262	88.8928	-166.129	0.058344	0.421347	-0.690584	-0.691821	0.008236	27.6262	-0.690807	-1.465378E+9	-5.620321E-12	NaN
1005	1.000000	0.464649	7.37488e+06	-50389.1	1055.82	-29755.8	0.000000	0.000000	6.464918	-0.030546	NaN	0.000000	0.001600	0.001770	28.0816	0.072052	0.002003	35.9759	-108.93	13.4218	0.025430	0.463227	-0.648519	-0.649940	-0.030546	35.9759	-0.647882	-3.787884E+8	8.064168E-11	NaN
1005	1.000000	0.506638	7.37488e+06	-50389.1	1055.82	-29755.8	0.000000	0.000000	6.506908	0.016753	NaN	0.000000	0.001592	0.001776	28.083	0.027728	0.002053	13.5046	97.0391	-169.236	-0.017326	0.505385	-0.606530	-0.607782	0.016753	13.5046	-0.607460	-1.054792E+8	-1.588269E-10	NaN
1005	1.000000	0.548689	7.37488e+06	-50389.1	1055.82	-29755.8	0.000000	0.000000	6.548961	0.027725	NaN	0.000000	0.001590	0.001796	28.0831	0.043231	0.001912	22.6108	25.1332	13.9222	-0.033184	0.547330	-0.564478	-0.565837	0.027725	22.6108	-0.565398	-2.773468E+7	-9.996407E-10	NaN
1005	1.000000	0.590733	7.37488e+06	-50389.1	1055.82	-29755.8	0.000000	0.000000	6.591001	-0.042530	NaN	0.000000	0.001618	0.001794	28.0833	0.081504	0.002009	40.5788	112.154	-166.635	-0.084940	0.589352	-0.522435	-0.523816	-0.042530	40.5788	-0.521648	-6.86312e+06	6.196824E-9	NaN
1005	1.000000	0.632735	7.37488e+06	-50389.1	1055.82	-29755.8	0.000000	0.000000	6.633005	0.002480	NaN	0.000000	0.001609	0.001771	28.0817	0.065777	0.001920	34.2661	-95.9341	16.5114	0.009803	0.631360	-0.480433	-0.481807	0.002480	34.2661	-0.480487	-1.82955e+06	-1.355409E-9	NaN
1005	1.000000	0.674747	7.37488e+06	-50389.1	1055.82	-29755.8	0.000000	0.000000	6.675018	0.019112	NaN	0.000000	0.001572	0.001741	28.0825	0.174640	0.002001	87.2858	15.1926	-167.197	-0.014561	0.673413	-0.438421	-0.439755	0.019112	87.2858	-0.438585	-471396	-4.054428E-8	NaN
1005	1.000000	0.716766	7.37488e+06	-50389.1	1055.82	-29755.8	0.000000	0.000000	6.717032	-0.099218	NaN	0.000000	0.001581	0.001759	28.0818	0.087543	0.002029	43.1532	95.9182	13.7848	-0.175570	0.715380	-0.396401	-0.397788	-0.099218	43.1532	-0.394677	-112207	8.842457E-7	NaN
1005	1.000000	0.758752	7.37488e+06	-50389.1	1055.82	-29755.8	0.000000	0.000000	6.759019	-0.065889	NaN	0.000000	0.001578	0.001769	28.0828	0.052786	0.002019	26.1504	-7.549539	-164.92	-0.080775	0.757453	-0.354416	-0.355715	-0.065889	26.1504	-0.352526	-27774.4	2.372295E-6	NaN
1005	1.000000	0.800804	7.37488e+06	-50389.1	1055.82	-29755.8	0.000000	0.000000	6.801073	-0.011701	NaN	0.000000	0.001617	0.001727	28.0833	0.131278	0.002013	65.2117	-92.0582	13.9573	-0.017025	0.799451	-0.312364	-0.313717	-0.011701	65.2117	-0.312229	-7145.34	1.637587E-6	NaN
1005	1.000000	0.842823	7.37488e+06	-50389.1	1055.82	-29755.8	0.000000	0.000000	6.843094	0.018314	NaN	0.000000	0.001576	0.001725	28.0831	0.094583	0.002002	47.2505	-120.076	-168.839	-0.026523	0.841574	-0.270345	-0.271593	0.018314	47.2505	-0.270635	-1702.94	-1.075435E-5	NaN
1005	1.000000	0.884812	7.37488e+06	-50389.1	1055.82	-29755.8	0.000000	0.000000	6.885082	-0.019538	NaN	0.000000	0.001529	0.001768	28.0829	0.011653	0.001993	5.846952	144.085	14.7138	-0.068313	0.883483	-0.228355	-0.229685	-0.019538	5.846952	-0.225849	-344.201	5.676375E-5	NaN
1005	1.000000	0.926818	7.37488e+06	-50389.1	1055.82	-29755.8	0.000000	0.000000	6.927089	0.015256	NaN	0.000000	0.001612	0.001791	28.0818	0.065810	0.002152	30.5795	-2.051308	-165.434	-0.033702	0.925522	-0.186349	-0.187646	0.015256	30.5795	-0.186723	-79.2745	-0.000192	NaN
1005	1.000000	0.968851	7.37488e+06	-50389.1	1055.82	-29755.8	0.000000	0.000000	6.969120	-0.037576	NaN	0.000000	0.001589	0.001750	28.0819	0.053275	0.001874	28.4301	-70.6447	9.938006	-0.037551	0.967468	-0.144316	-0.145699	-0.037576	28.4301	-0.143325	-13.649	0.002753	NaN
1005	1.000000	1.010869	7.37488e+06	-50389.1	1055.82	-29755.8	0.000000	0.000000	7.011138	-0.016802	NaN	0.000000	0.001523	0.001731	28.0816	0.068157	0.001959	34.7913	-54.2345	-166.923	0.006189	1.009523	-0.102299	-0.103644	-0.016802	34.7913	-0.101937	-2.015963	0.008334	NaN
1005	1.000000	1.052882	7.37488e+06	-50389.1	1055.82	-29755.8	0.000000	0.000000	7.053157	0.121451	NaN	0.000000	0.001603	0.001748	28.0829	0.118581	0.001955	60.6402	10.5503	13.0217	0.083618	1.051532	-0.060286	-0.061635	0.121451	60.6402	-0.061788	-0.202531	-0.599667	NaN
1005	1.000000	1.094908	7.37488e+06	-50389.1	1055.82	-29755.8	0.000000	0.000000	7.095176	-0.046013	NaN	0.000000	0.001584	0.001730	28.0827	0.069731	0.001979	35.2404	14.7889	-168.922	-0.065248	1.093588	-0.018260	-0.019579	-0.046013	35.2404	-0.017280	-0.010691	4.304016	NaN
1005	2.000000	1.125915	7.37488e+06	-50389.1	1055.82	-29755.8	0.000000	0.000000	7.126703	12.5743	NaN	0.000000	0.001573	0.001750	28.0832	12.016	0.001836	6543.27	7.361992	5.238332	11.6053	1.125606	0.012748	0.012438	12.5743	6543.27	0.011307	0.010670	1178.47	57874.2
1005	2.000000	1.136444	7.37488e+06	-50389.1	1055.82	-29755.8	0.000000	0.000000	7.137967	30.4643	NaN	0.000000	0.001573	0.001763	28.0817	22.3898	0.001833	12214.9	11.2211	177.723	32.3858	1.136039	0.023276	0.022872	30.4643	12214.9	0.021406	0.024800	1228.42	70866.1
1005	2.000000	1.146822	7.37489e+06	-50389.1	1055.82	-29755.8	0.000000	0.000000	7.149451	57.3831	NaN	0.000000	0.001551	0.001793	28.0816	31.6699	0.001742	18177.5	2.256820	1.243799	54.6991	1.146499	0.033654	0.033332	57.3831	18177.5	0.031287	0.043453	1320.59	79670.8
1005	2.000000	1.157303	7.37489e+06	-50389.1	1055.82	-29755.8	0.000000	0.000000	7.161198	88.1578	NaN	0.000000	0.001569	0.001758	28.082	40.4535	0.001634	24755.2	0.703840	179.768	85.5448	1.157075	0.044135	0.043907	88.1578	24755.2	0.041465	0.067868	1298.96	86817.3
1005	2.000000	1.167910	7.37489e+06	-50389.1	1055.82	-29755.8	0.000000	0.000000	7.173743	135.281	NaN	0.000000	0.001575	0.001742	28.0829	50.1234	0.001814	27637.7	4.459933	-3.638414	136.715	1.167521	0.054742	0.054353	135.281	27637.7	0.051071	0.095753	1412.81	81601.7
1005	2.000000	1.178330	7.37489e+06	-50389.1	1055.82	-29755.8	0.000000	0.000000	7.186427	190.337	NaN	0.000000	0.001572	0.001769	28.0832	61.4269	0.001850	33203.1	5.665266	174.118	190.688	1.177957	0.065163	0.064789	190.337	33203.1	0.060863	0.128922	1476.38	84486.9
1005	2.000000	1.188887	7.37489e+06	-50389.1	1055.82	-29755.8	0.000000	0.000000	7.199390	248.832	NaN	0.000000	0.001594	0.001764	28.0831	72.6021	0.001856	39127.4	4.294651	-6.896945	250.937	1.188503	0.075720	0.075335	248.832	39127.4	0.070950	0.167974	1481.37	87223.3
1005	2.000000	1.199267	7.37489e+06	-50389.1	1055.82	-29755.8	0.000000	0.000000	7.212656	319.007	NaN	0.000000	0.001586	0.001778	28.0831	81.069	0.001809	44825.7	3.920709	172.47	317.334	1.198950	0.086100	0.085782	319.007	44825.7	0.080763	0.210603	1514.73	89241.9
1005	2.000000	1.209738	7.37489e+06	-50389.1	1055.82	-29755.8	0.000000	0.000000	7.225981	388.438	NaN	0.000000	0.001576	0.001760	28.082	89.711	0.001796	49947.1	1.336265	-5.695121	383.892	1.209376	0.096570	0.096209	388.438	49947.1	0.090737	0.258529	1502.49	89748.8
1005	2.000000	1.220350	7.37489e+06	-50389.1	1055.82	-29755.8	0.000000	0.000000	7.240495	483.316	NaN	0.000000	0.001626	0.001764	28.082	99.1376	0.001693	58564.9	3.800197	171.184	489.262	1.219876	0.107183	0.106709	483.316	58564.9	0.100993	0.312562	1546.31	95706.7
1005	2.000000	1.220706	7.37489e+06	-50389.1	1055.82	-29755.8	0.000000	0.000000	7.240972	486.264	NaN	0.000000	0.001644	0.001742	28.0819	97.8538	0.001723	56776.7	0.290488	-5.607220	480.912	1.220503	0.107539	0.107335	486.264	56776.7	0.101116	0.313235	1552.39	92684.7