File: remote_trans/data/nanoindenter/0828-1/data/Data_2025-08-06,11h17m57s/2025-07-22_16-23-58_1_591.txt
2025-07-22, 16:23:58, 1
Index	Phase	Displacement	Time	Pos X	Pos Y	Pos Z	Rot A	Rot B	Piezo Z	Force A	Force B	Gripper	Voltage A	Voltage B	Temperature	Amplitude force	Amplitude pos	Stiffness	Phase shift	Phase excitation	Force A raw	Displacement raw	HMax	HMax raw	Real Force	Real Stiffness	Contact Depth	Area	Hardness	Reduced Mod.
[#]	[#]	[um]	[s]	[um]	[um]	[um]	[m°]	[m°]	[um]	[uN]	[uN]	[V]	[V]	[V]	[°C]	[uN]	[um]	[N/m]	[°]	[°]	[uN]	[um]	[um]	[um]	[uN]	[N/m]	[um]	[um^2]	[MPa]	[MPa]
591	1.000000	0.002497	7.37083e+06	-47539.1	1005.82	-29765.6	0.000000	0.000000	6.002810	-0.022885	NaN	0.000000	0.001637	0.001652	28.0811	0.051127	0.001007	50.7929	49.8398	-171.862	-0.021176	0.001200	-1.133055	-1.134351	-0.022885	50.7929	-1.132717	-1.377405E+15	1.661433E-17	NaN
591	1.000000	0.044428	7.37083e+06	-47539.1	1005.82	-29765.6	0.000000	0.000000	6.044742	-0.025225	NaN	0.000000	0.001611	0.001722	28.0809	0.103199	0.002059	50.129	121.414	13.9269	0.004903	0.043031	-1.091123	-1.092520	-0.025225	50.129	-1.090746	-3.765530E+14	6.698917E-17	NaN
591	1.000000	0.086411	7.37083e+06	-47539.1	1005.82	-29765.6	0.000000	0.000000	6.086726	0.013876	NaN	0.000000	0.001662	0.001720	28.0808	0.063363	0.001825	34.7169	20.4683	-165.445	-0.047490	0.085102	-1.049141	-1.050449	0.013876	34.7169	-1.049440	-1.049277E+14	-1.322400E-16	NaN
591	1.000000	0.128415	7.37083e+06	-47539.1	1005.82	-29765.6	0.000000	0.000000	6.128730	0.011717	NaN	0.000000	0.001648	0.001716	28.0796	0.057736	0.001940	29.7588	136.131	11.7967	0.059636	0.127118	-1.007136	-1.008433	0.011717	29.7588	-1.007431	-2.856327E+13	-4.102044E-16	NaN
591	1.000000	0.170433	7.37083e+06	-47539.1	1005.82	-29765.6	0.000000	0.000000	6.170748	0.007417	NaN	0.000000	0.001627	0.001681	28.0797	0.063247	0.001857	34.0566	110.757	-165.396	-0.036325	0.169192	-0.965118	-0.966360	0.007417	34.0566	-0.965282	-7.727994E+12	-9.597035E-16	NaN
591	1.000000	0.212483	7.37083e+06	-47539.1	1005.82	-29765.6	0.000000	0.000000	6.212799	0.045685	NaN	0.000000	0.001561	0.001665	28.0795	0.067230	0.001961	34.2882	-129.092	13.8884	0.016221	0.211135	-0.923069	-0.924416	0.045685	34.2882	-0.924068	-2.148455E+12	-2.126428E-14	NaN
591	1.000000	0.254507	7.37083e+06	-47539.1	1005.82	-29765.6	0.000000	0.000000	6.254823	0.027208	NaN	0.000000	0.001547	0.001728	28.0808	0.071952	0.001962	36.6694	102.36	-167.217	0.046713	0.253158	-0.881044	-0.882393	0.027208	36.6694	-0.881601	-5.732624E+11	-4.746190E-14	NaN
591	1.000000	0.296520	7.37083e+06	-47539.1	1005.82	-29765.6	0.000000	0.000000	6.296833	-0.025309	NaN	0.000000	0.001518	0.001652	28.0807	0.058624	0.001951	30.0529	-105.332	14.8278	-0.076224	0.295216	-0.839032	-0.840335	-0.025309	30.0529	-0.838400	-1.491479E+11	1.696935E-13	NaN
591	1.000000	0.338567	7.37083e+06	-47539.1	1005.82	-29765.6	0.000000	0.000000	6.338883	0.036442	NaN	0.000000	0.001538	0.001726	28.0808	0.025393	0.001885	13.4744	95.7082	-170.277	0.048258	0.337246	-0.796984	-0.798305	0.036442	13.4744	-0.799013	-4.359745E+10	-8.358751E-13	NaN
591	1.000000	0.380562	7.37083e+06	-47539.1	1005.82	-29765.6	0.000000	0.000000	6.380878	0.025006	NaN	0.000000	0.001524	0.001701	28.0797	0.022848	0.002012	11.3557	-171.938	16.3577	-0.015711	0.379264	-0.754989	-0.756288	0.025006	11.3557	-0.756641	-1.157711E+10	-2.159949E-12	NaN
591	1.000000	0.422579	7.37083e+06	-47539.1	1005.82	-29765.6	0.000000	0.000000	6.422895	0.025942	NaN	0.000000	0.001560	0.001716	28.0798	0.091774	0.002161	42.4724	-136.668	-167.03	-0.005231	0.421284	-0.712972	-0.714268	0.025942	42.4724	-0.713430	-2.984410E+9	-8.692567E-12	NaN
591	1.000000	0.464607	7.37083e+06	-47539.1	1005.82	-29765.6	0.000000	0.000000	6.464920	-0.039556	NaN	0.000000	0.001575	0.001707	28.0798	0.045016	0.001895	23.7587	73.0373	12.5188	-0.069419	0.463259	-0.670945	-0.672293	-0.039556	23.7587	-0.669696	-7.537537E+8	5.247923E-11	NaN
591	1.000000	0.506649	7.37083e+06	-47539.1	1005.82	-29765.6	0.000000	0.000000	6.506964	0.014525	NaN	0.000000	0.001605	0.001677	28.0809	0.135332	0.001983	68.2303	-31.8659	-169.165	0.013006	0.505320	-0.628903	-0.630231	0.014525	68.2303	-0.629062	-2.089994E+8	-6.949771E-11	NaN
591	1.000000	0.548628	7.37083e+06	-47539.1	1005.82	-29765.6	0.000000	0.000000	6.548943	0.008491	NaN	0.000000	0.001638	0.001691	28.081	0.117008	0.002112	55.4074	158.341	13.3643	-0.059142	0.547325	-0.586924	-0.588226	0.008491	55.4074	-0.587038	-5.518618E+7	-1.538684E-10	NaN
591	1.000000	0.590642	7.37083e+06	-47539.1	1005.82	-29765.6	0.000000	0.000000	6.590959	0.050368	NaN	0.000000	0.001566	0.001668	28.0811	0.046221	0.002084	22.1753	27.4254	-167.738	-0.031081	0.589356	-0.544910	-0.546195	0.050368	22.1753	-0.546613	-1.524172E+7	-3.304628E-9	NaN
591	1.000000	0.632683	7.37083e+06	-47539.1	1005.82	-29765.6	0.000000	0.000000	6.633000	0.058317	NaN	0.000000	0.001548	0.001679	28.0811	0.110985	0.001973	56.2411	-65.5746	15.1603	-0.030993	0.631290	-0.502868	-0.504261	0.058317	56.2411	-0.503646	-3.85362e+06	-1.513301E-8	NaN
591	1.000000	0.674684	7.37083e+06	-47539.1	1005.82	-29765.6	0.000000	0.000000	6.674999	0.013014	NaN	0.000000	0.001576	0.001666	28.0794	0.092750	0.002130	43.5391	60.6405	-166.916	-0.002372	0.673424	-0.460868	-0.462128	0.013014	43.5391	-0.461092	-978043	-1.330665E-8	NaN
591	1.000000	0.716703	7.37083e+06	-47539.1	1005.82	-29765.6	0.000000	0.000000	6.717021	0.059318	NaN	0.000000	0.001572	0.001726	28.0795	0.120146	0.002061	58.3067	-52.6117	17.0786	0.115852	0.715382	-0.418848	-0.420169	0.059318	58.3067	-0.419611	-254036	-2.335007E-7	NaN
591	1.000000	0.758736	7.37083e+06	-47539.1	1005.82	-29765.6	0.000000	0.000000	6.759053	0.053320	NaN	0.000000	0.001529	0.001650	28.0799	0.060721	0.002107	28.8143	-101.701	-167.711	0.080969	0.757492	-0.376815	-0.378059	0.053320	28.8143	-0.378203	-65177.1	-8.180796E-7	NaN
591	1.000000	0.800763	7.37083e+06	-47539.1	1005.82	-29765.6	0.000000	0.000000	6.801080	0.056446	NaN	0.000000	0.001533	0.001650	28.0812	0.066119	0.001969	33.5869	177.637	13.2179	-0.077829	0.799308	-0.334788	-0.336243	0.056446	33.5869	-0.336048	-15991.9	-3.529683E-6	NaN
591	1.000000	0.842735	7.37083e+06	-47539.1	1005.82	-29765.6	0.000000	0.000000	6.843049	-0.020249	NaN	0.000000	0.001530	0.001642	28.0809	0.089178	0.002097	42.5285	87.5247	-170.795	0.024279	0.841481	-0.292816	-0.294071	-0.020249	42.5285	-0.292459	-3631.69	5.575714E-6	NaN
591	1.000000	0.884770	7.37083e+06	-47539.1	1005.82	-29765.6	0.000000	0.000000	6.885085	0.004563	NaN	0.000000	0.001589	0.001651	28.081	0.097166	0.001977	49.154	50.8622	15.096	0.008447	0.883425	-0.250782	-0.252126	0.004563	49.154	-0.250851	-847.471	-5.383848E-6	NaN
591	1.000000	0.926787	7.37083e+06	-47539.1	1005.82	-29765.6	0.000000	0.000000	6.927101	-0.012230	NaN	0.000000	0.001569	0.001602	28.08	0.078557	0.001907	41.1921	138.928	-165.749	-0.010791	0.925460	-0.208765	-0.210091	-0.012230	41.1921	-0.208542	-181.628	6.733747E-5	NaN
591	1.000000	0.968814	7.37083e+06	-47539.1	1005.82	-29765.6	0.000000	0.000000	6.969128	-0.022279	NaN	0.000000	0.001615	0.001644	28.0798	0.069926	0.002099	33.3122	-69.193	12.1004	-0.042395	0.967446	-0.166737	-0.168105	-0.022279	33.3122	-0.166235	-35.3157	0.000631	NaN
591	1.000000	1.010829	7.37083e+06	-47539.1	1005.82	-29765.6	0.000000	0.000000	7.011143	-0.011293	NaN	0.000000	0.001610	0.001621	28.0798	0.073054	0.001869	39.0863	-83.1842	-169.175	0.024039	1.009488	-0.124722	-0.126063	-0.011293	39.0863	-0.124506	-5.945656	0.001899	NaN
591	1.000000	1.052840	7.37083e+06	-47539.1	1005.82	-29765.6	0.000000	0.000000	7.053155	0.017287	NaN	0.000000	0.001640	0.001630	28.0811	0.016951	0.002037	8.320788	-76.2361	12.7554	-0.034938	1.051518	-0.082712	-0.084034	0.017287	8.320788	-0.084270	-0.788800	-0.021916	NaN
591	1.000000	1.094861	7.37083e+06	-47539.1	1005.82	-29765.6	0.000000	0.000000	7.095177	0.041593	NaN	0.000000	0.001606	0.001644	28.0809	0.086056	0.002020	42.5997	-118.624	-166.295	0.010280	1.093578	-0.040691	-0.041974	0.041593	42.5997	-0.041423	-0.049965	-0.832439	NaN
591	1.000000	1.136847	7.37083e+06	-47539.1	1005.82	-29765.6	0.000000	0.000000	7.137311	3.624636	NaN	0.000000	0.001630	0.001647	28.0809	4.581904	0.001891	2422.65	4.887893	14.3297	1.522646	1.135501	0.001296	-5.078147E-5	3.624636	2422.65	0.000173	0.000130	27862.4	194062
591	2.000000	1.150417	7.37083e+06	-47539.1	1005.82	-29765.6	0.000000	0.000000	7.151682	23.1311	NaN	0.000000	0.001578	0.001632	28.0809	19.7699	0.001834	10776.9	8.071784	-178.864	24.3378	1.150102	0.014865	0.014550	23.1311	10776.9	0.013256	0.013029	1775.35	86260.2
591	2.000000	1.160883	7.37083e+06	-47539.1	1005.82	-29765.6	0.000000	0.000000	7.163123	46.8272	NaN	0.000000	0.001550	0.001640	28.0797	29.9172	0.001813	16502.4	8.784513	-4.426432	47.0951	1.160522	0.025332	0.024971	46.8272	16502.4	0.023203	0.027828	1682.73	90381.5
591	2.000000	1.171318	7.37083e+06	-47539.1	1005.82	-29765.6	0.000000	0.000000	7.174776	76.4625	NaN	0.000000	0.001540	0.001629	28.0796	39.6252	0.001785	22203.8	6.821868	175.932	76.0623	1.171063	0.035766	0.035511	76.4625	22203.8	0.033183	0.047601	1606.33	92980.9
591	2.000000	1.181860	7.37083e+06	-47539.1	1005.82	-29765.6	0.000000	0.000000	7.186874	114.302	NaN	0.000000	0.001542	0.001658	28.0796	48.5164	0.001760	27571.6	2.672630	-2.068727	113.536	1.181494	0.046309	0.045942	114.302	27571.6	0.043199	0.072558	1575.33	93517.4
591	2.000000	1.192329	7.37083e+06	-47539.1	1005.82	-29765.6	0.000000	0.000000	7.199497	166.698	NaN	0.000000	0.001504	0.001649	28.081	60.0842	0.001833	32777.3	5.607465	174.796	165.924	1.191980	0.056778	0.056428	166.698	32777.3	0.052964	0.101793	1637.61	93861.4
591	2.000000	1.202818	7.37083e+06	-47539.1	1005.82	-29765.6	0.000000	0.000000	7.211907	213.412	NaN	0.000000	0.001564	0.001620	28.081	69.8818	0.001869	37389.5	3.095607	-5.394004	211.52	1.202578	0.067267	0.067026	213.412	37389.5	0.062986	0.136733	1560.8	92381.9
591	2.000000	1.213249	7.37084e+06	-47539.1	1005.82	-29765.6	0.000000	0.000000	7.225036	279.055	NaN	0.000000	0.001579	0.001687	28.081	78.8461	0.001757	44866.1	3.075436	173.23	275.203	1.212953	0.077697	0.077401	279.055	44866.1	0.073032	0.176642	1579.78	97531.4
591	2.000000	1.223854	7.37084e+06	-47539.1	1005.82	-29765.6	0.000000	0.000000	7.238372	345.481	NaN	0.000000	0.001585	0.001651	28.0796	88.9046	0.001669	53267.2	6.004104	-10.4731	347.441	1.223580	0.088302	0.088029	345.481	53267.2	0.083438	0.223007	1549.2	103056
591	2.000000	1.234314	7.37084e+06	-47539.1	1005.82	-29765.6	0.000000	0.000000	7.252620	437.599	NaN	0.000000	0.001607	0.001593	28.0796	99.3324	0.001813	54804	6.800769	169.623	436.978	1.233757	0.098763	0.098206	437.599	54804	0.092774	0.268878	1627.5	96562.3
591	2.000000	1.239316	7.37084e+06	-47539.1	1005.82	-29765.6	0.000000	0.000000	7.259025	471.737	NaN	0.000000	0.001634	0.001603	28.0794	104.909	0.001821	57623.5	6.681647	168.298	475.31	1.238973	0.103765	0.103422	471.737	57623.5	0.097625	0.294287	1602.98	97048.1