File: remote_trans/data/nanoindenter/0828-1/data/Data_2025-08-06,11h17m57s/2025-07-22_16-23-58_1_779.txt
2025-07-22, 16:23:58, 1
Index	Phase	Displacement	Time	Pos X	Pos Y	Pos Z	Rot A	Rot B	Piezo Z	Force A	Force B	Gripper	Voltage A	Voltage B	Temperature	Amplitude force	Amplitude pos	Stiffness	Phase shift	Phase excitation	Force A raw	Displacement raw	HMax	HMax raw	Real Force	Real Stiffness	Contact Depth	Area	Hardness	Reduced Mod.
[#]	[#]	[um]	[s]	[um]	[um]	[um]	[m°]	[m°]	[um]	[uN]	[uN]	[V]	[V]	[V]	[°C]	[uN]	[um]	[N/m]	[°]	[°]	[uN]	[um]	[um]	[um]	[uN]	[N/m]	[um]	[um^2]	[MPa]	[MPa]
779	1.000000	0.002073	7.37267e+06	-39089.1	1055.82	-29795.1	0.000000	0.000000	6.002785	-0.092599	NaN	0.000000	0.001625	0.001735	28.0831	0.062068	0.000807	76.941	179.762	-161.955	-0.094446	0.000831	-1.043425	-1.044667	-0.092599	76.941	-1.042522	-8.469885E+13	1.093269E-15	NaN
779	1.000000	0.042005	7.37267e+06	-39089.1	1055.82	-29795.1	0.000000	0.000000	6.042721	0.006219	NaN	0.000000	0.001648	0.001748	28.0831	0.035282	0.001988	17.7438	176.512	-164.039	-0.008372	0.040728	-1.003492	-1.004770	0.006219	17.7438	-1.003755	-2.548737E+13	-2.440146E-16	NaN
779	1.000000	0.082052	7.37267e+06	-39089.1	1055.82	-29795.2	0.000000	0.000000	6.082764	-0.095256	NaN	0.000000	0.001649	0.001744	28.083	0.069250	0.001995	34.708	63.3581	-163.28	-0.059270	0.080705	-0.963446	-0.964792	-0.095256	34.708	-0.961387	-6.848106E+12	1.390989E-14	NaN
779	1.000000	0.122068	7.37267e+06	-39089.1	1055.82	-29795.2	0.000000	0.000000	6.122783	-0.019445	NaN	0.000000	0.001635	0.001717	28.0839	0.090955	0.002046	44.4467	166.514	-165.678	-0.064568	0.120718	-0.923430	-0.924779	-0.019445	44.4467	-0.923102	-2.084879E+12	9.326875E-15	NaN
779	1.000000	0.162090	7.37267e+06	-39089.1	1055.82	-29795.2	0.000000	0.000000	6.162803	-0.066855	NaN	0.000000	0.001562	0.001724	28.0836	0.084354	0.002116	39.8558	-125.696	-165.464	-0.052396	0.160760	-0.883407	-0.884738	-0.066855	39.8558	-0.882149	-5.831422E+11	1.146468E-13	NaN
779	1.000000	0.202101	7.37267e+06	-39089.1	1055.82	-29795.2	0.000000	0.000000	6.202816	-0.035194	NaN	0.000000	0.001636	0.001716	28.0836	0.075811	0.002035	37.2561	151.52	-165.637	-0.049947	0.200811	-0.843396	-0.844687	-0.035194	37.2561	-0.842688	-1.704908E+11	2.064284E-13	NaN
779	1.000000	0.242102	7.37267e+06	-39089.1	1055.82	-29795.2	0.000000	0.000000	6.242821	0.070109	NaN	0.000000	0.001590	0.001725	28.0824	0.100891	0.002004	50.3345	15.5583	-168.131	0.052508	0.240771	-0.803396	-0.804726	0.070109	50.3345	-0.804440	-5.165702E+10	-1.357206E-12	NaN
779	1.000000	0.282160	7.37267e+06	-39089.1	1055.82	-29795.2	0.000000	0.000000	6.282873	-0.083951	NaN	0.000000	0.001565	0.001704	28.0825	0.002165	0.002167	0.998758	59.5897	-163.807	-0.083211	0.280831	-0.763337	-0.764667	-0.083951	0.998758	-0.700296	-1.975022E+9	4.250613E-11	NaN
779	1.000000	0.322155	7.37267e+06	-39089.1	1055.82	-29795.2	0.000000	0.000000	6.322870	-0.023502	NaN	0.000000	0.001620	0.001738	28.0824	0.035669	0.002063	17.2897	-42.1657	-163.131	-0.101585	0.320822	-0.723343	-0.724675	-0.023502	17.2897	-0.722323	-3.945963E+9	5.955924E-12	NaN
779	1.000000	0.362166	7.37268e+06	-39089.1	1055.82	-29795.2	0.000000	0.000000	6.362880	-0.061600	NaN	0.000000	0.001601	0.001710	28.0836	0.039347	0.001922	20.4723	-106.666	-160.268	-0.008182	0.360863	-0.683331	-0.684635	-0.061600	20.4723	-0.681074	-1.078696E+9	5.710626E-11	NaN
779	1.000000	0.402169	7.37268e+06	-39089.1	1055.82	-29795.2	0.000000	0.000000	6.402885	0.017345	NaN	0.000000	0.001638	0.001749	28.0841	0.033991	0.001986	17.1125	179.215	-165.509	-0.004654	0.400878	-0.643329	-0.644619	0.017345	17.1125	-0.644089	-3.360335E+8	-5.161573E-11	NaN
779	1.000000	0.442232	7.37268e+06	-39089.1	1055.82	-29795.2	0.000000	0.000000	6.442948	0.005845	NaN	0.000000	0.001607	0.001724	28.0841	0.088459	0.002094	42.253	94.0988	-166.875	0.039781	0.440846	-0.603265	-0.604652	0.005845	42.253	-0.603369	-9.265177E+7	-6.308806E-11	NaN
779	1.000000	0.482212	7.37268e+06	-39089.1	1055.82	-29795.2	0.000000	0.000000	6.482929	0.025772	NaN	0.000000	0.001634	0.001697	28.0836	0.107378	0.002005	53.5531	122.85	-165.712	0.085336	0.480920	-0.563285	-0.564578	0.025772	53.5531	-0.563646	-2.623043E+7	-9.825260E-10	NaN
779	1.000000	0.522241	7.37268e+06	-39089.1	1055.82	-29795.2	0.000000	0.000000	6.522956	-0.026661	NaN	0.000000	0.001592	0.001750	28.0824	0.017020	0.001974	8.621046	-111.75	-162.796	-0.036205	0.520895	-0.523257	-0.524602	-0.026661	8.621046	-0.520937	-6.70859e+06	3.974181E-9	NaN
779	1.000000	0.562233	7.37268e+06	-39089.1	1055.82	-29795.2	0.000000	0.000000	6.562950	0.021470	NaN	0.000000	0.001513	0.001728	28.0824	0.155606	0.002047	76.0113	-70.9769	-164.317	0.055221	0.560943	-0.483264	-0.484554	0.021470	76.0113	-0.483476	-2.01451e+06	-1.065749E-8	NaN
779	1.000000	0.602267	7.37268e+06	-39089.1	1055.82	-29795.2	0.000000	0.000000	6.602983	0.006663	NaN	0.000000	0.001602	0.001741	28.0827	0.084565	0.002044	41.3719	-175.09	-162.079	0.067802	0.600943	-0.443231	-0.444555	0.006663	41.3719	-0.443351	-550358	-1.210593E-8	NaN
779	1.000000	0.642277	7.37268e+06	-39089.1	1055.82	-29795.2	0.000000	0.000000	6.642992	-0.022099	NaN	0.000000	0.001604	0.001733	28.084	0.057586	0.001994	28.8746	-108.674	-164.495	-0.002199	0.640965	-0.403220	-0.404533	-0.022099	28.8746	-0.402646	-145786	1.515825E-7	NaN
779	1.000000	0.682279	7.37268e+06	-39089.1	1055.82	-29795.2	0.000000	0.000000	6.682994	-0.034136	NaN	0.000000	0.001593	0.001723	28.0839	0.032220	0.002001	16.1057	-45.5844	-166.682	-0.129999	0.680979	-0.363219	-0.364518	-0.034136	16.1057	-0.361629	-37617.1	9.074490E-7	NaN
779	1.000000	0.722295	7.37268e+06	-39089.1	1055.82	-29795.2	0.000000	0.000000	6.723012	0.027460	NaN	0.000000	0.001693	0.001739	28.0835	0.038137	0.001881	20.2711	77.3706	-165.297	0.113375	0.721008	-0.323203	-0.324490	0.027460	20.2711	-0.324219	-10731.6	-2.558837E-6	NaN
779	1.000000	0.762327	7.37268e+06	-39089.1	1055.82	-29795.2	0.000000	0.000000	6.763041	-0.044144	NaN	0.000000	0.001698	0.001764	28.0839	0.061131	0.001908	32.0321	160.561	-164.345	-0.019240	0.760977	-0.283171	-0.284520	-0.044144	32.0321	-0.282137	-2542.05	1.736550E-5	NaN
779	1.000000	0.802335	7.37268e+06	-39089.1	1055.82	-29795.2	0.000000	0.000000	6.803049	-0.034166	NaN	0.000000	0.001592	0.001724	28.0825	0.094132	0.002001	47.0333	-121.277	-165.289	-0.017478	0.801031	-0.243163	-0.244467	-0.034166	47.0333	-0.242618	-631.522	5.410120E-5	NaN
779	1.000000	0.842346	7.37268e+06	-39089.1	1055.82	-29795.2	0.000000	0.000000	6.843059	-0.068723	NaN	0.000000	0.001574	0.001758	28.0822	0.121972	0.001929	63.2274	13.7421	-165.016	-0.016819	0.841052	-0.203152	-0.204445	-0.068723	63.2274	-0.202337	-143.89	0.000478	NaN
779	1.000000	0.882376	7.37268e+06	-39089.1	1055.82	-29795.2	0.000000	0.000000	6.883094	0.037204	NaN	0.000000	0.001607	0.001747	28.0822	0.079446	0.001988	39.9591	108.136	-163.583	-0.020042	0.881071	-0.163121	-0.164426	0.037204	39.9591	-0.163819	-32.0289	-0.001162	NaN
779	1.000000	0.922387	7.37268e+06	-39089.1	1055.82	-29795.2	0.000000	0.000000	6.923100	-0.074178	NaN	0.000000	0.001574	0.001710	28.0837	0.068585	0.002077	33.0131	-33.7026	-164.307	-0.057525	0.921112	-0.123111	-0.124385	-0.074178	33.0131	-0.121425	-5.161407	0.014372	NaN
779	1.000000	0.962406	7.37268e+06	-39089.1	1055.82	-29795.2	0.000000	0.000000	6.963123	0.014371	NaN	0.000000	0.001641	0.001725	28.0835	0.071982	0.001860	38.7022	-157.165	-166.804	0.039298	0.961096	-0.083091	-0.084402	0.014371	38.7022	-0.083370	-0.749921	-0.019163	NaN
779	1.000000	1.002438	7.37268e+06	-39089.1	1055.82	-29795.2	0.000000	0.000000	7.003154	-0.006404	NaN	0.000000	0.001656	0.001717	28.0835	0.047609	0.002044	23.2973	-128.336	-165.779	-0.036629	1.001145	-0.043059	-0.044352	-0.006404	23.2973	-0.042853	-0.055249	0.115910	NaN
779	1.000000	1.042465	7.37268e+06	-39089.1	1055.82	-29795.2	0.000000	0.000000	7.043199	0.428611	NaN	0.000000	0.001596	0.001734	28.0827	0.653338	0.002026	322.505	14.0952	-167.013	0.437179	1.041103	-0.003032	-0.004395	0.428611	322.505	-0.004029	-0.002797	-153.218	NaN
779	2.000000	1.058061	7.37268e+06	-39089.1	1055.82	-29795.2	0.000000	0.000000	7.059674	21.8206	NaN	0.000000	0.001651	0.001696	28.0825	16.8927	0.001773	9527.6	7.541448	-177.172	22.1292	1.057742	0.012564	0.012244	21.8206	9527.6	0.010846	0.010137	2152.48	86455.7
779	2.000000	1.067985	7.37268e+06	-39089.1	1055.82	-29795.2	0.000000	0.000000	7.070571	45.5096	NaN	0.000000	0.001604	0.001761	28.0824	26.9221	0.001768	15230	2.563677	-176.578	43.9405	1.067705	0.022487	0.022208	45.5096	15230	0.020246	0.022931	1984.65	91889.1
779	2.000000	1.077958	7.37268e+06	-39089.1	1055.82	-29795.2	0.000000	0.000000	7.081893	78.3353	NaN	0.000000	0.001662	0.001744	28.0823	36.9443	0.001804	20484.5	8.611739	175.605	76.1006	1.077624	0.032461	0.032127	78.3353	20484.5	0.029593	0.039904	1963.1	93689.8
779	2.000000	1.087926	7.37268e+06	-39089.1	1055.82	-29795.2	0.000000	0.000000	7.093504	118.326	NaN	0.000000	0.001664	0.001745	28.0836	46.8365	0.001779	26327.3	6.255187	175.244	116.578	1.087648	0.042429	0.042150	118.326	26327.3	0.039058	0.061616	1920.38	96901.9
779	2.000000	1.097922	7.37268e+06	-39089.1	1055.82	-29795.2	0.000000	0.000000	7.105360	163.58	NaN	0.000000	0.001647	0.001723	28.0838	56.6004	0.001833	30878.4	3.448160	177.066	161.969	1.097735	0.052425	0.052238	163.58	30878.4	0.048452	0.087688	1865.48	95270.2
779	2.000000	1.107899	7.37268e+06	-39089.1	1055.82	-29795.2	0.000000	0.000000	7.117569	217.908	NaN	0.000000	0.001681	0.001717	28.0837	64.4239	0.001799	35812.4	1.452929	177.795	215.417	1.107633	0.062401	0.062136	217.908	35812.4	0.057838	0.118169	1844.03	95182
779	2.000000	1.117923	7.37268e+06	-39089.1	1055.82	-29795.2	0.000000	0.000000	7.130381	285.753	NaN	0.000000	0.001685	0.001740	28.0828	74.5805	0.001833	40695.3	4.456476	174.164	287.945	1.117610	0.072425	0.072113	285.753	40695.3	0.067159	0.152723	1871.05	95140.4
779	2.000000	1.127902	7.37268e+06	-39089.1	1055.82	-29795.2	0.000000	0.000000	7.142902	347.602	NaN	0.000000	0.001668	0.001774	28.0828	83.371	0.001701	49007.3	6.109510	170.769	348.266	1.127553	0.082404	0.082055	347.602	49007.3	0.077085	0.194096	1790.88	101631
779	2.000000	1.137869	7.37268e+06	-39089.1	1055.82	-29795.2	0.000000	0.000000	7.156121	426.732	NaN	0.000000	0.001638	0.001754	28.0824	93.8075	0.001805	51970.8	4.667587	172.418	424.463	1.137572	0.092372	0.092075	426.732	51970.8	0.086214	0.236226	1806.46	97694.3
779	2.000000	1.147744	7.37268e+06	-39089.1	1055.82	-29795.2	0.000000	0.000000	7.169632	515.215	NaN	0.000000	0.001578	0.001773	28.083	103.136	0.001782	57876.8	5.171029	171.231	507.983	1.147409	0.102247	0.101912	515.215	57876.8	0.095570	0.283393	1818.02	99330.6
779	2.000000	1.148462	7.37268e+06	-39089.1	1055.82	-29795.2	0.000000	0.000000	7.170425	517.048	NaN	0.000000	0.001572	0.001784	28.0827	104.854	0.001798	58327.5	8.920755	-12.4371	518.293	1.147927	0.102965	0.102430	517.048	58327.5	0.096316	0.287325	1799.52	99416.8