File: remote_trans/data/nanoindenter/0828-1/data/Data_2025-08-06,11h17m57s/2025-07-22_16-23-58_1_577.txt
2025-07-22, 16:23:58, 1
Index	Phase	Displacement	Time	Pos X	Pos Y	Pos Z	Rot A	Rot B	Piezo Z	Force A	Force B	Gripper	Voltage A	Voltage B	Temperature	Amplitude force	Amplitude pos	Stiffness	Phase shift	Phase excitation	Force A raw	Displacement raw	HMax	HMax raw	Real Force	Real Stiffness	Contact Depth	Area	Hardness	Reduced Mod.
[#]	[#]	[um]	[s]	[um]	[um]	[um]	[m°]	[m°]	[um]	[uN]	[uN]	[V]	[V]	[V]	[°C]	[uN]	[um]	[N/m]	[°]	[°]	[uN]	[um]	[um]	[um]	[uN]	[N/m]	[um]	[um^2]	[MPa]	[MPa]
577	1.000000	0.002700	7.37069e+06	-48239.1	1005.82	-29763.1	0.000000	0.000000	6.002779	-0.030162	NaN	0.000000	0.001600	0.001721	28.0807	0.116005	0.000986	117.624	-15.822	-161.301	-0.028676	0.001431	-1.150406	-1.151675	-0.030162	117.624	-1.150214	-2.364201E+15	1.275792E-17	NaN
577	1.000000	0.044688	7.37069e+06	-48239.1	1005.82	-29763.1	0.000000	0.000000	6.044766	-0.077311	NaN	0.000000	0.001572	0.001691	28.0821	0.125739	0.001971	63.785	-29.613	17.4301	-0.082654	0.043306	-1.108418	-1.109800	-0.077311	63.785	-1.107509	-6.322000E+14	1.222893E-16	NaN
577	1.000000	0.086700	7.37069e+06	-48239.1	1005.82	-29763.1	0.000000	0.000000	6.086780	-0.029081	NaN	0.000000	0.001596	0.001741	28.0822	0.063025	0.002058	30.6255	-83.3288	-165.453	-0.061438	0.085358	-1.066406	-1.067749	-0.029081	30.6255	-1.065694	-1.735123E+14	1.676008E-16	NaN
577	1.000000	0.128704	7.37069e+06	-48239.1	1005.82	-29763.1	0.000000	0.000000	6.128783	-0.035896	NaN	0.000000	0.001611	0.001699	28.082	0.078677	0.002076	37.9047	-4.927803	18.7873	-0.081999	0.127273	-1.024402	-1.025833	-0.035896	37.9047	-1.023691	-4.727340E+13	7.593230E-16	NaN
577	1.000000	0.170740	7.37069e+06	-48239.1	1005.82	-29763.1	0.000000	0.000000	6.170821	0.010969	NaN	0.000000	0.001617	0.001743	28.0807	0.111115	0.001965	56.5464	76.7386	-162.542	0.013327	0.169406	-0.982366	-0.983700	0.010969	56.5464	-0.982511	-1.318989E+13	-8.316006E-16	NaN
577	1.000000	0.212762	7.37069e+06	-48239.1	1005.82	-29763.1	0.000000	0.000000	6.212842	-0.007219	NaN	0.000000	0.001593	0.001722	28.0806	0.079387	0.001950	40.7034	-73.7939	13.6719	-0.058969	0.211403	-0.940344	-0.941703	-0.007219	40.7034	-0.940211	-3.548001E+12	2.034591E-15	NaN
577	1.000000	0.254757	7.37069e+06	-48239.1	1005.82	-29763.1	0.000000	0.000000	6.254833	-0.105328	NaN	0.000000	0.001556	0.001708	28.0808	0.030373	0.001897	16.0076	115.819	-163.672	-0.072086	0.253424	-0.898349	-0.899682	-0.105328	16.0076	-0.893414	-8.280570E+11	1.271984E-13	NaN
577	1.000000	0.296791	7.37069e+06	-48239.1	1005.82	-29763.1	0.000000	0.000000	6.296869	-0.064152	NaN	0.000000	0.001599	0.001712	28.082	0.116321	0.001946	59.7654	45.8845	12.0471	-0.088629	0.295356	-0.856315	-0.857750	-0.064152	59.7654	-0.855510	-2.542957E+11	2.522723E-13	NaN
577	1.000000	0.338788	7.37069e+06	-48239.1	1005.82	-29763.1	0.000000	0.000000	6.338867	-0.030993	NaN	0.000000	0.001580	0.001686	28.0819	0.022374	0.002087	10.7184	-58.6496	-166.494	-0.001858	0.337487	-0.814318	-0.815620	-0.030993	10.7184	-0.812149	-6.572507E+10	4.715572E-13	NaN
577	1.000000	0.380797	7.37069e+06	-48239.1	1005.82	-29763.1	0.000000	0.000000	6.380876	-0.034504	NaN	0.000000	0.001566	0.001731	28.0818	0.046976	0.002037	23.0636	13.8329	12.1427	-0.035471	0.379406	-0.772309	-0.773700	-0.034504	23.0636	-0.771187	-1.825786E+10	1.889823E-12	NaN
577	1.000000	0.422823	7.37069e+06	-48239.1	1005.82	-29763.1	0.000000	0.000000	6.422903	-0.010044	NaN	0.000000	0.001581	0.001743	28.0806	0.027654	0.002088	13.2447	-18.1335	-163.616	-0.034105	0.421499	-0.730283	-0.731607	-0.010044	13.2447	-0.729714	-4.976358E+9	2.018253E-12	NaN
577	1.000000	0.464860	7.37069e+06	-48239.1	1005.82	-29763.1	0.000000	0.000000	6.464939	-0.039968	NaN	0.000000	0.001570	0.001725	28.0807	0.021906	0.002077	10.5479	-108.93	16.3432	-0.026184	0.463467	-0.688246	-0.689639	-0.039968	10.5479	-0.685404	-1.236240E+9	3.233000E-11	NaN
577	1.000000	0.506866	7.37069e+06	-48239.1	1005.82	-29763.1	0.000000	0.000000	6.506947	-0.000825	NaN	0.000000	0.001593	0.001750	28.0805	0.084069	0.002015	41.7283	-13.609	-166.172	-0.012750	0.505594	-0.646240	-0.647512	-0.000825	41.7283	-0.646225	-3.594814E+8	2.295819E-12	NaN
577	1.000000	0.548904	7.37069e+06	-48239.1	1005.82	-29763.1	0.000000	0.000000	6.548987	0.057194	NaN	0.000000	0.001589	0.001707	28.0806	0.094358	0.001953	48.3148	-78.6278	15.335	0.003025	0.547545	-0.604202	-0.605561	0.057194	48.3148	-0.605090	-9.784582E+7	-5.845279E-10	NaN
577	1.000000	0.590918	7.37069e+06	-48239.1	1005.82	-29763.1	0.000000	0.000000	6.590998	-0.011728	NaN	0.000000	0.001570	0.001706	28.082	0.032789	0.001879	17.4469	-149.437	-162.578	-0.024698	0.589582	-0.562188	-0.563524	-0.011728	17.4469	-0.561683	-2.464135E+7	4.759361E-10	NaN
577	1.000000	0.632920	7.37069e+06	-48239.1	1005.82	-29763.1	0.000000	0.000000	6.632998	-0.071934	NaN	0.000000	0.001567	0.001758	28.0818	0.131113	0.002049	64.0029	174.925	16.7014	-0.107266	0.631561	-0.520186	-0.521546	-0.071934	64.0029	-0.519343	-6.37467e+06	1.128436E-8	NaN
577	1.000000	0.674949	7.37069e+06	-48239.1	1005.82	-29763.1	0.000000	0.000000	6.675028	-0.032788	NaN	0.000000	0.001570	0.001730	28.0822	0.069691	0.001893	36.8112	149.207	-166.165	-0.083718	0.673588	-0.478157	-0.479518	-0.032788	36.8112	-0.477489	-1.66099e+06	1.973992E-8	NaN
577	1.000000	0.716958	7.37069e+06	-48239.1	1005.82	-29763.1	0.000000	0.000000	6.717035	-0.094242	NaN	0.000000	0.001570	0.001738	28.081	0.057422	0.001998	28.7343	129.923	16.886	-0.027963	0.715586	-0.436148	-0.437520	-0.094242	28.7343	-0.433688	-401985	2.344411E-7	NaN
577	1.000000	0.758978	7.37069e+06	-48239.1	1005.82	-29763.1	0.000000	0.000000	6.759058	-0.017305	NaN	0.000000	0.001581	0.001672	28.0808	0.057791	0.001978	29.2224	-177.058	-167.276	-0.049152	0.757654	-0.394128	-0.395452	-0.017305	29.2224	-0.393684	-108600	1.593488E-7	NaN
577	1.000000	0.801011	7.3707e+06	-48239.1	1005.82	-29763.1	0.000000	0.000000	6.801089	-0.047814	NaN	0.000000	0.001609	0.001723	28.081	0.062198	0.001977	31.4555	-121.796	18.2007	-0.049874	0.799648	-0.352095	-0.353458	-0.047814	31.4555	-0.350955	-26355.2	1.814230E-6	NaN
577	1.000000	0.842995	7.3707e+06	-48239.1	1005.82	-29763.1	0.000000	0.000000	6.843073	-0.052053	NaN	0.000000	0.001606	0.001716	28.0821	0.136008	0.001985	68.5096	151.143	-164.289	-0.049668	0.841686	-0.310111	-0.311420	-0.052053	68.5096	-0.309542	-6520.35	7.983162E-6	NaN
577	1.000000	0.885015	7.3707e+06	-48239.1	1005.82	-29763.1	0.000000	0.000000	6.885096	0.018077	NaN	0.000000	0.001589	0.001738	28.082	0.029226	0.001835	15.9277	149.014	17.8471	0.095986	0.883688	-0.268091	-0.269418	0.018077	15.9277	-0.268942	-1604.94	-1.126338E-5	NaN
577	1.000000	0.927061	7.3707e+06	-48239.1	1005.82	-29763.1	0.000000	0.000000	6.927139	-0.061571	NaN	0.000000	0.001572	0.001709	28.0818	0.102446	0.002001	51.2029	-131.565	-163.614	-0.033089	0.925779	-0.226045	-0.227327	-0.061571	51.2029	-0.225144	-335.44	0.000184	NaN
577	1.000000	0.969026	7.3707e+06	-48239.1	1005.82	-29763.1	0.000000	0.000000	6.969106	-0.021469	NaN	0.000000	0.001561	0.001743	28.0805	0.075937	0.001916	39.6259	-144.719	13.7844	-0.045518	0.967679	-0.184080	-0.185427	-0.021469	39.6259	-0.183673	-70.4281	0.000305	NaN
577	1.000000	1.011082	7.3707e+06	-48239.1	1005.82	-29763.1	0.000000	0.000000	7.011161	-0.036463	NaN	0.000000	0.001559	0.001717	28.0811	0.059279	0.002083	28.4556	-133.75	-162.794	-0.007327	1.009707	-0.142024	-0.143399	-0.036463	28.4556	-0.141063	-12.3849	0.002944	NaN
577	1.000000	1.053092	7.3707e+06	-48239.1	1005.82	-29763.1	0.000000	0.000000	7.053168	-0.097136	NaN	0.000000	0.001565	0.001724	28.0802	0.078595	0.001990	39.4985	107.303	15.5917	-0.085829	1.051724	-0.100014	-0.101382	-0.097136	39.4985	-0.098170	-1.663439	0.058395	NaN
577	1.000000	1.095121	7.3707e+06	-48239.1	1005.82	-29763.1	0.000000	0.000000	7.095203	0.031542	NaN	0.000000	0.001590	0.001766	28.0805	0.048081	0.001885	25.5024	174.708	-164.364	0.013702	1.093815	-0.057985	-0.059291	0.031542	25.5024	-0.058913	-0.167574	-0.188229	NaN
577	1.000000	1.137116	7.3707e+06	-48239.1	1005.82	-29763.1	0.000000	0.000000	7.137194	-0.058046	NaN	0.000000	0.001579	0.001743	28.0819	0.063897	0.002019	31.6407	-57.6392	15.083	-0.135394	1.135739	-0.015990	-0.017367	-0.058046	31.6407	-0.014614	-0.009045	6.417220	NaN
577	2.000000	1.163653	7.3707e+06	-48239.1	1005.82	-29763.1	0.000000	0.000000	7.164397	16.1249	NaN	0.000000	0.001495	0.001656	28.0822	15.4378	0.001748	8832.08	6.916594	-174.252	16.0087	1.163331	0.010547	0.010225	16.1249	8832.08	0.009178	0.008282	1946.93	88667.3
577	2.000000	1.174084	7.3707e+06	-48239.1	1005.82	-29763.1	0.000000	0.000000	7.176390	54.1203	NaN	0.000000	0.001580	0.001709	28.0825	27.0475	0.001801	15017.1	4.656640	3.477926	54.1004	1.173618	0.020978	0.020512	54.1203	15017.1	0.018275	0.019904	2719	97248.6
577	2.000000	1.184528	7.3707e+06	-48239.1	1005.82	-29763.1	0.000000	0.000000	7.188787	101.639	NaN	0.000000	0.001619	0.001652	28.0818	39.0194	0.001966	19846.1	6.788040	178.198	100.484	1.184199	0.031422	0.031093	101.639	19846.1	0.027581	0.035879	2832.85	95725.9
577	2.000000	1.195017	7.3707e+06	-48239.1	1005.82	-29763.1	0.000000	0.000000	7.201905	165.569	NaN	0.000000	0.001579	0.001667	28.0813	47.8085	0.001639	29170.1	5.850493	-5.085733	162.308	1.194679	0.041911	0.041573	165.569	29170.1	0.037654	0.058106	2849.42	110560
577	2.000000	1.205462	7.3707e+06	-48239.1	1005.82	-29763.1	0.000000	0.000000	7.215832	250.25	NaN	0.000000	0.001641	0.001650	28.081	58.6011	0.001843	31794.5	4.037327	177.199	246.817	1.205227	0.052356	0.052121	250.25	31794.5	0.046453	0.081766	3060.55	101587
577	2.000000	1.216016	7.3707e+06	-48239.1	1005.82	-29763.1	0.000000	0.000000	7.230004	338.252	NaN	0.000000	0.001682	0.001697	28.082	70.5255	0.001787	39458.5	3.072470	-4.247465	336.451	1.215861	0.062910	0.062755	338.252	39458.5	0.056481	0.113493	2980.39	107011
577	2.000000	1.226456	7.3707e+06	-48239.1	1005.82	-29763.1	0.000000	0.000000	7.245507	461.407	NaN	0.000000	0.001647	0.001678	28.0822	81.8832	0.001707	47964.6	6.661862	170.552	458.386	1.226177	0.073350	0.073071	461.407	47964.6	0.066135	0.148722	3102.48	113633
577	2.000000	1.236814	7.3707e+06	-48239.1	1005.82	-29763.1	0.000000	0.000000	7.261409	596.232	NaN	0.000000	0.001613	0.001689	28.0819	91.865	0.001804	50919.1	5.102535	-8.189092	583.656	1.236543	0.083708	0.083437	596.232	50919.1	0.074926	0.184701	3228.09	108248
577	2.000000	1.247378	7.3707e+06	-48239.1	1005.82	-29763.1	0.000000	0.000000	7.276729	711.928	NaN	0.000000	0.001543	0.001704	28.0807	101.522	0.001805	56259.7	2.125251	174.536	706.235	1.247073	0.094272	0.093967	711.928	56259.7	0.084781	0.229359	3104	107328
577	2.000000	1.256853	7.3707e+06	-48239.1	1005.82	-29763.1	0.000000	0.000000	7.291780	847.535	NaN	0.000000	0.001608	0.001706	28.0806	110.002	0.001883	58417.3	3.943945	-7.670758	838.362	1.256599	0.103747	0.103493	847.535	58417.3	0.092866	0.269346	3146.64	102839