File: remote_trans/data/nanoindenter/0828-1/data/Data_2025-08-06,11h17m57s/2025-07-22_16-23-58_1_538.txt
2025-07-22, 16:23:58, 1
Index	Phase	Displacement	Time	Pos X	Pos Y	Pos Z	Rot A	Rot B	Piezo Z	Force A	Force B	Gripper	Voltage A	Voltage B	Temperature	Amplitude force	Amplitude pos	Stiffness	Phase shift	Phase excitation	Force A raw	Displacement raw	HMax	HMax raw	Real Force	Real Stiffness	Contact Depth	Area	Hardness	Reduced Mod.
[#]	[#]	[um]	[s]	[um]	[um]	[um]	[m°]	[m°]	[um]	[uN]	[uN]	[V]	[V]	[V]	[°C]	[uN]	[um]	[N/m]	[°]	[°]	[uN]	[um]	[um]	[um]	[uN]	[N/m]	[um]	[um^2]	[MPa]	[MPa]
538	1.000000	0.002222	7.37031e+06	-50189.1	1005.82	-29756.5	0.000000	0.000000	6.002779	-0.075093	NaN	0.000000	0.001576	0.001753	28.08	0.037633	0.000920	40.9181	97.4373	-165.628	-0.018855	0.000949	-1.151553	-1.152826	-0.075093	40.9181	-1.150176	-2.361480E+15	3.179895E-17	NaN
538	1.000000	0.044183	7.37031e+06	-50189.1	1005.82	-29756.5	0.000000	0.000000	6.044739	-0.104116	NaN	0.000000	0.001640	0.001743	28.0798	0.060435	0.002032	29.7437	-105.793	15.7101	-0.054525	0.042878	-1.109591	-1.110897	-0.104116	29.7437	-1.106966	-6.216854E+14	1.674738E-16	NaN
538	1.000000	0.086181	7.37031e+06	-50189.1	1005.82	-29756.5	0.000000	0.000000	6.086738	-0.057847	NaN	0.000000	0.001582	0.001723	28.0786	0.045290	0.002092	21.6465	-174.87	-164.186	-0.070275	0.084910	-1.067594	-1.068865	-0.057847	21.6465	-1.065589	-1.729536E+14	3.344682E-16	NaN
538	1.000000	0.128244	7.37031e+06	-50189.1	1005.82	-29756.5	0.000000	0.000000	6.128801	-0.058891	NaN	0.000000	0.001604	0.001705	28.0792	0.070239	0.002062	34.058	178.38	14.3372	-0.095592	0.126845	-1.025531	-1.026929	-0.058891	34.058	-1.024234	-4.807469E+13	1.224995E-15	NaN
538	1.000000	0.170221	7.37031e+06	-50189.1	1005.82	-29756.5	0.000000	0.000000	6.170780	-0.024966	NaN	0.000000	0.001614	0.001675	28.0789	0.031164	0.001824	17.0879	-155.558	-166.351	0.000543	0.168898	-0.983553	-0.984876	-0.024966	17.0879	-0.982458	-1.316796E+13	1.895985E-15	NaN
538	1.000000	0.212252	7.37031e+06	-50189.1	1005.82	-29756.5	0.000000	0.000000	6.212811	-0.010742	NaN	0.000000	0.001558	0.001686	28.0799	0.105319	0.002129	49.4619	-69.4478	16.9635	0.008986	0.210856	-0.941523	-0.942918	-0.010742	49.4619	-0.941360	-3.676898E+12	2.921568E-15	NaN
538	1.000000	0.254259	7.37031e+06	-50189.1	1005.82	-29756.5	0.000000	0.000000	6.254820	0.017853	NaN	0.000000	0.001620	0.001677	28.0802	0.122684	0.002000	61.3373	-72.7128	-162.897	0.048120	0.252924	-0.899515	-0.900850	0.017853	61.3373	-0.899734	-1.008013E+12	-1.771147E-14	NaN
538	1.000000	0.296292	7.37031e+06	-50189.1	1005.82	-29756.5	0.000000	0.000000	6.296851	-0.015580	NaN	0.000000	0.001626	0.001706	28.0802	0.039406	0.002037	19.3444	161.461	17.2185	-0.036131	0.294948	-0.857483	-0.858827	-0.015580	19.3444	-0.856879	-2.653828E+11	5.870634E-14	NaN
538	1.000000	0.338307	7.37031e+06	-50189.1	1005.82	-29756.5	0.000000	0.000000	6.338867	0.012216	NaN	0.000000	0.001571	0.001703	28.0801	0.017170	0.002026	8.474884	-37.3243	-163.975	-0.061845	0.337006	-0.815468	-0.816768	0.012216	8.474884	-0.816549	-7.540667E+10	-1.619976E-13	NaN
538	1.000000	0.380350	7.37031e+06	-50189.1	1005.82	-29756.5	0.000000	0.000000	6.380908	-0.031341	NaN	0.000000	0.001608	0.001685	28.0788	0.080569	0.001897	42.4673	-109.342	15.4841	-0.034677	0.378976	-0.773425	-0.774798	-0.031341	42.4673	-0.772871	-1.924615E+10	1.628407E-12	NaN
538	1.000000	0.422337	7.37031e+06	-50189.1	1005.82	-29756.5	0.000000	0.000000	6.422893	-0.098978	NaN	0.000000	0.001585	0.001684	28.0788	0.119611	0.001958	61.0968	86.4018	-164.787	-0.136522	0.421035	-0.731438	-0.732740	-0.098978	61.0968	-0.730223	-5.056442E+9	1.957458E-11	NaN
538	1.000000	0.464342	7.37031e+06	-50189.1	1005.82	-29756.5	0.000000	0.000000	6.464902	-0.005061	NaN	0.000000	0.001597	0.001698	28.0787	0.074359	0.002105	35.3231	152.135	15.9529	0.021012	0.462980	-0.689433	-0.690795	-0.005061	35.3231	-0.689325	-1.398612E+9	3.618264E-12	NaN
538	1.000000	0.506374	7.37031e+06	-50189.1	1005.82	-29756.5	0.000000	0.000000	6.506932	-0.052499	NaN	0.000000	0.001606	0.001682	28.0798	0.034261	0.002050	16.7166	-60.8239	-166.351	-0.084268	0.505033	-0.647400	-0.648742	-0.052499	16.7166	-0.645045	-3.463333E+8	1.515861E-10	NaN
538	1.000000	0.548380	7.37031e+06	-50189.1	1005.82	-29756.5	0.000000	0.000000	6.548941	0.003590	NaN	0.000000	0.001593	0.001716	28.0799	0.121058	0.002010	60.2288	-128.368	16.3035	-0.059552	0.547074	-0.605394	-0.606700	0.003590	60.2288	-0.605439	-9.893380E+7	-3.628453E-11	NaN
538	1.000000	0.590396	7.37031e+06	-50189.1	1005.82	-29756.5	0.000000	0.000000	6.590953	-0.073839	NaN	0.000000	0.001582	0.001744	28.0798	0.131107	0.002119	61.8833	-163.409	-165.089	0.017539	0.589098	-0.563379	-0.564676	-0.073839	61.8833	-0.562484	-2.527738E+7	2.921142E-9	NaN
538	1.000000	0.632425	7.37031e+06	-50189.1	1005.82	-29756.5	0.000000	0.000000	6.632985	-0.005171	NaN	0.000000	0.001667	0.001742	28.0788	0.065771	0.002016	32.6246	-179.387	14.9686	0.044744	0.631064	-0.521350	-0.522710	-0.005171	32.6246	-0.521231	-6.77193e+06	7.635495E-10	NaN
538	1.000000	0.674466	7.37031e+06	-50189.1	1005.82	-29756.5	0.000000	0.000000	6.675026	0.016996	NaN	0.000000	0.001678	0.001697	28.0789	0.077183	0.001926	40.0719	-165.119	-165.166	-0.118638	0.673122	-0.479309	-0.480653	0.016996	40.0719	-0.479627	-1.77953e+06	-9.550986E-9	NaN
538	1.000000	0.716457	7.37031e+06	-50189.1	1005.82	-29756.5	0.000000	0.000000	6.717018	0.010414	NaN	0.000000	0.001645	0.001766	28.0787	0.090449	0.001937	46.6988	-56.4223	13.66	-0.041772	0.715120	-0.437317	-0.438654	0.010414	46.6988	-0.437485	-454833	-2.289716E-8	NaN
538	1.000000	0.758511	7.37031e+06	-50189.1	1005.82	-29756.5	0.000000	0.000000	6.759070	-0.022212	NaN	0.000000	0.001614	0.001756	28.0801	0.051819	0.002122	24.4177	-43.6351	-163.721	0.050794	0.757226	-0.395264	-0.396548	-0.022212	24.4177	-0.394582	-111856	1.985804E-7	NaN
538	1.000000	0.800509	7.37031e+06	-50189.1	1005.82	-29756.5	0.000000	0.000000	6.801068	-0.024771	NaN	0.000000	0.001660	0.001792	28.0801	0.061874	0.001944	31.8222	-143.928	14.0009	0.030197	0.799140	-0.353265	-0.354634	-0.024771	31.8222	-0.352681	-27918.8	8.872500E-7	NaN
538	1.000000	0.842542	7.37031e+06	-50189.1	1005.82	-29756.5	0.000000	0.000000	6.843102	0.008154	NaN	0.000000	0.001683	0.001760	28.0804	0.013562	0.001965	6.903303	-171.966	-164.208	-0.009345	0.841228	-0.311232	-0.312546	0.008154	6.903303	-0.312118	-7118.47	-1.145486E-6	NaN
538	1.000000	0.884561	7.37032e+06	-50189.1	1005.82	-29756.5	0.000000	0.000000	6.885118	-0.060684	NaN	0.000000	0.001639	0.001839	28.0803	0.071540	0.001893	37.7945	-88.0183	13.799	-0.098237	0.883196	-0.269214	-0.270579	-0.060684	37.7945	-0.268009	-1553.32	3.906753E-5	NaN
538	1.000000	0.926562	7.37032e+06	-50189.1	1005.82	-29756.5	0.000000	0.000000	6.927120	-0.051606	NaN	0.000000	0.001604	0.001822	28.0789	0.093701	0.001959	47.8344	79.309	-167.494	-0.074891	0.925203	-0.227213	-0.228571	-0.051606	47.8344	-0.226404	-351.245	0.000147	NaN
538	1.000000	0.968591	7.37032e+06	-50189.1	1005.82	-29756.5	0.000000	0.000000	6.969148	-0.072685	NaN	0.000000	0.001616	0.001779	28.0784	0.032968	0.001985	16.6083	-31.0232	15.9333	-0.025826	0.967262	-0.185184	-0.186512	-0.072685	16.6083	-0.181902	-65.7294	0.001106	NaN
538	1.000000	1.010593	7.37032e+06	-50189.1	1005.82	-29756.5	0.000000	0.000000	7.011150	-0.072558	NaN	0.000000	0.001636	0.001768	28.0786	0.050324	0.002093	24.0452	137.112	-164.861	0.004560	1.009303	-0.143182	-0.144472	-0.072558	24.0452	-0.140919	-12.3083	0.005895	NaN
538	1.000000	1.052593	7.37032e+06	-50189.1	1005.82	-29756.5	0.000000	0.000000	7.053151	-0.059763	NaN	0.000000	0.001584	0.001801	28.0802	0.108497	0.001898	57.1774	-156.62	15.2855	-0.074133	1.051231	-0.101181	-0.102543	-0.059763	57.1774	-0.100397	-1.864552	0.032052	NaN
538	1.000000	1.094635	7.37032e+06	-50189.1	1005.82	-29756.5	0.000000	0.000000	7.095192	-0.073793	NaN	0.000000	0.001623	0.001808	28.0797	0.070824	0.001825	38.8102	-69.0555	-167.152	-0.000142	1.093290	-0.059140	-0.060485	-0.073793	38.8102	-0.057714	-0.154681	0.477067	NaN
538	1.000000	1.136633	7.37032e+06	-50189.1	1005.82	-29756.5	0.000000	0.000000	7.137192	-0.023983	NaN	0.000000	0.001605	0.001782	28.08	0.043305	0.002018	21.4569	150.629	11.9561	-0.002012	1.135293	-0.017142	-0.018481	-0.023983	21.4569	-0.016304	-0.010071	2.381340	NaN
538	2.000000	1.164152	7.37032e+06	-50189.1	1005.82	-29756.5	0.000000	0.000000	7.165348	15.4574	NaN	0.000000	0.001609	0.001795	28.0786	14.2497	0.001710	8334.7	6.983171	-175.213	14.9904	1.163865	0.010377	0.010091	15.4574	8334.7	0.008987	0.008077	1913.8	84731.1
538	2.000000	1.174591	7.37032e+06	-50189.1	1005.82	-29756.5	0.000000	0.000000	7.176650	36.4481	NaN	0.000000	0.001577	0.001787	28.0786	24.769	0.001834	13506.8	6.832371	1.178334	34.691	1.174287	0.020817	0.020513	36.4481	13506.8	0.018793	0.020681	1762.43	85811
538	2.000000	1.185026	7.37032e+06	-50189.1	1005.82	-29756.5	0.000000	0.000000	7.188420	68.9009	NaN	0.000000	0.001592	0.001731	28.0787	34.6946	0.001892	18341.5	3.943486	-178.339	65.9925	1.184750	0.031252	0.030976	68.9009	18341.5	0.028434	0.037561	1834.37	86464.8
538	2.000000	1.195562	7.37032e+06	-50189.1	1005.82	-29756.5	0.000000	0.000000	7.200465	105.606	NaN	0.000000	0.001595	0.001818	28.0798	44.0453	0.001772	24853.4	4.236373	-1.833714	103.823	1.195265	0.041788	0.041490	105.606	24853.4	0.038601	0.060462	1746.64	92345.6
538	2.000000	1.206066	7.37032e+06	-50189.1	1005.82	-29756.5	0.000000	0.000000	7.213224	160.458	NaN	0.000000	0.001621	0.001754	28.0801	54.1902	0.001803	30047.4	3.507652	178.73	158.049	1.205599	0.052292	0.051824	160.458	30047.4	0.048287	0.087191	1840.31	92970.7
538	2.000000	1.216551	7.37032e+06	-50189.1	1005.82	-29756.5	0.000000	0.000000	7.226069	217.854	NaN	0.000000	0.001537	0.001795	28.0801	65.1946	0.001883	34618.9	6.513276	-6.132157	216.474	1.216118	0.062776	0.062344	217.854	34618.9	0.058057	0.118933	1831.75	91714.2
538	2.000000	1.226986	7.37032e+06	-50189.1	1005.82	-29756.5	0.000000	0.000000	7.238989	278.28	NaN	0.000000	0.001516	0.001758	28.0801	74.699	0.001798	41547.3	2.414311	176.27	274.479	1.226707	0.073211	0.072933	278.28	41547.3	0.068188	0.156794	1774.81	95862.9
538	2.000000	1.237394	7.37032e+06	-50189.1	1005.82	-29756.5	0.000000	0.000000	7.252531	354.506	NaN	0.000000	0.001557	0.001709	28.0789	82.9696	0.001762	47097.4	3.777238	-5.673269	346.435	1.237061	0.083619	0.083286	354.506	47097.4	0.077974	0.198028	1790.18	96695.5
538	2.000000	1.248033	7.37032e+06	-50189.1	1005.82	-29756.5	0.000000	0.000000	7.266493	435.299	NaN	0.000000	0.001545	0.001696	28.0787	91.5635	0.001759	52050.5	5.797699	171.454	437.318	1.247582	0.094258	0.093808	435.299	52050.5	0.087986	0.244852	1777.81	96105.1
538	2.000000	1.257954	7.37032e+06	-50189.1	1005.82	-29756.5	0.000000	0.000000	7.279429	508.641	NaN	0.000000	0.001552	0.001820	28.0787	102.477	0.001794	57121.4	4.909572	171.403	507.158	1.257682	0.104179	0.103908	508.641	57121.4	0.097501	0.293623	1732.3	96311.4