File: remote_trans/data/nanoindenter/0828-1/data/Data_2025-08-06,11h17m57s/2025-07-22_16-23-58_1_746.txt
2025-07-22, 16:23:58, 1
Index	Phase	Displacement	Time	Pos X	Pos Y	Pos Z	Rot A	Rot B	Piezo Z	Force A	Force B	Gripper	Voltage A	Voltage B	Temperature	Amplitude force	Amplitude pos	Stiffness	Phase shift	Phase excitation	Force A raw	Displacement raw	HMax	HMax raw	Real Force	Real Stiffness	Contact Depth	Area	Hardness	Reduced Mod.
[#]	[#]	[um]	[s]	[um]	[um]	[um]	[m°]	[m°]	[um]	[uN]	[uN]	[V]	[V]	[V]	[°C]	[uN]	[um]	[N/m]	[°]	[°]	[uN]	[um]	[um]	[um]	[uN]	[N/m]	[um]	[um^2]	[MPa]	[MPa]
746	1.000000	0.002357	7.37235e+06	-39789.1	1005.82	-29792.5	0.000000	0.000000	6.002817	0.009548	NaN	0.000000	0.001610	0.001751	28.0843	0.058945	0.001042	56.5554	99.1187	-160.251	0.000897	0.001049	-1.092011	-1.093319	0.009548	56.5554	-1.092137	-3.931059E+14	-2.428877E-17	NaN
746	1.000000	0.044321	7.37235e+06	-39789.1	1005.82	-29792.5	0.000000	0.000000	6.044779	-0.032227	NaN	0.000000	0.001566	0.001766	28.0846	0.076010	0.002004	37.9345	-178.649	14.8475	-0.039955	0.042955	-1.050047	-1.051413	-0.032227	37.9345	-1.049410	-1.048285E+14	3.074285E-16	NaN
746	1.000000	0.086301	7.37235e+06	-39789.1	1005.82	-29792.5	0.000000	0.000000	6.086759	-0.048677	NaN	0.000000	0.001584	0.001773	28.0831	0.146842	0.001997	73.5201	137.998	-166.214	-0.131629	0.085038	-1.008066	-1.009330	-0.048677	73.5201	-1.007570	-2.868615E+13	1.696879E-15	NaN
746	1.000000	0.128316	7.37235e+06	-39789.1	1005.82	-29792.5	0.000000	0.000000	6.128777	0.014344	NaN	0.000000	0.001594	0.001774	28.0826	0.046190	0.001994	23.1609	-68.0777	16.0193	-0.009463	0.126983	-0.966051	-0.967385	0.014344	23.1609	-0.966516	-8.029810E+12	-1.786315E-15	NaN
746	1.000000	0.170357	7.37235e+06	-39789.1	1005.82	-29792.5	0.000000	0.000000	6.170817	0.015265	NaN	0.000000	0.001563	0.001724	28.0829	0.035636	0.001879	18.9702	-55.7088	-164.942	-0.039160	0.169021	-0.924011	-0.925347	0.015265	18.9702	-0.924614	-2.185252E+12	-6.985358E-15	NaN
746	1.000000	0.212363	7.37235e+06	-39789.1	1005.82	-29792.5	0.000000	0.000000	6.212821	-0.036973	NaN	0.000000	0.001559	0.001710	28.0841	0.015341	0.001945	7.887602	-25.8376	16.0479	0.061106	0.211027	-0.882005	-0.883340	-0.036973	7.887602	-0.878490	-5.203322E+11	7.105668E-14	NaN
746	1.000000	0.254403	7.37235e+06	-39789.1	1005.82	-29792.5	0.000000	0.000000	6.254862	-0.026024	NaN	0.000000	0.001584	0.001716	28.0837	0.087614	0.001909	45.8831	64.6284	-167.772	0.003922	0.253057	-0.839965	-0.841310	-0.026024	45.8831	-0.839540	-1.545449E+11	1.683898E-13	NaN
746	1.000000	0.296386	7.37235e+06	-39789.1	1005.82	-29792.5	0.000000	0.000000	6.296844	-0.036820	NaN	0.000000	0.001573	0.001803	28.0838	0.051632	0.002064	25.0171	5.437304	14.9965	0.016459	0.295012	-0.797982	-0.799356	-0.036820	25.0171	-0.796878	-4.078327E+10	9.028130E-13	NaN
746	1.000000	0.338412	7.37235e+06	-39789.1	1005.82	-29792.5	0.000000	0.000000	6.338875	0.078253	NaN	0.000000	0.001565	0.001735	28.0839	0.109175	0.001965	55.5472	177.627	-165.453	0.054809	0.337115	-0.755956	-0.757253	0.078253	55.5472	-0.757013	-1.171274E+10	-6.681049E-12	NaN
746	1.000000	0.380453	7.37235e+06	-39789.1	1005.82	-29792.5	0.000000	0.000000	6.380912	-0.009170	NaN	0.000000	0.001654	0.001732	28.083	0.175883	0.002053	85.678	47.9716	13.7034	-0.031102	0.379051	-0.713915	-0.715317	-0.009170	85.678	-0.713835	-3.022540E+9	3.033822E-12	NaN
746	1.000000	0.422456	7.37235e+06	-39789.1	1005.82	-29792.5	0.000000	0.000000	6.422915	-0.023307	NaN	0.000000	0.001670	0.001742	28.0829	0.022021	0.001874	11.7476	-147.241	-164.988	0.067839	0.421101	-0.671911	-0.673267	-0.023307	11.7476	-0.670423	-7.712320E+8	3.022092E-11	NaN
746	1.000000	0.464466	7.37235e+06	-39789.1	1005.82	-29792.5	0.000000	0.000000	6.464928	0.060081	NaN	0.000000	0.001608	0.001764	28.083	0.064342	0.002059	31.2431	-100.179	19.0839	0.115979	0.463109	-0.629902	-0.631258	0.060081	31.2431	-0.631344	-2.246370E+8	-2.674563E-10	NaN
746	1.000000	0.506491	7.37235e+06	-39789.1	1005.82	-29792.6	0.000000	0.000000	6.506952	0.037601	NaN	0.000000	0.001612	0.001764	28.0844	0.047975	0.002199	21.8142	62.9943	-166.41	0.044714	0.505163	-0.587877	-0.589205	0.037601	21.8142	-0.589170	-5.905006E+7	-6.367586E-10	NaN
746	1.000000	0.548528	7.37235e+06	-39789.1	1005.82	-29792.6	0.000000	0.000000	6.548992	0.107755	NaN	0.000000	0.001583	0.001770	28.0843	0.036471	0.002060	17.7018	130.108	14.0881	0.105303	0.547080	-0.545840	-0.547288	0.107755	17.7018	-0.550406	-1.720185E+7	-6.264157E-9	NaN
746	1.000000	0.590519	7.37235e+06	-39789.1	1005.82	-29792.6	0.000000	0.000000	6.590983	0.108986	NaN	0.000000	0.001626	0.001738	28.0842	0.070544	0.001836	38.4279	70.6131	-165.696	0.109413	0.589222	-0.503849	-0.505146	0.108986	38.4279	-0.505976	-4.15293e+06	-2.624324E-8	NaN
746	1.000000	0.632558	7.37235e+06	-39789.1	1005.82	-29792.6	0.000000	0.000000	6.633012	-0.151630	NaN	0.000000	0.001603	0.001737	28.0831	0.027424	0.001930	14.2063	134.635	15.6902	-0.160059	0.631230	-0.461809	-0.463138	-0.151630	14.2063	-0.453804	-772496	1.962854E-7	NaN
746	1.000000	0.674547	7.37235e+06	-39789.1	1005.82	-29792.6	0.000000	0.000000	6.675003	-0.087695	NaN	0.000000	0.001637	0.001758	28.0832	0.053564	0.001974	27.1386	22.6381	-163.346	0.001682	0.673298	-0.419821	-0.421070	-0.087695	27.1386	-0.417397	-236314	3.710954E-7	NaN
746	1.000000	0.716575	7.37235e+06	-39789.1	1005.82	-29792.6	0.000000	0.000000	6.717029	-0.141048	NaN	0.000000	0.001607	0.001729	28.0833	0.089025	0.002027	43.9201	-160.291	18.8648	-0.165563	0.715189	-0.377793	-0.379179	-0.141048	43.9201	-0.375384	-59373.3	2.375620E-6	NaN
746	1.000000	0.758622	7.37235e+06	-39789.1	1005.82	-29792.6	0.000000	0.000000	6.759076	-0.128605	NaN	0.000000	0.001585	0.001696	28.0846	0.043046	0.001999	21.5328	-18.5211	-158.509	-0.163246	0.757277	-0.335746	-0.337091	-0.128605	21.5328	-0.331266	-13614.2	9.446378E-6	NaN
746	1.000000	0.800612	7.37235e+06	-39789.1	1005.82	-29792.6	0.000000	0.000000	6.801069	-0.069445	NaN	0.000000	0.001646	0.001739	28.0842	0.082871	0.002122	39.0597	-172.96	13.362	-0.025393	0.799187	-0.293756	-0.295181	-0.069445	39.0597	-0.292423	-3627.17	1.914566E-5	NaN
746	1.000000	0.842641	7.37235e+06	-39789.1	1005.82	-29792.6	0.000000	0.000000	6.843095	-0.114493	NaN	0.000000	0.001637	0.001753	28.0837	0.044988	0.001903	23.642	158.074	-161.907	-0.004228	0.841307	-0.251727	-0.253061	-0.114493	23.642	-0.248095	-768.213	0.000149	NaN
746	1.000000	0.884651	7.37235e+06	-39789.1	1005.82	-29792.6	0.000000	0.000000	6.885108	-0.061901	NaN	0.000000	0.001618	0.001728	28.0833	0.070954	0.002043	34.7303	-87.2773	18.4001	-0.133919	0.883313	-0.209717	-0.211055	-0.061901	34.7303	-0.208381	-180.536	0.000343	NaN
746	1.000000	0.926684	7.37236e+06	-39789.1	1005.82	-29792.6	0.000000	0.000000	6.927139	-0.125275	NaN	0.000000	0.001619	0.001716	28.0826	0.183742	0.001936	94.9208	-30.119	-164.935	-0.150419	0.925359	-0.167684	-0.169009	-0.125275	94.9208	-0.166694	-35.974	0.003482	NaN
746	1.000000	0.968674	7.37236e+06	-39789.1	1005.82	-29792.6	0.000000	0.000000	6.969131	-0.052415	NaN	0.000000	0.001609	0.001716	28.0828	0.050985	0.002114	24.1174	-82.5434	16.3684	-0.140992	0.967304	-0.125694	-0.127064	-0.052415	24.1174	-0.124064	-5.826979	0.008995	NaN
746	1.000000	1.010703	7.37236e+06	-39789.1	1005.82	-29792.6	0.000000	0.000000	7.011159	-0.088752	NaN	0.000000	0.001605	0.001701	28.0822	0.067424	0.001943	34.7083	-119.184	-168.089	-0.143430	1.009385	-0.083665	-0.084983	-0.088752	34.7083	-0.081747	-0.684110	0.129734	NaN
746	1.000000	1.052698	7.37236e+06	-39789.1	1005.82	-29792.6	0.000000	0.000000	7.053154	-0.092872	NaN	0.000000	0.001636	0.001734	28.0833	0.131794	0.001923	68.5267	169.07	12.8889	-0.053009	1.051381	-0.041669	-0.042987	-0.092872	68.5267	-0.040653	-0.047337	1.961912	NaN
746	1.000000	1.094710	7.37236e+06	-39789.1	1005.82	-29792.6	0.000000	0.000000	7.095267	2.366755	NaN	0.000000	0.001625	0.001729	28.0834	3.500236	0.002000	1750.23	13.0245	-170.391	1.286052	1.093424	0.000342	-0.000944	2.366755	1750.23	-0.000672	-0.000496	-4773.56	NaN
746	2.000000	1.108815	7.37236e+06	-39789.1	1005.82	-29792.6	0.000000	0.000000	7.110355	26.2992	NaN	0.000000	0.001649	0.001765	28.0834	17.9616	0.001762	10194.5	-1.979236	12.1105	24.1186	1.108540	0.014447	0.014172	26.2992	10194.5	0.012512	0.012109	2171.86	84641.9
746	2.000000	1.119333	7.37236e+06	-39789.1	1005.82	-29792.6	0.000000	0.000000	7.122101	56.1947	NaN	0.000000	0.001666	0.001756	28.0825	29.4595	0.001772	16628.4	4.569162	-177.844	56.7562	1.119055	0.024965	0.024687	56.1947	16628.4	0.022430	0.026506	2120.1	93315.7
746	2.000000	1.129797	7.37236e+06	-39789.1	1005.82	-29792.6	0.000000	0.000000	7.134396	100.74	NaN	0.000000	0.001691	0.001781	28.0837	39.724	0.001771	22432.8	3.651203	0.315518	99.8097	1.129464	0.035429	0.035096	100.74	22432.8	0.032061	0.045124	2232.54	96483.7
746	2.000000	1.140207	7.37236e+06	-39789.1	1005.82	-29792.6	0.000000	0.000000	7.147223	159.534	NaN	0.000000	0.001673	0.001769	28.0829	49.4314	0.001806	27373	6.068263	175.918	156.195	1.139936	0.045839	0.045568	159.534	27373	0.041468	0.067878	2350.31	95991.4
746	2.000000	1.150759	7.37236e+06	-39789.1	1005.82	-29792.6	0.000000	0.000000	7.160092	215.939	NaN	0.000000	0.001663	0.001768	28.084	59.0754	0.001691	34939.7	4.540374	-5.065245	212.105	1.150458	0.056391	0.056090	215.939	34939.7	0.051756	0.097917	2205.32	102015
746	2.000000	1.161257	7.37236e+06	-39789.1	1005.82	-29792.6	0.000000	0.000000	7.173668	290.832	NaN	0.000000	0.001582	0.001737	28.0841	70.4165	0.001796	39201.4	4.531211	175.472	289.45	1.160921	0.066889	0.066553	290.832	39201.4	0.061325	0.130603	2226.85	99105.8
746	2.000000	1.171731	7.37236e+06	-39789.1	1005.82	-29792.6	0.000000	0.000000	7.187406	370.264	NaN	0.000000	0.001647	0.001754	28.0838	81.2186	0.001704	47652.6	5.128556	-7.191510	368.849	1.171475	0.077363	0.077108	370.264	47652.6	0.071535	0.170390	2173.04	105472
746	2.000000	1.182224	7.37236e+06	-39789.1	1005.82	-29792.6	0.000000	0.000000	7.201490	457.648	NaN	0.000000	0.001620	0.001729	28.0838	90.0452	0.001782	50517.1	5.037933	172.166	456.878	1.181838	0.087856	0.087471	457.648	50517.1	0.081062	0.211973	2159	100247
746	2.000000	1.192676	7.37236e+06	-39789.1	1005.82	-29792.6	0.000000	0.000000	7.216129	559.538	NaN	0.000000	0.001611	0.001774	28.0828	99.2873	0.001833	54152.6	4.629435	-6.872367	554.904	1.192339	0.098308	0.097971	559.538	54152.6	0.090559	0.257630	2171.87	97475.3
746	2.000000	1.198169	7.37236e+06	-39789.1	1005.82	-29792.6	0.000000	0.000000	7.223471	604.53	NaN	0.000000	0.001630	0.001736	28.0832	106.556	0.001772	60141.8	5.972253	170.648	599.514	1.197773	0.103801	0.103405	604.53	60141.8	0.096262	0.287041	2106.07	102560