File: remote_trans/data/nanoindenter/0828-1/data/Data_2025-08-06,11h17m57s/2025-07-22_16-23-58_1_613.txt
2025-07-22, 16:23:58, 1
Index	Phase	Displacement	Time	Pos X	Pos Y	Pos Z	Rot A	Rot B	Piezo Z	Force A	Force B	Gripper	Voltage A	Voltage B	Temperature	Amplitude force	Amplitude pos	Stiffness	Phase shift	Phase excitation	Force A raw	Displacement raw	HMax	HMax raw	Real Force	Real Stiffness	Contact Depth	Area	Hardness	Reduced Mod.
[#]	[#]	[um]	[s]	[um]	[um]	[um]	[m°]	[m°]	[um]	[uN]	[uN]	[V]	[V]	[V]	[°C]	[uN]	[um]	[N/m]	[°]	[°]	[uN]	[um]	[um]	[um]	[uN]	[N/m]	[um]	[um^2]	[MPa]	[MPa]
613	1.000000	0.002930	7.37105e+06	-46439.1	1005.82	-29769.1	0.000000	0.000000	6.002785	-0.051864	NaN	0.000000	0.001543	0.001674	28.0827	0.122013	0.000965	126.39	39.1478	-165.99	0.042940	0.001712	-1.065814	-1.067032	-0.051864	126.39	-1.065506	-1.725097E+14	3.006454E-16	NaN
613	1.000000	0.042899	7.37105e+06	-46439.1	1005.82	-29769.1	0.000000	0.000000	6.042759	0.063397	NaN	0.000000	0.001560	0.001656	28.0843	0.047516	0.001972	24.0899	-26.3128	-168.785	0.019105	0.041590	-1.025845	-1.027154	0.063397	24.0899	-1.027819	-5.372069E+13	-1.180127E-15	NaN
613	1.000000	0.082888	7.37105e+06	-46439.1	1005.82	-29769.1	0.000000	0.000000	6.082746	0.000101	NaN	0.000000	0.001570	0.001691	28.0841	0.023466	0.002102	11.1639	137.816	-165.962	-0.005139	0.081588	-0.985856	-0.987156	0.000101	11.1639	-0.985862	-1.463467E+13	-6.870680E-18	NaN
613	1.000000	0.122898	7.37105e+06	-46439.1	1005.82	-29769.1	0.000000	0.000000	6.122754	-0.038651	NaN	0.000000	0.001634	0.001666	28.0842	0.107634	0.001976	54.4705	-22.8004	-165.299	-0.117975	0.121645	-0.945846	-0.947099	-0.038651	54.4705	-0.945313	-4.157340E+12	9.296970E-15	NaN
613	1.000000	0.162930	7.37105e+06	-46439.1	1005.82	-29769.2	0.000000	0.000000	6.162787	-0.003389	NaN	0.000000	0.001596	0.001667	28.0843	0.068791	0.002004	34.3189	-135.176	-165.954	0.015598	0.161640	-0.905814	-0.907104	-0.003389	34.3189	-0.905740	-1.215128E+12	2.789347E-15	NaN
613	1.000000	0.202950	7.37105e+06	-46439.1	1005.82	-29769.2	0.000000	0.000000	6.202805	-0.061698	NaN	0.000000	0.001598	0.001660	28.0827	0.054731	0.001954	28.0072	-176.564	-165.798	-0.153357	0.201647	-0.865794	-0.867097	-0.061698	28.0072	-0.864142	-3.327927E+11	1.853932E-13	NaN
613	1.000000	0.242974	7.37105e+06	-46439.1	1005.82	-29769.2	0.000000	0.000000	6.242829	-0.045802	NaN	0.000000	0.001559	0.001705	28.083	0.048101	0.001998	24.0754	-70.222	-167.109	-0.044678	0.241637	-0.825771	-0.827107	-0.045802	24.0754	-0.824344	-9.618522E+10	4.761826E-13	NaN
613	1.000000	0.282982	7.37105e+06	-46439.1	1005.82	-29769.2	0.000000	0.000000	6.282839	-0.019639	NaN	0.000000	0.001532	0.001640	28.083	0.111549	0.001850	60.3078	-100.332	-163.518	0.002648	0.281713	-0.785762	-0.787031	-0.019639	60.3078	-0.785517	-2.858877E+10	6.869650E-13	NaN
613	1.000000	0.323018	7.37105e+06	-46439.1	1005.82	-29769.2	0.000000	0.000000	6.322871	-0.098907	NaN	0.000000	0.001492	0.001676	28.0841	0.152074	0.001978	76.8841	-158.763	-163.517	-0.071849	0.321655	-0.745726	-0.747089	-0.098907	76.8841	-0.744761	-7.978118E+9	1.239725E-11	NaN
613	1.000000	0.363028	7.37105e+06	-46439.1	1005.82	-29769.2	0.000000	0.000000	6.362885	-0.015867	NaN	0.000000	0.001566	0.001671	28.084	0.084733	0.001920	44.1244	-41.8024	-162.337	-0.014418	0.361658	-0.705716	-0.707086	-0.015867	44.1244	-0.705446	-2.322169E+9	6.832905E-12	NaN
613	1.000000	0.403037	7.37105e+06	-46439.1	1005.82	-29769.2	0.000000	0.000000	6.402895	0.008250	NaN	0.000000	0.001530	0.001705	28.0841	0.071935	0.001996	36.0403	5.570333	-166.715	0.033668	0.401762	-0.665707	-0.666982	0.008250	36.0403	-0.665879	-6.682999E+8	-1.234422E-11	NaN
613	1.000000	0.443052	7.37105e+06	-46439.1	1005.82	-29769.2	0.000000	0.000000	6.442906	-0.077017	NaN	0.000000	0.001573	0.001681	28.0839	0.060295	0.002000	30.1402	145.334	-165.639	-0.048433	0.441710	-0.625692	-0.627034	-0.077017	30.1402	-0.623776	-1.768178E+8	4.355709E-10	NaN
613	1.000000	0.483055	7.37105e+06	-46439.1	1005.82	-29769.2	0.000000	0.000000	6.482913	0.011007	NaN	0.000000	0.001580	0.001685	28.0829	0.080773	0.002064	39.1387	28.2304	-167.632	-0.022606	0.481757	-0.585689	-0.586987	0.011007	39.1387	-0.585899	-5.322573E+7	-2.067912E-10	NaN
613	1.000000	0.523095	7.37105e+06	-46439.1	1005.82	-29769.2	0.000000	0.000000	6.522947	-0.135402	NaN	0.000000	0.001546	0.001718	28.0828	0.061707	0.001907	32.3649	-34.7389	-168.226	-0.137749	0.521784	-0.545649	-0.546960	-0.135402	32.3649	-0.542511	-1.337156E+7	1.012615E-8	NaN
613	1.000000	0.563105	7.37105e+06	-46439.1	1005.82	-29769.2	0.000000	0.000000	6.562960	-0.044602	NaN	0.000000	0.001549	0.001669	28.0829	0.042375	0.001901	22.2914	153.285	-165.22	0.006102	0.561791	-0.505639	-0.506953	-0.044602	22.2914	-0.504139	-3.91504e+06	1.139257E-8	NaN
613	1.000000	0.603107	7.37105e+06	-46439.1	1005.82	-29769.2	0.000000	0.000000	6.602965	0.014433	NaN	0.000000	0.001574	0.001719	28.0844	0.106233	0.002047	51.8885	-64.2893	-164.86	-0.061634	0.601825	-0.465637	-0.466919	0.014433	51.8885	-0.465846	-1.14056e+06	-1.265468E-8	NaN
613	1.000000	0.643132	7.37105e+06	-46439.1	1005.82	-29769.2	0.000000	0.000000	6.642989	-0.020832	NaN	0.000000	0.001552	0.001710	28.0844	0.067040	0.002030	33.0268	-162.214	-165.986	-0.006510	0.641789	-0.425612	-0.426956	-0.020832	33.0268	-0.425139	-304264	6.846556E-8	NaN
613	1.000000	0.683188	7.37105e+06	-46439.1	1005.82	-29769.2	0.000000	0.000000	6.683044	-0.035678	NaN	0.000000	0.001597	0.001726	28.0847	0.083311	0.002002	41.6085	137.539	-163.905	0.013650	0.681886	-0.385556	-0.386858	-0.035678	41.6085	-0.384913	-81346	4.385995E-7	NaN
613	1.000000	0.723170	7.37105e+06	-46439.1	1005.82	-29769.2	0.000000	0.000000	6.723025	-0.044033	NaN	0.000000	0.001543	0.001705	28.083	0.042251	0.001935	21.8298	158.469	-164.174	-0.051152	0.721867	-0.345574	-0.346877	-0.044033	21.8298	-0.344061	-20926.8	2.104122E-6	NaN
613	1.000000	0.763194	7.37105e+06	-46439.1	1005.82	-29769.2	0.000000	0.000000	6.763051	-0.004761	NaN	0.000000	0.001551	0.001708	28.0829	0.069106	0.002088	33.0935	-144.045	-169.69	0.059524	0.761825	-0.305550	-0.306919	-0.004761	33.0935	-0.305442	-5669.11	8.398580E-7	NaN
613	1.000000	0.803198	7.37105e+06	-46439.1	1005.82	-29769.2	0.000000	0.000000	6.803052	-0.094697	NaN	0.000000	0.001513	0.001705	28.0831	0.131877	0.002143	61.5494	100.653	-165.505	-0.101046	0.801877	-0.265546	-0.266867	-0.094697	61.5494	-0.264392	-1368.06	6.922008E-5	NaN
613	1.000000	0.843226	7.37105e+06	-46439.1	1005.82	-29769.2	0.000000	0.000000	6.843084	0.006874	NaN	0.000000	0.001568	0.001698	28.0831	0.056562	0.001908	29.6481	-117.174	-164.925	-0.004014	0.842007	-0.225518	-0.226737	0.006874	29.6481	-0.225692	-342.234	-2.008432E-5	NaN
613	1.000000	0.883229	7.37105e+06	-46439.1	1005.82	-29769.2	0.000000	0.000000	6.883084	-0.056727	NaN	0.000000	0.001529	0.001708	28.0844	0.067780	0.001921	35.2903	-81.3728	-164.09	-0.027600	0.881939	-0.185515	-0.186805	-0.056727	35.2903	-0.184309	-72.1913	0.000786	NaN
613	1.000000	0.923263	7.37105e+06	-46439.1	1005.82	-29769.2	0.000000	0.000000	6.923120	-0.014923	NaN	0.000000	0.001539	0.001710	28.0841	0.042767	0.001943	22.0115	-37.8693	-161.935	0.042630	0.921969	-0.145481	-0.146775	-0.014923	22.0115	-0.144972	-14.6439	0.001019	NaN
613	1.000000	0.963267	7.37105e+06	-46439.1	1005.82	-29769.2	0.000000	0.000000	6.963123	-0.048262	NaN	0.000000	0.001560	0.001706	28.084	0.060681	0.002133	28.4536	-48.9056	-165.526	-0.014454	0.961973	-0.105477	-0.106771	-0.048262	28.4536	-0.104204	-2.259203	0.021362	NaN
613	1.000000	1.003299	7.37105e+06	-46439.1	1005.82	-29769.2	0.000000	0.000000	7.003152	-0.092239	NaN	0.000000	0.001582	0.001756	28.0829	0.086913	0.002037	42.658	16.2403	-167.519	-0.148563	1.001948	-0.065445	-0.066796	-0.092239	42.658	-0.063824	-0.231107	0.399118	NaN
613	1.000000	1.043299	7.37105e+06	-46439.1	1005.82	-29769.2	0.000000	0.000000	7.043155	-0.034511	NaN	0.000000	0.001574	0.001741	28.0829	0.024319	0.001869	13.0096	26.7987	-164.85	-0.036777	1.041980	-0.025445	-0.026764	-0.034511	13.0096	-0.023456	-0.015385	2.243127	NaN
613	2.000000	1.075853	7.37105e+06	-46439.1	1005.82	-29769.2	0.000000	0.000000	7.076199	11.8767	NaN	0.000000	0.001550	0.001742	28.0828	11.5477	0.001727	6686.46	3.682195	-169.659	11.968	1.075584	0.007109	0.006839	11.8767	6686.46	0.005777	0.004854	2446.99	87687.5
613	2.000000	1.085731	7.37105e+06	-46439.1	1005.82	-29769.2	0.000000	0.000000	7.086919	32.3574	NaN	0.000000	0.001558	0.001734	28.0827	23.4756	0.001750	13414.7	5.434246	-178.893	29.8503	1.085487	0.016987	0.016743	32.3574	13414.7	0.015178	0.015524	2084.39	98368.9
613	2.000000	1.095763	7.37105e+06	-46439.1	1005.82	-29769.2	0.000000	0.000000	7.098081	59.8482	NaN	0.000000	0.001572	0.001688	28.0839	34.5208	0.001840	18763.2	8.859251	176.74	59.642	1.095395	0.027019	0.026650	59.8482	18763.2	0.024627	0.030340	1972.57	98417
613	2.000000	1.105660	7.37105e+06	-46439.1	1005.82	-29769.2	0.000000	0.000000	7.109954	107.902	NaN	0.000000	0.001564	0.001716	28.0839	45.2381	0.001800	25133.7	3.934330	178.18	104.309	1.105373	0.036916	0.036629	107.902	25133.7	0.033696	0.048754	2213.18	103997
613	2.000000	1.115745	7.37105e+06	-46439.1	1005.82	-29769.2	0.000000	0.000000	7.122038	156.552	NaN	0.000000	0.001582	0.001672	28.084	54.4103	0.001712	31789.9	1.806089	178.591	158.996	1.115469	0.047001	0.046725	156.552	31789.9	0.043307	0.072855	2148.82	107605
613	2.000000	1.125687	7.37105e+06	-46439.1	1005.82	-29769.2	0.000000	0.000000	7.134231	211.312	NaN	0.000000	0.001535	0.001670	28.083	64.6554	0.001781	36310.6	4.091647	175.459	209.995	1.125410	0.056943	0.056666	211.312	36310.6	0.052578	0.100549	2101.59	104621
613	2.000000	1.135794	7.37105e+06	-46439.1	1005.82	-29769.2	0.000000	0.000000	7.146420	261.947	NaN	0.000000	0.001556	0.001688	28.083	74.0029	0.001761	42033.2	1.930598	176.942	268.109	1.135362	0.067050	0.066617	261.947	42033.2	0.062376	0.134467	1948.04	104727
613	2.000000	1.145689	7.37105e+06	-46439.1	1005.82	-29769.2	0.000000	0.000000	7.159130	330.417	NaN	0.000000	0.001558	0.001702	28.0829	80.7722	0.001727	46763.4	3.708392	174.064	330.537	1.145303	0.076945	0.076559	330.417	46763.4	0.071645	0.170846	1934.01	103366
613	2.000000	1.155616	7.37105e+06	-46439.1	1005.82	-29769.2	0.000000	0.000000	7.171754	396.011	NaN	0.000000	0.001544	0.001685	28.084	89.9475	0.001760	51113	3.813770	172.952	391.685	1.155432	0.086872	0.086688	396.011	51113	0.081062	0.211973	1868.21	101430
613	2.000000	1.165598	7.37105e+06	-46439.1	1005.82	-29769.2	0.000000	0.000000	7.184637	466.61	NaN	0.000000	0.001549	0.001676	28.084	98.3159	0.001746	56317	2.636862	173.761	460.045	1.165271	0.096854	0.096527	466.61	56317	0.090640	0.258037	1808.3	101291
613	2.000000	1.171687	7.37105e+06	-46439.1	1005.82	-29769.2	0.000000	0.000000	7.192996	521.808	NaN	0.000000	0.001624	0.001659	28.0837	105.307	0.001743	60411.5	8.321427	168.419	521.623	1.171283	0.102943	0.102539	521.808	60411.5	0.096465	0.288114	1811.11	102828