File: remote_trans/data/nanoindenter/0828-1/data/Data_2025-08-06,11h17m57s/2025-07-22_16-23-58_1_533.txt
2025-07-22, 16:23:58, 1
Index	Phase	Displacement	Time	Pos X	Pos Y	Pos Z	Rot A	Rot B	Piezo Z	Force A	Force B	Gripper	Voltage A	Voltage B	Temperature	Amplitude force	Amplitude pos	Stiffness	Phase shift	Phase excitation	Force A raw	Displacement raw	HMax	HMax raw	Real Force	Real Stiffness	Contact Depth	Area	Hardness	Reduced Mod.
[#]	[#]	[um]	[s]	[um]	[um]	[um]	[m°]	[m°]	[um]	[uN]	[uN]	[V]	[V]	[V]	[°C]	[uN]	[um]	[N/m]	[°]	[°]	[uN]	[um]	[um]	[um]	[uN]	[N/m]	[um]	[um^2]	[MPa]	[MPa]
533	1.000000	0.002465	7.37026e+06	-50439.1	1005.82	-29755.6	0.000000	0.000000	6.002790	-0.009686	NaN	0.000000	0.001640	0.001749	28.0826	0.046629	0.000848	54.9753	75.6136	-160.167	0.043433	0.001243	-1.061665	-1.062886	-0.009686	54.9753	-1.061533	-1.525523E+14	6.349060E-17	NaN
533	1.000000	0.042428	7.37026e+06	-50439.1	1005.82	-29755.7	0.000000	0.000000	6.042756	0.055393	NaN	0.000000	0.001654	0.001758	28.0837	0.098297	0.001936	50.762	51.0631	-165.498	0.081352	0.041130	-1.021702	-1.022999	0.055393	50.762	-1.022520	-4.558897E+13	-1.215056E-15	NaN
533	1.000000	0.082422	7.37026e+06	-50439.1	1005.82	-29755.7	0.000000	0.000000	6.082747	-0.004359	NaN	0.000000	0.001652	0.001744	28.0839	0.113788	0.001868	60.9274	164.177	-165.369	0.015109	0.081085	-0.981708	-0.983045	-0.004359	60.9274	-0.981654	-1.284389E+13	3.393960E-16	NaN
533	1.000000	0.122442	7.37026e+06	-50439.1	1005.82	-29755.7	0.000000	0.000000	6.122769	0.020379	NaN	0.000000	0.001619	0.001735	28.0837	0.173286	0.001830	94.6865	-39.5885	-169.089	0.068658	0.121120	-0.941687	-0.943010	0.020379	94.6865	-0.941849	-3.733180E+12	-5.458808E-15	NaN
533	1.000000	0.162470	7.37026e+06	-50439.1	1005.82	-29755.7	0.000000	0.000000	6.162797	0.027266	NaN	0.000000	0.001668	0.001755	28.0826	0.101823	0.002004	50.8012	-133.491	-167.896	0.004224	0.161138	-0.901660	-0.902991	0.027266	50.8012	-0.902062	-1.083756E+12	-2.515924E-14	NaN
533	1.000000	0.202489	7.37026e+06	-50439.1	1005.82	-29755.7	0.000000	0.000000	6.202815	-0.013911	NaN	0.000000	0.001675	0.001746	28.0825	0.165136	0.002095	78.8266	126.597	-167.567	-0.055916	0.201190	-0.861640	-0.862940	-0.013911	78.8266	-0.861508	-3.065688E+11	4.537663E-14	NaN
533	1.000000	0.242486	7.37026e+06	-50439.1	1005.82	-29755.7	0.000000	0.000000	6.242811	-0.036755	NaN	0.000000	0.001670	0.001750	28.0825	0.028970	0.002037	14.2221	30.8545	-166.904	-0.033812	0.241225	-0.821643	-0.822904	-0.036755	14.2221	-0.819705	-8.321640E+10	4.416768E-13	NaN
533	1.000000	0.282507	7.37026e+06	-50439.1	1005.82	-29755.7	0.000000	0.000000	6.282832	-0.019795	NaN	0.000000	0.001652	0.001771	28.0836	0.058428	0.001952	29.9276	97.647	-165.055	0.029057	0.281203	-0.781623	-0.782926	-0.019795	29.9276	-0.781127	-2.491959E+10	7.943716E-13	NaN
533	1.000000	0.322544	7.37026e+06	-50439.1	1005.82	-29755.7	0.000000	0.000000	6.322870	0.014551	NaN	0.000000	0.001682	0.001740	28.0841	0.118627	0.002025	58.5807	-22.1877	-168.238	-0.077835	0.321266	-0.741586	-0.742863	0.014551	58.5807	-0.741772	-7.264247E+9	-2.003039E-12	NaN
533	1.000000	0.362559	7.37026e+06	-50439.1	1005.82	-29755.7	0.000000	0.000000	6.362885	0.015254	NaN	0.000000	0.001615	0.001741	28.084	0.081923	0.002121	38.6271	121.573	-167.786	0.006080	0.361270	-0.701571	-0.702859	0.015254	38.6271	-0.701867	-2.075028E+9	-7.351373E-12	NaN
533	1.000000	0.402586	7.37026e+06	-50439.1	1005.82	-29755.7	0.000000	0.000000	6.402911	-0.012930	NaN	0.000000	0.001646	0.001777	28.0838	0.032089	0.001981	16.2019	-80.5686	-169.251	-0.014638	0.401276	-0.661543	-0.662854	-0.012930	16.2019	-0.660945	-5.720195E+8	2.260383E-11	NaN
533	1.000000	0.442586	7.37026e+06	-50439.1	1005.82	-29755.7	0.000000	0.000000	6.442913	0.038715	NaN	0.000000	0.001630	0.001718	28.0822	0.019598	0.001964	9.978069	106.184	-167.669	0.066067	0.441319	-0.621544	-0.622811	0.038715	9.978069	-0.624454	-1.806509E+8	-2.143081E-10	NaN
533	1.000000	0.482597	7.37026e+06	-50439.1	1005.82	-29755.7	0.000000	0.000000	6.482921	-0.038012	NaN	0.000000	0.001645	0.001726	28.0821	0.053971	0.002043	26.4236	149.547	-163.525	-0.028354	0.481271	-0.581532	-0.582859	-0.038012	26.4236	-0.580454	-4.476987E+7	8.490461E-10	NaN
533	1.000000	0.522638	7.37027e+06	-50439.1	1005.82	-29755.7	0.000000	0.000000	6.522964	0.007700	NaN	0.000000	0.001636	0.001719	28.0819	0.030171	0.001982	15.2199	-149.82	-164.445	0.004629	0.521324	-0.541491	-0.542805	0.007700	15.2199	-0.541871	-1.310078E+7	-5.877270E-10	NaN
533	1.000000	0.562621	7.37027e+06	-50439.1	1005.82	-29755.7	0.000000	0.000000	6.562948	0.018465	NaN	0.000000	0.001597	0.001708	28.0835	0.052919	0.001880	28.15	-16.1888	-164.666	-0.003256	0.561376	-0.501508	-0.502753	0.018465	28.15	-0.502000	-3.65528e+06	-5.051675E-9	NaN
533	1.000000	0.602676	7.37027e+06	-50439.1	1005.82	-29755.7	0.000000	0.000000	6.603001	-0.025502	NaN	0.000000	0.001626	0.001673	28.0835	0.033207	0.001855	17.9015	-78.5029	-167.376	0.029329	0.601361	-0.461453	-0.462769	-0.025502	17.9015	-0.460385	-955922	2.667780E-8	NaN
533	1.000000	0.642691	7.37027e+06	-50439.1	1005.82	-29755.7	0.000000	0.000000	6.643018	0.047539	NaN	0.000000	0.001614	0.001654	28.0833	0.055488	0.002045	27.1298	165.386	-164.943	0.129027	0.641351	-0.421439	-0.422778	0.047539	27.1298	-0.422753	-281479	-1.688910E-7	NaN
533	1.000000	0.682700	7.37027e+06	-50439.1	1005.82	-29755.7	0.000000	0.000000	6.683027	0.033457	NaN	0.000000	0.001623	0.001655	28.0833	0.025562	0.002000	12.7829	-146.084	-166.907	0.025244	0.681400	-0.381430	-0.382729	0.033457	12.7829	-0.383393	-77366.1	-4.324472E-7	NaN
533	1.000000	0.722722	7.37027e+06	-50439.1	1005.82	-29755.7	0.000000	0.000000	6.723047	-0.031442	NaN	0.000000	0.001647	0.001669	28.0822	0.100188	0.002110	47.4826	-104.268	-162.642	0.065616	0.721415	-0.341407	-0.342715	-0.031442	47.4826	-0.340911	-18828.9	1.669883E-6	NaN
533	1.000000	0.762745	7.37027e+06	-50439.1	1005.82	-29755.7	0.000000	0.000000	6.763073	0.050257	NaN	0.000000	0.001605	0.001666	28.0822	0.080365	0.001911	42.0639	153.877	-169.556	-0.013941	0.761476	-0.301384	-0.302653	0.050257	42.0639	-0.302280	-5088.16	-9.877242E-6	NaN
533	1.000000	0.802761	7.37027e+06	-50439.1	1005.82	-29755.7	0.000000	0.000000	6.803086	-0.022279	NaN	0.000000	0.001636	0.001672	28.0822	0.041655	0.002008	20.7421	28.1511	-159.717	0.044524	0.801417	-0.261368	-0.262712	-0.022279	20.7421	-0.260563	-1195.47	1.863659E-5	NaN
533	1.000000	0.842758	7.37027e+06	-50439.1	1005.82	-29755.7	0.000000	0.000000	6.843086	0.053718	NaN	0.000000	0.001634	0.001680	28.0834	0.119228	0.002016	59.1467	67.6069	-167.684	-0.026897	0.841491	-0.221372	-0.222638	0.053718	59.1467	-0.222053	-299.53	-0.000179	NaN
533	1.000000	0.882791	7.37027e+06	-50439.1	1005.82	-29755.7	0.000000	0.000000	6.883116	-0.019393	NaN	0.000000	0.001629	0.001696	28.0837	0.081005	0.001943	41.6911	147.55	-162.595	0.038798	0.881424	-0.181338	-0.182706	-0.019393	41.6911	-0.180989	-63.4282	0.000306	NaN
533	1.000000	0.922791	7.37027e+06	-50439.1	1005.82	-29755.7	0.000000	0.000000	6.923115	-0.037814	NaN	0.000000	0.001649	0.001662	28.0835	0.055574	0.002086	26.6407	-24.6015	-170.299	0.011539	0.921506	-0.141338	-0.142623	-0.037814	26.6407	-0.140274	-11.9704	0.003159	NaN
533	1.000000	0.962829	7.37027e+06	-50439.1	1005.82	-29755.7	0.000000	0.000000	6.963155	0.007415	NaN	0.000000	0.001628	0.001680	28.083	0.038481	0.002083	18.4753	156.096	-166.826	-0.067039	0.961519	-0.101300	-0.102610	0.007415	18.4753	-0.101601	-1.982089	-0.003741	NaN
533	1.000000	1.002836	7.37027e+06	-50439.1	1005.82	-29755.7	0.000000	0.000000	7.003161	-0.018863	NaN	0.000000	0.001642	0.001678	28.0828	0.014111	0.002039	6.921374	49.6598	-167.448	0.003239	1.001530	-0.061293	-0.062599	-0.018863	6.921374	-0.059249	-0.171361	0.110080	NaN
533	1.000000	1.042835	7.37027e+06	-50439.1	1005.82	-29755.7	0.000000	0.000000	7.043161	0.020253	NaN	0.000000	0.001659	0.001673	28.0824	0.020538	0.002048	10.0305	-71.461	-167.633	-0.074322	1.041509	-0.021295	-0.022621	0.020253	10.0305	-0.022809	-0.014809	-1.367629	NaN
533	2.000000	1.074364	7.37027e+06	-50439.1	1005.82	-29755.7	0.000000	0.000000	7.075137	10.8789	NaN	0.000000	0.001663	0.001654	28.0825	11.7452	0.001800	6523.93	3.522384	-169.968	10.4571	1.074072	0.010234	0.009943	10.8789	6523.93	0.008983	0.008074	1347.48	66336.3
533	2.000000	1.084319	7.37027e+06	-50439.1	1005.82	-29755.7	0.000000	0.000000	7.085937	31.4282	NaN	0.000000	0.001707	0.001674	28.0837	22.2913	0.001741	12805.4	7.794757	-179.46	30.4622	1.083929	0.020189	0.019800	31.4282	12805.4	0.018349	0.020014	1570.33	82699.6
533	2.000000	1.094247	7.37027e+06	-50439.1	1005.82	-29755.7	0.000000	0.000000	7.097040	60.0061	NaN	0.000000	0.001635	0.001698	28.0839	32.7768	0.001689	19400.5	2.926322	-179.42	57.4103	1.093954	0.030117	0.029825	60.0061	19400.5	0.027797	0.036302	1652.97	93029.5
533	2.000000	1.104256	7.37027e+06	-50439.1	1005.82	-29755.7	0.000000	0.000000	7.108569	96.9793	NaN	0.000000	0.001648	0.001718	28.0836	43.5536	0.001829	23814.7	7.401621	175.369	95.9749	1.103917	0.040126	0.039788	96.9793	23814.7	0.037072	0.056681	1710.97	91390.4
533	2.000000	1.114217	7.37027e+06	-50439.1	1005.82	-29755.7	0.000000	0.000000	7.120305	140.118	NaN	0.000000	0.001613	0.001790	28.0824	52.9508	0.001793	29523.9	4.846126	175.337	137.111	1.113974	0.050088	0.049845	140.118	29523.9	0.046528	0.081985	1709.05	94205.9
533	2.000000	1.124218	7.37027e+06	-50439.1	1005.82	-29755.7	0.000000	0.000000	7.132352	189.89	NaN	0.000000	0.001592	0.001791	28.0824	61.7859	0.001677	36833.4	3.289713	174.262	186.982	1.124100	0.060089	0.059971	189.89	36833.4	0.056222	0.112610	1686.25	100282
533	2.000000	1.134170	7.37027e+06	-50439.1	1005.82	-29755.7	0.000000	0.000000	7.145296	262.639	NaN	0.000000	0.001599	0.001796	28.0823	71.0598	0.001781	39892.4	3.468265	174.323	259.318	1.133840	0.070041	0.069711	262.639	39892.4	0.065103	0.144741	1814.55	95800.5
533	2.000000	1.144278	7.37027e+06	-50439.1	1005.82	-29755.7	0.000000	0.000000	7.157923	323.898	NaN	0.000000	0.001594	0.001751	28.0824	82.0313	0.001778	46129.7	3.080504	173.365	324.787	1.143973	0.080149	0.079843	323.898	46129.7	0.074883	0.184515	1755.4	98115.6
533	2.000000	1.154180	7.37027e+06	-50439.1	1005.82	-29755.7	0.000000	0.000000	7.170975	400.487	NaN	0.000000	0.001627	0.001747	28.0837	93.3678	0.001847	50541.7	2.697448	173.315	397.907	1.153912	0.090051	0.089782	400.487	50541.7	0.084108	0.226164	1770.78	97098.2
533	2.000000	1.164164	7.37027e+06	-50439.1	1005.82	-29755.7	0.000000	0.000000	7.184299	481.722	NaN	0.000000	0.001611	0.001784	28.0837	103.124	0.001868	55198.4	5.934742	169.868	478.881	1.163874	0.100035	0.099745	481.722	55198.4	0.093489	0.272556	1767.42	96598.8
533	2.000000	1.170092	7.37027e+06	-50439.1	1005.82	-29755.7	0.000000	0.000000	7.192343	533.181	NaN	0.000000	0.001599	0.001804	28.0843	107.924	0.001840	58652.4	4.301296	170.924	529.133	1.169846	0.105963	0.105717	533.181	58652.4	0.099145	0.302468	1762.77	97436