File: remote_trans/data/nanoindenter/0828-1/data/Data_2025-08-06,11h17m57s/2025-07-22_16-23-58_1_193.txt
2025-07-22, 16:23:58, 1
Index	Phase	Displacement	Time	Pos X	Pos Y	Pos Z	Rot A	Rot B	Piezo Z	Force A	Force B	Gripper	Voltage A	Voltage B	Temperature	Amplitude force	Amplitude pos	Stiffness	Phase shift	Phase excitation	Force A raw	Displacement raw	HMax	HMax raw	Real Force	Real Stiffness	Contact Depth	Area	Hardness	Reduced Mod.
[#]	[#]	[um]	[s]	[um]	[um]	[um]	[m°]	[m°]	[um]	[uN]	[uN]	[V]	[V]	[V]	[°C]	[uN]	[um]	[N/m]	[°]	[°]	[uN]	[um]	[um]	[um]	[uN]	[N/m]	[um]	[um^2]	[MPa]	[MPa]
193	1.000000	0.001936	7.36693e+06	-48289.1	955.819	-29763.2	0.000000	0.000000	6.002785	-0.013258	NaN	0.000000	0.001622	0.001711	28.0775	0.013155	0.000967	13.5972	-20.3893	-168.922	0.008517	0.000661	-1.156815	-1.158089	-0.013258	13.5972	-1.156084	-2.833826E+15	4.678470E-18	NaN
193	1.000000	0.045899	7.36693e+06	-48289.1	955.819	-29763.2	0.000000	0.000000	6.046750	0.023797	NaN	0.000000	0.001615	0.001699	28.0774	0.060113	0.002132	28.1978	62.9415	-163.165	-0.080642	0.044600	-1.112851	-1.114151	0.023797	28.1978	-1.113484	-7.604024E+14	-3.129554E-17	NaN
193	1.000000	0.089932	7.36693e+06	-48289.1	955.819	-29763.2	0.000000	0.000000	6.090782	0.013534	NaN	0.000000	0.001533	0.001701	28.078	0.052716	0.002012	26.2058	-87.976	-166.697	0.013995	0.088588	-1.068819	-1.070163	0.013534	26.2058	-1.069206	-1.934288E+14	-6.996656E-17	NaN
193	1.000000	0.133914	7.36693e+06	-48289.1	955.819	-29763.2	0.000000	0.000000	6.134764	0.005203	NaN	0.000000	0.001539	0.001715	28.0785	0.057214	0.002032	28.1625	115.771	-166.448	0.145546	0.132612	-1.024836	-1.026139	0.005203	28.1625	-1.024975	-4.919102E+13	-1.057734E-16	NaN
193	1.000000	0.177955	7.36693e+06	-48289.1	955.818	-29763.2	0.000000	0.000000	6.178807	0.046984	NaN	0.000000	0.001587	0.001737	28.0783	0.011023	0.001936	5.692853	78.9787	-164.663	0.027635	0.176683	-0.980795	-0.982068	0.046984	5.692853	-0.986985	-1.515330E+13	-3.100572E-15	NaN
193	1.000000	0.221991	7.36693e+06	-48289.1	955.818	-29763.2	0.000000	0.000000	6.222841	0.001709	NaN	0.000000	0.001598	0.001754	28.0787	0.048277	0.002000	24.1396	96.7684	-168.586	-0.046807	0.220618	-0.936760	-0.938132	0.001709	24.1396	-0.936813	-3.192525E+12	-5.352141E-16	NaN
193	1.000000	0.265987	7.36693e+06	-48289.1	955.818	-29763.2	0.000000	0.000000	6.266834	-0.072562	NaN	0.000000	0.001531	0.001655	28.0774	0.070854	0.001986	35.6772	-151.218	-166.048	-0.052169	0.264676	-0.892764	-0.894074	-0.072562	35.6772	-0.891238	-7.738467E+11	9.376770E-14	NaN
193	1.000000	0.310027	7.36693e+06	-48289.1	955.818	-29763.2	0.000000	0.000000	6.310876	-0.024892	NaN	0.000000	0.001585	0.001695	28.0772	0.110742	0.001994	55.5403	93.6896	-166.68	-0.052797	0.308711	-0.848724	-0.850039	-0.024892	55.5403	-0.848388	-2.036584E+11	1.222259E-13	NaN
193	1.000000	0.354075	7.36693e+06	-48289.1	955.819	-29763.2	0.000000	0.000000	6.354924	-0.018425	NaN	0.000000	0.001578	0.001710	28.0769	0.079654	0.002005	39.7243	-78.1165	-165.681	0.047502	0.352718	-0.804676	-0.806033	-0.018425	39.7243	-0.804328	-5.147631E+10	3.579390E-13	NaN
193	1.000000	0.398035	7.36693e+06	-48289.1	955.818	-29763.2	0.000000	0.000000	6.398887	0.028697	NaN	0.000000	0.001592	0.001727	28.0784	0.036140	0.002064	17.5133	-148.399	-164.819	0.013233	0.396726	-0.760715	-0.762025	0.028697	17.5133	-0.761944	-1.366934E+10	-2.099360E-12	NaN
193	1.000000	0.442067	7.36693e+06	-48289.1	955.819	-29763.2	0.000000	0.000000	6.442915	-0.049054	NaN	0.000000	0.001650	0.001735	28.0784	0.084159	0.001965	42.8204	57.7327	-162.025	-0.034138	0.440760	-0.716684	-0.717990	-0.049054	42.8204	-0.715825	-3.217518E+9	1.524581E-11	NaN
193	1.000000	0.486076	7.36693e+06	-48289.1	955.818	-29763.2	0.000000	0.000000	6.486927	0.028421	NaN	0.000000	0.001634	0.001760	28.0783	0.106206	0.001970	53.9028	-173.107	-167.811	0.038382	0.484761	-0.672675	-0.673990	0.028421	53.9028	-0.673070	-8.383076E+8	-3.390272E-11	NaN
193	1.000000	0.530094	7.36693e+06	-48289.1	955.818	-29763.2	0.000000	0.000000	6.530946	0.035020	NaN	0.000000	0.001639	0.001695	28.0774	0.033198	0.002104	15.7795	124.685	-164.431	0.075084	0.528777	-0.628656	-0.629974	0.035020	15.7795	-0.630321	-2.174848E+8	-1.610242E-10	NaN
193	1.000000	0.574106	7.36693e+06	-48289.1	955.818	-29763.2	0.000000	0.000000	6.574957	0.015300	NaN	0.000000	0.001652	0.001728	28.0772	0.068209	0.001975	34.5337	96.7688	-162.985	-0.054253	0.572772	-0.584644	-0.585979	0.015300	34.5337	-0.584977	-5.168850E+7	-2.960123E-10	NaN
193	1.000000	0.618161	7.36693e+06	-48289.1	955.819	-29763.2	0.000000	0.000000	6.619014	0.066192	NaN	0.000000	0.001638	0.001746	28.0774	0.033498	0.001901	17.6208	123.529	-161.774	0.121247	0.616892	-0.540590	-0.541858	0.066192	17.6208	-0.543407	-1.375938E+7	-4.810657E-9	NaN
193	1.000000	0.662168	7.36693e+06	-48289.1	955.818	-29763.2	0.000000	0.000000	6.663019	0.018629	NaN	0.000000	0.001580	0.001640	28.0774	0.034721	0.002175	15.9606	-147.407	-166.403	0.001867	0.660867	-0.496582	-0.497883	0.018629	15.9606	-0.497458	-3.15897e+06	-5.897193E-9	NaN
193	1.000000	0.706197	7.36693e+06	-48289.1	955.818	-29763.2	0.000000	0.000000	6.707045	-0.047783	NaN	0.000000	0.001553	0.001651	28.0787	0.087122	0.002042	42.6579	-125.162	-162.694	-0.017818	0.704939	-0.452554	-0.453812	-0.047783	42.6579	-0.451714	-721891	6.619188E-8	NaN
193	1.000000	0.750192	7.36693e+06	-48289.1	955.819	-29763.2	0.000000	0.000000	6.751040	-0.045793	NaN	0.000000	0.001589	0.001660	28.0785	0.119487	0.001997	59.8304	-156.501	-163.204	-0.025904	0.748872	-0.408559	-0.409878	-0.045793	59.8304	-0.407985	-173674	2.636748E-7	NaN
193	1.000000	0.794195	7.36693e+06	-48289.1	955.819	-29763.2	0.000000	0.000000	6.795043	-0.046056	NaN	0.000000	0.001605	0.001657	28.0785	0.105638	0.001864	56.6874	66.235	-166.045	0.033461	0.792917	-0.364555	-0.365833	-0.046056	56.6874	-0.363946	-40629.8	1.133553E-6	NaN
193	1.000000	0.838261	7.36693e+06	-48289.1	955.819	-29763.2	0.000000	0.000000	6.839109	-0.054987	NaN	0.000000	0.001623	0.001657	28.0775	0.041222	0.001979	20.8247	74.8567	-167.075	-0.042580	0.836968	-0.320490	-0.321782	-0.054987	20.8247	-0.318509	-8844.83	6.216832E-6	NaN
193	1.000000	0.882245	7.36693e+06	-48289.1	955.819	-29763.2	0.000000	0.000000	6.883093	-0.041404	NaN	0.000000	0.001653	0.001608	28.0775	0.049394	0.002024	24.4038	144.488	-168.273	-0.044065	0.880998	-0.276505	-0.277753	-0.041404	24.4038	-0.275233	-1999.53	2.070669E-5	NaN
193	1.000000	0.926250	7.36694e+06	-48289.1	955.819	-29763.2	0.000000	0.000000	6.927098	-0.052259	NaN	0.000000	0.001555	0.001666	28.0772	0.086383	0.002007	43.0473	-64.708	-162.723	0.020876	0.924977	-0.232500	-0.233774	-0.052259	43.0473	-0.231590	-424.227	0.000123	NaN
193	1.000000	0.970258	7.36694e+06	-48289.1	955.819	-29763.2	0.000000	0.000000	6.971107	-0.015088	NaN	0.000000	0.001594	0.001631	28.0784	0.066223	0.001973	33.5624	3.364733	-164.598	0.005865	0.968928	-0.188493	-0.189823	-0.015088	33.5624	-0.188156	-83.7858	0.000180	NaN
193	1.000000	1.014319	7.36694e+06	-48289.1	955.819	-29763.2	0.000000	0.000000	7.015168	-0.017118	NaN	0.000000	0.001577	0.001661	28.0787	0.049241	0.002022	24.3488	-129.223	-166.567	0.040198	1.012990	-0.144432	-0.145760	-0.017118	24.3488	-0.143905	-13.9916	0.001223	NaN
193	1.000000	1.058301	7.36694e+06	-48289.1	955.82	-29763.2	0.000000	0.000000	7.059151	-0.000275	NaN	0.000000	0.001515	0.001659	28.0787	0.061450	0.001940	31.678	50.8977	-162.378	-0.025457	1.057026	-0.100449	-0.101725	-0.000275	31.678	-0.100443	-1.868855	0.000147	NaN
193	1.000000	1.102319	7.36694e+06	-48289.1	955.819	-29763.2	0.000000	0.000000	7.103168	-0.031041	NaN	0.000000	0.001584	0.001668	28.0775	0.069768	0.002041	34.1796	79.9833	-163.936	-0.053397	1.101071	-0.056431	-0.057679	-0.031041	34.1796	-0.055750	-0.135507	0.229073	NaN
193	1.000000	1.146336	7.36694e+06	-48289.1	955.821	-29763.2	0.000000	0.000000	7.147185	-0.009976	NaN	0.000000	0.001572	0.001643	28.0774	0.085329	0.002016	42.3293	-41.4592	-166.006	-0.019304	1.145025	-0.012415	-0.013725	-0.009976	42.3293	-0.012238	-0.007665	1.301586	NaN
193	2.000000	1.173774	7.36694e+06	-48289.1	955.821	-29763.2	0.000000	0.000000	7.175266	15.6042	NaN	0.000000	0.001585	0.001632	28.0786	15.4617	0.002019	7657.39	13.4073	-179.82	14.7084	1.173511	0.015024	0.014760	15.6042	7657.39	0.013495	0.013331	1170.52	60593
193	2.000000	1.184753	7.36694e+06	-48289.1	955.821	-29763.2	0.000000	0.000000	7.187235	39.6952	NaN	0.000000	0.001591	0.001615	28.0788	25.2332	0.001797	14038.7	4.466480	-175.937	38.8699	1.184388	0.026003	0.025638	39.6952	14038.7	0.023882	0.029013	1368.19	75301.6
193	2.000000	1.195789	7.36694e+06	-48289.1	955.82	-29763.2	0.000000	0.000000	7.199695	74.323	NaN	0.000000	0.001582	0.001672	28.079	36.1824	0.001768	20466.7	3.941597	-178.874	75.4467	1.195436	0.037039	0.036686	74.323	20466.7	0.034315	0.050163	1481.63	83489.3
193	2.000000	1.206683	7.36694e+06	-48289.1	955.821	-29763.2	0.000000	0.000000	7.212837	129.011	NaN	0.000000	0.001610	0.001602	28.0787	49.1746	0.001731	28415.3	2.601790	178.941	127.473	1.206423	0.047932	0.047672	129.011	28415.3	0.044527	0.076250	1691.94	94016.6
193	2.000000	1.217700	7.36694e+06	-48289.1	955.821	-29763.2	0.000000	0.000000	7.226035	182.052	NaN	0.000000	0.001637	0.001674	28.0774	60.636	0.001782	34018.8	6.759862	173.394	182.136	1.217365	0.058950	0.058614	182.052	34018.8	0.054936	0.108278	1681.34	94454.3
193	2.000000	1.228650	7.36694e+06	-48289.1	955.82	-29763.2	0.000000	0.000000	7.239691	247.863	NaN	0.000000	0.001675	0.001633	28.0774	70.4451	0.001699	41452.8	8.507475	169.731	245.351	1.228379	0.069900	0.069628	247.863	41452.8	0.065415	0.145940	1698.4	99138
193	2.000000	1.239649	7.36694e+06	-48289.1	955.82	-29763.3	0.000000	0.000000	7.253619	319.114	NaN	0.000000	0.001662	0.001614	28.0775	82.4163	0.001826	45136.2	1.945921	175.952	316.66	1.239348	0.080898	0.080598	319.114	45136.2	0.075596	0.187593	1701.1	95211.6
193	2.000000	1.250632	7.36694e+06	-48289.1	955.821	-29763.3	0.000000	0.000000	7.267922	399.856	NaN	0.000000	0.001628	0.001617	28.0788	91.8664	0.001752	52436.3	5.438097	171.696	396.751	1.250228	0.091882	0.091477	399.856	52436.3	0.086163	0.235979	1694.46	98620.9
193	2.000000	1.261603	7.36694e+06	-48289.1	955.82	-29763.3	0.000000	0.000000	7.282812	495.158	NaN	0.000000	0.001626	0.001639	28.0787	101.417	0.001885	53798.7	2.358317	174.788	491.852	1.261435	0.102853	0.102684	495.158	53798.7	0.095950	0.285391	1735.02	92007.9
193	2.000000	1.266595	7.36694e+06	-48289.1	955.821	-29763.3	0.000000	0.000000	7.289878	545.612	NaN	0.000000	0.001608	0.001642	28.079	107.429	0.001718	62516.5	6.169119	169.993	540.707	1.266143	0.107845	0.107393	545.612	62516.5	0.101299	0.314247	1736.25	101890