File: remote_trans/data/nanoindenter/0828-1/data/Data_2025-08-06,11h17m57s/2025-07-22_16-23-58_1_724.txt
2025-07-22, 16:23:58, 1
Index	Phase	Displacement	Time	Pos X	Pos Y	Pos Z	Rot A	Rot B	Piezo Z	Force A	Force B	Gripper	Voltage A	Voltage B	Temperature	Amplitude force	Amplitude pos	Stiffness	Phase shift	Phase excitation	Force A raw	Displacement raw	HMax	HMax raw	Real Force	Real Stiffness	Contact Depth	Area	Hardness	Reduced Mod.
[#]	[#]	[um]	[s]	[um]	[um]	[um]	[m°]	[m°]	[um]	[uN]	[uN]	[V]	[V]	[V]	[°C]	[uN]	[um]	[N/m]	[°]	[°]	[uN]	[um]	[um]	[um]	[uN]	[N/m]	[um]	[um^2]	[MPa]	[MPa]
724	1.000000	0.002566	7.37214e+06	-40889.1	1005.82	-29788.2	0.000000	0.000000	6.002779	-0.019545	NaN	0.000000	0.001600	0.001700	28.0824	0.087647	0.001087	80.639	-70.0351	-163.171	0.001513	0.001319	-1.168645	-1.169892	-0.019545	80.639	-1.168463	-4.152300E+15	4.706936E-18	NaN
724	1.000000	0.046565	7.37214e+06	-40889.1	1005.82	-29788.2	0.000000	0.000000	6.046781	0.037867	NaN	0.000000	0.001661	0.001738	28.0826	0.125158	0.001938	64.5834	138.191	-166.327	0.049224	0.045245	-1.124646	-1.125966	0.037867	64.5834	-1.125086	-1.088175E+15	-3.479820E-17	NaN
724	1.000000	0.090550	7.37214e+06	-40889.1	1005.82	-29788.2	0.000000	0.000000	6.090764	-0.013667	NaN	0.000000	0.001589	0.001673	28.0812	0.138230	0.001932	71.5552	96.4457	-163.846	0.035446	0.089220	-1.080660	-1.081991	-0.013667	71.5552	-1.080517	-2.744503E+14	4.979850E-17	NaN
724	1.000000	0.134568	7.37214e+06	-40889.1	1005.82	-29788.2	0.000000	0.000000	6.134782	-0.002853	NaN	0.000000	0.001570	0.001752	28.081	0.037924	0.001996	18.997	92.3995	-171.076	0.007231	0.133315	-1.036643	-1.037896	-0.002853	18.997	-1.036530	-7.035759E+13	4.054398E-17	NaN
724	1.000000	0.178572	7.37214e+06	-40889.1	1005.82	-29788.2	0.000000	0.000000	6.178784	-0.070867	NaN	0.000000	0.001567	0.001684	28.0811	0.095069	0.001907	49.8402	-22.9092	-170.489	-0.010730	0.177298	-0.992639	-0.993913	-0.070867	49.8402	-0.991572	-1.746965E+13	4.056559E-15	NaN
724	1.000000	0.222591	7.37214e+06	-40889.1	1005.82	-29788.2	0.000000	0.000000	6.222807	0.030359	NaN	0.000000	0.001556	0.001690	28.082	0.031848	0.001969	16.1781	-146.567	-167.15	-0.010954	0.221345	-0.948620	-0.949866	0.030359	16.1781	-0.950027	-4.812752E+12	-6.308032E-15	NaN
724	1.000000	0.266607	7.37214e+06	-40889.1	1005.82	-29788.2	0.000000	0.000000	6.266822	0.012342	NaN	0.000000	0.001594	0.001661	28.0822	0.100569	0.001882	53.4284	83.1104	-167.123	-0.019923	0.265313	-0.904604	-0.905898	0.012342	53.4284	-0.904777	-1.179262E+12	-1.046617E-14	NaN
724	1.000000	0.310632	7.37214e+06	-40889.1	1005.82	-29788.2	0.000000	0.000000	6.310845	-0.013375	NaN	0.000000	0.001657	0.001715	28.0822	0.082857	0.001962	42.2229	35.0558	-164.959	-0.012204	0.309324	-0.860579	-0.861886	-0.013375	42.2229	-0.860341	-2.956255E+11	4.524253E-14	NaN
724	1.000000	0.354662	7.37214e+06	-40889.1	1005.82	-29788.2	0.000000	0.000000	6.354876	-0.009197	NaN	0.000000	0.001647	0.001665	28.0812	0.052127	0.002003	26.0293	20.9727	-171.013	-0.049783	0.353347	-0.816549	-0.817863	-0.009197	26.0293	-0.816284	-7.478503E+10	1.229814E-13	NaN
724	1.000000	0.398689	7.37214e+06	-40889.1	1005.82	-29788.2	0.000000	0.000000	6.398904	0.003020	NaN	0.000000	0.001592	0.001709	28.081	0.054228	0.002057	26.3607	-115.368	-165.563	-0.008937	0.397368	-0.772521	-0.773843	0.003020	26.3607	-0.772607	-1.908759E+10	-1.582318E-13	NaN
724	1.000000	0.442698	7.37214e+06	-40889.1	1005.82	-29788.2	0.000000	0.000000	6.442914	0.037464	NaN	0.000000	0.001608	0.001731	28.0811	0.056586	0.001939	29.1759	13.8443	-163.413	-0.012246	0.441367	-0.728512	-0.729843	0.037464	29.1759	-0.729475	-4.939210E+9	-7.585022E-12	NaN
724	1.000000	0.486697	7.37214e+06	-40889.1	1005.82	-29788.2	0.000000	0.000000	6.486910	-0.036577	NaN	0.000000	0.001639	0.001743	28.0822	0.039118	0.002004	19.5223	-179.853	-167.241	-0.088793	0.485419	-0.684513	-0.685792	-0.036577	19.5223	-0.683108	-1.150032E+9	3.180511E-11	NaN
724	1.000000	0.530729	7.37214e+06	-40889.1	1005.82	-29788.2	0.000000	0.000000	6.530943	-0.019440	NaN	0.000000	0.001575	0.001747	28.0825	0.079527	0.001934	41.1243	104.199	-169.042	0.006137	0.529386	-0.640481	-0.641824	-0.019440	41.1243	-0.640127	-2.965027E+8	6.556567E-11	NaN
724	1.000000	0.574726	7.37214e+06	-40889.1	1005.82	-29788.2	0.000000	0.000000	6.574940	-0.001202	NaN	0.000000	0.001617	0.001729	28.0825	0.032738	0.002027	16.154	-88.9607	-167.793	-0.044512	0.573444	-0.596485	-0.597766	-0.001202	16.154	-0.596429	-7.434837E+7	1.616452E-11	NaN
724	1.000000	0.618755	7.37214e+06	-40889.1	1005.82	-29788.2	0.000000	0.000000	6.618969	-0.017071	NaN	0.000000	0.001604	0.001691	28.081	0.133885	0.002026	66.0785	55.9035	-167.318	-0.026818	0.617454	-0.552456	-0.553757	-0.017071	66.0785	-0.552262	-1.825080E+7	9.353462E-10	NaN
724	1.000000	0.662804	7.37214e+06	-40889.1	1005.82	-29788.2	0.000000	0.000000	6.663020	0.035797	NaN	0.000000	0.001667	0.001722	28.0811	0.077848	0.002059	37.8001	74.9304	-170.923	-0.078999	0.661495	-0.508407	-0.509716	0.035797	37.8001	-0.509117	-4.59321e+06	-7.793557E-9	NaN
724	1.000000	0.706790	7.37214e+06	-40889.1	1005.82	-29788.2	0.000000	0.000000	6.707003	-0.017415	NaN	0.000000	0.001639	0.001694	28.0813	0.085418	0.002074	41.1865	178.264	-166.977	-0.037944	0.705479	-0.464421	-0.465732	-0.017415	41.1865	-0.464104	-1.07812e+06	1.615329E-8	NaN
724	1.000000	0.750831	7.37214e+06	-40889.1	1005.82	-29788.2	0.000000	0.000000	6.751044	-0.033399	NaN	0.000000	0.001636	0.001731	28.0827	0.087932	0.001953	45.0225	-146.824	-168.863	-0.070051	0.749504	-0.420379	-0.421707	-0.033399	45.0225	-0.419823	-255800	1.305683E-7	NaN
724	1.000000	0.794854	7.37214e+06	-40889.1	1005.82	-29788.2	0.000000	0.000000	6.795067	-0.020061	NaN	0.000000	0.001629	0.001691	28.0822	0.118813	0.002098	56.635	170.169	-168.515	-0.024671	0.793494	-0.376357	-0.377717	-0.020061	56.635	-0.376091	-60779	3.300678E-7	NaN
724	1.000000	0.838873	7.37214e+06	-40889.1	1005.82	-29788.2	0.000000	0.000000	6.839088	0.004051	NaN	0.000000	0.001659	0.001714	28.0821	0.095683	0.001940	49.3314	137.524	-164.437	-0.061236	0.837537	-0.332338	-0.333674	0.004051	49.3314	-0.332399	-14143.8	-2.863861E-7	NaN
724	1.000000	0.882892	7.37214e+06	-40889.1	1005.82	-29788.2	0.000000	0.000000	6.883107	0.013299	NaN	0.000000	0.001601	0.001667	28.0809	0.019644	0.001936	10.1489	-171.419	-165.095	0.083786	0.881609	-0.288318	-0.289601	0.013299	10.1489	-0.289301	-3257.08	-4.083179E-6	NaN
724	1.000000	0.926921	7.37214e+06	-40889.1	1005.82	-29788.2	0.000000	0.000000	6.927136	0.010933	NaN	0.000000	0.001559	0.001690	28.0809	0.050706	0.001978	25.6379	-170.009	-162.197	-0.050532	0.925602	-0.244290	-0.245609	0.010933	25.6379	-0.244609	-678.235	-1.611913E-5	NaN
724	1.000000	0.970919	7.37214e+06	-40889.1	1005.82	-29788.2	0.000000	0.000000	6.971131	-0.052190	NaN	0.000000	0.001584	0.001685	28.081	0.059325	0.002033	29.1809	18.5334	-166.339	-0.011639	0.969607	-0.200292	-0.201603	-0.052190	29.1809	-0.198951	-126.601	0.000412	NaN
724	1.000000	1.014944	7.37214e+06	-40889.1	1005.82	-29788.2	0.000000	0.000000	7.015157	-0.029380	NaN	0.000000	0.001562	0.001700	28.081	0.048737	0.002162	22.539	22.5432	-169.221	-0.042880	1.013647	-0.156267	-0.157563	-0.029380	22.539	-0.155289	-22.5833	0.001301	NaN
724	1.000000	1.058930	7.37214e+06	-40889.1	1005.82	-29788.2	0.000000	0.000000	7.059144	-0.012424	NaN	0.000000	0.001576	0.001680	28.0823	0.058382	0.002043	28.5787	60.6548	-171.344	-0.034113	1.057642	-0.112281	-0.113569	-0.012424	28.5787	-0.111955	-3.302994	0.003761	NaN
724	1.000000	1.102974	7.37214e+06	-40889.1	1005.82	-29788.2	0.000000	0.000000	7.103190	0.056795	NaN	0.000000	0.001566	0.001675	28.0819	0.069960	0.001963	35.6464	119.274	-168.91	0.036497	1.101670	-0.068237	-0.069541	0.056795	35.6464	-0.069432	-0.329342	-0.172449	NaN
724	1.000000	1.147025	7.37214e+06	-40889.1	1005.82	-29788.2	0.000000	0.000000	7.147240	0.016124	NaN	0.000000	0.001590	0.001719	28.0819	0.136767	0.001972	69.3588	36.881	-165.344	-0.114274	1.145719	-0.024186	-0.025492	0.016124	69.3588	-0.024360	-0.016235	-0.993149	NaN
724	2.000000	1.178546	7.37214e+06	-40889.1	1005.82	-29788.2	0.000000	0.000000	7.179381	15.116	NaN	0.000000	0.001600	0.001774	28.081	13.2968	0.001808	7353.27	8.146305	-176.57	15.6905	1.178216	0.007335	0.007005	15.116	7353.27	0.005794	0.004869	3104.38	96277
724	2.000000	1.189461	7.37214e+06	-40889.1	1005.82	-29788.2	0.000000	0.000000	7.191432	42.7308	NaN	0.000000	0.001551	0.001788	28.0814	24.1646	0.001694	14262.7	6.291888	178.266	42.248	1.189147	0.018251	0.017936	42.7308	14262.7	0.016004	0.016647	2566.86	100996
724	2.000000	1.200426	7.37214e+06	-40889.1	1005.82	-29788.2	0.000000	0.000000	7.203637	72.9326	NaN	0.000000	0.001664	0.001761	28.081	33.5281	0.001756	19088.1	4.873722	178.205	73.141	1.200135	0.029215	0.028924	72.9326	19088.1	0.026350	0.033517	2176.02	95259
724	2.000000	1.211509	7.37214e+06	-40889.1	1005.82	-29788.2	0.000000	0.000000	7.216252	110.203	NaN	0.000000	0.001605	0.001767	28.082	45.0513	0.001969	22880.9	6.800751	175.168	113.83	1.211098	0.040298	0.039887	110.203	22880.9	0.036686	0.055744	1976.96	88542
724	2.000000	1.222353	7.37214e+06	-40889.1	1005.82	-29788.2	0.000000	0.000000	7.229590	170.886	NaN	0.000000	0.001581	0.001743	28.082	54.3865	0.001882	28897.4	3.974367	175.455	167.981	1.222063	0.051142	0.050853	170.886	28897.4	0.046707	0.082508	2071.15	91914.7
724	2.000000	1.233412	7.37214e+06	-40889.1	1005.82	-29788.2	0.000000	0.000000	7.243083	230.101	NaN	0.000000	0.001586	0.001716	28.0823	63.3276	0.001674	37821	5.105837	172.65	231.473	1.233083	0.062202	0.061872	230.101	37821	0.057639	0.117478	1958.67	100816
724	2.000000	1.244388	7.37214e+06	-40889.1	1005.82	-29788.2	0.000000	0.000000	7.256446	288.187	NaN	0.000000	0.001571	0.001712	28.0808	73.7158	0.001742	42312.8	2.953801	173.326	287.384	1.244250	0.073177	0.073040	288.187	42312.8	0.068069	0.156322	1843.54	97776.4
724	2.000000	1.255252	7.37214e+06	-40889.1	1005.82	-29788.2	0.000000	0.000000	7.270791	372.876	NaN	0.000000	0.001601	0.001714	28.0806	85.4174	0.001814	47080.2	5.306186	171.068	368.524	1.254962	0.084042	0.083751	372.876	47080.2	0.078102	0.198597	1877.55	96521.8
724	2.000000	1.266288	7.37214e+06	-40889.1	1005.82	-29788.2	0.000000	0.000000	7.285519	462.749	NaN	0.000000	0.001609	0.001725	28.0807	91.816	0.001774	51746	-0.260403	175.696	457.977	1.266012	0.095077	0.094802	462.749	51746	0.088370	0.246740	1875.45	95176.6
724	2.000000	1.272857	7.37214e+06	-40889.1	1005.82	-29788.2	0.000000	0.000000	7.294109	511.929	NaN	0.000000	0.001590	0.001704	28.0819	100.098	0.001840	54397.5	7.435702	-12.4872	509.783	1.272483	0.101646	0.101272	511.929	54397.5	0.094588	0.278252	1839.8	94217.7