File: remote_trans/data/nanoindenter/0828-1/data/Data_2025-08-06,11h17m57s/2025-07-22_16-23-58_1_324.txt
2025-07-22, 16:23:58, 1
Index	Phase	Displacement	Time	Pos X	Pos Y	Pos Z	Rot A	Rot B	Piezo Z	Force A	Force B	Gripper	Voltage A	Voltage B	Temperature	Amplitude force	Amplitude pos	Stiffness	Phase shift	Phase excitation	Force A raw	Displacement raw	HMax	HMax raw	Real Force	Real Stiffness	Contact Depth	Area	Hardness	Reduced Mod.
[#]	[#]	[um]	[s]	[um]	[um]	[um]	[m°]	[m°]	[um]	[uN]	[uN]	[V]	[V]	[V]	[°C]	[uN]	[um]	[N/m]	[°]	[°]	[uN]	[um]	[um]	[um]	[uN]	[N/m]	[um]	[um^2]	[MPa]	[MPa]
324	1.000000	0.002643	7.36823e+06	-54839.1	955.818	-29743.2	0.000000	0.000000	6.002781	0.036702	NaN	0.000000	0.001602	0.001685	28.0795	0.082801	0.000884	93.6889	82.9879	-164.534	-0.015980	0.001390	-0.982302	-0.983554	0.036702	93.6889	-0.982596	-1.322446E+13	-2.775329E-15	NaN
324	1.000000	0.040610	7.36823e+06	-54839.1	955.818	-29743.2	0.000000	0.000000	6.040750	0.075256	NaN	0.000000	0.001632	0.001663	28.0796	0.042940	0.001931	22.2364	-22.835	14.4165	0.151635	0.039294	-0.944334	-0.945651	0.075256	22.2364	-0.946873	-4.363627E+12	-1.724615E-14	NaN
324	1.000000	0.078599	7.36824e+06	-54839.1	955.819	-29743.2	0.000000	0.000000	6.078741	0.144155	NaN	0.000000	0.001618	0.001622	28.0808	0.051592	0.002037	25.3267	66.9066	-167.867	0.055736	0.077296	-0.906346	-0.907649	0.144155	25.3267	-0.910615	-1.414067E+12	-1.019433E-13	NaN
324	1.000000	0.116637	7.36824e+06	-54839.1	955.819	-29743.2	0.000000	0.000000	6.116773	-0.003247	NaN	0.000000	0.001645	0.001641	28.081	0.087228	0.002013	43.3404	11.6282	12.6545	0.017108	0.115275	-0.868308	-0.869670	-0.003247	43.3404	-0.868251	-3.782558E+11	8.582857E-15	NaN
324	1.000000	0.154657	7.36824e+06	-54839.1	955.819	-29743.2	0.000000	0.000000	6.154795	0.045804	NaN	0.000000	0.001571	0.001672	28.081	0.082771	0.001955	42.3291	-42.8401	-164.355	-0.046640	0.153412	-0.830287	-0.831533	0.045804	42.3291	-0.831099	-1.187626E+11	-3.856772E-13	NaN
324	1.000000	0.192662	7.36824e+06	-54839.1	955.818	-29743.2	0.000000	0.000000	6.192800	0.028780	NaN	0.000000	0.001596	0.001610	28.081	0.017909	0.001948	9.194646	102.782	14.5751	0.000795	0.191332	-0.792282	-0.793613	0.028780	9.194646	-0.794630	-3.801509E+10	-7.570795E-13	NaN
324	1.000000	0.230684	7.36824e+06	-54839.1	955.819	-29743.2	0.000000	0.000000	6.230822	0.047057	NaN	0.000000	0.001644	0.001635	28.0796	0.067176	0.002033	33.0392	91.5158	-164.88	0.002037	0.229398	-0.754261	-0.755547	0.047057	33.0392	-0.755329	-1.111098E+10	-4.235165E-12	NaN
324	1.000000	0.268732	7.36824e+06	-54839.1	955.818	-29743.2	0.000000	0.000000	6.268870	0.034106	NaN	0.000000	0.001605	0.001624	28.0796	0.057794	0.001956	29.5514	-9.595642	17.1914	0.050349	0.267321	-0.716213	-0.717624	0.034106	29.5514	-0.717078	-3.346748E+9	-1.019086E-11	NaN
324	1.000000	0.306747	7.36824e+06	-54839.1	955.818	-29743.2	0.000000	0.000000	6.306882	-0.039893	NaN	0.000000	0.001596	0.001624	28.0796	0.121175	0.002051	59.0761	-133.353	-161.657	0.001932	0.305431	-0.678198	-0.679513	-0.039893	59.0761	-0.677691	-9.696718E+8	4.114097E-11	NaN
324	1.000000	0.344738	7.36824e+06	-54839.1	955.819	-29743.2	0.000000	0.000000	6.344876	0.030920	NaN	0.000000	0.001639	0.001575	28.0798	0.036905	0.002053	17.9756	18.105	18.3009	0.080809	0.343365	-0.640206	-0.641579	0.030920	17.9756	-0.641496	-3.096140E+8	-9.986635E-11	NaN
324	1.000000	0.382769	7.36824e+06	-54839.1	955.819	-29743.2	0.000000	0.000000	6.382906	0.032281	NaN	0.000000	0.001616	0.001616	28.0811	0.066034	0.002012	32.8262	-177.911	-164.157	0.042192	0.381494	-0.602176	-0.603451	0.032281	32.8262	-0.602914	-9.132344E+7	-3.534825E-10	NaN
324	1.000000	0.420751	7.36824e+06	-54839.1	955.818	-29743.2	0.000000	0.000000	6.420889	0.046999	NaN	0.000000	0.001650	0.001653	28.0809	0.092710	0.001989	46.6149	169.909	14.0139	0.035352	0.419391	-0.564194	-0.565554	0.046999	46.6149	-0.564950	-2.734223E+7	-1.718907E-9	NaN
324	1.000000	0.458786	7.36824e+06	-54839.1	955.818	-29743.2	0.000000	0.000000	6.458920	-0.050711	NaN	0.000000	0.001614	0.001662	28.0811	0.101769	0.001971	51.6207	-60.9398	-163.504	0.026596	0.457471	-0.526159	-0.527473	-0.050711	51.6207	-0.525422	-7.74423e+06	6.548263E-9	NaN
324	1.000000	0.496796	7.36824e+06	-54839.1	955.818	-29743.2	0.000000	0.000000	6.496933	0.034343	NaN	0.000000	0.001648	0.001645	28.08	0.142132	0.001899	74.844	-89.6046	21.6692	-0.037514	0.495459	-0.488149	-0.489486	0.034343	74.844	-0.488493	-2.36775e+06	-1.450461E-8	NaN
324	1.000000	0.534829	7.36824e+06	-54839.1	955.818	-29743.2	0.000000	0.000000	6.534966	0.015396	NaN	0.000000	0.001631	0.001664	28.0796	0.112743	0.002157	52.2754	-143.774	-166.874	-0.072939	0.533535	-0.450116	-0.451410	0.015396	52.2754	-0.450337	-690370	-2.230036E-8	NaN
324	1.000000	0.572801	7.36824e+06	-54839.1	955.818	-29743.2	0.000000	0.000000	6.572938	0.004971	NaN	0.000000	0.001701	0.001654	28.0797	0.013363	0.002099	6.367854	-173.417	13.8323	-0.016198	0.571482	-0.412143	-0.413463	0.004971	6.367854	-0.412729	-202858	-2.450587E-8	NaN
324	1.000000	0.610872	7.36824e+06	-54839.1	955.819	-29743.2	0.000000	0.000000	6.611008	-0.016411	NaN	0.000000	0.001719	0.001732	28.0796	0.094351	0.001967	47.9611	75.4128	-161.494	-0.086695	0.609530	-0.374073	-0.375415	-0.016411	47.9611	-0.373816	-56370	2.911344E-7	NaN
324	1.000000	0.648826	7.36824e+06	-54839.1	955.819	-29743.2	0.000000	0.000000	6.648961	-0.012012	NaN	0.000000	0.001715	0.001735	28.0811	0.139145	0.002119	65.673	5.911454	12.6014	-0.023608	0.647501	-0.336119	-0.337443	-0.012012	65.673	-0.335982	-15956.2	7.527903E-7	NaN
324	1.000000	0.686905	7.36824e+06	-54839.1	955.818	-29743.2	0.000000	0.000000	6.687044	0.062937	NaN	0.000000	0.001709	0.001740	28.0809	0.008436	0.002067	4.081952	101.778	-163.62	0.027847	0.685590	-0.298039	-0.299355	0.062937	4.081952	-0.309603	-6534.03	-9.632142E-6	NaN
324	1.000000	0.724908	7.36824e+06	-54839.1	955.817	-29743.2	0.000000	0.000000	6.725043	-0.007583	NaN	0.000000	0.001698	0.001673	28.0807	0.047622	0.001885	25.2692	-156.934	14.4483	0.062998	0.723570	-0.260037	-0.261375	-0.007583	25.2692	-0.259812	-1164.23	6.513333E-6	NaN
324	1.000000	0.762890	7.36824e+06	-54839.1	955.819	-29743.2	0.000000	0.000000	6.763027	0.006518	NaN	0.000000	0.001697	0.001616	28.0794	0.082918	0.001960	42.3021	69.408	-165.302	0.025527	0.761596	-0.222054	-0.223349	0.006518	42.3021	-0.222170	-300.822	-2.166871E-5	NaN
324	1.000000	0.800927	7.36824e+06	-54839.1	955.818	-29743.2	0.000000	0.000000	6.801064	-0.001150	NaN	0.000000	0.001714	0.001651	28.0796	0.030185	0.002028	14.8814	40.2084	14.5508	0.018438	0.799587	-0.184017	-0.185358	-0.001150	14.8814	-0.183959	-71.2159	1.614119E-5	NaN
324	1.000000	0.838950	7.36824e+06	-54839.1	955.818	-29743.2	0.000000	0.000000	6.839087	0.001713	NaN	0.000000	0.001694	0.001723	28.0799	0.017365	0.001951	8.899348	92.6848	-162.334	0.006423	0.837625	-0.145994	-0.147320	0.001713	8.899348	-0.146139	-15.3887	-0.000111	NaN
324	1.000000	0.876989	7.36824e+06	-54839.1	955.818	-29743.2	0.000000	0.000000	6.877127	0.064271	NaN	0.000000	0.001684	0.001748	28.0798	0.067098	0.001933	34.7103	6.738888	16.6785	0.021179	0.875668	-0.107956	-0.109276	0.064271	34.7103	-0.109345	-2.910979	-0.022079	NaN
324	1.000000	0.914974	7.36824e+06	-54839.1	955.818	-29743.2	0.000000	0.000000	6.915111	0.024683	NaN	0.000000	0.001607	0.001745	28.081	0.087798	0.001965	44.6733	-103.147	-166.05	0.012565	0.913678	-0.069971	-0.071267	0.024683	44.6733	-0.070385	-0.349293	-0.070666	NaN
324	1.000000	0.953004	7.36824e+06	-54839.1	955.818	-29743.2	0.000000	0.000000	6.953142	0.032150	NaN	0.000000	0.001611	0.001760	28.0809	0.115783	0.001978	58.5469	-111.335	18.3929	0.039086	0.951628	-0.031941	-0.033317	0.032150	58.5469	-0.032353	-0.026822	-1.198616	NaN
324	1.000000	0.990988	7.36824e+06	-54839.1	955.819	-29743.2	0.000000	0.000000	6.991322	4.828632	NaN	0.000000	0.001647	0.001742	28.0809	4.983120	0.001701	2929.4	12.6773	-169.313	3.689571	0.989669	0.006043	0.004725	4.828632	2929.4	0.004807	0.003958	1220.12	42544.1
324	2.000000	1.003066	7.36824e+06	-54839.1	955.818	-29743.2	0.000000	0.000000	7.003901	16.9945	NaN	0.000000	0.001644	0.001744	28.0809	15.9305	0.001796	8867.94	6.324243	6.281056	15.9452	1.002734	0.018121	0.017789	16.9945	8867.94	0.016684	0.017596	965.801	61078
324	2.000000	1.012617	7.36824e+06	-54839.1	955.818	-29743.2	0.000000	0.000000	7.014338	38.5081	NaN	0.000000	0.001654	0.001657	28.0796	25.076	0.001806	13883.2	6.159567	-175.356	39.8472	1.012176	0.027672	0.027231	38.5081	13883.2	0.025592	0.032102	1199.56	70794.2
324	2.000000	1.022010	7.36824e+06	-54839.1	955.819	-29743.2	0.000000	0.000000	7.024873	66.2904	NaN	0.000000	0.001646	0.001695	28.0796	35.6831	0.001771	20146.9	6.284148	-1.245174	63.9984	1.021687	0.037065	0.036742	66.2904	20146.9	0.034597	0.050813	1304.6	81657.2
324	2.000000	1.031486	7.36824e+06	-54839.1	955.819	-29743.2	0.000000	0.000000	7.035663	98.2274	NaN	0.000000	0.001634	0.001713	28.0795	44.7108	0.001828	24460.1	4.193772	179.336	97.0205	1.031208	0.046542	0.046263	98.2274	24460.1	0.043530	0.073469	1337	82448.1
324	2.000000	1.041058	7.36824e+06	-54839.1	955.819	-29743.2	0.000000	0.000000	7.046719	134.308	NaN	0.000000	0.001655	0.001660	28.0813	54.1652	0.001729	31328.5	6.035737	-5.768734	134.552	1.040758	0.056113	0.055813	134.308	31328.5	0.052898	0.101581	1322.18	89806.4
324	2.000000	1.050500	7.36824e+06	-54839.1	955.818	-29743.2	0.000000	0.000000	7.058167	183.087	NaN	0.000000	0.001641	0.001695	28.0814	62.835	0.001705	36853.9	6.083888	173.752	182.887	1.050109	0.065555	0.065164	183.087	36853.9	0.061829	0.132449	1382.32	92519.5
324	2.000000	1.059948	7.36824e+06	-54839.1	955.819	-29743.2	0.000000	0.000000	7.070143	244.518	NaN	0.000000	0.001626	0.001690	28.0814	71.4149	0.001749	40835.9	3.818316	-4.066682	241.439	1.059700	0.075003	0.074756	244.518	40835.9	0.070512	0.166178	1471.42	91522.7
324	2.000000	1.069410	7.36824e+06	-54839.1	955.818	-29743.2	0.000000	0.000000	7.082178	307.079	NaN	0.000000	0.001723	0.001651	28.081	81.9303	0.001835	44653.3	1.418313	177.422	304.857	1.069092	0.084465	0.084147	307.079	44653.3	0.079307	0.203997	1505.31	90326.4
324	2.000000	1.078946	7.36824e+06	-54839.1	955.819	-29743.2	0.000000	0.000000	7.094207	367.681	NaN	0.000000	0.001735	0.001676	28.0797	91.7888	0.001841	49850	4.213315	-6.107453	364.902	1.078588	0.094001	0.093643	367.681	49850	0.088469	0.247229	1487.21	91598.5
324	2.000000	1.088428	7.36824e+06	-54839.1	955.819	-29743.2	0.000000	0.000000	7.106853	444.587	NaN	0.000000	0.001665	0.001699	28.0796	98.6872	0.001735	56893.5	4.215086	172.941	442.406	1.088074	0.103483	0.103130	444.587	56893.5	0.097623	0.294274	1510.79	95820.7
324	2.000000	1.092998	7.36824e+06	-54839.1	955.819	-29743.2	0.000000	0.000000	7.112409	468.568	NaN	0.000000	0.001641	0.001665	28.0797	103.428	0.001800	57476	3.212038	-6.706700	469.944	1.092823	0.108053	0.107878	468.568	57476	0.101939	0.317786	1474.48	93152