File: remote_trans/data/nanoindenter/0828-1/data/Data_2025-08-06,11h17m57s/2025-07-22_16-23-58_1_310.txt
2025-07-22, 16:23:58, 1
Index	Phase	Displacement	Time	Pos X	Pos Y	Pos Z	Rot A	Rot B	Piezo Z	Force A	Force B	Gripper	Voltage A	Voltage B	Temperature	Amplitude force	Amplitude pos	Stiffness	Phase shift	Phase excitation	Force A raw	Displacement raw	HMax	HMax raw	Real Force	Real Stiffness	Contact Depth	Area	Hardness	Reduced Mod.
[#]	[#]	[um]	[s]	[um]	[um]	[um]	[m°]	[m°]	[um]	[uN]	[uN]	[V]	[V]	[V]	[°C]	[uN]	[um]	[N/m]	[°]	[°]	[uN]	[um]	[um]	[um]	[uN]	[N/m]	[um]	[um^2]	[MPa]	[MPa]
310	1.000000	0.002338	7.3681e+06	-54139.1	955.819	-29744.6	0.000000	0.000000	6.002774	-0.020222	NaN	0.000000	0.001630	0.001715	28.0803	0.077336	0.000917	84.3072	130.467	-167.212	-0.098697	0.001139	-1.054229	-1.055427	-0.020222	84.3072	-1.054049	-1.210154E+14	1.671057E-16	NaN
310	1.000000	0.042307	7.3681e+06	-54139.1	955.818	-29744.6	0.000000	0.000000	6.042746	0.020567	NaN	0.000000	0.001578	0.001725	28.0814	0.108599	0.001908	56.9298	-46.3393	-166.576	0.018182	0.040970	-1.014259	-1.015596	0.020567	56.9298	-1.014530	-3.559180E+13	-5.778508E-16	NaN
310	1.000000	0.082354	7.3681e+06	-54139.1	955.818	-29744.6	0.000000	0.000000	6.082793	0.028922	NaN	0.000000	0.001576	0.001729	28.0821	0.068385	0.001932	35.3929	15.6818	-163.465	-0.013245	0.081019	-0.974212	-0.975548	0.028922	35.3929	-0.974825	-1.039175E+13	-2.783208E-15	NaN
310	1.000000	0.122344	7.3681e+06	-54139.1	955.818	-29744.6	0.000000	0.000000	6.122779	-0.044243	NaN	0.000000	0.001599	0.001706	28.0815	0.049447	0.002038	24.2645	-154.472	-164.119	-0.046364	0.121002	-0.934223	-0.935564	-0.044243	24.2645	-0.932855	-2.823129E+12	1.567157E-14	NaN
310	1.000000	0.162347	7.3681e+06	-54139.1	955.818	-29744.6	0.000000	0.000000	6.162783	-0.028599	NaN	0.000000	0.001583	0.001699	28.0802	0.090035	0.001924	46.7972	47.895	-165.57	-0.068637	0.161019	-0.894219	-0.895547	-0.028599	46.7972	-0.893761	-8.370492E+11	3.416593E-14	NaN
310	1.000000	0.202378	7.3681e+06	-54139.1	955.818	-29744.6	0.000000	0.000000	6.202813	-0.047964	NaN	0.000000	0.001545	0.001683	28.0801	0.096649	0.001861	51.9316	4.450270	-167.404	-0.002062	0.201089	-0.854188	-0.855478	-0.047964	51.9316	-0.853496	-2.388203E+11	2.008362E-13	NaN
310	1.000000	0.242384	7.3681e+06	-54139.1	955.818	-29744.6	0.000000	0.000000	6.242819	-0.059674	NaN	0.000000	0.001643	0.001699	28.08	0.041532	0.001958	21.2067	-25.9052	-164.219	-0.023577	0.241062	-0.814182	-0.815504	-0.059674	21.2067	-0.812072	-6.556610E+10	9.101371E-13	NaN
310	1.000000	0.282394	7.3681e+06	-54139.1	955.818	-29744.6	0.000000	0.000000	6.282832	0.022139	NaN	0.000000	0.001585	0.001671	28.0814	0.076445	0.001919	39.8314	-76.6202	-164.439	0.022361	0.281077	-0.774173	-0.775490	0.022139	39.8314	-0.774590	-2.030956E+10	-1.090069E-12	NaN
310	1.000000	0.322426	7.3681e+06	-54139.1	955.818	-29744.6	0.000000	0.000000	6.322864	0.029526	NaN	0.000000	0.001643	0.001665	28.0817	0.008554	0.002103	4.068378	-101.022	-161.439	-0.042730	0.321130	-0.734141	-0.735437	0.029526	4.068378	-0.739584	-6.782421E+9	-4.353259E-12	NaN
310	1.000000	0.362443	7.3681e+06	-54139.1	955.818	-29744.6	0.000000	0.000000	6.362880	-0.005353	NaN	0.000000	0.001581	0.001690	28.0816	0.035148	0.002019	17.4125	70.3414	-162.483	0.042918	0.361122	-0.694123	-0.695445	-0.005353	17.4125	-0.693893	-1.614772E+9	3.314841E-12	NaN
310	1.000000	0.402461	7.3681e+06	-54139.1	955.819	-29744.6	0.000000	0.000000	6.402897	-0.019436	NaN	0.000000	0.001605	0.001708	28.0811	0.050764	0.002004	25.3327	110.76	-165.372	-0.023964	0.401166	-0.654106	-0.655401	-0.019436	25.3327	-0.653530	-4.527168E+8	4.293278E-11	NaN
310	1.000000	0.442492	7.3681e+06	-54139.1	955.818	-29744.6	0.000000	0.000000	6.442930	0.003857	NaN	0.000000	0.001637	0.001709	28.0804	0.075462	0.002076	36.351	-158.799	-165.964	-0.019088	0.441164	-0.614074	-0.615402	0.003857	36.351	-0.614154	-1.303918E+8	-2.957946E-11	NaN
310	1.000000	0.482498	7.3681e+06	-54139.1	955.817	-29744.6	0.000000	0.000000	6.482935	-0.013119	NaN	0.000000	0.001585	0.001702	28.0806	0.076255	0.001979	38.5338	-173.943	-165.193	-0.051960	0.481171	-0.574068	-0.575395	-0.013119	38.5338	-0.573813	-3.624989E+7	3.619020E-10	NaN
310	1.000000	0.522514	7.3681e+06	-54139.1	955.819	-29744.6	0.000000	0.000000	6.522951	-0.013846	NaN	0.000000	0.001603	0.001673	28.0804	0.009439	0.002007	4.702983	-108.504	-168.766	-0.048989	0.521159	-0.534052	-0.535407	-0.013846	4.702983	-0.531844	-9.50999e+06	1.455962E-9	NaN
310	1.000000	0.562553	7.3681e+06	-54139.1	955.818	-29744.6	0.000000	0.000000	6.562990	-0.012631	NaN	0.000000	0.001595	0.001679	28.0805	0.031725	0.001881	16.8641	33.0152	-168.124	0.013950	0.561248	-0.494013	-0.495318	-0.012631	16.8641	-0.493451	-2.77721e+06	4.548096E-9	NaN
310	1.000000	0.602572	7.3681e+06	-54139.1	955.818	-29744.6	0.000000	0.000000	6.603008	-0.032437	NaN	0.000000	0.001604	0.001678	28.0816	0.069619	0.001906	36.5192	166.553	-165.198	-0.026508	0.601239	-0.453995	-0.455328	-0.032437	36.5192	-0.453328	-760673	4.264306E-8	NaN
310	1.000000	0.642557	7.3681e+06	-54139.1	955.817	-29744.6	0.000000	0.000000	6.642994	-0.011537	NaN	0.000000	0.001631	0.001685	28.0815	0.087884	0.002020	43.5159	27.493	-163.081	0.011321	0.641275	-0.414009	-0.415292	-0.011537	43.5159	-0.413810	-210164	5.489596E-8	NaN
310	1.000000	0.682591	7.3681e+06	-54139.1	955.818	-29744.6	0.000000	0.000000	6.683028	-0.011102	NaN	0.000000	0.001634	0.001678	28.0819	0.011835	0.001883	6.283797	70.1155	-161.475	0.000905	0.681240	-0.373975	-0.375327	-0.011102	6.283797	-0.372650	-54234.4	2.047081E-7	NaN
310	1.000000	0.722592	7.3681e+06	-54139.1	955.819	-29744.6	0.000000	0.000000	6.723028	-0.029163	NaN	0.000000	0.001622	0.001694	28.0803	0.053437	0.002065	25.8804	107.824	-163.282	0.015495	0.721297	-0.333975	-0.335269	-0.029163	25.8804	-0.333130	-14496	2.011779E-6	NaN
310	1.000000	0.762616	7.3681e+06	-54139.1	955.818	-29744.6	0.000000	0.000000	6.763050	-0.072784	NaN	0.000000	0.001630	0.001701	28.0799	0.088136	0.001948	45.2357	-82.1665	-163.294	-0.034654	0.761318	-0.293951	-0.295248	-0.072784	45.2357	-0.292744	-3667.57	1.984530E-5	NaN
310	1.000000	0.802601	7.3681e+06	-54139.1	955.818	-29744.6	0.000000	0.000000	6.803035	-0.074360	NaN	0.000000	0.001654	0.001658	28.0803	0.099132	0.002001	49.5395	35.2439	-166.284	-0.045406	0.801323	-0.253966	-0.255244	-0.074360	49.5395	-0.252840	-909.56	8.175329E-5	NaN
310	1.000000	0.842644	7.3681e+06	-54139.1	955.818	-29744.6	0.000000	0.000000	6.843082	0.015184	NaN	0.000000	0.001620	0.001690	28.0811	0.068156	0.001985	34.3311	-49.6851	-163.734	-0.045328	0.841328	-0.213922	-0.215239	0.015184	34.3311	-0.214254	-224.653	-6.758926E-5	NaN
310	1.000000	0.882647	7.3681e+06	-54139.1	955.819	-29744.6	0.000000	0.000000	6.883086	0.017943	NaN	0.000000	0.001638	0.001682	28.0816	0.051469	0.002037	25.2653	-91.8679	-165.693	0.039211	0.881372	-0.173919	-0.175195	0.017943	25.2653	-0.174452	-49.0402	-0.000366	NaN
310	1.000000	0.922664	7.3681e+06	-54139.1	955.817	-29744.6	0.000000	0.000000	6.923102	-0.003368	NaN	0.000000	0.001618	0.001681	28.0811	0.072827	0.001945	37.4448	147.048	-162.884	-0.029527	0.921334	-0.133902	-0.135232	-0.003368	37.4448	-0.133835	-9.036435	0.000373	NaN
310	1.000000	0.962685	7.3681e+06	-54139.1	955.817	-29744.6	0.000000	0.000000	6.963122	0.011225	NaN	0.000000	0.001581	0.001675	28.0813	0.078551	0.001896	41.4315	-15.417	-163.608	0.051648	0.961377	-0.093882	-0.095190	0.011225	41.4315	-0.094085	-1.344351	-0.008350	NaN
310	1.000000	1.002732	7.3681e+06	-54139.1	955.817	-29744.6	0.000000	0.000000	7.003169	-0.012835	NaN	0.000000	0.001630	0.001659	28.0801	0.073234	0.002080	35.2071	-84.0008	-167.615	-0.010837	1.001378	-0.053835	-0.055189	-0.012835	35.2071	-0.053561	-0.116722	0.109963	NaN
310	1.000000	1.042752	7.3681e+06	-54139.1	955.818	-29744.6	0.000000	0.000000	7.043188	-0.025638	NaN	0.000000	0.001614	0.001689	28.0803	0.075897	0.001923	39.4702	8.332232	-165.945	-0.048628	1.041441	-0.013814	-0.015125	-0.025638	39.4702	-0.013327	-0.008291	3.092065	NaN
310	2.000000	1.071240	7.3681e+06	-54139.1	955.816	-29744.6	0.000000	0.000000	7.072160	11.7315	NaN	0.000000	0.001622	0.001667	28.0815	12.6709	0.001834	6907.71	5.228318	-171.974	11.0153	1.071046	0.014673	0.014480	11.7315	6907.71	0.013400	0.013210	888.072	54910.4
310	2.000000	1.081192	7.3681e+06	-54139.1	955.818	-29744.6	0.000000	0.000000	7.082879	30.3777	NaN	0.000000	0.001587	0.001700	28.0816	23.5034	0.001875	12533.3	4.544278	-175.114	30.0221	1.080850	0.024626	0.024284	30.3777	12533.3	0.022808	0.027148	1118.97	69497.8
310	2.000000	1.091129	7.3681e+06	-54139.1	955.816	-29744.6	0.000000	0.000000	7.093714	52.2038	NaN	0.000000	0.001571	0.001724	28.0815	33.6139	0.001869	17986.7	6.165444	178.94	49.3112	1.090920	0.034563	0.034353	52.2038	17986.7	0.032386	0.045834	1138.98	76759.5
310	2.000000	1.101201	7.3681e+06	-54139.1	955.817	-29744.6	0.000000	0.000000	7.105154	85.4509	NaN	0.000000	0.001618	0.001691	28.0818	43.6321	0.001972	22123.5	11.4766	173.779	87.7992	1.100824	0.044635	0.044257	85.4509	22123.5	0.041738	0.068597	1245.69	77174.3
310	2.000000	1.111089	7.3681e+06	-54139.1	955.817	-29744.6	0.000000	0.000000	7.116591	123.13	NaN	0.000000	0.001583	0.001706	28.0816	53.0591	0.001838	28870.4	3.100169	177.322	120.532	1.110988	0.054522	0.054422	123.13	28870.4	0.051323	0.096548	1275.33	84889.7
310	2.000000	1.121111	7.3681e+06	-54139.1	955.818	-29744.6	0.000000	0.000000	7.128376	165.997	NaN	0.000000	0.001613	0.001693	28.0805	60.2137	0.001765	34117.3	-0.359227	-179.709	164.896	1.120964	0.064544	0.064397	165.997	34117.3	0.060895	0.129037	1286.43	86774.3
310	2.000000	1.131095	7.3681e+06	-54139.1	955.817	-29744.6	0.000000	0.000000	7.140809	225.514	NaN	0.000000	0.001599	0.001701	28.0804	71.6277	0.001705	41999.4	7.257295	170.717	225.144	1.130824	0.074529	0.074258	225.514	41999.4	0.070502	0.166134	1357.42	94142.7
310	2.000000	1.141078	7.36811e+06	-54139.1	955.817	-29744.6	0.000000	0.000000	7.153773	297.989	NaN	0.000000	0.001567	0.001665	28.0806	82.1879	0.001737	47319.4	5.189906	171.56	296.535	1.140848	0.084511	0.084281	297.989	47319.4	0.079788	0.206169	1445.36	95213.9
310	2.000000	1.151172	7.36811e+06	-54139.1	955.816	-29744.6	0.000000	0.000000	7.166759	368.301	NaN	0.000000	0.001588	0.001703	28.0821	92.9345	0.001704	54536.3	6.672305	169.131	370.023	1.150974	0.094605	0.094407	368.301	54536.3	0.089540	0.252536	1458.41	99150.9
310	2.000000	1.161092	7.36811e+06	-54139.1	955.817	-29744.6	0.000000	0.000000	7.180948	472.092	NaN	0.000000	0.001631	0.001692	28.0822	103.801	0.001704	60913.2	4.941073	170.41	473.07	1.160812	0.104525	0.104245	472.092	60913.2	0.098712	0.300131	1572.95	101585
310	2.000000	1.166091	7.36811e+06	-54139.1	955.817	-29744.6	0.000000	0.000000	7.187938	520.504	NaN	0.000000	0.001637	0.001676	28.0818	107.71	0.001683	63983.2	5.305196	169.651	518.913	1.165896	0.109524	0.109330	520.504	63983.2	0.103423	0.326063	1596.33	102374