File: remote_trans/data/nanoindenter/0828-1/data/Data_2025-08-06,11h17m57s/2025-07-22_16-23-58_1_260.txt
2025-07-22, 16:23:58, 1
Index	Phase	Displacement	Time	Pos X	Pos Y	Pos Z	Rot A	Rot B	Piezo Z	Force A	Force B	Gripper	Voltage A	Voltage B	Temperature	Amplitude force	Amplitude pos	Stiffness	Phase shift	Phase excitation	Force A raw	Displacement raw	HMax	HMax raw	Real Force	Real Stiffness	Contact Depth	Area	Hardness	Reduced Mod.
[#]	[#]	[um]	[s]	[um]	[um]	[um]	[m°]	[m°]	[um]	[uN]	[uN]	[V]	[V]	[V]	[°C]	[uN]	[um]	[N/m]	[°]	[°]	[uN]	[um]	[um]	[um]	[uN]	[N/m]	[um]	[um^2]	[MPa]	[MPa]
260	1.000000	0.002507	7.3676e+06	-51639.1	955.819	-29751.9	0.000000	0.000000	6.002811	-0.003129	NaN	0.000000	0.001542	0.001703	28.0782	0.004868	0.001001	4.863917	-132.584	-160.918	-0.002604	0.001221	-1.022935	-1.024221	-0.003129	4.863917	-1.022452	-4.549308E+13	6.878771E-17	NaN
260	1.000000	0.042479	7.3676e+06	-51639.1	955.82	-29751.9	0.000000	0.000000	6.042784	0.034089	NaN	0.000000	0.001589	0.001636	28.0786	0.078975	0.001940	40.704	118.661	-160.482	-0.016826	0.041150	-0.982963	-0.984292	0.034089	40.704	-0.983591	-1.363917E+13	-2.499312E-15	NaN
260	1.000000	0.082479	7.3676e+06	-51639.1	955.819	-29751.9	0.000000	0.000000	6.082783	-0.000805	NaN	0.000000	0.001623	0.001662	28.08	0.148735	0.002084	71.3707	116.943	-163.356	-0.060979	0.081119	-0.942963	-0.944324	-0.000805	71.3707	-0.942954	-3.863623E+12	2.083537E-16	NaN
260	1.000000	0.122500	7.3676e+06	-51639.1	955.819	-29751.9	0.000000	0.000000	6.122800	-0.081828	NaN	0.000000	0.001635	0.001651	28.0795	0.053387	0.001964	27.177	-25.1891	-165.455	-0.065751	0.121134	-0.902943	-0.904309	-0.081828	27.177	-0.900684	-1.038280E+12	7.881067E-14	NaN
260	1.000000	0.162499	7.3676e+06	-51639.1	955.819	-29751.9	0.000000	0.000000	6.162800	-0.053146	NaN	0.000000	0.001574	0.001654	28.0795	0.017204	0.002035	8.453657	134.053	-165.859	-0.022682	0.161139	-0.862943	-0.864303	-0.053146	8.453657	-0.858228	-2.767835E+11	1.920139E-13	NaN
260	1.000000	0.202485	7.3676e+06	-51639.1	955.82	-29751.9	0.000000	0.000000	6.202788	-0.003920	NaN	0.000000	0.001593	0.001672	28.0787	0.083338	0.001967	42.362	31.2976	-164.216	0.042344	0.201188	-0.822958	-0.824254	-0.003920	42.362	-0.822888	-9.191244E+10	4.264919E-14	NaN
260	1.000000	0.242509	7.3676e+06	-51639.1	955.819	-29751.9	0.000000	0.000000	6.242811	-0.014408	NaN	0.000000	0.001627	0.001643	28.0781	0.039862	0.002106	18.927	-111.656	-166.722	-0.045395	0.241242	-0.782934	-0.784200	-0.014408	18.927	-0.782363	-2.590221E+10	5.562426E-13	NaN
260	1.000000	0.282533	7.3676e+06	-51639.1	955.818	-29751.9	0.000000	0.000000	6.282838	0.048657	NaN	0.000000	0.001640	0.001656	28.0779	0.159558	0.001934	82.4867	-153.375	-166.001	0.051504	0.281268	-0.742910	-0.744174	0.048657	82.4867	-0.743352	-7.633207E+9	-6.374418E-12	NaN
260	1.000000	0.322588	7.3676e+06	-51639.1	955.819	-29751.9	0.000000	0.000000	6.322889	-0.070544	NaN	0.000000	0.001565	0.001696	28.0781	0.099373	0.001985	50.0705	-176.766	-164.956	-0.093647	0.321275	-0.702854	-0.704167	-0.070544	50.0705	-0.701797	-2.070498E+9	3.407081E-11	NaN
260	1.000000	0.362574	7.3676e+06	-51639.1	955.818	-29751.9	0.000000	0.000000	6.362878	-0.007444	NaN	0.000000	0.001583	0.001660	28.0795	0.047615	0.001881	25.3197	48.9896	-171.489	-0.021336	0.361266	-0.662868	-0.664176	-0.007444	25.3197	-0.662647	-6.035687E+8	1.233269E-11	NaN
260	1.000000	0.402589	7.3676e+06	-51639.1	955.82	-29751.9	0.000000	0.000000	6.402892	-0.002791	NaN	0.000000	0.001571	0.001694	28.0796	0.104267	0.002024	51.5191	-60.6152	-163.917	0.064667	0.401284	-0.622853	-0.624158	-0.002791	51.5191	-0.622813	-1.715095E+8	1.627545E-11	NaN
260	1.000000	0.442610	7.3676e+06	-51639.1	955.819	-29751.9	0.000000	0.000000	6.442914	-0.005968	NaN	0.000000	0.001525	0.001692	28.0792	0.036527	0.002047	17.8446	122.782	-162.846	-0.078142	0.441294	-0.582832	-0.584148	-0.005968	17.8446	-0.582581	-4.790092E+7	1.245901E-10	NaN
260	1.000000	0.482650	7.3676e+06	-51639.1	955.819	-29751.9	0.000000	0.000000	6.482953	-0.022893	NaN	0.000000	0.001527	0.001685	28.0778	0.062114	0.002196	28.2816	68.3611	-163.441	0.019476	0.481282	-0.542792	-0.544160	-0.022893	28.2816	-0.542185	-1.323288E+7	1.729986E-9	NaN
260	1.000000	0.522634	7.3676e+06	-51639.1	955.818	-29751.9	0.000000	0.000000	6.522938	0.017801	NaN	0.000000	0.001554	0.001671	28.0778	0.047066	0.001930	24.384	-129.353	-165.066	-0.026864	0.521375	-0.502808	-0.504067	0.017801	24.384	-0.503356	-3.81787e+06	-4.662598E-9	NaN
260	1.000000	0.562671	7.3676e+06	-51639.1	955.818	-29751.9	0.000000	0.000000	6.562971	-0.090324	NaN	0.000000	0.001538	0.001712	28.0776	0.017235	0.001997	8.628523	65.377	-167.25	-0.036885	0.561387	-0.462771	-0.464055	-0.090324	8.628523	-0.454920	-800932	1.127736E-7	NaN
260	1.000000	0.602677	7.3676e+06	-51639.1	955.82	-29751.9	0.000000	0.000000	6.602980	-0.019731	NaN	0.000000	0.001556	0.001604	28.0782	0.054394	0.002029	26.8097	-15.6142	-164.561	0.010777	0.601374	-0.422765	-0.424068	-0.019731	26.8097	-0.422213	-276559	7.134592E-8	NaN
260	1.000000	0.642706	7.3676e+06	-51639.1	955.819	-29751.9	0.000000	0.000000	6.643010	0.006652	NaN	0.000000	0.001553	0.001689	28.0794	0.076483	0.001924	39.753	-26.2737	-164.229	0.034923	0.641379	-0.382736	-0.384063	0.006652	39.753	-0.382862	-76022.3	-8.750485E-8	NaN
260	1.000000	0.682713	7.3676e+06	-51639.1	955.819	-29751.9	0.000000	0.000000	6.683017	0.011386	NaN	0.000000	0.001573	0.001687	28.0794	0.082069	0.002087	39.3325	89.2972	-167.132	-0.036856	0.681417	-0.342729	-0.344025	0.011386	39.3325	-0.342946	-20159.1	-5.647918E-7	NaN
260	1.000000	0.722717	7.3676e+06	-51639.1	955.818	-29751.9	0.000000	0.000000	6.723023	0.063454	NaN	0.000000	0.001558	0.001656	28.0794	0.121595	0.001789	67.9648	-12.5692	-167.587	0.026353	0.721379	-0.302726	-0.304063	0.063454	67.9648	-0.303426	-5291.51	-1.199160E-5	NaN
260	1.000000	0.762744	7.3676e+06	-51639.1	955.819	-29751.9	0.000000	0.000000	6.763049	0.026584	NaN	0.000000	0.001600	0.001631	28.0779	0.041797	0.002038	20.5066	69.0296	-165.483	-0.090054	0.761456	-0.262698	-0.263986	0.026584	20.5066	-0.263670	-1333.77	-1.993138E-5	NaN
260	1.000000	0.802775	7.3676e+06	-51639.1	955.819	-29751.9	0.000000	0.000000	6.803077	-0.038787	NaN	0.000000	0.001630	0.001607	28.0779	0.055086	0.001908	28.875	-82.3717	-165.18	0.003370	0.801426	-0.222667	-0.224016	-0.038787	28.875	-0.221660	-295.241	0.000131	NaN
260	1.000000	0.842769	7.3676e+06	-51639.1	955.819	-29751.9	0.000000	0.000000	6.843071	-0.037488	NaN	0.000000	0.001568	0.001620	28.0779	0.138066	0.001941	71.1446	117.391	-167.014	0.003730	0.841470	-0.182673	-0.183972	-0.037488	71.1446	-0.182278	-66.7018	0.000562	NaN
260	1.000000	0.882790	7.3676e+06	-51639.1	955.819	-29751.9	0.000000	0.000000	6.883095	0.031568	NaN	0.000000	0.001573	0.001589	28.078	0.085481	0.001968	43.4273	-147.24	-163.893	0.003680	0.881464	-0.142653	-0.143978	0.031568	43.4273	-0.143198	-13.5749	-0.002325	NaN
260	1.000000	0.922811	7.3676e+06	-51639.1	955.819	-29751.9	0.000000	0.000000	6.923114	-0.020052	NaN	0.000000	0.001545	0.001611	28.0792	0.063165	0.001801	35.0716	110.359	-165.139	0.012439	0.921423	-0.102631	-0.104019	-0.020052	35.0716	-0.102202	-2.043185	0.009814	NaN
260	1.000000	0.962828	7.3676e+06	-51639.1	955.819	-29751.9	0.000000	0.000000	6.963128	-0.085977	NaN	0.000000	0.001600	0.001592	28.0791	0.082282	0.002183	37.6842	-140.358	-162.26	-0.146402	0.961519	-0.062614	-0.063924	-0.085977	37.6842	-0.060903	-0.191130	0.449833	NaN
260	1.000000	1.002871	7.3676e+06	-51639.1	955.818	-29751.9	0.000000	0.000000	7.003177	0.066866	NaN	0.000000	0.001696	0.001553	28.079	0.055861	0.002078	26.8834	12.9322	-168.608	0.031827	1.001514	-0.022572	-0.023928	0.066866	26.8834	-0.024437	-0.016310	-4.099628	NaN
260	2.000000	1.036460	7.3676e+06	-51639.1	955.818	-29751.9	0.000000	0.000000	7.037280	12.5678	NaN	0.000000	0.001582	0.001585	28.0776	8.108444	0.001740	4660.43	4.742957	-170.823	12.1221	1.036135	0.011017	0.010693	12.5678	4660.43	0.008995	0.008086	1554.34	47352.4
260	2.000000	1.046386	7.3676e+06	-51639.1	955.817	-29751.9	0.000000	0.000000	7.047843	28.0509	NaN	0.000000	0.001525	0.001561	28.0779	17.4419	0.001888	9238.22	5.540469	-176.464	27.275	1.046116	0.020944	0.020674	28.0509	9238.22	0.018667	0.020490	1369	58964.3
260	2.000000	1.056357	7.3676e+06	-51639.1	955.817	-29751.9	0.000000	0.000000	7.058884	54.0631	NaN	0.000000	0.001599	0.001546	28.078	26.5354	0.001910	13895.4	5.803961	-177.886	54.0785	1.056014	0.030915	0.030572	54.0631	13895.4	0.027997	0.036694	1473.36	66274.6
260	2.000000	1.066401	7.3676e+06	-51639.1	955.818	-29751.9	0.000000	0.000000	7.069767	74.4479	NaN	0.000000	0.001636	0.001581	28.0794	35.6171	0.001769	20128.6	5.228087	177.954	78.6556	1.066107	0.040959	0.040665	74.4479	20128.6	0.038185	0.059423	1252.86	75441.6
260	2.000000	1.076373	7.3676e+06	-51639.1	955.82	-29751.9	0.000000	0.000000	7.081438	115.779	NaN	0.000000	0.001585	0.001632	28.0792	45.8505	0.001807	25369.3	8.112112	173.029	118.414	1.076014	0.050931	0.050572	115.779	25369.3	0.047508	0.084867	1364.25	79563.5
260	2.000000	1.086318	7.3676e+06	-51639.1	955.819	-29751.9	0.000000	0.000000	7.093311	162.658	NaN	0.000000	0.001596	0.001623	28.0792	54.6525	0.001834	29794	5.351936	173.739	162.122	1.085938	0.060876	0.060496	162.658	29794	0.056781	0.114520	1420.34	80438
260	2.000000	1.096267	7.3676e+06	-51639.1	955.819	-29751.9	0.000000	0.000000	7.104897	202.484	NaN	0.000000	0.001573	0.001611	28.0792	65.8469	0.001901	34639.3	3.360809	175.337	199.073	1.096078	0.070825	0.070636	202.484	34639.3	0.066440	0.149910	1350.7	81738.5
260	2.000000	1.106265	7.3676e+06	-51639.1	955.82	-29751.9	0.000000	0.000000	7.117172	257.838	NaN	0.000000	0.001577	0.001557	28.078	74.0533	0.001945	38073.6	6.034432	171.477	256.437	1.106056	0.080822	0.080613	257.838	38073.6	0.075743	0.188233	1369.78	80176.9
260	2.000000	1.116288	7.3676e+06	-51639.1	955.82	-29751.9	0.000000	0.000000	7.130069	327.721	NaN	0.000000	0.001622	0.001629	28.0781	81.6375	0.001771	46091.5	-0.057098	176.34	328.384	1.116028	0.090845	0.090586	327.721	46091.5	0.085513	0.232854	1407.41	87267.4
260	2.000000	1.126214	7.3676e+06	-51639.1	955.819	-29751.9	0.000000	0.000000	7.142673	392.843	NaN	0.000000	0.001597	0.001531	28.0783	90.1623	0.001618	55714.2	6.919612	167.895	389.414	1.125964	0.100772	0.100522	392.843	55714.2	0.095484	0.282938	1388.44	95695.9
260	2.000000	1.132763	7.3676e+06	-51639.1	955.82	-29751.9	0.000000	0.000000	7.151451	447.039	NaN	0.000000	0.001590	0.001556	28.0781	97.8721	0.001786	54807.5	2.041007	-6.615511	446.261	1.132378	0.107321	0.106936	447.039	54807.5	0.101203	0.313719	1424.97	89401.2