File: remote_trans/data/nanoindenter/0828-1/data/Data_2025-08-06,11h17m57s/2025-07-22_16-23-58_1_520.txt
2025-07-22, 16:23:58, 1
Index	Phase	Displacement	Time	Pos X	Pos Y	Pos Z	Rot A	Rot B	Piezo Z	Force A	Force B	Gripper	Voltage A	Voltage B	Temperature	Amplitude force	Amplitude pos	Stiffness	Phase shift	Phase excitation	Force A raw	Displacement raw	HMax	HMax raw	Real Force	Real Stiffness	Contact Depth	Area	Hardness	Reduced Mod.
[#]	[#]	[um]	[s]	[um]	[um]	[um]	[m°]	[m°]	[um]	[uN]	[uN]	[V]	[V]	[V]	[°C]	[uN]	[um]	[N/m]	[°]	[°]	[uN]	[um]	[um]	[um]	[uN]	[N/m]	[um]	[um^2]	[MPa]	[MPa]
520	1.000000	0.002622	7.37014e+06	-51089.1	1005.82	-29753.5	0.000000	0.000000	6.002795	0.078372	NaN	0.000000	0.001673	0.001766	28.0832	0.016359	0.000945	17.3045	17.0875	-170.34	0.055991	0.001352	-1.058442	-1.059712	0.078372	17.3045	-1.061839	-1.540031E+14	-5.088977E-16	NaN
520	1.000000	0.042583	7.37014e+06	-51089.1	1005.82	-29753.5	0.000000	0.000000	6.042755	0.058377	NaN	0.000000	0.001645	0.001769	28.0826	0.028929	0.001956	14.7874	-9.907380	-166.947	0.026447	0.041290	-1.018481	-1.019773	0.058377	14.7874	-1.021442	-4.409091E+13	-1.324004E-15	NaN
520	1.000000	0.082594	7.37014e+06	-51089.1	1005.82	-29753.5	0.000000	0.000000	6.082764	0.011776	NaN	0.000000	0.001633	0.001762	28.0814	0.038920	0.001965	19.8096	162.562	-165.849	-0.054324	0.081288	-0.978470	-0.979776	0.011776	19.8096	-0.978916	-1.179791E+13	-9.981665E-16	NaN
520	1.000000	0.122630	7.37014e+06	-51089.1	1005.82	-29753.5	0.000000	0.000000	6.122803	0.070818	NaN	0.000000	0.001592	0.001727	28.0813	0.070157	0.001902	36.8918	41.1874	-166.551	0.016346	0.121337	-0.938434	-0.939727	0.070818	36.8918	-0.939873	-3.510974E+12	-2.017043E-14	NaN
520	1.000000	0.162629	7.37014e+06	-51089.1	1005.82	-29753.5	0.000000	0.000000	6.162799	0.006361	NaN	0.000000	0.001600	0.001773	28.0817	0.104548	0.002008	52.0668	-70.4813	-162.667	0.010636	0.161286	-0.898435	-0.899778	0.006361	52.0668	-0.898526	-9.708510E+11	-6.552038E-15	NaN
520	1.000000	0.202655	7.37014e+06	-51089.1	1005.82	-29753.5	0.000000	0.000000	6.202825	0.008618	NaN	0.000000	0.001652	0.001698	28.0814	0.062224	0.002047	30.3945	-3.121439	-164.61	0.002012	0.201299	-0.858409	-0.859765	0.008618	30.3945	-0.858622	-2.801968E+11	-3.075752E-14	NaN
520	1.000000	0.242670	7.37014e+06	-51089.1	1005.82	-29753.5	0.000000	0.000000	6.242842	0.073894	NaN	0.000000	0.001575	0.001686	28.0827	0.046709	0.002048	22.8102	17.8634	-165.871	0.159886	0.241333	-0.818394	-0.819731	0.073894	22.8102	-0.820824	-8.617524E+10	-8.574900E-13	NaN
520	1.000000	0.282675	7.37014e+06	-51089.1	1005.82	-29753.5	0.000000	0.000000	6.282846	0.017386	NaN	0.000000	0.001590	0.001696	28.0828	0.071486	0.002016	35.4678	-155.483	-164.937	0.034876	0.281367	-0.778388	-0.779697	0.017386	35.4678	-0.778756	-2.313807E+10	-7.513907E-13	NaN
520	1.000000	0.322698	7.37014e+06	-51089.1	1005.82	-29753.5	0.000000	0.000000	6.322869	0.052796	NaN	0.000000	0.001573	0.001695	28.0834	0.043948	0.001983	22.1654	-74.0673	-160.14	0.048559	0.321398	-0.738366	-0.739666	0.052796	22.1654	-0.740153	-6.904548E+9	-7.646591E-12	NaN
520	1.000000	0.362716	7.37014e+06	-51089.1	1005.82	-29753.6	0.000000	0.000000	6.362886	0.024787	NaN	0.000000	0.001593	0.001707	28.0815	0.074871	0.001958	38.2455	162.164	-164.53	0.055544	0.361422	-0.698348	-0.699642	0.024787	38.2455	-0.698834	-1.886297E+9	-1.314033E-11	NaN
520	1.000000	0.402757	7.37014e+06	-51089.1	1005.82	-29753.6	0.000000	0.000000	6.402927	-0.000786	NaN	0.000000	0.001576	0.001682	28.0813	0.110625	0.002214	49.9596	175.689	-164.311	0.019780	0.401421	-0.658306	-0.659643	-0.000786	49.9596	-0.658295	-5.261463E+8	1.493607E-12	NaN
520	1.000000	0.442717	7.37014e+06	-51089.1	1005.82	-29753.6	0.000000	0.000000	6.442886	-0.009498	NaN	0.000000	0.001629	0.001661	28.0813	0.077868	0.001967	39.5862	117.455	-163.746	-0.033292	0.441443	-0.618347	-0.619621	-0.009498	39.5862	-0.618167	-1.480602E+8	6.414988E-11	NaN
520	1.000000	0.482756	7.37014e+06	-51089.1	1005.82	-29753.6	0.000000	0.000000	6.482926	0.004245	NaN	0.000000	0.001599	0.001699	28.0815	0.032057	0.002075	15.45	79.5894	-165.226	-0.032442	0.481484	-0.578308	-0.579580	0.004245	15.45	-0.578514	-4.209300E+7	-1.008574E-10	NaN
520	1.000000	0.522777	7.37014e+06	-51089.1	1005.82	-29753.6	0.000000	0.000000	6.522949	0.068428	NaN	0.000000	0.001619	0.001706	28.0826	0.071631	0.001986	36.0634	45.7404	-163.221	0.011024	0.521425	-0.538287	-0.539639	0.068428	36.0634	-0.539710	-1.222741E+7	-5.596274E-9	NaN
520	1.000000	0.562799	7.37014e+06	-51089.1	1005.82	-29753.5	0.000000	0.000000	6.562971	0.065658	NaN	0.000000	0.001612	0.001683	28.0827	0.104042	0.002062	50.4546	55.9967	-169.391	0.034310	0.561535	-0.498265	-0.499529	0.065658	50.4546	-0.499241	-3.34522e+06	-1.962739E-8	NaN
520	1.000000	0.602818	7.37014e+06	-51089.1	1005.82	-29753.6	0.000000	0.000000	6.602988	-0.005538	NaN	0.000000	0.001619	0.001693	28.0825	0.044462	0.002028	21.9242	-113.018	-164.643	0.025675	0.601466	-0.458245	-0.459598	-0.005538	21.9242	-0.458056	-886530	6.247166E-9	NaN
520	1.000000	0.642832	7.37014e+06	-51089.1	1005.82	-29753.6	0.000000	0.000000	6.643003	0.034376	NaN	0.000000	0.001617	0.001706	28.0813	0.067959	0.002054	33.093	-37.7933	-168.696	0.071574	0.641564	-0.418232	-0.419499	0.034376	33.093	-0.419011	-249109	-1.379973E-7	NaN
520	1.000000	0.682856	7.37014e+06	-51089.1	1005.82	-29753.6	0.000000	0.000000	6.683027	0.041389	NaN	0.000000	0.001585	0.001676	28.0816	0.025015	0.002095	11.9418	-96.2781	-165.378	0.080083	0.681552	-0.378208	-0.379512	0.041389	11.9418	-0.380808	-71035.9	-5.826472E-7	NaN
520	1.000000	0.722863	7.37014e+06	-51089.1	1005.82	-29753.6	0.000000	0.000000	6.723036	0.102522	NaN	0.000000	0.001611	0.001684	28.0816	0.045744	0.001975	23.1563	-173.031	-168.318	0.099611	0.721549	-0.338201	-0.339515	0.102522	23.1563	-0.341522	-19218.9	-5.334450E-6	NaN
520	1.000000	0.762895	7.37014e+06	-51089.1	1005.82	-29753.6	0.000000	0.000000	6.763063	-0.046174	NaN	0.000000	0.001602	0.001702	28.0825	0.047217	0.002050	23.0291	-172.142	-165.342	-0.015481	0.761623	-0.298168	-0.299441	-0.046174	23.0291	-0.296665	-4196.95	1.100171E-5	NaN
520	1.000000	0.802865	7.37014e+06	-51089.1	1005.82	-29753.6	0.000000	0.000000	6.803039	0.102476	NaN	0.000000	0.001601	0.001681	28.0823	0.042910	0.001976	21.7176	92.2888	-164.284	0.126801	0.801605	-0.258199	-0.259459	0.102476	21.7176	-0.261738	-1246.05	-8.224094E-5	NaN
520	1.000000	0.842921	7.37014e+06	-51089.1	1005.82	-29753.6	0.000000	0.000000	6.843092	0.029750	NaN	0.000000	0.001552	0.001697	28.0826	0.185289	0.002131	86.9345	-148.358	-163.251	0.069642	0.841633	-0.218143	-0.219430	0.029750	86.9345	-0.218400	-261.865	-0.000114	NaN
520	1.000000	0.882879	7.37014e+06	-51089.1	1005.82	-29753.6	0.000000	0.000000	6.883052	0.061807	NaN	0.000000	0.001590	0.001707	28.0825	0.070296	0.002033	34.5785	-8.183257	-168.187	0.008484	0.881585	-0.178184	-0.179478	0.061807	34.5785	-0.179525	-59.8938	-0.001032	NaN
520	1.000000	0.922931	7.37014e+06	-51089.1	1005.82	-29753.5	0.000000	0.000000	6.923104	0.075482	NaN	0.000000	0.001640	0.001721	28.0812	0.049807	0.002023	24.6153	-126.119	-166.28	0.118388	0.921667	-0.138133	-0.139397	0.075482	24.6153	-0.140432	-12.0527	-0.006263	NaN
520	1.000000	0.962937	7.37014e+06	-51089.1	1005.82	-29753.6	0.000000	0.000000	6.963105	-0.028172	NaN	0.000000	0.001618	0.001691	28.0816	0.031354	0.001997	15.7022	11.2156	-166.57	0.028745	0.961669	-0.098127	-0.099395	-0.028172	15.7022	-0.096781	-1.548108	0.018197	NaN
520	1.000000	1.002955	7.37014e+06	-51089.1	1005.82	-29753.6	0.000000	0.000000	7.003126	0.032580	NaN	0.000000	0.001583	0.001729	28.0817	0.117193	0.002123	55.2014	178.407	-165.151	0.062924	1.001670	-0.058108	-0.059394	0.032580	55.2014	-0.058551	-0.163585	-0.199162	NaN
520	1.000000	1.042966	7.37014e+06	-51089.1	1005.82	-29753.6	0.000000	0.000000	7.043139	0.080951	NaN	0.000000	0.001649	0.001748	28.0823	0.101407	0.002035	49.826	152.108	-165.31	0.072315	1.041627	-0.018097	-0.019437	0.080951	49.826	-0.019316	-0.012067	-6.708620	NaN
520	2.000000	1.070439	7.37014e+06	-51089.1	1005.82	-29753.6	0.000000	0.000000	7.071208	14.5688	NaN	0.000000	0.001589	0.001711	28.0823	12.7474	0.001771	7196.4	4.114533	-171.953	13.6087	1.070106	0.009375	0.009042	14.5688	7196.4	0.007857	0.006896	2112.69	79176.4
520	2.000000	1.080393	7.37014e+06	-51089.1	1005.82	-29753.6	0.000000	0.000000	7.081838	31.0264	NaN	0.000000	0.001654	0.001715	28.0824	23.8928	0.001992	11995.3	8.858861	-178.498	29.6735	1.080114	0.019329	0.019051	31.0264	11995.3	0.017389	0.018604	1667.7	80348.6
520	2.000000	1.090396	7.37014e+06	-51089.1	1005.82	-29753.6	0.000000	0.000000	7.092798	54.2896	NaN	0.000000	0.001653	0.001729	28.0827	32.2504	0.001793	17985.1	1.772824	-175.117	55.712	1.090075	0.029332	0.029011	54.2896	17985.1	0.027068	0.034886	1556.21	87975.6
520	2.000000	1.100346	7.37014e+06	-51089.1	1005.82	-29753.6	0.000000	0.000000	7.103981	84.2673	NaN	0.000000	0.001652	0.001726	28.0813	41.4769	0.001769	23447.1	1.558634	-178.533	81.9596	1.100084	0.039282	0.039020	84.2673	23447.1	0.036587	0.055505	1518.2	90928.2
520	2.000000	1.110362	7.37014e+06	-51089.1	1005.82	-29753.6	0.000000	0.000000	7.115560	122.267	NaN	0.000000	0.001580	0.001720	28.0811	50.0518	0.001744	28691.2	1.567138	179.54	120.56	1.110044	0.049298	0.048980	122.267	28691.2	0.046102	0.080747	1514.19	92248.1
520	2.000000	1.120370	7.37014e+06	-51089.1	1005.82	-29753.6	0.000000	0.000000	7.127358	165.803	NaN	0.000000	0.001614	0.001766	28.0836	59.5111	0.001778	33476	5.232278	174.529	166.705	1.120073	0.059306	0.059009	165.803	33476	0.055592	0.110477	1500.79	92017.7
520	2.000000	1.130288	7.37014e+06	-51089.1	1005.82	-29753.6	0.000000	0.000000	7.139510	220.133	NaN	0.000000	0.001576	0.001717	28.0826	70.0438	0.001796	39003.5	8.494949	170.837	216.137	1.129954	0.069224	0.068890	220.133	39003.5	0.064991	0.144313	1525.39	93804.7
520	2.000000	1.140359	7.37014e+06	-51089.1	1005.82	-29753.6	0.000000	0.000000	7.152058	280.343	NaN	0.000000	0.001585	0.001731	28.0829	78.1376	0.001618	48299.6	6.051584	171.478	281.646	1.139988	0.079295	0.078925	280.343	48299.6	0.074942	0.184772	1517.24	102659
520	2.000000	1.150278	7.37014e+06	-51089.1	1005.82	-29753.6	0.000000	0.000000	7.164652	345.401	NaN	0.000000	0.001604	0.001725	28.0831	86.7929	0.001841	47137.9	1.800186	175.588	345.077	1.150078	0.089214	0.089014	345.401	47137.9	0.083718	0.224326	1539.72	90929.1
520	2.000000	1.160188	7.37014e+06	-51089.1	1005.82	-29753.6	0.000000	0.000000	7.177686	421.365	NaN	0.000000	0.001603	0.001734	28.0816	95.4417	0.001756	54342.5	2.324530	174.418	415.583	1.159974	0.099124	0.098910	421.365	54342.5	0.093309	0.271625	1551.28	95263.8
520	2.000000	1.164820	7.37014e+06	-51089.1	1005.82	-29753.6	0.000000	0.000000	7.183675	454.373	NaN	0.000000	0.001637	0.001747	28.0813	99.317	0.001780	55791.7	2.876246	-6.899909	452.323	1.164514	0.103756	0.103450	454.373	55791.7	0.097648	0.294409	1543.34	93943.6