File: remote_trans/data/nanoindenter/0828-1/data/Data_2025-08-06,11h17m57s/2025-07-22_16-23-58_1_301.txt
2025-07-22, 16:23:58, 1
Index	Phase	Displacement	Time	Pos X	Pos Y	Pos Z	Rot A	Rot B	Piezo Z	Force A	Force B	Gripper	Voltage A	Voltage B	Temperature	Amplitude force	Amplitude pos	Stiffness	Phase shift	Phase excitation	Force A raw	Displacement raw	HMax	HMax raw	Real Force	Real Stiffness	Contact Depth	Area	Hardness	Reduced Mod.
[#]	[#]	[um]	[s]	[um]	[um]	[um]	[m°]	[m°]	[um]	[uN]	[uN]	[V]	[V]	[V]	[°C]	[uN]	[um]	[N/m]	[°]	[°]	[uN]	[um]	[um]	[um]	[uN]	[N/m]	[um]	[um^2]	[MPa]	[MPa]
301	1.000000	0.002592	7.36801e+06	-53689.1	955.818	-29745.3	0.000000	0.000000	6.002773	-0.002968	NaN	0.000000	0.001609	0.001746	28.0771	0.073249	0.001016	72.0648	17.2196	-163.412	0.010465	0.001364	-1.747568	-1.748796	-0.002968	72.0648	-1.747537	-2.176535E+23	1.363413E-26	NaN
301	1.000000	0.062571	7.36801e+06	-53689.1	955.818	-29745.3	0.000000	0.000000	6.062754	0.045996	NaN	0.000000	0.001644	0.001753	28.0773	0.057225	0.001977	28.9522	-81.4708	-162.432	0.060173	0.061282	-1.687589	-1.688878	0.045996	28.9522	-1.688781	-3.609005E+22	-1.274481E-24	NaN
301	1.000000	0.122583	7.36801e+06	-53689.1	955.819	-29745.2	0.000000	0.000000	6.122762	-0.031938	NaN	0.000000	0.001693	0.001708	28.079	0.018833	0.001976	9.529712	57.3817	-165.409	-0.016667	0.121286	-1.627577	-1.628874	-0.031938	9.529712	-1.625064	-5.134818E+21	6.219948E-24	NaN
301	1.000000	0.182639	7.36801e+06	-53689.1	955.818	-29745.2	0.000000	0.000000	6.182818	-0.030850	NaN	0.000000	0.001634	0.001728	28.0784	0.109241	0.002027	53.8801	-53.5158	-162.752	-0.057090	0.181279	-1.567521	-1.568881	-0.030850	53.8801	-1.567092	-8.698550E+20	3.546531E-23	NaN
301	1.000000	0.242633	7.36801e+06	-53689.1	955.818	-29745.2	0.000000	0.000000	6.242814	-0.002308	NaN	0.000000	0.001621	0.001718	28.078	0.097368	0.001876	51.9096	-82.9227	-168.689	-0.001232	0.241349	-1.507527	-1.508811	-0.002308	51.9096	-1.507493	-1.399933E+20	1.648761E-23	NaN
301	1.000000	0.302675	7.36801e+06	-53689.1	955.818	-29745.2	0.000000	0.000000	6.302854	-0.040888	NaN	0.000000	0.001631	0.001736	28.077	0.063343	0.001969	32.1673	-105.344	-166.742	-0.018578	0.301375	-1.447485	-1.448785	-0.040888	32.1673	-1.446531	-2.157331E+19	1.895282E-21	NaN
301	1.000000	0.362682	7.36801e+06	-53689.1	955.818	-29745.2	0.000000	0.000000	6.362863	-0.004487	NaN	0.000000	0.001633	0.001736	28.0767	0.055351	0.002018	27.427	-75.3124	-165.289	-0.110490	0.361413	-1.387478	-1.388747	-0.004487	27.427	-1.387355	-3.505750E+18	1.279957E-21	NaN
301	1.000000	0.422721	7.36801e+06	-53689.1	955.819	-29745.2	0.000000	0.000000	6.422898	-0.085371	NaN	0.000000	0.001632	0.001701	28.0781	0.101681	0.002027	50.1628	123.606	-162.919	-0.076193	0.421443	-1.327439	-1.328717	-0.085371	50.1628	-1.326163	-5.344712E+17	1.597301E-19	NaN
301	1.000000	0.482764	7.36801e+06	-53689.1	955.818	-29745.2	0.000000	0.000000	6.482942	-0.066560	NaN	0.000000	0.001619	0.001766	28.0782	0.076025	0.002070	36.7354	121.769	-162.897	-0.042741	0.481478	-1.267396	-1.268682	-0.066560	36.7354	-1.266037	-8.402411E+16	7.921509E-19	NaN
301	1.000000	0.542787	7.36801e+06	-53689.1	955.818	-29745.2	0.000000	0.000000	6.542967	-0.015332	NaN	0.000000	0.001628	0.001683	28.0769	0.100779	0.002276	44.2836	91.3781	-165.521	0.036398	0.541486	-1.207373	-1.208674	-0.015332	44.2836	-1.207114	-1.367718E+16	1.120969E-18	NaN
301	1.000000	0.602823	7.36801e+06	-53689.1	955.819	-29745.2	0.000000	0.000000	6.603002	-0.050860	NaN	0.000000	0.001666	0.001689	28.077	0.079340	0.002010	39.4635	57.7372	-163.733	-0.037640	0.601451	-1.147337	-1.148709	-0.050860	39.4635	-1.146370	-2.099697E+15	2.422273E-17	NaN
301	1.000000	0.662827	7.36801e+06	-53689.1	955.819	-29745.2	0.000000	0.000000	6.663012	0.080291	NaN	0.000000	0.001671	0.001718	28.078	0.052025	0.001894	27.4735	7.759471	-165.742	0.029831	0.661543	-1.087333	-1.088617	0.080291	27.4735	-1.089524	-3.625984E+14	-2.214311E-16	NaN
301	1.000000	0.722824	7.36801e+06	-53689.1	955.819	-29745.2	0.000000	0.000000	6.723012	0.156759	NaN	0.000000	0.001665	0.001713	28.0782	0.025497	0.001969	12.9472	24.1921	-167.872	0.085294	0.721576	-1.027336	-1.028584	0.156759	12.9472	-1.036416	-7.010948E+13	-2.235918E-15	NaN
301	1.000000	0.782890	7.36801e+06	-53689.1	955.819	-29745.2	0.000000	0.000000	6.783070	-0.012818	NaN	0.000000	0.001658	0.001689	28.0782	0.087915	0.001882	46.7107	-97.1344	-167.022	-0.013766	0.781568	-0.967270	-0.968592	-0.012818	46.7107	-0.967065	-8.167732E+12	1.569308E-15	NaN
301	1.000000	0.842920	7.36801e+06	-53689.1	955.819	-29745.2	0.000000	0.000000	6.843102	0.026216	NaN	0.000000	0.001638	0.001712	28.0768	0.085418	0.001943	43.9578	-137.278	-165.739	0.067571	0.841608	-0.907240	-0.908552	0.026216	43.9578	-0.907687	-1.290983E+12	-2.030714E-14	NaN
301	1.000000	0.902945	7.36801e+06	-53689.1	955.818	-29745.2	0.000000	0.000000	6.903125	-0.023673	NaN	0.000000	0.001712	0.001690	28.0769	0.082075	0.001918	42.7921	143.573	-166.633	-0.021708	0.901650	-0.847215	-0.848510	-0.023673	42.7921	-0.846800	-1.938206E+11	1.221379E-13	NaN
301	1.000000	0.962952	7.36801e+06	-53689.1	955.817	-29745.2	0.000000	0.000000	6.963133	0.015403	NaN	0.000000	0.001640	0.001663	28.0782	0.029278	0.002051	14.2757	-33.0218	-159.679	0.001584	0.961612	-0.787208	-0.788548	0.015403	14.2757	-0.788017	-3.091389E+10	-4.982458E-13	NaN
301	1.000000	1.022966	7.36801e+06	-53689.1	955.818	-29745.2	0.000000	0.000000	7.023146	-0.021080	NaN	0.000000	0.001661	0.001675	28.078	0.089137	0.002069	43.0843	173.775	-167.765	-0.099550	1.021722	-0.727194	-0.728438	-0.021080	43.0843	-0.726827	-4.545323E+9	4.637628E-12	NaN
301	1.000000	1.082996	7.36801e+06	-53689.1	955.818	-29745.2	0.000000	0.000000	7.083176	-0.016713	NaN	0.000000	0.001696	0.001662	28.0768	0.095960	0.002010	47.7302	-149.897	-164.544	-0.044059	1.081731	-0.667164	-0.668429	-0.016713	47.7302	-0.666901	-6.901952E+8	2.421496E-11	NaN
301	1.000000	1.143038	7.36801e+06	-53689.1	955.818	-29745.2	0.000000	0.000000	7.143220	0.011041	NaN	0.000000	0.001672	0.001682	28.0767	0.022014	0.001913	11.5055	156.145	-164.645	0.060803	1.141679	-0.607122	-0.608481	0.011041	11.5055	-0.607842	-1.067614E+8	-1.034175E-10	NaN
301	1.000000	1.203054	7.36801e+06	-53689.1	955.817	-29745.2	0.000000	0.000000	7.203234	-0.028050	NaN	0.000000	0.001639	0.001676	28.0775	0.031552	0.002085	15.1314	-112.881	-164.3	0.051631	1.201727	-0.547106	-0.548434	-0.028050	15.1314	-0.545715	-1.481133E+7	1.893823E-9	NaN
301	1.000000	1.263063	7.36801e+06	-53689.1	955.82	-29745.2	0.000000	0.000000	7.263246	0.036157	NaN	0.000000	0.001642	0.001703	28.0779	0.050724	0.001951	26.0032	158.924	-164.796	-0.012966	1.261783	-0.487097	-0.488377	0.036157	26.0032	-0.488140	-2.34095e+06	-1.544537E-8	NaN
301	1.000000	1.323094	7.36801e+06	-53689.1	955.819	-29745.2	0.000000	0.000000	7.323272	-0.064740	NaN	0.000000	0.001643	0.001703	28.078	0.070192	0.002025	34.6672	91.503	-165.223	-0.076242	1.321778	-0.427066	-0.428382	-0.064740	34.6672	-0.425665	-309534	2.091542E-7	NaN
301	1.000000	1.383119	7.36801e+06	-53689.1	955.819	-29745.2	0.000000	0.000000	7.383297	-0.053908	NaN	0.000000	0.001637	0.001681	28.0767	0.128219	0.001894	67.7122	-93.9079	-166.252	0.002192	1.381820	-0.367041	-0.368340	-0.053908	67.7122	-0.366444	-44145.2	1.221155E-6	NaN
301	1.000000	1.443163	7.36801e+06	-53689.1	955.82	-29745.2	0.000000	0.000000	7.443343	-0.022026	NaN	0.000000	0.001670	0.001649	28.0768	0.116012	0.002023	57.3478	1.175283	-162.598	-0.009081	1.441834	-0.306997	-0.308326	-0.022026	57.3478	-0.306709	-5919.77	3.720666E-6	NaN
301	1.000000	1.503148	7.36801e+06	-53689.1	955.819	-29745.2	0.000000	0.000000	7.503329	0.017031	NaN	0.000000	0.001641	0.001661	28.0779	0.067942	0.001977	34.3735	103.524	-165.872	0.029698	1.501839	-0.247012	-0.248321	0.017031	34.3735	-0.247384	-748.951	-2.273922E-5	NaN
301	1.000000	1.563212	7.36801e+06	-53689.1	955.819	-29745.2	0.000000	0.000000	7.563391	-0.038389	NaN	0.000000	0.001633	0.001668	28.0783	0.032860	0.002093	15.6984	121.553	-163.973	0.016030	1.561926	-0.186948	-0.188234	-0.038389	15.6984	-0.185114	-74.4835	0.000515	NaN
301	1.000000	1.623251	7.36801e+06	-53689.1	955.819	-29745.2	0.000000	0.000000	7.623433	0.012508	NaN	0.000000	0.001666	0.001702	28.0767	0.033726	0.002171	15.5377	-150.806	-161.609	-0.067414	1.621930	-0.126909	-0.128230	0.012508	15.5377	-0.127513	-6.815172	-0.001835	NaN
301	1.000000	1.683289	7.36801e+06	-53689.1	955.819	-29745.2	0.000000	0.000000	7.683469	-0.029016	NaN	0.000000	0.001735	0.001679	28.0765	0.128083	0.001993	64.2796	-97.2003	-166.224	-0.031043	1.681980	-0.066871	-0.068180	-0.029016	64.2796	-0.066532	-0.274696	0.105629	NaN
301	1.000000	1.743303	7.36802e+06	-53689.1	955.821	-29745.2	0.000000	0.000000	7.743484	0.004118	NaN	0.000000	0.001679	0.001622	28.0771	0.026702	0.002121	12.5887	-17.6174	-165.552	0.005744	1.741950	-0.006857	-0.008210	0.004118	12.5887	-0.007102	-0.004701	-0.875979	NaN
301	2.000000	1.769869	7.36802e+06	-53689.1	955.82	-29745.2	0.000000	0.000000	7.771086	25.1868	NaN	0.000000	0.001687	0.001679	28.0781	21.712	0.001862	11659.4	6.992347	-176.771	25.5126	1.769550	0.019709	0.019389	25.1868	11659.4	0.018089	0.019627	1283.26	76035.9
301	2.000000	1.784863	7.36802e+06	-53689.1	955.82	-29745.2	0.000000	0.000000	7.787556	61.0693	NaN	0.000000	0.001665	0.001691	28.0781	35.4418	0.001866	18989.4	3.950874	-178.617	64.3874	1.784566	0.034703	0.034406	61.0693	18989.4	0.032291	0.045626	1338.47	81222.7
301	2.000000	1.799804	7.36802e+06	-53689.1	955.82	-29745.2	0.000000	0.000000	7.804745	115.731	NaN	0.000000	0.001678	0.001665	28.0766	49.3496	0.001767	27927.1	1.677847	179.766	114.829	1.799505	0.049644	0.049345	115.731	27927.1	0.046536	0.082007	1411.24	89099.1
301	2.000000	1.814756	7.36802e+06	-53689.1	955.821	-29745.2	0.000000	0.000000	7.822574	185.687	NaN	0.000000	0.001689	0.001675	28.0766	61.6438	0.001635	37691.9	9.194517	170.68	185.497	1.814378	0.064596	0.064218	185.687	37691.9	0.060901	0.129059	1438.78	95857.9
301	2.000000	1.829763	7.36802e+06	-53689.1	955.82	-29745.2	0.000000	0.000000	7.841073	270.573	NaN	0.000000	0.001682	0.001696	28.0778	77.5302	0.001860	41676.8	6.911817	172.026	269.976	1.829357	0.079603	0.079197	270.573	41676.8	0.074734	0.183876	1471.5	88798.3
301	2.000000	1.844694	7.36802e+06	-53689.1	955.821	-29745.2	0.000000	0.000000	7.860067	369.355	NaN	0.000000	0.001731	0.001678	28.0776	88.3702	0.001748	50569.3	0.952250	176.409	366.237	1.844365	0.094534	0.094205	369.355	50569.3	0.089056	0.250128	1476.66	92380.3
301	2.000000	1.857175	7.36802e+06	-53689.1	955.821	-29745.2	0.000000	0.000000	7.876740	471.273	NaN	0.000000	0.001738	0.001648	28.0776	102.958	0.001875	54907.6	5.390472	-8.119069	467.167	1.856714	0.107015	0.106554	471.273	54907.6	0.100578	0.310280	1518.87	90059.4