File: remote_trans/data/nanoindenter/0828-1/data/Data_2025-08-06,11h17m57s/2025-07-22_16-23-58_1_142.txt
2025-07-22, 16:23:58, 1
Index	Phase	Displacement	Time	Pos X	Pos Y	Pos Z	Rot A	Rot B	Piezo Z	Force A	Force B	Gripper	Voltage A	Voltage B	Temperature	Amplitude force	Amplitude pos	Stiffness	Phase shift	Phase excitation	Force A raw	Displacement raw	HMax	HMax raw	Real Force	Real Stiffness	Contact Depth	Area	Hardness	Reduced Mod.
[#]	[#]	[um]	[s]	[um]	[um]	[um]	[m°]	[m°]	[um]	[uN]	[uN]	[V]	[V]	[V]	[°C]	[uN]	[um]	[N/m]	[°]	[°]	[uN]	[um]	[um]	[um]	[uN]	[N/m]	[um]	[um^2]	[MPa]	[MPa]
142	1.000000	0.002239	7.36642e+06	-45739.1	955.818	-29771.8	0.000000	0.000000	6.002788	-0.004834	NaN	0.000000	0.001608	0.001682	28.1216	0.056664	0.000919	61.6899	103.507	-163.762	-0.009717	0.001025	-1.062965	-1.064179	-0.004834	61.6899	-1.062906	-1.591736E+14	3.036709E-17	NaN
142	1.000000	0.042215	7.36642e+06	-45739.1	955.818	-29771.8	0.000000	0.000000	6.042761	-0.070025	NaN	0.000000	0.001551	0.001692	28.1229	0.128959	0.002035	63.3793	-128.33	-165.552	-0.034467	0.040922	-1.022989	-1.024282	-0.070025	63.3793	-1.022160	-4.508305E+13	1.553238E-15	NaN
142	1.000000	0.082221	7.36642e+06	-45739.1	955.819	-29771.8	0.000000	0.000000	6.082768	-0.044858	NaN	0.000000	0.001637	0.001687	28.1227	0.110282	0.001882	58.5857	-20.2815	-166.617	-0.037478	0.080884	-0.982983	-0.984320	-0.044858	58.5857	-0.982409	-1.314796E+13	3.411754E-15	NaN
142	1.000000	0.122243	7.36642e+06	-45739.1	955.818	-29771.9	0.000000	0.000000	6.122785	-0.151900	NaN	0.000000	0.001520	0.001720	28.1238	0.047245	0.002117	22.3139	-61.7056	-165.737	-0.057392	0.120939	-0.942961	-0.944265	-0.151900	22.3139	-0.937856	-3.297677E+12	4.606273E-14	NaN
142	1.000000	0.162220	7.36643e+06	-45739.1	955.818	-29771.9	0.000000	0.000000	6.162766	-0.073851	NaN	0.000000	0.001583	0.001719	28.1242	0.131287	0.002081	63.086	161.137	-163.014	-0.119830	0.161011	-0.902984	-0.904193	-0.073851	63.086	-0.902106	-1.085216E+12	6.805146E-14	NaN
142	1.000000	0.202265	7.36643e+06	-45739.1	955.818	-29771.9	0.000000	0.000000	6.202810	-0.091805	NaN	0.000000	0.001578	0.001687	28.1249	0.038529	0.002024	19.0328	-148.188	-166.378	-0.049699	0.200968	-0.862939	-0.864236	-0.091805	19.0328	-0.859321	-2.863735E+11	3.205761E-13	NaN
142	1.000000	0.242299	7.36643e+06	-45739.1	955.818	-29771.9	0.000000	0.000000	6.242845	-0.048277	NaN	0.000000	0.001583	0.001703	28.1225	0.026075	0.002071	12.5888	177.925	-164.866	-0.105599	0.240973	-0.822905	-0.824231	-0.048277	12.5888	-0.820029	-8.406373E+10	5.742867E-13	NaN
142	1.000000	0.282312	7.36643e+06	-45739.1	955.819	-29771.9	0.000000	0.000000	6.282856	-0.112651	NaN	0.000000	0.001589	0.001697	28.1235	0.076949	0.001995	38.5758	15.6219	-163.803	-0.084933	0.280966	-0.782892	-0.784238	-0.112651	38.5758	-0.780702	-2.459069E+10	4.581052E-12	NaN
142	1.000000	0.322317	7.36643e+06	-45739.1	955.818	-29771.9	0.000000	0.000000	6.322865	-0.033004	NaN	0.000000	0.001599	0.001681	28.1234	0.028528	0.001889	15.1044	78.9171	-167.272	0.014048	0.321062	-0.742887	-0.744142	-0.033004	15.1044	-0.741248	-7.145808E+9	4.618612E-12	NaN
142	1.000000	0.362317	7.36643e+06	-45739.1	955.819	-29771.9	0.000000	0.000000	6.362863	-0.061912	NaN	0.000000	0.001612	0.001697	28.1263	0.101022	0.002061	49.0121	-139.089	-166.438	-0.001116	0.361039	-0.702887	-0.704165	-0.061912	49.0121	-0.701940	-2.079796E+9	2.976833E-11	NaN
142	1.000000	0.402341	7.36643e+06	-45739.1	955.819	-29771.9	0.000000	0.000000	6.402885	-0.118831	NaN	0.000000	0.001650	0.001631	28.1245	0.100336	0.001843	54.4378	141.932	-162.334	-0.087419	0.401064	-0.662863	-0.664140	-0.118831	54.4378	-0.661226	-5.771121E+8	2.059059E-10	NaN
142	1.000000	0.442331	7.36643e+06	-45739.1	955.818	-29771.9	0.000000	0.000000	6.442878	-0.041037	NaN	0.000000	0.001638	0.001629	28.1256	0.080027	0.002082	38.434	175.186	-164.575	0.129735	0.441101	-0.622873	-0.624102	-0.041037	38.434	-0.622072	-1.675379E+8	2.449412E-10	NaN
142	1.000000	0.482387	7.36643e+06	-45739.1	955.818	-29771.9	0.000000	0.000000	6.482932	-0.084031	NaN	0.000000	0.001536	0.001654	28.1242	0.101609	0.002087	48.6957	114.974	-163.754	-0.070615	0.481122	-0.582817	-0.584082	-0.084031	48.6957	-0.581523	-4.631755E+7	1.814230E-9	NaN
142	1.000000	0.522384	7.36643e+06	-45739.1	955.818	-29771.9	0.000000	0.000000	6.522932	-0.001875	NaN	0.000000	0.001531	0.001605	28.1243	0.091815	0.001953	47.0017	-160.305	-165.663	0.016842	0.521081	-0.542820	-0.544123	-0.001875	47.0017	-0.542790	-1.349120E+7	1.390032E-10	NaN
142	1.000000	0.562436	7.36643e+06	-45739.1	955.818	-29771.9	0.000000	0.000000	6.562983	-0.040306	NaN	0.000000	0.001559	0.001603	28.1248	0.073921	0.001997	37.0191	100.327	-164.563	-0.043920	0.561122	-0.502768	-0.504082	-0.040306	37.0191	-0.501951	-3.64953e+06	1.104413E-8	NaN
142	1.000000	0.602446	7.36643e+06	-45739.1	955.819	-29771.9	0.000000	0.000000	6.602994	-0.026542	NaN	0.000000	0.001555	0.001621	28.1253	0.061835	0.002048	30.1934	-150.394	-169.022	-0.090220	0.601158	-0.462758	-0.464046	-0.026542	30.1934	-0.462099	-1.01042e+06	2.626865E-8	NaN
142	1.000000	0.642471	7.36643e+06	-45739.1	955.819	-29771.9	0.000000	0.000000	6.643021	0.023082	NaN	0.000000	0.001525	0.001635	28.1246	0.023707	0.002117	11.1975	-142.724	-167.855	-0.002413	0.641180	-0.422733	-0.424024	0.023082	11.1975	-0.424279	-295847	-7.802063E-8	NaN
142	1.000000	0.682486	7.36643e+06	-45739.1	955.818	-29771.9	0.000000	0.000000	6.683034	-0.040614	NaN	0.000000	0.001534	0.001589	28.1261	0.090901	0.001931	47.0867	11.6102	-165.861	-0.007469	0.681126	-0.382718	-0.384078	-0.040614	47.0867	-0.382071	-74062.2	5.483782E-7	NaN
142	1.000000	0.722464	7.36643e+06	-45739.1	955.818	-29771.9	0.000000	0.000000	6.723013	0.010026	NaN	0.000000	0.001521	0.001631	28.1249	0.075769	0.001894	40.0026	18.629	-163.99	0.032630	0.721114	-0.342740	-0.344090	0.010026	40.0026	-0.342928	-20146.9	-4.976561E-7	NaN
142	1.000000	0.762493	7.36643e+06	-45739.1	955.819	-29771.9	0.000000	0.000000	6.763037	-0.109613	NaN	0.000000	0.001526	0.001599	28.1252	0.055370	0.002030	27.282	158.708	-163.993	-0.057540	0.761234	-0.302711	-0.303970	-0.109613	27.282	-0.299698	-4657.37	2.353547E-5	NaN
142	1.000000	0.802531	7.36643e+06	-45739.1	955.819	-29771.9	0.000000	0.000000	6.803082	0.047785	NaN	0.000000	0.001522	0.001626	28.124	0.194625	0.001917	101.5	78.6712	-166.022	0.036348	0.801194	-0.262673	-0.264010	0.047785	101.5	-0.263026	-1303.89	-3.664800E-5	NaN
142	1.000000	0.842517	7.36643e+06	-45739.1	955.818	-29771.9	0.000000	0.000000	6.843062	-0.088940	NaN	0.000000	0.001603	0.001622	28.1254	0.020493	0.002007	10.2092	-143.044	-163.813	-0.034094	0.841251	-0.222687	-0.223953	-0.088940	10.2092	-0.216153	-241.017	0.000369	NaN
142	1.000000	0.882567	7.36643e+06	-45739.1	955.818	-29771.9	0.000000	0.000000	6.883111	-0.096571	NaN	0.000000	0.001639	0.001647	28.1243	0.060817	0.002037	29.8521	37.0063	-161.719	-0.104931	0.881293	-0.182637	-0.183911	-0.096571	29.8521	-0.180211	-61.5263	0.001570	NaN
142	1.000000	0.922588	7.36643e+06	-45739.1	955.818	-29771.9	0.000000	0.000000	6.923134	-0.075184	NaN	0.000000	0.001645	0.001663	28.1266	0.024237	0.002016	12.0219	-1.931473	-164.109	-0.116806	0.921222	-0.142616	-0.143982	-0.075184	12.0219	-0.137925	-10.8111	0.006954	NaN
142	1.000000	0.962591	7.36643e+06	-45739.1	955.819	-29771.9	0.000000	0.000000	6.963134	-0.131996	NaN	0.000000	0.001555	0.001673	28.126	0.128928	0.001994	64.6576	128.433	-163.922	-0.092140	0.961363	-0.102613	-0.103841	-0.131996	64.6576	-0.101082	-1.930607	0.068370	NaN
142	1.000000	1.002569	7.36643e+06	-45739.1	955.819	-29771.9	0.000000	0.000000	7.003115	-0.072996	NaN	0.000000	0.001566	0.001649	28.1277	0.057124	0.002023	28.2401	68.3844	-165.883	-0.018194	1.001340	-0.062635	-0.063864	-0.072996	28.2401	-0.060697	-0.188554	0.387137	NaN
142	1.000000	1.042628	7.36643e+06	-45739.1	955.818	-29771.9	0.000000	0.000000	7.043176	-0.016906	NaN	0.000000	0.001597	0.001641	28.1256	0.030351	0.001987	15.2721	-29.9355	-166.576	-0.083758	1.041296	-0.022576	-0.023908	-0.016906	15.2721	-0.021746	-0.013912	1.215200	NaN
142	2.000000	1.076187	7.36643e+06	-45739.1	955.818	-29771.9	0.000000	0.000000	7.077208	11.4784	NaN	0.000000	0.001555	0.001642	28.1268	12.0949	0.001840	6573.13	7.426084	-174.352	10.8855	1.075857	0.010983	0.010653	11.4784	6573.13	0.009673	0.008821	1301.29	63942.9
142	2.000000	1.086069	7.36643e+06	-45739.1	955.818	-29771.9	0.000000	0.000000	7.087921	31.7153	NaN	0.000000	0.001567	0.001717	28.1261	23.0252	0.001782	12923.4	8.721035	-179.742	30.8979	1.085769	0.020865	0.020565	31.7153	12923.4	0.019024	0.021032	1507.95	81416.1
142	2.000000	1.096057	7.36643e+06	-45739.1	955.817	-29771.9	0.000000	0.000000	7.098967	57.4419	NaN	0.000000	0.001526	0.001689	28.1266	32.9458	0.001708	19294.4	1.889734	-178.122	56.6612	1.095742	0.030853	0.030538	57.4419	19294.4	0.028620	0.037932	1514.34	90511
142	2.000000	1.106053	7.36643e+06	-45739.1	955.818	-29771.9	0.000000	0.000000	7.110423	92.9528	NaN	0.000000	0.001561	0.001770	28.1275	44.5179	0.001795	24794.9	7.645417	174.335	94.1707	1.105778	0.040849	0.040574	92.9528	24794.9	0.038038	0.059056	1573.99	93219.1
142	2.000000	1.115988	7.36643e+06	-45739.1	955.818	-29771.9	0.000000	0.000000	7.122101	135.338	NaN	0.000000	0.001585	0.001775	28.1284	53.9091	0.001856	29048.6	3.304601	177.836	134.082	1.115715	0.050784	0.050511	135.338	29048.6	0.047290	0.084221	1606.94	91451.1
142	2.000000	1.126036	7.36643e+06	-45739.1	955.818	-29771.9	0.000000	0.000000	7.134155	184.162	NaN	0.000000	0.001539	0.001760	28.1271	63.8017	0.001840	34676.1	2.272696	177.903	182.938	1.125778	0.060832	0.060574	184.162	34676.1	0.056849	0.114751	1604.88	93524.4
142	2.000000	1.136007	7.36643e+06	-45739.1	955.818	-29771.9	0.000000	0.000000	7.146757	248.138	NaN	0.000000	0.001554	0.001750	28.127	71.9403	0.001753	41041.3	4.918400	173.332	247.787	1.135688	0.070803	0.070484	248.138	41041.3	0.066269	0.149241	1662.67	97062.2
142	2.000000	1.146022	7.36643e+06	-45739.1	955.818	-29771.9	0.000000	0.000000	7.159567	316.156	NaN	0.000000	0.001566	0.001740	28.1262	84.1014	0.001821	46187.8	7.226246	170.969	316.071	1.145617	0.080818	0.080413	316.156	46187.8	0.075684	0.187975	1681.9	97330.7
142	2.000000	1.155894	7.36643e+06	-45739.1	955.818	-29771.9	0.000000	0.000000	7.172634	393.869	NaN	0.000000	0.001559	0.001718	28.1273	92.9808	0.001716	54180.4	4.573387	171.678	389.458	1.155671	0.090690	0.090467	393.869	54180.4	0.085237	0.231535	1701.12	102874
142	2.000000	1.165924	7.36643e+06	-45739.1	955.818	-29771.9	0.000000	0.000000	7.185624	465.876	NaN	0.000000	0.001552	0.001703	28.1276	101.224	0.001740	58162.1	0.360748	176.199	463.74	1.165512	0.100720	0.100308	465.876	58162.1	0.094713	0.278905	1670.38	100620
142	2.000000	1.172480	7.36643e+06	-45739.1	955.818	-29771.9	0.000000	0.000000	7.194491	522.106	NaN	0.000000	0.001546	0.001716	28.0891	109.036	0.001838	59328.1	5.435949	-8.791016	519.329	1.172084	0.107276	0.106880	522.106	59328.1	0.100675	0.310815	1679.8	97226.1