File: remote_trans/data/nanoindenter/0828-1/data/Data_2025-08-06,11h17m57s/2025-07-22_16-23-58_1_772.txt
2025-07-22, 16:23:58, 1
Index	Phase	Displacement	Time	Pos X	Pos Y	Pos Z	Rot A	Rot B	Piezo Z	Force A	Force B	Gripper	Voltage A	Voltage B	Temperature	Amplitude force	Amplitude pos	Stiffness	Phase shift	Phase excitation	Force A raw	Displacement raw	HMax	HMax raw	Real Force	Real Stiffness	Contact Depth	Area	Hardness	Reduced Mod.
[#]	[#]	[um]	[s]	[um]	[um]	[um]	[m°]	[m°]	[um]	[uN]	[uN]	[V]	[V]	[V]	[°C]	[uN]	[um]	[N/m]	[°]	[°]	[uN]	[um]	[um]	[um]	[uN]	[N/m]	[um]	[um^2]	[MPa]	[MPa]
772	1.000000	0.002359	7.37261e+06	-38739.1	1055.82	-29796.3	0.000000	0.000000	6.002840	-0.038900	NaN	0.000000	0.001631	0.001765	28.0839	0.076887	0.000807	95.262	-104.824	-163.44	-0.004586	0.001046	-1.139388	-1.140701	-0.038900	95.262	-1.139082	-1.676578E+15	2.320180E-17	NaN
772	1.000000	0.044273	7.37261e+06	-38739.1	1055.82	-29796.3	0.000000	0.000000	6.044751	-0.094475	NaN	0.000000	0.001626	0.001701	28.0825	0.152735	0.001889	80.8411	-176.109	10.6573	-0.116722	0.042950	-1.097474	-1.098798	-0.094475	80.8411	-1.096597	-4.512224E+14	2.093759E-16	NaN
772	1.000000	0.086299	7.37261e+06	-38739.1	1055.82	-29796.3	0.000000	0.000000	6.086779	-0.033128	NaN	0.000000	0.001675	0.001717	28.0826	0.093570	0.001918	48.7795	148.749	-164.828	-0.082543	0.085008	-1.055448	-1.056739	-0.033128	48.7795	-1.054939	-1.243954E+14	2.663145E-16	NaN
772	1.000000	0.128286	7.37261e+06	-38739.1	1055.82	-29796.3	0.000000	0.000000	6.128765	-0.072178	NaN	0.000000	0.001725	0.001747	28.0825	0.042046	0.001846	22.7799	-12.2141	14.4023	-0.084486	0.126941	-1.013461	-1.014806	-0.072178	22.7799	-1.011085	-3.198788E+13	2.256409E-15	NaN
772	1.000000	0.170325	7.37261e+06	-38739.1	1055.82	-29796.3	0.000000	0.000000	6.170805	-0.039209	NaN	0.000000	0.001756	0.001710	28.0841	0.029435	0.001931	15.2451	-31.6148	-164.772	0.108139	0.169017	-0.971422	-0.972731	-0.039209	15.2451	-0.969493	-8.807089E+12	4.451967E-15	NaN
772	1.000000	0.212327	7.37261e+06	-38739.1	1055.82	-29796.3	0.000000	0.000000	6.212809	-0.003087	NaN	0.000000	0.001726	0.001756	28.0839	0.051069	0.002050	24.9112	105.301	14.2443	0.026857	0.210983	-0.929420	-0.930765	-0.003087	24.9112	-0.929327	-2.529977E+12	1.220127E-15	NaN
772	1.000000	0.254333	7.37261e+06	-38739.1	1055.82	-29796.3	0.000000	0.000000	6.254811	-0.100121	NaN	0.000000	0.001709	0.001741	28.0838	0.038769	0.001915	20.2449	-146.48	-164.099	-0.068756	0.253070	-0.887414	-0.888677	-0.100121	20.2449	-0.883705	-6.120825E+11	1.635750E-13	NaN
772	1.000000	0.296380	7.37261e+06	-38739.1	1055.82	-29796.3	0.000000	0.000000	6.296859	-0.075476	NaN	0.000000	0.001742	0.001746	28.0826	0.100443	0.001952	51.4687	23.8955	11.9948	0.040316	0.295014	-0.845367	-0.846733	-0.075476	51.4687	-0.844267	-1.791017E+11	4.214117E-13	NaN
772	1.000000	0.338412	7.37261e+06	-38739.1	1055.82	-29796.3	0.000000	0.000000	6.338890	-0.091694	NaN	0.000000	0.001735	0.001687	28.0827	0.026691	0.002079	12.8386	19.3425	-164.386	-0.032649	0.337067	-0.803335	-0.804680	-0.091694	12.8386	-0.797979	-4.221069E+10	2.172287E-12	NaN
772	1.000000	0.380438	7.37261e+06	-38739.1	1055.82	-29796.3	0.000000	0.000000	6.380920	-0.001101	NaN	0.000000	0.001742	0.001718	28.0837	0.126763	0.002033	62.3503	159.523	14.5288	-0.039852	0.379021	-0.761309	-0.762726	-0.001101	62.3503	-0.761296	-1.339475E+10	8.216390E-14	NaN
772	1.000000	0.422418	7.37261e+06	-38739.1	1055.82	-29796.3	0.000000	0.000000	6.422898	-0.050016	NaN	0.000000	0.001684	0.001747	28.0842	0.130970	0.001975	66.3156	86.2852	-166.378	-0.063939	0.421144	-0.719329	-0.720603	-0.050016	66.3156	-0.718763	-3.528645E+9	1.417429E-11	NaN
772	1.000000	0.464421	7.37261e+06	-38739.1	1055.82	-29796.3	0.000000	0.000000	6.464901	-0.041648	NaN	0.000000	0.001715	0.001780	28.0842	0.112571	0.001845	61.0032	-162.134	12.4737	0.029740	0.463079	-0.677326	-0.678668	-0.041648	61.0032	-0.676814	-9.432493E+8	4.415351E-11	NaN
772	1.000000	0.506471	7.37261e+06	-38739.1	1055.82	-29796.3	0.000000	0.000000	6.506951	-0.050641	NaN	0.000000	0.001735	0.001718	28.0845	0.040960	0.002081	19.678	-33.1011	-166.177	-0.077194	0.505121	-0.635276	-0.636626	-0.050641	19.678	-0.633346	-2.393125E+8	2.116116E-10	NaN
772	1.000000	0.548493	7.37261e+06	-38739.1	1055.82	-29796.3	0.000000	0.000000	6.548972	-0.081712	NaN	0.000000	0.001796	0.001702	28.0845	0.029643	0.002164	13.6974	-131.207	17.0876	-0.002577	0.547084	-0.593254	-0.594663	-0.081712	13.6974	-0.588780	-5.832319E+7	1.401016E-9	NaN
772	1.000000	0.590457	7.37261e+06	-38739.1	1055.82	-29796.3	0.000000	0.000000	6.590937	-0.058368	NaN	0.000000	0.001748	0.001700	28.0828	0.093632	0.002002	46.7641	79.7345	-165.273	-0.081248	0.589204	-0.551290	-0.552543	-0.058368	46.7641	-0.550354	-1.717340E+7	3.398732E-9	NaN
772	1.000000	0.632529	7.37261e+06	-38739.1	1055.82	-29796.3	0.000000	0.000000	6.633007	-0.085731	NaN	0.000000	0.001764	0.001746	28.0829	0.035108	0.001983	17.7034	-124.844	11.9425	-0.107012	0.631163	-0.509219	-0.510584	-0.085731	17.7034	-0.505587	-4.1013e+06	2.090332E-8	NaN
772	1.000000	0.674531	7.37261e+06	-38739.1	1055.82	-29796.3	0.000000	0.000000	6.675009	-0.096670	NaN	0.000000	0.001743	0.001716	28.0828	0.130259	0.002074	62.8095	130.459	-165.442	-0.155608	0.673305	-0.467216	-0.468442	-0.096670	62.8095	-0.466062	-1.14855e+06	8.416661E-8	NaN
772	1.000000	0.716548	7.37261e+06	-38739.1	1055.82	-29796.3	0.000000	0.000000	6.717026	-0.090566	NaN	0.000000	0.001690	0.001744	28.0842	0.129465	0.002127	60.8784	67.8678	16.6356	-0.066401	0.715194	-0.425199	-0.426553	-0.090566	60.8784	-0.424084	-293970	3.080788E-7	NaN
772	1.000000	0.758569	7.37261e+06	-38739.1	1055.82	-29796.3	0.000000	0.000000	6.759048	-0.054094	NaN	0.000000	0.001687	0.001730	28.0841	0.056296	0.002004	28.0961	-130.224	-163.348	-0.158056	0.757277	-0.383179	-0.384471	-0.054094	28.0961	-0.381735	-73244.8	7.385371E-7	NaN
772	1.000000	0.800587	7.37261e+06	-38739.1	1055.82	-29796.3	0.000000	0.000000	6.801070	0.028409	NaN	0.000000	0.001684	0.001734	28.0843	0.044914	0.002005	22.3988	-9.898726	15.1841	0.080476	0.799300	-0.341161	-0.342447	0.028409	22.3988	-0.342112	-19603.1	-1.449228E-6	NaN
772	1.000000	0.842592	7.37261e+06	-38739.1	1055.82	-29796.3	0.000000	0.000000	6.843074	-0.001157	NaN	0.000000	0.001640	0.001663	28.0828	0.022879	0.002006	11.4072	-39.7595	-168.347	-0.035993	0.841292	-0.299156	-0.300455	-0.001157	11.4072	-0.299079	-4559.62	2.537413E-7	NaN
772	1.000000	0.884630	7.37261e+06	-38739.1	1055.82	-29796.3	0.000000	0.000000	6.885111	-0.025786	NaN	0.000000	0.001651	0.001736	28.0828	0.044836	0.001921	23.3453	130.489	15.7716	-0.059293	0.883229	-0.257117	-0.258518	-0.025786	23.3453	-0.256289	-1027.89	2.508627E-5	NaN
772	1.000000	0.926641	7.37261e+06	-38739.1	1055.82	-29796.3	0.000000	0.000000	6.927121	-0.040741	NaN	0.000000	0.001649	0.001741	28.083	0.107822	0.001979	54.4866	127.901	-165.735	-0.030293	0.925309	-0.215106	-0.216438	-0.040741	54.4866	-0.214545	-227.09	0.000179	NaN
772	1.000000	0.968662	7.37261e+06	-38739.1	1055.82	-29796.3	0.000000	0.000000	6.969142	-0.040010	NaN	0.000000	0.001670	0.001739	28.0843	0.218242	0.001878	116.213	87.1363	15.4373	-0.086210	0.967280	-0.173085	-0.174467	-0.040010	116.213	-0.172827	-45.9785	0.000870	NaN
772	1.000000	1.010679	7.37261e+06	-38739.1	1055.82	-29796.3	0.000000	0.000000	7.011157	-0.091177	NaN	0.000000	0.001680	0.001717	28.0841	0.106500	0.002042	52.1494	112.403	-164.882	-0.065043	1.009392	-0.131068	-0.132355	-0.091177	52.1494	-0.129757	-7.538518	0.012095	NaN
772	1.000000	1.052689	7.37261e+06	-38739.1	1055.82	-29796.3	0.000000	0.000000	7.053169	-0.047004	NaN	0.000000	0.001680	0.001724	28.0841	0.016425	0.002084	7.882635	129.204	17.6222	-0.000646	1.051306	-0.089058	-0.090442	-0.047004	7.882635	-0.084586	-0.802876	0.058544	NaN
772	1.000000	1.094703	7.37261e+06	-38739.1	1055.82	-29796.3	0.000000	0.000000	7.095185	-0.020658	NaN	0.000000	0.001697	0.001742	28.0842	0.092747	0.001972	47.0388	140.245	-167.272	-0.032110	1.093409	-0.047044	-0.048338	-0.020658	47.0388	-0.046714	-0.072506	0.284911	NaN
772	1.000000	1.136708	7.37261e+06	-38739.1	1055.82	-29796.3	0.000000	0.000000	7.137194	0.112020	NaN	0.000000	0.001670	0.001792	28.0828	0.289429	0.001791	161.629	47.3853	11.5066	0.027326	1.135321	-0.005039	-0.006426	0.112020	161.629	-0.005559	-0.003765	-29.7509	NaN
772	2.000000	1.154132	7.37261e+06	-38739.1	1055.82	-29796.3	0.000000	0.000000	7.155599	23.9595	NaN	0.000000	0.001698	0.001776	28.0828	18.6835	0.001846	10120	7.918445	-176.973	23.1557	1.153780	0.012385	0.012033	23.9595	10120	0.010609	0.009866	2428.38	93083.8
772	2.000000	1.164593	7.37261e+06	-38739.1	1055.82	-29796.3	0.000000	0.000000	7.167286	53.8101	NaN	0.000000	0.001675	0.001806	28.0826	28.6156	0.001753	16322.7	5.828265	0.938774	51.8277	1.164225	0.022845	0.022478	53.8101	16322.7	0.020373	0.023132	2326.24	98052.9
772	2.000000	1.175143	7.37261e+06	-38739.1	1055.82	-29796.3	0.000000	0.000000	7.178956	81.0504	NaN	0.000000	0.001621	0.001790	28.0838	37.946	0.001820	20853.6	6.392463	177.754	83.1563	1.174737	0.033396	0.032990	81.0504	20853.6	0.030481	0.041747	1941.46	93248.3
772	2.000000	1.185629	7.37261e+06	-38739.1	1055.82	-29796.3	0.000000	0.000000	7.191171	123.132	NaN	0.000000	0.001660	0.001776	28.0841	47.3112	0.001773	26682.9	5.084270	-2.307457	123.621	1.185207	0.043882	0.043460	123.132	26682.9	0.040421	0.065122	1890.81	95530.8
772	2.000000	1.196075	7.37261e+06	-38739.1	1055.82	-29796.3	0.000000	0.000000	7.203519	169.43	NaN	0.000000	0.001677	0.001772	28.0841	56.5028	0.001797	31450	4.624609	176.972	166.864	1.195827	0.054327	0.054079	169.43	31450	0.050287	0.093302	1815.93	94069.2
772	2.000000	1.206488	7.37261e+06	-38739.1	1055.82	-29796.3	0.000000	0.000000	7.216266	226.216	NaN	0.000000	0.001729	0.001781	28.083	66.0819	0.001763	37488.6	6.109530	-6.441206	221.383	1.206059	0.064741	0.064312	226.216	37488.6	0.060215	0.126582	1787.11	96268.9
772	2.000000	1.217023	7.37261e+06	-38739.1	1055.82	-29796.3	0.000000	0.000000	7.229280	286.556	NaN	0.000000	0.001678	0.001746	28.0827	76.892	0.001818	42301.4	5.957519	172.875	284.655	1.216661	0.075276	0.074913	286.556	42301.4	0.070195	0.164882	1737.94	95179.1
772	2.000000	1.227612	7.37261e+06	-38739.1	1055.82	-29796.3	0.000000	0.000000	7.242430	348.88	NaN	0.000000	0.001716	0.001794	28.0827	86.2163	0.001867	46181.2	6.588923	-8.736945	351.319	1.227291	0.085865	0.085544	348.88	46181.2	0.080199	0.208034	1677.03	92506.3
772	2.000000	1.238023	7.37261e+06	-38739.1	1055.82	-29796.3	0.000000	0.000000	7.256507	438.087	NaN	0.000000	0.001749	0.001784	28.0842	93.9501	0.001861	50491.8	3.546608	174.021	437.26	1.237670	0.096276	0.095922	438.087	50491.8	0.089768	0.253673	1726.98	91591.9
772	2.000000	1.244478	7.37261e+06	-38739.1	1055.82	-29796.3	0.000000	0.000000	7.264871	484.557	NaN	0.000000	0.001729	0.001775	28.0841	100.773	0.001811	55639.5	5.593441	-9.518668	480.392	1.244146	0.102731	0.102399	484.557	55639.5	0.096199	0.286707	1690.08	94937.5