File: remote_trans/data/nanoindenter/0828-1/data/Data_2025-08-06,11h17m57s/2025-07-22_16-23-58_1_1069.txt
2025-07-22, 16:23:58, 1
Index	Phase	Displacement	Time	Pos X	Pos Y	Pos Z	Rot A	Rot B	Piezo Z	Force A	Force B	Gripper	Voltage A	Voltage B	Temperature	Amplitude force	Amplitude pos	Stiffness	Phase shift	Phase excitation	Force A raw	Displacement raw	HMax	HMax raw	Real Force	Real Stiffness	Contact Depth	Area	Hardness	Reduced Mod.
[#]	[#]	[um]	[s]	[um]	[um]	[um]	[m°]	[m°]	[um]	[uN]	[uN]	[V]	[V]	[V]	[°C]	[uN]	[um]	[N/m]	[°]	[°]	[uN]	[um]	[um]	[um]	[uN]	[N/m]	[um]	[um^2]	[MPa]	[MPa]
1069	1.000000	0.002461	7.3755e+06	-53589.1	1055.82	-29745.8	0.000000	0.000000	6.002767	0.052865	NaN	0.000000	0.001555	0.001696	28.0828	0.034909	0.001002	34.8395	16.7464	-170.207	0.151169	0.001268	-1.138957	-1.140151	0.052865	34.8395	-1.140095	-1.729889E+15	-3.055949E-17	NaN
1069	1.000000	0.044450	7.3755e+06	-53589.1	1055.82	-29745.8	0.000000	0.000000	6.044754	0.011629	NaN	0.000000	0.001609	0.001694	28.0829	0.065779	0.001910	34.4462	14.8694	16.2561	0.115077	0.043055	-1.096969	-1.098364	0.011629	34.4462	-1.097222	-4.600151E+14	-2.528031E-17	NaN
1069	1.000000	0.086465	7.3755e+06	-53589.1	1055.82	-29745.8	0.000000	0.000000	6.086770	0.038664	NaN	0.000000	0.001616	0.001619	28.0816	0.028281	0.002054	13.7663	-15.2746	-168.249	0.086295	0.085131	-1.054954	-1.056288	0.038664	13.7663	-1.057060	-1.328345E+14	-2.910694E-16	NaN
1069	1.000000	0.128467	7.3755e+06	-53589.1	1055.82	-29745.8	0.000000	0.000000	6.128770	-0.012549	NaN	0.000000	0.001601	0.001676	28.0814	0.058771	0.001894	31.0353	-90.2522	9.482425	-0.013375	0.127060	-1.012952	-1.014359	-0.012549	31.0353	-1.012649	-3.357636E+13	3.737344E-16	NaN
1069	1.000000	0.170509	7.3755e+06	-53589.1	1055.82	-29745.8	0.000000	0.000000	6.170812	-0.008421	NaN	0.000000	0.001611	0.001614	28.0817	0.036494	0.002039	17.8948	-129.914	-167.557	0.006665	0.169093	-0.970910	-0.972326	-0.008421	17.8948	-0.970557	-9.102638E+12	9.251471E-16	NaN
1069	1.000000	0.212511	7.3755e+06	-53589.1	1055.82	-29745.8	0.000000	0.000000	6.212814	-0.009658	NaN	0.000000	0.001566	0.001585	28.0814	0.077081	0.001946	39.6056	6.812949	11.4449	0.016478	0.211121	-0.928908	-0.930298	-0.009658	39.6056	-0.928725	-2.483049E+12	3.889549E-15	NaN
1069	1.000000	0.254542	7.3755e+06	-53589.1	1055.82	-29745.8	0.000000	0.000000	6.254849	0.092070	NaN	0.000000	0.001564	0.001605	28.0828	0.031205	0.001974	15.804	-3.932721	-167.44	0.114548	0.253293	-0.886877	-0.888125	0.092070	15.804	-0.891246	-7.740326E+11	-1.189484E-13	NaN
1069	1.000000	0.296539	7.3755e+06	-53589.1	1055.82	-29745.8	0.000000	0.000000	6.296845	0.052124	NaN	0.000000	0.001551	0.001633	28.0826	0.046006	0.002036	22.6008	-151.35	12.4176	0.029192	0.295141	-0.844880	-0.846278	0.052124	22.6008	-0.846610	-1.926746E+11	-2.705295E-13	NaN
1069	1.000000	0.338552	7.3755e+06	-53589.1	1055.82	-29745.8	0.000000	0.000000	6.338862	0.137345	NaN	0.000000	0.001574	0.001588	28.0827	0.077359	0.002045	37.8203	114.101	-166.814	0.130091	0.337242	-0.802866	-0.804177	0.137345	37.8203	-0.805590	-5.354663E+10	-2.564965E-12	NaN
1069	1.000000	0.380583	7.3755e+06	-53589.1	1055.82	-29745.8	0.000000	0.000000	6.380888	0.019153	NaN	0.000000	0.001583	0.001595	28.0816	0.071507	0.002029	35.2495	55.8437	11.5504	0.088246	0.379254	-0.760836	-0.762165	0.019153	35.2495	-0.761243	-1.337248E+10	-1.432254E-12	NaN
1069	1.000000	0.422592	7.37551e+06	-53589.1	1055.82	-29745.8	0.000000	0.000000	6.422896	0.018268	NaN	0.000000	0.001589	0.001624	28.0815	0.120694	0.002080	58.0265	-114.933	-167.067	0.015456	0.421322	-0.718827	-0.720097	0.018268	58.0265	-0.719063	-3.562004E+9	-5.128520E-12	NaN
1069	1.000000	0.464620	7.37551e+06	-53589.1	1055.82	-29745.8	0.000000	0.000000	6.464927	0.097242	NaN	0.000000	0.001587	0.001588	28.0815	0.114569	0.002006	57.1089	-174.991	13.1179	0.119324	0.463294	-0.676799	-0.678125	0.097242	57.1089	-0.678076	-9.815050E+8	-9.907418E-11	NaN
1069	1.000000	0.506668	7.37551e+06	-53589.1	1055.82	-29745.8	0.000000	0.000000	6.506973	0.038334	NaN	0.000000	0.001554	0.001664	28.0826	0.113006	0.002032	55.6245	-147.668	-165.746	0.037959	0.505352	-0.634751	-0.636067	0.038334	55.6245	-0.635268	-2.543031E+8	-1.507418E-10	NaN
1069	1.000000	0.548645	7.37551e+06	-53589.1	1055.82	-29745.8	0.000000	0.000000	6.548951	0.041035	NaN	0.000000	0.001577	0.001738	28.0827	0.156109	0.002167	72.0552	4.752680	14.2791	-0.051273	0.547333	-0.592773	-0.594086	0.041035	72.0552	-0.593201	-6.710947E+7	-6.114595E-10	NaN
1069	1.000000	0.590666	7.37551e+06	-53589.1	1055.82	-29745.8	0.000000	0.000000	6.590970	0.033827	NaN	0.000000	0.001538	0.001684	28.0831	0.060447	0.002016	29.9797	-38.8168	-163.696	0.064470	0.589368	-0.550753	-0.552051	0.033827	29.9797	-0.551600	-1.786934E+7	-1.893002E-9	NaN
1069	1.000000	0.632681	7.37551e+06	-53589.1	1055.82	-29745.8	0.000000	0.000000	6.632986	0.036308	NaN	0.000000	0.001597	0.001676	28.0816	0.088050	0.001872	47.0438	7.383789	10.5493	0.036472	0.631274	-0.508738	-0.510145	0.036308	47.0438	-0.509316	-4.62268e+06	-7.854234E-9	NaN
1069	1.000000	0.674695	7.37551e+06	-53589.1	1055.82	-29745.8	0.000000	0.000000	6.675000	0.028632	NaN	0.000000	0.001580	0.001679	28.0817	0.166753	0.001924	86.6647	-160.956	-165.691	0.015929	0.673391	-0.466724	-0.468028	0.028632	86.6647	-0.466972	-1.18283e+06	-2.420630E-8	NaN
1069	1.000000	0.716715	7.37551e+06	-53589.1	1055.82	-29745.8	0.000000	0.000000	6.717022	0.086216	NaN	0.000000	0.001547	0.001696	28.0817	0.074818	0.002077	36.0213	-88.4539	16.6796	0.110881	0.715382	-0.424704	-0.426037	0.086216	36.0213	-0.426499	-318061	-2.710673E-7	NaN
1069	1.000000	0.758745	7.37551e+06	-53589.1	1055.82	-29745.8	0.000000	0.000000	6.759051	0.057000	NaN	0.000000	0.001563	0.001654	28.0821	0.069326	0.002102	32.9851	-109.483	-166.347	-0.019584	0.757406	-0.382674	-0.384013	0.057000	32.9851	-0.383970	-78854	-7.228558E-7	NaN
1069	1.000000	0.800739	7.37551e+06	-53589.1	1055.82	-29745.8	0.000000	0.000000	6.801042	-0.017082	NaN	0.000000	0.001554	0.001680	28.083	0.076918	0.001943	39.5924	-20.9465	14.8633	0.017824	0.799359	-0.340680	-0.342060	-0.017082	39.5924	-0.340356	-18481.9	9.242567E-7	NaN
1069	1.000000	0.842749	7.37551e+06	-53589.1	1055.82	-29745.8	0.000000	0.000000	6.843055	0.055407	NaN	0.000000	0.001543	0.001672	28.083	0.033779	0.001893	17.8454	-134.661	-163.159	0.064184	0.841459	-0.298670	-0.299960	0.055407	17.8454	-0.300998	-4869.6	-1.137820E-5	NaN
1069	1.000000	0.884793	7.37551e+06	-53589.1	1055.82	-29745.8	0.000000	0.000000	6.885099	0.060379	NaN	0.000000	0.001563	0.001687	28.0831	0.058557	0.002023	28.9448	147.253	12.6535	-0.023284	0.883437	-0.256626	-0.257982	0.060379	28.9448	-0.258191	-1099.42	-5.491920E-5	NaN
1069	1.000000	0.926803	7.37551e+06	-53589.1	1055.82	-29745.8	0.000000	0.000000	6.927108	0.028772	NaN	0.000000	0.001543	0.001699	28.0818	0.056275	0.001807	31.1451	-36.6818	-164.457	0.089176	0.925512	-0.214616	-0.215907	0.028772	31.1451	-0.215308	-233.601	-0.000123	NaN
1069	1.000000	0.968856	7.37551e+06	-53589.1	1055.82	-29745.8	0.000000	0.000000	6.969163	0.092186	NaN	0.000000	0.001598	0.001684	28.0818	0.020087	0.002054	9.781151	-53.4655	13.3801	-0.011294	0.967463	-0.172563	-0.173955	0.092186	9.781151	-0.179632	-60.1452	-0.001533	NaN
1069	1.000000	1.010816	7.37551e+06	-53589.1	1055.82	-29745.8	0.000000	0.000000	7.011122	0.038879	NaN	0.000000	0.001623	0.001682	28.0819	0.115296	0.001935	59.5928	14.8619	-167.493	0.016158	1.009580	-0.130602	-0.131839	0.038879	59.5928	-0.131092	-8.001570	-0.004859	NaN
1069	1.000000	1.052862	7.37551e+06	-53589.1	1055.82	-29745.8	0.000000	0.000000	7.053169	0.080650	NaN	0.000000	0.001640	0.001698	28.0832	0.120831	0.001994	60.5948	-112.127	12.7511	0.064340	1.051497	-0.088557	-0.089922	0.080650	60.5948	-0.089555	-1.055282	-0.076425	NaN
1069	1.000000	1.094837	7.37551e+06	-53589.1	1055.82	-29745.8	0.000000	0.000000	7.095145	0.102538	NaN	0.000000	0.001627	0.001648	28.0828	0.112023	0.001980	56.5714	-94.537	-166.27	0.072311	1.093552	-0.046582	-0.047867	0.102538	56.5714	-0.047941	-0.079024	-1.297563	NaN
1069	1.000000	1.136873	7.37551e+06	-53589.1	1055.82	-29745.8	0.000000	0.000000	7.137178	0.037334	NaN	0.000000	0.001570	0.001652	28.0829	0.017743	0.001912	9.281844	27.1952	15.4359	0.021670	1.135560	-0.004546	-0.005858	0.037334	9.281844	-0.007563	-0.004975	-7.504861	NaN
1069	2.000000	1.157429	7.37551e+06	-53589.1	1055.82	-29745.8	0.000000	0.000000	7.158423	16.7857	NaN	0.000000	0.001532	0.001673	28.0818	16.2215	0.001836	8837.1	7.586311	-177.154	16.3885	1.157101	0.016010	0.015682	16.7857	8837.1	0.014585	0.014737	1139.06	66509.8
1069	2.000000	1.167882	7.37551e+06	-53589.1	1055.82	-29745.8	0.000000	0.000000	7.169847	40.4107	NaN	0.000000	0.001583	0.001684	28.0815	25.7361	0.001807	14243.1	2.330293	4.836024	39.9815	1.167562	0.026463	0.026143	40.4107	14243.1	0.024335	0.029817	1355.3	75360.9
1069	2.000000	1.178392	7.37551e+06	-53589.1	1055.82	-29745.8	0.000000	0.000000	7.181350	64.5343	NaN	0.000000	0.001545	0.001685	28.0817	35.6477	0.001786	19958.4	1.885486	-178.586	65.0405	1.178145	0.036973	0.036726	64.5343	19958.4	0.034548	0.050698	1272.91	80984.8
1069	2.000000	1.188872	7.37551e+06	-53589.1	1055.82	-29745.8	0.000000	0.000000	7.193510	105.376	NaN	0.000000	0.001569	0.001710	28.0818	45.2408	0.001765	25627.3	5.671038	-3.348571	105.581	1.188430	0.047453	0.047011	105.376	25627.3	0.044369	0.075807	1390.05	85039.4
1069	2.000000	1.199384	7.37551e+06	-53589.1	1055.82	-29745.8	0.000000	0.000000	7.205879	150.528	NaN	0.000000	0.001567	0.001648	28.0837	56.398	0.001771	31846.4	3.983269	176.037	149.514	1.198969	0.057966	0.057550	150.528	31846.4	0.054421	0.106565	1412.55	89130.5
1069	2.000000	1.209829	7.37551e+06	-53589.1	1055.82	-29745.8	0.000000	0.000000	7.218448	202.164	NaN	0.000000	0.001553	0.001672	28.083	66.3497	0.001731	38332.2	2.641639	-4.995510	200.575	1.209575	0.068410	0.068156	202.164	38332.2	0.064454	0.142264	1421.05	92851.7
1069	2.000000	1.220258	7.37551e+06	-53589.1	1055.82	-29745.8	0.000000	0.000000	7.231500	265.952	NaN	0.000000	0.001561	0.001685	28.0831	76.4489	0.001746	43788.6	2.349108	174.412	262.801	1.220014	0.078839	0.078595	265.952	43788.6	0.074284	0.181949	1461.69	93790.7
1069	2.000000	1.230799	7.37551e+06	-53589.1	1055.82	-29745.8	0.000000	0.000000	7.245057	339.283	NaN	0.000000	0.001559	0.001679	28.0816	85.34	0.001729	49357.4	1.908047	-5.605895	336.788	1.230462	0.089380	0.089044	339.283	49357.4	0.084224	0.226716	1496.51	94707.5
1069	2.000000	1.241244	7.37551e+06	-53589.1	1055.82	-29745.8	0.000000	0.000000	7.259052	425.565	NaN	0.000000	0.001531	0.001645	28.0819	94.0369	0.001885	49877.4	0.217914	176.476	422.628	1.240880	0.099825	0.099461	425.565	49877.4	0.093426	0.272230	1563.25	87339.2
1069	2.000000	1.248839	7.37551e+06	-53589.1	1055.82	-29745.8	0.000000	0.000000	7.269020	483.278	NaN	0.000000	0.001545	0.001666	28.0821	103.024	0.001802	57160.7	7.979757	-12.1981	483.847	1.248344	0.107420	0.106925	483.278	57160.7	0.101079	0.313033	1543.85	93341.6