File: remote_trans/data/nanoindenter/0828-1/data/Data_2025-08-06,11h17m57s/2025-07-22_16-23-58_1_673.txt
2025-07-22, 16:23:58, 1
Index	Phase	Displacement	Time	Pos X	Pos Y	Pos Z	Rot A	Rot B	Piezo Z	Force A	Force B	Gripper	Voltage A	Voltage B	Temperature	Amplitude force	Amplitude pos	Stiffness	Phase shift	Phase excitation	Force A raw	Displacement raw	HMax	HMax raw	Real Force	Real Stiffness	Contact Depth	Area	Hardness	Reduced Mod.
[#]	[#]	[um]	[s]	[um]	[um]	[um]	[m°]	[m°]	[um]	[uN]	[uN]	[V]	[V]	[V]	[°C]	[uN]	[um]	[N/m]	[°]	[°]	[uN]	[um]	[um]	[um]	[uN]	[N/m]	[um]	[um^2]	[MPa]	[MPa]
673	1.000000	0.002970	7.37163e+06	-43439.1	1005.82	-29779.2	0.000000	0.000000	6.002782	-0.032044	NaN	0.000000	0.001603	0.001756	28.0798	0.080383	0.000938	85.6908	-155.156	-163.189	-0.010652	0.001718	-1.009627	-1.010879	-0.032044	85.6908	-1.009346	-3.030983E+13	1.057204E-15	NaN
673	1.000000	0.042972	7.37163e+06	-43439.1	1005.82	-29779.2	0.000000	0.000000	6.042784	-0.020607	NaN	0.000000	0.001628	0.001781	28.0811	0.057177	0.001895	30.1669	88.0569	-166.488	-0.025725	0.041660	-0.969625	-0.970937	-0.020607	30.1669	-0.969113	-8.703682E+12	2.367636E-15	NaN
673	1.000000	0.082923	7.37163e+06	-43439.1	1005.82	-29779.2	0.000000	0.000000	6.082736	0.004975	NaN	0.000000	0.001571	0.001731	28.0809	0.032724	0.001908	17.1493	166.549	-162.663	0.050374	0.081595	-0.929674	-0.931002	0.004975	17.1493	-0.929891	-2.574712E+12	-1.932272E-15	NaN
673	1.000000	0.122952	7.37163e+06	-43439.1	1005.82	-29779.2	0.000000	0.000000	6.122765	0.003409	NaN	0.000000	0.001559	0.001728	28.0807	0.116176	0.001971	58.9565	103.79	-162.678	-0.074707	0.121556	-0.889645	-0.891041	0.003409	58.9565	-0.889688	-7.373929E+11	-4.622732E-15	NaN
673	1.000000	0.162987	7.37163e+06	-43439.1	1005.82	-29779.2	0.000000	0.000000	6.162799	-0.012004	NaN	0.000000	0.001549	0.001739	28.0806	0.057682	0.001942	29.7004	114.134	-164.315	-0.094306	0.161671	-0.849610	-0.850926	-0.012004	29.7004	-0.849307	-2.095829E+11	5.727377E-14	NaN
673	1.000000	0.203001	7.37163e+06	-43439.1	1005.82	-29779.2	0.000000	0.000000	6.202815	0.022324	NaN	0.000000	0.001545	0.001763	28.0794	0.157183	0.002018	77.9089	-58.0697	-165.586	0.028483	0.201677	-0.809596	-0.810920	0.022324	77.9089	-0.809811	-6.109489E+10	-3.653982E-13	NaN
673	1.000000	0.242997	7.37163e+06	-43439.1	1005.82	-29779.2	0.000000	0.000000	6.242808	-0.036753	NaN	0.000000	0.001557	0.001749	28.0798	0.084309	0.002028	41.5744	-48.0718	-162.563	0.035251	0.241685	-0.769600	-0.770912	-0.036753	41.5744	-0.768937	-1.701603E+10	2.159914E-12	NaN
673	1.000000	0.283056	7.37163e+06	-43439.1	1005.82	-29779.2	0.000000	0.000000	6.282866	-0.071363	NaN	0.000000	0.001589	0.001780	28.0797	0.090614	0.001988	45.5733	-91.1512	-165.793	0.027040	0.281755	-0.729541	-0.730842	-0.071363	45.5733	-0.728367	-4.770329E+9	1.495982E-11	NaN
673	1.000000	0.323045	7.37163e+06	-43439.1	1005.82	-29779.2	0.000000	0.000000	6.322855	-0.052073	NaN	0.000000	0.001557	0.001775	28.0811	0.043488	0.001983	21.9353	94.8408	-165.409	0.035151	0.321775	-0.689552	-0.690822	-0.052073	21.9353	-0.687772	-1.331879E+9	3.909768E-11	NaN
673	1.000000	0.363056	7.37163e+06	-43439.1	1005.82	-29779.2	0.000000	0.000000	6.362870	0.036359	NaN	0.000000	0.001583	0.001760	28.0813	0.089783	0.002028	44.2679	118.665	-163.96	-0.019567	0.361771	-0.649541	-0.650826	0.036359	44.2679	-0.650157	-4.070005E+8	-8.933504E-11	NaN
673	1.000000	0.403098	7.37164e+06	-43439.1	1005.82	-29779.2	0.000000	0.000000	6.402914	0.066811	NaN	0.000000	0.001573	0.001723	28.0812	0.039730	0.002124	18.7081	-18.6092	-162.884	0.090657	0.401754	-0.609499	-0.610843	0.066811	18.7081	-0.612177	-1.224804E+8	-5.454862E-10	NaN
673	1.000000	0.443101	7.37164e+06	-43439.1	1005.82	-29779.2	0.000000	0.000000	6.442914	0.001496	NaN	0.000000	0.001583	0.001779	28.0797	0.021828	0.001983	11.0055	-10.6988	-162.887	-0.006171	0.441829	-0.569496	-0.570768	0.001496	11.0055	-0.569598	-3.170129E+7	-4.720602E-11	NaN
673	1.000000	0.483119	7.37164e+06	-43439.1	1005.82	-29779.2	0.000000	0.000000	6.482932	-0.006708	NaN	0.000000	0.001602	0.001770	28.0796	0.068472	0.001969	34.7701	157.104	-166.116	0.000186	0.481807	-0.529478	-0.530790	-0.006708	34.7701	-0.529333	-8.77632e+06	7.643400E-10	NaN
673	1.000000	0.523176	7.37164e+06	-43439.1	1005.82	-29779.2	0.000000	0.000000	6.522989	-0.014838	NaN	0.000000	0.001598	0.001719	28.0795	0.054883	0.002031	27.0178	64.8219	-164.853	0.054258	0.521830	-0.489421	-0.490767	-0.014838	27.0178	-0.489009	-2.40736e+06	6.163680E-9	NaN
673	1.000000	0.563150	7.37164e+06	-43439.1	1005.82	-29779.2	0.000000	0.000000	6.562961	-0.038522	NaN	0.000000	0.001605	0.001762	28.0795	0.091467	0.002072	44.1447	162.414	-162.303	0.009500	0.561833	-0.449447	-0.450764	-0.038522	44.1447	-0.448793	-656662	5.866355E-8	NaN
673	1.000000	0.603182	7.37164e+06	-43439.1	1005.82	-29779.2	0.000000	0.000000	6.602994	-0.012971	NaN	0.000000	0.001595	0.001735	28.0807	0.093859	0.002023	46.4043	-143.374	-161.338	0.023568	0.601896	-0.409415	-0.410701	-0.012971	46.4043	-0.409205	-180759	7.175574E-8	NaN
673	1.000000	0.643193	7.37164e+06	-43439.1	1005.82	-29779.2	0.000000	0.000000	6.643005	-0.012475	NaN	0.000000	0.001629	0.001701	28.0813	0.023943	0.002098	11.4113	-96.3538	-162.86	-0.080699	0.641832	-0.369404	-0.370765	-0.012475	11.4113	-0.368584	-47395.2	2.632077E-7	NaN
673	1.000000	0.683181	7.37164e+06	-43439.1	1005.82	-29779.2	0.000000	0.000000	6.682994	-0.014592	NaN	0.000000	0.001622	0.001731	28.081	0.112006	0.001897	59.045	-148.944	-163.417	-0.052657	0.681830	-0.329416	-0.330767	-0.014592	59.045	-0.329230	-12710.9	1.147989E-6	NaN
673	1.000000	0.723219	7.37164e+06	-43439.1	1005.82	-29779.2	0.000000	0.000000	6.723030	-0.043576	NaN	0.000000	0.001579	0.001747	28.0797	0.062157	0.002038	30.5028	27.1687	-164.034	0.019302	0.721926	-0.289378	-0.290671	-0.043576	30.5028	-0.288306	-3147.12	1.384634E-5	NaN
673	1.000000	0.763244	7.37164e+06	-43439.1	1005.82	-29779.2	0.000000	0.000000	6.763058	0.029775	NaN	0.000000	0.001623	0.001743	28.0794	0.084951	0.002001	42.4629	144.771	-162.021	-0.006382	0.761915	-0.249353	-0.250682	0.029775	42.4629	-0.249879	-818.636	-3.637172E-5	NaN
673	1.000000	0.803256	7.37164e+06	-43439.1	1005.82	-29779.2	0.000000	0.000000	6.803067	-0.044790	NaN	0.000000	0.001613	0.001731	28.0795	0.067523	0.002064	32.707	32.5693	-163.271	-0.059480	0.801917	-0.209341	-0.210680	-0.044790	32.707	-0.208314	-180.085	0.000249	NaN
673	1.000000	0.843283	7.37164e+06	-43439.1	1005.82	-29779.2	0.000000	0.000000	6.843096	0.000856	NaN	0.000000	0.001666	0.001707	28.0797	0.015008	0.002003	7.492263	-55.6454	-164.069	0.021309	0.841974	-0.169314	-0.170623	0.000856	7.492263	-0.169400	-40.1038	-2.135698E-5	NaN
673	1.000000	0.883275	7.37164e+06	-43439.1	1005.82	-29779.2	0.000000	0.000000	6.883090	0.050621	NaN	0.000000	0.001604	0.001736	28.0808	0.100587	0.002038	49.3458	-86.2652	-163.127	0.115431	0.881931	-0.129322	-0.130666	0.050621	49.3458	-0.130092	-7.652354	-0.006615	NaN
673	1.000000	0.923252	7.37164e+06	-43439.1	1005.82	-29779.2	0.000000	0.000000	6.923065	0.008186	NaN	0.000000	0.001693	0.001718	28.0801	0.068682	0.001928	35.6207	9.067738	-163.122	-0.047891	0.921926	-0.089345	-0.090671	0.008186	35.6207	-0.089517	-1.053116	-0.007774	NaN
673	1.000000	0.963294	7.37164e+06	-43439.1	1005.82	-29779.2	0.000000	0.000000	6.963108	0.015172	NaN	0.000000	0.001595	0.001711	28.0807	0.122477	0.002077	58.9741	51.9786	-167.21	-0.007990	0.962026	-0.049303	-0.050571	0.015172	58.9741	-0.049496	-0.088099	-0.172215	NaN
673	1.000000	1.003313	7.37164e+06	-43439.1	1005.82	-29779.2	0.000000	0.000000	7.003129	0.079773	NaN	0.000000	0.001626	0.001713	28.0795	0.065086	0.002046	31.8082	-170.329	-164.458	0.062603	1.002048	-0.009284	-0.010549	0.079773	31.8082	-0.011165	-0.007052	-11.3115	NaN
673	2.000000	1.025930	7.37164e+06	-43439.1	1005.82	-29779.2	0.000000	0.000000	7.026289	13.2935	NaN	0.000000	0.001646	0.001725	28.0796	13.4135	0.001794	7475.54	5.617332	-172.555	12.4352	1.025663	0.013333	0.013066	13.2935	7475.54	0.011999	0.011489	1157.04	63719.2
673	2.000000	1.035920	7.37164e+06	-43439.1	1005.82	-29779.2	0.000000	0.000000	7.037057	32.2146	NaN	0.000000	0.001602	0.001746	28.0797	23.3102	0.001825	12773.4	6.533683	-177.682	32.2288	1.035557	0.023323	0.022960	32.2146	12773.4	0.021432	0.024842	1296.78	74043.2
673	2.000000	1.045893	7.37164e+06	-43439.1	1005.82	-29779.2	0.000000	0.000000	7.048089	57.9854	NaN	0.000000	0.001567	0.001738	28.0809	33.4751	0.001785	18758.4	5.266006	179.105	56.9763	1.045612	0.033296	0.033015	57.9854	18758.4	0.030977	0.042793	1355.01	82847.5
673	2.000000	1.055863	7.37164e+06	-43439.1	1005.82	-29779.2	0.000000	0.000000	7.059656	96.855	NaN	0.000000	0.001595	0.001734	28.0806	43.0167	0.001838	23400.2	3.976864	179.34	95.6302	1.055534	0.043266	0.042937	96.855	23400.2	0.040161	0.064446	1502.89	84216.2
673	2.000000	1.065761	7.37164e+06	-43439.1	1005.82	-29779.2	0.000000	0.000000	7.071644	147.679	NaN	0.000000	0.001602	0.001731	28.0806	51.874	0.001849	28049.3	3.574431	178.649	145.057	1.065468	0.053164	0.052871	147.679	28049.3	0.049215	0.090003	1640.82	85421.5
673	2.000000	1.075808	7.37164e+06	-43439.1	1005.82	-29779.2	0.000000	0.000000	7.083658	195.542	NaN	0.000000	0.001618	0.001755	28.0807	62.8458	0.001778	35346.9	5.112895	174.074	194.116	1.075585	0.063211	0.062988	195.542	35346.9	0.059062	0.122466	1596.7	92282
673	2.000000	1.085851	7.37164e+06	-43439.1	1005.82	-29779.2	0.000000	0.000000	7.096351	260.031	NaN	0.000000	0.001605	0.001741	28.0793	72.3884	0.001798	40259.1	6.258842	172.612	261.871	1.085555	0.073254	0.072958	260.031	40259.1	0.068409	0.157677	1649.13	92630.1
673	2.000000	1.095773	7.37164e+06	-43439.1	1005.82	-29779.2	0.000000	0.000000	7.109246	332.346	NaN	0.000000	0.001625	0.001746	28.0795	80.9839	0.001802	44930.3	2.168926	175.57	328.541	1.095534	0.083176	0.082936	332.346	44930.3	0.077628	0.196496	1691.36	92605.2
673	2.000000	1.105776	7.37164e+06	-43439.1	1005.82	-29779.2	0.000000	0.000000	7.122338	407.482	NaN	0.000000	0.001608	0.001757	28.0799	91.6575	0.001753	52295.5	7.428563	169.294	404.709	1.105456	0.093179	0.092858	407.482	52295.5	0.087335	0.241668	1686.13	97191.4
673	2.000000	1.115718	7.37164e+06	-43439.1	1005.82	-29779.2	0.000000	0.000000	7.135819	493.609	NaN	0.000000	0.001575	0.001754	28.0811	100.057	0.001835	54522.3	7.798831	168.376	489.882	1.115487	0.103121	0.102890	493.609	54522.3	0.096331	0.287403	1717.48	92918.4
673	2.000000	1.118776	7.37164e+06	-43439.1	1005.82	-29779.2	0.000000	0.000000	7.139937	519.405	NaN	0.000000	0.001600	0.001736	28.0807	102.407	0.001748	58601	6.135594	169.761	517.524	1.118473	0.106179	0.105876	519.405	58601	0.099531	0.304567	1705.39	97014.6