File: remote_trans/data/nanoindenter/0828-1/data/Data_2025-08-06,11h17m57s/2025-07-22_16-23-58_1_628.txt
2025-07-22, 16:23:58, 1
Index	Phase	Displacement	Time	Pos X	Pos Y	Pos Z	Rot A	Rot B	Piezo Z	Force A	Force B	Gripper	Voltage A	Voltage B	Temperature	Amplitude force	Amplitude pos	Stiffness	Phase shift	Phase excitation	Force A raw	Displacement raw	HMax	HMax raw	Real Force	Real Stiffness	Contact Depth	Area	Hardness	Reduced Mod.
[#]	[#]	[um]	[s]	[um]	[um]	[um]	[m°]	[m°]	[um]	[uN]	[uN]	[V]	[V]	[V]	[°C]	[uN]	[um]	[N/m]	[°]	[°]	[uN]	[um]	[um]	[um]	[uN]	[N/m]	[um]	[um^2]	[MPa]	[MPa]
628	1.000000	0.002678	7.37119e+06	-45689.1	1005.82	-29771.6	0.000000	0.000000	6.002805	0.036414	NaN	0.000000	0.001596	0.001677	28.0828	0.135136	0.000917	147.339	43.3609	-167.356	-0.018837	0.001400	-1.124981	-1.126259	0.036414	147.339	-1.125166	-1.090885E+15	-3.337984E-17	NaN
628	1.000000	0.044659	7.37119e+06	-45689.1	1005.82	-29771.6	0.000000	0.000000	6.044785	0.042517	NaN	0.000000	0.001609	0.001705	28.0827	0.179063	0.002023	88.509	92.4939	17.3721	0.137321	0.043269	-1.083001	-1.084390	0.042517	88.509	-1.083361	-2.996796E+14	-1.418735E-16	NaN
628	1.000000	0.086622	7.37119e+06	-45689.1	1005.82	-29771.6	0.000000	0.000000	6.086748	0.007742	NaN	0.000000	0.001594	0.001683	28.0828	0.113638	0.002080	54.6278	-31.8008	-163.25	-0.010711	0.085311	-1.041037	-1.042348	0.007742	54.6278	-1.041143	-8.115931E+13	-9.538973E-17	NaN
628	1.000000	0.128646	7.37119e+06	-45689.1	1005.82	-29771.6	0.000000	0.000000	6.128775	0.089890	NaN	0.000000	0.001605	0.001690	28.0818	0.044155	0.002069	21.3402	28.7851	13.0459	0.037520	0.127282	-0.999013	-1.000377	0.089890	21.3402	-1.002172	-2.426680E+13	-3.704257E-15	NaN
628	1.000000	0.170676	7.37119e+06	-45689.1	1005.82	-29771.6	0.000000	0.000000	6.170805	0.090760	NaN	0.000000	0.001645	0.001639	28.0817	0.035736	0.001939	18.4318	-64.8968	-164.096	0.009185	0.169324	-0.956983	-0.958336	0.090760	18.4318	-0.960676	-6.698600E+12	-1.354916E-14	NaN
628	1.000000	0.212651	7.37119e+06	-45689.1	1005.82	-29771.6	0.000000	0.000000	6.212779	0.075185	NaN	0.000000	0.001609	0.001649	28.0823	0.077284	0.001948	39.6706	-38.4386	16.5001	0.041502	0.211426	-0.915008	-0.916233	0.075185	39.6706	-0.916429	-1.694309E+12	-4.437485E-14	NaN
628	1.000000	0.254710	7.3712e+06	-45689.1	1005.82	-29771.6	0.000000	0.000000	6.254836	0.017892	NaN	0.000000	0.001589	0.001649	28.0832	0.028576	0.001938	14.7432	-75.5877	-166.988	0.047360	0.253439	-0.872949	-0.874220	0.017892	14.7432	-0.873859	-4.504518E+11	-3.972022E-14	NaN
628	1.000000	0.296720	7.3712e+06	-45689.1	1005.82	-29771.6	0.000000	0.000000	6.296844	-0.032652	NaN	0.000000	0.001649	0.001659	28.0833	0.097892	0.002041	47.9607	1.944921	19.4395	-0.019566	0.295382	-0.830939	-0.832277	-0.032652	47.9607	-0.830428	-1.163020E+11	2.807555E-13	NaN
628	1.000000	0.338716	7.3712e+06	-45689.1	1005.82	-29771.6	0.000000	0.000000	6.338843	0.027413	NaN	0.000000	0.001605	0.001696	28.0831	0.020083	0.001859	10.8008	-52.2096	-164.162	0.074446	0.337450	-0.788943	-0.790209	0.027413	10.8008	-0.790846	-3.377355E+10	-8.116590E-13	NaN
628	1.000000	0.380786	7.3712e+06	-45689.1	1005.82	-29771.6	0.000000	0.000000	6.380911	-0.004335	NaN	0.000000	0.001602	0.001691	28.0827	0.071033	0.001917	37.0474	7.486049	11.8478	-0.031757	0.379401	-0.746873	-0.748258	-0.004335	37.0474	-0.746786	-8.500822E+9	5.098935E-13	NaN
628	1.000000	0.422781	7.3712e+06	-45689.1	1005.82	-29771.6	0.000000	0.000000	6.422908	0.038099	NaN	0.000000	0.001680	0.001663	28.0818	0.092756	0.002024	45.818	-76.1416	-166.627	0.088684	0.421463	-0.704878	-0.706197	0.038099	45.818	-0.705502	-2.326224E+9	-1.637814E-11	NaN
628	1.000000	0.464825	7.3712e+06	-45689.1	1005.82	-29771.6	0.000000	0.000000	6.464949	-0.033203	NaN	0.000000	0.001633	0.001676	28.082	0.061482	0.002025	30.3627	179.87	17.1461	-0.012148	0.463458	-0.662834	-0.664201	-0.033203	30.3627	-0.662014	-5.916361E+8	5.612134E-11	NaN
628	1.000000	0.506807	7.3712e+06	-45689.1	1005.82	-29771.6	0.000000	0.000000	6.506931	-0.025377	NaN	0.000000	0.001643	0.001664	28.0819	0.078224	0.002014	38.8337	140.185	-164.969	-0.035033	0.505475	-0.620852	-0.622184	-0.025377	38.8337	-0.620362	-1.587117E+8	1.598924E-10	NaN
628	1.000000	0.548817	7.3712e+06	-45689.1	1005.82	-29771.6	0.000000	0.000000	6.548941	-0.041886	NaN	0.000000	0.001686	0.001659	28.0831	0.061950	0.002036	30.4303	147.036	17.9262	-0.120705	0.547448	-0.578842	-0.580211	-0.041886	30.4303	-0.577810	-4.116138E+7	1.017599E-9	NaN
628	1.000000	0.590818	7.3712e+06	-45689.1	1005.82	-29771.6	0.000000	0.000000	6.590944	0.037907	NaN	0.000000	0.001708	0.001678	28.0831	0.018609	0.001898	9.805284	174.005	-164.97	0.010795	0.589456	-0.536841	-0.538203	0.037907	9.805284	-0.539741	-1.223948E+7	-3.097087E-9	NaN
628	1.000000	0.632885	7.3712e+06	-45689.1	1005.82	-29771.6	0.000000	0.000000	6.633009	-0.006609	NaN	0.000000	0.001628	0.001667	28.083	0.039478	0.002052	19.2372	114.398	13.1343	0.002819	0.631512	-0.494774	-0.496148	-0.006609	19.2372	-0.494517	-2.87401e+06	2.299714E-9	NaN
628	1.000000	0.674885	7.3712e+06	-45689.1	1005.82	-29771.6	0.000000	0.000000	6.675010	-0.002458	NaN	0.000000	0.001630	0.001674	28.0817	0.024978	0.002007	12.4485	46.4299	-165.843	-0.055474	0.673567	-0.452774	-0.454093	-0.002458	12.4485	-0.452626	-743545	3.305472E-9	NaN
628	1.000000	0.716904	7.3712e+06	-45689.1	1005.82	-29771.6	0.000000	0.000000	6.717030	0.039216	NaN	0.000000	0.001653	0.001621	28.0819	0.009483	0.002087	4.544321	44.0051	13.5437	0.088887	0.715527	-0.410755	-0.412133	0.039216	4.544321	-0.417228	-235007	-1.668720E-7	NaN
628	1.000000	0.758967	7.3712e+06	-45689.1	1005.82	-29771.6	0.000000	0.000000	6.759093	0.026059	NaN	0.000000	0.001605	0.001645	28.0817	0.071852	0.002055	34.9673	135.6	-166.345	0.099394	0.757639	-0.368692	-0.370021	0.026059	34.9673	-0.369251	-48455.6	-5.377806E-7	NaN
628	1.000000	0.800935	7.3712e+06	-45689.1	1005.82	-29771.6	0.000000	0.000000	6.801058	-0.052779	NaN	0.000000	0.001621	0.001686	28.0828	0.103366	0.002103	49.1504	87.4557	17.5268	-0.033843	0.799575	-0.326724	-0.328084	-0.052779	49.1504	-0.325919	-11366.4	4.643430E-6	NaN
628	1.000000	0.842942	7.3712e+06	-45689.1	1005.82	-29771.6	0.000000	0.000000	6.843067	0.007590	NaN	0.000000	0.001606	0.001640	28.0831	0.125385	0.002111	59.3885	-124.521	-164.7	-0.059205	0.841613	-0.284717	-0.286046	0.007590	59.3885	-0.284813	-2789.05	-2.721182E-6	NaN
628	1.000000	0.884972	7.3712e+06	-45689.1	1005.82	-29771.6	0.000000	0.000000	6.885100	0.078928	NaN	0.000000	0.001605	0.001683	28.0831	0.040122	0.001897	21.1474	49.498	16.6893	0.111721	0.883605	-0.242687	-0.244054	0.078928	21.1474	-0.245486	-699.853	-0.000113	NaN
628	1.000000	0.926993	7.3712e+06	-45689.1	1005.82	-29771.6	0.000000	0.000000	6.927121	0.069018	NaN	0.000000	0.001636	0.001690	28.0829	0.114398	0.002024	56.5085	-151.394	-166.468	0.076916	0.925687	-0.200666	-0.201972	0.069018	56.5085	-0.201582	-139.85	-0.000494	NaN
628	1.000000	0.969022	7.3712e+06	-45689.1	1005.82	-29771.6	0.000000	0.000000	6.969147	0.002397	NaN	0.000000	0.001605	0.001655	28.0817	0.081748	0.002027	40.3395	154.624	15.8105	0.058587	0.967667	-0.158638	-0.159992	0.002397	40.3395	-0.158682	-25.9734	-9.230523E-5	NaN
628	1.000000	1.011012	7.3712e+06	-45689.1	1005.82	-29771.6	0.000000	0.000000	7.011134	-0.076557	NaN	0.000000	0.001606	0.001657	28.0819	0.087582	0.002118	41.3563	90.8184	-166.949	-0.135401	1.009760	-0.116647	-0.117899	-0.076557	41.3563	-0.115259	-3.867528	0.019795	NaN
628	1.000000	1.053061	7.3712e+06	-45689.1	1005.82	-29771.6	0.000000	0.000000	7.053189	0.073326	NaN	0.000000	0.001572	0.001663	28.0822	0.042753	0.001986	21.5268	116.792	13.2843	0.112846	1.051738	-0.074598	-0.075921	0.073326	21.5268	-0.077152	-0.524559	-0.139786	NaN
628	1.000000	1.095057	7.3712e+06	-45689.1	1005.82	-29771.6	0.000000	0.000000	7.095182	-0.009706	NaN	0.000000	0.001595	0.001645	28.0833	0.064486	0.002001	32.2315	-178.484	-166.189	-0.019839	1.093732	-0.032602	-0.033927	-0.009706	32.2315	-0.032376	-0.026865	0.361294	NaN
628	2.000000	1.136801	7.3712e+06	-45689.1	1005.82	-29771.6	0.000000	0.000000	7.137277	8.541426	NaN	0.000000	0.001574	0.001626	28.0834	8.032759	0.001669	4812.66	7.995297	9.746295	6.922284	1.135667	0.009141	0.008007	8.541426	4812.66	0.007810	0.006848	1247.29	53134.4
628	2.000000	1.147598	7.3712e+06	-45689.1	1005.82	-29771.6	0.000000	0.000000	7.148614	21.6699	NaN	0.000000	0.001570	0.001647	28.0831	18.448	0.001812	10180.7	4.066068	-171.122	20.5446	1.147297	0.019939	0.019638	21.6699	10180.7	0.018342	0.020004	1083.29	65765.3
628	2.000000	1.158039	7.3712e+06	-45689.1	1005.82	-29771.6	0.000000	0.000000	7.159993	44.476	NaN	0.000000	0.001629	0.001645	28.0819	28.2848	0.001770	15975.8	1.209907	5.010964	42.8901	1.157807	0.030380	0.030148	44.476	15975.8	0.028292	0.037278	1193.08	75597.6
628	2.000000	1.168476	7.3712e+06	-45689.1	1005.82	-29771.6	0.000000	0.000000	7.171782	77.3698	NaN	0.000000	0.001663	0.001691	28.0817	38.7047	0.001781	21732.6	6.787812	176.717	72.7807	1.168206	0.040817	0.040547	77.3698	21732.6	0.038147	0.059327	1304.13	81519.1
628	2.000000	1.179023	7.3712e+06	-45689.1	1005.82	-29771.6	0.000000	0.000000	7.183813	113.486	NaN	0.000000	0.001539	0.001726	28.0821	48.9516	0.001827	26792.9	5.904973	-3.655360	111.241	1.178719	0.051364	0.051060	113.486	26792.9	0.048187	0.086892	1306.05	83042.9
628	2.000000	1.189513	7.3712e+06	-45689.1	1005.82	-29771.6	0.000000	0.000000	7.196276	161.473	NaN	0.000000	0.001544	0.001700	28.0829	59.9624	0.001831	32746.9	6.621956	174.221	159.475	1.189161	0.061854	0.061502	161.473	32746.9	0.058155	0.119277	1353.77	86629.5
628	2.000000	1.200190	7.3712e+06	-45689.1	1005.82	-29771.6	0.000000	0.000000	7.208270	193.507	NaN	0.000000	0.001578	0.001729	28.0832	70.8079	0.001767	40070.1	6.015550	-7.134062	200.016	1.199982	0.072531	0.072323	193.507	40070.1	0.068909	0.159678	1211.86	91615.8
628	2.000000	1.210385	7.3712e+06	-45689.1	1005.82	-29771.6	0.000000	0.000000	7.221444	265.97	NaN	0.000000	0.001574	0.001658	28.0837	79.1349	0.001841	42988.1	2.327390	175.855	260.087	1.210115	0.082726	0.082456	265.97	42988.1	0.078086	0.198527	1339.72	88147.9
628	2.000000	1.220854	7.3712e+06	-45689.1	1005.82	-29771.6	0.000000	0.000000	7.234539	329.853	NaN	0.000000	0.001573	0.001652	28.0826	87.8535	0.001756	50024.9	4.899241	-7.669673	321.036	1.220635	0.093195	0.092976	329.853	50024.9	0.088250	0.246149	1340.05	92121.5
628	2.000000	1.231369	7.3712e+06	-45689.1	1005.82	-29771.6	0.000000	0.000000	7.248574	415.483	NaN	0.000000	0.001591	0.001676	28.0816	97.735	0.001786	54720.6	3.334953	173.577	409.418	1.231047	0.103710	0.103388	415.483	54720.6	0.098015	0.296379	1401.86	91833.4
628	2.000000	1.235435	7.3712e+06	-45689.1	1005.82	-29771.6	0.000000	0.000000	7.253854	445.023	NaN	0.000000	0.001570	0.001741	28.0816	100.983	0.001816	55610.8	4.441562	172.64	442.835	1.235077	0.107776	0.107418	445.023	55610.8	0.101774	0.316872	1404.43	90259