File: remote_trans/data/nanoindenter/0828-1/data/Data_2025-08-06,11h17m57s/2025-07-22_16-23-58_1_166.txt
2025-07-22, 16:23:58, 1
Index	Phase	Displacement	Time	Pos X	Pos Y	Pos Z	Rot A	Rot B	Piezo Z	Force A	Force B	Gripper	Voltage A	Voltage B	Temperature	Amplitude force	Amplitude pos	Stiffness	Phase shift	Phase excitation	Force A raw	Displacement raw	HMax	HMax raw	Real Force	Real Stiffness	Contact Depth	Area	Hardness	Reduced Mod.
[#]	[#]	[um]	[s]	[um]	[um]	[um]	[m°]	[m°]	[um]	[uN]	[uN]	[V]	[V]	[V]	[°C]	[uN]	[um]	[N/m]	[°]	[°]	[uN]	[um]	[um]	[um]	[uN]	[N/m]	[um]	[um^2]	[MPa]	[MPa]
166	1.000000	0.002745	7.36666e+06	-46939.1	955.818	-29768	0.000000	0.000000	6.002723	-0.037284	NaN	0.000000	0.001548	0.001699	28.0824	0.068337	0.000888	76.9479	37.7312	177.938	0.061853	0.001554	-1.068467	-1.069658	-0.037284	76.9479	-1.068104	-1.869446E+14	1.994393E-16	NaN
166	1.000000	0.042719	7.36666e+06	-46939.1	955.819	-29768	0.000000	0.000000	6.042695	-0.101432	NaN	0.000000	0.001589	0.001686	28.0819	0.131745	0.001968	66.9447	8.648650	177.114	-0.144642	0.041406	-1.028493	-1.029806	-0.101432	66.9447	-1.027357	-5.295736E+13	1.915343E-15	NaN
166	1.000000	0.082716	7.36666e+06	-46939.1	955.818	-29768	0.000000	0.000000	6.082695	-0.012935	NaN	0.000000	0.001695	0.001735	28.0812	0.067399	0.001991	33.8544	-86.9913	178.345	-0.070631	0.081391	-0.988496	-0.989821	-0.012935	33.8544	-0.988210	-1.573974E+13	8.217803E-16	NaN
166	1.000000	0.122743	7.36666e+06	-46939.1	955.818	-29768	0.000000	0.000000	6.122725	0.044733	NaN	0.000000	0.001645	0.001675	28.082	0.046398	0.001845	25.1508	-98.8551	179.389	-0.026620	0.121408	-0.948469	-0.949804	0.044733	25.1508	-0.949803	-4.779351E+12	-9.359555E-15	NaN
166	1.000000	0.162754	7.36666e+06	-46939.1	955.818	-29768	0.000000	0.000000	6.162732	-0.054448	NaN	0.000000	0.001663	0.001666	28.0801	0.019254	0.002099	9.173779	-151.757	178.156	-0.033096	0.161473	-0.908458	-0.909739	-0.054448	9.173779	-0.904007	-1.151337E+12	4.729147E-14	NaN
166	1.000000	0.202770	7.36666e+06	-46939.1	955.818	-29768	0.000000	0.000000	6.202747	-0.076867	NaN	0.000000	0.001588	0.001682	28.0808	0.075332	0.001901	39.6371	-88.1913	177.557	-0.009890	0.201505	-0.868442	-0.869707	-0.076867	39.6371	-0.866987	-3.636480E+11	2.113778E-13	NaN
166	1.000000	0.242793	7.36666e+06	-46939.1	955.817	-29768.1	0.000000	0.000000	6.242774	0.014292	NaN	0.000000	0.001600	0.001675	28.0849	0.025247	0.001938	13.0287	173.981	177.509	-0.034581	0.241477	-0.828419	-0.829735	0.014292	13.0287	-0.829242	-1.120743E+11	-1.275204E-13	NaN
166	1.000000	0.282811	7.36666e+06	-46939.1	955.818	-29768.1	0.000000	0.000000	6.282788	-0.078879	NaN	0.000000	0.001595	0.001673	28.0839	0.195574	0.002106	92.8474	128.453	177.21	-0.071278	0.281482	-0.788401	-0.789730	-0.078879	92.8474	-0.787764	-3.066987E+10	2.571857E-12	NaN
166	1.000000	0.322818	7.36666e+06	-46939.1	955.818	-29768.1	0.000000	0.000000	6.322796	-0.044752	NaN	0.000000	0.001615	0.001672	28.0837	0.124055	0.001884	65.8383	63.033	174.909	-0.127423	0.321506	-0.748394	-0.749706	-0.044752	65.8383	-0.747884	-8.798597E+9	5.086313E-12	NaN
166	1.000000	0.362873	7.36666e+06	-46939.1	955.818	-29768.1	0.000000	0.000000	6.362849	-0.116383	NaN	0.000000	0.001611	0.001672	28.082	0.089889	0.002102	42.772	150.899	174.926	-0.121507	0.361557	-0.708338	-0.709655	-0.116383	42.772	-0.706298	-2.385148E+9	4.879503E-11	NaN
166	1.000000	0.402855	7.36666e+06	-46939.1	955.819	-29768.1	0.000000	0.000000	6.402834	-0.020032	NaN	0.000000	0.001600	0.001661	28.0806	0.076590	0.001981	38.6647	149.397	177.557	-0.013826	0.401549	-0.668357	-0.669663	-0.020032	38.6647	-0.667968	-7.138035E+8	2.806389E-11	NaN
166	1.000000	0.442898	7.36666e+06	-46939.1	955.818	-29768.1	0.000000	0.000000	6.442876	-0.058318	NaN	0.000000	0.001537	0.001671	28.0818	0.084646	0.002073	40.8349	-173.063	-179.27	0.072296	0.441540	-0.628314	-0.629672	-0.058318	40.8349	-0.627242	-1.973103E+8	2.955664E-10	NaN
166	1.000000	0.482898	7.36666e+06	-46939.1	955.819	-29768.1	0.000000	0.000000	6.482875	-0.062952	NaN	0.000000	0.001584	0.001656	28.081	0.114755	0.001995	57.5245	84.0765	179.543	-0.063269	0.481591	-0.588314	-0.589620	-0.062952	57.5245	-0.587493	-5.598877E+7	1.124370E-9	NaN
166	1.000000	0.522888	7.36666e+06	-46939.1	955.818	-29768.1	0.000000	0.000000	6.522865	-0.086181	NaN	0.000000	0.001606	0.001674	28.0834	0.141423	0.001975	71.5934	164.376	173.539	-0.122832	0.521590	-0.548323	-0.549621	-0.086181	71.5934	-0.547421	-1.563949E+7	5.510498E-9	NaN
166	1.000000	0.562923	7.36666e+06	-46939.1	955.818	-29768.1	0.000000	0.000000	6.562903	-0.002968	NaN	0.000000	0.001533	0.001671	28.0819	0.078123	0.002000	39.0607	-179.726	177.448	-0.113032	0.561604	-0.508289	-0.509608	-0.002968	39.0607	-0.508232	-4.46458e+06	6.647472E-10	NaN
166	1.000000	0.602936	7.36666e+06	-46939.1	955.818	-29768.1	0.000000	0.000000	6.602917	0.012076	NaN	0.000000	0.001577	0.001665	28.0837	0.066251	0.002061	32.1415	148.886	177.963	0.035695	0.601659	-0.468275	-0.469553	0.012076	32.1415	-0.468557	-1.245e+06	-9.699404E-9	NaN
166	1.000000	0.642957	7.36666e+06	-46939.1	955.818	-29768.1	0.000000	0.000000	6.642932	-0.124985	NaN	0.000000	0.001612	0.001689	28.0794	0.105266	0.001950	53.9713	-110.603	177.198	-0.056448	0.641676	-0.428254	-0.429535	-0.124985	53.9713	-0.426518	-318254	3.927219E-7	NaN
166	1.000000	0.682992	7.36666e+06	-46939.1	955.819	-29768.1	0.000000	0.000000	6.682969	-0.078415	NaN	0.000000	0.001632	0.001631	28.0822	0.045876	0.001989	23.0631	-70.8024	177.785	-0.049159	0.681682	-0.388219	-0.389530	-0.078415	23.0631	-0.385669	-83402.1	9.402084E-7	NaN
166	1.000000	0.722966	7.36666e+06	-46939.1	955.817	-29768.1	0.000000	0.000000	6.722944	-0.057118	NaN	0.000000	0.001556	0.001736	28.0786	0.048924	0.001912	25.592	168.703	176.642	0.024293	0.721697	-0.348246	-0.349515	-0.057118	25.592	-0.346572	-22762.1	2.509368E-6	NaN
166	1.000000	0.762997	7.36666e+06	-46939.1	955.819	-29768.1	0.000000	0.000000	6.762973	-0.079802	NaN	0.000000	0.001573	0.001724	28.0816	0.105244	0.001912	55.051	38.6403	176.876	-0.017601	0.761720	-0.308215	-0.309492	-0.079802	55.051	-0.307128	-6005.1	1.328913E-5	NaN
166	1.000000	0.803046	7.36667e+06	-46939.1	955.819	-29768.1	0.000000	0.000000	6.803025	-0.037713	NaN	0.000000	0.001578	0.001721	28.0825	0.079780	0.002088	38.2112	-166.263	178.805	0.015240	0.801705	-0.268165	-0.269506	-0.037713	38.2112	-0.267425	-1521.83	2.478126E-5	NaN
166	1.000000	0.843043	7.36667e+06	-46939.1	955.818	-29768.1	0.000000	0.000000	6.843022	-0.028495	NaN	0.000000	0.001601	0.001731	28.0833	0.085036	0.001801	47.2158	91.9793	174.811	0.005138	0.841699	-0.228169	-0.229513	-0.028495	47.2158	-0.227716	-368.476	7.733082E-5	NaN
166	1.000000	0.883085	7.36667e+06	-46939.1	955.818	-29768.1	0.000000	0.000000	6.883062	-0.071229	NaN	0.000000	0.001588	0.001764	28.0819	0.013036	0.002070	6.298720	127.973	175.327	-0.054189	0.881751	-0.188127	-0.189460	-0.071229	6.298720	-0.179646	-60.1777	0.001184	NaN
166	1.000000	0.923072	7.36667e+06	-46939.1	955.817	-29768.1	0.000000	0.000000	6.923051	-0.034290	NaN	0.000000	0.001561	0.001714	28.0816	0.006892	0.001957	3.521918	127.388	179.036	0.040397	0.921729	-0.148139	-0.149483	-0.034290	3.521918	-0.140837	-12.2652	0.002796	NaN
166	1.000000	0.963115	7.36667e+06	-46939.1	955.818	-29768.1	0.000000	0.000000	6.963092	-0.081303	NaN	0.000000	0.001590	0.001723	28.0814	0.057322	0.002023	28.3298	115.912	177.375	-0.023705	0.961765	-0.108097	-0.109447	-0.081303	28.3298	-0.105945	-2.463371	0.033005	NaN
166	1.000000	1.003107	7.36667e+06	-46939.1	955.818	-29768.1	0.000000	0.000000	7.003084	-0.064085	NaN	0.000000	0.001623	0.001710	28.0811	0.081683	0.002142	38.143	-34.0455	176.434	-0.129992	1.001776	-0.068105	-0.069436	-0.064085	38.143	-0.066845	-0.280172	0.228734	NaN
166	1.000000	1.043111	7.36667e+06	-46939.1	955.819	-29768.1	0.000000	0.000000	7.043088	-0.075135	NaN	0.000000	0.001663	0.001714	28.0828	0.044163	0.001985	22.2537	106.791	174.23	-0.112415	1.041872	-0.028101	-0.029340	-0.075135	22.2537	-0.025569	-0.017460	4.303342	NaN
166	2.000000	1.080791	7.36667e+06	-46939.1	955.817	-29768.1	0.000000	0.000000	7.081124	8.585686	NaN	0.000000	0.001569	0.001751	28.0835	9.112689	0.001638	5562.97	4.028855	172.806	8.914147	1.080518	0.009580	0.009306	8.585686	5562.97	0.008422	0.007480	1147.82	58766.5
166	2.000000	1.090735	7.36667e+06	-46939.1	955.818	-29768.1	0.000000	0.000000	7.091738	24.8756	NaN	0.000000	0.001584	0.001731	28.0819	19.9128	0.001783	11168.3	5.085881	168.274	25.2976	1.090339	0.019523	0.019127	24.8756	11168.3	0.017853	0.019280	1290.23	73486.3
166	2.000000	1.100675	7.36667e+06	-46939.1	955.819	-29768.1	0.000000	0.000000	7.102634	48.135	NaN	0.000000	0.001560	0.001709	28.0826	30.5421	0.001762	17331.5	4.176610	162.011	46.6879	1.100435	0.029463	0.029223	48.135	17331.5	0.027380	0.035488	1356.36	84055.5
166	2.000000	1.110632	7.36667e+06	-46939.1	955.818	-29768.1	0.000000	0.000000	7.113914	80.3071	NaN	0.000000	0.001600	0.001682	28.0808	40.187	0.001810	22198.9	0.762354	164.821	77.8811	1.110335	0.039420	0.039123	80.3071	22198.9	0.036707	0.055795	1439.32	85863
166	2.000000	1.120608	7.36667e+06	-46939.1	955.819	-29768.1	0.000000	0.000000	7.125724	124.928	NaN	0.000000	0.001614	0.001739	28.0817	51.4718	0.001955	26322.6	5.954270	158.105	122.257	1.120241	0.049396	0.049029	124.928	26322.6	0.045837	0.079980	1561.99	85037.5
166	2.000000	1.130671	7.36667e+06	-46939.1	955.818	-29768.1	0.000000	0.000000	7.137784	173.496	NaN	0.000000	0.001654	0.001724	28.0809	60.5188	0.001860	32530.5	3.008116	159.403	174.513	1.130284	0.059459	0.059072	173.496	32530.5	0.055459	0.110031	1576.8	89599.8
166	2.000000	1.140568	7.36667e+06	-46939.1	955.818	-29768.1	0.000000	0.000000	7.149915	227.849	NaN	0.000000	0.001595	0.001739	28.0845	69.2483	0.001733	39954.9	2.633170	157.881	225.347	1.140292	0.069356	0.069080	227.849	39954.9	0.065079	0.144650	1575.18	95980.7
166	2.000000	1.150592	7.36667e+06	-46939.1	955.818	-29768.1	0.000000	0.000000	7.162373	287.037	NaN	0.000000	0.001589	0.001725	28.0832	80.6014	0.001864	43239.8	1.799755	157.951	284.424	1.150406	0.079380	0.079194	287.037	43239.8	0.074402	0.182452	1573.22	92487.3
166	2.000000	1.160611	7.36667e+06	-46939.1	955.818	-29768.1	0.000000	0.000000	7.175532	363.429	NaN	0.000000	0.001610	0.001772	28.083	90.288	0.001736	52017.5	0.822023	157.74	363.386	1.160381	0.089399	0.089169	363.429	52017.5	0.084159	0.226405	1605.22	99880.3
166	2.000000	1.170621	7.36667e+06	-46939.1	955.818	-29768.1	0.000000	0.000000	7.188432	433.722	NaN	0.000000	0.001614	0.001782	28.0826	100.788	0.001807	55784.4	1.615529	156.285	433.004	1.170363	0.099409	0.099151	433.722	55784.4	0.093578	0.273015	1588.64	97542.4
166	2.000000	1.178450	7.36667e+06	-46939.1	955.818	-29768.1	0.000000	0.000000	7.199422	510.627	NaN	0.000000	0.001615	0.001767	28.0822	108.89	0.001817	59915.9	3.406911	153.657	502.69	1.178168	0.107238	0.106956	510.627	59915.9	0.100846	0.311753	1637.92	98041.6