File: remote_trans/data/nanoindenter/0828-1/data/Data_2025-08-06,11h17m57s/2025-07-22_16-23-58_1_440.txt
2025-07-22, 16:23:58, 1
Index	Phase	Displacement	Time	Pos X	Pos Y	Pos Z	Rot A	Rot B	Piezo Z	Force A	Force B	Gripper	Voltage A	Voltage B	Temperature	Amplitude force	Amplitude pos	Stiffness	Phase shift	Phase excitation	Force A raw	Displacement raw	HMax	HMax raw	Real Force	Real Stiffness	Contact Depth	Area	Hardness	Reduced Mod.
[#]	[#]	[um]	[s]	[um]	[um]	[um]	[m°]	[m°]	[um]	[uN]	[uN]	[V]	[V]	[V]	[°C]	[uN]	[um]	[N/m]	[°]	[°]	[uN]	[um]	[um]	[um]	[uN]	[N/m]	[um]	[um^2]	[MPa]	[MPa]
440	1.000000	0.002623	7.36936e+06	-55089.1	1005.82	-29742.3	0.000000	0.000000	6.002794	0.031679	NaN	0.000000	0.001610	0.001721	28.0797	0.167515	0.001134	147.772	154.27	-171.131	0.053882	0.001401	-1.124933	-1.126156	0.031679	147.772	-1.125094	-1.088457E+15	-2.910489E-17	NaN
440	1.000000	0.044582	7.36936e+06	-55089.1	1005.82	-29742.3	0.000000	0.000000	6.044752	-0.006977	NaN	0.000000	0.001632	0.001708	28.0812	0.049389	0.001985	24.8847	92.965	11.0278	0.039614	0.043147	-1.082974	-1.084409	-0.006977	24.8847	-1.082764	-2.941997E+14	2.371367E-17	NaN
440	1.000000	0.086579	7.36936e+06	-55089.1	1005.82	-29742.3	0.000000	0.000000	6.086747	-0.040652	NaN	0.000000	0.001599	0.001713	28.0812	0.061464	0.001941	31.659	-141.228	-168.459	-0.092265	0.085224	-1.040978	-1.042333	-0.040652	31.659	-1.040015	-7.837313E+13	5.186991E-16	NaN
440	1.000000	0.128610	7.36936e+06	-55089.1	1005.82	-29742.3	0.000000	0.000000	6.128779	-0.016548	NaN	0.000000	0.001593	0.001713	28.0812	0.073470	0.002044	35.9473	-76.9847	15.6434	0.006059	0.127268	-0.998947	-1.000288	-0.016548	35.9473	-0.998602	-2.172401E+13	7.617207E-16	NaN
440	1.000000	0.170652	7.36936e+06	-55089.1	1005.82	-29742.3	0.000000	0.000000	6.170819	-0.065288	NaN	0.000000	0.001607	0.001719	28.0798	0.093219	0.001956	47.665	-169.247	-167.664	-0.049242	0.169326	-0.956905	-0.958231	-0.065288	47.665	-0.955878	-5.771487E+12	1.131216E-14	NaN
440	1.000000	0.212665	7.36936e+06	-55089.1	1005.82	-29742.3	0.000000	0.000000	6.212836	0.015288	NaN	0.000000	0.001575	0.001748	28.0802	0.086803	0.002048	42.3924	159.564	12.3738	0.070373	0.211330	-0.914891	-0.916226	0.015288	42.3924	-0.915162	-1.628824E+12	-9.386160E-15	NaN
440	1.000000	0.254671	7.36936e+06	-55089.1	1005.82	-29742.3	0.000000	0.000000	6.254840	-0.008190	NaN	0.000000	0.001621	0.001792	28.0798	0.008786	0.001930	4.552304	115.142	-169.81	-0.022558	0.253339	-0.872886	-0.874217	-0.008190	4.552304	-0.871536	-4.190157E+11	1.954604E-14	NaN
440	1.000000	0.296687	7.36936e+06	-55089.1	1005.82	-29742.3	0.000000	0.000000	6.296857	0.007766	NaN	0.000000	0.001617	0.001774	28.0809	0.078613	0.002173	36.1715	-156.673	15.4814	-0.012577	0.295311	-0.830870	-0.832246	0.007766	36.1715	-0.831031	-1.185104E+11	-6.552831E-14	NaN
440	1.000000	0.338709	7.36936e+06	-55089.1	1005.82	-29742.3	0.000000	0.000000	6.338877	-0.036663	NaN	0.000000	0.001632	0.001798	28.0812	0.073925	0.002106	35.1046	7.181215	-167.933	-0.028417	0.337410	-0.788848	-0.790147	-0.036663	35.1046	-0.788065	-3.095965E+10	1.184231E-12	NaN
440	1.000000	0.380705	7.36936e+06	-55089.1	1005.82	-29742.3	0.000000	0.000000	6.380874	-0.030300	NaN	0.000000	0.001597	0.001752	28.0817	0.073743	0.002165	34.0649	67.4135	9.564393	-0.111557	0.379367	-0.746851	-0.748189	-0.030300	34.0649	-0.746184	-8.342012E+9	3.632194E-12	NaN
440	1.000000	0.422741	7.36936e+06	-55089.1	1005.82	-29742.3	0.000000	0.000000	6.422909	-0.049601	NaN	0.000000	0.001625	0.001756	28.0812	0.069542	0.002061	33.7441	-170.409	-166.061	0.005440	0.421447	-0.704815	-0.706110	-0.049601	33.7441	-0.703713	-2.199009E+9	2.255626E-11	NaN
440	1.000000	0.464770	7.36936e+06	-55089.1	1005.82	-29742.3	0.000000	0.000000	6.464940	0.000319	NaN	0.000000	0.001644	0.001731	28.08	0.074632	0.001958	38.1151	61.3043	12.6744	0.036712	0.463366	-0.662787	-0.664190	0.000319	38.1151	-0.662793	-6.063463E+8	-5.261958E-13	NaN
440	1.000000	0.506790	7.36936e+06	-55089.1	1005.82	-29742.3	0.000000	0.000000	6.506960	0.011221	NaN	0.000000	0.001603	0.001736	28.0801	0.121843	0.001904	63.9841	-175.762	-170.61	0.100003	0.505463	-0.620767	-0.622094	0.011221	63.9841	-0.620898	-1.614282E+8	-6.951223E-11	NaN
440	1.000000	0.548801	7.36936e+06	-55089.1	1005.82	-29742.3	0.000000	0.000000	6.548970	-0.019226	NaN	0.000000	0.001628	0.001736	28.0801	0.028770	0.001934	14.8781	-87.0796	12.6964	-0.030026	0.547468	-0.578755	-0.580088	-0.019226	14.8781	-0.577786	-4.113053E+7	4.674438E-10	NaN
440	1.000000	0.590820	7.36936e+06	-55089.1	1005.82	-29742.3	0.000000	0.000000	6.590990	0.020290	NaN	0.000000	0.001660	0.001737	28.0814	0.046451	0.002071	22.4285	26.7684	-166.342	-0.008935	0.589491	-0.536737	-0.538066	0.020290	22.4285	-0.537415	-1.136338E+7	-1.785526E-9	NaN
440	1.000000	0.632815	7.36936e+06	-55089.1	1005.82	-29742.3	0.000000	0.000000	6.632985	-0.003705	NaN	0.000000	0.001688	0.001717	28.0811	0.093434	0.002057	45.4138	-1.243047	17.6121	-0.063995	0.631501	-0.494741	-0.496056	-0.003705	45.4138	-0.494680	-2.88913e+06	1.282320E-9	NaN
440	1.000000	0.674817	7.36936e+06	-55089.1	1005.82	-29742.3	0.000000	0.000000	6.674986	-0.014199	NaN	0.000000	0.001617	0.001782	28.0811	0.042589	0.002051	20.7643	-170.192	-166.105	-0.021361	0.673556	-0.452740	-0.454000	-0.014199	20.7643	-0.452227	-733999	1.934424E-8	NaN
440	1.000000	0.716869	7.36936e+06	-55089.1	1005.82	-29742.3	0.000000	0.000000	6.717040	0.026441	NaN	0.000000	0.001641	0.001719	28.0799	0.007539	0.002022	3.728499	87.033	14.0291	0.033409	0.715511	-0.410687	-0.412045	0.026441	3.728499	-0.416006	-225808	-1.170962E-7	NaN
440	1.000000	0.758865	7.36937e+06	-55089.1	1005.82	-29742.3	0.000000	0.000000	6.759032	-0.058562	NaN	0.000000	0.001629	0.001750	28.08	0.100180	0.001990	50.3397	160.627	-167.718	-0.050175	0.757523	-0.368692	-0.370034	-0.058562	50.3397	-0.367819	-46207	1.267387E-6	NaN
440	1.000000	0.800889	7.36937e+06	-55089.1	1005.82	-29742.3	0.000000	0.000000	6.801058	-0.021476	NaN	0.000000	0.001613	0.001780	28.0799	0.010308	0.001868	5.517857	-96.0347	9.656203	-0.055994	0.799505	-0.326667	-0.328052	-0.021476	5.517857	-0.323748	-10562.2	2.033296E-6	NaN
440	1.000000	0.842907	7.36937e+06	-55089.1	1005.82	-29742.3	0.000000	0.000000	6.843075	-0.055670	NaN	0.000000	0.001657	0.001768	28.0809	0.043207	0.002004	21.5553	-14.1068	-167.156	-0.020579	0.841641	-0.284649	-0.285915	-0.055670	21.5553	-0.282712	-2593.28	2.146709E-5	NaN
440	1.000000	0.884969	7.36937e+06	-55089.1	1005.82	-29742.3	0.000000	0.000000	6.885134	-0.115963	NaN	0.000000	0.001636	0.001740	28.0811	0.016230	0.002099	7.731446	101.444	13.4902	-0.075142	0.883562	-0.242588	-0.243995	-0.115963	7.731446	-0.231339	-420.38	0.000276	NaN
440	1.000000	0.926939	7.36937e+06	-55089.1	1005.82	-29742.3	0.000000	0.000000	6.927107	-0.026235	NaN	0.000000	0.001595	0.001729	28.081	0.129930	0.001874	69.3473	91.927	-166.83	-0.004648	0.925637	-0.200618	-0.201920	-0.026235	69.3473	-0.200334	-133.411	0.000197	NaN
440	1.000000	0.969005	7.36937e+06	-55089.1	1005.82	-29742.3	0.000000	0.000000	6.969174	-0.011576	NaN	0.000000	0.001694	0.001747	28.0813	0.095553	0.002018	47.3465	25.5089	17.6954	0.029482	0.967589	-0.158552	-0.159968	-0.011576	47.3465	-0.158368	-25.6407	0.000451	NaN
440	1.000000	1.010970	7.36937e+06	-55089.1	1005.82	-29742.3	0.000000	0.000000	7.011137	-0.061162	NaN	0.000000	0.001619	0.001746	28.08	0.053462	0.001999	26.7468	52.0139	-167.184	-0.052001	1.009672	-0.116587	-0.117885	-0.061162	26.7468	-0.114872	-3.797136	0.016107	NaN
440	1.000000	1.052976	7.36937e+06	-55089.1	1005.82	-29742.3	0.000000	0.000000	7.053143	-0.051825	NaN	0.000000	0.001641	0.001710	28.0801	0.030763	0.001908	16.1269	-130.182	13.5395	-0.112145	1.051616	-0.074581	-0.075940	-0.051825	16.1269	-0.072171	-0.389584	0.133028	NaN
440	1.000000	1.094968	7.36937e+06	-55089.1	1005.82	-29742.3	0.000000	0.000000	7.095135	-0.074918	NaN	0.000000	0.001619	0.001714	28.0797	0.074113	0.001856	39.9213	-179.267	-168.454	-0.100247	1.093710	-0.032588	-0.033847	-0.074918	39.9213	-0.031181	-0.024838	3.016227	NaN
440	1.000000	1.136968	7.36937e+06	-55089.1	1005.82	-29742.3	0.000000	0.000000	7.137459	7.803165	NaN	0.000000	0.001691	0.001749	28.081	8.360778	0.001667	5015.38	13.7957	3.319505	5.683365	1.135649	0.009412	0.008092	7.803165	5015.38	0.008245	0.007295	1069.64	53648.8
440	2.000000	1.148515	7.36937e+06	-55089.1	1005.82	-29742.3	0.000000	0.000000	7.149704	24.785	NaN	0.000000	0.001703	0.001763	28.0816	20.6441	0.001672	12349.2	4.408544	-176.93	24.7358	1.148197	0.020958	0.020640	24.785	12349.2	0.019453	0.021690	1142.68	76609.1
440	2.000000	1.158979	7.36937e+06	-55089.1	1005.82	-29742.3	0.000000	0.000000	7.161275	51.6817	NaN	0.000000	0.001644	0.001779	28.0814	31.5191	0.001746	18055.2	5.465581	-1.566868	51.3228	1.158691	0.031423	0.031135	51.6817	18055.2	0.029276	0.039257	1316.51	83256.6
440	2.000000	1.169427	7.36937e+06	-55089.1	1005.82	-29742.3	0.000000	0.000000	7.173214	87.9325	NaN	0.000000	0.001631	0.001736	28.0815	41.7824	0.001773	23562.8	5.533495	176.018	86.8521	1.169075	0.041870	0.041518	87.9325	23562.8	0.039071	0.061651	1426.3	86702.5
440	2.000000	1.179881	7.36937e+06	-55089.1	1005.82	-29742.3	0.000000	0.000000	7.185551	133.708	NaN	0.000000	0.001642	0.001752	28.0804	50.5402	0.001675	30167.8	3.970627	-3.913419	129.233	1.179619	0.052324	0.052062	133.708	30167.8	0.049000	0.089347	1496.5	92209.7
440	2.000000	1.190546	7.36937e+06	-55089.1	1005.82	-29742.3	0.000000	0.000000	7.198151	180.741	NaN	0.000000	0.001713	0.001746	28.0801	61.9086	0.001765	35066.5	6.049488	173.015	184.652	1.190119	0.062990	0.062562	180.741	35066.5	0.059124	0.122686	1473.21	91467.9
440	2.000000	1.201027	7.36937e+06	-55089.1	1005.82	-29742.3	0.000000	0.000000	7.211107	240.926	NaN	0.000000	0.001656	0.001790	28.0808	74.1832	0.001823	40703.1	10.1726	-12.452	244.546	1.200547	0.073470	0.072990	240.926	40703.1	0.069031	0.160168	1504.21	92921
440	2.000000	1.211399	7.36937e+06	-55089.1	1005.82	-29742.3	0.000000	0.000000	7.224248	308.232	NaN	0.000000	0.001664	0.001738	28.0811	82.8164	0.001830	45245	3.115387	173.892	308.042	1.211115	0.083843	0.083558	308.232	45245	0.078733	0.201417	1530.32	92107.7
440	2.000000	1.221898	7.36937e+06	-55089.1	1005.82	-29742.3	0.000000	0.000000	7.237950	386.1	NaN	0.000000	0.001692	0.001749	28.0812	91.8974	0.001787	51433.8	1.280581	-5.350797	383.044	1.221505	0.094341	0.093949	386.1	51433.8	0.088711	0.248423	1554.2	94281.3
440	2.000000	1.232384	7.36937e+06	-55089.1	1005.82	-29742.3	0.000000	0.000000	7.252098	475.111	NaN	0.000000	0.001639	0.001775	28.0813	102.639	0.001832	56016.7	5.333299	169.805	472.831	1.232001	0.104827	0.104444	475.111	56016.7	0.098466	0.298803	1590.05	93626.5
440	2.000000	1.236831	7.36937e+06	-55089.1	1005.82	-29742.3	0.000000	0.000000	7.258236	516.208	NaN	0.000000	0.001657	0.001749	28.0799	105.42	0.001696	62147.5	2.950276	-8.099595	511.515	1.236476	0.109274	0.108920	516.208	62147.5	0.103045	0.323945	1593.51	99761.2