File: remote_trans/data/nanoindenter/0828-1/data/Data_2025-08-06,11h17m57s/2025-07-22_16-23-58_1_318.txt
2025-07-22, 16:23:58, 1
Index	Phase	Displacement	Time	Pos X	Pos Y	Pos Z	Rot A	Rot B	Piezo Z	Force A	Force B	Gripper	Voltage A	Voltage B	Temperature	Amplitude force	Amplitude pos	Stiffness	Phase shift	Phase excitation	Force A raw	Displacement raw	HMax	HMax raw	Real Force	Real Stiffness	Contact Depth	Area	Hardness	Reduced Mod.
[#]	[#]	[um]	[s]	[um]	[um]	[um]	[m°]	[m°]	[um]	[uN]	[uN]	[V]	[V]	[V]	[°C]	[uN]	[um]	[N/m]	[°]	[°]	[uN]	[um]	[um]	[um]	[uN]	[N/m]	[um]	[um^2]	[MPa]	[MPa]
318	1.000000	0.002483	7.36818e+06	-54539.1	955.819	-29743.6	0.000000	0.000000	6.002821	0.016787	NaN	0.000000	0.001599	0.001687	28.0813	0.093881	0.000931	100.862	71.6019	-164.357	0.065096	0.001217	-1.063360	-1.064626	0.016787	100.862	-1.063485	-1.620504E+14	-1.035924E-16	NaN
318	1.000000	0.042437	7.36818e+06	-54539.1	955.818	-29743.6	0.000000	0.000000	6.042772	-0.028570	NaN	0.000000	0.001626	0.001657	28.0795	0.043536	0.002010	21.6621	-91.1163	-167.106	-0.028007	0.041125	-1.023407	-1.024718	-0.028570	21.6621	-1.022418	-4.544429E+13	6.286837E-16	NaN
318	1.000000	0.082432	7.36818e+06	-54539.1	955.819	-29743.6	0.000000	0.000000	6.082770	0.042463	NaN	0.000000	0.001609	0.001649	28.0798	0.124928	0.001982	63.0242	34.2682	-167.076	0.020006	0.081179	-0.983412	-0.984664	0.042463	63.0242	-0.983917	-1.377774E+13	-3.082023E-15	NaN
318	1.000000	0.122450	7.36818e+06	-54539.1	955.819	-29743.6	0.000000	0.000000	6.122787	-0.020189	NaN	0.000000	0.001567	0.001619	28.0795	0.048001	0.002007	23.9179	-116.827	-167.31	0.041361	0.121136	-0.943393	-0.944707	-0.020189	23.9179	-0.942760	-3.840341E+12	5.257115E-15	NaN
318	1.000000	0.162469	7.36818e+06	-54539.1	955.819	-29743.6	0.000000	0.000000	6.162809	0.074830	NaN	0.000000	0.001534	0.001645	28.0808	0.121644	0.002104	57.81	-101.714	-166.218	-0.003366	0.161145	-0.903374	-0.904698	0.074830	57.81	-0.904345	-1.163522E+12	-6.431351E-14	NaN
318	1.000000	0.202461	7.36818e+06	-54539.1	955.819	-29743.6	0.000000	0.000000	6.202796	-0.053765	NaN	0.000000	0.001579	0.001652	28.0812	0.097089	0.001986	48.8978	116.027	-166.916	-0.006166	0.201169	-0.863383	-0.864674	-0.053765	48.8978	-0.862558	-3.167676E+11	1.697316E-13	NaN
318	1.000000	0.242465	7.36818e+06	-54539.1	955.819	-29743.6	0.000000	0.000000	6.242801	-0.028485	NaN	0.000000	0.001610	0.001641	28.0809	0.069191	0.001857	37.2662	2.374658	-165.931	-0.042607	0.241163	-0.823378	-0.824680	-0.028485	37.2662	-0.822805	-9.167379E+10	3.107192E-13	NaN
318	1.000000	0.282483	7.36818e+06	-54539.1	955.818	-29743.6	0.000000	0.000000	6.282822	0.046310	NaN	0.000000	0.001636	0.001622	28.0797	0.066651	0.002023	32.9399	155.837	-168.595	0.048621	0.281194	-0.783361	-0.784649	0.046310	32.9399	-0.784415	-2.761974E+10	-1.676700E-12	NaN
318	1.000000	0.322517	7.36818e+06	-54539.1	955.818	-29743.6	0.000000	0.000000	6.322854	0.005457	NaN	0.000000	0.001645	0.001723	28.0796	0.070462	0.002077	33.9179	39.6768	-164.628	0.017310	0.321186	-0.743327	-0.744657	0.005457	33.9179	-0.743447	-7.656095E+9	-7.127373E-13	NaN
318	1.000000	0.362563	7.36818e+06	-54539.1	955.818	-29743.6	0.000000	0.000000	6.362897	-0.065637	NaN	0.000000	0.001600	0.001693	28.0794	0.026456	0.001982	13.3467	-107.375	-164.071	-0.016426	0.361208	-0.703280	-0.704635	-0.065637	13.3467	-0.699592	-1.931790E+9	3.397723E-11	NaN
318	1.000000	0.402553	7.36818e+06	-54539.1	955.818	-29743.6	0.000000	0.000000	6.402888	-0.046214	NaN	0.000000	0.001614	0.001666	28.0793	0.048340	0.002063	23.4287	-20.9358	-164.133	-0.069520	0.401255	-0.663290	-0.664588	-0.046214	23.4287	-0.661811	-5.878605E+8	7.861472E-11	NaN
318	1.000000	0.442566	7.36818e+06	-54539.1	955.818	-29743.6	0.000000	0.000000	6.442901	-0.057293	NaN	0.000000	0.001609	0.001645	28.0807	0.025970	0.001922	13.5115	130.961	-169.022	-0.012726	0.441294	-0.623277	-0.624549	-0.057293	13.5115	-0.620097	-1.573865E+8	3.640242E-10	NaN
318	1.000000	0.482586	7.36818e+06	-54539.1	955.818	-29743.6	0.000000	0.000000	6.482923	-0.001164	NaN	0.000000	0.001585	0.001670	28.0804	0.137940	0.002080	66.3074	-148.767	-162.45	-0.050567	0.481270	-0.583257	-0.584574	-0.001164	66.3074	-0.583244	-4.892030E+7	2.378687E-11	NaN
318	1.000000	0.522635	7.36818e+06	-54539.1	955.818	-29743.6	0.000000	0.000000	6.522972	0.018124	NaN	0.000000	0.001582	0.001678	28.0805	0.077524	0.001981	39.1355	-158.297	-165.172	-0.034717	0.521304	-0.543209	-0.544539	0.018124	39.1355	-0.543556	-1.382500E+7	-1.310985E-9	NaN
318	1.000000	0.562633	7.36818e+06	-54539.1	955.819	-29743.6	0.000000	0.000000	6.562972	0.051249	NaN	0.000000	0.001592	0.001675	28.0789	0.022564	0.001959	11.5158	-153.417	-167.345	0.053497	0.561310	-0.503210	-0.504533	0.051249	11.5158	-0.506548	-4.2298e+06	-1.211629E-8	NaN
318	1.000000	0.602671	7.36818e+06	-54539.1	955.818	-29743.6	0.000000	0.000000	6.603004	-0.111894	NaN	0.000000	0.001592	0.001704	28.0788	0.050799	0.001980	25.6617	-124.243	-165.058	-0.071669	0.601366	-0.463172	-0.464477	-0.111894	25.6617	-0.459902	-941106	1.188959E-7	NaN
318	1.000000	0.642662	7.36818e+06	-54539.1	955.819	-29743.6	0.000000	0.000000	6.642998	-0.023901	NaN	0.000000	0.001679	0.001641	28.079	0.193927	0.001968	98.529	-178.941	-166.233	-0.079010	0.641345	-0.423182	-0.424499	-0.023901	98.529	-0.423000	-283755	8.423229E-8	NaN
318	1.000000	0.682677	7.36818e+06	-54539.1	955.818	-29743.6	0.000000	0.000000	6.683014	0.008005	NaN	0.000000	0.001669	0.001611	28.0788	0.138716	0.001958	70.8437	11.9265	-168.813	-0.066634	0.681395	-0.383167	-0.384449	0.008005	70.8437	-0.383252	-77006.7	-1.039466E-7	NaN
318	1.000000	0.722687	7.36818e+06	-54539.1	955.818	-29743.7	0.000000	0.000000	6.723027	0.059634	NaN	0.000000	0.001734	0.001602	28.0801	0.044035	0.002032	21.6719	-90.5477	-167.059	-0.003591	0.721401	-0.343156	-0.344442	0.059634	21.6719	-0.345220	-21754.8	-2.741196E-6	NaN
318	1.000000	0.762725	7.36818e+06	-54539.1	955.817	-29743.7	0.000000	0.000000	6.763062	0.007947	NaN	0.000000	0.001690	0.001620	28.0802	0.005602	0.002021	2.772082	-134.879	-168.388	-0.006732	0.761361	-0.303118	-0.304482	0.007947	2.772082	-0.305268	-5635.59	-1.410077E-6	NaN
318	1.000000	0.802733	7.36818e+06	-54539.1	955.818	-29743.7	0.000000	0.000000	6.803068	-0.052471	NaN	0.000000	0.001661	0.001633	28.0804	0.073201	0.002040	35.8887	39.325	-166.577	-0.014963	0.801412	-0.263110	-0.264432	-0.052471	35.8887	-0.262013	-1258.2	4.170310E-5	NaN
318	1.000000	0.842738	7.36818e+06	-54539.1	955.818	-29743.7	0.000000	0.000000	6.843074	-0.026927	NaN	0.000000	0.001722	0.001594	28.0797	0.055746	0.001983	28.107	-97.483	-169.349	-0.062506	0.841490	-0.223105	-0.224354	-0.026927	28.107	-0.222387	-303.222	8.880121E-5	NaN
318	1.000000	0.882772	7.36818e+06	-54539.1	955.818	-29743.7	0.000000	0.000000	6.883111	0.049585	NaN	0.000000	0.001729	0.001629	28.0796	0.069329	0.002011	34.4782	-147.97	-170.046	-0.075697	0.881491	-0.183072	-0.184352	0.049585	34.4782	-0.184150	-71.7462	-0.000691	NaN
318	1.000000	0.922780	7.36818e+06	-54539.1	955.818	-29743.7	0.000000	0.000000	6.923118	0.013662	NaN	0.000000	0.001645	0.001587	28.0796	0.050125	0.001952	25.675	-40.0799	-166.103	0.036561	0.921506	-0.143063	-0.144338	0.013662	25.675	-0.143462	-13.7294	-0.000995	NaN
318	1.000000	0.962810	7.36818e+06	-54539.1	955.819	-29743.7	0.000000	0.000000	6.963142	-0.106257	NaN	0.000000	0.001621	0.001629	28.0794	0.054773	0.001968	27.8285	40.3006	-162.196	-0.025525	0.961505	-0.103034	-0.104338	-0.106257	27.8285	-0.100170	-1.843061	0.057652	NaN
318	1.000000	1.002809	7.36818e+06	-54539.1	955.819	-29743.7	0.000000	0.000000	7.003146	0.012975	NaN	0.000000	0.001618	0.001601	28.0803	0.062254	0.002043	30.474	1.818660	-165.342	0.067824	1.001478	-0.063035	-0.064365	0.012975	30.474	-0.063354	-0.224210	-0.057868	NaN
318	1.000000	1.042847	7.36818e+06	-54539.1	955.818	-29743.7	0.000000	0.000000	7.043186	0.029628	NaN	0.000000	0.001582	0.001640	28.0801	0.065268	0.002113	30.8846	-49.5176	-164.557	0.078545	1.041538	-0.022996	-0.024306	0.029628	30.8846	-0.023715	-0.015624	-1.896317	NaN
318	2.000000	1.075382	7.36818e+06	-54539.1	955.819	-29743.7	0.000000	0.000000	7.076305	14.2425	NaN	0.000000	0.001593	0.001731	28.0804	11.4815	0.001737	6611.26	3.382193	-170.514	13.639	1.075042	0.009539	0.009199	14.2425	6611.26	0.007923	0.006964	2045.26	72383.2
318	2.000000	1.085278	7.36818e+06	-54539.1	955.819	-29743.7	0.000000	0.000000	7.087105	36.2398	NaN	0.000000	0.001591	0.001695	28.0793	22.0501	0.001846	11947.1	8.828338	178.906	35.1958	1.084948	0.019434	0.019104	36.2398	11947.1	0.017159	0.018273	1983.2	80747
318	2.000000	1.095292	7.36818e+06	-54539.1	955.819	-29743.7	0.000000	0.000000	7.098034	58.4556	NaN	0.000000	0.001607	0.001697	28.0794	31.7301	0.001867	16996.4	4.311516	-179.401	57.6413	1.094965	0.029449	0.029121	58.4556	16996.4	0.026869	0.034504	1694.16	83597.7
318	2.000000	1.105207	7.36818e+06	-54539.1	955.82	-29743.7	0.000000	0.000000	7.109234	89.6894	NaN	0.000000	0.001575	0.001701	28.0798	39.9669	0.001859	21500.6	5.602750	176.85	86.4059	1.104866	0.039364	0.039022	89.6894	21500.6	0.036235	0.054661	1640.82	84020.2
318	2.000000	1.115226	7.36818e+06	-54539.1	955.82	-29743.7	0.000000	0.000000	7.120470	119.296	NaN	0.000000	0.001628	0.001671	28.0804	49.2319	0.001775	27732.3	3.434455	176.427	117.085	1.115044	0.049383	0.049200	119.296	27732.3	0.046156	0.080904	1474.54	89078.8
318	2.000000	1.125187	7.36818e+06	-54539.1	955.82	-29743.7	0.000000	0.000000	7.132338	165.631	NaN	0.000000	0.001613	0.001659	28.0804	59.6105	0.001867	31930.6	2.319341	176.73	163.62	1.125079	0.059344	0.059235	165.631	31930.6	0.055454	0.110013	1505.56	87954.7
318	2.000000	1.135194	7.36818e+06	-54539.1	955.821	-29743.7	0.000000	0.000000	7.145043	231.24	NaN	0.000000	0.001616	0.001664	28.0805	69.6722	0.001659	41998.1	3.910792	173.135	229.135	1.134908	0.069351	0.069065	231.24	41998.1	0.065221	0.145193	1592.64	100700
318	2.000000	1.145192	7.36818e+06	-54539.1	955.82	-29743.7	0.000000	0.000000	7.157931	301.475	NaN	0.000000	0.001608	0.001651	28.0807	80.846	0.001745	46325.3	5.796972	170.011	300.433	1.144877	0.079349	0.079034	301.475	46325.3	0.074468	0.182738	1649.77	99009.5
318	2.000000	1.155145	7.36818e+06	-54539.1	955.821	-29743.7	0.000000	0.000000	7.170863	373.925	NaN	0.000000	0.001689	0.001672	28.0793	89.8962	0.001786	50346.7	4.309779	172.018	370.26	1.154882	0.089302	0.089039	373.925	50346.7	0.083731	0.224387	1666.43	97105.9
318	2.000000	1.165153	7.36818e+06	-54539.1	955.82	-29743.7	0.000000	0.000000	7.184522	462.66	NaN	0.000000	0.001697	0.001650	28.0793	100.885	0.001862	54181.6	7.337222	168.294	459.267	1.164826	0.099310	0.098983	462.66	54181.6	0.092906	0.269552	1716.4	95346.3
318	2.000000	1.171105	7.36818e+06	-54539.1	955.821	-29743.7	0.000000	0.000000	7.192627	515.019	NaN	0.000000	0.001696	0.001656	28.0794	105.29	0.001785	58993.3	3.087466	171.748	510.232	1.170805	0.105261	0.104961	515.019	58993.3	0.098714	0.300138	1715.94	98381.9