File: remote_trans/data/nanoindenter/0828-1/data/Data_2025-08-06,11h17m57s/2025-07-22_16-23-58_1_114.txt
2025-07-22, 16:23:58, 1
Index	Phase	Displacement	Time	Pos X	Pos Y	Pos Z	Rot A	Rot B	Piezo Z	Force A	Force B	Gripper	Voltage A	Voltage B	Temperature	Amplitude force	Amplitude pos	Stiffness	Phase shift	Phase excitation	Force A raw	Displacement raw	HMax	HMax raw	Real Force	Real Stiffness	Contact Depth	Area	Hardness	Reduced Mod.
[#]	[#]	[um]	[s]	[um]	[um]	[um]	[m°]	[m°]	[um]	[uN]	[uN]	[V]	[V]	[V]	[°C]	[uN]	[um]	[N/m]	[°]	[°]	[uN]	[um]	[um]	[um]	[uN]	[N/m]	[um]	[um^2]	[MPa]	[MPa]
114	1.000000	0.002266	7.36615e+06	-44339.1	955.818	-29776.7	0.000000	0.000000	6.002811	-0.096882	NaN	0.000000	0.001699	0.001696	28.1048	0.052791	0.000867	60.909	122.697	-164.747	-0.086208	0.000991	-1.009165	-1.010440	-0.096882	60.909	-1.007972	-2.904615E+13	3.335441E-15	NaN
114	1.000000	0.042211	7.36615e+06	-44339.1	955.819	-29776.7	0.000000	0.000000	6.042758	-0.031180	NaN	0.000000	0.001695	0.001719	28.1031	0.055278	0.001977	27.9591	-30.8753	-166.556	-0.009307	0.040870	-0.969220	-0.970561	-0.031180	27.9591	-0.968384	-8.509021E+12	3.664360E-15	NaN
114	1.000000	0.082238	7.36615e+06	-44339.1	955.819	-29776.7	0.000000	0.000000	6.082786	-0.015492	NaN	0.000000	0.001630	0.001720	28.1045	0.061516	0.002066	29.7761	18.6559	-161.759	-0.019580	0.080901	-0.929193	-0.930530	-0.015492	29.7761	-0.928803	-2.489104E+12	6.224075E-15	NaN
114	1.000000	0.122260	7.36615e+06	-44339.1	955.819	-29776.7	0.000000	0.000000	6.122807	-0.042111	NaN	0.000000	0.001696	0.001704	28.1057	0.069892	0.002041	34.237	-1.610028	-164.678	0.008251	0.120937	-0.889171	-0.890494	-0.042111	34.237	-0.888249	-7.050842E+11	5.972429E-14	NaN
114	1.000000	0.162265	7.36615e+06	-44339.1	955.818	-29776.7	0.000000	0.000000	6.162812	-0.043540	NaN	0.000000	0.001727	0.001680	28.1067	0.044955	0.002096	21.4513	-28.9318	-167.973	-0.038670	0.160913	-0.849166	-0.850518	-0.043540	21.4513	-0.847644	-1.989878E+11	2.188070E-13	NaN
114	1.000000	0.202227	7.36615e+06	-44339.1	955.818	-29776.7	0.000000	0.000000	6.202777	0.022469	NaN	0.000000	0.001733	0.001716	28.1048	0.079557	0.001975	40.2888	100.731	-168.2	-0.021529	0.200958	-0.809204	-0.810473	0.022469	40.2888	-0.809622	-6.073551E+10	-3.699430E-13	NaN
114	1.000000	0.242277	7.36615e+06	-44339.1	955.818	-29776.7	0.000000	0.000000	6.242824	-0.068491	NaN	0.000000	0.001657	0.001658	28.1046	0.051100	0.002110	24.2187	-11.478	-162.974	-0.029206	0.240967	-0.769153	-0.770464	-0.068491	24.2187	-0.767032	-1.603076E+10	4.272476E-12	NaN
114	1.000000	0.282304	7.36615e+06	-44339.1	955.818	-29776.7	0.000000	0.000000	6.282854	0.009217	NaN	0.000000	0.001660	0.001713	28.1043	0.034305	0.001996	17.1854	8.680358	-165.145	-0.018667	0.280964	-0.729126	-0.730467	0.009217	17.1854	-0.729529	-4.947487E+9	-1.863053E-12	NaN
114	1.000000	0.322342	7.36615e+06	-44339.1	955.819	-29776.7	0.000000	0.000000	6.322889	-0.040638	NaN	0.000000	0.001664	0.001703	28.1055	0.109737	0.002089	52.5235	40.5375	-164.411	-0.059494	0.321014	-0.689089	-0.690417	-0.040638	52.5235	-0.688508	-1.363115E+9	2.981270E-11	NaN
114	1.000000	0.362316	7.36615e+06	-44339.1	955.818	-29776.7	0.000000	0.000000	6.362861	-0.100542	NaN	0.000000	0.001647	0.001704	28.1055	0.073726	0.001958	37.6532	-53.2736	-164.27	-0.058641	0.361052	-0.649115	-0.650379	-0.100542	37.6532	-0.647112	-3.696931E+8	2.719614E-10	NaN
114	1.000000	0.402342	7.36615e+06	-44339.1	955.818	-29776.7	0.000000	0.000000	6.402891	-0.012673	NaN	0.000000	0.001659	0.001704	28.1072	0.087619	0.001876	46.6944	10.5926	-167.524	0.004528	0.401048	-0.609089	-0.610383	-0.012673	46.6944	-0.608885	-1.103509E+8	1.148469E-10	NaN
114	1.000000	0.442360	7.36615e+06	-44339.1	955.818	-29776.7	0.000000	0.000000	6.442908	-0.033068	NaN	0.000000	0.001633	0.001799	28.1067	0.153093	0.002078	73.6657	162.348	-168.263	-0.071516	0.441071	-0.569071	-0.570360	-0.033068	73.6657	-0.568734	-3.084192E+7	1.072176E-9	NaN
114	1.000000	0.482389	7.36615e+06	-44339.1	955.818	-29776.7	0.000000	0.000000	6.482937	-0.024215	NaN	0.000000	0.001629	0.001741	28.1078	0.179172	0.002099	85.3613	-86.0646	-167.388	-0.003156	0.481065	-0.529042	-0.530366	-0.024215	85.3613	-0.528829	-8.6359e+06	2.803963E-9	NaN
114	1.000000	0.522384	7.36616e+06	-44339.1	955.819	-29776.7	0.000000	0.000000	6.522931	-0.047905	NaN	0.000000	0.001638	0.001778	28.1047	0.041283	0.001987	20.7772	125.538	-164.142	-0.069589	0.521069	-0.489047	-0.490361	-0.047905	20.7772	-0.487317	-2.27979e+06	2.101298E-8	NaN
114	1.000000	0.562396	7.36616e+06	-44339.1	955.817	-29776.7	0.000000	0.000000	6.562944	-0.017418	NaN	0.000000	0.001642	0.001752	28.107	0.101481	0.002058	49.3114	-9.666145	-164.17	0.052368	0.561126	-0.449035	-0.450305	-0.017418	49.3114	-0.448770	-656176	2.654402E-8	NaN
114	1.000000	0.602423	7.36616e+06	-44339.1	955.818	-29776.7	0.000000	0.000000	6.602971	-0.017614	NaN	0.000000	0.001628	0.001747	28.1061	0.098426	0.002005	49.0899	-84.18	-162.903	-0.029188	0.601158	-0.409008	-0.410273	-0.017614	49.0899	-0.408739	-178016	9.894425E-8	NaN
114	1.000000	0.642447	7.36616e+06	-44339.1	955.818	-29776.7	0.000000	0.000000	6.642995	-0.020569	NaN	0.000000	0.001686	0.001699	28.1088	0.086844	0.002054	42.2816	144.359	-164.523	-0.030484	0.641153	-0.368984	-0.370278	-0.020569	42.2816	-0.368619	-47449.3	4.334940E-7	NaN
114	1.000000	0.682477	7.36616e+06	-44339.1	955.818	-29776.7	0.000000	0.000000	6.683024	-0.067486	NaN	0.000000	0.001647	0.001697	28.1078	0.043997	0.001986	22.1539	102.498	-163.215	-0.035225	0.681119	-0.328953	-0.330312	-0.067486	22.1539	-0.326669	-11658.1	5.788810E-6	NaN
114	1.000000	0.722502	7.36616e+06	-44339.1	955.818	-29776.7	0.000000	0.000000	6.723052	0.033744	NaN	0.000000	0.001632	0.001733	28.1093	0.099002	0.001972	50.1982	152.692	-165.047	-0.032835	0.721196	-0.288929	-0.290235	0.033744	50.1982	-0.289433	-3271.95	-1.031297E-5	NaN
114	1.000000	0.762497	7.36616e+06	-44339.1	955.818	-29776.7	0.000000	0.000000	6.763046	0.012393	NaN	0.000000	0.001598	0.001707	28.1085	0.071260	0.001934	36.8445	130.226	-165.424	0.013194	0.761172	-0.248934	-0.250259	0.012393	36.8445	-0.249186	-798.684	-1.551700E-5	NaN
114	1.000000	0.802537	7.36616e+06	-44339.1	955.819	-29776.7	0.000000	0.000000	6.803088	0.033170	NaN	0.000000	0.001627	0.001732	28.1083	0.031623	0.001964	16.098	137.684	-166.083	0.033427	0.801202	-0.208893	-0.210228	0.033170	16.098	-0.210439	-194.95	-0.000170	NaN
114	1.000000	0.842531	7.36616e+06	-44339.1	955.819	-29776.7	0.000000	0.000000	6.843078	-0.046644	NaN	0.000000	0.001633	0.001736	28.1073	0.087372	0.002203	39.668	79.107	-164.711	-0.023277	0.841238	-0.168900	-0.170193	-0.046644	39.668	-0.168018	-37.9426	0.001229	NaN
114	1.000000	0.882562	7.36616e+06	-44339.1	955.818	-29776.7	0.000000	0.000000	6.883110	-0.005432	NaN	0.000000	0.001615	0.001724	28.1088	0.045033	0.002093	21.5114	-151.723	-165.437	-0.029384	0.881237	-0.128869	-0.130194	-0.005432	21.5114	-0.128680	-7.183047	0.000756	NaN
114	1.000000	0.922583	7.36616e+06	-44339.1	955.818	-29776.7	0.000000	0.000000	6.923132	0.000635	NaN	0.000000	0.001697	0.001687	28.1087	0.085982	0.002119	40.5841	113.788	-162.699	0.056881	0.921262	-0.088848	-0.090169	0.000635	40.5841	-0.088860	-1.016179	-0.000625	NaN
114	1.000000	0.962593	7.36616e+06	-44339.1	955.818	-29776.7	0.000000	0.000000	6.963142	0.023892	NaN	0.000000	0.001680	0.001699	28.1103	0.056613	0.001961	28.874	24.048	-166.291	0.045610	0.961292	-0.048838	-0.050139	0.023892	28.874	-0.049459	-0.087874	-0.271892	NaN
114	1.000000	1.002562	7.36616e+06	-44339.1	955.818	-29776.7	0.000000	0.000000	7.003108	-0.054285	NaN	0.000000	0.001619	0.001689	28.1101	0.072859	0.001953	37.3072	-132.077	-163.378	-0.027694	1.001320	-0.008869	-0.010110	-0.054285	37.3072	-0.007778	-0.005101	10.6411	NaN
114	2.000000	1.025174	7.36616e+06	-44339.1	955.817	-29776.7	0.000000	0.000000	7.026321	14.5495	NaN	0.000000	0.001634	0.001713	28.1104	13.7387	0.001797	7646.21	7.081894	-174.321	14.5444	1.024819	0.013743	0.013388	14.5495	7646.21	0.012316	0.011871	1225.69	64118.7
114	2.000000	1.035100	7.36616e+06	-44339.1	955.817	-29776.7	0.000000	0.000000	7.037040	33.8317	NaN	0.000000	0.001639	0.001715	28.1083	22.8046	0.001819	12538.5	5.195701	-176.008	33.7638	1.034886	0.023669	0.023455	33.8317	12538.5	0.021645	0.025194	1342.85	72172.1
114	2.000000	1.045059	7.36616e+06	-44339.1	955.818	-29776.7	0.000000	0.000000	7.048203	63.1273	NaN	0.000000	0.001651	0.001704	28.1105	31.1618	0.001811	17202.4	3.011921	-176.045	61.3686	1.044746	0.033628	0.033315	63.1273	17202.4	0.030876	0.042579	1482.61	76166.8
114	2.000000	1.055065	7.36616e+06	-44339.1	955.817	-29776.7	0.000000	0.000000	7.059978	106.175	NaN	0.000000	0.001723	0.001720	28.1094	42.7315	0.001797	23776.8	2.288295	-178.537	105.799	1.054667	0.043634	0.043236	106.175	23776.8	0.040285	0.064766	1639.35	85359.6
114	2.000000	1.065093	7.36616e+06	-44339.1	955.817	-29776.7	0.000000	0.000000	7.072081	156.647	NaN	0.000000	0.001662	0.001703	28.1108	53.2303	0.001775	29987.9	5.386684	176.033	158.438	1.064700	0.053662	0.053269	156.647	29987.9	0.049745	0.091625	1709.65	90513.2
114	2.000000	1.074971	7.36616e+06	-44339.1	955.817	-29776.7	0.000000	0.000000	7.084459	217.464	NaN	0.000000	0.001658	0.001675	28.11	62.2955	0.001759	35418.3	2.187420	177.767	214.421	1.074719	0.063540	0.063288	217.464	35418.3	0.058935	0.122018	1782.23	92637.9
114	2.000000	1.085182	7.36616e+06	-44339.1	955.816	-29776.7	0.000000	0.000000	7.096791	269.083	NaN	0.000000	0.001669	0.001701	28.1117	72.6726	0.001759	41314.3	4.818358	174.045	277.124	1.084781	0.073751	0.073350	269.083	41314.3	0.068866	0.159505	1686.99	94512
114	2.000000	1.095000	7.36616e+06	-44339.1	955.816	-29776.7	0.000000	0.000000	7.109872	348.459	NaN	0.000000	0.001660	0.001734	28.1093	81.072	0.001662	48779.8	2.035064	175.307	346.619	1.094706	0.083569	0.083275	348.459	48779.8	0.078211	0.199085	1750.3	99883.6
114	2.000000	1.104959	7.36616e+06	-44339.1	955.817	-29776.7	0.000000	0.000000	7.122782	420.243	NaN	0.000000	0.001699	0.001733	28.1104	92.6983	0.001791	51761.2	2.829236	174.275	417.502	1.104812	0.093528	0.093381	420.243	51761.2	0.087439	0.242173	1735.3	96098.2
114	2.000000	1.114904	7.36616e+06	-44339.1	955.818	-29776.7	0.000000	0.000000	7.136543	513.091	NaN	0.000000	0.001625	0.001687	28.1095	101.511	0.001753	57920.2	5.229207	171.333	507.054	1.114716	0.103473	0.103285	513.091	57920.2	0.096829	0.290043	1769.02	98258.8
114	2.000000	1.117947	7.36616e+06	-44339.1	955.817	-29776.7	0.000000	0.000000	7.141024	548.069	NaN	0.000000	0.001616	0.001677	28.0894	105.859	0.001751	60440.2	7.591035	169.271	545.406	1.117639	0.106516	0.106208	548.069	60440.2	0.099715	0.305568	1793.61	99895.4