File: remote_trans/data/nanoindenter/0828-1/data/Data_2025-08-06,11h17m57s/2025-07-22_16-23-58_1_7.txt
2025-07-22, 16:23:58, 1
Index	Phase	Displacement	Time	Pos X	Pos Y	Pos Z	Rot A	Rot B	Piezo Z	Force A	Force B	Gripper	Voltage A	Voltage B	Temperature	Amplitude force	Amplitude pos	Stiffness	Phase shift	Phase excitation	Force A raw	Displacement raw	HMax	HMax raw	Real Force	Real Stiffness	Contact Depth	Area	Hardness	Reduced Mod.
[#]	[#]	[um]	[s]	[um]	[um]	[um]	[m°]	[m°]	[um]	[uN]	[uN]	[V]	[V]	[V]	[°C]	[uN]	[um]	[N/m]	[°]	[°]	[uN]	[um]	[um]	[um]	[uN]	[N/m]	[um]	[um^2]	[MPa]	[MPa]
7.000000	1.000000	0.002678	7.36511e+06	-38989.1	955.818	-29796.1	0.000000	0.000000	6.002805	0.048109	NaN	0.000000	0.001525	0.001737	28.1257	0.057576	0.000977	58.912	13.3032	-167.294	0.100785	0.001486	-1.133714	-1.134906	0.048109	58.912	-1.134326	-1.447595E+15	-3.323357E-17	NaN
7.000000	1.000000	0.046647	7.36511e+06	-38989.1	955.818	-29796.1	0.000000	0.000000	6.046775	0.058307	NaN	0.000000	0.001560	0.001731	28.0829	0.088525	0.001859	47.6236	-78.6167	-160.897	-0.005156	0.045339	-1.089745	-1.091053	0.058307	47.6236	-1.090663	-3.755925E+14	-1.552405E-16	NaN
7.000000	1.000000	0.090643	7.36511e+06	-38989.1	955.818	-29796.1	0.000000	0.000000	6.090771	0.061776	NaN	0.000000	0.001577	0.001721	28.1264	0.090015	0.002019	44.5907	-99.483	-168.155	0.019649	0.089355	-1.045749	-1.047038	0.061776	44.5907	-1.046788	-9.665683E+13	-6.391241E-16	NaN
7.000000	1.000000	0.134657	7.36511e+06	-38989.1	955.818	-29796.1	0.000000	0.000000	6.134786	0.096807	NaN	0.000000	0.001630	0.001722	28.0827	0.131604	0.001967	66.8897	-75.1516	-163.815	0.086293	0.133354	-1.001735	-1.003038	0.096807	66.8897	-1.002821	-2.475950E+13	-3.909876E-15	NaN
7.000000	1.000000	0.178665	7.36511e+06	-38989.1	955.818	-29796.1	0.000000	0.000000	6.178792	0.048599	NaN	0.000000	0.001637	0.001734	28.1264	0.061659	0.001999	30.8381	40.3738	-166.453	0.053190	0.177410	-0.957727	-0.958982	0.048599	30.8381	-0.958909	-6.341021E+12	-7.664195E-15	NaN
7.000000	1.000000	0.222689	7.36511e+06	-38989.1	955.819	-29796.1	0.000000	0.000000	6.222814	-0.004296	NaN	0.000000	0.001542	0.001708	28.0843	0.058209	0.002026	28.7341	48.1412	-165.81	0.005623	0.221360	-0.913703	-0.915033	-0.004296	28.7341	-0.913591	-1.551191E+12	2.769202E-15	NaN
7.000000	1.000000	0.266691	7.36511e+06	-38989.1	955.818	-29796.1	0.000000	0.000000	6.266817	0.011304	NaN	0.000000	0.001529	0.001692	28.1247	0.148510	0.001914	77.5791	-90.5366	-165.424	-0.046806	0.265413	-0.869701	-0.870979	0.011304	77.5791	-0.869810	-3.970793E+11	-2.846806E-14	NaN
7.000000	1.000000	0.310753	7.36511e+06	-38989.1	955.818	-29796.1	0.000000	0.000000	6.310882	0.100223	NaN	0.000000	0.001537	0.001671	28.0829	0.082463	0.001853	44.5139	47.8744	-164.218	0.105274	0.309441	-0.825639	-0.826952	0.100223	44.5139	-0.827328	-1.055755E+11	-9.493065E-13	NaN
7.000000	1.000000	0.354794	7.36511e+06	-38989.1	955.817	-29796.1	0.000000	0.000000	6.354921	0.050747	NaN	0.000000	0.001561	0.001707	28.1261	0.089373	0.001980	45.1397	-168.812	-166.23	0.123100	0.353394	-0.781598	-0.782998	0.050747	45.1397	-0.782441	-2.596579E+10	-1.954398E-12	NaN
7.000000	1.000000	0.398771	7.36511e+06	-38989.1	955.818	-29796.1	0.000000	0.000000	6.398899	0.075527	NaN	0.000000	0.001524	0.001744	28.0851	0.039934	0.001998	19.9826	-74.557	-164.369	0.051063	0.397492	-0.737621	-0.738900	0.075527	19.9826	-0.740456	-6.970526E+9	-1.083512E-11	NaN
7.000000	1.000000	0.442794	7.36511e+06	-38989.1	955.818	-29796.1	0.000000	0.000000	6.442924	0.127182	NaN	0.000000	0.001532	0.001740	28.1271	0.082998	0.001966	42.2178	-83.6519	-162.704	0.161516	0.441467	-0.693598	-0.694925	0.127182	42.2178	-0.695858	-1.717727E+9	-7.404064E-11	NaN
7.000000	1.000000	0.486789	7.36511e+06	-38989.1	955.818	-29796.1	0.000000	0.000000	6.486914	-0.017310	NaN	0.000000	0.001532	0.001778	28.0847	0.112057	0.002001	56.0114	53.0163	-164.215	0.057573	0.485512	-0.649603	-0.650880	-0.017310	56.0114	-0.649371	-3.970216E+8	4.359999E-11	NaN
7.000000	1.000000	0.530832	7.36511e+06	-38989.1	955.818	-29796.1	0.000000	0.000000	6.530961	0.094343	NaN	0.000000	0.001542	0.001803	28.126	0.048993	0.002125	23.0591	-140.442	-165.28	0.054760	0.529533	-0.605560	-0.606860	0.094343	23.0591	-0.608629	-1.094577E+8	-8.619166E-10	NaN
7.000000	1.000000	0.574853	7.36511e+06	-38989.1	955.817	-29796.1	0.000000	0.000000	6.574979	0.024946	NaN	0.000000	0.001551	0.001759	28.0846	0.087161	0.002077	41.965	107.771	-165.07	0.045816	0.573544	-0.561540	-0.562848	0.024946	41.965	-0.561985	-2.487941E+7	-1.002670E-9	NaN
7.000000	1.000000	0.618874	7.36511e+06	-38989.1	955.818	-29796.1	0.000000	0.000000	6.619003	0.083552	NaN	0.000000	0.001591	0.001769	28.1279	0.083495	0.002113	39.514	148.634	-163.476	0.049657	0.617577	-0.517518	-0.518815	0.083552	39.514	-0.519104	-6.326e+06	-1.320763E-8	NaN
7.000000	1.000000	0.662881	7.36511e+06	-38989.1	955.818	-29796.1	0.000000	0.000000	6.663009	0.065245	NaN	0.000000	0.001532	0.001798	28.0832	0.069579	0.002083	33.402	134.763	-165.451	0.074455	0.661597	-0.473511	-0.474795	0.065245	33.402	-0.474976	-1.53165e+06	-4.259807E-8	NaN
7.000000	1.000000	0.706950	7.36511e+06	-38989.1	955.818	-29796.1	0.000000	0.000000	6.707077	0.037227	NaN	0.000000	0.001557	0.001790	28.1282	0.091006	0.001984	45.8646	-32.6058	-163.626	-0.036495	0.705569	-0.429442	-0.430823	0.037227	45.8646	-0.430051	-357093	-1.042502E-7	NaN
7.000000	1.000000	0.750939	7.36511e+06	-38989.1	955.818	-29796.1	0.000000	0.000000	6.751066	0.043517	NaN	0.000000	0.001523	0.001811	28.0807	0.109194	0.002036	53.6351	-50.6036	-164.672	0.024782	0.749625	-0.385453	-0.386767	0.043517	53.6351	-0.386062	-84488.7	-5.150581E-7	NaN
7.000000	1.000000	0.794962	7.36511e+06	-38989.1	955.818	-29796.1	0.000000	0.000000	6.795087	0.011429	NaN	0.000000	0.001525	0.001794	28.1277	0.061975	0.002004	30.9295	71.2137	-164.034	0.026698	0.793637	-0.341431	-0.342755	0.011429	30.9295	-0.341708	-19339.1	-5.909584E-7	NaN
7.000000	1.000000	0.838984	7.36512e+06	-38989.1	955.818	-29796.1	0.000000	0.000000	6.839110	0.027249	NaN	0.000000	0.001542	0.001740	28.0801	0.101265	0.001889	53.6072	-14.7412	-164.067	0.050625	0.837607	-0.297408	-0.298785	0.027249	53.6072	-0.297790	-4362.22	-6.246612E-6	NaN
7.000000	1.000000	0.882988	7.36512e+06	-38989.1	955.818	-29796.1	0.000000	0.000000	6.883113	0.006233	NaN	0.000000	0.001568	0.001723	28.1287	0.084749	0.001890	44.8306	33.3852	-166.579	0.023160	0.881681	-0.253404	-0.254711	0.006233	44.8306	-0.253509	-931.41	-6.692071E-6	NaN
7.000000	1.000000	0.927001	7.36512e+06	-38989.1	955.819	-29796.1	0.000000	0.000000	6.927131	0.112342	NaN	0.000000	0.001548	0.001794	28.0824	0.058046	0.002053	28.2758	103.492	-165.312	-0.015470	0.925715	-0.209391	-0.210677	0.112342	28.2758	-0.212371	-209.484	-0.000536	NaN
7.000000	1.000000	0.971017	7.36512e+06	-38989.1	955.818	-29796.1	0.000000	0.000000	6.971143	0.031641	NaN	0.000000	0.001552	0.001733	28.1291	0.036651	0.001947	18.8208	-135.205	-166.284	0.073884	0.969691	-0.165375	-0.166701	0.031641	18.8208	-0.166636	-35.8906	-0.000882	NaN
7.000000	1.000000	1.015036	7.36512e+06	-38989.1	955.817	-29796.1	0.000000	0.000000	7.015163	0.044745	NaN	0.000000	0.001536	0.001702	28.0806	0.053275	0.002000	26.6439	-36.2592	-166.638	0.037481	1.013765	-0.121357	-0.122627	0.044745	26.6439	-0.122616	-5.452597	-0.008206	NaN
7.000000	1.000000	1.059045	7.36512e+06	-38989.1	955.817	-29796.1	0.000000	0.000000	7.059172	0.035552	NaN	0.000000	0.001544	0.001703	28.1275	0.152610	0.001953	78.1582	-27.5521	-165.106	-0.008593	1.057749	-0.077347	-0.078643	0.035552	78.1582	-0.077688	-0.541277	-0.065681	NaN
7.000000	1.000000	1.103072	7.36512e+06	-38989.1	955.817	-29796.1	0.000000	0.000000	7.103201	0.095699	NaN	0.000000	0.001517	0.001704	28.0824	0.023407	0.001894	12.3599	-75.0248	-167.088	0.040020	1.101794	-0.033320	-0.034598	0.095699	12.3599	-0.039127	-0.042550	-2.249113	NaN
7.000000	2.000000	1.144753	7.36512e+06	-38989.1	955.817	-29796.1	0.000000	0.000000	7.145235	8.692542	NaN	0.000000	0.001516	0.001715	28.1286	9.092813	0.001669	5446.47	8.292338	-172.224	8.399338	1.144474	0.008361	0.008082	8.692542	5446.47	0.007164	0.006197	1402.79	63213.7
7.000000	2.000000	1.155641	7.36512e+06	-38989.1	955.818	-29796.1	0.000000	0.000000	7.156937	28.5021	NaN	0.000000	0.001553	0.001731	28.0816	21.5066	0.001808	11894.7	4.822579	-175.331	27.5347	1.155339	0.019249	0.018947	28.5021	11894.7	0.017451	0.018695	1524.61	79482
7.000000	2.000000	1.166552	7.36512e+06	-38989.1	955.818	-29796.1	0.000000	0.000000	7.168983	56.1195	NaN	0.000000	0.001591	0.001703	28.1291	32.0634	0.001801	17803.8	5.974694	178.946	53.3566	1.166265	0.030160	0.029873	56.1195	17803.8	0.027796	0.036299	1546.04	85377
7.000000	2.000000	1.177538	7.36512e+06	-38989.1	955.818	-29796.1	0.000000	0.000000	7.181614	96.1452	NaN	0.000000	0.001597	0.001722	28.0835	42.0714	0.001722	24430.7	4.851623	178.153	92.8886	1.177287	0.041146	0.040895	96.1452	24430.7	0.038194	0.059446	1617.36	91548.1
7.000000	2.000000	1.188540	7.36512e+06	-38989.1	955.819	-29796.1	0.000000	0.000000	7.194405	139.675	NaN	0.000000	0.001539	0.001682	28.1283	52.4812	0.001694	30986.4	1.662229	178.655	136.4	1.188319	0.052148	0.051927	139.675	30986.4	0.048767	0.088641	1575.74	95088.2
7.000000	2.000000	1.199500	7.36512e+06	-38989.1	955.818	-29796.1	0.000000	0.000000	7.207660	195.542	NaN	0.000000	0.001648	0.001696	28.0816	64.2171	0.001819	35299.6	5.270274	174.185	192.353	1.199215	0.063107	0.062823	195.542	35299.6	0.058953	0.122080	1601.75	92304
7.000000	2.000000	1.210558	7.36512e+06	-38989.1	955.817	-29796.1	0.000000	0.000000	7.221504	263.332	NaN	0.000000	0.001638	0.001729	28.128	74.2978	0.001890	39306.8	9.450412	170.614	263.602	1.210072	0.074165	0.073680	263.332	39306.8	0.069141	0.160611	1639.57	89609.4
7.000000	2.000000	1.221524	7.36512e+06	-38989.1	955.817	-29796.1	0.000000	0.000000	7.235585	339.119	NaN	0.000000	0.001563	0.001701	28.0826	85.3916	0.001873	45594.8	6.195821	172.304	338.307	1.221157	0.085132	0.084765	339.119	45594.8	0.079554	0.205109	1653.36	91980.8
7.000000	2.000000	1.232511	7.36512e+06	-38989.1	955.818	-29796.1	0.000000	0.000000	7.249338	406.462	NaN	0.000000	0.001570	0.001714	28.1314	95.2193	0.001919	49608.5	3.411791	173.829	404.239	1.232307	0.096119	0.095915	406.462	49608.5	0.089974	0.254697	1595.86	89808.4
7.000000	2.000000	1.242467	7.36512e+06	-38989.1	955.817	-29796.1	0.000000	0.000000	7.263497	508.729	NaN	0.000000	0.001583	0.001736	28.1301	101.693	0.001703	59719.4	-2.335102	178.55	503.638	1.242132	0.106075	0.105740	508.729	59719.4	0.099686	0.305409	1665.73	98729.6