File: remote_trans/data/nanoindenter/0828-1/data/Data_2025-08-06,11h17m57s/2025-07-22_16-23-58_1_230.txt
2025-07-22, 16:23:58, 1
Index	Phase	Displacement	Time	Pos X	Pos Y	Pos Z	Rot A	Rot B	Piezo Z	Force A	Force B	Gripper	Voltage A	Voltage B	Temperature	Amplitude force	Amplitude pos	Stiffness	Phase shift	Phase excitation	Force A raw	Displacement raw	HMax	HMax raw	Real Force	Real Stiffness	Contact Depth	Area	Hardness	Reduced Mod.
[#]	[#]	[um]	[s]	[um]	[um]	[um]	[m°]	[m°]	[um]	[uN]	[uN]	[V]	[V]	[V]	[°C]	[uN]	[um]	[N/m]	[°]	[°]	[uN]	[um]	[um]	[um]	[uN]	[N/m]	[um]	[um^2]	[MPa]	[MPa]
230	1.000000	0.002237	7.36729e+06	-50139.1	955.82	-29757	0.000000	0.000000	6.002793	-0.088800	NaN	0.000000	0.001598	0.001672	28.0802	0.034816	0.000976	35.6772	144.548	-167.516	-0.064352	0.001020	-1.081165	-1.082382	-0.088800	35.6772	-1.079298	-2.642967E+14	3.359872E-16	NaN
230	1.000000	0.042201	7.3673e+06	-50139.1	955.819	-29757	0.000000	0.000000	6.042760	-0.035764	NaN	0.000000	0.001509	0.001669	28.0792	0.081420	0.001982	41.0811	80.5022	-164.085	-0.124998	0.040847	-1.041201	-1.042555	-0.035764	41.0811	-1.040548	-7.967660E+13	4.488629E-16	NaN
230	1.000000	0.082185	7.3673e+06	-50139.1	955.818	-29757	0.000000	0.000000	6.082744	-0.010737	NaN	0.000000	0.001581	0.001717	28.0793	0.111202	0.001944	57.1914	24.7592	-166.272	-0.027892	0.080827	-1.001217	-1.002574	-0.010737	57.1914	-1.001076	-2.345637E+13	4.577576E-16	NaN
230	1.000000	0.122205	7.3673e+06	-50139.1	955.817	-29757	0.000000	0.000000	6.122763	-0.029984	NaN	0.000000	0.001591	0.001684	28.079	0.025328	0.002081	12.1681	71.147	-164.39	-0.023381	0.120959	-0.961197	-0.962443	-0.029984	12.1681	-0.959349	-6.428260E+12	4.664420E-15	NaN
230	1.000000	0.162212	7.3673e+06	-50139.1	955.818	-29757	0.000000	0.000000	6.162769	-0.073715	NaN	0.000000	0.001578	0.001693	28.0803	0.068943	0.001910	36.089	60.2793	-163.583	-0.035905	0.160923	-0.921189	-0.922479	-0.073715	36.089	-0.919658	-1.873191E+12	3.935241E-14	NaN
230	1.000000	0.202190	7.3673e+06	-50139.1	955.818	-29757	0.000000	0.000000	6.202746	-0.083173	NaN	0.000000	0.001575	0.001651	28.0801	0.026952	0.002062	13.0709	-36.1111	-165.19	-0.115464	0.200962	-0.881212	-0.882440	-0.083173	13.0709	-0.876440	-4.881553E+11	1.703825E-13	NaN
230	1.000000	0.242243	7.3673e+06	-50139.1	955.817	-29757	0.000000	0.000000	6.242803	-0.008288	NaN	0.000000	0.001607	0.001668	28.0815	0.043933	0.002005	21.9079	-127.346	-166.534	-0.097405	0.240981	-0.841159	-0.842421	-0.008288	21.9079	-0.840875	-1.611194E+11	5.144022E-14	NaN
230	1.000000	0.282278	7.3673e+06	-50139.1	955.819	-29757	0.000000	0.000000	6.282838	-0.017229	NaN	0.000000	0.001633	0.001704	28.0803	0.065539	0.001951	33.5972	-121.026	-166.873	0.006092	0.280957	-0.801124	-0.802445	-0.017229	33.5972	-0.800739	-4.601437E+10	3.744234E-13	NaN
230	1.000000	0.322330	7.3673e+06	-50139.1	955.818	-29757	0.000000	0.000000	6.322887	-0.089422	NaN	0.000000	0.001593	0.001695	28.0791	0.124252	0.001918	64.7725	114.412	-163.583	-0.091450	0.320963	-0.761072	-0.762439	-0.089422	64.7725	-0.760036	-1.287646E+10	6.944648E-12	NaN
230	1.000000	0.362322	7.3673e+06	-50139.1	955.818	-29757	0.000000	0.000000	6.362883	0.012540	NaN	0.000000	0.001605	0.001678	28.0792	0.091507	0.002050	44.6287	-146.986	-166.33	-0.007159	0.361052	-0.721080	-0.722350	0.012540	44.6287	-0.721291	-3.820088E+9	-3.282522E-12	NaN
230	1.000000	0.402340	7.3673e+06	-50139.1	955.819	-29757	0.000000	0.000000	6.402900	0.007260	NaN	0.000000	0.001576	0.001644	28.0793	0.047823	0.002016	23.718	-68.9173	-165.057	-0.021327	0.401055	-0.681062	-0.682347	0.007260	23.718	-0.681292	-1.086098E+9	-6.684365E-12	NaN
230	1.000000	0.442331	7.3673e+06	-50139.1	955.818	-29757	0.000000	0.000000	6.442891	0.005245	NaN	0.000000	0.001559	0.001681	28.0803	0.095933	0.002116	45.339	-124.808	-165.311	-0.030312	0.441037	-0.641071	-0.642365	0.005245	45.339	-0.641158	-3.063168E+8	-1.712263E-11	NaN
230	1.000000	0.482385	7.3673e+06	-50139.1	955.819	-29757	0.000000	0.000000	6.482943	-0.063641	NaN	0.000000	0.001576	0.001651	28.0801	0.039375	0.002047	19.2313	29.1895	-166.077	-0.034268	0.481058	-0.601017	-0.602344	-0.063641	19.2313	-0.598535	-7.948390E+7	8.006747E-10	NaN
230	1.000000	0.522399	7.3673e+06	-50139.1	955.818	-29757	0.000000	0.000000	6.522957	-0.051523	NaN	0.000000	0.001684	0.001671	28.0803	0.086490	0.002042	42.3469	71.2313	-166.229	0.017179	0.521092	-0.561003	-0.562310	-0.051523	42.3469	-0.560090	-2.342225E+7	2.199737E-9	NaN
230	1.000000	0.562406	7.3673e+06	-50139.1	955.819	-29757	0.000000	0.000000	6.562961	-0.127513	NaN	0.000000	0.001700	0.001735	28.0799	0.013458	0.002075	6.486648	84.5814	-163.842	-0.147538	0.561105	-0.520996	-0.522297	-0.127513	6.486648	-0.506252	-4.18987e+06	3.043359E-8	NaN
230	1.000000	0.602413	7.3673e+06	-50139.1	955.817	-29757	0.000000	0.000000	6.602972	-0.029881	NaN	0.000000	0.001678	0.001692	28.0794	0.070828	0.001927	36.7496	44.8761	-162.212	-0.016813	0.601074	-0.480989	-0.482328	-0.029881	36.7496	-0.480379	-1.82319e+06	1.638962E-8	NaN
230	1.000000	0.642439	7.3673e+06	-50139.1	955.819	-29757	0.000000	0.000000	6.642999	0.013240	NaN	0.000000	0.001623	0.001679	28.0796	0.068918	0.001855	37.1588	68.5153	-162.654	-0.035292	0.641112	-0.440963	-0.442290	0.013240	37.1588	-0.441231	-513722	-2.577235E-8	NaN
230	1.000000	0.682440	7.3673e+06	-50139.1	955.818	-29757	0.000000	0.000000	6.682999	-0.029181	NaN	0.000000	0.001576	0.001683	28.0792	0.064862	0.001937	33.4774	54.0649	-167.342	-0.081952	0.681176	-0.400961	-0.402226	-0.029181	33.4774	-0.400308	-135015	2.161290E-7	NaN
230	1.000000	0.722477	7.3673e+06	-50139.1	955.819	-29757	0.000000	0.000000	6.723036	-0.006623	NaN	0.000000	0.001608	0.001694	28.0807	0.062246	0.002025	30.7357	54.1944	-165.929	-0.048518	0.721200	-0.360925	-0.362201	-0.006623	30.7357	-0.360764	-36549.7	1.812032E-7	NaN
230	1.000000	0.762476	7.3673e+06	-50139.1	955.818	-29757	0.000000	0.000000	6.763033	-0.060012	NaN	0.000000	0.001573	0.001694	28.0805	0.029377	0.002057	14.2824	-94.701	-165.058	-0.028067	0.761185	-0.320926	-0.322217	-0.060012	14.2824	-0.317775	-8627.16	6.956130E-6	NaN
230	1.000000	0.802516	7.3673e+06	-50139.1	955.819	-29757	0.000000	0.000000	6.803071	-0.124989	NaN	0.000000	0.001603	0.001700	28.0803	0.012564	0.002115	5.939927	97.4253	-167.751	-0.068670	0.801202	-0.280886	-0.282200	-0.124989	5.939927	-0.265105	-1402.76	8.910244E-5	NaN
230	1.000000	0.842519	7.3673e+06	-50139.1	955.818	-29757	0.000000	0.000000	6.843078	-0.021565	NaN	0.000000	0.001570	0.001708	28.0792	0.053192	0.001992	26.6961	115.665	-163.221	-0.002878	0.841214	-0.240883	-0.242188	-0.021565	26.6961	-0.240277	-580.601	3.714185E-5	NaN
230	1.000000	0.882554	7.3673e+06	-50139.1	955.818	-29757	0.000000	0.000000	6.883114	0.000168	NaN	0.000000	0.001603	0.001676	28.0793	0.034521	0.001801	19.1704	-11.9116	-162.767	-0.010825	0.881262	-0.200848	-0.202140	0.000168	19.1704	-0.200854	-136.059	-1.237802E-6	NaN
230	1.000000	0.922563	7.3673e+06	-50139.1	955.817	-29757	0.000000	0.000000	6.923120	-0.066780	NaN	0.000000	0.001656	0.001650	28.0791	0.019759	0.002103	9.393609	22.6717	-166.923	0.043651	0.921254	-0.160839	-0.162148	-0.066780	9.393609	-0.155507	-22.7878	0.002931	NaN
230	1.000000	0.962579	7.3673e+06	-50139.1	955.819	-29757	0.000000	0.000000	6.963135	-0.096056	NaN	0.000000	0.001691	0.001680	28.079	0.033746	0.001901	17.751	-157.134	-162.415	-0.099345	0.961226	-0.120823	-0.122176	-0.096056	17.751	-0.116765	-4.152845	0.023130	NaN
230	1.000000	1.002611	7.3673e+06	-50139.1	955.817	-29757	0.000000	0.000000	7.003171	0.011835	NaN	0.000000	0.001570	0.001731	28.0804	0.034039	0.001939	17.5595	159.002	-163.816	-0.094110	1.001323	-0.080791	-0.082079	0.011835	17.5595	-0.081297	-0.666757	-0.017750	NaN
230	1.000000	1.042617	7.3673e+06	-50139.1	955.819	-29757	0.000000	0.000000	7.043177	-0.009440	NaN	0.000000	0.001625	0.001708	28.0804	0.055214	0.001968	28.053	38.3959	-164.114	0.008343	1.041284	-0.040785	-0.042118	-0.009440	28.053	-0.040533	-0.046939	0.201101	NaN
230	1.000000	1.082595	7.3673e+06	-50139.1	955.818	-29757	0.000000	0.000000	7.083250	2.327897	NaN	0.000000	0.001566	0.001712	28.0804	1.275657	0.001939	657.823	4.379224	-167.536	1.816545	1.081303	-0.000807	-0.002099	2.327897	657.823	-0.003461	-0.002427	-959.199	NaN
230	2.000000	1.103054	7.3673e+06	-50139.1	955.819	-29757	0.000000	0.000000	7.104389	18.8394	NaN	0.000000	0.001610	0.001689	28.0793	13.5851	0.001767	7688.16	8.042805	-174.213	17.9705	1.102804	0.019652	0.019402	18.8394	7688.16	0.017814	0.019223	980.039	50662.2
230	2.000000	1.112997	7.3673e+06	-50139.1	955.819	-29757	0.000000	0.000000	7.115378	44.2919	NaN	0.000000	0.001653	0.001704	28.0794	25.625	0.001690	15158.6	4.240763	-178.059	42.9669	1.112749	0.029595	0.029347	44.2919	15158.6	0.027404	0.035534	1246.46	73470
230	2.000000	1.122996	7.3673e+06	-50139.1	955.818	-29757	0.000000	0.000000	7.126747	77.5997	NaN	0.000000	0.001662	0.001667	28.0791	36.2891	0.001857	19546.5	5.068778	179.816	76.6762	1.122704	0.039594	0.039302	77.5997	19546.5	0.036617	0.055577	1396.25	75752.1
230	2.000000	1.132986	7.3673e+06	-50139.1	955.819	-29757	0.000000	0.000000	7.138150	111.967	NaN	0.000000	0.001671	0.001666	28.0791	45.7129	0.001837	24878.9	3.996602	177.908	110.101	1.132775	0.049584	0.049373	111.967	24878.9	0.046208	0.081055	1381.37	79838.7
230	2.000000	1.142977	7.3673e+06	-50139.1	955.82	-29757	0.000000	0.000000	7.150357	165.86	NaN	0.000000	0.001653	0.001707	28.08	55.724	0.001774	31412.6	4.802604	175.417	166.265	1.142615	0.059575	0.059213	165.86	31412.6	0.055615	0.110556	1500.23	86314.9
230	2.000000	1.152901	7.3673e+06	-50139.1	955.819	-29757	0.000000	0.000000	7.162346	216.074	NaN	0.000000	0.001659	0.001680	28.0801	64.3195	0.001666	38597.2	4.309344	174.167	212.508	1.152685	0.069499	0.069283	216.074	38597.2	0.065300	0.145498	1485.07	92448.8
230	2.000000	1.162923	7.3673e+06	-50139.1	955.819	-29757	0.000000	0.000000	7.174792	275.003	NaN	0.000000	0.001692	0.001687	28.0804	74.2559	0.001728	42978.2	3.560863	174.884	272.737	1.162700	0.079521	0.079298	275.003	42978.2	0.074722	0.183827	1495.99	91583.4
230	2.000000	1.172868	7.3673e+06	-50139.1	955.819	-29757	0.000000	0.000000	7.187740	348.042	NaN	0.000000	0.001664	0.001680	28.079	82.7266	0.001748	47321.1	2.478008	175.003	342.368	1.172651	0.089467	0.089249	348.042	47321.1	0.083950	0.225420	1543.97	91060.9
230	2.000000	1.182873	7.3673e+06	-50139.1	955.82	-29757	0.000000	0.000000	7.200665	419.061	NaN	0.000000	0.001682	0.001636	28.079	91.9715	0.001705	53944.8	4.047699	172.092	416.357	1.182737	0.099471	0.099335	419.061	53944.8	0.093645	0.273360	1533	94266
230	2.000000	1.192919	7.3673e+06	-50139.1	955.82	-29757	0.000000	0.000000	7.214075	500.887	NaN	0.000000	0.001635	0.001750	28.0788	102.51	0.001787	57360	5.364235	170.616	499.952	1.192691	0.109517	0.109289	500.887	57360	0.102967	0.323511	1548.28	92137.7
230	2.000000	1.194857	7.3673e+06	-50139.1	955.821	-29757	0.000000	0.000000	7.216973	524.223	NaN	0.000000	0.001645	0.001759	28.0792	103.456	0.001779	58160	3.008215	173.366	523.196	1.194548	0.111455	0.111146	524.223	58160	0.104695	0.333239	1573.12	92049.2