File: remote_trans/data/nanoindenter/0828-1/data/Data_2025-08-06,11h17m57s/2025-07-22_16-23-58_1_223.txt
2025-07-22, 16:23:58, 1
Index	Phase	Displacement	Time	Pos X	Pos Y	Pos Z	Rot A	Rot B	Piezo Z	Force A	Force B	Gripper	Voltage A	Voltage B	Temperature	Amplitude force	Amplitude pos	Stiffness	Phase shift	Phase excitation	Force A raw	Displacement raw	HMax	HMax raw	Real Force	Real Stiffness	Contact Depth	Area	Hardness	Reduced Mod.
[#]	[#]	[um]	[s]	[um]	[um]	[um]	[m°]	[m°]	[um]	[uN]	[uN]	[V]	[V]	[V]	[°C]	[uN]	[um]	[N/m]	[°]	[°]	[uN]	[um]	[um]	[um]	[uN]	[N/m]	[um]	[um^2]	[MPa]	[MPa]
223	1.000000	0.002622	7.36722e+06	-49789.1	955.819	-29758.2	0.000000	0.000000	6.002825	-0.006404	NaN	0.000000	0.001592	0.001763	28.0798	0.016765	0.001017	16.4792	-116.064	-161.318	-0.007611	0.001376	-1.079317	-1.080563	-0.006404	16.4792	-1.079026	-2.620781E+14	2.443392E-17	NaN
223	1.000000	0.042544	7.36722e+06	-49789.1	955.818	-29758.2	0.000000	0.000000	6.042747	0.014190	NaN	0.000000	0.001543	0.001698	28.0806	0.096887	0.002065	46.9217	24.1062	-162.888	0.005321	0.041240	-1.039395	-1.040699	0.014190	46.9217	-1.039622	-7.742565E+13	-1.832696E-16	NaN
223	1.000000	0.082568	7.36723e+06	-49789.1	955.817	-29758.2	0.000000	0.000000	6.082774	0.066671	NaN	0.000000	0.001608	0.001654	28.0801	0.176965	0.001866	94.8288	56.9138	-164.642	0.015288	0.081229	-0.999371	-1.000710	0.066671	94.8288	-0.999898	-2.261496E+13	-2.948108E-15	NaN
223	1.000000	0.122589	7.36723e+06	-49789.1	955.817	-29758.2	0.000000	0.000000	6.122793	0.022915	NaN	0.000000	0.001596	0.001696	28.08	0.069100	0.002054	33.6495	-176.945	-170.563	0.030465	0.121296	-0.959350	-0.960643	0.022915	33.6495	-0.959861	-6.531146E+12	-3.508649E-15	NaN
223	1.000000	0.162600	7.36723e+06	-49789.1	955.819	-29758.2	0.000000	0.000000	6.162804	0.014007	NaN	0.000000	0.001551	0.001697	28.0786	0.040010	0.001926	20.7751	-23.7902	-165.768	0.023564	0.161305	-0.919339	-0.920634	0.014007	20.7751	-0.919845	-1.884123E+12	-7.434308E-15	NaN
223	1.000000	0.202633	7.36723e+06	-49789.1	955.819	-29758.2	0.000000	0.000000	6.202837	0.008875	NaN	0.000000	0.001571	0.001712	28.0786	0.046235	0.002059	22.4502	101.73	-167.216	-0.013624	0.201330	-0.879306	-0.880609	0.008875	22.4502	-0.879602	-5.386775E+11	-1.647600E-14	NaN
223	1.000000	0.242642	7.36723e+06	-49789.1	955.818	-29758.2	0.000000	0.000000	6.242845	-0.010799	NaN	0.000000	0.001582	0.001669	28.0789	0.030755	0.001895	16.2269	49.1201	-165.104	-0.068643	0.241323	-0.839297	-0.840616	-0.010799	16.2269	-0.838798	-1.510100E+11	7.151497E-14	NaN
223	1.000000	0.282645	7.36723e+06	-49789.1	955.818	-29758.2	0.000000	0.000000	6.282849	0.031999	NaN	0.000000	0.001617	0.001703	28.0802	0.091047	0.002046	44.4968	-165.343	-166.08	-0.018057	0.281317	-0.799294	-0.800622	0.031999	44.4968	-0.799833	-4.473012E+10	-7.153742E-13	NaN
223	1.000000	0.322687	7.36723e+06	-49789.1	955.818	-29758.2	0.000000	0.000000	6.322887	-0.077239	NaN	0.000000	0.001592	0.001708	28.0803	0.072517	0.002002	36.2305	-83.7712	-163.067	-0.118469	0.321329	-0.759252	-0.760610	-0.077239	36.2305	-0.757653	-1.195002E+10	6.463510E-12	NaN
223	1.000000	0.362673	7.36723e+06	-49789.1	955.818	-29758.2	0.000000	0.000000	6.362875	-0.028247	NaN	0.000000	0.001567	0.001723	28.0804	0.052724	0.002028	25.9933	-114.143	-166.435	0.052710	0.361328	-0.719266	-0.720611	-0.028247	25.9933	-0.718451	-3.494219E+9	8.083830E-12	NaN
223	1.000000	0.402662	7.36723e+06	-49789.1	955.818	-29758.2	0.000000	0.000000	6.402866	0.016095	NaN	0.000000	0.001591	0.001669	28.0802	0.069775	0.002140	32.6112	-97.1149	-166.703	0.056924	0.401385	-0.679277	-0.680554	0.016095	32.6112	-0.679647	-1.031284E+9	-1.560674E-11	NaN
223	1.000000	0.442712	7.36723e+06	-49789.1	955.818	-29758.2	0.000000	0.000000	6.442914	-0.024981	NaN	0.000000	0.001581	0.001685	28.0789	0.082276	0.002061	39.9298	-155.678	-165.943	0.003854	0.441434	-0.639227	-0.640505	-0.024981	39.9298	-0.638757	-2.839494E+8	8.797754E-11	NaN
223	1.000000	0.482713	7.36723e+06	-49789.1	955.819	-29758.2	0.000000	0.000000	6.482917	0.022408	NaN	0.000000	0.001583	0.001679	28.0789	0.039243	0.001951	20.1095	45.2949	-169.197	-0.007531	0.481420	-0.599226	-0.600519	0.022408	20.1095	-0.600061	-8.342710E+7	-2.685993E-10	NaN
223	1.000000	0.522733	7.36723e+06	-49789.1	955.818	-29758.2	0.000000	0.000000	6.522935	-0.045000	NaN	0.000000	0.001603	0.001663	28.0792	0.113915	0.001875	60.7645	-168.457	-168.218	-0.052529	0.521427	-0.559205	-0.560512	-0.045000	60.7645	-0.558650	-2.237175E+7	2.011487E-9	NaN
223	1.000000	0.562778	7.36723e+06	-49789.1	955.818	-29758.2	0.000000	0.000000	6.562983	0.032168	NaN	0.000000	0.001587	0.001682	28.0806	0.131513	0.002119	62.0784	-99.3541	-167.485	0.109978	0.561456	-0.519160	-0.520483	0.032168	62.0784	-0.519549	-6.41689e+06	-5.012955E-9	NaN
223	1.000000	0.602777	7.36723e+06	-49789.1	955.817	-29758.2	0.000000	0.000000	6.602981	0.016812	NaN	0.000000	0.001634	0.001672	28.0804	0.053681	0.001993	26.9287	133.613	-167.753	0.047151	0.601434	-0.479162	-0.480505	0.016812	26.9287	-0.479630	-1.77972e+06	-9.446602E-9	NaN
223	1.000000	0.642814	7.36723e+06	-49789.1	955.817	-29758.2	0.000000	0.000000	6.643018	0.006085	NaN	0.000000	0.001589	0.001683	28.0803	0.068681	0.002069	33.1957	-54.7964	-166.726	-0.044164	0.641452	-0.439124	-0.440487	0.006085	33.1957	-0.439262	-481888	-1.262762E-8	NaN
223	1.000000	0.682792	7.36723e+06	-49789.1	955.818	-29758.2	0.000000	0.000000	6.682997	0.042564	NaN	0.000000	0.001571	0.001643	28.0792	0.040985	0.001917	21.375	-140.951	-163.462	0.036141	0.681539	-0.399147	-0.400399	0.042564	21.375	-0.400640	-136498	-3.118315E-7	NaN
223	1.000000	0.722832	7.36723e+06	-49789.1	955.818	-29758.2	0.000000	0.000000	6.723036	0.020394	NaN	0.000000	0.001581	0.001660	28.0792	0.124680	0.001903	65.5012	83.034	-167.588	0.080798	0.721554	-0.359107	-0.360385	0.020394	65.5012	-0.359341	-34858.9	-5.850431E-7	NaN
223	1.000000	0.762858	7.36723e+06	-49789.1	955.818	-29758.2	0.000000	0.000000	6.763063	0.022629	NaN	0.000000	0.001576	0.001693	28.0792	0.071295	0.002018	35.3331	3.146104	-164.704	-0.023687	0.761528	-0.319080	-0.320411	0.022629	35.3331	-0.319561	-9165.82	-2.468853E-6	NaN
223	1.000000	0.802881	7.36723e+06	-49789.1	955.818	-29758.2	0.000000	0.000000	6.803083	-0.043732	NaN	0.000000	0.001563	0.001665	28.0793	0.056977	0.001885	30.2259	-83.9009	-162.239	-0.061783	0.801534	-0.279057	-0.280404	-0.043732	30.2259	-0.277972	-2199.67	1.988125E-5	NaN
223	1.000000	0.842876	7.36723e+06	-49789.1	955.819	-29758.2	0.000000	0.000000	6.843080	0.006718	NaN	0.000000	0.001568	0.001672	28.0805	0.101684	0.001841	55.2464	-98.4312	-166.275	-0.059272	0.841546	-0.239062	-0.240392	0.006718	55.2464	-0.239154	-557.603	-1.204800E-5	NaN
223	1.000000	0.882893	7.36723e+06	-49789.1	955.818	-29758.2	0.000000	0.000000	6.883097	0.010086	NaN	0.000000	0.001552	0.001681	28.0807	0.094773	0.001990	47.618	-158.762	-167.598	0.092008	0.881550	-0.199045	-0.200389	0.010086	47.618	-0.199204	-127.824	-7.890380E-5	NaN
223	1.000000	0.922905	7.36723e+06	-49789.1	955.819	-29758.2	0.000000	0.000000	6.923107	-0.018750	NaN	0.000000	0.001604	0.001663	28.0808	0.026336	0.002103	12.5216	-117.778	-168.59	-0.026021	0.921590	-0.159034	-0.160349	-0.018750	12.5216	-0.157911	-25.1631	0.000745	NaN
223	1.000000	0.962935	7.36723e+06	-49789.1	955.818	-29758.2	0.000000	0.000000	6.963137	-0.043921	NaN	0.000000	0.001584	0.001655	28.0793	0.078372	0.002081	37.6666	-169.206	-167.7	0.009851	0.961626	-0.119004	-0.120313	-0.043921	37.6666	-0.118129	-4.427678	0.009920	NaN
223	1.000000	1.002945	7.36723e+06	-49789.1	955.821	-29758.2	0.000000	0.000000	7.003149	0.022267	NaN	0.000000	0.001594	0.001658	28.0793	0.103683	0.001878	55.2026	78.7239	-168.171	-0.051914	1.001664	-0.078993	-0.080275	0.022267	55.2026	-0.079296	-0.594347	-0.037464	NaN
223	1.000000	1.042972	7.36723e+06	-49789.1	955.82	-29758.2	0.000000	0.000000	7.043173	-0.041754	NaN	0.000000	0.001619	0.001671	28.0792	0.101248	0.002060	49.1587	49.0812	-166.41	-0.072199	1.041686	-0.038967	-0.040253	-0.041754	49.1587	-0.038330	-0.040254	1.037263	NaN
223	1.000000	1.082948	7.36723e+06	-49789.1	955.821	-29758.2	0.000000	0.000000	7.083188	0.898761	NaN	0.000000	0.001652	0.001671	28.0794	1.526421	0.002055	742.645	5.737233	-167.82	0.101211	1.081638	0.001009	-0.000301	0.898761	742.645	0.000101	7.585468E-5	11848.5	77904.7
223	2.000000	1.097500	7.36723e+06	-49789.1	955.82	-29758.2	0.000000	0.000000	7.098544	20.4541	NaN	0.000000	0.001685	0.001659	28.081	17.6666	0.001830	9652.87	5.615969	-174.444	19.4239	1.097148	0.015561	0.015209	20.4541	9652.87	0.013972	0.013939	1467.41	74699.1
223	2.000000	1.107450	7.36723e+06	-49789.1	955.819	-29758.2	0.000000	0.000000	7.109480	44.4361	NaN	0.000000	0.001659	0.001702	28.0818	28.5342	0.001924	14831.4	7.236324	179.236	43.9729	1.107183	0.025511	0.025245	44.4361	14831.4	0.023264	0.027933	1590.83	81077.5
223	2.000000	1.117452	7.36723e+06	-49789.1	955.822	-29758.2	0.000000	0.000000	7.120753	75.3531	NaN	0.000000	0.001628	0.001654	28.0807	37.3687	0.001728	21629.5	2.676610	-179.696	76.1353	1.117194	0.035513	0.035256	75.3531	21629.5	0.032900	0.046969	1604.3	91182.8
223	2.000000	1.127438	7.36723e+06	-49789.1	955.821	-29758.2	0.000000	0.000000	7.132296	113.204	NaN	0.000000	0.001622	0.001661	28.0795	46.1593	0.001683	27427.9	2.415799	177.818	112.756	1.127163	0.045499	0.045224	113.204	27427.9	0.042404	0.070388	1608.29	94453.1
223	2.000000	1.137449	7.36723e+06	-49789.1	955.821	-29758.2	0.000000	0.000000	7.144285	161.316	NaN	0.000000	0.001658	0.001667	28.0795	55.9237	0.001660	33682.1	0.168636	178.557	161.699	1.137127	0.055510	0.055189	161.316	33682.1	0.051918	0.098434	1638.83	98084.5
223	2.000000	1.147431	7.36723e+06	-49789.1	955.822	-29758.2	0.000000	0.000000	7.156547	216.736	NaN	0.000000	0.001631	0.001698	28.0795	66.2525	0.001798	36839.3	6.742931	171.884	218.223	1.147114	0.065492	0.065175	216.736	36839.3	0.061080	0.129710	1670.93	93454.1
223	2.000000	1.157397	7.36723e+06	-49789.1	955.821	-29758.2	0.000000	0.000000	7.169166	281.283	NaN	0.000000	0.001640	0.001656	28.0807	76.3871	0.001859	41083	6.744790	171.557	279.871	1.157025	0.075458	0.075087	281.283	41083	0.070323	0.165404	1700.58	92291.6
223	2.000000	1.167530	7.36723e+06	-49789.1	955.822	-29758.2	0.000000	0.000000	7.181847	343.243	NaN	0.000000	0.001560	0.001669	28.0804	84.9154	0.001715	49500.8	2.799005	173.653	350.82	1.167138	0.085591	0.085199	343.243	49500.8	0.080391	0.208905	1643.05	98948.8
223	2.000000	1.177336	7.36723e+06	-49789.1	955.822	-29758.2	0.000000	0.000000	7.194698	417.308	NaN	0.000000	0.001537	0.001646	28.0806	96.2839	0.001781	54050.4	7.281873	168.017	413.945	1.177122	0.095397	0.095183	417.308	54050.4	0.089606	0.252864	1650.32	98203.7
223	2.000000	1.187342	7.36723e+06	-49789.1	955.821	-29758.2	0.000000	0.000000	7.207939	495.953	NaN	0.000000	0.001586	0.001664	28.0806	104.309	0.001913	54518.2	6.069431	169.782	493.739	1.187119	0.105403	0.105180	495.953	54518.2	0.098581	0.299419	1656.39	91028