File: remote_trans/data/nanoindenter/0828-1/data/Data_2025-08-06,11h17m57s/2025-07-22_16-23-58_1_1006.txt
2025-07-22, 16:23:58, 1
Index	Phase	Displacement	Time	Pos X	Pos Y	Pos Z	Rot A	Rot B	Piezo Z	Force A	Force B	Gripper	Voltage A	Voltage B	Temperature	Amplitude force	Amplitude pos	Stiffness	Phase shift	Phase excitation	Force A raw	Displacement raw	HMax	HMax raw	Real Force	Real Stiffness	Contact Depth	Area	Hardness	Reduced Mod.
[#]	[#]	[um]	[s]	[um]	[um]	[um]	[m°]	[m°]	[um]	[uN]	[uN]	[V]	[V]	[V]	[°C]	[uN]	[um]	[N/m]	[°]	[°]	[uN]	[um]	[um]	[um]	[uN]	[N/m]	[um]	[um^2]	[MPa]	[MPa]
1006	1.000000	0.001854	7.37489e+06	-50439.1	1055.82	-29755.7	0.000000	0.000000	6.002769	-0.030521	NaN	0.000000	0.001564	0.001698	28.0833	0.021117	0.000954	22.1347	-122.176	-162.885	0.030623	0.000638	-1.023621	-1.024836	-0.030521	22.1347	-1.022586	-4.568256E+13	6.681169E-16	NaN
1006	1.000000	0.041808	7.37489e+06	-50439.1	1055.82	-29755.7	0.000000	0.000000	6.042726	0.021238	NaN	0.000000	0.001567	0.001740	28.0831	0.032550	0.001939	16.7857	-162.119	-163.918	0.010206	0.040531	-0.983666	-0.984943	0.021238	16.7857	-0.984615	-1.407948E+13	-1.508453E-15	NaN
1006	1.000000	0.081823	7.37489e+06	-50439.1	1055.82	-29755.7	0.000000	0.000000	6.082740	0.002619	NaN	0.000000	0.001577	0.001728	28.0822	0.068380	0.002088	32.7425	149.8	-164.067	-0.044809	0.080514	-0.943651	-0.944960	0.002619	32.7425	-0.943711	-3.955555E+12	-6.621260E-16	NaN
1006	1.000000	0.121845	7.37489e+06	-50439.1	1055.82	-29755.7	0.000000	0.000000	6.122761	-0.025093	NaN	0.000000	0.001562	0.001748	28.082	0.093924	0.001881	49.932	23.7446	-169.698	-0.050604	0.120556	-0.903629	-0.904919	-0.025093	49.932	-0.903252	-1.124634E+12	2.231228E-14	NaN
1006	1.000000	0.161852	7.37489e+06	-50439.1	1055.82	-29755.7	0.000000	0.000000	6.162770	0.004908	NaN	0.000000	0.001539	0.001761	28.0819	0.063867	0.001934	33.0264	44.2369	-165.038	-0.001482	0.160552	-0.863622	-0.864922	0.004908	33.0264	-0.863733	-3.285839E+11	-1.493545E-14	NaN
1006	1.000000	0.201894	7.37489e+06	-50439.1	1055.82	-29755.7	0.000000	0.000000	6.202813	0.069248	NaN	0.000000	0.001575	0.001764	28.0829	0.048071	0.002037	23.5949	92.0055	-166.222	0.038530	0.200549	-0.823580	-0.824925	0.069248	23.5949	-0.825782	-1.006011E+11	-6.883471E-13	NaN
1006	1.000000	0.241885	7.37489e+06	-50439.1	1055.82	-29755.7	0.000000	0.000000	6.242802	0.003452	NaN	0.000000	0.001531	0.001755	28.083	0.122338	0.002060	59.3876	132.249	-167.527	0.020783	0.240588	-0.783589	-0.784886	0.003452	59.3876	-0.783633	-2.695232E+10	-1.280746E-13	NaN
1006	1.000000	0.281937	7.37489e+06	-50439.1	1055.82	-29755.7	0.000000	0.000000	6.282851	-0.063392	NaN	0.000000	0.001597	0.001812	28.083	0.119925	0.002192	54.7114	161.164	-167.07	-0.050434	0.280652	-0.743537	-0.744822	-0.063392	54.7114	-0.742668	-7.471341E+9	8.484704E-12	NaN
1006	1.000000	0.321948	7.37489e+06	-50439.1	1055.82	-29755.7	0.000000	0.000000	6.322863	-0.048504	NaN	0.000000	0.001527	0.001775	28.0826	0.072894	0.001996	36.5178	125.605	-163.518	-0.123948	0.320620	-0.703526	-0.704854	-0.048504	36.5178	-0.702530	-2.118757E+9	2.289263E-11	NaN
1006	1.000000	0.361976	7.37489e+06	-50439.1	1055.82	-29755.7	0.000000	0.000000	6.362889	-0.094504	NaN	0.000000	0.001546	0.001797	28.0818	0.067495	0.001996	33.8173	-62.4053	-164.453	-0.110781	0.360686	-0.663498	-0.664788	-0.094504	33.8173	-0.661402	-5.803313E+8	1.628448E-10	NaN
1006	1.000000	0.401996	7.37489e+06	-50439.1	1055.82	-29755.7	0.000000	0.000000	6.402914	0.025706	NaN	0.000000	0.001550	0.001805	28.0821	0.079462	0.001979	40.1548	151.951	-164.7	-0.033817	0.400712	-0.623479	-0.624762	0.025706	40.1548	-0.623959	-1.778435E+8	-1.445444E-10	NaN
1006	1.000000	0.442010	7.37489e+06	-50439.1	1055.82	-29755.7	0.000000	0.000000	6.442926	-0.013929	NaN	0.000000	0.001567	0.001755	28.0818	0.046166	0.001901	24.2883	-115.516	-163.33	-0.017367	0.440720	-0.583465	-0.584754	-0.013929	24.2883	-0.583035	-4.859600E+7	2.866338E-10	NaN
1006	1.000000	0.482039	7.37489e+06	-50439.1	1055.82	-29755.7	0.000000	0.000000	6.482953	-0.068573	NaN	0.000000	0.001538	0.001767	28.0829	0.030883	0.001978	15.6148	118.326	-165.924	-0.033142	0.480705	-0.543435	-0.544769	-0.068573	15.6148	-0.540141	-1.239703E+7	5.531391E-9	NaN
1006	1.000000	0.522067	7.37489e+06	-50439.1	1055.82	-29755.7	0.000000	0.000000	6.522985	0.024588	NaN	0.000000	0.001513	0.001752	28.083	0.071121	0.002032	34.9984	42.7842	-166.666	0.074482	0.520763	-0.503407	-0.504711	0.024588	34.9984	-0.503934	-3.88938e+06	-6.321933E-9	NaN
1006	1.000000	0.562035	7.37489e+06	-50439.1	1055.82	-29755.7	0.000000	0.000000	6.562952	0.005368	NaN	0.000000	0.001580	0.001734	28.0829	0.106602	0.002173	49.0657	-99.0309	-165.756	0.021211	0.560705	-0.463440	-0.464769	0.005368	49.0657	-0.463522	-1.05801e+06	-5.073681E-9	NaN
1006	1.000000	0.602052	7.37489e+06	-50439.1	1055.82	-29755.7	0.000000	0.000000	6.602969	-0.010922	NaN	0.000000	0.001540	0.001766	28.0819	0.032511	0.001974	16.4669	169.632	-166.652	-0.000607	0.600759	-0.423422	-0.424715	-0.010922	16.4669	-0.422924	-283059	3.858664E-8	NaN
1006	1.000000	0.642066	7.37489e+06	-50439.1	1055.82	-29755.7	0.000000	0.000000	6.642981	-0.051139	NaN	0.000000	0.001569	0.001745	28.0828	0.073717	0.001995	36.9492	-171.986	-167.418	-0.111096	0.640764	-0.383408	-0.384710	-0.051139	36.9492	-0.382370	-74797.9	6.836929E-7	NaN
1006	1.000000	0.682078	7.37489e+06	-50439.1	1055.82	-29755.7	0.000000	0.000000	6.682994	-0.029407	NaN	0.000000	0.001546	0.001765	28.0821	0.023066	0.002013	11.4595	-43.7123	-166.353	-0.023952	0.680821	-0.343396	-0.344653	-0.029407	11.4595	-0.341472	-19186.6	1.532683E-6	NaN
1006	1.000000	0.722143	7.37489e+06	-50439.1	1055.82	-29755.7	0.000000	0.000000	6.723062	0.050712	NaN	0.000000	0.001577	0.001788	28.0822	0.019033	0.001977	9.628354	36.7276	-165.225	-0.013377	0.720807	-0.303332	-0.304667	0.050712	9.628354	-0.307282	-6036.69	-8.400602E-6	NaN
1006	1.000000	0.762107	7.37489e+06	-50439.1	1055.82	-29755.7	0.000000	0.000000	6.763020	-0.096584	NaN	0.000000	0.001654	0.001763	28.0834	0.050319	0.002125	23.6791	-59.2985	-165.404	-0.136735	0.760828	-0.263367	-0.264646	-0.096584	23.6791	-0.260308	-1184.76	8.152195E-5	NaN
1006	1.000000	0.802169	7.37489e+06	-50439.1	1055.82	-29755.7	0.000000	0.000000	6.803086	0.009007	NaN	0.000000	0.001589	0.001762	28.0833	0.073628	0.001971	37.3464	70.3399	-169.614	-0.002329	0.800835	-0.223306	-0.224640	0.009007	37.3464	-0.223486	-315.699	-2.852929E-5	NaN
1006	1.000000	0.842153	7.37489e+06	-50439.1	1055.82	-29755.7	0.000000	0.000000	6.843067	-0.061758	NaN	0.000000	0.001589	0.001738	28.0831	0.106176	0.002018	52.6048	-29.1602	-164.448	-0.096994	0.840814	-0.183321	-0.184660	-0.061758	52.6048	-0.182441	-67.127	0.000920	NaN
1006	1.000000	0.882197	7.37489e+06	-50439.1	1055.82	-29755.7	0.000000	0.000000	6.883115	0.022452	NaN	0.000000	0.001609	0.001760	28.082	0.019529	0.001936	10.0868	47.0986	-165.92	0.056355	0.880851	-0.143277	-0.144623	0.022452	10.0868	-0.144947	-14.628	-0.001535	NaN
1006	1.000000	0.922191	7.37489e+06	-50439.1	1055.82	-29755.7	0.000000	0.000000	6.923105	-0.070954	NaN	0.000000	0.001557	0.001729	28.0819	0.024909	0.002044	12.1879	87.5747	-167.553	-0.050803	0.920884	-0.103283	-0.104590	-0.070954	12.1879	-0.098917	-1.728580	0.041048	NaN
1006	1.000000	0.962207	7.37489e+06	-50439.1	1055.82	-29755.7	0.000000	0.000000	6.963120	-0.101361	NaN	0.000000	0.001565	0.001776	28.0818	0.097008	0.001988	48.7977	-160.296	-166.375	-0.048467	0.960860	-0.063267	-0.064615	-0.101361	48.7977	-0.061709	-0.201491	0.503055	NaN
1006	1.000000	1.002222	7.37489e+06	-50439.1	1055.82	-29755.7	0.000000	0.000000	7.003138	-0.039569	NaN	0.000000	0.001550	0.001728	28.0817	0.101738	0.002135	47.663	93.412	-164.891	-0.052946	1.000944	-0.023252	-0.024530	-0.039569	47.663	-0.022629	-0.014653	2.700435	NaN
1006	2.000000	1.036855	7.37489e+06	-50439.1	1055.82	-29755.7	0.000000	0.000000	7.038168	9.641262	NaN	0.000000	0.001545	0.001775	28.083	10.6756	0.001741	6133.12	8.934206	-175.31	9.595196	1.036557	0.011381	0.011083	9.641262	6133.12	0.010202	0.009406	1024.96	57775.3
1006	2.000000	1.046774	7.37489e+06	-50439.1	1055.82	-29755.7	0.000000	0.000000	7.048741	25.5444	NaN	0.000000	0.001525	0.001714	28.0832	21.5575	0.001956	11021	8.468830	-178.642	25.4502	1.046449	0.021300	0.020975	25.5444	11021	0.019561	0.021858	1168.67	68107.2
1006	2.000000	1.056725	7.37489e+06	-50439.1	1055.82	-29755.7	0.000000	0.000000	7.059625	48.2475	NaN	0.000000	0.001595	0.001770	28.0833	32.0983	0.001813	17703	4.120741	179.775	46.2402	1.056415	0.031250	0.030941	48.2475	17703	0.029206	0.039115	1233.49	81780.4
1006	2.000000	1.066675	7.37489e+06	-50439.1	1055.82	-29755.7	0.000000	0.000000	7.071291	89.9381	NaN	0.000000	0.001585	0.001744	28.0817	42.8547	0.001800	23814.7	5.041168	176.12	89.5757	1.066502	0.041201	0.041028	89.9381	23814.7	0.038369	0.059881	1501.96	88915.2
1006	2.000000	1.076637	7.37489e+06	-50439.1	1055.82	-29755.7	0.000000	0.000000	7.082975	131.834	NaN	0.000000	0.001545	0.001709	28.082	53.0361	0.001976	26836.2	7.106242	173.659	127.78	1.076388	0.051163	0.050914	131.834	26836.2	0.047479	0.084779	1555.03	84207.5
1006	2.000000	1.086750	7.37489e+06	-50439.1	1055.82	-29755.7	0.000000	0.000000	7.095101	180.793	NaN	0.000000	0.001547	0.001787	28.082	60.8151	0.001806	33669.2	2.410817	176.603	181.339	1.086370	0.061276	0.060896	180.793	33669.2	0.057248	0.116127	1556.86	90269.2
1006	2.000000	1.096583	7.3749e+06	-50439.1	1055.82	-29755.7	0.000000	0.000000	7.107284	237.926	NaN	0.000000	0.001530	0.001746	28.083	70.5397	0.001871	37701.4	2.709859	175.46	233.537	1.096344	0.071109	0.070870	237.926	37701.4	0.066376	0.149657	1589.8	89039.2
1006	2.000000	1.106603	7.3749e+06	-50439.1	1055.82	-29755.7	0.000000	0.000000	7.119457	290.301	NaN	0.000000	0.001557	0.001753	28.0838	79.879	0.001868	42761.9	4.008972	173.16	286.972	1.106427	0.081128	0.080952	290.301	42761.9	0.076037	0.189509	1531.86	89746.1
1006	2.000000	1.116605	7.3749e+06	-50439.1	1055.82	-29755.7	0.000000	0.000000	7.132630	367.411	NaN	0.000000	0.001561	0.001745	28.0827	89.7607	0.001937	46337.6	3.951500	172.811	365.924	1.116320	0.091131	0.090846	367.411	46337.6	0.085184	0.231280	1588.6	88031.5
1006	2.000000	1.126685	7.3749e+06	-50439.1	1055.82	-29755.7	0.000000	0.000000	7.145440	433.789	NaN	0.000000	0.001560	0.001749	28.0827	97.6375	0.001793	54442.6	7.067818	170.086	434.361	1.126207	0.101211	0.100732	433.789	54442.6	0.095235	0.281633	1540.27	93728.3
1006	2.000000	1.133717	7.3749e+06	-50439.1	1055.82	-29755.7	0.000000	0.000000	7.154777	489.827	NaN	0.000000	0.001540	0.001696	28.0814	104.089	0.001712	60813.9	6.854225	168.644	495.081	1.133330	0.108243	0.107856	489.827	60813.9	0.102202	0.319247	1534.32	98336