File: remote_trans/data/nanoindenter/0828-1/data/Data_2025-08-06,11h17m57s/2025-07-22_16-23-58_1_603.txt
2025-07-22, 16:23:58, 1
Index	Phase	Displacement	Time	Pos X	Pos Y	Pos Z	Rot A	Rot B	Piezo Z	Force A	Force B	Gripper	Voltage A	Voltage B	Temperature	Amplitude force	Amplitude pos	Stiffness	Phase shift	Phase excitation	Force A raw	Displacement raw	HMax	HMax raw	Real Force	Real Stiffness	Contact Depth	Area	Hardness	Reduced Mod.
[#]	[#]	[um]	[s]	[um]	[um]	[um]	[m°]	[m°]	[um]	[uN]	[uN]	[V]	[V]	[V]	[°C]	[uN]	[um]	[N/m]	[°]	[°]	[uN]	[um]	[um]	[um]	[uN]	[N/m]	[um]	[um^2]	[MPa]	[MPa]
603	1.000000	0.002191	7.37095e+06	-46939.1	1005.82	-29767.6	0.000000	0.000000	6.002830	0.010283	NaN	0.000000	0.001528	0.001696	28.0823	0.045736	0.000977	46.8143	-123.122	-165.218	-0.028527	0.000910	-1.182102	-1.183383	0.010283	46.8143	-1.182267	-6.356853E+15	-1.617648E-18	NaN
603	1.000000	0.046104	7.37095e+06	-46939.1	1005.82	-29767.6	0.000000	0.000000	6.046742	0.008548	NaN	0.000000	0.001536	0.001702	28.0824	0.115864	0.001930	60.0468	108.667	-168.604	0.000303	0.044768	-1.138190	-1.139525	0.008548	60.0468	-1.138296	-1.636414E+15	-5.223517E-18	NaN
603	1.000000	0.090119	7.37095e+06	-46939.1	1005.82	-29767.6	0.000000	0.000000	6.090760	0.074494	NaN	0.000000	0.001545	0.001718	28.0822	0.025105	0.002034	12.3451	-60.551	-166.575	0.040400	0.088868	-1.094174	-1.095426	0.074494	12.3451	-1.098700	-4.815193E+14	-1.547065E-16	NaN
603	1.000000	0.134115	7.37095e+06	-46939.1	1005.82	-29767.6	0.000000	0.000000	6.134755	0.047504	NaN	0.000000	0.001480	0.001652	28.0808	0.023906	0.002024	11.8118	-35.9892	-166.642	-0.018049	0.132853	-1.050178	-1.051440	0.047504	11.8118	-1.053195	-1.178571E+14	-4.030622E-16	NaN
603	1.000000	0.178168	7.37095e+06	-46939.1	1005.82	-29767.6	0.000000	0.000000	6.178804	-0.050835	NaN	0.000000	0.001468	0.001694	28.081	0.113633	0.002014	56.428	131.051	-166.388	-0.002567	0.176811	-1.006126	-1.007482	-0.050835	56.428	-1.005450	-2.686201E+13	1.892433E-15	NaN
603	1.000000	0.222192	7.37095e+06	-46939.1	1005.82	-29767.6	0.000000	0.000000	6.222830	-0.005274	NaN	0.000000	0.001543	0.001695	28.0812	0.076289	0.001979	38.5556	125.808	-162.903	-0.127417	0.220868	-0.962101	-0.963426	-0.005274	38.5556	-0.961999	-6.979315E+12	7.556464E-16	NaN
603	1.000000	0.266214	7.37095e+06	-46939.1	1005.82	-29767.6	0.000000	0.000000	6.266854	0.040056	NaN	0.000000	0.001501	0.001759	28.0828	0.041526	0.002073	20.031	-61.5937	-165.1	0.076059	0.264848	-0.918079	-0.919445	0.040056	20.031	-0.919579	-1.868607E+12	-2.143634E-14	NaN
603	1.000000	0.310190	7.37095e+06	-46939.1	1005.82	-29767.6	0.000000	0.000000	6.310827	-0.029785	NaN	0.000000	0.001546	0.001735	28.0822	0.153364	0.001953	78.5337	103.8	-162.519	-0.078524	0.308890	-0.874104	-0.875403	-0.029785	78.5337	-0.873819	-4.498948E+11	6.620481E-14	NaN
603	1.000000	0.354255	7.37095e+06	-46939.1	1005.82	-29767.6	0.000000	0.000000	6.354894	0.015919	NaN	0.000000	0.001521	0.001756	28.082	0.056426	0.002073	27.2168	87.5016	-167.271	-0.004812	0.352915	-0.830038	-0.831378	0.015919	27.2168	-0.830477	-1.164798E+11	-1.366671E-13	NaN
603	1.000000	0.398247	7.37095e+06	-46939.1	1005.82	-29767.6	0.000000	0.000000	6.398887	0.031393	NaN	0.000000	0.001637	0.001736	28.0809	0.109906	0.002053	53.5245	-65.2693	-163.381	0.124402	0.396919	-0.786046	-0.787374	0.031393	53.5245	-0.786486	-2.946816E+10	-1.065335E-12	NaN
603	1.000000	0.442275	7.37095e+06	-46939.1	1005.82	-29767.6	0.000000	0.000000	6.442914	0.018976	NaN	0.000000	0.001629	0.001767	28.0809	0.101066	0.002129	47.4742	-97.2406	-163.895	0.026387	0.440953	-0.742018	-0.743340	0.018976	47.4742	-0.742318	-7.389687E+9	-2.567868E-12	NaN
603	1.000000	0.486310	7.37095e+06	-46939.1	1005.82	-29767.6	0.000000	0.000000	6.486949	0.007118	NaN	0.000000	0.001549	0.001760	28.081	0.089365	0.002018	44.2847	11.5093	-163.507	-0.000256	0.484943	-0.697983	-0.699351	0.007118	44.2847	-0.698104	-1.843452E+9	-3.861504E-12	NaN
603	1.000000	0.530325	7.37095e+06	-46939.1	1005.82	-29767.6	0.000000	0.000000	6.530968	0.114707	NaN	0.000000	0.001576	0.001787	28.0821	0.071942	0.002119	33.9517	-142.977	-165.507	0.112006	0.528942	-0.653968	-0.655352	0.114707	33.9517	-0.656502	-4.972184E+8	-2.306977E-10	NaN
603	1.000000	0.574344	7.37095e+06	-46939.1	1005.82	-29767.6	0.000000	0.000000	6.574984	0.059680	NaN	0.000000	0.001535	0.001741	28.0819	0.075271	0.001902	39.5761	-144.214	-166.804	0.036674	0.573021	-0.609949	-0.611272	0.059680	39.5761	-0.611080	-1.182985E+8	-5.044897E-10	NaN
603	1.000000	0.618361	7.37095e+06	-46939.1	1005.82	-29767.6	0.000000	0.000000	6.618998	-0.032907	NaN	0.000000	0.001527	0.001753	28.0821	0.034571	0.001982	17.4392	15.092	-167.677	0.084426	0.617014	-0.565932	-0.567279	-0.032907	17.4392	-0.564517	-2.696792E+7	1.220228E-9	NaN
603	1.000000	0.662384	7.37095e+06	-46939.1	1005.82	-29767.6	0.000000	0.000000	6.663020	-0.062709	NaN	0.000000	0.001580	0.001767	28.0809	0.116281	0.001847	62.9533	-74.2413	-166.842	-0.061803	0.661054	-0.521909	-0.523240	-0.062709	62.9533	-0.521162	-6.75707e+06	9.280537E-9	NaN
603	1.000000	0.706383	7.37095e+06	-46939.1	1005.82	-29767.6	0.000000	0.000000	6.707022	0.024401	NaN	0.000000	0.001531	0.001703	28.0812	0.059718	0.002063	28.946	21.7904	-168.048	0.032341	0.705068	-0.477910	-0.479225	0.024401	28.946	-0.478543	-1.71839e+06	-1.420003E-8	NaN
603	1.000000	0.750384	7.37095e+06	-46939.1	1005.82	-29767.6	0.000000	0.000000	6.751022	0.010727	NaN	0.000000	0.001494	0.001757	28.0809	0.029132	0.002067	14.0929	-100.386	-164.917	-0.075315	0.749107	-0.433910	-0.435186	0.010727	14.0929	-0.434481	-412492	-2.600518E-8	NaN
603	1.000000	0.794418	7.37095e+06	-46939.1	1005.82	-29767.6	0.000000	0.000000	6.795059	0.073292	NaN	0.000000	0.001511	0.001741	28.0822	0.041887	0.001991	21.0331	97.0254	-166.68	0.008858	0.793121	-0.389876	-0.391173	0.073292	21.0331	-0.392489	-104414	-7.019382E-7	NaN
603	1.000000	0.838468	7.37095e+06	-46939.1	1005.82	-29767.6	0.000000	0.000000	6.839106	-0.016826	NaN	0.000000	0.001492	0.001754	28.0821	0.016046	0.002096	7.654090	107.455	-167.672	-0.067402	0.837165	-0.345825	-0.347128	-0.016826	7.654090	-0.344176	-21007.6	8.009328E-7	NaN
603	1.000000	0.882438	7.37095e+06	-46939.1	1005.82	-29767.6	0.000000	0.000000	6.883078	0.053884	NaN	0.000000	0.001501	0.001772	28.0823	0.067136	0.002077	32.3274	-146.853	-165.08	0.043674	0.881143	-0.301855	-0.303151	0.053884	32.3274	-0.303105	-5233.85	-1.029522E-5	NaN
603	1.000000	0.926459	7.37095e+06	-46939.1	1005.82	-29767.6	0.000000	0.000000	6.927098	0.005850	NaN	0.000000	0.001575	0.001780	28.0812	0.011810	0.002015	5.861484	42.2819	-167.225	0.015998	0.925148	-0.257834	-0.259145	0.005850	5.861484	-0.258582	-1114.75	-5.247762E-6	NaN
603	1.000000	0.970482	7.37095e+06	-46939.1	1005.82	-29767.6	0.000000	0.000000	6.971122	0.045554	NaN	0.000000	0.001588	0.001780	28.0816	0.117110	0.002007	58.359	-35.1816	-166.221	0.070261	0.969176	-0.213811	-0.215117	0.045554	58.359	-0.214396	-225.841	-0.000202	NaN
603	1.000000	1.014500	7.37095e+06	-46939.1	1005.82	-29767.6	0.000000	0.000000	7.015141	0.070735	NaN	0.000000	0.001517	0.001817	28.0812	0.082545	0.001951	42.2994	146.1	-166.281	0.046244	1.013216	-0.169793	-0.171077	0.070735	42.2994	-0.171047	-42.8334	-0.001651	NaN
603	1.000000	1.058516	7.37095e+06	-46939.1	1005.82	-29767.6	0.000000	0.000000	7.059158	0.077465	NaN	0.000000	0.001586	0.001821	28.0819	0.042311	0.001957	21.6156	-3.254046	-166.201	0.113298	1.057213	-0.125777	-0.127081	0.077465	21.6156	-0.128465	-7.113955	-0.010889	NaN
603	1.000000	1.102556	7.37095e+06	-46939.1	1005.82	-29767.6	0.000000	0.000000	7.103194	-0.006630	NaN	0.000000	0.001606	0.001829	28.0825	0.064714	0.001973	32.7935	-61.0661	-167.422	-0.053899	1.101261	-0.081737	-0.083032	-0.006630	32.7935	-0.081586	-0.677844	0.009781	NaN
603	1.000000	1.146536	7.37095e+06	-46939.1	1005.82	-29767.6	0.000000	0.000000	7.147175	0.022676	NaN	0.000000	0.001535	0.001865	28.0826	0.095553	0.001950	49.0064	-111.084	-167.647	0.072062	1.145291	-0.037757	-0.039002	0.022676	49.0064	-0.038104	-0.039628	-0.572215	NaN
603	1.000000	1.190435	7.37095e+06	-46939.1	1005.82	-29767.6	0.000000	0.000000	7.191389	7.692265	NaN	0.000000	0.001541	0.001877	28.0829	7.664360	0.001588	4827.34	12.8789	-173.335	6.158059	1.189266	0.006142	0.004973	7.692265	4827.34	0.004946	0.004085	1883.24	69009.2
603	2.000000	1.202047	7.37095e+06	-46939.1	1005.82	-29767.6	0.000000	0.000000	7.203900	29.5579	NaN	0.000000	0.001542	0.001827	28.0813	19.9576	0.001742	11458.4	5.712589	-177.995	28.7863	1.201694	0.017754	0.017401	29.5579	11458.4	0.015819	0.016393	1803.09	81765.1
603	2.000000	1.213026	7.37095e+06	-46939.1	1005.82	-29767.6	0.000000	0.000000	7.215865	53.5328	NaN	0.000000	0.001528	0.001869	28.0817	30.6735	0.001760	17426.8	8.245815	176.075	52.5788	1.212718	0.028733	0.028424	53.5328	17426.8	0.026429	0.033666	1590.1	86774.8
603	2.000000	1.224080	7.37095e+06	-46939.1	1005.82	-29767.6	0.000000	0.000000	7.228470	91.2533	NaN	0.000000	0.001530	0.001807	28.0816	41.8208	0.001714	24403.9	4.816487	177.058	93.1777	1.223657	0.039787	0.039364	91.2533	24403.9	0.036982	0.056462	1616.18	93832.4
603	2.000000	1.235047	7.37095e+06	-46939.1	1005.82	-29767.6	0.000000	0.000000	7.241334	137.393	NaN	0.000000	0.001491	0.001853	28.0831	52.3542	0.001869	28018.4	3.722431	176.919	140.46	1.234704	0.050754	0.050410	137.393	28018.4	0.047076	0.083590	1643.66	88540.2
603	2.000000	1.245959	7.37096e+06	-46939.1	1005.82	-29767.6	0.000000	0.000000	7.254219	185.4	NaN	0.000000	0.001527	0.001873	28.0827	60.642	0.001813	33455.2	5.563728	173.138	183.025	1.245643	0.061666	0.061350	185.4	33455.2	0.057510	0.117030	1584.21	89348.7
603	2.000000	1.256936	7.37096e+06	-46939.1	1005.82	-29767.6	0.000000	0.000000	7.267626	244.512	NaN	0.000000	0.001530	0.001885	28.083	72.119	0.001739	41479.3	5.177900	171.974	243.226	1.256672	0.072642	0.072379	244.512	41479.3	0.068221	0.156927	1558.12	95665.5
603	2.000000	1.268003	7.37096e+06	-46939.1	1005.82	-29767.6	0.000000	0.000000	7.281348	309.091	NaN	0.000000	0.001509	0.001856	28.0814	81.8411	0.001716	47706.1	3.059049	173.739	313.361	1.267543	0.083709	0.083250	309.091	47706.1	0.078850	0.201940	1530.61	96992.1
603	2.000000	1.278873	7.37096e+06	-46939.1	1005.82	-29767.6	0.000000	0.000000	7.295395	386.383	NaN	0.000000	0.001525	0.001837	28.0815	91.9457	0.001796	51206.3	6.493440	169.743	382.245	1.278521	0.094579	0.094227	386.383	51206.3	0.088920	0.249456	1548.9	93669.9
603	2.000000	1.289894	7.37096e+06	-46939.1	1005.82	-29767.6	0.000000	0.000000	7.309683	465.836	NaN	0.000000	0.001535	0.001794	28.0815	100.213	0.001720	58272.8	4.110115	170.849	461.38	1.289669	0.105601	0.105375	465.836	58272.8	0.099605	0.304967	1527.5	96407.8