File: remote_trans/data/nanoindenter/0828-1/data/Data_2025-08-06,11h17m57s/2025-07-22_16-23-58_1_653.txt
2025-07-22, 16:23:58, 1
Index	Phase	Displacement	Time	Pos X	Pos Y	Pos Z	Rot A	Rot B	Piezo Z	Force A	Force B	Gripper	Voltage A	Voltage B	Temperature	Amplitude force	Amplitude pos	Stiffness	Phase shift	Phase excitation	Force A raw	Displacement raw	HMax	HMax raw	Real Force	Real Stiffness	Contact Depth	Area	Hardness	Reduced Mod.
[#]	[#]	[um]	[s]	[um]	[um]	[um]	[m°]	[m°]	[um]	[uN]	[uN]	[V]	[V]	[V]	[°C]	[uN]	[um]	[N/m]	[°]	[°]	[uN]	[um]	[um]	[um]	[uN]	[N/m]	[um]	[um^2]	[MPa]	[MPa]
653	1.000000	0.002981	7.37144e+06	-44439.1	1005.82	-29775.9	0.000000	0.000000	6.002795	0.018589	NaN	0.000000	0.001643	0.001637	28.0845	0.093504	0.000889	105.222	137.984	-159.772	0.036407	0.001736	-1.044632	-1.045877	0.018589	105.222	-1.044765	-9.078914E+13	-2.047472E-16	NaN
653	1.000000	0.042952	7.37144e+06	-44439.1	1005.82	-29775.9	0.000000	0.000000	6.042769	0.110897	NaN	0.000000	0.001615	0.001642	28.0846	0.070575	0.002074	34.032	-19.3571	-167.939	0.107202	0.041662	-1.004662	-1.005951	0.110897	34.032	-1.007106	-2.827643E+13	-3.921893E-15	NaN
653	1.000000	0.082934	7.37144e+06	-44439.1	1005.82	-29775.9	0.000000	0.000000	6.082748	0.038152	NaN	0.000000	0.001565	0.001619	28.0834	0.037784	0.002045	18.4764	-114.857	-165.696	-0.033903	0.081647	-0.964680	-0.965967	0.038152	18.4764	-0.966229	-7.958548E+12	-4.793808E-15	NaN
653	1.000000	0.122951	7.37144e+06	-44439.1	1005.82	-29775.9	0.000000	0.000000	6.122765	0.038084	NaN	0.000000	0.001645	0.001666	28.0836	0.067894	0.001983	34.2382	-175.347	-164.38	0.086129	0.121676	-0.924663	-0.925937	0.038084	34.2382	-0.925497	-2.246022E+12	-1.695638E-14	NaN
653	1.000000	0.162962	7.37144e+06	-44439.1	1005.82	-29775.9	0.000000	0.000000	6.162776	0.032506	NaN	0.000000	0.001623	0.001657	28.0837	0.082491	0.001857	44.42	-23.6951	-166.171	0.111199	0.161637	-0.884651	-0.885976	0.032506	44.42	-0.885200	-6.412491E+11	-5.069099E-14	NaN
653	1.000000	0.203022	7.37144e+06	-44439.1	1005.82	-29775.9	0.000000	0.000000	6.202835	0.002036	NaN	0.000000	0.001600	0.001655	28.0846	0.068372	0.002077	32.9159	-24.7126	-162.027	0.062550	0.201729	-0.844591	-0.845885	0.002036	32.9159	-0.844638	-1.811825E+11	-1.123786E-14	NaN
653	1.000000	0.243026	7.37144e+06	-44439.1	1005.82	-29775.9	0.000000	0.000000	6.242841	0.055160	NaN	0.000000	0.001616	0.001633	28.0846	0.069361	0.001896	36.591	-27.3814	-164.452	0.054372	0.241707	-0.804588	-0.805907	0.055160	36.591	-0.805718	-5.376191E+10	-1.026000E-12	NaN
653	1.000000	0.283055	7.37144e+06	-44439.1	1005.82	-29775.9	0.000000	0.000000	6.282870	0.062819	NaN	0.000000	0.001652	0.001605	28.0843	0.098096	0.002004	48.9588	-89.9564	-163.84	0.049889	0.281717	-0.764559	-0.765897	0.062819	48.9588	-0.765521	-1.528973E+10	-4.108574E-12	NaN
653	1.000000	0.323052	7.37144e+06	-44439.1	1005.82	-29775.9	0.000000	0.000000	6.322867	0.035005	NaN	0.000000	0.001668	0.001615	28.0845	0.088650	0.002012	44.0678	174.032	-164.054	0.041807	0.321713	-0.724561	-0.725900	0.035005	44.0678	-0.725157	-4.313122E+9	-8.115978E-12	NaN
653	1.000000	0.363083	7.37144e+06	-44439.1	1005.82	-29775.9	0.000000	0.000000	6.362899	0.077264	NaN	0.000000	0.001587	0.001607	28.0836	0.076953	0.002025	38.0087	-65.3235	-164.798	0.057926	0.361794	-0.684530	-0.685820	0.077264	38.0087	-0.686055	-1.261809E+9	-6.123268E-11	NaN
653	1.000000	0.403084	7.37144e+06	-44439.1	1005.82	-29775.9	0.000000	0.000000	6.402897	0.018519	NaN	0.000000	0.001578	0.001681	28.0831	0.127253	0.001904	66.8269	-120.701	-168.668	-0.009625	0.401763	-0.644530	-0.645851	0.018519	66.8269	-0.644738	-3.429904E+8	-5.399258E-11	NaN
653	1.000000	0.443054	7.37144e+06	-44439.1	1005.82	-29775.9	0.000000	0.000000	6.442867	-0.007516	NaN	0.000000	0.001611	0.001645	28.0835	0.052763	0.001987	26.5488	38.6865	-162.626	0.066577	0.441771	-0.604559	-0.605843	-0.007516	26.5488	-0.604347	-9.556899E+7	7.864123E-11	NaN
653	1.000000	0.483127	7.37144e+06	-44439.1	1005.82	-29775.9	0.000000	0.000000	6.482942	0.058870	NaN	0.000000	0.001572	0.001678	28.0845	0.102022	0.001895	53.8328	98.4683	-164.829	-0.010752	0.481806	-0.564487	-0.565808	0.058870	53.8328	-0.565307	-2.765456E+7	-2.128750E-9	NaN
653	1.000000	0.523136	7.37144e+06	-44439.1	1005.82	-29775.9	0.000000	0.000000	6.522949	-0.003949	NaN	0.000000	0.001612	0.001645	28.0844	0.074969	0.002099	35.721	-78.3874	-162.923	0.007790	0.521879	-0.524478	-0.525734	-0.003949	35.721	-0.524395	-7.49372e+06	5.270020E-10	NaN
653	1.000000	0.563151	7.37144e+06	-44439.1	1005.82	-29775.9	0.000000	0.000000	6.562962	-0.043574	NaN	0.000000	0.001573	0.001619	28.0846	0.070204	0.001998	35.1385	-85.7363	-166.762	0.069821	0.561825	-0.484463	-0.485789	-0.043574	35.1385	-0.483533	-2.01822e+06	2.159058E-8	NaN
653	1.000000	0.603175	7.37144e+06	-44439.1	1005.82	-29775.9	0.000000	0.000000	6.602989	0.035290	NaN	0.000000	0.001546	0.001712	28.0831	0.076329	0.001997	38.2176	60.2176	-161.979	0.074850	0.601858	-0.444439	-0.445756	0.035290	38.2176	-0.445131	-583096	-6.052144E-8	NaN
653	1.000000	0.643180	7.37144e+06	-44439.1	1005.82	-29775.9	0.000000	0.000000	6.642994	0.039807	NaN	0.000000	0.001682	0.001665	28.083	0.145711	0.002023	72.0241	-5.206183	-163.825	0.066509	0.641848	-0.404434	-0.405766	0.039807	72.0241	-0.404848	-156707	-2.540241E-7	NaN
653	1.000000	0.683201	7.37144e+06	-44439.1	1005.82	-29775.9	0.000000	0.000000	6.683014	-0.011108	NaN	0.000000	0.001682	0.001688	28.0831	0.110424	0.001879	58.781	-117.331	-162.837	0.037584	0.681897	-0.364412	-0.365717	-0.011108	58.781	-0.364270	-41070	2.704609E-7	NaN
653	1.000000	0.723240	7.37144e+06	-44439.1	1005.82	-29775.9	0.000000	0.000000	6.723054	0.020377	NaN	0.000000	0.001574	0.001767	28.0831	0.046160	0.002049	22.523	91.4279	-165.089	-0.016878	0.721918	-0.324374	-0.325695	0.020377	22.523	-0.325052	-11038.3	-1.846009E-6	NaN
653	1.000000	0.763221	7.37144e+06	-44439.1	1005.82	-29775.9	0.000000	0.000000	6.763037	0.075560	NaN	0.000000	0.001577	0.001675	28.0842	0.066368	0.001982	33.4937	-166.857	-163.911	0.053838	0.761917	-0.284392	-0.285697	0.075560	33.4937	-0.286084	-2914.49	-2.592581E-5	NaN
653	1.000000	0.803262	7.37144e+06	-44439.1	1005.82	-29775.9	0.000000	0.000000	6.803078	0.074005	NaN	0.000000	0.001606	0.001662	28.0843	0.077232	0.002071	37.2913	-66.1014	-163.18	0.146672	0.801904	-0.244352	-0.245709	0.074005	37.2913	-0.245840	-708.766	-0.000104	NaN
653	1.000000	0.843245	7.37144e+06	-44439.1	1005.82	-29775.9	0.000000	0.000000	6.843060	0.066224	NaN	0.000000	0.001614	0.001720	28.0844	0.091019	0.001898	47.9597	12.8905	-164.294	0.027465	0.841935	-0.204369	-0.205678	0.066224	47.9597	-0.205404	-161.492	-0.000410	NaN
653	1.000000	0.883289	7.37144e+06	-44439.1	1005.82	-29775.9	0.000000	0.000000	6.883104	0.053726	NaN	0.000000	0.001605	0.001683	28.0832	0.091344	0.002050	44.557	-174.623	-165.946	0.104720	0.881957	-0.164325	-0.165657	0.053726	44.557	-0.165229	-33.9098	-0.001584	NaN
653	1.000000	0.923294	7.37144e+06	-44439.1	1005.82	-29775.9	0.000000	0.000000	6.923108	0.039496	NaN	0.000000	0.001599	0.001668	28.0831	0.084440	0.002117	39.8776	-9.860769	-160.998	0.095809	0.921985	-0.124320	-0.125628	0.039496	39.8776	-0.125062	-6.098586	-0.006476	NaN
653	1.000000	0.963322	7.37144e+06	-44439.1	1005.82	-29775.9	0.000000	0.000000	6.963136	0.036287	NaN	0.000000	0.001588	0.001692	28.0829	0.053413	0.001948	27.4191	28.9935	-163.848	0.030057	0.962012	-0.084292	-0.085601	0.036287	27.4191	-0.085285	-0.834758	-0.043471	NaN
653	1.000000	1.003335	7.37144e+06	-44439.1	1005.82	-29775.9	0.000000	0.000000	7.003147	-0.002784	NaN	0.000000	0.001584	0.001660	28.0829	0.062955	0.002007	31.3689	-54.5138	-162.813	0.024043	1.001996	-0.044279	-0.045617	-0.002784	31.3689	-0.044212	-0.060801	0.045789	NaN
653	1.000000	1.043332	7.37144e+06	-44439.1	1005.82	-29775.9	0.000000	0.000000	7.043145	0.017517	NaN	0.000000	0.001588	0.001705	28.0845	0.130823	0.001798	72.7607	107.656	-160.784	0.152066	1.042013	-0.004282	-0.005601	0.017517	72.7607	-0.004463	-0.003076	-5.694316	NaN
653	2.000000	1.061936	7.37144e+06	-44439.1	1005.82	-29775.9	0.000000	0.000000	7.062506	18.4181	NaN	0.000000	0.001599	0.001695	28.0849	15.3533	0.001760	8723.64	3.118156	-171.976	17.488	1.061659	0.014323	0.014045	18.4181	8723.64	0.012739	0.012388	1486.82	71610.6
653	2.000000	1.071902	7.37144e+06	-44439.1	1005.82	-29775.9	0.000000	0.000000	7.073310	38.8053	NaN	0.000000	0.001642	0.001668	28.0842	25.5406	0.001817	14060	2.895819	-176.129	37.7108	1.071641	0.024288	0.024028	38.8053	14060	0.022218	0.026148	1484.05	79439.7
653	2.000000	1.081853	7.37144e+06	-44439.1	1005.82	-29775.9	0.000000	0.000000	7.084672	73.1232	NaN	0.000000	0.001636	0.001678	28.0831	34.7647	0.001800	19314.2	2.528855	-177.631	70.5505	1.081509	0.034240	0.033896	73.1232	19314.2	0.031400	0.043696	1673.47	84417.2
653	2.000000	1.091797	7.37144e+06	-44439.1	1005.82	-29775.9	0.000000	0.000000	7.096287	113.777	NaN	0.000000	0.001582	0.001700	28.0829	43.2899	0.001845	23464.5	1.659726	-178.329	111.245	1.091532	0.044184	0.043919	113.777	23464.5	0.040547	0.065450	1738.37	83797.2
653	2.000000	1.101826	7.37144e+06	-44439.1	1005.82	-29775.9	0.000000	0.000000	7.108063	156.29	NaN	0.000000	0.001619	0.001710	28.0829	51.7332	0.001770	29224.8	3.195308	178.332	154.414	1.101587	0.054213	0.053974	156.29	29224.8	0.050202	0.093037	1679.86	87537.9
653	2.000000	1.111789	7.37144e+06	-44439.1	1005.82	-29775.9	0.000000	0.000000	7.120241	210.165	NaN	0.000000	0.001538	0.001699	28.0844	61.2227	0.001840	33274.7	2.892470	177.247	207.418	1.111576	0.064176	0.063962	210.165	33274.7	0.059439	0.123804	1697.56	86401.3
653	2.000000	1.121763	7.37144e+06	-44439.1	1005.82	-29775.9	0.000000	0.000000	7.132892	275.309	NaN	0.000000	0.001644	0.001686	28.0843	69.5069	0.001791	38807.7	1.806169	177.968	270.149	1.121425	0.074149	0.073811	275.309	38807.7	0.068828	0.159354	1727.65	88819.7
653	2.000000	1.131763	7.37144e+06	-44439.1	1005.82	-29775.9	0.000000	0.000000	7.145506	338.901	NaN	0.000000	0.001584	0.001729	28.0842	80.1872	0.001790	44809.7	5.212624	173.5	335.571	1.131457	0.084149	0.083843	338.901	44809.7	0.078477	0.200269	1692.23	91482.5
653	2.000000	1.141815	7.37144e+06	-44439.1	1005.82	-29775.9	0.000000	0.000000	7.158483	410.052	NaN	0.000000	0.001582	0.001678	28.0841	89.6295	0.001762	50853.6	4.234547	172.471	409.202	1.141695	0.094201	0.094082	410.052	50853.6	0.088154	0.245676	1669.08	93737.6
653	2.000000	1.151879	7.37144e+06	-44439.1	1005.82	-29775.9	0.000000	0.000000	7.171729	487.48	NaN	0.000000	0.001613	0.001681	28.0829	98.5986	0.001783	55305.5	0.394905	176.424	491.058	1.151630	0.104265	0.104016	487.48	55305.5	0.097654	0.294445	1655.59	93119.4
653	2.000000	1.153313	7.37144e+06	-44439.1	1005.82	-29775.9	0.000000	0.000000	7.174003	507.897	NaN	0.000000	0.001609	0.001719	28.0827	100.084	0.001797	55702.2	8.376370	-10.7918	507.977	1.152825	0.105700	0.105211	507.897	55702.2	0.098861	0.300933	1687.74	92770.6