File: remote_trans/data/nanoindenter/0828-1/data/Data_2025-08-06,11h17m57s/2025-07-22_16-23-58_1_237.txt
2025-07-22, 16:23:58, 1
Index	Phase	Displacement	Time	Pos X	Pos Y	Pos Z	Rot A	Rot B	Piezo Z	Force A	Force B	Gripper	Voltage A	Voltage B	Temperature	Amplitude force	Amplitude pos	Stiffness	Phase shift	Phase excitation	Force A raw	Displacement raw	HMax	HMax raw	Real Force	Real Stiffness	Contact Depth	Area	Hardness	Reduced Mod.
[#]	[#]	[um]	[s]	[um]	[um]	[um]	[m°]	[m°]	[um]	[uN]	[uN]	[V]	[V]	[V]	[°C]	[uN]	[um]	[N/m]	[°]	[°]	[uN]	[um]	[um]	[um]	[uN]	[N/m]	[um]	[um^2]	[MPa]	[MPa]
237	1.000000	0.002207	7.36736e+06	-50489.1	955.818	-29755.6	0.000000	0.000000	6.002788	-0.042096	NaN	0.000000	0.001571	0.001702	28.0788	0.084268	0.001014	83.1281	-70.1072	-164.715	-0.053178	0.000926	-1.252307	-1.253588	-0.042096	83.1281	-1.251927	-5.441247E+16	7.736445E-19	NaN
237	1.000000	0.048172	7.36736e+06	-50489.1	955.818	-29755.6	0.000000	0.000000	6.048753	-0.042532	NaN	0.000000	0.001569	0.001668	28.0785	0.019735	0.001923	10.2628	-177.191	15.1051	0.082601	0.046786	-1.206342	-1.207728	-0.042532	10.2628	-1.203234	-1.213521E+16	3.504884E-18	NaN
237	1.000000	0.094191	7.36736e+06	-50489.1	955.819	-29755.6	0.000000	0.000000	6.094774	0.010819	NaN	0.000000	0.001571	0.001661	28.0786	0.058135	0.001962	29.6258	-117.384	-164.575	0.066947	0.092871	-1.160323	-1.161643	0.010819	29.6258	-1.160597	-3.257389E+15	-3.321399E-18	NaN
237	1.000000	0.140188	7.36736e+06	-50489.1	955.818	-29755.7	0.000000	0.000000	6.140771	0.021215	NaN	0.000000	0.001537	0.001673	28.0797	0.020616	0.001897	10.8665	97.9027	13.1916	0.055198	0.138845	-1.114326	-1.115669	0.021215	10.8665	-1.115791	-8.165691E+14	-2.598014E-17	NaN
237	1.000000	0.186210	7.36736e+06	-50489.1	955.819	-29755.7	0.000000	0.000000	6.186789	-0.081922	NaN	0.000000	0.001540	0.001658	28.0797	0.057110	0.001984	28.7883	-32.9444	-165.698	0.039852	0.184972	-1.068304	-1.069542	-0.081922	28.7883	-1.066170	-1.760859E+14	4.652402E-16	NaN
237	1.000000	0.232236	7.36736e+06	-50489.1	955.818	-29755.7	0.000000	0.000000	6.232817	-0.039814	NaN	0.000000	0.001551	0.001628	28.0795	0.046175	0.002082	22.1768	-24.1621	12.8872	-0.028481	0.230863	-1.022278	-1.023651	-0.039814	22.1768	-1.020931	-4.339917E+13	9.173863E-16	NaN
237	1.000000	0.278250	7.36736e+06	-50489.1	955.818	-29755.7	0.000000	0.000000	6.278830	-0.037232	NaN	0.000000	0.001653	0.001617	28.0785	0.042112	0.001923	21.9047	-128.282	-169.432	-0.009903	0.276948	-0.976264	-0.977566	-0.037232	21.9047	-0.974990	-1.044485E+13	3.564594E-15	NaN
237	1.000000	0.324294	7.36736e+06	-50489.1	955.819	-29755.7	0.000000	0.000000	6.324875	-0.031828	NaN	0.000000	0.001583	0.001626	28.0787	0.123904	0.002128	58.2272	43.038	16.8644	-0.069747	0.322900	-0.930220	-0.931614	-0.031828	58.2272	-0.929810	-2.568202E+12	1.239308E-14	NaN
237	1.000000	0.370315	7.36737e+06	-50489.1	955.818	-29755.7	0.000000	0.000000	6.370897	0.013899	NaN	0.000000	0.001584	0.001631	28.0787	0.050132	0.001950	25.7051	-53.3719	-167.814	0.042001	0.369021	-0.884199	-0.885493	0.013899	25.7051	-0.884605	-6.294734E+11	-2.208002E-14	NaN
237	1.000000	0.416349	7.36737e+06	-50489.1	955.819	-29755.7	0.000000	0.000000	6.416928	-0.094382	NaN	0.000000	0.001571	0.001659	28.0798	0.115027	0.002069	55.5974	-36.6822	14.3793	-0.027661	0.414988	-0.838165	-0.839526	-0.094382	55.5974	-0.836892	-1.422913E+11	6.633032E-13	NaN
237	1.000000	0.462324	7.36737e+06	-50489.1	955.818	-29755.7	0.000000	0.000000	6.462906	0.004041	NaN	0.000000	0.001554	0.001647	28.0797	0.112999	0.002093	53.9834	145.767	-166.672	0.012197	0.461096	-0.792190	-0.793418	0.004041	53.9834	-0.792246	-3.528489E+10	-1.145331E-13	NaN
237	1.000000	0.508335	7.36737e+06	-50489.1	955.819	-29755.7	0.000000	0.000000	6.508920	0.049678	NaN	0.000000	0.001565	0.001670	28.0802	0.053018	0.002096	25.2935	118.156	11.1082	0.176024	0.507030	-0.746179	-0.747484	0.049678	25.2935	-0.747652	-8.734746E+9	-5.687376E-12	NaN
237	1.000000	0.554375	7.36737e+06	-50489.1	955.818	-29755.7	0.000000	0.000000	6.554958	0.020140	NaN	0.000000	0.001572	0.001660	28.0789	0.073597	0.001874	39.2803	105.723	-167.845	0.015134	0.553104	-0.700139	-0.701410	0.020140	39.2803	-0.700524	-1.989220E+9	-1.012458E-11	NaN
237	1.000000	0.600391	7.36737e+06	-50489.1	955.818	-29755.7	0.000000	0.000000	6.600970	-0.071422	NaN	0.000000	0.001600	0.001658	28.079	0.026484	0.001888	14.0257	18.7293	15.0795	-0.046554	0.599065	-0.654123	-0.655449	-0.071422	14.0257	-0.650304	-4.088891E+8	1.746731E-10	NaN
237	1.000000	0.646395	7.36737e+06	-50489.1	955.818	-29755.7	0.000000	0.000000	6.646976	-0.031231	NaN	0.000000	0.001568	0.001615	28.0792	0.052307	0.001948	26.8518	-55.5672	-163.613	-0.031756	0.645168	-0.608119	-0.609346	-0.031231	26.8518	-0.607247	-1.047691E+8	2.980910E-10	NaN
237	1.000000	0.692430	7.36737e+06	-50489.1	955.819	-29755.7	0.000000	0.000000	6.693011	-0.029028	NaN	0.000000	0.001610	0.001641	28.0803	0.079993	0.001969	40.6264	-108.739	10.6876	0.027837	0.691071	-0.562084	-0.563443	-0.029028	40.6264	-0.561548	-2.453513E+7	1.183126E-9	NaN
237	1.000000	0.738457	7.36737e+06	-50489.1	955.817	-29755.7	0.000000	0.000000	6.739038	-0.019006	NaN	0.000000	0.001573	0.001651	28.0801	0.045972	0.001973	23.2983	-103.2	-163.696	0.013825	0.737177	-0.516057	-0.517337	-0.019006	23.2983	-0.515446	-5.62646e+06	3.378003E-9	NaN
237	1.000000	0.784481	7.36737e+06	-50489.1	955.818	-29755.7	0.000000	0.000000	6.785060	-0.080660	NaN	0.000000	0.001534	0.001610	28.0805	0.060111	0.002068	29.0704	5.635852	18.3517	-0.079162	0.783100	-0.470033	-0.471414	-0.080660	29.0704	-0.467952	-1.2209e+06	6.606586E-8	NaN
237	1.000000	0.830486	7.36737e+06	-50489.1	955.819	-29755.7	0.000000	0.000000	6.831066	-0.038145	NaN	0.000000	0.001548	0.001622	28.0791	0.083157	0.001940	42.8595	113.882	-167.658	-0.031680	0.829260	-0.424028	-0.425254	-0.038145	42.8595	-0.423361	-287117	1.328550E-7	NaN
237	1.000000	0.876522	7.36737e+06	-50489.1	955.819	-29755.7	0.000000	0.000000	6.877101	-0.071840	NaN	0.000000	0.001541	0.001641	28.0791	0.044567	0.002086	21.3685	-71.7425	17.742	-0.027936	0.875179	-0.377992	-0.379335	-0.071840	21.3685	-0.375471	-59543.8	1.206508E-6	NaN
237	1.000000	0.922526	7.36737e+06	-50489.1	955.82	-29755.7	0.000000	0.000000	6.923112	0.068316	NaN	0.000000	0.001550	0.001594	28.0794	0.045324	0.002061	21.9943	-97.1162	-163.75	0.009772	0.921249	-0.331988	-0.333265	0.068316	21.9943	-0.334317	-15087.2	-4.528070E-6	NaN
237	1.000000	0.968541	7.36737e+06	-50489.1	955.818	-29755.7	0.000000	0.000000	6.969125	0.023088	NaN	0.000000	0.001531	0.001652	28.0805	0.079784	0.002021	39.4689	131.891	15.2358	0.020127	0.967229	-0.285973	-0.287285	0.023088	39.4689	-0.286411	-2947.62	-7.832658E-6	NaN
237	1.000000	1.014571	7.36737e+06	-50489.1	955.819	-29755.7	0.000000	0.000000	7.015151	-0.064142	NaN	0.000000	0.001596	0.001639	28.0807	0.081020	0.001850	43.8045	-120.173	-166.078	-0.142043	1.013220	-0.239943	-0.241294	-0.064142	43.8045	-0.238845	-551.44	0.000116	NaN
237	1.000000	1.060594	7.36737e+06	-50489.1	955.818	-29755.7	0.000000	0.000000	7.061172	-0.111874	NaN	0.000000	0.001537	0.001653	28.0803	0.014633	0.001981	7.385005	-93.8932	15.4835	-0.185934	1.059212	-0.193920	-0.195302	-0.111874	7.385005	-0.182558	-67.4353	0.001659	NaN
237	1.000000	1.106614	7.36737e+06	-50489.1	955.819	-29755.7	0.000000	0.000000	7.107196	-0.009979	NaN	0.000000	0.001560	0.001672	28.0791	0.075785	0.002019	37.5305	162.809	-165.575	-0.106038	1.105283	-0.147900	-0.149231	-0.009979	37.5305	-0.147701	-16.4411	0.000607	NaN
237	1.000000	1.152626	7.36737e+06	-50489.1	955.819	-29755.7	0.000000	0.000000	7.153209	0.006440	NaN	0.000000	0.001561	0.001669	28.0791	0.126328	0.002090	60.4413	89.5734	12.2753	0.054974	1.151248	-0.101888	-0.103266	0.006440	60.4413	-0.101968	-2.019118	-0.003190	NaN
237	1.000000	1.198658	7.36737e+06	-50489.1	955.819	-29755.7	0.000000	0.000000	7.199241	0.011809	NaN	0.000000	0.001521	0.001625	28.0791	0.093143	0.002112	44.0939	29.6802	-165.851	-0.053422	1.197349	-0.055856	-0.057165	0.011809	44.0939	-0.056057	-0.138350	-0.085356	NaN
237	1.000000	1.244676	7.36737e+06	-50489.1	955.819	-29755.7	0.000000	0.000000	7.245256	-0.071415	NaN	0.000000	0.001593	0.001624	28.0801	0.045904	0.001938	23.6886	-43.1048	13.7764	-0.039565	1.243293	-0.009838	-0.011221	-0.071415	23.6886	-0.007577	-0.004983	14.3326	NaN
237	2.000000	1.271110	7.36737e+06	-50489.1	955.82	-29755.7	0.000000	0.000000	7.272604	22.1782	NaN	0.000000	0.001558	0.001609	28.0802	16.8083	0.001676	10027.8	6.250192	-178.412	20.8218	1.270774	0.016596	0.016260	22.1782	10027.8	0.014937	0.015202	1458.93	74307.6
237	2.000000	1.282573	7.36737e+06	-50489.1	955.819	-29755.7	0.000000	0.000000	7.285405	54.699	NaN	0.000000	0.001563	0.001665	28.0804	29.3264	0.001812	16187.3	0.865658	3.908303	52.225	1.282216	0.028059	0.027702	54.699	16187.3	0.025525	0.031978	1710.53	82703.1
237	2.000000	1.294045	7.36737e+06	-50489.1	955.819	-29755.7	0.000000	0.000000	7.298471	93.4757	NaN	0.000000	0.001555	0.001651	28.0792	40.5684	0.001827	22199.8	7.555889	175.034	93.164	1.293753	0.039531	0.039239	93.4757	22199.8	0.036373	0.054990	1699.85	86492.7
237	2.000000	1.305543	7.36737e+06	-50489.1	955.819	-29755.7	0.000000	0.000000	7.312179	147.225	NaN	0.000000	0.001557	0.001704	28.0791	51.9932	0.001812	28692.5	7.752354	-7.655517	146.478	1.305149	0.051029	0.050635	147.225	28692.5	0.047181	0.083898	1754.81	90503.4
237	2.000000	1.316929	7.36737e+06	-50489.1	955.819	-29755.7	0.000000	0.000000	7.326042	207.438	NaN	0.000000	0.001570	0.001646	28.0791	63.1967	0.001815	34812.2	5.414945	173.539	203.703	1.316781	0.062415	0.062267	207.438	34812.2	0.057946	0.118546	1749.86	92376.5
237	2.000000	1.328472	7.36737e+06	-50489.1	955.818	-29755.7	0.000000	0.000000	7.340645	281.854	NaN	0.000000	0.001580	0.001638	28.0808	74.7479	0.001771	42200.4	3.647853	-5.962029	279.723	1.328300	0.073958	0.073786	281.854	42200.4	0.068949	0.159840	1763.35	96437.8
237	2.000000	1.339967	7.36737e+06	-50489.1	955.82	-29755.7	0.000000	0.000000	7.355578	365.47	NaN	0.000000	0.001644	0.001636	28.0805	84.5316	0.001796	47053.9	6.745134	169.677	364.503	1.339601	0.085453	0.085087	365.47	47053.9	0.079628	0.205441	1778.95	94847.3
237	2.000000	1.351397	7.36737e+06	-50489.1	955.818	-29755.7	0.000000	0.000000	7.370830	458.403	NaN	0.000000	0.001614	0.001631	28.0803	92.8753	0.001682	55214.9	2.854221	-6.723673	450.513	1.351119	0.096883	0.096605	458.403	55214.9	0.090657	0.258122	1775.91	99292.6
237	2.000000	1.362832	7.36737e+06	-50489.1	955.82	-29755.7	0.000000	0.000000	7.386365	558.127	NaN	0.000000	0.001588	0.001658	28.0793	104.465	0.001768	59077.4	4.031947	171.109	549.924	1.362582	0.108318	0.108068	558.127	59077.4	0.101232	0.313877	1778.17	96341.7