File: remote_trans/data/nanoindenter/0828-1/data/Data_2025-08-06,11h17m57s/2025-07-22_16-23-58_1_672.txt
2025-07-22, 16:23:58, 1
Index	Phase	Displacement	Time	Pos X	Pos Y	Pos Z	Rot A	Rot B	Piezo Z	Force A	Force B	Gripper	Voltage A	Voltage B	Temperature	Amplitude force	Amplitude pos	Stiffness	Phase shift	Phase excitation	Force A raw	Displacement raw	HMax	HMax raw	Real Force	Real Stiffness	Contact Depth	Area	Hardness	Reduced Mod.
[#]	[#]	[um]	[s]	[um]	[um]	[um]	[m°]	[m°]	[um]	[uN]	[uN]	[V]	[V]	[V]	[°C]	[uN]	[um]	[N/m]	[°]	[°]	[uN]	[um]	[um]	[um]	[uN]	[N/m]	[um]	[um^2]	[MPa]	[MPa]
672	1.000000	0.001910	7.37162e+06	-43489.1	1005.82	-29779	0.000000	0.000000	6.002831	0.094307	NaN	0.000000	0.001618	0.001708	28.0808	0.061457	0.001001	61.388	-99.3938	-165.206	0.032736	0.000625	-1.007248	-1.008533	0.094307	61.388	-1.008400	-2.943381E+13	-3.204031E-15	NaN
672	1.000000	0.039817	7.37162e+06	-43489.1	1005.82	-29779	0.000000	0.000000	6.040733	-0.031474	NaN	0.000000	0.001626	0.001708	28.0821	0.091987	0.002012	45.7178	-120.398	15.425	0.026733	0.038465	-0.969341	-0.970693	-0.031474	45.7178	-0.968824	-8.626176E+12	3.648714E-15	NaN
672	1.000000	0.077835	7.37162e+06	-43489.1	1005.82	-29779	0.000000	0.000000	6.078753	0.028785	NaN	0.000000	0.001559	0.001664	28.0822	0.060120	0.002107	28.5329	-9.378471	-166.397	0.068977	0.076543	-0.931323	-0.932615	0.028785	28.5329	-0.932079	-2.755876E+12	-1.044482E-14	NaN
672	1.000000	0.115876	7.37162e+06	-43489.1	1005.82	-29779	0.000000	0.000000	6.116793	-0.012640	NaN	0.000000	0.001641	0.001714	28.0832	0.114432	0.001956	58.5081	-95.6391	14.3466	0.039900	0.114458	-0.893281	-0.894700	-0.012640	58.5081	-0.893119	-8.204946E+11	1.540551E-14	NaN
672	1.000000	0.153863	7.37162e+06	-43489.1	1005.82	-29779	0.000000	0.000000	6.154781	0.015235	NaN	0.000000	0.001586	0.001721	28.0811	0.051068	0.001881	27.1494	-127.556	-165.746	0.021453	0.152555	-0.855295	-0.856602	0.015235	27.1494	-0.855715	-2.559306E+11	-5.952781E-14	NaN
672	1.000000	0.191914	7.37162e+06	-43489.1	1005.82	-29779	0.000000	0.000000	6.192832	0.024434	NaN	0.000000	0.001620	0.001714	28.0808	0.038617	0.002092	18.4616	-169.64	15.1414	-0.024215	0.190554	-0.817244	-0.818604	0.024434	18.4616	-0.818236	-7.948652E+10	-3.073979E-13	NaN
672	1.000000	0.229927	7.37162e+06	-43489.1	1005.82	-29779	0.000000	0.000000	6.230842	-0.046349	NaN	0.000000	0.001621	0.001706	28.0812	0.067041	0.001882	35.618	30.0023	-169.71	0.028609	0.228591	-0.779231	-0.780566	-0.046349	35.618	-0.778255	-2.277807E+10	2.034807E-12	NaN
672	1.000000	0.267935	7.37163e+06	-43489.1	1005.82	-29779	0.000000	0.000000	6.268851	-0.008410	NaN	0.000000	0.001663	0.001736	28.0814	0.081040	0.002020	40.1272	29.4644	11.3427	-0.031329	0.266544	-0.741223	-0.742614	-0.008410	40.1272	-0.741066	-7.105096E+9	1.183643E-12	NaN
672	1.000000	0.305968	7.37163e+06	-43489.1	1005.82	-29779	0.000000	0.000000	6.306886	0.020780	NaN	0.000000	0.001613	0.001696	28.0824	0.057534	0.002092	27.5033	-100.353	-161.785	0.007681	0.304641	-0.703190	-0.704516	0.020780	27.5033	-0.703756	-2.202036E+9	-9.436512E-12	NaN
672	1.000000	0.343935	7.37163e+06	-43489.1	1005.82	-29779	0.000000	0.000000	6.344851	-0.029172	NaN	0.000000	0.001607	0.001684	28.0826	0.052575	0.002008	26.1789	59.8577	13.8548	0.042145	0.342586	-0.665223	-0.666572	-0.029172	26.1789	-0.664387	-6.376017E+8	4.575232E-11	NaN
672	1.000000	0.381958	7.37163e+06	-43489.1	1005.82	-29779	0.000000	0.000000	6.382875	0.008892	NaN	0.000000	0.001573	0.001743	28.0826	0.012073	0.001957	6.168903	61.2525	-161.716	0.027612	0.380645	-0.627200	-0.628513	0.008892	6.168903	-0.628281	-2.038983E+8	-4.361059E-11	NaN
672	1.000000	0.419983	7.37163e+06	-43489.1	1005.82	-29779	0.000000	0.000000	6.420902	0.037453	NaN	0.000000	0.001565	0.001710	28.0829	0.098384	0.001892	52.0089	82.7773	10.6774	-0.008267	0.418658	-0.589174	-0.590500	0.037453	52.0089	-0.589714	-6.007966E+7	-6.233969E-10	NaN
672	1.000000	0.458009	7.37163e+06	-43489.1	1005.82	-29779	0.000000	0.000000	6.458927	0.021763	NaN	0.000000	0.001618	0.001730	28.0815	0.049918	0.002029	24.598	12.3761	-164.308	0.070845	0.456639	-0.551149	-0.552518	0.021763	24.598	-0.551812	-1.799099E+7	-1.209685E-9	NaN
672	1.000000	0.496031	7.37163e+06	-43489.1	1005.82	-29779	0.000000	0.000000	6.496947	-0.017357	NaN	0.000000	0.001663	0.001708	28.0814	0.048737	0.002157	22.5954	-18.5028	15.2228	-0.035593	0.494618	-0.513126	-0.514540	-0.017357	22.5954	-0.512550	-5.12781e+06	3.384865E-9	NaN
672	1.000000	0.534072	7.37163e+06	-43489.1	1005.82	-29779	0.000000	0.000000	6.534988	-0.025079	NaN	0.000000	0.001660	0.001718	28.0817	0.137963	0.001966	70.1666	115.7	-164.561	0.029612	0.532760	-0.475085	-0.476397	-0.025079	70.1666	-0.474817	-1.52384e+06	1.645749E-8	NaN
672	1.000000	0.572054	7.37163e+06	-43489.1	1005.82	-29779	0.000000	0.000000	6.572969	-0.064471	NaN	0.000000	0.001699	0.001764	28.0827	0.047784	0.002125	22.4817	98.6367	11.5036	-0.046431	0.570708	-0.437103	-0.438449	-0.064471	22.4817	-0.434953	-418874	1.539143E-7	NaN
672	1.000000	0.610076	7.37163e+06	-43489.1	1005.82	-29779	0.000000	0.000000	6.610994	0.046388	NaN	0.000000	0.001639	0.001708	28.0825	0.022847	0.002047	11.1631	-78.5929	-163.846	0.090834	0.608756	-0.399082	-0.400402	0.046388	11.1631	-0.402199	-143661	-3.228983E-7	NaN
672	1.000000	0.648096	7.37163e+06	-43489.1	1005.82	-29779	0.000000	0.000000	6.649012	-0.025556	NaN	0.000000	0.001596	0.001728	28.0827	0.055563	0.001812	30.6622	161.148	12.8577	0.034875	0.646705	-0.361062	-0.362453	-0.025556	30.6622	-0.360437	-36153.9	7.068740E-7	NaN
672	1.000000	0.686099	7.37163e+06	-43489.1	1005.82	-29779	0.000000	0.000000	6.687017	0.022247	NaN	0.000000	0.001583	0.001733	28.0835	0.046905	0.002005	23.3947	-163.28	-165.983	-0.038138	0.684817	-0.323058	-0.324340	0.022247	23.3947	-0.323772	-10570.5	-2.104597E-6	NaN
672	1.000000	0.724121	7.37163e+06	-43489.1	1005.82	-29779	0.000000	0.000000	6.725038	0.010070	NaN	0.000000	0.001585	0.001706	28.0814	0.059291	0.001904	31.1329	155.903	13.0494	-0.017689	0.722724	-0.285037	-0.286434	0.010070	31.1329	-0.285280	-2834.45	-3.552843E-6	NaN
672	1.000000	0.762127	7.37163e+06	-43489.1	1005.82	-29779	0.000000	0.000000	6.763042	-0.049448	NaN	0.000000	0.001586	0.001748	28.0815	0.097352	0.002023	48.127	67.7059	-161.783	-0.049879	0.760862	-0.247031	-0.248296	-0.049448	48.127	-0.246260	-719.483	6.872662E-5	NaN
672	1.000000	0.800108	7.37163e+06	-43489.1	1005.82	-29779	0.000000	0.000000	6.801024	-0.027201	NaN	0.000000	0.001624	0.001692	28.0816	0.058137	0.002026	28.6949	-125.848	15.926	-0.024167	0.798732	-0.209049	-0.210426	-0.027201	28.6949	-0.208338	-180.251	0.000151	NaN
672	1.000000	0.838121	7.37163e+06	-43489.1	1005.82	-29779	0.000000	0.000000	6.839036	-0.046215	NaN	0.000000	0.001564	0.001727	28.0828	0.059805	0.002071	28.8807	-18.5459	-165.402	0.001841	0.836886	-0.171037	-0.172271	-0.046215	28.8807	-0.169837	-40.8109	0.001132	NaN
672	1.000000	0.876164	7.37163e+06	-43489.1	1005.82	-29779	0.000000	0.000000	6.877079	-0.038618	NaN	0.000000	0.001565	0.001736	28.0828	0.091590	0.002075	44.133	138.455	14.2513	-0.017857	0.874845	-0.132994	-0.134312	-0.038618	44.133	-0.132337	-8.457252	0.004566	NaN
672	1.000000	0.914182	7.37163e+06	-43489.1	1005.82	-29779	0.000000	0.000000	6.915098	-0.028717	NaN	0.000000	0.001616	0.001724	28.0827	0.051592	0.002009	25.6807	-155.726	-167.189	-0.002863	0.912918	-0.094976	-0.096240	-0.028717	25.6807	-0.094137	-1.348031	0.021303	NaN
672	1.000000	0.952216	7.37163e+06	-43489.1	1005.82	-29779	0.000000	0.000000	6.953132	-0.017697	NaN	0.000000	0.001595	0.001776	28.0828	0.122425	0.001972	62.0929	-83.1515	17.3159	-5.555172E-5	0.950856	-0.056942	-0.058301	-0.017697	62.0929	-0.056728	-0.144767	0.122244	NaN
672	1.000000	0.990220	7.37163e+06	-43489.1	1005.82	-29779	0.000000	0.000000	6.991139	0.042277	NaN	0.000000	0.001585	0.001748	28.0815	0.103452	0.002104	49.1644	-151.016	-167.273	0.021442	0.988886	-0.018937	-0.020271	0.042277	49.1644	-0.019582	-0.012257	-3.449196	NaN
672	2.000000	1.017245	7.37163e+06	-43489.1	1005.82	-29779	0.000000	0.000000	7.018730	13.8194	NaN	0.000000	0.001576	0.001747	28.0814	13.6944	0.001654	8277.33	3.700405	5.730429	12.3301	1.016941	0.008088	0.007783	13.8194	8277.33	0.006835	0.005872	2353.58	98692.3
672	2.000000	1.026741	7.37163e+06	-43489.1	1005.82	-29779	0.000000	0.000000	7.028889	29.9587	NaN	0.000000	0.001553	0.001829	28.0815	23.319	0.001757	13269.7	5.860197	-179.379	28.9186	1.026438	0.017583	0.017280	29.9587	13269.7	0.015890	0.016490	1816.76	94410.6
672	2.000000	1.036250	7.37163e+06	-43489.1	1005.82	-29779	0.000000	0.000000	7.039488	56.4683	NaN	0.000000	0.001576	0.001799	28.0824	31.5794	0.001795	17595.2	4.967484	0.343764	55.7146	1.035830	0.027092	0.026672	56.4683	17595.2	0.024685	0.030446	1854.72	92130.6
672	2.000000	1.045675	7.37163e+06	-43489.1	1005.82	-29779	0.000000	0.000000	7.050248	88.9471	NaN	0.000000	0.001575	0.001772	28.083	41.114	0.001812	22694.9	3.497341	179.309	89.008	1.045417	0.036517	0.036259	88.9471	22694.9	0.033578	0.048487	1834.46	94165.3
672	2.000000	1.055182	7.37163e+06	-43489.1	1005.82	-29779	0.000000	0.000000	7.061531	132.183	NaN	0.000000	0.001567	0.001737	28.083	51.6602	0.001702	30360.7	4.604298	-5.098210	129.406	1.054858	0.046024	0.045700	132.183	30360.7	0.042759	0.071352	1852.55	103844
672	2.000000	1.064617	7.37163e+06	-43489.1	1005.82	-29779	0.000000	0.000000	7.072644	172.972	NaN	0.000000	0.001616	0.001750	28.0827	60.7374	0.001782	34081.2	1.627155	177.412	169.641	1.064395	0.055460	0.055237	172.972	34081.2	0.051653	0.097591	1772.42	99674.3
672	2.000000	1.074198	7.37163e+06	-43489.1	1005.82	-29779	0.000000	0.000000	7.084402	225.946	NaN	0.000000	0.001575	0.001766	28.0815	69.9177	0.001885	37096.2	1.840249	-3.324775	225.42	1.073931	0.065040	0.064774	225.946	37096.2	0.060472	0.127507	1772.02	94915.2
672	2.000000	1.083741	7.37163e+06	-43489.1	1005.82	-29779	0.000000	0.000000	7.096062	277.452	NaN	0.000000	0.001584	0.001788	28.0817	77.3095	0.001920	40267.6	2.420789	175.295	279.792	1.083498	0.074584	0.074340	277.452	40267.6	0.069416	0.161720	1715.63	91484.4
672	2.000000	1.093170	7.37163e+06	-43489.1	1005.82	-29779	0.000000	0.000000	7.108442	349.238	NaN	0.000000	0.001560	0.001749	28.0819	86.7866	0.001860	46655.9	7.362451	-8.902921	349.582	1.092784	0.084013	0.083627	349.238	46655.9	0.078399	0.199921	1746.88	95334.7
672	2.000000	1.102576	7.37163e+06	-43489.1	1005.82	-29779	0.000000	0.000000	7.120787	420.746	NaN	0.000000	0.001647	0.001792	28.0817	93.2704	0.001870	49880.4	1.988260	175.407	415.241	1.102248	0.093419	0.093090	420.746	49880.4	0.087093	0.240485	1749.57	92930.7
672	2.000000	1.112143	7.37163e+06	-43489.1	1005.82	-29779	0.000000	0.000000	7.133297	492.343	NaN	0.000000	0.001623	0.001777	28.0828	102.519	0.001729	59301.9	6.460739	-11.0418	491.82	1.111737	0.102986	0.102579	492.343	59301.9	0.096759	0.289673	1699.65	100667