File: remote_trans/data/nanoindenter/0828-1/data/Data_2025-08-06,11h17m57s/2025-07-22_16-23-58_1_115.txt
2025-07-22, 16:23:58, 1
Index	Phase	Displacement	Time	Pos X	Pos Y	Pos Z	Rot A	Rot B	Piezo Z	Force A	Force B	Gripper	Voltage A	Voltage B	Temperature	Amplitude force	Amplitude pos	Stiffness	Phase shift	Phase excitation	Force A raw	Displacement raw	HMax	HMax raw	Real Force	Real Stiffness	Contact Depth	Area	Hardness	Reduced Mod.
[#]	[#]	[um]	[s]	[um]	[um]	[um]	[m°]	[m°]	[um]	[uN]	[uN]	[V]	[V]	[V]	[°C]	[uN]	[um]	[N/m]	[°]	[°]	[uN]	[um]	[um]	[um]	[uN]	[N/m]	[um]	[um^2]	[MPa]	[MPa]
115	1.000000	0.002519	7.36616e+06	-44389.1	955.818	-29776.4	0.000000	0.000000	6.002777	-0.009975	NaN	0.000000	0.001623	0.001675	28.0883	0.062079	0.000950	65.3306	-12.8997	-159.979	-0.028227	0.001284	-1.158386	-1.159621	-0.009975	65.3306	-1.158271	-3.031759E+15	3.290054E-18	NaN
115	1.000000	0.046486	7.36616e+06	-44389.1	955.818	-29776.4	0.000000	0.000000	6.046746	0.022678	NaN	0.000000	0.001618	0.001718	28.1108	0.033745	0.001922	17.5592	-20.4634	-164.215	-0.033039	0.045212	-1.114418	-1.115693	0.022678	17.5592	-1.115387	-8.064392E+14	-2.812156E-17	NaN
115	1.000000	0.090492	7.36616e+06	-44389.1	955.819	-29776.4	0.000000	0.000000	6.090750	-0.003049	NaN	0.000000	0.001612	0.001686	28.0856	0.157956	0.002027	77.9217	134.502	-165.779	0.065224	0.089224	-1.070413	-1.071680	-0.003049	77.9217	-1.070383	-2.006046E+14	1.519768E-17	NaN
115	1.000000	0.134545	7.36616e+06	-44389.1	955.819	-29776.4	0.000000	0.000000	6.134802	-0.044048	NaN	0.000000	0.001594	0.001669	28.1112	0.027737	0.002000	13.8662	-63.4934	-166.92	-0.063349	0.133205	-1.026360	-1.027700	-0.044048	13.8662	-1.023977	-4.769358E+13	9.235657E-16	NaN
115	1.000000	0.178550	7.36616e+06	-44389.1	955.818	-29776.4	0.000000	0.000000	6.178810	0.034424	NaN	0.000000	0.001610	0.001671	28.0872	0.022654	0.001966	11.5237	146.904	-163.524	-0.046219	0.177271	-0.982355	-0.983634	0.034424	11.5237	-0.984595	-1.407059E+13	-2.446497E-15	NaN
115	1.000000	0.222555	7.36616e+06	-44389.1	955.818	-29776.4	0.000000	0.000000	6.222816	0.045289	NaN	0.000000	0.001650	0.001685	28.1131	0.093065	0.002004	46.4407	153.642	-165.143	-0.009187	0.221230	-0.938350	-0.939675	0.045289	46.4407	-0.939081	-3.425604E+12	-1.322068E-14	NaN
115	1.000000	0.266595	7.36616e+06	-44389.1	955.819	-29776.4	0.000000	0.000000	6.266850	-0.078503	NaN	0.000000	0.001637	0.001687	28.085	0.083656	0.001944	43.0333	-5.482935	-163.009	0.010367	0.265237	-0.894310	-0.895667	-0.078503	43.0333	-0.892942	-8.159744E+11	9.620759E-14	NaN
115	1.000000	0.310628	7.36616e+06	-44389.1	955.819	-29776.4	0.000000	0.000000	6.310891	0.087374	NaN	0.000000	0.001651	0.001738	28.1126	0.085626	0.002002	42.7772	-83.2458	-165.339	0.120374	0.309283	-0.850276	-0.851621	0.087374	42.7772	-0.851808	-2.265806E+11	-3.856202E-13	NaN
115	1.000000	0.354619	7.36616e+06	-44389.1	955.818	-29776.4	0.000000	0.000000	6.354877	-0.016119	NaN	0.000000	0.001596	0.001707	28.0833	0.086591	0.001877	46.1373	-73.5014	-160.526	-0.023614	0.353286	-0.806285	-0.807619	-0.016119	46.1373	-0.806023	-5.427674E+10	2.969741E-13	NaN
115	1.000000	0.398639	7.36616e+06	-44389.1	955.818	-29776.4	0.000000	0.000000	6.398900	0.052031	NaN	0.000000	0.001623	0.001678	28.1135	0.088536	0.001934	45.7787	62.1727	-163.888	0.011719	0.397338	-0.762265	-0.763566	0.052031	45.7787	-0.763117	-1.418105E+10	-3.669044E-12	NaN
115	1.000000	0.442638	7.36616e+06	-44389.1	955.818	-29776.4	0.000000	0.000000	6.442893	-0.084046	NaN	0.000000	0.001607	0.001684	28.0837	0.117799	0.001944	60.6104	159.896	-165.596	-0.119323	0.441381	-0.718267	-0.719523	-0.084046	60.6104	-0.717227	-3.362380E+9	2.499587E-11	NaN
115	1.000000	0.486698	7.36616e+06	-44389.1	955.818	-29776.4	0.000000	0.000000	6.486956	-0.011560	NaN	0.000000	0.001627	0.001694	28.1151	0.055683	0.001888	29.4865	-93.423	-163.783	0.018347	0.485359	-0.674206	-0.675545	-0.011560	29.4865	-0.673912	-8.608572E+8	1.342869E-11	NaN
115	1.000000	0.530670	7.36616e+06	-44389.1	955.818	-29776.4	0.000000	0.000000	6.530930	0.021265	NaN	0.000000	0.001638	0.001709	28.0847	0.029712	0.002009	14.7859	-67.1506	-164.557	0.079736	0.529365	-0.630234	-0.631540	0.021265	14.7859	-0.631313	-2.244152E+8	-9.475665E-11	NaN
115	1.000000	0.574686	7.36616e+06	-44389.1	955.819	-29776.4	0.000000	0.000000	6.574948	0.057757	NaN	0.000000	0.001654	0.001709	28.1139	0.078084	0.002064	37.8274	-17.8262	-164.644	0.094772	0.573413	-0.586218	-0.587491	0.057757	37.8274	-0.587363	-5.575804E+7	-1.035855E-9	NaN
115	1.000000	0.618720	7.36616e+06	-44389.1	955.818	-29776.4	0.000000	0.000000	6.618982	0.056815	NaN	0.000000	0.001600	0.001731	28.0818	0.156524	0.001912	81.8524	-9.671327	-168.284	0.050340	0.617417	-0.542184	-0.543488	0.056815	81.8524	-0.542705	-1.345434E+7	-4.222799E-9	NaN
115	1.000000	0.662768	7.36616e+06	-44389.1	955.818	-29776.4	0.000000	0.000000	6.663027	0.017337	NaN	0.000000	0.001574	0.001730	28.1143	0.086313	0.002046	42.1774	-113.505	-166.296	0.052645	0.661430	-0.498137	-0.499474	0.017337	42.1774	-0.498445	-3.26079e+06	-5.316854E-9	NaN
115	1.000000	0.706763	7.36617e+06	-44389.1	955.818	-29776.4	0.000000	0.000000	6.707024	0.058424	NaN	0.000000	0.001613	0.001714	28.0848	0.045394	0.001987	22.8484	76.3398	-163.462	0.042679	0.705432	-0.454141	-0.455472	0.058424	22.8484	-0.456059	-831027	-7.030368E-8	NaN
115	1.000000	0.750808	7.36617e+06	-44389.1	955.818	-29776.4	0.000000	0.000000	6.751067	0.016591	NaN	0.000000	0.001614	0.001724	28.1156	0.060197	0.001988	30.2763	1.706102	-159.53	0.033282	0.749478	-0.410096	-0.411426	0.016591	30.2763	-0.410507	-188633	-8.795205E-8	NaN
115	1.000000	0.794798	7.36617e+06	-44389.1	955.819	-29776.4	0.000000	0.000000	6.795057	0.001817	NaN	0.000000	0.001646	0.001705	28.0852	0.106333	0.002043	52.0393	-86.0728	-163.81	0.099978	0.793522	-0.366106	-0.367382	0.001817	52.0393	-0.366132	-43690.2	-4.159728E-8	NaN
115	1.000000	0.838838	7.36617e+06	-44389.1	955.818	-29776.4	0.000000	0.000000	6.839098	0.041780	NaN	0.000000	0.001605	0.001733	28.1164	0.069315	0.001980	35.0038	-138.741	-166.011	0.005701	0.837483	-0.322067	-0.323422	0.041780	35.0038	-0.322962	-10284.9	-4.062272E-6	NaN
115	1.000000	0.882819	7.36617e+06	-44389.1	955.818	-29776.4	0.000000	0.000000	6.883080	0.053124	NaN	0.000000	0.001600	0.001721	28.0829	0.069649	0.002043	34.0949	-35.8106	-166.469	0.147672	0.881517	-0.278085	-0.279387	0.053124	34.0949	-0.279254	-2299.92	-2.309800E-5	NaN
115	1.000000	0.926862	7.36617e+06	-44389.1	955.819	-29776.4	0.000000	0.000000	6.927122	0.023398	NaN	0.000000	0.001635	0.001753	28.115	0.142568	0.002032	70.1706	106.75	-162.193	0.003257	0.925518	-0.234042	-0.235386	0.023398	70.1706	-0.234292	-467.88	-5.000822E-5	NaN
115	1.000000	0.970902	7.36617e+06	-44389.1	955.819	-29776.4	0.000000	0.000000	6.971164	0.080443	NaN	0.000000	0.001563	0.001724	28.0823	0.046785	0.002051	22.8086	-104.505	-164.681	0.056294	0.969548	-0.190002	-0.191357	0.080443	22.8086	-0.192647	-99.5758	-0.000808	NaN
115	1.000000	1.014887	7.36617e+06	-44389.1	955.818	-29776.4	0.000000	0.000000	7.015146	-0.017682	NaN	0.000000	0.001585	0.001740	28.1165	0.062224	0.002094	29.7141	43.8641	-164.468	-0.025067	1.013511	-0.146017	-0.147394	-0.017682	29.7141	-0.145571	-15.0216	0.001177	NaN
115	1.000000	1.058925	7.36617e+06	-44389.1	955.818	-29776.4	0.000000	0.000000	7.059184	-0.007419	NaN	0.000000	0.001610	0.001783	28.0846	0.066972	0.002011	33.2997	164.564	-165.33	-0.061433	1.057611	-0.101979	-0.103294	-0.007419	33.2997	-0.101812	-2.003341	0.003703	NaN
115	1.000000	1.102943	7.36617e+06	-44389.1	955.819	-29776.4	0.000000	0.000000	7.103206	0.100206	NaN	0.000000	0.001632	0.001749	28.1175	0.018934	0.001899	9.972125	58.6999	-162.746	0.100200	1.101597	-0.057961	-0.059307	0.100206	9.972125	-0.065498	-0.257250	-0.389527	NaN
115	1.000000	1.146903	7.36617e+06	-44389.1	955.819	-29776.4	0.000000	0.000000	7.147163	0.046616	NaN	0.000000	0.001642	0.001716	28.0821	0.051131	0.002013	25.4019	-107.986	-164.3	0.128174	1.145649	-0.014002	-0.015255	0.046616	25.4019	-0.015378	-0.009503	-4.905327	NaN
115	2.000000	1.179491	7.36617e+06	-44389.1	955.82	-29776.4	0.000000	0.000000	7.180247	12.1015	NaN	0.000000	0.001639	0.001735	28.1176	13.4524	0.001816	7409.69	6.455009	-171.771	12.3046	1.179205	0.018587	0.018301	12.1015	7409.69	0.017362	0.018565	651.845	49685
115	2.000000	1.190416	7.36617e+06	-44389.1	955.82	-29776.4	0.000000	0.000000	7.192111	34.935	NaN	0.000000	0.001609	0.001781	28.0812	25.5601	0.001753	14577.8	7.946651	178.696	33.4837	1.190100	0.029512	0.029196	34.935	14577.8	0.027714	0.036139	966.68	70061.1
115	2.000000	1.201432	7.36617e+06	-44389.1	955.819	-29776.4	0.000000	0.000000	7.204343	64.4969	NaN	0.000000	0.001642	0.001769	28.1189	36.0782	0.001850	19505.8	3.988892	-178.848	65.7728	1.201135	0.040528	0.040231	64.4969	19505.8	0.038048	0.059082	1091.66	73317.9
115	2.000000	1.212382	7.36617e+06	-44389.1	955.819	-29776.4	0.000000	0.000000	7.217278	112.814	NaN	0.000000	0.001635	0.001766	28.0832	47.0722	0.001751	26884.3	4.903665	177.286	113.308	1.212029	0.051477	0.051125	112.814	26884.3	0.048330	0.087322	1291.93	83121.2
115	2.000000	1.223343	7.36617e+06	-44389.1	955.82	-29776.4	0.000000	0.000000	7.230074	157.463	NaN	0.000000	0.001628	0.001734	28.1196	58.027	0.001916	30282.9	6.960831	174.089	156.576	1.223075	0.062438	0.062171	157.463	30282.9	0.058538	0.120620	1305.45	79664.1
115	2.000000	1.234354	7.36617e+06	-44389.1	955.82	-29776.4	0.000000	0.000000	7.243521	216.705	NaN	0.000000	0.001629	0.001725	28.0819	65.9793	0.001829	36073.8	5.949793	174.084	215.578	1.233937	0.073450	0.073032	216.705	36073.8	0.068945	0.159821	1355.92	82442
115	2.000000	1.245289	7.36617e+06	-44389.1	955.82	-29776.4	0.000000	0.000000	7.256932	276.946	NaN	0.000000	0.001597	0.001749	28.1194	78.5758	0.001782	44089.8	4.649572	173.78	274.597	1.245083	0.084385	0.084178	276.946	44089.8	0.079674	0.205651	1346.68	88827.3
115	2.000000	1.256351	7.36617e+06	-44389.1	955.82	-29776.4	0.000000	0.000000	7.270939	348.604	NaN	0.000000	0.001621	0.001752	28.0815	88.0945	0.001676	52569.9	1.939688	174.965	350.2	1.256077	0.095447	0.095172	348.604	52569.9	0.090473	0.257201	1355.37	94705.2
115	2.000000	1.267196	7.36617e+06	-44389.1	955.821	-29776.4	0.000000	0.000000	7.285309	434.363	NaN	0.000000	0.001704	0.001720	28.1206	99.5813	0.001811	54991.9	4.915654	171.856	428.863	1.266906	0.106292	0.106001	434.363	54991.9	0.100368	0.309128	1405.12	90365.6
115	2.000000	1.274310	7.36617e+06	-44389.1	955.821	-29776.4	0.000000	0.000000	7.294557	486.267	NaN	0.000000	0.001712	0.001764	28.082	105.644	0.001810	58377.6	2.379212	173.863	486.294	1.274023	0.113406	0.113118	486.267	58377.6	0.107159	0.347345	1399.95	90498