File: remote_trans/data/nanoindenter/0828-1/data/Data_2025-08-06,11h17m57s/2025-07-22_16-23-58_1_780.txt
2025-07-22, 16:23:58, 1
Index	Phase	Displacement	Time	Pos X	Pos Y	Pos Z	Rot A	Rot B	Piezo Z	Force A	Force B	Gripper	Voltage A	Voltage B	Temperature	Amplitude force	Amplitude pos	Stiffness	Phase shift	Phase excitation	Force A raw	Displacement raw	HMax	HMax raw	Real Force	Real Stiffness	Contact Depth	Area	Hardness	Reduced Mod.
[#]	[#]	[um]	[s]	[um]	[um]	[um]	[m°]	[m°]	[um]	[uN]	[uN]	[V]	[V]	[V]	[°C]	[uN]	[um]	[N/m]	[°]	[°]	[uN]	[um]	[um]	[um]	[uN]	[N/m]	[um]	[um^2]	[MPa]	[MPa]
780	1.000000	0.001905	7.37268e+06	-39139.1	1055.82	-29795	0.000000	0.000000	6.002746	0.070892	NaN	0.000000	0.001538	0.001750	28.0826	0.071944	0.001019	70.5994	-154.975	-165.048	-0.015913	0.000677	-1.046275	-1.047503	0.070892	70.5994	-1.047028	-9.737858E+13	-7.279992E-16	NaN
780	1.000000	0.041892	7.37268e+06	-39139.1	1055.82	-29795	0.000000	0.000000	6.042731	-0.012936	NaN	0.000000	0.001560	0.001740	28.0826	0.109170	0.001917	56.9346	7.181698	-166.475	0.037220	0.040578	-1.006287	-1.007602	-0.012936	56.9346	-1.006117	-2.742304E+13	4.717149E-16	NaN
780	1.000000	0.081918	7.37268e+06	-39139.1	1055.82	-29795	0.000000	0.000000	6.082759	0.044465	NaN	0.000000	0.001562	0.001725	28.0824	0.100330	0.001995	50.2969	161.415	-163.284	0.023166	0.080630	-0.966261	-0.967550	0.044465	50.2969	-0.966924	-8.132252E+12	-5.467737E-15	NaN
780	1.000000	0.121934	7.37268e+06	-39139.1	1055.82	-29795	0.000000	0.000000	6.122771	-0.051292	NaN	0.000000	0.001599	0.001729	28.0826	0.120298	0.001897	63.4038	-15.4226	-165.472	-0.037515	0.120623	-0.926245	-0.927557	-0.051292	63.4038	-0.925639	-2.255946E+12	2.273639E-14	NaN
780	1.000000	0.161952	7.37268e+06	-39139.1	1055.82	-29795	0.000000	0.000000	6.162790	-0.024155	NaN	0.000000	0.001630	0.001725	28.0831	0.108014	0.001874	57.6306	-125.786	-166.547	0.006193	0.160602	-0.886228	-0.887577	-0.024155	57.6306	-0.885914	-6.556506E+11	3.684150E-14	NaN
780	1.000000	0.201969	7.37268e+06	-39139.1	1055.82	-29795	0.000000	0.000000	6.202806	-0.041653	NaN	0.000000	0.001540	0.001729	28.0832	0.031654	0.001914	16.5415	-86.4881	-163.436	0.068719	0.200659	-0.846211	-0.847521	-0.041653	16.5415	-0.844322	-1.794092E+11	2.321685E-13	NaN
780	1.000000	0.241991	7.37268e+06	-39139.1	1055.82	-29795	0.000000	0.000000	6.242831	0.026070	NaN	0.000000	0.001635	0.001755	28.0832	0.161907	0.002019	80.173	79.3819	-168.883	0.077370	0.240701	-0.806189	-0.807479	0.026070	80.173	-0.806433	-5.497560E+10	-4.742122E-13	NaN
780	1.000000	0.281975	7.37268e+06	-39139.1	1055.82	-29795	0.000000	0.000000	6.282815	0.041394	NaN	0.000000	0.001698	0.001746	28.0819	0.071570	0.002024	35.3613	-115.88	-165.177	0.087702	0.280665	-0.766205	-0.767514	0.041394	35.3613	-0.767083	-1.605606E+10	-2.578099E-12	NaN
780	1.000000	0.322012	7.37268e+06	-39139.1	1055.82	-29795	0.000000	0.000000	6.322851	0.005175	NaN	0.000000	0.001690	0.001734	28.082	0.027156	0.001947	13.948	-27.3354	-168.972	0.025871	0.320688	-0.726167	-0.727492	0.005175	13.948	-0.726446	-4.491168E+9	-1.152183E-12	NaN
780	1.000000	0.362009	7.37268e+06	-39139.1	1055.82	-29795	0.000000	0.000000	6.362848	0.000457	NaN	0.000000	0.001649	0.001707	28.082	0.056422	0.001976	28.5467	105.27	-168.935	0.029864	0.360769	-0.686170	-0.687410	0.000457	28.5467	-0.686182	-1.266887E+9	-3.604692E-13	NaN
780	1.000000	0.402041	7.37268e+06	-39139.1	1055.82	-29795	0.000000	0.000000	6.402881	0.020558	NaN	0.000000	0.001679	0.001751	28.0832	0.092222	0.002064	44.6873	-99.5666	-164.545	-0.017517	0.400751	-0.646139	-0.647429	0.020558	44.6873	-0.646484	-3.624303E+8	-5.672374E-11	NaN
780	1.000000	0.442083	7.37268e+06	-39139.1	1055.82	-29795	0.000000	0.000000	6.442924	0.037684	NaN	0.000000	0.001707	0.001738	28.0828	0.111213	0.001986	55.9874	-173.116	-167.723	-0.006589	0.440755	-0.606097	-0.607424	0.037684	55.9874	-0.606601	-1.026468E+8	-3.671203E-10	NaN
780	1.000000	0.482067	7.37269e+06	-39139.1	1055.82	-29795	0.000000	0.000000	6.482907	0.011239	NaN	0.000000	0.001711	0.001751	28.0828	0.008730	0.001991	4.384151	-100.694	-166.15	-0.007051	0.480826	-0.566112	-0.567354	0.011239	4.384151	-0.568035	-3.016334E+7	-3.726198E-10	NaN
780	1.000000	0.522120	7.37269e+06	-39139.1	1055.82	-29795	0.000000	0.000000	6.522958	-0.019575	NaN	0.000000	0.001621	0.001733	28.0831	0.111978	0.001928	58.0832	149.354	-166.753	0.040855	0.520826	-0.526060	-0.527354	-0.019575	58.0832	-0.525807	-7.84018e+06	2.496707E-9	NaN
780	1.000000	0.562120	7.37269e+06	-39139.1	1055.82	-29795	0.000000	0.000000	6.562959	0.007562	NaN	0.000000	0.001615	0.001709	28.0818	0.065054	0.001973	32.9691	84.8928	-164.711	-0.080151	0.560834	-0.486060	-0.487346	0.007562	32.9691	-0.486232	-2.20152e+06	-3.435059E-9	NaN
780	1.000000	0.602134	7.37269e+06	-39139.1	1055.82	-29795	0.000000	0.000000	6.602971	-0.040768	NaN	0.000000	0.001590	0.001728	28.0818	0.082349	0.001953	42.1699	24.1101	-165.074	0.007334	0.600820	-0.446046	-0.447360	-0.040768	42.1699	-0.445321	-586695	6.948762E-8	NaN
780	1.000000	0.642116	7.37269e+06	-39139.1	1055.82	-29795	0.000000	0.000000	6.642955	-0.012105	NaN	0.000000	0.001609	0.001775	28.0817	0.061164	0.002005	30.5089	167.343	-166.807	-0.006687	0.640832	-0.406063	-0.407347	-0.012105	30.5089	-0.405766	-161492	7.495526E-8	NaN
780	1.000000	0.682144	7.37269e+06	-39139.1	1055.82	-29795	0.000000	0.000000	6.682981	-0.025491	NaN	0.000000	0.001654	0.001725	28.0832	0.113776	0.001943	58.571	74.0385	-170.201	0.025705	0.680837	-0.366036	-0.367343	-0.025491	58.571	-0.365710	-43081.7	5.916893E-7	NaN
780	1.000000	0.722195	7.37269e+06	-39139.1	1055.82	-29795	0.000000	0.000000	6.723033	-0.005058	NaN	0.000000	0.001657	0.001698	28.0834	0.021225	0.001984	10.698	19.1298	-166.697	0.018165	0.720923	-0.325985	-0.327256	-0.005058	10.698	-0.325630	-11256.2	4.493663E-7	NaN
780	1.000000	0.762213	7.37269e+06	-39139.1	1055.82	-29795	0.000000	0.000000	6.763050	-0.048964	NaN	0.000000	0.001626	0.001719	28.0835	0.029278	0.001983	14.7649	30.6693	-164.817	-0.028860	0.760838	-0.285967	-0.287342	-0.048964	14.7649	-0.283480	-2663.19	1.838558E-5	NaN
780	1.000000	0.802180	7.37269e+06	-39139.1	1055.82	-29795	0.000000	0.000000	6.803020	0.027863	NaN	0.000000	0.001663	0.001731	28.083	0.054446	0.001919	28.3716	122.57	-164.446	-0.021854	0.800917	-0.246000	-0.247262	0.027863	28.3716	-0.246736	-731.832	-3.807297E-5	NaN
780	1.000000	0.842266	7.37269e+06	-39139.1	1055.82	-29795	0.000000	0.000000	6.843104	-0.028563	NaN	0.000000	0.001586	0.001704	28.0817	0.049262	0.002033	24.2322	-154.447	-166.727	-0.020359	0.840901	-0.205913	-0.207279	-0.028563	24.2322	-0.205029	-159.235	0.000179	NaN
780	1.000000	0.882247	7.37269e+06	-39139.1	1055.82	-29795	0.000000	0.000000	6.883086	-0.008478	NaN	0.000000	0.001619	0.001739	28.0817	0.021720	0.001984	10.947	-62.2237	-166.692	0.021172	0.880921	-0.165933	-0.167258	-0.008478	10.947	-0.165352	-34.0784	0.000249	NaN
780	1.000000	0.922253	7.37269e+06	-39139.1	1055.82	-29795	0.000000	0.000000	6.923090	-0.040461	NaN	0.000000	0.001593	0.001678	28.0816	0.087419	0.002078	42.0717	-41.0453	-167.27	-0.015618	0.920930	-0.125926	-0.127250	-0.040461	42.0717	-0.125205	-6.138358	0.006592	NaN
780	1.000000	0.962307	7.37269e+06	-39139.1	1055.82	-29795	0.000000	0.000000	6.963144	-0.024155	NaN	0.000000	0.001610	0.001704	28.083	0.128827	0.002072	62.184	133.893	-165.926	-0.030722	0.960984	-0.085873	-0.087196	-0.024155	62.184	-0.085582	-0.848667	0.028462	NaN
780	1.000000	1.002297	7.37269e+06	-39139.1	1055.82	-29795	0.000000	0.000000	7.003137	0.039719	NaN	0.000000	0.001611	0.001716	28.083	0.008360	0.001942	4.304043	49.5	-169.961	0.046345	1.001025	-0.045883	-0.047155	0.039719	4.304043	-0.052805	-0.110810	-0.358446	NaN
780	1.000000	1.042334	7.37269e+06	-39139.1	1055.82	-29795	0.000000	0.000000	7.043172	-0.016877	NaN	0.000000	0.001587	0.001648	28.0834	0.088223	0.001952	45.1998	-89.5832	-168.174	0.014920	1.041029	-0.005846	-0.007151	-0.016877	45.1998	-0.005566	-0.003770	4.477142	NaN
780	2.000000	1.064949	7.37269e+06	-39139.1	1055.82	-29795	0.000000	0.000000	7.066377	14.3285	NaN	0.000000	0.001589	0.001685	28.0825	14.4356	0.001821	7925.49	8.640073	-175.701	14.417	1.064625	0.016769	0.016445	14.3285	7925.49	0.015413	0.015840	904.555	57532.9
780	2.000000	1.074897	7.37269e+06	-39139.1	1055.82	-29795	0.000000	0.000000	7.077127	33.8696	NaN	0.000000	0.001618	0.001693	28.0828	24.5238	0.001782	13760.5	6.343278	179.757	32.4015	1.074569	0.026717	0.026389	33.8696	13760.5	0.024871	0.030781	1100.32	71657.9
780	2.000000	1.084865	7.37269e+06	-39139.1	1055.82	-29795	0.000000	0.000000	7.088317	63.5979	NaN	0.000000	0.001627	0.001698	28.0836	34.6855	0.001807	19193.9	5.632965	177.753	62.1456	1.084591	0.036685	0.036411	63.5979	19193.9	0.034200	0.049900	1274.5	78502.7
780	2.000000	1.094804	7.37269e+06	-39139.1	1055.82	-29795	0.000000	0.000000	7.099803	101.244	NaN	0.000000	0.001578	0.001695	28.0834	43.626	0.001792	24351.3	4.923371	176.484	98.5305	1.094550	0.046624	0.046370	101.244	24351.3	0.043506	0.073402	1379.31	82118.7
780	2.000000	1.104742	7.37269e+06	-39139.1	1055.82	-29795	0.000000	0.000000	7.111566	145.667	NaN	0.000000	0.001652	0.001744	28.0838	54.1088	0.001811	29870.1	4.148558	176.109	141.76	1.104536	0.056562	0.056356	145.667	29870.1	0.052904	0.101602	1433.71	85616.9
780	2.000000	1.114773	7.37269e+06	-39139.1	1055.82	-29795	0.000000	0.000000	7.124008	204.331	NaN	0.000000	0.001657	0.001676	28.0836	62.9193	0.001791	35131.5	2.715517	175.888	200.595	1.114404	0.066593	0.066225	204.331	35131.5	0.062231	0.133929	1525.66	87706.5
780	2.000000	1.124739	7.37269e+06	-39139.1	1055.82	-29795	0.000000	0.000000	7.136354	262.232	NaN	0.000000	0.001678	0.001697	28.0838	73.3144	0.001775	41299.8	7.015327	169.691	259.276	1.124509	0.076559	0.076330	262.232	41299.8	0.071797	0.171475	1529.27	91121.3
780	2.000000	1.134799	7.37269e+06	-39139.1	1055.82	-29795	0.000000	0.000000	7.148913	323.035	NaN	0.000000	0.001710	0.001681	28.0823	83.2728	0.001873	44461.4	10.3242	166.584	322.013	1.134426	0.086620	0.086246	323.035	44461.4	0.081171	0.212473	1520.36	88126
780	2.000000	1.144650	7.37269e+06	-39139.1	1055.82	-29795	0.000000	0.000000	7.161538	390.553	NaN	0.000000	0.001635	0.001664	28.0822	92.524	0.001807	51207.4	4.094425	171.483	384.269	1.144441	0.096471	0.096262	390.553	51207.4	0.090750	0.258594	1510.29	92001.9
780	2.000000	1.154808	7.37269e+06	-39139.1	1055.82	-29795	0.000000	0.000000	7.175103	473.47	NaN	0.000000	0.001591	0.001691	28.0819	103.153	0.001956	52749.3	4.027857	171.609	475.474	1.154602	0.106629	0.106422	473.47	52749.3	0.099897	0.306556	1544.48	87043.2
780	2.000000	1.157669	7.37269e+06	-39139.1	1055.82	-29795	0.000000	0.000000	7.179274	505.338	NaN	0.000000	0.001624	0.001747	28.0823	104.652	0.001779	58819	4.854034	170.523	497.981	1.157272	0.109489	0.109092	505.338	58819	0.103046	0.323950	1559.92	94417.3