File: remote_trans/data/nanoindenter/0828-1/data/Data_2025-08-06,11h17m57s/2025-07-22_16-23-58_1_794.txt
2025-07-22, 16:23:58, 1
Index	Phase	Displacement	Time	Pos X	Pos Y	Pos Z	Rot A	Rot B	Piezo Z	Force A	Force B	Gripper	Voltage A	Voltage B	Temperature	Amplitude force	Amplitude pos	Stiffness	Phase shift	Phase excitation	Force A raw	Displacement raw	HMax	HMax raw	Real Force	Real Stiffness	Contact Depth	Area	Hardness	Reduced Mod.
[#]	[#]	[um]	[s]	[um]	[um]	[um]	[m°]	[m°]	[um]	[uN]	[uN]	[V]	[V]	[V]	[°C]	[uN]	[um]	[N/m]	[°]	[°]	[uN]	[um]	[um]	[um]	[uN]	[N/m]	[um]	[um^2]	[MPa]	[MPa]
794	1.000000	0.002318	7.37282e+06	-39839.1	1055.82	-29792.3	0.000000	0.000000	6.002775	-0.054119	NaN	0.000000	0.001622	0.001706	28.0817	0.027957	0.000961	29.0836	132.948	-173.654	-0.056818	0.001078	-1.103497	-1.104737	-0.054119	29.0836	-1.102102	-5.349095E+14	1.011748E-16	NaN
794	1.000000	0.044275	7.37282e+06	-39839.1	1055.82	-29792.3	0.000000	0.000000	6.044733	-0.050118	NaN	0.000000	0.001605	0.001717	28.0833	0.118048	0.001870	63.1346	92.485	7.956461	-0.020581	0.042876	-1.061540	-1.062939	-0.050118	63.1346	-1.060945	-1.498015E+14	3.345600E-16	NaN
794	1.000000	0.086308	7.37282e+06	-39839.1	1055.82	-29792.3	0.000000	0.000000	6.086768	0.006665	NaN	0.000000	0.001695	0.001744	28.0832	0.006521	0.001887	3.455525	-113.857	-165.946	-0.005555	0.084966	-1.019507	-1.020849	0.006665	3.455525	-1.020954	-4.342991E+13	-1.534671E-16	NaN
794	1.000000	0.128305	7.37282e+06	-39839.1	1055.82	-29792.3	0.000000	0.000000	6.128768	0.070481	NaN	0.000000	0.001720	0.001690	28.0833	0.068696	0.002135	32.17	160.523	12.6293	0.090073	0.126938	-0.977510	-0.978878	0.070481	32.17	-0.979153	-1.188512E+13	-5.930214E-15	NaN
794	1.000000	0.170297	7.37282e+06	-39839.1	1055.82	-29792.3	0.000000	0.000000	6.170757	0.009379	NaN	0.000000	0.001675	0.001756	28.0817	0.063947	0.002050	31.1872	-93.9637	-165.907	0.026589	0.169065	-0.935518	-0.936751	0.009379	31.1872	-0.935743	-3.088202E+12	-3.036991E-15	NaN
794	1.000000	0.212337	7.37282e+06	-39839.1	1055.82	-29792.3	0.000000	0.000000	6.212794	-0.061554	NaN	0.000000	0.001661	0.001709	28.0818	0.065563	0.002048	32.0165	-37.6379	10.5651	-0.054653	0.211028	-0.893478	-0.894787	-0.061554	32.0165	-0.892037	-7.933123E+11	7.759068E-14	NaN
794	1.000000	0.254338	7.37282e+06	-39839.1	1055.82	-29792.3	0.000000	0.000000	6.254796	-0.052150	NaN	0.000000	0.001696	0.001744	28.0818	0.090735	0.001971	46.0262	172.771	-169.352	-0.000347	0.253035	-0.851477	-0.852780	-0.052150	46.0262	-0.850627	-2.183880E+11	2.387957E-13	NaN
794	1.000000	0.296383	7.37282e+06	-39839.1	1055.82	-29792.3	0.000000	0.000000	6.296841	-0.041434	NaN	0.000000	0.001700	0.001731	28.0823	0.101112	0.001991	50.781	159.744	14.3879	0.034219	0.295051	-0.809432	-0.810764	-0.041434	50.781	-0.808820	-5.923296E+10	6.995028E-13	NaN
794	1.000000	0.338435	7.37282e+06	-39839.1	1055.82	-29792.3	0.000000	0.000000	6.338891	-0.089960	NaN	0.000000	0.001712	0.001653	28.0834	0.149383	0.001904	78.4607	119.811	-166.079	-0.032703	0.337087	-0.767380	-0.768728	-0.089960	78.4607	-0.766520	-1.577569E+10	5.702418E-12	NaN
794	1.000000	0.380411	7.37282e+06	-39839.1	1055.82	-29792.3	0.000000	0.000000	6.380869	-0.054997	NaN	0.000000	0.001708	0.001715	28.0833	0.122435	0.001919	63.7935	124.343	16.4883	-0.077357	0.379071	-0.725404	-0.726744	-0.054997	63.7935	-0.724757	-4.259342E+9	1.291206E-11	NaN
794	1.000000	0.422440	7.37282e+06	-39839.1	1055.82	-29792.3	0.000000	0.000000	6.422901	0.013794	NaN	0.000000	0.001709	0.001739	28.0829	0.043613	0.001913	22.7983	-48.3978	-166.857	-0.000466	0.421162	-0.683375	-0.684653	0.013794	22.7983	-0.683829	-1.176415E+9	-1.172579E-11	NaN
794	1.000000	0.464442	7.37282e+06	-39839.1	1055.82	-29792.3	0.000000	0.000000	6.464899	-0.073076	NaN	0.000000	0.001701	0.001670	28.0817	0.067065	0.002114	31.7215	-83.98	12.7082	-0.029411	0.463080	-0.641373	-0.642736	-0.073076	31.7215	-0.639645	-2.920285E+8	2.502346E-10	NaN
794	1.000000	0.506478	7.37282e+06	-39839.1	1055.82	-29792.3	0.000000	0.000000	6.506933	-0.103944	NaN	0.000000	0.001692	0.001703	28.0816	0.102109	0.002046	49.907	-57.6866	-166.406	-0.010064	0.505168	-0.599338	-0.600647	-0.103944	49.907	-0.597775	-7.759257E+7	1.339610E-9	NaN
794	1.000000	0.548504	7.37282e+06	-39839.1	1055.82	-29792.3	0.000000	0.000000	6.548963	-0.020827	NaN	0.000000	0.001657	0.001715	28.0819	0.078572	0.001938	40.541	-103.636	13.8077	0.067201	0.547149	-0.557311	-0.558666	-0.020827	40.541	-0.556926	-2.117589E+7	9.835111E-10	NaN
794	1.000000	0.590488	7.37282e+06	-39839.1	1055.82	-29792.3	0.000000	0.000000	6.590946	-0.035589	NaN	0.000000	0.001631	0.001696	28.0831	0.087010	0.001940	44.8534	78.1693	-164.015	-0.041450	0.589277	-0.515327	-0.516538	-0.035589	44.8534	-0.514732	-5.49923e+06	6.471594E-9	NaN
794	1.000000	0.632535	7.37282e+06	-39839.1	1055.82	-29792.3	0.000000	0.000000	6.632995	0.005055	NaN	0.000000	0.001597	0.001692	28.0834	0.056650	0.002116	26.7672	54.2735	15.5964	0.008823	0.631201	-0.473280	-0.474614	0.005055	26.7672	-0.473422	-1.45674e+06	-3.470115E-9	NaN
794	1.000000	0.674519	7.37282e+06	-39839.1	1055.82	-29792.3	0.000000	0.000000	6.674979	0.013736	NaN	0.000000	0.001644	0.001709	28.0829	0.020982	0.002079	10.0939	77.0124	-163.962	-0.114431	0.673270	-0.431297	-0.432545	0.013736	10.0939	-0.432317	-384445	-3.573033E-8	NaN
794	1.000000	0.716574	7.37282e+06	-39839.1	1055.82	-29792.3	0.000000	0.000000	6.717032	-0.055821	NaN	0.000000	0.001648	0.001689	28.0816	0.048871	0.002165	22.5717	-123.669	11.0071	-0.004071	0.715193	-0.389241	-0.390622	-0.055821	22.5717	-0.387386	-88259.2	6.324650E-7	NaN
794	1.000000	0.758601	7.37282e+06	-39839.1	1055.82	-29792.3	0.000000	0.000000	6.759062	0.013670	NaN	0.000000	0.001641	0.001697	28.0818	0.119328	0.001969	60.5907	38.7884	-168.932	0.065382	0.757292	-0.347214	-0.348524	0.013670	60.5907	-0.347383	-23388.4	-5.844804E-7	NaN
794	1.000000	0.800590	7.37283e+06	-39839.1	1055.82	-29792.3	0.000000	0.000000	6.801046	-0.087054	NaN	0.000000	0.001688	0.001710	28.0818	0.076186	0.001945	39.1706	117.111	13.4093	-0.050449	0.799214	-0.305225	-0.306601	-0.087054	39.1706	-0.303558	-5315.53	1.637725E-5	NaN
794	1.000000	0.842605	7.37283e+06	-39839.1	1055.82	-29792.3	0.000000	0.000000	6.843062	-0.074963	NaN	0.000000	0.001704	0.001685	28.0822	0.016472	0.001974	8.342393	-83.6184	-167.996	-0.045535	0.841330	-0.263210	-0.264485	-0.074963	8.342393	-0.256471	-1034.52	7.246128E-5	NaN
794	1.000000	0.884640	7.37283e+06	-39839.1	1055.82	-29792.3	0.000000	0.000000	6.885097	-0.073148	NaN	0.000000	0.001709	0.001687	28.0834	0.052240	0.001831	28.5305	154.448	12.9521	-0.093924	0.883267	-0.221175	-0.222548	-0.073148	28.5305	-0.219252	-270.22	0.000271	NaN
794	1.000000	0.926669	7.37283e+06	-39839.1	1055.82	-29792.4	0.000000	0.000000	6.927129	0.007191	NaN	0.000000	0.001655	0.001735	28.0832	0.028730	0.001990	14.4367	115.304	-168.011	0.029925	0.925354	-0.179146	-0.180461	0.007191	14.4367	-0.179520	-59.8821	-0.000120	NaN
794	1.000000	0.968683	7.37283e+06	-39839.1	1055.82	-29792.4	0.000000	0.000000	6.969138	-0.113029	NaN	0.000000	0.001601	0.001757	28.0833	0.128539	0.002145	59.915	162.239	13.3475	-0.043104	0.967310	-0.137132	-0.138505	-0.113029	59.915	-0.135717	-9.816595	0.011514	NaN
794	1.000000	1.010682	7.37283e+06	-39839.1	1055.82	-29792.4	0.000000	0.000000	7.011138	-0.091268	NaN	0.000000	0.001631	0.001746	28.0823	0.030014	0.001944	15.4381	44.2107	-163.425	0.010113	1.009411	-0.095133	-0.096404	-0.091268	15.4381	-0.090699	-1.122486	0.081309	NaN
794	1.000000	1.052715	7.37283e+06	-39839.1	1055.82	-29792.4	0.000000	0.000000	7.053173	-0.048914	NaN	0.000000	0.001655	0.001726	28.082	0.063942	0.001941	32.946	133.199	12.944	-0.043895	1.051337	-0.053100	-0.054478	-0.048914	32.946	-0.051987	-0.104734	0.467035	NaN
794	1.000000	1.094749	7.37283e+06	-39839.1	1055.82	-29792.4	0.000000	0.000000	7.095206	-0.055214	NaN	0.000000	0.001629	0.001671	28.0817	0.093085	0.001879	49.5338	43.8107	-165.246	0.028887	1.093420	-0.011067	-0.012395	-0.055214	49.5338	-0.010231	-0.006519	8.469528	NaN
794	2.000000	1.117769	7.37283e+06	-39839.1	1055.82	-29792.4	0.000000	0.000000	7.119002	18.8265	NaN	0.000000	0.001637	0.001708	28.0833	14.7156	0.001703	8643.09	5.216703	5.264513	17.7298	1.117363	0.011954	0.011548	18.8265	8643.09	0.010320	0.009539	1973.57	80850.7
794	2.000000	1.128226	7.37283e+06	-39839.1	1055.82	-29792.4	0.000000	0.000000	7.130433	42.5089	NaN	0.000000	0.001623	0.001723	28.0831	25.5811	0.001903	13444.2	4.263580	-176.658	41.7063	1.127889	0.022411	0.022073	42.5089	13444.2	0.020040	0.022605	1880.51	81697
794	2.000000	1.138701	7.37283e+06	-39839.1	1055.82	-29792.4	0.000000	0.000000	7.142435	79.6838	NaN	0.000000	0.001632	0.001681	28.0828	35.1562	0.001771	19846.8	4.950559	-1.352355	76.7169	1.138275	0.032886	0.032460	79.6838	19846.8	0.029874	0.040484	1968.28	90120.2
794	2.000000	1.149222	7.37283e+06	-39839.1	1055.82	-29792.4	0.000000	0.000000	7.154471	116.535	NaN	0.000000	0.001601	0.001688	28.0816	45.2769	0.001831	24726.3	7.748898	173.982	118.327	1.148897	0.043407	0.043082	116.535	24726.3	0.039872	0.063699	1829.46	89508.8
794	2.000000	1.159703	7.37283e+06	-39839.1	1055.82	-29792.4	0.000000	0.000000	7.167147	169.963	NaN	0.000000	0.001600	0.001716	28.0818	55.5524	0.001805	30769	3.384710	-3.217470	168.736	1.159260	0.053888	0.053444	169.963	30769	0.049745	0.091626	1854.96	92870.2
794	2.000000	1.170128	7.37283e+06	-39839.1	1055.82	-29792.4	0.000000	0.000000	7.180393	238.6	NaN	0.000000	0.001648	0.001720	28.0816	63.8409	0.001710	37330.3	3.610023	175.313	238.309	1.169806	0.064313	0.063990	238.6	37330.3	0.059519	0.124090	1922.8	96820.4
794	2.000000	1.180619	7.37283e+06	-39839.1	1055.82	-29792.4	0.000000	0.000000	7.193128	293.226	NaN	0.000000	0.001664	0.001736	28.082	75.5132	0.001846	40901.7	3.892287	-6.161776	289.269	1.180296	0.074803	0.074480	293.226	40901.7	0.069427	0.161764	1812.68	92912.6
794	2.000000	1.191125	7.37283e+06	-39839.1	1055.82	-29792.4	0.000000	0.000000	7.206833	371.042	NaN	0.000000	0.001659	0.001706	28.0832	84.6289	0.001762	48027.1	3.143837	174.006	369.121	1.190804	0.085310	0.084989	371.042	48027.1	0.079516	0.204937	1810.52	96928.1
794	2.000000	1.201673	7.37283e+06	-39839.1	1055.82	-29792.4	0.000000	0.000000	7.220913	457.007	NaN	0.000000	0.001610	0.001727	28.0831	96.3216	0.001850	52054.8	7.325718	-10.4369	456.853	1.201152	0.095858	0.095337	457.007	52054.8	0.089274	0.251210	1819.22	94888.9
794	2.000000	1.210054	7.37283e+06	-39839.1	1055.82	-29792.4	0.000000	0.000000	7.232897	544.688	NaN	0.000000	0.001630	0.001704	28.0829	104.541	0.001906	54856.9	6.527764	170.228	539.223	1.209644	0.104239	0.103829	544.688	54856.9	0.096792	0.289847	1879.22	93093.6