File: remote_trans/data/nanoindenter/0828-1/data/Data_2025-08-06,11h17m57s/2025-07-22_16-23-58_1_564.txt
2025-07-22, 16:23:58, 1
Index	Phase	Displacement	Time	Pos X	Pos Y	Pos Z	Rot A	Rot B	Piezo Z	Force A	Force B	Gripper	Voltage A	Voltage B	Temperature	Amplitude force	Amplitude pos	Stiffness	Phase shift	Phase excitation	Force A raw	Displacement raw	HMax	HMax raw	Real Force	Real Stiffness	Contact Depth	Area	Hardness	Reduced Mod.
[#]	[#]	[um]	[s]	[um]	[um]	[um]	[m°]	[m°]	[um]	[uN]	[uN]	[V]	[V]	[V]	[°C]	[uN]	[um]	[N/m]	[°]	[°]	[uN]	[um]	[um]	[um]	[uN]	[N/m]	[um]	[um^2]	[MPa]	[MPa]
564	1.000000	0.002485	7.37056e+06	-48889.1	1005.82	-29760.8	0.000000	0.000000	6.002813	0.046880	NaN	0.000000	0.001586	0.001699	28.0822	0.074740	0.001015	73.6674	-30.1353	-165.953	0.020718	0.001197	-1.077836	-1.079123	0.046880	73.6674	-1.078313	-2.563654E+14	-1.828649E-16	NaN
564	1.000000	0.042415	7.37056e+06	-48889.1	1005.82	-29760.8	0.000000	0.000000	6.042742	0.026061	NaN	0.000000	0.001604	0.001667	28.0822	0.089188	0.001905	46.8244	-21.2371	-164.237	0.045143	0.041142	-1.037905	-1.039178	0.026061	46.8244	-1.038323	-7.437238E+13	-3.504140E-16	NaN
564	1.000000	0.082426	7.37056e+06	-48889.1	1005.82	-29760.8	0.000000	0.000000	6.082751	-0.002181	NaN	0.000000	0.001665	0.001708	28.081	0.020525	0.002010	10.2111	135.431	-166.014	0.022664	0.081116	-0.997895	-0.999204	-0.002181	10.2111	-0.997735	-2.114786E+13	1.031144E-16	NaN
564	1.000000	0.122453	7.37057e+06	-48889.1	1005.82	-29760.8	0.000000	0.000000	6.122781	0.056047	NaN	0.000000	0.001644	0.001723	28.081	0.091655	0.002035	45.034	18.8094	-164.81	0.003710	0.121166	-0.957868	-0.959154	0.056047	45.034	-0.958801	-6.319864E+12	-8.868350E-15	NaN
564	1.000000	0.162463	7.37057e+06	-48889.1	1005.82	-29760.8	0.000000	0.000000	6.162786	-0.047191	NaN	0.000000	0.001626	0.001682	28.0807	0.102959	0.002093	49.1851	87.5788	-166.419	-0.069479	0.161092	-0.917858	-0.919228	-0.047191	49.1851	-0.917138	-1.732072E+12	2.724563E-14	NaN
564	1.000000	0.202491	7.37057e+06	-48889.1	1005.82	-29760.8	0.000000	0.000000	6.202817	-0.003360	NaN	0.000000	0.001614	0.001727	28.0804	0.043198	0.001977	21.8475	153.426	-163.259	0.021103	0.201155	-0.877829	-0.879165	-0.003360	21.8475	-0.877714	-5.079152E+11	6.614819E-15	NaN
564	1.000000	0.242542	7.37057e+06	-48889.1	1005.82	-29760.8	0.000000	0.000000	6.242866	-0.041842	NaN	0.000000	0.001659	0.001703	28.0815	0.106991	0.002082	51.3896	153.502	-165.011	-0.059000	0.241192	-0.837778	-0.839129	-0.041842	51.3896	-0.837167	-1.435211E+11	2.915397E-13	NaN
564	1.000000	0.282518	7.37057e+06	-48889.1	1005.82	-29760.8	0.000000	0.000000	6.282841	-0.070804	NaN	0.000000	0.001558	0.001736	28.0817	0.041228	0.001979	20.8382	170.597	-160.816	-0.071489	0.281216	-0.797802	-0.799104	-0.070804	20.8382	-0.795254	-3.876367E+10	1.826565E-12	NaN
564	1.000000	0.322545	7.37057e+06	-48889.1	1005.82	-29760.8	0.000000	0.000000	6.322869	-0.034894	NaN	0.000000	0.001494	0.001679	28.0819	0.031250	0.002071	15.0903	-8.448506	-163.405	-0.020180	0.321206	-0.757776	-0.759114	-0.034894	15.0903	-0.756041	-1.136165E+10	3.071246E-12	NaN
564	1.000000	0.362540	7.37057e+06	-48889.1	1005.82	-29760.8	0.000000	0.000000	6.362866	0.021151	NaN	0.000000	0.001456	0.001705	28.081	0.021780	0.001966	11.0775	-89.6305	-166.114	0.057124	0.361254	-0.717781	-0.719066	0.021151	11.0775	-0.719213	-3.578792E+9	-5.909989E-12	NaN
564	1.000000	0.402562	7.37057e+06	-48889.1	1005.82	-29760.8	0.000000	0.000000	6.402885	-0.062477	NaN	0.000000	0.001501	0.001728	28.0808	0.039066	0.002054	19.0188	-162.002	-166.08	-0.084182	0.401262	-0.677758	-0.679058	-0.062477	19.0188	-0.675295	-8.991670E+8	6.948274E-11	NaN
564	1.000000	0.442605	7.37057e+06	-48889.1	1005.82	-29760.8	0.000000	0.000000	6.442930	-0.014806	NaN	0.000000	0.001520	0.001719	28.0807	0.047392	0.001998	23.7163	35.4548	-160.016	-0.039114	0.441226	-0.637716	-0.639094	-0.014806	23.7163	-0.637248	-2.707203E+8	5.469173E-11	NaN
564	1.000000	0.482620	7.37057e+06	-48889.1	1005.82	-29760.8	0.000000	0.000000	6.482947	0.028333	NaN	0.000000	0.001574	0.001752	28.0808	0.062308	0.001903	32.7431	113.634	-167.145	0.022071	0.481314	-0.597701	-0.599006	0.028333	32.7431	-0.598350	-7.901893E+7	-3.585656E-10	NaN
564	1.000000	0.522603	7.37057e+06	-48889.1	1005.82	-29760.8	0.000000	0.000000	6.522926	-0.074537	NaN	0.000000	0.001544	0.001717	28.0823	0.013564	0.001923	7.052581	-9.799281	-168.655	-0.013753	0.521306	-0.557717	-0.559014	-0.074537	7.052581	-0.549791	-1.686771E+7	4.418941E-9	NaN
564	1.000000	0.562636	7.37057e+06	-48889.1	1005.82	-29760.8	0.000000	0.000000	6.562961	-0.028294	NaN	0.000000	0.001578	0.001709	28.082	0.059067	0.001922	30.7361	166.38	-164.225	-0.050489	0.561315	-0.517684	-0.519006	-0.028294	30.7361	-0.516994	-5.91264e+06	4.785339E-9	NaN
564	1.000000	0.602641	7.37057e+06	-48889.1	1005.82	-29760.8	0.000000	0.000000	6.602965	-0.042043	NaN	0.000000	0.001590	0.001681	28.0821	0.028912	0.002041	14.1652	-13.7469	-169.056	-0.093287	0.601357	-0.477679	-0.478963	-0.042043	14.1652	-0.475453	-1.55542e+06	2.703009E-8	NaN
564	1.000000	0.642645	7.37057e+06	-48889.1	1005.82	-29760.8	0.000000	0.000000	6.642969	-0.045490	NaN	0.000000	0.001582	0.001758	28.0809	0.054753	0.002003	27.3371	-164.816	-164.026	-0.005475	0.641372	-0.437676	-0.438948	-0.045490	27.3371	-0.436428	-439466	1.035122E-7	NaN
564	1.000000	0.682715	7.37057e+06	-48889.1	1005.82	-29760.8	0.000000	0.000000	6.683040	0.002343	NaN	0.000000	0.001535	0.001709	28.0808	0.054013	0.001927	28.0245	-63.4063	-168.428	-0.134601	0.681392	-0.397606	-0.398928	0.002343	28.0245	-0.397669	-123804	-1.892568E-8	NaN
564	1.000000	0.722696	7.37057e+06	-48889.1	1005.82	-29760.8	0.000000	0.000000	6.723020	-0.040471	NaN	0.000000	0.001558	0.001776	28.0808	0.061369	0.002113	29.0478	89.7391	-166.797	-0.000880	0.721324	-0.357624	-0.358996	-0.040471	29.0478	-0.356579	-31795.4	1.272853E-6	NaN
564	1.000000	0.762720	7.37057e+06	-48889.1	1005.82	-29760.8	0.000000	0.000000	6.763045	-0.015571	NaN	0.000000	0.001494	0.001732	28.0807	0.114584	0.001995	57.4222	78.3995	-164.96	-0.012406	0.761374	-0.317600	-0.318946	-0.015571	57.4222	-0.317397	-8517.28	1.828109E-6	NaN
564	1.000000	0.802754	7.37057e+06	-48889.1	1005.82	-29760.8	0.000000	0.000000	6.803082	0.037499	NaN	0.000000	0.001495	0.001689	28.0818	0.058155	0.001939	29.9883	-88.6044	-167.04	-0.003186	0.801387	-0.277566	-0.278933	0.037499	29.9883	-0.278504	-2240.73	-1.673522E-5	NaN
564	1.000000	0.842758	7.37057e+06	-48889.1	1005.82	-29760.8	0.000000	0.000000	6.843083	-0.013941	NaN	0.000000	0.001549	0.001696	28.0817	0.097512	0.002066	47.1965	35.6158	-167.786	9.393142E-5	0.841489	-0.237562	-0.238831	-0.013941	47.1965	-0.237341	-522.349	2.668948E-5	NaN
564	1.000000	0.882783	7.37057e+06	-48889.1	1005.82	-29760.8	0.000000	0.000000	6.883109	0.001667	NaN	0.000000	0.001542	0.001712	28.0816	0.093320	0.001932	48.3009	101.443	-166.661	0.006303	0.881446	-0.197537	-0.198875	0.001667	48.3009	-0.197563	-120.108	-1.388170E-5	NaN
564	1.000000	0.922794	7.37057e+06	-48889.1	1005.82	-29760.8	0.000000	0.000000	6.923119	-0.009776	NaN	0.000000	0.001569	0.001730	28.0803	0.021797	0.001990	10.9528	9.063934	-165.5	-0.001319	0.921442	-0.157526	-0.158879	-0.009776	10.9528	-0.156857	-24.0944	0.000406	NaN
564	1.000000	0.962807	7.37057e+06	-48889.1	1005.82	-29760.8	0.000000	0.000000	6.963132	-0.018485	NaN	0.000000	0.001541	0.001753	28.0806	0.107377	0.002035	52.7581	121.433	-163.932	-0.079735	0.961477	-0.117514	-0.118844	-0.018485	52.7581	-0.117251	-4.248947	0.004350	NaN
564	1.000000	1.002880	7.37057e+06	-48889.1	1005.82	-29760.8	0.000000	0.000000	7.003204	-0.042972	NaN	0.000000	0.001548	0.001691	28.0805	0.004652	0.001955	2.378755	62.0454	-168.762	-0.037661	1.001546	-0.077441	-0.078774	-0.042972	2.378755	-0.063892	-0.232126	0.185124	NaN
564	1.000000	1.042811	7.37057e+06	-48889.1	1005.82	-29760.8	0.000000	0.000000	7.043135	-0.030054	NaN	0.000000	0.001566	0.001714	28.0818	0.055181	0.001923	28.6943	47.5945	-165.529	-0.021011	1.041565	-0.037510	-0.038755	-0.030054	28.6943	-0.036724	-0.036026	0.834226	NaN
564	1.000000	1.082845	7.37057e+06	-48889.1	1005.82	-29760.8	0.000000	0.000000	7.083366	4.754617	NaN	0.000000	0.001611	0.001703	28.0817	5.678698	0.001741	3261.7	10.5369	-173.227	3.280715	1.081508	0.002524	0.001188	4.754617	3261.7	0.001431	0.001100	4323.29	89859.9
564	2.000000	1.095395	7.37057e+06	-48889.1	1005.82	-29760.8	0.000000	0.000000	7.096814	26.5801	NaN	0.000000	0.001637	0.001701	28.0818	19.5501	0.001782	10973	7.753521	-179.529	27.0204	1.095079	0.015075	0.014759	26.5801	10973	0.013258	0.013032	2039.6	87819.7
564	2.000000	1.105357	7.37057e+06	-48889.1	1005.82	-29760.8	0.000000	0.000000	7.107813	51.8127	NaN	0.000000	0.001558	0.001688	28.082	29.7859	0.001869	15932.8	8.771772	175.938	51.8445	1.105140	0.025037	0.024820	51.8127	15932.8	0.022598	0.026790	1934.05	88936.4
564	2.000000	1.115301	7.37057e+06	-48889.1	1005.82	-29760.8	0.000000	0.000000	7.119189	86.6306	NaN	0.000000	0.001590	0.001721	28.081	39.8172	0.001824	21827.4	6.068725	176.319	84.7643	1.115009	0.034981	0.034689	86.6306	21827.4	0.032004	0.045000	1925.11	94008.7
564	2.000000	1.125352	7.37057e+06	-48889.1	1005.82	-29760.8	0.000000	0.000000	7.130899	126.975	NaN	0.000000	0.001522	0.001720	28.0807	49.1338	0.001890	25991.6	4.261766	175.994	126.385	1.125077	0.045032	0.044757	126.975	25991.6	0.041368	0.067611	1878.02	91326.2
564	2.000000	1.135263	7.37057e+06	-48889.1	1005.82	-29760.8	0.000000	0.000000	7.142968	179.466	NaN	0.000000	0.001546	0.001682	28.0807	59.1061	0.001869	31621.9	5.437760	173.875	175.295	1.134908	0.054943	0.054587	179.466	31621.9	0.050686	0.094545	1898.2	93959.7
564	2.000000	1.145270	7.37057e+06	-48889.1	1005.82	-29760.8	0.000000	0.000000	7.155190	233.34	NaN	0.000000	0.001557	0.001688	28.0819	65.458	0.001678	38999.9	1.736240	175.398	231.447	1.145033	0.064950	0.064712	233.34	38999.9	0.060463	0.127472	1830.52	99799.6
564	2.000000	1.155247	7.37057e+06	-48889.1	1005.82	-29760.8	0.000000	0.000000	7.167782	296.938	NaN	0.000000	0.001584	0.001706	28.0829	77.6782	0.001903	40820	1.467566	175.486	294.313	1.154922	0.074927	0.074602	296.938	40820	0.069471	0.161944	1833.59	92675.5
564	2.000000	1.165232	7.37057e+06	-48889.1	1005.82	-29760.8	0.000000	0.000000	7.180505	363.524	NaN	0.000000	0.001523	0.001696	28.0821	88.3159	0.001953	45226.3	5.743186	170.724	362.936	1.165008	0.084912	0.084687	363.524	45226.3	0.078884	0.202091	1798.81	91915.9
564	2.000000	1.175243	7.37057e+06	-48889.1	1005.82	-29760.8	0.000000	0.000000	7.193571	437.815	NaN	0.000000	0.001541	0.001692	28.0823	96.9169	0.001782	54400.1	9.922988	165.912	437.59	1.174986	0.094923	0.094666	437.815	54400.1	0.088887	0.249291	1756.24	99544.9
564	2.000000	1.184842	7.37057e+06	-48889.1	1005.82	-29760.8	0.000000	0.000000	7.206043	507.701	NaN	0.000000	0.001555	0.001691	28.0808	104.393	0.001760	59324.4	5.250877	-10.8916	508.592	1.184505	0.104521	0.104184	507.701	59324.4	0.098103	0.296848	1710.31	99480.9