File: remote_trans/data/nanoindenter/0828-1/data/Data_2025-08-06,11h17m57s/2025-07-22_16-23-58_1_764.txt
2025-07-22, 16:23:58, 1
Index	Phase	Displacement	Time	Pos X	Pos Y	Pos Z	Rot A	Rot B	Piezo Z	Force A	Force B	Gripper	Voltage A	Voltage B	Temperature	Amplitude force	Amplitude pos	Stiffness	Phase shift	Phase excitation	Force A raw	Displacement raw	HMax	HMax raw	Real Force	Real Stiffness	Contact Depth	Area	Hardness	Reduced Mod.
[#]	[#]	[um]	[s]	[um]	[um]	[um]	[m°]	[m°]	[um]	[uN]	[uN]	[V]	[V]	[V]	[°C]	[uN]	[um]	[N/m]	[°]	[°]	[uN]	[um]	[um]	[um]	[uN]	[N/m]	[um]	[um^2]	[MPa]	[MPa]
764	1.000000	0.002622	7.37253e+06	-38889.1	1005.82	-29795.8	0.000000	0.000000	6.002825	-8.074834E-5	NaN	0.000000	0.001639	0.001771	28.0803	0.103537	0.000997	103.881	89.301	-169.611	-0.084803	0.001306	-1.146879	-1.148195	-8.074834E-5	103.881	-1.146879	-2.132913E+15	3.785824E-20	NaN
764	1.000000	0.044555	7.37253e+06	-38889.1	1005.82	-29795.8	0.000000	0.000000	6.044755	-0.070126	NaN	0.000000	0.001646	0.001781	28.0813	0.096714	0.001968	49.1451	-78.094	14.3706	-0.059407	0.043167	-1.104947	-1.106334	-0.070126	49.1451	-1.103876	-5.650675E+14	1.241025E-16	NaN
764	1.000000	0.086558	7.37253e+06	-38889.1	1005.82	-29795.8	0.000000	0.000000	6.086761	-0.004062	NaN	0.000000	0.001631	0.001737	28.0807	0.067395	0.002013	33.4766	-70.8187	-164.232	-0.035577	0.085242	-1.062944	-1.064260	-0.004062	33.4766	-1.062853	-1.589118E+14	2.555860E-17	NaN
764	1.000000	0.128590	7.37253e+06	-38889.1	1005.82	-29795.8	0.000000	0.000000	6.128795	0.047014	NaN	0.000000	0.001664	0.001788	28.0811	0.056484	0.002072	27.255	176.987	13.041	-0.010945	0.127209	-1.020911	-1.022293	0.047014	27.255	-1.022205	-4.514615E+13	-1.041367E-15	NaN
764	1.000000	0.170576	7.37253e+06	-38889.1	1005.82	-29795.8	0.000000	0.000000	6.170779	-0.019624	NaN	0.000000	0.001683	0.001822	28.0799	0.093158	0.002037	45.7275	124.928	-164.723	-0.090581	0.169373	-0.978925	-0.980129	-0.019624	45.7275	-0.978603	-1.168395E+13	1.679604E-15	NaN
764	1.000000	0.212589	7.37253e+06	-38889.1	1005.82	-29795.8	0.000000	0.000000	6.212790	-0.048431	NaN	0.000000	0.001707	0.001800	28.08	0.086466	0.001924	44.9504	-136.496	15.0461	-0.081808	0.211267	-0.936913	-0.938235	-0.048431	44.9504	-0.936105	-3.123067E+12	1.550762E-14	NaN
764	1.000000	0.254613	7.37253e+06	-38889.1	1005.82	-29795.8	0.000000	0.000000	6.254814	-0.068751	NaN	0.000000	0.001639	0.001787	28.0797	0.063694	0.002048	31.1038	-72.3203	-165.359	-0.103486	0.253279	-0.894888	-0.896222	-0.068751	31.1038	-0.893230	-8.233437E+11	8.350161E-14	NaN
764	1.000000	0.296654	7.37253e+06	-38889.1	1005.82	-29795.8	0.000000	0.000000	6.296859	0.040942	NaN	0.000000	0.001677	0.001793	28.0809	0.080703	0.002016	40.038	138.845	19.3643	0.058104	0.295274	-0.852848	-0.854227	0.040942	40.038	-0.853615	-2.397068E+11	-1.707984E-13	NaN
764	1.000000	0.338632	7.37253e+06	-38889.1	1005.82	-29795.8	0.000000	0.000000	6.338836	0.005716	NaN	0.000000	0.001673	0.001745	28.081	0.044777	0.002064	21.6918	164.634	-166.418	0.017690	0.337319	-0.810869	-0.812183	0.005716	21.6918	-0.811067	-6.353936E+10	-8.996477E-14	NaN
764	1.000000	0.380688	7.37253e+06	-38889.1	1005.82	-29795.8	0.000000	0.000000	6.380893	0.046793	NaN	0.000000	0.001632	0.001804	28.0813	0.107841	0.002083	51.7718	160.431	13.1021	-0.004790	0.379269	-0.768813	-0.770233	0.046793	51.7718	-0.769491	-1.731345E+10	-2.702669E-12	NaN
764	1.000000	0.422696	7.37253e+06	-38889.1	1005.82	-29795.8	0.000000	0.000000	6.422897	-0.042180	NaN	0.000000	0.001737	0.001789	28.0806	0.051712	0.001869	27.6743	0.424043	-162.644	0.008916	0.421399	-0.726806	-0.728102	-0.042180	27.6743	-0.725662	-4.382108E+9	9.625399E-12	NaN
764	1.000000	0.464737	7.37253e+06	-38889.1	1005.82	-29795.8	0.000000	0.000000	6.464937	-0.074546	NaN	0.000000	0.001680	0.001803	28.0798	0.103993	0.001976	52.6201	11.686	14.3821	-0.084775	0.463322	-0.684765	-0.686179	-0.074546	52.6201	-0.683702	-1.171733E+9	6.362071E-11	NaN
764	1.000000	0.506734	7.37253e+06	-38889.1	1005.82	-29795.8	0.000000	0.000000	6.506935	-0.070980	NaN	0.000000	0.001694	0.001797	28.0798	0.047590	0.002019	23.5693	59.394	-161.466	0.060745	0.505453	-0.642767	-0.644048	-0.070980	23.5693	-0.640508	-3.000997E+8	2.365224E-10	NaN
764	1.000000	0.548756	7.37253e+06	-38889.1	1005.82	-29795.8	0.000000	0.000000	6.548957	-0.053137	NaN	0.000000	0.001723	0.001818	28.0797	0.058567	0.002084	28.1092	9.033708	16.3701	-0.018135	0.547427	-0.600745	-0.602074	-0.053137	28.1092	-0.599328	-8.150787E+7	6.519197E-10	NaN
764	1.000000	0.590746	7.37253e+06	-38889.1	1005.82	-29795.8	0.000000	0.000000	6.590948	-0.024776	NaN	0.000000	0.001710	0.001782	28.0811	0.156051	0.001938	80.5216	45.7289	-166.683	-0.009970	0.589459	-0.558755	-0.560043	-0.024776	80.5216	-0.558524	-2.228246E+7	1.111901E-9	NaN
764	1.000000	0.632808	7.37253e+06	-38889.1	1005.82	-29795.8	0.000000	0.000000	6.633008	-0.076227	NaN	0.000000	0.001686	0.001804	28.081	0.025216	0.002011	12.5407	-38.7774	14.0738	-0.089324	0.631439	-0.516694	-0.518063	-0.076227	12.5407	-0.512135	-5.05996e+06	1.506472E-8	NaN
764	1.000000	0.674796	7.37253e+06	-38889.1	1005.82	-29795.8	0.000000	0.000000	6.674999	-0.003820	NaN	0.000000	0.001690	0.001774	28.0811	0.080185	0.001902	42.1585	89.0352	-168.111	-0.113093	0.673540	-0.474706	-0.475961	-0.003820	42.1585	-0.474638	-1.51503e+06	2.521470E-9	NaN
764	1.000000	0.716788	7.37253e+06	-38889.1	1005.82	-29795.8	0.000000	0.000000	6.716989	-0.054649	NaN	0.000000	0.001688	0.001759	28.08	0.079240	0.002038	38.8902	-138.456	11.4172	-0.059730	0.715443	-0.432713	-0.434058	-0.054649	38.8902	-0.431659	-376299	1.452270E-7	NaN
764	1.000000	0.758878	7.37253e+06	-38889.1	1005.82	-29795.8	0.000000	0.000000	6.759081	-0.022657	NaN	0.000000	0.001621	0.001833	28.0799	0.070489	0.001955	36.0594	-154.431	-167.77	-0.035174	0.757525	-0.390623	-0.391976	-0.022657	36.0594	-0.390152	-96680	2.343494E-7	NaN
764	1.000000	0.800857	7.37253e+06	-38889.1	1005.82	-29795.8	0.000000	0.000000	6.801057	-0.066023	NaN	0.000000	0.001721	0.001797	28.0798	0.107424	0.002058	52.2079	-117.873	13.1118	-0.095301	0.799509	-0.348645	-0.349992	-0.066023	52.2079	-0.347696	-23634.6	2.793508E-6	NaN
764	1.000000	0.842863	7.37253e+06	-38889.1	1005.82	-29795.8	0.000000	0.000000	6.843067	0.025703	NaN	0.000000	0.001730	0.001826	28.0813	0.051521	0.002133	24.1542	121.34	-165.389	0.018111	0.841527	-0.306638	-0.307975	0.025703	24.1542	-0.307436	-6068.6	-4.235378E-6	NaN
764	1.000000	0.884877	7.37253e+06	-38889.1	1005.82	-29795.8	0.000000	0.000000	6.885080	-0.016706	NaN	0.000000	0.001739	0.001783	28.0812	0.068554	0.001885	36.3629	-119.364	13.0421	-0.027045	0.883532	-0.264624	-0.265969	-0.016706	36.3629	-0.264280	-1362.67	1.225989E-5	NaN
764	1.000000	0.926911	7.37253e+06	-38889.1	1005.82	-29795.8	0.000000	0.000000	6.927113	-0.019432	NaN	0.000000	0.001723	0.001805	28.0815	0.058437	0.002064	28.3145	107.216	-167.084	0.038035	0.925579	-0.222590	-0.223922	-0.019432	28.3145	-0.222076	-299.782	6.482196E-5	NaN
764	1.000000	0.968921	7.37253e+06	-38889.1	1005.82	-29795.8	0.000000	0.000000	6.969124	-0.002380	NaN	0.000000	0.001744	0.001834	28.0808	0.039787	0.002008	19.8192	21.1479	12.6677	0.020432	0.967598	-0.180581	-0.181903	-0.002380	19.8192	-0.180491	-62.2028	3.826864E-5	NaN
764	1.000000	1.010947	7.37253e+06	-38889.1	1005.82	-29795.8	0.000000	0.000000	7.011147	-0.064691	NaN	0.000000	0.001677	0.001785	28.0799	0.042014	0.001821	23.0721	90.7998	-165.677	-0.044145	1.009665	-0.138555	-0.139837	-0.064691	23.0721	-0.136452	-10.1378	0.006381	NaN
764	1.000000	1.052947	7.37253e+06	-38889.1	1005.82	-29795.8	0.000000	0.000000	7.053147	-0.092276	NaN	0.000000	0.001771	0.001800	28.0797	0.028769	0.002053	14.0153	165.809	13.1947	0.007422	1.051606	-0.096554	-0.097896	-0.092276	14.0153	-0.091616	-1.179104	0.078259	NaN
764	1.000000	1.094985	7.37253e+06	-38889.1	1005.82	-29795.8	0.000000	0.000000	7.095186	-0.053044	NaN	0.000000	0.001732	0.001816	28.0799	0.057111	0.002055	27.7919	92.98	-167.54	0.003790	1.093635	-0.054517	-0.055866	-0.053044	27.7919	-0.053085	-0.112971	0.469542	NaN
764	1.000000	1.137009	7.37253e+06	-38889.1	1005.82	-29795.8	0.000000	0.000000	7.137209	-0.078806	NaN	0.000000	0.001716	0.001820	28.0811	0.090882	0.002017	45.0687	-177.055	10.9938	-0.125291	1.135656	-0.012492	-0.013846	-0.078806	45.0687	-0.011181	-0.007061	11.1607	NaN
764	2.000000	1.161572	7.37253e+06	-38889.1	1005.82	-29795.8	0.000000	0.000000	7.162320	13.2736	NaN	0.000000	0.001698	0.001800	28.0809	13.3253	0.001839	7245.7	3.731764	-171.812	13.2214	1.161239	0.012070	0.011738	13.2736	7245.7	0.010696	0.009966	1331.95	66313.6
764	2.000000	1.172025	7.37253e+06	-38889.1	1005.82	-29795.8	0.000000	0.000000	7.173479	30.4345	NaN	0.000000	0.001660	0.001809	28.0809	22.7771	0.001812	12571.3	6.408446	0.497294	30.2143	1.171633	0.022524	0.022132	30.4345	12571.3	0.020708	0.023667	1285.95	74659.2
764	2.000000	1.182459	7.37253e+06	-38889.1	1005.82	-29795.8	0.000000	0.000000	7.185001	56.918	NaN	0.000000	0.001655	0.001789	28.0796	33.6858	0.001807	18636.8	7.684194	175.271	54.9837	1.182165	0.032957	0.032664	56.918	18636.8	0.030667	0.042137	1350.79	82949.5
764	2.000000	1.192960	7.37253e+06	-38889.1	1005.82	-29795.8	0.000000	0.000000	7.197346	101.788	NaN	0.000000	0.001625	0.001757	28.0798	42.144	0.001781	23659.9	5.950485	-3.312574	101.423	1.192691	0.043459	0.043190	101.788	23659.9	0.040232	0.064630	1574.94	85029.6
764	2.000000	1.203458	7.37253e+06	-38889.1	1005.82	-29795.8	0.000000	0.000000	7.209297	137.133	NaN	0.000000	0.001667	0.001788	28.0798	53.9856	0.001823	29614.6	7.230076	172.7	136.232	1.203146	0.053957	0.053644	137.133	29614.6	0.050484	0.093915	1460.18	88289.8
764	2.000000	1.213889	7.37253e+06	-38889.1	1005.82	-29795.8	0.000000	0.000000	7.221861	189.064	NaN	0.000000	0.001666	0.001794	28.0815	64.1189	0.001863	34418.3	6.321994	-7.020375	182.528	1.213514	0.064387	0.064013	189.064	34418.3	0.060268	0.126770	1491.4	88319.1
764	2.000000	1.224484	7.37253e+06	-38889.1	1005.82	-29795.8	0.000000	0.000000	7.234734	244.48	NaN	0.000000	0.001659	0.001733	28.0813	72.6241	0.001796	40433.7	4.744527	172.963	246.785	1.224114	0.074983	0.074613	244.48	40433.7	0.070448	0.165915	1473.52	90692.9
764	2.000000	1.234939	7.37253e+06	-38889.1	1005.82	-29795.8	0.000000	0.000000	7.247556	302.091	NaN	0.000000	0.001702	0.001750	28.0811	81.283	0.001798	45198.6	6.396294	-9.864187	299.912	1.234623	0.085438	0.085122	302.091	45198.6	0.080425	0.209061	1444.99	90315.3
764	2.000000	1.245344	7.37253e+06	-38889.1	1005.82	-29795.8	0.000000	0.000000	7.260615	366.682	NaN	0.000000	0.001670	0.001767	28.0809	90.9108	0.001861	48856.2	2.924807	172.633	361.254	1.245000	0.095843	0.095498	366.682	48856.2	0.090214	0.255898	1432.92	88238.8
764	2.000000	1.254453	7.37253e+06	-38889.1	1005.82	-29795.8	0.000000	0.000000	7.271992	421.863	NaN	0.000000	0.001624	0.001770	28.0798	100.46	0.001839	54629.2	6.890698	168.682	423.95	1.254016	0.104952	0.104515	421.863	54629.2	0.099160	0.302553	1394.34	90739.7