File: remote_trans/data/nanoindenter/0828-1/data/Data_2025-08-06,11h17m57s/2025-07-22_16-23-58_1_233.txt
2025-07-22, 16:23:58, 1
Index	Phase	Displacement	Time	Pos X	Pos Y	Pos Z	Rot A	Rot B	Piezo Z	Force A	Force B	Gripper	Voltage A	Voltage B	Temperature	Amplitude force	Amplitude pos	Stiffness	Phase shift	Phase excitation	Force A raw	Displacement raw	HMax	HMax raw	Real Force	Real Stiffness	Contact Depth	Area	Hardness	Reduced Mod.
[#]	[#]	[um]	[s]	[um]	[um]	[um]	[m°]	[m°]	[um]	[uN]	[uN]	[V]	[V]	[V]	[°C]	[uN]	[um]	[N/m]	[°]	[°]	[uN]	[um]	[um]	[um]	[uN]	[N/m]	[um]	[um^2]	[MPa]	[MPa]
233	1.000000	0.002896	7.36732e+06	-50289.1	955.82	-29756.3	0.000000	0.000000	6.002810	0.033521	NaN	0.000000	0.001701	0.001640	28.0802	0.157934	0.001004	157.252	134.909	-166.107	0.085416	0.001615	-1.210673	-1.211954	0.033521	157.252	-1.210833	-1.533902E+16	-2.185370E-18	NaN
233	1.000000	0.046843	7.36732e+06	-50289.1	955.818	-29756.3	0.000000	0.000000	6.046759	0.084756	NaN	0.000000	0.001601	0.001589	28.0806	0.083296	0.001958	42.5361	-82.0466	-165.893	0.034270	0.045543	-1.166726	-1.168026	0.084756	42.5361	-1.168221	-4.121390E+15	-2.056502E-17	NaN
233	1.000000	0.090847	7.36732e+06	-50289.1	955.818	-29756.4	0.000000	0.000000	6.090764	0.088619	NaN	0.000000	0.001559	0.001597	28.0786	0.032025	0.002094	15.2968	-118.497	-164.711	0.082310	0.089516	-1.122722	-1.124053	0.088619	15.2968	-1.127067	-1.156849E+15	-7.660347E-17	NaN
233	1.000000	0.134865	7.36732e+06	-50289.1	955.818	-29756.4	0.000000	0.000000	6.134780	0.050702	NaN	0.000000	0.001678	0.001613	28.0787	0.133617	0.001962	68.1125	141.623	-160.728	0.061814	0.133524	-1.078704	-1.080045	0.050702	68.1125	-1.079263	-2.640068E+14	-1.920490E-16	NaN
233	1.000000	0.178881	7.36732e+06	-50289.1	955.818	-29756.4	0.000000	0.000000	6.178796	0.057987	NaN	0.000000	0.001650	0.001633	28.0791	0.021628	0.001990	10.8676	9.974573	-166.125	0.013873	0.177598	-1.034688	-1.035971	0.057987	10.8676	-1.038690	-7.522342E+13	-7.708654E-16	NaN
233	1.000000	0.222926	7.36732e+06	-50289.1	955.818	-29756.4	0.000000	0.000000	6.222842	0.056746	NaN	0.000000	0.001650	0.001597	28.0802	0.124839	0.002133	58.5209	133.442	-167.788	0.163350	0.221575	-0.990643	-0.991994	0.056746	58.5209	-0.991370	-1.736061E+13	-3.268659E-15	NaN
233	1.000000	0.266930	7.36732e+06	-50289.1	955.818	-29756.4	0.000000	0.000000	6.266842	-0.022376	NaN	0.000000	0.001587	0.001620	28.0797	0.108937	0.002053	53.0611	-77.162	-164.495	0.070472	0.265597	-0.946639	-0.947972	-0.022376	53.0611	-0.946323	-4.289771E+12	5.216226E-15	NaN
233	1.000000	0.310959	7.36732e+06	-50289.1	955.818	-29756.4	0.000000	0.000000	6.310876	0.089067	NaN	0.000000	0.001570	0.001638	28.0796	0.038470	0.001873	20.534	22.3995	-165.75	0.070120	0.309628	-0.902610	-0.903941	0.089067	20.534	-0.905864	-1.219795E+12	-7.301788E-14	NaN
233	1.000000	0.354982	7.36733e+06	-50289.1	955.818	-29756.4	0.000000	0.000000	6.354897	0.037286	NaN	0.000000	0.001570	0.001580	28.0784	0.035682	0.002153	16.5763	-54.8731	-164.39	0.077984	0.353709	-0.858587	-0.859860	0.037286	16.5763	-0.860274	-2.950043E+11	-1.263926E-13	NaN
233	1.000000	0.398973	7.36733e+06	-50289.1	955.819	-29756.4	0.000000	0.000000	6.398886	-0.004185	NaN	0.000000	0.001602	0.001599	28.0788	0.066963	0.002034	32.918	-166.761	-167.323	-0.043247	0.397663	-0.814596	-0.815906	-0.004185	32.918	-0.814501	-7.073368E+10	5.916963E-14	NaN
233	1.000000	0.443001	7.36733e+06	-50289.1	955.818	-29756.4	0.000000	0.000000	6.442916	0.046690	NaN	0.000000	0.001564	0.001675	28.0786	0.059978	0.002069	28.9912	-43.5064	-165.733	0.024659	0.441699	-0.770568	-0.771870	0.046690	28.9912	-0.771776	-1.859712E+10	-2.510613E-12	NaN
233	1.000000	0.487016	7.36733e+06	-50289.1	955.819	-29756.4	0.000000	0.000000	6.486928	-0.023101	NaN	0.000000	0.001584	0.001670	28.0801	0.032603	0.002015	16.1817	111.539	-165.164	0.040963	0.485665	-0.726553	-0.727904	-0.023101	16.1817	-0.725483	-4.357432E+9	5.301403E-12	NaN
233	1.000000	0.531019	7.36733e+06	-50289.1	955.818	-29756.4	0.000000	0.000000	6.530934	0.036609	NaN	0.000000	0.001646	0.001680	28.08	0.078776	0.001840	42.8113	-82.5299	-166.019	0.064718	0.529706	-0.682550	-0.683863	0.036609	42.8113	-0.683192	-1.153051E+9	-3.174938E-11	NaN
233	1.000000	0.575094	7.36733e+06	-50289.1	955.818	-29756.4	0.000000	0.000000	6.575009	0.039010	NaN	0.000000	0.001660	0.001598	28.0804	0.020561	0.001946	10.5631	-62.8496	-169.543	0.034824	0.573802	-0.638475	-0.639767	0.039010	10.5631	-0.641245	-3.071629E+8	-1.269999E-10	NaN
233	1.000000	0.619057	7.36733e+06	-50289.1	955.818	-29756.4	0.000000	0.000000	6.618972	0.032301	NaN	0.000000	0.001646	0.001614	28.0784	0.108769	0.002142	50.7907	-92.518	-162.832	0.099516	0.617770	-0.594512	-0.595799	0.032301	50.7907	-0.594989	-7.102729E+7	-4.547686E-10	NaN
233	1.000000	0.663103	7.36733e+06	-50289.1	955.818	-29756.4	0.000000	0.000000	6.663017	0.019044	NaN	0.000000	0.001582	0.001616	28.0786	0.046723	0.001976	23.6399	-114.4	-164.505	0.066111	0.661777	-0.550466	-0.551792	0.019044	23.6399	-0.551070	-1.756999E+7	-1.083893E-9	NaN
233	1.000000	0.707153	7.36733e+06	-50289.1	955.819	-29756.4	0.000000	0.000000	6.707065	-0.029436	NaN	0.000000	0.001576	0.001566	28.0788	0.039731	0.001893	20.983	-121.859	-164.975	-0.032776	0.705782	-0.506416	-0.507787	-0.029436	20.983	-0.505364	-4.07214e+06	7.228626E-9	NaN
233	1.000000	0.751131	7.36733e+06	-50289.1	955.818	-29756.4	0.000000	0.000000	6.751048	0.113316	NaN	0.000000	0.001608	0.001586	28.0802	0.027021	0.002105	12.8362	-46.6183	-165.314	0.090236	0.749814	-0.462438	-0.463755	0.113316	12.8362	-0.469059	-1.26535e+06	-8.955249E-8	NaN
233	1.000000	0.795174	7.36733e+06	-50289.1	955.819	-29756.4	0.000000	0.000000	6.795091	0.082967	NaN	0.000000	0.001625	0.001612	28.0804	0.030183	0.002101	14.364	-46.8218	-166.233	0.041943	0.793829	-0.418395	-0.419740	0.082967	14.364	-0.422727	-281239	-2.950035E-7	NaN
233	1.000000	0.839143	7.36733e+06	-50289.1	955.819	-29756.4	0.000000	0.000000	6.839059	0.083491	NaN	0.000000	0.001639	0.001581	28.0805	0.040085	0.001978	20.2639	55.6622	-167.49	0.043935	0.837834	-0.374426	-0.375735	0.083491	20.2639	-0.377516	-63713.6	-1.310405E-6	NaN
233	1.000000	0.883216	7.36733e+06	-50289.1	955.819	-29756.4	0.000000	0.000000	6.883132	0.076742	NaN	0.000000	0.001634	0.001572	28.0802	0.134246	0.001995	67.2971	-74.0193	-166.809	0.079729	0.881844	-0.330353	-0.331725	0.076742	67.2971	-0.331208	-13587.6	-5.647920E-6	NaN
233	1.000000	0.927204	7.36733e+06	-50289.1	955.819	-29756.4	0.000000	0.000000	6.927121	0.092166	NaN	0.000000	0.001618	0.001545	28.0789	0.075299	0.001948	38.6447	-45.1227	-166.799	0.111823	0.925942	-0.286365	-0.287627	0.092166	38.6447	-0.288154	-3130.56	-2.944058E-5	NaN
233	1.000000	0.971232	7.36733e+06	-50289.1	955.817	-29756.4	0.000000	0.000000	6.971145	0.012272	NaN	0.000000	0.001693	0.001565	28.0792	0.109778	0.001986	55.2748	112.189	-166.589	0.032507	0.969887	-0.242337	-0.243682	0.012272	55.2748	-0.242504	-628.942	-1.951278E-5	NaN
233	1.000000	1.015227	7.36733e+06	-50289.1	955.817	-29756.4	0.000000	0.000000	7.015144	0.084452	NaN	0.000000	0.001732	0.001607	28.0791	0.081952	0.002028	40.4113	96.6335	-168.867	0.150284	1.013967	-0.198342	-0.199602	0.084452	40.4113	-0.199909	-131.281	-0.000643	NaN
233	1.000000	1.059231	7.36733e+06	-50289.1	955.818	-29756.4	0.000000	0.000000	7.059147	0.064217	NaN	0.000000	0.001681	0.001646	28.0801	0.020682	0.001977	10.4587	173.387	-166.314	0.169145	1.057979	-0.154338	-0.155590	0.064217	10.4587	-0.158943	-26.2527	-0.002446	NaN
233	1.000000	1.103288	7.36733e+06	-50289.1	955.818	-29756.4	0.000000	0.000000	7.103201	-0.018237	NaN	0.000000	0.001661	0.001613	28.0797	0.046389	0.001931	24.0267	117.447	-165.425	0.036550	1.101988	-0.110281	-0.111581	-0.018237	24.0267	-0.109711	-2.963367	0.006154	NaN
233	1.000000	1.147316	7.36733e+06	-50289.1	955.818	-29756.4	0.000000	0.000000	7.147229	-0.019388	NaN	0.000000	0.001684	0.001607	28.0801	0.098582	0.002039	48.3551	-122.274	-165.217	-0.054402	1.145991	-0.066253	-0.067579	-0.019388	48.3551	-0.065952	-0.264791	0.073219	NaN
233	1.000000	1.191283	7.36733e+06	-50289.1	955.818	-29756.4	0.000000	0.000000	7.191200	0.085404	NaN	0.000000	0.001632	0.001603	28.0787	0.113545	0.001861	61.0183	-42.1792	-167.618	0.089681	1.189927	-0.022286	-0.023642	0.085404	61.0183	-0.023335	-0.015276	-5.590636	NaN
233	2.000000	1.227865	7.36733e+06	-50289.1	955.819	-29756.4	0.000000	0.000000	7.228232	11.0358	NaN	0.000000	0.001651	0.001589	28.0785	10.9806	0.001525	7201.85	1.570292	-170.445	11.0701	1.227547	0.014296	0.013978	11.0358	7201.85	0.013147	0.012893	855.961	57948.5
233	2.000000	1.238807	7.36733e+06	-50289.1	955.82	-29756.4	0.000000	0.000000	7.239982	30.683	NaN	0.000000	0.001746	0.001619	28.0783	23.4933	0.001900	12366.9	11.8049	177.962	30.8747	1.238434	0.025238	0.024865	30.683	12366.9	0.023377	0.028129	1090.78	67368
233	2.000000	1.249727	7.36733e+06	-50289.1	955.819	-29756.4	0.000000	0.000000	7.252145	60.9119	NaN	0.000000	0.001701	0.001601	28.0799	35.2763	0.001829	19285.7	8.499463	175.657	60.3062	1.249405	0.036158	0.035836	60.9119	19285.7	0.033790	0.048965	1243.99	79627.8
233	2.000000	1.260731	7.36733e+06	-50289.1	955.818	-29756.4	0.000000	0.000000	7.264681	98.1529	NaN	0.000000	0.001714	0.001574	28.08	45.9643	0.001776	25874	5.136515	175.6	98.6269	1.260480	0.047162	0.046911	98.1529	25874	0.044317	0.075660	1297.28	85941.3
233	2.000000	1.271721	7.36733e+06	-50289.1	955.819	-29756.4	0.000000	0.000000	7.277836	150.824	NaN	0.000000	0.001649	0.001576	28.0799	55.491	0.001723	32202.7	4.964845	174.602	151.307	1.271439	0.058152	0.057870	150.824	32202.7	0.054639	0.107289	1405.78	89823.2
233	2.000000	1.282736	7.36733e+06	-50289.1	955.818	-29756.4	0.000000	0.000000	7.291413	213.134	NaN	0.000000	0.001659	0.001584	28.0786	66.916	0.001763	37961.3	3.809518	174.331	213.521	1.282500	0.069167	0.068931	213.134	37961.3	0.064956	0.144176	1478.29	91341.2
233	2.000000	1.293640	7.36733e+06	-50289.1	955.82	-29756.4	0.000000	0.000000	7.304770	272.776	NaN	0.000000	0.001618	0.001573	28.0785	78.7837	0.001827	43123.7	5.938165	171.144	269.928	1.293468	0.080071	0.079899	272.776	43123.7	0.075327	0.186428	1463.17	91250.2
233	2.000000	1.304665	7.36733e+06	-50289.1	955.82	-29756.4	0.000000	0.000000	7.319284	357.608	NaN	0.000000	0.001651	0.001585	28.0789	88.5852	0.001818	48736.7	8.861628	167.506	355.946	1.304274	0.091096	0.090705	357.608	48736.7	0.085593	0.233239	1533.23	92199.5
233	2.000000	1.315719	7.36733e+06	-50289.1	955.82	-29756.4	0.000000	0.000000	7.333874	443.613	NaN	0.000000	0.001624	0.001605	28.0799	100.98	0.001730	58383.6	5.183417	170.74	444.022	1.315314	0.102150	0.101745	443.613	58383.6	0.096452	0.288042	1540.1	99388.5
233	2.000000	1.323683	7.36733e+06	-50289.1	955.82	-29756.4	0.000000	0.000000	7.344500	508.343	NaN	0.000000	0.001617	0.001593	28.0799	108.156	0.001803	59980.3	1.426123	173.577	507.477	1.323390	0.110114	0.109821	508.343	59980.3	0.103758	0.327946	1550.08	95693.1