File: remote_trans/data/nanoindenter/0828-1/data/Data_2025-08-06,11h17m57s/2025-07-22_16-23-58_1_1191.txt
2025-07-22, 16:23:58, 1
Index	Phase	Displacement	Time	Pos X	Pos Y	Pos Z	Rot A	Rot B	Piezo Z	Force A	Force B	Gripper	Voltage A	Voltage B	Temperature	Amplitude force	Amplitude pos	Stiffness	Phase shift	Phase excitation	Force A raw	Displacement raw	HMax	HMax raw	Real Force	Real Stiffness	Contact Depth	Area	Hardness	Reduced Mod.
[#]	[#]	[um]	[s]	[um]	[um]	[um]	[m°]	[m°]	[um]	[uN]	[uN]	[V]	[V]	[V]	[°C]	[uN]	[um]	[N/m]	[°]	[°]	[uN]	[um]	[um]	[um]	[uN]	[N/m]	[um]	[um^2]	[MPa]	[MPa]
1191	1.000000	0.002150	7.37669e+06	-56039.1	1105.82	-29739.8	0.000000	0.000000	6.002789	0.039860	NaN	0.000000	0.001532	0.001619	28.0806	0.048122	0.001051	45.8067	-3.250014	-168.609	0.011917	0.000899	-1.158417	-1.159668	0.039860	45.8067	-1.159070	-3.107429E+15	-1.282727E-17	NaN
1191	1.000000	0.046093	7.37669e+06	-56039.1	1105.82	-29739.8	0.000000	0.000000	6.046729	-0.044728	NaN	0.000000	0.001554	0.001625	28.0806	0.162615	0.001912	85.0417	-140.217	-165.69	-0.022629	0.044790	-1.114474	-1.115776	-0.044728	85.0417	-1.114079	-7.745181E+14	5.774993E-17	NaN
1191	1.000000	0.090116	7.37669e+06	-56039.1	1105.82	-29739.8	0.000000	0.000000	6.090753	-0.017566	NaN	0.000000	0.001540	0.001665	28.0822	0.114396	0.002033	56.2568	-105.347	-162.337	-0.023754	0.088769	-1.070451	-1.071798	-0.017566	56.2568	-1.070217	-1.995740E+14	8.801883E-17	NaN
1191	1.000000	0.134116	7.37669e+06	-56039.1	1105.82	-29739.8	0.000000	0.000000	6.134755	0.028259	NaN	0.000000	0.001549	0.001696	28.082	0.124810	0.002021	61.7575	61.0581	-164.122	0.049441	0.132827	-1.026451	-1.027740	0.028259	61.7575	-1.026794	-5.204199E+13	-5.430034E-16	NaN
1191	1.000000	0.178143	7.37669e+06	-56039.1	1105.82	-29739.8	0.000000	0.000000	6.178781	-0.004548	NaN	0.000000	0.001558	0.001689	28.0817	0.079197	0.001985	39.8948	-52.4172	-164.873	0.072878	0.176876	-0.982423	-0.983691	-0.004548	39.8948	-0.982338	-1.311918E+13	3.466351E-16	NaN
1191	1.000000	0.222169	7.37669e+06	-56039.1	1105.82	-29739.8	0.000000	0.000000	6.222807	-0.004423	NaN	0.000000	0.001507	0.001685	28.0809	0.046211	0.002049	22.5501	-46.424	-165.5	-0.031145	0.220870	-0.938397	-0.939697	-0.004423	22.5501	-0.938250	-3.338338E+12	1.324963E-15	NaN
1191	1.000000	0.266204	7.37669e+06	-56039.1	1105.82	-29739.8	0.000000	0.000000	6.266843	0.015685	NaN	0.000000	0.001616	0.001665	28.0804	0.090339	0.001844	48.9974	37.2053	-164.347	0.027122	0.264872	-0.894363	-0.895695	0.015685	48.9974	-0.894603	-8.592715E+11	-1.825345E-14	NaN
1191	1.000000	0.310226	7.37669e+06	-56039.1	1105.82	-29739.8	0.000000	0.000000	6.310864	0.005973	NaN	0.000000	0.001525	0.001674	28.0807	0.123351	0.002003	61.5759	-139.362	-163.892	0.048825	0.308904	-0.850341	-0.851663	0.005973	61.5759	-0.850414	-2.169391E+11	-2.753270E-14	NaN
1191	1.000000	0.354235	7.37669e+06	-56039.1	1105.82	-29739.8	0.000000	0.000000	6.354871	-0.054322	NaN	0.000000	0.001633	0.001658	28.0815	0.083926	0.001968	42.6396	138.205	-167.206	-0.083932	0.352918	-0.806332	-0.807649	-0.054322	42.6396	-0.805377	-5.319073E+10	1.021276E-12	NaN
1191	1.000000	0.398273	7.37669e+06	-56039.1	1105.82	-29739.8	0.000000	0.000000	6.398910	-0.023515	NaN	0.000000	0.001684	0.001657	28.0817	0.056290	0.002012	27.9828	174.272	-162.774	-0.082832	0.396921	-0.762294	-0.763646	-0.023515	27.9828	-0.761664	-1.354994E+10	1.735398E-12	NaN
1191	1.000000	0.442292	7.3767e+06	-56039.1	1105.82	-29739.8	0.000000	0.000000	6.442931	0.027204	NaN	0.000000	0.001507	0.001654	28.0814	0.081629	0.002035	40.1056	88.1335	-163.081	0.038017	0.440986	-0.718275	-0.719581	0.027204	40.1056	-0.718783	-3.530860E+9	-7.704677E-12	NaN
1191	1.000000	0.486256	7.3767e+06	-56039.1	1105.82	-29739.8	0.000000	0.000000	6.486892	-0.038810	NaN	0.000000	0.001585	0.001645	28.0809	0.065601	0.002057	31.8853	93.5834	-165.718	-0.034432	0.484965	-0.674311	-0.675602	-0.038810	31.8853	-0.673398	-8.470222E+8	4.581922E-11	NaN
1191	1.000000	0.530318	7.3767e+06	-56039.1	1105.82	-29739.8	0.000000	0.000000	6.530953	-0.061988	NaN	0.000000	0.001554	0.001696	28.0806	0.089247	0.001980	45.084	-125.604	-166.4	-0.018433	0.528979	-0.630249	-0.631588	-0.061988	45.084	-0.629218	-2.100324E+8	2.951343E-10	NaN
1191	1.000000	0.574371	7.3767e+06	-56039.1	1105.82	-29739.8	0.000000	0.000000	6.575010	0.002182	NaN	0.000000	0.001543	0.001681	28.0805	0.021342	0.001916	11.137	127.72	-164.147	-0.042150	0.573039	-0.586195	-0.587528	0.002182	11.137	-0.586342	-5.397962E+7	-4.042922E-11	NaN
1191	1.000000	0.618339	7.3767e+06	-56039.1	1105.82	-29739.8	0.000000	0.000000	6.618975	-0.041642	NaN	0.000000	0.001583	0.001693	28.0805	0.061630	0.002013	30.6138	118.031	-163.869	-0.056510	0.617017	-0.542228	-0.543550	-0.041642	30.6138	-0.541208	-1.282640E+7	3.246599E-9	NaN
1191	1.000000	0.662351	7.3767e+06	-56039.1	1105.82	-29739.8	0.000000	0.000000	6.662989	-0.018766	NaN	0.000000	0.001596	0.001678	28.082	0.110929	0.002070	53.5862	160.936	-166.437	3.694944E-5	0.661076	-0.498215	-0.499491	-0.018766	53.5862	-0.497953	-3.20961e+06	5.846964E-9	NaN
1191	1.000000	0.706400	7.3767e+06	-56039.1	1105.82	-29739.8	0.000000	0.000000	6.707034	-0.089890	NaN	0.000000	0.001624	0.001669	28.0818	0.066055	0.002164	30.5233	121.916	-166.662	-0.140577	0.705090	-0.454167	-0.455477	-0.089890	30.5233	-0.451958	-727638	1.235364E-7	NaN
1191	1.000000	0.750392	7.3767e+06	-56039.1	1105.82	-29739.8	0.000000	0.000000	6.751029	-0.017437	NaN	0.000000	0.001638	0.001665	28.0817	0.069764	0.002238	31.1659	160.798	-164.882	0.017234	0.749159	-0.410175	-0.411408	-0.017437	31.1659	-0.409756	-184046	9.474342E-8	NaN
1191	1.000000	0.794420	7.3767e+06	-56039.1	1105.82	-29739.8	0.000000	0.000000	6.795059	0.024635	NaN	0.000000	0.001598	0.001662	28.0803	0.128498	0.001997	64.3422	-151.597	-162.219	0.066823	0.793149	-0.366147	-0.367418	0.024635	64.3422	-0.366434	-44130.4	-5.582421E-7	NaN
1191	1.000000	0.838459	7.3767e+06	-56039.1	1105.82	-29739.8	0.000000	0.000000	6.839097	0.006844	NaN	0.000000	0.001571	0.001710	28.081	0.031560	0.002106	14.9872	-61.2848	-164.581	-0.080836	0.837210	-0.322108	-0.323357	0.006844	14.9872	-0.322450	-10108.4	-6.770651E-7	NaN
1191	1.000000	0.882472	7.3767e+06	-56039.1	1105.82	-29739.8	0.000000	0.000000	6.883108	-0.055085	NaN	0.000000	0.001587	0.001711	28.0807	0.102028	0.002004	50.9205	-168.08	-164.676	-0.117938	0.881158	-0.278095	-0.279409	-0.055085	50.9205	-0.277284	-2147.59	2.564978E-5	NaN
1191	1.000000	0.926457	7.3767e+06	-56039.1	1105.82	-29739.8	0.000000	0.000000	6.927093	-0.066476	NaN	0.000000	0.001548	0.001702	28.0816	0.045813	0.002007	22.8275	-173.541	-164.504	-0.056914	0.925210	-0.234110	-0.235357	-0.066476	22.8275	-0.231925	-429.426	0.000155	NaN
1191	1.000000	0.970464	7.3767e+06	-56039.1	1105.82	-29739.8	0.000000	0.000000	6.971104	0.056633	NaN	0.000000	0.001592	0.001711	28.0815	0.014483	0.002054	7.051068	156.918	-165.826	0.044720	0.969147	-0.190103	-0.191420	0.056633	7.051068	-0.196127	-113.725	-0.000498	NaN
1191	1.000000	1.014530	7.3767e+06	-56039.1	1105.82	-29739.8	0.000000	0.000000	7.015170	0.041599	NaN	0.000000	0.001600	0.001717	28.0817	0.097200	0.002081	46.7092	131.815	-167.7	0.024503	1.013220	-0.146037	-0.147347	0.041599	46.7092	-0.146705	-15.7628	-0.002639	NaN
1191	1.000000	1.058529	7.3767e+06	-56039.1	1105.82	-29739.8	0.000000	0.000000	7.059167	-0.013720	NaN	0.000000	0.001620	0.001747	28.0803	0.028289	0.002034	13.9077	-15.7236	-165.151	-0.023204	1.057250	-0.102037	-0.103317	-0.013720	13.9077	-0.101298	-1.951811	0.007029	NaN
1191	1.000000	1.102543	7.3767e+06	-56039.1	1105.82	-29739.8	0.000000	0.000000	7.103180	-0.033462	NaN	0.000000	0.001598	0.001748	28.0804	0.063750	0.002033	31.3516	-146.286	-162.355	0.015189	1.101215	-0.058024	-0.059352	-0.033462	31.3516	-0.057223	-0.149675	0.223562	NaN
1191	1.000000	1.146574	7.3767e+06	-56039.1	1105.82	-29739.8	0.000000	0.000000	7.147212	0.007136	NaN	0.000000	0.001560	0.001737	28.0804	0.069799	0.002012	34.6972	72.9145	-167.228	-0.030122	1.145237	-0.013993	-0.015330	0.007136	34.6972	-0.014147	-0.008770	-0.813744	NaN
1191	2.000000	1.173033	7.3767e+06	-56039.1	1105.82	-29739.8	0.000000	0.000000	7.174333	16.0807	NaN	0.000000	0.001583	0.001747	28.0815	15.7279	0.001817	8657.2	8.225642	-173.613	15.8228	1.172718	0.012466	0.012151	16.0807	8657.2	0.011073	0.010399	1546.41	77564
1191	2.000000	1.183951	7.3767e+06	-56039.1	1105.82	-29739.8	0.000000	0.000000	7.186128	37.4172	NaN	0.000000	0.001512	0.001746	28.0819	25.7717	0.001833	14060.5	7.668837	-179.176	36.3974	1.183666	0.023384	0.023099	37.4172	14060.5	0.021388	0.024770	1510.56	81621.9
1191	2.000000	1.194948	7.3767e+06	-56039.1	1105.82	-29739.8	0.000000	0.000000	7.198334	66.7862	NaN	0.000000	0.001511	0.001671	28.0816	36.259	0.001748	20744.5	8.200661	176.787	65.8314	1.194616	0.034381	0.034049	66.7862	20744.5	0.031966	0.044918	1486.84	89426
1191	2.000000	1.205897	7.3767e+06	-56039.1	1105.82	-29739.8	0.000000	0.000000	7.211020	109.01	NaN	0.000000	0.001509	0.001694	28.0807	47.3504	0.001862	25425.9	2.890341	179.748	106.34	1.205548	0.045330	0.044981	109.01	25425.9	0.042115	0.069608	1566.05	88047.9
1191	2.000000	1.216891	7.3767e+06	-56039.1	1105.82	-29739.8	0.000000	0.000000	7.223678	149.463	NaN	0.000000	0.001584	0.001695	28.0804	57.2366	0.001835	31191	5.486266	176.797	147.727	1.216523	0.056324	0.055956	149.463	31191	0.052730	0.101039	1479.26	89651.7
1191	2.000000	1.227943	7.3767e+06	-56039.1	1105.82	-29739.8	0.000000	0.000000	7.237011	204.906	NaN	0.000000	0.001564	0.001688	28.0803	68.1549	0.001779	38310.3	4.648556	175.584	206.611	1.227605	0.067377	0.067039	204.906	38310.3	0.063365	0.138151	1483.2	94169.9
1191	2.000000	1.239013	7.3767e+06	-56039.1	1105.82	-29739.8	0.000000	0.000000	7.250819	271.465	NaN	0.000000	0.001510	0.001711	28.0817	81.5561	0.001802	45248.8	5.556722	172.887	279.477	1.238711	0.078446	0.078144	271.465	45248.8	0.073946	0.180510	1503.88	97303.7
1191	2.000000	1.249912	7.3767e+06	-56039.1	1105.82	-29739.8	0.000000	0.000000	7.266242	381.429	NaN	0.000000	0.001513	0.001701	28.0817	91.7077	0.001898	48323.5	6.787257	171.445	380.043	1.249463	0.089345	0.088896	381.429	48323.5	0.083425	0.222945	1710.86	93504.5
1191	2.000000	1.260818	7.3767e+06	-56039.1	1105.82	-29739.8	0.000000	0.000000	7.281996	499.274	NaN	0.000000	0.001571	0.001695	28.0816	101.603	0.001779	57105.7	1.910933	175.06	496.999	1.260429	0.100251	0.099863	499.274	57105.7	0.093694	0.273614	1824.74	99743.2
1191	2.000000	1.265882	7.3767e+06	-56039.1	1105.82	-29739.8	0.000000	0.000000	7.289366	555.329	NaN	0.000000	0.001542	0.001700	28.0818	108.816	0.001816	59907.8	3.968023	172.096	554.43	1.265714	0.105315	0.105147	555.329	59907.8	0.098363	0.298248	1861.97	100223