File: remote_trans/data/nanoindenter/0828-1/data/Data_2025-08-06,11h17m57s/2025-07-22_16-23-58_1_754.txt
2025-07-22, 16:23:58, 1
Index	Phase	Displacement	Time	Pos X	Pos Y	Pos Z	Rot A	Rot B	Piezo Z	Force A	Force B	Gripper	Voltage A	Voltage B	Temperature	Amplitude force	Amplitude pos	Stiffness	Phase shift	Phase excitation	Force A raw	Displacement raw	HMax	HMax raw	Real Force	Real Stiffness	Contact Depth	Area	Hardness	Reduced Mod.
[#]	[#]	[um]	[s]	[um]	[um]	[um]	[m°]	[m°]	[um]	[uN]	[uN]	[V]	[V]	[V]	[°C]	[uN]	[um]	[N/m]	[°]	[°]	[uN]	[um]	[um]	[um]	[uN]	[N/m]	[um]	[um^2]	[MPa]	[MPa]
754	1.000000	0.003043	7.37243e+06	-39389.1	1005.82	-29794	0.000000	0.000000	6.002778	0.008848	NaN	0.000000	0.001643	0.001763	28.0832	0.108431	0.000866	125.209	22.8408	-168.196	-0.010284	0.001811	-1.119211	-1.120442	0.008848	125.209	-1.119264	-9.090596E+14	-9.732762E-18	NaN
754	1.000000	0.044985	7.37243e+06	-39389.1	1005.82	-29794	0.000000	0.000000	6.044722	0.042666	NaN	0.000000	0.001603	0.001695	28.0815	0.030485	0.001918	15.8949	-119.23	14.6012	0.004132	0.043631	-1.077268	-1.078623	0.042666	15.8949	-1.079282	-2.641624E+14	-1.615132E-16	NaN
754	1.000000	0.087017	7.37243e+06	-39389.1	1005.82	-29794	0.000000	0.000000	6.086756	0.093465	NaN	0.000000	0.001671	0.001733	28.0815	0.099602	0.001914	52.0414	-78.5671	-167.96	-0.023669	0.085733	-1.035237	-1.036521	0.093465	52.0414	-1.036583	-7.047326E+13	-1.326245E-15	NaN
754	1.000000	0.129009	7.37243e+06	-39389.1	1005.82	-29794	0.000000	0.000000	6.128744	-0.005236	NaN	0.000000	0.001676	0.001759	28.0815	0.058714	0.001964	29.8918	30.638	12.2703	-0.046580	0.127701	-0.993244	-0.994553	-0.005236	29.8918	-0.993113	-1.832468E+13	2.857128E-16	NaN
754	1.000000	0.171043	7.37243e+06	-39389.1	1005.82	-29794	0.000000	0.000000	6.170781	0.062157	NaN	0.000000	0.001642	0.001739	28.083	0.074421	0.001839	40.4685	8.292805	-169.725	0.118750	0.169772	-0.951210	-0.952481	0.062157	40.4685	-0.952362	-5.174695E+12	-1.201173E-14	NaN
754	1.000000	0.213061	7.37243e+06	-39389.1	1005.82	-29794	0.000000	0.000000	6.212798	0.070537	NaN	0.000000	0.001585	0.001770	28.0828	0.122625	0.001997	61.4101	-116.223	14.6416	0.055293	0.211701	-0.909193	-0.910553	0.070537	61.4101	-0.910054	-1.389621E+12	-5.075952E-14	NaN
754	1.000000	0.255096	7.37243e+06	-39389.1	1005.82	-29794	0.000000	0.000000	6.254829	-0.052531	NaN	0.000000	0.001551	0.001768	28.0827	0.058188	0.002070	28.1135	39.9557	-164.574	-0.044999	0.253759	-0.867158	-0.868494	-0.052531	28.1135	-0.865756	-3.499627E+11	1.501053E-13	NaN
754	1.000000	0.297098	7.37243e+06	-39389.1	1005.82	-29794	0.000000	0.000000	6.296835	0.062731	NaN	0.000000	0.001611	0.001725	28.0818	0.073598	0.002120	34.7121	-149.701	14.5176	-0.001830	0.295728	-0.825156	-0.826525	0.062731	34.7121	-0.826511	-1.029190E+11	-6.095200E-13	NaN
754	1.000000	0.339142	7.37243e+06	-39389.1	1005.82	-29794	0.000000	0.000000	6.338878	0.033350	NaN	0.000000	0.001585	0.001734	28.0816	0.153325	0.002141	71.5996	-141.949	-165.762	-0.022789	0.337803	-0.783112	-0.784451	0.033350	71.5996	-0.783461	-2.680755E+10	-1.244067E-12	NaN
754	1.000000	0.381127	7.37243e+06	-39389.1	1005.82	-29794	0.000000	0.000000	6.380861	-0.019654	NaN	0.000000	0.001623	0.001684	28.0816	0.069002	0.002014	34.2574	-164.661	13.3202	-0.052924	0.379800	-0.741127	-0.742453	-0.019654	34.2574	-0.740696	-7.023276E+9	2.798422E-12	NaN
754	1.000000	0.423161	7.37243e+06	-39389.1	1005.82	-29794	0.000000	0.000000	6.422895	-0.012158	NaN	0.000000	0.001619	0.001708	28.0831	0.077413	0.001998	38.7495	19.8123	-164.763	-0.032440	0.421818	-0.699093	-0.700436	-0.012158	38.7495	-0.698857	-1.887661E+9	6.440946E-12	NaN
754	1.000000	0.465164	7.37243e+06	-39389.1	1005.82	-29794	0.000000	0.000000	6.464899	0.006560	NaN	0.000000	0.001643	0.001729	28.0829	0.026194	0.002003	13.0748	-163.56	13.7191	0.014985	0.463816	-0.657089	-0.658438	0.006560	13.0748	-0.657466	-5.125690E+8	-1.279772E-11	NaN
754	1.000000	0.507203	7.37243e+06	-39389.1	1005.82	-29794	0.000000	0.000000	6.506937	-0.010389	NaN	0.000000	0.001664	0.001715	28.0832	0.056040	0.002090	26.8195	122.109	-163.995	-0.023725	0.505904	-0.615051	-0.616350	-0.010389	26.8195	-0.614760	-1.329199E+8	7.816107E-11	NaN
754	1.000000	0.549215	7.37243e+06	-39389.1	1005.82	-29794	0.000000	0.000000	6.548948	-0.043735	NaN	0.000000	0.001624	0.001705	28.0836	0.053967	0.002052	26.2985	33.026	12.8548	-0.082917	0.547831	-0.573038	-0.574422	-0.043735	26.2985	-0.571791	-3.399206E+7	1.286617E-9	NaN
754	1.000000	0.591220	7.37243e+06	-39389.1	1005.82	-29794	0.000000	0.000000	6.590958	0.084036	NaN	0.000000	0.001680	0.001717	28.0821	0.056170	0.001902	29.5395	-128.878	-164.183	-0.034978	0.589921	-0.531034	-0.532333	0.084036	29.5395	-0.533168	-9.92103e+06	-8.470444E-9	NaN
754	1.000000	0.633244	7.37243e+06	-39389.1	1005.82	-29794	0.000000	0.000000	6.632982	0.063663	NaN	0.000000	0.001639	0.001682	28.0821	0.081809	0.001936	42.249	39.9056	10.4877	0.046131	0.631907	-0.489009	-0.490346	0.063663	42.249	-0.490139	-2.49656e+06	-2.550037E-8	NaN
754	1.000000	0.675238	7.37243e+06	-39389.1	1005.82	-29794	0.000000	0.000000	6.674975	0.049681	NaN	0.000000	0.001646	0.001729	28.0821	0.135301	0.002009	67.3541	-155.922	-164.246	0.186299	0.673887	-0.447016	-0.448367	0.049681	67.3541	-0.447569	-631103	-7.872143E-8	NaN
754	1.000000	0.717303	7.37243e+06	-39389.1	1005.82	-29794	0.000000	0.000000	6.717036	-0.051973	NaN	0.000000	0.001607	0.001723	28.0831	0.131696	0.001975	66.6817	-162.059	13.1036	-0.039181	0.715926	-0.404950	-0.406328	-0.051973	66.6817	-0.404366	-154247	3.369470E-7	NaN
754	1.000000	0.759288	7.37243e+06	-39389.1	1005.82	-29794	0.000000	0.000000	6.759022	-0.016695	NaN	0.000000	0.001625	0.001722	28.0833	0.060244	0.001945	30.9777	90.1808	-166.727	-0.028387	0.757960	-0.362965	-0.364294	-0.016695	30.9777	-0.362561	-38801.4	4.302678E-7	NaN
754	1.000000	0.801313	7.37243e+06	-39389.1	1005.82	-29794	0.000000	0.000000	6.801045	-0.064327	NaN	0.000000	0.001641	0.001759	28.083	0.092143	0.002062	44.6967	-93.6715	15.0104	-0.101439	0.799973	-0.320940	-0.322280	-0.064327	44.6967	-0.319861	-9259.63	6.947041E-6	NaN
754	1.000000	0.843331	7.37243e+06	-39389.1	1005.82	-29794	0.000000	0.000000	6.843065	-0.002095	NaN	0.000000	0.001641	0.001733	28.0818	0.094520	0.002068	45.7097	-77.5039	-168.067	-0.015197	0.842024	-0.278923	-0.280229	-0.002095	45.7097	-0.278888	-2270.88	9.223719E-7	NaN
754	1.000000	0.885369	7.37243e+06	-39389.1	1005.82	-29794	0.000000	0.000000	6.885104	0.005721	NaN	0.000000	0.001699	0.001753	28.0817	0.053971	0.002012	26.8228	19.4733	12.527	0.042167	0.884017	-0.236885	-0.238237	0.005721	26.8228	-0.237045	-516.8	-1.107036E-5	NaN
754	1.000000	0.927390	7.37243e+06	-39389.1	1005.82	-29794	0.000000	0.000000	6.927127	0.036420	NaN	0.000000	0.001643	0.001722	28.0817	0.043045	0.001855	23.2017	79.6893	-167.717	-0.022915	0.926041	-0.194863	-0.196213	0.036420	23.2017	-0.196041	-113.351	-0.000321	NaN
754	1.000000	0.969425	7.37243e+06	-39389.1	1005.82	-29794	0.000000	0.000000	6.969162	0.060155	NaN	0.000000	0.001620	0.001755	28.0828	0.200170	0.002040	98.1106	112.058	12.6532	0.083244	0.968001	-0.152828	-0.154252	0.060155	98.1106	-0.153288	-20.783	-0.002894	NaN
754	1.000000	1.011424	7.37243e+06	-39389.1	1005.82	-29794	0.000000	0.000000	7.011159	0.023009	NaN	0.000000	0.001649	0.001773	28.0832	0.044346	0.001997	22.209	46.7006	-164.647	-0.035037	1.010063	-0.110830	-0.112190	0.023009	22.209	-0.111607	-3.248132	-0.007084	NaN
754	1.000000	1.053421	7.37243e+06	-39389.1	1005.82	-29794	0.000000	0.000000	7.053156	0.018592	NaN	0.000000	0.001618	0.001708	28.083	0.065298	0.002056	31.759	129.295	13.9342	-0.008782	1.052102	-0.068833	-0.070152	0.018592	31.759	-0.069272	-0.326090	-0.057015	NaN
754	1.000000	1.095424	7.37243e+06	-39389.1	1005.82	-29794	0.000000	0.000000	7.095159	0.027185	NaN	0.000000	0.001641	0.001706	28.0832	0.117210	0.001965	59.655	-33.8272	-168.083	-0.091065	1.094114	-0.026830	-0.028140	0.027185	59.655	-0.027172	-0.019258	-1.411626	NaN
754	2.000000	1.131515	7.37243e+06	-39389.1	1005.82	-29794	0.000000	0.000000	7.131680	10.4702	NaN	0.000000	0.001670	0.001720	28.0818	11.9449	0.001767	6759.67	4.463805	7.528589	9.915670	1.131220	0.009262	0.008967	10.4702	6759.67	0.008100	0.007145	1465.3	73060.9
754	2.000000	1.142014	7.37243e+06	-39389.1	1005.82	-29794	0.000000	0.000000	7.143029	31.1616	NaN	0.000000	0.001657	0.001725	28.0816	22.9984	0.001876	12262.1	10.3242	178.465	32.6672	1.141669	0.019760	0.019416	31.1616	12262.1	0.017854	0.019282	1616.1	80679.5
754	2.000000	1.152493	7.37243e+06	-39389.1	1005.82	-29794	0.000000	0.000000	7.154639	58.655	NaN	0.000000	0.001756	0.001689	28.0818	33.46	0.001764	18972.7	5.577320	-1.914711	59.624	1.152039	0.030240	0.029786	58.655	18972.7	0.027921	0.036545	1605	90675
754	2.000000	1.162902	7.37243e+06	-39389.1	1005.82	-29794	0.000000	0.000000	7.167095	108.506	NaN	0.000000	0.001750	0.001719	28.083	44.3177	0.001689	26236.7	6.145675	175.286	107.022	1.162542	0.040648	0.040289	108.506	26236.7	0.037546	0.057841	1875.94	99670.1
754	2.000000	1.173379	7.37244e+06	-39389.1	1005.82	-29794	0.000000	0.000000	7.179984	167.168	NaN	0.000000	0.001739	0.001706	28.083	54.6451	0.001842	29674.1	6.194572	-6.642868	163.778	1.173061	0.051126	0.050807	167.168	29674.1	0.046901	0.083075	2012.26	94062.5
754	2.000000	1.183841	7.37244e+06	-39389.1	1005.82	-29794	0.000000	0.000000	7.193596	243.833	NaN	0.000000	0.001739	0.001699	28.0829	64.2445	0.001938	33152.3	2.393055	176.965	240.454	1.183504	0.061588	0.061250	243.833	33152.3	0.056071	0.112099	2175.16	90466.3
754	2.000000	1.194342	7.37244e+06	-39389.1	1005.82	-29794	0.000000	0.000000	7.207237	320.245	NaN	0.000000	0.001711	0.001671	28.0818	74.8663	0.001791	41795.7	2.601552	-5.335502	317.078	1.194084	0.072089	0.071830	320.245	41795.7	0.066342	0.149527	2141.71	98751.6
754	2.000000	1.204803	7.37244e+06	-39389.1	1005.82	-29794	0.000000	0.000000	7.221431	411.079	NaN	0.000000	0.001697	0.001717	28.082	85.7396	0.001838	46649.8	2.871195	173.541	407.458	1.204586	0.082550	0.082332	411.079	46649.8	0.075941	0.189090	2173.99	98014.3
754	2.000000	1.215217	7.37244e+06	-39389.1	1005.82	-29794	0.000000	0.000000	7.236412	522.253	NaN	0.000000	0.001725	0.001755	28.0816	95.6915	0.001750	54666.6	3.961585	-8.916481	514.373	1.215040	0.092963	0.092786	522.253	54666.6	0.085798	0.234223	2229.73	103200
754	2.000000	1.225827	7.37244e+06	-39389.1	1005.82	-29794	0.000000	0.000000	7.252018	643.812	NaN	0.000000	0.001748	0.001676	28.0831	104.65	0.001798	58206.2	8.345131	166.91	641.718	1.225360	0.103574	0.103107	643.812	58206.2	0.095278	0.281859	2284.16	100168
754	2.000000	1.227703	7.37244e+06	-39389.1	1005.82	-29794	0.000000	0.000000	7.254700	663.442	NaN	0.000000	0.001740	0.001715	28.0842	106.626	0.001782	59835.5	3.189178	171.381	655.918	1.227437	0.105449	0.105183	663.442	59835.5	0.097133	0.291662	2274.69	101226