File: remote_trans/data/nanoindenter/0828-1/data/Data_2025-08-06,11h17m57s/2025-07-22_16-23-58_1_504.txt
2025-07-22, 16:23:58, 1
Index	Phase	Displacement	Time	Pos X	Pos Y	Pos Z	Rot A	Rot B	Piezo Z	Force A	Force B	Gripper	Voltage A	Voltage B	Temperature	Amplitude force	Amplitude pos	Stiffness	Phase shift	Phase excitation	Force A raw	Displacement raw	HMax	HMax raw	Real Force	Real Stiffness	Contact Depth	Area	Hardness	Reduced Mod.
[#]	[#]	[um]	[s]	[um]	[um]	[um]	[m°]	[m°]	[um]	[uN]	[uN]	[V]	[V]	[V]	[°C]	[uN]	[um]	[N/m]	[°]	[°]	[uN]	[um]	[um]	[um]	[uN]	[N/m]	[um]	[um^2]	[MPa]	[MPa]
504	1.000000	0.002335	7.36998e+06	-51889.1	1005.82	-29750.8	0.000000	0.000000	6.002737	-0.034830	NaN	0.000000	0.001519	0.001712	28.0807	0.113620	0.000991	114.678	-133.705	175.02	-0.060240	0.001080	-1.129618	-1.130873	-0.034830	114.678	-1.129390	-1.242920E+15	2.802240E-17	NaN
504	1.000000	0.044262	7.36998e+06	-51889.1	1005.82	-29750.8	0.000000	0.000000	6.044665	-0.033211	NaN	0.000000	0.001536	0.001725	28.0823	0.041102	0.001866	22.0218	166.322	-5.227415	0.029038	0.042896	-1.087690	-1.089057	-0.033211	22.0218	-1.086559	-3.308350E+14	1.003862E-16	NaN
504	1.000000	0.086287	7.36998e+06	-51889.1	1005.82	-29750.8	0.000000	0.000000	6.086690	-0.013584	NaN	0.000000	0.001556	0.001709	28.0819	0.089057	0.002023	44.015	-75.86	-179.847	-0.011016	0.085014	-1.045666	-1.046939	-0.013584	44.015	-1.045434	-9.268980E+13	1.465519E-16	NaN
504	1.000000	0.128284	7.36998e+06	-51889.1	1005.82	-29750.8	0.000000	0.000000	6.128687	-0.025605	NaN	0.000000	0.001580	0.001687	28.082	0.054512	0.001912	28.5128	-69.3073	-0.936601	-0.049582	0.126942	-1.003669	-1.005011	-0.025605	28.5128	-1.002995	-2.489381E+13	1.028577E-15	NaN
504	1.000000	0.170329	7.36998e+06	-51889.1	1005.82	-29750.8	0.000000	0.000000	6.170732	-0.024019	NaN	0.000000	0.001573	0.001736	28.0808	0.034162	0.002158	15.8335	34.8293	178.149	0.012352	0.169029	-0.961624	-0.962923	-0.024019	15.8335	-0.960486	-6.659150E+12	3.606885E-15	NaN
504	1.000000	0.212328	7.36998e+06	-51889.1	1005.82	-29750.8	0.000000	0.000000	6.212732	0.022981	NaN	0.000000	0.001586	0.001736	28.0811	0.064763	0.002080	31.1347	168.496	-2.292604	-0.063524	0.211021	-0.919625	-0.920932	0.022981	31.1347	-0.920179	-1.903791E+12	-1.207127E-14	NaN
504	1.000000	0.254375	7.36998e+06	-51889.1	1005.82	-29750.8	0.000000	0.000000	6.254778	-0.033359	NaN	0.000000	0.001582	0.001703	28.0811	0.074446	0.002104	35.3831	-158.538	178.984	-0.014609	0.253042	-0.877578	-0.878911	-0.033359	35.3831	-0.876871	-4.947474E+11	6.742684E-14	NaN
504	1.000000	0.296362	7.36998e+06	-51889.1	1005.82	-29750.8	0.000000	0.000000	6.296765	-0.017505	NaN	0.000000	0.001531	0.001702	28.0822	0.068807	0.002075	33.1576	-98.6696	3.027567	0.025585	0.295097	-0.835591	-0.836855	-0.017505	33.1576	-0.835195	-1.349546E+11	1.297083E-13	NaN
504	1.000000	0.338381	7.36998e+06	-51889.1	1005.82	-29750.8	0.000000	0.000000	6.338781	-0.091079	NaN	0.000000	0.001587	0.001701	28.0822	0.042041	0.002042	20.5905	25.7831	177.258	-0.075488	0.337137	-0.793572	-0.794815	-0.091079	20.5905	-0.790254	-3.315378E+10	2.747179E-12	NaN
504	1.000000	0.380436	7.36998e+06	-51889.1	1005.82	-29750.8	0.000000	0.000000	6.380840	0.000505	NaN	0.000000	0.001603	0.001705	28.0824	0.044790	0.002010	22.2858	-22.3147	-0.436019	-0.028200	0.379097	-0.751517	-0.752855	0.000505	22.2858	-0.751534	-9.865034E+9	-5.122908E-14	NaN
504	1.000000	0.422446	7.36998e+06	-51889.1	1005.82	-29750.8	0.000000	0.000000	6.422848	-0.056019	NaN	0.000000	0.001565	0.001698	28.0821	0.079121	0.002102	37.6457	-125.1	178.334	-0.008191	0.421122	-0.709506	-0.710831	-0.056019	37.6457	-0.708390	-2.547301E+9	2.199145E-11	NaN
504	1.000000	0.464457	7.36998e+06	-51889.1	1005.82	-29750.8	0.000000	0.000000	6.464861	-0.006005	NaN	0.000000	0.001547	0.001717	28.081	0.073401	0.001946	37.7105	93.6525	-1.584987	-0.032668	0.463077	-0.667496	-0.668876	-0.006005	37.7105	-0.667376	-7.006119E+8	8.571421E-12	NaN
504	1.000000	0.506482	7.36998e+06	-51889.1	1005.82	-29750.8	0.000000	0.000000	6.506886	-0.000640	NaN	0.000000	0.001536	0.001745	28.0807	0.081496	0.002158	37.7632	-124.029	178.384	0.028920	0.505172	-0.625470	-0.626780	-0.000640	37.7632	-0.625458	-1.864796E+8	3.431675E-12	NaN
504	1.000000	0.548512	7.36998e+06	-51889.1	1005.82	-29750.8	0.000000	0.000000	6.548914	-0.045037	NaN	0.000000	0.001541	0.001709	28.0805	0.082206	0.002016	40.7831	-120.934	-5.307806	-0.034173	0.547183	-0.583441	-0.584769	-0.045037	40.7831	-0.582612	-4.794872E+7	9.392826E-10	NaN
504	1.000000	0.590510	7.36998e+06	-51889.1	1005.82	-29750.8	0.000000	0.000000	6.590913	-0.022453	NaN	0.000000	0.001537	0.001751	28.082	0.065187	0.001988	32.793	86.706	178.736	0.020315	0.589158	-0.541443	-0.542795	-0.022453	32.793	-0.540929	-1.271284E+7	1.766170E-9	NaN
504	1.000000	0.632552	7.36998e+06	-51889.1	1005.82	-29750.8	0.000000	0.000000	6.632956	-0.000180	NaN	0.000000	0.001498	0.001730	28.0822	0.063794	0.001974	32.3226	-73.695	0.017052	-0.032123	0.631198	-0.499401	-0.500754	-0.000180	32.3226	-0.499397	-3.36204e+06	5.359814E-11	NaN
504	1.000000	0.674555	7.36998e+06	-51889.1	1005.82	-29750.8	0.000000	0.000000	6.674958	-0.022972	NaN	0.000000	0.001530	0.001721	28.0821	0.034439	0.001908	18.0492	-14.1883	173.553	0.023353	0.673211	-0.457397	-0.458742	-0.022972	18.0492	-0.456443	-841418	2.730204E-8	NaN
504	1.000000	0.716547	7.36998e+06	-51889.1	1005.82	-29750.8	0.000000	0.000000	6.716950	-0.017365	NaN	0.000000	0.001562	0.001758	28.0808	0.037296	0.001821	20.4767	-86.8565	-5.508114	-0.064232	0.715211	-0.415406	-0.416742	-0.017365	20.4767	-0.414770	-216864	8.007250E-8	NaN
504	1.000000	0.758609	7.36998e+06	-51889.1	1005.82	-29750.8	0.000000	0.000000	6.759012	-0.000783	NaN	0.000000	0.001562	0.001720	28.0807	0.052197	0.002018	25.8661	43.1428	178.651	0.018152	0.757234	-0.373344	-0.374718	-0.000783	25.8661	-0.373321	-55454	1.412393E-8	NaN
504	1.000000	0.800577	7.36999e+06	-51889.1	1005.82	-29750.8	0.000000	0.000000	6.800984	0.077987	NaN	0.000000	0.001558	0.001726	28.0807	0.128439	0.001982	64.7893	-62.7642	-3.349737	0.047611	0.799210	-0.331376	-0.332743	0.077987	64.7893	-0.332279	-14086.5	-5.536326E-6	NaN
504	1.000000	0.842602	7.36999e+06	-51889.1	1005.82	-29750.8	0.000000	0.000000	6.843007	0.035112	NaN	0.000000	0.001597	0.001721	28.0819	0.054498	0.001989	27.3935	85.677	177.304	0.033025	0.841281	-0.289351	-0.290671	0.035112	27.3935	-0.290312	-3372.68	-1.041085E-5	NaN
504	1.000000	0.884618	7.36999e+06	-51889.1	1005.82	-29750.8	0.000000	0.000000	6.885022	0.014613	NaN	0.000000	0.001558	0.001725	28.0818	0.105976	0.001990	53.2501	-68.5532	-4.582625	-0.034827	0.883255	-0.247335	-0.248697	0.014613	53.2501	-0.247541	-753.156	-1.940241E-5	NaN
504	1.000000	0.926672	7.36999e+06	-51889.1	1005.82	-29750.8	0.000000	0.000000	6.927074	-0.042037	NaN	0.000000	0.001584	0.001738	28.0818	0.045224	0.001945	23.2565	-177.687	175.728	-0.060230	0.925356	-0.205281	-0.206597	-0.042037	23.2565	-0.203925	-152.761	0.000275	NaN
504	1.000000	0.968649	7.36999e+06	-51889.1	1005.82	-29750.8	0.000000	0.000000	6.969053	0.008912	NaN	0.000000	0.001547	0.001755	28.0818	0.149124	0.002092	71.2783	-155.653	-2.565488	-0.070522	0.967271	-0.163303	-0.164681	0.008912	71.2783	-0.163397	-31.4853	-0.000283	NaN
504	1.000000	1.010658	7.36999e+06	-51889.1	1005.82	-29750.8	0.000000	0.000000	7.011063	0.026153	NaN	0.000000	0.001546	0.001721	28.0806	0.030281	0.001845	16.416	-133.57	173.028	0.042907	1.009309	-0.121294	-0.122644	0.026153	16.416	-0.122489	-5.420879	-0.004825	NaN
504	1.000000	1.052717	7.36999e+06	-51889.1	1005.82	-29750.8	0.000000	0.000000	7.053120	-0.030655	NaN	0.000000	0.001561	0.001730	28.0808	0.089428	0.002008	44.5421	-70.8115	-4.898305	-0.077950	1.051361	-0.079235	-0.080592	-0.030655	44.5421	-0.078719	-0.574803	0.053332	NaN
504	1.000000	1.094718	7.36999e+06	-51889.1	1005.82	-29750.8	0.000000	0.000000	7.095124	0.035330	NaN	0.000000	0.001517	0.001744	28.0806	0.051420	0.002097	24.5199	-178.802	174.613	0.063389	1.093414	-0.037234	-0.038539	0.035330	24.5199	-0.038315	-0.040212	-0.878597	NaN
504	1.000000	1.136687	7.36999e+06	-51889.1	1005.82	-29750.8	0.000000	0.000000	7.137404	7.618300	NaN	0.000000	0.001532	0.001762	28.0821	8.060537	0.001814	4442.56	14.0496	-11.6996	5.730529	1.135356	0.004734	0.003403	7.618300	4442.56	0.003448	0.002761	2759.68	77251.6
504	2.000000	1.148212	7.36999e+06	-51889.1	1005.82	-29750.8	0.000000	0.000000	7.149664	25.4941	NaN	0.000000	0.001565	0.001732	28.0824	20.9851	0.001814	11567.4	6.624803	165.286	24.8712	1.147930	0.016259	0.015977	25.4941	11567.4	0.014606	0.014763	1726.84	86979.1
504	2.000000	1.158728	7.36999e+06	-51889.1	1005.82	-29750.8	0.000000	0.000000	7.161344	53.7853	NaN	0.000000	0.001603	0.001741	28.0821	30.7629	0.001668	18442.3	6.188473	-19.5646	52.466	1.158480	0.026776	0.026528	53.7853	18442.3	0.024588	0.030271	1776.8	96844.8
504	2.000000	1.169179	7.36999e+06	-51889.1	1005.82	-29750.8	0.000000	0.000000	7.173346	91.5139	NaN	0.000000	0.001560	0.001776	28.0805	42.8464	0.001853	23120.7	4.321895	160.954	89.1903	1.168888	0.037226	0.036935	91.5139	23120.7	0.034257	0.050031	1829.16	94440.1
504	2.000000	1.179678	7.36999e+06	-51889.1	1005.82	-29750.8	0.000000	0.000000	7.185827	139.714	NaN	0.000000	0.001522	0.001713	28.0807	52.7916	0.001801	29307.9	5.505757	-22.6531	137.165	1.179352	0.047725	0.047399	139.714	29307.9	0.044150	0.075191	1858.12	97650.4
504	2.000000	1.190195	7.36999e+06	-51889.1	1005.82	-29750.8	0.000000	0.000000	7.198582	194.127	NaN	0.000000	0.001554	0.001725	28.0805	63.4248	0.001799	35252.1	3.775290	157.609	191.867	1.189984	0.058242	0.058031	194.127	35252.1	0.054112	0.105545	1839.27	99137.6
504	2.000000	1.200641	7.36999e+06	-51889.1	1005.82	-29750.8	0.000000	0.000000	7.211969	265.632	NaN	0.000000	0.001536	0.001714	28.0817	74.1049	0.001696	43681.4	2.433383	-21.621	262.566	1.200234	0.068688	0.068281	265.632	43681.4	0.064127	0.141022	1883.62	106274
504	2.000000	1.211059	7.36999e+06	-51889.1	1005.82	-29750.8	0.000000	0.000000	7.225393	338.712	NaN	0.000000	0.001545	0.001688	28.0819	83.0677	0.001773	46854	5.232193	154.575	332.371	1.210721	0.079106	0.078768	338.712	46854	0.073684	0.179397	1888.06	101068
504	2.000000	1.221668	7.36999e+06	-51889.1	1005.82	-29750.8	0.000000	0.000000	7.239348	420.083	NaN	0.000000	0.001519	0.001744	28.0821	92.643	0.001771	52325.7	2.294394	-23.6165	420.789	1.221490	0.089715	0.089537	420.083	52325.7	0.083694	0.224210	1873.61	100963
504	2.000000	1.232216	7.36999e+06	-51889.1	1005.82	-29750.8	0.000000	0.000000	7.253608	510.337	NaN	0.000000	0.001553	0.001726	28.0821	101.4	0.001642	61740.5	5.142311	153.254	516.596	1.231793	0.100263	0.099840	510.337	61740.5	0.094064	0.275528	1852.22	107463
504	2.000000	1.236580	7.36999e+06	-51889.1	1005.82	-29750.8	0.000000	0.000000	7.259940	558.177	NaN	0.000000	0.001552	0.001715	28.0809	107.015	0.001819	58832	5.206097	-26.7612	554.012	1.236289	0.104627	0.104336	558.177	58832	0.097512	0.293682	1900.62	99185.5