File: remote_trans/data/nanoindenter/0828-1/data/Data_2025-08-06,11h17m57s/2025-07-22_16-23-58_1_785.txt
2025-07-22, 16:23:58, 1
Index	Phase	Displacement	Time	Pos X	Pos Y	Pos Z	Rot A	Rot B	Piezo Z	Force A	Force B	Gripper	Voltage A	Voltage B	Temperature	Amplitude force	Amplitude pos	Stiffness	Phase shift	Phase excitation	Force A raw	Displacement raw	HMax	HMax raw	Real Force	Real Stiffness	Contact Depth	Area	Hardness	Reduced Mod.
[#]	[#]	[um]	[s]	[um]	[um]	[um]	[m°]	[m°]	[um]	[uN]	[uN]	[V]	[V]	[V]	[°C]	[uN]	[um]	[N/m]	[°]	[°]	[uN]	[um]	[um]	[um]	[uN]	[N/m]	[um]	[um^2]	[MPa]	[MPa]
785	1.000000	0.002414	7.37273e+06	-39389.1	1055.82	-29794	0.000000	0.000000	6.002748	-0.084427	NaN	0.000000	0.001688	0.001720	28.0805	0.087826	0.000894	98.2845	-19.1284	-168.72	-0.064490	0.001191	-1.087896	-1.089119	-0.084427	98.2845	-1.087252	-3.379958E+14	2.497872E-16	NaN
785	1.000000	0.042396	7.37273e+06	-39389.1	1055.82	-29794	0.000000	0.000000	6.042729	-0.111823	NaN	0.000000	0.001671	0.001734	28.0801	0.045966	0.001928	23.8365	-162.21	-165.313	-0.093194	0.041130	-1.047914	-1.049180	-0.111823	23.8365	-1.044395	-8.975698E+13	1.245843E-15	NaN
785	1.000000	0.082426	7.37273e+06	-39389.1	1055.82	-29794	0.000000	0.000000	6.082761	-0.046380	NaN	0.000000	0.001654	0.001706	28.0806	0.049334	0.002051	24.0587	-134.821	-166.799	-0.064029	0.081119	-1.007884	-1.009192	-0.046380	24.0587	-1.006438	-2.769749E+13	1.674504E-15	NaN
785	1.000000	0.122408	7.37273e+06	-39389.1	1055.82	-29794	0.000000	0.000000	6.122745	-0.013444	NaN	0.000000	0.001663	0.001719	28.0819	0.016077	0.002073	7.753964	25.283	-164.111	-0.013956	0.121111	-0.967902	-0.969200	-0.013444	7.753964	-0.966602	-8.051168E+12	1.669851E-15	NaN
785	1.000000	0.162452	7.37273e+06	-39389.1	1055.82	-29794	0.000000	0.000000	6.162787	-0.040291	NaN	0.000000	0.001654	0.001679	28.0821	0.031838	0.002066	15.4136	0.134686	-167.373	-0.095550	0.161188	-0.927858	-0.929122	-0.040291	15.4136	-0.925898	-2.274200E+12	1.771678E-14	NaN
785	1.000000	0.202483	7.37273e+06	-39389.1	1055.82	-29794	0.000000	0.000000	6.202822	0.036803	NaN	0.000000	0.001603	0.001706	28.0816	0.018928	0.001978	9.568857	2.614378	-165.806	-0.019039	0.201129	-0.887827	-0.889182	0.036803	9.568857	-0.890711	-7.612569E+11	-4.834562E-14	NaN
785	1.000000	0.242495	7.37273e+06	-39389.1	1055.82	-29794	0.000000	0.000000	6.242826	-0.136222	NaN	0.000000	0.001623	0.001696	28.0805	0.033695	0.001890	17.8262	94.0148	-165.781	-0.184774	0.241180	-0.847815	-0.849130	-0.136222	17.8262	-0.842084	-1.673120E+11	8.141806E-13	NaN
785	1.000000	0.282552	7.37273e+06	-39389.1	1055.82	-29794	0.000000	0.000000	6.282888	-0.029343	NaN	0.000000	0.001640	0.001704	28.0805	0.119371	0.002050	58.2201	112.958	-165.928	0.008048	0.281212	-0.807758	-0.809098	-0.029343	58.2201	-0.807380	-5.662729E+10	5.181738E-13	NaN
785	1.000000	0.322543	7.37273e+06	-39389.1	1055.82	-29794	0.000000	0.000000	6.322876	-0.092863	NaN	0.000000	0.001619	0.001699	28.0802	0.050451	0.001835	27.4899	152.086	-166.579	-0.013048	0.321244	-0.767768	-0.769066	-0.092863	27.4899	-0.765234	-1.515293E+10	6.128373E-12	NaN
785	1.000000	0.362562	7.37273e+06	-39389.1	1055.82	-29794	0.000000	0.000000	6.362896	-0.076855	NaN	0.000000	0.001665	0.001722	28.0801	0.052161	0.001954	26.6931	-56.3956	-163.213	-0.041711	0.361226	-0.727748	-0.729084	-0.076855	26.6931	-0.725589	-4.372012E+9	1.757891E-11	NaN
785	1.000000	0.402544	7.37273e+06	-39389.1	1055.82	-29794	0.000000	0.000000	6.402877	-0.095064	NaN	0.000000	0.001635	0.001682	28.0814	0.055562	0.001862	29.8338	19.8325	-162.738	-0.049307	0.401225	-0.687766	-0.689085	-0.095064	29.8338	-0.685377	-1.235160E+9	7.696463E-11	NaN
785	1.000000	0.442585	7.37273e+06	-39389.1	1055.82	-29794	0.000000	0.000000	6.442921	-0.042408	NaN	0.000000	0.001620	0.001723	28.0815	0.111001	0.002010	55.2114	-156.171	-165.218	-0.077653	0.441262	-0.647725	-0.649048	-0.042408	55.2114	-0.647149	-3.701207E+8	1.145786E-10	NaN
785	1.000000	0.482605	7.37273e+06	-39389.1	1055.82	-29794	0.000000	0.000000	6.482939	-0.080547	NaN	0.000000	0.001679	0.001723	28.0814	0.095583	0.001929	49.5466	-83.8228	-165.255	-0.062845	0.481250	-0.607705	-0.609060	-0.080547	49.5466	-0.606486	-1.022708E+8	7.875883E-10	NaN
785	1.000000	0.522609	7.37273e+06	-39389.1	1055.82	-29794	0.000000	0.000000	6.522943	-0.091880	NaN	0.000000	0.001659	0.001694	28.0802	0.111460	0.001965	56.7321	93.0565	-164.343	-0.078657	0.521270	-0.567701	-0.569041	-0.091880	56.7321	-0.566486	-2.871250E+7	3.200004E-9	NaN
785	1.000000	0.562633	7.37273e+06	-39389.1	1055.82	-29794	0.000000	0.000000	6.562969	-0.035513	NaN	0.000000	0.001667	0.001699	28.0802	0.086014	0.001994	43.1282	-122.371	-162.648	-0.051730	0.561308	-0.527677	-0.529002	-0.035513	43.1282	-0.527059	-8.16063e+06	4.351752E-9	NaN
785	1.000000	0.602656	7.37273e+06	-39389.1	1055.82	-29794	0.000000	0.000000	6.602990	-0.070971	NaN	0.000000	0.001662	0.001718	28.0806	0.061835	0.001943	31.8165	122.369	-162.037	-0.026796	0.601311	-0.487654	-0.488999	-0.070971	31.8165	-0.485981	-2.18381e+06	3.249855E-8	NaN
785	1.000000	0.642687	7.37273e+06	-39389.1	1055.82	-29794	0.000000	0.000000	6.643021	-0.068631	NaN	0.000000	0.001638	0.001740	28.0801	0.078343	0.001976	39.6543	-174.468	-166.236	-0.153831	0.641349	-0.447623	-0.448961	-0.068631	39.6543	-0.446325	-606135	1.132272E-7	NaN
785	1.000000	0.682658	7.37273e+06	-39389.1	1055.82	-29794	0.000000	0.000000	6.682992	-0.075420	NaN	0.000000	0.001619	0.001711	28.0821	0.091738	0.001962	46.7504	74.0234	-165.839	-0.117800	0.681415	-0.407652	-0.408895	-0.075420	46.7504	-0.406442	-165114	4.567727E-7	NaN
785	1.000000	0.722688	7.37273e+06	-39389.1	1055.82	-29794	0.000000	0.000000	6.723023	-0.044326	NaN	0.000000	0.001684	0.001737	28.0818	0.066752	0.002070	32.2549	-3.066667	-162.493	-0.051038	0.721394	-0.367623	-0.368916	-0.044326	32.2549	-0.366592	-44362.4	9.991774E-7	NaN
785	1.000000	0.762697	7.37273e+06	-39389.1	1055.82	-29794	0.000000	0.000000	6.763031	-0.079780	NaN	0.000000	0.001680	0.001733	28.0816	0.009714	0.001886	5.149371	-11.3209	-165.024	-0.046178	0.761403	-0.327613	-0.328907	-0.079780	5.149371	-0.315993	-8120.73	9.824277E-6	NaN
785	1.000000	0.802707	7.37273e+06	-39389.1	1055.82	-29794	0.000000	0.000000	6.803041	-0.070285	NaN	0.000000	0.001630	0.001729	28.0802	0.031373	0.002005	15.6461	-63.0877	-166.097	-0.099908	0.801442	-0.287603	-0.288868	-0.070285	15.6461	-0.284234	-2733.69	2.571066E-5	NaN
785	1.000000	0.842764	7.37273e+06	-39389.1	1055.82	-29794	0.000000	0.000000	6.843096	-0.135151	NaN	0.000000	0.001660	0.001758	28.0803	0.029145	0.002046	14.2419	134.072	-163.77	-0.109751	0.841457	-0.247546	-0.248853	-0.135151	14.2419	-0.240429	-583.776	0.000232	NaN
785	1.000000	0.882755	7.37273e+06	-39389.1	1055.82	-29794	0.000000	0.000000	6.883088	-0.084902	NaN	0.000000	0.001657	0.001785	28.0805	0.115756	0.002063	56.1053	56.2098	-166.357	-0.079754	0.881481	-0.207555	-0.208829	-0.084902	56.1053	-0.206420	-167.766	0.000506	NaN
785	1.000000	0.922775	7.37274e+06	-39389.1	1055.82	-29794	0.000000	0.000000	6.923108	-0.111227	NaN	0.000000	0.001666	0.001743	28.0816	0.072470	0.001905	38.0397	-45.3482	-161.139	0.030007	0.921473	-0.167535	-0.168837	-0.111227	38.0397	-0.165342	-34.065	0.003265	NaN
785	1.000000	0.962773	7.37274e+06	-39389.1	1055.82	-29794	0.000000	0.000000	6.963105	-0.114681	NaN	0.000000	0.001702	0.001786	28.0816	0.033828	0.002006	16.8647	166.23	-167.525	0.000423	0.961503	-0.127538	-0.128807	-0.114681	16.8647	-0.122438	-5.408016	0.021206	NaN
785	1.000000	1.002841	7.37274e+06	-39389.1	1055.82	-29794	0.000000	0.000000	7.003175	-0.069426	NaN	0.000000	0.001647	0.001795	28.0816	0.119719	0.002104	56.8972	135.872	-166.673	-0.042533	1.001506	-0.087469	-0.088805	-0.069426	56.8972	-0.086554	-0.895575	0.077521	NaN
785	1.000000	1.042836	7.37274e+06	-39389.1	1055.82	-29794	0.000000	0.000000	7.043167	-0.145133	NaN	0.000000	0.001652	0.001729	28.0812	0.046631	0.002020	23.084	66.8989	-165.812	-0.181015	1.041498	-0.047474	-0.048813	-0.145133	23.084	-0.042759	-0.054885	2.644324	NaN
785	1.000000	1.082857	7.37274e+06	-39389.1	1055.82	-29794	0.000000	0.000000	7.083191	-0.085164	NaN	0.000000	0.001679	0.001797	28.0799	0.117480	0.002017	58.2438	-142.269	-163.707	-0.057845	1.081565	-0.007453	-0.008745	-0.085164	58.2438	-0.006356	-0.004253	20.0235	NaN
785	2.000000	1.104327	7.37274e+06	-39389.1	1055.82	-29794	0.000000	0.000000	7.105463	19.4523	NaN	0.000000	0.001724	0.001766	28.0799	15.1366	0.001825	8293.72	6.251749	-174.383	18.4252	1.104102	0.014016	0.013792	19.4523	8293.72	0.012257	0.011800	1648.53	69756.6
785	2.000000	1.114282	7.37274e+06	-39389.1	1055.82	-29794	0.000000	0.000000	7.116226	39.1117	NaN	0.000000	0.001585	0.001765	28.0799	25.0041	0.001876	13327.8	7.747696	-178.96	37.9442	1.113989	0.023972	0.023679	39.1117	13327.8	0.021771	0.025402	1539.72	76401
785	2.000000	1.124284	7.37274e+06	-39389.1	1055.82	-29794	0.000000	0.000000	7.127440	68.5807	NaN	0.000000	0.001597	0.001779	28.0811	34.2461	0.001946	17600.5	9.080953	178.056	68.2383	1.123873	0.033974	0.033563	68.5807	17600.5	0.031052	0.042952	1596.68	77590.2
785	2.000000	1.134249	7.37274e+06	-39389.1	1055.82	-29794	0.000000	0.000000	7.138683	99.7179	NaN	0.000000	0.001561	0.001797	28.0813	43.4857	0.001865	23316	5.082026	178.966	98.9689	1.133924	0.043939	0.043614	99.7179	23316	0.040731	0.065931	1512.45	82962.6
785	2.000000	1.144208	7.37274e+06	-39389.1	1055.82	-29794	0.000000	0.000000	7.150025	133.346	NaN	0.000000	0.001556	0.001776	28.0813	51.7405	0.001845	28038.7	0.843134	-178.871	130.726	1.143973	0.053898	0.053663	133.346	28038.7	0.050331	0.093439	1427.09	83804.1
785	2.000000	1.154182	7.37274e+06	-39389.1	1055.82	-29794	0.000000	0.000000	7.162147	185.634	NaN	0.000000	0.001555	0.001810	28.0812	60.7464	0.001734	35031.7	4.084382	176.553	182.781	1.153814	0.063871	0.063504	185.634	35031.7	0.059897	0.125440	1479.86	90368.3
785	2.000000	1.164214	7.37274e+06	-39389.1	1055.82	-29794	0.000000	0.000000	7.174233	235.617	NaN	0.000000	0.001568	0.001784	28.0803	71.7246	0.001877	38207.3	3.664499	176.413	233.313	1.163940	0.073904	0.073629	235.617	38207.3	0.069279	0.161167	1461.95	86952.4
785	2.000000	1.174240	7.37274e+06	-39389.1	1055.82	-29794	0.000000	0.000000	7.186873	299.209	NaN	0.000000	0.001570	0.001771	28.0802	82.2274	0.001704	48265.4	9.778458	168.537	300.372	1.173808	0.083930	0.083498	299.209	48265.4	0.079280	0.203875	1467.61	97662.3
785	2.000000	1.184202	7.37274e+06	-39389.1	1055.82	-29794	0.000000	0.000000	7.199498	364.022	NaN	0.000000	0.001570	0.001817	28.08	92.7344	0.001920	48303.1	9.085886	168.937	363.667	1.183917	0.093892	0.093606	364.022	48303.1	0.088240	0.246098	1479.18	88959.9
785	2.000000	1.194178	7.37274e+06	-39389.1	1055.82	-29794	0.000000	0.000000	7.212833	445.78	NaN	0.000000	0.001572	0.001809	28.0814	101.57	0.001906	53299.6	9.705724	167.628	442.575	1.193769	0.103867	0.103459	445.78	53299.6	0.097595	0.294125	1515.61	89790.7
785	2.000000	1.196621	7.37274e+06	-39389.1	1055.82	-29794	0.000000	0.000000	7.216027	464.058	NaN	0.000000	0.001556	0.001806	28.0813	101.55	0.001862	54523.8	3.710511	-6.187828	456.445	1.196192	0.106311	0.105882	464.058	54523.8	0.099927	0.306723	1512.95	89946.9