File: remote_trans/data/nanoindenter/0828-1/data/Data_2025-08-06,11h17m57s/2025-07-22_16-23-58_1_722.txt
2025-07-22, 16:23:58, 1
Index	Phase	Displacement	Time	Pos X	Pos Y	Pos Z	Rot A	Rot B	Piezo Z	Force A	Force B	Gripper	Voltage A	Voltage B	Temperature	Amplitude force	Amplitude pos	Stiffness	Phase shift	Phase excitation	Force A raw	Displacement raw	HMax	HMax raw	Real Force	Real Stiffness	Contact Depth	Area	Hardness	Reduced Mod.
[#]	[#]	[um]	[s]	[um]	[um]	[um]	[m°]	[m°]	[um]	[uN]	[uN]	[V]	[V]	[V]	[°C]	[uN]	[um]	[N/m]	[°]	[°]	[uN]	[um]	[um]	[um]	[uN]	[N/m]	[um]	[um^2]	[MPa]	[MPa]
722	1.000000	0.002361	7.37212e+06	-40989.1	1005.82	-29787.8	0.000000	0.000000	6.002765	-0.000968	NaN	0.000000	0.001602	0.001779	28.0816	0.160146	0.000969	165.262	-69.9873	-159.276	-0.019075	0.001169	-1.170521	-1.171713	-0.000968	165.262	-1.170517	-4.423941E+15	2.187896E-19	NaN
722	1.000000	0.046349	7.37212e+06	-40989.1	1005.82	-29787.8	0.000000	0.000000	6.046752	-0.024445	NaN	0.000000	0.001567	0.001758	28.0831	0.048625	0.001892	25.7036	61.7879	-159.949	-0.032114	0.045034	-1.126533	-1.127848	-0.024445	25.7036	-1.125820	-1.113146E+15	2.196046E-17	NaN
722	1.000000	0.090378	7.37212e+06	-40989.1	1005.82	-29787.8	0.000000	0.000000	6.090781	-0.004799	NaN	0.000000	0.001589	0.001742	28.0829	0.077070	0.001964	39.2451	-138.506	-167.971	-0.049415	0.089065	-1.082505	-1.083818	-0.004799	39.2451	-1.082413	-2.910237E+14	1.649031E-17	NaN
722	1.000000	0.134358	7.37212e+06	-40989.1	1005.82	-29787.8	0.000000	0.000000	6.134762	0.001966	NaN	0.000000	0.001560	0.001757	28.0825	0.069520	0.001985	35.0311	-43.3315	-166.534	0.055202	0.133054	-1.038524	-1.039829	0.001966	35.0311	-1.038567	-7.493629E+13	-2.623346E-17	NaN
722	1.000000	0.178399	7.37212e+06	-40989.1	1005.82	-29787.8	0.000000	0.000000	6.178800	-0.081409	NaN	0.000000	0.001611	0.001777	28.0816	0.082007	0.002001	40.9746	154.046	-161.001	-0.107205	0.177080	-0.994484	-0.995802	-0.081409	40.9746	-0.992993	-1.825681E+13	4.459103E-15	NaN
722	1.000000	0.222450	7.37212e+06	-40989.1	1005.82	-29787.8	0.000000	0.000000	6.222854	0.002206	NaN	0.000000	0.001558	0.001789	28.0818	0.006202	0.002015	3.078591	147.126	-163.756	0.023685	0.221105	-0.950432	-0.951777	0.002206	3.078591	-0.950970	-4.955732E+12	-4.451270E-16	NaN
722	1.000000	0.266406	7.37212e+06	-40989.1	1005.82	-29787.8	0.000000	0.000000	6.266810	-0.009723	NaN	0.000000	0.001587	0.001738	28.0816	0.015969	0.001899	8.410041	-162.247	-164.56	-0.016395	0.265138	-0.906476	-0.907744	-0.009723	8.410041	-0.905609	-1.210179E+12	8.034583E-15	NaN
722	1.000000	0.310457	7.37212e+06	-40989.1	1005.82	-29787.8	0.000000	0.000000	6.310860	-0.017483	NaN	0.000000	0.001596	0.001735	28.0831	0.026085	0.002040	12.7856	-152.58	-167.081	0.018616	0.309178	-0.862426	-0.863704	-0.017483	12.7856	-0.861400	-3.055442E+11	5.721885E-14	NaN
722	1.000000	0.354490	7.37212e+06	-40989.1	1005.82	-29787.8	0.000000	0.000000	6.354891	-0.073697	NaN	0.000000	0.001589	0.001777	28.0833	0.053492	0.002000	26.7415	-32.3029	-162.246	-0.062329	0.353128	-0.818392	-0.819755	-0.073697	26.7415	-0.816326	-7.488218E+10	9.841717E-13	NaN
722	1.000000	0.398485	7.37212e+06	-40989.1	1005.82	-29787.8	0.000000	0.000000	6.398887	-0.049233	NaN	0.000000	0.001610	0.001782	28.0833	0.063343	0.002076	30.5049	39.7198	-163.301	-0.036937	0.397127	-0.774397	-0.775756	-0.049233	30.5049	-0.773187	-1.943711E+10	2.532928E-12	NaN
722	1.000000	0.442464	7.37212e+06	-40989.1	1005.82	-29787.8	0.000000	0.000000	6.442867	-0.015517	NaN	0.000000	0.001597	0.001776	28.0823	0.061381	0.001961	31.305	176.958	-166.785	-0.108873	0.441215	-0.730419	-0.731667	-0.015517	31.305	-0.730047	-5.028610E+9	3.085746E-12	NaN
722	1.000000	0.486506	7.37212e+06	-40989.1	1005.82	-29787.8	0.000000	0.000000	6.486912	0.040574	NaN	0.000000	0.001612	0.001715	28.0821	0.115096	0.001902	60.5159	-168.884	-165.229	0.097407	0.485212	-0.686376	-0.687671	0.040574	60.5159	-0.686879	-1.294981E+9	-3.133196E-11	NaN
722	1.000000	0.530550	7.37212e+06	-40989.1	1005.82	-29787.8	0.000000	0.000000	6.530952	-0.055326	NaN	0.000000	0.001613	0.001754	28.0821	0.014943	0.002124	7.034776	-37.7408	-166.142	-0.033875	0.529257	-0.642332	-0.643625	-0.055326	7.034776	-0.636434	-2.638471E+8	2.096914E-10	NaN
722	1.000000	0.574554	7.37212e+06	-40989.1	1005.82	-29787.8	0.000000	0.000000	6.574955	-0.060611	NaN	0.000000	0.001615	0.001689	28.0832	0.060229	0.002050	29.3764	-122.942	-160.856	-0.072303	0.573273	-0.598329	-0.599609	-0.060611	29.3764	-0.596781	-7.518354E+7	8.061780E-10	NaN
722	1.000000	0.618587	7.37212e+06	-40989.1	1005.82	-29787.8	0.000000	0.000000	6.618986	-0.119129	NaN	0.000000	0.001607	0.001636	28.0832	0.117675	0.002074	56.745	-117.241	-164.299	-0.077889	0.617255	-0.554296	-0.555627	-0.119129	56.745	-0.552721	-1.851987E+7	6.432486E-9	NaN
722	1.000000	0.662584	7.37212e+06	-40989.1	1005.82	-29787.8	0.000000	0.000000	6.662985	-0.059008	NaN	0.000000	0.001580	0.001678	28.0833	0.135810	0.002059	65.9465	64.9364	-165.105	-0.057277	0.661302	-0.510299	-0.511580	-0.059008	65.9465	-0.509628	-4.66906e+06	1.263815E-8	NaN
722	1.000000	0.706595	7.37212e+06	-40989.1	1005.82	-29787.8	0.000000	0.000000	6.706997	-0.043379	NaN	0.000000	0.001612	0.001671	28.0823	0.179443	0.001850	97.0042	-83.0279	-163.776	-0.018985	0.705302	-0.466288	-0.467580	-0.043379	97.0042	-0.465952	-1.14449e+06	3.790198E-8	NaN
722	1.000000	0.750635	7.37212e+06	-40989.1	1005.82	-29787.8	0.000000	0.000000	6.751038	-0.005857	NaN	0.000000	0.001584	0.001730	28.082	0.150764	0.002099	71.8204	-46.5167	-159.039	0.019421	0.749310	-0.422248	-0.423572	-0.005857	71.8204	-0.422187	-276324	2.119585E-8	NaN
722	1.000000	0.794687	7.37212e+06	-40989.1	1005.82	-29787.8	0.000000	0.000000	6.795089	-0.039252	NaN	0.000000	0.001604	0.001720	28.0818	0.039572	0.001974	20.0442	56.0469	-167.823	0.003402	0.793347	-0.378196	-0.379535	-0.039252	20.0442	-0.376727	-62071.8	6.323688E-7	NaN
722	1.000000	0.838670	7.37212e+06	-40989.1	1005.82	-29787.8	0.000000	0.000000	6.839074	-0.001049	NaN	0.000000	0.001570	0.001740	28.082	0.057193	0.002157	26.5172	-144.456	-164.231	0.007570	0.837407	-0.334213	-0.335475	-0.001049	26.5172	-0.334183	-15019.3	6.982656E-8	NaN
722	1.000000	0.882689	7.37212e+06	-40989.1	1005.82	-29787.8	0.000000	0.000000	6.883092	-0.037296	NaN	0.000000	0.001636	0.001704	28.0831	0.036889	0.002030	18.1748	74.004	-167.869	-0.001114	0.881403	-0.290193	-0.291479	-0.037296	18.1748	-0.288654	-3185.16	1.170945E-5	NaN
722	1.000000	0.926715	7.37212e+06	-40989.1	1005.82	-29787.8	0.000000	0.000000	6.927118	-0.004032	NaN	0.000000	0.001613	0.001773	28.0826	0.028703	0.001972	14.5545	-94.531	-161.374	-0.009401	0.925411	-0.246168	-0.247471	-0.004032	14.5545	-0.245960	-711.81	5.665009E-6	NaN
722	1.000000	0.970699	7.37212e+06	-40989.1	1005.82	-29787.8	0.000000	0.000000	6.971102	-0.014213	NaN	0.000000	0.001639	0.001753	28.0831	0.024625	0.002061	11.9457	-29.4244	-163.692	-0.013626	0.969486	-0.202184	-0.203397	-0.014213	11.9457	-0.201292	-138.326	0.000103	NaN
722	1.000000	1.014751	7.37212e+06	-40989.1	1005.82	-29787.8	0.000000	0.000000	7.015156	0.006652	NaN	0.000000	0.001596	0.001768	28.0817	0.032062	0.001949	16.4482	-93.7506	-163.643	-0.024392	1.013424	-0.158131	-0.159458	0.006652	16.4482	-0.158434	-25.7106	-0.000259	NaN
722	1.000000	1.058783	7.37212e+06	-40989.1	1005.82	-29787.8	0.000000	0.000000	7.059187	0.006156	NaN	0.000000	0.001579	0.001753	28.0819	0.070974	0.002111	33.6238	-53.8114	-166.52	0.061450	1.057458	-0.114100	-0.115424	0.006156	33.6238	-0.114237	-3.684236	-0.001671	NaN
722	1.000000	1.102772	7.37212e+06	-40989.1	1005.82	-29787.8	0.000000	0.000000	7.103177	0.024207	NaN	0.000000	0.001692	0.001756	28.0819	0.134109	0.002051	65.3834	-71.7437	-165.198	0.058937	1.101442	-0.070111	-0.071440	0.024207	65.3834	-0.070388	-0.349368	-0.069289	NaN
722	1.000000	1.146788	7.37212e+06	-40989.1	1005.82	-29787.8	0.000000	0.000000	7.147190	-0.047698	NaN	0.000000	0.001588	0.001745	28.0844	0.050569	0.002090	24.1959	67.1355	-160.747	-0.089072	1.145449	-0.026094	-0.027433	-0.047698	24.1959	-0.024616	-0.016486	2.893275	NaN
722	2.000000	1.182357	7.37212e+06	-40989.1	1005.82	-29787.8	0.000000	0.000000	7.183257	12.0609	NaN	0.000000	0.001592	0.001735	28.0834	12.3483	0.001668	7404.23	2.667349	-170.665	11.4641	1.182072	0.009475	0.009190	12.0609	7404.23	0.008253	0.007304	1651.34	79155.3
722	2.000000	1.193249	7.37212e+06	-40989.1	1005.82	-29787.8	0.000000	0.000000	7.194966	31.943	NaN	0.000000	0.001597	0.001727	28.0831	23.8245	0.001747	13635.5	4.778770	-176.618	30.9421	1.192928	0.020367	0.020046	31.943	13635.5	0.018610	0.020405	1565.45	87212
722	2.000000	1.204327	7.37212e+06	-40989.1	1005.82	-29787.8	0.000000	0.000000	7.206995	55.0952	NaN	0.000000	0.001549	0.001673	28.082	33.1932	0.001917	17317.3	7.514820	-179.956	57.5545	1.203965	0.031445	0.031083	55.0952	17317.3	0.029058	0.038815	1419.43	80307
722	2.000000	1.215242	7.37212e+06	-40989.1	1005.82	-29787.8	0.000000	0.000000	7.219434	92.1895	NaN	0.000000	0.001559	0.001711	28.0829	43.7384	0.001896	23067.7	6.427623	178.094	92.2748	1.214892	0.042359	0.042009	92.1895	23067.7	0.039362	0.062390	1477.64	84376.6
722	2.000000	1.226290	7.37212e+06	-40989.1	1005.82	-29787.8	0.000000	0.000000	7.232633	144.531	NaN	0.000000	0.001529	0.001731	28.0824	54.3716	0.001866	29141.5	13.0623	169.427	146.132	1.225788	0.053407	0.052905	144.531	29141.5	0.049687	0.091449	1580.46	88043.3
722	2.000000	1.237231	7.37212e+06	-40989.1	1005.82	-29787.8	0.000000	0.000000	7.245862	200.199	NaN	0.000000	0.001572	0.001727	28.0835	62.0783	0.001782	34839.1	6.292815	174.667	201.723	1.236779	0.064348	0.063897	200.199	34839.1	0.060038	0.125946	1589.56	89691
722	2.000000	1.248170	7.37212e+06	-40989.1	1005.82	-29787.8	0.000000	0.000000	7.259572	267.6	NaN	0.000000	0.001586	0.001691	28.0834	72.486	0.001827	39676.7	4.052982	176.215	265.599	1.247713	0.075288	0.074831	267.6	39676.7	0.070230	0.165023	1621.59	89235.3
722	2.000000	1.259070	7.37212e+06	-40989.1	1005.82	-29787.8	0.000000	0.000000	7.273264	335.539	NaN	0.000000	0.001630	0.001721	28.0837	83.5828	0.001809	46200.4	0.464254	177.563	328.569	1.258758	0.086188	0.085875	335.539	46200.4	0.080741	0.210504	1593.98	92000.1
722	2.000000	1.270116	7.37212e+06	-40989.1	1005.82	-29787.8	0.000000	0.000000	7.288488	437.234	NaN	0.000000	0.001637	0.001711	28.0826	92.8385	0.001819	51024.8	5.087868	172.809	433.914	1.269772	0.097233	0.096889	437.234	51024.8	0.090806	0.258876	1688.97	91623.8
722	2.000000	1.278290	7.37212e+06	-40989.1	1005.82	-29787.8	0.000000	0.000000	7.299458	505.244	NaN	0.000000	0.001623	0.001660	28.0822	100.448	0.001707	58857.1	5.880494	170.641	511.793	1.277946	0.105408	0.105063	505.244	58857.1	0.098970	0.301521	1675.65	97929.4