File: remote_trans/data/nanoindenter/0828-1/data/Data_2025-08-06,11h17m57s/2025-07-22_16-23-58_1_272.txt
2025-07-22, 16:23:58, 1
Index	Phase	Displacement	Time	Pos X	Pos Y	Pos Z	Rot A	Rot B	Piezo Z	Force A	Force B	Gripper	Voltage A	Voltage B	Temperature	Amplitude force	Amplitude pos	Stiffness	Phase shift	Phase excitation	Force A raw	Displacement raw	HMax	HMax raw	Real Force	Real Stiffness	Contact Depth	Area	Hardness	Reduced Mod.
[#]	[#]	[um]	[s]	[um]	[um]	[um]	[m°]	[m°]	[um]	[uN]	[uN]	[V]	[V]	[V]	[°C]	[uN]	[um]	[N/m]	[°]	[°]	[uN]	[um]	[um]	[um]	[uN]	[N/m]	[um]	[um^2]	[MPa]	[MPa]
272	1.000000	0.002301	7.36772e+06	-52239.1	955.819	-29750.1	0.000000	0.000000	6.002827	-0.015226	NaN	0.000000	0.001676	0.001701	28.0804	0.113144	0.000828	136.674	-139.157	-169.142	0.028061	0.001040	-1.080445	-1.081706	-0.015226	136.674	-1.080362	-2.731358E+14	5.574696E-17	NaN
272	1.000000	0.042237	7.36772e+06	-52239.1	955.819	-29750.1	0.000000	0.000000	6.042765	0.035238	NaN	0.000000	0.001671	0.001689	28.0802	0.073283	0.001940	37.7814	-1.613368	-165.991	0.061858	0.040883	-1.040510	-1.041864	0.035238	37.7814	-1.041210	-8.132652E+13	-4.332953E-16	NaN
272	1.000000	0.082228	7.36772e+06	-52239.1	955.818	-29750.1	0.000000	0.000000	6.082753	-0.020020	NaN	0.000000	0.001654	0.001650	28.0805	0.052303	0.001843	28.3721	5.290051	-163.506	0.009698	0.080940	-1.000519	-1.001806	-0.020020	28.3721	-0.999990	-2.267952E+13	8.827129E-16	NaN
272	1.000000	0.122265	7.36772e+06	-52239.1	955.819	-29750.1	0.000000	0.000000	6.122789	-0.064108	NaN	0.000000	0.001667	0.001714	28.0791	0.109285	0.002040	53.581	97.1034	-164.776	-0.086417	0.120930	-0.960482	-0.961817	-0.064108	53.581	-0.959584	-6.475343E+12	9.900367E-15	NaN
272	1.000000	0.162224	7.36772e+06	-52239.1	955.819	-29750.1	0.000000	0.000000	6.162752	0.034004	NaN	0.000000	0.001675	0.001708	28.0792	0.172161	0.001942	88.6462	93.7406	-165.248	0.010290	0.160911	-0.920523	-0.921836	0.034004	88.6462	-0.920810	-1.941541E+12	-1.751408E-14	NaN
272	1.000000	0.202251	7.36772e+06	-52239.1	955.819	-29750.1	0.000000	0.000000	6.202778	0.009017	NaN	0.000000	0.001701	0.001673	28.0796	0.070025	0.001987	35.2438	55.7693	-167.692	-0.039107	0.200959	-0.880496	-0.881787	0.009017	35.2438	-0.880688	-5.572016E+11	-1.618305E-14	NaN
272	1.000000	0.242314	7.36772e+06	-52239.1	955.819	-29750.1	0.000000	0.000000	6.242843	0.040388	NaN	0.000000	0.001668	0.001674	28.0794	0.118906	0.002036	58.3958	160.717	-163.324	0.010719	0.240966	-0.840432	-0.841781	0.040388	58.3958	-0.840951	-1.615024E+11	-2.500769E-13	NaN
272	1.000000	0.282348	7.36772e+06	-52239.1	955.818	-29750.1	0.000000	0.000000	6.282874	-0.024359	NaN	0.000000	0.001687	0.001695	28.0802	0.049454	0.001999	24.7451	34.177	-163.728	-0.036536	0.281025	-0.800399	-0.801722	-0.024359	24.7451	-0.799660	-4.448915E+10	5.475293E-13	NaN
272	1.000000	0.322327	7.36772e+06	-52239.1	955.818	-29750.1	0.000000	0.000000	6.322854	0.015145	NaN	0.000000	0.001713	0.001631	28.08	0.046127	0.002009	22.9561	-28.3825	-164.982	0.002040	0.321033	-0.760420	-0.761714	0.015145	22.9561	-0.760915	-1.323560E+10	-1.144295E-12	NaN
272	1.000000	0.362358	7.36772e+06	-52239.1	955.818	-29750.1	0.000000	0.000000	6.362889	0.104481	NaN	0.000000	0.001685	0.001689	28.0801	0.079713	0.001963	40.6027	22.8547	-163.966	0.075748	0.361109	-0.720389	-0.721638	0.104481	40.6027	-0.722319	-3.945415E+9	-2.648165E-11	NaN
272	1.000000	0.402375	7.36772e+06	-52239.1	955.82	-29750.1	0.000000	0.000000	6.402899	-0.054772	NaN	0.000000	0.001670	0.001682	28.0791	0.081924	0.002117	38.6996	9.901111	-165.862	0.015270	0.401080	-0.680372	-0.681667	-0.054772	38.6996	-0.679311	-1.020416E+9	5.367581E-11	NaN
272	1.000000	0.442395	7.36772e+06	-52239.1	955.818	-29750.1	0.000000	0.000000	6.442922	0.017894	NaN	0.000000	0.001673	0.001714	28.0788	0.009859	0.001871	5.269169	121.09	-163.818	0.016806	0.441086	-0.640352	-0.641661	0.017894	5.269169	-0.642899	-3.236366E+8	-5.528897E-11	NaN
272	1.000000	0.482430	7.36772e+06	-52239.1	955.818	-29750.1	0.000000	0.000000	6.482956	-0.012506	NaN	0.000000	0.001698	0.001686	28.079	0.016210	0.001932	8.388052	126.746	-162.962	-0.029655	0.481078	-0.600317	-0.601669	-0.012506	8.388052	-0.599199	-8.117574E+7	1.540623E-10	NaN
272	1.000000	0.522427	7.36772e+06	-52239.1	955.819	-29750.1	0.000000	0.000000	6.522955	0.032312	NaN	0.000000	0.001681	0.001735	28.0788	0.102497	0.001994	51.3956	-143.634	-165.969	0.052255	0.521063	-0.560319	-0.561684	0.032312	51.3956	-0.560791	-2.395081E+7	-1.349117E-9	NaN
272	1.000000	0.562436	7.36772e+06	-52239.1	955.817	-29750.1	0.000000	0.000000	6.562960	-0.075672	NaN	0.000000	0.001668	0.001719	28.0805	0.072640	0.002103	34.5359	-97.7502	-163.917	-0.115438	0.561176	-0.520310	-0.521571	-0.075672	34.5359	-0.518667	-6.23817e+06	1.213047E-8	NaN
272	1.000000	0.602479	7.36772e+06	-52239.1	955.819	-29750.1	0.000000	0.000000	6.603007	0.030031	NaN	0.000000	0.001659	0.001665	28.0802	0.067630	0.002042	33.114	-179.8	-166.274	0.084433	0.601127	-0.480268	-0.481620	0.030031	33.114	-0.480948	-1.85694e+06	-1.617203E-8	NaN
272	1.000000	0.642447	7.36772e+06	-52239.1	955.818	-29750.1	0.000000	0.000000	6.642976	0.067912	NaN	0.000000	0.001704	0.001639	28.0804	0.035777	0.002032	17.6106	98.5634	-163.047	0.016447	0.641133	-0.440300	-0.441614	0.067912	17.6106	-0.443193	-547527	-1.240340E-7	NaN
272	1.000000	0.682470	7.36772e+06	-52239.1	955.819	-29750.1	0.000000	0.000000	6.682996	-0.026128	NaN	0.000000	0.001683	0.001661	28.0794	0.021958	0.001969	11.1513	-52.2363	-165.112	-0.018403	0.681197	-0.400277	-0.401550	-0.026128	11.1513	-0.398519	-127313	2.052296E-7	NaN
272	1.000000	0.722521	7.36772e+06	-52239.1	955.818	-29750.1	0.000000	0.000000	6.723046	-0.034396	NaN	0.000000	0.001772	0.001683	28.0796	0.070275	0.002032	34.5791	1.200790	-166.581	-0.096683	0.721283	-0.360226	-0.361464	-0.034396	34.5791	-0.359480	-35020.9	9.821631E-7	NaN
272	1.000000	0.762510	7.36772e+06	-52239.1	955.819	-29750.1	0.000000	0.000000	6.763037	0.014402	NaN	0.000000	0.001754	0.001686	28.0794	0.041743	0.002009	20.7756	-47.3152	-162.965	0.100187	0.761198	-0.320237	-0.321548	0.014402	20.7756	-0.320757	-9544.96	-1.508818E-6	NaN
272	1.000000	0.802598	7.36772e+06	-52239.1	955.819	-29750.1	0.000000	0.000000	6.803126	0.040300	NaN	0.000000	0.001773	0.001662	28.0798	0.027398	0.002049	13.3687	171.965	-165.257	-0.006387	0.801286	-0.280149	-0.281461	0.040300	13.3687	-0.282410	-2566.25	-1.570405E-5	NaN
272	1.000000	0.842571	7.36772e+06	-52239.1	955.819	-29750.1	0.000000	0.000000	6.843100	0.063790	NaN	0.000000	0.001691	0.001698	28.0809	0.055858	0.001901	29.3827	-125.145	-164.794	0.048649	0.841251	-0.240176	-0.241496	0.063790	29.3827	-0.241804	-613.346	-0.000104	NaN
272	1.000000	0.882586	7.36772e+06	-52239.1	955.819	-29750.1	0.000000	0.000000	6.883115	0.076536	NaN	0.000000	0.001693	0.001639	28.0806	0.052400	0.002070	25.314	-166.801	-164.732	0.011849	0.881313	-0.200161	-0.201434	0.076536	25.314	-0.202429	-144.392	-0.000530	NaN
272	1.000000	0.922600	7.36772e+06	-52239.1	955.819	-29750.1	0.000000	0.000000	6.923125	-0.025589	NaN	0.000000	0.001704	0.001652	28.0804	0.050167	0.002010	24.9588	7.191588	-164.01	0.005683	0.921310	-0.160147	-0.161437	-0.025589	24.9588	-0.159378	-26.7258	0.000957	NaN
272	1.000000	0.962588	7.36772e+06	-52239.1	955.818	-29750.1	0.000000	0.000000	6.963113	-0.044657	NaN	0.000000	0.001709	0.001656	28.079	0.035742	0.002022	17.6759	15.4761	-165.716	-0.063197	0.961315	-0.120159	-0.121432	-0.044657	17.6759	-0.118264	-4.455704	0.010022	NaN
272	1.000000	1.002608	7.36772e+06	-52239.1	955.818	-29750.1	0.000000	0.000000	7.003136	0.021816	NaN	0.000000	0.001702	0.001646	28.0791	0.080631	0.001947	41.406	58.0029	-165.13	0.008425	1.001333	-0.080139	-0.081414	0.021816	41.406	-0.080534	-0.638277	-0.034180	NaN
272	1.000000	1.042624	7.36772e+06	-52239.1	955.818	-29750.1	0.000000	0.000000	7.043149	-0.050722	NaN	0.000000	0.001686	0.001636	28.0791	0.078990	0.002037	38.778	-157.671	-166.831	-0.047159	1.041292	-0.040123	-0.041455	-0.050722	38.778	-0.039142	-0.042591	1.190905	NaN
272	1.000000	1.082633	7.36772e+06	-52239.1	955.817	-29750.1	0.000000	0.000000	7.083160	0.027607	NaN	0.000000	0.001737	0.001665	28.0805	0.164254	0.002029	80.9336	6.827022	-162.923	-0.065478	1.081323	-0.000114	-0.001424	0.027607	80.9336	-0.000370	-0.000274	-100.575	NaN
272	2.000000	1.100307	7.36772e+06	-52239.1	955.819	-29750.1	0.000000	0.000000	7.101501	16.2383	NaN	0.000000	0.001570	0.001705	28.0804	16.3192	0.001786	9136.73	6.379157	-174.031	15.9213	1.100039	0.017560	0.017293	16.2383	9136.73	0.016227	0.016957	957.622	64104.8
272	2.000000	1.110252	7.36772e+06	-52239.1	955.819	-29750.1	0.000000	0.000000	7.112249	35.7574	NaN	0.000000	0.001630	0.001669	28.0805	25.8078	0.001689	15276.3	4.997640	-178.881	34.9625	1.109978	0.027505	0.027231	35.7574	15276.3	0.025749	0.032393	1103.88	77547.7
272	2.000000	1.120248	7.36772e+06	-52239.1	955.818	-29750.1	0.000000	0.000000	7.123302	61.4641	NaN	0.000000	0.001699	0.001696	28.0802	35.4522	0.001799	19701.4	5.565025	179.441	62.56	1.119968	0.037501	0.037221	61.4641	19701.4	0.035161	0.052122	1179.23	78842.1
272	2.000000	1.130241	7.36772e+06	-52239.1	955.819	-29750.1	0.000000	0.000000	7.134826	98.6809	NaN	0.000000	0.001671	0.001667	28.079	45.6112	0.001884	24214.3	2.381024	-179.57	98.0933	1.129970	0.047495	0.047223	98.6809	24214.3	0.044438	0.076000	1298.43	80248.7
272	2.000000	1.140240	7.36772e+06	-52239.1	955.818	-29750.1	0.000000	0.000000	7.146668	143.485	NaN	0.000000	0.001675	0.001650	28.0788	55.1205	0.001775	31052.3	3.526428	177.351	144.521	1.139981	0.057493	0.057234	143.485	31052.3	0.054027	0.105267	1363.06	87442
272	2.000000	1.150239	7.36772e+06	-52239.1	955.818	-29750.1	0.000000	0.000000	7.158714	193.265	NaN	0.000000	0.001782	0.001676	28.0789	65.9423	0.001899	34719.5	9.424393	171.482	193.94	1.149800	0.067492	0.067053	193.265	34719.5	0.063317	0.137971	1400.77	85399.2
272	2.000000	1.160130	7.36772e+06	-52239.1	955.818	-29750.1	0.000000	0.000000	7.170783	246.21	NaN	0.000000	0.001732	0.001652	28.0802	75.5322	0.001933	39073.9	4.703149	174.815	242.777	1.159809	0.077383	0.077062	246.21	39073.9	0.072658	0.175067	1406.38	85321.6
272	2.000000	1.170266	7.36772e+06	-52239.1	955.818	-29750.1	0.000000	0.000000	7.183052	298.093	NaN	0.000000	0.001787	0.001671	28.0804	83.7605	0.001692	49518.3	2.350372	175.455	302.741	1.169863	0.087519	0.087117	298.093	49518.3	0.083004	0.220972	1349.01	96243.2
272	2.000000	1.180117	7.36772e+06	-52239.1	955.819	-29750.1	0.000000	0.000000	7.195808	368.716	NaN	0.000000	0.001761	0.001666	28.0802	92.5111	0.001802	51328.1	1.667460	175.411	365.884	1.179963	0.097370	0.097216	368.716	51328.1	0.091982	0.264832	1392.26	91126.1
272	2.000000	1.190160	7.36772e+06	-52239.1	955.818	-29750.1	0.000000	0.000000	7.208516	433.516	NaN	0.000000	0.001699	0.001649	28.08	101.859	0.001839	55401.7	1.630630	175.021	432.874	1.189996	0.107413	0.107249	433.516	55401.7	0.101544	0.315600	1373.62	90100.5
272	2.000000	1.191175	7.36772e+06	-52239.1	955.818	-29750.1	0.000000	0.000000	7.210182	449.343	NaN	0.000000	0.001740	0.001689	28.079	103.015	0.001788	57618.6	6.964165	170.057	450.685	1.190609	0.108428	0.107862	449.343	57618.6	0.102579	0.321344	1398.32	92864.7