File: remote_trans/data/nanoindenter/0828-1/data/Data_2025-08-06,11h17m57s/2025-07-22_16-23-58_1_1062.txt
2025-07-22, 16:23:58, 1
Index	Phase	Displacement	Time	Pos X	Pos Y	Pos Z	Rot A	Rot B	Piezo Z	Force A	Force B	Gripper	Voltage A	Voltage B	Temperature	Amplitude force	Amplitude pos	Stiffness	Phase shift	Phase excitation	Force A raw	Displacement raw	HMax	HMax raw	Real Force	Real Stiffness	Contact Depth	Area	Hardness	Reduced Mod.
[#]	[#]	[um]	[s]	[um]	[um]	[um]	[m°]	[m°]	[um]	[uN]	[uN]	[V]	[V]	[V]	[°C]	[uN]	[um]	[N/m]	[°]	[°]	[uN]	[um]	[um]	[um]	[uN]	[N/m]	[um]	[um^2]	[MPa]	[MPa]
1062	1.000000	0.002631	7.37543e+06	-53239.1	1055.82	-29746.8	0.000000	0.000000	6.002812	0.010202	NaN	0.000000	0.001637	0.001674	28.084	0.145257	0.000951	152.759	66.735	-171.95	-0.014408	0.001387	-1.158605	-1.159849	0.010202	152.759	-1.158655	-3.067945E+15	-3.325457E-18	NaN
1062	1.000000	0.046552	7.37543e+06	-53239.1	1055.82	-29746.8	0.000000	0.000000	6.046736	0.080512	NaN	0.000000	0.001613	0.001691	28.0847	0.171376	0.001951	87.8574	91.9675	-169.036	0.034465	0.045258	-1.114684	-1.115979	0.080512	87.8574	-1.115372	-8.060708E+14	-9.988163E-17	NaN
1062	1.000000	0.090549	7.37543e+06	-53239.1	1055.82	-29746.8	0.000000	0.000000	6.090733	0.095909	NaN	0.000000	0.001611	0.001721	28.0843	0.079175	0.002058	38.4675	162.115	-164.373	0.074275	0.089249	-1.070688	-1.071988	0.095909	38.4675	-1.072558	-2.145610E+14	-4.470005E-16	NaN
1062	1.000000	0.134605	7.37544e+06	-53239.1	1055.82	-29746.7	0.000000	0.000000	6.134787	0.033928	NaN	0.000000	0.001629	0.001683	28.0832	0.033877	0.001941	17.4516	-135.101	-166.385	0.030123	0.133333	-1.026632	-1.027903	0.033928	17.4516	-1.028090	-5.417326E+13	-6.262827E-16	NaN
1062	1.000000	0.178616	7.37544e+06	-53239.1	1055.82	-29746.7	0.000000	0.000000	6.178800	0.063864	NaN	0.000000	0.001542	0.001681	28.0828	0.027826	0.002040	13.6432	129.856	-164.027	0.050844	0.177290	-0.982620	-0.983946	0.063864	13.6432	-0.986131	-1.475701E+13	-4.327685E-15	NaN
1062	1.000000	0.222624	7.37544e+06	-53239.1	1055.82	-29746.7	0.000000	0.000000	6.222807	0.060853	NaN	0.000000	0.001566	0.001702	28.0829	0.041758	0.002036	20.5118	-112.084	-166.796	0.103564	0.221289	-0.938612	-0.939947	0.060853	20.5118	-0.940838	-3.617736E+12	-1.682075E-14	NaN
1062	1.000000	0.266646	7.37544e+06	-53239.1	1055.82	-29746.7	0.000000	0.000000	6.266830	0.062361	NaN	0.000000	0.001596	0.001727	28.0838	0.023725	0.002055	11.546	-157.627	-167.376	0.091836	0.265352	-0.894590	-0.895885	0.062361	11.546	-0.898641	-9.743188E+11	-6.400492E-14	NaN
1062	1.000000	0.310653	7.37544e+06	-53239.1	1055.82	-29746.7	0.000000	0.000000	6.310837	0.066057	NaN	0.000000	0.001551	0.001695	28.084	0.052269	0.002041	25.6082	123.514	-165.29	0.085348	0.309351	-0.850583	-0.851886	0.066057	25.6082	-0.852518	-2.316502E+11	-2.851575E-13	NaN
1062	1.000000	0.354665	7.37544e+06	-53239.1	1055.82	-29746.7	0.000000	0.000000	6.354847	0.026246	NaN	0.000000	0.001578	0.001714	28.0842	0.122564	0.001937	63.2895	-162.092	-167.509	0.040736	0.353388	-0.806571	-0.807848	0.026246	63.2895	-0.806882	-5.575269E+10	-4.707575E-13	NaN
1062	1.000000	0.398684	7.37544e+06	-53239.1	1055.82	-29746.7	0.000000	0.000000	6.398870	0.121072	NaN	0.000000	0.001590	0.001685	28.083	0.035483	0.002014	17.6176	133.699	-167.555	0.057863	0.397415	-0.762553	-0.763821	0.121072	17.6176	-0.767707	-1.637291E+10	-7.394647E-12	NaN
1062	1.000000	0.442705	7.37544e+06	-53239.1	1055.82	-29746.7	0.000000	0.000000	6.442885	-0.020835	NaN	0.000000	0.001547	0.001703	28.0828	0.100741	0.002064	48.8081	-138.392	-166.007	0.001834	0.441397	-0.718532	-0.719840	-0.020835	48.8081	-0.718212	-3.468028E+9	6.007721E-12	NaN
1062	1.000000	0.486743	7.37544e+06	-53239.1	1055.82	-29746.7	0.000000	0.000000	6.486925	0.022949	NaN	0.000000	0.001580	0.001715	28.0827	0.048046	0.002103	22.844	95.0126	-165.344	-0.012861	0.485441	-0.674494	-0.675796	0.022949	22.844	-0.675247	-8.978231E+8	-2.556019E-11	NaN
1062	1.000000	0.530779	7.37544e+06	-53239.1	1055.82	-29746.7	0.000000	0.000000	6.530962	0.055538	NaN	0.000000	0.001616	0.001743	28.083	0.087349	0.002057	42.4624	-147.792	-166.093	0.068478	0.529489	-0.630458	-0.631747	0.055538	42.4624	-0.631439	-2.253092E+8	-2.464954E-10	NaN
1062	1.000000	0.574786	7.37544e+06	-53239.1	1055.82	-29746.7	0.000000	0.000000	6.574969	0.067755	NaN	0.000000	0.001649	0.001774	28.0838	0.118139	0.002005	58.9257	102.123	-170.112	0.092341	0.573445	-0.586451	-0.587792	0.067755	58.9257	-0.587313	-5.566992E+7	-1.217080E-9	NaN
1062	1.000000	0.618813	7.37544e+06	-53239.1	1055.82	-29746.7	0.000000	0.000000	6.618995	0.025296	NaN	0.000000	0.001591	0.001717	28.084	0.054304	0.002090	25.9862	-71.7415	-167.56	0.046238	0.617485	-0.542424	-0.543751	0.025296	25.9862	-0.543154	-1.364860E+7	-1.853343E-9	NaN
1062	1.000000	0.662793	7.37544e+06	-53239.1	1055.82	-29746.7	0.000000	0.000000	6.662978	0.103307	NaN	0.000000	0.001620	0.001722	28.0844	0.047850	0.001878	25.4807	129.115	-167.35	0.099201	0.661486	-0.498444	-0.499751	0.103307	25.4807	-0.501485	-3.59523e+06	-2.873446E-8	NaN
1062	1.000000	0.706824	7.37544e+06	-53239.1	1055.82	-29746.7	0.000000	0.000000	6.707005	0.005905	NaN	0.000000	0.001603	0.001683	28.0829	0.096510	0.002021	47.7496	-149.707	-165.57	0.038749	0.705513	-0.454412	-0.455724	0.005905	47.7496	-0.454505	-790229	-7.471967E-9	NaN
1062	1.000000	0.750873	7.37544e+06	-53239.1	1055.82	-29746.7	0.000000	0.000000	6.751055	0.020927	NaN	0.000000	0.001590	0.001707	28.0829	0.071485	0.001997	35.8045	-179.897	-167.525	0.052811	0.749524	-0.410364	-0.411712	0.020927	35.8045	-0.410802	-190460	-1.098784E-7	NaN
1062	1.000000	0.794898	7.37544e+06	-53239.1	1055.82	-29746.7	0.000000	0.000000	6.795080	0.026962	NaN	0.000000	0.001700	0.001716	28.0828	0.061658	0.002041	30.203	95.7746	-167.073	0.050877	0.793584	-0.366338	-0.367652	0.026962	30.203	-0.367007	-44978.7	-5.994306E-7	NaN
1062	1.000000	0.838901	7.37544e+06	-53239.1	1055.82	-29746.7	0.000000	0.000000	6.839083	0.008156	NaN	0.000000	0.001644	0.001714	28.0841	0.068469	0.002201	31.109	159.92	-163.996	-0.021578	0.837577	-0.322335	-0.323660	0.008156	31.109	-0.322532	-10136.2	-8.046229E-7	NaN
1062	1.000000	0.882907	7.37544e+06	-53239.1	1055.82	-29746.7	0.000000	0.000000	6.883088	0.002248	NaN	0.000000	0.001628	0.001741	28.0841	0.003564	0.001991	1.790106	-140.873	-164.221	-0.008207	0.881655	-0.278329	-0.279582	0.002248	1.790106	-0.279271	-2301.26	-9.767338E-7	NaN
1062	1.000000	0.926922	7.37544e+06	-53239.1	1055.82	-29746.7	0.000000	0.000000	6.927106	0.074952	NaN	0.000000	0.001640	0.001706	28.0839	0.101750	0.002051	49.6124	-159.877	-170.478	0.039843	0.925633	-0.234315	-0.235603	0.074952	49.6124	-0.235448	-487.843	-0.000154	NaN
1062	1.000000	0.970921	7.37544e+06	-53239.1	1055.82	-29746.7	0.000000	0.000000	6.971104	0.042839	NaN	0.000000	0.001640	0.001746	28.0826	0.081032	0.002043	39.6541	-38.3583	-166.763	0.017744	0.969631	-0.190315	-0.191605	0.042839	39.6541	-0.191125	-93.9307	-0.000456	NaN
1062	1.000000	1.014974	7.37544e+06	-53239.1	1055.82	-29746.7	0.000000	0.000000	7.015157	0.052286	NaN	0.000000	0.001578	0.001655	28.0828	0.044416	0.001897	23.4148	174.289	-166.239	-0.011893	1.013689	-0.146262	-0.147547	0.052286	23.4148	-0.147937	-16.6062	-0.003149	NaN
1062	1.000000	1.058983	7.37544e+06	-53239.1	1055.82	-29746.7	0.000000	0.000000	7.059164	-0.002484	NaN	0.000000	0.001651	0.001683	28.0829	0.059865	0.002001	29.9108	-157.047	-166.447	0.072370	1.057665	-0.102253	-0.103571	-0.002484	29.9108	-0.102191	-2.042026	0.001216	NaN
1062	1.000000	1.102991	7.37544e+06	-53239.1	1055.82	-29746.7	0.000000	0.000000	7.103173	0.022109	NaN	0.000000	0.001631	0.001672	28.0841	0.018593	0.002066	9.000870	117.861	-168.153	-0.038162	1.101705	-0.058245	-0.059532	0.022109	9.000870	-0.060087	-0.181136	-0.122060	NaN
1062	1.000000	1.147036	7.37544e+06	-53239.1	1055.82	-29746.7	0.000000	0.000000	7.147217	-0.015666	NaN	0.000000	0.001661	0.001704	28.0845	0.037148	0.002043	18.1826	73.2989	-166.204	0.067490	1.145692	-0.014200	-0.015545	-0.015666	18.1826	-0.013554	-0.008423	1.859972	NaN
1062	2.000000	1.174679	7.37544e+06	-53239.1	1055.82	-29746.7	0.000000	0.000000	7.175461	14.6101	NaN	0.000000	0.001677	0.001648	28.084	14.6011	0.001836	7952.48	10.8336	-178.107	15.2003	1.174475	0.013443	0.013239	14.6101	7952.48	0.012065	0.011568	1263	67554
1062	2.000000	1.185601	7.37544e+06	-53239.1	1055.82	-29746.7	0.000000	0.000000	7.187159	33.4679	NaN	0.000000	0.001553	0.001646	28.0829	24.6501	0.001685	14630	4.970924	-178.656	32.0202	1.185207	0.024365	0.023971	33.4679	14630	0.022649	0.026877	1245.21	81531.3
1062	2.000000	1.196572	7.37544e+06	-53239.1	1055.82	-29746.7	0.000000	0.000000	7.199213	59.8353	NaN	0.000000	0.001623	0.001767	28.0829	35.7381	0.001668	21422.7	4.742823	178.483	57.5071	1.196227	0.035335	0.034991	59.8353	21422.7	0.033240	0.047728	1253.67	89590.2
1062	2.000000	1.207584	7.37544e+06	-53239.1	1055.82	-29746.7	0.000000	0.000000	7.211568	92.4659	NaN	0.000000	0.001682	0.001710	28.0836	47.4831	0.001785	26602.7	5.796308	174.552	90.9	1.207250	0.046348	0.046014	92.4659	26602.7	0.043741	0.074054	1248.63	89315.2
1062	2.000000	1.218538	7.37544e+06	-53239.1	1055.82	-29746.7	0.000000	0.000000	7.224535	141.391	NaN	0.000000	0.001638	0.001738	28.0842	56.3546	0.001785	31576.6	4.940446	174.63	139.323	1.218232	0.057302	0.056996	141.391	31576.6	0.053944	0.104991	1346.7	89035.2
1062	2.000000	1.229524	7.37544e+06	-53239.1	1055.82	-29746.7	0.000000	0.000000	7.237748	195.555	NaN	0.000000	0.001631	0.001742	28.084	65.9814	0.001729	38171.2	4.677411	173.258	193.271	1.229311	0.068288	0.068075	195.555	38171.2	0.064445	0.142230	1374.92	92472.6
1062	2.000000	1.240493	7.37544e+06	-53239.1	1055.82	-29746.7	0.000000	0.000000	7.251643	266.686	NaN	0.000000	0.001679	0.001755	28.084	78.2465	0.001829	42787.2	1.474454	175.552	264.124	1.240232	0.079257	0.078996	266.686	42787.2	0.074582	0.183226	1455.5	91325.9
1062	2.000000	1.251539	7.37544e+06	-53239.1	1055.82	-29746.7	0.000000	0.000000	7.266451	358.17	NaN	0.000000	0.001623	0.001786	28.083	90.9112	0.001799	50532.1	7.685486	167.965	356.717	1.251277	0.090302	0.090040	358.17	50532.1	0.084986	0.230337	1554.98	96196.4
1062	2.000000	1.262518	7.37544e+06	-53239.1	1055.82	-29746.7	0.000000	0.000000	7.281727	462.63	NaN	0.000000	0.001610	0.001773	28.0829	99.9602	0.001851	54007	4.107917	171.886	462.629	1.262112	0.101281	0.100876	462.63	54007	0.094857	0.279654	1654.29	93306.6
1062	2.000000	1.267951	7.37544e+06	-53239.1	1055.82	-29746.7	0.000000	0.000000	7.289563	521.066	NaN	0.000000	0.001621	0.001754	28.0829	105.173	0.001712	61445.8	3.769725	-9.111101	514.518	1.267681	0.106714	0.106445	521.066	61445.8	0.100354	0.309055	1686	100983