File: remote_trans/data/nanoindenter/0828-1/data/Data_2025-08-06,11h17m57s/2025-07-22_16-23-58_1_747.txt
2025-07-22, 16:23:58, 1
Index	Phase	Displacement	Time	Pos X	Pos Y	Pos Z	Rot A	Rot B	Piezo Z	Force A	Force B	Gripper	Voltage A	Voltage B	Temperature	Amplitude force	Amplitude pos	Stiffness	Phase shift	Phase excitation	Force A raw	Displacement raw	HMax	HMax raw	Real Force	Real Stiffness	Contact Depth	Area	Hardness	Reduced Mod.
[#]	[#]	[um]	[s]	[um]	[um]	[um]	[m°]	[m°]	[um]	[uN]	[uN]	[V]	[V]	[V]	[°C]	[uN]	[um]	[N/m]	[°]	[°]	[uN]	[um]	[um]	[um]	[uN]	[N/m]	[um]	[um^2]	[MPa]	[MPa]
747	1.000000	0.002677	7.37236e+06	-39739.1	1005.82	-29792.7	0.000000	0.000000	6.002813	-0.009467	NaN	0.000000	0.001572	0.001679	28.083	0.074626	0.000975	76.5566	-124.198	-166.734	0.012164	0.001427	-1.146275	-1.147525	-0.009467	76.5566	-1.146182	-2.087545E+15	4.534899E-18	NaN
747	1.000000	0.044634	7.37236e+06	-39739.1	1005.82	-29792.7	0.000000	0.000000	6.044771	0.027940	NaN	0.000000	0.001603	0.001670	28.083	0.017353	0.001959	8.855974	-150.772	11.6802	-0.014830	0.043250	-1.104318	-1.105702	0.027940	8.855974	-1.106685	-6.162985E+14	-4.533499E-17	NaN
747	1.000000	0.086623	7.37236e+06	-39739.1	1005.82	-29792.7	0.000000	0.000000	6.086762	0.066401	NaN	0.000000	0.001691	0.001717	28.0814	0.091553	0.001958	46.7498	-106.953	-164.799	0.009740	0.085278	-1.062329	-1.063674	0.066401	46.7498	-1.063394	-1.615971E+14	-4.109023E-16	NaN
747	1.000000	0.128662	7.37236e+06	-39739.1	1005.82	-29792.7	0.000000	0.000000	6.128799	0.016031	NaN	0.000000	0.001678	0.001716	28.0815	0.129144	0.002006	64.3749	118.09	17.9337	0.071950	0.127265	-1.020290	-1.021687	0.016031	64.3749	-1.020477	-4.279250E+13	-3.746167E-16	NaN
747	1.000000	0.170687	7.37236e+06	-39739.1	1005.82	-29792.7	0.000000	0.000000	6.170822	-0.022307	NaN	0.000000	0.001639	0.001689	28.0815	0.053917	0.001978	27.2625	165.384	-164.474	-0.027491	0.169378	-0.978265	-0.979574	-0.022307	27.2625	-0.977651	-1.134399E+13	1.966397E-15	NaN
747	1.000000	0.212678	7.37236e+06	-39739.1	1005.82	-29792.7	0.000000	0.000000	6.212815	0.011468	NaN	0.000000	0.001612	0.001703	28.083	0.100689	0.001902	52.9326	-88.5004	16.2711	0.044992	0.211301	-0.936274	-0.937651	0.011468	52.9326	-0.936436	-3.155386E+12	-3.634386E-15	NaN
747	1.000000	0.254697	7.37236e+06	-39739.1	1005.82	-29792.7	0.000000	0.000000	6.254835	0.025687	NaN	0.000000	0.001624	0.001731	28.0834	0.052572	0.001964	26.7634	-102.628	-164.109	0.000727	0.253391	-0.894255	-0.895561	0.025687	26.7634	-0.894974	-8.692639E+11	-2.955085E-14	NaN
747	1.000000	0.296720	7.37236e+06	-39739.1	1005.82	-29792.7	0.000000	0.000000	6.296858	0.033809	NaN	0.000000	0.001611	0.001740	28.0833	0.062215	0.001955	31.8239	-122.736	14.1436	-0.026283	0.295351	-0.852232	-0.853601	0.033809	31.8239	-0.853028	-2.353651E+11	-1.436438E-13	NaN
747	1.000000	0.338729	7.37236e+06	-39739.1	1005.82	-29792.7	0.000000	0.000000	6.338865	-0.015360	NaN	0.000000	0.001611	0.001708	28.0833	0.093871	0.001995	47.0601	-161.242	-162.64	0.032009	0.337430	-0.810223	-0.811522	-0.015360	47.0601	-0.809978	-6.141444E+10	2.501117E-13	NaN
747	1.000000	0.380763	7.37236e+06	-39739.1	1005.82	-29792.7	0.000000	0.000000	6.380901	0.035102	NaN	0.000000	0.001609	0.001717	28.082	0.036813	0.001900	19.3778	148.916	15.8399	0.078252	0.379410	-0.768189	-0.769542	0.035102	19.3778	-0.769548	-1.734424E+10	-2.023852E-12	NaN
747	1.000000	0.422788	7.37236e+06	-39739.1	1005.82	-29792.7	0.000000	0.000000	6.422923	-0.051640	NaN	0.000000	0.001627	0.001681	28.0821	0.137538	0.001969	69.8541	105.429	-161.472	0.008721	0.421428	-0.726163	-0.727524	-0.051640	69.8541	-0.725609	-4.374766E+9	1.180402E-11	NaN
747	1.000000	0.464822	7.37236e+06	-39739.1	1005.82	-29792.7	0.000000	0.000000	6.464963	0.132998	NaN	0.000000	0.001620	0.001693	28.0826	0.100915	0.002112	47.7835	164.352	15.0497	0.110223	0.463457	-0.684130	-0.685495	0.132998	47.7835	-0.686218	-1.268303E+9	-1.048629E-10	NaN
747	1.000000	0.506796	7.37236e+06	-39739.1	1005.82	-29792.7	0.000000	0.000000	6.506935	0.061330	NaN	0.000000	0.001595	0.001683	28.0832	0.020268	0.002026	10.0029	119.322	-168.506	0.077691	0.505491	-0.642156	-0.643461	0.061330	10.0029	-0.646755	-3.655435E+8	-1.677766E-10	NaN
747	1.000000	0.548821	7.37236e+06	-39739.1	1005.82	-29792.7	0.000000	0.000000	6.548959	0.036941	NaN	0.000000	0.001612	0.001713	28.0829	0.111989	0.001893	59.171	78.1076	17.4656	0.065294	0.547462	-0.600131	-0.601490	0.036941	59.171	-0.600599	-8.486107E+7	-4.353128E-10	NaN
747	1.000000	0.590825	7.37236e+06	-39739.1	1005.82	-29792.7	0.000000	0.000000	6.590962	0.022616	NaN	0.000000	0.001663	0.001666	28.083	0.061405	0.001910	32.1468	-170.502	-166.325	0.101305	0.589509	-0.558127	-0.559443	0.022616	32.1468	-0.558655	-2.237506E+7	-1.010782E-9	NaN
747	1.000000	0.632843	7.37236e+06	-39739.1	1005.82	-29792.7	0.000000	0.000000	6.632979	-0.024081	NaN	0.000000	0.001654	0.001682	28.0818	0.063799	0.002031	31.4055	106.454	12.9132	0.058009	0.631476	-0.516109	-0.517476	-0.024081	31.4055	-0.515534	-5.64234e+06	4.267963E-9	NaN
747	1.000000	0.674880	7.37236e+06	-39739.1	1005.82	-29792.7	0.000000	0.000000	6.675018	0.037193	NaN	0.000000	0.001646	0.001658	28.0819	0.088166	0.002091	42.1743	-136.897	-164.993	0.111176	0.673560	-0.474072	-0.475392	0.037193	42.1743	-0.474733	-1.51971e+06	-2.447383E-8	NaN
747	1.000000	0.716888	7.37236e+06	-39739.1	1005.82	-29792.7	0.000000	0.000000	6.717029	0.116615	NaN	0.000000	0.001633	0.001740	28.0824	0.055557	0.002023	27.4617	164.991	12.6461	0.073849	0.715555	-0.432064	-0.433397	0.116615	27.4617	-0.435249	-422931	-2.757299E-7	NaN
747	1.000000	0.758915	7.37236e+06	-39739.1	1005.82	-29792.7	0.000000	0.000000	6.759052	0.022903	NaN	0.000000	0.001655	0.001658	28.0836	0.122543	0.001951	62.7993	-119.113	-163.715	0.104402	0.757608	-0.390037	-0.391344	0.022903	62.7993	-0.390311	-97187.4	-2.356588E-7	NaN
747	1.000000	0.800948	7.37236e+06	-39739.1	1005.82	-29792.7	0.000000	0.000000	6.801087	0.072404	NaN	0.000000	0.001668	0.001691	28.0834	0.116919	0.002048	57.0804	99.3591	13.8801	0.042865	0.799572	-0.348004	-0.349380	0.072404	57.0804	-0.348956	-24651.5	-2.937118E-6	NaN
747	1.000000	0.842965	7.37236e+06	-39739.1	1005.82	-29792.7	0.000000	0.000000	6.843104	0.079949	NaN	0.000000	0.001659	0.001715	28.0832	0.140557	0.002067	67.9976	-146.28	-166.49	0.089952	0.841633	-0.305987	-0.307319	0.079949	67.9976	-0.306869	-5952.21	-1.343187E-5	NaN
747	1.000000	0.884954	7.37236e+06	-39739.1	1005.82	-29792.7	0.000000	0.000000	6.885092	0.055767	NaN	0.000000	0.001590	0.001670	28.0833	0.096838	0.001978	48.9674	155.824	15.93	0.024862	0.883580	-0.263998	-0.265372	0.055767	48.9674	-0.264852	-1390.39	-4.010867E-5	NaN
747	1.000000	0.926984	7.37236e+06	-39739.1	1005.82	-29792.7	0.000000	0.000000	6.927122	0.061539	NaN	0.000000	0.001640	0.001706	28.0823	0.038575	0.002100	18.372	-4.886971	-165.485	0.094062	0.925693	-0.221968	-0.223259	0.061539	18.372	-0.224481	-327.402	-0.000188	NaN
747	1.000000	0.969012	7.37236e+06	-39739.1	1005.82	-29792.7	0.000000	0.000000	6.969150	0.032227	NaN	0.000000	0.001633	0.001732	28.0825	0.049080	0.001952	25.1406	-131.222	15.4472	0.062318	0.967663	-0.179940	-0.181289	0.032227	25.1406	-0.180901	-63.2095	-0.000510	NaN
747	1.000000	1.011000	7.37237e+06	-39739.1	1005.82	-29792.7	0.000000	0.000000	7.011139	0.072467	NaN	0.000000	0.001622	0.001667	28.082	0.142113	0.001952	72.8079	-8.608371	-163.819	0.097301	1.009698	-0.137952	-0.139254	0.072467	72.8079	-0.138699	-11.1808	-0.006481	NaN
747	1.000000	1.053052	7.37237e+06	-39739.1	1005.82	-29792.7	0.000000	0.000000	7.053194	0.138019	NaN	0.000000	0.001592	0.001690	28.083	0.055517	0.001895	29.2923	56.7257	13.7564	0.150247	1.051708	-0.095900	-0.097244	0.138019	29.2923	-0.099434	-1.775012	-0.077757	NaN
747	1.000000	1.095011	7.37237e+06	-39739.1	1005.82	-29792.7	0.000000	0.000000	7.095153	0.143360	NaN	0.000000	0.001624	0.001704	28.0831	0.105134	0.002066	50.8821	-23.8169	-163.819	0.068322	1.093710	-0.053941	-0.055242	0.143360	50.8821	-0.056054	-0.138328	-1.036376	NaN
747	1.000000	1.137022	7.37237e+06	-39739.1	1005.82	-29792.7	0.000000	0.000000	7.137162	0.110900	NaN	0.000000	0.001612	0.001705	28.083	0.009439	0.001984	4.757154	68.8464	14.7729	0.203789	1.135661	-0.011930	-0.013291	0.110900	4.757154	-0.029415	-0.022168	-5.002786	NaN
747	2.000000	1.161647	7.37237e+06	-39739.1	1005.82	-29792.7	0.000000	0.000000	7.162475	16.8184	NaN	0.000000	0.001615	0.001710	28.082	14.9656	0.001824	8203.33	9.559029	-175.744	17.4099	1.161358	0.012695	0.012406	16.8184	8203.33	0.011158	0.010497	1602.26	73153.9
747	2.000000	1.172054	7.37237e+06	-39739.1	1005.82	-29792.7	0.000000	0.000000	7.173827	39.8189	NaN	0.000000	0.001619	0.001705	28.0816	24.1992	0.001777	13615.6	5.920221	2.330621	37.665	1.171712	0.023102	0.022760	39.8189	13615.6	0.020909	0.023990	1659.78	80313.9
747	2.000000	1.182552	7.37237e+06	-39739.1	1005.82	-29792.7	0.000000	0.000000	7.185822	76.2483	NaN	0.000000	0.001650	0.001695	28.0817	33.9978	0.001713	19851.4	4.750665	179.552	75.3129	1.182164	0.033600	0.033212	76.2483	19851.4	0.030720	0.042248	1804.76	88238.8
747	2.000000	1.192991	7.37237e+06	-39739.1	1005.82	-29792.7	0.000000	0.000000	7.198092	120.823	NaN	0.000000	0.001631	0.001686	28.0826	43.498	0.001656	26259.7	2.556165	0.063015	116.71	1.192605	0.044039	0.043653	120.823	26259.7	0.040588	0.065556	1843.04	93703.5
747	2.000000	1.203602	7.37237e+06	-39739.1	1005.82	-29792.7	0.000000	0.000000	7.211037	177.626	NaN	0.000000	0.001652	0.001694	28.0828	55.1535	0.001852	29785.5	8.098840	174.612	179.442	1.203138	0.054650	0.054186	177.626	29785.5	0.050177	0.092961	1910.76	89254.1
747	2.000000	1.214039	7.37237e+06	-39739.1	1005.82	-29792.7	0.000000	0.000000	7.223696	231.664	NaN	0.000000	0.001673	0.001731	28.0827	64.7612	0.001731	37408	5.562340	-6.203037	231.856	1.213781	0.065087	0.064829	231.664	37408	0.060443	0.127400	1818.39	95752.9
747	2.000000	1.224459	7.37237e+06	-39739.1	1005.82	-29792.7	0.000000	0.000000	7.236715	294.922	NaN	0.000000	0.001664	0.001711	28.083	74.5821	0.001790	41658.6	4.650295	173.677	291.512	1.224169	0.075507	0.075217	294.922	41658.6	0.070198	0.164893	1788.57	93729.8
747	2.000000	1.234950	7.37237e+06	-39739.1	1005.82	-29792.7	0.000000	0.000000	7.250427	373.308	NaN	0.000000	0.001657	0.001743	28.0818	82.5353	0.001643	50221.5	3.253456	-5.588344	366.505	1.234512	0.085998	0.085560	373.308	50221.5	0.080423	0.209054	1785.7	100354
747	2.000000	1.245465	7.37237e+06	-39739.1	1005.82	-29792.7	0.000000	0.000000	7.264029	448.42	NaN	0.000000	0.001594	0.001709	28.082	93.8359	0.001802	52083.9	2.688555	174.684	448.322	1.245268	0.096513	0.096316	448.42	52083.9	0.090056	0.255109	1757.76	94213.7
747	2.000000	1.254375	7.37237e+06	-39739.1	1005.82	-29792.7	0.000000	0.000000	7.276355	531.56	NaN	0.000000	0.001600	0.001736	28.0819	104.718	0.001911	54797.5	4.844622	172.407	525.659	1.254123	0.105423	0.105171	531.56	54797.5	0.098148	0.297091	1789.22	91852.1