File: remote_trans/data/nanoindenter/0828-1/data/Data_2025-08-06,11h17m57s/2025-07-22_16-23-58_1_1008.txt
2025-07-22, 16:23:58, 1
Index	Phase	Displacement	Time	Pos X	Pos Y	Pos Z	Rot A	Rot B	Piezo Z	Force A	Force B	Gripper	Voltage A	Voltage B	Temperature	Amplitude force	Amplitude pos	Stiffness	Phase shift	Phase excitation	Force A raw	Displacement raw	HMax	HMax raw	Real Force	Real Stiffness	Contact Depth	Area	Hardness	Reduced Mod.
[#]	[#]	[um]	[s]	[um]	[um]	[um]	[m°]	[m°]	[um]	[uN]	[uN]	[V]	[V]	[V]	[°C]	[uN]	[um]	[N/m]	[°]	[°]	[uN]	[um]	[um]	[um]	[uN]	[N/m]	[um]	[um^2]	[MPa]	[MPa]
1008	1.000000	0.002870	7.37491e+06	-50539.1	1055.82	-29755.3	0.000000	0.000000	6.002786	0.054355	NaN	0.000000	0.001630	0.001696	28.085	0.057619	0.000983	58.5938	-136.493	-164.838	0.032191	0.001565	-1.091372	-1.092677	0.054355	58.5938	-1.092068	-3.922653E+14	-1.385668E-16	NaN
1008	1.000000	0.044831	7.37491e+06	-50539.1	1055.82	-29755.3	0.000000	0.000000	6.044747	0.059867	NaN	0.000000	0.001603	0.001649	28.0848	0.032943	0.001943	16.9549	113.841	13.2759	0.070600	0.043482	-1.049412	-1.050761	0.059867	16.9549	-1.052060	-1.137900E+14	-5.261179E-16	NaN
1008	1.000000	0.086846	7.37491e+06	-50539.1	1055.82	-29755.3	0.000000	0.000000	6.086762	0.078938	NaN	0.000000	0.001539	0.001651	28.0835	0.023020	0.002103	10.9458	12.5711	-166.376	0.040701	0.085562	-1.007397	-1.008681	0.078938	10.9458	-1.012806	-3.374023E+13	-2.339584E-15	NaN
1008	1.000000	0.128883	7.37491e+06	-50539.1	1055.82	-29755.3	0.000000	0.000000	6.128798	0.051512	NaN	0.000000	0.001566	0.001673	28.0836	0.053900	0.001933	27.8859	168.486	12.0985	0.095621	0.127485	-0.965360	-0.966757	0.051512	27.8859	-0.966746	-8.087228E+12	-6.369544E-15	NaN
1008	1.000000	0.170912	7.37491e+06	-50539.1	1055.82	-29755.3	0.000000	0.000000	6.170825	0.009219	NaN	0.000000	0.001620	0.001664	28.0834	0.062152	0.002011	30.9073	124.77	-165.624	0.060569	0.169537	-0.923331	-0.924706	0.009219	30.9073	-0.923555	-2.114451E+12	-4.359958E-15	NaN
1008	1.000000	0.212912	7.37491e+06	-50539.1	1055.82	-29755.3	0.000000	0.000000	6.212827	0.022310	NaN	0.000000	0.001618	0.001712	28.0842	0.091474	0.001857	49.2616	-71.2866	13.3237	-0.028712	0.211548	-0.881330	-0.882695	0.022310	49.2616	-0.881670	-5.745024E+11	-3.883415E-14	NaN
1008	1.000000	0.254891	7.37491e+06	-50539.1	1055.82	-29755.3	0.000000	0.000000	6.254807	0.077086	NaN	0.000000	0.001556	0.001676	28.0847	0.090591	0.002029	44.6424	-146.989	-161.92	-0.008278	0.253600	-0.839352	-0.840643	0.077086	44.6424	-0.840647	-1.599778E+11	-4.818551E-13	NaN
1008	1.000000	0.296935	7.37491e+06	-50539.1	1055.82	-29755.3	0.000000	0.000000	6.296849	0.010410	NaN	0.000000	0.001587	0.001674	28.0847	0.052066	0.001986	26.2136	146.942	18.3478	-0.010236	0.295508	-0.797308	-0.798734	0.010410	26.2136	-0.797606	-4.172132E+10	-2.495144E-13	NaN
1008	1.000000	0.338942	7.37491e+06	-50539.1	1055.82	-29755.3	0.000000	0.000000	6.338855	0.007399	NaN	0.000000	0.001604	0.001682	28.0844	0.094212	0.002080	45.2979	-65.4322	-169.016	0.055608	0.337658	-0.755301	-0.756585	0.007399	45.2979	-0.755424	-1.114388E+10	-6.639426E-13	NaN
1008	1.000000	0.380998	7.37491e+06	-50539.1	1055.82	-29755.3	0.000000	0.000000	6.380910	-0.009857	NaN	0.000000	0.001574	0.001706	28.0833	0.077243	0.002062	37.4575	-131.355	16.7134	0.021363	0.379629	-0.713245	-0.714613	-0.009857	37.4575	-0.713048	-2.948750E+9	3.342816E-12	NaN
1008	1.000000	0.422988	7.37491e+06	-50539.1	1055.82	-29755.3	0.000000	0.000000	6.422901	-0.016923	NaN	0.000000	0.001604	0.001727	28.0834	0.108247	0.002021	53.5562	141.193	-167.135	0.059056	0.421635	-0.671254	-0.672608	-0.016923	53.5562	-0.671017	-7.858067E+8	2.153621E-11	NaN
1008	1.000000	0.464991	7.37491e+06	-50539.1	1055.82	-29755.3	0.000000	0.000000	6.464905	0.014009	NaN	0.000000	0.001573	0.001722	28.0833	0.012483	0.001930	6.468124	143.828	13.8864	0.012502	0.463639	-0.629252	-0.630604	0.014009	6.468124	-0.630876	-2.213370E+8	-6.329088E-11	NaN
1008	1.000000	0.507055	7.37491e+06	-50539.1	1055.82	-29755.3	0.000000	0.000000	6.506969	0.012304	NaN	0.000000	0.001594	0.001699	28.0846	0.017456	0.002044	8.538673	95.6802	-165.368	0.046049	0.505748	-0.587187	-0.588495	0.012304	8.538673	-0.588268	-5.738353E+7	-2.144166E-10	NaN
1008	1.000000	0.549073	7.37491e+06	-50539.1	1055.82	-29755.3	0.000000	0.000000	6.548988	0.040974	NaN	0.000000	0.001567	0.001776	28.0847	0.046564	0.001976	23.5592	-72.8315	16.2934	-0.030936	0.547706	-0.545170	-0.546537	0.040974	23.5592	-0.546474	-1.517427E+7	-2.700198E-9	NaN
1008	1.000000	0.591050	7.37491e+06	-50539.1	1055.82	-29755.3	0.000000	0.000000	6.590967	0.099648	NaN	0.000000	0.001621	0.001725	28.0849	0.081414	0.002117	38.4542	-112.464	-168.188	0.038724	0.589773	-0.503193	-0.504470	0.099648	38.4542	-0.505137	-4.04248e+06	-2.465027E-8	NaN
1008	1.000000	0.633087	7.37491e+06	-50539.1	1055.82	-29755.3	0.000000	0.000000	6.633003	0.059467	NaN	0.000000	0.001581	0.001728	28.0831	0.109010	0.001922	56.719	140.296	14.5221	-0.002221	0.631738	-0.461156	-0.462505	0.059467	56.719	-0.461942	-1.00532e+06	-5.915282E-8	NaN
1008	1.000000	0.675100	7.37491e+06	-50539.1	1055.82	-29755.3	0.000000	0.000000	6.675016	0.071970	NaN	0.000000	0.001545	0.001751	28.0833	0.123683	0.001923	64.3161	10.5468	-165.4	0.032221	0.673827	-0.419143	-0.420415	0.071970	64.3161	-0.419982	-257134	-2.798922E-7	NaN
1008	1.000000	0.717114	7.37491e+06	-50539.1	1055.82	-29755.3	0.000000	0.000000	6.717031	0.097738	NaN	0.000000	0.001587	0.001761	28.0835	0.132278	0.002003	66.0438	-150.99	14.8827	0.015038	0.715767	-0.377129	-0.378475	0.097738	66.0438	-0.378239	-65253.6	-1.497811E-6	NaN
1008	1.000000	0.759120	7.37491e+06	-50539.1	1055.82	-29755.3	0.000000	0.000000	6.759034	0.024284	NaN	0.000000	0.001555	0.001717	28.0841	0.109956	0.002066	53.2232	-137.298	-166.338	0.007424	0.757824	-0.335123	-0.336419	0.024284	53.2232	-0.335465	-15681.4	-1.548609E-6	NaN
1008	1.000000	0.801176	7.37491e+06	-50539.1	1055.82	-29755.3	0.000000	0.000000	6.801092	0.079149	NaN	0.000000	0.001627	0.001706	28.0846	0.025303	0.002007	12.6073	-175.006	11.2613	0.051539	0.799787	-0.293067	-0.294456	0.079149	12.6073	-0.297776	-4360.13	-1.815294E-5	NaN
1008	1.000000	0.843164	7.37491e+06	-50539.1	1055.82	-29755.3	0.000000	0.000000	6.843078	0.017437	NaN	0.000000	0.001664	0.001732	28.0847	0.041444	0.001994	20.7845	129.297	-169.371	0.112421	0.841821	-0.251078	-0.252421	0.017437	20.7845	-0.251708	-873.687	-1.995797E-5	NaN
1008	1.000000	0.885196	7.37491e+06	-50539.1	1055.82	-29755.3	0.000000	0.000000	6.885112	0.083364	NaN	0.000000	0.001585	0.001777	28.0844	0.086832	0.001960	44.3131	68.8064	13.4704	0.120334	0.883842	-0.209047	-0.210401	0.083364	44.3131	-0.210458	-195.089	-0.000427	NaN
1008	1.000000	0.927179	7.37491e+06	-50539.1	1055.82	-29755.3	0.000000	0.000000	6.927094	0.045981	NaN	0.000000	0.001633	0.001701	28.0831	0.032559	0.001985	16.3996	105.272	-169.563	0.088431	0.925922	-0.167064	-0.168321	0.045981	16.3996	-0.169167	-39.731	-0.001157	NaN
1008	1.000000	0.969233	7.37491e+06	-50539.1	1055.82	-29755.3	0.000000	0.000000	6.969148	0.043066	NaN	0.000000	0.001585	0.001715	28.0833	0.127140	0.002095	60.6889	54.9278	16.5633	0.108106	0.967849	-0.125010	-0.126394	0.043066	60.6889	-0.125542	-6.233271	-0.006909	NaN
1008	1.000000	1.011259	7.37491e+06	-50539.1	1055.82	-29755.3	0.000000	0.000000	7.011171	-0.022214	NaN	0.000000	0.001608	0.001763	28.084	0.037186	0.002029	18.3246	97.8861	-167.092	0.051185	1.009891	-0.082984	-0.084352	-0.022214	18.3246	-0.082075	-0.696962	0.031872	NaN
1008	1.000000	1.053237	7.37491e+06	-50539.1	1055.82	-29755.3	0.000000	0.000000	7.053150	-0.006659	NaN	0.000000	0.001594	0.001737	28.0848	0.099376	0.001935	51.3641	-143.74	11.044	0.078147	1.051887	-0.041006	-0.042356	-0.006659	51.3641	-0.040909	-0.048194	0.138163	NaN
1008	1.000000	1.095252	7.37491e+06	-50539.1	1055.82	-29755.3	0.000000	0.000000	7.095183	0.437498	NaN	0.000000	0.001623	0.001763	28.0846	0.655250	0.002015	325.237	9.451774	-167.697	0.082540	1.093938	0.001009	-0.000305	0.437498	325.237	5.532612E-7	4.134617E-7	1.05813e+06	462121
1008	2.000000	1.111400	7.37491e+06	-50539.1	1055.82	-29755.3	0.000000	0.000000	7.112124	19.7249	NaN	0.000000	0.001510	0.001763	28.0845	17.2423	0.001767	9758.2	5.324012	4.634841	18.4764	1.111014	0.017157	0.016772	19.7249	9758.2	0.015641	0.016150	1221.38	70155.4
1008	2.000000	1.121817	7.37491e+06	-50539.1	1055.82	-29755.3	0.000000	0.000000	7.123885	52.4037	NaN	0.000000	0.001621	0.001750	28.0833	28.5609	0.001783	16021.1	6.755952	178.387	50.1584	1.121571	0.027574	0.027328	52.4037	16021.1	0.025121	0.031237	1677.64	82819.8
1008	2.000000	1.132323	7.37491e+06	-50539.1	1055.82	-29755.3	0.000000	0.000000	7.136122	94.5034	NaN	0.000000	0.001648	0.001750	28.083	38.5227	0.001813	21250.2	1.259638	0.873225	91.6941	1.132069	0.038080	0.037826	94.5034	21250.2	0.034745	0.051153	1847.47	85842
1008	2.000000	1.142812	7.37491e+06	-50539.1	1055.82	-29755.3	0.000000	0.000000	7.148798	147.682	NaN	0.000000	0.001589	0.001773	28.0829	50.3308	0.001747	28813.7	6.165197	173.943	145.651	1.142497	0.048569	0.048254	147.682	28813.7	0.044725	0.076808	1922.75	94988.4
1008	2.000000	1.153304	7.37491e+06	-50539.1	1055.82	-29755.3	0.000000	0.000000	7.161343	197.607	NaN	0.000000	0.001611	0.001745	28.0839	57.4209	0.001756	32693.1	3.537837	-3.877631	195.193	1.152898	0.059061	0.058656	197.607	32693.1	0.054528	0.106921	1848.16	91347.8
1008	2.000000	1.163837	7.37491e+06	-50539.1	1055.82	-29755.3	0.000000	0.000000	7.174485	261.06	NaN	0.000000	0.001711	0.001735	28.0841	67.5461	0.001744	38735.2	4.558699	172.922	259.944	1.163466	0.069594	0.069223	261.06	38735.2	0.064539	0.142588	1830.88	93721.3
1008	2.000000	1.174251	7.37491e+06	-50539.1	1055.82	-29755.3	0.000000	0.000000	7.187995	336.319	NaN	0.000000	0.001600	0.001739	28.0844	76.872	0.001784	43086	6.813722	-8.817900	331.871	1.173851	0.080008	0.079608	336.319	43086	0.074154	0.181396	1854.06	92426.3
1008	2.000000	1.184674	7.37491e+06	-50539.1	1055.82	-29755.3	0.000000	0.000000	7.201475	410.688	NaN	0.000000	0.001590	0.001741	28.0841	86.4034	0.001725	50100.9	1.275116	174.93	403.845	1.184488	0.090431	0.090245	410.688	50100.9	0.084283	0.226994	1809.25	96075.2
1008	2.000000	1.195212	7.37492e+06	-50539.1	1055.82	-29755.3	0.000000	0.000000	7.215459	494.49	NaN	0.000000	0.001601	0.001754	28.0829	97.4828	0.001784	54656.7	9.961855	-14.4495	488.947	1.194803	0.100969	0.100560	494.49	54656.7	0.094184	0.276150	1790.65	95026.3
1008	2.000000	1.201248	7.37492e+06	-50539.1	1055.82	-29755.3	0.000000	0.000000	7.223368	540.017	NaN	0.000000	0.001604	0.001776	28.0829	102.572	0.001778	57687	3.681743	-8.115695	536.058	1.200814	0.107005	0.106572	540.017	57687	0.099984	0.307033	1758.82	95117