File: remote_trans/data/nanoindenter/0828-1/data/Data_2025-08-06,11h17m57s/2025-07-22_16-23-58_1_423.txt
2025-07-22, 16:23:58, 1
Index	Phase	Displacement	Time	Pos X	Pos Y	Pos Z	Rot A	Rot B	Piezo Z	Force A	Force B	Gripper	Voltage A	Voltage B	Temperature	Amplitude force	Amplitude pos	Stiffness	Phase shift	Phase excitation	Force A raw	Displacement raw	HMax	HMax raw	Real Force	Real Stiffness	Contact Depth	Area	Hardness	Reduced Mod.
[#]	[#]	[um]	[s]	[um]	[um]	[um]	[m°]	[m°]	[um]	[uN]	[uN]	[V]	[V]	[V]	[°C]	[uN]	[um]	[N/m]	[°]	[°]	[uN]	[um]	[um]	[um]	[uN]	[N/m]	[um]	[um^2]	[MPa]	[MPa]
423	1.000000	0.002587	7.3692e+06	-55939.1	1005.82	-29740.4	0.000000	0.000000	6.002788	-0.033410	NaN	0.000000	0.001554	0.001716	28.0808	0.026211	0.000975	26.8893	142.626	-164.003	-0.022785	0.001359	-1.074058	-1.075285	-0.033410	26.8893	-1.073126	-2.183685E+14	1.529973E-16	NaN
423	1.000000	0.042565	7.3692e+06	-55939.1	1005.82	-29740.4	0.000000	0.000000	6.042764	-0.093159	NaN	0.000000	0.001573	0.001759	28.0798	0.048378	0.001963	24.649	-39.9499	-164.288	-0.119099	0.041242	-1.034080	-1.035403	-0.093159	24.649	-1.031246	-5.973586E+13	1.559513E-15	NaN
423	1.000000	0.082551	7.3692e+06	-55939.1	1005.82	-29740.4	0.000000	0.000000	6.082751	-0.086762	NaN	0.000000	0.001598	0.001744	28.0797	0.057374	0.002085	27.517	145.103	-165.627	-0.094952	0.081270	-0.994094	-0.995375	-0.086762	27.517	-0.991729	-1.755486E+13	4.942327E-15	NaN
423	1.000000	0.122603	7.3692e+06	-55939.1	1005.82	-29740.4	0.000000	0.000000	6.122805	-0.009411	NaN	0.000000	0.001581	0.001730	28.08	0.059343	0.001985	29.898	-179.128	-162.023	0.007126	0.121268	-0.954042	-0.955377	-0.009411	29.898	-0.953806	-5.411990E+12	1.738841E-15	NaN
423	1.000000	0.162606	7.3692e+06	-55939.1	1005.82	-29740.4	0.000000	0.000000	6.162808	-0.029923	NaN	0.000000	0.001601	0.001778	28.0814	0.081509	0.002072	39.3415	-159.196	-160.539	-0.012121	0.161258	-0.914039	-0.915387	-0.029923	39.3415	-0.913468	-1.545284E+12	1.936393E-14	NaN
423	1.000000	0.202627	7.3692e+06	-55939.1	1005.82	-29740.4	0.000000	0.000000	6.202830	0.006685	NaN	0.000000	0.001532	0.001722	28.0811	0.034751	0.002068	16.8042	-41.2345	-167.904	-0.039194	0.201329	-0.874018	-0.875316	0.006685	16.8042	-0.874316	-4.569135E+11	-1.463081E-14	NaN
423	1.000000	0.242614	7.3692e+06	-55939.1	1005.82	-29740.5	0.000000	0.000000	6.242818	0.009047	NaN	0.000000	0.001598	0.001724	28.0816	0.081823	0.001973	41.4682	-133.492	-164.712	0.054615	0.241311	-0.834031	-0.835334	0.009047	41.4682	-0.834194	-1.308062E+11	-6.916525E-14	NaN
423	1.000000	0.282646	7.3692e+06	-55939.1	1005.82	-29740.5	0.000000	0.000000	6.282847	-0.045398	NaN	0.000000	0.001543	0.001706	28.0814	0.037262	0.002044	18.2295	86.1982	-159.845	-0.074454	0.281320	-0.793999	-0.795325	-0.045398	18.2295	-0.792131	-3.515799E+10	1.291271E-12	NaN
423	1.000000	0.322639	7.3692e+06	-55939.1	1005.82	-29740.5	0.000000	0.000000	6.322843	0.002802	NaN	0.000000	0.001574	0.001706	28.0799	0.055772	0.001945	28.6674	33.8885	-166.264	-0.053530	0.321383	-0.754006	-0.755262	0.002802	28.6674	-0.754079	-1.068404E+10	-2.622390E-13	NaN
423	1.000000	0.362685	7.3692e+06	-55939.1	1005.82	-29740.5	0.000000	0.000000	6.362889	0.024873	NaN	0.000000	0.001590	0.001697	28.0798	0.028417	0.001941	14.6409	-37.5154	-161.167	-0.101997	0.361384	-0.713960	-0.715261	0.024873	14.6409	-0.715234	-3.158420E+9	-7.875002E-12	NaN
423	1.000000	0.402678	7.3692e+06	-55939.1	1005.82	-29740.5	0.000000	0.000000	6.402880	-0.029850	NaN	0.000000	0.001500	0.001693	28.08	0.021474	0.002061	10.4202	-84.8551	-166.681	0.070232	0.401407	-0.673967	-0.675238	-0.029850	10.4202	-0.671819	-8.059016E+8	3.703966E-11	NaN
423	1.000000	0.442718	7.3692e+06	-55939.1	1005.82	-29740.5	0.000000	0.000000	6.442920	-0.044912	NaN	0.000000	0.001568	0.001637	28.0809	0.091712	0.002095	43.7782	-79.4389	-164.667	-0.033211	0.441456	-0.633927	-0.635188	-0.044912	43.7782	-0.633157	-2.378883E+8	1.887959E-10	NaN
423	1.000000	0.482734	7.3692e+06	-55939.1	1005.82	-29740.5	0.000000	0.000000	6.482938	0.016928	NaN	0.000000	0.001594	0.001699	28.0808	0.038595	0.002008	19.222	-34.4607	-166.178	-0.002449	0.481461	-0.593911	-0.595184	0.016928	19.222	-0.594571	-7.009255E+7	-2.415104E-10	NaN
423	1.000000	0.522765	7.3692e+06	-55939.1	1005.82	-29740.5	0.000000	0.000000	6.522966	-0.067400	NaN	0.000000	0.001521	0.001690	28.0809	0.054732	0.001956	27.976	-41.4579	-164.054	-0.105680	0.521461	-0.553880	-0.555184	-0.067400	27.976	-0.552073	-1.814099E+7	3.715349E-9	NaN
423	1.000000	0.562763	7.3692e+06	-55939.1	1005.82	-29740.5	0.000000	0.000000	6.562964	-0.037149	NaN	0.000000	0.001563	0.001663	28.0798	0.060046	0.001933	31.0675	-52.5294	-161.409	-0.045482	0.561460	-0.513882	-0.515185	-0.037149	31.0675	-0.512985	-5.1998e+06	7.144327E-9	NaN
423	1.000000	0.602778	7.3692e+06	-55939.1	1005.82	-29740.5	0.000000	0.000000	6.602983	0.037552	NaN	0.000000	0.001569	0.001665	28.0797	0.098309	0.002009	48.9288	-176.203	-165.067	-0.044175	0.601504	-0.473866	-0.475140	0.037552	48.9288	-0.474442	-1.5055e+06	-2.494334E-8	NaN
423	1.000000	0.642782	7.3692e+06	-55939.1	1005.82	-29740.5	0.000000	0.000000	6.642986	0.008699	NaN	0.000000	0.001588	0.001648	28.0796	0.050919	0.001958	26.0071	-10.3653	-164.719	-0.020471	0.641513	-0.433863	-0.435132	0.008699	26.0071	-0.434114	-407596	-2.134185E-8	NaN
423	1.000000	0.682811	7.3692e+06	-55939.1	1005.82	-29740.5	0.000000	0.000000	6.683010	-0.095992	NaN	0.000000	0.001608	0.001677	28.0795	0.056540	0.001894	29.8453	35.1308	-163.543	-0.031533	0.681520	-0.393834	-0.395125	-0.095992	29.8453	-0.391422	-100810	9.522053E-7	NaN
423	1.000000	0.722818	7.3692e+06	-55939.1	1005.82	-29740.5	0.000000	0.000000	6.723021	0.003734	NaN	0.000000	0.001594	0.001677	28.0808	0.148042	0.001997	74.1175	-142.257	-163.864	-0.128938	0.721490	-0.353827	-0.355154	0.003734	74.1175	-0.353865	-29043.4	-1.285656E-7	NaN
423	1.000000	0.762843	7.3692e+06	-55939.1	1005.82	-29740.5	0.000000	0.000000	6.763044	-0.037163	NaN	0.000000	0.001572	0.001672	28.081	0.103647	0.002034	50.9529	141.208	-164.797	-0.062372	0.761508	-0.313802	-0.315137	-0.037163	50.9529	-0.313255	-7399.2	5.022524E-6	NaN
423	1.000000	0.802858	7.3692e+06	-55939.1	1005.82	-29740.5	0.000000	0.000000	6.803060	-0.020432	NaN	0.000000	0.001592	0.001704	28.0811	0.103854	0.002034	51.0603	112.414	-163.848	-0.072347	0.801547	-0.273787	-0.275098	-0.020432	51.0603	-0.273487	-1881.39	1.086014E-5	NaN
423	1.000000	0.842877	7.3692e+06	-55939.1	1005.82	-29740.5	0.000000	0.000000	6.843080	-0.009616	NaN	0.000000	0.001615	0.001682	28.0796	0.034588	0.002213	15.628	-154.19	-161.425	-0.009517	0.841581	-0.233768	-0.235064	-0.009616	15.628	-0.233306	-451.471	2.129914E-5	NaN
423	1.000000	0.882910	7.3692e+06	-55939.1	1005.82	-29740.5	0.000000	0.000000	6.883112	-0.027794	NaN	0.000000	0.001622	0.001658	28.0798	0.183481	0.002014	91.0813	44.358	-168.055	-0.008267	0.881579	-0.193735	-0.195066	-0.027794	91.0813	-0.193506	-102.903	0.000270	NaN
423	1.000000	0.922895	7.3692e+06	-55939.1	1005.82	-29740.5	0.000000	0.000000	6.923098	-0.010187	NaN	0.000000	0.001624	0.001672	28.0799	0.090651	0.002196	41.2886	163.518	-163.129	-0.021496	0.921625	-0.153750	-0.155020	-0.010187	41.2886	-0.153565	-21.0234	0.000485	NaN
423	1.000000	0.962916	7.3692e+06	-55939.1	1005.82	-29740.5	0.000000	0.000000	6.963118	-0.025657	NaN	0.000000	0.001620	0.001669	28.0797	0.076610	0.001980	38.6987	-89.7121	-164.694	0.046047	0.961615	-0.113729	-0.115030	-0.025657	38.6987	-0.113232	-3.511626	0.007306	NaN
423	1.000000	1.002934	7.3692e+06	-55939.1	1005.82	-29740.5	0.000000	0.000000	7.003136	-0.026141	NaN	0.000000	0.001643	0.001698	28.081	0.038567	0.002007	19.2126	135.374	-161.645	-0.008374	1.001653	-0.073711	-0.074992	-0.026141	19.2126	-0.072691	-0.402070	0.065015	NaN
423	1.000000	1.042928	7.3692e+06	-55939.1	1005.82	-29740.5	0.000000	0.000000	7.043129	-0.064612	NaN	0.000000	0.001602	0.001692	28.0811	0.089253	0.002033	43.9088	-121.654	-168.58	-0.101843	1.041633	-0.033717	-0.035012	-0.064612	43.9088	-0.032613	-0.027288	2.367728	NaN
423	1.000000	1.082937	7.3692e+06	-55939.1	1005.82	-29740.5	0.000000	0.000000	7.083283	3.474909	NaN	0.000000	0.001638	0.001687	28.081	4.327956	0.001950	2219.94	9.624119	-168.774	2.203830	1.081696	0.006292	0.005051	3.474909	2219.94	0.005118	0.004242	819.222	31141.8
423	2.000000	1.096409	7.3692e+06	-55939.1	1005.82	-29740.5	0.000000	0.000000	7.097488	21.2758	NaN	0.000000	0.001687	0.001717	28.0799	19.4625	0.001953	9967.98	5.833780	-174.38	18.8668	1.096181	0.019765	0.019536	21.2758	9967.98	0.018164	0.019739	1077.88	64821.8
423	2.000000	1.106417	7.3692e+06	-55939.1	1005.82	-29740.5	0.000000	0.000000	7.108625	48.7424	NaN	0.000000	0.001654	0.001688	28.0801	29.2631	0.001805	16209.7	4.137063	-177.4	49.2993	1.106163	0.029772	0.029518	48.7424	16209.7	0.027517	0.035754	1363.27	78322.5
423	2.000000	1.116382	7.3692e+06	-55939.1	1005.82	-29740.5	0.000000	0.000000	7.119934	81.3984	NaN	0.000000	0.001636	0.001710	28.0799	40.3449	0.001775	22725.4	7.018871	175.997	79.7287	1.116126	0.039737	0.039482	81.3984	22725.4	0.037051	0.056629	1437.4	87249.9
423	2.000000	1.126318	7.3692e+06	-55939.1	1005.82	-29740.5	0.000000	0.000000	7.131601	123.475	NaN	0.000000	0.001645	0.001708	28.0801	50.0863	0.001811	27657.5	2.426094	178.967	120.369	1.126190	0.049673	0.049545	123.475	27657.5	0.046325	0.081392	1517.04	88571.8
423	2.000000	1.136319	7.3692e+06	-55939.1	1005.82	-29740.5	0.000000	0.000000	7.143839	177.844	NaN	0.000000	0.001601	0.001759	28.081	59.52	0.001762	33787.3	0.489168	179.731	174.42	1.136074	0.059674	0.059429	177.844	33787.3	0.055727	0.110932	1603.17	92682.5
423	2.000000	1.146388	7.3692e+06	-55939.1	1005.82	-29740.5	0.000000	0.000000	7.156142	232.159	NaN	0.000000	0.001575	0.001710	28.0809	69.358	0.001768	39230.8	5.995441	173.236	231.893	1.146043	0.069743	0.069398	232.159	39230.8	0.065304	0.145513	1595.45	93961.3
423	2.000000	1.156418	7.3692e+06	-55939.1	1005.82	-29740.5	0.000000	0.000000	7.168355	285.224	NaN	0.000000	0.001584	0.001688	28.0809	79.9881	0.001813	44115.6	1.000260	176.921	286.438	1.156157	0.079773	0.079512	285.224	44115.6	0.074924	0.184695	1544.3	93786.1
423	2.000000	1.166388	7.3692e+06	-55939.1	1005.82	-29740.5	0.000000	0.000000	7.181095	352.552	NaN	0.000000	0.001571	0.001699	28.0798	90.9118	0.001905	47719.2	2.487788	174.793	353.811	1.166264	0.089743	0.089619	352.552	47719.2	0.084202	0.226609	1555.77	91585.6
423	2.000000	1.176244	7.3692e+06	-55939.1	1005.82	-29740.5	0.000000	0.000000	7.194982	450.546	NaN	0.000000	0.001606	0.001698	28.0795	100.896	0.001973	51128	5.639822	171.49	445.252	1.175968	0.099599	0.099323	450.546	51128	0.092990	0.269984	1668.79	89900.7
423	2.000000	1.186522	7.3692e+06	-55939.1	1005.82	-29740.5	0.000000	0.000000	7.207252	498.952	NaN	0.000000	0.001606	0.001669	28.0796	110.365	0.001773	62245.8	3.933535	171.404	507.467	1.186417	0.109877	0.109772	498.952	62245.8	0.103866	0.328552	1518.64	99215.9