File: remote_trans/data/nanoindenter/0828-1/data/Data_2025-08-06,11h17m57s/2025-07-22_16-23-58_1_331.txt
2025-07-22, 16:23:58, 1
Index	Phase	Displacement	Time	Pos X	Pos Y	Pos Z	Rot A	Rot B	Piezo Z	Force A	Force B	Gripper	Voltage A	Voltage B	Temperature	Amplitude force	Amplitude pos	Stiffness	Phase shift	Phase excitation	Force A raw	Displacement raw	HMax	HMax raw	Real Force	Real Stiffness	Contact Depth	Area	Hardness	Reduced Mod.
[#]	[#]	[um]	[s]	[um]	[um]	[um]	[m°]	[m°]	[um]	[uN]	[uN]	[V]	[V]	[V]	[°C]	[uN]	[um]	[N/m]	[°]	[°]	[uN]	[um]	[um]	[um]	[uN]	[N/m]	[um]	[um^2]	[MPa]	[MPa]
331	1.000000	0.002282	7.3683e+06	-55189.1	955.818	-29742.3	0.000000	0.000000	6.002776	0.004284	NaN	0.000000	0.001615	0.001738	28.0788	0.056370	0.000965	58.3953	-81.6426	-165.174	-0.005222	0.001084	-1.130534	-1.131733	0.004284	58.3953	-1.130589	-1.289812E+15	-3.321649E-18	NaN
331	1.000000	0.044258	7.3683e+06	-55189.1	955.818	-29742.3	0.000000	0.000000	6.044750	-0.016964	NaN	0.000000	0.001595	0.001722	28.0789	0.067436	0.002044	32.9882	92.6846	15.2478	0.011712	0.042861	-1.088559	-1.089956	-0.016964	32.9882	-1.088173	-3.477579E+14	4.878035E-17	NaN
331	1.000000	0.086268	7.3683e+06	-55189.1	955.818	-29742.3	0.000000	0.000000	6.086761	0.010664	NaN	0.000000	0.001643	0.001718	28.0787	0.064820	0.002059	31.4875	125.927	-164.203	-0.029029	0.084925	-1.046549	-1.047891	0.010664	31.4875	-1.046803	-9.670128E+13	-1.102806E-16	NaN
331	1.000000	0.128295	7.3683e+06	-55189.1	955.818	-29742.3	0.000000	0.000000	6.128786	-0.049413	NaN	0.000000	0.001684	0.001751	28.08	0.044639	0.002161	20.6533	-55.3654	16.5157	-0.053777	0.126931	-1.004521	-1.005885	-0.049413	20.6533	-1.002727	-2.468767E+13	2.001508E-15	NaN
331	1.000000	0.170307	7.3683e+06	-55189.1	955.819	-29742.3	0.000000	0.000000	6.170801	0.022554	NaN	0.000000	0.001626	0.001736	28.0803	0.032544	0.002027	16.0534	28.4369	-165.612	0.068729	0.169012	-0.962509	-0.963805	0.022554	16.0534	-0.963563	-7.326628E+12	-3.078343E-15	NaN
331	1.000000	0.212336	7.3683e+06	-55189.1	955.819	-29742.3	0.000000	0.000000	6.212829	-0.005005	NaN	0.000000	0.001648	0.001751	28.0803	0.079197	0.002002	39.5503	43.9063	13.0655	0.006045	0.211005	-0.920481	-0.921812	-0.005005	39.5503	-0.920386	-1.916089E+12	2.612337E-15	NaN
331	1.000000	0.254332	7.3683e+06	-55189.1	955.819	-29742.3	0.000000	0.000000	6.254823	-0.050620	NaN	0.000000	0.001679	0.001731	28.0803	0.040348	0.002019	19.9819	69.7414	-168.647	-0.022173	0.253065	-0.878485	-0.879751	-0.050620	19.9819	-0.876585	-4.903678E+11	1.032279E-13	NaN
331	1.000000	0.296351	7.3683e+06	-55189.1	955.818	-29742.3	0.000000	0.000000	6.296846	0.050081	NaN	0.000000	0.001662	0.001768	28.0793	0.092529	0.001849	50.0487	-89.1355	13.3867	-0.040177	0.294991	-0.836466	-0.837825	0.050081	50.0487	-0.837216	-1.437409E+11	-3.484092E-13	NaN
331	1.000000	0.338352	7.3683e+06	-55189.1	955.819	-29742.3	0.000000	0.000000	6.338844	-0.044341	NaN	0.000000	0.001613	0.001736	28.0793	0.055402	0.002087	26.5421	19.9747	-164.473	0.025388	0.337046	-0.794464	-0.795770	-0.044341	26.5421	-0.793211	-3.636570E+10	1.219312E-12	NaN
331	1.000000	0.380399	7.3683e+06	-55189.1	955.819	-29742.3	0.000000	0.000000	6.380895	0.061155	NaN	0.000000	0.001576	0.001710	28.0791	0.135587	0.002070	65.5089	-123.055	19.4855	0.015957	0.379038	-0.752417	-0.753778	0.061155	65.5089	-0.753117	-1.036689E+10	-5.899035E-12	NaN
331	1.000000	0.422412	7.3683e+06	-55189.1	955.819	-29742.3	0.000000	0.000000	6.422905	-0.013500	NaN	0.000000	0.001613	0.001742	28.08	0.037620	0.001862	20.2074	-144.394	-164.91	-0.011707	0.421098	-0.710404	-0.711719	-0.013500	20.2074	-0.709903	-2.671343E+9	5.053587E-12	NaN
331	1.000000	0.464474	7.3683e+06	-55189.1	955.818	-29742.3	0.000000	0.000000	6.464965	-0.053197	NaN	0.000000	0.001569	0.001693	28.08	0.055348	0.001851	29.8965	96.4507	16.1674	-0.098716	0.463088	-0.668343	-0.669728	-0.053197	29.8965	-0.667008	-6.925332E+8	7.681512E-11	NaN
331	1.000000	0.506429	7.3683e+06	-55189.1	955.818	-29742.3	0.000000	0.000000	6.506920	-0.056338	NaN	0.000000	0.001610	0.001667	28.0801	0.117837	0.002005	58.7713	149.326	-166.474	-0.099883	0.505148	-0.626387	-0.627668	-0.056338	58.7713	-0.625669	-1.877278E+8	3.001056E-10	NaN
331	1.000000	0.548458	7.3683e+06	-55189.1	955.818	-29742.3	0.000000	0.000000	6.548951	0.006877	NaN	0.000000	0.001541	0.001739	28.0791	0.117219	0.001990	58.8922	143.558	15.8619	-0.009277	0.547115	-0.584359	-0.585701	0.006877	58.8922	-0.584447	-5.082532E+7	-1.353019E-10	NaN
331	1.000000	0.590477	7.3683e+06	-55189.1	955.819	-29742.3	0.000000	0.000000	6.590971	0.023449	NaN	0.000000	0.001580	0.001689	28.079	0.122541	0.001969	62.2341	43.4863	-164.214	0.071564	0.589209	-0.542340	-0.543608	0.023449	62.2341	-0.542622	-1.341905E+7	-1.747431E-9	NaN
331	1.000000	0.632487	7.3683e+06	-55189.1	955.82	-29742.3	0.000000	0.000000	6.632980	0.009802	NaN	0.000000	0.001618	0.001681	28.0788	0.029882	0.002046	14.6082	93.5636	16.5007	-0.020077	0.631125	-0.500330	-0.501692	0.009802	14.6082	-0.500833	-3.52076e+06	-2.783969E-9	NaN
331	1.000000	0.674505	7.3683e+06	-55189.1	955.818	-29742.3	0.000000	0.000000	6.674997	-0.041939	NaN	0.000000	0.001609	0.001721	28.0803	0.035793	0.002090	17.1285	135.069	-162.808	-0.033857	0.673219	-0.458311	-0.459597	-0.041939	17.1285	-0.456475	-842293	4.979167E-8	NaN
331	1.000000	0.716514	7.3683e+06	-55189.1	955.818	-29742.3	0.000000	0.000000	6.717008	0.015385	NaN	0.000000	0.001577	0.001701	28.0803	0.085329	0.002063	41.3642	-48.4508	14.7098	0.014296	0.715190	-0.416302	-0.417626	0.015385	41.3642	-0.416581	-230095	-6.686371E-8	NaN
331	1.000000	0.758541	7.36831e+06	-55189.1	955.818	-29742.3	0.000000	0.000000	6.759033	-0.027418	NaN	0.000000	0.001575	0.001694	28.0806	0.136457	0.001982	68.8626	-140.094	-167.241	-0.001840	0.757240	-0.374275	-0.375576	-0.027418	68.8626	-0.373977	-56670.4	4.838129E-7	NaN
331	1.000000	0.800571	7.36831e+06	-55189.1	955.82	-29742.3	0.000000	0.000000	6.801060	-0.087661	NaN	0.000000	0.001576	0.001757	28.0803	0.017507	0.002026	8.639736	9.762535	15.7886	-0.031496	0.799146	-0.332246	-0.333670	-0.087661	8.639736	-0.324636	-10884.1	8.054000E-6	NaN
331	1.000000	0.842621	7.36831e+06	-55189.1	955.818	-29742.3	0.000000	0.000000	6.843112	-0.042027	NaN	0.000000	0.001519	0.001718	28.079	0.066000	0.001991	33.1478	-21.7042	-167.168	0.037606	0.841292	-0.290196	-0.291524	-0.042027	33.1478	-0.289245	-3250.75	1.292831E-5	NaN
331	1.000000	0.884592	7.36831e+06	-55189.1	955.818	-29742.3	0.000000	0.000000	6.885083	-0.053496	NaN	0.000000	0.001547	0.001675	28.0789	0.054844	0.001854	29.577	-32.1302	16.3551	-0.084825	0.883237	-0.248225	-0.249579	-0.053496	29.577	-0.246868	-735.291	7.275421E-5	NaN
331	1.000000	0.926615	7.36831e+06	-55189.1	955.818	-29742.3	0.000000	0.000000	6.927106	-0.060319	NaN	0.000000	0.001537	0.001725	28.0786	0.038726	0.001962	19.7345	1.677628	-165.672	-0.051342	0.925293	-0.206201	-0.207524	-0.060319	19.7345	-0.203909	-152.668	0.000395	NaN
331	1.000000	0.968650	7.36831e+06	-55189.1	955.817	-29742.3	0.000000	0.000000	6.969142	-0.029302	NaN	0.000000	0.001576	0.001707	28.0799	0.034414	0.001924	17.8874	31.1684	17.7302	0.053634	0.967262	-0.164167	-0.165554	-0.029302	17.8874	-0.162938	-30.9037	0.000948	NaN
331	1.000000	1.010657	7.36831e+06	-55189.1	955.816	-29742.3	0.000000	0.000000	7.011149	-0.009211	NaN	0.000000	0.001554	0.001683	28.0802	0.022054	0.001953	11.2912	120.933	-167.039	-0.030253	1.009378	-0.122160	-0.123438	-0.009211	11.2912	-0.121548	-5.190747	0.001775	NaN
331	1.000000	1.052679	7.36831e+06	-55189.1	955.817	-29742.3	0.000000	0.000000	7.053169	-0.068146	NaN	0.000000	0.001554	0.001703	28.0799	0.169295	0.002016	83.9758	111.665	12.4716	-0.046743	1.051324	-0.080138	-0.081493	-0.068146	83.9758	-0.079529	-0.602417	0.113122	NaN
331	1.000000	1.094670	7.36831e+06	-55189.1	955.815	-29742.3	0.000000	0.000000	7.095161	-0.049481	NaN	0.000000	0.001572	0.001761	28.0786	0.087344	0.001903	45.8903	-94.8999	-168.181	-0.075711	1.093372	-0.038146	-0.039444	-0.049481	45.8903	-0.037338	-0.037581	1.316630	NaN
331	1.000000	1.136663	7.36831e+06	-55189.1	955.817	-29742.3	0.000000	0.000000	7.137289	3.236019	NaN	0.000000	0.001563	0.001714	28.0787	4.068419	0.001873	2171.78	9.180487	14.8807	1.726803	1.135325	0.003846	0.002508	3.236019	2171.78	0.002729	0.002153	1503.04	42763
331	2.000000	1.150302	7.36831e+06	-55189.1	955.817	-29742.3	0.000000	0.000000	7.151609	19.7943	NaN	0.000000	0.001522	0.001699	28.0788	17.7254	0.001684	10524.1	9.459018	-179.516	21.4833	1.149949	0.017485	0.017132	19.7943	10524.1	0.016074	0.016745	1182.11	74304.8
331	2.000000	1.160725	7.36831e+06	-55189.1	955.815	-29742.3	0.000000	0.000000	7.162880	40.3976	NaN	0.000000	0.001572	0.001683	28.0801	28.1067	0.001767	15902.1	6.180193	-0.309130	40.1343	1.160411	0.027909	0.027595	40.3976	15902.1	0.026004	0.032867	1229.13	80139.9
331	2.000000	1.171219	7.36831e+06	-55189.1	955.817	-29742.3	0.000000	0.000000	7.174763	74.1671	NaN	0.000000	0.001558	0.001693	28.0803	38.2735	0.001745	21932.2	10.0416	173.186	76.1246	1.170854	0.038403	0.038038	74.1671	21932.2	0.035866	0.053783	1379.01	86404
331	2.000000	1.181614	7.36831e+06	-55189.1	955.816	-29742.3	0.000000	0.000000	7.186825	114.702	NaN	0.000000	0.001638	0.001729	28.0799	46.9848	0.001723	27270.5	1.261329	-0.205798	110.339	1.181333	0.048797	0.048517	114.702	27270.5	0.045643	0.079422	1444.2	88408.9
331	2.000000	1.192218	7.36831e+06	-55189.1	955.817	-29742.3	0.000000	0.000000	7.199326	160.796	NaN	0.000000	0.001681	0.001702	28.0803	59.012	0.001842	32033.3	5.934707	174.378	161.346	1.191692	0.059401	0.058875	160.796	32033.3	0.055637	0.110629	1453.48	87991.6
331	2.000000	1.202663	7.36831e+06	-55189.1	955.816	-29742.3	0.000000	0.000000	7.211771	209.409	NaN	0.000000	0.001548	0.001713	28.0791	69.0486	0.001874	36848.4	-0.063016	-0.856209	208.628	1.202433	0.069847	0.069617	209.409	36848.4	0.065584	0.146591	1428.53	87930.2
331	2.000000	1.213125	7.36831e+06	-55189.1	955.817	-29742.3	0.000000	0.000000	7.224625	267.575	NaN	0.000000	0.001561	0.001674	28.0793	79.5691	0.001859	42801.5	3.757221	173.567	265.908	1.212829	0.080308	0.080012	267.575	42801.5	0.075619	0.187696	1425.58	90262.1
331	2.000000	1.223627	7.36831e+06	-55189.1	955.818	-29742.3	0.000000	0.000000	7.238294	344.558	NaN	0.000000	0.001600	0.001701	28.0795	88.6465	0.001709	51877.3	7.063087	-10.3412	343.072	1.223297	0.090811	0.090481	344.558	51877.3	0.085829	0.234373	1470.13	97903.2
331	2.000000	1.234075	7.36831e+06	-55189.1	955.817	-29742.3	0.000000	0.000000	7.251743	417.509	NaN	0.000000	0.001593	0.001700	28.0805	98.2688	0.001802	54542.8	3.477779	172.466	416.186	1.233789	0.101258	0.100972	417.509	54542.8	0.095517	0.283114	1474.7	93654.8
331	2.000000	1.239010	7.36831e+06	-55189.1	955.817	-29742.3	0.000000	0.000000	7.258395	459.245	NaN	0.000000	0.001597	0.001686	28.0803	102.829	0.001751	58715.2	3.599329	171.968	453.851	1.238712	0.106193	0.105896	459.245	58715.2	0.100327	0.308906	1486.68	96518.4