File: remote_trans/data/nanoindenter/0828-1/data/Data_2025-08-06,11h17m57s/2025-07-22_16-23-58_1_325.txt
2025-07-22, 16:23:58, 1
Index	Phase	Displacement	Time	Pos X	Pos Y	Pos Z	Rot A	Rot B	Piezo Z	Force A	Force B	Gripper	Voltage A	Voltage B	Temperature	Amplitude force	Amplitude pos	Stiffness	Phase shift	Phase excitation	Force A raw	Displacement raw	HMax	HMax raw	Real Force	Real Stiffness	Contact Depth	Area	Hardness	Reduced Mod.
[#]	[#]	[um]	[s]	[um]	[um]	[um]	[m°]	[m°]	[um]	[uN]	[uN]	[V]	[V]	[V]	[°C]	[uN]	[um]	[N/m]	[°]	[°]	[uN]	[um]	[um]	[um]	[uN]	[N/m]	[um]	[um^2]	[MPa]	[MPa]
325	1.000000	0.002341	7.36824e+06	-54889.1	955.817	-29743	0.000000	0.000000	6.002800	-0.018571	NaN	0.000000	0.001688	0.001629	28.0794	0.191410	0.001012	189.223	150.67	-163.815	-0.017986	0.001105	-1.084985	-1.086221	-0.018571	189.223	-1.084911	-3.143956E+14	5.906761E-17	NaN
325	1.000000	0.042274	7.36824e+06	-54889.1	955.817	-29743	0.000000	0.000000	6.042732	-0.035724	NaN	0.000000	0.001679	0.001651	28.078	0.046131	0.002005	23.0072	35.6145	-164.391	0.062806	0.041009	-1.045051	-1.046316	-0.035724	23.0072	-1.043887	-8.835497E+13	4.043219E-16	NaN
325	1.000000	0.082325	7.36824e+06	-54889.1	955.818	-29743	0.000000	0.000000	6.082783	-0.037790	NaN	0.000000	0.001655	0.001617	28.078	0.009264	0.001963	4.719293	172.974	-164.527	-0.040604	0.080985	-1.005001	-1.006341	-0.037790	4.719293	-0.998995	-2.199071E+13	1.718466E-15	NaN
325	1.000000	0.122334	7.36824e+06	-54889.1	955.818	-29743	0.000000	0.000000	6.122793	-0.021230	NaN	0.000000	0.001592	0.001706	28.0787	0.053115	0.001923	27.6279	10.5691	-163.941	-0.034831	0.121017	-0.964992	-0.966308	-0.021230	27.6279	-0.964415	-7.523016E+12	2.822037E-15	NaN
325	1.000000	0.162331	7.36824e+06	-54889.1	955.818	-29743	0.000000	0.000000	6.162790	0.003172	NaN	0.000000	0.001556	0.001714	28.0792	0.063571	0.002001	31.7668	162.017	-160.948	-0.060797	0.160980	-0.924995	-0.926346	0.003172	31.7668	-0.925070	-2.216417E+12	-1.431045E-15	NaN
325	1.000000	0.202346	7.36824e+06	-54889.1	955.818	-29743	0.000000	0.000000	6.202807	0.020656	NaN	0.000000	0.001622	0.001662	28.0789	0.087951	0.001992	44.1527	-157.499	-165.011	-0.062781	0.201016	-0.884979	-0.886310	0.020656	44.1527	-0.885330	-6.438429E+11	-3.208256E-14	NaN
325	1.000000	0.242403	7.36825e+06	-54889.1	955.819	-29743	0.000000	0.000000	6.242861	-0.034527	NaN	0.000000	0.001606	0.001689	28.0789	0.068343	0.001992	34.312	53.2968	-163.576	0.004260	0.241078	-0.844923	-0.846248	-0.034527	34.312	-0.844168	-1.785493E+11	1.933776E-13	NaN
325	1.000000	0.282391	7.36825e+06	-54889.1	955.818	-29743	0.000000	0.000000	6.282853	0.036441	NaN	0.000000	0.001585	0.001669	28.0788	0.056750	0.001973	28.7569	-38.6637	-162.431	0.052080	0.281139	-0.804934	-0.806186	0.036441	28.7569	-0.805884	-5.404166E+10	-6.743139E-13	NaN
325	1.000000	0.322412	7.36825e+06	-54889.1	955.818	-29743	0.000000	0.000000	6.322868	-0.088432	NaN	0.000000	0.001599	0.001703	28.0778	0.058894	0.002166	27.196	113.92	-164.74	-0.064210	0.321107	-0.764914	-0.766218	-0.088432	27.196	-0.762475	-1.389856E+10	6.362647E-12	NaN
325	1.000000	0.362391	7.36825e+06	-54889.1	955.818	-29743	0.000000	0.000000	6.362852	0.037609	NaN	0.000000	0.001603	0.001675	28.0776	0.149966	0.001955	76.6981	88.4665	-164.984	0.023369	0.361093	-0.724935	-0.726233	0.037609	76.6981	-0.725302	-4.332852E+9	-8.679999E-12	NaN
325	1.000000	0.402429	7.36825e+06	-54889.1	955.818	-29743	0.000000	0.000000	6.402888	-0.022109	NaN	0.000000	0.001623	0.001666	28.0776	0.010396	0.002009	5.173578	-136.961	-166.191	-0.057447	0.401133	-0.684896	-0.686193	-0.022109	5.173578	-0.681691	-1.099856E+9	2.010172E-11	NaN
325	1.000000	0.442460	7.36825e+06	-54889.1	955.818	-29743	0.000000	0.000000	6.442917	-0.057841	NaN	0.000000	0.001600	0.001664	28.0788	0.074363	0.001972	37.7128	-57.5468	-162.719	-0.012097	0.441165	-0.644866	-0.646160	-0.057841	37.7128	-0.643715	-3.320907E+8	1.741721E-10	NaN
325	1.000000	0.482463	7.36825e+06	-54889.1	955.817	-29743	0.000000	0.000000	6.482921	-0.028053	NaN	0.000000	0.001603	0.001664	28.0789	0.068431	0.002032	33.6707	-125.955	-163.951	0.066986	0.481105	-0.604863	-0.606221	-0.028053	33.6707	-0.604238	-9.523826E+7	2.945604E-10	NaN
325	1.000000	0.522482	7.36825e+06	-54889.1	955.817	-29743	0.000000	0.000000	6.522936	-0.130764	NaN	0.000000	0.001590	0.001646	28.079	0.061199	0.001795	34.0848	153.526	-168.778	-0.139837	0.521171	-0.564844	-0.566155	-0.130764	34.0848	-0.561966	-2.486430E+7	5.259105E-9	NaN
325	1.000000	0.562509	7.36825e+06	-54889.1	955.818	-29743	0.000000	0.000000	6.562970	0.037423	NaN	0.000000	0.001596	0.001681	28.0787	0.091956	0.002060	44.6341	-147.464	-164.798	0.077439	0.561256	-0.524817	-0.526069	0.037423	44.6341	-0.525446	-7.75007e+06	-4.828757E-9	NaN
325	1.000000	0.602513	7.36825e+06	-54889.1	955.818	-29743	0.000000	0.000000	6.602971	-0.039117	NaN	0.000000	0.001630	0.001665	28.0776	0.016570	0.002119	7.819570	59.6361	-165.568	0.039396	0.601226	-0.484812	-0.486100	-0.039117	7.819570	-0.481060	-1.86368e+06	2.098924E-8	NaN
325	1.000000	0.642527	7.36825e+06	-54889.1	955.818	-29743	0.000000	0.000000	6.642984	-0.057123	NaN	0.000000	0.001590	0.001655	28.0776	0.089426	0.001976	45.2564	-10.8067	-163.283	-0.058103	0.641202	-0.444799	-0.446124	-0.057123	45.2564	-0.443852	-559384	1.021174E-7	NaN
325	1.000000	0.682566	7.36825e+06	-54889.1	955.817	-29743	0.000000	0.000000	6.683023	-0.082413	NaN	0.000000	0.001610	0.001628	28.0779	0.058413	0.002060	28.357	167.145	-166.211	-0.021691	0.681297	-0.404759	-0.406028	-0.082413	28.357	-0.402579	-145467	5.665384E-7	NaN
325	1.000000	0.722606	7.36825e+06	-54889.1	955.818	-29743	0.000000	0.000000	6.723065	-0.026251	NaN	0.000000	0.001581	0.001596	28.0791	0.138292	0.001923	71.93	16.0199	-164.808	-0.011967	0.721295	-0.364719	-0.366031	-0.026251	71.93	-0.364446	-41310.2	6.354695E-7	NaN
325	1.000000	0.762576	7.36825e+06	-54889.1	955.817	-29743	0.000000	0.000000	6.763037	0.022428	NaN	0.000000	0.001558	0.001667	28.079	0.080314	0.002009	39.9672	113.121	-167.252	0.008087	0.761309	-0.324749	-0.326017	0.022428	39.9672	-0.325170	-11082.4	-2.023778E-6	NaN
325	1.000000	0.802593	7.36825e+06	-54889.1	955.818	-29743	0.000000	0.000000	6.803049	-0.078931	NaN	0.000000	0.001588	0.001629	28.079	0.036465	0.002036	17.9085	-66.26	-164.278	-0.017330	0.801343	-0.284733	-0.285983	-0.078931	17.9085	-0.281427	-2480.24	3.182397E-5	NaN
325	1.000000	0.842639	7.36825e+06	-54889.1	955.817	-29743	0.000000	0.000000	6.843097	-0.047764	NaN	0.000000	0.001646	0.001643	28.0777	0.108381	0.002033	53.2994	78.9114	-164.542	-0.045044	0.841313	-0.244686	-0.246013	-0.047764	53.2994	-0.244014	-663.935	7.194058E-5	NaN
325	1.000000	0.882656	7.36825e+06	-54889.1	955.817	-29743	0.000000	0.000000	6.883115	-0.015702	NaN	0.000000	0.001660	0.001635	28.0777	0.133542	0.002082	64.1289	-142.55	-165.294	-0.099824	0.881368	-0.204670	-0.205958	-0.015702	64.1289	-0.204486	-156.018	0.000101	NaN
325	1.000000	0.922660	7.36825e+06	-54889.1	955.818	-29743	0.000000	0.000000	6.923118	-0.044141	NaN	0.000000	0.001632	0.001666	28.0777	0.136457	0.002018	67.6295	-147.3	-165.965	-0.032784	0.921394	-0.164666	-0.165932	-0.044141	67.6295	-0.164176	-32.4955	0.001358	NaN
325	1.000000	0.962703	7.36825e+06	-54889.1	955.818	-29743	0.000000	0.000000	6.963161	-0.041868	NaN	0.000000	0.001642	0.001662	28.078	0.050995	0.001983	25.7146	-88.7023	-165.766	0.008912	0.961385	-0.124623	-0.125940	-0.041868	25.7146	-0.123401	-5.652801	0.007407	NaN
325	1.000000	1.002700	7.36825e+06	-54889.1	955.817	-29743	0.000000	0.000000	7.003157	-0.057713	NaN	0.000000	0.001630	0.001640	28.0792	0.055899	0.002042	27.3787	-50.8887	-161.926	-0.064114	1.001395	-0.084626	-0.085931	-0.057713	27.3787	-0.083045	-0.736307	0.078382	NaN
325	1.000000	1.042705	7.36825e+06	-54889.1	955.817	-29743	0.000000	0.000000	7.043164	-0.011551	NaN	0.000000	0.001566	0.001628	28.0789	0.096789	0.001938	49.9386	-86.3498	-161.558	0.056016	1.041384	-0.044620	-0.045942	-0.011551	49.9386	-0.044447	-0.061813	0.186862	NaN
325	1.000000	1.082734	7.36825e+06	-54889.1	955.819	-29743	0.000000	0.000000	7.083191	-0.058858	NaN	0.000000	0.001591	0.001655	28.079	0.028410	0.002006	14.1634	-18.3337	-166.714	-0.108236	1.081419	-0.004591	-0.005907	-0.058858	14.1634	-0.001475	-0.001072	54.9285	NaN
325	2.000000	1.103223	7.36825e+06	-54889.1	955.818	-29743	0.000000	0.000000	7.104401	17.4565	NaN	0.000000	0.001595	0.001643	28.078	15.5127	0.001767	8778.31	4.620249	-172.112	17.3641	1.102942	0.015898	0.015616	17.4565	8778.31	0.014406	0.014502	1203.77	66600.3
325	2.000000	1.113185	7.36825e+06	-54889.1	955.819	-29743	0.000000	0.000000	7.115491	44.8845	NaN	0.000000	0.001607	0.001684	28.0781	26.1001	0.001759	14833.9	2.918455	-175.426	43.5403	1.112875	0.025859	0.025549	44.8845	14833.9	0.023590	0.028500	1574.88	80279.6
325	2.000000	1.123121	7.36825e+06	-54889.1	955.82	-29743	0.000000	0.000000	7.126590	73.1613	NaN	0.000000	0.001531	0.001658	28.0783	35.1072	0.001730	20289.3	1.624080	-177.461	71.4013	1.122922	0.035795	0.035596	73.1613	20289.3	0.033091	0.047394	1543.7	85149.2
325	2.000000	1.133106	7.36825e+06	-54889.1	955.819	-29743	0.000000	0.000000	7.138011	108.057	NaN	0.000000	0.001599	0.001697	28.0784	44.6109	0.001797	24827.9	3.858594	178.388	105.122	1.132781	0.045780	0.045456	108.057	24827.9	0.042516	0.070693	1528.54	85315.2
325	2.000000	1.143080	7.36825e+06	-54889.1	955.819	-29743	0.000000	0.000000	7.149779	151.669	NaN	0.000000	0.001587	0.001697	28.0795	53.7063	0.001918	27996.3	5.604386	176.161	148.784	1.142802	0.055754	0.055476	151.669	27996.3	0.051691	0.097713	1552.2	81827.4
325	2.000000	1.153110	7.36825e+06	-54889.1	955.819	-29743	0.000000	0.000000	7.161470	192.064	NaN	0.000000	0.001578	0.001649	28.0791	61.1994	0.001745	35068.7	2.259001	177.05	189.862	1.152880	0.065784	0.065555	192.064	35068.7	0.061677	0.131889	1456.26	88224.5
325	2.000000	1.163150	7.36825e+06	-54889.1	955.819	-29743	0.000000	0.000000	7.173950	251.371	NaN	0.000000	0.001544	0.001665	28.079	71.6979	0.001822	39353.2	5.487342	173.915	253.687	1.162697	0.075824	0.075372	251.371	39353.2	0.071034	0.168318	1493.43	87637.2
325	2.000000	1.173198	7.36825e+06	-54889.1	955.82	-29743	0.000000	0.000000	7.186381	309.305	NaN	0.000000	0.001566	0.001678	28.078	81.8189	0.001755	46620.3	6.316971	171.488	314.038	1.172852	0.085872	0.085526	309.305	46620.3	0.080896	0.211214	1464.41	92680.1
325	2.000000	1.183143	7.36825e+06	-54889.1	955.82	-29743	0.000000	0.000000	7.198943	372.899	NaN	0.000000	0.001507	0.001659	28.0779	89.9708	0.001715	52470.8	3.953009	172.803	375.153	1.182861	0.095818	0.095536	372.899	52470.8	0.090488	0.257274	1449.43	94513.3
325	2.000000	1.193082	7.36825e+06	-54889.1	955.819	-29743	0.000000	0.000000	7.212323	456.581	NaN	0.000000	0.001625	0.001688	28.0778	100.809	0.001803	55910.1	5.507122	171.297	456.535	1.192713	0.105756	0.105387	456.581	55910.1	0.099631	0.305111	1496.44	92477.2
325	2.000000	1.195140	7.36825e+06	-54889.1	955.82	-29743	0.000000	0.000000	7.214862	468.263	NaN	0.000000	0.001611	0.001687	28.0781	101.233	0.001778	56936.1	5.195220	171.109	471.304	1.194813	0.107815	0.107487	468.263	56936.1	0.101646	0.316164	1481.08	92513.4