File: remote_trans/data/nanoindenter/0828-1/data/Data_2025-08-06,11h17m57s/2025-07-22_16-23-58_1_45.txt
2025-07-22, 16:23:58, 1
Index	Phase	Displacement	Time	Pos X	Pos Y	Pos Z	Rot A	Rot B	Piezo Z	Force A	Force B	Gripper	Voltage A	Voltage B	Temperature	Amplitude force	Amplitude pos	Stiffness	Phase shift	Phase excitation	Force A raw	Displacement raw	HMax	HMax raw	Real Force	Real Stiffness	Contact Depth	Area	Hardness	Reduced Mod.
[#]	[#]	[um]	[s]	[um]	[um]	[um]	[m°]	[m°]	[um]	[uN]	[uN]	[V]	[V]	[V]	[°C]	[uN]	[um]	[N/m]	[°]	[°]	[uN]	[um]	[um]	[um]	[uN]	[N/m]	[um]	[um^2]	[MPa]	[MPa]
45	1.000000	0.002126	7.36548e+06	-40889.1	955.818	-29789	0.000000	0.000000	6.002835	0.090082	NaN	0.000000	0.001611	0.001700	28.083	0.106746	0.000966	110.529	134.013	-163.279	0.022044	0.000824	-0.947451	-0.948753	0.090082	110.529	-0.948063	-4.527925E+12	-1.989476E-14	NaN
45	1.000000	0.038087	7.36548e+06	-40889.1	955.818	-29789	0.000000	0.000000	6.038794	0.046102	NaN	0.000000	0.001686	0.001679	28.1247	0.033810	0.002041	16.5685	59.1847	-165.654	0.103792	0.036777	-0.911490	-0.912800	0.046102	16.5685	-0.913577	-1.550514E+12	-2.973360E-14	NaN
45	1.000000	0.074066	7.36548e+06	-40889.1	955.818	-29789	0.000000	0.000000	6.074774	0.085902	NaN	0.000000	0.001663	0.001666	28.0811	0.042547	0.002015	21.1172	136.672	-165.199	-0.021358	0.072712	-0.875511	-0.876865	0.085902	21.1172	-0.878562	-5.215112E+11	-1.647170E-13	NaN
45	1.000000	0.110060	7.36548e+06	-40889.1	955.818	-29789	0.000000	0.000000	6.110768	0.058829	NaN	0.000000	0.001620	0.001710	28.1241	0.078141	0.001825	42.8184	-9.252781	-166.8	0.049494	0.108759	-0.839517	-0.840818	0.058829	42.8184	-0.840548	-1.594819E+11	-3.688756E-13	NaN
45	1.000000	0.146094	7.36548e+06	-40889.1	955.818	-29789	0.000000	0.000000	6.146801	0.035607	NaN	0.000000	0.001590	0.001716	28.0791	0.096663	0.001805	53.5518	-43.1567	-164.585	0.103564	0.144787	-0.803483	-0.804791	0.035607	53.5518	-0.803982	-5.092228E+10	-6.992381E-13	NaN
45	1.000000	0.182094	7.36548e+06	-40889.1	955.819	-29789	0.000000	0.000000	6.182801	0.057060	NaN	0.000000	0.001582	0.001717	28.124	0.122881	0.001970	62.3726	83.543	-165.687	0.041226	0.180754	-0.767484	-0.768823	0.057060	62.3726	-0.768170	-1.661186E+10	-3.434870E-12	NaN
45	1.000000	0.218117	7.36548e+06	-40889.1	955.817	-29789	0.000000	0.000000	6.218823	0.007513	NaN	0.000000	0.001597	0.001709	28.0796	0.072427	0.002000	36.2123	158.574	-166.783	-0.024723	0.216834	-0.731460	-0.732744	0.007513	36.2123	-0.731616	-5.282330E+9	-1.422210E-12	NaN
45	1.000000	0.254132	7.36548e+06	-40889.1	955.818	-29789	0.000000	0.000000	6.254837	-0.001126	NaN	0.000000	0.001581	0.001698	28.1241	0.053316	0.001986	26.84	123.824	-167.461	0.037118	0.252789	-0.695445	-0.696789	-0.001126	26.84	-0.695414	-1.693895E+9	6.650163E-13	NaN
45	1.000000	0.290164	7.36548e+06	-40889.1	955.818	-29789	0.000000	0.000000	6.290870	0.024026	NaN	0.000000	0.001575	0.001667	28.0799	0.091652	0.001926	47.5753	109.607	-166.53	0.005858	0.288852	-0.659414	-0.660725	0.024026	47.5753	-0.659792	-5.516026E+8	-4.355703E-11	NaN
45	1.000000	0.326151	7.36548e+06	-40889.1	955.818	-29789	0.000000	0.000000	6.326854	-0.053510	NaN	0.000000	0.001592	0.001615	28.1243	0.048554	0.001950	24.8951	-67.5276	-168.38	-0.021609	0.324844	-0.623426	-0.624733	-0.053510	24.8951	-0.621814	-1.661768E+8	3.220054E-10	NaN
45	1.000000	0.362177	7.36548e+06	-40889.1	955.817	-29789	0.000000	0.000000	6.362884	0.052835	NaN	0.000000	0.001580	0.001715	28.0793	0.091572	0.002069	44.2567	148.719	-165.317	0.029359	0.360859	-0.587401	-0.588718	0.052835	44.2567	-0.588296	-5.743439E+7	-9.199276E-10	NaN
45	1.000000	0.398203	7.36548e+06	-40889.1	955.818	-29789	0.000000	0.000000	6.398912	0.106077	NaN	0.000000	0.001579	0.001665	28.1219	0.038880	0.001990	19.5376	53.1873	-163.83	0.119568	0.396875	-0.551375	-0.552702	0.106077	19.5376	-0.555447	-2.020094E+7	-5.251088E-9	NaN
45	1.000000	0.434192	7.36548e+06	-40889.1	955.818	-29789	0.000000	0.000000	6.434899	0.038040	NaN	0.000000	0.001597	0.001706	28.0808	0.114566	0.001802	63.5928	93.8169	-167.993	0.020089	0.432928	-0.515385	-0.516649	0.038040	63.5928	-0.515834	-5.69684e+06	-6.677443E-9	NaN
45	1.000000	0.470235	7.36549e+06	-40889.1	955.817	-29789	0.000000	0.000000	6.470939	-0.027894	NaN	0.000000	0.001552	0.001719	28.1205	0.087438	0.002090	41.8461	169.061	-162.381	-0.041903	0.468933	-0.479343	-0.480644	-0.027894	41.8461	-0.478843	-1.7351e+06	1.607627E-8	NaN
45	1.000000	0.506243	7.36549e+06	-40889.1	955.818	-29789	0.000000	0.000000	6.506950	0.031379	NaN	0.000000	0.001562	0.001667	28.0819	0.063051	0.001916	32.9122	141.093	-165.469	0.079552	0.504924	-0.443334	-0.444653	0.031379	32.9122	-0.444049	-562967	-5.573897E-8	NaN
45	1.000000	0.542269	7.36549e+06	-40889.1	955.818	-29789	0.000000	0.000000	6.542977	0.075533	NaN	0.000000	0.001561	0.001643	28.1215	0.063430	0.001932	32.8235	76.1544	-169.191	0.076231	0.540936	-0.407308	-0.408642	0.075533	32.8235	-0.409034	-179748	-4.202143E-7	NaN
45	1.000000	0.578268	7.36549e+06	-40889.1	955.819	-29789	0.000000	0.000000	6.578970	-0.065650	NaN	0.000000	0.001608	0.001659	28.0809	0.017114	0.002001	8.552843	117.947	-165.75	-0.007981	0.576990	-0.371309	-0.372588	-0.065650	8.552843	-0.365553	-42857.3	1.531830E-6	NaN
45	1.000000	0.614289	7.36549e+06	-40889.1	955.817	-29789	0.000000	0.000000	6.614997	0.079740	NaN	0.000000	0.001617	0.001669	28.1213	0.097540	0.002020	48.2833	-86.0235	-165.097	0.066443	0.612966	-0.335289	-0.336611	0.079740	48.2833	-0.336527	-16251.4	-4.906670E-6	NaN
45	1.000000	0.650301	7.36549e+06	-40889.1	955.817	-29789	0.000000	0.000000	6.651009	0.073394	NaN	0.000000	0.001618	0.001769	28.0804	0.034779	0.002026	17.1656	130.117	-166.837	0.107109	0.648998	-0.299277	-0.300580	0.073394	17.1656	-0.302483	-5123.59	-1.432465E-5	NaN
45	1.000000	0.686299	7.36549e+06	-40889.1	955.817	-29789	0.000000	0.000000	6.687006	0.063055	NaN	0.000000	0.001577	0.001711	28.1198	0.093460	0.001983	47.1399	-20.7064	-165.896	0.008157	0.685055	-0.263279	-0.264522	0.063055	47.1399	-0.264282	-1362.78	-4.626934E-5	NaN
45	1.000000	0.722333	7.36549e+06	-40889.1	955.819	-29789	0.000000	0.000000	6.723038	-0.003334	NaN	0.000000	0.001628	0.001728	28.0805	0.051472	0.002059	24.9939	-5.937468	-168.391	0.008158	0.721003	-0.227244	-0.228574	-0.003334	24.9939	-0.227144	-360.868	9.238007E-6	NaN
45	1.000000	0.758338	7.36549e+06	-40889.1	955.818	-29789	0.000000	0.000000	6.759043	-0.000783	NaN	0.000000	0.001601	0.001672	28.12	0.087162	0.001988	43.8414	95.7018	-167.6	0.017364	0.757055	-0.191239	-0.192522	-0.000783	43.8414	-0.191226	-94.2931	8.304251E-6	NaN
45	1.000000	0.794350	7.36549e+06	-40889.1	955.818	-29789	0.000000	0.000000	6.795056	0.029282	NaN	0.000000	0.001622	0.001729	28.082	0.013647	0.002076	6.573681	-53.622	-165.738	0.006654	0.793069	-0.155227	-0.156508	0.029282	6.573681	-0.158568	-25.8521	-0.001133	NaN
45	1.000000	0.830376	7.36549e+06	-40889.1	955.819	-29789	0.000000	0.000000	6.831084	0.063148	NaN	0.000000	0.001604	0.001718	28.1215	0.026693	0.001824	14.6344	135.546	-166.689	0.061595	0.829065	-0.119201	-0.120512	0.063148	14.6344	-0.122438	-5.408023	-0.011677	NaN
45	1.000000	0.866410	7.36549e+06	-40889.1	955.818	-29789	0.000000	0.000000	6.867114	-0.043268	NaN	0.000000	0.001624	0.001675	28.0811	0.019020	0.002094	9.084840	134.574	-165.873	-0.007427	0.865073	-0.083167	-0.084504	-0.043268	9.084840	-0.079595	-0.604700	0.071553	NaN
45	1.000000	0.902369	7.36549e+06	-40889.1	955.818	-29789	0.000000	0.000000	6.903075	0.034085	NaN	0.000000	0.001599	0.001716	28.1213	0.099171	0.002103	47.1621	61.7714	-167.362	0.050209	0.901074	-0.047208	-0.048503	0.034085	47.1621	-0.047750	-0.077975	-0.437131	NaN
45	1.000000	0.938412	7.36549e+06	-40889.1	955.819	-29789	0.000000	0.000000	6.939117	0.007512	NaN	0.000000	0.001588	0.001690	28.0803	0.062276	0.001975	31.5249	-163.206	-169.07	0.010452	0.937169	-0.011165	-0.012409	0.007512	31.5249	-0.011344	-0.007154	-1.050011	NaN
45	2.000000	0.967014	7.36549e+06	-40889.1	955.818	-29789	0.000000	0.000000	6.968257	13.0939	NaN	0.000000	0.001588	0.001719	28.1197	12.8048	0.001737	7371.94	7.409321	-173.688	12.7789	0.966821	0.017437	0.017244	13.0939	7371.94	0.016105	0.016787	780.003	51983.9
45	2.000000	0.975963	7.36549e+06	-40889.1	955.819	-29789	0.000000	0.000000	6.978262	38.7788	NaN	0.000000	0.001635	0.001666	28.0803	21.925	0.001743	12577.5	4.724960	-177.757	39.2583	0.975691	0.026386	0.026114	38.7788	12577.5	0.024074	0.029352	1321.15	67072.9
45	2.000000	0.984943	7.36549e+06	-40889.1	955.818	-29789	0.000000	0.000000	6.988147	60.8048	NaN	0.000000	0.001651	0.001675	28.1202	29.5668	0.001744	16954	6.702058	178.825	61.811	0.984565	0.035366	0.034987	60.8048	16954	0.032676	0.046474	1308.37	71852.6
45	2.000000	0.993863	7.36549e+06	-40889.1	955.819	-29789	0.000000	0.000000	6.997830	79.3694	NaN	0.000000	0.001546	0.001734	28.0806	39.12	0.001834	21332.4	4.738266	177.143	77.6846	0.993655	0.044286	0.044077	79.3694	21332.4	0.041495	0.067949	1168.06	74768.6
45	2.000000	1.002897	7.36549e+06	-40889.1	955.818	-29789	0.000000	0.000000	7.008134	110.285	NaN	0.000000	0.001578	0.001734	28.1199	47.0946	0.001820	25883.2	4.957811	175.69	110.733	1.002565	0.053320	0.052988	110.285	25883.2	0.050124	0.092796	1188.46	77629.2
45	2.000000	1.011861	7.36549e+06	-40889.1	955.819	-29789	0.000000	0.000000	7.018836	152.563	NaN	0.000000	0.001617	0.001668	28.0823	54.7587	0.001823	30035.8	5.127700	174.825	151.979	1.011598	0.062284	0.062021	152.563	30035.8	0.058474	0.120393	1267.21	79088.1
45	2.000000	1.020798	7.36549e+06	-40889.1	955.82	-29789	0.000000	0.000000	7.029866	203.498	NaN	0.000000	0.001559	0.001725	28.1176	64.1475	0.001690	37961.3	2.422378	173.071	199.678	1.020513	0.071221	0.070935	203.498	37961.3	0.067200	0.152886	1331.04	88701.2
45	2.000000	1.029816	7.36549e+06	-40889.1	955.82	-29789	0.000000	0.000000	7.041225	260.463	NaN	0.000000	0.001595	0.001692	28.0818	72.6635	0.001675	43391	4.369782	171.943	257.017	1.029615	0.080238	0.080038	260.463	43391	0.075736	0.188202	1383.95	91382
45	2.000000	1.038920	7.36549e+06	-40889.1	955.819	-29789	0.000000	0.000000	7.052554	314.601	NaN	0.000000	0.001623	0.001714	28.1181	79.2944	0.001675	47353.8	5.294640	172.269	315.601	1.038409	0.089343	0.088832	314.601	47353.8	0.084360	0.227360	1383.71	90734.2
45	2.000000	1.047758	7.36549e+06	-40889.1	955.819	-29789	0.000000	0.000000	7.063706	370.921	NaN	0.000000	0.001630	0.001692	28.0818	89.7385	0.001781	50393.4	3.145079	172.282	366.044	1.047544	0.098180	0.097967	370.921	50393.4	0.092660	0.268292	1382.53	88888
45	2.000000	1.056815	7.36549e+06	-40889.1	955.819	-29789	0.000000	0.000000	7.075612	440.237	NaN	0.000000	0.001615	0.001684	28.1178	97.7962	0.001906	51300.3	4.754397	170.889	438.704	1.056483	0.107238	0.106906	440.237	51300.3	0.100802	0.311508	1413.24	83976.5
45	2.000000	1.062762	7.36549e+06	-40889.1	955.82	-29789	0.000000	0.000000	7.083374	484.413	NaN	0.000000	0.001589	0.001695	28.1187	101.023	0.001769	57091.5	4.275265	170.414	480.578	1.062431	0.113185	0.112854	484.413	57091.5	0.106821	0.345396	1402.49	88753.6