File: remote_trans/data/nanoindenter/0828-1/data/Data_2025-08-06,11h17m57s/2025-07-22_16-23-58_1_104.txt
2025-07-22, 16:23:58, 1
Index	Phase	Displacement	Time	Pos X	Pos Y	Pos Z	Rot A	Rot B	Piezo Z	Force A	Force B	Gripper	Voltage A	Voltage B	Temperature	Amplitude force	Amplitude pos	Stiffness	Phase shift	Phase excitation	Force A raw	Displacement raw	HMax	HMax raw	Real Force	Real Stiffness	Contact Depth	Area	Hardness	Reduced Mod.
[#]	[#]	[um]	[s]	[um]	[um]	[um]	[m°]	[m°]	[um]	[uN]	[uN]	[V]	[V]	[V]	[°C]	[uN]	[um]	[N/m]	[°]	[°]	[uN]	[um]	[um]	[um]	[uN]	[N/m]	[um]	[um^2]	[MPa]	[MPa]
104	1.000000	0.002442	7.36605e+06	-43839.1	955.818	-29778.2	0.000000	0.000000	6.002809	-0.071995	NaN	0.000000	0.001513	0.001576	28.1275	0.010848	0.001004	10.8098	-81.7338	-164.715	-0.148904	0.001181	-1.132306	-1.133567	-0.071995	10.8098	-1.127311	-1.165594E+15	6.176692E-17	NaN
104	1.000000	0.044385	7.36605e+06	-43839.1	955.818	-29778.2	0.000000	0.000000	6.044757	0.024849	NaN	0.000000	0.001501	0.001574	28.0887	0.087722	0.001937	45.2774	-51.4561	12.61	-0.023507	0.043008	-1.090362	-1.091739	0.024849	45.2774	-1.090774	-3.768783E+14	-6.593284E-17	NaN
104	1.000000	0.086369	7.36605e+06	-43839.1	955.818	-29778.2	0.000000	0.000000	6.086739	0.005470	NaN	0.000000	0.001499	0.001558	28.078	0.035208	0.002096	16.7947	-86.5687	-163.5	-0.011667	0.085041	-1.048379	-1.049706	0.005470	16.7947	-1.048623	-1.023068E+14	-5.346680E-17	NaN
104	1.000000	0.128422	7.36605e+06	-43839.1	955.819	-29778.2	0.000000	0.000000	6.128793	0.018715	NaN	0.000000	0.001483	0.001615	28.1064	0.020630	0.002036	10.1302	-26.9064	13.9418	-0.010999	0.127017	-1.006325	-1.007731	0.018715	10.1302	-1.007711	-2.881180E+13	-6.495759E-16	NaN
104	1.000000	0.170410	7.36605e+06	-43839.1	955.819	-29778.2	0.000000	0.000000	6.170781	-0.007144	NaN	0.000000	0.001478	0.001604	28.1259	0.107725	0.002028	53.1145	28.819	-167.067	0.005119	0.169088	-0.964337	-0.965660	-0.007144	53.1145	-0.964236	-7.481274E+12	9.548741E-16	NaN
104	1.000000	0.212468	7.36605e+06	-43839.1	955.818	-29778.2	0.000000	0.000000	6.212837	-0.030938	NaN	0.000000	0.001504	0.001588	28.088	0.122654	0.002001	61.3103	146.91	11.809	-0.058742	0.211125	-0.922280	-0.923622	-0.030938	61.3103	-0.921901	-2.008507E+12	1.540328E-14	NaN
104	1.000000	0.254476	7.36605e+06	-43839.1	955.818	-29778.2	0.000000	0.000000	6.254845	-0.032166	NaN	0.000000	0.001507	0.001565	28.0797	0.131474	0.001944	67.6206	-95.6666	-166.604	0.010701	0.253174	-0.880271	-0.881573	-0.032166	67.6206	-0.879915	-5.439451E+11	5.913549E-14	NaN
104	1.000000	0.296490	7.36605e+06	-43839.1	955.819	-29778.2	0.000000	0.000000	6.296859	-0.030979	NaN	0.000000	0.001508	0.001599	28.1053	0.066765	0.002113	31.594	87.1509	14.2521	-0.024030	0.295087	-0.838257	-0.839661	-0.030979	31.594	-0.837522	-1.451175E+11	2.134764E-13	NaN
104	1.000000	0.338496	7.36606e+06	-43839.1	955.818	-29778.2	0.000000	0.000000	6.338869	0.066231	NaN	0.000000	0.001529	0.001517	28.1288	0.101698	0.002073	49.0671	-18.7323	-161.359	0.003317	0.337229	-0.796251	-0.797518	0.066231	49.0671	-0.797264	-4.127780E+10	-1.604529E-12	NaN
104	1.000000	0.380515	7.36606e+06	-43839.1	955.818	-29778.2	0.000000	0.000000	6.380883	-0.039299	NaN	0.000000	0.001501	0.001542	28.0878	0.073167	0.001946	37.5949	-160.013	13.218	0.026303	0.379182	-0.754233	-0.755566	-0.039299	37.5949	-0.753449	-1.047520E+10	3.751661E-12	NaN
104	1.000000	0.422531	7.36606e+06	-43839.1	955.818	-29778.2	0.000000	0.000000	6.422901	-0.002519	NaN	0.000000	0.001526	0.001581	28.0797	0.045179	0.001859	24.3067	136.955	-168.493	-0.044372	0.421256	-0.712217	-0.713491	-0.002519	24.3067	-0.712139	-2.865744E+9	8.790826E-13	NaN
104	1.000000	0.464554	7.36606e+06	-43839.1	955.818	-29778.2	0.000000	0.000000	6.464924	-0.009651	NaN	0.000000	0.001536	0.001604	28.1031	0.078587	0.002028	38.7432	-133.707	13.9499	-0.033322	0.463157	-0.670193	-0.671590	-0.009651	38.7432	-0.670007	-7.611699E+8	1.267978E-11	NaN
104	1.000000	0.506557	7.36606e+06	-43839.1	955.818	-29778.2	0.000000	0.000000	6.506929	0.033082	NaN	0.000000	0.001531	0.001580	28.129	0.089785	0.001966	45.6739	153.276	-165.021	-0.024819	0.505241	-0.628190	-0.629506	0.033082	45.6739	-0.628734	-2.068386E+8	-1.599387E-10	NaN
104	1.000000	0.548588	7.36606e+06	-43839.1	955.818	-29778.2	0.000000	0.000000	6.548961	0.049757	NaN	0.000000	0.001600	0.001577	28.0903	0.162713	0.002007	81.0797	16.7777	15.7649	0.033791	0.547245	-0.586159	-0.587503	0.049757	81.0797	-0.586619	-5.445665E+7	-9.137004E-10	NaN
104	1.000000	0.590610	7.36606e+06	-43839.1	955.818	-29778.2	0.000000	0.000000	6.590982	0.025606	NaN	0.000000	0.001622	0.001597	28.0797	0.049352	0.001956	25.2254	-105.696	-161.798	-0.048550	0.589302	-0.544137	-0.545446	0.025606	25.2254	-0.544898	-1.443020E+7	-1.774441E-9	NaN
104	1.000000	0.632592	7.36606e+06	-43839.1	955.819	-29778.2	0.000000	0.000000	6.632962	-0.008216	NaN	0.000000	0.001519	0.001583	28.1021	0.038740	0.001868	20.7362	-178.369	16.3914	0.008188	0.631261	-0.502156	-0.503486	-0.008216	20.7362	-0.501858	-3.63866e+06	2.257955E-9	NaN
104	1.000000	0.674666	7.36606e+06	-43839.1	955.819	-29778.2	0.000000	0.000000	6.675040	0.083715	NaN	0.000000	0.001515	0.001574	28.1282	0.079572	0.002001	39.77	109.278	-167.691	0.139503	0.673331	-0.460081	-0.461417	0.083715	39.77	-0.461660	-996193	-8.403502E-8	NaN
104	1.000000	0.716655	7.36606e+06	-43839.1	955.819	-29778.2	0.000000	0.000000	6.717026	0.023358	NaN	0.000000	0.001545	0.001567	28.0894	0.058708	0.002072	28.3406	-158.996	14.0173	0.026673	0.715289	-0.418093	-0.419458	0.023358	28.3406	-0.418711	-246676	-9.469251E-8	NaN
104	1.000000	0.758697	7.36606e+06	-43839.1	955.818	-29778.2	0.000000	0.000000	6.759069	0.026914	NaN	0.000000	0.001489	0.001547	28.08	0.061096	0.001835	33.2886	-21.0869	-166.738	0.085003	0.757369	-0.376050	-0.377379	0.026914	33.2886	-0.376656	-61926.5	-4.346086E-7	NaN
104	1.000000	0.800696	7.36606e+06	-43839.1	955.819	-29778.2	0.000000	0.000000	6.801067	0.014236	NaN	0.000000	0.001504	0.001561	28.1023	0.054165	0.002100	25.7931	97.4198	14.2578	0.052557	0.799303	-0.334051	-0.335445	0.014236	25.7931	-0.334465	-15162.5	-9.388881E-7	NaN
104	1.000000	0.842740	7.36606e+06	-43839.1	955.818	-29778.2	0.000000	0.000000	6.843114	0.074111	NaN	0.000000	0.001537	0.001635	28.1298	0.053172	0.002136	24.8965	60.0292	-168.166	0.031227	0.841394	-0.292007	-0.293353	0.074111	24.8965	-0.294240	-3861.29	-1.919323E-5	NaN
104	1.000000	0.884725	7.36606e+06	-43839.1	955.819	-29778.2	0.000000	0.000000	6.885095	-0.016657	NaN	0.000000	0.001527	0.001572	28.0906	0.039243	0.002007	19.5553	109.619	16.5986	0.018956	0.883359	-0.250022	-0.251388	-0.016657	19.5553	-0.249383	-804.317	2.070958E-5	NaN
104	1.000000	0.926741	7.36606e+06	-43839.1	955.818	-29778.2	0.000000	0.000000	6.927110	-0.041632	NaN	0.000000	0.001545	0.001607	28.0782	0.085244	0.002075	41.0757	-161.578	-165.339	-0.057585	0.925423	-0.208006	-0.209324	-0.041632	41.0757	-0.207246	-173.035	0.000241	NaN
104	1.000000	0.968751	7.36606e+06	-43839.1	955.819	-29778.2	0.000000	0.000000	6.969122	0.007154	NaN	0.000000	0.001558	0.001599	28.1011	0.123801	0.002104	58.8379	-22.6037	12.4937	-0.039239	0.967366	-0.165996	-0.167381	0.007154	58.8379	-0.166087	-35.1054	-0.000204	NaN
104	1.000000	1.010759	7.36606e+06	-43839.1	955.82	-29778.2	0.000000	0.000000	7.011127	-0.066166	NaN	0.000000	0.001560	0.001594	28.1285	0.114809	0.002094	54.8401	97.8133	-167.17	-0.025626	1.009502	-0.123988	-0.125246	-0.066166	54.8401	-0.123083	-5.570945	0.011877	NaN
104	1.000000	1.052813	7.36606e+06	-43839.1	955.82	-29778.2	0.000000	0.000000	7.053181	-0.053937	NaN	0.000000	0.001553	0.001568	28.0925	0.077765	0.002044	38.048	38.551	17.8975	-0.012150	1.051455	-0.081935	-0.083293	-0.053937	38.048	-0.080872	-0.650756	0.082884	NaN
104	1.000000	1.094814	7.36606e+06	-43839.1	955.819	-29778.2	0.000000	0.000000	7.095187	0.056342	NaN	0.000000	0.001543	0.001575	28.0812	0.079029	0.002070	38.186	-179.431	-164.284	0.032885	1.093534	-0.039933	-0.041213	0.056342	38.186	-0.041040	-0.048639	-1.158370	NaN
104	1.000000	1.136808	7.36606e+06	-43839.1	955.82	-29778.2	0.000000	0.000000	7.137232	1.292960	NaN	0.000000	0.001525	0.001544	28.1025	1.985836	0.002037	974.926	9.413518	10.8821	0.527212	1.135436	0.002061	0.000689	1.292960	974.926	0.001066	0.000814	1589.27	31228.5
104	2.000000	1.152435	7.36606e+06	-43839.1	955.82	-29778.2	0.000000	0.000000	7.153687	21.4482	NaN	0.000000	0.001518	0.001577	28.128	17.7907	0.001856	9587.55	5.250381	-176.012	21.0239	1.152100	0.017687	0.017352	21.4482	9587.55	0.016009	0.016655	1287.79	67874.7
104	2.000000	1.162898	7.36606e+06	-43839.1	955.819	-29778.2	0.000000	0.000000	7.165086	44.2132	NaN	0.000000	0.001554	0.001589	28.0922	27.575	0.001762	15649.4	6.771509	-0.930992	43.6518	1.162536	0.028151	0.027789	44.2132	15649.4	0.026032	0.032919	1343.08	78803.5
104	2.000000	1.173369	7.36606e+06	-43839.1	955.819	-29778.2	0.000000	0.000000	7.176833	75.2591	NaN	0.000000	0.001532	0.001585	28.0784	37.3132	0.001794	20793.9	6.084725	177.611	74.1366	1.173052	0.038622	0.038305	75.2591	20793.9	0.035907	0.053880	1396.8	81845.8
104	2.000000	1.183823	7.36606e+06	-43839.1	955.819	-29778.2	0.000000	0.000000	7.188918	114.959	NaN	0.000000	0.001495	0.001613	28.0997	47.5475	0.001834	25925.8	7.120476	-6.734440	112.973	1.183525	0.049075	0.048777	114.959	25925.8	0.045750	0.079729	1441.86	83887.2
104	2.000000	1.194319	7.36606e+06	-43839.1	955.82	-29778.2	0.000000	0.000000	7.201698	170.516	NaN	0.000000	0.001539	0.001658	28.1295	57.5318	0.001874	30696.1	4.844858	175.547	169.609	1.193961	0.059572	0.059213	170.516	30696.1	0.055405	0.109850	1552.26	84616.8
104	2.000000	1.204728	7.36606e+06	-43839.1	955.82	-29778.2	0.000000	0.000000	7.214483	228.322	NaN	0.000000	0.001530	0.001678	28.0942	67.5634	0.001887	35811.4	4.827228	-6.198543	223.765	1.204470	0.069980	0.069723	228.322	35811.4	0.065198	0.145106	1573.48	85891.6
104	2.000000	1.215287	7.36606e+06	-43839.1	955.82	-29778.2	0.000000	0.000000	7.227604	290.659	NaN	0.000000	0.001559	0.001661	28.0803	74.7844	0.001868	40039.9	1.933029	175.832	289.359	1.214981	0.080539	0.080234	290.659	40039.9	0.075095	0.185428	1567.5	84953
104	2.000000	1.225749	7.36606e+06	-43839.1	955.821	-29778.2	0.000000	0.000000	7.241485	373.827	NaN	0.000000	0.001584	0.001652	28.0998	84.7911	0.001763	48102	5.071897	-8.782326	369.938	1.225372	0.091002	0.090624	373.827	48102	0.085173	0.231228	1616.7	91393.7
104	2.000000	1.236191	7.36606e+06	-43839.1	955.82	-29778.2	0.000000	0.000000	7.255090	450.793	NaN	0.000000	0.001590	0.001645	28.1287	95.4555	0.001734	55040	1.989328	173.363	446.297	1.235888	0.101443	0.101140	450.793	55040	0.095300	0.281977	1598.69	94698.9
104	2.000000	1.242169	7.36606e+06	-43839.1	955.819	-29778.2	0.000000	0.000000	7.263515	510.302	NaN	0.000000	0.001523	0.001654	28.1292	102.72	0.001797	57168	4.145314	171.115	503.996	1.241868	0.107422	0.107120	510.302	57168	0.100727	0.311098	1640.33	93643.5