File: remote_trans/data/nanoindenter/0828-1/data/Data_2025-08-06,11h17m57s/2025-07-22_16-23-58_1_735.txt
2025-07-22, 16:23:58, 1
Index	Phase	Displacement	Time	Pos X	Pos Y	Pos Z	Rot A	Rot B	Piezo Z	Force A	Force B	Gripper	Voltage A	Voltage B	Temperature	Amplitude force	Amplitude pos	Stiffness	Phase shift	Phase excitation	Force A raw	Displacement raw	HMax	HMax raw	Real Force	Real Stiffness	Contact Depth	Area	Hardness	Reduced Mod.
[#]	[#]	[um]	[s]	[um]	[um]	[um]	[m°]	[m°]	[um]	[uN]	[uN]	[V]	[V]	[V]	[°C]	[uN]	[um]	[N/m]	[°]	[°]	[uN]	[um]	[um]	[um]	[uN]	[N/m]	[um]	[um^2]	[MPa]	[MPa]
735	1.000000	0.002047	7.37224e+06	-40339.1	1005.82	-29790.2	0.000000	0.000000	6.002818	-0.037997	NaN	0.000000	0.001604	0.001723	28.0822	0.112069	0.000911	123.054	-140.761	-164.406	-0.059281	0.000728	-1.175990	-1.177309	-0.037997	123.054	-1.175758	-5.200475E+15	7.306413E-18	NaN
735	1.000000	0.045975	7.37224e+06	-40339.1	1005.82	-29790.2	0.000000	0.000000	6.046747	0.013247	NaN	0.000000	0.001643	0.001705	28.0839	0.085993	0.001977	43.4869	-175.494	-161.693	-0.097162	0.044662	-1.132063	-1.133375	0.013247	43.4869	-1.132291	-1.359410E+15	-9.744744E-18	NaN
735	1.000000	0.089982	7.37224e+06	-40339.1	1005.82	-29790.2	0.000000	0.000000	6.090757	0.087375	NaN	0.000000	0.001650	0.001770	28.0836	0.109153	0.001973	55.3257	-0.840089	-164.808	0.026242	0.088710	-1.088056	-1.089327	0.087375	55.3257	-1.089240	-3.594243E+14	-2.430964E-16	NaN
735	1.000000	0.134015	7.37224e+06	-40339.1	1005.82	-29790.2	0.000000	0.000000	6.134782	-0.103904	NaN	0.000000	0.001655	0.001751	28.0837	0.038502	0.001983	19.4205	-23.565	-163.751	-0.117215	0.132678	-1.044023	-1.045359	-0.103904	19.4205	-1.040010	-7.836105E+13	1.325963E-15	NaN
735	1.000000	0.177996	7.37224e+06	-40339.1	1005.82	-29790.2	0.000000	0.000000	6.178768	0.009228	NaN	0.000000	0.001621	0.001749	28.0824	0.041737	0.001988	20.997	-122.788	-164.422	0.044864	0.176714	-1.000041	-1.001323	0.009228	20.997	-1.000371	-2.294885E+13	-4.021155E-16	NaN
735	1.000000	0.222026	7.37224e+06	-40339.1	1005.82	-29790.2	0.000000	0.000000	6.222795	-0.064113	NaN	0.000000	0.001605	0.001749	28.0827	0.137424	0.002012	68.3017	121.799	-162	-0.046719	0.220726	-0.956011	-0.957311	-0.064113	68.3017	-0.955307	-5.670220E+12	1.130690E-14	NaN
735	1.000000	0.266085	7.37224e+06	-40339.1	1005.82	-29790.2	0.000000	0.000000	6.266856	-0.026055	NaN	0.000000	0.001586	0.001758	28.0828	0.017005	0.001927	8.826907	121.149	-165.115	0.002429	0.264778	-0.911952	-0.913260	-0.026055	8.826907	-0.909738	-1.376035E+12	1.893472E-14	NaN
735	1.000000	0.310097	7.37224e+06	-40339.1	1005.82	-29790.2	0.000000	0.000000	6.310869	0.003593	NaN	0.000000	0.001637	0.001799	28.0828	0.017397	0.001990	8.741511	72.6991	-166.088	0.075396	0.308768	-0.867940	-0.869269	0.003593	8.741511	-0.868248	-3.782204E+11	-9.498883E-15	NaN
735	1.000000	0.354120	7.37225e+06	-40339.1	1005.82	-29790.2	0.000000	0.000000	6.354892	0.005476	NaN	0.000000	0.001582	0.001808	28.0839	0.151811	0.002064	73.5603	-179.734	-163.031	0.022441	0.352751	-0.823918	-0.825286	0.005476	73.5603	-0.823973	-9.507956E+10	-5.759133E-14	NaN
735	1.000000	0.398114	7.37225e+06	-40339.1	1005.82	-29790.2	0.000000	0.000000	6.398888	0.050662	NaN	0.000000	0.001606	0.001824	28.0836	0.071464	0.001932	36.9799	144.321	-163.159	0.007494	0.396834	-0.779923	-0.781203	0.050662	36.9799	-0.780950	-2.478251E+10	-2.044280E-12	NaN
735	1.000000	0.442136	7.37225e+06	-40339.1	1005.82	-29790.2	0.000000	0.000000	6.442905	-0.084347	NaN	0.000000	0.001609	0.001824	28.0841	0.082244	0.002010	40.9209	114.614	-166.339	-0.043195	0.440805	-0.735901	-0.737232	-0.084347	40.9209	-0.734355	-5.756487E+9	1.465258E-11	NaN
735	1.000000	0.486158	7.37225e+06	-40339.1	1005.82	-29790.2	0.000000	0.000000	6.486926	-0.100116	NaN	0.000000	0.001649	0.001790	28.0825	0.050222	0.001900	26.4294	-175.617	-160.836	0.010146	0.484815	-0.691879	-0.693222	-0.100116	26.4294	-0.689038	-1.386033E+9	7.223197E-11	NaN
735	1.000000	0.530177	7.37225e+06	-40339.1	1005.82	-29790.2	0.000000	0.000000	6.530946	-0.051731	NaN	0.000000	0.001633	0.001794	28.0825	0.072868	0.002071	35.1908	165.31	-166.127	-0.060873	0.528903	-0.647861	-0.649134	-0.051731	35.1908	-0.646758	-3.655855E+8	1.415015E-10	NaN
735	1.000000	0.574184	7.37225e+06	-40339.1	1005.82	-29790.2	0.000000	0.000000	6.574954	-0.052747	NaN	0.000000	0.001603	0.001783	28.0827	0.083012	0.002066	40.1778	120.759	-165.552	0.005492	0.572929	-0.603853	-0.605108	-0.052747	40.1778	-0.602869	-9.119298E+7	5.784153E-10	NaN
735	1.000000	0.618205	7.37225e+06	-40339.1	1005.82	-29790.2	0.000000	0.000000	6.618977	0.001690	NaN	0.000000	0.001609	0.001813	28.0842	0.043309	0.002003	21.6241	9.508876	-162.604	-0.002384	0.616902	-0.559832	-0.561135	0.001690	21.6241	-0.559891	-2.327398E+7	-7.261265E-11	NaN
735	1.000000	0.662215	7.37225e+06	-40339.1	1005.82	-29790.2	0.000000	0.000000	6.662985	-0.047652	NaN	0.000000	0.001583	0.001793	28.084	0.124039	0.002035	60.9454	114.515	-164.179	-0.126165	0.660984	-0.515822	-0.517053	-0.047652	60.9454	-0.515236	-5.58879e+06	8.526266E-9	NaN
735	1.000000	0.706256	7.37225e+06	-40339.1	1005.82	-29790.2	0.000000	0.000000	6.707028	-0.015796	NaN	0.000000	0.001612	0.001853	28.0839	0.012702	0.001981	6.411015	-44.2566	-170.348	-0.071100	0.704961	-0.471781	-0.473076	-0.015796	6.411015	-0.469933	-1.30157e+06	1.213645E-8	NaN
735	1.000000	0.750243	7.37225e+06	-40339.1	1005.82	-29790.2	0.000000	0.000000	6.751011	-0.087808	NaN	0.000000	0.001589	0.001773	28.0826	0.086993	0.001929	45.1008	112.894	-165.871	-0.081858	0.748998	-0.427794	-0.429039	-0.087808	45.1008	-0.426334	-316354	2.775637E-7	NaN
735	1.000000	0.794288	7.37225e+06	-40339.1	1005.82	-29790.2	0.000000	0.000000	6.795055	-0.113731	NaN	0.000000	0.001634	0.001765	28.0827	0.071167	0.001962	36.2805	-151.049	-166.547	-0.018028	0.792965	-0.383749	-0.385072	-0.113731	36.2805	-0.381398	-72435.5	1.570104E-6	NaN
735	1.000000	0.838318	7.37225e+06	-40339.1	1005.82	-29790.2	0.000000	0.000000	6.839089	-0.023505	NaN	0.000000	0.001636	0.001818	28.0827	0.057363	0.002127	26.9681	-79.4471	-166.162	0.062626	0.837083	-0.339719	-0.340954	-0.023505	26.9681	-0.339065	-17698.1	1.328088E-6	NaN
735	1.000000	0.882316	7.37225e+06	-40339.1	1005.82	-29790.2	0.000000	0.000000	6.883086	-0.035471	NaN	0.000000	0.001593	0.001744	28.084	0.062399	0.001983	31.4674	-116.52	-164.144	0.035711	0.881036	-0.295721	-0.297001	-0.035471	31.4674	-0.294876	-3946.72	8.987491E-6	NaN
735	1.000000	0.926349	7.37225e+06	-40339.1	1005.82	-29790.2	0.000000	0.000000	6.927119	-0.044023	NaN	0.000000	0.001613	0.001770	28.0838	0.101706	0.002078	48.9389	-158.359	-166.455	0.010635	0.925074	-0.251688	-0.252963	-0.044023	48.9389	-0.251013	-852.375	5.164794E-5	NaN
735	1.000000	0.970354	7.37225e+06	-40339.1	1005.82	-29790.2	0.000000	0.000000	6.971126	0.002428	NaN	0.000000	0.001586	0.001771	28.0837	0.033944	0.002037	16.6609	-135.79	-166.286	-0.055661	0.969067	-0.207684	-0.208970	0.002428	16.6609	-0.207793	-176.612	-1.374985E-5	NaN
735	1.000000	1.014377	7.37225e+06	-40339.1	1005.82	-29790.2	0.000000	0.000000	7.015144	-0.112359	NaN	0.000000	0.001684	0.001780	28.0829	0.101010	0.002042	49.4569	50.1553	-163.019	-0.030029	1.013049	-0.163660	-0.164988	-0.112359	49.4569	-0.161956	-29.6938	0.003784	NaN
735	1.000000	1.058376	7.37225e+06	-40339.1	1005.82	-29790.2	0.000000	0.000000	7.059146	-0.039308	NaN	0.000000	0.001674	0.001781	28.0826	0.047888	0.002036	23.5184	-81.3611	-166.169	-0.047528	1.057132	-0.119662	-0.120905	-0.039308	23.5184	-0.118408	-4.485875	0.008763	NaN
735	1.000000	1.102420	7.37225e+06	-40339.1	1005.82	-29790.2	0.000000	0.000000	7.103190	-0.029293	NaN	0.000000	0.001633	0.001768	28.0825	0.123165	0.001938	63.5655	94.3373	-169.139	-0.060315	1.101093	-0.075617	-0.076944	-0.029293	63.5655	-0.075272	-0.469403	0.062405	NaN
735	1.000000	1.146470	7.37225e+06	-40339.1	1005.82	-29790.2	0.000000	0.000000	7.147241	-0.010453	NaN	0.000000	0.001600	0.001763	28.0837	0.038919	0.002033	19.148	-105.666	-165.449	-5.041902E-5	1.145111	-0.031567	-0.032926	-0.010453	19.148	-0.031158	-0.024801	0.421473	NaN
735	2.000000	1.184991	7.37225e+06	-40339.1	1005.82	-29790.2	0.000000	0.000000	7.186126	8.843281	NaN	0.000000	0.001561	0.001748	28.0842	9.962338	0.001706	5840.81	5.590066	-170.48	8.894684	1.184632	0.006954	0.006595	8.843281	5840.81	0.005818	0.004892	1807.55	76293
735	2.000000	1.195956	7.37225e+06	-40339.1	1005.82	-29790.2	0.000000	0.000000	7.197750	24.8564	NaN	0.000000	0.001522	0.001736	28.0839	21.9945	0.001732	12697.5	8.358615	-176.902	26.3745	1.195577	0.017919	0.017540	24.8564	12697.5	0.016451	0.017269	1439.34	88278.6
735	2.000000	1.206909	7.37225e+06	-40339.1	1005.82	-29790.2	0.000000	0.000000	7.209739	50.0992	NaN	0.000000	0.001506	0.001772	28.0825	32.5908	0.001816	17944.1	6.116519	-179.35	49.5546	1.206448	0.028871	0.028410	50.0992	17944.1	0.026778	0.034329	1459.39	88484.2
735	2.000000	1.217913	7.37225e+06	-40339.1	1005.82	-29790.2	0.000000	0.000000	7.222106	83.2424	NaN	0.000000	0.001649	0.001725	28.0826	43.4933	0.001814	23976.3	8.027153	176.389	85.0558	1.217486	0.039876	0.039449	83.2424	23976.3	0.037272	0.057168	1456.1	91617.7
735	2.000000	1.228839	7.37225e+06	-40339.1	1005.82	-29790.2	0.000000	0.000000	7.234981	130.695	NaN	0.000000	0.001646	0.001755	28.0825	54.9616	0.001776	30946.9	8.159421	172.701	129.904	1.228476	0.050801	0.050439	130.695	30946.9	0.047634	0.085240	1533.25	96842.9
735	2.000000	1.239815	7.37225e+06	-40339.1	1005.82	-29790.2	0.000000	0.000000	7.248764	198.996	NaN	0.000000	0.001571	0.001751	28.0838	63.8239	0.001666	38303.2	2.769621	176.764	197.195	1.239451	0.061778	0.061414	198.996	38303.2	0.057881	0.118320	1681.85	101737
735	2.000000	1.250756	7.37225e+06	-40339.1	1005.82	-29790.2	0.000000	0.000000	7.262245	260.764	NaN	0.000000	0.001584	0.001758	28.0835	75.941	0.001873	40540.3	2.239214	177.654	257.569	1.250489	0.072719	0.072452	260.764	40540.3	0.067895	0.155631	1675.53	93888.5
735	2.000000	1.261734	7.37225e+06	-40339.1	1005.82	-29790.2	0.000000	0.000000	7.276133	331.59	NaN	0.000000	0.001577	0.001758	28.0833	88.1193	0.001810	48693.2	7.915699	169.641	326.445	1.261418	0.083697	0.083381	331.59	48693.2	0.078590	0.200775	1651.55	99285.7
735	2.000000	1.272902	7.37225e+06	-40339.1	1005.82	-29790.2	0.000000	0.000000	7.290092	399.519	NaN	0.000000	0.001587	0.001729	28.0823	97.3088	0.001733	56148.3	5.306046	171.783	407.492	1.272554	0.094865	0.094517	399.519	56148.3	0.089528	0.252476	1582.4	102094
735	2.000000	1.281880	7.37225e+06	-40339.1	1005.82	-29790.2	0.000000	0.000000	7.302300	478.098	NaN	0.000000	0.001587	0.001735	28.0822	107.438	0.001773	60580.6	6.673592	169.676	481.612	1.281498	0.103843	0.103461	478.098	60580.6	0.097924	0.295890	1615.8	101752