File: remote_trans/data/nanoindenter/0828-1/data/Data_2025-08-06,11h17m57s/2025-07-22_16-23-58_1_753.txt
2025-07-22, 16:23:58, 1
Index	Phase	Displacement	Time	Pos X	Pos Y	Pos Z	Rot A	Rot B	Piezo Z	Force A	Force B	Gripper	Voltage A	Voltage B	Temperature	Amplitude force	Amplitude pos	Stiffness	Phase shift	Phase excitation	Force A raw	Displacement raw	HMax	HMax raw	Real Force	Real Stiffness	Contact Depth	Area	Hardness	Reduced Mod.
[#]	[#]	[um]	[s]	[um]	[um]	[um]	[m°]	[m°]	[um]	[uN]	[uN]	[V]	[V]	[V]	[°C]	[uN]	[um]	[N/m]	[°]	[°]	[uN]	[um]	[um]	[um]	[uN]	[N/m]	[um]	[um^2]	[MPa]	[MPa]
753	1.000000	0.002831	7.37242e+06	-39439.1	1005.82	-29793.8	0.000000	0.000000	6.002800	-0.014054	NaN	0.000000	0.001625	0.001720	28.0822	0.113458	0.000853	132.96	-53.0312	-167.638	-0.025868	0.001534	-1.092793	-1.094090	-0.014054	132.96	-1.092713	-4.001686E+14	3.512015E-17	NaN
753	1.000000	0.044781	7.37242e+06	-39439.1	1005.82	-29793.8	0.000000	0.000000	6.044748	-0.065386	NaN	0.000000	0.001620	0.001712	28.0824	0.143769	0.002034	70.6842	103.619	16.2668	0.000344	0.043440	-1.050843	-1.052184	-0.065386	70.6842	-1.050149	-1.072542E+14	6.096336E-16	NaN
753	1.000000	0.086781	7.37242e+06	-39439.1	1005.82	-29793.8	0.000000	0.000000	6.086747	-0.056412	NaN	0.000000	0.001615	0.001704	28.0824	0.019278	0.001824	10.5693	-100.402	-166.773	-0.078708	0.085455	-1.008843	-1.010169	-0.056412	10.5693	-1.004840	-2.635907E+13	2.140146E-15	NaN
753	1.000000	0.128788	7.37242e+06	-39439.1	1005.82	-29793.8	0.000000	0.000000	6.128756	-0.026463	NaN	0.000000	0.001634	0.001710	28.0823	0.056774	0.002023	28.0668	-160.131	11.4896	-0.040399	0.127443	-0.966836	-0.968181	-0.026463	28.0668	-0.966129	-7.933838E+12	3.335521E-15	NaN
753	1.000000	0.170831	7.37242e+06	-39439.1	1005.82	-29793.8	0.000000	0.000000	6.170798	-0.050664	NaN	0.000000	0.001617	0.001715	28.0834	0.069434	0.001931	35.959	-141.808	-170.681	-0.063925	0.169491	-0.924793	-0.926133	-0.050664	35.959	-0.923736	-2.126415E+12	2.382612E-14	NaN
753	1.000000	0.212844	7.37242e+06	-39439.1	1005.82	-29793.8	0.000000	0.000000	6.212811	-0.055174	NaN	0.000000	0.001614	0.001746	28.0834	0.118396	0.002046	57.873	-152.097	14.6737	-0.090589	0.211475	-0.882780	-0.884149	-0.055174	57.873	-0.882065	-5.816085E+11	9.486501E-14	NaN
753	1.000000	0.254906	7.37242e+06	-39439.1	1005.82	-29793.8	0.000000	0.000000	6.254871	-0.103813	NaN	0.000000	0.001576	0.001756	28.0832	0.055479	0.001961	28.2913	54.2977	-165.669	-0.050294	0.253580	-0.840717	-0.842044	-0.103813	28.2913	-0.837965	-1.471388E+11	7.055439E-13	NaN
753	1.000000	0.296872	7.37242e+06	-39439.1	1005.82	-29793.8	0.000000	0.000000	6.296842	0.023973	NaN	0.000000	0.001596	0.001732	28.0821	0.070187	0.002040	34.3996	-22.5359	16.7639	-0.020966	0.295572	-0.798751	-0.800052	0.023973	34.3996	-0.799274	-4.395509E+10	-5.453918E-13	NaN
753	1.000000	0.338857	7.37242e+06	-39439.1	1005.82	-29793.8	0.000000	0.000000	6.338825	-0.021950	NaN	0.000000	0.001640	0.001714	28.082	0.038597	0.001938	19.918	26.2246	-165.839	-0.077000	0.337596	-0.756767	-0.758028	-0.021950	19.918	-0.755941	-1.132582E+10	1.938070E-12	NaN
753	1.000000	0.380928	7.37242e+06	-39439.1	1005.82	-29793.8	0.000000	0.000000	6.380897	0.011107	NaN	0.000000	0.001613	0.001677	28.0821	0.065801	0.001928	34.1262	155.54	9.767430	-0.012316	0.379553	-0.714696	-0.716071	0.011107	34.1262	-0.714940	-3.129358E+9	-3.549423E-12	NaN
753	1.000000	0.422939	7.37242e+06	-39439.1	1005.82	-29793.8	0.000000	0.000000	6.422904	-0.098514	NaN	0.000000	0.001606	0.001757	28.0832	0.084630	0.002028	41.7371	-147.746	-163.781	-0.063410	0.421655	-0.672684	-0.673968	-0.098514	41.7371	-0.670914	-7.832534E+8	1.257758E-10	NaN
753	1.000000	0.464948	7.37242e+06	-39439.1	1005.82	-29793.8	0.000000	0.000000	6.464916	-0.027918	NaN	0.000000	0.001648	0.001723	28.0832	0.046892	0.001963	23.8911	-105.872	14.2224	-0.061976	0.463558	-0.630675	-0.632066	-0.027918	23.8911	-0.629799	-2.139261E+8	1.305043E-10	NaN
753	1.000000	0.506962	7.37242e+06	-39439.1	1005.82	-29793.8	0.000000	0.000000	6.506933	0.051832	NaN	0.000000	0.001619	0.001712	28.0833	0.077836	0.002040	38.1549	-13.7541	-166.815	0.005636	0.505637	-0.588662	-0.589987	0.051832	38.1549	-0.589681	-6.001656E+7	-8.636319E-10	NaN
753	1.000000	0.549015	7.37242e+06	-39439.1	1005.82	-29793.8	0.000000	0.000000	6.548982	-0.043969	NaN	0.000000	0.001672	0.001733	28.0821	0.123158	0.001915	64.3251	-133.472	14.397	-0.074550	0.547668	-0.546609	-0.547956	-0.043969	64.3251	-0.546096	-1.499250E+7	2.932749E-9	NaN
753	1.000000	0.591011	7.37242e+06	-39439.1	1005.82	-29793.8	0.000000	0.000000	6.590978	-0.054100	NaN	0.000000	0.001650	0.001662	28.082	0.047705	0.001893	25.198	147.879	-166.746	-0.087965	0.589673	-0.504612	-0.505951	-0.054100	25.198	-0.503002	-3.77477e+06	1.433193E-8	NaN
753	1.000000	0.633025	7.37242e+06	-39439.1	1005.82	-29793.8	0.000000	0.000000	6.632996	0.047236	NaN	0.000000	0.001680	0.001714	28.0824	0.091552	0.001994	45.9229	-20.1148	13.0356	0.068732	0.631681	-0.462599	-0.463943	0.047236	45.9229	-0.463371	-1.05286e+06	-4.486499E-8	NaN
753	1.000000	0.675046	7.37242e+06	-39439.1	1005.82	-29793.8	0.000000	0.000000	6.675015	-0.008333	NaN	0.000000	0.001650	0.001733	28.0822	0.040785	0.002072	19.6856	51.9148	-165.165	0.027631	0.673759	-0.420577	-0.421865	-0.008333	19.6856	-0.420260	-259479	3.211528E-8	NaN
753	1.000000	0.717082	7.37242e+06	-39439.1	1005.82	-29793.8	0.000000	0.000000	6.717048	-0.074341	NaN	0.000000	0.001619	0.001704	28.0834	0.060047	0.002018	29.7523	49.3754	15.8078	-0.060311	0.715695	-0.378542	-0.379929	-0.074341	29.7523	-0.376668	-61949.5	1.200029E-6	NaN
753	1.000000	0.759079	7.37242e+06	-39439.1	1005.82	-29793.8	0.000000	0.000000	6.759046	-0.051159	NaN	0.000000	0.001582	0.001685	28.0835	0.058892	0.001944	30.2956	-52.4731	-162.085	-0.142885	0.757796	-0.336545	-0.337828	-0.051159	30.2956	-0.335278	-15582.9	3.283006E-6	NaN
753	1.000000	0.801101	7.37242e+06	-39439.1	1005.82	-29793.8	0.000000	0.000000	6.801067	-0.070014	NaN	0.000000	0.001594	0.001704	28.0831	0.084874	0.002035	41.7014	-116.666	12.7472	-0.060200	0.799755	-0.294523	-0.295869	-0.070014	41.7014	-0.293263	-3733.72	1.875189E-5	NaN
753	1.000000	0.843103	7.37242e+06	-39439.1	1005.82	-29793.8	0.000000	0.000000	6.843069	-0.065239	NaN	0.000000	0.001712	0.001680	28.082	0.030632	0.001828	16.7554	-55.993	-166.221	-0.068225	0.841770	-0.252521	-0.253854	-0.065239	16.7554	-0.249601	-810.574	8.048526E-5	NaN
753	1.000000	0.885104	7.37242e+06	-39439.1	1005.82	-29793.8	0.000000	0.000000	6.885072	-0.022366	NaN	0.000000	0.001657	0.001648	28.082	0.052240	0.001974	26.4698	-25.7349	14.6224	-0.079455	0.883807	-0.210519	-0.211817	-0.022366	26.4698	-0.209886	-190.971	0.000117	NaN
753	1.000000	0.927167	7.37242e+06	-39439.1	1005.82	-29793.8	0.000000	0.000000	6.927136	-0.017776	NaN	0.000000	0.001618	0.001686	28.0818	0.076382	0.002037	37.5046	68.1377	-165.096	-0.053595	0.925835	-0.168456	-0.169789	-0.017776	37.5046	-0.168101	-38.0687	0.000467	NaN
753	1.000000	0.969189	7.37242e+06	-39439.1	1005.82	-29793.8	0.000000	0.000000	6.969156	-0.033346	NaN	0.000000	0.001608	0.001710	28.0833	0.101350	0.002054	49.3376	152.431	15.1513	-0.005890	0.967782	-0.126435	-0.127842	-0.033346	49.3376	-0.125928	-6.343535	0.005257	NaN
753	1.000000	1.011163	7.37242e+06	-39439.1	1005.82	-29793.8	0.000000	0.000000	7.011130	-0.052358	NaN	0.000000	0.001633	0.001687	28.0835	0.027755	0.002042	13.5896	-159.039	-166.25	0.016540	1.009845	-0.084461	-0.085779	-0.052358	13.5896	-0.081571	-0.677274	0.077307	NaN
753	1.000000	1.053191	7.37242e+06	-39439.1	1005.82	-29793.8	0.000000	0.000000	7.053157	-0.063642	NaN	0.000000	0.001633	0.001714	28.0833	0.091600	0.001957	46.8142	-5.034207	14.8787	-0.068194	1.051825	-0.042433	-0.043799	-0.063642	46.8142	-0.041413	-0.049930	1.274615	NaN
753	1.000000	1.095169	7.37242e+06	-39439.1	1005.82	-29793.8	0.000000	0.000000	7.095238	2.447607	NaN	0.000000	0.001684	0.001698	28.0822	3.208270	0.001791	1790.98	7.363941	-166.907	1.308271	1.093838	-0.000455	-0.001786	2.447607	1790.98	-0.001480	-0.001075	-2275.9	NaN
753	2.000000	1.110218	7.37242e+06	-39439.1	1005.82	-29793.8	0.000000	0.000000	7.111172	23.9592	NaN	0.000000	0.001730	0.001662	28.0825	19.6149	0.001758	11156.2	6.493422	1.280570	23.44	1.109886	0.014595	0.014262	23.9592	11156.2	0.012984	0.012690	1888.02	90480.7
753	2.000000	1.120623	7.37242e+06	-39439.1	1005.82	-29793.8	0.000000	0.000000	7.122855	55.058	NaN	0.000000	0.001728	0.001670	28.082	31.1767	0.001828	17059.4	6.351262	177.066	53.7348	1.120350	0.024999	0.024727	55.058	17059.4	0.022579	0.026758	2057.64	95282
753	2.000000	1.131079	7.37243e+06	-39439.1	1005.82	-29793.8	0.000000	0.000000	7.135333	104.288	NaN	0.000000	0.001656	0.001694	28.0822	39.6986	0.001639	24217.6	1.567844	-0.017870	100.535	1.130780	0.035455	0.035156	104.288	24217.6	0.032225	0.045482	2292.94	103749
753	2.000000	1.141570	7.37243e+06	-39439.1	1005.82	-29793.8	0.000000	0.000000	7.147759	151.362	NaN	0.000000	0.001620	0.001689	28.0836	51.1702	0.001778	28772.7	7.454096	171.611	148.003	1.141278	0.045946	0.045654	151.362	28772.7	0.042001	0.069301	2184.12	99858.4
753	2.000000	1.152106	7.37243e+06	-39439.1	1005.82	-29793.8	0.000000	0.000000	7.160753	211.17	NaN	0.000000	0.001608	0.001678	28.0834	61.6035	0.001819	33871.2	5.339013	-6.357302	209.966	1.151778	0.056482	0.056154	211.17	33871.2	0.051807	0.098079	2153.06	98813.6
753	2.000000	1.162727	7.37243e+06	-39439.1	1005.82	-29793.8	0.000000	0.000000	7.173978	274.549	NaN	0.000000	0.001652	0.001674	28.0832	71.4165	0.001877	38052.9	10.6724	168.169	280.005	1.162209	0.067103	0.066586	274.549	38052.9	0.061692	0.131945	2080.78	95711.7
753	2.000000	1.173042	7.37243e+06	-39439.1	1005.82	-29793.8	0.000000	0.000000	7.187255	346.625	NaN	0.000000	0.001620	0.001697	28.082	81.2217	0.001814	44782.6	3.426384	-7.512563	341.59	1.172779	0.077418	0.077155	346.625	44782.6	0.071613	0.170712	2030.47	99026.3
753	2.000000	1.183550	7.37243e+06	-39439.1	1005.82	-29793.8	0.000000	0.000000	7.201274	432.077	NaN	0.000000	0.001601	0.001731	28.0822	91.9195	0.001879	48915.4	3.959517	171.935	429.682	1.183296	0.087926	0.087672	432.077	48915.4	0.081301	0.213073	2027.83	96817.6
753	2.000000	1.193947	7.37243e+06	-39439.1	1005.82	-29793.8	0.000000	0.000000	7.215490	525.013	NaN	0.000000	0.001649	0.001770	28.082	100.375	0.001814	55348.1	3.853967	-8.468548	516.449	1.193555	0.098323	0.097931	525.013	55348.1	0.091209	0.260907	2012.26	98999.5
753	2.000000	1.199567	7.37243e+06	-39439.1	1005.82	-29793.8	0.000000	0.000000	7.223231	576.604	NaN	0.000000	0.001623	0.001735	28.0819	105.32	0.001805	58360.4	2.920222	171.728	576.685	1.199321	0.103943	0.103697	576.604	58360.4	0.096533	0.288474	1998.8	99274.6