File: remote_trans/data/nanoindenter/0828-1/data/Data_2025-08-06,11h17m57s/2025-07-22_16-23-58_1_1203.txt
2025-07-22, 16:23:58, 1
Index	Phase	Displacement	Time	Pos X	Pos Y	Pos Z	Rot A	Rot B	Piezo Z	Force A	Force B	Gripper	Voltage A	Voltage B	Temperature	Amplitude force	Amplitude pos	Stiffness	Phase shift	Phase excitation	Force A raw	Displacement raw	HMax	HMax raw	Real Force	Real Stiffness	Contact Depth	Area	Hardness	Reduced Mod.
[#]	[#]	[um]	[s]	[um]	[um]	[um]	[m°]	[m°]	[um]	[uN]	[uN]	[V]	[V]	[V]	[°C]	[uN]	[um]	[N/m]	[°]	[°]	[uN]	[um]	[um]	[um]	[uN]	[N/m]	[um]	[um^2]	[MPa]	[MPa]
1203	1.000000	0.003251	7.37681e+06	-55439.1	1105.82	-29741.4	0.000000	0.000000	6.002784	-0.018376	NaN	0.000000	0.001558	0.001638	28.0804	0.099576	0.000963	103.443	-82.3125	-168.176	-0.007896	0.002005	-1.094750	-1.095995	-0.018376	103.443	-1.094616	-4.244198E+14	4.329640E-17	NaN
1203	1.000000	0.043213	7.37681e+06	-55439.1	1105.82	-29741.4	0.000000	0.000000	6.042745	-0.032352	NaN	0.000000	0.001497	0.001662	28.0804	0.038891	0.002001	19.4378	37.1025	-166.441	-0.028485	0.041908	-1.054788	-1.056093	-0.032352	19.4378	-1.053539	-1.191218E+14	2.715912E-16	NaN
1203	1.000000	0.083236	7.37681e+06	-55439.1	1105.82	-29741.4	0.000000	0.000000	6.082770	-0.002049	NaN	0.000000	0.001534	0.001640	28.08	0.062474	0.001998	31.2665	-164.799	-162.731	-0.003665	0.081902	-1.014765	-1.016098	-0.002049	31.2665	-1.014715	-3.579665E+13	5.722663E-17	NaN
1203	1.000000	0.123262	7.37681e+06	-55439.1	1105.82	-29741.4	0.000000	0.000000	6.122795	-0.014208	NaN	0.000000	0.001503	0.001607	28.0817	0.099823	0.002106	47.4018	71.6667	-165.449	-0.044523	0.121928	-0.974739	-0.976072	-0.014208	47.4018	-0.974514	-1.029181E+13	1.380481E-15	NaN
1203	1.000000	0.163246	7.37681e+06	-55439.1	1105.82	-29741.4	0.000000	0.000000	6.162779	-0.015416	NaN	0.000000	0.001546	0.001637	28.0817	0.037519	0.002000	18.7629	101.474	-161.328	-0.077344	0.161930	-0.934754	-0.936070	-0.015416	18.7629	-0.934138	-2.937955E+12	5.247310E-15	NaN
1203	1.000000	0.203268	7.37681e+06	-55439.1	1105.82	-29741.4	0.000000	0.000000	6.202801	-0.022453	NaN	0.000000	0.001517	0.001649	28.0811	0.186464	0.002053	90.8243	-122.711	-162.885	-0.071156	0.201957	-0.894732	-0.896043	-0.022453	90.8243	-0.894547	-8.577789E+11	2.617620E-14	NaN
1203	1.000000	0.243281	7.37681e+06	-55439.1	1105.82	-29741.4	0.000000	0.000000	6.242813	-0.048579	NaN	0.000000	0.001513	0.001597	28.0812	0.081520	0.002121	38.4364	179.239	-165.911	0.045916	0.242020	-0.854719	-0.855980	-0.048579	38.4364	-0.853771	-2.408804E+11	2.016735E-13	NaN
1203	1.000000	0.283314	7.37681e+06	-55439.1	1105.82	-29741.4	0.000000	0.000000	6.282846	-0.052378	NaN	0.000000	0.001558	0.001621	28.0798	0.053166	0.001825	29.1281	-178.438	-165.866	0.037782	0.282032	-0.814687	-0.815968	-0.052378	29.1281	-0.813338	-6.821086E+10	7.678842E-13	NaN
1203	1.000000	0.323332	7.37681e+06	-55439.1	1105.82	-29741.4	0.000000	0.000000	6.322865	-0.018661	NaN	0.000000	0.001531	0.001590	28.0799	0.084848	0.001954	43.4156	172.026	-168.49	-0.025506	0.322000	-0.774668	-0.776000	-0.018661	43.4156	-0.774346	-2.015514E+10	9.258539E-13	NaN
1203	1.000000	0.363328	7.37681e+06	-55439.1	1105.82	-29741.4	0.000000	0.000000	6.362858	-0.086076	NaN	0.000000	0.001547	0.001625	28.08	0.072999	0.002046	35.6852	133.166	-165.542	-0.062674	0.362050	-0.734673	-0.735951	-0.086076	35.6852	-0.732864	-5.493322E+9	1.566928E-11	NaN
1203	1.000000	0.403380	7.37681e+06	-55439.1	1105.82	-29741.4	0.000000	0.000000	6.402914	-0.013404	NaN	0.000000	0.001535	0.001643	28.0814	0.078162	0.002066	37.8289	-111.136	-167.343	0.019691	0.402032	-0.694620	-0.695968	-0.013404	37.8289	-0.694355	-1.638394E+9	8.181211E-12	NaN
1203	1.000000	0.443341	7.37681e+06	-55439.1	1105.82	-29741.4	0.000000	0.000000	6.442873	-0.048749	NaN	0.000000	0.001530	0.001683	28.0812	0.091821	0.001813	50.644	151.086	-167.62	0.026955	0.442064	-0.654659	-0.655937	-0.048749	50.644	-0.653937	-4.585645E+8	1.063079E-10	NaN
1203	1.000000	0.483386	7.37681e+06	-55439.1	1105.82	-29741.4	0.000000	0.000000	6.482918	-0.050374	NaN	0.000000	0.001586	0.001675	28.0814	0.094010	0.002103	44.7015	15.1765	-165.797	-0.099861	0.482074	-0.614614	-0.615927	-0.050374	44.7015	-0.613769	-1.288124E+8	3.910646E-10	NaN
1203	1.000000	0.523436	7.37681e+06	-55439.1	1105.82	-29741.4	0.000000	0.000000	6.522968	-0.040701	NaN	0.000000	0.001526	0.001674	28.0814	0.043213	0.002097	20.6081	91.8916	-167.411	-0.010661	0.522096	-0.574565	-0.575904	-0.040701	20.6081	-0.573083	-3.541824E+7	1.149142E-9	NaN
1203	1.000000	0.563433	7.37681e+06	-55439.1	1105.82	-29741.4	0.000000	0.000000	6.562968	0.028176	NaN	0.000000	0.001561	0.001643	28.0798	0.108029	0.001990	54.2822	-68.2923	-165.426	0.017679	0.562092	-0.534567	-0.535909	0.028176	54.2822	-0.534956	-1.050474E+7	-2.682246E-9	NaN
1203	1.000000	0.603428	7.37681e+06	-55439.1	1105.82	-29741.4	0.000000	0.000000	6.602962	-0.010764	NaN	0.000000	0.001544	0.001668	28.0801	0.046781	0.001921	24.3577	93.9374	-166.412	-0.027767	0.602152	-0.494572	-0.495849	-0.010764	24.3577	-0.494241	-2.84859e+06	3.778815E-9	NaN
1203	1.000000	0.643464	7.37681e+06	-55439.1	1105.82	-29741.4	0.000000	0.000000	6.642996	-0.039856	NaN	0.000000	0.001532	0.001647	28.08	0.058952	0.002040	28.8964	152.636	-164.892	-0.054822	0.642129	-0.454537	-0.455872	-0.039856	28.8964	-0.453502	-764969	5.210192E-8	NaN
1203	1.000000	0.683519	7.37681e+06	-55439.1	1105.82	-29741.4	0.000000	0.000000	6.683053	0.011550	NaN	0.000000	0.001522	0.001659	28.0812	0.042631	0.002058	20.7127	78.3098	-165.726	-0.017082	0.682176	-0.414482	-0.415824	0.011550	20.7127	-0.414900	-217788	-5.303346E-8	NaN
1203	1.000000	0.723507	7.37681e+06	-55439.1	1105.82	-29741.4	0.000000	0.000000	6.723040	-0.016220	NaN	0.000000	0.001508	0.001661	28.0813	0.053405	0.002049	26.0669	51.8023	-167.447	-0.054924	0.722218	-0.374493	-0.375783	-0.016220	26.0669	-0.374027	-56764.6	2.857390E-7	NaN
1203	1.000000	0.763529	7.37681e+06	-55439.1	1105.82	-29741.4	0.000000	0.000000	6.763059	-0.084311	NaN	0.000000	0.001514	0.001686	28.0813	0.123996	0.001936	64.0418	135.239	-165.05	-0.056626	0.762189	-0.334472	-0.335812	-0.084311	64.0418	-0.333484	-14670.2	5.747086E-6	NaN
1203	1.000000	0.803553	7.37681e+06	-55439.1	1105.82	-29741.4	0.000000	0.000000	6.803086	-0.027332	NaN	0.000000	0.001574	0.001679	28.0815	0.027902	0.002035	13.7137	-160	-165.342	0.034553	0.802189	-0.294447	-0.295812	-0.027332	13.7137	-0.292952	-3693.95	7.399195E-6	NaN
1203	1.000000	0.843532	7.37681e+06	-55439.1	1105.82	-29741.4	0.000000	0.000000	6.843064	-0.035802	NaN	0.000000	0.001600	0.001686	28.0801	0.075884	0.001944	39.0354	-93.2171	-166.823	0.034887	0.842234	-0.254469	-0.255766	-0.035802	39.0354	-0.253781	-940.448	3.806960E-5	NaN
1203	1.000000	0.883547	7.37681e+06	-55439.1	1105.82	-29741.4	0.000000	0.000000	6.883081	-0.009076	NaN	0.000000	0.001542	0.001693	28.08	0.081135	0.001868	43.4396	-6.032869	-166.578	0.025414	0.882274	-0.214453	-0.215726	-0.009076	43.4396	-0.214297	-225.008	4.033797E-5	NaN
1203	1.000000	0.923594	7.37681e+06	-55439.1	1105.82	-29741.4	0.000000	0.000000	6.923128	-0.000649	NaN	0.000000	0.001555	0.001719	28.0803	0.060064	0.001924	31.2204	-173.423	-166.27	-0.028591	0.922269	-0.174406	-0.175732	-0.000649	31.2204	-0.174390	-48.9213	1.327288E-5	NaN
1203	1.000000	0.963580	7.37681e+06	-55439.1	1105.82	-29741.4	0.000000	0.000000	6.963110	-0.113714	NaN	0.000000	0.001548	0.001721	28.0816	0.015778	0.002136	7.388137	128.279	-167.557	-0.051680	0.962338	-0.134420	-0.135662	-0.113714	7.388137	-0.122877	-5.518268	0.020607	NaN
1203	1.000000	1.003585	7.37681e+06	-55439.1	1105.82	-29741.4	0.000000	0.000000	7.003120	0.032094	NaN	0.000000	0.001609	0.001687	28.0817	0.103688	0.002031	51.0583	-77.2197	-165.864	-0.076501	1.002265	-0.094415	-0.095736	0.032094	51.0583	-0.094887	-1.402275	-0.022887	NaN
1203	1.000000	1.043614	7.37681e+06	-55439.1	1105.82	-29741.4	0.000000	0.000000	7.043149	0.005122	NaN	0.000000	0.001569	0.001687	28.0816	0.157203	0.001982	79.3055	24.9009	-168.13	-0.008531	1.042292	-0.054386	-0.055708	0.005122	79.3055	-0.054434	-0.123908	-0.041336	NaN
1203	2.000000	1.080337	7.37681e+06	-55439.1	1105.82	-29741.4	0.000000	0.000000	7.080264	9.552466	NaN	0.000000	0.001598	0.001666	28.0801	2.228007	0.001882	1183.97	4.414128	-165.342	9.544301	1.080048	-0.017663	-0.017952	9.552466	1183.97	-0.023714	-0.015623	-611.44	NaN
1203	2.000000	1.090237	7.37681e+06	-55439.1	1105.82	-29741.4	0.000000	0.000000	7.090036	6.428556	NaN	0.000000	0.001581	0.001673	28.0801	2.184254	0.002053	1063.84	7.278832	-166.924	6.821803	1.089949	-0.007763	-0.008051	6.428556	1063.84	-0.012295	-0.007697	-835.172	NaN
1203	2.000000	1.100239	7.37681e+06	-55439.1	1105.82	-29741.4	0.000000	0.000000	7.100051	6.751933	NaN	0.000000	0.001588	0.001652	28.08	5.502876	0.002039	2698.43	10.1133	-170.492	6.496915	1.099943	0.002239	0.001942	6.751933	2698.43	0.000362	0.000272	24786.2	149374
1203	2.000000	1.110220	7.37681e+06	-55439.1	1105.82	-29741.4	0.000000	0.000000	7.110831	26.1772	NaN	0.000000	0.001601	0.001668	28.0803	13.9705	0.001747	7995.47	2.858140	-172.64	25.816	1.109911	0.012220	0.011910	26.1772	7995.47	0.009764	0.008921	2934.41	77342.2
1203	2.000000	1.120185	7.37681e+06	-55439.1	1105.82	-29741.4	0.000000	0.000000	7.121743	49.1979	NaN	0.000000	0.001537	0.001671	28.0818	20.8624	0.002029	10281.7	4.598232	-174.705	48.6448	1.119888	0.022184	0.021888	49.1979	10281.7	0.018596	0.020383	2413.62	65796
1203	2.000000	1.130190	7.37681e+06	-55439.1	1105.82	-29741.4	0.000000	0.000000	7.132748	73.5207	NaN	0.000000	0.001514	0.001688	28.0815	29.1716	0.001853	15744	6.461703	179.395	73.3127	1.129839	0.032190	0.031838	73.5207	15744	0.028687	0.038067	1931.36	73725
1203	2.000000	1.140201	7.37681e+06	-55439.1	1105.82	-29741.4	0.000000	0.000000	7.144227	109.183	NaN	0.000000	0.001686	0.001698	28.0816	37.2612	0.001835	20305	3.421923	179.214	109.256	1.139850	0.042201	0.041850	109.183	20305	0.038168	0.059380	1838.73	76130.4
1203	2.000000	1.150154	7.37681e+06	-55439.1	1105.82	-29741.4	0.000000	0.000000	7.156489	165.324	NaN	0.000000	0.001569	0.001727	28.0806	45.4965	0.001796	25330	0.073277	-179.682	163.286	1.149815	0.052154	0.051814	165.324	25330	0.047259	0.084129	1965.13	79787.7
1203	2.000000	1.160146	7.37681e+06	-55439.1	1105.82	-29741.4	0.000000	0.000000	7.168587	216.534	NaN	0.000000	0.001535	0.001667	28.0808	54.1793	0.001784	30362.5	4.015186	175.154	214.838	1.159843	0.062145	0.061843	216.534	30362.5	0.056797	0.114572	1889.93	81954.1
1203	2.000000	1.170156	7.37681e+06	-55439.1	1105.82	-29741.4	0.000000	0.000000	7.181033	275.733	NaN	0.000000	0.001612	0.001690	28.0803	61.3391	0.001841	33310.8	2.712774	176.072	274.503	1.169731	0.072156	0.071730	275.733	33310.8	0.065948	0.147995	1863.12	79110.5
1203	2.000000	1.177620	7.37681e+06	-55439.1	1105.82	-29741.4	0.000000	0.000000	7.190315	319.928	NaN	0.000000	0.001588	0.001677	28.0802	66.7774	0.001736	38473.2	7.036028	-9.671927	318.198	1.177309	0.079620	0.079309	319.928	38473.2	0.073383	0.178120	1796.13	83286.5