File: remote_trans/data/nanoindenter/0828-1/data/Data_2025-08-06,11h17m57s/2025-07-22_16-23-58_1_401.txt
2025-07-22, 16:23:58, 1
Index	Phase	Displacement	Time	Pos X	Pos Y	Pos Z	Rot A	Rot B	Piezo Z	Force A	Force B	Gripper	Voltage A	Voltage B	Temperature	Amplitude force	Amplitude pos	Stiffness	Phase shift	Phase excitation	Force A raw	Displacement raw	HMax	HMax raw	Real Force	Real Stiffness	Contact Depth	Area	Hardness	Reduced Mod.
[#]	[#]	[um]	[s]	[um]	[um]	[um]	[m°]	[m°]	[um]	[uN]	[uN]	[V]	[V]	[V]	[°C]	[uN]	[um]	[N/m]	[°]	[°]	[uN]	[um]	[um]	[um]	[uN]	[N/m]	[um]	[um^2]	[MPa]	[MPa]
401	1.000000	0.003066	7.36898e+06	-57039.1	1005.82	-29737.6	0.000000	0.000000	6.002823	0.016378	NaN	0.000000	0.001699	0.001704	28.0822	0.031931	0.000960	33.2636	-36.7391	-168.865	0.067410	0.001780	-1.161039	-1.162325	0.016378	33.2636	-1.161408	-3.339944E+15	-4.903673E-18	NaN
401	1.000000	0.046969	7.36898e+06	-57039.1	1005.82	-29737.6	0.000000	0.000000	6.046728	0.046464	NaN	0.000000	0.001656	0.001728	28.082	0.083455	0.001947	42.8593	-49.2445	-163.969	-0.021239	0.045642	-1.117135	-1.118463	0.046464	42.8593	-1.117948	-8.728584E+14	-5.323190E-17	NaN
401	1.000000	0.091003	7.36898e+06	-57039.1	1005.82	-29737.6	0.000000	0.000000	6.090758	-0.058320	NaN	0.000000	0.001690	0.001702	28.0808	0.101359	0.002036	49.781	-160.299	-166.169	-0.076136	0.089651	-1.073101	-1.074454	-0.058320	49.781	-1.072222	-2.123458E+14	2.746475E-16	NaN
401	1.000000	0.135041	7.36898e+06	-57039.1	1005.82	-29737.6	0.000000	0.000000	6.134798	-0.002806	NaN	0.000000	0.001659	0.001721	28.081	0.158877	0.001936	82.0782	68.617	-165.829	0.086382	0.133749	-1.029063	-1.030355	-0.002806	82.0782	-1.029038	-5.578724E+13	5.030563E-17	NaN
401	1.000000	0.179048	7.36898e+06	-57039.1	1005.82	-29737.6	0.000000	0.000000	6.178806	0.006976	NaN	0.000000	0.001661	0.001762	28.0813	0.086639	0.001928	44.9386	-141.397	-164.26	0.001557	0.177729	-0.985056	-0.986375	0.006976	44.9386	-0.985172	-1.432470E+13	-4.869985E-16	NaN
401	1.000000	0.223042	7.36898e+06	-57039.1	1005.82	-29737.6	0.000000	0.000000	6.222801	0.043674	NaN	0.000000	0.001632	0.001776	28.0822	0.084876	0.001870	45.3826	-140.364	-162.407	0.144448	0.221744	-0.941062	-0.942360	0.043674	45.3826	-0.941784	-3.725644E+12	-1.172250E-14	NaN
401	1.000000	0.267055	7.36898e+06	-57039.1	1005.82	-29737.6	0.000000	0.000000	6.266811	-0.030233	NaN	0.000000	0.001732	0.001753	28.0821	0.105634	0.001957	53.9706	-158.027	-163.968	-0.000993	0.265806	-0.897049	-0.898298	-0.030233	53.9706	-0.896629	-9.151900E+11	3.303484E-14	NaN
401	1.000000	0.311097	7.36898e+06	-57039.1	1005.82	-29737.6	0.000000	0.000000	6.310851	-0.084790	NaN	0.000000	0.001724	0.001749	28.0822	0.168240	0.001911	88.0413	115.087	-163.358	-0.032375	0.309782	-0.853007	-0.854322	-0.084790	88.0413	-0.852285	-2.299717E+11	3.686960E-13	NaN
401	1.000000	0.355100	7.36898e+06	-57039.1	1005.82	-29737.6	0.000000	0.000000	6.354857	-0.006211	NaN	0.000000	0.001704	0.001729	28.0813	0.116491	0.002012	57.8884	3.276502	-161.793	-0.010678	0.353831	-0.809004	-0.810273	-0.006211	57.8884	-0.808924	-5.942477E+10	1.045133E-13	NaN
401	1.000000	0.399130	7.36898e+06	-57039.1	1005.82	-29737.6	0.000000	0.000000	6.398885	-0.063663	NaN	0.000000	0.001649	0.001764	28.0808	0.021699	0.001938	11.1948	34.202	-162.559	0.008297	0.397808	-0.764974	-0.766296	-0.063663	11.1948	-0.760709	-1.315062E+10	4.841068E-12	NaN
401	1.000000	0.443151	7.36898e+06	-57039.1	1005.82	-29737.6	0.000000	0.000000	6.442907	-0.018152	NaN	0.000000	0.001647	0.001737	28.0812	0.083186	0.002003	41.5214	-176.454	-163.321	-0.032063	0.441816	-0.720953	-0.722288	-0.018152	41.5214	-0.720625	-3.741097E+9	4.852025E-12	NaN
401	1.000000	0.487176	7.36898e+06	-57039.1	1005.82	-29737.6	0.000000	0.000000	6.486933	-0.008809	NaN	0.000000	0.001662	0.001735	28.0819	0.076656	0.001982	38.6693	-162.856	-166.062	0.061149	0.485874	-0.676928	-0.678230	-0.008809	38.6693	-0.676757	-9.415683E+8	9.355855E-12	NaN
401	1.000000	0.531184	7.36898e+06	-57039.1	1005.82	-29737.6	0.000000	0.000000	6.530939	-0.053863	NaN	0.000000	0.001666	0.001778	28.0826	0.073804	0.002074	35.5918	-95.946	-166.158	-0.015296	0.529890	-0.632920	-0.634214	-0.053863	35.5918	-0.631785	-2.277899E+8	2.364598E-10	NaN
401	1.000000	0.575204	7.36898e+06	-57039.1	1005.82	-29737.6	0.000000	0.000000	6.574960	-0.031313	NaN	0.000000	0.001637	0.001773	28.0823	0.058547	0.001985	29.4989	166.974	-162.883	0.020390	0.573912	-0.588900	-0.590192	-0.031313	29.4989	-0.588104	-5.708491E+7	5.485338E-10	NaN
401	1.000000	0.619185	7.36899e+06	-57039.1	1005.82	-29737.6	0.000000	0.000000	6.618939	-0.063497	NaN	0.000000	0.001601	0.001712	28.0823	0.075225	0.001930	38.9677	45.944	-163.037	0.006864	0.617983	-0.544919	-0.546121	-0.063497	38.9677	-0.543697	-1.388741E+7	4.572280E-9	NaN
401	1.000000	0.663264	7.36899e+06	-57039.1	1005.82	-29737.6	0.000000	0.000000	6.663023	0.049818	NaN	0.000000	0.001656	0.001755	28.0811	0.106778	0.001843	57.9297	93.1799	-165.506	-0.036564	0.661935	-0.500840	-0.502169	0.049818	57.9297	-0.501485	-3.59527e+06	-1.385666E-8	NaN
401	1.000000	0.707250	7.36899e+06	-57039.1	1005.82	-29737.6	0.000000	0.000000	6.707004	-0.063196	NaN	0.000000	0.001636	0.001767	28.0814	0.087108	0.001979	44.0099	-104.114	-168.388	-0.046516	0.705949	-0.456854	-0.458155	-0.063196	44.0099	-0.455778	-823482	7.674239E-8	NaN
401	1.000000	0.751293	7.36899e+06	-57039.1	1005.82	-29737.6	0.000000	0.000000	6.751050	-0.006105	NaN	0.000000	0.001641	0.001756	28.0811	0.053089	0.001983	26.7775	152.484	-163.838	-0.042171	0.750020	-0.412811	-0.414084	-0.006105	26.7775	-0.412640	-202269	3.018482E-8	NaN
401	1.000000	0.795318	7.36899e+06	-57039.1	1005.82	-29737.6	0.000000	0.000000	6.795073	-0.045774	NaN	0.000000	0.001675	0.001728	28.0825	0.074070	0.002052	36.0929	-100.11	-164.218	-0.054577	0.794011	-0.368786	-0.370093	-0.045774	36.0929	-0.367835	-46231.4	9.901106E-7	NaN
401	1.000000	0.839320	7.36899e+06	-57039.1	1005.82	-29737.6	0.000000	0.000000	6.839077	-0.015399	NaN	0.000000	0.001624	0.001680	28.0821	0.105915	0.001951	54.2945	45.6826	-162.371	-0.008524	0.838040	-0.324784	-0.326065	-0.015399	54.2945	-0.324571	-10860.3	1.417884E-6	NaN
401	1.000000	0.883341	7.36899e+06	-57039.1	1005.82	-29737.6	0.000000	0.000000	6.883098	-0.011163	NaN	0.000000	0.001623	0.001735	28.0824	0.068683	0.002164	31.7367	144.561	-164.536	-0.020256	0.882048	-0.280763	-0.282056	-0.011163	31.7367	-0.280499	-2401.59	4.648055E-6	NaN
401	1.000000	0.927364	7.36899e+06	-57039.1	1005.82	-29737.6	0.000000	0.000000	6.927120	-0.023597	NaN	0.000000	0.001642	0.001710	28.0813	0.042486	0.001968	21.5847	140.397	-162.918	-0.002539	0.926010	-0.236741	-0.238094	-0.023597	21.5847	-0.235921	-496.248	4.755020E-5	NaN
401	1.000000	0.971363	7.36899e+06	-57039.1	1005.82	-29737.6	0.000000	0.000000	6.971119	-0.014496	NaN	0.000000	0.001705	0.001728	28.0809	0.048544	0.001959	24.7807	135.63	-165.159	-0.081531	0.970028	-0.192742	-0.194076	-0.014496	24.7807	-0.192303	-98.2703	0.000148	NaN
401	1.000000	1.015388	7.36899e+06	-57039.1	1005.82	-29737.6	0.000000	0.000000	7.015147	0.038919	NaN	0.000000	0.001668	0.001738	28.081	0.019051	0.002034	9.365140	-106.561	-162.739	-0.020816	1.014087	-0.148716	-0.150018	0.038919	9.365140	-0.151833	-19.559	-0.001990	NaN
401	1.000000	1.059379	7.36899e+06	-57039.1	1005.82	-29737.6	0.000000	0.000000	7.059136	-0.003103	NaN	0.000000	0.001692	0.001750	28.0824	0.069146	0.001981	34.8974	-150.671	-163.883	-0.044785	1.058118	-0.104725	-0.105986	-0.003103	34.8974	-0.104658	-2.310912	0.001343	NaN
401	1.000000	1.103412	7.36899e+06	-57039.1	1005.82	-29737.6	0.000000	0.000000	7.103168	-0.026341	NaN	0.000000	0.001728	0.001741	28.0822	0.137553	0.001940	70.9082	-179.743	-165.782	-0.025547	1.102102	-0.060692	-0.062002	-0.026341	70.9082	-0.060413	-0.185073	0.142325	NaN
401	1.000000	1.147460	7.36899e+06	-57039.1	1005.82	-29737.6	0.000000	0.000000	7.147218	0.023184	NaN	0.000000	0.001726	0.001754	28.0823	0.066483	0.002027	32.7998	-106.713	-163.785	0.012032	1.146181	-0.016644	-0.017924	0.023184	32.7998	-0.017175	-0.010622	-2.182592	NaN
401	2.000000	1.177054	7.36899e+06	-57039.1	1005.82	-29737.6	0.000000	0.000000	7.177409	14.5534	NaN	0.000000	0.001725	0.001742	28.0811	12.3379	0.001632	7560.32	8.158785	-174.854	14.0145	1.176786	0.012949	0.012681	14.5534	7560.32	0.011506	0.010903	1334.78	66150.8
401	2.000000	1.187999	7.36899e+06	-57039.1	1005.82	-29737.6	0.000000	0.000000	7.189526	43.0234	NaN	0.000000	0.001708	0.001766	28.0811	24.2267	0.001717	14112.1	6.453271	-179.34	41.9995	1.187624	0.023895	0.023520	43.0234	14112.1	0.021608	0.025133	1711.85	81328.8
401	2.000000	1.198903	7.36899e+06	-57039.1	1005.82	-29737.6	0.000000	0.000000	7.202571	95.0536	NaN	0.000000	0.001680	0.001756	28.0811	35.5027	0.001778	19967.4	3.770249	-179.542	90.3379	1.198656	0.034799	0.034552	95.0536	19967.4	0.031229	0.043329	2193.79	87641
401	2.000000	1.209982	7.36899e+06	-57039.1	1005.82	-29737.6	0.000000	0.000000	7.215333	135.952	NaN	0.000000	0.001707	0.001754	28.0821	47.0273	0.001902	24725.8	8.275517	174.198	136.103	1.209759	0.045878	0.045655	135.952	24725.8	0.041754	0.068641	1980.62	86224.8
401	2.000000	1.220908	7.36899e+06	-57039.1	1005.82	-29737.6	0.000000	0.000000	7.228330	186.304	NaN	0.000000	0.001814	0.001698	28.0822	55.5433	0.001870	29695.6	9.085501	172.601	184.139	1.220477	0.056804	0.056373	186.304	29695.6	0.052099	0.099010	1881.67	86223.7
401	2.000000	1.231806	7.36899e+06	-57039.1	1005.82	-29737.6	0.000000	0.000000	7.241619	244.411	NaN	0.000000	0.001793	0.001714	28.0825	63.1159	0.001712	36860.9	2.923913	176.482	237.457	1.231572	0.067702	0.067468	244.411	36860.9	0.062729	0.135775	1800.11	91396.3
401	2.000000	1.242860	7.36899e+06	-57039.1	1005.82	-29737.6	0.000000	0.000000	7.255120	303.883	NaN	0.000000	0.001694	0.001718	28.0816	76.5887	0.001812	42273.6	8.987382	169.133	300.368	1.242649	0.078756	0.078545	303.883	42273.6	0.073365	0.178044	1706.79	91533.3
401	2.000000	1.253909	7.36899e+06	-57039.1	1005.82	-29737.6	0.000000	0.000000	7.269142	376.149	NaN	0.000000	0.001684	0.001659	28.0811	84.7976	0.001707	49664.3	3.950865	173.445	376.408	1.253531	0.089805	0.089426	376.149	49664.3	0.084125	0.226244	1662.59	95395.7
401	2.000000	1.265027	7.36899e+06	-57039.1	1005.82	-29737.6	0.000000	0.000000	7.283168	446.821	NaN	0.000000	0.001676	0.001658	28.0809	95.3598	0.001922	49611.5	5.292418	171.933	452.271	1.264796	0.100923	0.100692	446.821	49611.5	0.094168	0.276068	1618.52	86267.5
401	2.000000	1.270760	7.36899e+06	-57039.1	1005.82	-29737.6	0.000000	0.000000	7.291482	509.576	NaN	0.000000	0.001745	0.001666	28.0813	99.6403	0.001703	58497.5	4.828130	171.274	502.154	1.270423	0.106655	0.106319	509.576	58497.5	0.100122	0.307786	1655.62	96335.4