File: remote_trans/data/nanoindenter/0828-1/data/Data_2025-08-06,11h17m57s/2025-07-22_16-23-58_1_1174.txt
2025-07-22, 16:23:58, 1
Index	Phase	Displacement	Time	Pos X	Pos Y	Pos Z	Rot A	Rot B	Piezo Z	Force A	Force B	Gripper	Voltage A	Voltage B	Temperature	Amplitude force	Amplitude pos	Stiffness	Phase shift	Phase excitation	Force A raw	Displacement raw	HMax	HMax raw	Real Force	Real Stiffness	Contact Depth	Area	Hardness	Reduced Mod.
[#]	[#]	[um]	[s]	[um]	[um]	[um]	[m°]	[m°]	[um]	[uN]	[uN]	[V]	[V]	[V]	[°C]	[uN]	[um]	[N/m]	[°]	[°]	[uN]	[um]	[um]	[um]	[uN]	[N/m]	[um]	[um^2]	[MPa]	[MPa]
1174	1.000000	0.002190	7.37653e+06	-56889.1	1105.82	-29737.8	0.000000	0.000000	6.002808	0.061355	NaN	0.000000	0.001640	0.001694	28.0807	0.129561	0.000950	136.338	-98.5526	-163.026	0.050247	0.000943	-1.025797	-1.027044	0.061355	136.338	-1.026134	-5.098915E+13	-1.203293E-15	NaN
1174	1.000000	0.042148	7.37653e+06	-56889.1	1105.82	-29737.8	0.000000	0.000000	6.042765	0.028595	NaN	0.000000	0.001609	0.001651	28.0805	0.064867	0.001967	32.9725	159.006	-165.197	-0.052245	0.040880	-0.985838	-0.987107	0.028595	32.9725	-0.986489	-1.492166E+13	-1.916331E-15	NaN
1174	1.000000	0.082125	7.37653e+06	-56889.1	1105.82	-29737.8	0.000000	0.000000	6.082739	-0.066034	NaN	0.000000	0.001606	0.001659	28.0805	0.122750	0.002011	61.0375	7.541073	-166.986	0.010674	0.080868	-0.945861	-0.947119	-0.066034	61.0375	-0.945050	-4.123410E+12	1.601443E-14	NaN
1174	1.000000	0.122161	7.37653e+06	-56889.1	1105.82	-29737.8	0.000000	0.000000	6.122777	0.013466	NaN	0.000000	0.001551	0.001696	28.082	0.097999	0.002003	48.9267	-61.7785	-163.79	-0.005900	0.120869	-0.905826	-0.907117	0.013466	48.9267	-0.906032	-1.226210E+12	-1.098196E-14	NaN
1174	1.000000	0.162151	7.37653e+06	-56889.1	1105.82	-29737.8	0.000000	0.000000	6.162767	0.001911	NaN	0.000000	0.001525	0.001692	28.0823	0.151534	0.001979	76.578	-4.824284	-168.179	0.001910	0.160832	-0.865835	-0.867154	0.001911	76.578	-0.865854	-3.510309E+11	-5.443234E-15	NaN
1174	1.000000	0.202184	7.37653e+06	-56889.1	1105.82	-29737.8	0.000000	0.000000	6.202800	0.006577	NaN	0.000000	0.001534	0.001667	28.0823	0.075825	0.002012	37.6801	102.555	-164.931	-7.490000E-5	0.200863	-0.825803	-0.827123	0.006577	37.6801	-0.825933	-1.010791E+11	-6.506731E-14	NaN
1174	1.000000	0.242189	7.37653e+06	-56889.1	1105.82	-29737.8	0.000000	0.000000	6.242803	-0.024146	NaN	0.000000	0.001548	0.001689	28.0823	0.042923	0.002038	21.058	32.144	-168.842	0.014934	0.240951	-0.785798	-0.787036	-0.024146	21.058	-0.784938	-2.807511E+10	8.600558E-13	NaN
1174	1.000000	0.282222	7.37653e+06	-56889.1	1105.82	-29737.8	0.000000	0.000000	6.282836	-0.031199	NaN	0.000000	0.001567	0.001668	28.0808	0.046574	0.001941	24	133.895	-166.509	-0.031231	0.280933	-0.745765	-0.747054	-0.031199	24	-0.744790	-7.985220E+9	3.907085E-12	NaN
1174	1.000000	0.322235	7.37653e+06	-56889.1	1105.82	-29737.8	0.000000	0.000000	6.322851	0.005095	NaN	0.000000	0.001556	0.001703	28.0813	0.081574	0.001938	42.1003	62.9976	-163.963	-0.029480	0.320940	-0.705751	-0.707046	0.005095	42.1003	-0.705842	-2.351216E+9	-2.166866E-12	NaN
1174	1.000000	0.362242	7.37653e+06	-56889.1	1105.82	-29737.8	0.000000	0.000000	6.362855	-0.049584	NaN	0.000000	0.001502	0.001671	28.0807	0.082308	0.001952	42.1621	-82.9142	-168.252	-0.088994	0.360917	-0.665745	-0.667069	-0.049584	42.1621	-0.664863	-6.472377E+8	7.660796E-11	NaN
1174	1.000000	0.402259	7.37653e+06	-56889.1	1105.82	-29737.8	0.000000	0.000000	6.402873	-0.061276	NaN	0.000000	0.001537	0.001654	28.082	0.181587	0.002008	90.4128	28.5462	-165.164	-0.085877	0.400985	-0.625727	-0.627002	-0.061276	90.4128	-0.625219	-1.850756E+8	3.310876E-10	NaN
1174	1.000000	0.442316	7.37653e+06	-56889.1	1105.82	-29737.8	0.000000	0.000000	6.442930	-0.035332	NaN	0.000000	0.001509	0.001705	28.0822	0.084959	0.002066	41.1232	68.4726	-166.99	0.024154	0.440988	-0.585671	-0.586998	-0.035332	41.1232	-0.585026	-5.176994E+7	6.824773E-10	NaN
1174	1.000000	0.482310	7.37653e+06	-56889.1	1105.82	-29737.8	0.000000	0.000000	6.482925	-0.001001	NaN	0.000000	0.001571	0.001687	28.082	0.036669	0.001990	18.4293	158.264	-167.65	0.025897	0.480966	-0.545677	-0.547020	-0.001001	18.4293	-0.545636	-1.477382E+7	6.777850E-11	NaN
1174	1.000000	0.522335	7.37653e+06	-56889.1	1105.82	-29737.8	0.000000	0.000000	6.522949	-0.049379	NaN	0.000000	0.001534	0.001685	28.0821	0.122015	0.001950	62.5594	16.1603	-169.24	0.024501	0.521030	-0.505651	-0.506957	-0.049379	62.5594	-0.505059	-4.03244e+06	1.224544E-8	NaN
1174	1.000000	0.562357	7.37653e+06	-56889.1	1105.82	-29737.8	0.000000	0.000000	6.562975	0.038252	NaN	0.000000	0.001506	0.001672	28.0806	0.033017	0.002021	16.3372	-158.187	-166.712	0.046987	0.561017	-0.465629	-0.466969	0.038252	16.3372	-0.467385	-1.19874e+06	-3.191056E-8	NaN
1174	1.000000	0.602352	7.37653e+06	-56889.1	1105.82	-29737.8	0.000000	0.000000	6.602968	0.002788	NaN	0.000000	0.001540	0.001711	28.0803	0.090166	0.001909	47.2255	-81.7386	-165.87	-0.032168	0.601013	-0.425635	-0.426974	0.002788	47.2255	-0.425679	-309669	-9.003220E-9	NaN
1174	1.000000	0.642352	7.37653e+06	-56889.1	1105.82	-29737.8	0.000000	0.000000	6.642968	0.015256	NaN	0.000000	0.001572	0.001728	28.0804	0.012201	0.002061	5.921360	-16.6991	-165.444	0.035434	0.641105	-0.385635	-0.386882	0.015256	5.921360	-0.387567	-88787	-1.718294E-7	NaN
1174	1.000000	0.682401	7.37653e+06	-56889.1	1105.82	-29737.8	0.000000	0.000000	6.683016	-0.009033	NaN	0.000000	0.001598	0.001692	28.0821	0.108516	0.002046	53.0298	67.8476	-167.215	-0.027054	0.681109	-0.345586	-0.346877	-0.009033	53.0298	-0.345458	-21928.8	4.119025E-7	NaN
1174	1.000000	0.722405	7.37654e+06	-56889.1	1105.82	-29737.8	0.000000	0.000000	6.723021	0.003256	NaN	0.000000	0.001536	0.001717	28.0822	0.075373	0.001999	37.7107	-152.797	-165.585	-0.024500	0.721093	-0.305582	-0.306893	0.003256	37.7107	-0.305647	-5708.85	-5.702988E-7	NaN
1174	1.000000	0.762405	7.37654e+06	-56889.1	1105.82	-29737.8	0.000000	0.000000	6.763021	0.001638	NaN	0.000000	0.001572	0.001674	28.0823	0.078910	0.002081	37.9172	-75.1352	-166.989	-0.083640	0.761142	-0.265581	-0.266844	0.001638	37.9172	-0.265614	-1428.08	-1.146676E-6	NaN
1174	1.000000	0.802418	7.37654e+06	-56889.1	1105.82	-29737.8	0.000000	0.000000	6.803035	0.021205	NaN	0.000000	0.001631	0.001671	28.082	0.069059	0.002051	33.6663	143.775	-161.034	0.062130	0.801190	-0.225568	-0.226796	0.021205	33.6663	-0.226041	-346.619	-6.117764E-5	NaN
1174	1.000000	0.842442	7.37654e+06	-56889.1	1105.82	-29737.8	0.000000	0.000000	6.843057	-0.002871	NaN	0.000000	0.001579	0.001739	28.0806	0.076268	0.002038	37.4169	-149.587	-167.376	-0.049065	0.841129	-0.185545	-0.186858	-0.002871	37.4169	-0.185487	-75.5679	3.799657E-5	NaN
1174	1.000000	0.882481	7.37654e+06	-56889.1	1105.82	-29737.8	0.000000	0.000000	6.883096	-0.021754	NaN	0.000000	0.001610	0.001730	28.0809	0.050618	0.002042	24.794	6.385392	-168.749	0.064719	0.881136	-0.145505	-0.146850	-0.021754	24.794	-0.144847	-14.5659	0.001493	NaN
1174	1.000000	0.922475	7.37654e+06	-56889.1	1105.82	-29737.8	0.000000	0.000000	6.923090	-0.016837	NaN	0.000000	0.001584	0.001699	28.0808	0.089824	0.001948	46.1018	-131.863	-166.242	-0.061469	0.921138	-0.105511	-0.106848	-0.016837	46.1018	-0.105237	-2.378445	0.007079	NaN
1174	1.000000	0.962519	7.37654e+06	-56889.1	1105.82	-29737.8	0.000000	0.000000	6.963133	-0.065333	NaN	0.000000	0.001583	0.001720	28.0821	0.053053	0.001938	27.3774	85.5685	-166.578	-0.014760	0.961222	-0.065467	-0.066765	-0.065333	27.3774	-0.063677	-0.228935	0.285379	NaN
1174	1.000000	1.002496	7.37654e+06	-56889.1	1105.82	-29737.8	0.000000	0.000000	7.003111	-0.009035	NaN	0.000000	0.001608	0.001689	28.0821	0.009809	0.002005	4.892664	-114.271	-165.976	0.060831	1.001232	-0.025491	-0.026754	-0.009035	4.892664	-0.024106	-0.015991	0.564993	NaN
1174	2.000000	1.036174	7.37654e+06	-56889.1	1105.82	-29737.8	0.000000	0.000000	7.037176	9.399262	NaN	0.000000	0.001633	0.001723	28.0819	9.716259	0.001747	5561.68	9.737219	-174.204	10.437	1.035820	0.008187	0.007834	9.399262	5561.68	0.006920	0.005955	1578.5	65849.9
1174	2.000000	1.046077	7.37654e+06	-56889.1	1105.82	-29737.8	0.000000	0.000000	7.047706	24.6114	NaN	0.000000	0.001633	0.001711	28.0808	20.582	0.001847	11143.9	6.585539	-176.235	25.797	1.045669	0.018091	0.017683	24.6114	11143.9	0.016435	0.017246	1427.04	77528.4
1174	2.000000	1.056055	7.37654e+06	-56889.1	1105.82	-29737.8	0.000000	0.000000	7.058443	43.0656	NaN	0.000000	0.001531	0.001726	28.0809	30.9972	0.001824	16997.6	7.586689	177.47	44.2848	1.055754	0.028069	0.027768	43.0656	16997.6	0.026169	0.033176	1298.09	85260.5
1174	2.000000	1.065967	7.37654e+06	-56889.1	1105.82	-29737.8	0.000000	0.000000	7.069503	70.9709	NaN	0.000000	0.001571	0.001699	28.0811	41.0021	0.001860	22043.8	7.529367	174.982	68.7894	1.065679	0.037981	0.037693	70.9709	22043.8	0.035566	0.053073	1337.24	87423
1174	2.000000	1.075953	7.37654e+06	-56889.1	1105.82	-29737.8	0.000000	0.000000	7.080900	105.288	NaN	0.000000	0.001561	0.001678	28.0809	49.7094	0.001878	26469	2.021749	178.859	103.277	1.075766	0.047966	0.047779	105.288	26469	0.044983	0.077539	1357.88	86846.1
1174	2.000000	1.086064	7.37654e+06	-56889.1	1105.82	-29737.8	0.000000	0.000000	7.092730	147.041	NaN	0.000000	0.001566	0.001684	28.0818	59.7368	0.001775	33661.1	5.695313	173.305	151.455	1.085624	0.058078	0.057637	147.041	33661.1	0.054802	0.107831	1363.62	93654.7
1174	2.000000	1.095947	7.37654e+06	-56889.1	1105.82	-29737.8	0.000000	0.000000	7.104436	191.366	NaN	0.000000	0.001541	0.001712	28.0818	68.9309	0.001908	36120.4	2.102685	176.028	188.73	1.095640	0.067961	0.067654	191.366	36120.4	0.063987	0.140494	1362.1	88043.5
1174	2.000000	1.105915	7.37654e+06	-56889.1	1105.82	-29737.8	0.000000	0.000000	7.116607	244.914	NaN	0.000000	0.001528	0.001699	28.0821	78.7462	0.001766	44592.5	5.637607	170.851	242.081	1.105656	0.077928	0.077669	244.914	44592.5	0.073809	0.179928	1361.18	96047.4
1174	2.000000	1.115916	7.37654e+06	-56889.1	1105.82	-29737.8	0.000000	0.000000	7.129299	310.329	NaN	0.000000	0.001561	0.001717	28.0809	88.8313	0.001803	49255	4.306265	171.693	308.219	1.115557	0.087930	0.087570	310.329	49255	0.083204	0.221909	1398.45	95529.1
1174	2.000000	1.125907	7.37654e+06	-56889.1	1105.82	-29737.8	0.000000	0.000000	7.142572	390.085	NaN	0.000000	0.001569	0.001720	28.0807	97.1959	0.001805	53854.8	6.818134	168.284	386.822	1.125544	0.097921	0.097557	390.085	53854.8	0.092488	0.267414	1458.73	95149.4
1174	2.000000	1.132364	7.37654e+06	-56889.1	1105.82	-29737.8	0.000000	0.000000	7.151136	441.306	NaN	0.000000	0.001519	0.001754	28.0811	102.245	0.001785	57273.6	4.827548	-9.397807	434.552	1.131980	0.104378	0.103993	441.306	57273.6	0.098599	0.299517	1473.39	95613