File: remote_trans/data/nanoindenter/0828-1/data/Data_2025-08-06,11h17m57s/2025-07-22_16-23-58_1_359.txt
2025-07-22, 16:23:58, 1
Index	Phase	Displacement	Time	Pos X	Pos Y	Pos Z	Rot A	Rot B	Piezo Z	Force A	Force B	Gripper	Voltage A	Voltage B	Temperature	Amplitude force	Amplitude pos	Stiffness	Phase shift	Phase excitation	Force A raw	Displacement raw	HMax	HMax raw	Real Force	Real Stiffness	Contact Depth	Area	Hardness	Reduced Mod.
[#]	[#]	[um]	[s]	[um]	[um]	[um]	[m°]	[m°]	[um]	[uN]	[uN]	[V]	[V]	[V]	[°C]	[uN]	[um]	[N/m]	[°]	[°]	[uN]	[um]	[um]	[um]	[uN]	[N/m]	[um]	[um^2]	[MPa]	[MPa]
359	1.000000	0.002744	7.36857e+06	-56589.1	955.819	-29738.9	0.000000	0.000000	6.002778	-0.038935	NaN	0.000000	0.001524	0.001708	28.0807	0.139157	0.000921	151.115	-148.655	-164.129	-0.075530	0.001520	-1.083922	-1.085147	-0.038935	151.115	-1.083729	-3.031112E+14	1.284514E-16	NaN
359	1.000000	0.042711	7.36857e+06	-56589.1	955.818	-29738.9	0.000000	0.000000	6.042746	-0.041181	NaN	0.000000	0.001520	0.001727	28.0809	0.066873	0.002052	32.5917	97.6205	-163.198	-0.004163	0.041346	-1.043955	-1.045320	-0.041181	32.5917	-1.043007	-8.598134E+13	4.789472E-16	NaN
359	1.000000	0.082708	7.36857e+06	-56589.1	955.818	-29738.9	0.000000	0.000000	6.082746	0.051006	NaN	0.000000	0.001542	0.001764	28.0807	0.070814	0.001964	36.0577	147.374	-165.711	-0.043719	0.081451	-1.003958	-1.005216	0.051006	36.0577	-1.005019	-2.650568E+13	-1.924331E-15	NaN
359	1.000000	0.122738	7.36857e+06	-56589.1	955.818	-29738.9	0.000000	0.000000	6.122775	0.024802	NaN	0.000000	0.001525	0.001726	28.0794	0.071949	0.001982	36.302	-2.931672	-165.48	0.070917	0.121509	-0.963928	-0.965158	0.024802	36.302	-0.964440	-7.528827E+12	-3.294215E-15	NaN
359	1.000000	0.162761	7.36857e+06	-56589.1	955.819	-29738.9	0.000000	0.000000	6.162799	0.034578	NaN	0.000000	0.001533	0.001780	28.0794	0.111923	0.002071	54.0407	101.887	-165.183	0.076953	0.161394	-0.923905	-0.925272	0.034578	54.0407	-0.924385	-2.169734E+12	-1.593671E-14	NaN
359	1.000000	0.202760	7.36857e+06	-56589.1	955.818	-29738.9	0.000000	0.000000	6.202797	0.016042	NaN	0.000000	0.001572	0.001730	28.0796	0.053919	0.002056	26.22	-104.195	-166.842	-0.023011	0.201450	-0.883906	-0.885217	0.016042	26.22	-0.884365	-6.247920E+11	-2.567523E-14	NaN
359	1.000000	0.242795	7.36857e+06	-56589.1	955.818	-29738.9	0.000000	0.000000	6.242832	0.048270	NaN	0.000000	0.001557	0.001771	28.08	0.069997	0.002039	34.3268	-143.261	-165.849	0.027138	0.241561	-0.843872	-0.845105	0.048270	34.3268	-0.844926	-1.828211E+11	-2.640263E-13	NaN
359	1.000000	0.282795	7.36857e+06	-56589.1	955.819	-29738.9	0.000000	0.000000	6.282832	0.026121	NaN	0.000000	0.001568	0.001688	28.0813	0.042923	0.002111	20.3304	-145.798	-164.06	0.055682	0.281497	-0.803871	-0.805169	0.026121	20.3304	-0.804835	-5.229821E+10	-4.994602E-13	NaN
359	1.000000	0.322811	7.36857e+06	-56589.1	955.819	-29738.9	0.000000	0.000000	6.322847	-0.014844	NaN	0.000000	0.001535	0.001726	28.0813	0.022618	0.002105	10.7427	164.463	-161.249	-0.019897	0.321599	-0.763855	-0.765067	-0.014844	10.7427	-0.762819	-1.404903E+10	1.056565E-12	NaN
359	1.000000	0.362834	7.36857e+06	-56589.1	955.819	-29738.9	0.000000	0.000000	6.362871	0.020728	NaN	0.000000	0.001538	0.001702	28.0812	0.036634	0.002020	18.1331	48.0816	-164.011	-0.001979	0.361531	-0.723832	-0.725135	0.020728	18.1331	-0.724689	-4.250271E+9	-4.876907E-12	NaN
359	1.000000	0.402847	7.36857e+06	-56589.1	955.819	-29738.9	0.000000	0.000000	6.402881	-0.044150	NaN	0.000000	0.001541	0.001696	28.0799	0.073312	0.001940	37.7851	-114.569	-164.594	-0.014380	0.401553	-0.683820	-0.685114	-0.044150	37.7851	-0.682943	-1.144076E+9	3.858978E-11	NaN
359	1.000000	0.442898	7.36857e+06	-56589.1	955.818	-29738.9	0.000000	0.000000	6.442933	-0.008835	NaN	0.000000	0.001534	0.001681	28.08	0.071488	0.001923	37.1779	-113.515	-161.653	0.012719	0.441611	-0.643769	-0.645055	-0.008835	37.1779	-0.643590	-3.307837E+8	2.671023E-11	NaN
359	1.000000	0.482891	7.36857e+06	-56589.1	955.818	-29738.9	0.000000	0.000000	6.482926	-0.021401	NaN	0.000000	0.001564	0.001690	28.0801	0.071618	0.002069	34.6083	6.381588	-164.196	-0.019328	0.481591	-0.603775	-0.605075	-0.021401	34.6083	-0.603311	-9.248158E+7	2.314085E-10	NaN
359	1.000000	0.522894	7.36857e+06	-56589.1	955.818	-29738.9	0.000000	0.000000	6.522926	-0.096365	NaN	0.000000	0.001545	0.001706	28.0813	0.074739	0.002009	37.2025	78.5487	-169.06	0.026106	0.521617	-0.563772	-0.565049	-0.096365	37.2025	-0.561829	-2.475609E+7	3.892591E-9	NaN
359	1.000000	0.562947	7.36857e+06	-56589.1	955.819	-29738.9	0.000000	0.000000	6.562985	0.047767	NaN	0.000000	0.001568	0.001683	28.0813	0.118980	0.001960	60.7142	73.532	-165.025	0.126836	0.561581	-0.523719	-0.525086	0.047767	60.7142	-0.524309	-7.47324e+06	-6.391701E-9	NaN
359	1.000000	0.602945	7.36857e+06	-56589.1	955.818	-29738.9	0.000000	0.000000	6.602979	-0.043147	NaN	0.000000	0.001555	0.001640	28.0817	0.069425	0.002084	33.3172	-36.967	-166.232	0.082118	0.601655	-0.483722	-0.485012	-0.043147	33.3172	-0.482751	-1.96799e+06	2.192461E-8	NaN
359	1.000000	0.642959	7.36857e+06	-56589.1	955.818	-29738.9	0.000000	0.000000	6.642994	-0.020829	NaN	0.000000	0.001516	0.001687	28.0814	0.022361	0.002126	10.516	109.119	-165.904	-0.057535	0.641627	-0.443707	-0.445040	-0.020829	10.516	-0.442222	-530537	3.925960E-8	NaN
359	1.000000	0.682993	7.36857e+06	-56589.1	955.819	-29738.9	0.000000	0.000000	6.683027	-0.039028	NaN	0.000000	0.001574	0.001681	28.0799	0.047491	0.001856	25.5816	147.443	-162.664	0.004422	0.681688	-0.403673	-0.404979	-0.039028	25.5816	-0.402529	-145227	2.687373E-7	NaN
359	1.000000	0.722970	7.36857e+06	-56589.1	955.819	-29738.9	0.000000	0.000000	6.723001	-0.114063	NaN	0.000000	0.001582	0.001683	28.0798	0.082107	0.001975	41.5748	-133.257	-164.386	-0.154565	0.721671	-0.363696	-0.364995	-0.114063	41.5748	-0.361638	-37629	3.031257E-6	NaN
359	1.000000	0.762997	7.36857e+06	-56589.1	955.818	-29738.9	0.000000	0.000000	6.763032	-0.027941	NaN	0.000000	0.001600	0.001664	28.08	0.040563	0.001910	21.2362	152.635	-163.515	-0.003798	0.761698	-0.323669	-0.324968	-0.027941	21.2362	-0.322682	-10188	2.742532E-6	NaN
359	1.000000	0.803019	7.36858e+06	-56589.1	955.819	-29738.9	0.000000	0.000000	6.803056	0.043394	NaN	0.000000	0.001603	0.001683	28.081	0.074287	0.001968	37.7465	-162.589	-162.123	0.065489	0.801732	-0.283648	-0.284934	0.043394	37.7465	-0.284510	-2759.93	-1.572289E-5	NaN
359	1.000000	0.843043	7.36858e+06	-56589.1	955.819	-29738.9	0.000000	0.000000	6.843080	0.021329	NaN	0.000000	0.001578	0.001700	28.081	0.069533	0.001937	35.8885	-20.996	-170.095	0.073427	0.841743	-0.243624	-0.244923	0.021329	35.8885	-0.244069	-665.244	-3.206225E-5	NaN
359	1.000000	0.883095	7.36858e+06	-56589.1	955.819	-29738.9	0.000000	0.000000	6.883132	0.034226	NaN	0.000000	0.001578	0.001705	28.0813	0.068476	0.001968	34.801	-115.683	-164.749	0.031849	0.881730	-0.203572	-0.204936	0.034226	34.801	-0.204309	-154.983	-0.000221	NaN
359	1.000000	0.923052	7.36858e+06	-56589.1	955.818	-29738.9	0.000000	0.000000	6.923087	-0.002546	NaN	0.000000	0.001535	0.001704	28.0813	0.065783	0.002049	32.102	-96.1762	-160.93	0.015538	0.921778	-0.163615	-0.164888	-0.002546	32.102	-0.163555	-31.6878	8.034586E-5	NaN
359	1.000000	0.963110	7.36858e+06	-56589.1	955.818	-29738.9	0.000000	0.000000	6.963144	-0.032828	NaN	0.000000	0.001525	0.001702	28.0802	0.118540	0.002025	58.5259	155.025	-164.225	0.007256	0.961820	-0.123556	-0.124846	-0.032828	58.5259	-0.123136	-5.584337	0.005879	NaN
359	1.000000	1.003095	7.36858e+06	-56589.1	955.82	-29738.9	0.000000	0.000000	7.003130	-0.021267	NaN	0.000000	0.001510	0.001693	28.0801	0.045520	0.001869	24.3567	-141.648	-164.999	-0.027496	1.001741	-0.083572	-0.084926	-0.021267	24.3567	-0.082917	-0.731009	0.029093	NaN
359	1.000000	1.043106	7.36858e+06	-56589.1	955.82	-29738.9	0.000000	0.000000	7.043142	0.017226	NaN	0.000000	0.001560	0.001679	28.0802	0.084484	0.002012	41.9953	14.225	-164.041	-0.030694	1.041811	-0.043561	-0.044856	0.017226	41.9953	-0.043868	-0.059344	-0.290275	NaN
359	2.000000	1.077667	7.36858e+06	-56589.1	955.819	-29738.9	0.000000	0.000000	7.078168	11.3223	NaN	0.000000	0.001544	0.001663	28.0816	10.4257	0.001751	5954.78	8.260671	-173.942	10.757	1.077406	-0.009000	-0.009260	11.3223	5954.78	-0.010426	-0.006631	-1707.57	NaN
359	2.000000	1.087551	7.36858e+06	-56589.1	955.82	-29738.9	0.000000	0.000000	7.090058	60.085	NaN	0.000000	0.001478	0.001702	28.0814	21.712	0.001653	13137	1.511513	-174.393	57.1971	1.087219	0.000884	0.000553	60.085	13137	-0.002546	-0.001814	-33117.5	NaN
359	2.000000	1.097506	7.36858e+06	-56589.1	955.82	-29738.9	0.000000	0.000000	7.102319	116.108	NaN	0.000000	0.001482	0.001704	28.0818	30.8986	0.001862	16592.5	1.310641	-176.024	111.872	1.097201	0.010840	0.010534	116.108	16592.5	0.005592	0.004680	24810.8	221603
359	2.000000	1.107468	7.36858e+06	-56589.1	955.82	-29738.9	0.000000	0.000000	7.114512	170.323	NaN	0.000000	0.001547	0.001663	28.0809	39.1681	0.001868	20963.1	3.383836	-179.771	166.557	1.107175	0.020802	0.020509	170.323	20963.1	0.014708	0.014898	11432.3	156913
359	2.000000	1.117501	7.36858e+06	-56589.1	955.82	-29738.9	0.000000	0.000000	7.127284	236.915	NaN	0.000000	0.001556	0.001665	28.0803	46.1105	0.001857	24824.3	5.401680	176.468	234.27	1.117251	0.030835	0.030584	236.915	24824.3	0.023677	0.028653	8268.32	133987
359	2.000000	1.127452	7.36858e+06	-56589.1	955.82	-29738.9	0.000000	0.000000	7.140019	304.581	NaN	0.000000	0.001576	0.001693	28.0802	53.7018	0.001816	29569.2	2.442226	178.501	300.351	1.127203	0.040786	0.040537	304.581	29569.2	0.033061	0.047326	6435.77	124183
359	2.000000	1.137508	7.36858e+06	-56589.1	955.82	-29738.9	0.000000	0.000000	7.153452	386.657	NaN	0.000000	0.001578	0.001713	28.0801	64.7504	0.001869	34650.3	7.166901	172.506	384.024	1.137190	0.050842	0.050524	386.657	34650.3	0.042473	0.070574	5478.72	119167
359	2.000000	1.147508	7.36858e+06	-56589.1	955.821	-29738.9	0.000000	0.000000	7.166403	458.401	NaN	0.000000	0.001560	0.001744	28.0811	71.9609	0.001748	41172.2	2.496755	175.506	456.097	1.147364	0.060841	0.060698	458.401	41172.2	0.052491	0.100268	4571.74	118794
359	2.000000	1.157497	7.36858e+06	-56589.1	955.82	-29738.9	0.000000	0.000000	7.181077	572.287	NaN	0.000000	0.001554	0.001680	28.0813	81.6622	0.001921	42500.1	7.831357	170.807	572.641	1.157074	0.070830	0.070408	572.287	42500.1	0.060731	0.128443	4455.58	108345
359	2.000000	1.167735	7.36858e+06	-56589.1	955.821	-29738.9	0.000000	0.000000	7.194860	658.428	NaN	0.000000	0.001529	0.001752	28.0814	90.5992	0.001976	45851.1	10.7616	169.371	669.897	1.167104	0.081068	0.080437	658.428	45851.1	0.070298	0.165303	3983.15	103034
359	2.000000	1.174378	7.36858e+06	-56589.1	955.82	-29738.9	0.000000	0.000000	7.204503	731.354	NaN	0.000000	0.001573	0.001776	28.0827	94.2491	0.001697	55522.8	3.095952	173.304	725.318	1.174038	0.087712	0.087372	731.354	55522.8	0.077833	0.197401	3704.91	114175