File: remote_trans/data/nanoindenter/0828-1/data/Data_2025-08-06,11h17m57s/2025-07-22_16-23-58_1_742.txt
2025-07-22, 16:23:58, 1
Index	Phase	Displacement	Time	Pos X	Pos Y	Pos Z	Rot A	Rot B	Piezo Z	Force A	Force B	Gripper	Voltage A	Voltage B	Temperature	Amplitude force	Amplitude pos	Stiffness	Phase shift	Phase excitation	Force A raw	Displacement raw	HMax	HMax raw	Real Force	Real Stiffness	Contact Depth	Area	Hardness	Reduced Mod.
[#]	[#]	[um]	[s]	[um]	[um]	[um]	[m°]	[m°]	[um]	[uN]	[uN]	[V]	[V]	[V]	[°C]	[uN]	[um]	[N/m]	[°]	[°]	[uN]	[um]	[um]	[um]	[uN]	[N/m]	[um]	[um^2]	[MPa]	[MPa]
742	1.000000	0.002982	7.37231e+06	-39989.1	1005.82	-29791.7	0.000000	0.000000	6.002818	0.014393	NaN	0.000000	0.001604	0.001729	28.0823	0.100548	0.000956	105.138	119.344	-172.202	-0.034297	0.001734	-1.114713	-1.115960	0.014393	105.138	-1.114815	-7.923321E+14	-1.816532E-17	NaN
742	1.000000	0.044875	7.37231e+06	-39989.1	1005.82	-29791.7	0.000000	0.000000	6.044711	0.030255	NaN	0.000000	0.001622	0.001689	28.0815	0.100735	0.001972	51.0927	-173.799	8.823610	-0.020329	0.043546	-1.072820	-1.074149	0.030255	51.0927	-1.073264	-2.193021E+14	-1.379600E-16	NaN
742	1.000000	0.086898	7.37231e+06	-39989.1	1005.82	-29791.7	0.000000	0.000000	6.086737	0.088392	NaN	0.000000	0.001601	0.001706	28.0835	0.038907	0.002008	19.3795	104.12	-166.759	0.066678	0.085566	-1.030797	-1.032129	0.088392	19.3795	-1.034218	-6.549478E+13	-1.349609E-15	NaN
742	1.000000	0.128941	7.37231e+06	-39989.1	1005.82	-29791.7	0.000000	0.000000	6.128775	-0.024342	NaN	0.000000	0.001676	0.001702	28.0832	0.026125	0.001927	13.5563	8.133055	13.7962	0.033192	0.127586	-0.988754	-0.990109	-0.024342	13.5563	-0.987407	-1.535283E+13	1.585477E-15	NaN
742	1.000000	0.170977	7.37231e+06	-39989.1	1005.82	-29791.7	0.000000	0.000000	6.170812	4.645101E-5	NaN	0.000000	0.001644	0.001727	28.0835	0.010785	0.002008	5.370301	47.7724	-164.474	0.059399	0.169682	-0.946718	-0.948013	4.645101E-5	5.370301	-0.946725	-4.343637E+12	-1.069403E-17	NaN
742	1.000000	0.212973	7.37231e+06	-39989.1	1005.82	-29791.7	0.000000	0.000000	6.212806	-0.043716	NaN	0.000000	0.001647	0.001713	28.0823	0.037416	0.001998	18.7222	-116.255	16.0638	0.001322	0.211603	-0.904722	-0.906092	-0.043716	18.7222	-0.902970	-1.114812E+12	3.921419E-14	NaN
742	1.000000	0.254997	7.37231e+06	-39989.1	1005.82	-29791.7	0.000000	0.000000	6.254833	0.010817	NaN	0.000000	0.001562	0.001727	28.0823	0.078381	0.002021	38.7793	169.202	-166.316	-0.044439	0.253703	-0.862698	-0.863992	0.010817	38.7793	-0.862907	-3.202311E+11	-3.377904E-14	NaN
742	1.000000	0.297029	7.37231e+06	-39989.1	1005.82	-29791.7	0.000000	0.000000	6.296864	-0.015472	NaN	0.000000	0.001588	0.001714	28.0822	0.097129	0.001943	49.9851	-161.295	15.6937	-0.052280	0.295683	-0.820666	-0.822012	-0.015472	49.9851	-0.820434	-8.513149E+10	1.817473E-13	NaN
742	1.000000	0.339012	7.37231e+06	-39989.1	1005.82	-29791.7	0.000000	0.000000	6.338845	-0.043543	NaN	0.000000	0.001608	0.001724	28.082	0.064662	0.001916	33.7512	16.3838	-166.354	-0.034923	0.337700	-0.778683	-0.779994	-0.043543	33.7512	-0.777715	-2.239666E+10	1.944170E-12	NaN
742	1.000000	0.381060	7.37231e+06	-39989.1	1005.82	-29791.7	0.000000	0.000000	6.380895	-0.014762	NaN	0.000000	0.001648	0.001696	28.0834	0.061027	0.001988	30.6938	-173.456	15.2394	0.063235	0.379662	-0.736634	-0.738033	-0.014762	30.6938	-0.736274	-6.113587E+9	2.414680E-12	NaN
742	1.000000	0.423058	7.37231e+06	-39989.1	1005.82	-29791.7	0.000000	0.000000	6.422894	-0.002312	NaN	0.000000	0.001659	0.001687	28.0838	0.073108	0.001941	37.6618	51.8512	-168.663	0.049578	0.421752	-0.694636	-0.695943	-0.002312	37.6618	-0.694590	-1.650594E+9	1.400527E-12	NaN
742	1.000000	0.465070	7.37231e+06	-39989.1	1005.82	-29791.7	0.000000	0.000000	6.464904	-0.018201	NaN	0.000000	0.001643	0.001728	28.0839	0.033253	0.001910	17.4069	-15.0973	8.586322	-0.060450	0.463734	-0.652625	-0.653961	-0.018201	17.4069	-0.651841	-4.292101E+8	4.240505E-11	NaN
742	1.000000	0.507093	7.37231e+06	-39989.1	1005.82	-29791.7	0.000000	0.000000	6.506929	0.022042	NaN	0.000000	0.001620	0.001723	28.0824	0.085015	0.002033	41.8087	-59.1645	-166.475	0.002150	0.505823	-0.610602	-0.611872	0.022042	41.8087	-0.610997	-1.179866E+8	-1.868151E-10	NaN
742	1.000000	0.549120	7.37231e+06	-39989.1	1005.82	-29791.7	0.000000	0.000000	6.548953	-0.030009	NaN	0.000000	0.001580	0.001690	28.0823	0.059694	0.002056	29.0389	95.7671	11.95	-0.105760	0.547763	-0.568575	-0.569932	-0.030009	29.0389	-0.567800	-2.993870E+7	1.002356E-9	NaN
742	1.000000	0.591133	7.37231e+06	-39989.1	1005.82	-29791.7	0.000000	0.000000	6.590968	-0.003644	NaN	0.000000	0.001619	0.001709	28.0823	0.048250	0.001822	26.4853	154.198	-161.529	-0.079987	0.589840	-0.526561	-0.527854	-0.003644	26.4853	-0.526458	-8.00524e+06	4.551996E-10	NaN
742	1.000000	0.633149	7.37231e+06	-39989.1	1005.82	-29791.7	0.000000	0.000000	6.632982	-0.056464	NaN	0.000000	0.001620	0.001721	28.0835	0.057839	0.001999	28.93	-136.525	15.7588	0.005475	0.631799	-0.484545	-0.485896	-0.056464	28.93	-0.483082	-1.98909e+06	2.838681E-8	NaN
742	1.000000	0.675176	7.37231e+06	-39989.1	1005.82	-29791.7	0.000000	0.000000	6.675010	-0.045558	NaN	0.000000	0.001580	0.001740	28.0836	0.065592	0.002043	32.1105	-164.255	-167.388	-0.040089	0.673849	-0.442519	-0.443846	-0.045558	32.1105	-0.441454	-517473	8.803951E-8	NaN
742	1.000000	0.717205	7.37232e+06	-39989.1	1005.82	-29791.7	0.000000	0.000000	6.717038	-0.050617	NaN	0.000000	0.001606	0.001702	28.0834	0.078815	0.002069	38.0978	154.903	17.1719	-0.011198	0.715824	-0.400490	-0.401871	-0.050617	38.0978	-0.399494	-131453	3.850567E-7	NaN
742	1.000000	0.759204	7.37232e+06	-39989.1	1005.82	-29791.7	0.000000	0.000000	6.759038	-0.023068	NaN	0.000000	0.001555	0.001697	28.0822	0.086380	0.002052	42.0994	-162.523	-167.4	-0.084760	0.757937	-0.358491	-0.359758	-0.023068	42.0994	-0.358080	-33425.9	6.901260E-7	NaN
742	1.000000	0.801210	7.37232e+06	-39989.1	1005.82	-29791.7	0.000000	0.000000	6.801046	0.027030	NaN	0.000000	0.001594	0.001723	28.0824	0.042198	0.001942	21.729	-169.226	13.5466	0.015247	0.799883	-0.316485	-0.317812	0.027030	21.729	-0.317418	-8523.23	-3.171350E-6	NaN
742	1.000000	0.843237	7.37232e+06	-39989.1	1005.82	-29791.7	0.000000	0.000000	6.843072	-0.010733	NaN	0.000000	0.001565	0.001722	28.0824	0.176792	0.002033	86.9586	44.9203	-168.229	-0.082002	0.841963	-0.274457	-0.275731	-0.010733	86.9586	-0.274365	-1939.9	5.532819E-6	NaN
742	1.000000	0.885273	7.37232e+06	-39989.1	1005.82	-29791.7	0.000000	0.000000	6.885109	0.012703	NaN	0.000000	0.001607	0.001706	28.0826	0.130408	0.001998	65.2765	-153.043	13.3188	-0.054025	0.883915	-0.232422	-0.233780	0.012703	65.2765	-0.232568	-439.546	-2.889947E-5	NaN
742	1.000000	0.927273	7.37232e+06	-39989.1	1005.82	-29791.7	0.000000	0.000000	6.927107	-0.026905	NaN	0.000000	0.001536	0.001712	28.0837	0.077407	0.001896	40.8313	155.853	-168.871	-0.032071	0.925957	-0.190422	-0.191738	-0.026905	40.8313	-0.189928	-89.7069	0.000300	NaN
742	1.000000	0.969298	7.37232e+06	-39989.1	1005.82	-29791.7	0.000000	0.000000	6.969133	0.002031	NaN	0.000000	0.001588	0.001724	28.0835	0.028255	0.001966	14.3683	111.276	11.2284	0.006713	0.967960	-0.148397	-0.149735	0.002031	14.3683	-0.148503	-17.0079	-0.000119	NaN
742	1.000000	1.011331	7.37232e+06	-39989.1	1005.82	-29791.7	0.000000	0.000000	7.011168	0.040585	NaN	0.000000	0.001651	0.001698	28.0838	0.063323	0.001949	32.4958	153.926	-168.73	0.026628	1.009994	-0.106364	-0.107701	0.040585	32.4958	-0.107300	-2.633790	-0.015409	NaN
742	1.000000	1.053314	7.37232e+06	-39989.1	1005.82	-29791.7	0.000000	0.000000	7.053147	-0.057814	NaN	0.000000	0.001605	0.001677	28.0824	0.026779	0.001979	13.5307	-115.646	15.8187	-0.100698	1.052003	-0.064381	-0.065692	-0.057814	13.5307	-0.061176	-0.194582	0.297120	NaN
742	1.000000	1.095349	7.37232e+06	-39989.1	1005.82	-29791.7	0.000000	0.000000	7.095185	0.028909	NaN	0.000000	0.001563	0.001688	28.0827	0.140691	0.002022	69.5854	30.533	-166.994	-0.154025	1.094023	-0.022346	-0.023672	0.028909	69.5854	-0.022657	-0.014677	-1.969677	NaN
742	2.000000	1.131388	7.37232e+06	-39989.1	1005.82	-29791.7	0.000000	0.000000	7.131623	9.741329	NaN	0.000000	0.001584	0.001711	28.083	10.9475	0.001827	5992.72	10.1902	4.945596	9.437403	1.131079	0.013693	0.013384	9.741329	5992.72	0.012474	0.012063	807.569	49851.5
742	2.000000	1.141820	7.37232e+06	-39989.1	1005.82	-29791.7	0.000000	0.000000	7.142782	27.4117	NaN	0.000000	0.001533	0.001706	28.0838	20.9786	0.001670	12559.1	7.361221	-179.937	27.3262	1.141531	0.024125	0.023836	27.4117	12559.1	0.022488	0.026604	1030.37	70349
742	2.000000	1.152301	7.37232e+06	-39989.1	1005.82	-29791.7	0.000000	0.000000	7.154097	47.6945	NaN	0.000000	0.001599	0.001685	28.0838	30.911	0.001857	16643.7	2.821248	2.692955	46.9745	1.151899	0.034607	0.034204	47.6945	16643.7	0.032457	0.045991	1037.03	70906.4
742	2.000000	1.162691	7.37232e+06	-39989.1	1005.82	-29791.7	0.000000	0.000000	7.166141	87.9483	NaN	0.000000	0.001591	0.001736	28.0838	40.6248	0.001841	22062.3	3.469593	178.549	84.0502	1.162428	0.044996	0.044733	87.9483	22062.3	0.042007	0.069317	1268.78	76560.3
742	2.000000	1.173222	7.37232e+06	-39989.1	1005.82	-29791.7	0.000000	0.000000	7.178660	136.336	NaN	0.000000	0.001559	0.001699	28.0827	51.3348	0.001770	28999.3	5.076465	-5.243318	132.906	1.172848	0.055527	0.055153	136.336	28999.3	0.052001	0.098699	1381.33	84334.1
742	2.000000	1.183812	7.37232e+06	-39989.1	1005.82	-29791.7	0.000000	0.000000	7.191262	185.285	NaN	0.000000	0.001599	0.001644	28.0827	61.7754	0.001897	32571.2	5.313107	174.508	186.111	1.183374	0.066117	0.065679	185.285	32571.2	0.061851	0.132529	1398.07	81743.1
742	2.000000	1.194236	7.37232e+06	-39989.1	1005.82	-29791.7	0.000000	0.000000	7.204340	249.877	NaN	0.000000	0.001657	0.001666	28.0827	72.5939	0.001895	38316.1	7.019824	-10.0656	248.295	1.193964	0.076541	0.076269	249.877	38316.1	0.071650	0.170865	1462.42	84689.2
742	2.000000	1.204629	7.37232e+06	-39989.1	1005.82	-29791.7	0.000000	0.000000	7.217701	322.122	NaN	0.000000	0.001601	0.001695	28.0829	82.1213	0.001785	45996.7	5.762548	170.238	317.872	1.204449	0.086934	0.086754	322.122	45996.7	0.081681	0.214826	1499.46	90668.6
742	2.000000	1.215111	7.37232e+06	-39989.1	1005.82	-29791.7	0.000000	0.000000	7.231612	405.557	NaN	0.000000	0.001575	0.001686	28.0842	91.2739	0.001893	48224.4	1.550324	-5.555878	397.625	1.214822	0.097416	0.097127	405.557	48224.4	0.091109	0.260402	1557.42	86341.2
742	2.000000	1.225598	7.37232e+06	-39989.1	1005.82	-29791.7	0.000000	0.000000	7.245424	486.445	NaN	0.000000	0.001553	0.001713	28.0839	99.3379	0.001804	55066.8	2.643656	172.466	480.543	1.225341	0.107904	0.107646	486.445	55066.8	0.101278	0.314131	1548.54	89765.1
742	2.000000	1.227751	7.37232e+06	-39989.1	1005.82	-29791.7	0.000000	0.000000	7.247972	496.062	NaN	0.000000	0.001605	0.001697	28.0838	102.983	0.001814	56772.2	5.739235	169.199	497.583	1.227339	0.110056	0.109644	496.062	56772.2	0.103503	0.326512	1519.27	90773.5