File: remote_trans/data/nanoindenter/0828-1/data/Data_2025-08-06,11h17m57s/2025-07-22_16-23-58_1_27.txt
2025-07-22, 16:23:58, 1
Index	Phase	Displacement	Time	Pos X	Pos Y	Pos Z	Rot A	Rot B	Piezo Z	Force A	Force B	Gripper	Voltage A	Voltage B	Temperature	Amplitude force	Amplitude pos	Stiffness	Phase shift	Phase excitation	Force A raw	Displacement raw	HMax	HMax raw	Real Force	Real Stiffness	Contact Depth	Area	Hardness	Reduced Mod.
[#]	[#]	[um]	[s]	[um]	[um]	[um]	[m°]	[m°]	[um]	[uN]	[uN]	[V]	[V]	[V]	[°C]	[uN]	[um]	[N/m]	[°]	[°]	[uN]	[um]	[um]	[um]	[uN]	[N/m]	[um]	[um^2]	[MPa]	[MPa]
27	1.000000	0.002870	7.3653e+06	-39989.1	955.82	-29792.3	0.000000	0.000000	6.002806	0.002777	NaN	0.000000	0.001678	0.001611	28.0817	0.133967	0.001076	124.485	-148.129	-172.081	-0.071411	0.001613	-1.069397	-1.070655	0.002777	124.485	-1.069414	-1.946775E+14	-1.426522E-17	NaN
27	1.000000	0.044799	7.3653e+06	-39989.1	955.818	-29792.3	0.000000	0.000000	6.044735	0.011076	NaN	0.000000	0.001644	0.001628	28.0931	0.067893	0.001916	35.44	82.4365	11.463	-0.036739	0.043405	-1.027469	-1.028863	0.011076	35.44	-1.027703	-5.352817E+13	-2.069178E-16	NaN
27	1.000000	0.086836	7.3653e+06	-39989.1	955.819	-29792.3	0.000000	0.000000	6.086772	0.001121	NaN	0.000000	0.001640	0.001608	28.1316	0.045006	0.002162	20.8145	-23.9107	-166.343	0.026198	0.085542	-0.985431	-0.986725	0.001121	20.8145	-0.985472	-1.445843E+13	-7.751154E-17	NaN
27	1.000000	0.128847	7.3653e+06	-39989.1	955.819	-29792.3	0.000000	0.000000	6.128781	-0.043847	NaN	0.000000	0.001670	0.001587	28.1032	0.184421	0.001870	98.6203	1.913137	13.4006	0.005910	0.127538	-0.943420	-0.944730	-0.043847	98.6203	-0.943087	-3.879512E+12	1.130216E-14	NaN
27	1.000000	0.170896	7.3653e+06	-39989.1	955.818	-29792.3	0.000000	0.000000	6.170831	-0.015700	NaN	0.000000	0.001618	0.001584	28.0798	0.104323	0.001965	53.0968	53.3251	-169.862	-0.058951	0.169572	-0.901371	-0.902696	-0.015700	53.0968	-0.901149	-1.053403E+12	1.490434E-14	NaN
27	1.000000	0.212893	7.3653e+06	-39989.1	955.818	-29792.3	0.000000	0.000000	6.212827	-0.018800	NaN	0.000000	0.001586	0.001598	28.0931	0.022573	0.002112	10.6854	-25.8995	14.7584	-0.106950	0.211564	-0.859375	-0.860704	-0.018800	10.6854	-0.858055	-2.752925E+11	6.829178E-14	NaN
27	1.000000	0.254897	7.3653e+06	-39989.1	955.819	-29792.3	0.000000	0.000000	6.254834	0.043730	NaN	0.000000	0.001569	0.001621	28.131	0.075913	0.002031	37.3704	-41.9509	-167.762	0.065291	0.253574	-0.817370	-0.818693	0.043730	37.3704	-0.818248	-7.951579E+10	-5.499532E-13	NaN
27	1.000000	0.296905	7.3653e+06	-39989.1	955.818	-29792.3	0.000000	0.000000	6.296842	0.026759	NaN	0.000000	0.001565	0.001613	28.1058	0.100896	0.002017	50.0147	-171.034	13.407	0.012124	0.295532	-0.775362	-0.776736	0.026759	50.0147	-0.775763	-2.106955E+10	-1.270032E-12	NaN
27	1.000000	0.338943	7.3653e+06	-39989.1	955.819	-29792.3	0.000000	0.000000	6.338878	-0.010186	NaN	0.000000	0.001537	0.001609	28.0811	0.072051	0.001961	36.7394	-55.2317	-165.705	-0.054677	0.337674	-0.733324	-0.734594	-0.010186	36.7394	-0.733116	-5.536985E+9	1.839603E-12	NaN
27	1.000000	0.380946	7.3653e+06	-39989.1	955.819	-29792.3	0.000000	0.000000	6.380881	0.002682	NaN	0.000000	0.001566	0.001611	28.0918	0.084827	0.002009	42.2168	-45.7798	10.0756	-0.026484	0.379613	-0.691322	-0.692654	0.002682	42.2168	-0.691369	-1.491528E+9	-1.798463E-12	NaN
27	1.000000	0.422970	7.3653e+06	-39989.1	955.819	-29792.3	0.000000	0.000000	6.422906	0.009380	NaN	0.000000	0.001578	0.001587	28.1294	0.086467	0.001994	43.3634	96.8336	-167.639	-0.047936	0.421673	-0.649298	-0.650595	0.009380	43.3634	-0.649460	-3.981365E+8	-2.355955E-11	NaN
27	1.000000	0.464993	7.3653e+06	-39989.1	955.819	-29792.3	0.000000	0.000000	6.464931	0.047518	NaN	0.000000	0.001566	0.001645	28.1054	0.039631	0.001956	20.2614	62.3596	14.9567	-0.041600	0.463685	-0.607274	-0.608583	0.047518	20.2614	-0.609033	-1.108692E+8	-4.285973E-10	NaN
27	1.000000	0.506998	7.36531e+06	-39989.1	955.818	-29792.3	0.000000	0.000000	6.506936	0.049749	NaN	0.000000	0.001577	0.001616	28.0804	0.081324	0.002018	40.2991	-172.547	-162.882	0.063697	0.505703	-0.565269	-0.566564	0.049749	40.2991	-0.566195	-2.844739E+7	-1.748814E-9	NaN
27	1.000000	0.549031	7.36531e+06	-39989.1	955.817	-29792.3	0.000000	0.000000	6.548965	-0.018441	NaN	0.000000	0.001587	0.001635	28.0938	0.032271	0.002022	15.961	-88.7084	11.6074	0.060369	0.547643	-0.523237	-0.524624	-0.018441	15.961	-0.522370	-7.02354e+06	2.625587E-9	NaN
27	1.000000	0.591042	7.36531e+06	-39989.1	955.818	-29792.3	0.000000	0.000000	6.590977	-0.014293	NaN	0.000000	0.001582	0.001621	28.1311	0.084507	0.001959	43.1279	-132.802	-169.375	0.062615	0.589762	-0.481225	-0.482505	-0.014293	43.1279	-0.480977	-1.85865e+06	7.690132E-9	NaN
27	1.000000	0.633062	7.36531e+06	-39989.1	955.819	-29792.3	0.000000	0.000000	6.632998	0.011681	NaN	0.000000	0.001613	0.001572	28.1075	0.042873	0.002063	20.7779	19.1447	10.8934	0.058089	0.631704	-0.439205	-0.440564	0.011681	20.7779	-0.439627	-487635	-2.395380E-8	NaN
27	1.000000	0.675086	7.36531e+06	-39989.1	955.819	-29792.3	0.000000	0.000000	6.675021	-0.020391	NaN	0.000000	0.001578	0.001597	28.0813	0.131037	0.002014	65.0584	-138.665	-167.634	0.055810	0.673798	-0.397181	-0.398470	-0.020391	65.0584	-0.396946	-120900	1.686598E-7	NaN
27	1.000000	0.717092	7.36531e+06	-39989.1	955.819	-29792.3	0.000000	0.000000	6.717027	-0.015942	NaN	0.000000	0.001527	0.001578	28.0908	0.064849	0.001888	34.3519	-59.5753	12.7259	-0.068621	0.715738	-0.355176	-0.356529	-0.015942	34.3519	-0.354828	-29991.5	5.315399E-7	NaN
27	1.000000	0.759137	7.36531e+06	-39989.1	955.818	-29792.3	0.000000	0.000000	6.759075	0.059280	NaN	0.000000	0.001588	0.001624	28.1283	0.073674	0.002041	36.0948	90.5088	-166.515	0.044088	0.757847	-0.313130	-0.314421	0.059280	36.0948	-0.314362	-7683	-7.715684E-6	NaN
27	1.000000	0.801114	7.36531e+06	-39989.1	955.819	-29792.3	0.000000	0.000000	6.801051	0.038963	NaN	0.000000	0.001588	0.001638	28.1081	0.071091	0.002091	34.0035	80.3361	13.3001	0.015261	0.799811	-0.271153	-0.272456	0.038963	34.0035	-0.272013	-1786.96	-2.180415E-5	NaN
27	1.000000	0.843157	7.36531e+06	-39989.1	955.818	-29792.3	0.000000	0.000000	6.843092	-0.010540	NaN	0.000000	0.001519	0.001652	28.0807	0.094703	0.001794	52.7744	-125.448	-169.105	0.046370	0.841872	-0.229110	-0.230396	-0.010540	52.7744	-0.228960	-385.557	2.733652E-5	NaN
27	1.000000	0.885170	7.36531e+06	-39989.1	955.819	-29792.3	0.000000	0.000000	6.885105	-0.011612	NaN	0.000000	0.001610	0.001621	28.0903	0.034504	0.002059	16.7569	-62.9844	14.851	0.032476	0.883775	-0.187097	-0.188492	-0.011612	16.7569	-0.186577	-78.8277	0.000147	NaN
27	1.000000	0.927165	7.36531e+06	-39989.1	955.819	-29792.3	0.000000	0.000000	6.927102	0.032226	NaN	0.000000	0.001549	0.001566	28.1285	0.054629	0.002127	25.6817	85.5789	-165.635	-0.018085	0.925908	-0.145102	-0.146360	0.032226	25.6817	-0.146043	-15.3265	-0.002103	NaN
27	1.000000	0.969207	7.36531e+06	-39989.1	955.817	-29792.3	0.000000	0.000000	6.969144	0.018251	NaN	0.000000	0.001560	0.001642	28.1068	0.030312	0.001989	15.2404	71.9349	12.871	0.027919	0.967845	-0.103060	-0.104422	0.018251	15.2404	-0.103958	-2.231557	-0.008178	NaN
27	1.000000	1.011193	7.36531e+06	-39989.1	955.817	-29792.3	0.000000	0.000000	7.011129	0.008609	NaN	0.000000	0.001551	0.001611	28.0803	0.101710	0.002044	49.7653	-120.846	-164.417	-0.016463	1.009859	-0.061075	-0.062408	0.008609	49.7653	-0.061204	-0.194946	-0.044162	NaN
27	1.000000	1.053227	7.36531e+06	-39989.1	955.817	-29792.3	0.000000	0.000000	7.053164	0.036264	NaN	0.000000	0.001588	0.001634	28.0892	0.028926	0.002016	14.3462	119.597	15.2503	0.012905	1.051844	-0.019040	-0.020423	0.036264	14.3462	-0.020936	-0.013268	-2.733170	NaN
27	1.000000	1.095248	7.36531e+06	-39989.1	955.818	-29792.3	0.000000	0.000000	7.095183	-0.021107	NaN	0.000000	0.001574	0.001627	28.1301	0.056932	0.002144	26.5535	3.412219	-166.799	0.003013	1.093977	0.022981	0.021710	-0.021107	26.5535	0.023577	0.028477	-0.741188	143.762
27	1.000000	1.137225	7.36531e+06	-39989.1	955.819	-29792.3	0.000000	0.000000	7.137398	5.776973	NaN	0.000000	0.001651	0.001632	28.1105	2.304175	0.001991	1157.21	10.8599	11.4951	4.990044	1.135914	0.064957	0.063646	5.776973	1157.21	0.061213	0.130195	44.3718	2930.14
27	2.000000	1.152701	7.36531e+06	-39989.1	955.818	-29792.3	0.000000	0.000000	7.153214	14.052	NaN	0.000000	0.001602	0.001651	28.0827	5.259922	0.002015	2610.08	8.288019	-170.363	13.9361	1.152390	0.080434	0.080123	14.052	2610.08	0.076396	0.191075	73.5416	5455.37
27	2.000000	1.163180	7.36531e+06	-39989.1	955.817	-29792.3	0.000000	0.000000	7.163697	14.1486	NaN	0.000000	0.001577	0.001680	28.0878	6.333355	0.001918	3302.9	9.537614	7.726323	14.2815	1.162790	0.090912	0.090523	14.1486	3302.9	0.087699	0.243447	58.1177	6115.99
27	2.000000	1.173668	7.36531e+06	-39989.1	955.817	-29792.3	0.000000	0.000000	7.173821	5.290845	NaN	0.000000	0.001587	0.001639	28.1285	5.839438	0.002044	2856.42	14.3583	-170.8	5.336146	1.173353	0.101400	0.101086	5.290845	2856.42	0.100011	0.307179	17.224	4708.69
27	2.000000	1.184117	7.36531e+06	-39989.1	955.818	-29792.3	0.000000	0.000000	7.184983	22.6355	NaN	0.000000	0.001565	0.001610	28.1095	16.3935	0.001675	9788.47	10.4818	-0.363243	20.7503	1.183780	0.111850	0.111513	22.6355	9788.47	0.110115	0.364638	62.0766	14810.1
27	2.000000	1.194608	7.36531e+06	-39989.1	955.817	-29792.3	0.000000	0.000000	7.197737	77.7189	NaN	0.000000	0.001580	0.001639	28.0828	28.501	0.001826	15607.8	7.472658	178.652	75.4865	1.194298	0.122340	0.122031	77.7189	15607.8	0.118606	0.416500	186.6	22095.7
27	2.000000	1.205058	7.36531e+06	-39989.1	955.818	-29792.3	0.000000	0.000000	7.211459	157.32	NaN	0.000000	0.001566	0.001617	28.0888	38.5262	0.001778	21672.9	3.904213	-2.083865	154.758	1.204714	0.132791	0.132446	157.32	21672.9	0.127347	0.473313	332.381	28781.7
27	2.000000	1.215502	7.36531e+06	-39989.1	955.817	-29792.3	0.000000	0.000000	7.225789	251.899	NaN	0.000000	0.001616	0.001630	28.1289	47.8661	0.001823	26250.6	3.678402	176.338	247.431	1.215204	0.143235	0.142937	251.899	26250.6	0.136038	0.533255	472.379	32843.1
27	2.000000	1.226027	7.36531e+06	-39989.1	955.818	-29792.3	0.000000	0.000000	7.240689	358.367	NaN	0.000000	0.001572	0.001641	28.1107	56.9628	0.001839	30977.1	1.390625	-2.213603	353.825	1.225733	0.153760	0.153466	358.367	30977.1	0.145083	0.599328	597.948	36558
27	2.000000	1.236508	7.36531e+06	-39989.1	955.82	-29792.3	0.000000	0.000000	7.255856	472.377	NaN	0.000000	0.001582	0.001662	28.0816	62.8298	0.001755	35799.9	0.758445	176.892	468.853	1.236178	0.164241	0.163911	472.377	35799.9	0.154345	0.670908	704.087	39932.2
27	2.000000	1.242572	7.36531e+06	-39989.1	955.819	-29792.3	0.000000	0.000000	7.265031	548.098	NaN	0.000000	0.001597	0.001632	28.0787	70.6304	0.001914	36899.8	7.398651	171.804	546.934	1.242089	0.170305	0.169822	548.098	36899.8	0.159164	0.709744	772.247	40017.2