File: remote_trans/data/nanoindenter/0828-1/data/Data_2025-08-06,11h17m57s/2025-07-22_16-23-58_1_539.txt
2025-07-22, 16:23:58, 1
Index	Phase	Displacement	Time	Pos X	Pos Y	Pos Z	Rot A	Rot B	Piezo Z	Force A	Force B	Gripper	Voltage A	Voltage B	Temperature	Amplitude force	Amplitude pos	Stiffness	Phase shift	Phase excitation	Force A raw	Displacement raw	HMax	HMax raw	Real Force	Real Stiffness	Contact Depth	Area	Hardness	Reduced Mod.
[#]	[#]	[um]	[s]	[um]	[um]	[um]	[m°]	[m°]	[um]	[uN]	[uN]	[V]	[V]	[V]	[°C]	[uN]	[um]	[N/m]	[°]	[°]	[uN]	[um]	[um]	[um]	[uN]	[N/m]	[um]	[um^2]	[MPa]	[MPa]
539	1.000000	0.002541	7.37032e+06	-50139.1	1005.82	-29756.6	0.000000	0.000000	6.002815	0.086685	NaN	0.000000	0.001557	0.001773	28.083	0.161046	0.000871	184.907	117.422	-164.426	0.069517	0.001239	-1.102024	-1.103326	0.086685	184.907	-1.102376	-5.394564E+14	-1.606900E-16	NaN
539	1.000000	0.044504	7.37032e+06	-50139.1	1005.82	-29756.7	0.000000	0.000000	6.044776	0.064685	NaN	0.000000	0.001563	0.001808	28.0826	0.167062	0.002042	81.8076	138.585	11.6324	0.053734	0.043105	-1.060061	-1.061460	0.064685	81.8076	-1.060654	-1.484623E+14	-4.356980E-16	NaN
539	1.000000	0.086503	7.37032e+06	-50139.1	1005.82	-29756.7	0.000000	0.000000	6.086773	0.015504	NaN	0.000000	0.001558	0.001808	28.082	0.044658	0.001974	22.6248	127.163	-164.741	-0.009819	0.085205	-1.018063	-1.019360	0.015504	22.6248	-1.018577	-4.034596E+13	-3.842770E-16	NaN
539	1.000000	0.128495	7.37032e+06	-50139.1	1005.82	-29756.7	0.000000	0.000000	6.128766	0.010036	NaN	0.000000	0.001567	0.001761	28.0822	0.119464	0.002058	58.0346	-143.227	12.3586	0.012020	0.127148	-0.976070	-0.977417	0.010036	58.0346	-0.976199	-1.084439E+13	-9.254956E-16	NaN
539	1.000000	0.170523	7.37032e+06	-50139.1	1005.82	-29756.7	0.000000	0.000000	6.170793	-0.012201	NaN	0.000000	0.001588	0.001717	28.0834	0.055483	0.001944	28.5352	-155.167	-167.879	-0.098440	0.169180	-0.934042	-0.935386	-0.012201	28.5352	-0.933721	-2.900139E+12	4.207006E-15	NaN
539	1.000000	0.212544	7.37032e+06	-50139.1	1005.82	-29756.7	0.000000	0.000000	6.212815	0.020991	NaN	0.000000	0.001596	0.001768	28.0835	0.039538	0.002037	19.4142	-174.698	14.0791	0.035278	0.211178	-0.892021	-0.893387	0.020991	19.4142	-0.892832	-8.131912E+11	-2.581282E-14	NaN
539	1.000000	0.254558	7.37032e+06	-50139.1	1005.82	-29756.7	0.000000	0.000000	6.254829	0.020598	NaN	0.000000	0.001621	0.001754	28.0831	0.069827	0.002063	33.8535	165.806	-165.585	-0.002832	0.253254	-0.850007	-0.851311	0.020598	33.8535	-0.850464	-2.172792E+11	-9.480112E-14	NaN
539	1.000000	0.296576	7.37032e+06	-50139.1	1005.82	-29756.7	0.000000	0.000000	6.296850	0.098520	NaN	0.000000	0.001611	0.001718	28.0818	0.048825	0.002031	24.0442	5.676265	16.6186	0.018634	0.295249	-0.807989	-0.809316	0.098520	24.0442	-0.811062	-6.353088E+10	-1.550736E-12	NaN
539	1.000000	0.338587	7.37032e+06	-50139.1	1005.82	-29756.7	0.000000	0.000000	6.338860	0.075906	NaN	0.000000	0.001594	0.001735	28.0819	0.018240	0.002054	8.879520	55.9487	-169.449	0.014613	0.337310	-0.765978	-0.767255	0.075906	8.879520	-0.772389	-1.895787E+10	-4.003937E-12	NaN
539	1.000000	0.380586	7.37032e+06	-50139.1	1005.82	-29756.7	0.000000	0.000000	6.380857	0.043401	NaN	0.000000	0.001557	0.001774	28.0822	0.093220	0.002026	46.0109	-42.248	10.9179	0.057936	0.379252	-0.723980	-0.725313	0.043401	46.0109	-0.724687	-4.249964E+9	-1.021209E-11	NaN
539	1.000000	0.422625	7.37032e+06	-50139.1	1005.82	-29756.7	0.000000	0.000000	6.422898	0.076056	NaN	0.000000	0.001542	0.001789	28.0834	0.094287	0.002071	45.5203	125.098	-166.65	0.085145	0.421355	-0.681940	-0.683210	0.076056	45.5203	-0.683193	-1.153119E+9	-6.595659E-11	NaN
539	1.000000	0.464664	7.37032e+06	-50139.1	1005.82	-29756.7	0.000000	0.000000	6.464937	0.062871	NaN	0.000000	0.001615	0.001737	28.083	0.159941	0.002159	74.0766	-162.256	13.3222	-0.006665	0.463257	-0.639901	-0.641308	0.062871	74.0766	-0.640538	-3.003775E+8	-2.093059E-10	NaN
539	1.000000	0.506667	7.37032e+06	-50139.1	1005.82	-29756.7	0.000000	0.000000	6.506938	0.024913	NaN	0.000000	0.001591	0.001785	28.0831	0.010323	0.002033	5.077960	74.4935	-168.282	0.065703	0.505396	-0.597898	-0.599169	0.024913	5.077960	-0.601578	-8.753676E+7	-2.846044E-10	NaN
539	1.000000	0.548709	7.37032e+06	-50139.1	1005.82	-29756.7	0.000000	0.000000	6.548979	-0.014033	NaN	0.000000	0.001569	0.001815	28.0839	0.105483	0.002066	51.0481	-82.6416	16.4833	-0.103466	0.547279	-0.555856	-0.557286	-0.014033	51.0481	-0.555650	-2.033215E+7	6.902118E-10	NaN
539	1.000000	0.590715	7.37032e+06	-50139.1	1005.82	-29756.7	0.000000	0.000000	6.590985	-0.005454	NaN	0.000000	0.001624	0.001784	28.0822	0.056374	0.001869	30.1605	118.973	-165.508	-0.023046	0.589353	-0.513850	-0.515212	-0.005454	30.1605	-0.513715	-5.32284e+06	1.024669E-9	NaN
539	1.000000	0.632715	7.37032e+06	-50139.1	1005.82	-29756.7	0.000000	0.000000	6.632986	0.017274	NaN	0.000000	0.001626	0.001767	28.0822	0.138644	0.002060	67.2868	13.1288	16.2609	0.007254	0.631357	-0.471850	-0.473208	0.017274	67.2868	-0.472043	-1.39333e+06	-1.239781E-8	NaN
539	1.000000	0.674723	7.37032e+06	-50139.1	1005.82	-29756.7	0.000000	0.000000	6.674992	-0.017344	NaN	0.000000	0.001567	0.001802	28.0822	0.072784	0.002054	35.4329	-138.204	-167.196	-0.029765	0.673491	-0.429842	-0.431074	-0.017344	35.4329	-0.429475	-350457	4.948924E-8	NaN
539	1.000000	0.716759	7.37032e+06	-50139.1	1005.82	-29756.7	0.000000	0.000000	6.717027	-0.050461	NaN	0.000000	0.001586	0.001798	28.0835	0.012018	0.001896	6.339704	109.873	17.7417	-0.036746	0.715277	-0.387806	-0.389288	-0.050461	6.339704	-0.381836	-73490.4	6.866392E-7	NaN
539	1.000000	0.758782	7.37032e+06	-50139.1	1005.82	-29756.7	0.000000	0.000000	6.759052	-0.013869	NaN	0.000000	0.001535	0.001796	28.0834	0.040589	0.001920	21.1443	-114.285	-164.797	0.003053	0.757471	-0.345783	-0.347094	-0.013869	21.1443	-0.345291	-21806.6	6.359771E-7	NaN
539	1.000000	0.800771	7.37032e+06	-50139.1	1005.82	-29756.7	0.000000	0.000000	6.801042	0.022953	NaN	0.000000	0.001524	0.001785	28.0835	0.033278	0.002088	15.9359	-171.447	13.9913	0.036149	0.799409	-0.303794	-0.305156	0.022953	15.9359	-0.304875	-5560.25	-4.128099E-6	NaN
539	1.000000	0.842804	7.37032e+06	-50139.1	1005.82	-29756.7	0.000000	0.000000	6.843074	-0.001262	NaN	0.000000	0.001580	0.001757	28.0821	0.049890	0.002071	24.0919	145.435	-167.194	0.059892	0.841502	-0.261761	-0.263063	-0.001262	24.0919	-0.261722	-1245.34	1.013650E-6	NaN
539	1.000000	0.884831	7.37032e+06	-50139.1	1005.82	-29756.7	0.000000	0.000000	6.885099	-0.046563	NaN	0.000000	0.001587	0.001824	28.0824	0.062052	0.001911	32.4707	97.5941	12.5982	0.062065	0.883418	-0.219735	-0.221148	-0.046563	32.4707	-0.218659	-264.38	0.000176	NaN
539	1.000000	0.926823	7.37033e+06	-50139.1	1005.82	-29756.7	0.000000	0.000000	6.927092	-0.035382	NaN	0.000000	0.001593	0.001792	28.0828	0.032816	0.001957	16.7682	-133.081	-169.244	0.035642	0.925595	-0.177742	-0.178970	-0.035382	16.7682	-0.176159	-52.466	0.000674	NaN
539	1.000000	0.968843	7.37033e+06	-50139.1	1005.82	-29756.7	0.000000	0.000000	6.969109	-0.092405	NaN	0.000000	0.001578	0.001829	28.0839	0.064592	0.002054	31.4444	140.679	9.948138	0.045251	0.967510	-0.135723	-0.137055	-0.092405	31.4444	-0.133519	-8.911235	0.010369	NaN
539	1.000000	1.010895	7.37033e+06	-50139.1	1005.82	-29756.7	0.000000	0.000000	7.011166	0.025216	NaN	0.000000	0.001638	0.001808	28.0839	0.055452	0.001973	28.1058	-14.1377	-164.208	0.036426	1.009547	-0.093671	-0.095018	0.025216	28.1058	-0.094344	-1.362788	-0.018503	NaN
539	1.000000	1.052907	7.37033e+06	-50139.1	1005.82	-29756.7	0.000000	0.000000	7.053178	0.026674	NaN	0.000000	0.001651	0.001843	28.0839	0.069950	0.002087	33.5228	138.35	15.6148	0.035898	1.051540	-0.051659	-0.053025	0.026674	33.5228	-0.052255	-0.106695	-0.250004	NaN
539	1.000000	1.094903	7.37033e+06	-50139.1	1005.82	-29756.7	0.000000	0.000000	7.095172	-0.041517	NaN	0.000000	0.001570	0.001821	28.0835	0.043999	0.001901	23.1412	-109.29	-165.301	-0.060688	1.093600	-0.009662	-0.010965	-0.041517	23.1412	-0.008316	-0.005417	7.664942	NaN
539	2.000000	1.117947	7.37033e+06	-50139.1	1005.82	-29756.7	0.000000	0.000000	7.118898	16.5546	NaN	0.000000	0.001549	0.001772	28.0822	15.9451	0.001743	9149.48	7.966241	2.395033	15.8443	1.117627	0.013382	0.013062	16.5546	9149.48	0.012025	0.011520	1437.08	77884.5
539	2.000000	1.128389	7.37033e+06	-50139.1	1005.82	-29756.7	0.000000	0.000000	7.130373	41.6812	NaN	0.000000	0.001556	0.001765	28.0826	26.9702	0.001845	14614.7	3.843530	-177.521	40.1649	1.128125	0.023824	0.023560	41.6812	14614.7	0.021685	0.025259	1650.15	84014.3
539	2.000000	1.138852	7.37033e+06	-50139.1	1005.82	-29756.7	0.000000	0.000000	7.142156	73.7865	NaN	0.000000	0.001546	0.001783	28.0824	36.2952	0.001700	21350.5	5.168266	-3.072801	70.7517	1.138585	0.034287	0.034020	73.7865	21350.5	0.031695	0.044329	1664.51	92648.1
539	2.000000	1.149393	7.37033e+06	-50139.1	1005.82	-29756.7	0.000000	0.000000	7.154573	119.403	NaN	0.000000	0.001625	0.001803	28.0835	47.7538	0.001873	25497.5	4.162830	177.42	117.774	1.149078	0.044828	0.044513	119.403	25497.5	0.041316	0.067473	1769.64	89681.8
539	2.000000	1.159908	7.37033e+06	-50139.1	1005.82	-29756.7	0.000000	0.000000	7.167434	176.454	NaN	0.000000	0.001626	0.001826	28.0834	56.903	0.001731	32877.2	4.754129	-4.791974	176.744	1.159488	0.055343	0.054923	176.454	32877.2	0.051318	0.096530	1827.97	96679.9
539	2.000000	1.170385	7.37033e+06	-50139.1	1005.82	-29756.7	0.000000	0.000000	7.180538	240.326	NaN	0.000000	0.001625	0.001763	28.0835	68.7838	0.001744	39447.1	10.0212	168.571	240.204	1.169981	0.065820	0.065416	240.326	39447.1	0.061251	0.130332	1843.95	99830.3
539	2.000000	1.180824	7.37033e+06	-50139.1	1005.82	-29756.7	0.000000	0.000000	7.194083	315.88	NaN	0.000000	0.001580	0.001818	28.0822	80.1337	0.001716	46700.7	2.557351	-5.631420	313.583	1.180448	0.076258	0.075883	315.88	46700.7	0.071185	0.168944	1869.74	103807
539	2.000000	1.191456	7.37033e+06	-50139.1	1005.82	-29756.7	0.000000	0.000000	7.207511	383.864	NaN	0.000000	0.001630	0.001815	28.0824	89.2565	0.001845	48384.4	5.762365	170.706	391.401	1.191057	0.086891	0.086491	383.864	48384.4	0.080941	0.211420	1815.65	96140.5
539	2.000000	1.201732	7.37033e+06	-50139.1	1005.82	-29756.7	0.000000	0.000000	7.221633	477.406	NaN	0.000000	0.001651	0.001801	28.082	97.5071	0.001857	52497.2	2.895658	-5.852978	471.15	1.201375	0.097166	0.096810	477.406	52497.2	0.090346	0.256562	1860.78	94691.9
539	2.000000	1.210350	7.37033e+06	-50139.1	1005.82	-29756.7	0.000000	0.000000	7.233044	545.315	NaN	0.000000	0.001682	0.001789	28.082	106.509	0.001784	59694.3	4.492333	171.712	545.751	1.209834	0.105785	0.105269	545.315	59694.3	0.098934	0.301326	1809.72	99354.6