File: remote_trans/data/nanoindenter/0828-1/data/Data_2025-08-06,11h17m57s/2025-07-22_16-23-58_1_706.txt
2025-07-22, 16:23:58, 1
Index	Phase	Displacement	Time	Pos X	Pos Y	Pos Z	Rot A	Rot B	Piezo Z	Force A	Force B	Gripper	Voltage A	Voltage B	Temperature	Amplitude force	Amplitude pos	Stiffness	Phase shift	Phase excitation	Force A raw	Displacement raw	HMax	HMax raw	Real Force	Real Stiffness	Contact Depth	Area	Hardness	Reduced Mod.
[#]	[#]	[um]	[s]	[um]	[um]	[um]	[m°]	[m°]	[um]	[uN]	[uN]	[V]	[V]	[V]	[°C]	[uN]	[um]	[N/m]	[°]	[°]	[uN]	[um]	[um]	[um]	[uN]	[N/m]	[um]	[um^2]	[MPa]	[MPa]
706	1.000000	0.002350	7.37196e+06	-41789.1	1005.82	-29784.4	0.000000	0.000000	6.002784	-0.077573	NaN	0.000000	0.001678	0.001768	28.0812	0.018358	0.001072	17.1183	94.0087	-163.135	-0.058438	0.001090	-1.740646	-1.741906	-0.077573	17.1183	-1.737247	-1.589056E+23	4.881720E-25	NaN
706	1.000000	0.062310	7.37196e+06	-41789.1	1005.82	-29784.4	0.000000	0.000000	6.062746	-0.032837	NaN	0.000000	0.001742	0.001807	28.0825	0.095728	0.002033	47.0901	-87.5408	-165.417	-0.054245	0.060975	-1.680686	-1.682021	-0.032837	47.0901	-1.680163	-2.772583E+22	1.184342E-24	NaN
706	1.000000	0.122311	7.37196e+06	-41789.1	1005.82	-29784.4	0.000000	0.000000	6.122748	0.001208	NaN	0.000000	0.001565	0.001815	28.0824	0.115264	0.002090	55.1547	155.556	-165.586	0.015751	0.121014	-1.620685	-1.621982	0.001208	55.1547	-1.620702	-4.492917E+21	-2.688261E-25	NaN
706	1.000000	0.182384	7.37196e+06	-41789.1	1005.82	-29784.4	0.000000	0.000000	6.182819	-0.065251	NaN	0.000000	0.001605	0.001806	28.081	0.140597	0.002043	68.8214	116.328	-170.745	-0.052685	0.181057	-1.560612	-1.561939	-0.065251	68.8214	-1.559901	-6.978486E+20	9.350244E-23	NaN
706	1.000000	0.242399	7.37196e+06	-41789.1	1005.82	-29784.4	0.000000	0.000000	6.242840	0.068415	NaN	0.000000	0.001630	0.001819	28.081	0.064632	0.002049	31.5474	-139.482	-165.513	-0.024042	0.241062	-1.500597	-1.501934	0.068415	31.5474	-1.502223	-1.191031E+20	-5.744198E-22	NaN
706	1.000000	0.302420	7.37196e+06	-41789.1	1005.82	-29784.4	0.000000	0.000000	6.302857	-0.013638	NaN	0.000000	0.001604	0.001795	28.0813	0.150081	0.002097	71.574	56.4764	-165.596	0.002074	0.301150	-1.440576	-1.441846	-0.013638	71.574	-1.440434	-1.789097E+19	7.622900E-22	NaN
706	1.000000	0.362419	7.37196e+06	-41789.1	1005.82	-29784.4	0.000000	0.000000	6.362858	0.050735	NaN	0.000000	0.001599	0.001832	28.0821	0.063033	0.001895	33.2551	55.9408	-159.276	-0.046232	0.361140	-1.380578	-1.381857	0.050735	33.2551	-1.381722	-2.948606E+18	-1.720658E-20	NaN
706	1.000000	0.422471	7.37196e+06	-41789.1	1005.82	-29784.4	0.000000	0.000000	6.422909	0.006865	NaN	0.000000	0.001610	0.001807	28.0824	0.066791	0.002028	32.9322	-159.736	-168.899	0.061640	0.421180	-1.320525	-1.321816	0.006865	32.9322	-1.320682	-4.515549E+17	-1.520324E-20	NaN
706	1.000000	0.482499	7.37196e+06	-41789.1	1005.82	-29784.4	0.000000	0.000000	6.482935	-0.012398	NaN	0.000000	0.001614	0.001809	28.081	0.071615	0.001846	38.7867	33.0081	-168.84	0.059620	0.481188	-1.260498	-1.261808	-0.012398	38.7867	-1.260258	-7.032660E+16	1.762986E-19	NaN
706	1.000000	0.542517	7.37196e+06	-41789.1	1005.82	-29784.4	0.000000	0.000000	6.542953	-0.032922	NaN	0.000000	0.001597	0.001767	28.0809	0.021904	0.002024	10.8238	-40.5926	-165.485	0.019152	0.541274	-1.200480	-1.201722	-0.032922	10.8238	-1.198198	-1.039018E+16	3.168521E-18	NaN
706	1.000000	0.602561	7.37196e+06	-41789.1	1005.82	-29784.4	0.000000	0.000000	6.602997	-0.027458	NaN	0.000000	0.001626	0.001826	28.0823	0.063299	0.001991	31.7924	60.2401	-165.029	-0.012315	0.601249	-1.140435	-1.141747	-0.027458	31.7924	-1.139788	-1.713529E+15	1.602424E-17	NaN
706	1.000000	0.662526	7.37196e+06	-41789.1	1005.82	-29784.4	0.000000	0.000000	6.662961	-0.059041	NaN	0.000000	0.001597	0.001820	28.0825	0.060464	0.001994	30.3298	108.741	-163.946	-0.102970	0.661251	-1.080470	-1.081745	-0.059041	30.3298	-1.079010	-2.619526E+14	2.253896E-16	NaN
706	1.000000	0.722610	7.37196e+06	-41789.1	1005.82	-29784.4	0.000000	0.000000	6.723049	0.059348	NaN	0.000000	0.001617	0.001811	28.0823	0.099072	0.002011	49.266	95.2476	-166.823	0.111541	0.721287	-1.020387	-1.021709	0.059348	49.266	-1.021290	-4.388440E+13	-1.352369E-15	NaN
706	1.000000	0.782613	7.37196e+06	-41789.1	1005.82	-29784.4	0.000000	0.000000	6.783050	-0.009652	NaN	0.000000	0.001635	0.001837	28.0811	0.076020	0.002072	36.6925	-7.452224	-167.512	-0.124264	0.781308	-0.960383	-0.961688	-0.009652	36.6925	-0.960186	-6.597408E+12	1.463025E-15	NaN
706	1.000000	0.842642	7.37196e+06	-41789.1	1005.82	-29784.4	0.000000	0.000000	6.843078	-0.031232	NaN	0.000000	0.001671	0.001857	28.0815	0.062209	0.002111	29.4746	-75.6076	-166.854	0.027621	0.841310	-0.900354	-0.901687	-0.031232	29.4746	-0.899560	-1.002571E+12	3.115228E-14	NaN
706	1.000000	0.902636	7.37196e+06	-41789.1	1005.82	-29784.4	0.000000	0.000000	6.903071	-0.059005	NaN	0.000000	0.001592	0.001794	28.0824	0.140918	0.001954	72.1207	106.75	-165.606	-0.034010	0.901335	-0.840360	-0.841661	-0.059005	72.1207	-0.839747	-1.555471E+11	3.793375E-13	NaN
706	1.000000	0.962679	7.37196e+06	-41789.1	1005.82	-29784.4	0.000000	0.000000	6.963114	-0.060837	NaN	0.000000	0.001598	0.001830	28.0824	0.044385	0.001981	22.4004	68.2652	-167.924	-0.052749	0.961360	-0.780318	-0.781636	-0.060837	22.4004	-0.778281	-2.279643E+10	2.668696E-12	NaN
706	1.000000	1.022717	7.37196e+06	-41789.1	1005.82	-29784.4	0.000000	0.000000	7.023153	-0.016879	NaN	0.000000	0.001648	0.001821	28.081	0.152973	0.002015	75.9273	-164.661	-166.914	-0.030123	1.021449	-0.720280	-0.721547	-0.016879	75.9273	-0.720113	-3.681385E+9	4.584940E-12	NaN
706	1.000000	1.082704	7.37196e+06	-41789.1	1005.82	-29784.4	0.000000	0.000000	7.083141	-0.016254	NaN	0.000000	0.001658	0.001798	28.081	0.028638	0.001886	15.1855	-36.6415	-168.455	0.050768	1.081499	-0.660292	-0.661497	-0.016254	15.1855	-0.659489	-5.463506E+8	2.975064E-11	NaN
706	1.000000	1.142739	7.37196e+06	-41789.1	1005.82	-29784.4	0.000000	0.000000	7.143176	-0.005142	NaN	0.000000	0.001571	0.001806	28.0821	0.049794	0.002124	23.4388	31.1204	-166.482	-0.024819	1.141451	-0.600257	-0.601545	-0.005142	23.4388	-0.600092	-8.350916E+7	6.157467E-11	NaN
706	1.000000	1.202769	7.37196e+06	-41789.1	1005.82	-29784.4	0.000000	0.000000	7.203207	0.010442	NaN	0.000000	0.001709	0.001796	28.0823	0.021079	0.002142	9.839585	97.8972	-166.264	0.012220	1.201497	-0.540227	-0.541499	0.010442	9.839585	-0.541023	-1.275109E+7	-8.189285E-10	NaN
706	1.000000	1.262795	7.37196e+06	-41789.1	1005.82	-29784.4	0.000000	0.000000	7.263229	-0.083524	NaN	0.000000	0.001719	0.001789	28.0819	0.039083	0.001926	20.2926	138.185	-167.734	-0.086376	1.261468	-0.480201	-0.481529	-0.083524	20.2926	-0.477114	-1.64102e+06	5.089760E-8	NaN
706	1.000000	1.322833	7.37196e+06	-41789.1	1005.82	-29784.4	0.000000	0.000000	7.323266	-0.109373	NaN	0.000000	0.001638	0.001768	28.0808	0.134681	0.002021	66.6386	111.987	-164.937	-0.068042	1.321479	-0.420163	-0.421517	-0.109373	66.6386	-0.418932	-248469	4.401862E-7	NaN
706	1.000000	1.382877	7.37196e+06	-41789.1	1005.82	-29784.4	0.000000	0.000000	7.383314	-0.002411	NaN	0.000000	0.001621	0.001737	28.0811	0.060695	0.001986	30.5597	-150.181	-166.047	0.009031	1.381589	-0.360120	-0.361407	-0.002411	30.5597	-0.360061	-35704.3	6.753332E-8	NaN
706	1.000000	1.442927	7.37196e+06	-41789.1	1005.82	-29784.4	0.000000	0.000000	7.443365	0.010686	NaN	0.000000	0.001672	0.001778	28.0823	0.190359	0.001955	97.3512	106.851	-168.512	-0.033663	1.441592	-0.300070	-0.301404	0.010686	97.3512	-0.300152	-4730.38	-2.259115E-6	NaN
706	1.000000	1.502916	7.37196e+06	-41789.1	1005.82	-29784.4	0.000000	0.000000	7.503353	-0.002459	NaN	0.000000	0.001652	0.001741	28.0824	0.057041	0.002027	28.1352	-83.2501	-164.204	0.037472	1.501640	-0.240080	-0.241356	-0.002459	28.1352	-0.240015	-575.152	4.275224E-6	NaN
706	1.000000	1.562966	7.37196e+06	-41789.1	1005.82	-29784.4	0.000000	0.000000	7.563402	-0.032679	NaN	0.000000	0.001638	0.001765	28.0811	0.042627	0.001950	21.8595	81.8582	-165.82	-0.075550	1.561657	-0.180031	-0.181339	-0.032679	21.8595	-0.178909	-58.4643	0.000559	NaN
706	1.000000	1.622970	7.37196e+06	-41789.1	1005.82	-29784.4	0.000000	0.000000	7.623409	0.051378	NaN	0.000000	0.001594	0.001748	28.0808	0.008180	0.001962	4.169854	108.591	-163.909	-0.007294	1.621707	-0.120027	-0.121289	0.051378	4.169854	-0.129267	-7.375010	-0.006966	NaN
706	1.000000	1.682994	7.37196e+06	-41789.1	1005.82	-29784.4	0.000000	0.000000	7.683430	-0.024906	NaN	0.000000	0.001636	0.001741	28.0818	0.006585	0.002084	3.159899	32.6854	-167.388	-0.069007	1.681732	-0.060003	-0.061265	-0.024906	3.159899	-0.054091	-0.121036	0.205777	NaN
706	1.000000	1.743001	7.37196e+06	-41789.1	1005.82	-29784.4	0.000000	0.000000	7.743641	4.922582	NaN	0.000000	0.001596	0.001750	28.0822	5.383232	0.001860	2894.6	11.4304	-169.923	3.553192	1.741705	4.871193E-6	-0.001291	4.922582	2894.6	-0.001271	-0.000927	-5311.22	NaN
706	2.000000	1.760552	7.37196e+06	-41789.1	1005.82	-29784.4	0.000000	0.000000	7.762222	30.0018	NaN	0.000000	0.001708	0.001797	28.0822	22.663	0.001736	13057.3	6.396280	179.985	29.144	1.760349	0.017556	0.017353	30.0018	13057.3	0.015832	0.016412	1828.09	93122.1
706	2.000000	1.775499	7.37196e+06	-41789.1	1005.82	-29784.4	0.000000	0.000000	7.778853	70.9775	NaN	0.000000	0.001599	0.001788	28.0809	34.5042	0.001736	19878.3	4.491177	178.216	68.0959	1.775186	0.032503	0.032190	70.9775	19878.3	0.029825	0.040381	1757.69	90378
706	2.000000	1.790535	7.37196e+06	-41789.1	1005.82	-29784.4	0.000000	0.000000	7.796024	122.917	NaN	0.000000	0.001626	0.001822	28.0808	49.0345	0.001685	29094	3.829463	176.291	123.156	1.790185	0.047539	0.047189	122.917	29094	0.044370	0.075809	1621.4	96542
706	2.000000	1.805515	7.37197e+06	-41789.1	1005.82	-29784.4	0.000000	0.000000	7.813484	183.256	NaN	0.000000	0.001587	0.001769	28.0822	64.0695	0.001857	34508.3	7.574756	171.055	184.12	1.805149	0.062519	0.062153	183.256	34508.3	0.058536	0.120611	1519.4	90782.9
706	2.000000	1.820515	7.37197e+06	-41789.1	1005.82	-29784.4	0.000000	0.000000	7.832013	269.121	NaN	0.000000	0.001609	0.001801	28.0822	75.342	0.001810	41636.4	3.128112	174.431	268.477	1.820056	0.077519	0.077060	269.121	41636.4	0.072671	0.175123	1536.76	90902.3
706	2.000000	1.835420	7.37197e+06	-41789.1	1005.82	-29784.4	0.000000	0.000000	7.851108	371.086	NaN	0.000000	0.001631	0.001758	28.0808	89.0018	0.001823	48823.9	2.992750	172.784	367.08	1.835260	0.092423	0.092264	371.086	48823.9	0.086723	0.238689	1554.68	91304
706	2.000000	1.844811	7.37197e+06	-41789.1	1005.82	-29784.4	0.000000	0.000000	7.864177	460.552	NaN	0.000000	0.001608	0.001765	28.0807	96.5307	0.001755	54996.5	2.075302	-6.953758	451	1.844499	0.101815	0.101503	460.552	54996.5	0.095534	0.283205	1626.21	94418.5