File: remote_trans/data/nanoindenter/0828-1/data/Data_2025-08-06,11h17m57s/2025-07-22_16-23-58_1_1088.txt
2025-07-22, 16:23:58, 1
Index	Phase	Displacement	Time	Pos X	Pos Y	Pos Z	Rot A	Rot B	Piezo Z	Force A	Force B	Gripper	Voltage A	Voltage B	Temperature	Amplitude force	Amplitude pos	Stiffness	Phase shift	Phase excitation	Force A raw	Displacement raw	HMax	HMax raw	Real Force	Real Stiffness	Contact Depth	Area	Hardness	Reduced Mod.
[#]	[#]	[um]	[s]	[um]	[um]	[um]	[m°]	[m°]	[um]	[uN]	[uN]	[V]	[V]	[V]	[°C]	[uN]	[um]	[N/m]	[°]	[°]	[uN]	[um]	[um]	[um]	[uN]	[N/m]	[um]	[um^2]	[MPa]	[MPa]
1088	1.000000	0.003246	7.3757e+06	-54539.1	1055.82	-29743.3	0.000000	0.000000	6.002779	-0.022678	NaN	0.000000	0.001592	0.001691	28.0835	0.040871	0.000906	45.1243	-1.584647	-166.061	-0.056237	0.001969	-1.112385	-1.113661	-0.022678	45.1243	-1.112008	-7.264953E+14	3.121550E-17	NaN
1088	1.000000	0.045196	7.3757e+06	-54539.1	1055.82	-29743.3	0.000000	0.000000	6.044731	0.023872	NaN	0.000000	0.001675	0.001703	28.0857	0.039731	0.001824	21.7876	47.2099	15.3301	-0.040902	0.043890	-1.070435	-1.071741	0.023872	21.7876	-1.071257	-2.060968E+14	-1.158267E-16	NaN
1088	1.000000	0.087221	7.3757e+06	-54539.1	1055.82	-29743.3	0.000000	0.000000	6.086757	0.044722	NaN	0.000000	0.001536	0.001681	28.0852	0.019702	0.002125	9.273660	-142.138	-164.916	0.112795	0.085944	-1.028410	-1.029687	0.044722	9.273660	-1.032027	-6.119818E+13	-7.307691E-16	NaN
1088	1.000000	0.129234	7.3757e+06	-54539.1	1055.82	-29743.3	0.000000	0.000000	6.128768	0.018282	NaN	0.000000	0.001513	0.001682	28.0848	0.016501	0.001992	8.282743	-149.589	17.1091	-0.024963	0.127838	-0.986397	-0.987793	0.018282	8.282743	-0.988053	-1.566332E+13	-1.167187E-15	NaN
1088	1.000000	0.171235	7.3757e+06	-54539.1	1055.82	-29743.3	0.000000	0.000000	6.170771	0.032176	NaN	0.000000	0.001556	0.001695	28.0834	0.091219	0.002041	44.7034	-120.508	-165.302	0.058096	0.169913	-0.944396	-0.945718	0.032176	44.7034	-0.944935	-4.108816E+12	-7.830902E-15	NaN
1088	1.000000	0.213259	7.3757e+06	-54539.1	1055.82	-29743.3	0.000000	0.000000	6.212795	0.043664	NaN	0.000000	0.001589	0.001637	28.0839	0.038205	0.001914	19.9585	-108.567	15.3004	0.097157	0.211884	-0.902372	-0.903747	0.043664	19.9585	-0.904013	-1.151555E+12	-3.791724E-14	NaN
1088	1.000000	0.255274	7.3757e+06	-54539.1	1055.82	-29743.3	0.000000	0.000000	6.254809	0.029853	NaN	0.000000	0.001635	0.001682	28.0835	0.007474	0.002106	3.548326	-43.7929	-164.217	0.022506	0.253979	-0.860357	-0.861652	0.029853	3.548326	-0.866667	-3.600374E+11	-8.291685E-14	NaN
1088	1.000000	0.297327	7.3757e+06	-54539.1	1055.82	-29743.3	0.000000	0.000000	6.296863	0.049572	NaN	0.000000	0.001535	0.001718	28.0848	0.081693	0.002049	39.875	-17.039	17.3129	0.019405	0.295955	-0.818304	-0.819676	0.049572	39.875	-0.819237	-8.200875E+10	-6.044777E-13	NaN
1088	1.000000	0.339339	7.3757e+06	-54539.1	1055.82	-29743.3	0.000000	0.000000	6.338875	0.035309	NaN	0.000000	0.001602	0.001697	28.0846	0.089947	0.001972	45.6089	156.395	-166.309	0.022445	0.338007	-0.776291	-0.777624	0.035309	45.6089	-0.776872	-2.181338E+10	-1.618676E-12	NaN
1088	1.000000	0.381336	7.3757e+06	-54539.1	1055.82	-29743.3	0.000000	0.000000	6.380869	-0.013392	NaN	0.000000	0.001554	0.001644	28.0846	0.019221	0.002252	8.536650	127.623	11.9825	-0.010721	0.379978	-0.734295	-0.735653	-0.013392	8.536650	-0.733119	-5.537446E+9	2.418399E-12	NaN
1088	1.000000	0.423341	7.3757e+06	-54539.1	1055.82	-29743.3	0.000000	0.000000	6.422878	0.064013	NaN	0.000000	0.001626	0.001672	28.0845	0.031573	0.002006	15.7363	-45.399	-163.131	0.102232	0.422075	-0.692290	-0.693556	0.064013	15.7363	-0.695341	-1.690025E+9	-3.787692E-11	NaN
1088	1.000000	0.465383	7.3757e+06	-54539.1	1055.82	-29743.3	0.000000	0.000000	6.464920	0.072902	NaN	0.000000	0.001623	0.001667	28.0833	0.030947	0.001931	16.0253	-133.007	13.5648	0.006585	0.463984	-0.650247	-0.651647	0.072902	16.0253	-0.653659	-4.545631E+8	-1.603791E-10	NaN
1088	1.000000	0.507376	7.3757e+06	-54539.1	1055.82	-29743.3	0.000000	0.000000	6.506911	0.025564	NaN	0.000000	0.001621	0.001671	28.0836	0.054098	0.002122	25.4914	3.320026	-166.931	-0.040078	0.506105	-0.608255	-0.609526	0.025564	25.4914	-0.609007	-1.107767E+8	-2.307678E-10	NaN
1088	1.000000	0.549432	7.3757e+06	-54539.1	1055.82	-29743.3	0.000000	0.000000	6.548967	0.027171	NaN	0.000000	0.001634	0.001662	28.0837	0.118298	0.002111	56.0336	147.427	17.1858	-0.006811	0.548098	-0.566199	-0.567533	0.027171	56.0336	-0.566563	-2.878254E+7	-9.440036E-10	NaN
1088	1.000000	0.591437	7.3757e+06	-54539.1	1055.82	-29743.3	0.000000	0.000000	6.590972	0.019533	NaN	0.000000	0.001591	0.001687	28.085	0.028090	0.002049	13.7117	-160.275	-163.892	0.052970	0.590133	-0.524194	-0.525498	0.019533	13.7117	-0.525262	-7.70463e+06	-2.535262E-9	NaN
1088	1.000000	0.633465	7.3757e+06	-54539.1	1055.82	-29743.3	0.000000	0.000000	6.633000	0.019051	NaN	0.000000	0.001556	0.001665	28.0853	0.050189	0.002057	24.4011	-13.6659	17.0054	0.055412	0.632047	-0.482166	-0.483583	0.019051	24.4011	-0.482752	-1.96806e+06	-9.679930E-9	NaN
1088	1.000000	0.675493	7.3757e+06	-54539.1	1055.82	-29743.3	0.000000	0.000000	6.675027	0.007907	NaN	0.000000	0.001619	0.001652	28.0853	0.076511	0.002015	37.9686	-172.227	-162.405	0.007371	0.674205	-0.440138	-0.441426	0.007907	37.9686	-0.440294	-498326	-1.586733E-8	NaN
1088	1.000000	0.717481	7.3757e+06	-54539.1	1055.82	-29743.3	0.000000	0.000000	6.717018	0.066024	NaN	0.000000	0.001670	0.001643	28.0844	0.086792	0.001995	43.5047	108.428	14.4874	0.063483	0.716155	-0.398150	-0.399476	0.066024	43.5047	-0.399288	-130569	-5.056606E-7	NaN
1088	1.000000	0.759486	7.3757e+06	-54539.1	1055.82	-29743.3	0.000000	0.000000	6.759024	0.086429	NaN	0.000000	0.001652	0.001689	28.0841	0.089872	0.002050	43.8399	-113.148	-159.993	0.125839	0.758165	-0.356145	-0.357466	0.086429	43.8399	-0.357623	-32921	-2.625357E-6	NaN
1088	1.000000	0.801519	7.3757e+06	-54539.1	1055.82	-29743.3	0.000000	0.000000	6.801055	0.048679	NaN	0.000000	0.001649	0.001682	28.084	0.138265	0.001992	69.4181	133.108	15.8722	0.023632	0.800196	-0.314112	-0.315435	0.048679	69.4181	-0.314638	-7755.43	-6.276790E-6	NaN
1088	1.000000	0.843520	7.3757e+06	-54539.1	1055.82	-29743.3	0.000000	0.000000	6.843055	0.009521	NaN	0.000000	0.001621	0.001667	28.0853	0.107391	0.002028	52.9562	64.0265	-161.4	-0.022714	0.842206	-0.272111	-0.273425	0.009521	52.9562	-0.272246	-1801.56	-5.285061E-6	NaN
1088	1.000000	0.885550	7.3757e+06	-54539.1	1055.82	-29743.3	0.000000	0.000000	6.885085	0.032118	NaN	0.000000	0.001654	0.001686	28.085	0.123156	0.002071	59.4727	-105.924	12.9346	0.016739	0.884227	-0.230081	-0.231404	0.032118	59.4727	-0.230486	-407.556	-7.880678E-5	NaN
1088	1.000000	0.927591	7.3757e+06	-54539.1	1055.82	-29743.3	0.000000	0.000000	6.927128	0.059959	NaN	0.000000	0.001604	0.001695	28.0849	0.139724	0.001994	70.0866	-110.004	-165.535	0.016090	0.926318	-0.188039	-0.189313	0.059959	70.0866	-0.188681	-85.5006	-0.000701	NaN
1088	1.000000	0.969582	7.3757e+06	-54539.1	1055.82	-29743.3	0.000000	0.000000	6.969117	0.017783	NaN	0.000000	0.001547	0.001687	28.0852	0.035517	0.001996	17.7972	-174.867	17.5836	0.086706	0.968243	-0.146048	-0.147387	0.017783	17.7972	-0.146798	-15.8249	-0.001124	NaN
1088	1.000000	1.011602	7.3757e+06	-54539.1	1055.82	-29743.3	0.000000	0.000000	7.011136	-2.988922E-5	NaN	0.000000	0.001592	0.001689	28.0839	0.143448	0.001903	75.3807	67.2431	-165.607	0.011198	1.010289	-0.104029	-0.105342	-2.988922E-5	75.3807	-0.104029	-2.239483	1.334648E-5	NaN
1088	1.000000	1.053636	7.3757e+06	-54539.1	1055.82	-29743.3	0.000000	0.000000	7.053170	0.006013	NaN	0.000000	0.001610	0.001675	28.0839	0.104263	0.001945	53.6154	37.3557	13.582	0.071948	1.052293	-0.061995	-0.063337	0.006013	53.6154	-0.062079	-0.206408	-0.029133	NaN
1088	1.000000	1.095648	7.3757e+06	-54539.1	1055.82	-29743.3	0.000000	0.000000	7.095186	0.081512	NaN	0.000000	0.001589	0.001651	28.084	0.052787	0.001950	27.065	-135.438	-163.187	0.092667	1.094358	-0.019983	-0.021273	0.081512	27.065	-0.022241	-0.014323	-5.691168	NaN
1088	2.000000	1.122770	7.3757e+06	-54539.1	1055.82	-29743.3	0.000000	0.000000	7.122956	15.8456	NaN	0.000000	0.001597	0.001660	28.0853	13.3038	0.001728	7697.45	0.930511	11.1238	14.7198	1.122373	0.007139	0.006742	15.8456	7697.45	0.005595	0.004683	3383.56	102767
1088	2.000000	1.133202	7.3757e+06	-54539.1	1055.82	-29743.3	0.000000	0.000000	7.134312	38.3207	NaN	0.000000	0.001572	0.001651	28.0848	23.7815	0.001741	13659.1	6.549982	-179.527	37.0967	1.132876	0.017571	0.017245	38.3207	13659.1	0.015467	0.015913	2408.19	98928.9
1088	2.000000	1.143685	7.3757e+06	-54539.1	1055.82	-29743.3	0.000000	0.000000	7.145813	63.0573	NaN	0.000000	0.001557	0.001658	28.0855	32.3224	0.001768	18285.6	2.346740	3.355948	62.9595	1.143311	0.028054	0.027680	63.0573	18285.6	0.025468	0.031873	1978.42	93578.1
1088	2.000000	1.154189	7.3757e+06	-54539.1	1055.82	-29743.3	0.000000	0.000000	7.157829	99.8107	NaN	0.000000	0.001581	0.001685	28.0845	43.6832	0.001944	22465.9	6.097639	178.905	100.049	1.153747	0.038558	0.038116	99.8107	22465.9	0.035226	0.052273	1909.4	89775.1
1088	2.000000	1.164584	7.3757e+06	-54539.1	1055.82	-29743.3	0.000000	0.000000	7.170086	145.064	NaN	0.000000	0.001585	0.001649	28.0838	52.5219	0.001817	28909.4	5.207125	-3.666486	140.773	1.164338	0.048953	0.048707	145.064	28909.4	0.045190	0.078128	1856.76	94495.2
1088	2.000000	1.175119	7.3757e+06	-54539.1	1055.82	-29743.3	0.000000	0.000000	7.182902	200.538	NaN	0.000000	0.001664	0.001675	28.0838	63.2881	0.001859	34049	4.410758	176.595	197.844	1.174858	0.059488	0.059227	200.538	34049	0.055071	0.108730	1844.36	94341.7
1088	2.000000	1.185734	7.3757e+06	-54539.1	1055.82	-29743.3	0.000000	0.000000	7.195426	246.959	NaN	0.000000	0.001658	0.001626	28.085	75.0295	0.001876	40003.2	5.217855	-6.344870	250.814	1.185536	0.070103	0.069905	246.959	40003.2	0.065473	0.146160	1689.64	95598.8
1088	2.000000	1.196032	7.3757e+06	-54539.1	1055.82	-29743.3	0.000000	0.000000	7.209453	337.617	NaN	0.000000	0.001574	0.001673	28.0847	82.6487	0.001780	46421.1	4.344503	173.885	331.811	1.195651	0.080401	0.080020	337.617	46421.1	0.074946	0.184788	1827.05	98662.6
1088	2.000000	1.206547	7.3757e+06	-54539.1	1055.82	-29743.3	0.000000	0.000000	7.223110	413.994	NaN	0.000000	0.001581	0.001664	28.0846	92.659	0.001786	51881.3	5.038001	-7.819329	409.423	1.206263	0.090916	0.090632	413.994	51881.3	0.084931	0.230074	1799.39	98821.1
1088	2.000000	1.216029	7.3757e+06	-54539.1	1055.82	-29743.3	0.000000	0.000000	7.235728	490.204	NaN	0.000000	0.001609	0.001674	28.085	102.174	0.001823	56053.7	5.745188	171.191	485.443	1.215732	0.100398	0.100101	490.204	56053.7	0.093839	0.274366	1786.68	97771.5