File: remote_trans/data/nanoindenter/0828-1/data/Data_2025-08-06,11h17m57s/2025-07-22_16-23-58_1_409.txt
2025-07-22, 16:23:58, 1
Index	Phase	Displacement	Time	Pos X	Pos Y	Pos Z	Rot A	Rot B	Piezo Z	Force A	Force B	Gripper	Voltage A	Voltage B	Temperature	Amplitude force	Amplitude pos	Stiffness	Phase shift	Phase excitation	Force A raw	Displacement raw	HMax	HMax raw	Real Force	Real Stiffness	Contact Depth	Area	Hardness	Reduced Mod.
[#]	[#]	[um]	[s]	[um]	[um]	[um]	[m°]	[m°]	[um]	[uN]	[uN]	[V]	[V]	[V]	[°C]	[uN]	[um]	[N/m]	[°]	[°]	[uN]	[um]	[um]	[um]	[uN]	[N/m]	[um]	[um^2]	[MPa]	[MPa]
409	1.000000	0.002592	7.36906e+06	-56639.1	1005.82	-29738.6	0.000000	0.000000	6.002799	0.070527	NaN	0.000000	0.001640	0.001619	28.0804	0.065564	0.000962	68.1397	1.989962	-166.894	0.027308	0.001318	-1.063197	-1.064471	0.070527	68.1397	-1.063973	-1.645164E+14	-4.286936E-16	NaN
409	1.000000	0.042541	7.36906e+06	-56639.1	1005.82	-29738.6	0.000000	0.000000	6.042744	-0.002788	NaN	0.000000	0.001659	0.001605	28.0807	0.056620	0.001910	29.6375	-80.5141	-164.748	0.022212	0.041227	-1.023248	-1.024562	-0.002788	29.6375	-1.023178	-4.652735E+13	5.993171E-17	NaN
409	1.000000	0.082543	7.36906e+06	-56639.1	1005.82	-29738.6	0.000000	0.000000	6.082749	0.050560	NaN	0.000000	0.001603	0.001557	28.0807	0.043079	0.002052	20.9946	116.958	-166.441	0.110473	0.081229	-0.983246	-0.984560	0.050560	20.9946	-0.985052	-1.427132E+13	-3.542742E-15	NaN
409	1.000000	0.122559	7.36906e+06	-56639.1	1005.82	-29738.6	0.000000	0.000000	6.122760	-0.033744	NaN	0.000000	0.001631	0.001578	28.081	0.108774	0.001939	56.1089	21.5797	-167.029	-0.051881	0.121283	-0.943231	-0.944507	-0.033744	56.1089	-0.942779	-3.842684E+12	8.781400E-15	NaN
409	1.000000	0.162584	7.36906e+06	-56639.1	1005.82	-29738.6	0.000000	0.000000	6.162785	-0.047909	NaN	0.000000	0.001573	0.001561	28.0821	0.105829	0.001997	53.0037	-64.2477	-166.003	-0.032894	0.161299	-0.903205	-0.904490	-0.047909	53.0037	-0.902527	-1.099551E+12	4.357136E-14	NaN
409	1.000000	0.202632	7.36906e+06	-56639.1	1005.82	-29738.6	0.000000	0.000000	6.202835	0.005469	NaN	0.000000	0.001585	0.001588	28.082	0.027268	0.002096	13.0097	-137.543	-168.619	-0.070093	0.201315	-0.863157	-0.864474	0.005469	13.0097	-0.863472	-3.259246E+11	-1.677876E-14	NaN
409	1.000000	0.242622	7.36906e+06	-56639.1	1005.82	-29738.6	0.000000	0.000000	6.242826	0.018211	NaN	0.000000	0.001609	0.001537	28.0818	0.080689	0.001985	40.6446	-136.081	-168.155	0.096144	0.241359	-0.823167	-0.824430	0.018211	40.6446	-0.823503	-9.369307E+10	-1.943672E-13	NaN
409	1.000000	0.282676	7.36906e+06	-56639.1	1005.82	-29738.6	0.000000	0.000000	6.282882	0.077226	NaN	0.000000	0.001602	0.001566	28.0804	0.053565	0.002080	25.7511	-53.853	-167.067	0.062249	0.281383	-0.783113	-0.784406	0.077226	25.7511	-0.785362	-2.845036E+10	-2.714406E-12	NaN
409	1.000000	0.322661	7.36906e+06	-56639.1	1005.82	-29738.6	0.000000	0.000000	6.322865	0.033216	NaN	0.000000	0.001597	0.001586	28.0807	0.079580	0.001995	39.8922	26.2787	-167.286	0.008720	0.321310	-0.743128	-0.744479	0.033216	39.8922	-0.743753	-7.729720E+9	-4.297212E-12	NaN
409	1.000000	0.362669	7.36906e+06	-56639.1	1005.82	-29738.6	0.000000	0.000000	6.362873	0.019569	NaN	0.000000	0.001596	0.001607	28.0806	0.028426	0.002028	14.0164	148.075	-166.128	0.020202	0.361373	-0.703120	-0.704416	0.019569	14.0164	-0.704167	-2.230627E+9	-8.773069E-12	NaN
409	1.000000	0.402666	7.36906e+06	-56639.1	1005.82	-29738.6	0.000000	0.000000	6.402869	-0.005881	NaN	0.000000	0.001619	0.001580	28.0807	0.057135	0.002000	28.5664	114.565	-170.131	0.041630	0.401307	-0.663123	-0.664482	-0.005881	28.5664	-0.662968	-6.097088E+8	9.646198E-12	NaN
409	1.000000	0.442695	7.36906e+06	-56639.1	1005.82	-29738.6	0.000000	0.000000	6.442898	-0.001101	NaN	0.000000	0.001654	0.001544	28.0818	0.013798	0.001984	6.954988	154.077	-163.958	0.079516	0.441408	-0.623094	-0.624381	-0.001101	6.954988	-0.622975	-1.723945E+8	6.388773E-12	NaN
409	1.000000	0.482758	7.36906e+06	-56639.1	1005.82	-29738.6	0.000000	0.000000	6.482961	0.000774	NaN	0.000000	0.001668	0.001602	28.0816	0.051810	0.002037	25.4319	155.305	-166.914	0.055570	0.481393	-0.583031	-0.584396	0.000774	25.4319	-0.583054	-4.862591E+7	-1.592062E-11	NaN
409	1.000000	0.522741	7.36906e+06	-56639.1	1005.82	-29738.6	0.000000	0.000000	6.522944	0.016326	NaN	0.000000	0.001622	0.001554	28.0817	0.073364	0.001928	38.0485	-127.915	-166.385	-0.006029	0.521460	-0.543048	-0.544329	0.016326	38.0485	-0.543370	-1.374324E+7	-1.187902E-9	NaN
409	1.000000	0.562775	7.36906e+06	-56639.1	1005.82	-29738.6	0.000000	0.000000	6.562980	0.030027	NaN	0.000000	0.001617	0.001551	28.0802	0.077054	0.001863	41.36	71.0664	-166.814	-0.042035	0.561469	-0.503014	-0.504320	0.030027	41.36	-0.503558	-3.8428e+06	-7.813922E-9	NaN
409	1.000000	0.602763	7.36906e+06	-56639.1	1005.82	-29738.6	0.000000	0.000000	6.602967	0.003985	NaN	0.000000	0.001616	0.001566	28.0803	0.047660	0.001970	24.1931	-102.871	-166.678	0.034823	0.601478	-0.463026	-0.464311	0.003985	24.1931	-0.463149	-1.04534e+06	-3.812576E-9	NaN
409	1.000000	0.642794	7.36906e+06	-56639.1	1005.82	-29738.6	0.000000	0.000000	6.642998	0.016302	NaN	0.000000	0.001630	0.001559	28.0806	0.110425	0.001999	55.2369	138.077	-165.432	0.022668	0.641419	-0.422995	-0.424370	0.016302	55.2369	-0.423216	-285768	-5.704509E-8	NaN
409	1.000000	0.682817	7.36906e+06	-56639.1	1005.82	-29738.6	0.000000	0.000000	6.683020	0.000181	NaN	0.000000	0.001673	0.001602	28.0819	0.098288	0.001971	49.8612	-122.663	-162.448	-0.076936	0.681504	-0.382972	-0.384285	0.000181	49.8612	-0.382975	-76305.8	-2.371405E-9	NaN
409	1.000000	0.722825	7.36906e+06	-56639.1	1005.82	-29738.6	0.000000	0.000000	6.723028	0.005153	NaN	0.000000	0.001600	0.001574	28.0815	0.107808	0.002008	53.6891	-164.088	-164.072	0.058890	0.721542	-0.342964	-0.344247	0.005153	53.6891	-0.343036	-20220	-2.548682E-7	NaN
409	1.000000	0.762870	7.36906e+06	-56639.1	1005.82	-29738.6	0.000000	0.000000	6.763072	-0.019733	NaN	0.000000	0.001640	0.001550	28.0814	0.064412	0.002143	30.057	-25.379	-166.989	-0.045096	0.761524	-0.302920	-0.304265	-0.019733	30.057	-0.302427	-5113.75	3.858888E-6	NaN
409	1.000000	0.802842	7.36906e+06	-56639.1	1005.82	-29738.6	0.000000	0.000000	6.803047	0.041277	NaN	0.000000	0.001715	0.001526	28.0814	0.014511	0.002038	7.118820	100.903	-166.216	0.005876	0.801577	-0.262947	-0.264212	0.041277	7.118820	-0.267296	-1514.94	-2.724634E-5	NaN
409	1.000000	0.842861	7.36906e+06	-56639.1	1005.82	-29738.6	0.000000	0.000000	6.843061	-0.075405	NaN	0.000000	0.001703	0.001634	28.0802	0.051596	0.002008	25.6957	89.2624	-169.615	-0.070010	0.841590	-0.222928	-0.224199	-0.075405	25.6957	-0.220728	-285.297	0.000264	NaN
409	1.000000	0.882871	7.36906e+06	-56639.1	1005.82	-29738.6	0.000000	0.000000	6.883076	0.042377	NaN	0.000000	0.001695	0.001637	28.0804	0.025325	0.002005	12.6301	66.6761	-166.859	0.075236	0.881587	-0.182918	-0.184202	0.042377	12.6301	-0.185434	-75.4136	-0.000562	NaN
409	1.000000	0.922930	7.36906e+06	-56639.1	1005.82	-29738.6	0.000000	0.000000	6.923134	0.019120	NaN	0.000000	0.001703	0.001570	28.0804	0.142647	0.001861	76.662	85.8383	-166.441	-0.043558	0.921581	-0.142859	-0.144208	0.019120	76.662	-0.143046	-13.4868	-0.001418	NaN
409	1.000000	0.962911	7.36907e+06	-56639.1	1005.82	-29738.6	0.000000	0.000000	6.963116	0.053765	NaN	0.000000	0.001643	0.001588	28.0819	0.163891	0.001925	85.1394	163.537	-164.944	0.029235	0.961627	-0.102878	-0.104162	0.053765	85.1394	-0.103352	-2.164839	-0.024836	NaN
409	1.000000	1.002966	7.36907e+06	-56639.1	1005.82	-29738.6	0.000000	0.000000	7.003169	-0.016830	NaN	0.000000	0.001588	0.001587	28.0816	0.066632	0.001992	33.4443	25.7916	-167.547	0.041884	1.001599	-0.062823	-0.064190	-0.016830	33.4443	-0.062445	-0.211390	0.079615	NaN
409	1.000000	1.042955	7.36907e+06	-56639.1	1005.82	-29738.6	0.000000	0.000000	7.043156	-0.054039	NaN	0.000000	0.001596	0.001613	28.0814	0.033272	0.002098	15.8623	23.991	-165.283	-0.068403	1.041658	-0.022834	-0.024131	-0.054039	15.8623	-0.020279	-0.012768	4.232399	NaN
409	2.000000	1.078535	7.36907e+06	-56639.1	1005.82	-29738.6	0.000000	0.000000	7.079175	10.6205	NaN	0.000000	0.001595	0.001568	28.0814	9.392325	0.001703	5514.37	3.101097	-170.206	10.6505	1.078184	0.012746	0.012395	10.6205	5514.37	0.011302	0.010664	995.889	48786.8
409	2.000000	1.088461	7.36907e+06	-56639.1	1005.82	-29738.6	0.000000	0.000000	7.089782	27.1768	NaN	0.000000	0.001597	0.001574	28.0804	18.1906	0.001790	10162.3	2.210379	-172.952	27.2715	1.088136	0.022671	0.022347	27.1768	10162.3	0.020666	0.023599	1151.59	60438.9
409	2.000000	1.098410	7.36907e+06	-56639.1	1005.82	-29738.6	0.000000	0.000000	7.100770	52.4216	NaN	0.000000	0.001654	0.001550	28.0805	28.9768	0.001851	15657.1	4.071990	-178.723	51.3252	1.098126	0.032621	0.032337	52.4216	15657.1	0.030110	0.040973	1279.43	70670.5
409	2.000000	1.108416	7.36907e+06	-56639.1	1005.82	-29738.6	0.000000	0.000000	7.112116	84.993	NaN	0.000000	0.001651	0.001630	28.0804	37.8136	0.001800	21010	5.322815	177.276	85.103	1.108090	0.042627	0.042301	84.993	21010	0.039593	0.062980	1349.52	76488.8
409	2.000000	1.118368	7.36907e+06	-56639.1	1005.82	-29738.6	0.000000	0.000000	7.123582	121.777	NaN	0.000000	0.001625	0.001603	28.0817	46.6945	0.001753	26629.7	4.325920	175.731	120.287	1.118116	0.052579	0.052327	121.777	26629.7	0.049149	0.089802	1356.06	81188.7
409	2.000000	1.128353	7.36907e+06	-56639.1	1005.82	-29738.6	0.000000	0.000000	7.135376	165.757	NaN	0.000000	0.001618	0.001583	28.0817	56.2	0.001659	33870.4	5.796076	172.654	163.39	1.128072	0.062564	0.062283	165.757	33870.4	0.058894	0.121872	1360.1	88642.4
409	2.000000	1.138331	7.36907e+06	-56639.1	1005.82	-29738.6	0.000000	0.000000	7.147428	216.169	NaN	0.000000	0.001597	0.001628	28.082	66.2122	0.001773	37344.8	8.405575	169.699	214.506	1.138031	0.072542	0.072242	216.169	37344.8	0.068201	0.156847	1378.22	86152.1
409	2.000000	1.148348	7.36907e+06	-56639.1	1005.82	-29738.6	0.000000	0.000000	7.159666	270.166	NaN	0.000000	0.001596	0.001580	28.0805	75.4971	0.001810	41720.2	8.329232	168.441	270.545	1.148008	0.082559	0.082219	270.166	41720.2	0.077702	0.196822	1372.64	85917.8
409	2.000000	1.158172	7.36907e+06	-56639.1	1005.82	-29738.6	0.000000	0.000000	7.172202	336.073	NaN	0.000000	0.001585	0.001640	28.0805	83.5143	0.001791	46636.9	1.202287	175.118	327.637	1.157913	0.092383	0.092124	336.073	46636.9	0.086978	0.239930	1400.71	86988.2
409	2.000000	1.168280	7.36907e+06	-56639.1	1005.82	-29738.6	0.000000	0.000000	7.185234	407.145	NaN	0.000000	0.001584	0.001607	28.0806	92.7196	0.001771	52365.4	3.639772	171.945	404.102	1.167880	0.102491	0.102091	407.145	52365.4	0.096659	0.289144	1408.11	88973.4
409	2.000000	1.175379	7.36907e+06	-56639.1	1005.82	-29738.6	0.000000	0.000000	7.193671	439.682	NaN	0.000000	0.001575	0.001628	28.0803	99.1499	0.001817	54581.7	1.051527	173.745	441.433	1.175254	0.109590	0.109465	439.682	54581.7	0.103548	0.326766	1345.56	87237.3