File: remote_trans/data/nanoindenter/0828-1/data/Data_2025-08-06,11h17m57s/2025-07-22_16-23-58_1_1181.txt
2025-07-22, 16:23:58, 1
Index	Phase	Displacement	Time	Pos X	Pos Y	Pos Z	Rot A	Rot B	Piezo Z	Force A	Force B	Gripper	Voltage A	Voltage B	Temperature	Amplitude force	Amplitude pos	Stiffness	Phase shift	Phase excitation	Force A raw	Displacement raw	HMax	HMax raw	Real Force	Real Stiffness	Contact Depth	Area	Hardness	Reduced Mod.
[#]	[#]	[um]	[s]	[um]	[um]	[um]	[m°]	[m°]	[um]	[uN]	[uN]	[V]	[V]	[V]	[°C]	[uN]	[um]	[N/m]	[°]	[°]	[uN]	[um]	[um]	[um]	[uN]	[N/m]	[um]	[um^2]	[MPa]	[MPa]
1181	1.000000	0.002671	7.3766e+06	-56539.1	1105.82	-29738.5	0.000000	0.000000	6.002810	0.046679	NaN	0.000000	0.001572	0.001684	28.0835	0.084513	0.001063	79.5398	-99.4807	-169.997	0.055799	0.001434	-1.116948	-1.118185	0.046679	79.5398	-1.117388	-8.578748E+14	-5.441242E-17	NaN
1181	1.000000	0.044585	7.3766e+06	-56539.1	1105.82	-29738.5	0.000000	0.000000	6.044725	0.081346	NaN	0.000000	0.001654	0.001666	28.0832	0.064668	0.001936	33.4037	-140.43	12.1931	0.028816	0.043263	-1.075034	-1.076356	0.081346	33.4037	-1.076860	-2.451036E+14	-3.318859E-16	NaN
1181	1.000000	0.086597	7.3766e+06	-56539.1	1105.82	-29738.5	0.000000	0.000000	6.086732	-0.033749	NaN	0.000000	0.001638	0.001715	28.0834	0.066624	0.001979	33.6626	6.853465	-167.178	-0.034425	0.085310	-1.033022	-1.034309	-0.033749	33.6626	-1.032270	-6.166158E+13	5.473204E-16	NaN
1181	1.000000	0.128642	7.3766e+06	-56539.1	1105.82	-29738.5	0.000000	0.000000	6.128782	0.089414	NaN	0.000000	0.001632	0.001657	28.0835	0.063796	0.002052	31.0854	1.951338	13.9389	0.022026	0.127278	-0.990977	-0.992341	0.089414	31.0854	-0.993134	-1.833658E+13	-4.876275E-15	NaN
1181	1.000000	0.170673	7.3766e+06	-56539.1	1105.82	-29738.5	0.000000	0.000000	6.170815	0.120728	NaN	0.000000	0.001605	0.001660	28.0821	0.045153	0.002126	21.2352	122.805	-164.361	0.072878	0.169350	-0.948946	-0.950269	0.120728	21.2352	-0.953210	-5.312667E+12	-2.272459E-14	NaN
1181	1.000000	0.212684	7.3766e+06	-56539.1	1105.82	-29738.5	0.000000	0.000000	6.212821	0.014428	NaN	0.000000	0.001630	0.001691	28.0821	0.078174	0.001976	39.5669	-127.551	14.43	-0.009685	0.211328	-0.906935	-0.908291	0.014428	39.5669	-0.907208	-1.271908E+12	-1.134338E-14	NaN
1181	1.000000	0.254666	7.3766e+06	-56539.1	1105.82	-29738.5	0.000000	0.000000	6.254800	-0.040263	NaN	0.000000	0.001579	0.001665	28.0823	0.145338	0.001984	73.2467	-64.9927	-165.942	-0.043201	0.253365	-0.864953	-0.866254	-0.040263	73.2467	-0.864541	-3.369617E+11	1.194892E-13	NaN
1181	1.000000	0.296726	7.3766e+06	-56539.1	1105.82	-29738.5	0.000000	0.000000	6.296863	0.013730	NaN	0.000000	0.001605	0.001645	28.0834	0.157658	0.002075	75.9671	-72.9781	13.528	0.044172	0.295355	-0.822893	-0.824264	0.013730	75.9671	-0.823029	-9.231674E+10	-1.487228E-13	NaN
1181	1.000000	0.338749	7.3766e+06	-56539.1	1105.82	-29738.5	0.000000	0.000000	6.338887	0.041220	NaN	0.000000	0.001597	0.001658	28.0834	0.068153	0.002025	33.6583	-143.989	-166.649	-0.043535	0.337435	-0.780870	-0.782184	0.041220	33.6583	-0.781789	-2.544102E+10	-1.620211E-12	NaN
1181	1.000000	0.380764	7.3766e+06	-56539.1	1105.82	-29738.5	0.000000	0.000000	6.380901	0.020418	NaN	0.000000	0.001584	0.001709	28.0836	0.069015	0.002119	32.5767	-51.9323	14.7905	0.004156	0.379351	-0.738855	-0.740268	0.020418	32.5767	-0.739325	-6.727662E+9	-3.034993E-12	NaN
1181	1.000000	0.422770	7.3766e+06	-56539.1	1105.82	-29738.5	0.000000	0.000000	6.422903	-0.072539	NaN	0.000000	0.001598	0.001666	28.0822	0.067325	0.001978	34.0452	-127.843	-162.999	0.044686	0.421496	-0.696849	-0.698123	-0.072539	34.0452	-0.695251	-1.685271E+9	4.304277E-11	NaN
1181	1.000000	0.464792	7.3766e+06	-56539.1	1105.82	-29738.5	0.000000	0.000000	6.464926	-0.054895	NaN	0.000000	0.001561	0.001682	28.0824	0.070940	0.002033	34.9002	-142.788	14.8725	-0.036841	0.463470	-0.654827	-0.656149	-0.054895	34.9002	-0.653647	-4.543873E+8	1.208104E-10	NaN
1181	1.000000	0.506809	7.3766e+06	-56539.1	1105.82	-29738.5	0.000000	0.000000	6.506946	0.011319	NaN	0.000000	0.001569	0.001678	28.0826	0.025293	0.002049	12.3426	130.488	-163.925	-0.054539	0.505493	-0.612810	-0.614126	0.011319	12.3426	-0.613498	-1.277114E+8	-8.862654E-11	NaN
1181	1.000000	0.548849	7.3766e+06	-56539.1	1105.82	-29738.5	0.000000	0.000000	6.548985	-0.005007	NaN	0.000000	0.001619	0.001697	28.0835	0.024216	0.002017	12.0073	157.817	12.5838	0.061259	0.547429	-0.570770	-0.572190	-0.005007	12.0073	-0.570457	-3.257973E+7	1.536930E-10	NaN
1181	1.000000	0.590815	7.3766e+06	-56539.1	1105.82	-29738.5	0.000000	0.000000	6.590952	0.022167	NaN	0.000000	0.001641	0.001675	28.0838	0.029750	0.001866	15.9459	-135.911	-164.068	0.014143	0.589511	-0.528804	-0.530108	0.022167	15.9459	-0.529847	-8.92178e+06	-2.484626E-9	NaN
1181	1.000000	0.632860	7.3766e+06	-56539.1	1105.82	-29738.5	0.000000	0.000000	6.632996	-0.008440	NaN	0.000000	0.001679	0.001672	28.0834	0.038582	0.002004	19.2551	-145.915	13.9139	-0.038995	0.631469	-0.486759	-0.488150	-0.008440	19.2551	-0.486431	-2.21564e+06	3.809195E-9	NaN
1181	1.000000	0.674864	7.3766e+06	-56539.1	1105.82	-29738.5	0.000000	0.000000	6.674999	-0.028974	NaN	0.000000	0.001681	0.001654	28.0834	0.047114	0.001926	24.4563	102.696	-164.814	-0.079077	0.673600	-0.444755	-0.446019	-0.028974	24.4563	-0.443866	-559641	5.177306E-8	NaN
1181	1.000000	0.716889	7.3766e+06	-56539.1	1105.82	-29738.5	0.000000	0.000000	6.717026	0.022988	NaN	0.000000	0.001673	0.001648	28.0821	0.044380	0.002033	21.832	-176.844	16.4859	0.051328	0.715502	-0.402730	-0.404117	0.022988	21.832	-0.403520	-150027	-1.532283E-7	NaN
1181	1.000000	0.758931	7.3766e+06	-56539.1	1105.82	-29738.5	0.000000	0.000000	6.759067	0.011885	NaN	0.000000	0.001627	0.001642	28.0822	0.033140	0.002091	15.8453	-157.84	-168.345	-0.001140	0.757587	-0.360688	-0.362032	0.011885	15.8453	-0.361251	-37147.1	-3.199399E-7	NaN
1181	1.000000	0.800924	7.3766e+06	-56539.1	1105.82	-29738.5	0.000000	0.000000	6.801061	0.022665	NaN	0.000000	0.001622	0.001651	28.0821	0.070607	0.001996	35.3792	60.0633	12.535	0.047334	0.799506	-0.318695	-0.320113	0.022665	35.3792	-0.319175	-9046.87	-2.505231E-6	NaN
1181	1.000000	0.842933	7.3766e+06	-56539.1	1105.82	-29738.5	0.000000	0.000000	6.843068	-0.016626	NaN	0.000000	0.001629	0.001674	28.083	0.067067	0.001905	35.2111	132.682	-162.85	-0.066440	0.841608	-0.276686	-0.278011	-0.016626	35.2111	-0.276332	-2077.6	8.002471E-6	NaN
1181	1.000000	0.884944	7.3766e+06	-56539.1	1105.82	-29738.5	0.000000	0.000000	6.885086	0.127492	NaN	0.000000	0.001609	0.001655	28.0832	0.091752	0.001976	46.4284	10.272	16.0092	0.155357	0.883542	-0.234675	-0.236078	0.127492	46.4284	-0.236734	-511.038	-0.000249	NaN
1181	1.000000	0.926967	7.3766e+06	-56539.1	1105.82	-29738.5	0.000000	0.000000	6.927105	0.034119	NaN	0.000000	0.001618	0.001619	28.0832	0.047854	0.001925	24.8538	-26.6495	-168.239	0.069695	0.925648	-0.192652	-0.193971	0.034119	24.8538	-0.193681	-103.593	-0.000329	NaN
1181	1.000000	0.968995	7.3766e+06	-56539.1	1105.82	-29738.5	0.000000	0.000000	6.969132	0.026629	NaN	0.000000	0.001615	0.001650	28.0822	0.049176	0.002025	24.2791	-124.34	13.6404	-0.033402	0.967637	-0.150624	-0.151982	0.026629	24.2791	-0.151447	-19.2461	-0.001384	NaN
1181	1.000000	1.010975	7.3766e+06	-56539.1	1105.82	-29738.5	0.000000	0.000000	7.011109	-0.067753	NaN	0.000000	0.001621	0.001641	28.0821	0.043864	0.001864	23.5349	-120.048	-166.662	-0.070138	1.009691	-0.108644	-0.109928	-0.067753	23.5349	-0.106485	-2.530028	0.026780	NaN
1181	1.000000	1.053017	7.3766e+06	-56539.1	1105.82	-29738.5	0.000000	0.000000	7.053153	-0.005723	NaN	0.000000	0.001612	0.001613	28.0823	0.075563	0.002035	37.1381	-130.922	15.3861	0.008993	1.051697	-0.066602	-0.067922	-0.005723	37.1381	-0.066486	-0.273898	0.020896	NaN
1181	1.000000	1.095034	7.3766e+06	-56539.1	1105.82	-29738.5	0.000000	0.000000	7.095169	-0.024044	NaN	0.000000	0.001612	0.001622	28.0835	0.058737	0.002081	28.2235	28.5359	-164.427	-0.001815	1.093768	-0.024585	-0.025851	-0.024044	28.2235	-0.023946	-0.015840	1.517893	NaN
1181	2.000000	1.134162	7.3766e+06	-56539.1	1105.82	-29738.5	0.000000	0.000000	7.134661	8.814387	NaN	0.000000	0.001597	0.001666	28.0839	7.405277	0.001740	4255.04	4.768457	11.1216	8.554317	1.133779	0.014543	0.014160	8.814387	4255.04	0.012989	0.012697	694.234	34501.2
1181	2.000000	1.144585	7.3766e+06	-56539.1	1105.82	-29738.5	0.000000	0.000000	7.145529	19.6358	NaN	0.000000	0.001663	0.001745	28.0838	17.2771	0.001844	9371.07	13.0236	-179.363	20.5379	1.144177	0.024966	0.024557	19.6358	9371.07	0.023394	0.028159	697.309	51021.3
1181	2.000000	1.155031	7.37661e+06	-56539.1	1105.82	-29738.5	0.000000	0.000000	7.156766	38.8662	NaN	0.000000	0.001586	0.001682	28.0842	27.177	0.001864	14578.6	8.099463	-1.287256	37.8069	1.154710	0.035412	0.035091	38.8662	14578.6	0.033412	0.048114	807.797	60722.9
1181	2.000000	1.165509	7.37661e+06	-56539.1	1105.82	-29738.5	0.000000	0.000000	7.168578	71.2924	NaN	0.000000	0.001594	0.001719	28.083	36.2652	0.001607	22571.3	4.974920	176.97	69.2566	1.165210	0.045890	0.045591	71.2924	22571.3	0.043521	0.073444	970.709	76094.5
1181	2.000000	1.176006	7.37661e+06	-56539.1	1105.82	-29738.5	0.000000	0.000000	7.180664	109.9	NaN	0.000000	0.001615	0.001742	28.0826	46.859	0.001740	26925.9	3.597961	-2.808187	106.102	1.175591	0.056387	0.055972	109.9	26925.9	0.053326	0.102970	1067.31	76663.5
1181	2.000000	1.186484	7.37661e+06	-56539.1	1105.82	-29738.5	0.000000	0.000000	7.193135	158.367	NaN	0.000000	0.001575	0.001677	28.0827	56.8594	0.001734	32798.4	3.345845	176.625	154.963	1.186192	0.066865	0.066573	158.367	32798.4	0.063243	0.137695	1150.13	80754.6
1181	2.000000	1.197049	7.37661e+06	-56539.1	1105.82	-29738.5	0.000000	0.000000	7.205902	211.865	NaN	0.000000	0.001581	0.001679	28.084	68.5832	0.001838	37319.6	9.892463	-10.5119	213.434	1.196510	0.077430	0.076891	211.865	37319.6	0.073173	0.177232	1195.41	80991.3
1181	2.000000	1.207420	7.37661e+06	-56539.1	1105.82	-29738.5	0.000000	0.000000	7.218584	268.038	NaN	0.000000	0.001653	0.001718	28.0837	77.0763	0.001779	43327	2.403901	174.99	265.058	1.207168	0.087801	0.087549	268.038	43327	0.083161	0.221709	1208.96	84069.8
1181	2.000000	1.217879	7.37661e+06	-56539.1	1105.82	-29738.5	0.000000	0.000000	7.231549	328.955	NaN	0.000000	0.001686	0.001735	28.0837	85.0831	0.001767	48139.4	1.489875	-4.483122	321.694	1.217589	0.098260	0.097970	328.955	48139.4	0.093135	0.270730	1215.07	84529.2
1181	2.000000	1.228311	7.37661e+06	-56539.1	1105.82	-29738.5	0.000000	0.000000	7.244863	399.013	NaN	0.000000	0.001620	0.001756	28.0824	96.0037	0.001837	52249.3	6.567359	170.025	392.106	1.228118	0.108692	0.108499	399.013	52249.3	0.102964	0.323493	1233.45	83930.7
1181	2.000000	1.231398	7.37661e+06	-56539.1	1105.82	-29738.5	0.000000	0.000000	7.248895	421.972	NaN	0.000000	0.001636	0.001734	28.0825	98.8758	0.001789	55254.1	5.728118	170.635	421.607	1.231125	0.111779	0.111506	421.972	55254.1	0.106052	0.340973	1237.55	86452.6