File: remote_trans/data/nanoindenter/0828-1/data/Data_2025-08-06,11h17m57s/2025-07-22_16-23-58_1_69.txt
2025-07-22, 16:23:58, 1
Index	Phase	Displacement	Time	Pos X	Pos Y	Pos Z	Rot A	Rot B	Piezo Z	Force A	Force B	Gripper	Voltage A	Voltage B	Temperature	Amplitude force	Amplitude pos	Stiffness	Phase shift	Phase excitation	Force A raw	Displacement raw	HMax	HMax raw	Real Force	Real Stiffness	Contact Depth	Area	Hardness	Reduced Mod.
[#]	[#]	[um]	[s]	[um]	[um]	[um]	[m°]	[m°]	[um]	[uN]	[uN]	[V]	[V]	[V]	[°C]	[uN]	[um]	[N/m]	[°]	[°]	[uN]	[um]	[um]	[um]	[uN]	[N/m]	[um]	[um^2]	[MPa]	[MPa]
69	1.000000	0.002598	7.36572e+06	-42089.1	955.818	-29784.5	0.000000	0.000000	6.002770	0.057658	NaN	0.000000	0.001525	0.001616	28.0785	0.121242	0.000916	132.406	132.094	171.23	0.123040	0.001379	-1.102756	-1.103975	0.057658	132.406	-1.103082	-5.513667E+14	-1.045727E-16	NaN
69	1.000000	0.044525	7.36572e+06	-42089.1	955.818	-29784.5	0.000000	0.000000	6.044694	0.001411	NaN	0.000000	0.001573	0.001608	28.1008	0.147015	0.002063	71.269	30.5178	-3.431757	-0.033598	0.043189	-1.060829	-1.062164	0.001411	71.269	-1.060844	-1.493347E+14	-9.445745E-18	NaN
69	1.000000	0.086529	7.36572e+06	-42089.1	955.818	-29784.5	0.000000	0.000000	6.086695	-0.104687	NaN	0.000000	0.001574	0.001610	28.1288	0.076325	0.001976	38.6273	140.415	176.758	-0.016912	0.085229	-1.018824	-1.020124	-0.104687	38.6273	-1.016792	-3.817549E+13	2.742259E-15	NaN
69	1.000000	0.128545	7.36572e+06	-42089.1	955.819	-29784.5	0.000000	0.000000	6.128715	-0.001139	NaN	0.000000	0.001567	0.001654	28.0938	0.033927	0.002051	16.5393	3.945646	-4.223477	0.037912	0.127244	-0.976809	-0.978110	-0.001139	16.5393	-0.976757	-1.103359E+13	1.031971E-16	NaN
69	1.000000	0.170564	7.36572e+06	-42089.1	955.818	-29784.5	0.000000	0.000000	6.170736	0.045492	NaN	0.000000	0.001586	0.001642	28.0781	0.044151	0.002051	21.5304	-3.360957	179.815	0.048626	0.169274	-0.934789	-0.936079	0.045492	21.5304	-0.936374	-3.149287E+12	-1.444521E-14	NaN
69	1.000000	0.212595	7.36572e+06	-42089.1	955.819	-29784.5	0.000000	0.000000	6.212767	0.054214	NaN	0.000000	0.001536	0.001600	28.0985	0.029612	0.002054	14.4193	-76.7955	-2.385068	0.049449	0.211211	-0.892758	-0.894142	0.054214	14.4193	-0.895578	-8.857466E+11	-6.120731E-14	NaN
69	1.000000	0.254620	7.36572e+06	-42089.1	955.818	-29784.5	0.000000	0.000000	6.254787	-0.055101	NaN	0.000000	0.001596	0.001610	28.1271	0.140603	0.001990	70.6715	-152.621	177.659	-0.018369	0.253270	-0.850734	-0.852084	-0.055101	70.6715	-0.850149	-2.151569E+11	2.560990E-13	NaN
69	1.000000	0.296634	7.36572e+06	-42089.1	955.818	-29784.5	0.000000	0.000000	6.296804	-0.002220	NaN	0.000000	0.001547	0.001592	28.0937	0.027035	0.001907	14.1736	92.0195	-4.074911	0.015733	0.295262	-0.808719	-0.810092	-0.002220	14.1736	-0.808602	-5.883022E+10	3.773188E-14	NaN
69	1.000000	0.338647	7.36572e+06	-42089.1	955.817	-29784.5	0.000000	0.000000	6.338818	0.023557	NaN	0.000000	0.001620	0.001674	28.08	0.051786	0.002049	25.2702	-64.1911	175.04	-0.031949	0.337362	-0.766707	-0.767991	0.023557	25.2702	-0.767406	-1.621924E+10	-1.452441E-12	NaN
69	1.000000	0.380644	7.36572e+06	-42089.1	955.818	-29784.5	0.000000	0.000000	6.380816	0.053537	NaN	0.000000	0.001589	0.001644	28.0991	0.085799	0.001970	43.5575	-139.898	-1.393808	-0.011343	0.379291	-0.724709	-0.726063	0.053537	43.5575	-0.725631	-4.377789E+9	-1.222927E-11	NaN
69	1.000000	0.422684	7.36572e+06	-42089.1	955.818	-29784.5	0.000000	0.000000	6.422853	-0.010456	NaN	0.000000	0.001588	0.001655	28.1286	0.047062	0.002094	22.478	-35.2623	176.556	-0.076147	0.421392	-0.682670	-0.683961	-0.010456	22.478	-0.682321	-1.121868E+9	9.319819E-12	NaN
69	1.000000	0.464702	7.36572e+06	-42089.1	955.818	-29784.5	0.000000	0.000000	6.464873	0.051602	NaN	0.000000	0.001526	0.001642	28.0928	0.092929	0.002106	44.1175	177.843	-4.114766	0.014159	0.463382	-0.640652	-0.641971	0.051602	44.1175	-0.641529	-3.099348E+8	-1.664939E-10	NaN
69	1.000000	0.506750	7.36572e+06	-42089.1	955.818	-29784.5	0.000000	0.000000	6.506921	0.027192	NaN	0.000000	0.001521	0.001649	28.0768	0.150468	0.002085	72.1841	100.227	177.091	0.023691	0.505335	-0.598603	-0.600018	0.027192	72.1841	-0.598886	-8.037398E+7	-3.383172E-10	NaN
69	1.000000	0.548739	7.36572e+06	-42089.1	955.818	-29784.5	0.000000	0.000000	6.548913	0.088479	NaN	0.000000	0.001557	0.001601	28.0973	0.018169	0.001984	9.158641	166.843	-3.941504	0.055566	0.547375	-0.556614	-0.557978	0.088479	9.158641	-0.563860	-2.640948E+7	-3.350263E-9	NaN
69	1.000000	0.590748	7.36572e+06	-42089.1	955.818	-29784.5	0.000000	0.000000	6.590916	-0.028471	NaN	0.000000	0.001527	0.001628	28.1284	0.084013	0.001936	43.4001	40.3838	173.15	0.060447	0.589422	-0.514606	-0.515931	-0.028471	43.4001	-0.514114	-5.39138e+06	5.280801E-9	NaN
69	1.000000	0.632770	7.36572e+06	-42089.1	955.818	-29784.5	0.000000	0.000000	6.632939	-0.020886	NaN	0.000000	0.001678	0.001637	28.0966	0.107759	0.001983	54.3302	-6.766111	-5.605205	-0.054964	0.631374	-0.472583	-0.473979	-0.020886	54.3302	-0.472295	-1.40471e+06	1.486822E-8	NaN
69	1.000000	0.674749	7.36572e+06	-42089.1	955.819	-29784.5	0.000000	0.000000	6.674919	-0.003638	NaN	0.000000	0.001671	0.001630	28.0783	0.074945	0.002007	37.343	136.734	177.705	-0.024619	0.673453	-0.430604	-0.431901	-0.003638	37.343	-0.430531	-362725	1.002991E-8	NaN
69	1.000000	0.716793	7.36572e+06	-42089.1	955.818	-29784.5	0.000000	0.000000	6.716963	-0.008787	NaN	0.000000	0.001628	0.001643	28.0958	0.059377	0.002074	28.6324	-106.386	-2.706757	0.049027	0.715480	-0.388560	-0.389874	-0.008787	28.6324	-0.388330	-91048.1	9.651446E-8	NaN
69	1.000000	0.758813	7.36572e+06	-42089.1	955.819	-29784.5	0.000000	0.000000	6.758981	-0.030628	NaN	0.000000	0.001675	0.001581	28.1286	0.066033	0.002122	31.1116	174.833	176.85	-0.027663	0.757523	-0.346541	-0.347830	-0.030628	31.1116	-0.345802	-22183.2	1.380684E-6	NaN
69	1.000000	0.800836	7.36572e+06	-42089.1	955.819	-29784.5	0.000000	0.000000	6.801007	0.025186	NaN	0.000000	0.001656	0.001564	28.0942	0.054524	0.001992	27.3749	178.361	-1.962970	0.012734	0.799488	-0.304517	-0.305865	0.025186	27.3749	-0.305207	-5623.85	-4.478399E-6	NaN
69	1.000000	0.842846	7.36572e+06	-42089.1	955.818	-29784.5	0.000000	0.000000	6.843017	0.031140	NaN	0.000000	0.001636	0.001560	28.0783	0.100883	0.001899	53.1283	141.886	176.498	-0.031766	0.841522	-0.262507	-0.263831	0.031140	53.1283	-0.262947	-1300.25	-2.394936E-5	NaN
69	1.000000	0.884867	7.36572e+06	-42089.1	955.818	-29784.5	0.000000	0.000000	6.885036	-0.011397	NaN	0.000000	0.001669	0.001567	28.0958	0.047050	0.002104	22.3612	-21.6042	-5.365857	-0.089016	0.883535	-0.220487	-0.221819	-0.011397	22.3612	-0.220104	-278.833	4.087307E-5	NaN
69	1.000000	0.926885	7.36572e+06	-42089.1	955.819	-29784.5	0.000000	0.000000	6.927056	0.020592	NaN	0.000000	0.001669	0.001600	28.1299	0.049399	0.001999	24.7076	-111.615	-179.574	-0.004910	0.925569	-0.178468	-0.179785	0.020592	24.7076	-0.179094	-58.8887	-0.000350	NaN
69	1.000000	0.968910	7.36572e+06	-42089.1	955.818	-29784.5	0.000000	0.000000	6.969082	0.062067	NaN	0.000000	0.001655	0.001669	28.0967	0.083820	0.002019	41.508	-55.0948	-6.003300	0.033423	0.967493	-0.136444	-0.137860	0.062067	41.508	-0.137565	-10.6429	-0.005832	NaN
69	1.000000	1.010904	7.36572e+06	-42089.1	955.819	-29784.5	0.000000	0.000000	7.011077	0.082617	NaN	0.000000	0.001733	0.001610	28.0782	0.011123	0.001982	5.612099	162.66	177.009	0.051407	1.009616	-0.094450	-0.095738	0.082617	5.612099	-0.105491	-2.408585	-0.034301	NaN
69	1.000000	1.052934	7.36572e+06	-42089.1	955.819	-29784.5	0.000000	0.000000	7.053105	0.039694	NaN	0.000000	0.001756	0.001563	28.0948	0.019511	0.002017	9.672754	-70.8621	-2.363011	0.039424	1.051601	-0.052420	-0.053752	0.039694	9.672754	-0.055498	-0.133209	-0.297987	NaN
69	1.000000	1.094915	7.36572e+06	-42089.1	955.82	-29784.5	0.000000	0.000000	7.095085	0.004660	NaN	0.000000	0.001755	0.001627	28.1287	0.040430	0.001921	21.0493	34.0781	177.629	-0.010636	1.093641	-0.010439	-0.011713	0.004660	21.0493	-0.010605	-0.006733	-0.692207	NaN
69	2.000000	1.120146	7.36572e+06	-42089.1	955.819	-29784.5	0.000000	0.000000	7.120982	16.196	NaN	0.000000	0.001742	0.001623	28.097	14.829	0.001797	8250.95	9.108616	-13.9382	15.9511	1.119760	0.014793	0.014406	16.196	8250.95	0.013321	0.013111	1235.34	65836.4
69	2.000000	1.130642	7.36572e+06	-42089.1	955.82	-29784.5	0.000000	0.000000	7.132503	41.1645	NaN	0.000000	0.001754	0.001631	28.0799	25.7736	0.001653	15592.4	3.466556	162.976	42.8782	1.130305	0.025288	0.024951	41.1645	15592.4	0.023308	0.028010	1469.66	85120.3
69	2.000000	1.141090	7.36572e+06	-42089.1	955.82	-29784.5	0.000000	0.000000	7.144471	78.1157	NaN	0.000000	0.001716	0.001632	28.0946	36.8326	0.001721	21402	5.633201	-22.0783	77.3631	1.140885	0.035737	0.035531	78.1157	21402	0.032999	0.047190	1655.35	90012.4
69	2.000000	1.151478	7.36572e+06	-42089.1	955.82	-29784.5	0.000000	0.000000	7.156818	125.787	NaN	0.000000	0.001707	0.001638	28.1289	46.1334	0.001763	26168.1	5.830490	155.984	121.334	1.151193	0.046125	0.045839	125.787	26168.1	0.042519	0.070702	1779.12	89914.8
69	2.000000	1.162055	7.36573e+06	-42089.1	955.82	-29784.5	0.000000	0.000000	7.169443	175.641	NaN	0.000000	0.001700	0.001575	28.0965	54.6051	0.001720	31756.1	-0.478305	-18.4185	174.238	1.161793	0.056701	0.056439	175.641	31756.1	0.052553	0.100467	1748.25	91535.4
69	2.000000	1.172661	7.36573e+06	-42089.1	955.819	-29784.5	0.000000	0.000000	7.182405	232.968	NaN	0.000000	0.001683	0.001577	28.0786	66.3948	0.001835	36176.4	2.093601	158.566	236.659	1.172194	0.067307	0.066840	232.968	36176.4	0.062478	0.134842	1727.71	90009
69	2.000000	1.182947	7.36573e+06	-42089.1	955.82	-29784.5	0.000000	0.000000	7.195720	306.661	NaN	0.000000	0.001690	0.001565	28.0928	77.0403	0.001933	39860.1	4.831202	-24.9767	302.243	1.182690	0.077593	0.077337	306.661	39860.1	0.071823	0.171582	1787.26	87917.5
69	2.000000	1.193468	7.36573e+06	-42089.1	955.82	-29784.5	0.000000	0.000000	7.209705	390.924	NaN	0.000000	0.001719	0.001637	28.1301	85.4174	0.001750	48804.8	2.674249	154.989	386.385	1.193183	0.088115	0.087829	390.924	48804.8	0.082107	0.216795	1803.2	95765.8
69	2.000000	1.203992	7.36573e+06	-42089.1	955.819	-29784.5	0.000000	0.000000	7.224145	486.215	NaN	0.000000	0.001731	0.001664	28.0983	96.1813	0.001810	53126.9	5.596984	-28.1392	485.284	1.203586	0.098638	0.098233	486.215	53126.9	0.091774	0.263775	1843.3	94508.6
69	2.000000	1.212925	7.36573e+06	-42089.1	955.82	-29784.5	0.000000	0.000000	7.236381	566.598	NaN	0.000000	0.001723	0.001636	28.094	104.501	0.001975	52909.7	7.023289	-29.5004	561.78	1.212591	0.107571	0.107237	566.598	52909.7	0.099539	0.304611	1860.07	87586.3