File: remote_trans/data/nanoindenter/0828-1/data/Data_2025-08-06,11h17m57s/2025-07-22_16-23-58_1_1059.txt
2025-07-22, 16:23:58, 1
Index	Phase	Displacement	Time	Pos X	Pos Y	Pos Z	Rot A	Rot B	Piezo Z	Force A	Force B	Gripper	Voltage A	Voltage B	Temperature	Amplitude force	Amplitude pos	Stiffness	Phase shift	Phase excitation	Force A raw	Displacement raw	HMax	HMax raw	Real Force	Real Stiffness	Contact Depth	Area	Hardness	Reduced Mod.
[#]	[#]	[um]	[s]	[um]	[um]	[um]	[m°]	[m°]	[um]	[uN]	[uN]	[V]	[V]	[V]	[°C]	[uN]	[um]	[N/m]	[°]	[°]	[uN]	[um]	[um]	[um]	[uN]	[N/m]	[um]	[um^2]	[MPa]	[MPa]
1059	1.000000	0.002775	7.3754e+06	-53089.1	1055.82	-29747.3	0.000000	0.000000	6.002811	0.006860	NaN	0.000000	0.001753	0.001632	28.0846	0.074625	0.000921	81.0288	-153.579	-159.46	0.051212	0.001504	-1.133299	-1.134570	0.006860	81.0288	-1.133362	-1.405148E+15	-4.882025E-18	NaN
1059	1.000000	0.044717	7.3754e+06	-53089.1	1055.82	-29747.3	0.000000	0.000000	6.044752	-0.028532	NaN	0.000000	0.001753	0.001604	28.0841	0.012309	0.001862	6.609335	-146.396	11.6607	-0.034110	0.043296	-1.091357	-1.092778	-0.028532	6.609335	-1.088119	-3.471812E+14	8.218192E-17	NaN
1059	1.000000	0.086745	7.37541e+06	-53089.1	1055.82	-29747.3	0.000000	0.000000	6.086781	0.014290	NaN	0.000000	0.001636	0.001649	28.0846	0.118243	0.001997	59.2055	-89.3342	-166.494	-0.113278	0.085444	-1.049329	-1.050630	0.014290	59.2055	-1.049510	-1.051549E+14	-1.358987E-16	NaN
1059	1.000000	0.128756	7.37541e+06	-53089.1	1055.82	-29747.3	0.000000	0.000000	6.128790	-0.027084	NaN	0.000000	0.001633	0.001655	28.0833	0.050053	0.001936	25.8525	66.2521	16.5151	-0.042902	0.127408	-1.007318	-1.008666	-0.027084	25.8525	-1.006533	-2.777867E+13	9.750022E-16	NaN
1059	1.000000	0.170784	7.37541e+06	-53089.1	1055.82	-29747.3	0.000000	0.000000	6.170818	-0.045058	NaN	0.000000	0.001691	0.001671	28.0831	0.129928	0.001797	72.2915	-52.9688	-163.347	-0.016274	0.169433	-0.965290	-0.966641	-0.045058	72.2915	-0.964822	-7.618651E+12	5.914152E-15	NaN
1059	1.000000	0.212753	7.37541e+06	-53089.1	1055.82	-29747.3	0.000000	0.000000	6.212790	0.020094	NaN	0.000000	0.001684	0.001623	28.0834	0.152870	0.001962	77.92	75.6531	15.1126	-0.007256	0.211468	-0.923321	-0.924606	0.020094	77.92	-0.923514	-2.111784E+12	-9.515095E-15	NaN
1059	1.000000	0.254806	7.37541e+06	-53089.1	1055.82	-29747.3	0.000000	0.000000	6.254842	0.003277	NaN	0.000000	0.001648	0.001644	28.0845	0.067774	0.001853	36.5712	54.0576	-162.078	-0.068740	0.253483	-0.881268	-0.882591	0.003277	36.5712	-0.881335	-5.685387E+11	-5.763956E-15	NaN
1059	1.000000	0.296845	7.37541e+06	-53089.1	1055.82	-29747.3	0.000000	0.000000	6.296879	-0.053577	NaN	0.000000	0.001610	0.001626	28.0845	0.109113	0.001834	59.4877	-58.0764	12.4545	-0.050297	0.295435	-0.839229	-0.840639	-0.053577	59.4877	-0.838554	-1.498635E+11	3.575040E-13	NaN
1059	1.000000	0.338799	7.37541e+06	-53089.1	1055.82	-29747.3	0.000000	0.000000	6.338835	0.003959	NaN	0.000000	0.001648	0.001590	28.0843	0.100162	0.001982	50.5359	-137.786	-162.104	0.002685	0.337528	-0.797275	-0.798545	0.003959	50.5359	-0.797334	-4.136823E+10	-9.570463E-14	NaN
1059	1.000000	0.380849	7.37541e+06	-53089.1	1055.82	-29747.3	0.000000	0.000000	6.380885	-0.011341	NaN	0.000000	0.001655	0.001586	28.0832	0.118997	0.002121	56.0953	-18.5864	14.5433	0.052072	0.379524	-0.755225	-0.756549	-0.011341	56.0953	-0.755073	-1.102211E+10	1.028944E-12	NaN
1059	1.000000	0.422906	7.37541e+06	-53089.1	1055.82	-29747.3	0.000000	0.000000	6.422945	0.055992	NaN	0.000000	0.001675	0.001649	28.0828	0.095567	0.001912	49.9924	-92.4456	-164.268	0.003645	0.421583	-0.713167	-0.714491	0.055992	49.9924	-0.714007	-3.039000E+9	-1.842436E-11	NaN
1059	1.000000	0.464917	7.37541e+06	-53089.1	1055.82	-29747.3	0.000000	0.000000	6.464952	-0.009722	NaN	0.000000	0.001643	0.001655	28.0831	0.099769	0.001955	51.0326	20.1937	15.0839	-0.020752	0.463530	-0.671157	-0.672544	-0.009722	51.0326	-0.671014	-7.857299E+8	1.237336E-11	NaN
1059	1.000000	0.506892	7.37541e+06	-53089.1	1055.82	-29747.3	0.000000	0.000000	6.506925	-0.069292	NaN	0.000000	0.001674	0.001604	28.0844	0.108345	0.001925	56.2945	168.901	-161.769	-0.013767	0.505561	-0.629181	-0.630513	-0.069292	56.2945	-0.628258	-2.037525E+8	3.400784E-10	NaN
1059	1.000000	0.548944	7.37541e+06	-53089.1	1055.82	-29747.3	0.000000	0.000000	6.548979	-0.024384	NaN	0.000000	0.001678	0.001627	28.0845	0.019821	0.002016	9.833213	-89.6116	13.7202	-0.046877	0.547619	-0.587130	-0.588454	-0.024384	9.833213	-0.585270	-5.217214E+7	4.673766E-10	NaN
1059	1.000000	0.590943	7.37541e+06	-53089.1	1055.82	-29747.3	0.000000	0.000000	6.590981	0.053209	NaN	0.000000	0.001727	0.001704	28.0845	0.037704	0.002060	18.2995	-54.0251	-164.284	0.092718	0.589654	-0.545131	-0.546420	0.053209	18.2995	-0.547312	-1.558539E+7	-3.414002E-9	NaN
1059	1.000000	0.632961	7.37541e+06	-53089.1	1055.82	-29747.3	0.000000	0.000000	6.632994	-0.060113	NaN	0.000000	0.001647	0.001626	28.0847	0.084704	0.002153	39.3484	-57.8158	14.5322	-0.092529	0.631576	-0.503113	-0.504498	-0.060113	39.3484	-0.501967	-3.65138e+06	1.646307E-8	NaN
1059	1.000000	0.674993	7.37541e+06	-53089.1	1055.82	-29747.3	0.000000	0.000000	6.675026	-0.075638	NaN	0.000000	0.001618	0.001668	28.0833	0.035010	0.001878	18.6457	-81.1804	-164.26	-0.116875	0.673701	-0.461081	-0.462373	-0.075638	18.6457	-0.458038	-886020	8.536808E-8	NaN
1059	1.000000	0.717011	7.37541e+06	-53089.1	1055.82	-29747.3	0.000000	0.000000	6.717048	0.027762	NaN	0.000000	0.001691	0.001704	28.0834	0.041436	0.002068	20.0407	178.477	14.4602	-0.075466	0.715658	-0.419062	-0.420416	0.027762	20.0407	-0.420101	-258139	-1.075464E-7	NaN
1059	1.000000	0.759035	7.37541e+06	-53089.1	1055.82	-29747.3	0.000000	0.000000	6.759069	-0.054202	NaN	0.000000	0.001701	0.001740	28.0831	0.166107	0.001961	84.6916	106.458	-164.706	-0.059871	0.757704	-0.377039	-0.378370	-0.054202	84.6916	-0.376559	-61727.2	8.780950E-7	NaN
1059	1.000000	0.801027	7.37541e+06	-53089.1	1055.82	-29747.3	0.000000	0.000000	6.801062	-0.033715	NaN	0.000000	0.001619	0.001619	28.0842	0.032438	0.001929	16.8131	15.8801	18.1427	-0.009846	0.799661	-0.335047	-0.336412	-0.033715	16.8131	-0.333543	-14699.1	2.293666E-6	NaN
1059	1.000000	0.843075	7.37541e+06	-53089.1	1055.82	-29747.3	0.000000	0.000000	6.843111	0.009959	NaN	0.000000	0.001668	0.001698	28.0843	0.093827	0.001991	47.1173	-28.1648	-165.428	-0.013907	0.841704	-0.292999	-0.294370	0.009959	47.1173	-0.293157	-3720.1	-2.677119E-6	NaN
1059	1.000000	0.885065	7.37541e+06	-53089.1	1055.82	-29747.3	0.000000	0.000000	6.885099	-0.046451	NaN	0.000000	0.001633	0.001698	28.0842	0.025220	0.001974	12.7736	171.244	12.1387	-0.111828	0.883753	-0.251009	-0.252321	-0.046451	12.7736	-0.248282	-773.346	6.006462E-5	NaN
1059	1.000000	0.927076	7.37541e+06	-53089.1	1055.82	-29747.3	0.000000	0.000000	6.927112	-0.000594	NaN	0.000000	0.001646	0.001743	28.0832	0.057461	0.001974	29.1096	13.8301	-165.175	0.084822	0.925744	-0.208997	-0.210330	-0.000594	29.1096	-0.208982	-184.639	3.217259E-6	NaN
1059	1.000000	0.969103	7.37541e+06	-53089.1	1055.82	-29747.3	0.000000	0.000000	6.969138	-0.015056	NaN	0.000000	0.001652	0.001709	28.0831	0.104358	0.001951	53.4814	0.064215	14.3723	-0.101874	0.967783	-0.166971	-0.168290	-0.015056	53.4814	-0.166760	-36.0706	0.000417	NaN
1059	1.000000	1.011101	7.37541e+06	-53089.1	1055.82	-29747.3	0.000000	0.000000	7.011133	-0.096202	NaN	0.000000	0.001706	0.001733	28.0834	0.125753	0.002078	60.5057	12.3761	-164.053	-0.025983	1.009741	-0.124973	-0.126333	-0.096202	60.5057	-0.123781	-5.751848	0.016725	NaN
1059	1.000000	1.053154	7.37541e+06	-53089.1	1055.82	-29747.3	0.000000	0.000000	7.053190	0.016515	NaN	0.000000	0.001707	0.001755	28.0845	0.012902	0.001955	6.600810	164.954	16.0203	0.058434	1.051748	-0.082920	-0.084325	0.016515	6.600810	-0.084797	-0.812373	-0.020330	NaN
1059	1.000000	1.095146	7.37541e+06	-53089.1	1055.82	-29747.3	0.000000	0.000000	7.095181	-0.021538	NaN	0.000000	0.001611	0.001694	28.0843	0.092716	0.001903	48.7188	-42.9112	-164.028	-0.052495	1.093821	-0.040928	-0.042253	-0.021538	48.7188	-0.040596	-0.047150	0.456789	NaN
1059	1.000000	1.137149	7.37541e+06	-53089.1	1055.82	-29747.3	0.000000	0.000000	7.137338	3.730365	NaN	0.000000	0.001617	0.001730	28.0843	4.648483	0.001750	2656.24	9.854114	11.8265	2.041587	1.135779	0.001075	-0.000294	3.730365	2656.24	2.166808E-5	1.619955E-5	230276	602960
1059	2.000000	1.150627	7.37541e+06	-53089.1	1055.82	-29747.3	0.000000	0.000000	7.151750	26.4316	NaN	0.000000	0.001636	0.001695	28.0845	19.3305	0.001810	10678.7	5.882127	-174.75	25.8063	1.150300	0.014554	0.014226	26.4316	10678.7	0.012697	0.012336	2142.66	87843
1059	2.000000	1.161107	7.37541e+06	-53089.1	1055.82	-29747.3	0.000000	0.000000	7.163332	53.224	NaN	0.000000	0.001649	0.001675	28.0834	29.3713	0.001730	16981.3	2.089251	3.349788	51.5242	1.160796	0.025033	0.024723	53.224	16981.3	0.022682	0.026934	1976.12	94536
1059	2.000000	1.171559	7.37541e+06	-53089.1	1055.82	-29747.3	0.000000	0.000000	7.175263	89.1851	NaN	0.000000	0.001666	0.001703	28.0831	38.6605	0.001791	21586.7	4.654672	179.892	89.0094	1.171317	0.035485	0.035243	89.1851	21586.7	0.032386	0.045835	1945.8	92121.7
1059	2.000000	1.182006	7.37541e+06	-53089.1	1055.82	-29747.3	0.000000	0.000000	7.187526	133.344	NaN	0.000000	0.001680	0.001684	28.0832	48.5572	0.001824	26622.4	7.449730	-4.960340	128.537	1.181649	0.045932	0.045575	133.344	26622.4	0.042175	0.069771	1911.15	92083.6
1059	2.000000	1.192644	7.37541e+06	-53089.1	1055.82	-29747.3	0.000000	0.000000	7.200146	181.526	NaN	0.000000	0.001699	0.001729	28.0847	58.4204	0.001863	31354.9	11.8643	170.082	184.333	1.192149	0.056570	0.056075	181.526	31354.9	0.052228	0.099424	1825.78	90851.5
1059	2.000000	1.203139	7.37541e+06	-53089.1	1055.82	-29747.3	0.000000	0.000000	7.212829	234.734	NaN	0.000000	0.001659	0.001696	28.0845	68.14	0.001730	39389.6	5.393569	-6.700755	237.302	1.202759	0.067065	0.066686	234.734	39389.6	0.062595	0.135279	1735.18	97845
1059	2.000000	1.213411	7.37541e+06	-53089.1	1055.82	-29747.3	0.000000	0.000000	7.225535	293.908	NaN	0.000000	0.001654	0.001708	28.0846	76.5884	0.001712	44733	3.917213	173.494	287.489	1.213210	0.077337	0.077137	293.908	44733	0.072409	0.174027	1688.87	97970.2
1059	2.000000	1.223975	7.37541e+06	-53089.1	1055.82	-29747.3	0.000000	0.000000	7.239514	376.933	NaN	0.000000	0.001676	0.001691	28.0834	86.6208	0.001723	50277.1	3.595219	-6.471509	372.963	1.223652	0.087901	0.087578	376.933	50277.1	0.082278	0.217589	1732.32	98474.9
1059	2.000000	1.234451	7.37541e+06	-53089.1	1055.82	-29747.3	0.000000	0.000000	7.253025	450.727	NaN	0.000000	0.001655	0.001749	28.0835	96.7151	0.001814	53328.8	4.320852	171.748	447.807	1.234203	0.098377	0.098129	450.727	53328.8	0.092038	0.265117	1700.1	94627.1
1059	2.000000	1.239594	7.37541e+06	-53089.1	1055.82	-29747.3	0.000000	0.000000	7.259661	487.021	NaN	0.000000	0.001655	0.001752	28.0835	102.298	0.001786	57290.4	5.012372	170.45	489.119	1.239346	0.103520	0.103272	487.021	57290.4	0.097144	0.291720	1669.48	96910.7