File: remote_trans/data/nanoindenter/0828-1/data/Data_2025-08-06,11h17m57s/2025-07-22_16-23-58_1_697.txt
2025-07-22, 16:23:58, 1
Index	Phase	Displacement	Time	Pos X	Pos Y	Pos Z	Rot A	Rot B	Piezo Z	Force A	Force B	Gripper	Voltage A	Voltage B	Temperature	Amplitude force	Amplitude pos	Stiffness	Phase shift	Phase excitation	Force A raw	Displacement raw	HMax	HMax raw	Real Force	Real Stiffness	Contact Depth	Area	Hardness	Reduced Mod.
[#]	[#]	[um]	[s]	[um]	[um]	[um]	[m°]	[m°]	[um]	[uN]	[uN]	[V]	[V]	[V]	[°C]	[uN]	[um]	[N/m]	[°]	[°]	[uN]	[um]	[um]	[um]	[uN]	[N/m]	[um]	[um^2]	[MPa]	[MPa]
697	1.000000	0.002167	7.37187e+06	-42239.1	1005.82	-29783.4	0.000000	0.000000	6.002794	-0.008693	NaN	0.000000	0.001558	0.001741	28.0832	0.046799	0.000998	46.8737	-86.1555	-162.75	-0.090904	0.000913	-1.073811	-1.075066	-0.008693	46.8737	-1.073672	-2.220863E+14	3.914108E-17	NaN
697	1.000000	0.042126	7.37187e+06	-42239.1	1005.82	-29783.4	0.000000	0.000000	6.042753	0.007202	NaN	0.000000	0.001621	0.001743	28.0833	0.071647	0.002017	35.5294	-123.379	-167.365	0.000429	0.040798	-1.033853	-1.035180	0.007202	35.5294	-1.034005	-6.506454E+13	-1.106945E-16	NaN
697	1.000000	0.082145	7.37187e+06	-42239.1	1005.82	-29783.4	0.000000	0.000000	6.082770	-0.040896	NaN	0.000000	0.001678	0.001735	28.082	0.067836	0.002006	33.8191	-84.1388	-165.931	-0.098601	0.080797	-0.993834	-0.995182	-0.040896	33.8191	-0.992927	-1.821932E+13	2.244650E-15	NaN
697	1.000000	0.122155	7.37187e+06	-42239.1	1005.82	-29783.4	0.000000	0.000000	6.122786	0.095463	NaN	0.000000	0.001678	0.001727	28.0815	0.082209	0.002018	40.7408	-101.317	-164.412	0.131156	0.120882	-0.953824	-0.955096	0.095463	40.7408	-0.955581	-5.718586E+12	-1.669338E-14	NaN
697	1.000000	0.162172	7.37187e+06	-42239.1	1005.82	-29783.4	0.000000	0.000000	6.162802	0.081290	NaN	0.000000	0.001646	0.001702	28.0814	0.065757	0.002042	32.203	29.9463	-166.195	0.058950	0.160820	-0.913807	-0.915159	0.081290	32.203	-0.915700	-1.656322E+12	-4.907834E-14	NaN
697	1.000000	0.202147	7.37187e+06	-42239.1	1005.82	-29783.4	0.000000	0.000000	6.202774	-0.012771	NaN	0.000000	0.001656	0.001716	28.0826	0.067524	0.002180	30.9783	-104.335	-165.225	-0.043768	0.200907	-0.873832	-0.875072	-0.012771	30.9783	-0.873522	-4.457542E+11	2.865085E-14	NaN
697	1.000000	0.242211	7.37187e+06	-42239.1	1005.82	-29783.4	0.000000	0.000000	6.242841	0.065100	NaN	0.000000	0.001604	0.001763	28.0831	0.061129	0.001962	31.1529	55.5367	-166.834	0.046238	0.240871	-0.833767	-0.835108	0.065100	31.1529	-0.835335	-1.355445E+11	-4.802835E-13	NaN
697	1.000000	0.282206	7.37187e+06	-42239.1	1005.82	-29783.4	0.000000	0.000000	6.282836	0.058343	NaN	0.000000	0.001639	0.001719	28.083	0.017922	0.001830	9.794014	99.8421	-167.9	0.141779	0.280959	-0.793772	-0.795019	0.058343	9.794014	-0.798240	-4.255709E+10	-1.370931E-12	NaN
697	1.000000	0.322239	7.37187e+06	-42239.1	1005.82	-29783.4	0.000000	0.000000	6.322866	0.001838	NaN	0.000000	0.001629	0.001778	28.083	0.053461	0.001843	29.0144	179.117	-165.882	0.009414	0.320918	-0.753740	-0.755061	0.001838	29.0144	-0.753787	-1.058685E+10	-1.736095E-13	NaN
697	1.000000	0.362230	7.37187e+06	-42239.1	1005.82	-29783.4	0.000000	0.000000	6.362860	0.062469	NaN	0.000000	0.001685	0.001721	28.0818	0.040044	0.002128	18.8135	44.7232	-163.865	0.043784	0.360962	-0.713748	-0.715017	0.062469	18.8135	-0.716238	-3.259625E+9	-1.916436E-11	NaN
697	1.000000	0.402265	7.37187e+06	-42239.1	1005.82	-29783.4	0.000000	0.000000	6.402897	0.124815	NaN	0.000000	0.001699	0.001674	28.0818	0.038987	0.002017	19.3275	49.4945	-163.201	0.124985	0.400969	-0.673713	-0.675010	0.124815	19.3275	-0.678557	-9.964778E+8	-1.252565E-10	NaN
697	1.000000	0.442283	7.37187e+06	-42239.1	1005.82	-29783.4	0.000000	0.000000	6.442912	0.047332	NaN	0.000000	0.001666	0.001706	28.0816	0.015607	0.001999	7.806550	90.9946	-166.492	-0.017587	0.441006	-0.633695	-0.634972	0.047332	7.806550	-0.638243	-2.793679E+8	-1.694266E-10	NaN
697	1.000000	0.482291	7.37187e+06	-42239.1	1005.82	-29783.4	0.000000	0.000000	6.482919	0.010760	NaN	0.000000	0.001646	0.001731	28.0828	0.031742	0.001926	16.4766	2.379511	-166.441	-0.050767	0.480987	-0.593687	-0.594991	0.010760	16.4766	-0.594177	-6.922136E+7	-1.554475E-10	NaN
697	1.000000	0.522298	7.37187e+06	-42239.1	1005.82	-29783.4	0.000000	0.000000	6.522925	-0.007669	NaN	0.000000	0.001635	0.001762	28.0828	0.041024	0.001988	20.6386	-153.188	-166.535	0.002341	0.520983	-0.553680	-0.554996	-0.007669	20.6386	-0.553402	-1.892610E+7	4.051853E-10	NaN
697	1.000000	0.562323	7.37187e+06	-42239.1	1005.82	-29783.4	0.000000	0.000000	6.562953	0.070766	NaN	0.000000	0.001611	0.001767	28.0827	0.101555	0.002034	49.9289	-126.931	-165.143	0.040878	0.561016	-0.513656	-0.514962	0.070766	49.9289	-0.514719	-5.49688e+06	-1.287382E-8	NaN
697	1.000000	0.602358	7.37187e+06	-42239.1	1005.82	-29783.4	0.000000	0.000000	6.602987	0.038153	NaN	0.000000	0.001642	0.001739	28.0817	0.053432	0.001967	27.1677	135.334	-167.146	0.013701	0.601004	-0.473620	-0.474975	0.038153	27.1677	-0.474673	-1.51678e+06	-2.515366E-8	NaN
697	1.000000	0.642342	7.37187e+06	-42239.1	1005.82	-29783.4	0.000000	0.000000	6.642971	0.032902	NaN	0.000000	0.001629	0.001709	28.0818	0.015368	0.002121	7.245598	-30.3583	-167.142	0.071558	0.641083	-0.433636	-0.434896	0.032902	7.245598	-0.437042	-448333	-7.338683E-8	NaN
697	1.000000	0.682387	7.37187e+06	-42239.1	1005.82	-29783.4	0.000000	0.000000	6.683019	0.105749	NaN	0.000000	0.001647	0.001701	28.0817	0.103975	0.001922	54.0913	146.047	-165.996	0.090448	0.681086	-0.393591	-0.394893	0.105749	54.0913	-0.395058	-113621	-9.307203E-7	NaN
697	1.000000	0.722401	7.37187e+06	-42239.1	1005.82	-29783.4	0.000000	0.000000	6.723032	0.104175	NaN	0.000000	0.001584	0.001726	28.0815	0.020424	0.001965	10.3943	10.205	-165.815	0.070723	0.721083	-0.353578	-0.354895	0.104175	10.3943	-0.361095	-36954.3	-2.819024E-6	NaN
697	1.000000	0.762403	7.37187e+06	-42239.1	1005.82	-29783.4	0.000000	0.000000	6.763029	-0.019993	NaN	0.000000	0.001588	0.001718	28.083	0.038021	0.001995	19.0545	163.456	-165.888	0.024432	0.761099	-0.313575	-0.314880	-0.019993	19.0545	-0.312789	-7282.68	2.745284E-6	NaN
697	1.000000	0.802427	7.37187e+06	-42239.1	1005.82	-29783.4	0.000000	0.000000	6.803054	0.015702	NaN	0.000000	0.001626	0.001678	28.0828	0.125712	0.001956	64.2831	-135.449	-164.643	-0.002158	0.801107	-0.273552	-0.274872	0.015702	64.2831	-0.273735	-1897.75	-8.273918E-6	NaN
697	1.000000	0.842455	7.37187e+06	-42239.1	1005.82	-29783.4	0.000000	0.000000	6.843085	0.097774	NaN	0.000000	0.001610	0.001699	28.0826	0.087957	0.002057	42.7556	-114.052	-166.796	-0.049786	0.841161	-0.233524	-0.234817	0.097774	42.7556	-0.235239	-484.177	-0.000202	NaN
697	1.000000	0.882492	7.37187e+06	-42239.1	1005.82	-29783.4	0.000000	0.000000	6.883122	0.074836	NaN	0.000000	0.001628	0.001730	28.0816	0.070857	0.002016	35.1519	22.3345	-165.766	0.020539	0.881150	-0.193486	-0.194829	0.074836	35.1519	-0.195083	-109.289	-0.000685	NaN
697	1.000000	0.922462	7.37187e+06	-42239.1	1005.82	-29783.4	0.000000	0.000000	6.923091	0.058865	NaN	0.000000	0.001649	0.001726	28.0816	0.057516	0.002091	27.5055	-145.48	-166.707	0.057888	0.921165	-0.153517	-0.154814	0.058865	27.5055	-0.155122	-22.4272	-0.002625	NaN
697	1.000000	0.962469	7.37187e+06	-42239.1	1005.82	-29783.4	0.000000	0.000000	6.963098	0.048170	NaN	0.000000	0.001667	0.001743	28.0815	0.090022	0.002112	42.6227	59.1129	-164.97	0.012288	0.961181	-0.113509	-0.114797	0.048170	42.6227	-0.114357	-3.705348	-0.013000	NaN
697	1.000000	1.002530	7.37187e+06	-42239.1	1005.82	-29783.4	0.000000	0.000000	7.003159	0.065472	NaN	0.000000	0.001607	0.001697	28.0815	0.185100	0.001855	99.7685	169.203	-164.029	0.067820	1.001161	-0.073449	-0.074817	0.065472	99.7685	-0.073941	-0.433542	-0.151017	NaN
697	1.000000	1.042520	7.37187e+06	-42239.1	1005.82	-29783.4	0.000000	0.000000	7.043148	0.045428	NaN	0.000000	0.001637	0.001726	28.0829	0.056506	0.002087	27.0807	146.066	-165.792	0.047160	1.041220	-0.033459	-0.034759	0.045428	27.0807	-0.034717	-0.031417	-1.445968	NaN
697	2.000000	1.082019	7.37187e+06	-42239.1	1005.82	-29783.4	0.000000	0.000000	7.082984	8.219988	NaN	0.000000	0.001550	0.001765	28.083	7.526031	0.001688	4459.16	7.595786	-168.988	7.500813	1.081135	0.006040	0.005156	8.219988	4459.16	0.004658	0.003823	2150.07	65889.6
697	2.000000	1.092122	7.37187e+06	-42239.1	1005.82	-29783.4	0.000000	0.000000	7.093783	25.1709	NaN	0.000000	0.001608	0.001713	28.0829	18.7588	0.001974	9500.96	4.463313	-174.458	24.4621	1.091848	0.016143	0.015869	25.1709	9500.96	0.014156	0.014177	1775.53	72904.8
697	2.000000	1.102081	7.37187e+06	-42239.1	1005.82	-29783.4	0.000000	0.000000	7.104865	52.4792	NaN	0.000000	0.001660	0.001692	28.0816	29.36	0.001739	16881.2	6.299964	177.794	50.738	1.101789	0.026103	0.025811	52.4792	16881.2	0.023771	0.028818	1821.06	90854.2
697	2.000000	1.112042	7.37187e+06	-42239.1	1005.82	-29783.4	0.000000	0.000000	7.115911	78.8971	NaN	0.000000	0.001669	0.001727	28.0815	38.0614	0.001781	21367.6	3.316205	179.305	77.2911	1.111771	0.036063	0.035792	78.8971	21367.6	0.033294	0.047848	1648.92	89248
697	2.000000	1.122061	7.37187e+06	-42239.1	1005.82	-29783.4	0.000000	0.000000	7.127303	112.288	NaN	0.000000	0.001658	0.001744	28.0816	47.2128	0.001921	24582.8	4.609748	178.252	111.64	1.121738	0.046082	0.045760	112.288	24582.8	0.042657	0.071074	1579.88	84246.1
697	2.000000	1.132007	7.37187e+06	-42239.1	1005.82	-29783.4	0.000000	0.000000	7.139139	158.272	NaN	0.000000	0.001647	0.001754	28.0826	55.791	0.001823	30611.4	4.151984	175.244	156.311	1.131797	0.056029	0.055818	158.272	30611.4	0.052151	0.099177	1595.86	88807.9
697	2.000000	1.141979	7.37187e+06	-42239.1	1005.82	-29783.4	0.000000	0.000000	7.151304	211.635	NaN	0.000000	0.001622	0.001764	28.0829	64.268	0.001752	36677.7	3.943072	174.752	209.172	1.141794	0.066000	0.065815	211.635	36677.7	0.061673	0.131875	1604.82	92277
697	2.000000	1.152020	7.37187e+06	-42239.1	1005.82	-29783.4	0.000000	0.000000	7.163878	273.272	NaN	0.000000	0.001616	0.001733	28.0827	75.3615	0.001884	40000.9	3.749213	174.449	272.587	1.151746	0.076041	0.075767	273.272	40000.9	0.070917	0.167839	1628.18	89206.4
697	2.000000	1.161973	7.37187e+06	-42239.1	1005.82	-29783.4	0.000000	0.000000	7.176653	341.935	NaN	0.000000	0.001614	0.001719	28.0827	83.4717	0.001786	46731.1	4.785394	172.736	340.238	1.161632	0.085994	0.085653	341.935	46731.1	0.080506	0.209432	1632.67	93294.8
697	2.000000	1.171936	7.37187e+06	-42239.1	1005.82	-29783.4	0.000000	0.000000	7.189670	416.245	NaN	0.000000	0.001657	0.001709	28.0817	93.3047	0.001872	49843.1	8.879841	168.13	413.967	1.171625	0.095957	0.095647	416.245	49843.1	0.089694	0.253302	1643.28	90481.4
697	2.000000	1.180485	7.37187e+06	-42239.1	1005.82	-29783.4	0.000000	0.000000	7.200846	480.151	NaN	0.000000	0.001667	0.001675	28.0814	98.1312	0.001730	56726.6	0.891447	-4.606020	477.402	1.180138	0.104506	0.104159	480.151	56726.6	0.098158	0.297145	1615.88	95077