File: remote_trans/data/nanoindenter/0828-1/data/Data_2025-08-06,11h17m57s/2025-07-22_16-23-58_1_669.txt
2025-07-22, 16:23:58, 1
Index	Phase	Displacement	Time	Pos X	Pos Y	Pos Z	Rot A	Rot B	Piezo Z	Force A	Force B	Gripper	Voltage A	Voltage B	Temperature	Amplitude force	Amplitude pos	Stiffness	Phase shift	Phase excitation	Force A raw	Displacement raw	HMax	HMax raw	Real Force	Real Stiffness	Contact Depth	Area	Hardness	Reduced Mod.
[#]	[#]	[um]	[s]	[um]	[um]	[um]	[m°]	[m°]	[um]	[uN]	[uN]	[V]	[V]	[V]	[°C]	[uN]	[um]	[N/m]	[°]	[°]	[uN]	[um]	[um]	[um]	[uN]	[N/m]	[um]	[um^2]	[MPa]	[MPa]
669	1.000000	0.002529	7.37159e+06	-43639.1	1005.82	-29778.4	0.000000	0.000000	6.002823	0.051619	NaN	0.000000	0.001621	0.001737	28.0843	0.039654	0.000992	39.9582	-133.943	-171.313	0.013968	0.001206	-1.048938	-1.050261	0.051619	39.9582	-1.049907	-1.064542E+14	-4.848913E-16	NaN
669	1.000000	0.042463	7.37159e+06	-43639.1	1005.82	-29778.4	0.000000	0.000000	6.042757	0.019080	NaN	0.000000	0.001572	0.001700	28.0832	0.013119	0.002045	6.414092	-145.29	-167.553	0.039815	0.041121	-1.009003	-1.010345	0.019080	6.414092	-1.011234	-3.213612E+13	-5.937223E-16	NaN
669	1.000000	0.082450	7.37159e+06	-43639.1	1005.82	-29778.4	0.000000	0.000000	6.082743	0.026427	NaN	0.000000	0.001599	0.001721	28.0831	0.099832	0.001988	50.2098	148.269	-165.972	-0.066037	0.081137	-0.969017	-0.970329	0.026427	50.2098	-0.969412	-8.784843E+12	-3.008262E-15	NaN
669	1.000000	0.122493	7.37159e+06	-43639.1	1005.82	-29778.4	0.000000	0.000000	6.122789	0.085371	NaN	0.000000	0.001656	0.001732	28.083	0.119523	0.002007	59.543	-134.043	-165.262	0.070549	0.121174	-0.928973	-0.930293	0.085371	59.543	-0.930049	-2.587352E+12	-3.299554E-14	NaN
669	1.000000	0.162507	7.3716e+06	-43639.1	1005.82	-29778.4	0.000000	0.000000	6.162801	0.044786	NaN	0.000000	0.001610	0.001765	28.0828	0.048334	0.001993	24.2502	-104.211	-166.352	0.054983	0.161219	-0.888960	-0.890247	0.044786	24.2502	-0.890345	-7.526268E+11	-5.950611E-14	NaN
669	1.000000	0.202516	7.3716e+06	-43639.1	1005.82	-29778.4	0.000000	0.000000	6.202808	-0.006625	NaN	0.000000	0.001572	0.001719	28.0841	0.072723	0.001934	37.5961	-152.439	-162.869	-0.113426	0.201245	-0.848951	-0.850221	-0.006625	37.5961	-0.848819	-2.064157E+11	3.209714E-14	NaN
669	1.000000	0.242537	7.3716e+06	-43639.1	1005.82	-29778.4	0.000000	0.000000	6.242828	-0.035428	NaN	0.000000	0.001638	0.001754	28.0843	0.048558	0.001918	25.3211	-119.164	-168.556	0.009797	0.241279	-0.808930	-0.810188	-0.035428	25.3211	-0.807880	-5.751864E+10	6.159456E-13	NaN
669	1.000000	0.282552	7.3716e+06	-43639.1	1005.82	-29778.4	0.000000	0.000000	6.282845	0.013840	NaN	0.000000	0.001623	0.001716	28.0844	0.037745	0.002008	18.7958	-157.922	-163.843	-0.026988	0.281264	-0.768914	-0.770203	0.013840	18.7958	-0.769467	-1.730036E+10	-7.999999E-13	NaN
669	1.000000	0.322568	7.3716e+06	-43639.1	1005.82	-29778.4	0.000000	0.000000	6.322861	0.022894	NaN	0.000000	0.001650	0.001713	28.083	0.107556	0.002061	52.1775	46.4624	-165.677	0.052220	0.321294	-0.728899	-0.730173	0.022894	52.1775	-0.729228	-4.901000E+9	-4.671329E-12	NaN
669	1.000000	0.362568	7.3716e+06	-43639.1	1005.82	-29778.4	0.000000	0.000000	6.362862	0.056064	NaN	0.000000	0.001630	0.001739	28.0841	0.090549	0.001908	47.4607	-21.8472	-163.681	0.034720	0.361261	-0.688899	-0.690206	0.056064	47.4607	-0.689785	-1.418980E+9	-3.950999E-11	NaN
669	1.000000	0.402600	7.3716e+06	-43639.1	1005.82	-29778.4	0.000000	0.000000	6.402893	0.006248	NaN	0.000000	0.001572	0.001740	28.0832	0.091997	0.002044	45.0158	-40.4738	-166.181	0.084410	0.401254	-0.648866	-0.650213	0.006248	45.0158	-0.648970	-3.920296E+8	-1.593679E-11	NaN
669	1.000000	0.442596	7.3716e+06	-43639.1	1005.82	-29778.4	0.000000	0.000000	6.442889	-0.006979	NaN	0.000000	0.001586	0.001750	28.0842	0.075019	0.002000	37.5084	-26.6562	-165.098	0.087572	0.441312	-0.608870	-0.610155	-0.006979	37.5084	-0.608731	-1.098115E+8	6.355782E-11	NaN
669	1.000000	0.482631	7.3716e+06	-43639.1	1005.82	-29778.4	0.000000	0.000000	6.482923	0.005104	NaN	0.000000	0.001581	0.001730	28.0841	0.050664	0.002078	24.381	-154.122	-166.279	0.018553	0.481325	-0.568836	-0.570142	0.005104	24.381	-0.568993	-3.109685E+7	-1.641254E-10	NaN
669	1.000000	0.522672	7.3716e+06	-43639.1	1005.82	-29778.4	0.000000	0.000000	6.522968	0.092803	NaN	0.000000	0.001483	0.001715	28.0844	0.052755	0.002057	25.6464	-131.668	-167.802	0.041234	0.521337	-0.528794	-0.530129	0.092803	25.6464	-0.531508	-9.40847e+06	-9.863764E-9	NaN
669	1.000000	0.562690	7.3716e+06	-43639.1	1005.82	-29778.4	0.000000	0.000000	6.562981	-0.038836	NaN	0.000000	0.001577	0.001697	28.0845	0.003319	0.002154	1.540900	54.1817	-165.958	0.058721	0.561366	-0.488777	-0.490100	-0.038836	1.540900	-0.469874	-1.29911e+06	2.989402E-8	NaN
669	1.000000	0.602674	7.3716e+06	-43639.1	1005.82	-29778.4	0.000000	0.000000	6.602966	-0.002261	NaN	0.000000	0.001619	0.001712	28.0831	0.065805	0.001993	33.024	131.777	-166.774	-0.035534	0.601373	-0.448793	-0.450093	-0.002261	33.024	-0.448741	-655563	3.448698E-9	NaN
669	1.000000	0.642720	7.3716e+06	-43639.1	1005.82	-29778.4	0.000000	0.000000	6.643014	0.041140	NaN	0.000000	0.001549	0.001793	28.0833	0.028809	0.002126	13.5511	147.893	-164.183	0.034598	0.641368	-0.408746	-0.410098	0.041140	13.5511	-0.411023	-191845	-2.144456E-7	NaN
669	1.000000	0.682712	7.3716e+06	-43639.1	1005.82	-29778.4	0.000000	0.000000	6.683004	0.006486	NaN	0.000000	0.001568	0.001795	28.0834	0.007336	0.001995	3.677985	150.324	-166.282	0.009635	0.681361	-0.368755	-0.370105	0.006486	3.677985	-0.370078	-49801.7	-1.302371E-7	NaN
669	1.000000	0.722744	7.3716e+06	-43639.1	1005.82	-29778.4	0.000000	0.000000	6.723037	0.004951	NaN	0.000000	0.001584	0.001697	28.0848	0.050069	0.002048	24.4519	122.973	-165.861	0.022020	0.721413	-0.328723	-0.330054	0.004951	24.4519	-0.328874	-12559.2	-3.941892E-7	NaN
669	1.000000	0.762760	7.3716e+06	-43639.1	1005.82	-29778.4	0.000000	0.000000	6.763054	0.042569	NaN	0.000000	0.001592	0.001715	28.0846	0.076947	0.001977	38.927	142.387	-166.652	0.116591	0.761526	-0.288707	-0.289941	0.042569	38.927	-0.289527	-3282.56	-1.296809E-5	NaN
669	1.000000	0.802741	7.3716e+06	-43639.1	1005.82	-29778.4	0.000000	0.000000	6.803034	0.016446	NaN	0.000000	0.001629	0.001750	28.0843	0.108455	0.001999	54.2515	-36.8764	-166.783	0.025068	0.801496	-0.248726	-0.249970	0.016446	54.2515	-0.248953	-792.075	-2.076301E-5	NaN
669	1.000000	0.842824	7.3716e+06	-43639.1	1005.82	-29778.4	0.000000	0.000000	6.843116	0.007236	NaN	0.000000	0.001615	0.001727	28.0843	0.002740	0.002121	1.291887	-108.534	-164.57	0.017001	0.841491	-0.208643	-0.209976	0.007236	1.291887	-0.212844	-213.196	-3.393834E-5	NaN
669	1.000000	0.882822	7.3716e+06	-43639.1	1005.82	-29778.4	0.000000	0.000000	6.883113	-0.025885	NaN	0.000000	0.001591	0.001731	28.0829	0.096663	0.001973	48.9877	141.994	-166.471	-0.070107	0.881482	-0.168645	-0.169985	-0.025885	48.9877	-0.168248	-38.2944	0.000676	NaN
669	1.000000	0.922803	7.3716e+06	-43639.1	1005.82	-29778.4	0.000000	0.000000	6.923096	0.015062	NaN	0.000000	0.001620	0.001746	28.0832	0.042194	0.002009	21.0011	-110.449	-171.802	-0.043314	0.921538	-0.128664	-0.129929	0.015062	21.0011	-0.129202	-7.353320	-0.002048	NaN
669	1.000000	0.962839	7.3716e+06	-43639.1	1005.82	-29778.4	0.000000	0.000000	6.963133	0.035848	NaN	0.000000	0.001611	0.001771	28.083	0.071733	0.001934	37.0843	-149.275	-168.734	0.057521	0.961509	-0.088628	-0.089957	0.035848	37.0843	-0.089353	-1.043747	-0.034345	NaN
669	1.000000	1.002855	7.3716e+06	-43639.1	1005.82	-29778.4	0.000000	0.000000	7.003146	-0.027318	NaN	0.000000	0.001637	0.001784	28.0842	0.162580	0.001990	81.706	112.755	-167.583	0.004936	1.001530	-0.048612	-0.049936	-0.027318	81.706	-0.048361	-0.081384	0.335669	NaN
669	1.000000	1.042867	7.3716e+06	-43639.1	1005.82	-29778.4	0.000000	0.000000	7.043158	-0.033181	NaN	0.000000	0.001701	0.001744	28.0842	0.039611	0.002017	19.6376	-178.055	-168.838	-0.082873	1.041566	-0.008600	-0.009901	-0.033181	19.6376	-0.007333	-0.004838	6.857911	NaN
669	2.000000	1.068486	7.3716e+06	-43639.1	1005.82	-29778.4	0.000000	0.000000	7.069312	12.9823	NaN	0.000000	0.001629	0.001708	28.0845	13.4222	0.001823	7364.32	9.294734	-177.689	12.5871	1.068152	0.017019	0.016686	12.9823	7364.32	0.015697	0.016227	800.064	52819.3
669	2.000000	1.078428	7.3716e+06	-43639.1	1005.82	-29778.4	0.000000	0.000000	7.080044	32.1846	NaN	0.000000	0.001635	0.001710	28.0833	22.6219	0.001820	12426.3	6.195636	-178.378	31.7498	1.078159	0.026962	0.026693	32.1846	12426.3	0.025019	0.031051	1036.52	64429
669	2.000000	1.088372	7.3716e+06	-43639.1	1005.82	-29778.4	0.000000	0.000000	7.091263	63.2155	NaN	0.000000	0.001635	0.001740	28.0829	32.8485	0.001864	17622.7	3.677486	-179.782	61.3834	1.088137	0.036905	0.036671	63.2155	17622.7	0.034215	0.049934	1265.99	72052.2
669	2.000000	1.098400	7.3716e+06	-43639.1	1005.82	-29778.4	0.000000	0.000000	7.102763	99.0238	NaN	0.000000	0.001631	0.001749	28.0829	42.3738	0.001842	23008.2	5.294435	176.862	99.0446	1.098082	0.046934	0.046616	99.0238	23008.2	0.043706	0.073956	1338.96	77298.2
669	2.000000	1.108384	7.3716e+06	-43639.1	1005.82	-29778.4	0.000000	0.000000	7.114801	149.013	NaN	0.000000	0.001621	0.001770	28.0831	51.9536	0.001788	29048.8	4.019492	175.811	150.356	1.108111	0.056917	0.056644	149.013	29048.8	0.053070	0.102138	1458.94	83043.7
669	2.000000	1.118359	7.3716e+06	-43639.1	1005.82	-29778.4	0.000000	0.000000	7.126960	202.153	NaN	0.000000	0.001652	0.001714	28.0844	62.9615	0.001908	32997.4	6.528806	172.525	201.41	1.118044	0.066892	0.066577	202.153	32997.4	0.062297	0.134175	1506.63	82303.2
669	2.000000	1.128373	7.3716e+06	-43639.1	1005.82	-29778.4	0.000000	0.000000	7.139356	260.114	NaN	0.000000	0.001646	0.001719	28.084	71.5022	0.001867	38305.1	0.656682	177.004	260.152	1.128085	0.076906	0.076618	260.114	38305.1	0.071813	0.171542	1516.33	84497.7
669	2.000000	1.138297	7.3716e+06	-43639.1	1005.82	-29778.4	0.000000	0.000000	7.152023	326.822	NaN	0.000000	0.001639	0.001731	28.0842	80.7282	0.001910	42260.7	4.877633	172.147	324.454	1.137975	0.086831	0.086508	326.822	42260.7	0.081031	0.211831	1542.85	83891
669	2.000000	1.148265	7.3716e+06	-43639.1	1005.82	-29778.4	0.000000	0.000000	7.164668	391.959	NaN	0.000000	0.001629	0.001718	28.0831	90.1321	0.001865	48321.9	2.236681	173.772	389.181	1.148048	0.096798	0.096581	391.959	48321.9	0.090715	0.258414	1516.79	86847.9
669	2.000000	1.158257	7.3716e+06	-43639.1	1005.82	-29778.4	0.000000	0.000000	7.178064	474.784	NaN	0.000000	0.001656	0.001694	28.0831	98.2783	0.001860	52831.1	5.211212	170.124	471.817	1.158001	0.106791	0.106534	474.784	52831.1	0.100051	0.307395	1544.54	87059.2
669	2.000000	1.162258	7.3716e+06	-43639.1	1005.82	-29778.4	0.000000	0.000000	7.183689	514.298	NaN	0.000000	0.001695	0.001719	28.0829	100.758	0.001797	56066.7	4.493484	170.858	510.587	1.161968	0.110791	0.110502	514.298	56066.7	0.103911	0.328810	1564.12	89331.8