File: remote_trans/data/nanoindenter/0828-1/data/Data_2025-08-06,11h17m57s/2025-07-22_16-23-58_1_343.txt
2025-07-22, 16:23:58, 1
Index	Phase	Displacement	Time	Pos X	Pos Y	Pos Z	Rot A	Rot B	Piezo Z	Force A	Force B	Gripper	Voltage A	Voltage B	Temperature	Amplitude force	Amplitude pos	Stiffness	Phase shift	Phase excitation	Force A raw	Displacement raw	HMax	HMax raw	Real Force	Real Stiffness	Contact Depth	Area	Hardness	Reduced Mod.
[#]	[#]	[um]	[s]	[um]	[um]	[um]	[m°]	[m°]	[um]	[uN]	[uN]	[V]	[V]	[V]	[°C]	[uN]	[um]	[N/m]	[°]	[°]	[uN]	[um]	[um]	[um]	[uN]	[N/m]	[um]	[um^2]	[MPa]	[MPa]
343	1.000000	0.002539	7.36842e+06	-55789.1	955.818	-29741	0.000000	0.000000	6.002805	-0.087149	NaN	0.000000	0.001627	0.001705	28.0806	0.087786	0.000850	103.326	143.23	-165.986	-0.151973	0.001261	-1.114740	-1.116018	-0.087149	103.326	-1.114107	-7.751869E+14	1.124234E-16	NaN
343	1.000000	0.044468	7.36842e+06	-55789.1	955.817	-29741	0.000000	0.000000	6.044737	-0.016422	NaN	0.000000	0.001556	0.001646	28.0807	0.097376	0.001926	50.5484	31.6274	17.4587	0.014291	0.043142	-1.072811	-1.074137	-0.016422	50.5484	-1.072567	-2.146215E+14	7.651816E-17	NaN
343	1.000000	0.086503	7.36842e+06	-55789.1	955.818	-29741	0.000000	0.000000	6.086771	-0.039993	NaN	0.000000	0.001576	0.001720	28.0803	0.024087	0.001829	13.1715	67.1952	-166.305	0.016070	0.085170	-1.030776	-1.032108	-0.039993	13.1715	-1.028499	-5.486378E+13	7.289528E-16	NaN
343	1.000000	0.128528	7.36842e+06	-55789.1	955.819	-29741	0.000000	0.000000	6.128796	-0.057984	NaN	0.000000	0.001470	0.001687	28.0814	0.133896	0.002090	64.0531	159.974	13.8783	-0.088368	0.127140	-0.988750	-0.990139	-0.057984	64.0531	-0.988071	-1.567242E+13	3.699729E-15	NaN
343	1.000000	0.170523	7.36842e+06	-55789.1	955.818	-29741	0.000000	0.000000	6.170794	0.007284	NaN	0.000000	0.001554	0.001685	28.0816	0.095021	0.001940	48.9727	73.6808	-165.506	-0.047369	0.169174	-0.946755	-0.948104	0.007284	48.9727	-0.946867	-4.362806E+12	-1.669505E-15	NaN
343	1.000000	0.212579	7.36842e+06	-55789.1	955.817	-29741	0.000000	0.000000	6.212847	-0.047589	NaN	0.000000	0.001570	0.001703	28.0814	0.047035	0.002001	23.509	-95.1062	13.8026	-0.012096	0.211209	-0.904699	-0.906069	-0.047589	23.509	-0.903181	-1.122139E+12	4.240945E-14	NaN
343	1.000000	0.254552	7.36842e+06	-55789.1	955.818	-29741	0.000000	0.000000	6.254819	-0.078510	NaN	0.000000	0.001618	0.001704	28.0802	0.109854	0.001994	55.0898	46.6036	-168.549	-0.067258	0.253235	-0.862726	-0.864043	-0.078510	55.0898	-0.861657	-3.080009E+11	2.549005E-13	NaN
343	1.000000	0.296602	7.36842e+06	-55789.1	955.818	-29741	0.000000	0.000000	6.296870	-0.047986	NaN	0.000000	0.001670	0.001689	28.0802	0.008854	0.001882	4.704735	164.772	13.1255	-0.020159	0.295240	-0.820676	-0.822039	-0.047986	4.704735	-0.813027	-6.755074E+10	7.103759E-13	NaN
343	1.000000	0.338608	7.36842e+06	-55789.1	955.818	-29741	0.000000	0.000000	6.338876	-0.034571	NaN	0.000000	0.001693	0.001725	28.0803	0.037569	0.002007	18.7179	-91.5056	-164.703	-0.004939	0.337275	-0.778671	-0.780003	-0.034571	18.7179	-0.777285	-2.209742E+10	1.564463E-12	NaN
343	1.000000	0.380616	7.36842e+06	-55789.1	955.818	-29741	0.000000	0.000000	6.380884	-0.052990	NaN	0.000000	0.001702	0.001682	28.0814	0.036494	0.002004	18.2097	-138.691	13.0184	-0.038516	0.379261	-0.736663	-0.738017	-0.052990	18.2097	-0.734480	-5.779097E+9	9.169311E-12	NaN
343	1.000000	0.422608	7.36842e+06	-55789.1	955.818	-29741	0.000000	0.000000	6.422878	0.001990	NaN	0.000000	0.001707	0.001661	28.0813	0.015888	0.002065	7.693769	41.652	-165.285	-0.006794	0.421355	-0.694670	-0.695924	0.001990	7.693769	-0.694864	-1.664887E+9	-1.195155E-12	NaN
343	1.000000	0.464656	7.36842e+06	-55789.1	955.818	-29741	0.000000	0.000000	6.464925	-0.016714	NaN	0.000000	0.001642	0.001687	28.081	0.089694	0.002115	42.4111	-136.099	13.0819	0.002898	0.463289	-0.652622	-0.653989	-0.016714	42.4111	-0.652327	-4.358449E+8	3.834778E-11	NaN
343	1.000000	0.506682	7.36842e+06	-55789.1	955.818	-29741	0.000000	0.000000	6.506952	0.003684	NaN	0.000000	0.001614	0.001750	28.0801	0.099272	0.002009	49.4179	43.8943	-167.697	-0.003191	0.505426	-0.610597	-0.611853	0.003684	49.4179	-0.610653	-1.167061E+8	-3.156627E-11	NaN
343	1.000000	0.548676	7.36842e+06	-55789.1	955.818	-29741	0.000000	0.000000	6.548942	-0.089878	NaN	0.000000	0.001677	0.001730	28.0803	0.035371	0.001977	17.8892	60.3239	15.1901	-0.084322	0.547335	-0.568603	-0.569943	-0.089878	17.8892	-0.564835	-2.724202E+7	3.299238E-9	NaN
343	1.000000	0.590718	7.36842e+06	-55789.1	955.819	-29741	0.000000	0.000000	6.590988	-0.020284	NaN	0.000000	0.001639	0.001743	28.0805	0.052232	0.001942	26.8938	-76.2743	-167.008	0.030375	0.589430	-0.526560	-0.527848	-0.020284	26.8938	-0.525995	-7.88737e+06	2.571677E-9	NaN
343	1.000000	0.632728	7.36842e+06	-55789.1	955.819	-29741	0.000000	0.000000	6.632994	-0.080539	NaN	0.000000	0.001691	0.001679	28.0803	0.059992	0.001963	30.5558	-16.5133	15.6076	-0.046094	0.631371	-0.484551	-0.485908	-0.080539	30.5558	-0.482574	-1.95683e+06	4.115790E-8	NaN
343	1.000000	0.674755	7.36842e+06	-55789.1	955.819	-29741	0.000000	0.000000	6.675025	-0.001821	NaN	0.000000	0.001676	0.001685	28.0814	0.048674	0.001899	25.6343	-32.9097	-167.501	-0.050100	0.673425	-0.442524	-0.443854	-0.001821	25.6343	-0.442470	-534837	3.404544E-9	NaN
343	1.000000	0.716767	7.36842e+06	-55789.1	955.818	-29741	0.000000	0.000000	6.717037	-0.010827	NaN	0.000000	0.001694	0.001674	28.0817	0.134131	0.001952	68.6992	72.5329	14.0315	-0.047107	0.715384	-0.400511	-0.401895	-0.010827	68.6992	-0.400393	-135393	7.996726E-8	NaN
343	1.000000	0.758770	7.36842e+06	-55789.1	955.818	-29741	0.000000	0.000000	6.759038	-0.055100	NaN	0.000000	0.001709	0.001729	28.0816	0.070612	0.001922	36.7348	-75.35	-164.731	-0.077712	0.757486	-0.358508	-0.359792	-0.055100	36.7348	-0.357383	-32658.5	1.687143E-6	NaN
343	1.000000	0.800784	7.36842e+06	-55789.1	955.818	-29741	0.000000	0.000000	6.801053	-0.012306	NaN	0.000000	0.001628	0.001710	28.0802	0.018613	0.001926	9.664873	96.3335	12.7855	-0.014683	0.799460	-0.316495	-0.317819	-0.012306	9.664873	-0.315540	-7996.78	1.538886E-6	NaN
343	1.000000	0.842824	7.36842e+06	-55789.1	955.818	-29741	0.000000	0.000000	6.843093	-0.024474	NaN	0.000000	0.001616	0.001721	28.0802	0.074421	0.002032	36.6324	128.986	-167.724	-0.013763	0.841434	-0.274455	-0.275844	-0.024474	36.6324	-0.273954	-1912.28	1.279808E-5	NaN
343	1.000000	0.884833	7.36842e+06	-55789.1	955.818	-29741	0.000000	0.000000	6.885101	-0.038959	NaN	0.000000	0.001620	0.001694	28.0803	0.050621	0.001996	25.359	98.6744	15.006	0.053345	0.883498	-0.232446	-0.233780	-0.038959	25.359	-0.231293	-419.688	9.282947E-5	NaN
343	1.000000	0.926838	7.36842e+06	-55789.1	955.818	-29741	0.000000	0.000000	6.927109	0.020474	NaN	0.000000	0.001587	0.001674	28.0811	0.084060	0.002006	41.9106	-97.1452	-164.129	0.054643	0.925529	-0.190440	-0.191750	0.020474	41.9106	-0.190806	-92.7876	-0.000221	NaN
343	1.000000	0.968871	7.36842e+06	-55789.1	955.819	-29741	0.000000	0.000000	6.969141	0.005655	NaN	0.000000	0.001602	0.001701	28.0812	0.152042	0.002004	75.8871	-173.189	16.3355	-0.069872	0.967512	-0.148408	-0.149767	0.005655	75.8871	-0.148463	-16.9793	-0.000333	NaN
343	1.000000	1.010862	7.36842e+06	-55789.1	955.818	-29741	0.000000	0.000000	7.011132	-0.016413	NaN	0.000000	0.001589	0.001711	28.0813	0.126828	0.002020	62.7851	51.7977	-163.89	-0.016355	1.009566	-0.106416	-0.107712	-0.016413	62.7851	-0.106220	-2.497180	0.006573	NaN
343	1.000000	1.052914	7.36842e+06	-55789.1	955.818	-29741	0.000000	0.000000	7.053184	-0.012071	NaN	0.000000	0.001611	0.001722	28.0803	0.018691	0.001968	9.499466	-8.826162	12.2828	-0.039556	1.051504	-0.064364	-0.065774	-0.012071	9.499466	-0.063411	-0.225039	0.053640	NaN
343	1.000000	1.094902	7.36842e+06	-55789.1	955.817	-29741	0.000000	0.000000	7.095172	-0.019873	NaN	0.000000	0.001613	0.001727	28.0801	0.074859	0.001982	37.7688	40.497	-164.883	0.027624	1.093612	-0.022376	-0.023667	-0.019873	37.7688	-0.021982	-0.014106	1.408841	NaN
343	2.000000	1.128899	7.36842e+06	-55789.1	955.817	-29741	0.000000	0.000000	7.129653	11.762	NaN	0.000000	0.001618	0.001708	28.0803	12.0039	0.001767	6792.56	7.190559	4.784377	10.7257	1.128601	0.011620	0.011323	11.762	6792.56	0.010321	0.009541	1232.8	63535.1
343	2.000000	1.139430	7.36842e+06	-55789.1	955.817	-29741	0.000000	0.000000	7.140912	29.4775	NaN	0.000000	0.001700	0.001693	28.0804	22.0411	0.001722	12800.9	6.786281	-178.757	30.7513	1.139064	0.022151	0.021785	29.4775	12800.9	0.020424	0.023213	1269.87	76762.5
343	2.000000	1.149811	7.36842e+06	-55789.1	955.817	-29741	0.000000	0.000000	7.152122	49.5912	NaN	0.000000	0.001653	0.001729	28.0816	32.9071	0.001873	17569.3	7.001469	-2.239985	46.7473	1.149531	0.032533	0.032253	49.5912	17569.3	0.030416	0.041610	1191.8	78691.5
343	2.000000	1.160358	7.36842e+06	-55789.1	955.818	-29741	0.000000	0.000000	7.163979	81.4565	NaN	0.000000	0.001605	0.001668	28.0817	41.5677	0.001792	23193	4.878388	177.764	82.3513	1.160016	0.043079	0.042737	81.4565	23193	0.040445	0.065184	1249.64	82996.6
343	2.000000	1.170850	7.36842e+06	-55789.1	955.816	-29741	0.000000	0.000000	7.176030	119.352	NaN	0.000000	0.001630	0.001664	28.0814	52.2822	0.001743	29995.9	4.880600	-5.399687	118.349	1.170600	0.053571	0.053321	119.352	29995.9	0.050587	0.094236	1266.52	89274.4
343	2.000000	1.181383	7.36842e+06	-55789.1	955.816	-29741	0.000000	0.000000	7.188509	166.653	NaN	0.000000	0.001624	0.001688	28.0802	62.9062	0.001808	34789.5	5.496494	174.757	167.083	1.180886	0.064105	0.063608	166.653	34789.5	0.060512	0.127651	1305.53	88962.9
343	2.000000	1.191751	7.36842e+06	-55789.1	955.817	-29741	0.000000	0.000000	7.200845	214.473	NaN	0.000000	0.001631	0.001657	28.08	73.7615	0.001838	40129.1	2.199760	-4.313994	210.21	1.191464	0.074473	0.074185	214.473	40129.1	0.070464	0.165982	1292.15	89991.7
343	2.000000	1.202216	7.36842e+06	-55789.1	955.818	-29741	0.000000	0.000000	7.213744	273.662	NaN	0.000000	0.001593	0.001726	28.0802	84.5395	0.001853	45613.3	3.634227	172.437	269.129	1.202055	0.084938	0.084776	273.662	45613.3	0.080438	0.209121	1308.63	91130.9
343	2.000000	1.212705	7.36842e+06	-55789.1	955.817	-29741	0.000000	0.000000	7.227549	354.267	NaN	0.000000	0.001595	0.001704	28.0813	93.6898	0.001845	50779.6	-0.183299	-3.350330	347.753	1.212375	0.095426	0.095097	354.267	50779.6	0.090194	0.255799	1384.94	91730.4
343	2.000000	1.223256	7.36842e+06	-55789.1	955.818	-29741	0.000000	0.000000	7.241368	433.705	NaN	0.000000	0.001568	0.001720	28.0814	104.342	0.001910	54619.8	6.483839	169.044	433.774	1.222833	0.105978	0.105555	433.705	54619.8	0.100022	0.307240	1411.62	90029.3
343	2.000000	1.224861	7.36842e+06	-55789.1	955.817	-29741	0.000000	0.000000	7.243113	437.103	NaN	0.000000	0.001574	0.001753	28.0817	105.6	0.001740	60684.6	7.037586	-12.5044	439.398	1.224544	0.107583	0.107265	437.103	60684.6	0.102180	0.319126	1369.69	98145.6