File: remote_trans/data/nanoindenter/0828-1/data/Data_2025-08-06,11h17m57s/2025-07-22_16-23-58_1_442.txt
2025-07-22, 16:23:58, 1
Index	Phase	Displacement	Time	Pos X	Pos Y	Pos Z	Rot A	Rot B	Piezo Z	Force A	Force B	Gripper	Voltage A	Voltage B	Temperature	Amplitude force	Amplitude pos	Stiffness	Phase shift	Phase excitation	Force A raw	Displacement raw	HMax	HMax raw	Real Force	Real Stiffness	Contact Depth	Area	Hardness	Reduced Mod.
[#]	[#]	[um]	[s]	[um]	[um]	[um]	[m°]	[m°]	[um]	[uN]	[uN]	[V]	[V]	[V]	[°C]	[uN]	[um]	[N/m]	[°]	[°]	[uN]	[um]	[um]	[um]	[uN]	[N/m]	[um]	[um^2]	[MPa]	[MPa]
442	1.000000	0.002142	7.36938e+06	-54989.1	1005.82	-29742.6	0.000000	0.000000	6.002802	-0.004597	NaN	0.000000	0.001741	0.001687	28.0805	0.068961	0.001015	67.9542	-42.4032	-160.841	-0.023012	0.000906	-1.115868	-1.117104	-0.004597	67.9542	-1.115818	-8.172479E+14	5.625513E-18	NaN
442	1.000000	0.044112	7.36938e+06	-54989.1	1005.82	-29742.6	0.000000	0.000000	6.044773	0.022522	NaN	0.000000	0.001710	0.001646	28.0803	0.013528	0.001874	7.219861	-39.0029	14.2842	0.005975	0.042706	-1.073898	-1.075304	0.022522	7.219861	-1.076237	-2.404250E+14	-9.367474E-17	NaN
442	1.000000	0.086118	7.36938e+06	-54989.1	1005.82	-29742.6	0.000000	0.000000	6.086778	0.009411	NaN	0.000000	0.001689	0.001610	28.0816	0.107216	0.002055	52.1709	3.246655	-165.125	-0.007330	0.084797	-1.031892	-1.033213	0.009411	52.1709	-1.032028	-6.120028E+13	-1.537668E-16	NaN
442	1.000000	0.128105	7.36938e+06	-54989.1	1005.82	-29742.6	0.000000	0.000000	6.128765	-0.013665	NaN	0.000000	0.001597	0.001692	28.0817	0.080499	0.002001	40.2292	19.8167	10.5861	-0.080342	0.126784	-0.989905	-0.991226	-0.013665	40.2292	-0.989650	-1.645900E+13	8.302193E-16	NaN
442	1.000000	0.170108	7.36938e+06	-54989.1	1005.82	-29742.6	0.000000	0.000000	6.170768	0.010671	NaN	0.000000	0.001629	0.001662	28.0817	0.038272	0.001913	20.0105	-129.466	-165.057	-0.001800	0.168825	-0.947902	-0.949185	0.010671	20.0105	-0.948302	-4.561749E+12	-2.339302E-15	NaN
442	1.000000	0.212139	7.36938e+06	-54989.1	1005.82	-29742.6	0.000000	0.000000	6.212798	-0.032778	NaN	0.000000	0.001639	0.001700	28.0804	0.042522	0.001997	21.2922	-99.8419	14.0951	-0.033851	0.210820	-0.905871	-0.907189	-0.032778	21.2922	-0.904717	-1.177042E+12	2.784767E-14	NaN
442	1.000000	0.254153	7.36938e+06	-54989.1	1005.82	-29742.6	0.000000	0.000000	6.254813	-0.007061	NaN	0.000000	0.001614	0.001649	28.0806	0.117173	0.002087	56.1561	-71.8228	-165.157	0.044849	0.252887	-0.863857	-0.865123	-0.007061	56.1561	-0.863763	-3.288875E+11	2.146828E-14	NaN
442	1.000000	0.296190	7.36938e+06	-54989.1	1005.82	-29742.6	0.000000	0.000000	6.296850	-0.009404	NaN	0.000000	0.001607	0.001657	28.0803	0.085477	0.002094	40.8233	-127.167	13.4608	-0.083689	0.294837	-0.821820	-0.823173	-0.009404	40.8233	-0.821647	-8.841929E+10	1.063618E-13	NaN
442	1.000000	0.338214	7.36938e+06	-54989.1	1005.82	-29742.6	0.000000	0.000000	6.338871	-0.080332	NaN	0.000000	0.001626	0.001672	28.0817	0.021986	0.002030	10.8322	92.1589	-167.786	-0.091675	0.336950	-0.779796	-0.781060	-0.080332	10.8322	-0.774234	-2.008453E+10	3.999692E-12	NaN
442	1.000000	0.380221	7.36938e+06	-54989.1	1005.82	-29742.6	0.000000	0.000000	6.380884	0.074522	NaN	0.000000	0.001613	0.001664	28.0817	0.113482	0.001939	58.5221	131.914	16.9109	0.035649	0.378896	-0.737789	-0.739114	0.074522	58.5221	-0.738744	-6.606234E+9	-1.128055E-11	NaN
442	1.000000	0.422223	7.36938e+06	-54989.1	1005.82	-29742.6	0.000000	0.000000	6.422881	-0.044181	NaN	0.000000	0.001621	0.001697	28.0818	0.084584	0.002070	40.8537	76.7453	-167.376	-0.027497	0.420930	-0.695787	-0.697080	-0.044181	40.8537	-0.694976	-1.670740E+9	2.644377E-11	NaN
442	1.000000	0.464242	7.36938e+06	-54989.1	1005.82	-29742.6	0.000000	0.000000	6.464903	0.010320	NaN	0.000000	0.001600	0.001635	28.0815	0.058085	0.002032	28.5809	80.8164	12.3155	-0.014681	0.462921	-0.653768	-0.655089	0.010320	28.5809	-0.654039	-4.600368E+8	-2.243344E-11	NaN
442	1.000000	0.506286	7.36938e+06	-54989.1	1005.82	-29742.6	0.000000	0.000000	6.506947	0.010406	NaN	0.000000	0.001597	0.001669	28.0803	0.109264	0.001819	60.055	-143.642	-164.111	0.009936	0.504976	-0.611724	-0.613034	0.010406	60.055	-0.611854	-1.212327E+8	-8.583810E-11	NaN
442	1.000000	0.548311	7.36938e+06	-54989.1	1005.82	-29742.6	0.000000	0.000000	6.548973	0.029044	NaN	0.000000	0.001608	0.001661	28.0805	0.088083	0.002082	42.3143	90.9895	15.6979	-0.050504	0.546954	-0.569699	-0.571056	0.029044	42.3143	-0.570214	-3.232824E+7	-8.984162E-10	NaN
442	1.000000	0.590312	7.36938e+06	-54989.1	1005.82	-29742.6	0.000000	0.000000	6.590973	0.007281	NaN	0.000000	0.001624	0.001660	28.0808	0.062634	0.002040	30.7089	104.993	-166.681	-0.055051	0.589005	-0.527698	-0.529005	0.007281	30.7089	-0.527876	-8.37666e+06	-8.691973E-10	NaN
442	1.000000	0.632316	7.36938e+06	-54989.1	1005.82	-29742.6	0.000000	0.000000	6.632975	-0.038647	NaN	0.000000	0.001581	0.001679	28.0819	0.060502	0.002119	28.5522	-41.4155	12.1853	-0.072466	0.631011	-0.485694	-0.486999	-0.038647	28.5522	-0.484679	-2.09412e+06	1.845509E-8	NaN
442	1.000000	0.674329	7.36938e+06	-54989.1	1005.82	-29742.6	0.000000	0.000000	6.674994	0.095581	NaN	0.000000	0.001606	0.001713	28.0819	0.076616	0.001921	39.8838	-7.295327	-166.053	0.036415	0.673097	-0.443681	-0.444913	0.095581	39.8838	-0.445478	-589698	-1.620851E-7	NaN
442	1.000000	0.716391	7.36939e+06	-54989.1	1005.82	-29742.6	0.000000	0.000000	6.717049	-0.053452	NaN	0.000000	0.001661	0.001664	28.0815	0.087045	0.002044	42.5767	10.7152	17.5875	-0.057757	0.715010	-0.401619	-0.403000	-0.053452	42.5767	-0.400677	-136664	3.911214E-7	NaN
442	1.000000	0.758371	7.36939e+06	-54989.1	1005.82	-29742.6	0.000000	0.000000	6.759032	0.019619	NaN	0.000000	0.001698	0.001671	28.0804	0.042276	0.002169	19.4943	-123.906	-167.825	-0.028863	0.757130	-0.359639	-0.360879	0.019619	19.4943	-0.360394	-36102.8	-5.434275E-7	NaN
442	1.000000	0.800382	7.36939e+06	-54989.1	1005.82	-29742.6	0.000000	0.000000	6.801043	0.001453	NaN	0.000000	0.001681	0.001679	28.0804	0.110233	0.002092	52.7047	-178.181	17.3189	-0.055665	0.799046	-0.317628	-0.318964	0.001453	52.7047	-0.317649	-8590.26	-1.691230E-7	NaN
442	1.000000	0.842432	7.36939e+06	-54989.1	1005.82	-29742.6	0.000000	0.000000	6.843090	-0.045753	NaN	0.000000	0.001624	0.001711	28.0807	0.016865	0.002068	8.153880	-64.7467	-163.442	-0.078232	0.841101	-0.275578	-0.276909	-0.045753	8.153880	-0.271370	-1747.26	2.618589E-5	NaN
442	1.000000	0.884487	7.36939e+06	-54989.1	1005.82	-29742.6	0.000000	0.000000	6.885147	0.010981	NaN	0.000000	0.001624	0.001702	28.0818	0.090600	0.002005	45.1954	118.078	14.5458	-0.046721	0.883090	-0.233523	-0.234920	0.010981	45.1954	-0.233706	-458.046	-2.397410E-5	NaN
442	1.000000	0.926463	7.36939e+06	-54989.1	1005.82	-29742.6	0.000000	0.000000	6.927121	-0.059241	NaN	0.000000	0.001646	0.001709	28.0821	0.045919	0.002048	22.427	21.0018	-164.075	-0.046223	0.925110	-0.191547	-0.192900	-0.059241	22.427	-0.189566	-88.4644	0.000670	NaN
442	1.000000	0.968472	7.36939e+06	-54989.1	1005.82	-29742.6	0.000000	0.000000	6.969131	-0.050600	NaN	0.000000	0.001654	0.001743	28.082	0.142658	0.002077	68.6733	142.775	17.633	0.037057	0.967120	-0.149538	-0.150890	-0.050600	68.6733	-0.148985	-17.3567	0.002915	NaN
442	1.000000	1.010493	7.36939e+06	-54989.1	1005.82	-29742.6	0.000000	0.000000	7.011152	-0.016940	NaN	0.000000	0.001654	0.001778	28.0817	0.047742	0.002143	22.281	-140.993	-167.043	-0.056914	1.009182	-0.107517	-0.108828	-0.016940	22.281	-0.106947	-2.588407	0.006544	NaN
442	1.000000	1.052498	7.36939e+06	-54989.1	1005.82	-29742.6	0.000000	0.000000	7.053159	0.011013	NaN	0.000000	0.001622	0.001703	28.0809	0.043471	0.001943	22.3724	-99.074	15.9546	0.008232	1.051101	-0.065512	-0.066909	0.011013	22.3724	-0.065881	-0.263595	-0.041779	NaN
442	1.000000	1.094501	7.36939e+06	-54989.1	1005.82	-29742.6	0.000000	0.000000	7.095164	0.064538	NaN	0.000000	0.001669	0.001715	28.0805	0.135247	0.001933	69.9562	-135.683	-166.368	0.003858	1.093220	-0.023509	-0.024790	0.064538	69.9562	-0.024201	-0.016082	-4.013003	NaN
442	2.000000	1.129596	7.36939e+06	-54989.1	1005.82	-29742.6	0.000000	0.000000	7.130666	9.950336	NaN	0.000000	0.001640	0.001728	28.0805	11.0227	0.001788	6166.45	5.516866	9.910333	8.642680	1.129263	0.011586	0.011253	9.950336	6166.45	0.010376	0.009602	1036.27	57494.4
442	2.000000	1.140007	7.36939e+06	-54989.1	1005.82	-29742.6	0.000000	0.000000	7.141642	23.689	NaN	0.000000	0.001709	0.001707	28.0819	20.8105	0.001791	11620.2	8.440513	-178.25	23.8532	1.139768	0.021997	0.021758	23.689	11620.2	0.020469	0.023284	1017.4	69575.9
442	2.000000	1.150533	7.36939e+06	-54989.1	1005.82	-29742.6	0.000000	0.000000	7.153134	47.1806	NaN	0.000000	0.001633	0.001716	28.0819	30.2821	0.001701	17806	2.170003	3.466736	46.5558	1.150228	0.032523	0.032218	47.1806	17806	0.030536	0.041861	1127.07	79512.1
442	2.000000	1.160932	7.36939e+06	-54989.1	1005.82	-29742.6	0.000000	0.000000	7.165039	83.8008	NaN	0.000000	0.001638	0.001716	28.082	40.9467	0.001772	23103.8	6.378897	176.722	80.6169	1.160685	0.042922	0.042675	83.8008	23103.8	0.040202	0.064550	1298.23	83082.1
442	2.000000	1.171538	7.36939e+06	-54989.1	1005.82	-29742.6	0.000000	0.000000	7.177572	130.611	NaN	0.000000	0.001607	0.001691	28.0809	49.7479	0.001802	27609.9	5.403049	-2.503691	131.211	1.171056	0.053528	0.053046	130.611	27609.9	0.049981	0.092353	1414.26	83006.7
442	2.000000	1.182002	7.36939e+06	-54989.1	1005.82	-29742.6	0.000000	0.000000	7.189959	177.375	NaN	0.000000	0.001725	0.001775	28.0811	61.1749	0.001825	33525.6	2.691662	177.317	175.402	1.181835	0.063992	0.063825	177.375	33525.6	0.060024	0.125895	1408.91	86326.8
442	2.000000	1.192396	7.36939e+06	-54989.1	1005.82	-29742.6	0.000000	0.000000	7.203354	250.317	NaN	0.000000	0.001686	0.001741	28.0809	71.2436	0.001850	38515.2	4.402871	-5.198026	245.246	1.192028	0.074386	0.074018	250.317	38515.2	0.069512	0.162108	1544.14	87398.4
442	2.000000	1.202896	7.36939e+06	-54989.1	1005.82	-29742.6	0.000000	0.000000	7.217080	328.758	NaN	0.000000	0.001591	0.001750	28.0818	79.9785	0.001671	47854.8	2.838416	174.962	326.173	1.202620	0.084886	0.084610	328.758	47854.8	0.079734	0.205922	1596.51	96348.9
442	2.000000	1.213379	7.36939e+06	-54989.1	1005.82	-29742.6	0.000000	0.000000	7.231463	423.556	NaN	0.000000	0.001584	0.001780	28.0822	89.7729	0.001703	52728.2	6.836880	-9.745797	418.682	1.212980	0.095369	0.094970	423.556	52728.2	0.089345	0.251562	1683.7	96049.2
442	2.000000	1.223935	7.36939e+06	-54989.1	1005.82	-29742.6	0.000000	0.000000	7.245621	511.118	NaN	0.000000	0.001640	0.001782	28.0823	99.5587	0.001857	53605.1	4.422707	173.287	508.923	1.223571	0.105925	0.105561	511.118	53605.1	0.098774	0.300463	1701.1	89347.8
442	2.000000	1.225985	7.36939e+06	-54989.1	1005.82	-29742.6	0.000000	0.000000	7.248251	525.2	NaN	0.000000	0.001636	0.001770	28.0824	102.135	0.001818	56181	2.165463	174.621	528.545	1.225683	0.107976	0.107673	525.2	56181	0.100964	0.312402	1681.17	91834.5