File: remote_trans/data/nanoindenter/0828-1/data/Data_2025-08-06,11h17m57s/2025-07-22_16-23-58_1_418.txt
2025-07-22, 16:23:58, 1
Index	Phase	Displacement	Time	Pos X	Pos Y	Pos Z	Rot A	Rot B	Piezo Z	Force A	Force B	Gripper	Voltage A	Voltage B	Temperature	Amplitude force	Amplitude pos	Stiffness	Phase shift	Phase excitation	Force A raw	Displacement raw	HMax	HMax raw	Real Force	Real Stiffness	Contact Depth	Area	Hardness	Reduced Mod.
[#]	[#]	[um]	[s]	[um]	[um]	[um]	[m°]	[m°]	[um]	[uN]	[uN]	[V]	[V]	[V]	[°C]	[uN]	[um]	[N/m]	[°]	[°]	[uN]	[um]	[um]	[um]	[uN]	[N/m]	[um]	[um^2]	[MPa]	[MPa]
418	1.000000	0.002599	7.36915e+06	-56189.1	1005.82	-29739.7	0.000000	0.000000	6.002805	0.052876	NaN	0.000000	0.001700	0.001642	28.0815	0.042043	0.001065	39.4786	-12.5564	-172.633	0.070737	0.001357	-1.119794	-1.121037	0.052876	39.4786	-1.120799	-9.532095E+14	-5.547140E-17	NaN
418	1.000000	0.044546	7.36915e+06	-56189.1	1005.82	-29739.7	0.000000	0.000000	6.044752	0.077708	NaN	0.000000	0.001716	0.001644	28.0798	0.084180	0.002028	41.499	-59.0452	18.0973	0.071169	0.043139	-1.077848	-1.079254	0.077708	41.499	-1.079252	-2.639214E+14	-2.944372E-16	NaN
418	1.000000	0.086570	7.36915e+06	-56189.1	1005.82	-29739.7	0.000000	0.000000	6.086775	0.049962	NaN	0.000000	0.001698	0.001637	28.0801	0.052849	0.002075	25.4736	41.2478	-168.818	0.005060	0.085230	-1.035823	-1.037163	0.049962	25.4736	-1.037294	-7.204165E+13	-6.935224E-16	NaN
418	1.000000	0.128566	7.36915e+06	-56189.1	1005.82	-29739.7	0.000000	0.000000	6.128772	0.077208	NaN	0.000000	0.001727	0.001658	28.0802	0.060442	0.001958	30.8692	-106.08	14.4699	0.091007	0.127212	-0.993828	-0.995181	0.077208	30.8692	-0.995703	-1.985717E+13	-3.888153E-15	NaN
418	1.000000	0.170602	7.36915e+06	-56189.1	1005.82	-29739.7	0.000000	0.000000	6.170809	0.081953	NaN	0.000000	0.001663	0.001628	28.0801	0.088313	0.001986	44.4658	-157.653	-162.848	0.130917	0.169303	-0.951792	-0.953091	0.081953	44.4658	-0.953174	-5.306755E+12	-1.544319E-14	NaN
418	1.000000	0.212599	7.36915e+06	-56189.1	1005.82	-29739.7	0.000000	0.000000	6.212802	0.006073	NaN	0.000000	0.001684	0.001635	28.0817	0.024933	0.002051	12.1559	100.022	10.9286	0.012569	0.211260	-0.909795	-0.911133	0.006073	12.1559	-0.910169	-1.394596E+12	-4.354513E-15	NaN
418	1.000000	0.254617	7.36915e+06	-56189.1	1005.82	-29739.7	0.000000	0.000000	6.254823	0.070997	NaN	0.000000	0.001694	0.001647	28.0815	0.027862	0.001973	14.1237	-55.4823	-167.489	0.080955	0.253306	-0.867777	-0.869088	0.070997	14.1237	-0.871547	-4.191488E+11	-1.693850E-13	NaN
418	1.000000	0.296636	7.36915e+06	-56189.1	1005.82	-29739.7	0.000000	0.000000	6.296839	0.014826	NaN	0.000000	0.001698	0.001645	28.0813	0.088283	0.001973	44.7406	-93.9324	15.1519	0.041213	0.295308	-0.825758	-0.827085	0.014826	44.7406	-0.826006	-1.013097E+11	-1.463431E-13	NaN
418	1.000000	0.338670	7.36915e+06	-56189.1	1005.82	-29739.7	0.000000	0.000000	6.338875	0.058031	NaN	0.000000	0.001789	0.001631	28.0801	0.044013	0.001999	22.021	-41.4879	-167.886	0.058840	0.337323	-0.783724	-0.785070	0.058031	22.021	-0.785700	-2.875275E+10	-2.018267E-12	NaN
418	1.000000	0.380702	7.36915e+06	-56189.1	1005.82	-29739.7	0.000000	0.000000	6.380908	0.059496	NaN	0.000000	0.001784	0.001655	28.0803	0.027054	0.002061	13.1238	-71.7604	14.7557	-0.028314	0.379352	-0.741691	-0.743042	0.059496	13.1238	-0.745091	-8.061049E+9	-7.380733E-12	NaN
418	1.000000	0.422721	7.36915e+06	-56189.1	1005.82	-29739.7	0.000000	0.000000	6.422926	0.044921	NaN	0.000000	0.001779	0.001644	28.0803	0.060138	0.001934	31.0917	118.95	-164.937	0.062678	0.421383	-0.699672	-0.701011	0.044921	31.0917	-0.700756	-2.003792E+9	-2.241806E-11	NaN
418	1.000000	0.464727	7.36915e+06	-56189.1	1005.82	-29739.7	0.000000	0.000000	6.464934	0.097638	NaN	0.000000	0.001679	0.001638	28.0815	0.053657	0.001918	27.9783	22.7586	14.2987	0.028840	0.463390	-0.657666	-0.659003	0.097638	27.9783	-0.660284	-5.602155E+8	-1.742860E-10	NaN
418	1.000000	0.506742	7.36915e+06	-56189.1	1005.82	-29739.7	0.000000	0.000000	6.506949	0.098576	NaN	0.000000	0.001687	0.001669	28.0815	0.061601	0.002032	30.3129	-84.413	-166.064	0.039547	0.505449	-0.615652	-0.616944	0.098576	30.3129	-0.618091	-1.477025E+8	-6.673962E-10	NaN
418	1.000000	0.548765	7.36915e+06	-56189.1	1005.82	-29739.7	0.000000	0.000000	6.548969	0.007386	NaN	0.000000	0.001675	0.001641	28.0813	0.128781	0.001944	66.2451	11.1998	11.6357	0.056121	0.547384	-0.573628	-0.575010	0.007386	66.2451	-0.573712	-3.613340E+7	-2.044014E-10	NaN
418	1.000000	0.590768	7.36915e+06	-56189.1	1005.82	-29739.7	0.000000	0.000000	6.590972	0.018632	NaN	0.000000	0.001653	0.001658	28.0805	0.036723	0.001937	18.9599	-97.4817	-169.446	-0.061010	0.589495	-0.531626	-0.532899	0.018632	18.9599	-0.532363	-9.66899e+06	-1.927025E-9	NaN
418	1.000000	0.632798	7.36915e+06	-56189.1	1005.82	-29739.7	0.000000	0.000000	6.633001	0.016612	NaN	0.000000	0.001639	0.001641	28.0805	0.061093	0.001918	31.8586	161.85	13.9348	-0.065138	0.631468	-0.489596	-0.490926	0.016612	31.8586	-0.489987	-2.48434e+06	-6.686543E-9	NaN
418	1.000000	0.674836	7.36915e+06	-56189.1	1005.82	-29739.7	0.000000	0.000000	6.675041	0.056837	NaN	0.000000	0.001692	0.001656	28.0806	0.123610	0.001948	63.441	135.374	-168.087	0.016075	0.673518	-0.447558	-0.448876	0.056837	63.441	-0.448230	-644774	-8.814965E-8	NaN
418	1.000000	0.716813	7.36915e+06	-56189.1	1005.82	-29739.7	0.000000	0.000000	6.717018	0.031556	NaN	0.000000	0.001627	0.001705	28.0804	0.132417	0.002051	64.5592	19.8678	14.7526	0.097324	0.715472	-0.405580	-0.406921	0.031556	64.5592	-0.405947	-162454	-1.942486E-7	NaN
418	1.000000	0.758858	7.36915e+06	-56189.1	1005.82	-29739.7	0.000000	0.000000	6.759063	0.044283	NaN	0.000000	0.001671	0.001674	28.0817	0.030334	0.001984	15.2879	-111.921	-166.915	0.053629	0.757539	-0.363536	-0.364855	0.044283	15.2879	-0.365708	-43079.4	-1.027934E-6	NaN
418	1.000000	0.800851	7.36915e+06	-56189.1	1005.82	-29739.7	0.000000	0.000000	6.801056	0.048739	NaN	0.000000	0.001727	0.001680	28.0816	0.065207	0.002010	32.4374	-177.45	14.8165	0.086144	0.799499	-0.321543	-0.322895	0.048739	32.4374	-0.322670	-10183.7	-4.785969E-6	NaN
418	1.000000	0.842895	7.36915e+06	-56189.1	1005.82	-29739.7	0.000000	0.000000	6.843100	0.047992	NaN	0.000000	0.001694	0.001691	28.0817	0.024535	0.001985	12.3578	116.567	-166.755	0.040236	0.841559	-0.279499	-0.280834	0.047992	12.3578	-0.282411	-2566.35	-1.870029E-5	NaN
418	1.000000	0.884894	7.36915e+06	-56189.1	1005.82	-29739.7	0.000000	0.000000	6.885095	-0.040073	NaN	0.000000	0.001731	0.001662	28.0803	0.139237	0.001948	71.4852	-69.9949	15.4397	0.063087	0.883557	-0.237500	-0.238837	-0.040073	71.4852	-0.237079	-517.445	7.744361E-5	NaN
418	1.000000	0.926922	7.36915e+06	-56189.1	1005.82	-29739.7	0.000000	0.000000	6.927127	0.035758	NaN	0.000000	0.001729	0.001669	28.0803	0.015173	0.002115	7.173897	12.1451	-166.699	-0.024364	0.925613	-0.195471	-0.196780	0.035758	7.173897	-0.199210	-127.851	-0.000280	NaN
418	1.000000	0.968941	7.36915e+06	-56189.1	1005.82	-29739.7	0.000000	0.000000	6.969146	0.056305	NaN	0.000000	0.001659	0.001670	28.0802	0.034532	0.002047	16.8679	-64.9727	14.8937	0.074360	0.967590	-0.153453	-0.154804	0.056305	16.8679	-0.155956	-23.2147	-0.002425	NaN
418	1.000000	1.010953	7.36915e+06	-56189.1	1005.82	-29739.7	0.000000	0.000000	7.011159	0.076898	NaN	0.000000	0.001704	0.001659	28.0815	0.050064	0.002057	24.3403	83.3521	-167.026	0.107419	1.009659	-0.111441	-0.112734	0.076898	24.3403	-0.113810	-3.610035	-0.021301	NaN
418	1.000000	1.052966	7.36915e+06	-56189.1	1005.82	-29739.7	0.000000	0.000000	7.053171	0.025169	NaN	0.000000	0.001717	0.001615	28.0814	0.029424	0.002049	14.3597	75.4094	12.3039	-0.050354	1.051592	-0.069427	-0.070802	0.025169	14.3597	-0.070742	-0.357031	-0.070494	NaN
418	1.000000	1.094971	7.36915e+06	-56189.1	1005.82	-29739.7	0.000000	0.000000	7.095173	-0.032495	NaN	0.000000	0.001672	0.001640	28.0816	0.023414	0.001945	12.0372	-2.749354	-167.51	0.000430	1.093651	-0.027422	-0.028742	-0.032495	12.0372	-0.025398	-0.017280	1.880539	NaN
418	2.000000	1.135155	7.36915e+06	-56189.1	1005.82	-29739.7	0.000000	0.000000	7.135742	9.317415	NaN	0.000000	0.001684	0.001637	28.0803	10.1589	0.001547	6566.61	6.198198	4.538476	8.468908	1.134732	0.012762	0.012338	9.317415	6566.61	0.011697	0.011130	837.171	56868.7
418	2.000000	1.145560	7.36915e+06	-56189.1	1005.82	-29739.7	0.000000	0.000000	7.146966	29.2451	NaN	0.000000	0.001702	0.001715	28.0806	23.5079	0.001819	12926.2	7.846108	178.81	29.6428	1.145269	0.023166	0.022876	29.2451	12926.2	0.021469	0.024904	1174.31	74835.5
418	2.000000	1.156032	7.36915e+06	-56189.1	1005.82	-29739.7	0.000000	0.000000	7.158374	52.0013	NaN	0.000000	0.001749	0.001672	28.0807	32.5439	0.001800	18075.5	4.132302	0.828711	52.7281	1.155649	0.033638	0.033255	52.0013	18075.5	0.031480	0.043868	1185.41	78847.8
418	2.000000	1.166494	7.36915e+06	-56189.1	1005.82	-29739.7	0.000000	0.000000	7.170288	87.2829	NaN	0.000000	0.001729	0.001655	28.0802	41.5854	0.001719	24189.7	5.541957	176.373	85.9094	1.166219	0.044100	0.043826	87.2829	24189.7	0.041394	0.067680	1289.64	84951.8
418	2.000000	1.176959	7.36915e+06	-56189.1	1005.82	-29739.7	0.000000	0.000000	7.182540	130.729	NaN	0.000000	0.001760	0.001624	28.0816	50.7728	0.001726	29413.6	2.402639	-3.126351	127.142	1.176658	0.054565	0.054264	130.729	29413.6	0.051232	0.096260	1358.09	86616.2
418	2.000000	1.187551	7.36915e+06	-56189.1	1005.82	-29739.7	0.000000	0.000000	7.194890	173.449	NaN	0.000000	0.001791	0.001649	28.0815	62.5296	0.001844	33901	4.099424	175.124	175.65	1.187158	0.065157	0.064764	173.449	33901	0.061320	0.130585	1328.25	85711.7
418	2.000000	1.197905	7.36915e+06	-56189.1	1005.82	-29739.7	0.000000	0.000000	7.207711	233.435	NaN	0.000000	0.001747	0.001664	28.0813	72.6168	0.001860	39037.1	3.731965	-5.925524	228.899	1.197684	0.075511	0.075291	233.435	39037.1	0.071026	0.168288	1387.11	86940.9
418	2.000000	1.208370	7.36915e+06	-56189.1	1005.82	-29739.7	0.000000	0.000000	7.220957	301.014	NaN	0.000000	0.001731	0.001632	28.0801	82.8887	0.001763	47026.7	2.540141	173.42	296.536	1.208156	0.085976	0.085763	301.014	47026.7	0.081175	0.212496	1416.57	93205.7
418	2.000000	1.218948	7.36915e+06	-56189.1	1005.82	-29739.7	0.000000	0.000000	7.234662	377.022	NaN	0.000000	0.001747	0.001654	28.0799	93.5952	0.001835	51017	4.978638	-9.273859	374.329	1.218580	0.096555	0.096187	377.022	51017	0.091012	0.259914	1450.57	91426.8
418	2.000000	1.229461	7.36916e+06	-56189.1	1005.82	-29739.7	0.000000	0.000000	7.248559	459.261	NaN	0.000000	0.001688	0.001650	28.0804	101.52	0.001754	57872.9	2.967953	172.372	462.307	1.229114	0.107068	0.106721	459.261	57872.9	0.101116	0.313238	1466.17	94473.9
418	2.000000	1.233036	7.36916e+06	-56189.1	1005.82	-29739.7	0.000000	0.000000	7.253340	488.592	NaN	0.000000	0.001680	0.001627	28.0801	104.669	0.001652	63346.5	4.645739	-10.4694	491.397	1.232766	0.110642	0.110373	488.592	63346.5	0.104858	0.334162	1462.14	100119