File: remote_trans/data/nanoindenter/0828-1/data/Data_2025-08-06,11h17m57s/2025-07-22_16-23-58_1_1141.txt
2025-07-22, 16:23:58, 1
Index	Phase	Displacement	Time	Pos X	Pos Y	Pos Z	Rot A	Rot B	Piezo Z	Force A	Force B	Gripper	Voltage A	Voltage B	Temperature	Amplitude force	Amplitude pos	Stiffness	Phase shift	Phase excitation	Force A raw	Displacement raw	HMax	HMax raw	Real Force	Real Stiffness	Contact Depth	Area	Hardness	Reduced Mod.
[#]	[#]	[um]	[s]	[um]	[um]	[um]	[m°]	[m°]	[um]	[uN]	[uN]	[V]	[V]	[V]	[°C]	[uN]	[um]	[N/m]	[°]	[°]	[uN]	[um]	[um]	[um]	[uN]	[N/m]	[um]	[um^2]	[MPa]	[MPa]
1141	1.000000	0.002911	7.37622e+06	-57189.1	1055.82	-29737.3	0.000000	0.000000	6.002791	0.008485	NaN	0.000000	0.001678	0.001729	28.0813	0.059135	0.000946	62.4892	-63.951	-159.474	0.014463	0.001662	-1.077251	-1.078500	0.008485	62.4892	-1.077353	-2.488681E+14	-3.409303E-17	NaN
1141	1.000000	0.044856	7.37622e+06	-57189.1	1055.82	-29737.3	0.000000	0.000000	6.044736	0.009213	NaN	0.000000	0.001675	0.001736	28.0817	0.121628	0.002001	60.7863	-52.3019	15.8309	-0.011804	0.043464	-1.035306	-1.036698	0.009213	60.7863	-1.035420	-6.797865E+13	-1.355312E-16	NaN
1141	1.000000	0.086875	7.37622e+06	-57189.1	1055.82	-29737.3	0.000000	0.000000	6.086753	-0.038467	NaN	0.000000	0.001565	0.001729	28.0803	0.073344	0.002073	35.3876	-17.8925	-163.355	-0.006787	0.085528	-0.993287	-0.994634	-0.038467	35.3876	-0.992472	-1.796393E+13	2.141340E-15	NaN
1141	1.000000	0.128913	7.37622e+06	-57189.1	1055.82	-29737.3	0.000000	0.000000	6.128791	-0.056196	NaN	0.000000	0.001589	0.001706	28.08	0.081093	0.002033	39.8921	155.158	15.5326	-0.036093	0.127538	-0.951249	-0.952625	-0.056196	39.8921	-0.950193	-4.837536E+12	1.161675E-14	NaN
1141	1.000000	0.170918	7.37622e+06	-57189.1	1055.82	-29737.3	0.000000	0.000000	6.170795	-0.056909	NaN	0.000000	0.001556	0.001721	28.0801	0.088985	0.002221	40.0629	-32.1666	-165.39	0.008835	0.169626	-0.909245	-0.910537	-0.056909	40.0629	-0.908179	-1.310904E+12	4.341170E-14	NaN
1141	1.000000	0.212936	7.37622e+06	-57189.1	1055.82	-29737.3	0.000000	0.000000	6.212813	-0.068320	NaN	0.000000	0.001513	0.001699	28.081	0.021881	0.002104	10.3981	41.6636	18.7887	-0.074669	0.211553	-0.867227	-0.868609	-0.068320	10.3981	-0.862299	-3.142208E+11	2.174278E-13	NaN
1141	1.000000	0.254937	7.37622e+06	-57189.1	1055.82	-29737.3	0.000000	0.000000	6.254815	-0.035648	NaN	0.000000	0.001560	0.001745	28.0811	0.075225	0.001855	40.5494	106.061	-162.061	-0.071233	0.253631	-0.825225	-0.826532	-0.035648	40.5494	-0.824566	-9.685441E+10	3.680582E-13	NaN
1141	1.000000	0.296980	7.37622e+06	-57189.1	1055.82	-29737.3	0.000000	0.000000	6.296860	0.015819	NaN	0.000000	0.001566	0.001798	28.0813	0.023289	0.001960	11.8808	38.6084	14.1702	-0.094518	0.295621	-0.783183	-0.784541	0.015819	11.8808	-0.784181	-2.741853E+10	-5.769475E-13	NaN
1141	1.000000	0.338996	7.37622e+06	-57189.1	1055.82	-29737.3	0.000000	0.000000	6.338875	-0.030235	NaN	0.000000	0.001599	0.001668	28.0808	0.106421	0.001906	55.8335	-106.217	-164.288	-0.011875	0.337684	-0.741166	-0.742478	-0.030235	55.8335	-0.740760	-7.037358E+9	4.296398E-12	NaN
1141	1.000000	0.381006	7.37622e+06	-57189.1	1055.82	-29737.3	0.000000	0.000000	6.380883	-0.079128	NaN	0.000000	0.001560	0.001686	28.0796	0.073229	0.001973	37.1242	47.2309	15.7979	-0.039446	0.379665	-0.699156	-0.700497	-0.079128	37.1242	-0.697557	-1.812049E+9	4.366756E-11	NaN
1141	1.000000	0.423021	7.37622e+06	-57189.1	1055.82	-29737.3	0.000000	0.000000	6.422903	0.057472	NaN	0.000000	0.001579	0.001748	28.0795	0.161684	0.001835	88.1019	-126.137	-166.009	0.083066	0.421660	-0.657141	-0.658502	0.057472	88.1019	-0.657630	-5.152367E+8	-1.115453E-10	NaN
1141	1.000000	0.465057	7.37622e+06	-57189.1	1055.82	-29737.3	0.000000	0.000000	6.464937	0.021702	NaN	0.000000	0.001571	0.001749	28.0797	0.069652	0.001955	35.6261	-37.8517	14.6266	-0.009978	0.463631	-0.615105	-0.616531	0.021702	35.6261	-0.615562	-1.363399E+8	-1.591753E-10	NaN
1141	1.000000	0.507059	7.37622e+06	-57189.1	1055.82	-29737.3	0.000000	0.000000	6.506938	-0.028350	NaN	0.000000	0.001577	0.001714	28.0811	0.125394	0.002032	61.7156	118.678	-163.523	-0.013744	0.505742	-0.573103	-0.574421	-0.028350	61.7156	-0.572759	-3.505434E+7	8.087549E-10	NaN
1141	1.000000	0.549089	7.37622e+06	-57189.1	1055.82	-29737.3	0.000000	0.000000	6.548965	-0.080486	NaN	0.000000	0.001588	0.001775	28.0809	0.105332	0.002060	51.1195	-72.1695	12.3371	-0.147030	0.547689	-0.531073	-0.532474	-0.080486	51.1195	-0.529892	-8.93472e+06	9.008250E-9	NaN
1141	1.000000	0.591080	7.37622e+06	-57189.1	1055.82	-29737.3	0.000000	0.000000	6.590959	-0.004962	NaN	0.000000	0.001589	0.001706	28.0811	0.011380	0.001987	5.727409	15.7565	-164.96	0.073546	0.589817	-0.489082	-0.490345	-0.004962	5.727409	-0.488433	-2.36312e+06	2.099965E-9	NaN
1141	1.000000	0.633127	7.37622e+06	-57189.1	1055.82	-29737.3	0.000000	0.000000	6.633004	-0.063972	NaN	0.000000	0.001590	0.001767	28.0798	0.046311	0.002007	23.0722	95.8147	15.8853	-0.075657	0.631758	-0.447035	-0.448404	-0.063972	23.0722	-0.444956	-579788	1.103362E-7	NaN
1141	1.000000	0.675169	7.37622e+06	-57189.1	1055.82	-29737.3	0.000000	0.000000	6.675046	-0.059412	NaN	0.000000	0.001526	0.001729	28.0799	0.078728	0.002124	37.0641	116.117	-160.721	-0.038163	0.673820	-0.404994	-0.406342	-0.059412	37.0641	-0.403791	-151368	3.924993E-7	NaN
1141	1.000000	0.717139	7.37622e+06	-57189.1	1055.82	-29737.3	0.000000	0.000000	6.717020	0.012764	NaN	0.000000	0.001588	0.001700	28.08	0.072367	0.001985	36.4585	-57.684	17.8733	-0.041818	0.715768	-0.363023	-0.364395	0.012764	36.4585	-0.363285	-39747.3	-3.211341E-7	NaN
1141	1.000000	0.759172	7.37622e+06	-57189.1	1055.82	-29737.3	0.000000	0.000000	6.759047	-0.100517	NaN	0.000000	0.001583	0.001742	28.0815	0.041101	0.001987	20.6886	-57.7043	-161.975	0.011077	0.757867	-0.320991	-0.322295	-0.100517	20.6886	-0.317347	-8502.77	1.182167E-5	NaN
1141	1.000000	0.801180	7.37622e+06	-57189.1	1055.82	-29737.3	0.000000	0.000000	6.801058	-0.058943	NaN	0.000000	0.001553	0.001742	28.0813	0.071304	0.002078	34.3217	135.37	13.0595	-0.106214	0.799797	-0.278982	-0.280365	-0.058943	34.3217	-0.277694	-2178.46	2.705723E-5	NaN
1141	1.000000	0.843207	7.37622e+06	-57189.1	1055.82	-29737.3	0.000000	0.000000	6.843088	0.018982	NaN	0.000000	0.001594	0.001732	28.0812	0.114878	0.001987	57.8039	101.319	-161.694	0.007204	0.841899	-0.236955	-0.238264	0.018982	57.8039	-0.237201	-519.727	-3.652237E-5	NaN
1141	1.000000	0.885184	7.37622e+06	-57189.1	1055.82	-29737.3	0.000000	0.000000	6.885060	-0.088649	NaN	0.000000	0.001536	0.001707	28.0813	0.054365	0.001998	27.2097	-99.6754	16.4685	-0.075107	0.883905	-0.194978	-0.196257	-0.088649	27.2097	-0.192534	-99.1461	0.000894	NaN
1141	1.000000	0.927244	7.37622e+06	-57189.1	1055.82	-29737.3	0.000000	0.000000	6.927122	-0.042924	NaN	0.000000	0.001559	0.001718	28.0801	0.075409	0.002036	37.0359	-177.99	-167.02	-0.039193	0.925950	-0.152918	-0.154212	-0.042924	37.0359	-0.152049	-19.7366	0.002175	NaN
1141	1.000000	0.969220	7.37622e+06	-57189.1	1055.82	-29737.3	0.000000	0.000000	6.969100	0.017339	NaN	0.000000	0.001576	0.001702	28.0802	0.051241	0.002120	24.1744	-72.5206	12.9436	0.059217	0.967892	-0.110943	-0.112270	0.017339	24.1744	-0.111481	-3.228407	-0.005371	NaN
1141	1.000000	1.011295	7.37622e+06	-57189.1	1055.82	-29737.3	0.000000	0.000000	7.011169	-0.143197	NaN	0.000000	0.001630	0.001688	28.0798	0.048421	0.002010	24.0866	171.983	-165.009	-0.040619	1.009962	-0.068867	-0.070201	-0.143197	24.0866	-0.064409	-0.239961	0.596751	NaN
1141	1.000000	1.053284	7.37622e+06	-57189.1	1055.82	-29737.3	0.000000	0.000000	7.053163	-0.024321	NaN	0.000000	0.001638	0.001716	28.0812	0.146360	0.002024	72.308	-161.79	13.0396	-0.007507	1.051877	-0.026878	-0.028285	-0.024321	72.308	-0.026626	-0.018622	1.306048	NaN
1141	2.000000	1.089878	7.37622e+06	-57189.1	1055.82	-29737.3	0.000000	0.000000	7.090139	9.247015	NaN	0.000000	0.001578	0.001731	28.0811	10.3096	0.001661	6206.11	8.615823	-174.05	9.029501	1.089626	0.009716	0.009464	9.247015	6206.11	0.008599	0.007665	1206.36	64763.5
1141	2.000000	1.100318	7.37622e+06	-57189.1	1055.82	-29737.3	0.000000	0.000000	7.101105	22.0403	NaN	0.000000	0.001549	0.001701	28.0812	20.5386	0.001842	11149.2	5.032297	6.195197	21.6471	1.099991	0.020156	0.019829	22.0403	11149.2	0.018673	0.020500	1075.14	71144.2
1141	2.000000	1.110749	7.37622e+06	-57189.1	1055.82	-29737.3	0.000000	0.000000	7.112568	47.1402	NaN	0.000000	0.001619	0.001722	28.0802	30.7745	0.001729	17801.1	5.175103	-179.99	44.5731	1.110420	0.030586	0.030258	47.1402	17801.1	0.028600	0.037893	1244.05	83549.5
1141	2.000000	1.121206	7.37622e+06	-57189.1	1055.82	-29737.3	0.000000	0.000000	7.124412	80.8467	NaN	0.000000	0.001613	0.001709	28.0801	41.0305	0.001786	22972.4	4.314636	-1.996751	75.7017	1.120885	0.041044	0.040723	80.8467	22972.4	0.038404	0.059969	1348.14	85707
1141	2.000000	1.131746	7.37622e+06	-57189.1	1055.82	-29737.3	0.000000	0.000000	7.136636	121.766	NaN	0.000000	0.001593	0.001707	28.08	51.2503	0.001829	28027.3	2.908280	178.743	121.05	1.131447	0.051584	0.051284	121.766	28027.3	0.048325	0.087307	1394.69	86662.2
1141	2.000000	1.142223	7.37622e+06	-57189.1	1055.82	-29737.3	0.000000	0.000000	7.149314	175.289	NaN	0.000000	0.001576	0.001695	28.0812	59.7508	0.001825	32733.1	3.892652	-2.700298	172.458	1.141800	0.062060	0.061638	175.289	32733.1	0.058044	0.118888	1474.41	86734.5
1141	2.000000	1.152754	7.37622e+06	-57189.1	1055.82	-29737.3	0.000000	0.000000	7.162193	232.327	NaN	0.000000	0.001581	0.001724	28.0814	72.2692	0.001694	42663.8	6.756169	171.653	232.925	1.152419	0.072592	0.072257	232.327	42663.8	0.068508	0.158071	1469.77	98040.8
1141	2.000000	1.163179	7.37622e+06	-57189.1	1055.82	-29737.3	0.000000	0.000000	7.175490	302.125	NaN	0.000000	0.001611	0.001751	28.0813	79.8958	0.001710	46724.3	1.309037	-3.405173	297.876	1.162890	0.083017	0.082728	302.125	46724.3	0.078167	0.198890	1519.06	95721.6
1141	2.000000	1.173698	7.37622e+06	-57189.1	1055.82	-29737.3	0.000000	0.000000	7.189119	377.71	NaN	0.000000	0.001562	0.001740	28.0813	90.3316	0.001784	50645.1	6.442124	170.422	376.185	1.173297	0.093536	0.093135	377.71	50645.1	0.087943	0.244639	1543.95	93550.8
1141	2.000000	1.184186	7.37622e+06	-57189.1	1055.82	-29737.3	0.000000	0.000000	7.203288	467.214	NaN	0.000000	0.001661	0.001734	28.0802	99.7804	0.001868	53420.4	3.091391	-6.496397	463.946	1.183784	0.104023	0.103622	467.214	53420.4	0.097464	0.293426	1592.27	90101.4
1141	2.000000	1.186697	7.37622e+06	-57189.1	1055.82	-29737.3	0.000000	0.000000	7.206331	480.127	NaN	0.000000	0.001636	0.001736	28.0797	103.505	0.001757	58896.5	8.758237	166.588	479.88	1.186456	0.106535	0.106294	480.127	58896.5	0.100421	0.309420	1551.7	96736