File: remote_trans/data/nanoindenter/0828-1/data/Data_2025-08-06,11h17m57s/2025-07-22_16-23-58_1_807.txt
2025-07-22, 16:23:58, 1
Index	Phase	Displacement	Time	Pos X	Pos Y	Pos Z	Rot A	Rot B	Piezo Z	Force A	Force B	Gripper	Voltage A	Voltage B	Temperature	Amplitude force	Amplitude pos	Stiffness	Phase shift	Phase excitation	Force A raw	Displacement raw	HMax	HMax raw	Real Force	Real Stiffness	Contact Depth	Area	Hardness	Reduced Mod.
[#]	[#]	[um]	[s]	[um]	[um]	[um]	[m°]	[m°]	[um]	[uN]	[uN]	[V]	[V]	[V]	[°C]	[uN]	[um]	[N/m]	[°]	[°]	[uN]	[um]	[um]	[um]	[uN]	[N/m]	[um]	[um^2]	[MPa]	[MPa]
807	1.000000	0.002028	7.37295e+06	-40489.1	1055.82	-29789.8	0.000000	0.000000	6.002801	0.033071	NaN	0.000000	0.001661	0.001753	28.0836	0.022105	0.001042	21.2238	172.04	-170.964	0.001119	0.000713	-1.114024	-1.115339	0.033071	21.2238	-1.115192	-8.016155E+14	-4.125545E-17	NaN
807	1.000000	0.043983	7.37295e+06	-40489.1	1055.82	-29789.8	0.000000	0.000000	6.044756	0.013092	NaN	0.000000	0.001586	0.001721	28.0834	0.069051	0.001989	34.7249	-119.83	15.6223	0.011956	0.042647	-1.072069	-1.073405	0.013092	34.7249	-1.072351	-2.131966E+14	-6.140958E-17	NaN
807	1.000000	0.086025	7.37295e+06	-40489.1	1055.82	-29789.8	0.000000	0.000000	6.086798	0.014516	NaN	0.000000	0.001618	0.001748	28.0832	0.066783	0.002028	32.9305	-126.477	-163.021	0.099473	0.084670	-1.030027	-1.031381	0.014516	32.9305	-1.030357	-5.811488E+13	-2.497786E-16	NaN
807	1.000000	0.128017	7.37295e+06	-40489.1	1055.82	-29789.8	0.000000	0.000000	6.128788	-0.009435	NaN	0.000000	0.001598	0.001698	28.0823	0.070022	0.001890	37.054	-177.447	11.7442	0.036359	0.126650	-0.988035	-0.989402	-0.009435	37.054	-0.987844	-1.556239E+13	6.062589E-16	NaN
807	1.000000	0.170039	7.37295e+06	-40489.1	1055.82	-29789.8	0.000000	0.000000	6.170813	0.038376	NaN	0.000000	0.001594	0.001773	28.0824	0.043621	0.001975	22.0846	-91.7097	-164.846	0.015671	0.168709	-0.946013	-0.947343	0.038376	22.0846	-0.947316	-4.424112E+12	-8.674337E-15	NaN
807	1.000000	0.212045	7.37295e+06	-40489.1	1055.82	-29789.8	0.000000	0.000000	6.212814	-0.065386	NaN	0.000000	0.001588	0.001757	28.082	0.132574	0.001994	66.4946	96.4317	14.9474	-0.073381	0.210700	-0.904007	-0.905352	-0.065386	66.4946	-0.903269	-1.125226E+12	5.810898E-14	NaN
807	1.000000	0.254072	7.37295e+06	-40489.1	1055.82	-29789.8	0.000000	0.000000	6.254843	-0.010954	NaN	0.000000	0.001586	0.001739	28.0817	0.087578	0.002149	40.746	37.423	-167.016	0.051791	0.252757	-0.861980	-0.863295	-0.010954	40.746	-0.861779	-3.091681E+11	3.543070E-14	NaN
807	1.000000	0.296081	7.37295e+06	-40489.1	1055.82	-29789.8	0.000000	0.000000	6.296851	-0.040374	NaN	0.000000	0.001649	0.001737	28.0831	0.096847	0.001988	48.7234	-7.349902	13.4331	-0.001638	0.294650	-0.819971	-0.821401	-0.040374	48.7234	-0.819349	-8.229738E+10	4.905895E-13	NaN
807	1.000000	0.338068	7.37295e+06	-40489.1	1055.82	-29789.8	0.000000	0.000000	6.338841	0.031018	NaN	0.000000	0.001582	0.001785	28.0829	0.051852	0.001990	26.0577	-161.596	-165.92	0.010022	0.336832	-0.777984	-0.779220	0.031018	26.0577	-0.778877	-2.322562E+10	-1.335499E-12	NaN
807	1.000000	0.380106	7.37295e+06	-40489.1	1055.82	-29789.8	0.000000	0.000000	6.380874	-0.090795	NaN	0.000000	0.001655	0.001804	28.0828	0.104690	0.001780	58.8105	-151.737	15.5418	-0.157440	0.378792	-0.735946	-0.737260	-0.090795	58.8105	-0.734788	-5.835153E+9	1.555994E-11	NaN
807	1.000000	0.422128	7.37295e+06	-40489.1	1055.82	-29789.8	0.000000	0.000000	6.422898	-0.055401	NaN	0.000000	0.001554	0.001751	28.0814	0.026038	0.002030	12.828	-61.7363	-165.872	-0.084525	0.420821	-0.693924	-0.695231	-0.055401	12.828	-0.690685	-1.459739E+9	3.795296E-11	NaN
807	1.000000	0.464121	7.37295e+06	-40489.1	1055.82	-29789.8	0.000000	0.000000	6.464893	0.007098	NaN	0.000000	0.001673	0.001777	28.0813	0.068548	0.002101	32.6288	139.454	12.0974	0.025974	0.462806	-0.651931	-0.653246	0.007098	32.6288	-0.652094	-4.326562E+8	-1.640607E-11	NaN
807	1.000000	0.506174	7.37295e+06	-40489.1	1055.82	-29789.8	0.000000	0.000000	6.506945	-0.016991	NaN	0.000000	0.001643	0.001713	28.0815	0.039923	0.002080	19.1977	11.0414	-169.296	0.025027	0.504883	-0.609878	-0.611169	-0.016991	19.1977	-0.609214	-1.115076E+8	1.523748E-10	NaN
807	1.000000	0.548174	7.37295e+06	-40489.1	1055.82	-29789.8	0.000000	0.000000	6.548945	-0.020414	NaN	0.000000	0.001593	0.001795	28.0827	0.113890	0.001946	58.5371	157.497	16.1694	-0.026796	0.546801	-0.567878	-0.569251	-0.020414	58.5371	-0.567616	-2.976379E+7	6.858545E-10	NaN
807	1.000000	0.590212	7.37295e+06	-40489.1	1055.82	-29789.8	0.000000	0.000000	6.590985	0.013545	NaN	0.000000	0.001657	0.001763	28.0828	0.029022	0.002009	14.4467	-76.2553	-167.384	0.004275	0.588907	-0.525840	-0.527145	0.013545	14.4467	-0.526543	-8.02696e+06	-1.687415E-9	NaN
807	1.000000	0.632256	7.37295e+06	-40489.1	1055.82	-29789.8	0.000000	0.000000	6.633027	-0.027709	NaN	0.000000	0.001652	0.001738	28.0828	0.034332	0.002083	16.4786	13.0305	17.3824	-0.035004	0.630890	-0.483796	-0.485162	-0.027709	16.4786	-0.482535	-1.95434e+06	1.417795E-8	NaN
807	1.000000	0.674227	7.37295e+06	-40489.1	1055.82	-29789.8	0.000000	0.000000	6.674998	-0.040504	NaN	0.000000	0.001596	0.001739	28.0818	0.044480	0.001958	22.7169	-174.661	-165.558	-0.026921	0.672922	-0.441824	-0.443129	-0.040504	22.7169	-0.440487	-501464	8.077086E-8	NaN
807	1.000000	0.716234	7.37295e+06	-40489.1	1055.82	-29789.8	0.000000	0.000000	6.717006	-0.014338	NaN	0.000000	0.001575	0.001724	28.0815	0.046897	0.001905	24.6163	23.9952	11.6432	-0.126400	0.714904	-0.399818	-0.401148	-0.014338	24.6163	-0.399381	-130967	1.094742E-7	NaN
807	1.000000	0.758289	7.37295e+06	-40489.1	1055.82	-29789.8	0.000000	0.000000	6.759061	0.007106	NaN	0.000000	0.001577	0.001717	28.0814	0.049220	0.001999	24.6259	177.58	-166.934	0.006831	0.756985	-0.357763	-0.359066	0.007106	24.6259	-0.357979	-33313.9	-2.133176E-7	NaN
807	1.000000	0.800267	7.37295e+06	-40489.1	1055.82	-29789.8	0.000000	0.000000	6.801042	0.069100	NaN	0.000000	0.001590	0.001762	28.0814	0.029001	0.002091	13.8674	31.1551	13.6034	-0.053754	0.798892	-0.315785	-0.317159	0.069100	13.8674	-0.319522	-9153.76	-7.548846E-6	NaN
807	1.000000	0.842293	7.37295e+06	-40489.1	1055.82	-29789.8	0.000000	0.000000	6.843066	0.025769	NaN	0.000000	0.001602	0.001757	28.083	0.067390	0.001993	33.8207	-59.7499	-163.947	-0.002407	0.840943	-0.273759	-0.275109	0.025769	33.8207	-0.274330	-1937.58	-1.329980E-5	NaN
807	1.000000	0.884330	7.37295e+06	-40489.1	1055.82	-29789.8	0.000000	0.000000	6.885100	-0.039820	NaN	0.000000	0.001685	0.001776	28.083	0.051201	0.002070	24.7393	-144.786	13.9249	-0.047463	0.882963	-0.231722	-0.233089	-0.039820	24.7393	-0.230515	-407.985	9.760156E-5	NaN
807	1.000000	0.926350	7.37295e+06	-40489.1	1055.82	-29789.8	0.000000	0.000000	6.927122	-0.001592	NaN	0.000000	0.001600	0.001772	28.083	0.080854	0.001979	40.8593	21.3197	-166.253	-0.014226	0.925041	-0.189702	-0.191011	-0.001592	40.8593	-0.189673	-88.8294	1.791672E-5	NaN
807	1.000000	0.968362	7.37295e+06	-40489.1	1055.82	-29789.8	0.000000	0.000000	6.969133	-0.024569	NaN	0.000000	0.001589	0.001735	28.0817	0.055761	0.001817	30.6865	-2.707456	10.9169	0.018124	0.967043	-0.147689	-0.149009	-0.024569	30.6865	-0.147089	-16.0213	0.001533	NaN
807	1.000000	1.010375	7.37295e+06	-40489.1	1055.82	-29789.8	0.000000	0.000000	7.011150	0.065017	NaN	0.000000	0.001599	0.001730	28.0818	0.067978	0.001949	34.8709	163.221	-168.519	0.092800	1.009045	-0.105677	-0.107007	0.065017	34.8709	-0.107075	-2.604764	-0.024961	NaN
807	1.000000	1.052410	7.37295e+06	-40489.1	1055.82	-29789.8	0.000000	0.000000	7.053181	-0.006094	NaN	0.000000	0.001566	0.001712	28.0819	0.068337	0.001926	35.4834	33.9534	14.0485	-0.023935	1.051080	-0.063642	-0.064972	-0.006094	35.4834	-0.063513	-0.226528	0.026903	NaN
807	1.000000	1.094419	7.37295e+06	-40489.1	1055.82	-29789.8	0.000000	0.000000	7.095188	-0.068312	NaN	0.000000	0.001640	0.001712	28.083	0.122564	0.002018	60.7456	-62.129	-163.428	0.014561	1.093105	-0.021633	-0.022947	-0.068312	60.7456	-0.020789	-0.013155	5.193004	NaN
807	2.000000	1.124456	7.37295e+06	-40489.1	1055.82	-29789.8	0.000000	0.000000	7.125839	14.8717	NaN	0.000000	0.001615	0.001722	28.0827	13.3918	0.001781	7518.64	5.021054	6.479135	14.6801	1.124082	0.008404	0.008031	14.8717	7518.64	0.006921	0.005956	2497.01	89010.8
807	2.000000	1.134840	7.37295e+06	-40489.1	1055.82	-29789.8	0.000000	0.000000	7.137166	37.8212	NaN	0.000000	0.001560	0.001698	28.0827	24.1487	0.001798	13429	4.478380	-178.456	35.9092	1.134497	0.018788	0.018445	37.8212	13429	0.016676	0.017585	2150.74	92521.7
807	2.000000	1.145343	7.37295e+06	-40489.1	1055.82	-29789.8	0.000000	0.000000	7.149324	78.0922	NaN	0.000000	0.001575	0.001690	28.0813	33.5975	0.001708	19673.8	1.635476	2.154887	76.4444	1.144934	0.029291	0.028882	78.0922	19673.8	0.026314	0.033450	2334.6	98279.5
807	2.000000	1.155798	7.37295e+06	-40489.1	1055.82	-29789.8	0.000000	0.000000	7.161430	118.277	NaN	0.000000	0.001612	0.001688	28.0812	43.4894	0.001703	25535	4.052886	177.251	115.622	1.155498	0.039746	0.039446	118.277	25535	0.036272	0.054749	2160.34	99705.9
807	2.000000	1.166319	7.37295e+06	-40489.1	1055.82	-29789.8	0.000000	0.000000	7.173989	167.87	NaN	0.000000	0.001611	0.001710	28.0814	53.0512	0.001888	28103.5	0.143320	0.142643	165.599	1.166000	0.050267	0.049948	167.87	28103.5	0.045787	0.079836	2102.67	90872.6
807	2.000000	1.176804	7.37295e+06	-40489.1	1055.82	-29789.8	0.000000	0.000000	7.186789	224.181	NaN	0.000000	0.001596	0.001651	28.0812	65.7366	0.001892	34736.1	6.228664	173.046	221.833	1.176421	0.060752	0.060369	224.181	34736.1	0.055912	0.111558	2009.55	95017.6
807	2.000000	1.187357	7.37295e+06	-40489.1	1055.82	-29789.8	0.000000	0.000000	7.200144	292.386	NaN	0.000000	0.001615	0.001638	28.0826	76.2642	0.001803	42292.5	7.575837	-10.3816	293.159	1.186881	0.071305	0.070829	292.386	42292.5	0.066120	0.148663	1966.76	100215
807	2.000000	1.197695	7.37295e+06	-40489.1	1055.82	-29789.8	0.000000	0.000000	7.213899	375.516	NaN	0.000000	0.001638	0.001639	28.0827	84.1664	0.001744	48272.4	3.134839	172.569	370.885	1.197381	0.081643	0.081329	375.516	48272.4	0.075808	0.188515	1991.97	101578
807	2.000000	1.208188	7.37295e+06	-40489.1	1055.82	-29789.8	0.000000	0.000000	7.227795	458.312	NaN	0.000000	0.001657	0.001607	28.0826	93.1406	0.001763	52825.9	3.260426	-8.033876	452.151	1.207948	0.092136	0.091896	458.312	52825.9	0.085630	0.233414	1963.52	99897.9
807	2.000000	1.218660	7.37295e+06	-40489.1	1055.82	-29789.8	0.000000	0.000000	7.241997	549.097	NaN	0.000000	0.001650	0.001636	28.0813	101.345	0.001833	55299.5	-0.402665	176.022	543.674	1.218370	0.102608	0.102318	549.097	55299.5	0.095161	0.281247	1952.37	95268.8