File: remote_trans/data/nanoindenter/0828-1/data/Data_2025-08-06,11h17m57s/2025-07-22_16-23-58_1_684.txt
2025-07-22, 16:23:58, 1
Index	Phase	Displacement	Time	Pos X	Pos Y	Pos Z	Rot A	Rot B	Piezo Z	Force A	Force B	Gripper	Voltage A	Voltage B	Temperature	Amplitude force	Amplitude pos	Stiffness	Phase shift	Phase excitation	Force A raw	Displacement raw	HMax	HMax raw	Real Force	Real Stiffness	Contact Depth	Area	Hardness	Reduced Mod.
[#]	[#]	[um]	[s]	[um]	[um]	[um]	[m°]	[m°]	[um]	[uN]	[uN]	[V]	[V]	[V]	[°C]	[uN]	[um]	[N/m]	[°]	[°]	[uN]	[um]	[um]	[um]	[uN]	[N/m]	[um]	[um^2]	[MPa]	[MPa]
684	1.000000	0.002609	7.37174e+06	-42889.1	1005.82	-29781.1	0.000000	0.000000	6.002837	0.044043	NaN	0.000000	0.001583	0.001750	28.084	0.017025	0.000988	17.2322	79.9102	-167.109	0.044557	0.001310	-1.019637	-1.020937	0.044043	17.2322	-1.021554	-4.424480E+13	-9.954353E-16	NaN
684	1.000000	0.042529	7.37174e+06	-42889.1	1005.82	-29781.1	0.000000	0.000000	6.042755	-0.002534	NaN	0.000000	0.001625	0.001774	28.0841	0.100653	0.002014	49.9819	104.252	-167.998	-0.039469	0.041268	-0.979717	-0.980979	-0.002534	49.9819	-0.979679	-1.208057E+13	2.097204E-16	NaN
684	1.000000	0.082559	7.37174e+06	-42889.1	1005.82	-29781.1	0.000000	0.000000	6.082783	-0.048588	NaN	0.000000	0.001579	0.001730	28.0843	0.039661	0.002147	18.4735	-70.5637	-164.465	-0.015136	0.081200	-0.939687	-0.941047	-0.048588	18.4735	-0.937715	-3.283238E+12	1.479890E-14	NaN
684	1.000000	0.122546	7.37174e+06	-42889.1	1005.82	-29781.1	0.000000	0.000000	6.122769	-0.079067	NaN	0.000000	0.001616	0.001731	28.0829	0.067672	0.002004	33.773	-85.9739	-168.041	-0.068050	0.121205	-0.899700	-0.901041	-0.079067	33.773	-0.897944	-9.534305E+11	8.292917E-14	NaN
684	1.000000	0.162560	7.37174e+06	-42889.1	1005.82	-29781.1	0.000000	0.000000	6.162787	0.029787	NaN	0.000000	0.001640	0.001737	28.0826	0.041215	0.001791	23.0128	121.045	-164.397	0.017474	0.161233	-0.859686	-0.861014	0.029787	23.0128	-0.860657	-2.985471E+11	-9.977251E-14	NaN
684	1.000000	0.202575	7.37174e+06	-42889.1	1005.82	-29781.1	0.000000	0.000000	6.202803	0.047676	NaN	0.000000	0.001564	0.001734	28.0825	0.027021	0.001910	14.1478	77.2235	-168.134	-0.067855	0.201276	-0.819671	-0.820970	0.047676	14.1478	-0.822199	-8.995464E+10	-5.300032E-13	NaN
684	1.000000	0.242600	7.37174e+06	-42889.1	1005.82	-29781.1	0.000000	0.000000	6.242825	-0.013457	NaN	0.000000	0.001630	0.001734	28.0842	0.036774	0.001966	18.7045	-56.5801	-165.743	-0.043172	0.241253	-0.779647	-0.780993	-0.013457	18.7045	-0.779107	-2.339390E+10	5.752504E-13	NaN
684	1.000000	0.282625	7.37174e+06	-42889.1	1005.82	-29781.1	0.000000	0.000000	6.282849	-0.034732	NaN	0.000000	0.001613	0.001743	28.0843	0.097723	0.001916	51.0072	158.449	-164.655	-0.108177	0.281351	-0.739622	-0.740895	-0.034732	51.0072	-0.739111	-6.682631E+9	5.197423E-12	NaN
684	1.000000	0.322638	7.37174e+06	-42889.1	1005.82	-29781.1	0.000000	0.000000	6.322863	-0.031300	NaN	0.000000	0.001607	0.001752	28.0835	0.055356	0.002043	27.098	-170.784	-166.577	-0.059269	0.321405	-0.699608	-0.700842	-0.031300	27.098	-0.698742	-1.880829E+9	1.664139E-11	NaN
684	1.000000	0.362643	7.37174e+06	-42889.1	1005.82	-29781.1	0.000000	0.000000	6.362867	-0.045722	NaN	0.000000	0.001623	0.001728	28.0837	0.114144	0.002015	56.651	130.585	-168.643	-0.114469	0.361293	-0.659603	-0.660953	-0.045722	56.651	-0.658998	-5.379513E+8	8.499224E-11	NaN
684	1.000000	0.402693	7.37174e+06	-42889.1	1005.82	-29781.1	0.000000	0.000000	6.402918	-0.000379	NaN	0.000000	0.001613	0.001722	28.0827	0.092104	0.002019	45.6122	56.0694	-164.941	0.005543	0.401431	-0.619554	-0.620815	-0.000379	45.6122	-0.619548	-1.546741E+8	2.453138E-12	NaN
684	1.000000	0.442695	7.37174e+06	-42889.1	1005.82	-29781.1	0.000000	0.000000	6.442919	-0.026154	NaN	0.000000	0.001622	0.001731	28.0828	0.156575	0.001887	82.9625	-122.151	-167.991	-0.021022	0.441339	-0.579552	-0.580908	-0.026154	82.9625	-0.579315	-4.317925E+7	6.056985E-10	NaN
684	1.000000	0.482724	7.37174e+06	-42889.1	1005.82	-29781.1	0.000000	0.000000	6.482948	-0.032269	NaN	0.000000	0.001652	0.001738	28.0832	0.074881	0.001958	38.2448	-9.267398	-165.817	-0.075331	0.481358	-0.539523	-0.540889	-0.032269	38.2448	-0.538890	-1.191143E+7	2.709117E-9	NaN
684	1.000000	0.522708	7.37174e+06	-42889.1	1005.82	-29781.1	0.000000	0.000000	6.522933	-0.008191	NaN	0.000000	0.001611	0.001745	28.0839	0.046712	0.002112	22.1125	78.8426	-164.408	-0.027271	0.521409	-0.499539	-0.500837	-0.008191	22.1125	-0.499261	-3.34742e+06	2.446930E-9	NaN
684	1.000000	0.562758	7.37174e+06	-42889.1	1005.82	-29781.1	0.000000	0.000000	6.562983	-0.001576	NaN	0.000000	0.001582	0.001719	28.0837	0.004851	0.002049	2.367396	-171.789	-168.249	-0.028313	0.561457	-0.459489	-0.460789	-0.001576	2.367396	-0.458990	-913732	1.724735E-9	NaN
684	1.000000	0.602727	7.37174e+06	-42889.1	1005.82	-29781.1	0.000000	0.000000	6.602952	-0.008679	NaN	0.000000	0.001579	0.001707	28.0837	0.067120	0.002084	32.2086	162.968	-165.125	-0.006625	0.601490	-0.419520	-0.420756	-0.008679	32.2086	-0.419318	-251617	3.449464E-8	NaN
684	1.000000	0.642805	7.37174e+06	-42889.1	1005.82	-29781.1	0.000000	0.000000	6.643031	0.017143	NaN	0.000000	0.001575	0.001767	28.0826	0.086567	0.001999	43.3119	163.706	-163.706	-0.064186	0.641413	-0.379442	-0.380834	0.017143	43.3119	-0.379738	-68570.2	-2.500096E-7	NaN
684	1.000000	0.682782	7.37174e+06	-42889.1	1005.82	-29781.1	0.000000	0.000000	6.683002	-0.140902	NaN	0.000000	0.001550	0.001727	28.0826	0.088005	0.002008	43.8219	-64.0927	-166.968	-0.080912	0.681477	-0.339464	-0.340770	-0.140902	43.8219	-0.337053	-16541.1	8.518300E-6	NaN
684	1.000000	0.722837	7.37175e+06	-42889.1	1005.82	-29781.1	0.000000	0.000000	6.723062	-0.010690	NaN	0.000000	0.001574	0.001741	28.0825	0.047233	0.001925	24.5382	-50.157	-163.467	0.017426	0.721482	-0.299410	-0.300764	-0.010690	24.5382	-0.299083	-4560.16	2.344235E-6	NaN
684	1.000000	0.762821	7.37175e+06	-42889.1	1005.82	-29781.1	0.000000	0.000000	6.763046	-0.003661	NaN	0.000000	0.001552	0.001791	28.0824	0.049466	0.002022	24.4629	-120.235	-163.479	-0.040566	0.761503	-0.259426	-0.260744	-0.003661	24.4629	-0.259314	-1143.91	3.200044E-6	NaN
684	1.000000	0.802807	7.37175e+06	-42889.1	1005.82	-29781.1	0.000000	0.000000	6.803034	0.032805	NaN	0.000000	0.001605	0.001743	28.0839	0.034331	0.002088	16.4421	91.4947	-167.033	-0.038125	0.801567	-0.219440	-0.220680	0.032805	16.4421	-0.220936	-287.492	-0.000114	NaN
684	1.000000	0.842865	7.37175e+06	-42889.1	1005.82	-29781.1	0.000000	0.000000	6.843089	-0.041890	NaN	0.000000	0.001583	0.001764	28.0841	0.117693	0.001941	60.6421	93.2219	-167.017	-0.039916	0.841589	-0.179382	-0.180658	-0.041890	60.6421	-0.178864	-58.3599	0.000718	NaN
684	1.000000	0.882881	7.37175e+06	-42889.1	1005.82	-29781.1	0.000000	0.000000	6.883105	-0.019563	NaN	0.000000	0.001562	0.001808	28.0841	0.042619	0.002030	20.9936	76.3823	-164.857	0.007207	0.881599	-0.139366	-0.140648	-0.019563	20.9936	-0.138667	-11.1655	0.001752	NaN
684	1.000000	0.922892	7.37175e+06	-42889.1	1005.82	-29781.1	0.000000	0.000000	6.923116	-0.038523	NaN	0.000000	0.001543	0.001782	28.0832	0.071906	0.001945	36.9666	-140.465	-166.753	-0.041828	0.921572	-0.099354	-0.100674	-0.038523	36.9666	-0.098573	-1.698308	0.022683	NaN
684	1.000000	0.962901	7.37175e+06	-42889.1	1005.82	-29781.1	0.000000	0.000000	6.963122	-0.092277	NaN	0.000000	0.001572	0.001766	28.0829	0.019735	0.001890	10.4427	-110.212	-167.406	-0.134938	0.961629	-0.059346	-0.060618	-0.092277	10.4427	-0.052719	-0.110157	0.837679	NaN
684	1.000000	1.002917	7.37175e+06	-42889.1	1005.82	-29781.1	0.000000	0.000000	7.003145	0.065355	NaN	0.000000	0.001576	0.001725	28.0828	0.089726	0.002028	44.2518	-17.2825	-164.888	0.011553	1.001642	-0.019330	-0.020605	0.065355	44.2518	-0.020438	-0.012887	-5.071393	NaN
684	2.000000	1.041485	7.37175e+06	-42889.1	1005.82	-29781.1	0.000000	0.000000	7.042039	7.988454	NaN	0.000000	0.001566	0.001730	28.0837	5.201278	0.001865	2788.58	21.6314	-172.243	8.373088	1.041100	0.019239	0.018853	7.988454	2788.58	0.017090	0.018175	439.541	18898.4
684	2.000000	1.051436	7.37175e+06	-42889.1	1005.82	-29781.1	0.000000	0.000000	7.052246	14.2219	NaN	0.000000	0.001582	0.001680	28.0843	9.946162	0.001904	5222.77	12.9251	-169.952	14.2105	1.051072	0.029189	0.028825	14.2219	5222.77	0.027147	0.035038	405.904	25492.2
684	2.000000	1.061370	7.37175e+06	-42889.1	1005.82	-29781.1	0.000000	0.000000	7.062528	22.6896	NaN	0.000000	0.001567	0.001766	28.0839	17.26	0.001846	9348.84	16.3152	-179.757	22.1283	1.061082	0.039123	0.038835	22.6896	9348.84	0.037303	0.057245	396.363	35699.6
684	2.000000	1.071383	7.37175e+06	-42889.1	1005.82	-29781.1	0.000000	0.000000	7.073318	41.5964	NaN	0.000000	0.001660	0.001730	28.0849	28.1544	0.001832	15365.6	11.1116	177.474	41.3235	1.071009	0.049137	0.048763	41.5964	15365.6	0.047106	0.083679	497.093	48530.5
684	2.000000	1.081312	7.37175e+06	-42889.1	1005.82	-29781.1	0.000000	0.000000	7.085334	92.3698	NaN	0.000000	0.001666	0.001748	28.0826	39.2522	0.001870	20989.2	3.310633	-178.298	91.4323	1.081031	0.059065	0.058785	92.3698	20989.2	0.055764	0.111060	831.712	57542.7
684	2.000000	1.091342	7.37175e+06	-42889.1	1005.82	-29781.1	0.000000	0.000000	7.098572	170.422	NaN	0.000000	0.001625	0.001741	28.083	48.0678	0.001851	25963.9	3.679870	178.712	168.284	1.090956	0.069095	0.068709	170.422	25963.9	0.064172	0.141193	1207.02	63130.2
684	2.000000	1.101289	7.37175e+06	-42889.1	1005.82	-29781.1	0.000000	0.000000	7.112277	261.873	NaN	0.000000	0.001577	0.001718	28.0829	57.6254	0.001708	33739.9	6.140194	173.393	259.108	1.101022	0.079042	0.078775	261.873	33739.9	0.073221	0.177436	1475.87	73180.7
684	2.000000	1.111250	7.37175e+06	-42889.1	1005.82	-29781.1	0.000000	0.000000	7.126117	356.249	NaN	0.000000	0.001530	0.001712	28.0835	66.7772	0.001814	36804	7.203059	172.802	352.452	1.110921	0.089003	0.088674	356.249	36804	0.081743	0.215111	1656.12	72499.8
684	2.000000	1.121168	7.37175e+06	-42889.1	1005.82	-29781.1	0.000000	0.000000	7.140192	457.367	NaN	0.000000	0.001608	0.001746	28.0844	74.1804	0.001851	40074.6	2.191518	176.472	450.209	1.120939	0.098922	0.098692	457.367	40074.6	0.090362	0.256642	1782.12	72273.4
684	2.000000	1.131196	7.37175e+06	-42889.1	1005.82	-29781.1	0.000000	0.000000	7.155022	574.221	NaN	0.000000	0.001577	0.001733	28.0846	83.1442	0.001837	45265.6	3.563827	174.496	569.044	1.130826	0.108949	0.108579	574.221	45265.6	0.099435	0.304044	1888.61	75002.2
684	2.000000	1.139108	7.37175e+06	-42889.1	1005.82	-29781.1	0.000000	0.000000	7.166429	659.235	NaN	0.000000	0.001572	0.001743	28.084	90.9691	0.001843	49352.7	2.513533	175.053	650.082	1.138782	0.116861	0.116536	659.235	49352.7	0.106843	0.345525	1907.92	76708.6