File: remote_trans/data/nanoindenter/0828-1/data/Data_2025-08-06,11h17m57s/2025-07-22_16-23-58_1_1106.txt
2025-07-22, 16:23:58, 1
Index	Phase	Displacement	Time	Pos X	Pos Y	Pos Z	Rot A	Rot B	Piezo Z	Force A	Force B	Gripper	Voltage A	Voltage B	Temperature	Amplitude force	Amplitude pos	Stiffness	Phase shift	Phase excitation	Force A raw	Displacement raw	HMax	HMax raw	Real Force	Real Stiffness	Contact Depth	Area	Hardness	Reduced Mod.
[#]	[#]	[um]	[s]	[um]	[um]	[um]	[m°]	[m°]	[um]	[uN]	[uN]	[V]	[V]	[V]	[°C]	[uN]	[um]	[N/m]	[°]	[°]	[uN]	[um]	[um]	[um]	[uN]	[N/m]	[um]	[um^2]	[MPa]	[MPa]
1106	1.000000	0.002013	7.37587e+06	-55439.1	1055.82	-29741.6	0.000000	0.000000	6.002798	0.060287	NaN	0.000000	0.001634	0.001706	28.082	0.141498	0.000886	159.781	45.8882	-164.425	-0.025260	0.000731	-1.005035	-1.006317	0.060287	159.781	-1.005318	-2.675210E+13	-2.253546E-15	NaN
1106	1.000000	0.041973	7.37587e+06	-55439.1	1055.82	-29741.6	0.000000	0.000000	6.042757	0.012590	NaN	0.000000	0.001507	0.001704	28.0834	0.091555	0.001896	48.284	157.643	-164.816	-0.046315	0.040625	-0.965074	-0.966423	0.012590	48.284	-0.965270	-7.725211E+12	-1.629674E-15	NaN
1106	1.000000	0.081967	7.37587e+06	-55439.1	1055.82	-29741.6	0.000000	0.000000	6.082750	0.018283	NaN	0.000000	0.001489	0.001694	28.083	0.037848	0.001884	20.0936	-58.8648	-164.17	0.125959	0.080673	-0.925081	-0.926374	0.018283	20.0936	-0.925763	-2.264714E+12	-8.073184E-15	NaN
1106	1.000000	0.121947	7.37587e+06	-55439.1	1055.82	-29741.6	0.000000	0.000000	6.122729	-0.047351	NaN	0.000000	0.001552	0.001665	28.0828	0.091255	0.001856	49.1688	39.3214	-165.459	-0.103013	0.120686	-0.885100	-0.886361	-0.047351	49.1688	-0.884378	-6.250385E+11	7.575632E-14	NaN
1106	1.000000	0.162005	7.37587e+06	-55439.1	1055.82	-29741.6	0.000000	0.000000	6.162789	0.012461	NaN	0.000000	0.001593	0.001672	28.0825	0.040391	0.001907	21.1768	77.9641	-168.72	0.001485	0.160683	-0.845042	-0.846365	0.012461	21.1768	-0.845484	-1.860256E+11	-6.698628E-14	NaN
1106	1.000000	0.202036	7.37587e+06	-55439.1	1055.82	-29741.6	0.000000	0.000000	6.202819	0.000521	NaN	0.000000	0.001578	0.001658	28.0814	0.033131	0.002046	16.1937	-57.4811	-163.615	-0.020479	0.200692	-0.805011	-0.806356	0.000521	16.1937	-0.805035	-5.262659E+10	-9.907357E-15	NaN
1106	1.000000	0.242046	7.37587e+06	-55439.1	1055.82	-29741.6	0.000000	0.000000	6.242833	0.104004	NaN	0.000000	0.001556	0.001659	28.0817	0.062628	0.002014	31.1029	-64.1326	-167.567	0.083499	0.240772	-0.765002	-0.766275	0.104004	31.1029	-0.767510	-1.627208E+10	-6.391536E-12	NaN
1106	1.000000	0.282067	7.37587e+06	-55439.1	1055.82	-29741.6	0.000000	0.000000	6.282851	0.003044	NaN	0.000000	0.001581	0.001681	28.0814	0.064275	0.002135	30.1044	81.3726	-159.896	0.030793	0.280730	-0.724980	-0.726318	0.003044	30.1044	-0.725056	-4.299479E+9	-7.079828E-13	NaN
1106	1.000000	0.322092	7.37587e+06	-55439.1	1055.82	-29741.6	0.000000	0.000000	6.322876	0.024314	NaN	0.000000	0.001603	0.001668	28.0826	0.030269	0.001996	15.1635	31.659	-166.919	-0.054905	0.320726	-0.684956	-0.686322	0.024314	15.1635	-0.686158	-1.265928E+9	-1.920607E-11	NaN
1106	1.000000	0.362081	7.37587e+06	-55439.1	1055.82	-29741.6	0.000000	0.000000	6.362861	-0.062328	NaN	0.000000	0.001661	0.001698	28.0828	0.055828	0.002056	27.1518	162.381	-165.105	0.037756	0.360800	-0.644967	-0.646248	-0.062328	27.1518	-0.643245	-3.271956E+8	1.904912E-10	NaN
1106	1.000000	0.402116	7.37587e+06	-55439.1	1055.82	-29741.6	0.000000	0.000000	6.402898	-0.020823	NaN	0.000000	0.001678	0.001717	28.083	0.028727	0.002016	14.2491	40.1441	-168.603	-0.046985	0.400863	-0.604931	-0.606185	-0.020823	14.2491	-0.603835	-9.403153E+7	2.214468E-10	NaN
1106	1.000000	0.442124	7.37587e+06	-55439.1	1055.82	-29741.6	0.000000	0.000000	6.442907	-0.008709	NaN	0.000000	0.001628	0.001702	28.0819	0.023826	0.001960	12.158	67.071	-166.285	-0.027732	0.440777	-0.564924	-0.566270	-0.008709	12.158	-0.564386	-2.685603E+7	3.242968E-10	NaN
1106	1.000000	0.482131	7.37587e+06	-55439.1	1055.82	-29741.6	0.000000	0.000000	6.482913	-0.015625	NaN	0.000000	0.001669	0.001719	28.0818	0.118401	0.001982	59.7499	86.5203	-164.67	0.078851	0.480878	-0.524917	-0.526169	-0.015625	59.7499	-0.524720	-7.57228e+06	2.063385E-9	NaN
1106	1.000000	0.522161	7.37587e+06	-55439.1	1055.82	-29741.6	0.000000	0.000000	6.522945	0.029522	NaN	0.000000	0.001551	0.001677	28.0818	0.025451	0.002062	12.3436	-60.1398	-167.018	-0.017296	0.520849	-0.484886	-0.486199	0.029522	12.3436	-0.486680	-2.23351e+06	-1.321755E-8	NaN
1106	1.000000	0.562182	7.37587e+06	-55439.1	1055.82	-29741.6	0.000000	0.000000	6.562964	-0.041002	NaN	0.000000	0.001618	0.001634	28.0818	0.077168	0.002077	37.1508	174.06	-161.223	-0.066477	0.560854	-0.444865	-0.446194	-0.041002	37.1508	-0.444037	-562758	7.285964E-8	NaN
1106	1.000000	0.602177	7.37587e+06	-55439.1	1055.82	-29741.6	0.000000	0.000000	6.602959	-0.028436	NaN	0.000000	0.001566	0.001648	28.0828	0.046446	0.002092	22.1985	158.222	-162.52	-0.121567	0.600896	-0.404871	-0.406152	-0.028436	22.1985	-0.403910	-151957	1.871294E-7	NaN
1106	1.000000	0.642229	7.37587e+06	-55439.1	1055.82	-29741.6	0.000000	0.000000	6.643011	-0.006585	NaN	0.000000	0.001555	0.001707	28.0834	0.071680	0.002045	35.058	-55.462	-163.046	0.102070	0.640867	-0.364819	-0.366180	-0.006585	35.058	-0.364678	-41630.3	1.581797E-7	NaN
1106	1.000000	0.682220	7.37587e+06	-55439.1	1055.82	-29741.6	0.000000	0.000000	6.683003	-0.011874	NaN	0.000000	0.001603	0.001700	28.0836	0.039367	0.001927	20.4295	104.861	-167.98	-0.020474	0.680941	-0.324827	-0.326107	-0.011874	20.4295	-0.324391	-10794.4	1.099986E-6	NaN
1106	1.000000	0.722251	7.37587e+06	-55439.1	1055.82	-29741.6	0.000000	0.000000	6.723033	-0.026352	NaN	0.000000	0.001619	0.001679	28.0819	0.073717	0.002004	36.7847	170.801	-161.983	0.012173	0.720907	-0.284797	-0.286141	-0.026352	36.7847	-0.284259	-2736.1	9.631139E-6	NaN
1106	1.000000	0.762243	7.37587e+06	-55439.1	1055.82	-29741.6	0.000000	0.000000	6.763025	-0.033270	NaN	0.000000	0.001590	0.001656	28.0817	0.116395	0.002021	57.5828	-139.604	-164.574	0.028165	0.760996	-0.244804	-0.246051	-0.033270	57.5828	-0.244371	-672.47	4.947463E-5	NaN
1106	1.000000	0.802300	7.37587e+06	-55439.1	1055.82	-29741.6	0.000000	0.000000	6.803082	-0.016727	NaN	0.000000	0.001621	0.001651	28.0819	0.028467	0.002030	14.0218	19.6791	-162.95	0.008553	0.801005	-0.204748	-0.206043	-0.016727	14.0218	-0.203853	-152.347	0.000110	NaN
1106	1.000000	0.842316	7.37587e+06	-55439.1	1055.82	-29741.6	0.000000	0.000000	6.843099	-0.018120	NaN	0.000000	0.001595	0.001654	28.0823	0.117620	0.002103	55.9221	-131.952	-165.422	-0.066556	0.840981	-0.164731	-0.166066	-0.018120	55.9221	-0.164488	-32.9089	0.000551	NaN
1106	1.000000	0.882309	7.37587e+06	-55439.1	1055.82	-29741.6	0.000000	0.000000	6.883092	0.013913	NaN	0.000000	0.001575	0.001656	28.0835	0.098283	0.002091	47.007	-91.812	-167.645	0.047406	0.881004	-0.124739	-0.126044	0.013913	47.007	-0.124961	-6.070436	-0.002292	NaN
1106	1.000000	0.922339	7.37587e+06	-55439.1	1055.82	-29741.6	0.000000	0.000000	6.923121	-0.024515	NaN	0.000000	0.001547	0.001687	28.0833	0.081815	0.001921	42.5821	10.9912	-169.363	-0.088189	0.921044	-0.084709	-0.086004	-0.024515	42.5821	-0.084277	-0.789104	0.031067	NaN
1106	1.000000	0.962342	7.37587e+06	-55439.1	1055.82	-29741.6	0.000000	0.000000	6.963124	-0.028980	NaN	0.000000	0.001578	0.001654	28.0832	0.026514	0.002060	12.8685	-120.401	-166.41	-0.051901	0.961038	-0.044705	-0.046009	-0.028980	12.8685	-0.043016	-0.055888	0.518536	NaN
1106	1.000000	1.002350	7.37587e+06	-55439.1	1055.82	-29741.6	0.000000	0.000000	7.003134	0.010235	NaN	0.000000	0.001569	0.001641	28.0821	0.020592	0.002099	9.811629	-56.6082	-165.964	-0.011556	1.001092	-0.004697	-0.005956	0.010235	9.811629	-0.005480	-0.003716	-2.754424	NaN
1106	2.000000	1.026907	7.37587e+06	-55439.1	1055.82	-29741.6	0.000000	0.000000	7.028166	11.5679	NaN	0.000000	0.001560	0.001712	28.0823	12.8188	0.001830	7005.86	8.438916	-172.881	12.6928	1.026615	0.019860	0.019568	11.5679	7005.86	0.018621	0.020422	566.448	44790.6
1106	2.000000	1.036900	7.37587e+06	-55439.1	1055.82	-29741.6	0.000000	0.000000	7.038854	28.4686	NaN	0.000000	0.001606	0.001668	28.082	22.3041	0.001881	11856.6	4.129889	-173.79	29.5019	1.036619	0.029852	0.029571	28.4686	11856.6	0.028052	0.036802	773.563	56467.4
1106	2.000000	1.046882	7.37587e+06	-55439.1	1055.82	-29741.6	0.000000	0.000000	7.049760	50.9084	NaN	0.000000	0.001524	0.001722	28.0827	33.0271	0.001856	17792.1	5.777829	-179.693	51.9709	1.046584	0.039835	0.039537	50.9084	17792.1	0.037689	0.058192	874.839	67386.1
1106	2.000000	1.056758	7.37587e+06	-55439.1	1055.82	-29741.6	0.000000	0.000000	7.060633	75.1782	NaN	0.000000	0.001555	0.001680	28.0836	41.4698	0.001680	24687.4	6.445983	175.484	71.4849	1.056501	0.049710	0.049453	75.1782	24687.4	0.047426	0.084624	888.378	77535.5
1106	2.000000	1.066800	7.37587e+06	-55439.1	1055.82	-29741.6	0.000000	0.000000	7.072073	109.124	NaN	0.000000	0.001555	0.001703	28.0833	52.3194	0.001914	27336.5	4.535330	178.001	107.43	1.066461	0.059753	0.059413	109.124	27336.5	0.056759	0.114444	953.518	73827.8
1106	2.000000	1.076871	7.37587e+06	-55439.1	1055.82	-29741.6	0.000000	0.000000	7.083644	145.607	NaN	0.000000	0.001601	0.001693	28.0837	61.8618	0.001866	33150.7	3.398795	177.766	147.471	1.076516	0.069823	0.069468	145.607	33150.7	0.066529	0.150257	969.058	78135.7
1106	2.000000	1.086793	7.37587e+06	-55439.1	1055.82	-29741.6	0.000000	0.000000	7.095601	195.079	NaN	0.000000	0.001561	0.001683	28.0821	70.8241	0.001744	40616.1	5.129941	173.526	193.688	1.086446	0.079746	0.079398	195.079	40616.1	0.076143	0.189972	1026.88	85138.5
1106	2.000000	1.096814	7.37587e+06	-55439.1	1055.82	-29741.6	0.000000	0.000000	7.107797	247.962	NaN	0.000000	0.001562	0.001655	28.0818	79.7397	0.001831	43556.8	3.826571	175.128	248.977	1.096415	0.089766	0.089367	247.962	43556.8	0.085496	0.232775	1065.24	82482.2
1106	2.000000	1.106722	7.37587e+06	-55439.1	1055.82	-29741.6	0.000000	0.000000	7.120101	306.191	NaN	0.000000	0.001552	0.001638	28.0818	88.2296	0.001806	48849.6	-1.579220	179.452	304.406	1.106449	0.099674	0.099402	306.191	48849.6	0.094973	0.280263	1092.51	84304.6
1106	2.000000	1.116817	7.37587e+06	-55439.1	1055.82	-29741.6	0.000000	0.000000	7.132883	371.518	NaN	0.000000	0.001552	0.001694	28.0831	98.9142	0.001859	53206.8	3.995690	173.518	374.01	1.116457	0.109769	0.109410	371.518	53206.8	0.104532	0.332317	1117.96	84326.4
1106	2.000000	1.120230	7.37587e+06	-55439.1	1055.82	-29741.6	0.000000	0.000000	7.137379	397.834	NaN	0.000000	0.001598	0.001663	28.0833	102.21	0.001772	57696.5	7.239041	-10.906	391.86	1.119835	0.113182	0.112788	397.834	57696.5	0.108011	0.352288	1129.29	88812.4