File: remote_trans/data/nanoindenter/0828-1/data/Data_2025-08-06,11h17m57s/2025-07-22_16-23-58_1_626.txt
2025-07-22, 16:23:58, 1
Index	Phase	Displacement	Time	Pos X	Pos Y	Pos Z	Rot A	Rot B	Piezo Z	Force A	Force B	Gripper	Voltage A	Voltage B	Temperature	Amplitude force	Amplitude pos	Stiffness	Phase shift	Phase excitation	Force A raw	Displacement raw	HMax	HMax raw	Real Force	Real Stiffness	Contact Depth	Area	Hardness	Reduced Mod.
[#]	[#]	[um]	[s]	[um]	[um]	[um]	[m°]	[m°]	[um]	[uN]	[uN]	[V]	[V]	[V]	[°C]	[uN]	[um]	[N/m]	[°]	[°]	[uN]	[um]	[um]	[um]	[uN]	[N/m]	[um]	[um^2]	[MPa]	[MPa]
626	1.000000	0.002571	7.37117e+06	-45789.1	1005.82	-29771.2	0.000000	0.000000	6.002817	-0.048328	NaN	0.000000	0.001623	0.001785	28.0817	0.013489	0.001013	13.3205	154.904	-173.181	0.022497	0.001335	-1.119565	-1.120801	-0.048328	13.3205	-1.116844	-8.435890E+14	5.728823E-17	NaN
626	1.000000	0.044498	7.37117e+06	-45789.1	1005.82	-29771.2	0.000000	0.000000	6.044747	0.041814	NaN	0.000000	0.001588	0.001716	28.0824	0.081404	0.001996	40.7892	-97.2263	11.2985	-0.011864	0.043151	-1.077639	-1.078986	0.041814	40.7892	-1.078408	-2.571178E+14	-1.626278E-16	NaN
626	1.000000	0.086529	7.37117e+06	-45789.1	1005.82	-29771.2	0.000000	0.000000	6.086777	0.004827	NaN	0.000000	0.001564	0.001729	28.0816	0.123216	0.002074	59.4044	-179.325	-168.128	0.015695	0.085175	-1.035607	-1.036962	0.004827	59.4044	-1.035668	-6.850396E+13	-7.046284E-17	NaN
626	1.000000	0.128543	7.37117e+06	-45789.1	1005.82	-29771.2	0.000000	0.000000	6.128789	-0.050227	NaN	0.000000	0.001580	0.001733	28.0827	0.078235	0.002034	38.4697	21.855	8.827528	0.033516	0.127146	-0.993594	-0.994991	-0.050227	38.4697	-0.992615	-1.804357E+13	2.783642E-15	NaN
626	1.000000	0.170549	7.37117e+06	-45789.1	1005.82	-29771.2	0.000000	0.000000	6.170795	-0.026741	NaN	0.000000	0.001545	0.001734	28.0828	0.084423	0.001999	42.2353	-82.5798	-165.142	-0.018393	0.169227	-0.951588	-0.952910	-0.026741	42.2353	-0.951113	-4.977795E+12	5.372016E-15	NaN
626	1.000000	0.212578	7.37118e+06	-45789.1	1005.82	-29771.2	0.000000	0.000000	6.212827	0.026924	NaN	0.000000	0.001553	0.001776	28.0826	0.030376	0.002016	15.0645	32.7116	14.8511	0.072870	0.211227	-0.909558	-0.910909	0.026924	15.0645	-0.910899	-1.426606E+12	-1.887259E-14	NaN
626	1.000000	0.254545	7.37118e+06	-45789.1	1005.82	-29771.2	0.000000	0.000000	6.254793	0.023492	NaN	0.000000	0.001525	0.001753	28.0817	0.025783	0.001938	13.3073	87.2122	-166.693	0.004468	0.253261	-0.867592	-0.868876	0.023492	13.3073	-0.868916	-3.861668E+11	-6.083458E-14	NaN
626	1.000000	0.296617	7.37118e+06	-45789.1	1005.82	-29771.2	0.000000	0.000000	6.296862	-0.072234	NaN	0.000000	0.001599	0.001710	28.0814	0.099067	0.001941	51.046	28.5343	13.1529	-0.062474	0.295215	-0.825520	-0.826921	-0.072234	51.046	-0.824458	-9.653016E+10	7.483076E-13	NaN
626	1.000000	0.338608	7.37118e+06	-45789.1	1005.82	-29771.2	0.000000	0.000000	6.338856	-0.008324	NaN	0.000000	0.001538	0.001716	28.0814	0.027592	0.002054	13.4334	-30.6153	-167.51	-0.078376	0.337278	-0.783528	-0.784858	-0.008324	13.4334	-0.783064	-2.647641E+10	3.143962E-13	NaN
626	1.000000	0.380628	7.37118e+06	-45789.1	1005.82	-29771.2	0.000000	0.000000	6.380877	0.025363	NaN	0.000000	0.001606	0.001763	28.0814	0.112485	0.001970	57.0981	121.59	13.6132	-0.085614	0.379292	-0.741508	-0.742845	0.025363	57.0981	-0.741841	-7.280021E+9	-3.483915E-12	NaN
626	1.000000	0.422656	7.37118e+06	-45789.1	1005.82	-29771.2	0.000000	0.000000	6.422899	-0.111488	NaN	0.000000	0.001623	0.001726	28.0827	0.005419	0.002146	2.524944	105.759	-166.241	-0.128861	0.421384	-0.699481	-0.700752	-0.111488	2.524944	-0.666365	-6.786220E+8	1.642853E-10	NaN
626	1.000000	0.464706	7.37118e+06	-45789.1	1005.82	-29771.2	0.000000	0.000000	6.464947	-0.150422	NaN	0.000000	0.001589	0.001715	28.0825	0.156213	0.002031	76.902	-65.7086	13.0715	-0.086262	0.463287	-0.657431	-0.658849	-0.150422	76.902	-0.655964	-4.888479E+8	3.077067E-10	NaN
626	1.000000	0.506694	7.37118e+06	-45789.1	1005.82	-29771.2	0.000000	0.000000	6.506939	-0.064797	NaN	0.000000	0.001612	0.001721	28.0826	0.106777	0.001983	53.8563	-122.204	-167.868	-0.028142	0.505412	-0.615442	-0.616724	-0.064797	53.8563	-0.614540	-1.319973E+8	4.908929E-10	NaN
626	1.000000	0.548707	7.37118e+06	-45789.1	1005.82	-29771.2	0.000000	0.000000	6.548954	-0.020652	NaN	0.000000	0.001623	0.001683	28.0811	0.069219	0.001974	35.0603	150.057	13.2319	-0.031884	0.547353	-0.573429	-0.574784	-0.020652	35.0603	-0.572988	-3.531052E+7	5.848749E-10	NaN
626	1.000000	0.590727	7.37118e+06	-45789.1	1005.82	-29771.2	0.000000	0.000000	6.590973	-0.029724	NaN	0.000000	0.001510	0.001754	28.0812	0.034030	0.002038	16.7013	160.809	-166.13	-0.070049	0.589430	-0.531410	-0.532706	-0.029724	16.7013	-0.530075	-8.98699e+06	3.307494E-9	NaN
626	1.000000	0.632747	7.37118e+06	-45789.1	1005.82	-29771.2	0.000000	0.000000	6.632993	-0.052619	NaN	0.000000	0.001586	0.001746	28.0813	0.082235	0.001855	44.343	22.9484	15.7332	-0.082392	0.631359	-0.489389	-0.490777	-0.052619	44.343	-0.488499	-2.36819e+06	2.221892E-8	NaN
626	1.000000	0.674776	7.37118e+06	-45789.1	1005.82	-29771.2	0.000000	0.000000	6.675021	-0.083907	NaN	0.000000	0.001568	0.001743	28.083	0.050988	0.002016	25.2894	-114.754	-166.474	-0.063977	0.673452	-0.447360	-0.448684	-0.083907	25.2894	-0.444872	-578208	1.451156E-7	NaN
626	1.000000	0.716805	7.37118e+06	-45789.1	1005.82	-29771.2	0.000000	0.000000	6.717049	-0.102785	NaN	0.000000	0.001615	0.001718	28.083	0.148068	0.001929	76.7555	-23.7541	12.2991	-0.157442	0.715377	-0.405331	-0.406759	-0.102785	76.7555	-0.404327	-154050	6.672220E-7	NaN
626	1.000000	0.758794	7.37118e+06	-45789.1	1005.82	-29771.2	0.000000	0.000000	6.759039	-0.046089	NaN	0.000000	0.001612	0.001705	28.083	0.009225	0.002019	4.568503	82.3738	-164.758	-0.076932	0.757527	-0.363343	-0.364609	-0.046089	4.568503	-0.355777	-30956	1.488851E-6	NaN
626	1.000000	0.800820	7.37118e+06	-45789.1	1005.82	-29771.2	0.000000	0.000000	6.801065	-0.065471	NaN	0.000000	0.001561	0.001764	28.0817	0.089497	0.001989	44.9874	170.241	15.3691	0.001970	0.799475	-0.321316	-0.322661	-0.065471	44.9874	-0.320225	-9374.52	6.983942E-6	NaN
626	1.000000	0.842867	7.37118e+06	-45789.1	1005.82	-29771.2	0.000000	0.000000	6.843111	-0.100692	NaN	0.000000	0.001616	0.001708	28.0822	0.036868	0.001938	19.0267	143.572	-168.149	-0.078912	0.841587	-0.279269	-0.280549	-0.100692	19.0267	-0.275300	-2004.21	5.024013E-5	NaN
626	1.000000	0.884831	7.37118e+06	-45789.1	1005.82	-29771.2	0.000000	0.000000	6.885076	-0.066394	NaN	0.000000	0.001574	0.001731	28.0817	0.085576	0.002004	42.7128	-93.893	12.7617	-0.120419	0.883472	-0.237306	-0.238664	-0.066394	42.7128	-0.236140	-500.19	0.000133	NaN
626	1.000000	0.926860	7.37118e+06	-45789.1	1005.82	-29771.2	0.000000	0.000000	6.927107	-0.020838	NaN	0.000000	0.001580	0.001751	28.0817	0.070857	0.002088	33.9405	159.181	-166.872	0.031814	0.925591	-0.195277	-0.196546	-0.020838	33.9405	-0.194816	-108.183	0.000193	NaN
626	1.000000	0.968874	7.37118e+06	-45789.1	1005.82	-29771.2	0.000000	0.000000	6.969120	-0.039558	NaN	0.000000	0.001581	0.001742	28.083	0.072319	0.002057	35.1498	-10.2269	15.4138	0.032502	0.967533	-0.153262	-0.154603	-0.039558	35.1498	-0.152418	-20.0431	0.001974	NaN
626	1.000000	1.010903	7.37118e+06	-45789.1	1005.82	-29771.2	0.000000	0.000000	7.011152	0.038496	NaN	0.000000	0.001567	0.001703	28.0831	0.060211	0.002079	28.961	137.61	-168.334	-0.026995	1.009640	-0.111234	-0.112496	0.038496	28.961	-0.112231	-3.347109	-0.011501	NaN
626	1.000000	1.052905	7.37118e+06	-45789.1	1005.82	-29771.2	0.000000	0.000000	7.053151	-0.033619	NaN	0.000000	0.001579	0.001674	28.0828	0.039476	0.002103	18.7677	-157.322	11.8416	-0.090813	1.051612	-0.069232	-0.070524	-0.033619	18.7677	-0.067888	-0.299153	0.112382	NaN
626	1.000000	1.094921	7.37118e+06	-45789.1	1005.82	-29771.2	0.000000	0.000000	7.095166	-0.049516	NaN	0.000000	0.001597	0.001731	28.0816	0.078367	0.001904	41.1515	-99.4666	-167.041	-0.130319	1.093622	-0.027216	-0.028514	-0.049516	41.1515	-0.026314	-0.018269	2.710426	NaN
626	2.000000	1.131022	7.37118e+06	-45789.1	1005.82	-29771.2	0.000000	0.000000	7.131801	12.9364	NaN	0.000000	0.001635	0.001740	28.0815	10.7495	0.001620	6634.79	5.400970	5.943382	11.9225	1.130657	0.008885	0.008520	12.9364	6634.79	0.007423	0.006455	2004	75447.2
626	2.000000	1.141467	7.37118e+06	-45789.1	1005.82	-29771.2	0.000000	0.000000	7.143111	33.9559	NaN	0.000000	0.001656	0.001747	28.0816	20.4226	0.001818	11231.1	1.983658	-173.578	33.4201	1.141181	0.019331	0.019045	33.9559	11231.1	0.017063	0.018136	1872.29	76194.8
626	2.000000	1.151911	7.37118e+06	-45789.1	1005.82	-29771.2	0.000000	0.000000	7.154768	63.4658	NaN	0.000000	0.001710	0.001740	28.0827	30.0915	0.001762	17082.1	3.870024	0.075796	60.5666	1.151529	0.029774	0.029393	63.4658	17082.1	0.026988	0.034732	1827.32	83743.8
626	2.000000	1.162470	7.37118e+06	-45789.1	1005.82	-29771.2	0.000000	0.000000	7.166832	100.102	NaN	0.000000	0.001709	0.001734	28.083	39.7649	0.001728	23008.8	4.051916	177.636	103.371	1.162183	0.040333	0.040046	100.102	23008.8	0.037070	0.056676	1766.22	88301.4
626	2.000000	1.172867	7.37118e+06	-45789.1	1005.82	-29771.2	0.000000	0.000000	7.179341	151.475	NaN	0.000000	0.001673	0.001749	28.0837	50.065	0.001792	27944.3	7.414431	-7.566256	149.02	1.172552	0.050730	0.050415	151.475	27944.3	0.046665	0.082384	1838.65	88950
626	2.000000	1.183410	7.37118e+06	-45789.1	1005.82	-29771.2	0.000000	0.000000	7.192258	209.207	NaN	0.000000	0.001705	0.001694	28.0817	60.3774	0.001925	31360.8	9.446776	171.04	209.184	1.183051	0.061274	0.060915	209.207	31360.8	0.056271	0.112776	1855.06	85320.1
626	2.000000	1.193912	7.37118e+06	-45789.1	1005.82	-29771.2	0.000000	0.000000	7.205024	264.288	NaN	0.000000	0.001701	0.001655	28.0817	71.5043	0.001850	38649.5	5.695894	-8.470804	264.588	1.193637	0.071775	0.071501	264.288	38649.5	0.066647	0.150716	1753.56	90957.5
626	2.000000	1.204530	7.37118e+06	-45789.1	1005.82	-29771.2	0.000000	0.000000	7.218567	335.438	NaN	0.000000	0.001716	0.001704	28.0817	81.5536	0.001777	45884.3	3.516884	172.812	342.779	1.204079	0.082394	0.081943	335.438	45884.3	0.076911	0.193330	1735.05	95342.8
626	2.000000	1.214674	7.37118e+06	-45789.1	1005.82	-29771.2	0.000000	0.000000	7.232184	419.918	NaN	0.000000	0.001714	0.001703	28.0818	89.7479	0.001808	49652.8	1.745296	-5.721576	407.491	1.214418	0.092538	0.092282	419.918	49652.8	0.086195	0.236135	1778.3	93354.8
626	2.000000	1.225314	7.37118e+06	-45789.1	1005.82	-29771.2	0.000000	0.000000	7.246492	509.143	NaN	0.000000	0.001709	0.001685	28.0833	100.016	0.001809	55292.4	4.178071	171.199	507.24	1.225003	0.103177	0.102866	509.143	55292.4	0.096271	0.287088	1773.47	94282.5
626	2.000000	1.227271	7.37118e+06	-45789.1	1005.82	-29771.2	0.000000	0.000000	7.249048	523.731	NaN	0.000000	0.001706	0.001712	28.0833	103.009	0.001787	57659.6	6.651955	167.832	520.079	1.227039	0.105135	0.104902	523.731	57659.6	0.098322	0.298028	1757.32	96497.7