File: remote_trans/data/nanoindenter/0828-1/data/Data_2025-08-06,11h17m57s/2025-07-22_16-23-58_1_349.txt
2025-07-22, 16:23:58, 1
Index	Phase	Displacement	Time	Pos X	Pos Y	Pos Z	Rot A	Rot B	Piezo Z	Force A	Force B	Gripper	Voltage A	Voltage B	Temperature	Amplitude force	Amplitude pos	Stiffness	Phase shift	Phase excitation	Force A raw	Displacement raw	HMax	HMax raw	Real Force	Real Stiffness	Contact Depth	Area	Hardness	Reduced Mod.
[#]	[#]	[um]	[s]	[um]	[um]	[um]	[m°]	[m°]	[um]	[uN]	[uN]	[V]	[V]	[V]	[°C]	[uN]	[um]	[N/m]	[°]	[°]	[uN]	[um]	[um]	[um]	[uN]	[N/m]	[um]	[um^2]	[MPa]	[MPa]
349	1.000000	0.003073	7.36847e+06	-56089.1	955.818	-29740	0.000000	0.000000	6.002807	-0.023624	NaN	0.000000	0.001544	0.001673	28.0797	0.089759	0.000974	92.1551	128.641	-164.393	-0.038271	0.001835	-1.194401	-1.195639	-0.023624	92.1551	-1.194209	-9.187435E+15	2.571384E-18	NaN
349	1.000000	0.047017	7.36847e+06	-56089.1	955.819	-29740	0.000000	0.000000	6.046754	0.039456	NaN	0.000000	0.001534	0.001766	28.0799	0.078314	0.001944	40.2903	51.6788	-164.145	-0.006300	0.045694	-1.150457	-1.151780	0.039456	40.2903	-1.151192	-2.436660E+15	-1.619279E-17	NaN
349	1.000000	0.091039	7.36847e+06	-56089.1	955.818	-29740	0.000000	0.000000	6.090776	0.037018	NaN	0.000000	0.001528	0.001778	28.0799	0.060661	0.002009	30.193	97.428	-165.014	-0.019714	0.089675	-1.106435	-1.107800	0.037018	30.193	-1.107354	-6.291916E+14	-5.883473E-17	NaN
349	1.000000	0.135061	7.36847e+06	-56089.1	955.818	-29740	0.000000	0.000000	6.134801	0.113392	NaN	0.000000	0.001539	0.001707	28.0808	0.077479	0.002080	37.247	5.658942	-164.569	0.051578	0.133750	-1.062413	-1.063725	0.113392	37.247	-1.064696	-1.682405E+14	-6.739898E-16	NaN
349	1.000000	0.179038	7.36847e+06	-56089.1	955.818	-29740	0.000000	0.000000	6.178774	0.010171	NaN	0.000000	0.001594	0.001803	28.081	0.032185	0.001959	16.4304	-108.275	-164.349	-0.041473	0.177757	-1.018436	-1.019717	0.010171	16.4304	-1.018900	-4.075259E+13	-2.495870E-16	NaN
349	1.000000	0.223084	7.36847e+06	-56089.1	955.818	-29740	0.000000	0.000000	6.222821	0.065410	NaN	0.000000	0.001617	0.001786	28.0806	0.042639	0.001854	23.004	-47.3732	-165.032	0.071120	0.221774	-0.974390	-0.975701	0.065410	23.004	-0.976523	-1.095377E+13	-5.971444E-15	NaN
349	1.000000	0.267114	7.36847e+06	-56089.1	955.818	-29740	0.000000	0.000000	6.266849	0.016404	NaN	0.000000	0.001543	0.001764	28.0796	0.052740	0.001899	27.7664	-152.481	-163.248	0.035238	0.265802	-0.930361	-0.931672	0.016404	27.7664	-0.930804	-2.648778E+12	-6.193143E-15	NaN
349	1.000000	0.311124	7.36847e+06	-56089.1	955.818	-29740	0.000000	0.000000	6.310859	0.014943	NaN	0.000000	0.001589	0.001783	28.0797	0.138238	0.001964	70.3883	91.1116	-163.405	0.055650	0.309810	-0.886351	-0.887664	0.014943	70.3883	-0.886510	-6.679348E+11	-2.237125E-14	NaN
349	1.000000	0.355149	7.36848e+06	-56089.1	955.817	-29740	0.000000	0.000000	6.354887	0.054998	NaN	0.000000	0.001605	0.001781	28.0795	0.041024	0.001976	20.7573	21.022	-167.674	0.029101	0.353806	-0.842325	-0.843669	0.054998	20.7573	-0.844312	-1.793515E+11	-3.066481E-13	NaN
349	1.000000	0.399156	7.36848e+06	-56089.1	955.819	-29740	0.000000	0.000000	6.398887	-0.097584	NaN	0.000000	0.001557	0.001722	28.0807	0.088060	0.002036	43.2603	-142.122	-165.315	-0.071524	0.397835	-0.798318	-0.799639	-0.097584	43.2603	-0.796626	-4.046366E+10	2.411656E-12	NaN
349	1.000000	0.443161	7.36848e+06	-56089.1	955.819	-29740	0.000000	0.000000	6.442894	-0.035347	NaN	0.000000	0.001499	0.001751	28.0808	0.069169	0.002033	34.028	-155.499	-165.667	0.059015	0.441872	-0.754314	-0.755602	-0.035347	34.028	-0.753535	-1.050337E+10	3.365340E-12	NaN
349	1.000000	0.487207	7.36848e+06	-56089.1	955.818	-29740	0.000000	0.000000	6.486940	-0.033542	NaN	0.000000	0.001544	0.001803	28.0814	0.069489	0.001968	35.3125	81.1315	-169.017	-0.056716	0.485917	-0.710267	-0.711557	-0.033542	35.3125	-0.709555	-2.642255E+9	1.269439E-11	NaN
349	1.000000	0.531199	7.36848e+06	-56089.1	955.818	-29740	0.000000	0.000000	6.530933	-0.003531	NaN	0.000000	0.001550	0.001788	28.0804	0.025976	0.001992	13.0376	14.629	-165.717	0.002845	0.529872	-0.666276	-0.667602	-0.003531	13.0376	-0.666072	-6.723990E+8	5.250848E-12	NaN
349	1.000000	0.575257	7.36848e+06	-56089.1	955.819	-29740	0.000000	0.000000	6.574991	-0.018602	NaN	0.000000	0.001547	0.001761	28.0795	0.024382	0.001830	13.3235	76.6877	-165.886	-0.062615	0.573932	-0.622218	-0.623542	-0.018602	13.3235	-0.621170	-1.628247E+8	1.142460E-10	NaN
349	1.000000	0.619254	7.36848e+06	-56089.1	955.818	-29740	0.000000	0.000000	6.618988	-0.009816	NaN	0.000000	0.001528	0.001795	28.0795	0.118732	0.001884	63.011	122.024	-164.842	-0.008263	0.617922	-0.578221	-0.579552	-0.009816	63.011	-0.578104	-4.154846E+7	2.362658E-10	NaN
349	1.000000	0.663306	7.36848e+06	-56089.1	955.818	-29740	0.000000	0.000000	6.663039	-0.049279	NaN	0.000000	0.001545	0.001802	28.0795	0.121177	0.002041	59.3691	164.631	-165.817	-0.050473	0.661955	-0.534168	-0.535519	-0.049279	59.3691	-0.533545	-1.004158E+7	4.907512E-9	NaN
349	1.000000	0.707280	7.36848e+06	-56089.1	955.819	-29740	0.000000	0.000000	6.707016	0.038035	NaN	0.000000	0.001532	0.001762	28.081	0.097933	0.002068	47.3476	-171.24	-165.805	-0.014330	0.705954	-0.490195	-0.491520	0.038035	47.3476	-0.490797	-2.54995e+06	-1.491581E-8	NaN
349	1.000000	0.751309	7.36848e+06	-56089.1	955.818	-29740	0.000000	0.000000	6.751043	-0.029293	NaN	0.000000	0.001560	0.001741	28.0811	0.014373	0.001998	7.193305	126.503	-163.545	-0.068960	0.749996	-0.446165	-0.447478	-0.029293	7.193305	-0.443111	-546078	5.364261E-8	NaN
349	1.000000	0.795343	7.36848e+06	-56089.1	955.819	-29740	0.000000	0.000000	6.795076	-0.041307	NaN	0.000000	0.001533	0.001747	28.081	0.082672	0.001916	43.1401	118.634	-166.456	0.018751	0.794022	-0.402131	-0.403452	-0.041307	43.1401	-0.401413	-140003	2.950438E-7	NaN
349	1.000000	0.839360	7.36848e+06	-56089.1	955.818	-29740	0.000000	0.000000	6.839097	0.052419	NaN	0.000000	0.001553	0.001716	28.0799	0.050276	0.001928	26.0824	-26.6392	-161.863	0.085967	0.838040	-0.358114	-0.359434	0.052419	26.0824	-0.359621	-35186.1	-1.489751E-6	NaN
349	1.000000	0.883356	7.36848e+06	-56089.1	955.819	-29740	0.000000	0.000000	6.883091	0.017710	NaN	0.000000	0.001542	0.001744	28.0798	0.087540	0.001951	44.878	-56.3351	-166.898	-0.003079	0.882050	-0.314119	-0.315424	0.017710	44.878	-0.314415	-7696.74	-2.301009E-6	NaN
349	1.000000	0.927395	7.36848e+06	-56089.1	955.818	-29740	0.000000	0.000000	6.927132	0.036942	NaN	0.000000	0.001524	0.001743	28.0798	0.076577	0.001966	38.959	-24.5262	-166.169	-0.064625	0.926095	-0.270079	-0.271380	0.036942	38.959	-0.270790	-1712.19	-2.157594E-5	NaN
349	1.000000	0.971399	7.36848e+06	-56089.1	955.819	-29740	0.000000	0.000000	6.971136	0.050886	NaN	0.000000	0.001591	0.001798	28.0814	0.039978	0.001993	20.0553	122.816	-165.68	0.058244	0.970110	-0.226075	-0.227364	0.050886	20.0553	-0.227978	-372.009	-0.000137	NaN
349	1.000000	1.015436	7.36848e+06	-56089.1	955.818	-29740	0.000000	0.000000	7.015172	0.037771	NaN	0.000000	0.001522	0.001764	28.081	0.103927	0.002041	50.919	154.126	-168.317	0.067104	1.014173	-0.182038	-0.183301	0.037771	50.919	-0.182595	-67.5312	-0.000559	NaN
349	1.000000	1.059449	7.36848e+06	-56089.1	955.818	-29740	0.000000	0.000000	7.059184	-0.011346	NaN	0.000000	0.001543	0.001751	28.0811	0.095547	0.001971	48.4825	-86.1692	-166.102	-0.046584	1.058100	-0.138025	-0.139374	-0.011346	48.4825	-0.137849	-10.7753	0.001053	NaN
349	1.000000	1.103482	7.36848e+06	-56089.1	955.818	-29740	0.000000	0.000000	7.103217	0.006955	NaN	0.000000	0.001553	0.001738	28.0799	0.043371	0.002104	20.6137	154.018	-165.523	-0.023100	1.102128	-0.093992	-0.095346	0.006955	20.6137	-0.094246	-1.355771	-0.005130	NaN
349	1.000000	1.147447	7.36848e+06	-56089.1	955.818	-29740	0.000000	0.000000	7.147189	0.158035	NaN	0.000000	0.001570	0.001766	28.0801	0.254946	0.002019	126.261	6.726505	-167.687	-0.045101	1.146167	-0.050027	-0.051307	0.158035	126.261	-0.050966	-0.097587	-1.619427	NaN
349	1.000000	1.191490	7.36848e+06	-56089.1	955.818	-29740	0.000000	0.000000	7.191334	2.668815	NaN	0.000000	0.001558	0.001701	28.0804	2.659574	0.002067	1286.52	20.8577	-168.79	2.638933	1.190144	-0.005985	-0.007330	2.668815	1286.52	-0.007540	-0.004961	-537.924	NaN
349	2.000000	1.219939	7.36848e+06	-56089.1	955.819	-29740	0.000000	0.000000	7.220265	14.3677	NaN	0.000000	0.001560	0.001764	28.0812	13.5462	0.001694	7994.25	9.091769	-176.148	13.1871	1.219680	0.022464	0.022206	14.3677	7994.25	0.021117	0.024327	590.601	46827.9
349	2.000000	1.230927	7.36848e+06	-56089.1	955.819	-29740	0.000000	0.000000	7.233442	67.5747	NaN	0.000000	0.001574	0.001765	28.0813	24.2266	0.001844	13139.6	4.080314	-175.719	65.7361	1.230581	0.033453	0.033106	67.5747	13139.6	0.029596	0.039910	1693.16	60091.6
349	2.000000	1.241922	7.36848e+06	-56089.1	955.818	-29740	0.000000	0.000000	7.246327	113.501	NaN	0.000000	0.001587	0.001716	28.0821	33.9279	0.001950	17395.2	4.792431	-178.813	113.441	1.241567	0.044448	0.044092	113.501	17395.2	0.039554	0.062882	1804.99	63378.1
349	2.000000	1.252856	7.36848e+06	-56089.1	955.819	-29740	0.000000	0.000000	7.259109	158.433	NaN	0.000000	0.001564	0.001745	28.0799	40.6938	0.001731	23513.9	1.534753	-179.571	154.781	1.252520	0.055382	0.055046	158.433	23513.9	0.050328	0.093430	1695.73	70283.5
349	2.000000	1.263853	7.36848e+06	-56089.1	955.818	-29740	0.000000	0.000000	7.271874	201.433	NaN	0.000000	0.001567	0.001737	28.0799	52.069	0.001795	29000	5.414458	174.38	198.846	1.263638	0.066378	0.066164	201.433	29000	0.061169	0.130033	1549.1	73475.8
349	2.000000	1.274952	7.36848e+06	-56089.1	955.819	-29740	0.000000	0.000000	7.285739	268.647	NaN	0.000000	0.001599	0.001670	28.0798	62.3633	0.001761	35422.5	5.813461	173.721	271.999	1.274569	0.077478	0.077095	268.647	35422.5	0.071790	0.171444	1566.96	78161.1
349	2.000000	1.285809	7.36848e+06	-56089.1	955.818	-29740	0.000000	0.000000	7.299228	332.633	NaN	0.000000	0.001602	0.001713	28.0811	71.0523	0.001834	38745.1	7.098950	171.288	328.387	1.285468	0.088334	0.087994	332.633	38745.1	0.081895	0.215815	1541.29	76199
349	2.000000	1.296923	7.36848e+06	-56089.1	955.817	-29740	0.000000	0.000000	7.312509	385.281	NaN	0.000000	0.001573	0.001737	28.0814	80.8093	0.001772	45607.7	6.034446	171.613	390.435	1.296516	0.099449	0.099041	385.281	45607.7	0.093113	0.270619	1423.71	80099.9
349	2.000000	1.307826	7.36848e+06	-56089.1	955.819	-29740	0.000000	0.000000	7.325861	444.83	NaN	0.000000	0.001591	0.001719	28.0812	89.9874	0.001779	50586.5	3.664321	173.482	444.018	1.307608	0.110352	0.110133	444.83	50586.5	0.103757	0.327941	1356.43	80706.9
349	2.000000	1.313355	7.36848e+06	-56089.1	955.819	-29740	0.000000	0.000000	7.332887	481.206	NaN	0.000000	0.001568	0.001729	28.0811	95.0442	0.001815	52379.8	5.574592	-9.436311	479.098	1.313125	0.115881	0.115651	481.206	52379.8	0.108991	0.358014	1344.1	79981