File: remote_trans/data/nanoindenter/0828-1/data/Data_2025-08-06,11h17m57s/2025-07-22_16-23-58_1_240.txt
2025-07-22, 16:23:58, 1
Index	Phase	Displacement	Time	Pos X	Pos Y	Pos Z	Rot A	Rot B	Piezo Z	Force A	Force B	Gripper	Voltage A	Voltage B	Temperature	Amplitude force	Amplitude pos	Stiffness	Phase shift	Phase excitation	Force A raw	Displacement raw	HMax	HMax raw	Real Force	Real Stiffness	Contact Depth	Area	Hardness	Reduced Mod.
[#]	[#]	[um]	[s]	[um]	[um]	[um]	[m°]	[m°]	[um]	[uN]	[uN]	[V]	[V]	[V]	[°C]	[uN]	[um]	[N/m]	[°]	[°]	[uN]	[um]	[um]	[um]	[uN]	[N/m]	[um]	[um^2]	[MPa]	[MPa]
240	1.000000	0.002554	7.36739e+06	-50639.1	955.819	-29755.4	0.000000	0.000000	6.002801	0.001684	NaN	0.000000	0.001625	0.001622	28.079	0.014598	0.000900	16.212	128.145	-161.4	0.064808	0.001322	-1.081016	-1.082248	0.001684	16.212	-1.081094	-2.793895E+14	-6.025931E-18	NaN
240	1.000000	0.044474	7.36739e+06	-50639.1	955.819	-29755.4	0.000000	0.000000	6.044722	0.007581	NaN	0.000000	0.001605	0.001611	28.0786	0.078183	0.001992	39.2388	105.114	14.6656	-0.020452	0.043169	-1.039095	-1.040401	0.007581	39.2388	-1.039240	-7.651533E+13	-9.907320E-17	NaN
240	1.000000	0.086515	7.36739e+06	-50639.1	955.818	-29755.4	0.000000	0.000000	6.086763	-0.004075	NaN	0.000000	0.001549	0.001675	28.0772	0.175930	0.001960	89.7642	101.047	-164.123	0.032175	0.085205	-0.997055	-0.998364	-0.004075	89.7642	-0.997020	-2.068484E+13	1.969879E-16	NaN
240	1.000000	0.128537	7.36739e+06	-50639.1	955.818	-29755.4	0.000000	0.000000	6.128783	-0.032221	NaN	0.000000	0.001544	0.001609	28.0777	0.055840	0.001946	28.6951	31.5528	16.0421	0.036867	0.127263	-0.955033	-0.956306	-0.032221	28.6951	-0.954191	-5.476981E+12	5.882993E-15	NaN
240	1.000000	0.170532	7.36739e+06	-50639.1	955.818	-29755.4	0.000000	0.000000	6.170780	-0.007251	NaN	0.000000	0.001604	0.001617	28.0772	0.027002	0.002017	13.3895	152.134	-163.818	-0.020019	0.169229	-0.913037	-0.914341	-0.007251	13.3895	-0.912631	-1.505561E+12	4.816063E-15	NaN
240	1.000000	0.212561	7.36739e+06	-50639.1	955.818	-29755.4	0.000000	0.000000	6.212813	0.104436	NaN	0.000000	0.001648	0.001594	28.0771	0.041009	0.001985	20.6629	13.8	15.8525	0.005426	0.211248	-0.871008	-0.872322	0.104436	20.6629	-0.874799	-4.638339E+11	-2.251575E-13	NaN
240	1.000000	0.254588	7.36739e+06	-50639.1	955.819	-29755.4	0.000000	0.000000	6.254835	-0.015921	NaN	0.000000	0.001585	0.001612	28.0786	0.091992	0.001935	47.5326	18.7644	-168.726	0.005402	0.253254	-0.828981	-0.830315	-0.015921	47.5326	-0.828730	-1.102984E+11	1.443455E-13	NaN
240	1.000000	0.296638	7.36739e+06	-50639.1	955.817	-29755.4	0.000000	0.000000	6.296888	0.049842	NaN	0.000000	0.001586	0.001658	28.0784	0.035866	0.001994	17.9865	11.872	15.9755	-0.028871	0.295221	-0.786931	-0.788349	0.049842	17.9865	-0.789010	-3.188829E+10	-1.563009E-12	NaN
240	1.000000	0.338615	7.36739e+06	-50639.1	955.819	-29755.4	0.000000	0.000000	6.338862	-0.004474	NaN	0.000000	0.001559	0.001634	28.0786	0.107984	0.001924	56.1328	-108.409	-167.239	0.010481	0.337330	-0.744955	-0.746239	-0.004474	56.1328	-0.744895	-8.011535E+9	5.584339E-13	NaN
240	1.000000	0.380603	7.36739e+06	-50639.1	955.819	-29755.4	0.000000	0.000000	6.380851	0.011575	NaN	0.000000	0.001553	0.001664	28.0774	0.017800	0.002008	8.863416	-118.255	15.4388	-0.042533	0.379213	-0.702967	-0.704356	0.011575	8.863416	-0.703946	-2.215216E+9	-5.225075E-12	NaN
240	1.000000	0.422662	7.36739e+06	-50639.1	955.819	-29755.4	0.000000	0.000000	6.422908	-0.049651	NaN	0.000000	0.001574	0.001665	28.0773	0.068252	0.002057	33.1749	-46.108	-162.657	0.019763	0.421367	-0.660907	-0.662202	-0.049651	33.1749	-0.659785	-5.514640E+8	9.003414E-11	NaN
240	1.000000	0.464648	7.3674e+06	-50639.1	955.819	-29755.4	0.000000	0.000000	6.464898	0.038947	NaN	0.000000	0.001551	0.001657	28.0771	0.053062	0.001990	26.6608	65.3615	15.3943	0.061092	0.463287	-0.618921	-0.620282	0.038947	26.6608	-0.620017	-1.569878E+8	-2.480894E-10	NaN
240	1.000000	0.506685	7.3674e+06	-50639.1	955.818	-29755.4	0.000000	0.000000	6.506935	0.053350	NaN	0.000000	0.001558	0.001648	28.0786	0.007206	0.001913	3.767397	67.4371	-163.542	0.014425	0.505456	-0.576885	-0.578114	0.053350	3.767397	-0.587505	-5.601048E+7	-9.525027E-10	NaN
240	1.000000	0.548731	7.3674e+06	-50639.1	955.819	-29755.4	0.000000	0.000000	6.548982	0.076668	NaN	0.000000	0.001595	0.001671	28.0788	0.088121	0.001873	47.0451	165.425	20.2175	0.094493	0.547341	-0.534838	-0.536229	0.076668	47.0451	-0.536060	-1.088187E+7	-7.045461E-9	NaN
240	1.000000	0.590746	7.3674e+06	-50639.1	955.819	-29755.4	0.000000	0.000000	6.590993	-0.017265	NaN	0.000000	0.001568	0.001663	28.0788	0.058226	0.001885	30.8832	111.016	-162.648	0.039401	0.589374	-0.492824	-0.494195	-0.017265	30.8832	-0.492405	-2.68527e+06	6.429438E-9	NaN
240	1.000000	0.632726	7.3674e+06	-50639.1	955.817	-29755.4	0.000000	0.000000	6.632972	-0.042926	NaN	0.000000	0.001546	0.001663	28.0775	0.163501	0.001984	82.4177	92.1446	17.1182	0.021480	0.631325	-0.450843	-0.452244	-0.042926	82.4177	-0.450452	-692969	6.194535E-8	NaN
240	1.000000	0.674793	7.3674e+06	-50639.1	955.819	-29755.4	0.000000	0.000000	6.675039	-0.036718	NaN	0.000000	0.001579	0.001659	28.0775	0.083995	0.002147	39.122	118.584	-164.057	0.026893	0.673494	-0.408777	-0.410076	-0.036718	39.122	-0.408073	-174175	2.108125E-7	NaN
240	1.000000	0.716787	7.3674e+06	-50639.1	955.819	-29755.4	0.000000	0.000000	6.717032	-0.067253	NaN	0.000000	0.001561	0.001642	28.0774	0.107862	0.002041	52.8562	27.1824	13.6479	-0.043983	0.715435	-0.366783	-0.368135	-0.067253	52.8562	-0.365828	-43251.7	1.554929E-6	NaN
240	1.000000	0.758809	7.3674e+06	-50639.1	955.819	-29755.4	0.000000	0.000000	6.759058	0.039602	NaN	0.000000	0.001541	0.001659	28.0773	0.040279	0.002060	19.5488	10.4695	-162.718	0.023924	0.757553	-0.324760	-0.326017	0.039602	19.5488	-0.326280	-11505.9	-3.441872E-6	NaN
240	1.000000	0.800817	7.3674e+06	-50639.1	955.819	-29755.4	0.000000	0.000000	6.801066	0.018647	NaN	0.000000	0.001584	0.001680	28.0785	0.074212	0.001952	38.0161	59.9643	16.7251	0.048921	0.799454	-0.282752	-0.284115	0.018647	38.0161	-0.283120	-2630.2	-7.089658E-6	NaN
240	1.000000	0.842840	7.3674e+06	-50639.1	955.818	-29755.4	0.000000	0.000000	6.843089	0.028306	NaN	0.000000	0.001622	0.001694	28.0793	0.088672	0.002098	42.2571	-26.9401	-162.594	0.060434	0.841534	-0.240730	-0.242036	0.028306	42.2571	-0.241232	-600.878	-4.710719E-5	NaN
240	1.000000	0.884851	7.3674e+06	-50639.1	955.819	-29755.4	0.000000	0.000000	6.885097	-0.051661	NaN	0.000000	0.001660	0.001615	28.0787	0.038212	0.001977	19.3302	121.554	12.9916	-0.005831	0.883495	-0.198719	-0.200074	-0.051661	19.3302	-0.196714	-116.294	0.000444	NaN
240	1.000000	0.926847	7.3674e+06	-50639.1	955.818	-29755.4	0.000000	0.000000	6.927096	0.018133	NaN	0.000000	0.001686	0.001659	28.0772	0.075282	0.002072	36.3392	-96.6915	-166.285	-0.043242	0.925597	-0.156722	-0.157972	0.018133	36.3392	-0.157096	-24.3334	-0.000745	NaN
240	1.000000	0.968898	7.3674e+06	-50639.1	955.819	-29755.4	0.000000	0.000000	6.969145	-0.015842	NaN	0.000000	0.001544	0.001602	28.0775	0.087473	0.001973	44.3383	145.593	16.8657	-0.035080	0.967535	-0.114671	-0.116034	-0.015842	44.3383	-0.114403	-3.713560	0.004266	NaN
240	1.000000	1.010891	7.3674e+06	-50639.1	955.819	-29755.4	0.000000	0.000000	7.011139	0.010529	NaN	0.000000	0.001582	0.001644	28.0773	0.048636	0.001874	25.9474	-84.2308	-162.201	-0.027655	1.009579	-0.072679	-0.073991	0.010529	25.9474	-0.072983	-0.409235	-0.025728	NaN
240	1.000000	1.052916	7.3674e+06	-50639.1	955.819	-29755.4	0.000000	0.000000	7.053164	-0.008627	NaN	0.000000	0.001579	0.001697	28.0785	0.043014	0.002052	20.9663	157.259	12.2086	0.027192	1.051562	-0.030653	-0.032008	-0.008627	20.9663	-0.030344	-0.023528	0.366670	NaN
240	1.000000	1.094915	7.3674e+06	-50639.1	955.819	-29755.4	0.000000	0.000000	7.095390	5.529066	NaN	0.000000	0.001621	0.001646	28.0786	6.124176	0.001872	3272.21	15.6009	-171.847	4.372774	1.093616	0.011346	0.010046	5.529066	3272.21	0.010078	0.009269	596.525	31053
240	2.000000	1.107941	7.3674e+06	-50639.1	955.819	-29755.4	0.000000	0.000000	7.109123	22.6988	NaN	0.000000	0.001571	0.001666	28.0789	19.7063	0.001768	11144	5.077017	5.036177	21.287	1.107662	0.024372	0.024093	22.6988	11144	0.022844	0.027210	834.2	61723.2
240	2.000000	1.118459	7.3674e+06	-50639.1	955.819	-29755.4	0.000000	0.000000	7.120719	48.92	NaN	0.000000	0.001648	0.001633	28.0774	32.5817	0.001848	17631.9	10.7389	176.745	50.7479	1.118173	0.034890	0.034603	48.92	17631.9	0.032809	0.046767	1046.04	74491.1
240	2.000000	1.128840	7.3674e+06	-50639.1	955.819	-29755.4	0.000000	0.000000	7.132658	86.8223	NaN	0.000000	0.001652	0.001650	28.0776	42.8203	0.001799	23807.7	2.099209	1.537889	82.4335	1.128546	0.045270	0.044977	86.8223	23807.7	0.042535	0.070744	1227.28	81780.2
240	2.000000	1.139334	7.3674e+06	-50639.1	955.819	-29755.4	0.000000	0.000000	7.145120	134.665	NaN	0.000000	0.001598	0.001645	28.0776	53.4959	0.001693	31600.7	5.617460	175.181	132.716	1.139086	0.055765	0.055517	134.665	31600.7	0.052568	0.100517	1339.72	91064.5
240	2.000000	1.149916	7.3674e+06	-50639.1	955.819	-29755.4	0.000000	0.000000	7.158449	201.475	NaN	0.000000	0.001618	0.001597	28.0774	63.6207	0.001828	34808.1	5.705902	-4.919837	201.973	1.149449	0.066347	0.065880	201.475	34808.1	0.062005	0.133098	1513.73	87170.2
240	2.000000	1.160367	7.3674e+06	-50639.1	955.819	-29755.4	0.000000	0.000000	7.171732	270.357	NaN	0.000000	0.001593	0.001622	28.0787	75.5736	0.001884	40103.5	4.533101	174.59	268.663	1.160106	0.076797	0.076536	270.357	40103.5	0.071741	0.171244	1578.78	88541.9
240	2.000000	1.170834	7.3674e+06	-50639.1	955.82	-29755.4	0.000000	0.000000	7.185873	359.71	NaN	0.000000	0.001625	0.001632	28.0788	86.8011	0.001946	44607.2	6.916896	-8.837859	356.453	1.170459	0.087264	0.086889	359.71	44607.2	0.081216	0.212683	1691.29	88371.3
240	2.000000	1.181306	7.3674e+06	-50639.1	955.819	-29755.4	0.000000	0.000000	7.200373	457.638	NaN	0.000000	0.001633	0.001682	28.0787	93.6422	0.001830	51182.8	1.462638	175.805	454.615	1.181130	0.097736	0.097561	457.638	51182.8	0.091030	0.260006	1760.1	91707.6
240	2.000000	1.191677	7.3674e+06	-50639.1	955.82	-29755.4	0.000000	0.000000	7.215366	570.037	NaN	0.000000	0.001593	0.001673	28.0771	103.923	0.001867	55673.8	3.322925	-6.427435	560.825	1.191382	0.108107	0.107813	570.037	55673.8	0.100428	0.309459	1842.04	91437
240	2.000000	1.196769	7.3674e+06	-50639.1	955.819	-29755.4	0.000000	0.000000	7.222604	622.212	NaN	0.000000	0.001538	0.001690	28.0774	107.288	0.001735	61845.6	5.978898	-9.277109	615.315	1.196281	0.113200	0.112711	622.212	61845.6	0.105654	0.338698	1837.07	97090.2