File: remote_trans/data/nanoindenter/0828-1/data/Data_2025-08-06,11h17m57s/2025-07-22_16-23-58_1_215.txt
2025-07-22, 16:23:58, 1
Index	Phase	Displacement	Time	Pos X	Pos Y	Pos Z	Rot A	Rot B	Piezo Z	Force A	Force B	Gripper	Voltage A	Voltage B	Temperature	Amplitude force	Amplitude pos	Stiffness	Phase shift	Phase excitation	Force A raw	Displacement raw	HMax	HMax raw	Real Force	Real Stiffness	Contact Depth	Area	Hardness	Reduced Mod.
[#]	[#]	[um]	[s]	[um]	[um]	[um]	[m°]	[m°]	[um]	[uN]	[uN]	[V]	[V]	[V]	[°C]	[uN]	[um]	[N/m]	[°]	[°]	[uN]	[um]	[um]	[um]	[uN]	[N/m]	[um]	[um^2]	[MPa]	[MPa]
215	1.000000	0.002035	7.36715e+06	-49389.1	955.818	-29759.6	0.000000	0.000000	6.002834	0.114196	NaN	0.000000	0.001693	0.001686	28.0784	0.074766	0.001042	71.7186	-158.98	-167.901	0.156712	0.000733	-1.120924	-1.122226	0.114196	71.7186	-1.122118	-9.928753E+14	-1.150154E-16	NaN
215	1.000000	0.043975	7.36715e+06	-49389.1	955.817	-29759.5	0.000000	0.000000	6.044771	0.047134	NaN	0.000000	0.001697	0.001738	28.0791	0.058704	0.001990	29.5044	-31.4071	14.0092	0.044413	0.042649	-1.078984	-1.080310	0.047134	29.5044	-1.080182	-2.716216E+14	-1.735292E-16	NaN
215	1.000000	0.085978	7.36715e+06	-49389.1	955.819	-29759.5	0.000000	0.000000	6.086772	-0.009454	NaN	0.000000	0.001675	0.001744	28.0792	0.128834	0.002016	63.9046	-36.5295	-168.635	0.045406	0.084670	-1.036981	-1.038289	-0.009454	63.9046	-1.036870	-7.110194E+13	1.329667E-16	NaN
215	1.000000	0.127975	7.36715e+06	-49389.1	955.818	-29759.5	0.000000	0.000000	6.128771	0.050346	NaN	0.000000	0.001616	0.001700	28.0795	0.045009	0.001975	22.7947	172.762	15.8775	0.013545	0.126596	-0.994984	-0.996363	0.050346	22.7947	-0.996641	-2.044261E+13	-2.462791E-15	NaN
215	1.000000	0.170004	7.36715e+06	-49389.1	955.819	-29759.5	0.000000	0.000000	6.170795	-0.060861	NaN	0.000000	0.001649	0.001748	28.0792	0.028292	0.001965	14.4015	-76.1537	-164.092	-0.008344	0.168690	-0.952956	-0.954269	-0.060861	14.4015	-0.949786	-4.776851E+12	1.274074E-14	NaN
215	1.000000	0.212027	7.36715e+06	-49389.1	955.818	-29759.5	0.000000	0.000000	6.212824	0.075698	NaN	0.000000	0.001574	0.001777	28.0779	0.069107	0.001959	35.2855	-97.7634	15.4299	0.066314	0.210737	-0.910932	-0.912222	0.075698	35.2855	-0.912541	-1.501354E+12	-5.042003E-14	NaN
215	1.000000	0.254031	7.36715e+06	-49389.1	955.819	-29759.5	0.000000	0.000000	6.254827	0.046633	NaN	0.000000	0.001581	0.001784	28.0779	0.088584	0.001857	47.6967	-51.772	-166.384	0.039982	0.252740	-0.868928	-0.870219	0.046633	47.6967	-0.869661	-3.952407E+11	-1.179854E-13	NaN
215	1.000000	0.296035	7.36715e+06	-49389.1	955.818	-29759.5	0.000000	0.000000	6.296829	-0.013476	NaN	0.000000	0.001610	0.001742	28.0778	0.148921	0.002052	72.567	-92.9429	14.7277	0.027860	0.294698	-0.826924	-0.828261	-0.013476	72.567	-0.826785	-1.038021E+11	1.298263E-13	NaN
215	1.000000	0.338091	7.36715e+06	-49389.1	955.818	-29759.5	0.000000	0.000000	6.338888	0.054799	NaN	0.000000	0.001597	0.001751	28.079	0.070276	0.002085	33.7039	-18.867	-167.188	-0.008074	0.336833	-0.784868	-0.786126	0.054799	33.7039	-0.786087	-2.910313E+10	-1.882916E-12	NaN
215	1.000000	0.380092	7.36715e+06	-49389.1	955.819	-29759.5	0.000000	0.000000	6.380888	0.052946	NaN	0.000000	0.001631	0.001758	28.0792	0.121471	0.001921	63.2285	-178.85	14.0639	0.049062	0.378743	-0.742867	-0.744216	0.052946	63.2285	-0.743495	-7.667614E+9	-6.905118E-12	NaN
215	1.000000	0.422111	7.36715e+06	-49389.1	955.819	-29759.5	0.000000	0.000000	6.422908	0.078894	NaN	0.000000	0.001563	0.001745	28.0791	0.144874	0.001921	75.4239	53.1453	-165.225	0.094986	0.420840	-0.700848	-0.702119	0.078894	75.4239	-0.701633	-2.059821E+9	-3.830118E-11	NaN
215	1.000000	0.464123	7.36715e+06	-49389.1	955.818	-29759.5	0.000000	0.000000	6.464918	0.015749	NaN	0.000000	0.001563	0.001743	28.0777	0.078163	0.001909	40.9432	45.9056	12.1204	0.033464	0.462775	-0.658836	-0.660184	0.015749	40.9432	-0.659125	-5.401038E+8	-2.916000E-11	NaN
215	1.000000	0.506140	7.36715e+06	-49389.1	955.819	-29759.5	0.000000	0.000000	6.506936	0.044869	NaN	0.000000	0.001730	0.001777	28.0777	0.061025	0.002076	29.3988	39.4834	-161.652	0.131197	0.504855	-0.616819	-0.618104	0.044869	29.3988	-0.617964	-1.471114E+8	-3.050015E-10	NaN
215	1.000000	0.548165	7.36715e+06	-49389.1	955.818	-29759.5	0.000000	0.000000	6.548964	0.100847	NaN	0.000000	0.001677	0.001729	28.0776	0.048363	0.001832	26.3964	71.4651	12.6617	0.108193	0.546762	-0.574794	-0.576197	0.100847	26.3964	-0.577659	-4.096548E+7	-2.461751E-9	NaN
215	1.000000	0.590170	7.36715e+06	-49389.1	955.819	-29759.5	0.000000	0.000000	6.590964	-0.002367	NaN	0.000000	0.001651	0.001758	28.079	0.018237	0.001862	9.792034	-94.5	-164.934	0.048255	0.588855	-0.532789	-0.534105	-0.002367	9.792034	-0.532608	-9.74517e+06	2.428421E-10	NaN
215	1.000000	0.632200	7.36715e+06	-49389.1	955.819	-29759.5	0.000000	0.000000	6.632998	0.107620	NaN	0.000000	0.001660	0.001725	28.079	0.121197	0.002041	59.3833	-104.26	12.3	0.051434	0.630826	-0.490760	-0.492133	0.107620	59.3833	-0.492119	-2.66071e+06	-4.044768E-8	NaN
215	1.000000	0.674234	7.36715e+06	-49389.1	955.819	-29759.5	0.000000	0.000000	6.675028	0.011388	NaN	0.000000	0.001615	0.001770	28.0792	0.073147	0.002107	34.7109	-5.641622	-167.865	0.025159	0.672923	-0.448726	-0.450036	0.011388	34.7109	-0.448972	-660481	-1.724216E-8	NaN
215	1.000000	0.716241	7.36715e+06	-49389.1	955.818	-29759.5	0.000000	0.000000	6.717035	0.009474	NaN	0.000000	0.001604	0.001745	28.0792	0.107021	0.001979	54.0838	105.344	10.1545	0.039776	0.714876	-0.406718	-0.408083	0.009474	54.0838	-0.406850	-167333	-5.662043E-8	NaN
215	1.000000	0.758254	7.36715e+06	-49389.1	955.818	-29759.5	0.000000	0.000000	6.759051	0.077671	NaN	0.000000	0.001597	0.001776	28.0779	0.125512	0.001911	65.6659	-116.893	-165.505	0.089012	0.756911	-0.364705	-0.366048	0.077671	65.6659	-0.365592	-42914	-1.809927E-6	NaN
215	1.000000	0.800268	7.36715e+06	-49389.1	955.819	-29759.5	0.000000	0.000000	6.801065	0.072893	NaN	0.000000	0.001643	0.001723	28.0779	0.073952	0.001990	37.1703	-128.347	15.2899	-0.002875	0.798895	-0.322691	-0.324065	0.072893	37.1703	-0.324162	-10711	-6.805458E-6	NaN
215	1.000000	0.842294	7.36715e+06	-49389.1	955.819	-29759.5	0.000000	0.000000	6.843089	0.008253	NaN	0.000000	0.001571	0.001737	28.0784	0.103241	0.002059	50.1302	136.67	-167.593	0.031942	0.840955	-0.280665	-0.282004	0.008253	50.1302	-0.280788	-2425.84	-3.402262E-6	NaN
215	1.000000	0.884299	7.36715e+06	-49389.1	955.819	-29759.5	0.000000	0.000000	6.885095	0.041812	NaN	0.000000	0.001706	0.001731	28.0796	0.112496	0.001967	57.2054	-120.461	12.1706	0.024746	0.882956	-0.238660	-0.240003	0.041812	57.2054	-0.239208	-558.703	-7.483713E-5	NaN
215	1.000000	0.926296	7.36715e+06	-49389.1	955.819	-29759.5	0.000000	0.000000	6.927096	0.139520	NaN	0.000000	0.001639	0.001735	28.0796	0.112753	0.002099	53.7251	-98.4064	-166.863	0.117370	0.925035	-0.196663	-0.197924	0.139520	53.7251	-0.198611	-124.98	-0.001116	NaN
215	1.000000	0.968309	7.36715e+06	-49389.1	955.818	-29759.5	0.000000	0.000000	6.969104	0.030257	NaN	0.000000	0.001642	0.001739	28.0793	0.095101	0.002048	46.4358	127.887	14.238	0.082567	0.967025	-0.154650	-0.155934	0.030257	46.4358	-0.155139	-22.4431	-0.001348	NaN
215	1.000000	1.010339	7.36715e+06	-49389.1	955.817	-29759.5	0.000000	0.000000	7.011137	0.076066	NaN	0.000000	0.001647	0.001802	28.0779	0.108582	0.002075	52.3226	49.8583	-163.567	0.055113	1.009006	-0.112620	-0.113954	0.076066	52.3226	-0.113710	-3.592890	-0.021171	NaN
215	1.000000	1.052401	7.36715e+06	-49389.1	955.817	-29759.5	0.000000	0.000000	7.053197	0.029247	NaN	0.000000	0.001643	0.001701	28.078	0.073546	0.001990	36.9544	140.101	14.5378	0.109450	1.051031	-0.070558	-0.071928	0.029247	36.9544	-0.071152	-0.366116	-0.079886	NaN
215	1.000000	1.094385	7.36715e+06	-49389.1	955.818	-29759.5	0.000000	0.000000	7.095181	0.042795	NaN	0.000000	0.001623	0.001744	28.078	0.155333	0.002045	75.9642	-10.7377	-165.934	0.082260	1.093093	-0.028574	-0.029867	0.042795	75.9642	-0.028996	-0.021586	-1.982511	NaN
215	2.000000	1.132496	7.36715e+06	-49389.1	955.817	-29759.5	0.000000	0.000000	7.133671	9.246921	NaN	0.000000	0.001689	0.001750	28.0789	9.562319	0.001699	5629.06	9.692529	6.176325	9.723721	1.132167	0.009537	0.009208	9.246921	5629.06	0.008305	0.007358	1256.73	59955.7
215	2.000000	1.142907	7.36715e+06	-49389.1	955.817	-29759.5	0.000000	0.000000	7.144762	25.7982	NaN	0.000000	0.001709	0.001704	28.0792	20.7176	0.001810	11446.6	7.726324	-179.75	25.1979	1.142575	0.019948	0.019616	25.7982	11446.6	0.018258	0.019878	1297.84	74176.3
215	2.000000	1.153358	7.36715e+06	-49389.1	955.817	-29759.5	0.000000	0.000000	7.156145	48.4736	NaN	0.000000	0.001638	0.001764	28.0792	30.1057	0.001741	17290.9	7.062061	-3.776798	46.5534	1.153079	0.030398	0.030120	48.4736	17290.9	0.028296	0.037286	1300.06	81812.7
215	2.000000	1.163836	7.36715e+06	-49389.1	955.818	-29759.5	0.000000	0.000000	7.167982	81.517	NaN	0.000000	0.001633	0.001716	28.0791	39.9828	0.001791	22328.6	4.464762	178.243	80.2527	1.163542	0.040877	0.040583	81.517	22328.6	0.038139	0.059308	1374.48	83768.3
215	2.000000	1.174384	7.36715e+06	-49389.1	955.818	-29759.5	0.000000	0.000000	7.180180	121.646	NaN	0.000000	0.001603	0.001761	28.0779	50.0336	0.001779	28128.9	7.158856	-7.280197	120.561	1.173931	0.051425	0.050971	121.646	28128.9	0.048182	0.086876	1400.23	87192.1
215	2.000000	1.184869	7.36715e+06	-49389.1	955.817	-29759.5	0.000000	0.000000	7.192520	166.765	NaN	0.000000	0.001614	0.001745	28.078	60.331	0.001847	32672	9.508695	169.754	165.737	1.184533	0.061910	0.061573	166.765	32672	0.058081	0.119018	1401.17	86525.1
215	2.000000	1.195405	7.36715e+06	-49389.1	955.817	-29759.5	0.000000	0.000000	7.205325	221.939	NaN	0.000000	0.001637	0.001766	28.0781	69.3167	0.001800	38516.1	7.875324	-9.798868	223.313	1.195114	0.072446	0.072155	221.939	38516.1	0.068125	0.156543	1417.75	88940.4
215	2.000000	1.205842	7.36716e+06	-49389.1	955.817	-29759.5	0.000000	0.000000	7.218396	285.983	NaN	0.000000	0.001628	0.001745	28.0792	80.207	0.001875	42768.1	3.760873	174.141	285.437	1.205440	0.082883	0.082481	285.983	42768.1	0.077868	0.197559	1447.58	87911.4
215	2.000000	1.216246	7.36716e+06	-49389.1	955.817	-29759.5	0.000000	0.000000	7.231635	354.951	NaN	0.000000	0.001637	0.001736	28.079	87.3715	0.001841	47470.6	-0.313334	-2.648119	350.176	1.215912	0.093287	0.092952	354.951	47470.6	0.087679	0.243345	1458.63	87919.7
215	2.000000	1.226771	7.36716e+06	-49389.1	955.818	-29759.5	0.000000	0.000000	7.245637	439.513	NaN	0.000000	0.001624	0.001738	28.0789	98.2884	0.001718	57199.2	6.981642	169.859	438.258	1.226371	0.103812	0.103412	439.513	57199.2	0.098049	0.296560	1482.04	95963.7
215	2.000000	1.229699	7.36716e+06	-49389.1	955.818	-29759.5	0.000000	0.000000	7.249499	462.224	NaN	0.000000	0.001620	0.001732	28.0791	102.48	0.001686	60768.4	10.2924	165.213	456.529	1.229354	0.106740	0.106395	462.224	60768.4	0.101035	0.312791	1477.74	99271.4