File: remote_trans/data/nanoindenter/0828-1/data/Data_2025-08-06,11h17m57s/2025-07-22_16-23-58_1_1053.txt
2025-07-22, 16:23:58, 1
Index	Phase	Displacement	Time	Pos X	Pos Y	Pos Z	Rot A	Rot B	Piezo Z	Force A	Force B	Gripper	Voltage A	Voltage B	Temperature	Amplitude force	Amplitude pos	Stiffness	Phase shift	Phase excitation	Force A raw	Displacement raw	HMax	HMax raw	Real Force	Real Stiffness	Contact Depth	Area	Hardness	Reduced Mod.
[#]	[#]	[um]	[s]	[um]	[um]	[um]	[m°]	[m°]	[um]	[uN]	[uN]	[V]	[V]	[V]	[°C]	[uN]	[um]	[N/m]	[°]	[°]	[uN]	[um]	[um]	[um]	[uN]	[N/m]	[um]	[um^2]	[MPa]	[MPa]
1053	1.000000	0.003122	7.37534e+06	-52789.1	1055.82	-29748.1	0.000000	0.000000	6.002801	-0.012091	NaN	0.000000	0.001583	0.001776	28.0832	0.045638	0.000908	50.2561	148.535	-174.097	-0.079940	0.001820	-1.143944	-1.145246	-0.012091	50.2561	-1.143763	-1.937306E+15	6.240951E-18	NaN
1053	1.000000	0.045071	7.37534e+06	-52789.1	1055.82	-29748.1	0.000000	0.000000	6.044747	-0.068284	NaN	0.000000	0.001603	0.001774	28.0828	0.113250	0.001901	59.5752	-59.1207	11.5752	-0.104209	0.043668	-1.101995	-1.103398	-0.068284	59.5752	-1.101135	-5.191653E+14	1.315263E-16	NaN
1053	1.000000	0.087070	7.37534e+06	-52789.1	1055.82	-29748.1	0.000000	0.000000	6.086749	0.005137	NaN	0.000000	0.001591	0.001805	28.0818	0.063166	0.002125	29.7312	-46.3008	-167.424	0.004003	0.085783	-1.059996	-1.061283	0.005137	29.7312	-1.060126	-1.460535E+14	-3.517319E-17	NaN
1053	1.000000	0.129093	7.37534e+06	-52789.1	1055.82	-29748.1	0.000000	0.000000	6.128770	-0.047461	NaN	0.000000	0.001626	0.001775	28.0818	0.105278	0.001967	53.5116	71.6647	14.4259	-0.076584	0.127721	-1.017973	-1.019344	-0.047461	53.5116	-1.017308	-3.879076E+13	1.223502E-15	NaN
1053	1.000000	0.171133	7.37534e+06	-52789.1	1055.82	-29748.1	0.000000	0.000000	6.170811	-0.036083	NaN	0.000000	0.001590	0.001727	28.082	0.033969	0.002124	15.9902	-108.212	-163.332	-0.029286	0.169786	-0.975932	-0.977279	-0.036083	15.9902	-0.974240	-1.020472E+13	3.535893E-15	NaN
1053	1.000000	0.213115	7.37534e+06	-52789.1	1055.82	-29748.1	0.000000	0.000000	6.212793	-0.019206	NaN	0.000000	0.001632	0.001703	28.0829	0.114360	0.002001	57.1601	-19.3953	14.6095	0.045578	0.211759	-0.933951	-0.935306	-0.019206	57.1601	-0.933699	-2.898088E+12	6.627029E-15	NaN
1053	1.000000	0.255156	7.37534e+06	-52789.1	1055.82	-29748.1	0.000000	0.000000	6.254835	-0.003920	NaN	0.000000	0.001518	0.001724	28.0828	0.081223	0.002002	40.5674	129.033	-167.137	0.006875	0.253862	-0.891910	-0.893204	-0.003920	40.5674	-0.891837	-7.884121E+11	4.972041E-15	NaN
1053	1.000000	0.297165	7.37534e+06	-52789.1	1055.82	-29748.1	0.000000	0.000000	6.296841	-0.075859	NaN	0.000000	0.001562	0.001715	28.0828	0.085069	0.002004	42.4495	-135.706	13.5163	0.060897	0.295870	-0.849900	-0.851195	-0.075859	42.4495	-0.848560	-2.047574E+11	3.704804E-13	NaN
1053	1.000000	0.339177	7.37534e+06	-52789.1	1055.82	-29748.1	0.000000	0.000000	6.338858	0.046925	NaN	0.000000	0.001612	0.001774	28.0816	0.095729	0.002079	46.0453	153.313	-167.332	0.026756	0.337820	-0.807889	-0.809246	0.046925	46.0453	-0.808653	-5.892413E+10	-7.963607E-13	NaN
1053	1.000000	0.381220	7.37534e+06	-52789.1	1055.82	-29748.1	0.000000	0.000000	6.380899	0.015582	NaN	0.000000	0.001609	0.001801	28.0817	0.039162	0.002071	18.907	39.2635	11.9341	-0.006485	0.379838	-0.765846	-0.767228	0.015582	18.907	-0.766464	-1.574804E+10	-9.894705E-13	NaN
1053	1.000000	0.423246	7.37534e+06	-52789.1	1055.82	-29748.1	0.000000	0.000000	6.422925	-0.004514	NaN	0.000000	0.001604	0.001809	28.0816	0.118521	0.002128	55.6971	87.6505	-162.293	-0.067415	0.421929	-0.723820	-0.725137	-0.004514	55.6971	-0.723759	-4.127899E+9	1.093473E-12	NaN
1053	1.000000	0.465211	7.37534e+06	-52789.1	1055.82	-29748.1	0.000000	0.000000	6.464889	-0.032313	NaN	0.000000	0.001586	0.001770	28.0828	0.073145	0.001965	37.2241	76.4981	12.41	-0.036387	0.463891	-0.681854	-0.683174	-0.032313	37.2241	-0.681203	-1.083087E+9	2.983449E-11	NaN
1053	1.000000	0.507262	7.37534e+06	-52789.1	1055.82	-29748.1	0.000000	0.000000	6.506944	0.062603	NaN	0.000000	0.001613	0.001794	28.0827	0.112976	0.001981	57.0328	141.671	-166.402	0.000648	0.505980	-0.639803	-0.641086	0.062603	57.0328	-0.640627	-3.012226E+8	-2.078313E-10	NaN
1053	1.000000	0.549294	7.37534e+06	-52789.1	1055.82	-29748.1	0.000000	0.000000	6.548971	-0.063222	NaN	0.000000	0.001599	0.001748	28.0829	0.047509	0.002000	23.7606	82.1834	12.2977	0.009771	0.547895	-0.597771	-0.599171	-0.063222	23.7606	-0.595776	-7.282344E+7	8.681535E-10	NaN
1053	1.000000	0.591271	7.37534e+06	-52789.1	1055.82	-29748.1	0.000000	0.000000	6.590950	0.008502	NaN	0.000000	0.001654	0.001781	28.0825	0.024613	0.002067	11.9083	-131.311	-162.711	-0.006014	0.589976	-0.555795	-0.557090	0.008502	11.9083	-0.556331	-2.077806E+7	-4.091656E-10	NaN
1053	1.000000	0.633324	7.37535e+06	-52789.1	1055.82	-29748.1	0.000000	0.000000	6.632999	-0.090587	NaN	0.000000	0.001614	0.001725	28.0816	0.035058	0.002039	17.1916	-121.78	15.584	-0.120786	0.631911	-0.513742	-0.515155	-0.090587	17.1916	-0.509790	-4.69342e+06	1.930087E-8	NaN
1053	1.000000	0.675329	7.37535e+06	-52789.1	1055.82	-29748.1	0.000000	0.000000	6.675006	-0.037080	NaN	0.000000	0.001680	0.001724	28.0816	0.072345	0.001974	36.6512	22.9249	-165.477	0.035782	0.674039	-0.471737	-0.473027	-0.037080	36.6512	-0.470978	-1.34626e+06	2.754308E-8	NaN
1053	1.000000	0.717335	7.37535e+06	-52789.1	1055.82	-29748.1	0.000000	0.000000	6.717012	-0.047774	NaN	0.000000	0.001688	0.001779	28.0814	0.029550	0.002071	14.2681	-46.2905	14.4248	-0.096704	0.716048	-0.429731	-0.431017	-0.047774	14.2681	-0.427220	-325625	1.467155E-7	NaN
1053	1.000000	0.759411	7.37535e+06	-52789.1	1055.82	-29748.1	0.000000	0.000000	6.759085	-0.105821	NaN	0.000000	0.001676	0.001736	28.0828	0.060139	0.002137	28.1457	-82.0521	-165.876	-0.101906	0.758032	-0.387655	-0.389034	-0.105821	28.1457	-0.384835	-81138.1	1.304206E-6	NaN
1053	1.000000	0.801399	7.37535e+06	-52789.1	1055.82	-29748.1	0.000000	0.000000	6.801078	-0.000248	NaN	0.000000	0.001636	0.001794	28.0829	0.081622	0.001902	42.9246	25.0851	11.8689	0.013982	0.799994	-0.345667	-0.347072	-0.000248	42.9246	-0.345663	-22079.9	1.124148E-8	NaN
1053	1.000000	0.843384	7.37535e+06	-52789.1	1055.82	-29748.1	0.000000	0.000000	6.843063	0.020337	NaN	0.000000	0.001650	0.001676	28.0828	0.052543	0.001957	26.8519	158.279	-167.16	-0.049717	0.842045	-0.303682	-0.305021	0.020337	26.8519	-0.304250	-5442.85	-3.736496E-6	NaN
1053	1.000000	0.885425	7.37535e+06	-52789.1	1055.82	-29748.1	0.000000	0.000000	6.885103	-0.026429	NaN	0.000000	0.001615	0.001690	28.0816	0.018046	0.002002	9.014185	9.529580	15.8429	0.031766	0.884137	-0.261641	-0.262929	-0.026429	9.014185	-0.259442	-1149.12	2.299900E-5	NaN
1053	1.000000	0.927446	7.37535e+06	-52789.1	1055.82	-29748.1	0.000000	0.000000	6.927125	-0.018815	NaN	0.000000	0.001609	0.001724	28.0816	0.066317	0.002030	32.675	-99.881	-167.964	-0.030600	0.926049	-0.219620	-0.221017	-0.018815	32.675	-0.219188	-269.58	6.979429E-5	NaN
1053	1.000000	0.969458	7.37535e+06	-52789.1	1055.82	-29748.1	0.000000	0.000000	6.969137	-0.017174	NaN	0.000000	0.001617	0.001686	28.0817	0.111703	0.002070	53.9707	95.3782	17.1531	0.042693	0.968092	-0.177608	-0.178974	-0.017174	53.9707	-0.177369	-55.0287	0.000312	NaN
1053	1.000000	1.011442	7.37535e+06	-52789.1	1055.82	-29748.1	0.000000	0.000000	7.011121	0.001974	NaN	0.000000	0.001637	0.001712	28.0829	0.045060	0.001929	23.3624	54.9028	-167.179	-0.083140	1.010205	-0.135624	-0.136861	0.001974	23.3624	-0.135687	-9.803653	-0.000201	NaN
1053	1.000000	1.053465	7.37535e+06	-52789.1	1055.82	-29748.1	0.000000	0.000000	7.053141	-0.079433	NaN	0.000000	0.001641	0.001686	28.0832	0.101131	0.001844	54.8506	74.2382	12.0504	-0.058851	1.052097	-0.093600	-0.094969	-0.079433	54.8506	-0.092514	-1.237001	0.064214	NaN
1053	1.000000	1.095502	7.37535e+06	-52789.1	1055.82	-29748.1	0.000000	0.000000	7.095178	-0.071609	NaN	0.000000	0.001621	0.001698	28.083	0.051352	0.001934	26.5478	37.6751	-166.534	-0.042578	1.094263	-0.051564	-0.052803	-0.071609	26.5478	-0.049541	-0.088378	0.810255	NaN
1053	1.000000	1.137510	7.37535e+06	-52789.1	1055.82	-29748.1	0.000000	0.000000	7.137189	-0.022544	NaN	0.000000	0.001664	0.001710	28.0825	0.084533	0.002006	42.1484	-172.107	13.2761	0.011590	1.136194	-0.009555	-0.010871	-0.022544	42.1484	-0.009154	-0.005902	3.819774	NaN
1053	2.000000	1.158108	7.37535e+06	-52789.1	1055.82	-29748.1	0.000000	0.000000	7.158644	20.8446	NaN	0.000000	0.001637	0.001705	28.0813	17.8189	0.001763	10108.3	5.639610	-176.437	20.895	1.157743	0.011042	0.010677	20.8446	10108.3	0.009496	0.008626	2416.39	99434.3
1053	2.000000	1.168507	7.37535e+06	-52789.1	1055.82	-29748.1	0.000000	0.000000	7.169853	40.5292	NaN	0.000000	0.001576	0.001717	28.0814	28.6558	0.001966	14577	7.650562	-0.739376	37.8049	1.168164	0.021441	0.021098	40.5292	14577	0.019356	0.021540	1881.6	90744.3
1053	2.000000	1.179008	7.37535e+06	-52789.1	1055.82	-29748.1	0.000000	0.000000	7.181789	75.429	NaN	0.000000	0.001592	0.001684	28.0813	37.4633	0.001699	22051.7	3.864909	179.118	75.926	1.178680	0.031942	0.031615	75.429	22051.7	0.029376	0.039461	1911.47	101422
1053	2.000000	1.189431	7.37535e+06	-52789.1	1055.82	-29748.1	0.000000	0.000000	7.193778	113.474	NaN	0.000000	0.001564	0.001728	28.0826	47.624	0.001783	26716.1	4.964713	-2.799315	109.204	1.189054	0.042366	0.041988	113.474	26716.1	0.039180	0.061927	1832.39	98086.2
1053	2.000000	1.199967	7.37535e+06	-52789.1	1055.82	-29748.1	0.000000	0.000000	7.206269	161.026	NaN	0.000000	0.001546	0.001699	28.0826	59.0193	0.001927	30624.2	5.927865	174.645	158.378	1.199710	0.052901	0.052644	161.026	30624.2	0.048957	0.089217	1804.88	93672.7
1053	2.000000	1.210473	7.37535e+06	-52789.1	1055.82	-29748.1	0.000000	0.000000	7.218925	213.312	NaN	0.000000	0.001553	0.001759	28.0831	69.9518	0.001920	36429.9	6.053259	-6.440090	211.596	1.210084	0.063407	0.063019	213.312	36429.9	0.059016	0.122303	1744.13	95172.9
1053	2.000000	1.220920	7.37535e+06	-52789.1	1055.82	-29748.1	0.000000	0.000000	7.232140	280.6	NaN	0.000000	0.001571	0.001756	28.0814	78.2915	0.001861	42062.8	6.560935	171.965	279.809	1.220540	0.073854	0.073474	280.6	42062.8	0.068851	0.159444	1759.87	96242.6
1053	2.000000	1.231481	7.37535e+06	-52789.1	1055.82	-29748.1	0.000000	0.000000	7.245368	345.451	NaN	0.000000	0.001580	0.001757	28.0813	87.2558	0.001745	49993.8	8.864325	-11.2612	346.975	1.230975	0.084415	0.083909	345.451	49993.8	0.079232	0.203658	1696.23	101213
1053	2.000000	1.241877	7.37535e+06	-52789.1	1055.82	-29748.1	0.000000	0.000000	7.258807	419.445	NaN	0.000000	0.001638	0.001711	28.0814	97.5769	0.001794	54385.4	4.176098	172.165	414.981	1.241544	0.094811	0.094478	419.445	54385.4	0.089027	0.249986	1677.88	99379.8
1053	2.000000	1.249345	7.37535e+06	-52789.1	1055.82	-29748.1	0.000000	0.000000	7.268803	480.897	NaN	0.000000	0.001643	0.001723	28.0814	103.928	0.001852	56109.7	3.018221	-6.609376	475.703	1.249099	0.102279	0.102033	480.897	56109.7	0.095851	0.284872	1688.11	96047.4