File: remote_trans/data/nanoindenter/0828-1/data/Data_2025-08-06,11h17m57s/2025-07-22_16-23-58_1_1134.txt
2025-07-22, 16:23:58, 1
Index	Phase	Displacement	Time	Pos X	Pos Y	Pos Z	Rot A	Rot B	Piezo Z	Force A	Force B	Gripper	Voltage A	Voltage B	Temperature	Amplitude force	Amplitude pos	Stiffness	Phase shift	Phase excitation	Force A raw	Displacement raw	HMax	HMax raw	Real Force	Real Stiffness	Contact Depth	Area	Hardness	Reduced Mod.
[#]	[#]	[um]	[s]	[um]	[um]	[um]	[m°]	[m°]	[um]	[uN]	[uN]	[V]	[V]	[V]	[°C]	[uN]	[um]	[N/m]	[°]	[°]	[uN]	[um]	[um]	[um]	[uN]	[N/m]	[um]	[um^2]	[MPa]	[MPa]
1134	1.000000	0.002697	7.37614e+06	-56839.1	1055.82	-29738	0.000000	0.000000	6.002734	0.023402	NaN	0.000000	0.001693	0.001706	28.0822	0.081744	0.001047	78.1004	169.31	179.115	0.042534	0.001485	-1.086530	-1.087742	0.023402	78.1004	-1.086755	-3.328376E+14	-7.031004E-17	NaN
1134	1.000000	0.042656	7.37614e+06	-56839.1	1055.82	-29738	0.000000	0.000000	6.042692	-0.009116	NaN	0.000000	0.001610	0.001740	28.0822	0.051320	0.002021	25.3907	-48.7668	175.538	-0.092152	0.041356	-1.046571	-1.047871	-0.009116	25.3907	-1.046301	-9.521166E+13	9.574420E-17	NaN
1134	1.000000	0.082639	7.37614e+06	-56839.1	1055.82	-29738	0.000000	0.000000	6.082677	0.066207	NaN	0.000000	0.001687	0.001728	28.0835	0.071493	0.002026	35.2793	-154.22	174.131	-0.003492	0.081327	-1.006588	-1.007900	0.066207	35.2793	-1.007995	-2.906703E+13	-2.277741E-15	NaN
1134	1.000000	0.122688	7.37614e+06	-56839.1	1055.82	-29738	0.000000	0.000000	6.122725	0.039310	NaN	0.000000	0.001766	0.001698	28.0836	0.014901	0.002030	7.339884	-20.2618	174.404	-0.034837	0.121338	-0.966539	-0.967889	0.039310	7.339884	-0.970556	-9.102334E+12	-4.318719E-15	NaN
1134	1.000000	0.162677	7.37614e+06	-56839.1	1055.82	-29738	0.000000	0.000000	6.162712	-0.023847	NaN	0.000000	0.001758	0.001744	28.0833	0.039999	0.001922	20.8134	74.1976	174.804	-0.025965	0.161326	-0.926550	-0.927900	-0.023847	20.8134	-0.925690	-2.259569E+12	1.055380E-14	NaN
1134	1.000000	0.202663	7.37615e+06	-56839.1	1055.82	-29738	0.000000	0.000000	6.202700	0.027551	NaN	0.000000	0.001703	0.001723	28.0821	0.066780	0.001960	34.0741	56.4099	177.269	-0.048739	0.201393	-0.886563	-0.887834	0.027551	34.0741	-0.887170	-6.817959E+11	-4.041011E-14	NaN
1134	1.000000	0.242716	7.37615e+06	-56839.1	1055.82	-29738	0.000000	0.000000	6.242753	0.025669	NaN	0.000000	0.001706	0.001716	28.0818	0.026146	0.001893	13.8126	-164.371	175.286	0.034926	0.241383	-0.846510	-0.847844	0.025669	13.8126	-0.847904	-2.006115E+11	-1.279528E-13	NaN
1134	1.000000	0.282727	7.37615e+06	-56839.1	1055.82	-29738	0.000000	0.000000	6.282764	0.027932	NaN	0.000000	0.001685	0.001699	28.0818	0.042167	0.001978	21.3158	101.163	179.079	-0.004385	0.281392	-0.806500	-0.807834	0.027932	21.3158	-0.807482	-5.680829E+10	-4.916846E-13	NaN
1134	1.000000	0.322763	7.37615e+06	-56839.1	1055.82	-29738	0.000000	0.000000	6.322802	0.055178	NaN	0.000000	0.001686	0.001726	28.0818	0.070686	0.002044	34.5747	-96.5888	173.845	0.083843	0.321462	-0.766463	-0.767765	0.055178	34.5747	-0.767660	-1.634895E+10	-3.375001E-12	NaN
1134	1.000000	0.362766	7.37615e+06	-56839.1	1055.82	-29738	0.000000	0.000000	6.362806	0.089136	NaN	0.000000	0.001672	0.001745	28.0832	0.095249	0.001990	47.8559	-118.407	177.853	0.042228	0.361439	-0.726460	-0.727787	0.089136	47.8559	-0.727857	-4.694663E+9	-1.898663E-11	NaN
1134	1.000000	0.402799	7.37615e+06	-56839.1	1055.82	-29738	0.000000	0.000000	6.402836	0.029010	NaN	0.000000	0.001675	0.001734	28.0832	0.093880	0.001954	48.0518	61.1759	172.324	0.043652	0.401496	-0.686428	-0.687730	0.029010	48.0518	-0.686880	-1.295029E+9	-2.240087E-11	NaN
1134	1.000000	0.442794	7.37615e+06	-56839.1	1055.82	-29738	0.000000	0.000000	6.442831	0.034017	NaN	0.000000	0.001680	0.001731	28.0833	0.082058	0.002169	37.8345	158.864	177.935	-0.022242	0.441516	-0.646433	-0.647711	0.034017	37.8345	-0.647107	-3.696361E+8	-9.202892E-11	NaN
1134	1.000000	0.482810	7.37615e+06	-56839.1	1055.82	-29738	0.000000	0.000000	6.482845	0.001004	NaN	0.000000	0.001684	0.001737	28.0817	0.048260	0.001976	24.4245	128.167	176.827	0.035628	0.481546	-0.606417	-0.607681	0.001004	24.4245	-0.606448	-1.021491E+8	-9.830271E-12	NaN
1134	1.000000	0.522845	7.37615e+06	-56839.1	1055.82	-29738	0.000000	0.000000	6.522881	-0.015234	NaN	0.000000	0.001725	0.001739	28.0821	0.110268	0.002067	53.3462	-9.622933	175.347	-0.001029	0.521549	-0.566381	-0.567678	-0.015234	53.3462	-0.566167	-2.842233E+7	5.359995E-10	NaN
1134	1.000000	0.562877	7.37615e+06	-56839.1	1055.82	-29738	0.000000	0.000000	6.562915	0.057954	NaN	0.000000	0.001745	0.001742	28.0821	0.045206	0.001950	23.1857	177.516	174.617	0.064325	0.561553	-0.526350	-0.527674	0.057954	23.1857	-0.528225	-8.47064e+06	-6.841799E-9	NaN
1134	1.000000	0.602868	7.37615e+06	-56839.1	1055.82	-29738	0.000000	0.000000	6.602906	0.053164	NaN	0.000000	0.001708	0.001715	28.0817	0.058179	0.001979	29.3918	-28.1039	177.332	0.006488	0.601520	-0.486359	-0.487707	0.053164	29.3918	-0.487716	-2.30921e+06	-2.302241E-8	NaN
1134	1.000000	0.642884	7.37615e+06	-56839.1	1055.82	-29738	0.000000	0.000000	6.642920	0.022299	NaN	0.000000	0.001742	0.001720	28.083	0.067854	0.001853	36.6228	59.1631	178.227	0.069867	0.641599	-0.446343	-0.447627	0.022299	36.6228	-0.446800	-615543	-3.622685E-8	NaN
1134	1.000000	0.682944	7.37615e+06	-56839.1	1055.82	-29738	0.000000	0.000000	6.682982	0.058037	NaN	0.000000	0.001704	0.001697	28.0832	0.020202	0.002033	9.936116	-177.578	172.774	0.050515	0.681607	-0.406283	-0.407620	0.058037	9.936116	-0.410664	-189601	-3.061021E-7	NaN
1134	1.000000	0.722922	7.37615e+06	-56839.1	1055.82	-29738	0.000000	0.000000	6.722956	-0.049819	NaN	0.000000	0.001678	0.001745	28.0834	0.053158	0.002001	26.5648	-84.2265	178.463	0.055505	0.721611	-0.366304	-0.367616	-0.049819	26.5648	-0.364898	-41935.5	1.187990E-6	NaN
1134	1.000000	0.762956	7.37615e+06	-56839.1	1055.82	-29738	0.000000	0.000000	6.762990	-0.048750	NaN	0.000000	0.001747	0.001733	28.0818	0.063560	0.001973	32.2082	36.6171	173.669	-0.093404	0.761659	-0.326270	-0.327568	-0.048750	32.2082	-0.325135	-11069.3	4.404030E-6	NaN
1134	1.000000	0.802991	7.37615e+06	-56839.1	1055.82	-29738	0.000000	0.000000	6.803026	-0.026990	NaN	0.000000	0.001670	0.001719	28.0821	0.073652	0.002133	34.5244	64.8705	177.135	0.077179	0.801625	-0.286235	-0.287601	-0.026990	34.5244	-0.285649	-2870.91	9.401079E-6	NaN
1134	1.000000	0.842971	7.37615e+06	-56839.1	1055.82	-29738	0.000000	0.000000	6.843006	-0.002351	NaN	0.000000	0.001712	0.001770	28.0819	0.096625	0.001890	51.1193	58.6817	176.047	0.038607	0.841704	-0.246256	-0.247523	-0.002351	51.1193	-0.246222	-718.495	3.271870E-6	NaN
1134	1.000000	0.882983	7.37615e+06	-56839.1	1055.82	-29738	0.000000	0.000000	6.883019	-0.002896	NaN	0.000000	0.001714	0.001767	28.082	0.062602	0.002020	30.9848	116.294	175.893	-0.068292	0.881742	-0.206244	-0.207484	-0.002896	30.9848	-0.206173	-166.22	1.742464E-5	NaN
1134	1.000000	0.922963	7.37615e+06	-56839.1	1055.82	-29738	0.000000	0.000000	6.923000	0.028419	NaN	0.000000	0.001701	0.001812	28.0834	0.063933	0.002025	31.5747	59.641	176.026	0.026923	0.921669	-0.166263	-0.167557	0.028419	31.5747	-0.166938	-36.3301	-0.000782	NaN
1134	1.000000	0.962996	7.37615e+06	-56839.1	1055.82	-29738	0.000000	0.000000	6.963034	0.050887	NaN	0.000000	0.001688	0.001778	28.0836	0.050312	0.001992	25.2547	-163.507	175.268	0.036091	0.961749	-0.126230	-0.127478	0.050887	25.2547	-0.127741	-6.885887	-0.007390	NaN
1134	1.000000	1.003014	7.37615e+06	-56839.1	1055.82	-29738	0.000000	0.000000	7.003051	0.037128	NaN	0.000000	0.001690	0.001733	28.0834	0.129633	0.002007	64.6033	103.421	174.973	0.033968	1.001790	-0.086213	-0.087437	0.037128	64.6033	-0.086644	-0.900031	-0.041252	NaN
1134	1.000000	1.043015	7.37615e+06	-56839.1	1055.82	-29738	0.000000	0.000000	7.043053	0.039995	NaN	0.000000	0.001648	0.001750	28.082	0.054095	0.001907	28.3731	58.2455	178.872	-0.050360	1.041754	-0.046211	-0.047473	0.039995	28.3731	-0.047268	-0.075383	-0.530557	NaN
1134	1.000000	1.083088	7.37615e+06	-56839.1	1055.82	-29738	0.000000	0.000000	7.083135	0.266513	NaN	0.000000	0.001648	0.001768	28.0819	0.496443	0.002139	232.102	26.7534	175.068	0.142619	1.081765	-0.006139	-0.007461	0.266513	232.102	-0.007000	-0.004640	-57.4343	NaN
1134	2.000000	1.100621	7.37615e+06	-56839.1	1055.82	-29738	0.000000	0.000000	7.101368	17.304	NaN	0.000000	0.001668	0.001740	28.0819	17.0766	0.001797	9501.43	6.573015	165.077	16.4635	1.100389	0.011394	0.011162	17.304	9501.43	0.010028	0.009213	1878.3	90442.4
1134	2.000000	1.110631	7.37615e+06	-56839.1	1055.82	-29738	0.000000	0.000000	7.112216	37.6662	NaN	0.000000	0.001673	0.001668	28.0831	27.0843	0.001875	14446.1	9.205158	159.457	36.9193	1.110336	0.021404	0.021109	37.6662	14446.1	0.019448	0.021683	1737.13	89632.2
1134	2.000000	1.120620	7.37615e+06	-56839.1	1055.82	-29738	0.000000	0.000000	7.123361	65.7639	NaN	0.000000	0.001679	0.001749	28.0831	36.6874	0.001952	18793.1	4.947187	161.123	65.4958	1.120308	0.031393	0.031082	65.7639	18793.1	0.028769	0.038230	1720.22	87815.4
1134	2.000000	1.130579	7.37615e+06	-56839.1	1055.82	-29738	0.000000	0.000000	7.134629	97.5632	NaN	0.000000	0.001687	0.001703	28.0832	45.0426	0.001725	26111.3	3.806571	158.524	95.9259	1.130398	0.041352	0.041171	97.5632	26111.3	0.038550	0.060334	1617.04	97122.2
1134	2.000000	1.140587	7.37615e+06	-56839.1	1055.82	-29738	0.000000	0.000000	7.146610	145.515	NaN	0.000000	0.001637	0.001708	28.0832	55.2127	0.001814	30437.4	5.047617	157.276	146.201	1.140234	0.051361	0.051007	145.515	30437.4	0.047775	0.085660	1698.75	95014.9
1134	2.000000	1.150614	7.37615e+06	-56839.1	1055.82	-29738	0.000000	0.000000	7.158379	187.869	NaN	0.000000	0.001674	0.001691	28.0821	64.7701	0.001737	37285.8	3.048686	157.376	189.219	1.150353	0.061387	0.061126	187.869	37285.8	0.057608	0.117372	1600.63	99434
1134	2.000000	1.160457	7.37615e+06	-56839.1	1055.82	-29738	0.000000	0.000000	7.170885	252.596	NaN	0.000000	0.001691	0.001686	28.082	74.1188	0.001812	40906.5	4.210813	156.051	247.78	1.160182	0.071230	0.070955	252.596	40906.5	0.066599	0.150528	1678.07	96329.1
1134	2.000000	1.170517	7.37615e+06	-56839.1	1055.82	-29738	0.000000	0.000000	7.183547	315.835	NaN	0.000000	0.001667	0.001733	28.0823	84.0211	0.001810	46432.6	0.920239	157.992	313.833	1.170248	0.081290	0.081021	315.835	46432.6	0.076189	0.190171	1660.8	97280.1
1134	2.000000	1.180446	7.37615e+06	-56839.1	1055.82	-29738	0.000000	0.000000	7.196280	383.982	NaN	0.000000	0.001576	0.001750	28.0837	92.4878	0.001840	50273	3.662322	155.253	380.047	1.180144	0.091220	0.090918	383.982	50273	0.085491	0.232750	1649.76	95205.7
1134	2.000000	1.190560	7.37615e+06	-56839.1	1055.82	-29738	0.000000	0.000000	7.209397	456.976	NaN	0.000000	0.001583	0.001699	28.0835	102.813	0.001791	57403.9	4.293131	153.235	457.506	1.190375	0.101333	0.101148	456.976	57403.9	0.095362	0.282302	1618.75	98709.1
1134	2.000000	1.191403	7.37615e+06	-56839.1	1055.82	-29738	0.000000	0.000000	7.211105	478.001	NaN	0.000000	0.001587	0.001716	28.0832	103.221	0.001798	57415.3	7.214876	150.984	472.617	1.191005	0.102177	0.101778	478.001	57415.3	0.095933	0.285301	1675.42	98208.5