File: remote_trans/data/nanoindenter/0828-1/data/Data_2025-08-06,11h17m57s/2025-07-22_16-23-58_1_369.txt
2025-07-22, 16:23:58, 1
Index	Phase	Displacement	Time	Pos X	Pos Y	Pos Z	Rot A	Rot B	Piezo Z	Force A	Force B	Gripper	Voltage A	Voltage B	Temperature	Amplitude force	Amplitude pos	Stiffness	Phase shift	Phase excitation	Force A raw	Displacement raw	HMax	HMax raw	Real Force	Real Stiffness	Contact Depth	Area	Hardness	Reduced Mod.
[#]	[#]	[um]	[s]	[um]	[um]	[um]	[m°]	[m°]	[um]	[uN]	[uN]	[V]	[V]	[V]	[°C]	[uN]	[um]	[N/m]	[°]	[°]	[uN]	[um]	[um]	[um]	[uN]	[N/m]	[um]	[um^2]	[MPa]	[MPa]
369	1.000000	0.002639	7.36867e+06	-57089.1	955.818	-29737.2	0.000000	0.000000	6.002777	0.038395	NaN	0.000000	0.001658	0.001722	28.0793	0.073422	0.000984	74.6384	-42.2128	-163.311	-0.018785	0.001351	-1.746012	-1.747300	0.038395	74.6384	-1.746398	-2.102043E+23	-1.826543E-25	NaN
369	1.000000	0.062626	7.36867e+06	-57089.1	955.819	-29737.2	0.000000	0.000000	6.062765	0.051506	NaN	0.000000	0.001672	0.001720	28.0804	0.063068	0.002018	31.2585	-178.98	-165.019	0.043090	0.061286	-1.686025	-1.687365	0.051506	31.2585	-1.687261	-3.445033E+22	-1.495079E-24	NaN
369	1.000000	0.122635	7.36867e+06	-57089.1	955.818	-29737.2	0.000000	0.000000	6.122772	0.029879	NaN	0.000000	0.001641	0.001723	28.0807	0.076284	0.002102	36.2893	-125.028	-165.681	-0.037717	0.121360	-1.626016	-1.627291	0.029879	36.2893	-1.626634	-5.387720E+21	-5.545669E-24	NaN
369	1.000000	0.182647	7.36867e+06	-57089.1	955.819	-29737.1	0.000000	0.000000	6.182786	0.070615	NaN	0.000000	0.001607	0.001731	28.0805	0.013091	0.001961	6.676785	-28.9562	-161.78	0.085314	0.181352	-1.566004	-1.567299	0.070615	6.676785	-1.573936	-1.072786E+21	-6.582410E-23	NaN
369	1.000000	0.242723	7.36867e+06	-57089.1	955.819	-29737.1	0.000000	0.000000	6.242859	0.009710	NaN	0.000000	0.001652	0.001732	28.0791	0.088464	0.001930	45.8415	70.1637	-166.409	-0.061521	0.241379	-1.505928	-1.507272	0.009710	45.8415	-1.506087	-1.340856E+20	-7.241912E-23	NaN
369	1.000000	0.302723	7.36867e+06	-57089.1	955.818	-29737.1	0.000000	0.000000	6.302859	-0.011054	NaN	0.000000	0.001664	0.001750	28.0791	0.070330	0.002030	34.6367	-157.497	-164.763	0.027646	0.301395	-1.445928	-1.447256	-0.011054	34.6367	-1.445688	-2.102225E+19	5.258016E-22	NaN
369	1.000000	0.362765	7.36867e+06	-57089.1	955.818	-29737.1	0.000000	0.000000	6.362902	0.019208	NaN	0.000000	0.001674	0.001717	28.0801	0.074455	0.001899	39.2019	-68.8762	-166.048	0.010664	0.361423	-1.385886	-1.387229	0.019208	39.2019	-1.386254	-3.389112E+18	-5.667670E-21	NaN
369	1.000000	0.422724	7.36867e+06	-57089.1	955.818	-29737.1	0.000000	0.000000	6.422859	-0.042675	NaN	0.000000	0.001609	0.001776	28.0802	0.029813	0.002112	14.1149	-3.286495	-163.526	-0.012193	0.421371	-1.325927	-1.327280	-0.042675	14.1149	-1.323659	-4.948615E+17	8.623721E-20	NaN
369	1.000000	0.482801	7.36867e+06	-57089.1	955.819	-29737.1	0.000000	0.000000	6.482936	-0.027975	NaN	0.000000	0.001706	0.001745	28.0793	0.007912	0.002050	3.859381	-101.639	-166.473	-0.029058	0.481514	-1.265850	-1.267137	-0.027975	3.859381	-1.260414	-7.066442E+16	3.958839E-19	NaN
369	1.000000	0.542822	7.36867e+06	-57089.1	955.819	-29737.1	0.000000	0.000000	6.542957	-0.021545	NaN	0.000000	0.001710	0.001699	28.0793	0.072363	0.002014	35.9226	-100.82	-169.143	-0.110371	0.541490	-1.205830	-1.207161	-0.021545	35.9226	-1.205380	-1.296529E+16	1.661765E-18	NaN
369	1.000000	0.602850	7.36867e+06	-57089.1	955.819	-29737.1	0.000000	0.000000	6.602988	0.032557	NaN	0.000000	0.001642	0.001767	28.0805	0.097619	0.002127	45.9032	-138.093	-165.017	0.028005	0.601532	-1.145801	-1.147119	0.032557	45.9032	-1.146333	-2.097284E+15	-1.552330E-17	NaN
369	1.000000	0.662889	7.36867e+06	-57089.1	955.818	-29737.1	0.000000	0.000000	6.663025	0.004985	NaN	0.000000	0.001661	0.001737	28.0804	0.038454	0.001915	20.0846	-65.3268	-166.843	-0.038431	0.661597	-1.085762	-1.087054	0.004985	20.0846	-1.085949	-3.246453E+14	-1.535435E-17	NaN
369	1.000000	0.722892	7.36867e+06	-57089.1	955.818	-29737.1	0.000000	0.000000	6.723027	-0.035312	NaN	0.000000	0.001643	0.001759	28.0807	0.048151	0.002038	23.6248	-112.397	-166.008	-0.013782	0.721619	-1.025759	-1.027032	-0.035312	23.6248	-1.024638	-4.868019E+13	7.253809E-16	NaN
369	1.000000	0.782905	7.36867e+06	-57089.1	955.819	-29737.1	0.000000	0.000000	6.783038	-0.073994	NaN	0.000000	0.001679	0.001734	28.079	0.133449	0.002008	66.4662	117.162	-166.341	-0.085747	0.781586	-0.965746	-0.967065	-0.073994	66.4662	-0.964912	-7.639757E+12	9.685375E-15	NaN
369	1.000000	0.842930	7.36867e+06	-57089.1	955.818	-29737.1	0.000000	0.000000	6.843063	-0.074891	NaN	0.000000	0.001642	0.001728	28.0791	0.050536	0.001977	25.5674	-141.899	-168.804	-0.073709	0.841610	-0.905721	-0.907042	-0.074891	25.5674	-0.903524	-1.134182E+12	6.603044E-14	NaN
369	1.000000	0.902956	7.36867e+06	-57089.1	955.819	-29737.1	0.000000	0.000000	6.903094	0.054289	NaN	0.000000	0.001616	0.001715	28.0806	0.065528	0.002030	32.2845	-15.2648	-166.967	0.050250	0.901676	-0.845695	-0.846975	0.054289	32.2845	-0.846957	-1.947704E+11	-2.787329E-13	NaN
369	1.000000	0.963017	7.36868e+06	-57089.1	955.819	-29737.1	0.000000	0.000000	6.963155	0.053669	NaN	0.000000	0.001692	0.001745	28.0804	0.003014	0.001961	1.536609	-94.5608	-163.689	-0.046963	0.961686	-0.785634	-0.786965	0.053669	1.536609	-0.811830	-6.507175E+10	-8.247645E-13	NaN
369	1.000000	1.023014	7.36868e+06	-57089.1	955.818	-29737.1	0.000000	0.000000	7.023150	-0.015062	NaN	0.000000	0.001717	0.001738	28.0793	0.042334	0.001979	21.387	79.0554	-167.589	0.005763	1.021727	-0.725637	-0.726924	-0.015062	21.387	-0.725109	-4.306622E+9	3.497467E-12	NaN
369	1.000000	1.083027	7.36868e+06	-57089.1	955.819	-29737.1	0.000000	0.000000	7.083162	-0.017710	NaN	0.000000	0.001711	0.001728	28.079	0.098359	0.001963	50.0957	-134.343	-168.052	-0.026172	1.081734	-0.665624	-0.666917	-0.017710	50.0957	-0.665359	-6.574496E+8	2.693691E-11	NaN
369	1.000000	1.143078	7.36868e+06	-57089.1	955.818	-29737.1	0.000000	0.000000	7.143214	0.015768	NaN	0.000000	0.001707	0.001715	28.0793	0.084081	0.001975	42.5634	-53.1798	-165.438	0.042716	1.141692	-0.605574	-0.606959	0.015768	42.5634	-0.605851	-1.002359E+8	-1.573090E-10	NaN
369	1.000000	1.203083	7.36868e+06	-57089.1	955.818	-29737.1	0.000000	0.000000	7.203217	-0.071015	NaN	0.000000	0.001669	0.001705	28.0802	0.085101	0.002077	40.9817	-112.015	-167.747	-0.051871	1.201775	-0.545568	-0.546876	-0.071015	40.9817	-0.544268	-1.414281E+7	5.021307E-9	NaN
369	1.000000	1.263133	7.36868e+06	-57089.1	955.82	-29737.1	0.000000	0.000000	7.263270	0.002894	NaN	0.000000	0.001611	0.001722	28.0803	0.111966	0.001896	59.0461	22.2357	-165.142	-0.075663	1.261820	-0.485518	-0.486831	0.002894	59.0461	-0.485555	-2.15401e+06	-1.343591E-9	NaN
369	1.000000	1.323137	7.36868e+06	-57089.1	955.819	-29737.1	0.000000	0.000000	7.323275	0.054145	NaN	0.000000	0.001616	0.001682	28.079	0.063528	0.001955	32.4907	-67.5835	-166.276	0.020700	1.321784	-0.425514	-0.426867	0.054145	32.4907	-0.426764	-320823	-1.687680E-7	NaN
369	1.000000	1.383182	7.36868e+06	-57089.1	955.82	-29737.1	0.000000	0.000000	7.383318	-0.022161	NaN	0.000000	0.001584	0.001699	28.0787	0.084221	0.002095	40.2095	-37.4748	-163.766	-0.038178	1.381838	-0.365469	-0.366813	-0.022161	40.2095	-0.365056	-42155.6	5.256889E-7	NaN
369	1.000000	1.443209	7.36868e+06	-57089.1	955.82	-29737.1	0.000000	0.000000	7.443344	-0.021841	NaN	0.000000	0.001675	0.001712	28.0805	0.038670	0.001874	20.6312	-165.412	-171.463	-0.003638	1.441871	-0.305443	-0.306780	-0.021841	20.6312	-0.304649	-5517.45	3.958582E-6	NaN
369	1.000000	1.503226	7.36868e+06	-57089.1	955.82	-29737.1	0.000000	0.000000	7.503364	0.057219	NaN	0.000000	0.001686	0.001664	28.0802	0.050510	0.001914	26.3833	-149.257	-162.524	-0.038610	1.501927	-0.245425	-0.246724	0.057219	26.3833	-0.247052	-740.134	-7.730868E-5	NaN
369	1.000000	1.563276	7.36868e+06	-57089.1	955.821	-29737.1	0.000000	0.000000	7.563411	-0.029801	NaN	0.000000	0.001679	0.001653	28.0792	0.094310	0.002024	46.6019	-106.287	-167.694	0.010563	1.561953	-0.185375	-0.186698	-0.029801	46.6019	-0.184895	-73.8522	0.000404	NaN
369	1.000000	1.623275	7.36868e+06	-57089.1	955.821	-29737.1	0.000000	0.000000	7.623407	-0.105449	NaN	0.000000	0.001624	0.001674	28.0791	0.071928	0.001951	36.8716	-116.182	-165.017	-0.082572	1.621995	-0.125376	-0.126656	-0.105449	36.8716	-0.123231	-5.608913	0.018800	NaN
369	1.000000	1.683306	7.36868e+06	-57089.1	955.821	-29737.1	0.000000	0.000000	7.683443	0.011723	NaN	0.000000	0.001595	0.001694	28.0788	0.031665	0.002152	14.7143	70.679	-164.82	0.026630	1.681982	-0.065345	-0.066669	0.011723	14.7143	-0.065943	-0.264629	-0.044300	NaN
369	1.000000	1.743330	7.36868e+06	-57089.1	955.819	-29737.1	0.000000	0.000000	7.743467	0.032070	NaN	0.000000	0.001606	0.001731	28.0805	0.077017	0.002007	38.376	145.262	-165.467	-0.025656	1.741990	-0.005321	-0.006661	0.032070	38.376	-0.005948	-0.004005	-8.008319	NaN
369	2.000000	1.766783	7.36868e+06	-57089.1	955.822	-29737.1	0.000000	0.000000	7.769336	58.7442	NaN	0.000000	0.001669	0.001742	28.0802	23.9012	0.001725	13858.3	2.688270	-177.671	58.2774	1.766647	0.018132	0.017995	58.7442	13858.3	0.014952	0.015222	3859.15	102623
369	2.000000	1.781677	7.36868e+06	-57089.1	955.822	-29737.1	0.000000	0.000000	7.787561	139.718	NaN	0.000000	0.001581	0.001706	28.079	38.6263	0.001648	23433.6	5.822384	174.845	136.771	1.781397	0.033026	0.032746	139.718	23433.6	0.028554	0.037800	3696.27	110120
369	2.000000	1.796741	7.36868e+06	-57089.1	955.822	-29737.1	0.000000	0.000000	7.806269	228.26	NaN	0.000000	0.001606	0.001707	28.0788	53.7402	0.001738	30913.7	7.245489	172.841	229.249	1.796369	0.048090	0.047718	228.26	30913.7	0.042552	0.070790	3224.47	106155
369	2.000000	1.811701	7.36868e+06	-57089.1	955.821	-29737.1	0.000000	0.000000	7.825661	335.988	NaN	0.000000	0.001672	0.001733	28.0802	64.7002	0.001798	35983	3.693687	174.776	335.917	1.811291	0.063050	0.062640	335.988	35983	0.056047	0.112017	2999.44	98226.6
369	2.000000	1.826691	7.36868e+06	-57089.1	955.821	-29737.1	0.000000	0.000000	7.844532	430.33	NaN	0.000000	0.001643	0.001719	28.0802	78.4419	0.001776	44174	7.488347	168.429	428.943	1.826433	0.078040	0.077782	430.33	44174	0.070734	0.167085	2575.52	98735
369	2.000000	1.841619	7.36868e+06	-57089.1	955.821	-29737.1	0.000000	0.000000	7.863387	525.773	NaN	0.000000	0.001618	0.001711	28.0788	87.5147	0.001883	46474.3	2.991291	173.139	522.34	1.841432	0.092968	0.092781	525.773	46474.3	0.084483	0.227942	2306.61	88935.2
369	2.000000	1.853103	7.36868e+06	-57089.1	955.822	-29737.1	0.000000	0.000000	7.878123	604.787	NaN	0.000000	0.001616	0.001703	28.0789	95.9977	0.001900	50535.4	4.520437	-9.103481	600.228	1.852730	0.104452	0.104078	604.787	50535.4	0.095477	0.282901	2137.8	86806.3