File: remote_trans/data/nanoindenter/0828-1/data/Data_2025-08-06,11h17m57s/2025-07-22_16-23-58_1_334.txt
2025-07-22, 16:23:58, 1
Index	Phase	Displacement	Time	Pos X	Pos Y	Pos Z	Rot A	Rot B	Piezo Z	Force A	Force B	Gripper	Voltage A	Voltage B	Temperature	Amplitude force	Amplitude pos	Stiffness	Phase shift	Phase excitation	Force A raw	Displacement raw	HMax	HMax raw	Real Force	Real Stiffness	Contact Depth	Area	Hardness	Reduced Mod.
[#]	[#]	[um]	[s]	[um]	[um]	[um]	[m°]	[m°]	[um]	[uN]	[uN]	[V]	[V]	[V]	[°C]	[uN]	[um]	[N/m]	[°]	[°]	[uN]	[um]	[um]	[um]	[uN]	[N/m]	[um]	[um^2]	[MPa]	[MPa]
334	1.000000	0.002307	7.36833e+06	-55339.1	955.818	-29742	0.000000	0.000000	6.002823	0.015704	NaN	0.000000	0.001566	0.001629	28.081	0.046380	0.000876	52.9585	166.958	-167.874	-0.017232	0.000965	-1.027296	-1.028638	0.015704	52.9585	-1.027519	-5.322372E+13	-2.950590E-16	NaN
334	1.000000	0.042222	7.36833e+06	-55339.1	955.819	-29742	0.000000	0.000000	6.042735	-0.058493	NaN	0.000000	0.001563	0.001660	28.0804	0.036360	0.001973	18.4324	-173.267	-164.59	0.045178	0.040877	-0.987382	-0.988726	-0.058493	18.4324	-0.985002	-1.424917E+13	4.105022E-15	NaN
334	1.000000	0.082241	7.36833e+06	-55339.1	955.818	-29742	0.000000	0.000000	6.082757	0.010017	NaN	0.000000	0.001536	0.001639	28.0797	0.149897	0.001935	77.4478	43.5981	-163.01	0.025231	0.080975	-0.947362	-0.948628	0.010017	77.4478	-0.947459	-4.443848E+12	-2.254111E-15	NaN
334	1.000000	0.122269	7.36833e+06	-55339.1	955.82	-29742	0.000000	0.000000	6.122784	-0.010177	NaN	0.000000	0.001588	0.001631	28.0797	0.134656	0.001888	71.3195	64.5036	-166.164	-0.067083	0.120959	-0.907335	-0.908645	-0.010177	71.3195	-0.907228	-1.272665E+12	7.996576E-15	NaN
334	1.000000	0.162281	7.36833e+06	-55339.1	955.819	-29742	0.000000	0.000000	6.162796	-0.008096	NaN	0.000000	0.001609	0.001646	28.0795	0.029978	0.001953	15.35	168.156	-165.293	0.021570	0.160985	-0.867322	-0.868618	-0.008096	15.35	-0.866926	-3.629575E+11	2.230695E-14	NaN
334	1.000000	0.202310	7.36833e+06	-55339.1	955.819	-29742.1	0.000000	0.000000	6.202825	-0.005597	NaN	0.000000	0.001691	0.001608	28.0794	0.032440	0.001986	16.331	52.826	-162.65	0.006128	0.200977	-0.827293	-0.828626	-0.005597	16.331	-0.827036	-1.046189E+11	5.349424E-14	NaN
334	1.000000	0.242288	7.36833e+06	-55339.1	955.818	-29742.1	0.000000	0.000000	6.242806	0.052460	NaN	0.000000	0.001576	0.001623	28.0806	0.031461	0.002001	15.7225	-47.0744	-166.162	0.017291	0.241029	-0.787315	-0.788574	0.052460	15.7225	-0.789818	-3.270454E+10	-1.604057E-12	NaN
334	1.000000	0.282325	7.36833e+06	-55339.1	955.818	-29742.1	0.000000	0.000000	6.282838	-0.052920	NaN	0.000000	0.001605	0.001619	28.0804	0.073312	0.001929	38.0037	151.189	-160.906	-0.041060	0.281047	-0.747278	-0.748556	-0.052920	38.0037	-0.746234	-8.354994E+9	6.333995E-12	NaN
334	1.000000	0.322360	7.36833e+06	-55339.1	955.818	-29742.1	0.000000	0.000000	6.322877	0.025545	NaN	0.000000	0.001600	0.001623	28.0807	0.083858	0.002118	39.6004	151.066	-159.628	-0.008844	0.321005	-0.707243	-0.708598	0.025545	39.6004	-0.707727	-2.494714E+9	-1.023972E-11	NaN
334	1.000000	0.362368	7.36833e+06	-55339.1	955.818	-29742.1	0.000000	0.000000	6.362883	-0.015047	NaN	0.000000	0.001579	0.001656	28.0794	0.008122	0.002057	3.948406	4.969496	-164.258	-0.071187	0.361029	-0.667235	-0.668575	-0.015047	3.948406	-0.664377	-6.373982E+8	2.360667E-11	NaN
334	1.000000	0.402406	7.36833e+06	-55339.1	955.819	-29742.1	0.000000	0.000000	6.402920	-0.044994	NaN	0.000000	0.001554	0.001669	28.0796	0.117420	0.001952	60.1509	145.718	-165.698	-0.016384	0.401051	-0.627197	-0.628552	-0.044994	60.1509	-0.626636	-1.935630E+8	2.324496E-10	NaN
334	1.000000	0.442417	7.36833e+06	-55339.1	955.817	-29742.1	0.000000	0.000000	6.442930	-0.052238	NaN	0.000000	0.001563	0.001692	28.0794	0.052036	0.002048	25.4126	104.34	-165.651	-0.020742	0.441080	-0.587186	-0.588524	-0.052238	25.4126	-0.585645	-5.279670E+7	9.894189E-10	NaN
334	1.000000	0.482446	7.36833e+06	-55339.1	955.819	-29742.1	0.000000	0.000000	6.482959	-0.060109	NaN	0.000000	0.001599	0.001658	28.0795	0.057738	0.001914	30.1665	-109.308	-165.54	-0.047721	0.481114	-0.547157	-0.548490	-0.060109	30.1665	-0.545663	-1.478645E+7	4.065131E-9	NaN
334	1.000000	0.522401	7.36833e+06	-55339.1	955.818	-29742.1	0.000000	0.000000	6.522918	0.031409	NaN	0.000000	0.001578	0.001686	28.081	0.058839	0.001931	30.4785	-2.943214	-162.697	0.013673	0.521116	-0.507202	-0.508487	0.031409	30.4785	-0.507975	-4.42799e+06	-7.093362E-9	NaN
334	1.000000	0.562455	7.36833e+06	-55339.1	955.819	-29742.1	0.000000	0.000000	6.562970	-0.005843	NaN	0.000000	0.001569	0.001659	28.081	0.069774	0.001927	36.2034	-18.7254	-164.911	0.056396	0.561172	-0.467148	-0.468431	-0.005843	36.2034	-0.467027	-1.18496e+06	4.930859E-9	NaN
334	1.000000	0.602458	7.36833e+06	-55339.1	955.819	-29742.1	0.000000	0.000000	6.602971	-0.055004	NaN	0.000000	0.001628	0.001680	28.081	0.052570	0.001991	26.399	-1.117063	-166.757	-0.058075	0.601160	-0.427146	-0.428444	-0.055004	26.399	-0.425583	-308701	1.781797E-7	NaN
334	1.000000	0.642501	7.36833e+06	-55339.1	955.818	-29742.1	0.000000	0.000000	6.643016	-0.003910	NaN	0.000000	0.001564	0.001643	28.0801	0.052124	0.001972	26.429	57.3349	-166.74	0.008293	0.641159	-0.387103	-0.388444	-0.003910	26.429	-0.386992	-87119.1	4.487936E-8	NaN
334	1.000000	0.682497	7.36833e+06	-55339.1	955.818	-29742.1	0.000000	0.000000	6.683010	-0.063155	NaN	0.000000	0.001566	0.001632	28.0798	0.047105	0.001958	24.06	83.4158	-163.389	0.038874	0.681141	-0.347106	-0.348462	-0.063155	24.06	-0.345138	-21695	2.911057E-6	NaN
334	1.000000	0.722516	7.36833e+06	-55339.1	955.82	-29742.1	0.000000	0.000000	6.723032	0.014770	NaN	0.000000	0.001605	0.001677	28.0792	0.066762	0.002027	32.9313	-74.8708	-164.766	0.030187	0.721244	-0.307087	-0.308360	0.014770	32.9313	-0.307424	-6066	-2.434869E-6	NaN
334	1.000000	0.762518	7.36833e+06	-55339.1	955.818	-29742.1	0.000000	0.000000	6.763032	-0.020449	NaN	0.000000	0.001668	0.001710	28.0805	0.077712	0.002028	38.3254	-46.2114	-165.385	-0.005994	0.761232	-0.267086	-0.268371	-0.020449	38.3254	-0.266685	-1482.84	1.379054E-5	NaN
334	1.000000	0.802570	7.36833e+06	-55339.1	955.819	-29742.1	0.000000	0.000000	6.803086	0.016640	NaN	0.000000	0.001630	0.001679	28.081	0.057029	0.002017	28.2709	-142.223	-163.065	0.018402	0.801264	-0.227033	-0.228339	0.016640	28.2709	-0.227474	-365.241	-4.555798E-5	NaN
334	1.000000	0.842555	7.36834e+06	-55339.1	955.818	-29742.1	0.000000	0.000000	6.843067	-0.066167	NaN	0.000000	0.001607	0.001646	28.0805	0.054382	0.002024	26.8667	118.198	-165.885	-0.049775	0.841266	-0.187049	-0.188337	-0.066167	26.8667	-0.185201	-74.7355	0.000885	NaN
334	1.000000	0.882567	7.36834e+06	-55339.1	955.818	-29742.1	0.000000	0.000000	6.883085	0.061851	NaN	0.000000	0.001568	0.001629	28.0806	0.108458	0.002053	52.8333	158.704	-165.899	0.108410	0.881307	-0.147037	-0.148296	0.061851	52.8333	-0.147915	-16.5906	-0.003728	NaN
334	1.000000	0.922616	7.36834e+06	-55339.1	955.819	-29742.1	0.000000	0.000000	6.923131	-0.011170	NaN	0.000000	0.001592	0.001625	28.0793	0.097547	0.002116	46.0895	41.3073	-166.086	-0.010912	0.921350	-0.106987	-0.108253	-0.011170	46.0895	-0.106805	-2.570342	0.004346	NaN
334	1.000000	0.962624	7.36834e+06	-55339.1	955.818	-29742.1	0.000000	0.000000	6.963139	-0.006049	NaN	0.000000	0.001564	0.001690	28.0798	0.048195	0.001901	25.3488	-32.8967	-166.856	-0.051748	0.961319	-0.066979	-0.068284	-0.006049	25.3488	-0.066800	-0.279388	0.021649	NaN
334	1.000000	1.002656	7.36834e+06	-55339.1	955.818	-29742.1	0.000000	0.000000	7.003172	0.006405	NaN	0.000000	0.001567	0.001678	28.0797	0.040767	0.002106	19.3595	-41.9908	-159.747	-0.067227	1.001337	-0.026947	-0.028266	0.006405	19.3595	-0.027195	-0.019286	-0.332087	NaN
334	2.000000	1.041190	7.36834e+06	-55339.1	955.818	-29742.1	0.000000	0.000000	7.042093	9.409876	NaN	0.000000	0.001567	0.001682	28.0809	8.560016	0.001651	5185.8	10.3208	-173.144	9.348929	1.040801	0.011587	0.011198	9.409876	5185.8	0.010226	0.009434	997.481	48780.8
334	2.000000	1.051101	7.36834e+06	-55339.1	955.82	-29742.1	0.000000	0.000000	7.052743	27.3861	NaN	0.000000	0.001615	0.001655	28.0809	16.9903	0.001894	8968.66	8.166977	-177.063	26.4017	1.050796	0.021498	0.021193	27.3861	8968.66	0.019208	0.021313	1284.96	56128.2
334	2.000000	1.061098	7.36834e+06	-55339.1	955.819	-29742.1	0.000000	0.000000	7.063971	57.3202	NaN	0.000000	0.001601	0.001638	28.0818	24.6593	0.001815	13588.5	7.160054	-179.853	56.5196	1.060808	0.031494	0.031205	57.3202	13588.5	0.028331	0.037355	1534.47	64234.9
334	2.000000	1.071069	7.36834e+06	-55339.1	955.819	-29742.1	0.000000	0.000000	7.075130	86.1708	NaN	0.000000	0.001634	0.001638	28.0818	32.6216	0.001849	17644.3	3.608922	-179.53	84.6441	1.070791	0.041466	0.041188	86.1708	17644.3	0.037803	0.058475	1473.65	66664.5
334	2.000000	1.080973	7.36834e+06	-55339.1	955.818	-29742.1	0.000000	0.000000	7.086974	133.328	NaN	0.000000	0.001648	0.001638	28.0803	40.9299	0.001946	21037.4	1.935320	-179.114	129.906	1.080732	0.051370	0.051129	133.328	21037.4	0.046617	0.082244	1621.13	67021.3
334	2.000000	1.091016	7.36834e+06	-55339.1	955.82	-29742.1	0.000000	0.000000	7.099427	191.931	NaN	0.000000	0.001555	0.001628	28.0797	51.0043	0.001969	25898	8.775889	172.462	191.13	1.090697	0.061413	0.061094	191.931	25898	0.055854	0.111363	1723.46	70903.5
334	2.000000	1.101052	7.36834e+06	-55339.1	955.818	-29742.1	0.000000	0.000000	7.112298	260.844	NaN	0.000000	0.001585	0.001640	28.0796	58.407	0.001886	30960.7	5.389240	174.179	263.159	1.100758	0.071448	0.071155	260.844	30960.7	0.065130	0.144842	1800.88	74325.3
334	2.000000	1.111068	7.36834e+06	-55339.1	955.82	-29742.1	0.000000	0.000000	7.125685	342.802	NaN	0.000000	0.001615	0.001673	28.0807	67.7622	0.001932	35079.8	4.204237	174.253	345.037	1.110678	0.081465	0.081075	342.802	35079.8	0.074136	0.181317	1890.62	75268.2
334	2.000000	1.121129	7.36834e+06	-55339.1	955.82	-29742.1	0.000000	0.000000	7.138951	420.701	NaN	0.000000	0.001530	0.001667	28.0808	75.3735	0.001748	43125	4.616045	171.751	425.964	1.120792	0.091526	0.091189	420.701	43125	0.084210	0.226645	1856.21	82761.6
334	2.000000	1.131185	7.36834e+06	-55339.1	955.818	-29742.1	0.000000	0.000000	7.152633	508.862	NaN	0.000000	0.001582	0.001686	28.081	85.5922	0.001768	48418.9	5.443279	170.865	523.049	1.130745	0.101582	0.101142	508.862	48418.9	0.093699	0.273641	1859.6	84566.3
334	2.000000	1.139069	7.36834e+06	-55339.1	955.819	-29742.1	0.000000	0.000000	7.163981	593.042	NaN	0.000000	0.001559	0.001656	28.0807	89.8344	0.001773	50666.9	2.890377	173.097	597.374	1.138756	0.109466	0.109153	593.042	50666.9	0.100688	0.310883	1907.61	83023.3