File: remote_trans/data/nanoindenter/0828-1/data/Data_2025-08-06,11h17m57s/2025-07-22_16-23-58_1_48.txt
2025-07-22, 16:23:58, 1
Index	Phase	Displacement	Time	Pos X	Pos Y	Pos Z	Rot A	Rot B	Piezo Z	Force A	Force B	Gripper	Voltage A	Voltage B	Temperature	Amplitude force	Amplitude pos	Stiffness	Phase shift	Phase excitation	Force A raw	Displacement raw	HMax	HMax raw	Real Force	Real Stiffness	Contact Depth	Area	Hardness	Reduced Mod.
[#]	[#]	[um]	[s]	[um]	[um]	[um]	[m°]	[m°]	[um]	[uN]	[uN]	[V]	[V]	[V]	[°C]	[uN]	[um]	[N/m]	[°]	[°]	[uN]	[um]	[um]	[um]	[uN]	[N/m]	[um]	[um^2]	[MPa]	[MPa]
48	1.000000	0.002841	7.36551e+06	-41039.1	955.819	-29788.3	0.000000	0.000000	6.002802	0.082254	NaN	0.000000	0.001609	0.001784	28.0798	0.084873	0.001008	84.2272	-139.42	-163.557	0.068352	0.001602	-1.077656	-1.078895	0.082254	84.2272	-1.078389	-2.569664E+14	-3.200957E-16	NaN
48	1.000000	0.042783	7.36551e+06	-41039.1	955.819	-29788.3	0.000000	0.000000	6.042745	0.088465	NaN	0.000000	0.001566	0.001764	28.0805	0.125688	0.001995	62.9938	134.287	-165.554	0.101486	0.041581	-1.037714	-1.038916	0.088465	62.9938	-1.038767	-7.540227E+13	-1.173241E-15	NaN
48	1.000000	0.082805	7.36551e+06	-41039.1	955.819	-29788.3	0.000000	0.000000	6.082765	0.044446	NaN	0.000000	0.001563	0.001737	28.0808	0.050698	0.002009	25.2298	-109.18	-164.491	-0.003432	0.081482	-0.997692	-0.999015	0.044446	25.2298	-0.999013	-2.200286E+13	-2.019997E-15	NaN
48	1.000000	0.122832	7.36551e+06	-41039.1	955.818	-29788.3	0.000000	0.000000	6.122793	0.084662	NaN	0.000000	0.001603	0.001741	28.0814	0.121510	0.002094	58.0391	-23.8388	-164.232	0.001026	0.121558	-0.957665	-0.958939	0.084662	58.0391	-0.958759	-6.311629E+12	-1.341368E-14	NaN
48	1.000000	0.162839	7.36551e+06	-41039.1	955.818	-29788.3	0.000000	0.000000	6.162799	0.067308	NaN	0.000000	0.001664	0.001758	28.0789	0.094070	0.001919	49.0235	-108.699	-164.171	0.180690	0.161537	-0.917658	-0.918960	0.067308	49.0235	-0.918688	-1.817570E+12	-3.703170E-14	NaN
48	1.000000	0.202846	7.36551e+06	-41039.1	955.818	-29788.3	0.000000	0.000000	6.202806	0.036075	NaN	0.000000	0.001633	0.001683	28.0807	0.012497	0.002001	6.243766	101.176	-162.805	-0.068583	0.201563	-0.877651	-0.878934	0.036075	6.243766	-0.881984	-5.801474E+11	-6.218248E-14	NaN
48	1.000000	0.242882	7.36551e+06	-41039.1	955.819	-29788.3	0.000000	0.000000	6.242838	-0.049763	NaN	0.000000	0.001631	0.001664	28.0788	0.103476	0.001890	54.7474	42.2791	-162.403	0.001669	0.241569	-0.837614	-0.838928	-0.049763	54.7474	-0.836933	-1.424742E+11	3.492764E-13	NaN
48	1.000000	0.282846	7.36551e+06	-41039.1	955.819	-29788.3	0.000000	0.000000	6.282805	0.037777	NaN	0.000000	0.001567	0.001700	28.0788	0.084497	0.001955	43.2174	-41.6957	-167.766	0.096681	0.281531	-0.797651	-0.798966	0.037777	43.2174	-0.798307	-4.264628E+10	-8.858132E-13	NaN
48	1.000000	0.322907	7.36551e+06	-41039.1	955.819	-29788.3	0.000000	0.000000	6.322865	-0.011518	NaN	0.000000	0.001573	0.001689	28.0794	0.151427	0.001842	82.2039	-58.4548	-165.928	0.058085	0.321596	-0.757590	-0.758901	-0.011518	82.2039	-0.757485	-1.188726E+10	9.689188E-13	NaN
48	1.000000	0.362923	7.36551e+06	-41039.1	955.819	-29788.3	0.000000	0.000000	6.362882	0.011730	NaN	0.000000	0.001593	0.001732	28.0802	0.162274	0.001927	84.1978	-137.322	-162.354	-0.047995	0.361657	-0.717574	-0.718840	0.011730	84.1978	-0.717678	-3.410411E+9	-3.439373E-12	NaN
48	1.000000	0.402961	7.36551e+06	-41039.1	955.818	-29788.3	0.000000	0.000000	6.402920	0.046630	NaN	0.000000	0.001565	0.001722	28.0807	0.031429	0.001986	15.8228	29.9583	-164.455	0.028780	0.401671	-0.677536	-0.678826	0.046630	15.8228	-0.679747	-1.034524E+9	-4.507386E-11	NaN
48	1.000000	0.442955	7.36551e+06	-41039.1	955.817	-29788.3	0.000000	0.000000	6.442913	-0.002340	NaN	0.000000	0.001647	0.001717	28.0811	0.068071	0.002025	33.6079	-103.306	-167.147	0.008245	0.441673	-0.637542	-0.638824	-0.002340	33.6079	-0.637490	-2.727998E+8	8.577149E-12	NaN
48	1.000000	0.482970	7.36551e+06	-41039.1	955.818	-29788.3	0.000000	0.000000	6.482929	0.027054	NaN	0.000000	0.001560	0.001722	28.0792	0.045424	0.001947	23.3317	70.2826	-166.979	-0.010028	0.481645	-0.597527	-0.598852	0.027054	23.3317	-0.598396	-7.913592E+7	-3.418652E-10	NaN
48	1.000000	0.522999	7.36551e+06	-41039.1	955.818	-29788.3	0.000000	0.000000	6.522958	0.029267	NaN	0.000000	0.001573	0.001738	28.0793	0.093501	0.002039	45.8532	-162.596	-166.376	0.057174	0.521653	-0.557498	-0.558844	0.029267	45.8532	-0.557977	-2.189714E+7	-1.336564E-9	NaN
48	1.000000	0.563016	7.36551e+06	-41039.1	955.817	-29788.3	0.000000	0.000000	6.562975	0.037094	NaN	0.000000	0.001537	0.001751	28.0793	0.117654	0.001989	59.1573	143.267	-166.763	0.028460	0.561737	-0.517481	-0.518760	0.037094	59.1573	-0.517952	-6.09685e+06	-6.084075E-9	NaN
48	1.000000	0.603021	7.36551e+06	-41039.1	955.818	-29788.3	0.000000	0.000000	6.602981	0.042629	NaN	0.000000	0.001597	0.001676	28.0807	0.143109	0.002016	70.9749	-99.8453	-162.926	0.051702	0.601710	-0.477476	-0.478787	0.042629	70.9749	-0.477926	-1.68459e+06	-2.530550E-8	NaN
48	1.000000	0.643062	7.36551e+06	-41039.1	955.819	-29788.3	0.000000	0.000000	6.643024	0.100512	NaN	0.000000	0.001666	0.001676	28.0797	0.111151	0.002082	53.3911	53.2533	-166.808	0.045603	0.641831	-0.437435	-0.438666	0.100512	53.3911	-0.438847	-475428	-2.114129E-7	NaN
48	1.000000	0.683071	7.36551e+06	-41039.1	955.819	-29788.3	0.000000	0.000000	6.683028	-0.012969	NaN	0.000000	0.001631	0.001732	28.0814	0.024193	0.001786	13.5465	141.108	-162.967	-0.003895	0.681770	-0.397426	-0.398727	-0.012969	13.5465	-0.396708	-119956	1.081171E-7	NaN
48	1.000000	0.723080	7.36551e+06	-41039.1	955.818	-29788.3	0.000000	0.000000	6.723038	0.000949	NaN	0.000000	0.001615	0.001685	28.079	0.035116	0.001869	18.7838	84.983	-163.024	0.008659	0.721757	-0.357417	-0.358740	0.000949	18.7838	-0.357455	-32736.6	-2.899592E-8	NaN
48	1.000000	0.763081	7.36551e+06	-41039.1	955.818	-29788.3	0.000000	0.000000	6.763039	-0.009235	NaN	0.000000	0.001605	0.001723	28.0801	0.053108	0.002052	25.8756	-47.6678	-164.218	-0.072844	0.761745	-0.317416	-0.318752	-0.009235	25.8756	-0.317148	-8445.61	1.093522E-6	NaN
48	1.000000	0.803116	7.36552e+06	-41039.1	955.818	-29788.3	0.000000	0.000000	6.803071	-0.046976	NaN	0.000000	0.001624	0.001699	28.0782	0.023555	0.001957	12.0363	-174.996	-163.078	-0.042825	0.801859	-0.277381	-0.278638	-0.046976	12.0363	-0.274454	-1945.96	2.414023E-5	NaN
48	1.000000	0.843130	7.36552e+06	-41039.1	955.819	-29788.3	0.000000	0.000000	6.843087	-0.016484	NaN	0.000000	0.001614	0.001668	28.0805	0.068379	0.001940	35.2495	-64.8575	-164.874	0.004957	0.841835	-0.237367	-0.238662	-0.016484	35.2495	-0.237016	-516.27	3.192865E-5	NaN
48	1.000000	0.883135	7.36552e+06	-41039.1	955.818	-29788.3	0.000000	0.000000	6.883093	-0.006526	NaN	0.000000	0.001615	0.001676	28.0809	0.074590	0.001907	39.1075	25.26	-165.297	0.007338	0.881831	-0.197361	-0.198666	-0.006526	39.1075	-0.197236	-118.627	5.501005E-5	NaN
48	1.000000	0.923159	7.36552e+06	-41039.1	955.819	-29788.3	0.000000	0.000000	6.923116	-0.025703	NaN	0.000000	0.001613	0.001659	28.0824	0.074179	0.001896	39.1219	90.7691	-165.405	0.010230	0.921885	-0.157338	-0.158612	-0.025703	39.1219	-0.156845	-24.0826	0.001067	NaN
48	1.000000	0.963178	7.36552e+06	-41039.1	955.819	-29788.3	0.000000	0.000000	6.963137	0.040148	NaN	0.000000	0.001598	0.001698	28.0804	0.053431	0.002130	25.0811	-6.838684	-164.072	0.014069	0.961868	-0.117319	-0.118629	0.040148	25.0811	-0.118520	-4.509387	-0.008903	NaN
48	1.000000	1.003204	7.36552e+06	-41039.1	955.819	-29788.3	0.000000	0.000000	7.003186	0.603323	NaN	0.000000	0.001666	0.001675	28.0794	0.388848	0.002058	188.974	27.1618	-161.253	0.541769	1.001885	-0.077293	-0.078612	0.603323	188.974	-0.079688	-0.607956	-0.992379	NaN
48	1.000000	1.043210	7.36552e+06	-41039.1	955.82	-29788.3	0.000000	0.000000	7.043207	0.966547	NaN	0.000000	0.001630	0.001720	28.0798	0.484812	0.001999	242.524	22.5512	-168.395	0.945933	1.041896	-0.037287	-0.038601	0.966547	242.524	-0.040276	-0.046104	-20.9645	NaN
48	1.000000	1.083190	7.36552e+06	-41039.1	955.819	-29788.3	0.000000	0.000000	7.083226	1.905625	NaN	0.000000	0.001622	0.001723	28.0813	1.726533	0.001994	865.95	15.6276	-165.157	1.335222	1.081920	0.002693	0.001423	1.905625	865.95	0.001043	0.000795	2396.08	28054.2
48	2.000000	1.098659	7.36552e+06	-41039.1	955.82	-29788.3	0.000000	0.000000	7.099562	23.0026	NaN	0.000000	0.001578	0.001732	28.0796	14.7658	0.001922	7682.89	5.315602	-172.661	22.7037	1.098340	0.018162	0.017843	23.0026	7682.89	0.015917	0.016527	1391.81	54600.8
48	2.000000	1.108639	7.36552e+06	-41039.1	955.82	-29788.3	0.000000	0.000000	7.110400	43.8773	NaN	0.000000	0.001632	0.001733	28.0816	23.7492	0.001854	12811.4	6.205594	-177.287	44.1001	1.108312	0.028142	0.027815	43.8773	12811.4	0.025574	0.032067	1368.29	65364.3
48	2.000000	1.118544	7.36552e+06	-41039.1	955.821	-29788.3	0.000000	0.000000	7.121434	71.3548	NaN	0.000000	0.001613	0.001714	28.0802	32.7897	0.001860	17626.8	7.482388	179.23	69.0501	1.118329	0.038047	0.037832	71.3548	17626.8	0.035011	0.051771	1378.27	70778.9
48	2.000000	1.128598	7.36552e+06	-41039.1	955.819	-29788.3	0.000000	0.000000	7.132827	103.938	NaN	0.000000	0.001614	0.001712	28.0822	42.2188	0.001928	21898.9	4.440865	179.759	105.149	1.128297	0.048101	0.047800	103.938	21898.9	0.044541	0.076290	1362.4	72437
48	2.000000	1.138595	7.36552e+06	-41039.1	955.82	-29788.3	0.000000	0.000000	7.144445	143.375	NaN	0.000000	0.001658	0.001725	28.0794	49.2284	0.001786	27560.1	0.754818	-178.743	143.518	1.138340	0.058098	0.057843	143.375	27560.1	0.054196	0.105822	1354.86	77404.4
48	2.000000	1.148501	7.36552e+06	-41039.1	955.821	-29788.3	0.000000	0.000000	7.156667	199.721	NaN	0.000000	0.001598	0.001707	28.0804	58.5244	0.001811	32322.7	7.835686	173.209	195.771	1.148094	0.068004	0.067597	199.721	32322.7	0.063370	0.138169	1445.48	79446.7
48	2.000000	1.158556	7.36552e+06	-41039.1	955.821	-29788.3	0.000000	0.000000	7.169157	259.001	NaN	0.000000	0.001643	0.001753	28.0788	68.4319	0.001879	36425.2	4.698972	175.461	258.221	1.158259	0.078059	0.077762	259.001	36425.2	0.072726	0.175352	1477.03	79473.1
48	2.000000	1.168463	7.36552e+06	-41039.1	955.822	-29788.3	0.000000	0.000000	7.181910	328.224	NaN	0.000000	0.001612	0.001698	28.083	77.0615	0.001683	45779.4	1.373672	176.699	324.84	1.168259	0.087966	0.087762	328.224	45779.4	0.082589	0.219034	1498.51	89369.2
48	2.000000	1.178555	7.36552e+06	-41039.1	955.82	-29788.3	0.000000	0.000000	7.194460	388.04	NaN	0.000000	0.001619	0.001773	28.0806	85.6567	0.001747	49035.4	4.211812	172.769	388.194	1.178464	0.098058	0.097967	388.04	49035.4	0.092123	0.265546	1461.29	86938.7
48	2.000000	1.188468	7.36552e+06	-41039.1	955.821	-29788.3	0.000000	0.000000	7.208361	485.092	NaN	0.000000	0.001625	0.001774	28.0821	96.6074	0.001931	50041.6	7.647513	170.263	483.263	1.188268	0.107971	0.107771	485.092	50041.6	0.100700	0.310952	1560.02	81989.4
48	2.000000	1.188945	7.36552e+06	-41039.1	955.821	-29788.3	0.000000	0.000000	7.209166	493.065	NaN	0.000000	0.001633	0.001747	28.0921	94.9104	0.001880	50483.1	2.229527	-5.009957	486.335	1.188608	0.108448	0.108111	493.065	50483.1	0.101123	0.313276	1573.9	82405.4