File: remote_trans/data/nanoindenter/0828-1/data/Data_2025-08-06,11h17m57s/2025-07-22_16-23-58_1_495.txt
2025-07-22, 16:23:58, 1
Index	Phase	Displacement	Time	Pos X	Pos Y	Pos Z	Rot A	Rot B	Piezo Z	Force A	Force B	Gripper	Voltage A	Voltage B	Temperature	Amplitude force	Amplitude pos	Stiffness	Phase shift	Phase excitation	Force A raw	Displacement raw	HMax	HMax raw	Real Force	Real Stiffness	Contact Depth	Area	Hardness	Reduced Mod.
[#]	[#]	[um]	[s]	[um]	[um]	[um]	[m°]	[m°]	[um]	[uN]	[uN]	[V]	[V]	[V]	[°C]	[uN]	[um]	[N/m]	[°]	[°]	[uN]	[um]	[um]	[um]	[uN]	[N/m]	[um]	[um^2]	[MPa]	[MPa]
495	1.000000	0.002529	7.36989e+06	-52339.1	1005.82	-29749.6	0.000000	0.000000	6.002819	-0.067824	NaN	0.000000	0.001579	0.001748	28.0818	0.028168	0.000947	29.7355	-48.363	-157.634	-0.079033	0.001228	-1.010116	-1.011417	-0.067824	29.7355	-1.008406	-2.943905E+13	2.303866E-15	NaN
495	1.000000	0.042409	7.36989e+06	-52339.1	1005.82	-29749.6	0.000000	0.000000	6.042702	0.010233	NaN	0.000000	0.001600	0.001824	28.0805	0.071804	0.002020	35.5403	-131.416	-163.993	-0.001020	0.041114	-0.970236	-0.971531	0.010233	35.5403	-0.970452	-9.073075E+12	-1.127841E-15	NaN
495	1.000000	0.082465	7.36989e+06	-52339.1	1005.82	-29749.6	0.000000	0.000000	6.082757	-0.015002	NaN	0.000000	0.001633	0.001796	28.0806	0.079095	0.001941	40.7482	114.705	-164.364	-0.100112	0.081190	-0.930180	-0.931455	-0.015002	40.7482	-0.929904	-2.575749E+12	5.824480E-15	NaN
495	1.000000	0.122462	7.3699e+06	-52339.1	1005.82	-29749.6	0.000000	0.000000	6.122749	-0.119172	NaN	0.000000	0.001632	0.001784	28.0802	0.083339	0.002005	41.5683	165.783	-165.57	0.010811	0.121156	-0.890184	-0.891489	-0.119172	41.5683	-0.888034	-7.003797E+11	1.701532E-13	NaN
495	1.000000	0.162477	7.3699e+06	-52339.1	1005.82	-29749.6	0.000000	0.000000	6.162767	-0.062003	NaN	0.000000	0.001530	0.001784	28.0811	0.038614	0.002019	19.1294	155.766	-166.309	0.019561	0.161202	-0.850168	-0.851443	-0.062003	19.1294	-0.847737	-1.995686E+11	3.106863E-13	NaN
495	1.000000	0.202519	7.3699e+06	-52339.1	1005.82	-29749.6	0.000000	0.000000	6.202815	0.080379	NaN	0.000000	0.001577	0.001672	28.0813	0.063353	0.001989	31.8547	107.623	-162.505	0.027959	0.201205	-0.810126	-0.811440	0.080379	31.8547	-0.812019	-6.545749E+10	-1.227965E-12	NaN
495	1.000000	0.242540	7.3699e+06	-52339.1	1005.82	-29749.6	0.000000	0.000000	6.242831	-0.026622	NaN	0.000000	0.001577	0.001730	28.0814	0.135399	0.001974	68.5932	-4.079030	-164.102	-0.040100	0.241203	-0.770106	-0.771442	-0.026622	68.5932	-0.769815	-1.748977E+10	1.522129E-12	NaN
495	1.000000	0.282517	7.3699e+06	-52339.1	1005.82	-29749.6	0.000000	0.000000	6.282807	-0.055963	NaN	0.000000	0.001596	0.001785	28.0809	0.084767	0.001996	42.4672	133.027	-170.586	-0.118501	0.281249	-0.730128	-0.731397	-0.055963	42.4672	-0.729140	-4.887450E+9	1.145045E-11	NaN
495	1.000000	0.322552	7.3699e+06	-52339.1	1005.82	-29749.6	0.000000	0.000000	6.322842	-0.071751	NaN	0.000000	0.001591	0.001702	28.0805	0.097039	0.002062	47.0592	-155.256	-167.935	-0.103841	0.321272	-0.690093	-0.691373	-0.071751	47.0592	-0.688949	-1.382164E+9	5.191202E-11	NaN
495	1.000000	0.362578	7.3699e+06	-52339.1	1005.82	-29749.6	0.000000	0.000000	6.362871	0.028869	NaN	0.000000	0.001610	0.001745	28.0801	0.068352	0.001884	36.2857	-46.6936	-164.656	0.151195	0.361271	-0.650068	-0.651374	0.028869	36.2857	-0.650664	-4.135641E+8	-6.980491E-11	NaN
495	1.000000	0.402605	7.3699e+06	-52339.1	1005.82	-29749.6	0.000000	0.000000	6.402896	-0.021636	NaN	0.000000	0.001517	0.001672	28.0802	0.042907	0.001973	21.7479	-138.468	-166.628	-0.025058	0.401306	-0.610041	-0.611339	-0.021636	21.7479	-0.609295	-1.117918E+8	1.935352E-10	NaN
495	1.000000	0.442653	7.3699e+06	-52339.1	1005.82	-29749.6	0.000000	0.000000	6.442946	0.007004	NaN	0.000000	0.001557	0.001724	28.0816	0.148189	0.001965	75.4194	58.2989	-164.914	-0.050355	0.441345	-0.569992	-0.571300	0.007004	75.4194	-0.570062	-3.217259E+7	-2.177152E-10	NaN
495	1.000000	0.482660	7.3699e+06	-52339.1	1005.82	-29749.6	0.000000	0.000000	6.482950	-0.070014	NaN	0.000000	0.001585	0.001693	28.0815	0.089036	0.002071	42.9956	43.2219	-165.352	-0.105628	0.481350	-0.529985	-0.531296	-0.070014	42.9956	-0.528764	-8.61799e+06	8.124161E-9	NaN
495	1.000000	0.522642	7.3699e+06	-52339.1	1005.82	-29749.6	0.000000	0.000000	6.522932	-0.074094	NaN	0.000000	0.001646	0.001723	28.0814	0.071119	0.002026	35.1009	-35.6368	-167.354	-0.101549	0.521389	-0.490003	-0.491256	-0.074094	35.1009	-0.488420	-2.36215e+06	3.136730E-8	NaN
495	1.000000	0.562654	7.3699e+06	-52339.1	1005.82	-29749.6	0.000000	0.000000	6.562942	-0.094194	NaN	0.000000	0.001594	0.001765	28.0799	0.030564	0.001891	16.1593	-12.1203	-168.066	-0.068665	0.561373	-0.449992	-0.451272	-0.094194	16.1593	-0.445620	-592421	1.589989E-7	NaN
495	1.000000	0.602671	7.3699e+06	-52339.1	1005.82	-29749.6	0.000000	0.000000	6.602961	-0.049667	NaN	0.000000	0.001627	0.001743	28.0797	0.032163	0.002088	15.405	102.33	-168.536	-0.043181	0.601422	-0.409974	-0.411223	-0.049667	15.405	-0.407556	-171253	2.900231E-7	NaN
495	1.000000	0.642727	7.3699e+06	-52339.1	1005.82	-29749.6	0.000000	0.000000	6.643015	-0.091194	NaN	0.000000	0.001555	0.001684	28.0798	0.116559	0.002129	54.7585	-66.4191	-166.385	-0.016295	0.641432	-0.369919	-0.371214	-0.091194	54.7585	-0.368670	-47529.6	1.918682E-6	NaN
495	1.000000	0.682698	7.3699e+06	-52339.1	1005.82	-29749.6	0.000000	0.000000	6.682990	-0.018576	NaN	0.000000	0.001545	0.001748	28.0801	0.062980	0.002093	30.088	64.5846	-164.696	-0.024822	0.681398	-0.329947	-0.331247	-0.018576	30.088	-0.329484	-12820.3	1.448959E-6	NaN
495	1.000000	0.722709	7.3699e+06	-52339.1	1005.82	-29749.6	0.000000	0.000000	6.722999	-0.042966	NaN	0.000000	0.001562	0.001725	28.0813	0.126577	0.002119	59.732	166.642	-164.808	-0.057325	0.721410	-0.289937	-0.291235	-0.042966	59.732	-0.289397	-3267.92	1.314782E-5	NaN
495	1.000000	0.762771	7.3699e+06	-52339.1	1005.82	-29749.6	0.000000	0.000000	6.763061	-0.065795	NaN	0.000000	0.001567	0.001735	28.0813	0.059736	0.001972	30.2878	-165.056	-168.496	-0.012856	0.761429	-0.249874	-0.251216	-0.065795	30.2878	-0.248245	-772.329	8.519083E-5	NaN
495	1.000000	0.802789	7.3699e+06	-52339.1	1005.82	-29749.6	0.000000	0.000000	6.803078	-0.098936	NaN	0.000000	0.001574	0.001717	28.0815	0.068315	0.002083	32.7988	148.814	-167.297	-0.013740	0.801473	-0.209856	-0.211173	-0.098936	32.7988	-0.207594	-175.301	0.000564	NaN
495	1.000000	0.842791	7.3699e+06	-52339.1	1005.82	-29749.6	0.000000	0.000000	6.843080	-0.069058	NaN	0.000000	0.001547	0.001713	28.0805	0.006873	0.001949	3.525839	-124.637	-164.869	-0.083665	0.841469	-0.169855	-0.171177	-0.069058	3.525839	-0.155165	-22.4674	0.003074	NaN
495	1.000000	0.882795	7.3699e+06	-52339.1	1005.82	-29749.6	0.000000	0.000000	6.883086	-0.042289	NaN	0.000000	0.001573	0.001724	28.0803	0.056571	0.001930	29.3053	-66.4915	-165.016	-0.055525	0.881499	-0.129850	-0.131146	-0.042289	29.3053	-0.128768	-7.211404	0.005864	NaN
495	1.000000	0.922824	7.3699e+06	-52339.1	1005.82	-29749.6	0.000000	0.000000	6.923115	-0.023546	NaN	0.000000	0.001551	0.001705	28.0801	0.030541	0.001794	17.0227	-62.981	-166.902	0.017480	0.921510	-0.089822	-0.091135	-0.023546	17.0227	-0.088784	-1.012009	0.023266	NaN
495	1.000000	0.962818	7.3699e+06	-52339.1	1005.82	-29749.6	0.000000	0.000000	6.963110	9.333021E-5	NaN	0.000000	0.001583	0.001734	28.0802	0.060546	0.002039	29.695	-29.9846	-165.563	-0.026208	0.961515	-0.049827	-0.051131	9.333021E-5	29.695	-0.049830	-0.090175	-0.001035	NaN
495	1.000000	1.002838	7.3699e+06	-52339.1	1005.82	-29749.6	0.000000	0.000000	7.003127	-0.079376	NaN	0.000000	0.001572	0.001701	28.0813	0.051896	0.002006	25.8739	-155.546	-166.708	-0.036319	1.001502	-0.009807	-0.011143	-0.079376	25.8739	-0.007507	-0.004941	16.0635	NaN
495	2.000000	1.031561	7.3699e+06	-52339.1	1005.82	-29749.6	0.000000	0.000000	7.032301	10.8779	NaN	0.000000	0.001535	0.001685	28.0814	11.8598	0.001886	6288.87	12.7769	-176.403	12.6305	1.031253	0.018915	0.018607	10.8779	6288.87	0.017618	0.018937	574.435	41753.5
495	2.000000	1.041453	7.3699e+06	-52339.1	1005.82	-29749.6	0.000000	0.000000	7.042739	24.1455	NaN	0.000000	0.001592	0.001735	28.0812	20.4403	0.001833	11148.8	6.230539	-179.705	22.8757	1.041146	0.028808	0.028501	24.1455	11148.8	0.027184	0.035108	687.743	54362.2
495	2.000000	1.051460	7.3699e+06	-52339.1	1005.82	-29749.6	0.000000	0.000000	7.053500	42.4841	NaN	0.000000	0.001612	0.001727	28.08	29.177	0.001732	16841.9	10.0243	174.745	42.9433	1.051159	0.038815	0.038514	42.4841	16841.9	0.036923	0.056317	754.368	64840
495	2.000000	1.061512	7.3699e+06	-52339.1	1005.82	-29749.6	0.000000	0.000000	7.064493	65.3651	NaN	0.000000	0.001656	0.001704	28.08	38.7989	0.001950	19899.4	6.925231	177.951	68.8219	1.061089	0.048867	0.048444	65.3651	19899.4	0.046403	0.081621	800.832	63637.1
495	2.000000	1.071384	7.3699e+06	-52339.1	1005.82	-29749.6	0.000000	0.000000	7.075875	102.077	NaN	0.000000	0.001622	0.001752	28.0804	50.3715	0.001854	27174.5	8.173540	171.317	99.5092	1.071146	0.058739	0.058500	102.077	27174.5	0.055921	0.111591	914.739	74322.5
495	2.000000	1.081456	7.3699e+06	-52339.1	1005.82	-29749.6	0.000000	0.000000	7.087558	141.242	NaN	0.000000	0.001661	0.001761	28.0812	59.223	0.001902	31144.3	3.432651	176.356	146.339	1.081196	0.068811	0.068551	141.242	31144.3	0.065410	0.145918	967.953	74489.9
495	2.000000	1.091354	7.3699e+06	-52339.1	1005.82	-29749.6	0.000000	0.000000	7.100020	203.599	NaN	0.000000	0.001567	0.001761	28.0813	68.4942	0.001716	39924.5	7.057076	170.086	202.876	1.091031	0.078709	0.078386	203.599	39924.5	0.074884	0.184523	1103.38	84915.6
495	2.000000	1.101319	7.3699e+06	-52339.1	1005.82	-29749.6	0.000000	0.000000	7.112208	257.652	NaN	0.000000	0.001608	0.001775	28.0814	77.3807	0.001821	42484.6	0.533081	176.116	253.187	1.101072	0.088673	0.088427	257.652	42484.6	0.084125	0.226245	1138.81	81604.7
495	2.000000	1.111255	7.3699e+06	-52339.1	1005.82	-29749.6	0.000000	0.000000	7.124706	319.936	NaN	0.000000	0.001604	0.001710	28.0816	87.4031	0.001703	51328.7	0.726215	174.207	314.454	1.111119	0.098610	0.098474	319.936	51328.7	0.093935	0.274862	1163.99	89449.2
495	2.000000	1.121355	7.3699e+06	-52339.1	1005.82	-29749.6	0.000000	0.000000	7.138700	414.624	NaN	0.000000	0.001654	0.001694	28.0803	98.0934	0.001817	53982.8	2.005430	173.361	412.671	1.121040	0.108710	0.108394	414.624	53982.8	0.102949	0.323411	1282.03	86726.4
495	2.000000	1.126295	7.3699e+06	-52339.1	1005.82	-29749.6	0.000000	0.000000	7.145200	452.554	NaN	0.000000	0.001643	0.001687	28.0802	102.606	0.001790	57337.7	4.915994	169.532	448.441	1.126083	0.113649	0.113438	452.554	57337.7	0.107730	0.350656	1290.59	88465.2