File: remote_trans/data/nanoindenter/0828-1/data/Data_2025-08-06,11h17m57s/2025-07-22_16-23-58_1_675.txt
2025-07-22, 16:23:58, 1
Index	Phase	Displacement	Time	Pos X	Pos Y	Pos Z	Rot A	Rot B	Piezo Z	Force A	Force B	Gripper	Voltage A	Voltage B	Temperature	Amplitude force	Amplitude pos	Stiffness	Phase shift	Phase excitation	Force A raw	Displacement raw	HMax	HMax raw	Real Force	Real Stiffness	Contact Depth	Area	Hardness	Reduced Mod.
[#]	[#]	[um]	[s]	[um]	[um]	[um]	[m°]	[m°]	[um]	[uN]	[uN]	[V]	[V]	[V]	[°C]	[uN]	[um]	[N/m]	[°]	[°]	[uN]	[um]	[um]	[um]	[uN]	[N/m]	[um]	[um^2]	[MPa]	[MPa]
675	1.000000	0.002475	7.37165e+06	-43339.1	1005.82	-29779.4	0.000000	0.000000	6.002800	-0.024038	NaN	0.000000	0.001685	0.001662	28.0815	0.075791	0.000905	83.7518	-146.3	-173.73	0.015761	0.001230	-1.136664	-1.137910	-0.024038	83.7518	-1.136449	-1.545671E+15	1.555185E-17	NaN
675	1.000000	0.044427	7.37165e+06	-43339.1	1005.82	-29779.4	0.000000	0.000000	6.044750	-0.081794	NaN	0.000000	0.001608	0.001646	28.0814	0.059822	0.001962	30.4907	-130.619	13.8735	-0.094820	0.043075	-1.094713	-1.096064	-0.081794	30.4907	-1.092701	-4.000125E+14	2.044788E-16	NaN
675	1.000000	0.086439	7.37165e+06	-43339.1	1005.82	-29779.4	0.000000	0.000000	6.086764	-0.008421	NaN	0.000000	0.001603	0.001679	28.0813	0.032193	0.002029	15.8664	156.455	-172.652	-0.073020	0.085110	-1.052701	-1.054030	-0.008421	15.8664	-1.052303	-1.146496E+14	7.345300E-17	NaN
675	1.000000	0.128450	7.37165e+06	-43339.1	1005.82	-29779.4	0.000000	0.000000	6.128775	-0.007427	NaN	0.000000	0.001617	0.001667	28.0828	0.091328	0.002050	44.5609	-35.0673	13.4724	-0.087228	0.127097	-1.010690	-1.012043	-0.007427	44.5609	-1.010565	-3.147638E+13	2.359473E-16	NaN
675	1.000000	0.170464	7.37165e+06	-43339.1	1005.82	-29779.4	0.000000	0.000000	6.170788	-0.030054	NaN	0.000000	0.001647	0.001702	28.0826	0.063850	0.002011	31.7513	35.7387	-169.742	0.060531	0.169127	-0.968676	-0.970013	-0.030054	31.7513	-0.967966	-8.399413E+12	3.578110E-15	NaN
675	1.000000	0.212465	7.37165e+06	-43339.1	1005.82	-29779.4	0.000000	0.000000	6.212790	-0.019344	NaN	0.000000	0.001621	0.001696	28.0825	0.031411	0.001956	16.0603	-170.103	15.5949	0.018444	0.211224	-0.926674	-0.927915	-0.019344	16.0603	-0.925771	-2.265257E+12	8.539584E-15	NaN
675	1.000000	0.254504	7.37165e+06	-43339.1	1005.82	-29779.4	0.000000	0.000000	6.254824	-0.149199	NaN	0.000000	0.001602	0.001674	28.0826	0.064371	0.001886	34.1223	41.4462	-167.493	-0.052340	0.253198	-0.884636	-0.885942	-0.149199	34.1223	-0.881357	-5.689216E+11	2.622485E-13	NaN
675	1.000000	0.296519	7.37165e+06	-43339.1	1005.82	-29779.4	0.000000	0.000000	6.296843	-0.031792	NaN	0.000000	0.001612	0.001644	28.0815	0.087456	0.002143	40.8144	45.6211	12.7769	-0.015879	0.295180	-0.842621	-0.843959	-0.031792	40.8144	-0.842037	-1.670650E+11	1.902960E-13	NaN
675	1.000000	0.338551	7.37165e+06	-43339.1	1005.82	-29779.4	0.000000	0.000000	6.338878	0.016800	NaN	0.000000	0.001582	0.001698	28.0817	0.062311	0.002016	30.9071	27.0932	-164.529	-0.019779	0.337238	-0.800588	-0.801902	0.016800	30.9071	-0.800996	-4.638543E+10	-3.621922E-13	NaN
675	1.000000	0.380542	7.37165e+06	-43339.1	1005.82	-29779.4	0.000000	0.000000	6.380864	-0.104363	NaN	0.000000	0.001634	0.001661	28.0816	0.047267	0.001789	26.4262	-61.9895	13.0371	-0.058514	0.379144	-0.758597	-0.759996	-0.104363	26.4262	-0.755635	-1.121801E+10	9.303177E-12	NaN
675	1.000000	0.422596	7.37165e+06	-43339.1	1005.82	-29779.4	0.000000	0.000000	6.422919	-0.081917	NaN	0.000000	0.001630	0.001678	28.0826	0.048082	0.002043	23.5343	-75.8537	-167.926	-0.109919	0.421249	-0.716543	-0.717891	-0.081917	23.5343	-0.713933	-3.031889E+9	2.701834E-11	NaN
675	1.000000	0.464623	7.37165e+06	-43339.1	1005.82	-29779.4	0.000000	0.000000	6.464947	-0.042468	NaN	0.000000	0.001731	0.001712	28.0828	0.052971	0.002023	26.1887	7.725753	13.0035	-0.071416	0.463226	-0.674517	-0.675914	-0.042468	26.1887	-0.673300	-8.444155E+8	5.029287E-11	NaN
675	1.000000	0.506609	7.37165e+06	-43339.1	1005.82	-29779.4	0.000000	0.000000	6.506931	-0.071075	NaN	0.000000	0.001671	0.001668	28.0827	0.052885	0.001987	26.6138	158.635	-167.336	-0.025501	0.505326	-0.632531	-0.633814	-0.071075	26.6138	-0.630528	-2.189156E+8	3.246705E-10	NaN
675	1.000000	0.548637	7.37165e+06	-43339.1	1005.82	-29779.4	0.000000	0.000000	6.548962	-0.034782	NaN	0.000000	0.001679	0.001677	28.0813	0.014533	0.002002	7.257986	30.4465	13.4395	0.003700	0.547284	-0.590502	-0.591855	-0.034782	7.257986	-0.586908	-5.495833E+7	6.328819E-10	NaN
675	1.000000	0.590660	7.37165e+06	-43339.1	1005.82	-29779.4	0.000000	0.000000	6.590984	-0.043633	NaN	0.000000	0.001684	0.001668	28.0815	0.074992	0.002033	36.8944	-170.038	-166.403	-0.061945	0.589353	-0.548480	-0.549786	-0.043633	36.8944	-0.547593	-1.572577E+7	2.774608E-9	NaN
675	1.000000	0.632705	7.37165e+06	-43339.1	1005.82	-29779.4	0.000000	0.000000	6.633030	-0.031368	NaN	0.000000	0.001673	0.001646	28.0817	0.033802	0.002032	16.6331	2.459111	13.2723	0.011093	0.631300	-0.506435	-0.507839	-0.031368	16.6331	-0.505020	-4.02741e+06	7.788639E-9	NaN
675	1.000000	0.674686	7.37166e+06	-43339.1	1005.82	-29779.4	0.000000	0.000000	6.675012	0.010453	NaN	0.000000	0.001701	0.001625	28.0815	0.071892	0.002012	35.7311	-164.231	-168.139	-0.046099	0.673441	-0.464454	-0.465698	0.010453	35.7311	-0.464673	-1.09814e+06	-9.518733E-9	NaN
675	1.000000	0.716714	7.37166e+06	-43339.1	1005.82	-29779.4	0.000000	0.000000	6.717038	-0.034002	NaN	0.000000	0.001643	0.001680	28.0831	0.025548	0.002020	12.6494	-158.629	8.526515	-0.050077	0.715299	-0.422426	-0.423841	-0.034002	12.6494	-0.420410	-260752	1.303990E-7	NaN
675	1.000000	0.758705	7.37166e+06	-43339.1	1005.82	-29779.4	0.000000	0.000000	6.759026	-0.117750	NaN	0.000000	0.001659	0.001665	28.0831	0.078199	0.001966	39.7673	26.7937	-167.202	-0.106576	0.757442	-0.380435	-0.381698	-0.117750	39.7673	-0.378214	-65200.3	1.805971E-6	NaN
675	1.000000	0.800743	7.37166e+06	-43339.1	1005.82	-29779.4	0.000000	0.000000	6.801069	-0.014368	NaN	0.000000	0.001670	0.001645	28.0832	0.069824	0.002021	34.5514	-80.9839	14.2677	-0.008372	0.799395	-0.338396	-0.339744	-0.014368	34.5514	-0.338084	-17124.6	8.390286E-7	NaN
675	1.000000	0.842747	7.37166e+06	-43339.1	1005.82	-29779.4	0.000000	0.000000	6.843072	-0.014552	NaN	0.000000	0.001633	0.001717	28.0821	0.103685	0.002052	50.5214	-13.9953	-163.209	-0.031784	0.841427	-0.296393	-0.297713	-0.014552	50.5214	-0.296177	-4127.19	3.525981E-6	NaN
675	1.000000	0.884765	7.37166e+06	-43339.1	1005.82	-29779.4	0.000000	0.000000	6.885087	-0.090417	NaN	0.000000	0.001633	0.001645	28.0819	0.028679	0.002069	13.8618	-132.896	10.0062	-0.133109	0.883375	-0.254375	-0.255765	-0.090417	13.8618	-0.249483	-807.172	0.000112	NaN
675	1.000000	0.926819	7.37166e+06	-43339.1	1005.82	-29779.4	0.000000	0.000000	6.927144	-0.021301	NaN	0.000000	0.001636	0.001632	28.082	0.120001	0.002054	58.4274	-67.354	-168.995	-0.029930	0.925451	-0.212320	-0.213689	-0.021301	58.4274	-0.212047	-206.977	0.000103	NaN
675	1.000000	0.968806	7.37166e+06	-43339.1	1005.82	-29779.4	0.000000	0.000000	6.969129	-0.068143	NaN	0.000000	0.001687	0.001720	28.0834	0.054679	0.002030	26.9344	130.628	13.4324	-0.014827	0.967444	-0.170333	-0.171696	-0.068143	26.9344	-0.168436	-38.5841	0.001766	NaN
675	1.000000	1.010806	7.37166e+06	-43339.1	1005.82	-29779.4	0.000000	0.000000	7.011130	-0.033197	NaN	0.000000	0.001703	0.001702	28.083	0.049843	0.001928	25.8522	128.714	-165.681	-0.090181	1.009512	-0.128334	-0.129627	-0.033197	25.8522	-0.127371	-6.771668	0.004902	NaN
675	1.000000	1.052838	7.37166e+06	-43339.1	1005.82	-29779.4	0.000000	0.000000	7.053162	-0.051020	NaN	0.000000	0.001703	0.001697	28.0831	0.059952	0.002039	29.4001	97.2305	17.049	-0.039069	1.051434	-0.086301	-0.087706	-0.051020	29.4001	-0.085000	-0.821632	0.062096	NaN
675	1.000000	1.094836	7.37166e+06	-43339.1	1005.82	-29779.4	0.000000	0.000000	7.095162	-0.002158	NaN	0.000000	0.001709	0.001701	28.0818	0.116632	0.001935	60.2817	63.1533	-168.223	-0.029463	1.093507	-0.044304	-0.045633	-0.002158	60.2817	-0.044277	-0.061078	0.035332	NaN
675	1.000000	1.136861	7.37166e+06	-43339.1	1005.82	-29779.4	0.000000	0.000000	7.137249	1.505145	NaN	0.000000	0.001560	0.001712	28.0816	2.253756	0.001893	1190.39	14.3207	8.423552	0.500467	1.135469	-0.002279	-0.003670	1.505145	1190.39	-0.003227	-0.002272	-662.517	NaN
675	2.000000	1.151501	7.37166e+06	-43339.1	1005.82	-29779.4	0.000000	0.000000	7.152865	25.2612	NaN	0.000000	0.001628	0.001736	28.0815	18.6705	0.001772	10534.4	5.854762	-177.054	25.1423	1.151217	0.012361	0.012077	25.2612	10534.4	0.010563	0.009814	2574.09	97155.1
675	2.000000	1.161945	7.37166e+06	-43339.1	1005.82	-29779.4	0.000000	0.000000	7.164525	54.8411	NaN	0.000000	0.001581	0.001701	28.0815	27.7448	0.001869	14843.5	1.239070	4.299974	52.1226	1.161673	0.022806	0.022533	54.8411	14843.5	0.020035	0.022597	2426.95	90216.5
675	2.000000	1.172457	7.37166e+06	-43339.1	1005.82	-29779.4	0.000000	0.000000	7.176643	93.9238	NaN	0.000000	0.001615	0.001681	28.0827	37.4675	0.001718	21810.7	5.168919	177.774	93.6358	1.172166	0.033317	0.033026	93.9238	21810.7	0.030088	0.040926	2294.99	98502
675	2.000000	1.182892	7.37166e+06	-43339.1	1005.82	-29779.4	0.000000	0.000000	7.188666	132.553	NaN	0.000000	0.001620	0.001711	28.083	45.7642	0.001581	28939.6	0.964076	-1.726859	129.265	1.182656	0.043753	0.043516	132.553	28939.6	0.040317	0.064851	2043.95	103826
675	2.000000	1.193511	7.37166e+06	-43339.1	1005.82	-29779.4	0.000000	0.000000	7.201303	181.659	NaN	0.000000	0.001628	0.001691	28.0828	57.2045	0.001799	31791.1	6.439104	173.252	183.625	1.193088	0.054371	0.053948	181.659	31791.1	0.050085	0.092678	1960.12	95409.5
675	2.000000	1.203880	7.37166e+06	-43339.1	1005.82	-29779.4	0.000000	0.000000	7.214135	241.561	NaN	0.000000	0.001623	0.001731	28.0815	67.5657	0.001833	36867.2	6.967820	-8.944429	240.614	1.203517	0.064740	0.064377	241.561	36867.2	0.059826	0.125186	1929.61	95199.7
675	2.000000	1.214415	7.37166e+06	-43339.1	1005.82	-29779.4	0.000000	0.000000	7.227548	311.594	NaN	0.000000	0.001675	0.001668	28.0817	77.294	0.001957	39493.2	5.734974	172.646	312.703	1.213988	0.075276	0.074849	311.594	39493.2	0.069358	0.161488	1929.52	89789.5
675	2.000000	1.224886	7.37166e+06	-43339.1	1005.82	-29779.4	0.000000	0.000000	7.241260	390.45	NaN	0.000000	0.001637	0.001667	28.0818	87.8829	0.001823	48197.7	6.698740	-10.8583	387.819	1.224490	0.085746	0.085350	390.45	48197.7	0.079671	0.205636	1898.74	97106.9
675	2.000000	1.235336	7.37166e+06	-43339.1	1005.82	-29779.4	0.000000	0.000000	7.255476	482.062	NaN	0.000000	0.001637	0.001690	28.083	95.762	0.001755	54568.6	2.588468	172.431	480.295	1.235081	0.096196	0.095941	482.062	54568.6	0.089571	0.252688	1907.74	99180.1
675	2.000000	1.240873	7.37166e+06	-43339.1	1005.82	-29779.4	0.000000	0.000000	7.262758	524.516	NaN	0.000000	0.001645	0.001712	28.0829	103.606	0.001802	57480.5	5.448865	-11.0842	520.667	1.240607	0.101734	0.101468	524.516	57480.5	0.094890	0.279827	1874.43	99277.1