File: remote_trans/data/nanoindenter/0828-1/data/Data_2025-08-06,11h17m57s/2025-07-22_16-23-58_1_736.txt
2025-07-22, 16:23:58, 1
Index	Phase	Displacement	Time	Pos X	Pos Y	Pos Z	Rot A	Rot B	Piezo Z	Force A	Force B	Gripper	Voltage A	Voltage B	Temperature	Amplitude force	Amplitude pos	Stiffness	Phase shift	Phase excitation	Force A raw	Displacement raw	HMax	HMax raw	Real Force	Real Stiffness	Contact Depth	Area	Hardness	Reduced Mod.
[#]	[#]	[um]	[s]	[um]	[um]	[um]	[m°]	[m°]	[um]	[uN]	[uN]	[V]	[V]	[V]	[°C]	[uN]	[um]	[N/m]	[°]	[°]	[uN]	[um]	[um]	[um]	[uN]	[N/m]	[um]	[um^2]	[MPa]	[MPa]
736	1.000000	0.002305	7.37225e+06	-40289.1	1005.82	-29790.6	0.000000	0.000000	6.002830	-0.049331	NaN	0.000000	0.001623	0.001711	28.0828	0.057976	0.000951	60.9556	-123.219	-162.67	-0.036491	0.001001	-1.066029	-1.067333	-0.049331	60.9556	-1.065422	-1.720612E+14	2.867058E-16	NaN
736	1.000000	0.042229	7.37225e+06	-40289.1	1005.82	-29790.6	0.000000	0.000000	6.042755	-0.016478	NaN	0.000000	0.001588	0.001753	28.081	0.095790	0.001974	48.5239	-24.1517	-163.82	-0.001264	0.040946	-1.026105	-1.027388	-0.016478	48.5239	-1.025850	-5.054275E+13	3.260215E-16	NaN
736	1.000000	0.082211	7.37225e+06	-40289.1	1005.82	-29790.6	0.000000	0.000000	6.082738	-0.002763	NaN	0.000000	0.001597	0.001731	28.0816	0.091647	0.001938	47.2934	-128.253	-159.726	-0.034923	0.080933	-0.986123	-0.987401	-0.002763	47.2934	-0.986079	-1.473334E+13	1.875379E-16	NaN
736	1.000000	0.122260	7.37225e+06	-40289.1	1005.82	-29790.6	0.000000	0.000000	6.122786	-0.031753	NaN	0.000000	0.001608	0.001707	28.0823	0.044901	0.001992	22.5382	-122.45	-162.105	-0.064515	0.120956	-0.946074	-0.947378	-0.031753	22.5382	-0.945017	-4.119297E+12	7.708370E-15	NaN
736	1.000000	0.162276	7.37225e+06	-40289.1	1005.82	-29790.6	0.000000	0.000000	6.162802	0.001347	NaN	0.000000	0.001596	0.001708	28.0816	0.039509	0.002062	19.1618	167.879	-163.282	0.074407	0.160979	-0.906059	-0.907355	0.001347	19.1618	-0.906111	-1.229241E+12	-1.096180E-15	NaN
736	1.000000	0.202274	7.37225e+06	-40289.1	1005.82	-29790.6	0.000000	0.000000	6.202800	-0.013573	NaN	0.000000	0.001636	0.001744	28.0829	0.042962	0.001871	22.9569	-36.5653	-163.16	-0.011606	0.200983	-0.866060	-0.867351	-0.013573	22.9569	-0.865617	-3.484472E+11	3.895175E-14	NaN
736	1.000000	0.242272	7.37225e+06	-40289.1	1005.82	-29790.6	0.000000	0.000000	6.242799	0.016233	NaN	0.000000	0.001598	0.001721	28.0828	0.136987	0.002056	66.631	-83.3269	-164.508	0.059982	0.241020	-0.826062	-0.827314	0.016233	66.631	-0.826245	-1.020665E+11	-1.590400E-13	NaN
736	1.000000	0.282321	7.37226e+06	-40289.1	1005.82	-29790.6	0.000000	0.000000	6.282848	0.008146	NaN	0.000000	0.001597	0.001737	28.0828	0.080147	0.001989	40.2991	134.685	-165.806	0.027993	0.281091	-0.786013	-0.787244	0.008146	40.2991	-0.786165	-2.917342E+10	-2.792270E-13	NaN
736	1.000000	0.322305	7.37226e+06	-40289.1	1005.82	-29790.6	0.000000	0.000000	6.322832	0.012363	NaN	0.000000	0.001577	0.001736	28.0816	0.095535	0.002041	46.803	-160.915	-164.829	-0.002085	0.321029	-0.746029	-0.747305	0.012363	46.803	-0.746227	-8.353283E+9	-1.480062E-12	NaN
736	1.000000	0.362371	7.37226e+06	-40289.1	1005.82	-29790.6	0.000000	0.000000	6.362899	0.038417	NaN	0.000000	0.001598	0.001715	28.0814	0.103433	0.002041	50.6775	-78.2557	-160.795	0.032529	0.361065	-0.705964	-0.707269	0.038417	50.6775	-0.706532	-2.402810E+9	-1.598850E-11	NaN
736	1.000000	0.402357	7.37226e+06	-40289.1	1005.82	-29790.6	0.000000	0.000000	6.402883	-0.026963	NaN	0.000000	0.001577	0.001732	28.0815	0.050669	0.001947	26.0266	-3.891286	-168.43	0.017256	0.401054	-0.665977	-0.667280	-0.026963	26.0266	-0.665200	-6.541606E+8	4.121826E-11	NaN
736	1.000000	0.442377	7.37226e+06	-40289.1	1005.82	-29790.6	0.000000	0.000000	6.442898	-0.131991	NaN	0.000000	0.001612	0.001724	28.0816	0.064508	0.001968	32.7771	-0.342279	-166.135	-0.156384	0.441031	-0.625958	-0.627303	-0.131991	32.7771	-0.622937	-1.721887E+8	7.665485E-10	NaN
736	1.000000	0.482408	7.37226e+06	-40289.1	1005.82	-29790.6	0.000000	0.000000	6.482933	-0.028964	NaN	0.000000	0.001586	0.001707	28.0827	0.013648	0.001983	6.884033	163.301	-162.51	0.040191	0.481055	-0.585927	-0.587279	-0.028964	6.884033	-0.582771	-4.819083E+7	6.010193E-10	NaN
736	1.000000	0.522420	7.37226e+06	-40289.1	1005.82	-29790.6	0.000000	0.000000	6.522949	0.045651	NaN	0.000000	0.001663	0.001728	28.0828	0.046371	0.001992	23.2756	-68.1996	-168.997	0.031782	0.521133	-0.545914	-0.547201	0.045651	23.2756	-0.547385	-1.562176E+7	-2.922294E-9	NaN
736	1.000000	0.562442	7.37226e+06	-40289.1	1005.82	-29790.6	0.000000	0.000000	6.562966	-0.063571	NaN	0.000000	0.001644	0.001700	28.0828	0.096217	0.001980	48.5892	45.6364	-164.504	-0.055251	0.561144	-0.505892	-0.507190	-0.063571	48.5892	-0.504911	-4.01331e+06	1.584010E-8	NaN
736	1.000000	0.602424	7.37226e+06	-40289.1	1005.82	-29790.6	0.000000	0.000000	6.602950	-0.018970	NaN	0.000000	0.001631	0.001727	28.0816	0.060987	0.002006	30.4052	121.726	-167.254	0.015111	0.601162	-0.465910	-0.467172	-0.018970	30.4052	-0.465442	-1.12578e+06	1.685052E-8	NaN
736	1.000000	0.642476	7.37226e+06	-40289.1	1005.82	-29790.6	0.000000	0.000000	6.643003	0.020549	NaN	0.000000	0.001668	0.001694	28.0817	0.088222	0.002023	43.613	16.2718	-163.901	-0.032147	0.641179	-0.425858	-0.427155	0.020549	43.613	-0.426212	-315095	-6.521402E-8	NaN
736	1.000000	0.682461	7.37226e+06	-40289.1	1005.82	-29790.6	0.000000	0.000000	6.682981	-0.143097	NaN	0.000000	0.001629	0.001677	28.0817	0.039305	0.002034	19.32	-142.529	-165.627	-0.098186	0.681163	-0.385874	-0.387171	-0.143097	19.32	-0.380318	-69897.2	2.047256E-6	NaN
736	1.000000	0.722543	7.37226e+06	-40289.1	1005.82	-29790.6	0.000000	0.000000	6.723070	0.013725	NaN	0.000000	0.001626	0.001690	28.0831	0.019549	0.002044	9.564154	164.276	-162.175	0.005964	0.721195	-0.345791	-0.347139	0.013725	9.564154	-0.346868	-22988.4	-5.970395E-7	NaN
736	1.000000	0.762560	7.37226e+06	-40289.1	1005.82	-29790.6	0.000000	0.000000	6.763086	-0.007081	NaN	0.000000	0.001623	0.001692	28.0826	0.024944	0.002035	12.2582	-85.1139	-161.55	-0.005724	0.761160	-0.305775	-0.307174	-0.007081	12.2582	-0.305341	-5649.63	1.253443E-6	NaN
736	1.000000	0.802545	7.37226e+06	-40289.1	1005.82	-29790.6	0.000000	0.000000	6.803069	-0.052981	NaN	0.000000	0.001622	0.001764	28.0829	0.067517	0.001910	35.352	35.3495	-161.756	-0.040340	0.801225	-0.265789	-0.267109	-0.052981	35.352	-0.264665	-1381.27	3.835644E-5	NaN
736	1.000000	0.842566	7.37226e+06	-40289.1	1005.82	-29790.6	0.000000	0.000000	6.843090	-0.046601	NaN	0.000000	0.001631	0.001687	28.0828	0.106982	0.001964	54.4851	-173.163	-161.224	-0.042269	0.841232	-0.225769	-0.227103	-0.046601	54.4851	-0.225127	-335.24	0.000139	NaN
736	1.000000	0.882602	7.37226e+06	-40289.1	1005.82	-29790.6	0.000000	0.000000	6.883128	-0.014975	NaN	0.000000	0.001641	0.001697	28.0814	0.104695	0.001973	53.0738	-147.95	-164.586	0.036674	0.881304	-0.185733	-0.187030	-0.014975	53.0738	-0.185521	-75.6678	0.000198	NaN
736	1.000000	0.922569	7.37226e+06	-40289.1	1005.82	-29790.6	0.000000	0.000000	6.923090	-0.139049	NaN	0.000000	0.001622	0.001718	28.0815	0.080210	0.002068	38.7831	130.02	-168.06	-0.113281	0.921278	-0.145766	-0.147057	-0.139049	38.7831	-0.143077	-13.5046	0.010296	NaN
736	1.000000	0.962629	7.37226e+06	-40289.1	1005.82	-29790.6	0.000000	0.000000	6.963154	-0.044255	NaN	0.000000	0.001633	0.001699	28.0817	0.064018	0.002100	30.4834	134.218	-162.153	-0.043576	0.961288	-0.105705	-0.107046	-0.044255	30.4834	-0.104617	-2.306120	0.019190	NaN
736	1.000000	1.002619	7.37226e+06	-40289.1	1005.82	-29790.6	0.000000	0.000000	7.003145	-0.009125	NaN	0.000000	0.001610	0.001697	28.083	0.048938	0.002028	24.1308	-106.888	-164.524	0.026792	1.001308	-0.065715	-0.067026	-0.009125	24.1308	-0.065432	-0.256171	0.035620	NaN
736	1.000000	1.042624	7.37226e+06	-40289.1	1005.82	-29790.6	0.000000	0.000000	7.043169	0.457753	NaN	0.000000	0.001644	0.001723	28.0832	0.626537	0.002167	289.185	18.1741	-164.984	0.237331	1.041288	-0.025711	-0.027046	0.457753	289.185	-0.026898	-0.018935	-24.1746	NaN
736	2.000000	1.076221	7.37226e+06	-40289.1	1005.82	-29790.6	0.000000	0.000000	7.077090	8.341059	NaN	0.000000	0.001592	0.001735	28.0832	6.559027	0.001820	3604.72	6.862556	-168.802	8.329735	1.075956	0.007886	0.007622	8.341059	3604.72	0.006151	0.005208	1601.48	45634.6
736	2.000000	1.086174	7.37226e+06	-40289.1	1005.82	-29790.6	0.000000	0.000000	7.087438	17.9434	NaN	0.000000	0.001652	0.001722	28.0832	14.5593	0.001817	8013.14	8.018721	-174.824	18.5246	1.085841	0.017840	0.017507	17.9434	8013.14	0.016160	0.016864	1064.02	56376.6
736	2.000000	1.096154	7.37226e+06	-40289.1	1005.82	-29790.6	0.000000	0.000000	7.098167	36.1738	NaN	0.000000	0.001586	0.001766	28.0816	25.0184	0.001842	13579	6.900592	-177.183	37.3922	1.095840	0.027820	0.027506	36.1738	13579	0.025822	0.032528	1112.09	68788.4
736	2.000000	1.106098	7.37226e+06	-40289.1	1005.82	-29790.6	0.000000	0.000000	7.109346	66.2183	NaN	0.000000	0.001600	0.001708	28.082	34.9992	0.001781	19651.6	4.161071	-179.651	65.0653	1.105795	0.037764	0.037461	66.2183	19651.6	0.035236	0.052298	1266.17	78510.7
736	2.000000	1.116124	7.37226e+06	-40289.1	1005.82	-29790.6	0.000000	0.000000	7.120790	100.719	NaN	0.000000	0.001617	0.001717	28.0817	43.7775	0.001763	24835.5	3.156732	178.873	99.8546	1.115863	0.047790	0.047529	100.719	24835.5	0.044748	0.076874	1310.18	81838.4
736	2.000000	1.126097	7.37226e+06	-40289.1	1005.82	-29790.6	0.000000	0.000000	7.132624	146.011	NaN	0.000000	0.001592	0.001742	28.083	52.4162	0.001836	28555	0.757413	-179.24	144.314	1.125821	0.057763	0.057486	146.011	28555	0.053928	0.104940	1391.37	80535
736	2.000000	1.136002	7.37226e+06	-40289.1	1005.82	-29790.6	0.000000	0.000000	7.145231	211.76	NaN	0.000000	0.001635	0.001707	28.0831	61.7644	0.001671	36961.7	1.499463	178.675	207.031	1.135624	0.067667	0.067289	211.76	36961.7	0.063371	0.138171	1532.59	90848.1
736	2.000000	1.146059	7.37226e+06	-40289.1	1005.82	-29790.6	0.000000	0.000000	7.157942	276.366	NaN	0.000000	0.001624	0.001656	28.0827	72.7967	0.001670	43599.4	2.065539	176.4	275.264	1.145658	0.077724	0.077324	276.366	43599.4	0.072970	0.176380	1566.88	94848.3
736	2.000000	1.156009	7.37226e+06	-40289.1	1005.82	-29790.6	0.000000	0.000000	7.169975	327.029	NaN	0.000000	0.001591	0.001765	28.0814	82.2294	0.001808	45475.1	2.764271	175.613	325.238	1.155674	0.087675	0.087340	327.029	45475.1	0.082281	0.217602	1502.87	89066.7
736	2.000000	1.166073	7.37226e+06	-40289.1	1005.82	-29790.6	0.000000	0.000000	7.182655	390.679	NaN	0.000000	0.001602	0.001688	28.0811	90.6445	0.001872	48414.6	5.884431	171.671	391.012	1.165834	0.097739	0.097499	390.679	48414.6	0.091687	0.263329	1483.62	86198.7
736	2.000000	1.172495	7.37226e+06	-40289.1	1005.82	-29790.6	0.000000	0.000000	7.190982	437.04	NaN	0.000000	0.001639	0.001720	28.0813	95.8627	0.001865	51393.5	4.641730	-7.094724	433.624	1.172167	0.104161	0.103833	437.04	51393.5	0.097783	0.295133	1480.82	86431.6