File: remote_trans/data/nanoindenter/0828-1/data/Data_2025-08-06,11h17m57s/2025-07-22_16-23-58_1_737.txt
2025-07-22, 16:23:58, 1
Index	Phase	Displacement	Time	Pos X	Pos Y	Pos Z	Rot A	Rot B	Piezo Z	Force A	Force B	Gripper	Voltage A	Voltage B	Temperature	Amplitude force	Amplitude pos	Stiffness	Phase shift	Phase excitation	Force A raw	Displacement raw	HMax	HMax raw	Real Force	Real Stiffness	Contact Depth	Area	Hardness	Reduced Mod.
[#]	[#]	[um]	[s]	[um]	[um]	[um]	[m°]	[m°]	[um]	[uN]	[uN]	[V]	[V]	[V]	[°C]	[uN]	[um]	[N/m]	[°]	[°]	[uN]	[um]	[um]	[um]	[uN]	[N/m]	[um]	[um^2]	[MPa]	[MPa]
737	1.000000	0.002834	7.37226e+06	-40239.1	1005.82	-29790.8	0.000000	0.000000	6.002772	0.060016	NaN	0.000000	0.001643	0.001742	28.0824	0.008078	0.000922	8.759962	-39.1143	-156.575	0.006775	0.001582	-1.025014	-1.026267	0.060016	8.759962	-1.030152	-5.774701E+13	-1.039290E-15	NaN
737	1.000000	0.042814	7.37226e+06	-40239.1	1005.82	-29790.8	0.000000	0.000000	6.042751	0.025185	NaN	0.000000	0.001642	0.001735	28.0812	0.136177	0.002034	66.9601	12.3204	-164.5	0.015928	0.041517	-0.985034	-0.986331	0.025185	66.9601	-0.985316	-1.438873E+13	-1.750358E-15	NaN
737	1.000000	0.082813	7.37226e+06	-40239.1	1005.82	-29790.8	0.000000	0.000000	6.082748	-0.025378	NaN	0.000000	0.001609	0.001714	28.0818	0.075698	0.001962	38.5876	15.8499	-163.587	-0.035104	0.081503	-0.945035	-0.946345	-0.025378	38.5876	-0.944542	-4.058895E+12	6.252346E-15	NaN
737	1.000000	0.122828	7.37226e+06	-40239.1	1005.82	-29790.8	0.000000	0.000000	6.122764	0.017824	NaN	0.000000	0.001643	0.001731	28.0815	0.037548	0.002069	18.149	-157.08	-163.697	0.029016	0.121546	-0.905020	-0.906302	0.017824	18.149	-0.905757	-1.215756E+12	-1.466119E-14	NaN
737	1.000000	0.162830	7.37226e+06	-40239.1	1005.82	-29790.8	0.000000	0.000000	6.162765	-0.011987	NaN	0.000000	0.001621	0.001739	28.0824	0.086884	0.001982	43.84	-63.2912	-162.786	-0.054006	0.161510	-0.865019	-0.866338	-0.011987	43.84	-0.864814	-3.398349E+11	3.527356E-14	NaN
737	1.000000	0.202866	7.37226e+06	-40239.1	1005.82	-29790.8	0.000000	0.000000	6.202803	0.027681	NaN	0.000000	0.001648	0.001723	28.0824	0.182260	0.002001	91.1059	57.3104	-162.793	-0.037677	0.201574	-0.824982	-0.826274	0.027681	91.1059	-0.825210	-9.882076E+10	-2.801126E-13	NaN
737	1.000000	0.242893	7.37226e+06	-40239.1	1005.82	-29790.8	0.000000	0.000000	6.242831	0.081240	NaN	0.000000	0.001677	0.001693	28.0825	0.051495	0.002113	24.3741	-171.202	-161.098	0.067018	0.241586	-0.784956	-0.786262	0.081240	24.3741	-0.787456	-3.037548E+10	-2.674523E-12	NaN
737	1.000000	0.282905	7.37226e+06	-40239.1	1005.82	-29790.8	0.000000	0.000000	6.282844	0.089250	NaN	0.000000	0.001647	0.001730	28.0823	0.046500	0.001840	25.2729	11.8023	-163.413	0.039066	0.281538	-0.744943	-0.746310	0.089250	25.2729	-0.747592	-8.718439E+9	-1.023692E-11	NaN
737	1.000000	0.322915	7.37226e+06	-40239.1	1005.82	-29790.8	0.000000	0.000000	6.322851	0.016159	NaN	0.000000	0.001634	0.001662	28.0811	0.029716	0.001925	15.4332	-94.7478	-163.256	-0.010906	0.321621	-0.704933	-0.706228	0.016159	15.4332	-0.705719	-2.342137E+9	-6.899058E-12	NaN
737	1.000000	0.362907	7.37227e+06	-40239.1	1005.82	-29790.8	0.000000	0.000000	6.362845	0.061158	NaN	0.000000	0.001628	0.001681	28.081	0.072370	0.002060	35.1379	120.245	-168.103	0.110862	0.361573	-0.664941	-0.666275	0.061158	35.1379	-0.666246	-6.760952E+8	-9.045797E-11	NaN
737	1.000000	0.402959	7.37227e+06	-40239.1	1005.82	-29790.8	0.000000	0.000000	6.402896	0.036836	NaN	0.000000	0.001678	0.001698	28.0809	0.048542	0.002090	23.2306	142.085	-163.31	-0.012702	0.401649	-0.624889	-0.626199	0.036836	23.2306	-0.626079	-1.901786E+8	-1.936916E-10	NaN
737	1.000000	0.442985	7.37227e+06	-40239.1	1005.82	-29790.8	0.000000	0.000000	6.442927	0.147228	NaN	0.000000	0.001655	0.001694	28.0824	0.083585	0.002141	39.0315	-161.947	-166.052	0.131682	0.441647	-0.584863	-0.586201	0.147228	39.0315	-0.587692	-5.634350E+7	-2.613050E-9	NaN
737	1.000000	0.482988	7.37227e+06	-40239.1	1005.82	-29790.8	0.000000	0.000000	6.482926	0.055722	NaN	0.000000	0.001616	0.001715	28.0824	0.160181	0.001860	86.1167	100.602	-169.304	0.041565	0.481619	-0.544860	-0.546229	0.055722	86.1167	-0.545345	-1.463746E+7	-3.806777E-9	NaN
737	1.000000	0.523042	7.37227e+06	-40239.1	1005.82	-29790.8	0.000000	0.000000	6.522978	0.010944	NaN	0.000000	0.001591	0.001718	28.0827	0.041209	0.001960	21.0203	-45.1266	-166.97	0.058971	0.521686	-0.504807	-0.506162	0.010944	21.0203	-0.505197	-4.05033e+06	-2.701950E-9	NaN
737	1.000000	0.563011	7.37227e+06	-40239.1	1005.82	-29790.8	0.000000	0.000000	6.562950	0.066590	NaN	0.000000	0.001591	0.001728	28.0826	0.051468	0.001972	26.0968	-9.185130	-163.661	0.061959	0.561703	-0.464837	-0.466146	0.066590	26.0968	-0.466751	-1.17441e+06	-5.670029E-8	NaN
737	1.000000	0.603042	7.37227e+06	-40239.1	1005.82	-29790.8	0.000000	0.000000	6.602981	0.071818	NaN	0.000000	0.001588	0.001659	28.0815	0.031397	0.002003	15.6754	5.150885	-166.579	0.049173	0.601704	-0.424806	-0.426144	0.071818	15.6754	-0.428242	-336658	-2.133271E-7	NaN
737	1.000000	0.643074	7.37227e+06	-40239.1	1005.82	-29790.8	0.000000	0.000000	6.643012	0.059568	NaN	0.000000	0.001577	0.001699	28.0817	0.042366	0.002117	20.0127	-69.9429	-164.74	0.056673	0.641755	-0.384774	-0.386093	0.059568	20.0127	-0.387007	-87162	-6.834148E-7	NaN
737	1.000000	0.683083	7.37227e+06	-40239.1	1005.82	-29790.8	0.000000	0.000000	6.683021	0.051701	NaN	0.000000	0.001592	0.001668	28.0814	0.119704	0.001983	60.3578	-43.7993	-167.485	0.125195	0.681763	-0.344765	-0.346085	0.051701	60.3578	-0.345407	-21891.8	-2.361663E-6	NaN
737	1.000000	0.723099	7.37227e+06	-40239.1	1005.82	-29790.8	0.000000	0.000000	6.723038	0.085824	NaN	0.000000	0.001578	0.001696	28.0826	0.088196	0.002161	40.8129	-131.156	-165.777	0.074224	0.721768	-0.304749	-0.306081	0.085824	40.8129	-0.306327	-5843	-1.468840E-5	NaN
737	1.000000	0.763115	7.37227e+06	-40239.1	1005.82	-29790.8	0.000000	0.000000	6.763053	0.057167	NaN	0.000000	0.001681	0.001689	28.0824	0.082154	0.001977	41.5467	-34.506	-163.699	0.024433	0.761822	-0.264733	-0.266026	0.057167	41.5467	-0.265765	-1435.7	-3.981827E-5	NaN
737	1.000000	0.803121	7.37227e+06	-40239.1	1005.82	-29790.8	0.000000	0.000000	6.803057	0.027412	NaN	0.000000	0.001642	0.001688	28.0826	0.040469	0.001951	20.7384	-32.9067	-165.483	0.045038	0.801822	-0.224728	-0.226027	0.027412	20.7384	-0.225719	-342.572	-8.001943E-5	NaN
737	1.000000	0.843161	7.37227e+06	-40239.1	1005.82	-29790.8	0.000000	0.000000	6.843098	0.027765	NaN	0.000000	0.001582	0.001742	28.0812	0.047264	0.001909	24.7604	129.581	-166.625	0.012629	0.841807	-0.184687	-0.186041	0.027765	24.7604	-0.185528	-75.6882	-0.000367	NaN
737	1.000000	0.883147	7.37227e+06	-40239.1	1005.82	-29790.8	0.000000	0.000000	6.883083	0.022286	NaN	0.000000	0.001606	0.001735	28.0812	0.017358	0.001982	8.758954	-91.0239	-165.009	0.030355	0.881820	-0.144702	-0.146029	0.022286	8.758954	-0.146610	-15.6993	-0.001420	NaN
737	1.000000	0.923169	7.37227e+06	-40239.1	1005.82	-29790.8	0.000000	0.000000	6.923106	0.022523	NaN	0.000000	0.001672	0.001712	28.0811	0.040320	0.001938	20.8035	18.1444	-168.746	0.063131	0.921822	-0.104679	-0.106026	0.022523	20.8035	-0.105491	-2.408606	-0.009351	NaN
737	1.000000	0.963200	7.37227e+06	-40239.1	1005.82	-29790.8	0.000000	0.000000	6.963137	0.039796	NaN	0.000000	0.001652	0.001705	28.0815	0.082888	0.002135	38.8147	-137.943	-162.294	0.022226	0.961900	-0.064648	-0.065948	0.039796	38.8147	-0.065417	-0.255940	-0.155489	NaN
737	1.000000	1.003194	7.37227e+06	-40239.1	1005.82	-29790.8	0.000000	0.000000	7.003129	-0.019173	NaN	0.000000	0.001601	0.001720	28.0829	0.167683	0.002009	83.4489	121.801	-163.36	-0.012879	1.001906	-0.024654	-0.025943	-0.019173	83.4489	-0.024482	-0.016354	1.172371	NaN
737	2.000000	1.034709	7.37227e+06	-40239.1	1005.82	-29790.8	0.000000	0.000000	7.035267	15.1287	NaN	0.000000	0.001601	0.001759	28.0831	13.1474	0.001796	7321.58	7.135493	-174.634	14.3893	1.034476	0.006861	0.006628	15.1287	7321.58	0.005311	0.004419	3423.32	100624
737	2.000000	1.044699	7.37227e+06	-40239.1	1005.82	-29790.8	0.000000	0.000000	7.045992	33.0236	NaN	0.000000	0.001591	0.001675	28.0828	22.9347	0.001873	12246.5	3.429681	-174.849	32.4197	1.044370	0.016851	0.016522	33.0236	12246.5	0.014829	0.015058	2193.15	91181.7
737	2.000000	1.054633	7.37227e+06	-40239.1	1005.82	-29790.8	0.000000	0.000000	7.057099	61.5748	NaN	0.000000	0.001620	0.001663	28.0814	31.3666	0.001829	17145.1	5.223432	-179.537	60.1375	1.054328	0.026785	0.026480	61.5748	17145.1	0.024091	0.029383	2095.62	91383.5
737	2.000000	1.064662	7.37227e+06	-40239.1	1005.82	-29790.8	0.000000	0.000000	7.068223	88.2361	NaN	0.000000	0.001578	0.001694	28.0814	40.7809	0.001847	22078.5	6.692797	177.921	89.4079	1.064289	0.036814	0.036441	88.2361	22078.5	0.033816	0.049025	1799.8	91102.8
737	2.000000	1.074643	7.37227e+06	-40239.1	1005.82	-29790.8	0.000000	0.000000	7.079590	121.962	NaN	0.000000	0.001609	0.001676	28.0811	50.3591	0.001885	26713	6.799900	174.536	123.147	1.074351	0.046795	0.046503	121.962	26713	0.043370	0.073029	1670.06	90312.9
737	2.000000	1.084530	7.37227e+06	-40239.1	1005.82	-29790.8	0.000000	0.000000	7.091520	171.666	NaN	0.000000	0.001595	0.001711	28.0812	60.0452	0.001900	31596	3.693712	176.749	166.919	1.084241	0.056682	0.056392	171.666	31596	0.052607	0.100641	1705.72	90995.1
737	2.000000	1.094560	7.37227e+06	-40239.1	1005.82	-29790.8	0.000000	0.000000	7.103820	226.9	NaN	0.000000	0.001588	0.001698	28.0823	69.2698	0.001850	37448.4	6.691918	172.182	223.401	1.094199	0.066711	0.066350	226.9	37448.4	0.062167	0.133694	1697.16	93573.1
737	2.000000	1.104559	7.37227e+06	-40239.1	1005.82	-29790.8	0.000000	0.000000	7.116264	286.401	NaN	0.000000	0.001577	0.001694	28.0824	77.5638	0.001777	43645.2	3.076771	174.735	282.832	1.104260	0.076711	0.076411	286.401	43645.2	0.071789	0.171442	1670.54	96305.5
737	2.000000	1.114584	7.37227e+06	-40239.1	1005.82	-29790.8	0.000000	0.000000	7.128401	337.788	NaN	0.000000	0.001598	0.001657	28.0824	86.9527	0.001786	48676.9	2.879650	173.975	336.443	1.114486	0.086736	0.086638	337.788	48676.9	0.081531	0.214132	1577.48	96106.9
737	2.000000	1.124470	7.37227e+06	-40239.1	1005.82	-29790.8	0.000000	0.000000	7.141899	425.706	NaN	0.000000	0.001617	0.001652	28.0812	94.7628	0.001784	53120.5	2.116313	174.569	419.946	1.124210	0.096621	0.096362	425.706	53120.5	0.090611	0.257892	1650.71	95568.9
737	2.000000	1.130566	7.37227e+06	-40239.1	1005.82	-29790.8	0.000000	0.000000	7.150090	476.663	NaN	0.000000	0.001642	0.001645	28.0813	100.334	0.001727	58099.6	6.693463	169.819	474.341	1.130244	0.102718	0.102396	476.663	58099.6	0.096564	0.288641	1651.41	98802.4