File: remote_trans/data/nanoindenter/0828-1/data/Data_2025-08-06,11h17m57s/2025-07-22_16-23-58_1_1115.txt
2025-07-22, 16:23:58, 1
Index	Phase	Displacement	Time	Pos X	Pos Y	Pos Z	Rot A	Rot B	Piezo Z	Force A	Force B	Gripper	Voltage A	Voltage B	Temperature	Amplitude force	Amplitude pos	Stiffness	Phase shift	Phase excitation	Force A raw	Displacement raw	HMax	HMax raw	Real Force	Real Stiffness	Contact Depth	Area	Hardness	Reduced Mod.
[#]	[#]	[um]	[s]	[um]	[um]	[um]	[m°]	[m°]	[um]	[uN]	[uN]	[V]	[V]	[V]	[°C]	[uN]	[um]	[N/m]	[°]	[°]	[uN]	[um]	[um]	[um]	[uN]	[N/m]	[um]	[um^2]	[MPa]	[MPa]
1115	1.000000	0.002864	7.37596e+06	-55889.1	1055.82	-29740.2	0.000000	0.000000	6.002775	-0.051387	NaN	0.000000	0.001564	0.001648	28.0848	0.094420	0.001126	83.8226	-105.04	-166.27	0.015464	0.001627	-1.205267	-1.206503	-0.051387	83.8226	-1.204807	-1.273839E+16	4.034063E-18	NaN
1115	1.000000	0.046840	7.37596e+06	-55889.1	1055.82	-29740.3	0.000000	0.000000	6.046754	0.014599	NaN	0.000000	0.001528	0.001754	28.0848	0.194920	0.001989	97.9989	115.063	-162.268	-0.011310	0.045509	-1.161290	-1.162621	0.014599	97.9989	-1.161402	-3.339359E+15	-4.371851E-18	NaN
1115	1.000000	0.090846	7.37596e+06	-55889.1	1055.82	-29740.3	0.000000	0.000000	6.090759	0.001059	NaN	0.000000	0.001550	0.001731	28.0837	0.081732	0.001921	42.5522	50.1792	-169.673	0.080526	0.089567	-1.117285	-1.118564	0.001059	42.5522	-1.117304	-8.556474E+14	-1.237403E-18	NaN
1115	1.000000	0.134862	7.37596e+06	-55889.1	1055.82	-29740.3	0.000000	0.000000	6.134775	-0.009567	NaN	0.000000	0.001629	0.001720	28.084	0.104556	0.002026	51.6101	20.2011	-168.202	0.051669	0.133520	-1.073268	-1.074611	-0.009567	51.6101	-1.073129	-2.183883E+14	4.380882E-17	NaN
1115	1.000000	0.178901	7.37596e+06	-55889.1	1055.82	-29740.3	0.000000	0.000000	6.178813	-0.024097	NaN	0.000000	0.001616	0.001751	28.0838	0.026122	0.001990	13.1292	57.0058	-167.335	0.026234	0.177580	-1.029230	-1.030550	-0.024097	13.1292	-1.027854	-5.377842E+13	4.480733E-16	NaN
1115	1.000000	0.222892	7.37596e+06	-55889.1	1055.82	-29740.3	0.000000	0.000000	6.222808	0.063144	NaN	0.000000	0.001602	0.001721	28.0852	0.041486	0.002011	20.6344	158.494	-167.952	0.084745	0.221586	-0.985239	-0.986545	0.063144	20.6344	-0.987534	-1.541342E+13	-4.096693E-15	NaN
1115	1.000000	0.266917	7.37596e+06	-55889.1	1055.82	-29740.3	0.000000	0.000000	6.266829	-0.021668	NaN	0.000000	0.001572	0.001685	28.0848	0.080928	0.001917	42.2161	-108.974	-166.354	0.044307	0.265609	-0.941214	-0.942522	-0.021668	42.2161	-0.940829	-3.616730E+12	5.991184E-15	NaN
1115	1.000000	0.310949	7.37596e+06	-55889.1	1055.82	-29740.3	0.000000	0.000000	6.310862	-0.003254	NaN	0.000000	0.001635	0.001649	28.0853	0.046902	0.002037	23.0278	-143.373	-162.988	-0.007463	0.309635	-0.897182	-0.898495	-0.003254	23.0278	-0.897076	-9.280109E+11	3.506098E-15	NaN
1115	1.000000	0.354957	7.37596e+06	-55889.1	1055.82	-29740.3	0.000000	0.000000	6.354871	0.029068	NaN	0.000000	0.001681	0.001680	28.0837	0.039800	0.002144	18.5622	23.2804	-166.817	0.010544	0.353627	-0.853174	-0.854504	0.029068	18.5622	-0.854348	-2.452531E+11	-1.185219E-13	NaN
1115	1.000000	0.398987	7.37596e+06	-55889.1	1055.82	-29740.3	0.000000	0.000000	6.398902	0.028562	NaN	0.000000	0.001679	0.001688	28.084	0.022145	0.002209	10.0232	-24.6817	-169.713	0.042325	0.397664	-0.809143	-0.810466	0.028562	10.0232	-0.811280	-6.396520E+10	-4.465268E-13	NaN
1115	1.000000	0.442974	7.37596e+06	-55889.1	1055.82	-29740.3	0.000000	0.000000	6.442889	0.037700	NaN	0.000000	0.001662	0.001672	28.0838	0.066612	0.001928	34.5525	-65.617	-166.95	0.008306	0.441724	-0.765156	-0.766407	0.037700	34.5525	-0.765975	-1.550849E+10	-2.430913E-12	NaN
1115	1.000000	0.486999	7.37596e+06	-55889.1	1055.82	-29740.3	0.000000	0.000000	6.486913	0.011586	NaN	0.000000	0.001694	0.001687	28.0851	0.084556	0.001964	43.0583	-123.94	-168.904	0.019255	0.485735	-0.721132	-0.722396	0.011586	43.0583	-0.721333	-3.825230E+9	-3.028710E-12	NaN
1115	1.000000	0.531030	7.37596e+06	-55889.1	1055.82	-29740.3	0.000000	0.000000	6.530945	0.029732	NaN	0.000000	0.001682	0.001715	28.0853	0.024142	0.001928	12.5211	-46.1016	-168.927	0.040114	0.529780	-0.677100	-0.678350	0.029732	12.5211	-0.678881	-1.006713E+9	-2.953400E-11	NaN
1115	1.000000	0.575034	7.37596e+06	-55889.1	1055.82	-29740.3	0.000000	0.000000	6.574953	0.155835	NaN	0.000000	0.001650	0.001710	28.0853	0.025949	0.002056	12.621	-94.2062	-162.751	0.099597	0.573806	-0.633097	-0.634324	0.155835	12.621	-0.642357	-3.181487E+8	-4.898186E-10	NaN
1115	1.000000	0.619074	7.37596e+06	-55889.1	1055.82	-29740.3	0.000000	0.000000	6.618986	-0.026368	NaN	0.000000	0.001692	0.001715	28.0845	0.101707	0.001979	51.4009	3.830314	-164.234	-0.030494	0.617785	-0.589057	-0.590346	-0.026368	51.4009	-0.588672	-5.812418E+7	4.536417E-10	NaN
1115	1.000000	0.663120	7.37596e+06	-55889.1	1055.82	-29740.3	0.000000	0.000000	6.663036	0.074639	NaN	0.000000	0.001638	0.001730	28.0842	0.071837	0.001964	36.5766	-29.8578	-168.51	0.069492	0.661820	-0.545011	-0.546311	0.074639	36.5766	-0.546541	-1.520690E+7	-4.908216E-9	NaN
1115	1.000000	0.707108	7.37596e+06	-55889.1	1055.82	-29740.3	0.000000	0.000000	6.707024	0.058027	NaN	0.000000	0.001601	0.001709	28.0841	0.102618	0.002001	51.2836	-95.6873	-166.695	0.033213	0.705798	-0.501022	-0.502332	0.058027	51.2836	-0.501871	-3.64013e+06	-1.594098E-8	NaN
1115	1.000000	0.751120	7.37596e+06	-55889.1	1055.82	-29740.3	0.000000	0.000000	6.751030	-0.098949	NaN	0.000000	0.001599	0.001690	28.0852	0.062274	0.001990	31.2862	60.1997	-165.537	-0.013939	0.749802	-0.457010	-0.458329	-0.098949	31.2862	-0.454638	-793650	1.246755E-7	NaN
1115	1.000000	0.795148	7.37596e+06	-55889.1	1055.82	-29740.3	0.000000	0.000000	6.795062	0.020254	NaN	0.000000	0.001659	0.001718	28.085	0.021451	0.002035	10.5421	9.352774	-169.241	0.031810	0.793814	-0.412983	-0.414317	0.020254	10.5421	-0.414424	-214424	-9.445675E-8	NaN
1115	1.000000	0.839200	7.37596e+06	-55889.1	1055.82	-29740.3	0.000000	0.000000	6.839115	0.021311	NaN	0.000000	0.001650	0.001685	28.0851	0.036322	0.002117	17.157	-10.7217	-167.677	-0.051262	0.837852	-0.368930	-0.370279	0.021311	17.157	-0.369862	-49446.7	-4.309901E-7	NaN
1115	1.000000	0.883186	7.37596e+06	-55889.1	1055.82	-29740.3	0.000000	0.000000	6.883098	-0.026287	NaN	0.000000	0.001609	0.001718	28.0838	0.065025	0.002097	31.0157	51.1915	-165.852	-0.019063	0.881872	-0.324945	-0.326259	-0.026287	31.0157	-0.324309	-10764.5	2.442040E-6	NaN
1115	1.000000	0.927190	7.37596e+06	-55889.1	1055.82	-29740.3	0.000000	0.000000	6.927103	-0.011533	NaN	0.000000	0.001666	0.001694	28.0841	0.065697	0.002064	31.8359	-102.407	-166.094	-0.051175	0.925910	-0.280941	-0.282220	-0.011533	31.8359	-0.280669	-2415.79	4.773958E-6	NaN
1115	1.000000	0.971204	7.37596e+06	-55889.1	1055.82	-29740.3	0.000000	0.000000	6.971118	0.027279	NaN	0.000000	0.001652	0.001705	28.0839	0.135305	0.002059	65.7226	-92.2225	-163.202	-0.009538	0.969892	-0.236927	-0.238239	0.027279	65.7226	-0.237238	-520.412	-5.241792E-5	NaN
1115	1.000000	1.015219	7.37596e+06	-55889.1	1055.82	-29740.3	0.000000	0.000000	7.015133	0.003447	NaN	0.000000	0.001663	0.001717	28.085	0.054557	0.002052	26.593	127.588	-165.232	-0.029306	1.013857	-0.192911	-0.194274	0.003447	26.593	-0.193009	-100.962	-3.414228E-5	NaN
1115	1.000000	1.059232	7.37596e+06	-55889.1	1055.82	-29740.3	0.000000	0.000000	7.059147	0.035618	NaN	0.000000	0.001627	0.001725	28.0848	0.154247	0.002004	76.967	-16.1849	-162.476	-0.072194	1.057989	-0.148898	-0.150142	0.035618	76.967	-0.149245	-17.548	-0.002030	NaN
1115	1.000000	1.103252	7.37596e+06	-55889.1	1055.82	-29740.3	0.000000	0.000000	7.103166	0.006633	NaN	0.000000	0.001598	0.001727	28.0856	0.030574	0.002077	14.718	150.277	-168.4	0.089932	1.102015	-0.104879	-0.106116	0.006633	14.718	-0.105217	-2.376020	-0.002791	NaN
1115	1.000000	1.147327	7.37596e+06	-55889.1	1055.82	-29740.3	0.000000	0.000000	7.147238	-0.064888	NaN	0.000000	0.001671	0.001710	28.0837	0.083408	0.002106	39.6088	-127.721	-162.623	-0.013358	1.146034	-0.060804	-0.062097	-0.064888	39.6088	-0.059575	-0.175100	0.370575	NaN
1115	1.000000	1.191285	7.37596e+06	-55889.1	1055.82	-29740.3	0.000000	0.000000	7.191201	0.051772	NaN	0.000000	0.001664	0.001736	28.0874	0.038124	0.001891	20.1577	-60.9701	-168.435	0.062241	1.189943	-0.016846	-0.018188	0.051772	20.1577	-0.018772	-0.011686	-4.430258	NaN
1115	2.000000	1.218884	7.37596e+06	-55889.1	1055.82	-29740.3	0.000000	0.000000	7.219584	19.1233	NaN	0.000000	0.001626	0.001741	28.0839	15.0803	0.001668	9041.43	4.620103	-175.708	17.5192	1.218599	0.010754	0.010468	19.1233	9041.43	0.009167	0.008271	2312.2	90832.6
1115	2.000000	1.229877	7.37596e+06	-55889.1	1055.82	-29740.3	0.000000	0.000000	7.232547	67.014	NaN	0.000000	0.001710	0.001741	28.0849	28.14	0.001757	16015.8	7.659600	176.923	64.9043	1.229560	0.021746	0.021429	67.014	16015.8	0.018608	0.020402	3284.64	102443
1115	2.000000	1.240811	7.37596e+06	-55889.1	1055.82	-29740.3	0.000000	0.000000	7.246327	136.173	NaN	0.000000	0.001743	0.001770	28.0854	40.6191	0.001652	24587.7	4.890626	175.846	133.523	1.240466	0.032681	0.032335	136.173	24587.7	0.028527	0.037746	3607.59	115626
1115	2.000000	1.251877	7.37596e+06	-55889.1	1055.82	-29740.3	0.000000	0.000000	7.260751	217.825	NaN	0.000000	0.001635	0.001742	28.085	52.3362	0.001844	28383.1	7.027563	173.226	222.092	1.251573	0.043746	0.043442	217.825	28383.1	0.037991	0.058938	3695.8	106815
1115	2.000000	1.262929	7.37596e+06	-55889.1	1055.82	-29740.3	0.000000	0.000000	7.276351	328.363	NaN	0.000000	0.001617	0.001754	28.0851	62.2348	0.001862	33418.2	10.9486	170.086	332.277	1.262432	0.054798	0.054302	328.363	33418.2	0.047429	0.084632	3879.88	104951
1115	2.000000	1.273764	7.37596e+06	-55889.1	1055.82	-29740.3	0.000000	0.000000	7.291443	431.851	NaN	0.000000	0.001652	0.001716	28.084	74.4009	0.001843	40366.1	2.555488	174.69	427.715	1.273695	0.065633	0.065564	431.851	40366.1	0.057609	0.117375	3679.25	107647
1115	2.000000	1.284678	7.37596e+06	-55889.1	1055.82	-29740.3	0.000000	0.000000	7.309628	608.581	NaN	0.000000	0.001650	0.001721	28.0838	85.4321	0.001771	48230.4	7.235100	168.245	601.12	1.284381	0.076547	0.076250	608.581	48230.4	0.067083	0.152426	3992.62	112866
1115	2.000000	1.295578	7.37596e+06	-55889.1	1055.82	-29740.3	0.000000	0.000000	7.325402	727.065	NaN	0.000000	0.001679	0.001721	28.084	94.8352	0.001810	52383.6	3.699068	171.427	715.899	1.295340	0.087447	0.087209	727.065	52383.6	0.077037	0.193886	3749.96	108691
1115	2.000000	1.306605	7.37596e+06	-55889.1	1055.82	-29740.3	0.000000	0.000000	7.343497	898.849	NaN	0.000000	0.001667	0.001731	28.0852	104.716	0.001724	60738.3	-0.770856	175.304	888.254	1.306346	0.098475	0.098216	898.849	60738.3	0.087376	0.241865	3716.32	112836
1115	2.000000	1.312119	7.37596e+06	-55889.1	1055.82	-29740.3	0.000000	0.000000	7.350220	928.259	NaN	0.000000	0.001705	0.001729	28.0849	109.966	0.001875	58662.2	3.536543	-9.287783	917.935	1.312036	0.103989	0.103906	928.259	58662.2	0.092121	0.265537	3495.78	104008