File: remote_trans/data/nanoindenter/0828-1/data/Data_2025-08-06,11h17m57s/2025-07-22_16-23-58_1_718.txt
2025-07-22, 16:23:58, 1
Index	Phase	Displacement	Time	Pos X	Pos Y	Pos Z	Rot A	Rot B	Piezo Z	Force A	Force B	Gripper	Voltage A	Voltage B	Temperature	Amplitude force	Amplitude pos	Stiffness	Phase shift	Phase excitation	Force A raw	Displacement raw	HMax	HMax raw	Real Force	Real Stiffness	Contact Depth	Area	Hardness	Reduced Mod.
[#]	[#]	[um]	[s]	[um]	[um]	[um]	[m°]	[m°]	[um]	[uN]	[uN]	[V]	[V]	[V]	[°C]	[uN]	[um]	[N/m]	[°]	[°]	[uN]	[um]	[um]	[um]	[uN]	[N/m]	[um]	[um^2]	[MPa]	[MPa]
718	1.000000	0.002691	7.37208e+06	-41189.1	1005.82	-29787.1	0.000000	0.000000	6.002808	0.088163	NaN	0.000000	0.001601	0.001751	28.0827	0.058328	0.000849	68.6936	-100.78	-172.249	-0.015397	0.001396	-1.068036	-1.069330	0.088163	68.6936	-1.068998	-1.921893E+14	-4.587309E-16	NaN
718	1.000000	0.042638	7.37208e+06	-41189.1	1005.82	-29787.1	0.000000	0.000000	6.042752	0.017071	NaN	0.000000	0.001593	0.001794	28.0842	0.125569	0.001944	64.5854	-26.0127	-166.95	0.024752	0.041311	-1.028088	-1.029415	0.017071	64.5854	-1.028287	-5.450455E+13	-3.131955E-16	NaN
718	1.000000	0.082650	7.37208e+06	-41189.1	1005.82	-29787.1	0.000000	0.000000	6.082764	0.021924	NaN	0.000000	0.001671	0.001828	28.0839	0.121222	0.002025	59.8701	-92.7266	-161.743	0.042266	0.081300	-0.988076	-0.989426	0.021924	59.8701	-0.988351	-1.580898E+13	-1.386809E-15	NaN
718	1.000000	0.122661	7.37208e+06	-41189.1	1005.82	-29787.1	0.000000	0.000000	6.122777	0.050207	NaN	0.000000	0.001674	0.001798	28.0841	0.119766	0.002044	58.5827	139.023	-167.018	-0.001856	0.121345	-0.948065	-0.949381	0.050207	58.5827	-0.948707	-4.619504E+12	-1.086857E-14	NaN
718	1.000000	0.162675	7.37208e+06	-41189.1	1005.82	-29787.1	0.000000	0.000000	6.162791	0.048832	NaN	0.000000	0.001692	0.001798	28.0827	0.043806	0.002000	21.8994	157.717	-166.357	0.042974	0.161272	-0.908051	-0.909454	0.048832	21.8994	-0.909723	-1.375395E+12	-3.550412E-14	NaN
718	1.000000	0.202708	7.37208e+06	-41189.1	1005.82	-29787.1	0.000000	0.000000	6.202823	0.044701	NaN	0.000000	0.001574	0.001758	28.0825	0.078203	0.001953	40.039	-157.579	-166.779	0.072972	0.201395	-0.868018	-0.869331	0.044701	40.039	-0.868856	-3.854445E+11	-1.159720E-13	NaN
718	1.000000	0.242720	7.37208e+06	-41189.1	1005.82	-29787.1	0.000000	0.000000	6.242833	-0.018141	NaN	0.000000	0.001582	0.001816	28.0829	0.049680	0.002099	23.6698	-66.0282	-166.401	0.008708	0.241434	-0.828006	-0.829292	-0.018141	23.6698	-0.827432	-1.059182E+11	1.712728E-13	NaN
718	1.000000	0.282732	7.37208e+06	-41189.1	1005.82	-29787.1	0.000000	0.000000	6.282847	0.032669	NaN	0.000000	0.001578	0.001761	28.0827	0.025843	0.002005	12.8886	-9.086860	-164.347	0.093697	0.281425	-0.787994	-0.789301	0.032669	12.8886	-0.789895	-3.278401E+10	-9.964769E-13	NaN
718	1.000000	0.322733	7.37208e+06	-41189.1	1005.82	-29787.1	0.000000	0.000000	6.322847	-0.009354	NaN	0.000000	0.001588	0.001778	28.0841	0.151731	0.001858	81.6492	-32.6806	-160.782	0.057592	0.321423	-0.747993	-0.749303	-0.009354	81.6492	-0.747907	-8.805014E+9	1.062295E-12	NaN
718	1.000000	0.362764	7.37208e+06	-41189.1	1005.82	-29787.1	0.000000	0.000000	6.362878	-0.003210	NaN	0.000000	0.001607	0.001742	28.0843	0.037996	0.001998	19.015	118.838	-165.168	0.032096	0.361425	-0.707962	-0.709301	-0.003210	19.015	-0.707835	-2.503251E+9	1.282164E-12	NaN
718	1.000000	0.402781	7.37208e+06	-41189.1	1005.82	-29787.1	0.000000	0.000000	6.402898	0.084715	NaN	0.000000	0.001598	0.001762	28.0841	0.027897	0.002069	13.4858	134.841	-168.049	0.059622	0.401464	-0.667945	-0.669262	0.084715	13.4858	-0.672657	-8.274584E+8	-1.023793E-10	NaN
718	1.000000	0.442804	7.37208e+06	-41189.1	1005.82	-29787.1	0.000000	0.000000	6.442920	0.046173	NaN	0.000000	0.001600	0.001749	28.0825	0.052287	0.001937	26.9982	-93.0553	-168.962	0.103286	0.441510	-0.627922	-0.629216	0.046173	26.9982	-0.629205	-2.099433E+8	-2.199327E-10	NaN
718	1.000000	0.482815	7.37208e+06	-41189.1	1005.82	-29787.1	0.000000	0.000000	6.482931	0.052805	NaN	0.000000	0.001588	0.001729	28.0826	0.031159	0.001841	16.9256	-73.927	-168.376	0.026060	0.481480	-0.587911	-0.589246	0.052805	16.9256	-0.590251	-6.111221E+7	-8.640600E-10	NaN
718	1.000000	0.522850	7.37208e+06	-41189.1	1005.82	-29787.1	0.000000	0.000000	6.522966	0.043222	NaN	0.000000	0.001612	0.001744	28.0827	0.054244	0.001929	28.1212	-139.269	-166.094	0.046367	0.521553	-0.547876	-0.549173	0.043222	28.1212	-0.549029	-1.646281E+7	-2.625412E-9	NaN
718	1.000000	0.562854	7.37208e+06	-41189.1	1005.82	-29787.1	0.000000	0.000000	6.562969	0.026194	NaN	0.000000	0.001605	0.001721	28.0825	0.039946	0.001947	20.5127	-170.646	-165.366	0.025952	0.561577	-0.507872	-0.509149	0.026194	20.5127	-0.508830	-4.55111e+06	-5.755547E-9	NaN
718	1.000000	0.602882	7.37208e+06	-41189.1	1005.82	-29787.1	0.000000	0.000000	6.602997	0.032107	NaN	0.000000	0.001587	0.001718	28.0838	0.026629	0.002036	13.0796	5.433043	-164.16	0.025106	0.601554	-0.467844	-0.469172	0.032107	13.0796	-0.469685	-1.29119e+06	-2.486602E-8	NaN
718	1.000000	0.642903	7.37208e+06	-41189.1	1005.82	-29787.1	0.000000	0.000000	6.643017	0.010702	NaN	0.000000	0.001619	0.001728	28.0839	0.067271	0.001912	35.1759	-179.552	-165.91	0.054336	0.641577	-0.427823	-0.429149	0.010702	35.1759	-0.428051	-334568	-3.198734E-8	NaN
718	1.000000	0.682880	7.37208e+06	-41189.1	1005.82	-29787.1	0.000000	0.000000	6.682993	-0.023063	NaN	0.000000	0.001649	0.001733	28.084	0.099425	0.002131	46.6576	-155.811	-166.083	-0.016011	0.681604	-0.387846	-0.389122	-0.023063	46.6576	-0.387475	-88519.8	2.605437E-7	NaN
718	1.000000	0.722897	7.37208e+06	-41189.1	1005.82	-29787.1	0.000000	0.000000	6.723013	0.046390	NaN	0.000000	0.001655	0.001693	28.0826	0.081171	0.001915	42.3788	137.587	-161.129	0.073335	0.721613	-0.347829	-0.349113	0.046390	42.3788	-0.348650	-24401.1	-1.901163E-6	NaN
718	1.000000	0.762944	7.37208e+06	-41189.1	1005.82	-29787.1	0.000000	0.000000	6.763059	0.030755	NaN	0.000000	0.001596	0.001691	28.0826	0.063770	0.001951	32.6892	136.914	-165.133	0.080194	0.761650	-0.307782	-0.309076	0.030755	32.6892	-0.308488	-6290.27	-4.889255E-6	NaN
718	1.000000	0.802978	7.37208e+06	-41189.1	1005.82	-29787.1	0.000000	0.000000	6.803092	0.011797	NaN	0.000000	0.001565	0.001721	28.0826	0.021310	0.002045	10.4196	-78.7839	-162.32	0.015955	0.801643	-0.267748	-0.269084	0.011797	10.4196	-0.268597	-1585.66	-7.440003E-6	NaN
718	1.000000	0.843001	7.37208e+06	-41189.1	1005.82	-29787.1	0.000000	0.000000	6.843117	0.033231	NaN	0.000000	0.001595	0.001715	28.083	0.008864	0.001885	4.702858	34.0732	-166.607	0.041239	0.841639	-0.227725	-0.229087	0.033231	4.702858	-0.233024	-446.882	-7.436197E-5	NaN
718	1.000000	0.883017	7.37208e+06	-41189.1	1005.82	-29787.1	0.000000	0.000000	6.883131	0.015555	NaN	0.000000	0.001610	0.001682	28.084	0.063188	0.002140	29.5264	-13.0451	-162.583	0.017540	0.881694	-0.187709	-0.189032	0.015555	29.5264	-0.188105	-83.6203	-0.000186	NaN
718	1.000000	0.922962	7.37208e+06	-41189.1	1005.82	-29787.1	0.000000	0.000000	6.923080	0.088930	NaN	0.000000	0.001594	0.001679	28.0854	0.049518	0.001883	26.3038	117.104	-166.931	-0.026092	0.921688	-0.147764	-0.149038	0.088930	26.3038	-0.150299	-18.3427	-0.004848	NaN
718	1.000000	0.963031	7.37208e+06	-41189.1	1005.82	-29787.1	0.000000	0.000000	6.963144	-0.015964	NaN	0.000000	0.001612	0.001718	28.0844	0.084073	0.002053	40.9557	-136.673	-165.596	0.013918	0.961685	-0.107695	-0.109041	-0.015964	40.9557	-0.107403	-2.647086	0.006031	NaN
718	1.000000	1.003068	7.37208e+06	-41189.1	1005.82	-29787.1	0.000000	0.000000	7.003182	-0.018655	NaN	0.000000	0.001596	0.001731	28.083	0.109388	0.001931	56.6599	-97.229	-167.308	0.046785	1.001764	-0.067658	-0.068962	-0.018655	56.6599	-0.067411	-0.290332	0.064254	NaN
718	1.000000	1.043025	7.37208e+06	-41189.1	1005.82	-29787.1	0.000000	0.000000	7.043139	0.002034	NaN	0.000000	0.001556	0.001675	28.0828	0.073746	0.001973	37.3831	-171.67	-167.112	-0.004758	1.041734	-0.027701	-0.028992	0.002034	37.3831	-0.027742	-0.019952	-0.101954	NaN
718	2.000000	1.076620	7.37208e+06	-41189.1	1005.82	-29787.1	0.000000	0.000000	7.077166	10.5274	NaN	0.000000	0.001589	0.001683	28.0825	11.4041	0.001774	6428.21	10.0439	-174.601	9.994826	1.076307	0.005894	0.005581	10.5274	6428.21	0.004665	0.003830	2748.68	94899.8
718	2.000000	1.086506	7.37208e+06	-41189.1	1005.82	-29787.1	0.000000	0.000000	7.087932	31.9242	NaN	0.000000	0.001596	0.001718	28.084	22.8899	0.001810	12649.7	5.237642	-177.527	29.673	1.086253	0.015780	0.015527	31.9242	12649.7	0.013887	0.013830	2308.41	98276.7
718	2.000000	1.096564	7.37208e+06	-41189.1	1005.82	-29787.1	0.000000	0.000000	7.098830	52.3688	NaN	0.000000	0.001604	0.001710	28.084	32.184	0.001844	17454.7	6.316151	178.629	52.4709	1.096296	0.025838	0.025570	52.3688	17454.7	0.023588	0.028497	1837.72	94469.1
718	2.000000	1.106550	7.37208e+06	-41189.1	1005.82	-29787.1	0.000000	0.000000	7.110294	88.3455	NaN	0.000000	0.001620	0.001712	28.0839	40.0698	0.001873	21396.5	3.744816	-179.664	90.0585	1.106216	0.035824	0.035490	88.3455	21396.5	0.032727	0.046586	1896.4	90571
718	2.000000	1.116498	7.37208e+06	-41189.1	1005.82	-29787.1	0.000000	0.000000	7.122259	137.426	NaN	0.000000	0.001575	0.001734	28.084	49.6328	0.001751	28347.5	4.657059	176.079	136.971	1.116233	0.045772	0.045507	137.426	28347.5	0.042136	0.069664	1972.7	98126
718	2.000000	1.126523	7.37208e+06	-41189.1	1005.82	-29787.1	0.000000	0.000000	7.134529	192.022	NaN	0.000000	0.001591	0.001722	28.0826	59.23	0.001754	33770.1	3.813218	175.998	192.884	1.126214	0.055797	0.055488	192.022	33770.1	0.051532	0.097209	1975.36	98958.5
718	2.000000	1.136545	7.37208e+06	-41189.1	1005.82	-29787.1	0.000000	0.000000	7.146906	249.32	NaN	0.000000	0.001587	0.001736	28.0826	69.8137	0.001801	38766.5	2.058487	176.806	250.119	1.136232	0.065819	0.065506	249.32	38766.5	0.060996	0.129404	1926.68	98459.4
718	2.000000	1.146465	7.37208e+06	-41189.1	1005.82	-29787.1	0.000000	0.000000	7.159828	322.368	NaN	0.000000	0.001608	0.001751	28.0827	78.4794	0.001865	42085.3	3.006532	175.039	321.71	1.146182	0.075739	0.075456	322.368	42085.3	0.069994	0.164065	1964.88	94928.2
718	2.000000	1.156468	7.37208e+06	-41189.1	1005.82	-29787.1	0.000000	0.000000	7.173177	403.795	NaN	0.000000	0.001580	0.001669	28.0839	88.8533	0.001797	49446.7	5.677729	171.986	404.472	1.156156	0.085742	0.085430	403.795	49446.7	0.079617	0.205394	1965.96	99681.9
718	2.000000	1.166403	7.37208e+06	-41189.1	1005.82	-29787.1	0.000000	0.000000	7.186335	482.23	NaN	0.000000	0.001604	0.001705	28.0836	97.6157	0.001825	53481.7	3.606787	172.935	480.35	1.166230	0.095676	0.095504	482.23	53481.7	0.088914	0.249426	1933.36	97838.1
718	2.000000	1.172950	7.37208e+06	-41189.1	1005.82	-29787.1	0.000000	0.000000	7.194921	531.845	NaN	0.000000	0.001626	0.001740	28.0837	103.416	0.001753	58991.8	7.309359	-11.4133	530.161	1.172648	0.102224	0.101922	531.845	58991.8	0.095462	0.282826	1880.47	101346