File: remote_trans/data/nanoindenter/0828-1/data/Data_2025-08-06,11h17m57s/2025-07-22_16-23-58_1_1166.txt
2025-07-22, 16:23:58, 1
Index	Phase	Displacement	Time	Pos X	Pos Y	Pos Z	Rot A	Rot B	Piezo Z	Force A	Force B	Gripper	Voltage A	Voltage B	Temperature	Amplitude force	Amplitude pos	Stiffness	Phase shift	Phase excitation	Force A raw	Displacement raw	HMax	HMax raw	Real Force	Real Stiffness	Contact Depth	Area	Hardness	Reduced Mod.
[#]	[#]	[um]	[s]	[um]	[um]	[um]	[m°]	[m°]	[um]	[uN]	[uN]	[V]	[V]	[V]	[°C]	[uN]	[um]	[N/m]	[°]	[°]	[uN]	[um]	[um]	[um]	[uN]	[N/m]	[um]	[um^2]	[MPa]	[MPa]
1166	1.000000	0.002300	7.37645e+06	-57289.1	1105.82	-29737	0.000000	0.000000	6.002804	-0.000883	NaN	0.000000	0.001672	0.001704	28.0829	0.097238	0.000975	99.6988	-5.362985	-161.162	0.044729	0.001047	-1.099133	-1.100387	-0.000883	99.6988	-1.099127	-4.879136E+14	1.809524E-18	NaN
1166	1.000000	0.044242	7.37645e+06	-57289.1	1105.82	-29737	0.000000	0.000000	6.044746	-0.021747	NaN	0.000000	0.001604	0.001693	28.0825	0.077105	0.002099	36.7411	-12.6279	14.333	-0.005148	0.042910	-1.057191	-1.058524	-0.021747	36.7411	-1.056747	-1.315536E+14	1.653124E-16	NaN
1166	1.000000	0.086266	7.37645e+06	-57289.1	1105.82	-29737	0.000000	0.000000	6.086771	0.012190	NaN	0.000000	0.001649	0.001675	28.0826	0.044347	0.001922	23.0754	7.170155	-170.714	0.022401	0.084966	-1.015167	-1.016468	0.012190	23.0754	-1.015564	-3.674996E+13	-3.317046E-16	NaN
1166	1.000000	0.128267	7.37645e+06	-57289.1	1105.82	-29737	0.000000	0.000000	6.128773	0.023729	NaN	0.000000	0.001605	0.001705	28.0819	0.059985	0.001895	31.6598	4.632145	13.0658	0.035004	0.126862	-0.973166	-0.974571	0.023729	31.6598	-0.973728	-1.004391E+13	-2.362555E-15	NaN
1166	1.000000	0.170302	7.37646e+06	-57289.1	1105.82	-29737	0.000000	0.000000	6.170806	-0.003509	NaN	0.000000	0.001652	0.001690	28.0813	0.065145	0.001999	32.5902	164.195	-168.166	0.008423	0.168984	-0.931131	-0.932449	-0.003509	32.5902	-0.931050	-2.669143E+12	1.314792E-15	NaN
1166	1.000000	0.212336	7.37646e+06	-57289.1	1105.82	-29737	0.000000	0.000000	6.212837	-0.081442	NaN	0.000000	0.001501	0.001680	28.0812	0.031936	0.002068	15.4443	-73.9934	15.4905	-0.011790	0.210971	-0.889098	-0.890462	-0.081442	15.4443	-0.885143	-6.401028E+11	1.272328E-13	NaN
1166	1.000000	0.254328	7.37646e+06	-57289.1	1105.82	-29737	0.000000	0.000000	6.254831	-0.032211	NaN	0.000000	0.001545	0.001713	28.0825	0.058656	0.002071	28.3227	-118.523	-168.588	-0.014909	0.253039	-0.847105	-0.848394	-0.032211	28.3227	-0.846252	-1.905379E+11	1.690539E-13	NaN
1166	1.000000	0.296330	7.37646e+06	-57289.1	1105.82	-29737	0.000000	0.000000	6.296834	-0.006802	NaN	0.000000	0.001567	0.001738	28.083	0.026960	0.002074	12.9973	-15.7491	14.8797	-0.062150	0.294983	-0.805103	-0.806451	-0.006802	12.9973	-0.804711	-5.209540E+10	1.305629E-13	NaN
1166	1.000000	0.338365	7.37646e+06	-57289.1	1105.82	-29737	0.000000	0.000000	6.338867	-0.047309	NaN	0.000000	0.001604	0.001733	28.0828	0.106557	0.002008	53.0738	-144.605	-163.407	0.031793	0.337002	-0.763069	-0.764431	-0.047309	53.0738	-0.762400	-1.386611E+10	3.411859E-12	NaN
1166	1.000000	0.380371	7.37646e+06	-57289.1	1105.82	-29737	0.000000	0.000000	6.380876	0.001603	NaN	0.000000	0.001573	0.001732	28.0827	0.016061	0.002036	7.889775	86.9881	11.7583	-0.057502	0.379032	-0.721062	-0.722402	0.001603	7.889775	-0.721214	-3.810952E+9	-4.205089E-13	NaN
1166	1.000000	0.422420	7.37646e+06	-57289.1	1105.82	-29737	0.000000	0.000000	6.422921	-0.077895	NaN	0.000000	0.001594	0.001693	28.0817	0.044308	0.001909	23.2083	124.976	-165.559	-0.038812	0.421100	-0.679013	-0.680334	-0.077895	23.2083	-0.676496	-9.338520E+8	8.341206E-11	NaN
1166	1.000000	0.464409	7.37646e+06	-57289.1	1105.82	-29737	0.000000	0.000000	6.464910	-0.071533	NaN	0.000000	0.001606	0.001733	28.082	0.153440	0.002081	73.7342	158.241	14.6967	-0.117832	0.463052	-0.637025	-0.638381	-0.071533	73.7342	-0.636297	-2.627089E+8	2.722913E-10	NaN
1166	1.000000	0.506454	7.37646e+06	-57289.1	1105.82	-29737	0.000000	0.000000	6.506954	-0.104884	NaN	0.000000	0.001588	0.001684	28.0818	0.118316	0.002065	57.2925	50.6533	-165.721	-0.129288	0.505119	-0.594980	-0.596315	-0.104884	57.2925	-0.593607	-6.798009E+7	1.542865E-9	NaN
1166	1.000000	0.548446	7.37646e+06	-57289.1	1105.82	-29737	0.000000	0.000000	6.548946	-0.093261	NaN	0.000000	0.001569	0.001684	28.0831	0.093868	0.002045	45.9005	-21.4141	17.1314	-0.029360	0.547085	-0.552987	-0.554348	-0.093261	45.9005	-0.551464	-1.779200E+7	5.241746E-9	NaN
1166	1.000000	0.590439	7.37646e+06	-57289.1	1105.82	-29737	0.000000	0.000000	6.590944	0.013689	NaN	0.000000	0.001558	0.001686	28.083	0.092430	0.002007	46.0621	120.152	-167.89	-0.030070	0.589138	-0.510994	-0.512296	0.013689	46.0621	-0.511217	-4.91326e+06	-2.786138E-9	NaN
1166	1.000000	0.632506	7.37646e+06	-57289.1	1105.82	-29737	0.000000	0.000000	6.633011	0.026174	NaN	0.000000	0.001575	0.001695	28.0829	0.059742	0.002031	29.421	38.5843	9.638247	0.001572	0.631149	-0.468928	-0.470285	0.026174	29.421	-0.469595	-1.28744e+06	-2.033002E-8	NaN
1166	1.000000	0.674484	7.37646e+06	-57289.1	1105.82	-29737	0.000000	0.000000	6.674987	-0.043649	NaN	0.000000	0.001571	0.001674	28.0825	0.051572	0.001995	25.8511	-20.9725	-169.216	-0.057950	0.673169	-0.426949	-0.428264	-0.043649	25.8511	-0.425683	-309709	1.409355E-7	NaN
1166	1.000000	0.716533	7.37646e+06	-57289.1	1105.82	-29737	0.000000	0.000000	6.717036	-0.033008	NaN	0.000000	0.001584	0.001728	28.0819	0.083668	0.001901	44.0202	-63.4985	14.6426	0.021486	0.715134	-0.384900	-0.386300	-0.033008	44.0202	-0.384338	-79817	4.135480E-7	NaN
1166	1.000000	0.758556	7.37646e+06	-57289.1	1105.82	-29737	0.000000	0.000000	6.759058	-0.065519	NaN	0.000000	0.001611	0.001722	28.082	0.063895	0.002086	30.6241	-148.589	-167.399	-0.035159	0.757237	-0.342877	-0.344197	-0.065519	30.6241	-0.341272	-19058.8	3.437711E-6	NaN
1166	1.000000	0.800547	7.37646e+06	-57289.1	1105.82	-29737	0.000000	0.000000	6.801049	-0.060517	NaN	0.000000	0.001592	0.001701	28.0819	0.024462	0.002017	12.1305	135.953	13.2519	-0.048636	0.799196	-0.300886	-0.302237	-0.060517	12.1305	-0.297144	-4266.66	1.418364E-5	NaN
1166	1.000000	0.842564	7.37646e+06	-57289.1	1105.82	-29737	0.000000	0.000000	6.843067	-0.024349	NaN	0.000000	0.001580	0.001671	28.0837	0.029569	0.002128	13.8966	-14.2742	-167.829	-0.008801	0.841269	-0.258870	-0.260164	-0.024349	13.8966	-0.257556	-1075.02	2.264945E-5	NaN
1166	1.000000	0.884578	7.37646e+06	-57289.1	1105.82	-29737	0.000000	0.000000	6.885080	-0.061325	NaN	0.000000	0.001628	0.001692	28.0839	0.099548	0.001822	54.6503	-101.84	12.6135	-0.108514	0.883211	-0.216855	-0.218223	-0.061325	54.6503	-0.216014	-239.777	0.000256	NaN
1166	1.000000	0.926618	7.37646e+06	-57289.1	1105.82	-29737	0.000000	0.000000	6.927122	-0.022529	NaN	0.000000	0.001595	0.001657	28.0833	0.111338	0.002001	55.6499	150.989	-167.801	-0.111152	0.925317	-0.174815	-0.176116	-0.022529	55.6499	-0.174511	-49.1564	0.000458	NaN
1166	1.000000	0.968625	7.37646e+06	-57289.1	1105.82	-29737	0.000000	0.000000	6.969129	-0.024499	NaN	0.000000	0.001606	0.001691	28.0821	0.073056	0.001931	37.825	-52.9739	12.6778	-0.048415	0.967261	-0.132808	-0.134173	-0.024499	37.825	-0.132322	-8.451517	0.002899	NaN
1166	1.000000	1.010629	7.37646e+06	-57289.1	1105.82	-29737	0.000000	0.000000	7.011130	-0.067470	NaN	0.000000	0.001629	0.001664	28.0818	0.094974	0.002062	46.0511	-99.8847	-165.032	-0.047799	1.009341	-0.090805	-0.092092	-0.067470	46.0511	-0.089706	-1.063919	0.063417	NaN
1166	1.000000	1.052659	7.37646e+06	-57289.1	1105.82	-29737	0.000000	0.000000	7.053161	-0.062893	NaN	0.000000	0.001563	0.001657	28.0817	0.069383	0.002007	34.5691	60.5732	12.4216	-0.089387	1.051279	-0.048774	-0.050154	-0.062893	34.5691	-0.047409	-0.076132	0.826104	NaN
1166	1.000000	1.094669	7.37646e+06	-57289.1	1105.82	-29737	0.000000	0.000000	7.095171	-0.049531	NaN	0.000000	0.001577	0.001613	28.083	0.063795	0.001953	32.6713	-159.577	-164.945	-0.061997	1.093370	-0.006764	-0.008063	-0.049531	32.6713	-0.005627	-0.003807	13.0092	NaN
1166	2.000000	1.113715	7.37646e+06	-57289.1	1105.82	-29737	0.000000	0.000000	7.115042	19.9866	NaN	0.000000	0.001549	0.001666	28.0838	17.5201	0.001698	10315.1	2.295455	4.542335	18.9193	1.113444	0.012282	0.012011	19.9866	10315.1	0.010829	0.010117	1975.51	93694.9
1166	2.000000	1.124148	7.37646e+06	-57289.1	1105.82	-29737	0.000000	0.000000	7.126587	47.0119	NaN	0.000000	0.001586	0.001666	28.0831	28.0454	0.001785	15708.5	7.668337	178.678	46.5075	1.123871	0.022715	0.022438	47.0119	15708.5	0.020470	0.023286	2018.85	94049.7
1166	2.000000	1.134671	7.37646e+06	-57289.1	1105.82	-29737	0.000000	0.000000	7.138483	80.3993	NaN	0.000000	0.001663	0.001698	28.0828	37.8529	0.001752	21608.1	5.253982	-2.958525	81.0616	1.134247	0.033237	0.032814	80.3993	21608.1	0.030447	0.041675	1929.21	96706.3
1166	2.000000	1.145129	7.37646e+06	-57289.1	1105.82	-29737	0.000000	0.000000	7.150953	129.292	NaN	0.000000	0.001685	0.001670	28.0819	47.984	0.001819	26376.8	4.694770	175.439	127.849	1.144750	0.043696	0.043317	129.292	26376.8	0.040020	0.064079	2017.68	95199.9
1166	2.000000	1.155557	7.37646e+06	-57289.1	1105.82	-29737	0.000000	0.000000	7.163638	184.165	NaN	0.000000	0.001675	0.001724	28.0818	58.7732	0.001792	32804.8	5.589438	-6.511458	177.764	1.155092	0.054123	0.053658	184.165	32804.8	0.049913	0.092143	1998.67	98736.8
1166	2.000000	1.166156	7.37646e+06	-57289.1	1105.82	-29737	0.000000	0.000000	7.176825	247.03	NaN	0.000000	0.001639	0.001741	28.0818	69.0803	0.001812	38123.3	8.414526	170.74	247.607	1.165665	0.064723	0.064231	247.03	38123.3	0.059863	0.125318	1971.22	98391.2
1166	2.000000	1.176574	7.37646e+06	-57289.1	1105.82	-29737	0.000000	0.000000	7.189906	311.76	NaN	0.000000	0.001592	0.001698	28.0831	78.4668	0.001691	46416.1	3.908880	-8.382676	306.801	1.176349	0.075141	0.074915	311.76	46416.1	0.070103	0.164509	1895.1	104555
1166	2.000000	1.187067	7.37646e+06	-57289.1	1105.82	-29737	0.000000	0.000000	7.203794	394.302	NaN	0.000000	0.001586	0.001675	28.0832	89.4223	0.001794	49833.2	6.706684	168.838	390.334	1.186715	0.085633	0.085282	394.302	49833.2	0.079699	0.205764	1916.28	100371
1166	2.000000	1.197552	7.37646e+06	-57289.1	1105.82	-29737	0.000000	0.000000	7.217880	481.807	NaN	0.000000	0.001572	0.001744	28.0829	99.3098	0.001928	51510.8	3.714375	-8.371157	478.667	1.197246	0.096119	0.095812	481.807	51510.8	0.089104	0.250366	1924.41	94055.4
1166	2.000000	1.204512	7.37646e+06	-57289.1	1105.82	-29737	0.000000	0.000000	7.227133	537.537	NaN	0.000000	0.001571	0.001708	28.0817	104.087	0.001699	61277.8	3.617740	-9.074914	531.293	1.204065	0.103079	0.102632	537.537	61277.8	0.096500	0.288299	1864.51	104269