File: remote_trans/data/nanoindenter/0828-1/data/Data_2025-08-06,11h17m57s/2025-07-22_16-23-58_1_276.txt
2025-07-22, 16:23:58, 1
Index	Phase	Displacement	Time	Pos X	Pos Y	Pos Z	Rot A	Rot B	Piezo Z	Force A	Force B	Gripper	Voltage A	Voltage B	Temperature	Amplitude force	Amplitude pos	Stiffness	Phase shift	Phase excitation	Force A raw	Displacement raw	HMax	HMax raw	Real Force	Real Stiffness	Contact Depth	Area	Hardness	Reduced Mod.
[#]	[#]	[um]	[s]	[um]	[um]	[um]	[m°]	[m°]	[um]	[uN]	[uN]	[V]	[V]	[V]	[°C]	[uN]	[um]	[N/m]	[°]	[°]	[uN]	[um]	[um]	[um]	[uN]	[N/m]	[um]	[um^2]	[MPa]	[MPa]
276	1.000000	0.003042	7.36775e+06	-52439.1	955.819	-29749.5	0.000000	0.000000	6.002800	0.033947	NaN	0.000000	0.001620	0.001707	28.0806	0.081368	0.001077	75.5846	117.439	-164.689	-0.076124	0.001826	-1.087811	-1.089027	0.033947	75.5846	-1.088148	-3.474931E+14	-9.769239E-17	NaN
276	1.000000	0.045000	7.36775e+06	-52439.1	955.819	-29749.5	0.000000	0.000000	6.044759	0.038189	NaN	0.000000	0.001622	0.001744	28.081	0.052584	0.001939	27.1133	-178.137	15.5466	0.068201	0.043669	-1.045853	-1.047184	0.038189	27.1133	-1.046909	-9.701998E+13	-3.936235E-16	NaN
276	1.000000	0.087030	7.36775e+06	-52439.1	955.818	-29749.5	0.000000	0.000000	6.086787	0.003911	NaN	0.000000	0.001606	0.001677	28.0804	0.039338	0.002035	19.332	-167.02	-162.326	0.040738	0.085668	-1.003823	-1.005185	0.003911	19.332	-1.003975	-2.566127E+13	-1.524166E-16	NaN
276	1.000000	0.129049	7.36776e+06	-52439.1	955.819	-29749.5	0.000000	0.000000	6.128809	0.085445	NaN	0.000000	0.001622	0.001674	28.0803	0.066199	0.002045	32.373	140.047	17.5017	0.108522	0.127642	-0.961804	-0.963211	0.085445	32.373	-0.963784	-7.377019E+12	-1.158259E-14	NaN
276	1.000000	0.171031	7.36776e+06	-52439.1	955.817	-29749.5	0.000000	0.000000	6.170793	0.103946	NaN	0.000000	0.001615	0.001793	28.0794	0.114710	0.001997	57.4359	175.414	-166.729	0.011790	0.169710	-0.919822	-0.921143	0.103946	57.4359	-0.921179	-1.963916E+12	-5.292799E-14	NaN
276	1.000000	0.213058	7.36776e+06	-52439.1	955.818	-29749.5	0.000000	0.000000	6.212814	-0.015030	NaN	0.000000	0.001656	0.001714	28.0793	0.047233	0.001993	23.7047	-162.271	14.6088	0.052328	0.211672	-0.877795	-0.879181	-0.015030	23.7047	-0.877319	-5.017140E+11	2.995772E-14	NaN
276	1.000000	0.255091	7.36776e+06	-52439.1	955.818	-29749.5	0.000000	0.000000	6.254849	0.020358	NaN	0.000000	0.001616	0.001701	28.0794	0.026634	0.002044	13.0281	-12.0159	-165.449	-0.032074	0.253729	-0.835762	-0.837124	0.020358	13.0281	-0.836934	-1.424788E+11	-1.428875E-13	NaN
276	1.000000	0.297102	7.36776e+06	-52439.1	955.817	-29749.5	0.000000	0.000000	6.296860	0.005096	NaN	0.000000	0.001589	0.001745	28.0804	0.025099	0.001913	13.1191	-146.439	18.2246	0.009949	0.295738	-0.793751	-0.795115	0.005096	13.1191	-0.794042	-3.732286E+10	-1.365345E-13	NaN
276	1.000000	0.339104	7.36776e+06	-52439.1	955.819	-29749.5	0.000000	0.000000	6.338861	0.000692	NaN	0.000000	0.001608	0.001723	28.0805	0.033931	0.001870	18.149	-42.2264	-162.448	-0.064846	0.337758	-0.751749	-0.753095	0.000692	18.149	-0.751778	-9.940661E+9	-6.960488E-14	NaN
276	1.000000	0.381116	7.36776e+06	-52439.1	955.818	-29749.5	0.000000	0.000000	6.380872	-0.027877	NaN	0.000000	0.001589	0.001746	28.0805	0.120670	0.001971	61.2356	44.3514	16.2384	-0.021824	0.379757	-0.709737	-0.711096	-0.027877	61.2356	-0.709396	-2.629071E+9	1.060353E-11	NaN
276	1.000000	0.423154	7.36776e+06	-52439.1	955.819	-29749.5	0.000000	0.000000	6.422911	-0.007612	NaN	0.000000	0.001596	0.001732	28.0794	0.068884	0.002051	33.5933	-145.806	-167.946	-0.012243	0.421876	-0.667699	-0.668977	-0.007612	33.5933	-0.667529	-7.039881E+8	1.081210E-11	NaN
276	1.000000	0.465184	7.36776e+06	-52439.1	955.819	-29749.5	0.000000	0.000000	6.464943	0.050267	NaN	0.000000	0.001581	0.001708	28.0791	0.106595	0.001964	54.2827	-94.449	14.5011	0.028987	0.463817	-0.625669	-0.627036	0.050267	54.2827	-0.626363	-1.918989E+8	-2.619474E-10	NaN
276	1.000000	0.507155	7.36776e+06	-52439.1	955.818	-29749.5	0.000000	0.000000	6.506913	0.029061	NaN	0.000000	0.001579	0.001721	28.079	0.028041	0.001965	14.2707	178.009	-167.054	0.029590	0.505895	-0.583698	-0.584958	0.029061	14.2707	-0.585225	-5.209799E+7	-5.578065E-10	NaN
276	1.000000	0.549215	7.36776e+06	-52439.1	955.819	-29749.5	0.000000	0.000000	6.548970	-0.051977	NaN	0.000000	0.001582	0.001670	28.0802	0.100560	0.002124	47.3528	111.483	16.5638	0.022715	0.547842	-0.541638	-0.543011	-0.051977	47.3528	-0.540815	-1.266666E+7	4.103445E-9	NaN
276	1.000000	0.591215	7.36776e+06	-52439.1	955.818	-29749.5	0.000000	0.000000	6.590972	-0.010044	NaN	0.000000	0.001632	0.001742	28.0806	0.036726	0.001971	18.6331	63.0811	-160.056	-0.001689	0.589959	-0.499638	-0.500894	-0.010044	18.6331	-0.499233	-3.34443e+06	3.003300E-9	NaN
276	1.000000	0.633242	7.36776e+06	-52439.1	955.818	-29749.5	0.000000	0.000000	6.632999	0.012246	NaN	0.000000	0.001649	0.001685	28.0807	0.086431	0.002014	42.922	-70.6721	11.8333	0.014022	0.631876	-0.457611	-0.458977	0.012246	42.922	-0.457825	-879938	-1.391734E-8	NaN
276	1.000000	0.675264	7.36776e+06	-52439.1	955.819	-29749.5	0.000000	0.000000	6.675023	0.035087	NaN	0.000000	0.001552	0.001681	28.0803	0.076528	0.002120	36.0962	135.922	-165.221	0.047105	0.673917	-0.415589	-0.416936	0.035087	36.0962	-0.416318	-228123	-1.538070E-7	NaN
276	1.000000	0.717256	7.36776e+06	-52439.1	955.818	-29749.5	0.000000	0.000000	6.717014	0.019468	NaN	0.000000	0.001671	0.001673	28.0793	0.107048	0.001914	55.9247	63.7869	13.1584	0.021071	0.715905	-0.373597	-0.374948	0.019468	55.9247	-0.373858	-56448.2	-3.448893E-7	NaN
276	1.000000	0.759282	7.36776e+06	-52439.1	955.819	-29749.5	0.000000	0.000000	6.759040	0.026857	NaN	0.000000	0.001594	0.001694	28.0795	0.088390	0.002087	42.3516	-136.643	-166.852	0.085637	0.758008	-0.331571	-0.332845	0.026857	42.3516	-0.332046	-13976.7	-1.921519E-6	NaN
276	1.000000	0.801329	7.36776e+06	-52439.1	955.818	-29749.5	0.000000	0.000000	6.801089	0.068682	NaN	0.000000	0.001620	0.001690	28.0794	0.082291	0.002029	40.5477	34.6044	13.2061	0.076042	0.799976	-0.289524	-0.290877	0.068682	40.5477	-0.290795	-3429.3	-2.002798E-5	NaN
276	1.000000	0.843334	7.36776e+06	-52439.1	955.819	-29749.5	0.000000	0.000000	6.843095	0.093398	NaN	0.000000	0.001622	0.001693	28.0806	0.088592	0.001862	47.5791	9.776554	-166.286	0.084274	0.842035	-0.247519	-0.248818	0.093398	47.5791	-0.248991	-793.156	-0.000118	NaN
276	1.000000	0.885344	7.36776e+06	-52439.1	955.819	-29749.5	0.000000	0.000000	6.885103	0.062229	NaN	0.000000	0.001599	0.001735	28.0806	0.084016	0.001900	44.2105	110.945	16.3694	0.114383	0.883974	-0.205509	-0.206879	0.062229	44.2105	-0.206565	-168.676	-0.000369	NaN
276	1.000000	0.927350	7.36776e+06	-52439.1	955.818	-29749.5	0.000000	0.000000	6.927108	0.040758	NaN	0.000000	0.001562	0.001667	28.0805	0.062489	0.001893	33.004	78.3817	-163.287	0.046380	0.925997	-0.163503	-0.164856	0.040758	33.004	-0.164430	-32.8309	-0.001241	NaN
276	1.000000	0.969346	7.36776e+06	-52439.1	955.818	-29749.5	0.000000	0.000000	6.969103	0.008958	NaN	0.000000	0.001556	0.001653	28.0793	0.016195	0.002068	7.829747	64.0979	10.304	0.003609	0.968029	-0.121507	-0.122824	0.008958	7.829747	-0.122365	-5.390060	-0.001662	NaN
276	1.000000	1.011383	7.36776e+06	-52439.1	955.818	-29749.5	0.000000	0.000000	7.011140	0.010401	NaN	0.000000	0.001551	0.001696	28.0792	0.071748	0.002034	35.2824	-23.4369	-168.519	0.000530	1.010094	-0.079470	-0.080759	0.010401	35.2824	-0.079691	-0.608078	-0.017105	NaN
276	1.000000	1.053404	7.36776e+06	-52439.1	955.818	-29749.5	0.000000	0.000000	7.053160	-0.021083	NaN	0.000000	0.001558	0.001740	28.0795	0.049335	0.002002	24.6435	-55.8484	14.8429	-0.003681	1.052067	-0.037449	-0.038786	-0.021083	24.6435	-0.036807	-0.036233	0.581862	NaN
276	1.000000	1.095384	7.36776e+06	-52439.1	955.818	-29749.5	0.000000	0.000000	7.095272	3.190018	NaN	0.000000	0.001538	0.001686	28.0804	4.014515	0.001868	2148.82	11.6614	-169.373	2.002960	1.094047	0.004531	0.003194	3.190018	2148.82	0.003418	0.002735	1166.55	37542.9
276	2.000000	1.109561	7.36776e+06	-52439.1	955.817	-29749.5	0.000000	0.000000	7.110114	19.3388	NaN	0.000000	0.001577	0.001683	28.0805	18.5833	0.001939	9585.35	7.349688	3.880074	19.8794	1.109206	0.018708	0.018353	19.3388	9585.35	0.017195	0.018325	1055.32	64693
276	2.000000	1.119946	7.36776e+06	-52439.1	955.817	-29749.5	0.000000	0.000000	7.121578	45.5833	NaN	0.000000	0.001536	0.001688	28.0808	28.7502	0.001817	15825.7	-0.325457	-175.019	42.6776	1.119659	0.029093	0.028806	45.5833	15825.7	0.026933	0.034626	1316.46	77702.7
276	2.000000	1.130464	7.36776e+06	-52439.1	955.818	-29749.5	0.000000	0.000000	7.133361	76.3622	NaN	0.000000	0.001596	0.001723	28.0809	38.7664	0.001788	21687	4.819142	-1.934762	74.6426	1.130106	0.039611	0.039253	76.3622	21687	0.036970	0.056432	1353.17	83408.5
276	2.000000	1.140970	7.36776e+06	-52439.1	955.819	-29749.5	0.000000	0.000000	7.145768	122.57	NaN	0.000000	0.001534	0.001701	28.0793	48.1071	0.001818	26461	4.708045	176.149	122.265	1.140613	0.050117	0.049760	122.57	26461	0.046643	0.082319	1488.95	84261.3
276	2.000000	1.151393	7.36776e+06	-52439.1	955.817	-29749.5	0.000000	0.000000	7.158087	168.67	NaN	0.000000	0.001569	0.001710	28.0794	56.2385	0.001744	32240.4	3.833907	-4.724658	163.352	1.151157	0.060540	0.060304	168.67	32240.4	0.056616	0.113954	1480.15	87258.5
276	2.000000	1.161967	7.36776e+06	-52439.1	955.817	-29749.5	0.000000	0.000000	7.170950	224.334	NaN	0.000000	0.001577	0.001677	28.0792	68.08	0.001861	36585.9	9.546066	168.912	222.345	1.161511	0.071114	0.070658	224.334	36585.9	0.066515	0.150202	1493.55	86248
276	2.000000	1.172446	7.36776e+06	-52439.1	955.816	-29749.5	0.000000	0.000000	7.184280	293.627	NaN	0.000000	0.001559	0.001677	28.0805	76.369	0.001686	45302.6	1.010121	-4.745994	291.759	1.172067	0.081593	0.081214	293.627	45302.6	0.076732	0.192546	1524.97	94325.4
276	2.000000	1.182939	7.36776e+06	-52439.1	955.817	-29749.5	0.000000	0.000000	7.197672	364.134	NaN	0.000000	0.001536	0.001717	28.0806	87.6397	0.001911	45868.7	9.283116	168.093	364.768	1.182583	0.092086	0.091730	364.134	45868.7	0.086132	0.235833	1544.04	86295.4
276	2.000000	1.193425	7.36776e+06	-52439.1	955.817	-29749.5	0.000000	0.000000	7.211256	439.44	NaN	0.000000	0.001620	0.001747	28.0806	95.9521	0.001803	53207.5	0.742658	-5.632013	438.008	1.193036	0.102572	0.102183	439.44	53207.5	0.096378	0.287653	1527.67	90638.2
276	2.000000	1.198899	7.36776e+06	-52439.1	955.817	-29749.5	0.000000	0.000000	7.218287	477.315	NaN	0.000000	0.001590	0.001713	28.0802	102.961	0.001855	55516.3	7.015231	167.369	475.233	1.198582	0.108046	0.107729	477.315	55516.3	0.101598	0.315894	1511	90245