File: remote_trans/data/nanoindenter/0828-1/data/Data_2025-08-06,11h17m57s/2025-07-22_16-23-58_1_1000.txt
2025-07-22, 16:23:58, 1
Index	Phase	Displacement	Time	Pos X	Pos Y	Pos Z	Rot A	Rot B	Piezo Z	Force A	Force B	Gripper	Voltage A	Voltage B	Temperature	Amplitude force	Amplitude pos	Stiffness	Phase shift	Phase excitation	Force A raw	Displacement raw	HMax	HMax raw	Real Force	Real Stiffness	Contact Depth	Area	Hardness	Reduced Mod.
[#]	[#]	[um]	[s]	[um]	[um]	[um]	[m°]	[m°]	[um]	[uN]	[uN]	[V]	[V]	[V]	[°C]	[uN]	[um]	[N/m]	[°]	[°]	[uN]	[um]	[um]	[um]	[uN]	[N/m]	[um]	[um^2]	[MPa]	[MPa]
1000	1.000000	0.002983	7.37483e+06	-50139.1	1055.82	-29756.7	0.000000	0.000000	6.002819	0.030418	NaN	0.000000	0.001648	0.001725	28.0846	0.040045	0.000994	40.292	62.2516	-166.324	0.020741	0.001709	-1.008097	-1.009370	0.030418	40.292	-1.008663	-2.967456E+13	-1.025056E-15	NaN
1000	1.000000	0.040917	7.37483e+06	-50139.1	1055.82	-29756.7	0.000000	0.000000	6.040753	0.015980	NaN	0.000000	0.001573	0.001765	28.0839	0.162847	0.001908	85.3619	-122.985	15.123	0.053177	0.039538	-0.970162	-0.971542	0.015980	85.3619	-0.970303	-9.031149E+12	-1.769470E-15	NaN
1000	1.000000	0.078942	7.37483e+06	-50139.1	1055.82	-29756.7	0.000000	0.000000	6.078778	0.022148	NaN	0.000000	0.001588	0.001737	28.0838	0.056739	0.001935	29.3204	3.349498	-166.343	0.087524	0.077630	-0.932138	-0.933450	0.022148	29.3204	-0.932705	-2.809939E+12	-7.882162E-15	NaN
1000	1.000000	0.116972	7.37483e+06	-50139.1	1055.82	-29756.7	0.000000	0.000000	6.116806	-0.023532	NaN	0.000000	0.001572	0.001741	28.0854	0.039919	0.002020	19.7667	-101.559	15.5812	0.011251	0.115584	-0.894108	-0.895496	-0.023532	19.7667	-0.893215	-8.229474E+11	2.859491E-14	NaN
1000	1.000000	0.154955	7.37483e+06	-50139.1	1055.82	-29756.7	0.000000	0.000000	6.154789	-0.021558	NaN	0.000000	0.001637	0.001752	28.0854	0.067664	0.001964	34.4451	178.589	-164.79	-0.035964	0.153633	-0.856125	-0.857446	-0.021558	34.4451	-0.855655	-2.554504E+11	8.439321E-14	NaN
1000	1.000000	0.192974	7.37483e+06	-50139.1	1055.82	-29756.7	0.000000	0.000000	6.192809	-0.015213	NaN	0.000000	0.001587	0.001746	28.0855	0.051317	0.001977	25.9505	-33.841	16.8358	-0.075823	0.191606	-0.818105	-0.819474	-0.015213	25.9505	-0.817666	-7.808247E+10	1.948275E-13	NaN
1000	1.000000	0.230972	7.37483e+06	-50139.1	1055.82	-29756.7	0.000000	0.000000	6.230807	-0.007857	NaN	0.000000	0.001595	0.001753	28.0842	0.025852	0.001957	13.2122	112.501	-167.026	0.035627	0.229704	-0.780107	-0.781376	-0.007857	13.2122	-0.779661	-2.380295E+10	3.301041E-13	NaN
1000	1.000000	0.268975	7.37483e+06	-50139.1	1055.82	-29756.7	0.000000	0.000000	6.268809	-0.033446	NaN	0.000000	0.001570	0.001743	28.0842	0.052216	0.002026	25.768	142.756	13.8915	0.014051	0.267643	-0.742105	-0.743437	-0.033446	25.768	-0.741131	-7.119763E+9	4.697692E-12	NaN
1000	1.000000	0.307026	7.37483e+06	-50139.1	1055.82	-29756.7	0.000000	0.000000	6.306863	0.028618	NaN	0.000000	0.001652	0.001771	28.0842	0.018649	0.002073	8.994835	93.5039	-167.951	0.010362	0.305704	-0.704053	-0.705375	0.028618	8.994835	-0.706440	-2.395818E+9	-1.194508E-11	NaN
1000	1.000000	0.345000	7.37483e+06	-50139.1	1055.82	-29756.7	0.000000	0.000000	6.344833	-0.046473	NaN	0.000000	0.001665	0.001792	28.0844	0.048759	0.002028	24.0442	170.987	12.6136	-0.076274	0.343715	-0.666080	-0.667365	-0.046473	24.0442	-0.664630	-6.425153E+8	7.232921E-11	NaN
1000	1.000000	0.383057	7.37483e+06	-50139.1	1055.82	-29756.7	0.000000	0.000000	6.382891	-0.035192	NaN	0.000000	0.001690	0.001777	28.0855	0.120544	0.002171	55.5233	47.8013	-162.178	-0.034170	0.381765	-0.628023	-0.629315	-0.035192	55.5233	-0.627547	-1.992215E+8	1.766451E-10	NaN
1000	1.000000	0.421058	7.37483e+06	-50139.1	1055.82	-29756.7	0.000000	0.000000	6.420891	-0.037321	NaN	0.000000	0.001606	0.001723	28.0854	0.020086	0.002114	9.502617	-128.297	14.1098	0.005138	0.419738	-0.590022	-0.591342	-0.037321	9.502617	-0.587076	-5.525258E+7	6.754644E-10	NaN
1000	1.000000	0.459076	7.37483e+06	-50139.1	1055.82	-29756.7	0.000000	0.000000	6.458909	-0.062008	NaN	0.000000	0.001572	0.001708	28.0855	0.056257	0.001988	28.2961	-31.6483	-163.114	-0.086312	0.457829	-0.552003	-0.553251	-0.062008	28.2961	-0.550360	-1.717658E+7	3.610036E-9	NaN
1000	1.000000	0.497103	7.37483e+06	-50139.1	1055.82	-29756.7	0.000000	0.000000	6.496939	0.014393	NaN	0.000000	0.001584	0.001678	28.0841	0.017527	0.001959	8.949088	-168.958	14.4286	-0.011718	0.495706	-0.513976	-0.515373	0.014393	8.949088	-0.515182	-5.57921e+06	-2.579822E-9	NaN
1000	1.000000	0.535129	7.37483e+06	-50139.1	1055.82	-29756.7	0.000000	0.000000	6.534961	-0.056217	NaN	0.000000	0.001610	0.001729	28.084	0.073093	0.002003	36.4986	100.702	-168.882	-0.018632	0.533792	-0.475951	-0.477287	-0.056217	36.4986	-0.474796	-1.52279e+06	3.691751E-8	NaN
1000	1.000000	0.573124	7.37483e+06	-50139.1	1055.82	-29756.7	0.000000	0.000000	6.572958	-0.022748	NaN	0.000000	0.001655	0.001690	28.0841	0.087438	0.001947	44.9046	-130.859	16.826	0.051989	0.571755	-0.437956	-0.439325	-0.022748	44.9046	-0.437576	-456187	4.986599E-8	NaN
1000	1.000000	0.611148	7.37483e+06	-50139.1	1055.82	-29756.7	0.000000	0.000000	6.610986	0.052197	NaN	0.000000	0.001571	0.001669	28.0841	0.038217	0.001958	19.5189	147.989	-169.1	-0.022240	0.609805	-0.399931	-0.401274	0.052197	19.5189	-0.401937	-142432	-3.664690E-7	NaN
1000	1.000000	0.649154	7.37484e+06	-50139.1	1055.82	-29756.7	0.000000	0.000000	6.648990	0.004076	NaN	0.000000	0.001547	0.001664	28.0853	0.095071	0.001873	50.7577	-94.7569	16.1306	-0.001272	0.647766	-0.361925	-0.363314	0.004076	50.7577	-0.361986	-38065.9	-1.070745E-7	NaN
1000	1.000000	0.687167	7.37484e+06	-50139.1	1055.82	-29756.7	0.000000	0.000000	6.686998	-0.090087	NaN	0.000000	0.001529	0.001636	28.0849	0.073934	0.001998	37.003	-140.506	-162.479	-0.108489	0.685861	-0.323913	-0.325219	-0.090087	37.003	-0.322087	-9984.77	9.022394E-6	NaN
1000	1.000000	0.725202	7.37484e+06	-50139.1	1055.82	-29756.7	0.000000	0.000000	6.725033	-0.100608	NaN	0.000000	0.001565	0.001710	28.085	0.113852	0.001903	59.8393	147.035	14.607	-0.143037	0.723846	-0.285878	-0.287234	-0.100608	59.8393	-0.284617	-2770.14	3.631887E-5	NaN
1000	1.000000	0.763230	7.37484e+06	-50139.1	1055.82	-29756.7	0.000000	0.000000	6.763066	0.010305	NaN	0.000000	0.001562	0.001683	28.085	0.018005	0.001886	9.547198	-111.515	-164.504	-0.023848	0.761896	-0.247850	-0.249184	0.010305	9.547198	-0.248659	-783.82	-1.314680E-5	NaN
1000	1.000000	0.801218	7.37484e+06	-50139.1	1055.82	-29756.7	0.000000	0.000000	6.801055	0.062312	NaN	0.000000	0.001621	0.001705	28.084	0.083181	0.001935	42.9832	138.365	17.1949	0.008578	0.799865	-0.209862	-0.211214	0.062312	42.9832	-0.210949	-198.692	-0.000314	NaN
1000	1.000000	0.839258	7.37484e+06	-50139.1	1055.82	-29756.7	0.000000	0.000000	6.839092	-0.022960	NaN	0.000000	0.001605	0.001663	28.0841	0.051572	0.002058	25.0538	74.0322	-163.441	-0.002396	0.837979	-0.171822	-0.173101	-0.022960	25.0538	-0.171134	-42.9822	0.000534	NaN
1000	1.000000	0.877266	7.37484e+06	-50139.1	1055.82	-29756.7	0.000000	0.000000	6.877103	0.053997	NaN	0.000000	0.001565	0.001686	28.0839	0.019321	0.001955	9.881566	-105.554	17.641	0.094799	0.875880	-0.133814	-0.135199	0.053997	9.881566	-0.137912	-10.8048	-0.004998	NaN
1000	1.000000	0.915271	7.37484e+06	-50139.1	1055.82	-29756.7	0.000000	0.000000	6.915107	0.036559	NaN	0.000000	0.001561	0.001684	28.0853	0.060993	0.001949	31.2977	-157.256	-165.178	0.037970	0.913978	-0.095809	-0.097102	0.036559	31.2977	-0.096685	-1.540371	-0.023734	NaN
1000	1.000000	0.953309	7.37484e+06	-50139.1	1055.82	-29756.7	0.000000	0.000000	6.953143	-0.016604	NaN	0.000000	0.001579	0.001663	28.0853	0.059231	0.001859	31.8562	114.453	15.4833	-0.015358	0.951973	-0.057771	-0.059107	-0.016604	31.8562	-0.057380	-0.151259	0.109774	NaN
1000	1.000000	0.991319	7.37484e+06	-50139.1	1055.82	-29756.7	0.000000	0.000000	6.991156	0.039084	NaN	0.000000	0.001582	0.001710	28.0857	0.077157	0.002012	38.3573	55.6031	-164.598	-0.055895	0.989956	-0.019761	-0.021124	0.039084	38.3573	-0.020525	-0.012953	-3.017421	NaN
1000	2.000000	1.018322	7.37484e+06	-50139.1	1055.82	-29756.7	0.000000	0.000000	7.018795	15.5189	NaN	0.000000	0.001544	0.001664	28.0854	12.6882	0.001669	7604.45	-1.894866	12.224	13.7619	1.018029	0.007243	0.006949	15.5189	7604.45	0.005712	0.004793	3238.15	100360
1000	2.000000	1.027742	7.37484e+06	-50139.1	1055.82	-29756.7	0.000000	0.000000	7.028890	31.9326	NaN	0.000000	0.001566	0.001685	28.0841	22.9184	0.001762	13003.5	6.624517	-178.56	30.4062	1.027456	0.016662	0.016376	31.9326	13003.5	0.014820	0.015046	2122.29	96854
1000	2.000000	1.037239	7.37484e+06	-50139.1	1055.82	-29756.7	0.000000	0.000000	7.039539	59.9422	NaN	0.000000	0.001525	0.001696	28.0842	31.4585	0.001811	17372.5	1.795199	3.464191	57.7314	1.036932	0.026159	0.025853	59.9422	17372.5	0.023571	0.028468	2105.62	94071.5
1000	2.000000	1.046718	7.37484e+06	-50139.1	1055.82	-29756.7	0.000000	0.000000	7.050370	92.8246	NaN	0.000000	0.001569	0.001712	28.0841	41.9302	0.001880	22297.8	6.297900	177.905	91.0892	1.046426	0.035638	0.035347	92.8246	22297.8	0.032516	0.046121	2012.65	94861
1000	2.000000	1.056189	7.37484e+06	-50139.1	1055.82	-29756.7	0.000000	0.000000	7.061927	143.567	NaN	0.000000	0.001586	0.001705	28.0855	51.3575	0.001745	29434.5	1.786998	-0.877121	140.887	1.055858	0.045109	0.044778	143.567	29434.5	0.041451	0.067832	2116.52	103256
1000	2.000000	1.065750	7.37484e+06	-50139.1	1055.82	-29756.7	0.000000	0.000000	7.073413	190.364	NaN	0.000000	0.001593	0.001721	28.0852	61.1058	0.001823	33526.9	5.423814	174.54	194.005	1.065390	0.054671	0.054310	190.364	33526.9	0.050412	0.093692	2031.8	100073
1000	2.000000	1.075152	7.37484e+06	-50139.1	1055.82	-29756.7	0.000000	0.000000	7.084866	240.235	NaN	0.000000	0.001531	0.001685	28.0855	70.8876	0.001815	39051.6	6.298113	-7.354851	235.841	1.074898	0.064072	0.063818	240.235	39051.6	0.059458	0.123873	1939.36	101373
1000	2.000000	1.084596	7.37484e+06	-50139.1	1055.82	-29756.7	0.000000	0.000000	7.097045	306.753	NaN	0.000000	0.001613	0.001688	28.0855	78.2005	0.001787	43756.6	4.220777	174.032	300.868	1.084280	0.073516	0.073200	306.753	43756.6	0.068258	0.157076	1952.89	100870
1000	2.000000	1.094139	7.37484e+06	-50139.1	1055.82	-29756.7	0.000000	0.000000	7.109573	379.349	NaN	0.000000	0.001555	0.001712	28.0845	86.4538	0.001705	50691.4	6.135210	-8.220496	374.731	1.093784	0.083059	0.082704	379.349	50691.4	0.077446	0.195691	1938.51	104694
1000	2.000000	1.103638	7.37484e+06	-50139.1	1055.82	-29756.7	0.000000	0.000000	7.121554	439.713	NaN	0.000000	0.001573	0.001736	28.0836	95.2131	0.001809	52623.8	7.418853	168.406	437.511	1.103328	0.092558	0.092248	439.713	52623.8	0.086292	0.236601	1858.46	98843.2
1000	2.000000	1.113079	7.37484e+06	-50139.1	1055.82	-29756.7	0.000000	0.000000	7.134543	525.982	NaN	0.000000	0.001547	0.001781	28.0836	102.716	0.001763	58278	6.715349	-10.4548	520.656	1.112577	0.102000	0.101498	525.982	58278	0.095231	0.281612	1867.76	100335