File: remote_trans/data/nanoindenter/0828-1/data/Data_2025-08-06,11h17m57s/2025-07-22_16-23-58_1_425.txt
2025-07-22, 16:23:58, 1
Index	Phase	Displacement	Time	Pos X	Pos Y	Pos Z	Rot A	Rot B	Piezo Z	Force A	Force B	Gripper	Voltage A	Voltage B	Temperature	Amplitude force	Amplitude pos	Stiffness	Phase shift	Phase excitation	Force A raw	Displacement raw	HMax	HMax raw	Real Force	Real Stiffness	Contact Depth	Area	Hardness	Reduced Mod.
[#]	[#]	[um]	[s]	[um]	[um]	[um]	[m°]	[m°]	[um]	[uN]	[uN]	[V]	[V]	[V]	[°C]	[uN]	[um]	[N/m]	[°]	[°]	[uN]	[um]	[um]	[um]	[uN]	[N/m]	[um]	[um^2]	[MPa]	[MPa]
425	1.000000	0.002594	7.36921e+06	-55839.1	1005.82	-29740.6	0.000000	0.000000	6.002796	-0.014439	NaN	0.000000	0.001615	0.001745	28.0812	0.038227	0.001008	37.934	165.141	-165	-0.028235	0.001384	-1.135124	-1.136334	-0.014439	37.934	-1.134839	-1.470702E+15	9.817725E-18	NaN
425	1.000000	0.044568	7.36921e+06	-55839.1	1005.82	-29740.6	0.000000	0.000000	6.044772	0.029261	NaN	0.000000	0.001610	0.001726	28.0798	0.040739	0.001980	20.5747	-45.6841	19.3462	-0.071139	0.043175	-1.093151	-1.094543	0.029261	20.5747	-1.094217	-4.192163E+14	-6.979999E-17	NaN
425	1.000000	0.086552	7.36921e+06	-55839.1	1005.82	-29740.6	0.000000	0.000000	6.086754	-0.027114	NaN	0.000000	0.001619	0.001736	28.08	0.097963	0.001934	50.6583	-88.6731	-161.557	-0.081513	0.085251	-1.051167	-1.052468	-0.027114	50.6583	-1.050765	-1.093201E+14	2.480272E-16	NaN
425	1.000000	0.128577	7.36922e+06	-55839.1	1005.82	-29740.6	0.000000	0.000000	6.128782	0.041723	NaN	0.000000	0.001630	0.001731	28.0799	0.036002	0.001996	18.035	137.735	16.0641	-0.048696	0.127254	-1.009142	-1.010464	0.041723	18.035	-1.010877	-3.178208E+13	-1.312787E-15	NaN
425	1.000000	0.170599	7.36922e+06	-55839.1	1005.82	-29740.6	0.000000	0.000000	6.170801	-0.033441	NaN	0.000000	0.001614	0.001729	28.0811	0.050399	0.002036	24.752	168.816	-163.888	0.025483	0.169293	-0.967119	-0.968425	-0.033441	24.752	-0.966106	-7.928326E+12	4.217898E-15	NaN
425	1.000000	0.212613	7.36922e+06	-55839.1	1005.82	-29740.6	0.000000	0.000000	6.212817	0.028127	NaN	0.000000	0.001674	0.001740	28.0812	0.040905	0.001901	21.5172	-142.816	15.7411	-0.000269	0.211271	-0.925105	-0.926447	0.028127	21.5172	-0.926086	-2.287518E+12	-1.229595E-14	NaN
425	1.000000	0.254641	7.36922e+06	-55839.1	1005.82	-29740.6	0.000000	0.000000	6.254847	0.063611	NaN	0.000000	0.001646	0.001723	28.0814	0.018504	0.002152	8.599488	118.885	-164.519	0.086964	0.253364	-0.883077	-0.884354	0.063611	8.599488	-0.888625	-7.133949E+11	-8.916597E-14	NaN
425	1.000000	0.296652	7.36922e+06	-55839.1	1005.82	-29740.6	0.000000	0.000000	6.296856	0.012038	NaN	0.000000	0.001606	0.001747	28.0801	0.042300	0.001918	22.0558	165.801	14.3415	0.000211	0.295314	-0.841066	-0.842404	0.012038	22.0558	-0.841476	-1.641672E+11	-7.332994E-14	NaN
425	1.000000	0.338654	7.36922e+06	-55839.1	1005.82	-29740.6	0.000000	0.000000	6.338858	0.021211	NaN	0.000000	0.001656	0.001750	28.0803	0.014592	0.002005	7.277039	-124.728	-167.752	0.096346	0.337371	-0.799065	-0.800347	0.021211	7.277039	-0.801251	-4.675636E+10	-4.536492E-13	NaN
425	1.000000	0.380681	7.36922e+06	-55839.1	1005.82	-29740.6	0.000000	0.000000	6.380881	-0.065666	NaN	0.000000	0.001612	0.001736	28.0805	0.154331	0.002031	76.0061	-159.509	14.762	-0.082911	0.379312	-0.757037	-0.758407	-0.065666	76.0061	-0.756389	-1.148624E+10	5.716958E-12	NaN
425	1.000000	0.422701	7.36922e+06	-55839.1	1005.82	-29740.6	0.000000	0.000000	6.422905	0.036331	NaN	0.000000	0.001648	0.001757	28.0805	0.041286	0.001971	20.9484	125.011	-166.994	0.064529	0.421387	-0.715018	-0.716331	0.036331	20.9484	-0.716318	-3.267813E+9	-1.111782E-11	NaN
425	1.000000	0.464711	7.36922e+06	-55839.1	1005.82	-29740.6	0.000000	0.000000	6.464917	0.075112	NaN	0.000000	0.001606	0.001734	28.0816	0.101184	0.001943	52.0877	18.83	14.6986	0.009272	0.463354	-0.673007	-0.674365	0.075112	52.0877	-0.674089	-8.656536E+8	-8.676924E-11	NaN
425	1.000000	0.506748	7.36922e+06	-55839.1	1005.82	-29740.6	0.000000	0.000000	6.506951	-0.012540	NaN	0.000000	0.001623	0.001721	28.0816	0.037845	0.002005	18.88	52.8936	-164.333	-0.020851	0.505395	-0.630970	-0.632324	-0.012540	18.88	-0.630472	-2.185286E+8	5.738441E-11	NaN
425	1.000000	0.548762	7.36922e+06	-55839.1	1005.82	-29740.6	0.000000	0.000000	6.548965	-0.000638	NaN	0.000000	0.001605	0.001743	28.0817	0.076388	0.001968	38.8221	3.682534	13.1687	0.052671	0.547412	-0.588956	-0.590306	-0.000638	38.8221	-0.588944	-5.862766E+7	1.087703E-11	NaN
425	1.000000	0.590757	7.36922e+06	-55839.1	1005.82	-29740.6	0.000000	0.000000	6.590960	-0.012810	NaN	0.000000	0.001594	0.001661	28.0806	0.054368	0.002070	26.2595	-137.929	-163.997	-0.073426	0.589463	-0.546961	-0.548256	-0.012810	26.2595	-0.546595	-1.523296E+7	8.409384E-10	NaN
425	1.000000	0.632782	7.36922e+06	-55839.1	1005.82	-29740.6	0.000000	0.000000	6.632985	0.008020	NaN	0.000000	0.001591	0.001710	28.0812	0.111663	0.002022	55.2296	-111.878	9.792224	-0.105971	0.631452	-0.504937	-0.506266	0.008020	55.2296	-0.505046	-4.03069e+06	-1.989722E-9	NaN
425	1.000000	0.674816	7.36922e+06	-55839.1	1005.82	-29740.6	0.000000	0.000000	6.675017	-0.055452	NaN	0.000000	0.001617	0.001715	28.0807	0.156187	0.001891	82.6002	176.868	-163.592	-0.078107	0.673476	-0.462902	-0.464242	-0.055452	82.6002	-0.462399	-1.02029e+06	5.434906E-8	NaN
425	1.000000	0.716852	7.36922e+06	-55839.1	1005.82	-29740.6	0.000000	0.000000	6.717054	-0.013258	NaN	0.000000	0.001577	0.001730	28.0818	0.012029	0.001918	6.271953	-64.4354	17.1567	0.010039	0.715483	-0.420867	-0.422235	-0.013258	6.271953	-0.419281	-251316	5.275637E-8	NaN
425	1.000000	0.758878	7.36922e+06	-55839.1	1005.82	-29740.6	0.000000	0.000000	6.759084	0.056905	NaN	0.000000	0.001525	0.001717	28.0816	0.041833	0.001929	21.6882	148.949	-167.159	0.099950	0.757567	-0.378840	-0.380152	0.056905	21.6882	-0.380808	-71036.7	-8.010691E-7	NaN
425	1.000000	0.800876	7.36922e+06	-55839.1	1005.82	-29740.6	0.000000	0.000000	6.801079	0.002435	NaN	0.000000	0.001513	0.001734	28.0816	0.075776	0.001965	38.5587	13.0424	13.2659	0.045761	0.799491	-0.336843	-0.338227	0.002435	38.5587	-0.336890	-16450.8	-1.480376E-7	NaN
425	1.000000	0.842874	7.36922e+06	-55839.1	1005.82	-29740.6	0.000000	0.000000	6.843077	-0.010021	NaN	0.000000	0.001684	0.001680	28.0805	0.020360	0.001972	10.3259	49.38	-165.304	0.041067	0.841587	-0.294845	-0.296131	-0.010021	10.3259	-0.294117	-3844.97	2.606341E-6	NaN
425	1.000000	0.884931	7.36922e+06	-55839.1	1005.82	-29740.6	0.000000	0.000000	6.885134	0.006000	NaN	0.000000	0.001663	0.001736	28.0803	0.045948	0.002029	22.6464	-155.034	14.674	0.001808	0.883508	-0.252787	-0.254211	0.006000	22.6464	-0.252986	-914.287	-6.562949E-6	NaN
425	1.000000	0.926894	7.36922e+06	-55839.1	1005.82	-29740.6	0.000000	0.000000	6.927098	0.039486	NaN	0.000000	0.001597	0.001743	28.0804	0.037070	0.001977	18.7546	-117.382	-162.296	0.042876	0.925634	-0.210825	-0.212084	0.039486	18.7546	-0.212404	-209.741	-0.000188	NaN
425	1.000000	0.968944	7.36922e+06	-55839.1	1005.82	-29740.6	0.000000	0.000000	6.969148	0.021119	NaN	0.000000	0.001610	0.001743	28.0804	0.098962	0.001967	50.3079	24.6478	17.3611	-0.022698	0.967606	-0.168774	-0.170112	0.021119	50.3079	-0.169089	-39.6081	-0.000533	NaN
425	1.000000	1.010955	7.36922e+06	-55839.1	1005.82	-29740.6	0.000000	0.000000	7.011159	0.029419	NaN	0.000000	0.001559	0.001724	28.0814	0.124968	0.001973	63.3422	-104.069	-167.635	0.013778	1.009656	-0.126764	-0.128062	0.029419	63.3422	-0.127112	-6.692944	-0.004396	NaN
425	1.000000	1.052961	7.36922e+06	-55839.1	1005.82	-29740.6	0.000000	0.000000	7.053166	0.031753	NaN	0.000000	0.001571	0.001715	28.0813	0.035098	0.001902	18.4546	-138.462	13.0728	0.015427	1.051569	-0.084757	-0.086149	0.031753	18.4546	-0.086047	-0.870852	-0.036462	NaN
425	1.000000	1.094978	7.36922e+06	-55839.1	1005.82	-29740.6	0.000000	0.000000	7.095178	-0.057154	NaN	0.000000	0.001604	0.001812	28.0815	0.050658	0.002000	25.3243	-75.7744	-166.663	-0.020857	1.093690	-0.042741	-0.044028	-0.057154	25.3243	-0.041048	-0.048667	1.174385	NaN
425	1.000000	1.137001	7.36922e+06	-55839.1	1005.82	-29740.6	0.000000	0.000000	7.137388	4.470852	NaN	0.000000	0.001554	0.001747	28.0801	1.778430	0.002026	877.793	10.9774	13.1329	4.153137	1.135616	-0.000718	-0.002102	4.470852	877.793	-0.004538	-0.003124	-1431.04	NaN
425	2.000000	1.153495	7.36922e+06	-55839.1	1005.82	-29740.6	0.000000	0.000000	7.154631	22.6742	NaN	0.000000	0.001614	0.001747	28.0801	18.0332	0.001754	10284	5.842312	-174.015	23.6083	1.153115	0.015776	0.015397	22.6742	10284	0.014123	0.014133	1604.32	79034.4
425	2.000000	1.163963	7.36922e+06	-55839.1	1005.82	-29740.6	0.000000	0.000000	7.166039	45.5235	NaN	0.000000	0.001560	0.001725	28.08	27.9391	0.001902	14688.8	4.956433	2.809808	45.6179	1.163589	0.026245	0.025871	45.5235	14688.8	0.023921	0.029081	1565.39	78696
425	2.000000	1.174389	7.36922e+06	-55839.1	1005.82	-29740.6	0.000000	0.000000	7.177624	73.6929	NaN	0.000000	0.001557	0.001770	28.0813	36.5131	0.001776	20556.1	4.209083	179.812	71.7785	1.174151	0.036671	0.036433	73.6929	20556.1	0.033982	0.049403	1491.68	84496.8
425	2.000000	1.184935	7.36922e+06	-55839.1	1005.82	-29740.6	0.000000	0.000000	7.190132	121.388	NaN	0.000000	0.001628	0.001740	28.0813	45.0877	0.001739	25930.7	4.311738	-1.700879	120.472	1.184523	0.047217	0.046805	121.388	25930.7	0.043706	0.073956	1641.34	87116.6
425	2.000000	1.195430	7.36922e+06	-55839.1	1005.82	-29740.6	0.000000	0.000000	7.203080	181.013	NaN	0.000000	0.001644	0.001737	28.0813	56.7292	0.001933	29353	3.785403	178.386	180.762	1.195076	0.057712	0.057358	181.013	29353	0.053087	0.102193	1771.29	83891.1
425	2.000000	1.205802	7.36922e+06	-55839.1	1005.82	-29740.6	0.000000	0.000000	7.216335	251.088	NaN	0.000000	0.001676	0.001746	28.0804	65.32	0.001924	33947	4.657323	-5.476964	244.954	1.205459	0.068084	0.067741	251.088	33947	0.062536	0.135060	1859.09	84393.8
425	2.000000	1.216402	7.36922e+06	-55839.1	1005.82	-29740.6	0.000000	0.000000	7.229990	325.344	NaN	0.000000	0.001686	0.001713	28.0809	75.117	0.001852	40564.5	2.966209	175.027	324.397	1.216106	0.078684	0.078388	325.344	40564.5	0.072668	0.175112	1857.92	88564.8
425	2.000000	1.226848	7.36922e+06	-55839.1	1005.82	-29740.6	0.000000	0.000000	7.244408	421.93	NaN	0.000000	0.001685	0.001742	28.0801	82.9556	0.001754	47297.5	5.607344	-8.084947	420.033	1.226597	0.089129	0.088879	421.93	47297.5	0.082439	0.218334	1932.5	92480.6
425	2.000000	1.237296	7.36922e+06	-55839.1	1005.82	-29740.6	0.000000	0.000000	7.258945	521.299	NaN	0.000000	0.001692	0.001756	28.0802	92.4961	0.001785	51831.9	6.065338	170.21	516.809	1.236915	0.099577	0.099196	521.299	51831.9	0.092034	0.265096	1966.45	91974.7
425	2.000000	1.243214	7.36922e+06	-55839.1	1005.82	-29740.6	0.000000	0.000000	7.267525	585.989	NaN	0.000000	0.001719	0.001768	28.0815	97.7563	0.001744	56039.1	3.333503	173.255	579.22	1.243001	0.105496	0.105283	585.989	56039.1	0.097653	0.294440	1990.18	94355.2