File: remote_trans/data/nanoindenter/0828-1/data/Data_2025-08-06,11h17m57s/2025-07-22_16-23-58_1_1105.txt
2025-07-22, 16:23:58, 1
Index	Phase	Displacement	Time	Pos X	Pos Y	Pos Z	Rot A	Rot B	Piezo Z	Force A	Force B	Gripper	Voltage A	Voltage B	Temperature	Amplitude force	Amplitude pos	Stiffness	Phase shift	Phase excitation	Force A raw	Displacement raw	HMax	HMax raw	Real Force	Real Stiffness	Contact Depth	Area	Hardness	Reduced Mod.
[#]	[#]	[um]	[s]	[um]	[um]	[um]	[m°]	[m°]	[um]	[uN]	[uN]	[V]	[V]	[V]	[°C]	[uN]	[um]	[N/m]	[°]	[°]	[uN]	[um]	[um]	[um]	[uN]	[N/m]	[um]	[um^2]	[MPa]	[MPa]
1105	1.000000	0.002584	7.37586e+06	-55389.1	1055.82	-29741.6	0.000000	0.000000	6.002812	0.067107	NaN	0.000000	0.001600	0.001707	28.0805	0.073114	0.000929	78.7205	85.2402	-166.096	0.050571	0.001336	-1.151311	-1.152559	0.067107	78.7205	-1.151950	-2.494393E+15	-2.690317E-17	NaN
1105	1.000000	0.044509	7.37586e+06	-55389.1	1055.82	-29741.6	0.000000	0.000000	6.044737	0.054415	NaN	0.000000	0.001615	0.001678	28.0807	0.120796	0.001955	61.7796	105.711	16.1632	0.026781	0.043141	-1.109386	-1.110754	0.054415	61.7796	-1.110047	-6.837767E+14	-7.957934E-17	NaN
1105	1.000000	0.086540	7.37586e+06	-55389.1	1055.82	-29741.6	0.000000	0.000000	6.086767	0.021873	NaN	0.000000	0.001616	0.001659	28.0807	0.101753	0.001884	54.0209	96.9176	-163.903	-0.044692	0.085165	-1.067355	-1.068730	0.021873	54.0209	-1.067658	-1.843862E+14	-1.186260E-16	NaN
1105	1.000000	0.128534	7.37586e+06	-55389.1	1055.82	-29741.6	0.000000	0.000000	6.128763	0.078258	NaN	0.000000	0.001565	0.001635	28.0824	0.064139	0.002004	32.0091	-151.496	12.04	0.167804	0.127232	-1.025360	-1.026663	0.078258	32.0091	-1.027194	-5.269111E+13	-1.485224E-15	NaN
1105	1.000000	0.170548	7.37586e+06	-55389.1	1055.82	-29741.6	0.000000	0.000000	6.170772	-0.015606	NaN	0.000000	0.001608	0.001655	28.0821	0.130892	0.002004	65.3163	-110.474	-168.582	-0.044022	0.169286	-0.983347	-0.984609	-0.015606	65.3163	-0.983168	-1.346143E+13	1.159277E-15	NaN
1105	1.000000	0.212593	7.37586e+06	-55389.1	1055.82	-29741.6	0.000000	0.000000	6.212819	0.029178	NaN	0.000000	0.001604	0.001617	28.0817	0.078879	0.002021	39.0351	-122.525	11.1532	0.052047	0.211250	-0.941302	-0.942645	0.029178	39.0351	-0.941863	-3.734815E+12	-7.812461E-15	NaN
1105	1.000000	0.254627	7.37586e+06	-55389.1	1055.82	-29741.6	0.000000	0.000000	6.254854	0.060681	NaN	0.000000	0.001616	0.001641	28.0806	0.024383	0.002011	12.1255	-19.8109	-169.417	0.009768	0.253305	-0.899268	-0.900590	0.060681	12.1255	-0.903022	-1.116591E+12	-5.434447E-14	NaN
1105	1.000000	0.296601	7.37586e+06	-55389.1	1055.82	-29741.6	0.000000	0.000000	6.296828	0.035121	NaN	0.000000	0.001615	0.001587	28.0806	0.090919	0.002005	45.3369	29.5728	15.9646	0.019999	0.295222	-0.857294	-0.858673	0.035121	45.3369	-0.857875	-2.737524E+11	-1.282945E-13	NaN
1105	1.000000	0.338651	7.37586e+06	-55389.1	1055.82	-29741.6	0.000000	0.000000	6.338878	0.056307	NaN	0.000000	0.001628	0.001659	28.0806	0.114257	0.001891	60.4108	-178.098	-166.412	0.076423	0.337313	-0.815244	-0.816582	0.056307	60.4108	-0.815943	-7.399390E+10	-7.609661E-13	NaN
1105	1.000000	0.380668	7.37586e+06	-55389.1	1055.82	-29741.6	0.000000	0.000000	6.380896	0.060542	NaN	0.000000	0.001603	0.001673	28.0806	0.026895	0.001946	13.8215	-105.133	11.3999	0.061671	0.379330	-0.773227	-0.774565	0.060542	13.8215	-0.776512	-2.156898E+10	-2.806891E-12	NaN
1105	1.000000	0.422688	7.37586e+06	-55389.1	1055.82	-29741.6	0.000000	0.000000	6.422916	0.049620	NaN	0.000000	0.001615	0.001657	28.0817	0.114618	0.002010	57.0312	-12.5067	-166.643	-0.042638	0.421350	-0.731207	-0.732545	0.049620	57.0312	-0.731859	-5.322903E+9	-9.321930E-12	NaN
1105	1.000000	0.464679	7.37586e+06	-55389.1	1055.82	-29741.6	0.000000	0.000000	6.464906	0.039122	NaN	0.000000	0.001606	0.001650	28.0817	0.074367	0.001966	37.8361	13.4934	17.0373	0.039855	0.463383	-0.689216	-0.690512	0.039122	37.8361	-0.689992	-1.428243E+9	-2.739166E-11	NaN
1105	1.000000	0.506713	7.37586e+06	-55389.1	1055.82	-29741.6	0.000000	0.000000	6.506939	0.011500	NaN	0.000000	0.001597	0.001681	28.0818	0.085013	0.001939	43.8471	159.142	-166.189	-0.006523	0.505397	-0.647182	-0.648498	0.011500	43.8471	-0.647379	-3.728166E+8	-3.084590E-11	NaN
1105	1.000000	0.548720	7.37586e+06	-55389.1	1055.82	-29741.6	0.000000	0.000000	6.548947	0.022248	NaN	0.000000	0.001615	0.001665	28.0806	0.005990	0.002015	2.972693	139.292	11.5373	0.071818	0.547409	-0.605175	-0.606486	0.022248	2.972693	-0.610788	-1.172072E+8	-1.898199E-10	NaN
1105	1.000000	0.590728	7.37586e+06	-55389.1	1055.82	-29741.6	0.000000	0.000000	6.590952	-0.018402	NaN	0.000000	0.001606	0.001674	28.0804	0.032057	0.001851	17.3225	-23.9567	-164.34	-0.028909	0.589422	-0.563167	-0.564473	-0.018402	17.3225	-0.562370	-2.518636E+7	7.306248E-10	NaN
1105	1.000000	0.632748	7.37586e+06	-55389.1	1055.82	-29741.6	0.000000	0.000000	6.632973	-0.019632	NaN	0.000000	0.001583	0.001665	28.0807	0.096400	0.001970	48.9286	167.633	17.6607	-0.008486	0.631386	-0.521146	-0.522509	-0.019632	48.9286	-0.520846	-6.68893e+06	2.934980E-9	NaN
1105	1.000000	0.674814	7.37586e+06	-55389.1	1055.82	-29741.6	0.000000	0.000000	6.675036	-0.082981	NaN	0.000000	0.001582	0.001652	28.0816	0.038989	0.001913	20.386	102.709	-166.083	0.012897	0.673429	-0.479081	-0.480466	-0.082981	20.386	-0.476028	-1.58454e+06	5.236890E-8	NaN
1105	1.000000	0.716791	7.37586e+06	-55389.1	1055.82	-29741.6	0.000000	0.000000	6.717016	0.009229	NaN	0.000000	0.001576	0.001635	28.0818	0.045234	0.001913	23.6501	-104.855	10.2858	0.002264	0.715445	-0.437104	-0.438450	0.009229	23.6501	-0.437397	-453540	-2.034928E-8	NaN
1105	1.000000	0.758831	7.37586e+06	-55389.1	1055.82	-29741.6	0.000000	0.000000	6.759058	0.043530	NaN	0.000000	0.001565	0.001659	28.0817	0.073068	0.002039	35.8385	135.119	-167.474	-0.060180	0.757488	-0.395064	-0.396407	0.043530	35.8385	-0.395975	-117101	-3.717281E-7	NaN
1105	1.000000	0.800860	7.37586e+06	-55389.1	1055.82	-29741.6	0.000000	0.000000	6.801087	0.048970	NaN	0.000000	0.001548	0.001711	28.0805	0.077327	0.001955	39.5575	-40.8565	14.0125	-0.020232	0.799506	-0.353035	-0.354388	0.048970	39.5575	-0.353964	-29139.5	-1.680525E-6	NaN
1105	1.000000	0.842831	7.37586e+06	-55389.1	1055.82	-29741.6	0.000000	0.000000	6.843056	0.001691	NaN	0.000000	0.001637	0.001703	28.0806	0.044567	0.001946	22.9058	55.8325	-170.333	0.082530	0.841498	-0.311064	-0.312397	0.001691	22.9058	-0.311119	-6880.46	-2.457069E-7	NaN
1105	1.000000	0.884890	7.37586e+06	-55389.1	1055.82	-29741.6	0.000000	0.000000	6.885115	-0.006777	NaN	0.000000	0.001694	0.001726	28.0808	0.102400	0.001988	51.512	7.044270	17.2375	-0.007580	0.883509	-0.269005	-0.270386	-0.006777	51.512	-0.268906	-1602.93	4.227731E-6	NaN
1105	1.000000	0.926884	7.37586e+06	-55389.1	1055.82	-29741.6	0.000000	0.000000	6.927112	0.068223	NaN	0.000000	0.001676	0.001725	28.0808	0.120708	0.002059	58.615	126.293	-165.61	0.021853	0.925540	-0.227011	-0.228355	0.068223	58.615	-0.227884	-370.731	-0.000184	NaN
1105	1.000000	0.968886	7.37586e+06	-55389.1	1055.82	-29741.6	0.000000	0.000000	6.969113	0.035887	NaN	0.000000	0.001611	0.001700	28.0817	0.115855	0.001979	58.5504	-157.362	12.5296	0.018938	0.967500	-0.185008	-0.186395	0.035887	58.5504	-0.185468	-75.5126	-0.000475	NaN
1105	1.000000	1.010929	7.37586e+06	-55389.1	1055.82	-29741.6	0.000000	0.000000	7.011156	0.047712	NaN	0.000000	0.001559	0.001669	28.0816	0.065788	0.002068	31.8082	172.468	-167.083	-0.018252	1.009589	-0.142966	-0.144306	0.047712	31.8082	-0.144091	-14.1035	-0.003383	NaN
1105	1.000000	1.052904	7.37586e+06	-55389.1	1055.82	-29741.6	0.000000	0.000000	7.053130	0.006371	NaN	0.000000	0.001611	0.001665	28.0819	0.063270	0.002118	29.8785	-170.105	19.4368	-0.009418	1.051597	-0.100991	-0.102297	0.006371	29.8785	-0.101151	-1.937359	-0.003288	NaN
1105	1.000000	1.094968	7.37586e+06	-55389.1	1055.82	-29741.6	0.000000	0.000000	7.095192	-0.030435	NaN	0.000000	0.001580	0.001701	28.081	0.039812	0.002010	19.8101	-78.4475	-167.159	-0.032177	1.093711	-0.058927	-0.060184	-0.030435	19.8101	-0.057775	-0.155314	0.195957	NaN
1105	1.000000	1.136966	7.37586e+06	-55389.1	1055.82	-29741.6	0.000000	0.000000	7.137189	-0.053586	NaN	0.000000	0.001620	0.001638	28.0808	0.043133	0.002136	20.191	47.5833	12.9684	-0.028265	1.135593	-0.016929	-0.018302	-0.053586	20.191	-0.014938	-0.009238	5.800256	NaN
1105	2.000000	1.164535	7.37586e+06	-55389.1	1055.82	-29741.6	0.000000	0.000000	7.165340	14.084	NaN	0.000000	0.001606	0.001712	28.0806	13.2165	0.001587	8330.55	5.619129	-176.445	13.5095	1.164206	0.010640	0.010311	14.084	8330.55	0.009372	0.008492	1658.43	82591
1105	2.000000	1.174928	7.37586e+06	-55389.1	1055.82	-29741.6	0.000000	0.000000	7.176514	33.066	NaN	0.000000	0.001614	0.001597	28.082	24.0779	0.001773	13581.5	3.543514	3.566665	29.7431	1.174619	0.021033	0.020724	33.066	13581.5	0.019207	0.021312	1551.54	84998.8
1105	2.000000	1.185452	7.37586e+06	-55389.1	1055.82	-29741.6	0.000000	0.000000	7.188163	60.4111	NaN	0.000000	0.001600	0.001634	28.0819	34.2367	0.001706	20063.3	5.226437	178.788	60.787	1.185167	0.031557	0.031273	60.4111	20063.3	0.029299	0.039303	1537.05	92461.5
1105	2.000000	1.195891	7.37586e+06	-55389.1	1055.82	-29741.6	0.000000	0.000000	7.200194	99.1292	NaN	0.000000	0.001572	0.001662	28.0816	44.6944	0.001674	26705.1	5.091701	-3.885303	94.8567	1.195598	0.041996	0.041704	99.1292	26705.1	0.039212	0.062007	1598.68	97982
1105	2.000000	1.206533	7.37586e+06	-55389.1	1055.82	-29741.6	0.000000	0.000000	7.212538	140.484	NaN	0.000000	0.001604	0.001695	28.0803	56.5301	0.001853	30503.8	4.829750	176.475	142.252	1.206097	0.052638	0.052202	140.484	30503.8	0.049184	0.089907	1562.54	92945.6
1105	2.000000	1.216984	7.37586e+06	-55389.1	1055.82	-29741.6	0.000000	0.000000	7.225162	193.314	NaN	0.000000	0.001558	0.001693	28.0803	66.8922	0.001803	37092.4	5.796503	-7.311412	195.146	1.216800	0.063090	0.062905	193.314	37092.4	0.059181	0.122887	1573.1	96673
1105	2.000000	1.227350	7.37586e+06	-55389.1	1055.82	-29741.6	0.000000	0.000000	7.238361	262.175	NaN	0.000000	0.001605	0.001691	28.0811	74.9335	0.001824	41076.7	2.728780	175.384	258.113	1.227153	0.073455	0.073258	262.175	41076.7	0.068668	0.158713	1651.88	94202.3
1105	2.000000	1.237863	7.37586e+06	-55389.1	1055.82	-29741.6	0.000000	0.000000	7.251735	331.723	NaN	0.000000	0.001662	0.001694	28.0808	84.7058	0.001810	46799	0.880610	-3.683954	326.953	1.237469	0.083968	0.083574	331.723	46799	0.078652	0.201053	1649.93	95357.4
1105	2.000000	1.248333	7.37586e+06	-55389.1	1055.82	-29741.6	0.000000	0.000000	7.265032	400.467	NaN	0.000000	0.001633	0.001693	28.0821	94.73	0.001689	56094.3	6.008689	169.961	399.072	1.248099	0.094438	0.094205	400.467	56094.3	0.089083	0.250265	1600.17	102445
1105	2.000000	1.258316	7.37586e+06	-55389.1	1055.82	-29741.6	0.000000	0.000000	7.278554	486.471	NaN	0.000000	0.001606	0.001678	28.0822	105.391	0.001741	60519.4	4.898613	170.707	482.373	1.257961	0.104421	0.104066	486.471	60519.4	0.098393	0.298407	1630.23	101219