File: remote_trans/data/nanoindenter/0828-1/data/Data_2025-08-06,11h17m57s/2025-07-22_16-23-58_1_587.txt
2025-07-22, 16:23:58, 1
Index	Phase	Displacement	Time	Pos X	Pos Y	Pos Z	Rot A	Rot B	Piezo Z	Force A	Force B	Gripper	Voltage A	Voltage B	Temperature	Amplitude force	Amplitude pos	Stiffness	Phase shift	Phase excitation	Force A raw	Displacement raw	HMax	HMax raw	Real Force	Real Stiffness	Contact Depth	Area	Hardness	Reduced Mod.
[#]	[#]	[um]	[s]	[um]	[um]	[um]	[m°]	[m°]	[um]	[uN]	[uN]	[V]	[V]	[V]	[°C]	[uN]	[um]	[N/m]	[°]	[°]	[uN]	[um]	[um]	[um]	[uN]	[N/m]	[um]	[um^2]	[MPa]	[MPa]
587	1.000000	0.002332	7.37079e+06	-47739.1	1005.82	-29764.8	0.000000	0.000000	6.002792	0.012852	NaN	0.000000	0.001560	0.001826	28.078	0.031531	0.000882	35.732	-48.2544	-166.602	0.000655	0.001062	-1.147769	-1.149038	0.012852	35.732	-1.148039	-2.210673E+15	-5.813714E-18	NaN
587	1.000000	0.044286	7.37079e+06	-47739.1	1005.82	-29764.8	0.000000	0.000000	6.044748	0.054579	NaN	0.000000	0.001590	0.001771	28.0778	0.029026	0.002081	13.9453	122.106	14.4138	-0.033043	0.042931	-1.105814	-1.107169	0.054579	13.9453	-1.108749	-6.569061E+14	-8.308497E-17	NaN
587	1.000000	0.086303	7.37079e+06	-47739.1	1005.82	-29764.8	0.000000	0.000000	6.086764	0.046430	NaN	0.000000	0.001614	0.001776	28.0779	0.142798	0.001976	72.2716	119.671	-164.643	-0.016075	0.084972	-1.063798	-1.065129	0.046430	72.2716	-1.064279	-1.660839E+14	-2.795567E-16	NaN
587	1.000000	0.128306	7.37079e+06	-47739.1	1005.82	-29764.8	0.000000	0.000000	6.128770	0.096748	NaN	0.000000	0.001598	0.001758	28.0783	0.056229	0.002006	28.0267	176.56	15.1816	0.091245	0.126966	-1.021794	-1.023134	0.096748	28.0267	-1.024383	-4.829717E+13	-2.003189E-15	NaN
587	1.000000	0.170334	7.37079e+06	-47739.1	1005.82	-29764.8	0.000000	0.000000	6.170795	0.020945	NaN	0.000000	0.001522	0.001772	28.079	0.104307	0.001959	53.2465	-79.0995	-167.077	0.010576	0.169082	-0.979766	-0.981018	0.020945	53.2465	-0.980061	-1.222453E+13	-1.713338E-15	NaN
587	1.000000	0.212352	7.37079e+06	-47739.1	1005.82	-29764.8	0.000000	0.000000	6.212811	-0.010019	NaN	0.000000	0.001558	0.001805	28.0789	0.038046	0.001961	19.3995	117.303	11.5612	-0.004752	0.210980	-0.937749	-0.939120	-0.010019	19.3995	-0.937361	-3.247393E+12	3.085095E-15	NaN
587	1.000000	0.254379	7.37079e+06	-47739.1	1005.82	-29764.8	0.000000	0.000000	6.254841	0.059073	NaN	0.000000	0.001553	0.001745	28.079	0.035041	0.001854	18.8997	-135.498	-166.933	0.104054	0.253074	-0.895722	-0.897026	0.059073	18.8997	-0.898066	-9.570401E+11	-6.172421E-14	NaN
587	1.000000	0.296393	7.37079e+06	-47739.1	1005.82	-29764.8	0.000000	0.000000	6.296854	0.048532	NaN	0.000000	0.001602	0.001682	28.0776	0.045589	0.001930	23.623	126.865	10.428	0.111743	0.295029	-0.853708	-0.855071	0.048532	23.623	-0.855248	-2.522323E+11	-1.924100E-13	NaN
587	1.000000	0.338380	7.37079e+06	-47739.1	1005.82	-29764.8	0.000000	0.000000	6.338839	-0.020695	NaN	0.000000	0.001594	0.001686	28.0779	0.070086	0.001920	36.5114	95.4808	-165.507	-0.057501	0.337078	-0.811720	-0.813023	-0.020695	36.5114	-0.811295	-6.399482E+10	3.233847E-13	NaN
587	1.000000	0.380416	7.37079e+06	-47739.1	1005.82	-29764.8	0.000000	0.000000	6.380877	0.032812	NaN	0.000000	0.001594	0.001697	28.0778	0.088391	0.002114	41.8115	103.022	14.2723	0.066370	0.379091	-0.769685	-0.771009	0.032812	41.8115	-0.770273	-1.774286E+10	-1.849318E-12	NaN
587	1.000000	0.422438	7.37079e+06	-47739.1	1005.82	-29764.8	0.000000	0.000000	6.422901	0.066703	NaN	0.000000	0.001597	0.001708	28.079	0.054498	0.001980	27.5283	116.21	-167.861	0.010057	0.421137	-0.727662	-0.728963	0.066703	27.5283	-0.729479	-4.939814E+9	-1.350312E-11	NaN
587	1.000000	0.464448	7.37079e+06	-47739.1	1005.82	-29764.8	0.000000	0.000000	6.464912	0.098266	NaN	0.000000	0.001597	0.001701	28.079	0.024200	0.001916	12.6338	-117.394	15.2877	0.023880	0.463102	-0.685653	-0.686998	0.098266	12.6338	-0.691486	-1.497013E+9	-6.564137E-11	NaN
587	1.000000	0.506480	7.37079e+06	-47739.1	1005.82	-29764.8	0.000000	0.000000	6.506938	-0.039517	NaN	0.000000	0.001571	0.001691	28.0791	0.029084	0.002104	13.8236	8.271576	-167.464	0.033665	0.505157	-0.643620	-0.644943	-0.039517	13.8236	-0.641476	-3.094156E+8	1.277143E-10	NaN
587	1.000000	0.548468	7.37079e+06	-47739.1	1005.82	-29764.8	0.000000	0.000000	6.548929	0.026937	NaN	0.000000	0.001602	0.001638	28.0779	0.033069	0.001922	17.2086	117.218	17.6914	0.007701	0.547067	-0.601633	-0.603033	0.026937	17.2086	-0.602807	-9.101421E+7	-2.959627E-10	NaN
587	1.000000	0.590517	7.37079e+06	-47739.1	1005.82	-29764.8	0.000000	0.000000	6.590977	-0.006874	NaN	0.000000	0.001572	0.001720	28.078	0.082844	0.002172	38.1502	115.42	-166.795	0.000761	0.589179	-0.559583	-0.560921	-0.006874	38.1502	-0.559448	-2.294786E+7	2.995679E-10	NaN
587	1.000000	0.632541	7.37079e+06	-47739.1	1005.82	-29764.8	0.000000	0.000000	6.633003	0.065788	NaN	0.000000	0.001572	0.001672	28.0779	0.061482	0.001962	31.3322	-51.534	14.1776	0.043469	0.631138	-0.517560	-0.518962	0.065788	31.3322	-0.519135	-6.33231e+06	-1.038927E-8	NaN
587	1.000000	0.674544	7.37079e+06	-47739.1	1005.82	-29764.8	0.000000	0.000000	6.675004	0.017299	NaN	0.000000	0.001566	0.001686	28.0785	0.089949	0.001969	45.693	-115.631	-164.88	0.068540	0.673221	-0.475556	-0.476880	0.017299	45.693	-0.475840	-1.57498e+06	-1.098339E-8	NaN
587	1.000000	0.716567	7.37079e+06	-47739.1	1005.82	-29764.8	0.000000	0.000000	6.717030	0.085759	NaN	0.000000	0.001576	0.001603	28.0791	0.008607	0.001984	4.338693	47.7874	11.4841	0.029185	0.715191	-0.433533	-0.434909	0.085759	4.338693	-0.448358	-647463	-1.324544E-7	NaN
587	1.000000	0.758559	7.37079e+06	-47739.1	1005.82	-29764.8	0.000000	0.000000	6.759020	0.029331	NaN	0.000000	0.001620	0.001692	28.0791	0.028696	0.001898	15.1169	-157.135	-166.094	-0.003575	0.757317	-0.391541	-0.392784	0.029331	15.1169	-0.392997	-106172	-2.762612E-7	NaN
587	1.000000	0.800589	7.37079e+06	-47739.1	1005.82	-29764.8	0.000000	0.000000	6.801053	0.096730	NaN	0.000000	0.001631	0.001700	28.0791	0.078705	0.002048	38.4277	41.8174	12.9618	0.014073	0.799241	-0.349512	-0.350860	0.096730	38.4277	-0.351399	-26749	-3.616218E-6	NaN
587	1.000000	0.842608	7.37079e+06	-47739.1	1005.82	-29764.8	0.000000	0.000000	6.843069	0.034414	NaN	0.000000	0.001566	0.001665	28.078	0.049497	0.002068	23.929	139.679	-165.922	-0.038629	0.841304	-0.307492	-0.308796	0.034414	23.929	-0.308571	-6308.1	-5.455463E-6	NaN
587	1.000000	0.884640	7.37079e+06	-47739.1	1005.82	-29764.8	0.000000	0.000000	6.885103	0.061291	NaN	0.000000	0.001540	0.001659	28.0779	0.070379	0.001946	36.1675	86.3693	12.8883	0.030076	0.883285	-0.265460	-0.266816	0.061291	36.1675	-0.266731	-1485.21	-4.126762E-5	NaN
587	1.000000	0.926644	7.37079e+06	-47739.1	1005.82	-29764.8	0.000000	0.000000	6.927108	0.092251	NaN	0.000000	0.001593	0.001696	28.0779	0.073673	0.001906	38.6557	-93.2714	-163.572	0.134425	0.925342	-0.223456	-0.224759	0.092251	38.6557	-0.225246	-336.697	-0.000274	NaN
587	1.000000	0.968672	7.37079e+06	-47739.1	1005.82	-29764.8	0.000000	0.000000	6.969134	0.055607	NaN	0.000000	0.001576	0.001690	28.0789	0.125902	0.002145	58.7037	-98.8527	14.0157	0.010210	0.967288	-0.181429	-0.182812	0.055607	58.7037	-0.182139	-66.3419	-0.000838	NaN
587	1.000000	1.010667	7.37079e+06	-47739.1	1005.82	-29764.8	0.000000	0.000000	7.011129	0.043359	NaN	0.000000	0.001581	0.001664	28.0792	0.020794	0.001983	10.4861	-32.641	-166.065	0.083593	1.009386	-0.139433	-0.140714	0.043359	10.4861	-0.142534	-13.1941	-0.003286	NaN
587	1.000000	1.052704	7.37079e+06	-47739.1	1005.82	-29764.8	0.000000	0.000000	7.053166	0.052204	NaN	0.000000	0.001571	0.001698	28.0789	0.059003	0.001877	31.4314	6.599220	19.0024	0.027779	1.051368	-0.097397	-0.098732	0.052204	31.4314	-0.098642	-1.704378	-0.030630	NaN
587	1.000000	1.094703	7.37079e+06	-47739.1	1005.82	-29764.8	0.000000	0.000000	7.095164	0.029873	NaN	0.000000	0.001546	0.001696	28.0778	0.141506	0.001984	71.3064	-116.228	-165.812	0.000909	1.093403	-0.055397	-0.056697	0.029873	71.3064	-0.055711	-0.135152	-0.221034	NaN
587	1.000000	1.136748	7.37079e+06	-47739.1	1005.82	-29764.8	0.000000	0.000000	7.137207	-0.013109	NaN	0.000000	0.001567	0.001702	28.0779	0.059753	0.001827	32.7076	-171.707	13.3356	-0.078456	1.135410	-0.013352	-0.014691	-0.013109	32.7076	-0.013052	-0.008132	1.612020	NaN
587	2.000000	1.161223	7.37079e+06	-47739.1	1005.82	-29764.8	0.000000	0.000000	7.162336	15.8917	NaN	0.000000	0.001610	0.001777	28.0778	15.1466	0.001786	8482.22	6.514226	-174.629	14.8949	1.160965	0.011122	0.010864	15.8917	8482.22	0.009717	0.008869	1791.81	82289.4
587	2.000000	1.171698	7.3708e+06	-47739.1	1005.82	-29764.8	0.000000	0.000000	7.173688	37.2287	NaN	0.000000	0.001608	0.001715	28.0784	24.5164	0.001745	14052.7	4.216218	2.976960	37.0711	1.171341	0.021598	0.021241	37.2287	14052.7	0.019611	0.021934	1697.29	86690.4
587	2.000000	1.182177	7.3708e+06	-47739.1	1005.82	-29764.8	0.000000	0.000000	7.185283	64.3667	NaN	0.000000	0.001612	0.001730	28.0793	34.6796	0.001734	20000.1	2.898161	179.586	62.9064	1.181849	0.032076	0.031749	64.3667	20000.1	0.029662	0.040047	1607.28	91310.6
587	2.000000	1.192713	7.3708e+06	-47739.1	1005.82	-29764.8	0.000000	0.000000	7.197482	104.817	NaN	0.000000	0.001609	0.001690	28.0791	44.4667	0.001874	23727.8	11.7883	-8.630720	106.369	1.192193	0.042613	0.042093	104.817	23727.8	0.039300	0.062232	1684.3	86901.1
587	2.000000	1.203183	7.3708e+06	-47739.1	1005.82	-29764.8	0.000000	0.000000	7.209780	149.266	NaN	0.000000	0.001622	0.001697	28.0797	55.034	0.001857	29628.1	4.034007	176.192	148.367	1.202857	0.053083	0.052757	149.266	29628.1	0.049305	0.090276	1653.44	90093
587	2.000000	1.213682	7.3708e+06	-47739.1	1005.82	-29764.8	0.000000	0.000000	7.222329	199.136	NaN	0.000000	0.001605	0.001719	28.0782	65.0977	0.001851	35175.9	6.976630	-7.694561	200.582	1.213177	0.063582	0.063077	199.136	35175.9	0.059336	0.123438	1613.25	91473.4
587	2.000000	1.224066	7.3708e+06	-47739.1	1005.82	-29764.8	0.000000	0.000000	7.235361	263.549	NaN	0.000000	0.001546	0.001721	28.0781	73.7517	0.001783	41368	1.954984	175.497	261.143	1.223784	0.073966	0.073683	263.549	41368	0.069188	0.160799	1639	94253.2
587	2.000000	1.234594	7.3708e+06	-47739.1	1005.82	-29764.8	0.000000	0.000000	7.248494	326.913	NaN	0.000000	0.001561	0.001726	28.0781	84.584	0.001871	45213.3	6.939905	-10.3177	322.693	1.234144	0.084494	0.084044	326.913	45213.3	0.079071	0.202932	1610.95	91699
587	2.000000	1.245026	7.3708e+06	-47739.1	1005.82	-29764.8	0.000000	0.000000	7.262140	405.1	NaN	0.000000	0.001556	0.001718	28.0791	91.9097	0.001796	51183.1	5.802272	169.791	401.57	1.244779	0.094925	0.094679	405.1	51183.1	0.088989	0.249798	1621.71	93563.3
587	2.000000	1.254100	7.3708e+06	-47739.1	1005.82	-29764.8	0.000000	0.000000	7.273650	464.327	NaN	0.000000	0.001557	0.001747	28.0792	100.804	0.001756	57409.5	2.332184	172.743	463.416	1.253844	0.104000	0.103744	464.327	57409.5	0.097934	0.295942	1568.98	96417