File: remote_trans/data/nanoindenter/0828-1/data/Data_2025-08-06,11h17m57s/2025-07-22_16-23-58_1_720.txt
2025-07-22, 16:23:58, 1
Index	Phase	Displacement	Time	Pos X	Pos Y	Pos Z	Rot A	Rot B	Piezo Z	Force A	Force B	Gripper	Voltage A	Voltage B	Temperature	Amplitude force	Amplitude pos	Stiffness	Phase shift	Phase excitation	Force A raw	Displacement raw	HMax	HMax raw	Real Force	Real Stiffness	Contact Depth	Area	Hardness	Reduced Mod.
[#]	[#]	[um]	[s]	[um]	[um]	[um]	[m°]	[m°]	[um]	[uN]	[uN]	[V]	[V]	[V]	[°C]	[uN]	[um]	[N/m]	[°]	[°]	[uN]	[um]	[um]	[um]	[uN]	[N/m]	[um]	[um^2]	[MPa]	[MPa]
720	1.000000	0.002414	7.3721e+06	-41089.1	1005.82	-29787.3	0.000000	0.000000	6.002806	-0.009005	NaN	0.000000	0.001550	0.001753	28.0835	0.078931	0.001041	75.8314	130.407	-162.063	0.024889	0.001113	-1.175768	-1.177068	-0.009005	75.8314	-1.175679	-5.187707E+15	1.735803E-18	NaN
720	1.000000	0.046317	7.3721e+06	-41089.1	1005.82	-29787.3	0.000000	0.000000	6.046712	0.066751	NaN	0.000000	0.001608	0.001747	28.0838	0.068206	0.002072	32.9224	-134.757	-163.359	0.035820	0.045019	-1.131865	-1.133162	0.066751	32.9224	-1.133385	-1.406144E+15	-4.747097E-17	NaN
720	1.000000	0.090367	7.3721e+06	-41089.1	1005.82	-29787.3	0.000000	0.000000	6.090761	0.026918	NaN	0.000000	0.001560	0.001735	28.0828	0.026046	0.001953	13.3386	135.696	-167.962	0.044311	0.089060	-1.087814	-1.089121	0.026918	13.3386	-1.089328	-3.604025E+14	-7.468929E-17	NaN
720	1.000000	0.134378	7.3721e+06	-41089.1	1005.82	-29787.3	0.000000	0.000000	6.134774	0.090595	NaN	0.000000	0.001575	0.001685	28.0826	0.160278	0.001814	88.3659	115.604	-165.136	0.056052	0.133061	-1.043803	-1.045120	0.090595	88.3659	-1.044572	-9.024975E+13	-1.003824E-15	NaN
720	1.000000	0.178406	7.3721e+06	-41089.1	1005.82	-29787.3	0.000000	0.000000	6.178802	0.070751	NaN	0.000000	0.001647	0.001722	28.0827	0.045087	0.001994	22.6109	-89.7749	-163.835	0.019276	0.177105	-0.999775	-1.001077	0.070751	22.6109	-1.002122	-2.422928E+13	-2.920050E-15	NaN
720	1.000000	0.222420	7.3721e+06	-41089.1	1005.82	-29787.3	0.000000	0.000000	6.222815	0.044552	NaN	0.000000	0.001652	0.001741	28.0833	0.077025	0.001918	40.155	96.8042	-167.47	0.070414	0.221059	-0.955761	-0.957123	0.044552	40.155	-0.956593	-5.901195E+12	-7.549618E-15	NaN
720	1.000000	0.266456	7.3721e+06	-41089.1	1005.82	-29787.3	0.000000	0.000000	6.266850	0.034934	NaN	0.000000	0.001671	0.001747	28.0835	0.067693	0.002026	33.4097	-141.227	-166.572	0.080187	0.265148	-0.911725	-0.913034	0.034934	33.4097	-0.912509	-1.499881E+12	-2.329138E-14	NaN
720	1.000000	0.310472	7.3721e+06	-41089.1	1005.82	-29787.3	0.000000	0.000000	6.310865	0.010745	NaN	0.000000	0.001676	0.001786	28.0836	0.154823	0.001931	80.1885	-16.4375	-166.083	0.079352	0.309198	-0.867710	-0.868984	0.010745	80.1885	-0.867810	-3.730928E+11	-2.879891E-14	NaN
720	1.000000	0.354486	7.3721e+06	-41089.1	1005.82	-29787.3	0.000000	0.000000	6.354882	0.079342	NaN	0.000000	0.001572	0.001746	28.0833	0.065589	0.002022	32.4453	88.237	-165.31	0.101486	0.353161	-0.823696	-0.825021	0.079342	32.4453	-0.825530	-9.981346E+10	-7.949032E-13	NaN
720	1.000000	0.398499	7.3721e+06	-41089.1	1005.82	-29787.4	0.000000	0.000000	6.398892	0.001476	NaN	0.000000	0.001574	0.001754	28.0821	0.060177	0.002086	28.8505	94.2427	-162.255	0.027075	0.397125	-0.779682	-0.781056	0.001476	28.8505	-0.779721	-2.384717E+10	-6.189452E-14	NaN
720	1.000000	0.442519	7.3721e+06	-41089.1	1005.82	-29787.4	0.000000	0.000000	6.442914	0.056064	NaN	0.000000	0.001551	0.001772	28.0822	0.113480	0.002108	53.8452	176.003	-167.51	0.018059	0.441222	-0.735662	-0.736959	0.056064	53.8452	-0.736443	-6.146135E+9	-9.121757E-12	NaN
720	1.000000	0.486546	7.3721e+06	-41089.1	1005.82	-29787.4	0.000000	0.000000	6.486941	0.078828	NaN	0.000000	0.001604	0.001725	28.0821	0.042795	0.001927	22.2048	90.735	-167.864	0.032383	0.485195	-0.691636	-0.692986	0.078828	22.2048	-0.694298	-1.635504E+9	-4.819794E-11	NaN
720	1.000000	0.530579	7.3721e+06	-41089.1	1005.82	-29787.4	0.000000	0.000000	6.530974	0.064095	NaN	0.000000	0.001588	0.001710	28.0835	0.051741	0.001978	26.162	-10.7232	-162.641	0.093642	0.529240	-0.647602	-0.648941	0.064095	26.162	-0.649440	-3.978846E+8	-1.610892E-10	NaN
720	1.000000	0.574571	7.3721e+06	-41089.1	1005.82	-29787.4	0.000000	0.000000	6.574969	0.125607	NaN	0.000000	0.001586	0.001714	28.0836	0.087327	0.001997	43.729	41.7052	-164.811	0.153317	0.573290	-0.603610	-0.604892	0.125607	43.729	-0.605764	-9.995982E+7	-1.256578E-9	NaN
720	1.000000	0.618592	7.3721e+06	-41089.1	1005.82	-29787.4	0.000000	0.000000	6.618987	0.059101	NaN	0.000000	0.001537	0.001758	28.0836	0.157053	0.001918	81.8931	-68.653	-165.549	0.039365	0.617285	-0.559590	-0.560896	0.059101	81.8931	-0.560131	-2.345252E+7	-2.520028E-9	NaN
720	1.000000	0.662630	7.3721e+06	-41089.1	1005.82	-29787.4	0.000000	0.000000	6.663023	-0.005952	NaN	0.000000	0.001574	0.001731	28.0822	0.053424	0.002087	25.5974	-177.904	-164.138	-0.016073	0.661341	-0.515551	-0.516840	-0.005952	25.5974	-0.515377	-5.61405e+06	1.060126E-9	NaN
720	1.000000	0.706637	7.3721e+06	-41089.1	1005.82	-29787.4	0.000000	0.000000	6.707033	0.057394	NaN	0.000000	0.001561	0.001684	28.0823	0.035944	0.001961	18.333	58.3017	-166.144	0.063017	0.705336	-0.471544	-0.472846	0.057394	18.333	-0.473892	-1.47901e+06	-3.880542E-8	NaN
720	1.000000	0.750619	7.3721e+06	-41089.1	1005.82	-29787.4	0.000000	0.000000	6.751015	0.061825	NaN	0.000000	0.001523	0.001744	28.0827	0.093324	0.002067	45.1481	97.7759	-162.99	0.024649	0.749335	-0.427562	-0.428846	0.061825	45.1481	-0.428589	-340483	-1.815810E-7	NaN
720	1.000000	0.794662	7.3721e+06	-41089.1	1005.82	-29787.4	0.000000	0.000000	6.795057	0.045075	NaN	0.000000	0.001525	0.001737	28.0836	0.104648	0.002057	50.8791	-47.5085	-165.232	0.121197	0.793342	-0.383519	-0.384840	0.045075	50.8791	-0.384184	-79412.7	-5.675999E-7	NaN
720	1.000000	0.838660	7.3721e+06	-41089.1	1005.82	-29787.4	0.000000	0.000000	6.839059	0.156091	NaN	0.000000	0.001530	0.001748	28.0836	0.044535	0.001987	22.4091	178.564	-166.1	0.135398	0.837409	-0.339522	-0.340773	0.156091	22.4091	-0.344746	-21412.1	-7.289833E-6	NaN
720	1.000000	0.882693	7.3721e+06	-41089.1	1005.82	-29787.4	0.000000	0.000000	6.883091	0.126057	NaN	0.000000	0.001565	0.001739	28.0838	0.061427	0.001967	31.2209	106.952	-164.352	0.147641	0.881374	-0.295488	-0.296807	0.126057	31.2209	-0.298516	-4472.39	-2.818568E-5	NaN
720	1.000000	0.926699	7.3721e+06	-41089.1	1005.82	-29787.4	0.000000	0.000000	6.927094	0.053780	NaN	0.000000	0.001559	0.001696	28.0825	0.053340	0.002036	26.1978	-63.2681	-162.103	0.061601	0.925425	-0.251482	-0.252756	0.053780	26.1978	-0.253022	-915.454	-5.874700E-5	NaN
720	1.000000	0.970730	7.3721e+06	-41089.1	1005.82	-29787.4	0.000000	0.000000	6.971125	0.053348	NaN	0.000000	0.001558	0.001745	28.083	0.058150	0.001985	29.291	-120.622	-166.839	-0.000870	0.969437	-0.207452	-0.208744	0.053348	29.291	-0.208818	-183.508	-0.000291	NaN
720	1.000000	1.014761	7.3721e+06	-41089.1	1005.82	-29787.4	0.000000	0.000000	7.015156	0.050055	NaN	0.000000	0.001558	0.001755	28.0824	0.077090	0.002017	38.2118	-179.465	-166.782	0.020661	1.013428	-0.163420	-0.164753	0.050055	38.2118	-0.164403	-32.7954	-0.001526	NaN
720	1.000000	1.058787	7.3721e+06	-41089.1	1005.82	-29787.4	0.000000	0.000000	7.059182	0.035224	NaN	0.000000	0.001562	0.001715	28.0841	0.108071	0.002097	51.5462	-172.515	-163.131	0.054922	1.057469	-0.119394	-0.120712	0.035224	51.5462	-0.119906	-4.810541	-0.007322	NaN
720	1.000000	1.102767	7.3721e+06	-41089.1	1005.82	-29787.4	0.000000	0.000000	7.103161	0.020823	NaN	0.000000	0.001616	0.001742	28.0836	0.099588	0.001878	53.0275	-82.5431	-160.572	0.008421	1.101470	-0.075414	-0.076711	0.020823	53.0275	-0.075709	-0.481735	-0.043224	NaN
720	1.000000	1.146820	7.3721e+06	-41089.1	1005.82	-29787.4	0.000000	0.000000	7.147216	0.081888	NaN	0.000000	0.001552	0.001711	28.0837	0.091841	0.002066	44.4535	-31.8547	-165.817	0.030927	1.145506	-0.031361	-0.032675	0.081888	44.4535	-0.032743	-0.027524	-2.975084	NaN
720	2.000000	1.184386	7.3721e+06	-41089.1	1005.82	-29787.4	0.000000	0.000000	7.185241	11.2422	NaN	0.000000	0.001666	0.001682	28.0831	10.5129	0.001680	6258.81	9.459162	-174.538	10.9443	1.184065	0.006204	0.005883	11.2422	6258.81	0.004857	0.004003	2808.11	90374.5
720	2.000000	1.195332	7.3721e+06	-41089.1	1005.82	-29787.4	0.000000	0.000000	7.197104	33.5599	NaN	0.000000	0.001592	0.001721	28.0835	22.3842	0.001706	13120	7.690170	-179.245	33.015	1.195075	0.017151	0.016894	33.5599	13120	0.015232	0.015596	2151.81	95983.6
720	2.000000	1.206275	7.3721e+06	-41089.1	1005.82	-29787.4	0.000000	0.000000	7.209547	70.057	NaN	0.000000	0.001543	0.001732	28.0828	32.7474	0.001785	18341.4	5.346986	179.82	68.5972	1.205980	0.028094	0.027798	70.057	18341.4	0.025229	0.031433	2228.75	94517.2
720	2.000000	1.217293	7.3721e+06	-41089.1	1005.82	-29787.4	0.000000	0.000000	7.222337	113.183	NaN	0.000000	0.001572	0.001709	28.0836	44.8104	0.001721	26038.9	7.483013	174.478	111.899	1.216957	0.039112	0.038776	113.183	26038.9	0.035852	0.053747	2105.83	102617
720	2.000000	1.228250	7.3721e+06	-41089.1	1005.82	-29787.4	0.000000	0.000000	7.235464	165.964	NaN	0.000000	0.001589	0.001715	28.0838	54.9511	0.001908	28797.6	7.351236	175.006	164.597	1.227840	0.050069	0.049659	165.964	28797.6	0.045747	0.079721	2081.82	93184.5
720	2.000000	1.239203	7.3721e+06	-41089.1	1005.82	-29787.4	0.000000	0.000000	7.248959	227.833	NaN	0.000000	0.001589	0.001744	28.084	64.7761	0.001832	35367.1	5.701053	174.358	224.061	1.238862	0.061022	0.060681	227.833	35367.1	0.056190	0.112503	2025.13	96336.5
720	2.000000	1.250274	7.3721e+06	-41089.1	1005.82	-29787.4	0.000000	0.000000	7.262850	296.464	NaN	0.000000	0.001599	0.001736	28.0824	76.4514	0.001818	42060.3	5.943011	172.525	298.505	1.249974	0.072093	0.071792	296.464	42060.3	0.066806	0.151339	1958.94	98780.2
720	2.000000	1.261201	7.3721e+06	-41089.1	1005.82	-29787.4	0.000000	0.000000	7.277109	377.514	NaN	0.000000	0.001599	0.001737	28.0822	87.9918	0.001870	47050	6.572046	171.213	374.984	1.260964	0.083020	0.082783	377.514	47050	0.077002	0.193733	1948.63	97663.2
720	2.000000	1.272087	7.3721e+06	-41089.1	1005.82	-29787.4	0.000000	0.000000	7.291409	460.602	NaN	0.000000	0.001615	0.001651	28.0821	97.4688	0.001935	50373.3	4.694284	172.317	453.731	1.271949	0.093906	0.093767	460.602	50373.3	0.087048	0.240269	1917.03	93891.3
720	2.000000	1.280604	7.3721e+06	-41089.1	1005.82	-29787.4	0.000000	0.000000	7.303236	541.159	NaN	0.000000	0.001588	0.001709	28.0829	104.793	0.001736	60359.2	2.690434	-6.610907	533.045	1.280382	0.102422	0.102201	541.159	60359.2	0.095698	0.284065	1905.05	103468