File: remote_trans/data/nanoindenter/0828-1/data/Data_2025-08-06,11h17m57s/2025-07-22_16-23-58_1_774.txt
2025-07-22, 16:23:58, 1
Index	Phase	Displacement	Time	Pos X	Pos Y	Pos Z	Rot A	Rot B	Piezo Z	Force A	Force B	Gripper	Voltage A	Voltage B	Temperature	Amplitude force	Amplitude pos	Stiffness	Phase shift	Phase excitation	Force A raw	Displacement raw	HMax	HMax raw	Real Force	Real Stiffness	Contact Depth	Area	Hardness	Reduced Mod.
[#]	[#]	[um]	[s]	[um]	[um]	[um]	[m°]	[m°]	[um]	[uN]	[uN]	[V]	[V]	[V]	[°C]	[uN]	[um]	[N/m]	[°]	[°]	[uN]	[um]	[um]	[um]	[uN]	[N/m]	[um]	[um^2]	[MPa]	[MPa]
774	1.000000	0.002531	7.37263e+06	-38839.1	1055.82	-29796	0.000000	0.000000	6.002799	-0.057771	NaN	0.000000	0.001760	0.001773	28.0805	0.062646	0.001027	60.9803	134.011	-168.883	0.042716	0.001288	-1.088399	-1.089642	-0.057771	60.9803	-1.087688	-3.425837E+14	1.686330E-16	NaN
774	1.000000	0.044457	7.37263e+06	-38839.1	1055.82	-29796	0.000000	0.000000	6.044726	-0.021724	NaN	0.000000	0.001761	0.001718	28.0818	0.091038	0.001999	45.5446	-51.2347	15.5576	0.083200	0.043168	-1.046473	-1.047761	-0.021724	45.5446	-1.046115	-9.466484E+13	2.294781E-16	NaN
774	1.000000	0.086497	7.37263e+06	-38839.1	1055.82	-29796	0.000000	0.000000	6.086765	-0.057203	NaN	0.000000	0.001730	0.001791	28.082	0.072309	0.002172	33.2952	-92.6959	-165.49	-0.056648	0.085190	-1.004432	-1.005740	-0.057203	33.2952	-1.003144	-2.500868E+13	2.287341E-15	NaN
774	1.000000	0.128524	7.37263e+06	-38839.1	1055.82	-29796	0.000000	0.000000	6.128791	-0.071201	NaN	0.000000	0.001728	0.001742	28.0817	0.061368	0.001859	33.0182	-148.83	14.4315	-0.076175	0.127117	-0.962405	-0.963813	-0.071201	33.0182	-0.960788	-6.721906E+12	1.059234E-14	NaN
774	1.000000	0.170533	7.37263e+06	-38839.1	1055.82	-29796	0.000000	0.000000	6.170805	0.048231	NaN	0.000000	0.001682	0.001794	28.0816	0.021983	0.001879	11.6962	22.5668	-163.543	0.014819	0.169194	-0.920396	-0.921735	0.048231	11.6962	-0.923489	-2.110141E+12	-2.285690E-14	NaN
774	1.000000	0.212543	7.37263e+06	-38839.1	1055.82	-29796	0.000000	0.000000	6.212812	-0.023529	NaN	0.000000	0.001704	0.001772	28.0805	0.085457	0.001878	45.5024	-149.523	14.6579	-0.049057	0.211133	-0.878387	-0.879797	-0.023529	45.5024	-0.877999	-5.124432E+11	4.591491E-14	NaN
774	1.000000	0.254567	7.37263e+06	-38839.1	1055.82	-29796.1	0.000000	0.000000	6.254836	-0.025727	NaN	0.000000	0.001710	0.001757	28.0806	0.086061	0.002027	42.4573	-178.876	-162.394	0.044740	0.253220	-0.836363	-0.837710	-0.025727	42.4573	-0.835909	-1.379932E+11	1.864385E-13	NaN
774	1.000000	0.296573	7.37263e+06	-38839.1	1055.82	-29796.1	0.000000	0.000000	6.296841	-0.029073	NaN	0.000000	0.001669	0.001764	28.0805	0.053059	0.002131	24.8986	-48.8202	11.7409	-0.062514	0.295189	-0.794357	-0.795741	-0.029073	24.8986	-0.793481	-3.667416E+10	7.927373E-13	NaN
774	1.000000	0.338588	7.37263e+06	-38839.1	1055.82	-29796	0.000000	0.000000	6.338858	-0.000354	NaN	0.000000	0.001620	0.001782	28.0818	0.081258	0.002081	39.055	6.476562	-167.846	0.023393	0.337245	-0.752341	-0.753684	-0.000354	39.055	-0.752335	-1.011571E+10	3.502523E-14	NaN
774	1.000000	0.380628	7.37263e+06	-38839.1	1055.82	-29796.1	0.000000	0.000000	6.380899	0.001314	NaN	0.000000	0.001681	0.001762	28.0817	0.074495	0.002006	37.1426	147.712	13.9135	-0.021505	0.379288	-0.710301	-0.711641	0.001314	37.1426	-0.710328	-2.707198E+9	-4.853434E-13	NaN
774	1.000000	0.422629	7.37263e+06	-38839.1	1055.82	-29796.1	0.000000	0.000000	6.422899	-0.002589	NaN	0.000000	0.001653	0.001789	28.0817	0.069858	0.002015	34.6715	55.9644	-166.799	0.006663	0.421361	-0.668301	-0.669568	-0.002589	34.6715	-0.668245	-7.200528E+8	3.595648E-12	NaN
774	1.000000	0.464681	7.37263e+06	-38839.1	1055.82	-29796.1	0.000000	0.000000	6.464954	0.074432	NaN	0.000000	0.001649	0.001771	28.0806	0.047796	0.002019	23.6727	129.419	14.0736	0.077899	0.463300	-0.626249	-0.627630	0.074432	23.6727	-0.628607	-2.060110E+8	-3.613033E-10	NaN
774	1.000000	0.506689	7.37263e+06	-38839.1	1055.82	-29796.1	0.000000	0.000000	6.506957	-0.059097	NaN	0.000000	0.001668	0.001805	28.0806	0.096319	0.001923	50.0983	142.556	-167.172	-0.078728	0.505377	-0.584240	-0.585553	-0.059097	50.0983	-0.583355	-4.909399E+7	1.203760E-9	NaN
774	1.000000	0.548679	7.37263e+06	-38839.1	1055.82	-29796.1	0.000000	0.000000	6.548950	0.024435	NaN	0.000000	0.001719	0.001742	28.0805	0.123997	0.001974	62.8292	166.542	15.5434	-0.003963	0.547338	-0.542251	-0.543591	0.024435	62.8292	-0.542542	-1.338479E+7	-1.825597E-9	NaN
774	1.000000	0.590663	7.37263e+06	-38839.1	1055.82	-29796.1	0.000000	0.000000	6.590933	0.006114	NaN	0.000000	0.001652	0.001745	28.0818	0.029919	0.001799	16.6311	108.219	-162.981	-0.002035	0.589351	-0.500266	-0.501579	0.006114	16.6311	-0.500542	-3.48805e+06	-1.752891E-9	NaN
774	1.000000	0.632719	7.37263e+06	-38839.1	1055.82	-29796.1	0.000000	0.000000	6.632987	-0.063954	NaN	0.000000	0.001660	0.001692	28.0818	0.151445	0.002036	74.3697	-135.44	14.1561	0.014375	0.631389	-0.458210	-0.459540	-0.063954	74.3697	-0.457565	-872558	7.329506E-8	NaN
774	1.000000	0.674769	7.37263e+06	-38839.1	1055.82	-29796.1	0.000000	0.000000	6.675038	-0.027284	NaN	0.000000	0.001637	0.001698	28.0819	0.025276	0.002077	12.1723	-101.615	-165.116	-0.035216	0.673416	-0.416161	-0.417514	-0.027284	12.1723	-0.414480	-214815	1.270096E-7	NaN
774	1.000000	0.716773	7.37263e+06	-38839.1	1055.82	-29796.1	0.000000	0.000000	6.717039	-0.090086	NaN	0.000000	0.001643	0.001685	28.0819	0.098263	0.001967	49.9475	38.11	13.7087	-0.084503	0.715442	-0.374157	-0.375487	-0.090086	49.9475	-0.372804	-54512.1	1.652591E-6	NaN
774	1.000000	0.758764	7.37263e+06	-38839.1	1055.82	-29796.1	0.000000	0.000000	6.759033	-0.025153	NaN	0.000000	0.001647	0.001715	28.0805	0.049514	0.002021	24.4998	-45.9935	-164.685	-0.106092	0.757460	-0.332166	-0.333469	-0.025153	24.4998	-0.331396	-13673.7	1.839490E-6	NaN
774	1.000000	0.800815	7.37263e+06	-38839.1	1055.82	-29796.1	0.000000	0.000000	6.801085	0.009265	NaN	0.000000	0.001651	0.001700	28.0805	0.134812	0.001999	67.4479	153.915	14.9474	0.014996	0.799497	-0.290115	-0.291433	0.009265	67.4479	-0.290218	-3361.77	-2.756129E-6	NaN
774	1.000000	0.842826	7.37263e+06	-38839.1	1055.82	-29796.1	0.000000	0.000000	6.843094	-0.043838	NaN	0.000000	0.001621	0.001758	28.0809	0.043720	0.002055	21.2787	137.682	-169.292	-0.042704	0.841553	-0.248104	-0.249376	-0.043838	21.2787	-0.246559	-727.207	6.028288E-5	NaN
774	1.000000	0.884814	7.37263e+06	-38839.1	1055.82	-29796.1	0.000000	0.000000	6.885084	-0.017151	NaN	0.000000	0.001638	0.001711	28.0819	0.102864	0.002009	51.1943	-155.524	16.8017	-0.058903	0.883454	-0.206115	-0.207475	-0.017151	51.1943	-0.205864	-164.302	0.000104	NaN
774	1.000000	0.926851	7.37263e+06	-38839.1	1055.82	-29796.1	0.000000	0.000000	6.927120	-0.018790	NaN	0.000000	0.001732	0.001658	28.0821	0.088784	0.002112	42.047	139.338	-165.783	-0.052261	0.925536	-0.164079	-0.165394	-0.018790	42.047	-0.163743	-31.9306	0.000588	NaN
774	1.000000	0.968853	7.37263e+06	-38839.1	1055.82	-29796.1	0.000000	0.000000	6.969123	0.011110	NaN	0.000000	0.001730	0.001674	28.0822	0.057566	0.002151	26.7646	-178.521	11.4632	-0.073669	0.967498	-0.122077	-0.123432	0.011110	26.7646	-0.122388	-5.395672	-0.002059	NaN
774	1.000000	1.010852	7.37263e+06	-38839.1	1055.82	-29796.1	0.000000	0.000000	7.011120	-0.049858	NaN	0.000000	0.001695	0.001694	28.0808	0.095987	0.001938	49.5344	-25.1725	-164.3	-0.076611	1.009549	-0.080078	-0.081380	-0.049858	49.5344	-0.079323	-0.595271	0.083757	NaN
774	1.000000	1.052920	7.37263e+06	-38839.1	1055.82	-29796.1	0.000000	0.000000	7.053189	-0.010163	NaN	0.000000	0.001741	0.001716	28.0807	0.099659	0.002064	48.2901	62.1566	16.1812	0.037447	1.051553	-0.038010	-0.039376	-0.010163	48.2901	-0.037852	-0.038942	0.260987	NaN
774	2.000000	1.094302	7.37263e+06	-38839.1	1055.82	-29796.1	0.000000	0.000000	7.094995	10.298	NaN	0.000000	0.001612	0.001778	28.0816	9.679548	0.001851	5228.4	9.910483	-174.669	8.982541	1.093509	0.003373	0.002580	10.298	5228.4	0.001895	0.001470	7003.62	124574
774	2.000000	1.104914	7.37263e+06	-38839.1	1055.82	-29796.1	0.000000	0.000000	7.106463	31.1212	NaN	0.000000	0.001684	0.001743	28.0819	20.9123	0.001945	10751.2	7.361592	3.128239	32.1955	1.104499	0.013985	0.013569	31.1212	10751.2	0.011814	0.011268	2762.03	92537.6
774	2.000000	1.115353	7.37263e+06	-38839.1	1055.82	-29796.1	0.000000	0.000000	7.117685	50.1858	NaN	0.000000	0.001649	0.001724	28.0818	30.4797	0.001879	16223.8	4.817669	-178.879	48.8378	1.114995	0.024423	0.024066	50.1858	16223.8	0.022103	0.025956	1933.5	92004.5
774	2.000000	1.125871	7.37263e+06	-38839.1	1055.82	-29796.1	0.000000	0.000000	7.129164	73.5767	NaN	0.000000	0.001677	0.001695	28.0818	38.347	0.001788	21451.1	2.460774	1.360201	74.3723	1.125520	0.034941	0.034591	73.5767	21451.1	0.032369	0.045796	1606.6	91581.5
774	2.000000	1.136321	7.37263e+06	-38839.1	1055.82	-29796.1	0.000000	0.000000	7.141349	115.8	NaN	0.000000	0.001686	0.001693	28.0818	46.7899	0.001833	25531.4	2.458736	179.586	114.69	1.135951	0.045391	0.045022	115.8	25531.4	0.041990	0.069271	1671.69	88628
774	2.000000	1.146764	7.37263e+06	-38839.1	1055.82	-29796.1	0.000000	0.000000	7.153255	151.398	NaN	0.000000	0.001673	0.001691	28.0804	55.9848	0.001702	32884.8	4.429021	-3.998329	149.298	1.146470	0.055835	0.055540	151.398	32884.8	0.052382	0.099917	1515.24	95049.5
774	2.000000	1.157278	7.37263e+06	-38839.1	1055.82	-29796.1	0.000000	0.000000	7.165894	203.114	NaN	0.000000	0.001668	0.001723	28.0807	67.5853	0.001691	39964	7.878980	171.282	201.975	1.156955	0.066348	0.066025	203.114	39964	0.062536	0.135059	1503.89	99352.8
774	2.000000	1.167802	7.37263e+06	-38839.1	1055.82	-29796.1	0.000000	0.000000	7.178449	252.55	NaN	0.000000	0.001704	0.001669	28.0806	77.2375	0.001791	43132.2	2.516036	-4.423302	251.888	1.167589	0.076872	0.076659	252.55	43132.2	0.072481	0.174325	1448.73	94383.3
774	2.000000	1.178113	7.37263e+06	-38839.1	1055.82	-29796.1	0.000000	0.000000	7.191771	325.798	NaN	0.000000	0.001674	0.001693	28.0821	86.2744	0.001747	49395.5	5.263694	172.089	316.09	1.177838	0.087183	0.086908	325.798	49395.5	0.082237	0.217396	1498.64	96790.9
774	2.000000	1.188756	7.37263e+06	-38839.1	1055.82	-29796	0.000000	0.000000	7.205070	390.433	NaN	0.000000	0.001675	0.001660	28.0819	98.0465	0.001740	56347.1	7.507611	-11.393	388.355	1.188500	0.097827	0.097570	390.433	56347.1	0.092630	0.268140	1456.08	99417.9
774	2.000000	1.192636	7.37263e+06	-38839.1	1055.82	-29796.1	0.000000	0.000000	7.210839	436.408	NaN	0.000000	0.001651	0.001631	28.0819	101.638	0.001841	55202.1	4.911889	-7.596990	428.061	1.192176	0.101706	0.101246	436.408	55202.1	0.095777	0.284480	1534.06	94559.1