File: remote_trans/data/nanoindenter/0828-1/data/Data_2025-08-06,11h17m57s/2025-07-22_16-23-58_1_619.txt
2025-07-22, 16:23:58, 1
Index	Phase	Displacement	Time	Pos X	Pos Y	Pos Z	Rot A	Rot B	Piezo Z	Force A	Force B	Gripper	Voltage A	Voltage B	Temperature	Amplitude force	Amplitude pos	Stiffness	Phase shift	Phase excitation	Force A raw	Displacement raw	HMax	HMax raw	Real Force	Real Stiffness	Contact Depth	Area	Hardness	Reduced Mod.
[#]	[#]	[um]	[s]	[um]	[um]	[um]	[m°]	[m°]	[um]	[uN]	[uN]	[V]	[V]	[V]	[°C]	[uN]	[um]	[N/m]	[°]	[°]	[uN]	[um]	[um]	[um]	[uN]	[N/m]	[um]	[um^2]	[MPa]	[MPa]
619	1.000000	0.003042	7.37111e+06	-46139.1	1005.82	-29770.1	0.000000	0.000000	6.002792	0.098528	NaN	0.000000	0.001569	0.001643	28.0834	0.074993	0.000775	96.7994	-64.0504	-171.895	0.037210	0.001802	-1.059350	-1.060589	0.098528	96.7994	-1.060113	-1.459954E+14	-6.748722E-16	NaN
619	1.000000	0.043024	7.37111e+06	-46139.1	1005.82	-29770.1	0.000000	0.000000	6.042771	0.043999	NaN	0.000000	0.001508	0.001660	28.0835	0.122820	0.001960	62.6718	-117.399	-163.684	0.060528	0.041680	-1.019368	-1.020712	0.043999	62.6718	-1.019894	-4.202722E+13	-1.046923E-15	NaN
619	1.000000	0.083016	7.37111e+06	-46139.1	1005.82	-29770.1	0.000000	0.000000	6.082762	0.005988	NaN	0.000000	0.001534	0.001643	28.0828	0.076900	0.002067	37.2101	-36.3023	-161.153	0.091691	0.081708	-0.979376	-0.980683	0.005988	37.2101	-0.979496	-1.201224E+13	-4.984502E-16	NaN
619	1.000000	0.123042	7.37111e+06	-46139.1	1005.82	-29770.1	0.000000	0.000000	6.122787	-0.010792	NaN	0.000000	0.001571	0.001640	28.0818	0.052480	0.002093	25.0742	-107.001	-163.602	0.011125	0.121737	-0.939350	-0.940654	-0.010792	25.0742	-0.939027	-3.419875E+12	3.155556E-15	NaN
619	1.000000	0.163050	7.37111e+06	-46139.1	1005.82	-29770.2	0.000000	0.000000	6.162796	-0.006411	NaN	0.000000	0.001577	0.001657	28.082	0.158380	0.001972	80.3044	-159.668	-166.317	-0.039623	0.161754	-0.899341	-0.900638	-0.006411	80.3044	-0.899281	-9.939280E+11	6.450486E-15	NaN
619	1.000000	0.203022	7.37111e+06	-46139.1	1005.82	-29770.2	0.000000	0.000000	6.202765	-0.082242	NaN	0.000000	0.001556	0.001671	28.0817	0.013122	0.002072	6.331517	123.898	-163.585	-0.073488	0.201814	-0.859369	-0.860578	-0.082242	6.331517	-0.849627	-2.116852E+11	3.885111E-13	NaN
619	1.000000	0.243093	7.37111e+06	-46139.1	1005.82	-29770.2	0.000000	0.000000	6.242840	0.013027	NaN	0.000000	0.001518	0.001645	28.0819	0.146874	0.001971	74.5348	92.9482	-166.769	-0.000506	0.241716	-0.819298	-0.820675	0.013027	74.5348	-0.819429	-8.250362E+10	-1.578987E-13	NaN
619	1.000000	0.283095	7.37111e+06	-46139.1	1005.82	-29770.2	0.000000	0.000000	6.282841	-0.000109	NaN	0.000000	0.001589	0.001587	28.0829	0.052944	0.001931	27.4236	-149.792	-163.995	0.018121	0.281783	-0.779296	-0.780609	-0.000109	27.4236	-0.779293	-2.353016E+10	4.635727E-15	NaN
619	1.000000	0.323104	7.37111e+06	-46139.1	1005.82	-29770.2	0.000000	0.000000	6.322852	0.035493	NaN	0.000000	0.001516	0.001642	28.0829	0.131626	0.002013	65.3966	66.7806	-161.86	-0.022699	0.321828	-0.739287	-0.740564	0.035493	65.3966	-0.739694	-6.805982E+9	-5.214916E-12	NaN
619	1.000000	0.363136	7.37111e+06	-46139.1	1005.82	-29770.2	0.000000	0.000000	6.362882	-0.003468	NaN	0.000000	0.001513	0.001719	28.0831	0.051319	0.001976	25.9684	-21.0503	-169.583	0.033511	0.361773	-0.699255	-0.700619	-0.003468	25.9684	-0.699155	-1.905438E+9	1.820234E-12	NaN
619	1.000000	0.403184	7.37111e+06	-46139.1	1005.82	-29770.2	0.000000	0.000000	6.402928	-0.057213	NaN	0.000000	0.001472	0.001708	28.0819	0.088484	0.002063	42.8955	-99.5953	-164.029	-0.040795	0.401859	-0.659207	-0.660533	-0.057213	42.8955	-0.658207	-5.246910E+8	1.090416E-10	NaN
619	1.000000	0.443188	7.37111e+06	-46139.1	1005.82	-29770.2	0.000000	0.000000	6.442934	0.003832	NaN	0.000000	0.001476	0.001711	28.0815	0.049915	0.002064	24.1882	-56.1557	-165.799	-0.028701	0.441888	-0.619203	-0.620503	0.003832	24.1882	-0.619322	-1.535735E+8	-2.495053E-11	NaN
619	1.000000	0.483220	7.37111e+06	-46139.1	1005.82	-29770.2	0.000000	0.000000	6.482965	-0.024887	NaN	0.000000	0.001523	0.001723	28.0814	0.042974	0.002065	20.809	-60.9202	-164.965	-0.076871	0.481828	-0.579171	-0.580564	-0.024887	20.809	-0.578275	-4.177429E+7	5.957428E-10	NaN
619	1.000000	0.523195	7.37111e+06	-46139.1	1005.82	-29770.2	0.000000	0.000000	6.522941	-0.008992	NaN	0.000000	0.001476	0.001748	28.0815	0.028522	0.002004	14.2308	-54.6579	-164.041	0.000241	0.521890	-0.539196	-0.540501	-0.008992	14.2308	-0.538722	-1.184778E+7	7.589399E-10	NaN
619	1.000000	0.563231	7.37111e+06	-46139.1	1005.82	-29770.2	0.000000	0.000000	6.562978	0.018157	NaN	0.000000	0.001483	0.001716	28.0828	0.076108	0.001958	38.8754	1.073199	-166.645	-0.016727	0.561943	-0.499160	-0.500448	0.018157	38.8754	-0.499510	-3.37432e+06	-5.380819E-9	NaN
619	1.000000	0.603214	7.37111e+06	-46139.1	1005.82	-29770.2	0.000000	0.000000	6.602959	-0.000148	NaN	0.000000	0.001512	0.001746	28.0827	0.034474	0.001925	17.9091	17.1319	-165.526	0.003035	0.601964	-0.459178	-0.460428	-0.000148	17.9091	-0.459172	-919129	1.608619E-10	NaN
619	1.000000	0.643283	7.37111e+06	-46139.1	1005.82	-29770.2	0.000000	0.000000	6.643026	-0.056382	NaN	0.000000	0.001552	0.001747	28.0828	0.034218	0.001993	17.1723	-128.652	-165.019	-0.039627	0.641933	-0.419109	-0.420458	-0.056382	17.1723	-0.416646	-230583	2.445188E-7	NaN
619	1.000000	0.683255	7.37111e+06	-46139.1	1005.82	-29770.2	0.000000	0.000000	6.683000	-0.027743	NaN	0.000000	0.001533	0.001734	28.0819	0.095433	0.001947	49.0273	148.813	-166.189	-0.113915	0.681908	-0.379136	-0.380483	-0.027743	49.0273	-0.378712	-66281.9	4.185664E-7	NaN
619	1.000000	0.723267	7.37111e+06	-46139.1	1005.82	-29770.2	0.000000	0.000000	6.723014	0.035175	NaN	0.000000	0.001537	0.001718	28.0811	0.048953	0.001933	25.321	20.2482	-164.389	0.010764	0.722004	-0.339125	-0.340388	0.035175	25.321	-0.340166	-18364.5	-1.915369E-6	NaN
619	1.000000	0.763306	7.37111e+06	-46139.1	1005.82	-29770.2	0.000000	0.000000	6.763052	-0.005016	NaN	0.000000	0.001577	0.001719	28.0814	0.030889	0.002079	14.8602	141.474	-168.901	-0.014961	0.761999	-0.299085	-0.300392	-0.005016	14.8602	-0.298832	-4521.11	1.109370E-6	NaN
619	1.000000	0.803309	7.37111e+06	-46139.1	1005.82	-29770.2	0.000000	0.000000	6.803052	-0.059868	NaN	0.000000	0.001552	0.001765	28.0826	0.089287	0.002010	44.4146	-28.9066	-167.64	-0.001930	0.802092	-0.259083	-0.260300	-0.059868	44.4146	-0.258072	-1094.81	5.468332E-5	NaN
619	1.000000	0.843312	7.37111e+06	-46139.1	1005.82	-29770.2	0.000000	0.000000	6.843058	0.002505	NaN	0.000000	0.001533	0.001748	28.0827	0.083477	0.001946	42.8996	-11.9284	-165.365	0.045775	0.842024	-0.219080	-0.220367	0.002505	42.8996	-0.219124	-268.945	-9.315090E-6	NaN
619	1.000000	0.883354	7.37111e+06	-46139.1	1005.82	-29770.2	0.000000	0.000000	6.883099	-0.022080	NaN	0.000000	0.001551	0.001728	28.0826	0.046864	0.002054	22.8193	-157.587	-161.721	-0.026538	0.882104	-0.179037	-0.180288	-0.022080	22.8193	-0.178312	-57.1079	0.000387	NaN
619	1.000000	0.923344	7.37111e+06	-46139.1	1005.82	-29770.2	0.000000	0.000000	6.923089	-0.022114	NaN	0.000000	0.001565	0.001735	28.0826	0.173517	0.002019	85.9245	-119.137	-168.319	-0.013158	0.922122	-0.139047	-0.140269	-0.022114	85.9245	-0.138854	-11.2564	0.001965	NaN
619	1.000000	0.963373	7.37111e+06	-46139.1	1005.82	-29770.2	0.000000	0.000000	6.963118	-0.018895	NaN	0.000000	0.001531	0.001758	28.0816	0.117146	0.001997	58.6546	-176.066	-165.202	-0.045564	0.962039	-0.099018	-0.100353	-0.018895	58.6546	-0.098777	-1.716203	0.011010	NaN
619	1.000000	1.003405	7.37111e+06	-46139.1	1005.82	-29770.2	0.000000	0.000000	7.003149	-0.032033	NaN	0.000000	0.001529	0.001723	28.0815	0.070197	0.001971	35.6215	169.613	-165.271	-0.053906	1.002084	-0.058987	-0.060307	-0.032033	35.6215	-0.058312	-0.160999	0.198962	NaN
619	1.000000	1.043386	7.37111e+06	-46139.1	1005.82	-29770.2	0.000000	0.000000	7.043133	0.006144	NaN	0.000000	0.001491	0.001736	28.0815	0.041765	0.002021	20.6622	-169.086	-165.744	-0.064804	1.042096	-0.019005	-0.020296	0.006144	20.6622	-0.019228	-0.012005	-0.511829	NaN
619	2.000000	1.072949	7.37111e+06	-46139.1	1005.82	-29770.2	0.000000	0.000000	7.073222	12.8097	NaN	0.000000	0.001531	0.001737	28.0825	12.9317	0.001774	7291.13	2.025105	-167.471	12.8382	1.072646	0.010558	0.010255	12.8097	7291.13	0.009240	0.008349	1534.19	72901.8
619	2.000000	1.082859	7.37111e+06	-46139.1	1005.82	-29770.2	0.000000	0.000000	7.083719	27.0915	NaN	0.000000	0.001500	0.001703	28.0829	24.2859	0.001793	13548.4	5.698342	-178.185	25.5825	1.082566	0.020467	0.020175	27.0915	13548.4	0.018968	0.020946	1293.38	85528.1
619	2.000000	1.092869	7.37111e+06	-46139.1	1005.82	-29770.2	0.000000	0.000000	7.094653	49.5703	NaN	0.000000	0.001540	0.001737	28.0827	34.5034	0.001882	18336.5	7.719085	177.797	48.7053	1.092568	0.030478	0.030177	49.5703	18336.5	0.028450	0.037593	1318.61	86404.9
619	2.000000	1.102888	7.37111e+06	-46139.1	1005.82	-29770.2	0.000000	0.000000	7.105931	80.189	NaN	0.000000	0.001558	0.001742	28.0828	44.2484	0.001745	25362.1	6.815475	176.191	80.6866	1.102511	0.040497	0.040120	80.189	25362.1	0.038125	0.059274	1352.86	95176.1
619	2.000000	1.112792	7.37111e+06	-46139.1	1005.82	-29770.2	0.000000	0.000000	7.117745	126.662	NaN	0.000000	0.001538	0.001703	28.081	53.6724	0.001835	29242	7.738229	173.403	124.535	1.112455	0.050401	0.050063	126.662	29242	0.047152	0.083815	1511.21	92282.4
619	2.000000	1.122872	7.37111e+06	-46139.1	1005.82	-29770.2	0.000000	0.000000	7.129500	167.407	NaN	0.000000	0.001619	0.001712	28.0813	62.9815	0.001742	36157.6	3.583736	176.202	169.211	1.122567	0.060481	0.060176	167.407	36157.6	0.057008	0.115299	1451.94	97288.1
619	2.000000	1.132763	7.37111e+06	-46139.1	1005.82	-29770.2	0.000000	0.000000	7.141540	219.694	NaN	0.000000	0.001562	0.001714	28.0814	72.2791	0.001767	40900.1	4.903143	174.152	217.015	1.132466	0.070372	0.070074	219.694	40900.1	0.066343	0.149531	1469.23	96634.4
619	2.000000	1.142813	7.37111e+06	-46139.1	1005.82	-29770.2	0.000000	0.000000	7.154082	280.299	NaN	0.000000	0.001524	0.001727	28.0827	82.2397	0.001820	45192	1.585393	176.194	278.909	1.142648	0.080421	0.080256	280.299	45192	0.075770	0.188347	1488.2	95138.4
619	2.000000	1.152702	7.37111e+06	-46139.1	1005.82	-29770.2	0.000000	0.000000	7.166354	338.268	NaN	0.000000	0.001539	0.001715	28.0829	92.8023	0.001858	49950.6	1.024414	175.996	333.695	1.152596	0.090311	0.090204	338.268	49950.6	0.085232	0.231508	1461.15	94848.5
619	2.000000	1.162724	7.37111e+06	-46139.1	1005.82	-29770.2	0.000000	0.000000	7.180858	447.29	NaN	0.000000	0.001581	0.001727	28.0829	103.65	0.001881	55090.3	9.196115	168.471	444.157	1.162327	0.100333	0.099936	447.29	55090.3	0.094243	0.276459	1617.92	95726.6
619	2.000000	1.167653	7.37111e+06	-46139.1	1005.82	-29770.2	0.000000	0.000000	7.187337	485.002	NaN	0.000000	0.001563	0.001714	28.0828	106.81	0.001821	58649	7.903739	168.496	478.924	1.167415	0.105262	0.105023	485.002	58649	0.099060	0.302008	1605.92	97504.4