File: remote_trans/data/nanoindenter/0828-1/data/Data_2025-08-06,11h17m57s/2025-07-22_16-23-58_1_1049.txt
2025-07-22, 16:23:58, 1
Index	Phase	Displacement	Time	Pos X	Pos Y	Pos Z	Rot A	Rot B	Piezo Z	Force A	Force B	Gripper	Voltage A	Voltage B	Temperature	Amplitude force	Amplitude pos	Stiffness	Phase shift	Phase excitation	Force A raw	Displacement raw	HMax	HMax raw	Real Force	Real Stiffness	Contact Depth	Area	Hardness	Reduced Mod.
[#]	[#]	[um]	[s]	[um]	[um]	[um]	[m°]	[m°]	[um]	[uN]	[uN]	[V]	[V]	[V]	[°C]	[uN]	[um]	[N/m]	[°]	[°]	[uN]	[um]	[um]	[um]	[uN]	[N/m]	[um]	[um^2]	[MPa]	[MPa]
1049	1.000000	0.002376	7.3753e+06	-52589.1	1055.82	-29748.7	0.000000	0.000000	6.002778	-0.045294	NaN	0.000000	0.001591	0.001773	28.083	0.063566	0.000985	64.5106	93.9695	-166.159	-0.047458	0.001143	-1.077403	-1.078635	-0.045294	64.5106	-1.076876	-2.452234E+14	1.847066E-16	NaN
1049	1.000000	0.044334	7.37531e+06	-52589.1	1055.82	-29748.7	0.000000	0.000000	6.044737	-0.007609	NaN	0.000000	0.001623	0.001759	28.0832	0.041749	0.001942	21.4964	51.2858	13.0833	0.079718	0.042995	-1.035445	-1.036783	-0.007609	21.4964	-1.035179	-6.747504E+13	1.127641E-16	NaN
1049	1.000000	0.086333	7.37531e+06	-52589.1	1055.82	-29748.7	0.000000	0.000000	6.086734	-0.067607	NaN	0.000000	0.001638	0.001748	28.0833	0.025124	0.002124	11.8309	-146.776	-166.553	-0.073412	0.085083	-0.993446	-0.994696	-0.067607	11.8309	-0.989160	-1.621065E+13	4.170551E-15	NaN
1049	1.000000	0.128377	7.37531e+06	-52589.1	1055.82	-29748.7	0.000000	0.000000	6.128780	-0.022494	NaN	0.000000	0.001659	0.001739	28.0819	0.039943	0.002084	19.1664	-97.7063	14.5088	-0.070919	0.127027	-0.951402	-0.952752	-0.022494	19.1664	-0.950521	-4.887194E+12	4.602679E-15	NaN
1049	1.000000	0.170388	7.37531e+06	-52589.1	1055.82	-29748.7	0.000000	0.000000	6.170789	-0.079914	NaN	0.000000	0.001629	0.001743	28.0818	0.114781	0.002124	54.0514	-132.767	-167.339	-0.067986	0.169092	-0.909390	-0.910687	-0.079914	54.0514	-0.908282	-1.315080E+12	6.076739E-14	NaN
1049	1.000000	0.212402	7.37531e+06	-52589.1	1055.82	-29748.7	0.000000	0.000000	6.212805	-0.019250	NaN	0.000000	0.001646	0.001758	28.0819	0.068607	0.001974	34.7577	26.9855	15.6574	-0.030264	0.211070	-0.867376	-0.868709	-0.019250	34.7577	-0.866961	-3.633513E+11	5.297858E-14	NaN
1049	1.000000	0.254430	7.37531e+06	-52589.1	1055.82	-29748.7	0.000000	0.000000	6.254835	0.026144	NaN	0.000000	0.001629	0.001740	28.0834	0.078187	0.001905	41.0356	19.8955	-169.287	0.029771	0.253074	-0.825348	-0.826704	0.026144	41.0356	-0.825826	-1.007414E+11	-2.595159E-13	NaN
1049	1.000000	0.296439	7.37531e+06	-52589.1	1055.82	-29748.7	0.000000	0.000000	6.296843	0.001884	NaN	0.000000	0.001680	0.001742	28.0835	0.115094	0.001987	57.9096	109.232	12.5853	0.026604	0.295085	-0.783339	-0.784694	0.001884	57.9096	-0.783364	-2.672625E+10	-7.049802E-14	NaN
1049	1.000000	0.338466	7.37531e+06	-52589.1	1055.82	-29748.7	0.000000	0.000000	6.338868	-0.038784	NaN	0.000000	0.001658	0.001716	28.0835	0.082396	0.001919	42.947	-65.4925	-163.983	-0.040369	0.337110	-0.741313	-0.742669	-0.038784	42.947	-0.740635	-7.009895E+9	5.532679E-12	NaN
1049	1.000000	0.380482	7.37531e+06	-52589.1	1055.82	-29748.7	0.000000	0.000000	6.380885	-0.033909	NaN	0.000000	0.001652	0.001738	28.0825	0.016078	0.002096	7.672758	166.47	13.0905	0.017363	0.379160	-0.699296	-0.700618	-0.033909	7.672758	-0.695982	-1.724438E+9	1.966363E-11	NaN
1049	1.000000	0.422509	7.37531e+06	-52589.1	1055.82	-29748.7	0.000000	0.000000	6.422911	-0.039634	NaN	0.000000	0.001660	0.001716	28.082	0.025959	0.002001	12.9758	74.2549	-163.393	-0.073770	0.421214	-0.657270	-0.658565	-0.039634	12.9758	-0.654979	-4.738889E+8	8.363491E-11	NaN
1049	1.000000	0.464514	7.37531e+06	-52589.1	1055.82	-29748.7	0.000000	0.000000	6.464916	-0.062102	NaN	0.000000	0.001600	0.001712	28.0821	0.034417	0.002034	16.9193	86.8827	17.0313	-0.056960	0.463123	-0.615264	-0.616656	-0.062102	16.9193	-0.612512	-1.237844E+8	5.016966E-10	NaN
1049	1.000000	0.506550	7.37531e+06	-52589.1	1055.82	-29748.7	0.000000	0.000000	6.506953	-0.018091	NaN	0.000000	0.001695	0.001718	28.0819	0.021515	0.001998	10.7669	115.234	-164.909	0.062098	0.505284	-0.573228	-0.574495	-0.018091	10.7669	-0.571968	-3.418418E+7	5.292263E-10	NaN
1049	1.000000	0.548522	7.37531e+06	-52589.1	1055.82	-29748.7	0.000000	0.000000	6.548924	-0.047753	NaN	0.000000	0.001723	0.001728	28.0832	0.080265	0.001924	41.7116	-111.395	15.3139	-0.023278	0.547166	-0.531257	-0.532613	-0.047753	41.7116	-0.530398	-9.08045e+06	5.258922E-9	NaN
1049	1.000000	0.590570	7.37531e+06	-52589.1	1055.82	-29748.7	0.000000	0.000000	6.590975	0.039568	NaN	0.000000	0.001673	0.001709	28.0833	0.174446	0.001995	87.4634	-58.5194	-166.365	0.050850	0.589249	-0.489209	-0.490530	0.039568	87.4634	-0.489548	-2.44951e+06	-1.615363E-8	NaN
1049	1.000000	0.632594	7.37531e+06	-52589.1	1055.82	-29748.7	0.000000	0.000000	6.632999	0.026199	NaN	0.000000	0.001627	0.001728	28.083	0.032326	0.001872	17.2709	3.542675	13.0155	-0.006459	0.631218	-0.447185	-0.448561	0.026199	17.2709	-0.448322	-646714	-4.051118E-8	NaN
1049	1.000000	0.674595	7.37531e+06	-52589.1	1055.82	-29748.7	0.000000	0.000000	6.674997	-0.048570	NaN	0.000000	0.001582	0.001760	28.082	0.035595	0.001971	18.061	165.59	-167.373	-0.082077	0.673369	-0.405183	-0.406409	-0.048570	18.061	-0.403166	-148296	3.275203E-7	NaN
1049	1.000000	0.716610	7.37531e+06	-52589.1	1055.82	-29748.7	0.000000	0.000000	6.717011	-0.062438	NaN	0.000000	0.001642	0.001732	28.082	0.012348	0.002028	6.087680	-58.7043	16.1431	-0.083924	0.715291	-0.363169	-0.364488	-0.062438	6.087680	-0.355476	-30647.4	2.037320E-6	NaN
1049	1.000000	0.758603	7.37531e+06	-52589.1	1055.82	-29748.7	0.000000	0.000000	6.759007	0.008888	NaN	0.000000	0.001662	0.001745	28.082	0.093085	0.001952	47.6755	83.4822	-167.326	0.055927	0.757360	-0.321176	-0.322418	0.008888	47.6755	-0.321316	-9727.36	-9.136934E-7	NaN
1049	1.000000	0.800642	7.37531e+06	-52589.1	1055.82	-29748.7	0.000000	0.000000	6.801043	-0.052393	NaN	0.000000	0.001651	0.001740	28.0834	0.015511	0.001986	7.809722	145.602	14.2945	-0.059971	0.799278	-0.279137	-0.280500	-0.052393	7.809722	-0.274105	-1922.43	2.725333E-5	NaN
1049	1.000000	0.842677	7.37531e+06	-52589.1	1055.82	-29748.7	0.000000	0.000000	6.843082	0.043636	NaN	0.000000	0.001678	0.001735	28.0831	0.046646	0.001907	24.4543	-123.163	-165.416	-0.008024	0.841311	-0.237102	-0.238467	0.043636	24.4543	-0.238440	-543.463	-8.029221E-5	NaN
1049	1.000000	0.884721	7.37531e+06	-52589.1	1055.82	-29748.7	0.000000	0.000000	6.885123	-0.043525	NaN	0.000000	0.001689	0.001754	28.0833	0.065726	0.001947	33.7515	-6.368720	13.0991	-0.129059	0.883334	-0.195058	-0.196444	-0.043525	33.7515	-0.194091	-105.227	0.000414	NaN
1049	1.000000	0.926717	7.37531e+06	-52589.1	1055.82	-29748.7	0.000000	0.000000	6.927119	-0.059304	NaN	0.000000	0.001697	0.001745	28.082	0.077742	0.001877	41.4243	56.9871	-165.841	-0.058869	0.925419	-0.153061	-0.154360	-0.059304	41.4243	-0.151988	-19.6859	0.003012	NaN
1049	1.000000	0.968726	7.37531e+06	-52589.1	1055.82	-29748.7	0.000000	0.000000	6.969130	0.012967	NaN	0.000000	0.001692	0.001749	28.0816	0.026218	0.002011	13.0398	-47.0415	15.918	-0.082327	0.967355	-0.111053	-0.112423	0.012967	13.0398	-0.111799	-3.278271	-0.003955	NaN
1049	1.000000	1.010765	7.37531e+06	-52589.1	1055.82	-29748.7	0.000000	0.000000	7.011166	-0.080179	NaN	0.000000	0.001678	0.001750	28.0822	0.091347	0.002031	44.986	-154.184	-167.228	-0.095038	1.009393	-0.069013	-0.070385	-0.080179	44.986	-0.067677	-0.295217	0.271594	NaN
1049	1.000000	1.052721	7.37531e+06	-52589.1	1055.82	-29748.7	0.000000	0.000000	7.053124	-0.021379	NaN	0.000000	0.001736	0.001703	28.0819	0.075006	0.001935	38.7721	172.564	15.5686	0.019996	1.051415	-0.027057	-0.028363	-0.021379	38.7721	-0.026644	-0.018642	1.146847	NaN
1049	2.000000	1.093374	7.37531e+06	-52589.1	1055.82	-29748.7	0.000000	0.000000	7.094081	7.383381	NaN	0.000000	0.001639	0.001714	28.0832	8.649117	0.001672	5172.48	7.962433	-169.87	7.623265	1.093049	0.013595	0.013271	7.383381	5172.48	0.012525	0.012125	608.958	42917.9
1049	2.000000	1.103825	7.37531e+06	-52589.1	1055.82	-29748.7	0.000000	0.000000	7.105077	20.6297	NaN	0.000000	0.001684	0.001745	28.0832	19.2829	0.001661	11606.4	10.3955	-1.001341	20.426	1.103498	0.024046	0.023719	20.6297	11606.4	0.022713	0.026986	764.453	64550.3
1049	2.000000	1.114264	7.37531e+06	-52589.1	1055.82	-29748.7	0.000000	0.000000	7.116622	47.5187	NaN	0.000000	0.001701	0.001746	28.0832	31.3019	0.001889	16567.5	6.323960	-178.921	46.6175	1.113967	0.034485	0.034188	47.5187	16567.5	0.032334	0.045721	1039.32	70789.9
1049	2.000000	1.124707	7.37531e+06	-52589.1	1055.82	-29748.7	0.000000	0.000000	7.128890	91.8808	NaN	0.000000	0.001702	0.001737	28.0817	41.8523	0.001771	23635.4	3.484993	0.000150	88.9356	1.124355	0.044928	0.044577	91.8808	23635.4	0.042013	0.069333	1325.21	82009.8
1049	2.000000	1.135244	7.37531e+06	-52589.1	1055.82	-29748.7	0.000000	0.000000	7.141302	137.472	NaN	0.000000	0.001723	0.001727	28.0816	51.5242	0.001720	29953.3	4.697831	176.808	138.972	1.134909	0.055465	0.055130	137.472	29953.3	0.052023	0.098769	1391.85	87077.8
1049	2.000000	1.145774	7.37531e+06	-52589.1	1055.82	-29748.7	0.000000	0.000000	7.154380	199.41	NaN	0.000000	0.001640	0.001774	28.0816	62.3904	0.001732	36028.3	5.116859	-5.140056	200.452	1.145348	0.065996	0.065569	199.41	36028.3	0.061845	0.132506	1504.92	90427.5
1049	2.000000	1.156203	7.37531e+06	-52589.1	1055.82	-29748.7	0.000000	0.000000	7.167323	260.564	NaN	0.000000	0.001645	0.001718	28.083	73.0758	0.001824	40071.1	-2.363219	-177.942	257.876	1.155986	0.076424	0.076207	260.564	40071.1	0.071547	0.170440	1528.78	88678.7
1049	2.000000	1.166747	7.37531e+06	-52589.1	1055.82	-29748.7	0.000000	0.000000	7.180602	327.055	NaN	0.000000	0.001611	0.001721	28.0827	84.1213	0.001776	47366.9	4.593388	-6.832877	326.889	1.166492	0.086968	0.086714	327.055	47366.9	0.081790	0.215326	1518.88	93261
1049	2.000000	1.177151	7.37531e+06	-52589.1	1055.82	-29748.7	0.000000	0.000000	7.194660	415.899	NaN	0.000000	0.001631	0.001721	28.083	92.8124	0.001861	49884.5	2.835090	175.142	413.72	1.176758	0.097373	0.096980	415.899	49884.5	0.091120	0.260457	1596.81	89304.1
1049	2.000000	1.187598	7.37531e+06	-52589.1	1055.82	-29748.7	0.000000	0.000000	7.208641	501.807	NaN	0.000000	0.001722	0.001706	28.0816	101.287	0.001706	59364.7	2.711197	-6.242836	497.072	1.187232	0.107820	0.107453	501.807	59364.7	0.101480	0.315245	1591.8	96600.1
1049	2.000000	1.191093	7.37531e+06	-52589.1	1055.82	-29748.7	0.000000	0.000000	7.213571	536.702	NaN	0.000000	0.001674	0.001738	28.0818	105.389	0.001799	58590.8	2.479316	174.194	531.595	1.190834	0.111314	0.111055	536.702	58590.8	0.104444	0.331819	1617.45	92929.2