File: remote_trans/data/nanoindenter/0828-1/data/Data_2025-08-06,11h17m57s/2025-07-22_16-23-58_1_251.txt
2025-07-22, 16:23:58, 1
Index	Phase	Displacement	Time	Pos X	Pos Y	Pos Z	Rot A	Rot B	Piezo Z	Force A	Force B	Gripper	Voltage A	Voltage B	Temperature	Amplitude force	Amplitude pos	Stiffness	Phase shift	Phase excitation	Force A raw	Displacement raw	HMax	HMax raw	Real Force	Real Stiffness	Contact Depth	Area	Hardness	Reduced Mod.
[#]	[#]	[um]	[s]	[um]	[um]	[um]	[m°]	[m°]	[um]	[uN]	[uN]	[V]	[V]	[V]	[°C]	[uN]	[um]	[N/m]	[°]	[°]	[uN]	[um]	[um]	[um]	[uN]	[N/m]	[um]	[um^2]	[MPa]	[MPa]
251	1.000000	0.002261	7.3675e+06	-51189.1	955.82	-29753.4	0.000000	0.000000	6.002790	0.046876	NaN	0.000000	0.001612	0.001683	28.0789	0.039180	0.000968	40.4955	124.462	-161.152	0.050500	0.000975	-1.152221	-1.153506	0.046876	40.4955	-1.153089	-2.583611E+15	-1.814351E-17	NaN
251	1.000000	0.044206	7.3675e+06	-51189.1	955.818	-29753.4	0.000000	0.000000	6.044733	-0.000752	NaN	0.000000	0.001616	0.001644	28.079	0.104926	0.001953	53.7192	-45.9719	17.3468	-0.010236	0.042848	-1.110275	-1.111634	-0.000752	53.7192	-1.110265	-6.883972E+14	1.092550E-18	NaN
251	1.000000	0.086230	7.3675e+06	-51189.1	955.819	-29753.4	0.000000	0.000000	6.086757	0.005774	NaN	0.000000	0.001572	0.001668	28.0784	0.047144	0.002024	23.294	-75.2535	-165.154	0.037836	0.084951	-1.068251	-1.069531	0.005774	23.294	-1.068437	-1.888840E+14	-3.057028E-17	NaN
251	1.000000	0.128246	7.3675e+06	-51189.1	955.819	-29753.4	0.000000	0.000000	6.128770	-0.058643	NaN	0.000000	0.001585	0.001652	28.0779	0.023843	0.002049	11.6383	-128.878	15.4373	-0.051925	0.126901	-1.026235	-1.027581	-0.058643	11.6383	-1.022456	-4.549897E+13	1.288887E-15	NaN
251	1.000000	0.170252	7.3675e+06	-51189.1	955.82	-29753.4	0.000000	0.000000	6.170779	-0.003862	NaN	0.000000	0.001587	0.001660	28.078	0.038805	0.002015	19.2577	-57.0718	-166.686	-0.021859	0.168917	-0.984229	-0.985565	-0.003862	19.2577	-0.984079	-1.384718E+13	2.789214E-16	NaN
251	1.000000	0.212281	7.3675e+06	-51189.1	955.819	-29753.4	0.000000	0.000000	6.212806	-0.050627	NaN	0.000000	0.001575	0.001688	28.0789	0.076515	0.002131	35.9106	158.159	17.2335	-0.042480	0.210905	-0.942200	-0.943577	-0.050627	35.9106	-0.941143	-3.652239E+12	1.386194E-14	NaN
251	1.000000	0.254289	7.3675e+06	-51189.1	955.818	-29753.4	0.000000	0.000000	6.254815	-0.015387	NaN	0.000000	0.001538	0.001643	28.0789	0.045434	0.001974	23.0221	-44.5806	-163.442	-0.082115	0.253010	-0.900193	-0.901472	-0.015387	23.0221	-0.899691	-1.006688E+12	1.528478E-14	NaN
251	1.000000	0.296330	7.36751e+06	-51189.1	955.819	-29753.4	0.000000	0.000000	6.296859	0.051828	NaN	0.000000	0.001563	0.001635	28.0789	0.083156	0.001957	42.4813	-49.4033	16.556	-0.003508	0.295007	-0.858152	-0.859475	0.051828	42.4813	-0.859067	-2.841113E+11	-1.824205E-13	NaN
251	1.000000	0.338346	7.36751e+06	-51189.1	955.819	-29753.4	0.000000	0.000000	6.338874	0.019538	NaN	0.000000	0.001544	0.001643	28.078	0.082146	0.002014	40.7792	-0.081609	-168.555	0.013747	0.337037	-0.816135	-0.817445	0.019538	40.7792	-0.816494	-7.527817E+10	-2.595450E-13	NaN
251	1.000000	0.380360	7.36751e+06	-51189.1	955.818	-29753.4	0.000000	0.000000	6.380886	-0.028441	NaN	0.000000	0.001545	0.001666	28.0781	0.076192	0.002018	37.7645	120.361	17.3246	-0.052788	0.378967	-0.774121	-0.775515	-0.028441	37.7645	-0.773557	-1.966337E+10	1.446417E-12	NaN
251	1.000000	0.422373	7.36751e+06	-51189.1	955.818	-29753.4	0.000000	0.000000	6.422900	0.001664	NaN	0.000000	0.001579	0.001684	28.0779	0.101190	0.002006	50.4431	-100.113	-166.766	0.037633	0.421078	-0.732108	-0.733404	0.001664	50.4431	-0.732133	-5.368779E+9	-3.099061E-13	NaN
251	1.000000	0.464408	7.36751e+06	-51189.1	955.819	-29753.4	0.000000	0.000000	6.464935	0.002807	NaN	0.000000	0.001548	0.001698	28.0794	0.025852	0.001916	13.4928	-137.085	14.3001	-0.024309	0.463050	-0.690073	-0.691431	0.002807	13.4928	-0.690229	-1.438978E+9	-1.950596E-12	NaN
251	1.000000	0.506391	7.36751e+06	-51189.1	955.819	-29753.4	0.000000	0.000000	6.506916	-0.029596	NaN	0.000000	0.001508	0.001708	28.0795	0.019276	0.001972	9.772702	-32.072	-162.345	-0.061398	0.505120	-0.648091	-0.649361	-0.029596	9.772702	-0.645820	-3.549088E+8	8.339083E-11	NaN
251	1.000000	0.548462	7.36751e+06	-51189.1	955.82	-29753.4	0.000000	0.000000	6.548987	-0.041001	NaN	0.000000	0.001587	0.001706	28.0795	0.045821	0.001917	23.903	-48.6706	16.2423	-0.035731	0.547054	-0.606020	-0.607428	-0.041001	23.903	-0.604733	-9.674605E+7	4.238047E-10	NaN
251	1.000000	0.590470	7.36751e+06	-51189.1	955.818	-29753.4	0.000000	0.000000	6.590996	-0.025010	NaN	0.000000	0.001612	0.001671	28.0791	0.021770	0.002019	10.781	80.2658	-164.687	-0.079438	0.589137	-0.564012	-0.565344	-0.025010	10.781	-0.562272	-2.510730E+7	9.961279E-10	NaN
251	1.000000	0.632483	7.36751e+06	-51189.1	955.818	-29753.4	0.000000	0.000000	6.633008	-0.040422	NaN	0.000000	0.001549	0.001657	28.0774	0.108212	0.001935	55.9294	150.341	9.663508	-0.029864	0.631060	-0.521998	-0.523422	-0.040422	55.9294	-0.521456	-6.82097e+06	5.926173E-9	NaN
251	1.000000	0.674508	7.36751e+06	-51189.1	955.819	-29753.4	0.000000	0.000000	6.675033	-0.031393	NaN	0.000000	0.001611	0.001714	28.0778	0.089130	0.001983	44.9497	132.497	-163.805	-0.061459	0.673149	-0.479974	-0.481333	-0.031393	44.9497	-0.479450	-1.76942e+06	1.774186E-8	NaN
251	1.000000	0.716502	7.36751e+06	-51189.1	955.818	-29753.4	0.000000	0.000000	6.717028	0.003583	NaN	0.000000	0.001590	0.001703	28.0781	0.049376	0.001881	26.2505	-155.641	15.8045	0.033029	0.715173	-0.437980	-0.439308	0.003583	26.2505	-0.438082	-463760	-7.726758E-9	NaN
251	1.000000	0.758512	7.36751e+06	-51189.1	955.819	-29753.4	0.000000	0.000000	6.759034	-0.119214	NaN	0.000000	0.001540	0.001708	28.0794	0.052466	0.002068	25.3648	-98.2897	-165.939	-0.091641	0.757295	-0.395969	-0.397186	-0.119214	25.3648	-0.392444	-104260	1.143432E-6	NaN
251	1.000000	0.800548	7.36751e+06	-51189.1	955.819	-29753.4	0.000000	0.000000	6.801074	0.000749	NaN	0.000000	0.001515	0.001700	28.0794	0.052523	0.001946	26.9868	-59.2221	13.895	0.000260	0.799170	-0.353934	-0.355311	0.000749	26.9868	-0.353955	-29130.7	-2.572341E-8	NaN
251	1.000000	0.842554	7.36751e+06	-51189.1	955.818	-29753.4	0.000000	0.000000	6.843077	-0.090479	NaN	0.000000	0.001521	0.001744	28.0792	0.092184	0.001971	46.7699	127.13	-164.219	-0.056824	0.841234	-0.311927	-0.313248	-0.090479	46.7699	-0.310476	-6731.34	1.344152E-5	NaN
251	1.000000	0.884555	7.36751e+06	-51189.1	955.819	-29753.4	0.000000	0.000000	6.885081	-0.020137	NaN	0.000000	0.001565	0.001695	28.0779	0.012640	0.002148	5.884186	78.9818	16.1207	-0.064268	0.883230	-0.269926	-0.271251	-0.020137	5.884186	-0.267360	-1518.33	1.326239E-5	NaN
251	1.000000	0.926590	7.36751e+06	-51189.1	955.818	-29753.4	0.000000	0.000000	6.927117	0.012985	NaN	0.000000	0.001526	0.001692	28.078	0.022785	0.002005	11.3664	-57.0872	-167.409	-0.035665	0.925323	-0.227892	-0.229159	0.012985	11.3664	-0.228749	-382.599	-3.394018E-5	NaN
251	1.000000	0.968594	7.36751e+06	-51189.1	955.819	-29753.4	0.000000	0.000000	6.969119	-0.022091	NaN	0.000000	0.001595	0.001661	28.0781	0.114630	0.002047	56.01	122.962	14.8283	0.012329	0.967288	-0.185888	-0.187194	-0.022091	56.01	-0.185592	-75.8767	0.000291	NaN
251	1.000000	1.010613	7.36751e+06	-51189.1	955.817	-29753.4	0.000000	0.000000	7.011137	-0.057606	NaN	0.000000	0.001580	0.001691	28.0794	0.144799	0.001955	74.0502	-130.432	-169.272	-0.117531	1.009321	-0.143869	-0.145160	-0.057606	74.0502	-0.143285	-13.6258	0.004228	NaN
251	1.000000	1.052618	7.36751e+06	-51189.1	955.82	-29753.4	0.000000	0.000000	7.053143	-0.046504	NaN	0.000000	0.001588	0.001677	28.0794	0.145054	0.002020	71.7942	-162.042	14.469	-0.062612	1.051310	-0.101863	-0.103172	-0.046504	71.7942	-0.101377	-1.959727	0.023730	NaN
251	1.000000	1.094647	7.36751e+06	-51189.1	955.819	-29753.4	0.000000	0.000000	7.095170	-0.096161	NaN	0.000000	0.001576	0.001689	28.0793	0.074139	0.001933	38.3594	-27.1951	-162.692	-0.064027	1.093306	-0.059834	-0.061176	-0.096161	38.3594	-0.057954	-0.157190	0.611752	NaN
251	1.000000	1.136696	7.36751e+06	-51189.1	955.818	-29753.4	0.000000	0.000000	7.137221	-0.033461	NaN	0.000000	0.001579	0.001706	28.079	0.052719	0.001976	26.6806	-22.2058	14.1543	-0.140469	1.135317	-0.017785	-0.019165	-0.033461	26.6806	-0.016845	-0.010412	3.213818	NaN
251	2.000000	1.168211	7.36751e+06	-51189.1	955.819	-29753.4	0.000000	0.000000	7.169324	14.2546	NaN	0.000000	0.001565	0.001656	28.0779	13.574	0.001784	7609.96	10.9687	-177.896	14.4068	1.167916	0.013730	0.013434	14.2546	7609.96	0.012325	0.011882	1199.72	63784.8
251	2.000000	1.178615	7.36751e+06	-51189.1	955.82	-29753.4	0.000000	0.000000	7.180669	37.1332	NaN	0.000000	0.001556	0.001704	28.0778	24.0855	0.001751	13756.8	7.421006	-0.312653	34.8011	1.178286	0.024134	0.023804	37.1332	13756.8	0.022109	0.025966	1430.09	77999.7
251	2.000000	1.189134	7.36751e+06	-51189.1	955.819	-29753.4	0.000000	0.000000	7.192357	65.5652	NaN	0.000000	0.001591	0.001723	28.0779	35.1713	0.001697	20725.5	7.996147	175.01	65.6058	1.188863	0.034653	0.034381	65.5652	20725.5	0.032280	0.045602	1437.76	88671.6
251	2.000000	1.199580	7.36751e+06	-51189.1	955.819	-29753.4	0.000000	0.000000	7.204495	106.715	NaN	0.000000	0.001653	0.001678	28.0799	43.0172	0.001744	24659.4	0.773602	0.792845	103.568	1.199226	0.045098	0.044745	106.715	24659.4	0.041852	0.068903	1548.76	85829.3
251	2.000000	1.210035	7.36751e+06	-51189.1	955.82	-29753.4	0.000000	0.000000	7.216920	154.607	NaN	0.000000	0.001590	0.001715	28.0795	55.2919	0.001794	30828.9	2.931307	177.512	151.396	1.209752	0.055554	0.055271	154.607	30828.9	0.051792	0.098034	1577.07	89958.7
251	2.000000	1.220576	7.36751e+06	-51189.1	955.819	-29753.4	0.000000	0.000000	7.229641	207.637	NaN	0.000000	0.001571	0.001702	28.079	65.9122	0.001804	36527.2	1.789006	-2.705345	206.935	1.220345	0.066095	0.065864	207.637	36527.2	0.061831	0.132456	1567.58	91696.6
251	2.000000	1.230993	7.36751e+06	-51189.1	955.819	-29753.4	0.000000	0.000000	7.243128	282.268	NaN	0.000000	0.001543	0.001683	28.0779	75.4528	0.001782	42330.2	3.819210	173.683	276.905	1.230699	0.076512	0.076217	282.268	42330.2	0.071510	0.170287	1657.6	93720.3
251	2.000000	1.241542	7.36751e+06	-51189.1	955.819	-29753.4	0.000000	0.000000	7.256862	359.737	NaN	0.000000	0.001591	0.001675	28.078	84.5477	0.001790	47224.6	4.747945	-8.162890	356.429	1.241121	0.087060	0.086639	359.737	47224.6	0.081347	0.213284	1686.66	93424.8
251	2.000000	1.251958	7.36751e+06	-51189.1	955.82	-29753.4	0.000000	0.000000	7.270837	446.271	NaN	0.000000	0.001568	0.001679	28.0778	93.0372	0.001764	52751.3	4.411486	171.75	441.975	1.251639	0.097477	0.097157	446.271	52751.3	0.091132	0.260518	1713.01	94425
251	2.000000	1.262486	7.36751e+06	-51189.1	955.818	-29753.4	0.000000	0.000000	7.285000	534.681	NaN	0.000000	0.001585	0.001657	28.0787	103.294	0.001774	58217	3.318660	-7.299428	529.775	1.262054	0.108004	0.107573	534.681	58217	0.101116	0.313237	1706.95	95035.6
251	2.000000	1.263050	7.36751e+06	-51189.1	955.819	-29753.4	0.000000	0.000000	7.285702	538.027	NaN	0.000000	0.001595	0.001678	28.079	103.151	0.001737	59401.5	1.724550	174.009	536.651	1.262734	0.108568	0.108252	538.027	59401.5	0.101775	0.316877	1697.9	96410.7