File: remote_trans/data/nanoindenter/0828-1/data/Data_2025-08-06,11h17m57s/2025-07-22_16-23-58_1_642.txt
2025-07-22, 16:23:58, 1
Index	Phase	Displacement	Time	Pos X	Pos Y	Pos Z	Rot A	Rot B	Piezo Z	Force A	Force B	Gripper	Voltage A	Voltage B	Temperature	Amplitude force	Amplitude pos	Stiffness	Phase shift	Phase excitation	Force A raw	Displacement raw	HMax	HMax raw	Real Force	Real Stiffness	Contact Depth	Area	Hardness	Reduced Mod.
[#]	[#]	[um]	[s]	[um]	[um]	[um]	[m°]	[m°]	[um]	[uN]	[uN]	[V]	[V]	[V]	[°C]	[uN]	[um]	[N/m]	[°]	[°]	[uN]	[um]	[um]	[um]	[uN]	[N/m]	[um]	[um^2]	[MPa]	[MPa]
642	1.000000	0.003027	7.37133e+06	-44989.1	1005.82	-29774	0.000000	0.000000	6.002809	0.082077	NaN	0.000000	0.001744	0.001712	28.0837	0.027026	0.000914	29.5766	128.12	-169.669	0.032561	0.001735	-1.062522	-1.063813	0.082077	29.5766	-1.064603	-1.677562E+14	-4.892648E-16	NaN
642	1.000000	0.042960	7.37133e+06	-44989.1	1005.82	-29774	0.000000	0.000000	6.042737	-0.042871	NaN	0.000000	0.001777	0.001708	28.0837	0.091338	0.002127	42.943	-146.842	-165.116	-0.054759	0.041619	-1.022589	-1.023930	-0.042871	42.943	-1.021840	-4.463865E+13	9.604006E-16	NaN
642	1.000000	0.082991	7.37133e+06	-44989.1	1005.82	-29774	0.000000	0.000000	6.082772	0.051683	NaN	0.000000	0.001664	0.001708	28.0823	0.017514	0.002052	8.534739	112.037	-163.635	-0.034761	0.081678	-0.982558	-0.983870	0.051683	8.534739	-0.987099	-1.520699E+13	-3.398617E-15	NaN
642	1.000000	0.122970	7.37133e+06	-44989.1	1005.82	-29774	0.000000	0.000000	6.122748	-0.048879	NaN	0.000000	0.001687	0.001711	28.0822	0.056869	0.002011	28.2794	4.724877	-164.016	-0.022193	0.121680	-0.942578	-0.943868	-0.048879	28.2794	-0.941282	-3.668033E+12	1.332573E-14	NaN
642	1.000000	0.163045	7.37133e+06	-44989.1	1005.82	-29774	0.000000	0.000000	6.162824	-0.014354	NaN	0.000000	0.001670	0.001701	28.0822	0.100685	0.001875	53.708	2.951058	-163.738	0.053080	0.161698	-0.902503	-0.903851	-0.014354	53.708	-0.902303	-1.091896E+12	1.314571E-14	NaN
642	1.000000	0.203013	7.37133e+06	-44989.1	1005.82	-29774	0.000000	0.000000	6.202793	0.010318	NaN	0.000000	0.001691	0.001720	28.0836	0.036604	0.001960	18.6781	144.752	-169.16	0.055431	0.201684	-0.862535	-0.863865	0.010318	18.6781	-0.862950	-3.206600E+11	-3.217880E-14	NaN
642	1.000000	0.243056	7.37133e+06	-44989.1	1005.82	-29774	0.000000	0.000000	6.242837	0.049809	NaN	0.000000	0.001698	0.001719	28.0835	0.058786	0.001964	29.9324	-41.0431	-163.618	0.098166	0.241794	-0.822493	-0.823754	0.049809	29.9324	-0.823741	-9.439118E+10	-5.276832E-13	NaN
642	1.000000	0.283076	7.37133e+06	-44989.1	1005.82	-29774	0.000000	0.000000	6.282858	0.053408	NaN	0.000000	0.001684	0.001704	28.0835	0.101033	0.001965	51.4292	-12.8315	-161.91	0.030823	0.281779	-0.782472	-0.783769	0.053408	51.4292	-0.783251	-2.663238E+10	-2.005369E-12	NaN
642	1.000000	0.323118	7.37133e+06	-44989.1	1005.82	-29774	0.000000	0.000000	6.322898	0.014674	NaN	0.000000	0.001718	0.001696	28.0833	0.049072	0.002061	23.8104	-53.6092	-164.258	-0.029350	0.321793	-0.742430	-0.743756	0.014674	23.8104	-0.742892	-7.523972E+9	-1.950307E-12	NaN
642	1.000000	0.363096	7.37133e+06	-44989.1	1005.82	-29774	0.000000	0.000000	6.362875	-0.016477	NaN	0.000000	0.001638	0.001733	28.0827	0.014909	0.002054	7.259801	107.255	-167.422	-0.032329	0.361782	-0.702452	-0.703766	-0.016477	7.259801	-0.700750	-2.003430E+9	8.224435E-12	NaN
642	1.000000	0.403115	7.37133e+06	-44989.1	1005.82	-29774	0.000000	0.000000	6.402893	-0.051303	NaN	0.000000	0.001701	0.001694	28.083	0.057704	0.002034	28.3763	-122.781	-166.466	-0.041017	0.401765	-0.662433	-0.663784	-0.051303	28.3763	-0.661077	-5.744139E+8	8.931415E-11	NaN
642	1.000000	0.443160	7.37133e+06	-44989.1	1005.82	-29774	0.000000	0.000000	6.442940	0.017031	NaN	0.000000	0.001673	0.001712	28.0824	0.066160	0.002031	32.5811	0.582958	-165.589	0.037572	0.441820	-0.622389	-0.623729	0.017031	32.5811	-0.622781	-1.713377E+8	-9.940168E-11	NaN
642	1.000000	0.483178	7.37133e+06	-44989.1	1005.82	-29774	0.000000	0.000000	6.482955	-0.054729	NaN	0.000000	0.001715	0.001730	28.0836	0.047259	0.002075	22.7711	-124.248	-162.113	-0.030750	0.481858	-0.582371	-0.583691	-0.054729	22.7711	-0.580568	-4.493338E+7	1.217998E-9	NaN
642	1.000000	0.523156	7.37133e+06	-44989.1	1005.82	-29774	0.000000	0.000000	6.522936	0.016041	NaN	0.000000	0.001705	0.001728	28.0838	0.094190	0.001981	47.5527	-97.2715	-164.324	0.065236	0.521822	-0.542393	-0.543727	0.016041	47.5527	-0.542646	-1.342906E+7	-1.194526E-9	NaN
642	1.000000	0.563152	7.37133e+06	-44989.1	1005.82	-29774	0.000000	0.000000	6.562933	0.049515	NaN	0.000000	0.001724	0.001754	28.0838	0.068172	0.002031	33.571	-65.9645	-164.327	0.025796	0.561873	-0.502397	-0.503676	0.049515	33.571	-0.503503	-3.83596e+06	-1.290821E-8	NaN
642	1.000000	0.603201	7.37133e+06	-44989.1	1005.82	-29774	0.000000	0.000000	6.602979	-0.039176	NaN	0.000000	0.001710	0.001794	28.083	0.153308	0.001997	76.7604	110.92	-165.643	-0.043223	0.601869	-0.462347	-0.463680	-0.039176	76.7604	-0.461964	-1.00604e+06	3.894069E-8	NaN
642	1.000000	0.643217	7.37133e+06	-44989.1	1005.82	-29774	0.000000	0.000000	6.642997	0.019193	NaN	0.000000	0.001723	0.001748	28.0827	0.047345	0.002030	23.3282	-108.647	-163.972	0.018922	0.641903	-0.422332	-0.423646	0.019193	23.3282	-0.422949	-283285	-6.775001E-8	NaN
642	1.000000	0.683262	7.37133e+06	-44989.1	1005.82	-29774	0.000000	0.000000	6.683042	0.012891	NaN	0.000000	0.001658	0.001793	28.0826	0.060073	0.001909	31.4743	4.980660	-165.404	0.006959	0.681932	-0.382286	-0.383616	0.012891	31.4743	-0.382594	-75351.9	-1.710832E-7	NaN
642	1.000000	0.723230	7.37133e+06	-44989.1	1005.82	-29774	0.000000	0.000000	6.723012	0.050043	NaN	0.000000	0.001660	0.001781	28.0826	0.108315	0.002036	53.192	-143.442	-165.235	-0.069019	0.721952	-0.342318	-0.343597	0.050043	53.192	-0.343024	-20211.8	-2.475940E-6	NaN
642	1.000000	0.763265	7.37133e+06	-44989.1	1005.82	-29774	0.000000	0.000000	6.763043	-0.032125	NaN	0.000000	0.001760	0.001767	28.0839	0.062975	0.002035	30.9465	107.341	-166.894	-0.078161	0.761986	-0.302284	-0.303562	-0.032125	30.9465	-0.301505	-4954.83	6.483561E-6	NaN
642	1.000000	0.803279	7.37133e+06	-44989.1	1005.82	-29774	0.000000	0.000000	6.803058	0.003595	NaN	0.000000	0.001672	0.001796	28.0841	0.041890	0.002032	20.6156	-150.565	-166.504	0.028596	0.801956	-0.262270	-0.263592	0.003595	20.6156	-0.262401	-1275.48	-2.818221E-6	NaN
642	1.000000	0.843308	7.37133e+06	-44989.1	1005.82	-29774	0.000000	0.000000	6.843086	-0.045801	NaN	0.000000	0.001704	0.001821	28.0837	0.076959	0.002111	36.4645	-83.0912	-165.927	-0.074119	0.842023	-0.222240	-0.223526	-0.045801	36.4645	-0.221298	-291.343	0.000157	NaN
642	1.000000	0.883309	7.37133e+06	-44989.1	1005.82	-29774	0.000000	0.000000	6.883090	0.044441	NaN	0.000000	0.001739	0.001789	28.082	0.153149	0.002014	76.0285	131.5	-163.602	0.082321	0.882011	-0.182240	-0.183537	0.044441	76.0285	-0.182678	-67.7514	-0.000656	NaN
642	1.000000	0.923368	7.37133e+06	-44989.1	1005.82	-29774	0.000000	0.000000	6.923147	0.002264	NaN	0.000000	0.001723	0.001803	28.0823	0.090295	0.001836	49.1691	93.7237	-166.04	0.072011	0.922007	-0.142181	-0.143542	0.002264	49.1691	-0.142215	-13.0146	-0.000174	NaN
642	1.000000	0.963346	7.37133e+06	-44989.1	1005.82	-29774	0.000000	0.000000	6.963124	-0.047692	NaN	0.000000	0.001732	0.001760	28.0825	0.104021	0.002024	51.4017	-155.055	-166.935	-0.015455	0.962082	-0.102202	-0.103467	-0.047692	51.4017	-0.101506	-1.972563	0.024177	NaN
642	1.000000	1.003375	7.37133e+06	-44989.1	1005.82	-29774	0.000000	0.000000	7.003155	0.009014	NaN	0.000000	0.001738	0.001794	28.0826	0.031137	0.001908	16.3216	-115.741	-165.49	-0.087951	1.002032	-0.062173	-0.063517	0.009014	16.3216	-0.062587	-0.213352	-0.042252	NaN
642	1.000000	1.043370	7.37133e+06	-44989.1	1005.82	-29774	0.000000	0.000000	7.043152	0.072215	NaN	0.000000	0.001752	0.001820	28.0836	0.105376	0.002097	50.2576	-5.396597	-166.851	0.027497	1.042103	-0.022178	-0.023446	0.072215	50.2576	-0.023256	-0.015205	-4.749459	NaN
642	2.000000	1.078968	7.37133e+06	-44989.1	1005.82	-29774	0.000000	0.000000	7.079089	8.306490	NaN	0.000000	0.001736	0.001768	28.0834	9.938269	0.001831	5429.05	4.781446	-169.36	8.358824	1.078657	0.013420	0.013109	8.306490	5429.05	0.012272	0.011818	702.892	45628.1
642	2.000000	1.088877	7.37133e+06	-44989.1	1005.82	-29774	0.000000	0.000000	7.089515	20.8891	NaN	0.000000	0.001701	0.001830	28.0846	20.0233	0.001787	11202.6	5.932880	-177.75	20.7884	1.088532	0.023329	0.022984	20.8891	11202.6	0.021930	0.025667	813.855	63885.7
642	2.000000	1.098808	7.37134e+06	-44989.1	1005.82	-29774	0.000000	0.000000	7.100616	49.3539	NaN	0.000000	0.001650	0.001775	28.0823	31.22	0.001692	18450.7	2.684114	-178.009	47.2566	1.098460	0.033260	0.032912	49.3539	18450.7	0.031253	0.043382	1137.67	80934.6
642	2.000000	1.108800	7.37134e+06	-44989.1	1005.82	-29774	0.000000	0.000000	7.111665	75.0666	NaN	0.000000	0.001628	0.001823	28.0825	43.3781	0.001968	22040.3	5.081924	177.551	73.4769	1.108588	0.043252	0.043039	75.0666	22040.3	0.040697	0.065843	1140.08	78475.5
642	2.000000	1.118762	7.37134e+06	-44989.1	1005.82	-29774	0.000000	0.000000	7.123611	123.33	NaN	0.000000	0.001645	0.001795	28.0823	53.5533	0.001844	29038.6	7.230653	173.745	120.796	1.118367	0.053213	0.052818	123.33	29038.6	0.050028	0.092499	1333.32	87233.2
642	2.000000	1.128723	7.37134e+06	-44989.1	1005.82	-29774	0.000000	0.000000	7.136053	183.686	NaN	0.000000	0.001698	0.001771	28.0837	63.5643	0.001784	35638.6	3.332418	175.808	179.889	1.128494	0.063175	0.062945	183.686	35638.6	0.059309	0.123342	1489.23	92712.3
642	2.000000	1.138812	7.37134e+06	-44989.1	1005.82	-29774	0.000000	0.000000	7.149450	264.169	NaN	0.000000	0.001677	0.001755	28.0834	74.0289	0.001831	40433.3	3.635622	174.201	264.35	1.138386	0.073263	0.072838	264.169	40433.3	0.068363	0.157494	1677.33	93085.1
642	2.000000	1.148716	7.37134e+06	-44989.1	1005.82	-29774	0.000000	0.000000	7.163377	362.029	NaN	0.000000	0.001695	0.001771	28.0835	82.8625	0.001788	46354.9	3.699659	172.704	358.71	1.148381	0.083168	0.082832	362.029	46354.9	0.077310	0.195090	1855.7	95885.2
642	2.000000	1.158953	7.37134e+06	-44989.1	1005.82	-29774	0.000000	0.000000	7.178235	474.435	NaN	0.000000	0.001728	0.001736	28.0836	94.5733	0.001868	50638.1	9.491137	166.465	485.644	1.158441	0.093405	0.092892	474.435	50638.1	0.086378	0.237019	2001.68	95029.8
642	2.000000	1.168728	7.37134e+06	-44989.1	1005.82	-29774	0.000000	0.000000	7.193795	615.172	NaN	0.000000	0.001689	0.001798	28.0821	101.983	0.001681	60664.9	3.350393	170.923	614.491	1.168474	0.103179	0.102926	615.172	60664.9	0.095574	0.283413	2170.58	104112
642	2.000000	1.175719	7.37134e+06	-44989.1	1005.82	-29774	0.000000	0.000000	7.204751	711.632	NaN	0.000000	0.001704	0.001759	28.0833	107.964	0.001787	60404.4	5.895954	168.95	711.611	1.175334	0.110170	0.109785	711.632	60404.4	0.101335	0.314442	2263.16	98417.3