File: remote_trans/data/nanoindenter/0828-1/data/Data_2025-08-06,11h17m57s/2025-07-22_16-23-58_1_20.txt
2025-07-22, 16:23:58, 1
Index	Phase	Displacement	Time	Pos X	Pos Y	Pos Z	Rot A	Rot B	Piezo Z	Force A	Force B	Gripper	Voltage A	Voltage B	Temperature	Amplitude force	Amplitude pos	Stiffness	Phase shift	Phase excitation	Force A raw	Displacement raw	HMax	HMax raw	Real Force	Real Stiffness	Contact Depth	Area	Hardness	Reduced Mod.
[#]	[#]	[um]	[s]	[um]	[um]	[um]	[m°]	[m°]	[um]	[uN]	[uN]	[V]	[V]	[V]	[°C]	[uN]	[um]	[N/m]	[°]	[°]	[uN]	[um]	[um]	[um]	[uN]	[N/m]	[um]	[um^2]	[MPa]	[MPa]
20	1.000000	0.002869	7.36524e+06	-39639.1	955.818	-29793.8	0.000000	0.000000	6.002817	0.023153	NaN	0.000000	0.001628	0.001671	28.0841	0.071819	0.000965	74.4611	-30.1408	-168.379	-0.010901	0.001696	-1.105025	-1.106198	0.023153	74.4611	-1.105259	-5.897294E+14	-3.926094E-17	NaN
20	1.000000	0.044795	7.36524e+06	-39639.1	955.818	-29793.8	0.000000	0.000000	6.044740	-0.039380	NaN	0.000000	0.001631	0.001678	28.0833	0.049750	0.001915	25.9811	-37.1195	13.5914	-0.009399	0.043480	-1.063100	-1.064415	-0.039380	25.9811	-1.061963	-1.545990E+14	2.547260E-16	NaN
20	1.000000	0.086805	7.36524e+06	-39639.1	955.819	-29793.8	0.000000	0.000000	6.086751	0.000413	NaN	0.000000	0.001610	0.001671	28.1224	0.063734	0.001963	32.4651	-163.233	-165.318	0.061498	0.085498	-1.021090	-1.022397	0.000413	32.4651	-1.021100	-4.362654E+13	-9.458499E-18	NaN
20	1.000000	0.128863	7.36524e+06	-39639.1	955.818	-29793.8	0.000000	0.000000	6.128810	0.006853	NaN	0.000000	0.001581	0.001643	28.1218	0.049370	0.002117	23.3246	8.351870	10.7583	-0.007742	0.127472	-0.979032	-0.980423	0.006853	23.3246	-0.979252	-1.192162E+13	-5.748289E-16	NaN
20	1.000000	0.170859	7.36524e+06	-39639.1	955.818	-29793.8	0.000000	0.000000	6.170802	-0.071904	NaN	0.000000	0.001596	0.001686	28.0844	0.058081	0.002056	28.2458	138.571	-162.207	-0.044747	0.169576	-0.937036	-0.938319	-0.071904	28.2458	-0.935127	-3.029615E+12	2.373377E-14	NaN
20	1.000000	0.212863	7.36524e+06	-39639.1	955.818	-29793.8	0.000000	0.000000	6.212812	0.076682	NaN	0.000000	0.001642	0.001686	28.0825	0.166381	0.002057	80.885	18.5314	14.725	0.041578	0.211510	-0.895032	-0.896385	0.076682	80.885	-0.895743	-8.903137E+11	-8.612868E-14	NaN
20	1.000000	0.254889	7.36524e+06	-39639.1	955.819	-29793.8	0.000000	0.000000	6.254834	-0.043890	NaN	0.000000	0.001585	0.001630	28.1201	0.065763	0.002077	31.6686	-122.703	-167.738	-0.018523	0.253552	-0.853006	-0.854343	-0.043890	31.6686	-0.851966	-2.276987E+11	1.927550E-13	NaN
20	1.000000	0.296914	7.36524e+06	-39639.1	955.819	-29793.8	0.000000	0.000000	6.296858	-0.046491	NaN	0.000000	0.001675	0.001639	28.1219	0.043587	0.002048	21.2827	62.0288	12.137	-0.020613	0.295516	-0.810981	-0.812379	-0.046491	21.2827	-0.809343	-6.020822E+10	7.721760E-13	NaN
20	1.000000	0.338930	7.36524e+06	-39639.1	955.818	-29793.8	0.000000	0.000000	6.338877	-0.001419	NaN	0.000000	0.001654	0.001669	28.0853	0.092517	0.001945	47.5592	-147.048	-168.108	-0.054933	0.337621	-0.768965	-0.770274	-0.001419	47.5592	-0.768943	-1.701875E+10	8.340362E-14	NaN
20	1.000000	0.380929	7.36524e+06	-39639.1	955.818	-29793.8	0.000000	0.000000	6.380875	-0.008090	NaN	0.000000	0.001661	0.001687	28.0828	0.072122	0.002126	33.9299	116.16	12.7697	-0.012307	0.379599	-0.726966	-0.728296	-0.008090	33.9299	-0.726787	-4.539548E+9	1.782017E-12	NaN
20	1.000000	0.422956	7.36524e+06	-39639.1	955.818	-29793.8	0.000000	0.000000	6.422902	-0.005852	NaN	0.000000	0.001666	0.001684	28.1208	0.173281	0.002019	85.8116	164.642	-170.133	0.008944	0.421642	-0.684939	-0.686253	-0.005852	85.8116	-0.684888	-1.216300E+9	4.811387E-12	NaN
20	1.000000	0.464991	7.36524e+06	-39639.1	955.819	-29793.8	0.000000	0.000000	6.464937	-0.001865	NaN	0.000000	0.001585	0.001652	28.1226	0.032644	0.002046	15.9587	-60.5164	12.7241	0.054159	0.463571	-0.642904	-0.644324	-0.001865	15.9587	-0.642816	-3.227948E+8	5.778882E-12	NaN
20	1.000000	0.507015	7.36524e+06	-39639.1	955.818	-29793.8	0.000000	0.000000	6.506961	-0.029392	NaN	0.000000	0.001580	0.001665	28.0844	0.062370	0.001913	32.6062	-99.8482	-165.95	-0.027495	0.505723	-0.600880	-0.602172	-0.029392	32.6062	-0.600204	-8.380370E+7	3.507294E-10	NaN
20	1.000000	0.548996	7.36524e+06	-39639.1	955.818	-29793.8	0.000000	0.000000	6.548945	0.049283	NaN	0.000000	0.001578	0.001679	28.0824	0.081265	0.002136	38.0461	17.5987	11.467	0.031302	0.547702	-0.558899	-0.560193	0.049283	38.0461	-0.559871	-2.325877E+7	-2.118891E-9	NaN
20	1.000000	0.591022	7.36524e+06	-39639.1	955.818	-29793.8	0.000000	0.000000	6.590971	0.042872	NaN	0.000000	0.001543	0.001689	28.1186	0.116908	0.002035	57.4403	142.753	-166.964	-0.019112	0.589784	-0.516873	-0.518111	0.042872	57.4403	-0.517432	-5.99628e+06	-7.149796E-9	NaN
20	1.000000	0.633037	7.36524e+06	-39639.1	955.819	-29793.8	0.000000	0.000000	6.632984	0.009990	NaN	0.000000	0.001579	0.001701	28.1239	0.082724	0.002084	39.6932	45.484	13.9953	0.058121	0.631682	-0.474858	-0.476213	0.009990	39.6932	-0.475047	-1.53517e+06	-6.507141E-9	NaN
20	1.000000	0.675093	7.36524e+06	-39639.1	955.818	-29793.8	0.000000	0.000000	6.675038	-0.055674	NaN	0.000000	0.001586	0.001632	28.0866	0.050917	0.001997	25.4967	-94.0569	-165.343	-0.082477	0.673765	-0.432801	-0.434130	-0.055674	25.4967	-0.431164	-370274	1.503596E-7	NaN
20	1.000000	0.717093	7.36524e+06	-39639.1	955.819	-29793.8	0.000000	0.000000	6.717037	-0.046513	NaN	0.000000	0.001591	0.001674	28.0843	0.027380	0.002013	13.5998	109.437	13.4058	-0.018732	0.715747	-0.390802	-0.392147	-0.046513	13.5998	-0.388237	-90770.4	5.124197E-7	NaN
20	1.000000	0.759099	7.36524e+06	-39639.1	955.818	-29793.8	0.000000	0.000000	6.759044	-0.035906	NaN	0.000000	0.001657	0.001674	28.1179	0.076764	0.001901	40.3782	107.715	-163.039	-0.013453	0.757782	-0.348796	-0.350113	-0.035906	40.3782	-0.348129	-23979.1	1.497400E-6	NaN
20	1.000000	0.801136	7.36524e+06	-39639.1	955.819	-29793.8	0.000000	0.000000	6.801082	-0.031706	NaN	0.000000	0.001625	0.001689	28.1237	0.117731	0.001944	60.5477	-145.42	14.2517	-0.012351	0.799790	-0.306759	-0.308105	-0.031706	60.5477	-0.306366	-5850.87	5.419099E-6	NaN
20	1.000000	0.843133	7.36524e+06	-39639.1	955.818	-29793.8	0.000000	0.000000	6.843078	-0.045834	NaN	0.000000	0.001639	0.001687	28.0832	0.111838	0.001806	61.9172	-36.8241	-160.049	-0.012763	0.841797	-0.264761	-0.266098	-0.045834	61.9172	-0.264206	-1359.16	3.372262E-5	NaN
20	1.000000	0.885138	7.36524e+06	-39639.1	955.818	-29793.8	0.000000	0.000000	6.885085	0.009328	NaN	0.000000	0.001613	0.001632	28.0837	0.038528	0.001938	19.8852	117.737	10.3379	-0.062580	0.883786	-0.222757	-0.224109	0.009328	19.8852	-0.223108	-311.356	-2.995825E-5	NaN
20	1.000000	0.927190	7.36524e+06	-39639.1	955.818	-29793.8	0.000000	0.000000	6.927138	0.021998	NaN	0.000000	0.001644	0.001640	28.1176	0.091051	0.002032	44.807	111.088	-167.448	0.019422	0.925839	-0.180704	-0.182056	0.021998	44.807	-0.181073	-63.6354	-0.000346	NaN
20	1.000000	0.969180	7.36524e+06	-39639.1	955.819	-29793.8	0.000000	0.000000	6.969128	0.033717	NaN	0.000000	0.001624	0.001645	28.1268	0.053682	0.001986	27.0269	3.093446	16.7403	0.064970	0.967804	-0.138715	-0.140091	0.033717	27.0269	-0.139650	-11.6518	-0.002894	NaN
20	1.000000	1.011191	7.36524e+06	-39639.1	955.818	-29793.8	0.000000	0.000000	7.011138	0.014935	NaN	0.000000	0.001609	0.001675	28.0856	0.132816	0.002025	65.5788	44.3091	-166.455	-0.056599	1.009886	-0.096704	-0.098009	0.014935	65.5788	-0.096875	-1.555630	-0.009600	NaN
20	1.000000	1.053214	7.36524e+06	-39639.1	955.819	-29793.8	0.000000	0.000000	7.053161	-0.005953	NaN	0.000000	0.001580	0.001702	28.0823	0.074458	0.002027	36.7376	-118.893	15.2494	0.024868	1.051874	-0.054680	-0.056021	-0.005953	36.7376	-0.054559	-0.124964	0.047637	NaN
20	1.000000	1.095281	7.36524e+06	-39639.1	955.819	-29793.8	0.000000	0.000000	7.095225	-0.081280	NaN	0.000000	0.001603	0.001622	28.1149	0.036035	0.002098	17.1744	-89.748	-166.947	0.009889	1.093938	-0.012614	-0.013957	-0.081280	17.1744	-0.009064	-0.005850	13.8942	NaN
20	2.000000	1.123224	7.36524e+06	-39639.1	955.818	-29793.8	0.000000	0.000000	7.123852	16.5759	NaN	0.000000	0.001606	0.001670	28.1264	15.3874	0.001811	8497.63	7.386748	4.024246	15.7222	1.122900	0.015330	0.015005	16.5759	8497.63	0.013867	0.013804	1200.83	66080.7
20	2.000000	1.133672	7.36524e+06	-39639.1	955.818	-29793.8	0.000000	0.000000	7.135192	38.2925	NaN	0.000000	0.001632	0.001693	28.0868	25.1596	0.001803	13957.4	6.685174	-178.804	40.2349	1.133410	0.025777	0.025515	38.2925	13957.4	0.023719	0.028726	1333.01	75238
20	2.000000	1.144091	7.36524e+06	-39639.1	955.818	-29793.8	0.000000	0.000000	7.146896	69.5719	NaN	0.000000	0.001642	0.001653	28.0837	34.1905	0.001771	19304.1	7.486618	-2.632260	67.3333	1.143746	0.036196	0.035851	69.5719	19304.1	0.033493	0.048295	1440.57	80255.3
20	2.000000	1.154624	7.36524e+06	-39639.1	955.818	-29793.8	0.000000	0.000000	7.158839	103.876	NaN	0.000000	0.001616	0.001715	28.1151	42.4008	0.001698	24964.4	1.783566	-179.051	104.183	1.154239	0.046729	0.046344	103.876	24964.4	0.043608	0.073685	1409.72	84024.1
20	2.000000	1.165025	7.36524e+06	-39639.1	955.818	-29793.8	0.000000	0.000000	7.170874	143.628	NaN	0.000000	0.001676	0.001642	28.127	53.1698	0.001912	27813.6	5.215686	-3.357406	138.909	1.164724	0.057130	0.056829	143.628	27813.6	0.053257	0.102746	1397.9	79277.3
20	2.000000	1.175580	7.36524e+06	-39639.1	955.819	-29793.8	0.000000	0.000000	7.183465	193.18	NaN	0.000000	0.001627	0.001677	28.0858	63.1749	0.001811	34882.6	6.623760	173.975	189.138	1.175175	0.067685	0.067280	193.18	34882.6	0.063531	0.138775	1392.04	85551.3
20	2.000000	1.186080	7.36524e+06	-39639.1	955.819	-29793.8	0.000000	0.000000	7.196049	243.895	NaN	0.000000	0.001626	0.001673	28.0835	71.4834	0.001743	41010.6	4.973928	-7.120340	242.388	1.185829	0.078185	0.077934	243.895	41010.6	0.073725	0.179569	1358.23	88420.7
20	2.000000	1.196500	7.36524e+06	-39639.1	955.819	-29793.8	0.000000	0.000000	7.208980	304.988	NaN	0.000000	0.001609	0.001666	28.114	80.9063	0.001733	46674.6	5.930788	171.545	301.575	1.196197	0.088605	0.088302	304.988	46674.6	0.083705	0.224261	1359.97	90048.6
20	2.000000	1.207092	7.36524e+06	-39639.1	955.819	-29793.8	0.000000	0.000000	7.222372	373.126	NaN	0.000000	0.001662	0.001643	28.1289	91.4093	0.001762	51885.8	5.639941	-9.111241	372.082	1.206675	0.099197	0.098780	373.126	51885.8	0.093803	0.274179	1360.88	90532.4
20	2.000000	1.217127	7.36524e+06	-39639.1	955.818	-29793.8	0.000000	0.000000	7.235652	452.106	NaN	0.000000	0.001643	0.001670	28.1281	102.624	0.001817	56471	10.5983	-14.33	455.066	1.216702	0.109232	0.108807	452.106	56471	0.103228	0.324968	1391.23	90506.3