File: remote_trans/data/nanoindenter/0828-1/data/Data_2025-08-06,11h17m57s/2025-07-22_16-23-58_1_1055.txt
2025-07-22, 16:23:58, 1
Index	Phase	Displacement	Time	Pos X	Pos Y	Pos Z	Rot A	Rot B	Piezo Z	Force A	Force B	Gripper	Voltage A	Voltage B	Temperature	Amplitude force	Amplitude pos	Stiffness	Phase shift	Phase excitation	Force A raw	Displacement raw	HMax	HMax raw	Real Force	Real Stiffness	Contact Depth	Area	Hardness	Reduced Mod.
[#]	[#]	[um]	[s]	[um]	[um]	[um]	[m°]	[m°]	[um]	[uN]	[uN]	[V]	[V]	[V]	[°C]	[uN]	[um]	[N/m]	[°]	[°]	[uN]	[um]	[um]	[um]	[uN]	[N/m]	[um]	[um^2]	[MPa]	[MPa]
1055	1.000000	0.002526	7.37536e+06	-52889.1	1055.82	-29747.9	0.000000	0.000000	6.002807	-0.005226	NaN	0.000000	0.001587	0.001703	28.0818	0.050812	0.000956	53.14	-153.529	-165.893	-0.002914	0.001244	-1.143036	-1.144317	-0.005226	53.14	-1.142962	-1.889962E+15	2.765075E-18	NaN
1055	1.000000	0.044466	7.37536e+06	-52889.1	1055.82	-29747.9	0.000000	0.000000	6.044748	0.007466	NaN	0.000000	0.001642	0.001674	28.0814	0.102008	0.001890	53.9586	42.3093	10.894	0.025092	0.043083	-1.101095	-1.102479	0.007466	53.9586	-1.101199	-5.201869E+14	-1.435346E-17	NaN
1055	1.000000	0.086480	7.37536e+06	-52889.1	1055.82	-29747.9	0.000000	0.000000	6.086762	0.030058	NaN	0.000000	0.001567	0.001706	28.0826	0.037057	0.002048	18.0967	-177.636	-166.387	0.025026	0.085191	-1.059082	-1.060370	0.030058	18.0967	-1.060327	-1.469675E+14	-2.045206E-16	NaN
1055	1.000000	0.128471	7.37536e+06	-52889.1	1055.82	-29747.9	0.000000	0.000000	6.128756	0.086080	NaN	0.000000	0.001590	0.001660	28.0835	0.060198	0.001968	30.5879	-117.491	15.4298	0.011538	0.127095	-1.017091	-1.018467	0.086080	30.5879	-1.019201	-4.113425E+13	-2.092651E-15	NaN
1055	1.000000	0.170507	7.37536e+06	-52889.1	1055.82	-29747.9	0.000000	0.000000	6.170792	0.078342	NaN	0.000000	0.001565	0.001736	28.0829	0.018243	0.002124	8.587432	125.383	-167.854	0.034074	0.169185	-0.975054	-0.976377	0.078342	8.587432	-0.981896	-1.294070E+13	-6.053955E-15	NaN
1055	1.000000	0.212512	7.37536e+06	-52889.1	1055.82	-29747.9	0.000000	0.000000	6.212794	0.010987	NaN	0.000000	0.001589	0.001720	28.0815	0.092193	0.001903	48.4374	31.8279	11.7925	-0.000886	0.211132	-0.933049	-0.934430	0.010987	48.4374	-0.933219	-2.855247E+12	-3.848052E-15	NaN
1055	1.000000	0.254555	7.37536e+06	-52889.1	1055.82	-29747.9	0.000000	0.000000	6.254841	0.110993	NaN	0.000000	0.001585	0.001718	28.0812	0.080390	0.001943	41.3749	-139.635	-168.692	0.074677	0.253195	-0.891007	-0.892367	0.110993	41.3749	-0.893019	-8.179309E+11	-1.357001E-13	NaN
1055	1.000000	0.296571	7.37536e+06	-52889.1	1055.82	-29747.9	0.000000	0.000000	6.296854	0.041109	NaN	0.000000	0.001636	0.001704	28.0812	0.100478	0.001890	53.152	4.087567	14.558	0.002233	0.295236	-0.848990	-0.850326	0.041109	53.152	-0.849570	-2.113097E+11	-1.945425E-13	NaN
1055	1.000000	0.338589	7.37536e+06	-52889.1	1055.82	-29747.9	0.000000	0.000000	6.338870	0.005637	NaN	0.000000	0.001569	0.001719	28.0826	0.099014	0.001814	54.5842	94.4312	-164.604	-0.026684	0.337292	-0.806973	-0.808269	0.005637	54.5842	-0.807050	-5.604624E+10	-1.005851E-13	NaN
1055	1.000000	0.380584	7.37536e+06	-52889.1	1055.82	-29747.9	0.000000	0.000000	6.380866	0.015925	NaN	0.000000	0.001632	0.001713	28.0827	0.028471	0.001906	14.9358	49.3613	13.5165	0.009467	0.379222	-0.764978	-0.766339	0.015925	14.9358	-0.765777	-1.541292E+10	-1.033211E-12	NaN
1055	1.000000	0.422615	7.37536e+06	-52889.1	1055.82	-29747.9	0.000000	0.000000	6.422898	0.037016	NaN	0.000000	0.001608	0.001734	28.0828	0.126344	0.002196	57.538	-4.613063	-165.71	0.023055	0.421299	-0.722946	-0.724262	0.037016	57.538	-0.723429	-4.085317E+9	-9.060782E-12	NaN
1055	1.000000	0.464623	7.37536e+06	-52889.1	1055.82	-29747.9	0.000000	0.000000	6.464907	0.070553	NaN	0.000000	0.001622	0.001677	28.0829	0.074813	0.001936	38.6476	-137.924	16.5367	0.074394	0.463254	-0.680938	-0.682307	0.070553	38.6476	-0.682307	-1.121396E+9	-6.291572E-11	NaN
1055	1.000000	0.506645	7.37536e+06	-52889.1	1055.82	-29747.9	0.000000	0.000000	6.506925	-0.038908	NaN	0.000000	0.001556	0.001720	28.0816	0.033615	0.001904	17.6519	-128.114	-166.316	-0.022099	0.505330	-0.638916	-0.640232	-0.038908	17.6519	-0.637263	-2.708518E+8	1.436499E-10	NaN
1055	1.000000	0.548683	7.37536e+06	-52889.1	1055.82	-29747.9	0.000000	0.000000	6.548964	-0.003045	NaN	0.000000	0.001555	0.001739	28.0818	0.134370	0.001985	67.7008	98.0982	13.4741	-0.001885	0.547319	-0.596879	-0.598243	-0.003045	67.7008	-0.596845	-7.533577E+7	4.041978E-11	NaN
1055	1.000000	0.590666	7.37536e+06	-52889.1	1055.82	-29747.9	0.000000	0.000000	6.590947	0.003020	NaN	0.000000	0.001611	0.001831	28.0816	0.091953	0.002009	45.7739	-66.4908	-165.247	-0.028412	0.589379	-0.554896	-0.556182	0.003020	45.7739	-0.554945	-1.988069E+7	-1.519090E-10	NaN
1055	1.000000	0.632687	7.37536e+06	-52889.1	1055.82	-29747.9	0.000000	0.000000	6.632966	-0.051060	NaN	0.000000	0.001606	0.001807	28.0829	0.066939	0.002026	33.0465	-161.481	12.3127	0.006776	0.631340	-0.512874	-0.514222	-0.051060	33.0465	-0.511715	-4.99238e+06	1.022754E-8	NaN
1055	1.000000	0.674750	7.37537e+06	-52889.1	1055.82	-29747.9	0.000000	0.000000	6.675030	-0.034128	NaN	0.000000	0.001678	0.001788	28.0828	0.052802	0.001989	26.5531	109.051	-165.06	-0.080425	0.673414	-0.470812	-0.472147	-0.034128	26.5531	-0.469848	-1.29799e+06	2.629310E-8	NaN
1055	1.000000	0.716756	7.37537e+06	-52889.1	1055.82	-29747.9	0.000000	0.000000	6.717038	0.010641	NaN	0.000000	0.001602	0.001759	28.083	0.069603	0.001883	36.9658	-126.877	12.7054	-0.024495	0.715411	-0.428805	-0.430151	0.010641	36.9658	-0.429021	-345310	-3.081585E-8	NaN
1055	1.000000	0.758762	7.37537e+06	-52889.1	1055.82	-29747.9	0.000000	0.000000	6.759044	0.025696	NaN	0.000000	0.001644	0.001796	28.0814	0.052792	0.001900	27.7865	156.535	-164.144	0.028677	0.757466	-0.386800	-0.388095	0.025696	27.7865	-0.387493	-88572	-2.901091E-7	NaN
1055	1.000000	0.800777	7.37537e+06	-52889.1	1055.82	-29747.9	0.000000	0.000000	6.801056	-0.049773	NaN	0.000000	0.001635	0.001779	28.0812	0.116567	0.001885	61.826	-137.578	11.9022	-0.036898	0.799412	-0.344785	-0.346149	-0.049773	61.826	-0.344181	-21010.7	2.368945E-6	NaN
1055	1.000000	0.842784	7.37537e+06	-52889.1	1055.82	-29747.9	0.000000	0.000000	6.843067	0.039472	NaN	0.000000	0.001645	0.001735	28.0814	0.112312	0.002034	55.216	178.724	-165.728	-0.006910	0.841484	-0.302777	-0.304077	0.039472	55.216	-0.303313	-5271.19	-7.488300E-6	NaN
1055	1.000000	0.884815	7.37537e+06	-52889.1	1055.82	-29747.9	0.000000	0.000000	6.885098	0.037669	NaN	0.000000	0.001599	0.001729	28.0824	0.131200	0.002005	65.438	-28.1576	9.368654	0.018328	0.883493	-0.260746	-0.262068	0.037669	65.438	-0.261178	-1221.7	-3.083337E-5	NaN
1055	1.000000	0.926835	7.37537e+06	-52889.1	1055.82	-29747.9	0.000000	0.000000	6.927113	-0.063637	NaN	0.000000	0.001583	0.001757	28.0825	0.047299	0.001926	24.5558	-12.3729	-166.32	-0.024538	0.925523	-0.218727	-0.220039	-0.063637	24.5558	-0.216783	-246.697	0.000258	NaN
1055	1.000000	0.968845	7.37537e+06	-52889.1	1055.82	-29747.9	0.000000	0.000000	6.969128	0.050300	NaN	0.000000	0.001609	0.001750	28.0825	0.052213	0.001960	26.6426	-127.296	11.42	0.034288	0.967473	-0.176717	-0.178089	0.050300	26.6426	-0.178133	-56.7077	-0.000887	NaN
1055	1.000000	1.010878	7.37537e+06	-52889.1	1055.82	-29747.9	0.000000	0.000000	7.011161	0.044048	NaN	0.000000	0.001578	0.001749	28.0826	0.099160	0.001972	50.2732	-130.318	-168.062	0.028251	1.009600	-0.134683	-0.135961	0.044048	50.2732	-0.135341	-9.655769	-0.004562	NaN
1055	1.000000	1.052884	7.37537e+06	-52889.1	1055.82	-29747.9	0.000000	0.000000	7.053164	-0.021785	NaN	0.000000	0.001605	0.001732	28.0811	0.048377	0.002091	23.1363	102.605	14.7054	-0.061891	1.051507	-0.092678	-0.094054	-0.021785	23.1363	-0.091972	-1.201724	0.018128	NaN
1055	1.000000	1.094862	7.37537e+06	-52889.1	1055.82	-29747.9	0.000000	0.000000	7.095143	-0.008413	NaN	0.000000	0.001575	0.001708	28.0815	0.061299	0.002129	28.7968	72.6586	-166.555	0.022984	1.093559	-0.050699	-0.052003	-0.008413	28.7968	-0.050480	-0.094351	0.089166	NaN
1055	1.000000	1.136910	7.37537e+06	-52889.1	1055.82	-29747.9	0.000000	0.000000	7.137231	0.975131	NaN	0.000000	0.001645	0.001733	28.0814	0.792173	0.002149	368.651	21.7242	14.3366	0.841959	1.135599	-0.008651	-0.009963	0.975131	368.651	-0.010635	-0.006750	-144.461	NaN
1055	2.000000	1.157490	7.37537e+06	-52889.1	1055.82	-29747.9	0.000000	0.000000	7.158485	17.3589	NaN	0.000000	0.001695	0.001684	28.0827	16.2139	0.001831	8853.13	8.629585	-177.387	17.2734	1.157162	0.011928	0.011600	17.3589	8853.13	0.010458	0.009695	1790.54	82148.8
1055	2.000000	1.167933	7.37537e+06	-52889.1	1055.82	-29747.9	0.000000	0.000000	7.169911	41.2615	NaN	0.000000	0.001651	0.001737	28.0827	27.6233	0.001862	14833.6	4.090356	1.025187	39.5718	1.167723	0.022372	0.022162	41.2615	14833.6	0.020285	0.022993	1794.56	89377.3
1055	2.000000	1.178429	7.37537e+06	-52889.1	1055.82	-29747.9	0.000000	0.000000	7.181721	73.2046	NaN	0.000000	0.001668	0.001735	28.0825	37.2953	0.001782	20928.7	7.031301	175.069	71.3914	1.178098	0.032868	0.032537	73.2046	20928.7	0.030244	0.041251	1774.6	94144.8
1055	2.000000	1.188889	7.37537e+06	-52889.1	1055.82	-29747.9	0.000000	0.000000	7.194211	122.568	NaN	0.000000	0.001653	0.001728	28.0812	46.3092	0.001763	26269.5	5.008493	-3.867473	120.259	1.188443	0.043327	0.042882	122.568	26269.5	0.039828	0.063584	1927.65	95181.1
1055	2.000000	1.199430	7.37537e+06	-52889.1	1055.82	-29747.9	0.000000	0.000000	7.206918	175.225	NaN	0.000000	0.001645	0.001749	28.0812	57.1182	0.001777	32136.1	8.753475	170.194	174.65	1.199073	0.053869	0.053511	175.225	32136.1	0.049779	0.091732	1910.19	96940.9
1055	2.000000	1.209899	7.37537e+06	-52889.1	1055.82	-29747.9	0.000000	0.000000	7.220044	239.819	NaN	0.000000	0.001716	0.001756	28.0819	66.3408	0.001715	38685.8	7.502567	-10.2694	237.332	1.209586	0.064338	0.064025	239.819	38685.8	0.059688	0.124693	1923.27	100093
1055	2.000000	1.220405	7.37537e+06	-52889.1	1055.82	-29747.9	0.000000	0.000000	7.233912	321.576	NaN	0.000000	0.001625	0.001701	28.0827	76.89	0.001867	41189.1	8.009405	168.809	321.611	1.220053	0.074843	0.074491	321.576	41189.1	0.068988	0.159994	2009.92	94081.3
1055	2.000000	1.230831	7.37537e+06	-52889.1	1055.82	-29747.9	0.000000	0.000000	7.248608	425.386	NaN	0.000000	0.001675	0.001754	28.0827	86.2728	0.001850	46646.4	6.118195	-10.358	419.937	1.230395	0.085269	0.084834	425.386	46646.4	0.078430	0.200059	2126.31	95282.3
1055	2.000000	1.241371	7.37537e+06	-52889.1	1055.82	-29747.9	0.000000	0.000000	7.263248	525.076	NaN	0.000000	0.001648	0.001741	28.0828	94.9118	0.001874	50637.2	3.272023	172.289	525.857	1.241054	0.095809	0.095492	525.076	50637.2	0.088032	0.245078	2142.48	93452.4
1055	2.000000	1.248752	7.37537e+06	-52889.1	1055.82	-29747.9	0.000000	0.000000	7.273493	594.694	NaN	0.000000	0.001656	0.001742	28.0831	98.5657	0.001753	56211.8	0.112141	-5.014825	586.39	1.248503	0.103191	0.102941	594.694	56211.8	0.095256	0.281745	2110.75	96754.8