File: remote_trans/data/nanoindenter/0828-1/data/Data_2025-08-06,11h17m57s/2025-07-22_16-23-58_1_1040.txt
2025-07-22, 16:23:58, 1
Index	Phase	Displacement	Time	Pos X	Pos Y	Pos Z	Rot A	Rot B	Piezo Z	Force A	Force B	Gripper	Voltage A	Voltage B	Temperature	Amplitude force	Amplitude pos	Stiffness	Phase shift	Phase excitation	Force A raw	Displacement raw	HMax	HMax raw	Real Force	Real Stiffness	Contact Depth	Area	Hardness	Reduced Mod.
[#]	[#]	[um]	[s]	[um]	[um]	[um]	[m°]	[m°]	[um]	[uN]	[uN]	[V]	[V]	[V]	[°C]	[uN]	[um]	[N/m]	[°]	[°]	[uN]	[um]	[um]	[um]	[uN]	[N/m]	[um]	[um^2]	[MPa]	[MPa]
1040	1.000000	0.002508	7.37522e+06	-52139.1	1055.82	-29750.1	0.000000	0.000000	6.002781	0.067744	NaN	0.000000	0.001660	0.001673	28.0826	0.030505	0.000978	31.1796	144.051	-166.126	0.100341	0.001258	-0.977013	-0.978263	0.067744	31.1796	-0.978642	-1.169814E+13	-5.791040E-15	NaN
1040	1.000000	0.040483	7.37522e+06	-52139.1	1055.82	-29750.1	0.000000	0.000000	6.040753	-0.000201	NaN	0.000000	0.001675	0.001601	28.0825	0.098271	0.001868	52.6002	177.763	14.2339	0.001311	0.039162	-0.939038	-0.940359	-0.000201	52.6002	-0.939036	-3.420787E+12	5.870880E-17	NaN
1040	1.000000	0.078488	7.37522e+06	-52139.1	1055.82	-29750.1	0.000000	0.000000	6.078757	-0.035652	NaN	0.000000	0.001704	0.001572	28.0824	0.079905	0.002032	39.3239	-71.8251	-167.785	-0.108499	0.077161	-0.901033	-0.902360	-0.035652	39.3239	-0.900353	-1.027623E+12	3.469414E-14	NaN
1040	1.000000	0.116504	7.37522e+06	-52139.1	1055.82	-29750.1	0.000000	0.000000	6.116775	0.020851	NaN	0.000000	0.001652	0.001604	28.0837	0.069322	0.001908	36.3337	-60.6302	11.6697	-0.013251	0.115107	-0.863017	-0.864414	0.020851	36.3337	-0.863447	-3.256703E+11	-6.402550E-14	NaN
1040	1.000000	0.154505	7.37522e+06	-52139.1	1055.82	-29750.1	0.000000	0.000000	6.154775	-0.016900	NaN	0.000000	0.001653	0.001573	28.0838	0.120067	0.001985	60.4962	120.469	-168.55	-0.076335	0.153247	-0.825016	-0.826274	-0.016900	60.4962	-0.824806	-9.758463E+10	1.731788E-13	NaN
1040	1.000000	0.192524	7.37522e+06	-52139.1	1055.82	-29750.1	0.000000	0.000000	6.192795	0.029444	NaN	0.000000	0.001654	0.001592	28.0837	0.039794	0.001974	20.1574	54.6156	12.9184	0.003029	0.191193	-0.786997	-0.788328	0.029444	20.1574	-0.788093	-3.098720E+10	-9.501946E-13	NaN
1040	1.000000	0.230576	7.37522e+06	-52139.1	1055.82	-29750.1	0.000000	0.000000	6.230841	-0.112026	NaN	0.000000	0.001690	0.001653	28.0823	0.030041	0.002126	14.1333	-126.373	-167.618	-0.109173	0.229239	-0.748946	-0.750282	-0.112026	14.1333	-0.743001	-7.549605E+9	1.483864E-11	NaN
1040	1.000000	0.268584	7.37522e+06	-52139.1	1055.82	-29750.1	0.000000	0.000000	6.268853	-0.022714	NaN	0.000000	0.001710	0.001651	28.0827	0.057482	0.002088	27.5261	-114.84	13.4225	-0.072567	0.267192	-0.710937	-0.712329	-0.022714	27.5261	-0.710318	-2.706408E+9	8.392607E-12	NaN
1040	1.000000	0.306585	7.37522e+06	-52139.1	1055.82	-29750.1	0.000000	0.000000	6.306856	0.033813	NaN	0.000000	0.001663	0.001598	28.0826	0.146139	0.001922	76.0319	70.1428	-167.06	-0.051783	0.305222	-0.672937	-0.674299	0.033813	76.0319	-0.673270	-8.436099E+8	-4.008160E-11	NaN
1040	1.000000	0.344579	7.37522e+06	-52139.1	1055.82	-29750.1	0.000000	0.000000	6.344849	-0.000848	NaN	0.000000	0.001595	0.001646	28.0825	0.096822	0.002049	47.2559	-96.82	13.0211	-0.007434	0.343228	-0.634942	-0.636293	-0.000848	47.2559	-0.634929	-2.515889E+8	3.369706E-12	NaN
1040	1.000000	0.382601	7.37522e+06	-52139.1	1055.82	-29750.1	0.000000	0.000000	6.382871	0.007093	NaN	0.000000	0.001685	0.001685	28.0835	0.149054	0.001949	76.4813	70.3103	-170.839	0.025662	0.381301	-0.596920	-0.598221	0.007093	76.4813	-0.596990	-7.568282E+7	-9.371548E-11	NaN
1040	1.000000	0.420609	7.37522e+06	-52139.1	1055.82	-29750.1	0.000000	0.000000	6.420877	-0.056483	NaN	0.000000	0.001594	0.001654	28.0835	0.076725	0.001866	41.1209	36.0036	17.8256	-0.028280	0.419250	-0.558912	-0.560272	-0.056483	41.1209	-0.557882	-2.183106E+7	2.587268E-9	NaN
1040	1.000000	0.458677	7.37522e+06	-52139.1	1055.82	-29750.1	0.000000	0.000000	6.458947	0.006330	NaN	0.000000	0.001616	0.001680	28.0839	0.012112	0.002019	5.999451	-34.379	-166.626	-0.012293	0.457340	-0.520844	-0.522181	0.006330	5.999451	-0.521635	-6.86024e+06	-9.227720E-10	NaN
1040	1.000000	0.496658	7.37522e+06	-52139.1	1055.82	-29750.1	0.000000	0.000000	6.496925	-0.067224	NaN	0.000000	0.001603	0.001656	28.0825	0.187109	0.002066	90.5475	-57.9689	14.1411	-0.045662	0.495322	-0.482863	-0.484200	-0.067224	90.5475	-0.482307	-1.94004e+06	3.465091E-8	NaN
1040	1.000000	0.534679	7.37522e+06	-52139.1	1055.82	-29750.1	0.000000	0.000000	6.534945	-0.115771	NaN	0.000000	0.001616	0.001663	28.0822	0.057120	0.002033	28.0897	-80.5596	-168.735	-0.030153	0.533379	-0.444842	-0.446142	-0.115771	28.0897	-0.441751	-522478	2.215798E-7	NaN
1040	1.000000	0.572739	7.37522e+06	-52139.1	1055.82	-29750.1	0.000000	0.000000	6.573009	-0.009524	NaN	0.000000	0.001595	0.001627	28.0823	0.016801	0.001938	8.669043	19.6897	17.0911	-0.034535	0.571320	-0.406782	-0.408202	-0.009524	8.669043	-0.405958	-162514	5.860478E-8	NaN
1040	1.000000	0.610716	7.37522e+06	-52139.1	1055.82	-29750.1	0.000000	0.000000	6.610984	-0.058209	NaN	0.000000	0.001613	0.001611	28.0823	0.045017	0.002019	22.2978	131.936	-166.155	0.000336	0.609435	-0.368805	-0.370086	-0.058209	22.2978	-0.366847	-44739.9	1.301053E-6	NaN
1040	1.000000	0.648730	7.37522e+06	-52139.1	1055.82	-29750.1	0.000000	0.000000	6.648999	-0.040081	NaN	0.000000	0.001651	0.001632	28.0835	0.042840	0.001943	22.0517	-58.8501	15.246	-0.027059	0.647429	-0.330791	-0.332092	-0.040081	22.0517	-0.329428	-12795.8	3.132344E-6	NaN
1040	1.000000	0.686748	7.37522e+06	-52139.1	1055.82	-29750.1	0.000000	0.000000	6.687014	-0.096212	NaN	0.000000	0.001645	0.001688	28.0835	0.024691	0.001967	12.5515	23.6033	-166.911	-0.052905	0.685490	-0.292773	-0.294031	-0.096212	12.5515	-0.287024	-3010.74	3.195614E-5	NaN
1040	1.000000	0.724744	7.37522e+06	-52139.1	1055.82	-29750.1	0.000000	0.000000	6.725016	0.030270	NaN	0.000000	0.001633	0.001620	28.0834	0.110488	0.001972	56.0155	79.4486	10.5334	0.091431	0.723437	-0.254777	-0.256084	0.030270	56.0155	-0.255182	-988.361	-3.062638E-5	NaN
1040	1.000000	0.762757	7.37522e+06	-52139.1	1055.82	-29750.1	0.000000	0.000000	6.763028	0.036375	NaN	0.000000	0.001676	0.001614	28.0831	0.050053	0.001872	26.7391	-50.5474	-163.223	0.006348	0.761465	-0.216764	-0.218056	0.036375	26.7391	-0.217785	-255.989	-0.000142	NaN
1040	1.000000	0.800798	7.37522e+06	-52139.1	1055.82	-29750.1	0.000000	0.000000	6.801068	-0.007084	NaN	0.000000	0.001660	0.001670	28.0822	0.052256	0.002105	24.8282	-113.487	12.5427	-0.007293	0.799435	-0.178723	-0.180086	-0.007084	24.8282	-0.178509	-57.5522	0.000123	NaN
1040	1.000000	0.838821	7.37522e+06	-52139.1	1055.82	-29750.1	0.000000	0.000000	6.839091	0.011585	NaN	0.000000	0.001627	0.001682	28.0824	0.101779	0.002056	49.5124	-11.1226	-165.038	-0.028309	0.837495	-0.140701	-0.142027	0.011585	49.5124	-0.140876	-12.2857	-0.000943	NaN
1040	1.000000	0.876813	7.37522e+06	-52139.1	1055.82	-29750.1	0.000000	0.000000	6.877080	-0.073651	NaN	0.000000	0.001702	0.001646	28.0823	0.110316	0.001987	55.5286	139.794	13.2898	-0.028635	0.875479	-0.102708	-0.104042	-0.073651	55.5286	-0.101714	-1.993367	0.036948	NaN
1040	1.000000	0.914826	7.37522e+06	-52139.1	1055.82	-29750.1	0.000000	0.000000	6.915097	0.022247	NaN	0.000000	0.001678	0.001651	28.0839	0.119692	0.002036	58.7897	104.803	-167.597	0.158296	0.913550	-0.064695	-0.065971	0.022247	58.7897	-0.064979	-0.248875	-0.089392	NaN
1040	1.000000	0.952859	7.37522e+06	-52139.1	1055.82	-29750.1	0.000000	0.000000	6.953127	-0.050949	NaN	0.000000	0.001655	0.001634	28.0837	0.109124	0.002046	53.325	-26.2939	14.6706	-0.087247	0.951545	-0.026662	-0.027976	-0.050949	53.325	-0.025945	-0.017863	2.852224	NaN
1040	2.000000	0.985401	7.37522e+06	-52139.1	1055.82	-29750.1	0.000000	0.000000	6.986114	10.7669	NaN	0.000000	0.001605	0.001649	28.0836	10.1506	0.001865	5442.66	8.764117	-173.15	10.7087	0.985118	0.005880	0.005597	10.7669	5442.66	0.004396	0.003589	2999.83	83002
1040	2.000000	0.994868	7.37522e+06	-52139.1	1055.82	-29750.1	0.000000	0.000000	6.996181	25.3602	NaN	0.000000	0.001610	0.001677	28.0837	19.7588	0.001875	10536.1	9.529493	-0.603656	26.3058	0.994532	0.015347	0.015011	25.3602	10536.1	0.013542	0.013390	1894.01	83189.3
1040	2.000000	1.004265	7.37522e+06	-52139.1	1055.82	-29750.1	0.000000	0.000000	7.006406	45.4868	NaN	0.000000	0.001619	0.001661	28.0824	28.7715	0.001757	16370.9	6.548338	178.362	42.6728	1.003970	0.024744	0.024449	45.4868	16370.9	0.022660	0.026896	1691.21	91201.3
1040	2.000000	1.013807	7.37522e+06	-52139.1	1055.82	-29750.1	0.000000	0.000000	7.017180	75.4498	NaN	0.000000	0.001638	0.001654	28.0824	38.5836	0.001768	21822.2	6.190638	-3.485546	75.0815	1.013363	0.034286	0.033842	75.4498	21822.2	0.031693	0.044325	1702.19	94699.3
1040	2.000000	1.023225	7.37522e+06	-52139.1	1055.82	-29750.1	0.000000	0.000000	7.028285	116.48	NaN	0.000000	0.001623	0.001668	28.0824	46.3584	0.001850	25053.9	5.286754	176.163	115.256	1.022951	0.043703	0.043430	116.48	25053.9	0.040217	0.064589	1803.39	90067.6
1040	2.000000	1.032767	7.37522e+06	-52139.1	1055.82	-29750.1	0.000000	0.000000	7.039231	150.616	NaN	0.000000	0.001629	0.001681	28.0836	55.7739	0.001664	33521.5	-0.549075	-1.588922	149.023	1.032512	0.053246	0.052991	150.616	33521.5	0.049876	0.092030	1636.6	100956
1040	2.000000	1.042263	7.37522e+06	-52139.1	1055.82	-29750.1	0.000000	0.000000	7.051249	211.941	NaN	0.000000	0.001623	0.001710	28.0836	66.0316	0.001770	37299.2	5.607428	171.941	211.504	1.041859	0.062742	0.062338	211.941	37299.2	0.058480	0.120414	1760.1	98205.1
1040	2.000000	1.051684	7.37522e+06	-52139.1	1055.82	-29750.1	0.000000	0.000000	7.063229	274.149	NaN	0.000000	0.001609	0.001656	28.0836	75.5014	0.001883	40090.4	5.330406	-8.045355	269.687	1.051374	0.072163	0.071853	274.149	40090.4	0.067034	0.152232	1800.86	93877.2
1040	2.000000	1.061291	7.37522e+06	-52139.1	1055.82	-29750.1	0.000000	0.000000	7.075197	331.58	NaN	0.000000	0.001620	0.001626	28.0842	85.5719	0.001879	45534.4	5.885973	170.535	334.092	1.060953	0.081769	0.081432	331.58	45534.4	0.076308	0.190691	1738.84	95268.3
1040	2.000000	1.070758	7.37522e+06	-52139.1	1055.82	-29750.1	0.000000	0.000000	7.087974	412.028	NaN	0.000000	0.001650	0.001668	28.0823	91.8557	0.001849	49688.2	6.226424	-10.1694	409.073	1.070351	0.091237	0.090830	412.028	49688.2	0.085018	0.230488	1787.64	94559
1040	2.000000	1.080180	7.37523e+06	-52139.1	1055.82	-29750.1	0.000000	0.000000	7.100186	479.873	NaN	0.000000	0.001652	0.001639	28.0822	100.148	0.001785	56103.4	2.761474	172.729	478.112	1.079852	0.100659	0.100331	479.873	56103.4	0.094244	0.276462	1735.76	97486.5
1040	2.000000	1.082208	7.37523e+06	-52139.1	1055.82	-29750.1	0.000000	0.000000	7.103100	501.429	NaN	0.000000	0.001647	0.001640	28.0823	103.316	0.001823	56687.8	7.270842	168.203	501.536	1.081825	0.102687	0.102304	501.429	56687.8	0.096053	0.285933	1753.66	96856.9