File: remote_trans/data/nanoindenter/0828-1/data/Data_2025-08-06,11h17m57s/2025-07-22_16-23-58_1_10.txt
2025-07-22, 16:23:58, 1
Index	Phase	Displacement	Time	Pos X	Pos Y	Pos Z	Rot A	Rot B	Piezo Z	Force A	Force B	Gripper	Voltage A	Voltage B	Temperature	Amplitude force	Amplitude pos	Stiffness	Phase shift	Phase excitation	Force A raw	Displacement raw	HMax	HMax raw	Real Force	Real Stiffness	Contact Depth	Area	Hardness	Reduced Mod.
[#]	[#]	[um]	[s]	[um]	[um]	[um]	[m°]	[m°]	[um]	[uN]	[uN]	[V]	[V]	[V]	[°C]	[uN]	[um]	[N/m]	[°]	[°]	[uN]	[um]	[um]	[um]	[uN]	[N/m]	[um]	[um^2]	[MPa]	[MPa]
10	1.000000	0.002752	7.36514e+06	-39139.1	955.819	-29795.6	0.000000	0.000000	6.002800	0.026024	NaN	0.000000	0.001635	0.001698	28.1313	0.082013	0.000895	91.6716	114.669	-165.455	-0.060427	0.001568	-1.108480	-1.109664	0.026024	91.6716	-1.108693	-6.557643E+14	-3.968439E-17	NaN
10	1.000000	0.042717	7.36514e+06	-39139.1	955.818	-29795.6	0.000000	0.000000	6.042767	0.070733	NaN	0.000000	0.001559	0.001675	28.1292	0.093500	0.001966	47.5678	32.1364	-165.848	0.161752	0.041429	-1.068515	-1.069804	0.070733	47.5678	-1.069630	-1.959841E+14	-3.609126E-16	NaN
10	1.000000	0.082705	7.36514e+06	-39139.1	955.817	-29795.6	0.000000	0.000000	6.082751	-0.034769	NaN	0.000000	0.001598	0.001658	28.1313	0.112242	0.002108	53.2557	33.7762	-169.831	-0.029465	0.081393	-1.028527	-1.029839	-0.034769	53.2557	-1.028037	-5.408487E+13	6.428590E-16	NaN
10	1.000000	0.122742	7.36514e+06	-39139.1	955.819	-29795.6	0.000000	0.000000	6.122790	0.033112	NaN	0.000000	0.001601	0.001673	28.1306	0.131840	0.002011	65.552	-136.904	-163.517	0.035120	0.121387	-0.988490	-0.989845	0.033112	65.552	-0.988869	-1.606506E+13	-2.061097E-15	NaN
10	1.000000	0.162750	7.36514e+06	-39139.1	955.818	-29795.6	0.000000	0.000000	6.162797	-0.013000	NaN	0.000000	0.001551	0.001673	28.132	0.041889	0.002108	19.875	-17.3256	-165.621	0.024954	0.161482	-0.948482	-0.949750	-0.013000	19.875	-0.947991	-4.517912E+12	2.877347E-15	NaN
10	1.000000	0.202763	7.36514e+06	-39139.1	955.817	-29795.6	0.000000	0.000000	6.202811	0.037311	NaN	0.000000	0.001536	0.001663	28.1291	0.020780	0.002019	10.2945	19.2954	-169.123	0.036268	0.201420	-0.908469	-0.909812	0.037311	10.2945	-0.911188	-1.439476E+12	-2.591969E-14	NaN
10	1.000000	0.242795	7.36514e+06	-39139.1	955.818	-29795.6	0.000000	0.000000	6.242842	-0.007806	NaN	0.000000	0.001605	0.001683	28.1304	0.037877	0.001995	18.9828	89.4733	-163.644	-0.054373	0.241490	-0.868437	-0.869742	-0.007806	18.9828	-0.868128	-3.768085E+11	2.071669E-14	NaN
10	1.000000	0.282797	7.36514e+06	-39139.1	955.818	-29795.6	0.000000	0.000000	6.282845	0.022230	NaN	0.000000	0.001511	0.001666	28.1293	0.057157	0.002101	27.203	-31.8981	-163.831	0.061650	0.281534	-0.828435	-0.829698	0.022230	27.203	-0.829048	-1.113996E+11	-1.995551E-13	NaN
10	1.000000	0.322850	7.36514e+06	-39139.1	955.819	-29795.6	0.000000	0.000000	6.322896	-0.027445	NaN	0.000000	0.001541	0.001647	28.1312	0.032435	0.001877	17.2787	120.295	-163.803	-0.013480	0.321500	-0.788382	-0.789732	-0.027445	17.2787	-0.787191	-3.012492E+10	9.110482E-13	NaN
10	1.000000	0.362841	7.36514e+06	-39139.1	955.818	-29795.6	0.000000	0.000000	6.362887	-0.033582	NaN	0.000000	0.001538	0.001633	28.1302	0.034377	0.001964	17.5042	179.063	-168.081	-0.035469	0.361532	-0.748391	-0.749700	-0.033582	17.5042	-0.746952	-8.545354E+9	3.929891E-12	NaN
10	1.000000	0.402868	7.36514e+06	-39139.1	955.82	-29795.6	0.000000	0.000000	6.402913	-0.046996	NaN	0.000000	0.001558	0.001678	28.131	0.027475	0.001954	14.0636	116.498	-165.863	-0.029673	0.401554	-0.708364	-0.709678	-0.046996	14.0636	-0.705858	-2.352391E+9	1.997817E-11	NaN
10	1.000000	0.442912	7.36514e+06	-39139.1	955.818	-29795.6	0.000000	0.000000	6.442958	-0.025332	NaN	0.000000	0.001565	0.001665	28.1294	0.121322	0.002061	58.8759	161.344	-167.18	0.003523	0.441554	-0.668321	-0.669678	-0.025332	58.8759	-0.667998	-7.144715E+8	3.545498E-11	NaN
10	1.000000	0.482918	7.36514e+06	-39139.1	955.818	-29795.6	0.000000	0.000000	6.482964	-0.016840	NaN	0.000000	0.001545	0.001674	28.1301	0.031205	0.001961	15.9143	-111.339	-162.923	0.005073	0.481536	-0.628314	-0.629696	-0.016840	15.9143	-0.627520	-1.990531E+8	8.459943E-11	NaN
10	1.000000	0.522918	7.36514e+06	-39139.1	955.818	-29795.6	0.000000	0.000000	6.522966	0.010276	NaN	0.000000	0.001536	0.001646	28.1285	0.078141	0.001989	39.2932	152.472	-168.165	0.018615	0.521609	-0.588314	-0.589623	0.010276	39.2932	-0.588510	-5.782578E+7	-1.777109E-10	NaN
10	1.000000	0.562949	7.36514e+06	-39139.1	955.819	-29795.6	0.000000	0.000000	6.562999	0.074677	NaN	0.000000	0.001549	0.001701	28.1292	0.055171	0.002066	26.7018	-89.2219	-163.707	-0.005332	0.561594	-0.548283	-0.549639	0.074677	26.7018	-0.550381	-1.718818E+7	-4.344642E-9	NaN
10	1.000000	0.602941	7.36514e+06	-39139.1	955.818	-29795.6	0.000000	0.000000	6.602991	0.079534	NaN	0.000000	0.001532	0.001630	28.1291	0.017719	0.001896	9.344603	-75.3159	-167.656	0.058172	0.601650	-0.508291	-0.509582	0.079534	9.344603	-0.514675	-5.48917e+06	-1.448930E-8	NaN
10	1.000000	0.642960	7.36514e+06	-39139.1	955.818	-29795.6	0.000000	0.000000	6.643009	0.050268	NaN	0.000000	0.001613	0.001629	28.13	0.062152	0.002046	30.3709	119.899	-165.044	0.019830	0.641676	-0.468272	-0.469556	0.050268	30.3709	-0.469514	-1.28406e+06	-3.914816E-8	NaN
10	1.000000	0.682973	7.36514e+06	-39139.1	955.819	-29795.6	0.000000	0.000000	6.683018	-0.036744	NaN	0.000000	0.001655	0.001641	28.1286	0.124115	0.002121	58.5253	-138.107	-162.936	-0.037448	0.681715	-0.428259	-0.429517	-0.036744	58.5253	-0.427789	-331717	1.107686E-7	NaN
10	1.000000	0.722992	7.36514e+06	-39139.1	955.818	-29795.6	0.000000	0.000000	6.723039	-0.013486	NaN	0.000000	0.001567	0.001700	28.1295	0.059601	0.001986	30.0149	-71.9472	-164.562	0.040617	0.721677	-0.388240	-0.389555	-0.013486	30.0149	-0.387903	-89775.1	1.502210E-7	NaN
10	1.000000	0.763023	7.36514e+06	-39139.1	955.818	-29795.6	0.000000	0.000000	6.763070	0.002433	NaN	0.000000	0.001562	0.001658	28.1272	0.041868	0.002010	20.8251	172.79	-167.042	0.015454	0.761706	-0.348209	-0.349526	0.002433	20.8251	-0.348297	-24114.3	-1.008864E-7	NaN
10	1.000000	0.803045	7.36514e+06	-39139.1	955.818	-29795.6	0.000000	0.000000	6.803092	-0.001004	NaN	0.000000	0.001648	0.001677	28.1282	0.033778	0.002001	16.8786	170.485	-167.067	-0.007382	0.801738	-0.308187	-0.309494	-0.001004	16.8786	-0.308143	-6216.64	1.614902E-7	NaN
10	1.000000	0.843055	7.36514e+06	-39139.1	955.818	-29795.6	0.000000	0.000000	6.843104	0.031578	NaN	0.000000	0.001630	0.001655	28.1272	0.031163	0.002113	14.7509	23.4124	-166.909	0.039339	0.841747	-0.268177	-0.269485	0.031578	14.7509	-0.269782	-1652.85	-1.910499E-5	NaN
10	1.000000	0.883064	7.36514e+06	-39139.1	955.818	-29795.6	0.000000	0.000000	6.883111	0.003846	NaN	0.000000	0.001599	0.001704	28.1288	0.049124	0.001954	25.1434	-127.86	-165.989	-0.029362	0.881768	-0.228168	-0.229464	0.003846	25.1434	-0.228283	-376.165	-1.022440E-5	NaN
10	1.000000	0.923091	7.36514e+06	-39139.1	955.818	-29795.6	0.000000	0.000000	6.923140	0.028188	NaN	0.000000	0.001599	0.001693	28.1282	0.146989	0.002059	71.3874	117.481	-161.689	0.044538	0.921757	-0.188141	-0.189475	0.028188	71.3874	-0.188437	-84.6993	-0.000333	NaN
10	1.000000	0.963089	7.36514e+06	-39139.1	955.818	-29795.6	0.000000	0.000000	6.963137	0.026379	NaN	0.000000	0.001618	0.001668	28.129	0.061967	0.002023	30.6348	69.5011	-167.591	0.087109	0.961718	-0.148143	-0.149514	0.026379	30.6348	-0.148789	-17.214	-0.001532	NaN
10	1.000000	1.003144	7.36514e+06	-39139.1	955.816	-29795.6	0.000000	0.000000	7.003188	-0.060156	NaN	0.000000	0.001633	0.001674	28.1263	0.069953	0.002123	32.9449	-31.2535	-164.563	0.028233	1.001802	-0.108088	-0.109430	-0.060156	32.9449	-0.106719	-2.559440	0.023504	NaN
10	1.000000	1.043100	7.36514e+06	-39139.1	955.818	-29795.6	0.000000	0.000000	7.043147	-0.001937	NaN	0.000000	0.001612	0.001671	28.1272	0.060269	0.002077	29.0189	-169.856	-164.29	0.054726	1.041808	-0.068132	-0.069424	-0.001937	29.0189	-0.068082	-0.302811	0.006396	NaN
10	1.000000	1.083127	7.36514e+06	-39139.1	955.816	-29795.6	0.000000	0.000000	7.083325	3.673807	NaN	0.000000	0.001601	0.001670	28.1258	1.484762	0.002020	734.879	9.202502	-165.784	3.232545	1.081841	-0.028105	-0.029391	3.673807	734.879	-0.031854	-0.025956	-141.537	NaN
10	2.000000	1.101761	7.36515e+06	-39139.1	955.816	-29795.6	0.000000	0.000000	7.102537	17.7484	NaN	0.000000	0.001592	0.001654	28.1268	13.105	0.001778	7371.96	6.416761	-174.505	17.0603	1.101456	-0.009471	-0.009776	17.7484	7371.96	-0.011277	-0.007116	-2494.15	NaN
10	2.000000	1.111741	7.36515e+06	-39139.1	955.819	-29795.6	0.000000	0.000000	7.113573	43.4419	NaN	0.000000	0.001557	0.001642	28.1271	24.2689	0.001862	13034	4.541187	-176.486	43.4656	1.111402	0.000509	0.000170	43.4419	13034	-0.001991	-0.001433	-30319.6	NaN
10	2.000000	1.121709	7.36515e+06	-39139.1	955.818	-29795.6	0.000000	0.000000	7.124898	76.4449	NaN	0.000000	0.001571	0.001661	28.128	34.0969	0.001751	19478.3	4.211891	178.695	74.3558	1.121398	0.010477	0.010166	76.4449	19478.3	0.007534	0.006567	11640.7	219604
10	2.000000	1.131671	7.36515e+06	-39139.1	955.818	-29795.6	0.000000	0.000000	7.136776	123.075	NaN	0.000000	0.001600	0.001675	28.1268	46.0853	0.001874	24593.8	6.477379	174.737	121.334	1.131414	0.020439	0.020182	123.075	24593.8	0.016686	0.017600	6992.93	169373
10	2.000000	1.141697	7.36515e+06	-39139.1	955.817	-29795.6	0.000000	0.000000	7.149037	177.466	NaN	0.000000	0.001625	0.001651	28.1266	54.2551	0.001826	29713.9	3.049016	176.811	177.642	1.141509	0.030465	0.030277	177.466	29713.9	0.025986	0.032833	5405.12	149823
10	2.000000	1.151632	7.36515e+06	-39139.1	955.818	-29795.6	0.000000	0.000000	7.162047	252.322	NaN	0.000000	0.001576	0.001711	28.1257	64.8725	0.001761	36848.5	3.252976	174.882	249.183	1.151361	0.040399	0.040129	252.322	36848.5	0.035264	0.052362	4818.8	147124
10	2.000000	1.161632	7.36515e+06	-39139.1	955.817	-29795.6	0.000000	0.000000	7.175129	327.294	NaN	0.000000	0.001523	0.001703	28.126	74.5589	0.001796	41519.1	1.601477	175.821	325.07	1.161356	0.050400	0.050124	327.294	41519.1	0.044488	0.076140	4298.57	137472
10	2.000000	1.171631	7.36515e+06	-39139.1	955.816	-29795.6	0.000000	0.000000	7.188601	411.82	NaN	0.000000	0.001588	0.001722	28.1253	85.1548	0.001908	44623.3	3.474865	173.323	407.859	1.171342	0.060399	0.060110	411.82	44623.3	0.053478	0.103465	3980.28	126747
10	2.000000	1.181516	7.36515e+06	-39139.1	955.819	-29795.6	0.000000	0.000000	7.202064	498.899	NaN	0.000000	0.001612	0.001670	28.1269	92.9313	0.001782	52153	6.134142	169.619	492.668	1.181292	0.070284	0.070060	498.899	52153	0.063109	0.137192	3636.5	128643
10	2.000000	1.191602	7.36515e+06	-39139.1	955.819	-29795.6	0.000000	0.000000	7.216068	594.237	NaN	0.000000	0.001562	0.001680	28.1257	104.669	0.001904	54979.4	8.311218	167.11	591.576	1.191204	0.080370	0.079972	594.237	54979.4	0.072263	0.173417	3426.63	120622
10	2.000000	1.193038	7.36515e+06	-39139.1	955.818	-29795.6	0.000000	0.000000	7.218100	608.742	NaN	0.000000	0.001597	0.001654	28.0878	103.311	0.001777	58127.4	1.834235	-6.415535	601.288	1.192687	0.081806	0.081455	608.742	58127.4	0.073952	0.180535	3371.88	124990