File: remote_trans/data/nanoindenter/0828-1/data/Data_2025-08-06,11h17m57s/2025-07-22_16-23-58_1_1135.txt
2025-07-22, 16:23:58, 1
Index	Phase	Displacement	Time	Pos X	Pos Y	Pos Z	Rot A	Rot B	Piezo Z	Force A	Force B	Gripper	Voltage A	Voltage B	Temperature	Amplitude force	Amplitude pos	Stiffness	Phase shift	Phase excitation	Force A raw	Displacement raw	HMax	HMax raw	Real Force	Real Stiffness	Contact Depth	Area	Hardness	Reduced Mod.
[#]	[#]	[um]	[s]	[um]	[um]	[um]	[m°]	[m°]	[um]	[uN]	[uN]	[V]	[V]	[V]	[°C]	[uN]	[um]	[N/m]	[°]	[°]	[uN]	[um]	[um]	[um]	[uN]	[N/m]	[um]	[um^2]	[MPa]	[MPa]
1135	1.000000	0.002743	7.37615e+06	-56889.1	1055.82	-29737.3	0.000000	0.000000	6.002812	-0.013638	NaN	0.000000	0.001630	0.001720	28.08	0.079847	0.000933	85.5989	-157.015	-168.083	-0.049894	0.001473	-1.727040	-1.728310	-0.013638	85.5989	-1.726920	-1.158787E+23	1.176924E-25	NaN
1135	1.000000	0.060687	7.37615e+06	-56889.1	1055.82	-29737.3	0.000000	0.000000	6.060755	-0.032064	NaN	0.000000	0.001688	0.001703	28.0802	0.138106	0.002008	68.774	83.8117	14.2439	-0.012480	0.059310	-1.669096	-1.670473	-0.032064	68.774	-1.668746	-1.955146E+22	1.639995E-24	NaN
1135	1.000000	0.118686	7.37615e+06	-56889.1	1055.82	-29737.3	0.000000	0.000000	6.118756	0.012974	NaN	0.000000	0.001635	0.001710	28.0809	0.037733	0.001832	20.5988	29.0953	-166.745	0.082837	0.117367	-1.611096	-1.612416	0.012974	20.5988	-1.611569	-3.396903E+21	-3.819407E-24	NaN
1135	1.000000	0.176730	7.37615e+06	-56889.1	1055.82	-29737.3	0.000000	0.000000	6.176797	-0.048279	NaN	0.000000	0.001612	0.001704	28.0809	0.036848	0.002039	18.0679	-149.771	14.9214	0.001746	0.175345	-1.553053	-1.554438	-0.048279	18.0679	-1.551049	-5.320493E+20	9.074140E-23	NaN
1135	1.000000	0.234740	7.37615e+06	-56889.1	1055.82	-29737.3	0.000000	0.000000	6.234807	-0.056322	NaN	0.000000	0.001610	0.001695	28.0799	0.069554	0.002031	34.2388	59.5378	-163.08	-0.029936	0.233506	-1.495043	-1.496277	-0.056322	34.2388	-1.493809	-9.201370E+19	6.121090E-22	NaN
1135	1.000000	0.292780	7.37616e+06	-56889.1	1055.82	-29737.3	0.000000	0.000000	6.292849	-0.006293	NaN	0.000000	0.001659	0.001725	28.0799	0.078400	0.001952	40.1676	92.8913	14.6074	-0.002431	0.291429	-1.437002	-1.438354	-0.006293	40.1676	-1.436885	-1.604455E+19	3.922035E-22	NaN
1135	1.000000	0.350831	7.37616e+06	-56889.1	1055.82	-29737.2	0.000000	0.000000	6.350902	0.059367	NaN	0.000000	0.001566	0.001712	28.081	0.122978	0.001910	64.3784	120.599	-165.823	0.046966	0.349479	-1.378952	-1.380304	0.059367	64.3784	-1.379644	-2.766214E+18	-2.146143E-20	NaN
1135	1.000000	0.408843	7.37616e+06	-56889.1	1055.82	-29737.2	0.000000	0.000000	6.408916	0.103517	NaN	0.000000	0.001556	0.001736	28.0809	0.078545	0.002004	39.1986	-66.5352	16.2752	0.206507	0.407459	-1.320940	-1.322324	0.103517	39.1986	-1.322921	-4.837469E+17	-2.139904E-19	NaN
1135	1.000000	0.466844	7.37616e+06	-56889.1	1055.82	-29737.2	0.000000	0.000000	6.466915	0.041467	NaN	0.000000	0.001599	0.001727	28.0807	0.031918	0.002069	15.4283	-85.3775	-165.609	-0.005950	0.465554	-1.262939	-1.264229	0.041467	15.4283	-1.264955	-8.126943E+16	-5.102451E-19	NaN
1135	1.000000	0.524866	7.37616e+06	-56889.1	1055.82	-29737.2	0.000000	0.000000	6.524936	0.004938	NaN	0.000000	0.001594	0.001705	28.0797	0.027053	0.002022	13.3787	8.077860	14.4107	-0.004899	0.523519	-1.204916	-1.206264	0.004938	13.3787	-1.205193	-1.289096E+16	-3.830773E-19	NaN
1135	1.000000	0.582893	7.37616e+06	-56889.1	1055.82	-29737.2	0.000000	0.000000	6.582962	-0.009907	NaN	0.000000	0.001608	0.001725	28.0796	0.077119	0.001947	39.606	65.1837	-164.805	0.028225	0.581563	-1.146889	-1.148219	-0.009907	39.606	-1.146702	-2.121297E+15	4.670124E-18	NaN
1135	1.000000	0.640910	7.37616e+06	-56889.1	1055.82	-29737.2	0.000000	0.000000	6.640976	-0.090425	NaN	0.000000	0.001559	0.001712	28.0811	0.052327	0.001878	27.8657	-10.2014	16.403	-0.138240	0.639534	-1.088873	-1.090249	-0.090425	27.8657	-1.086439	-3.296038E+14	2.743448E-16	NaN
1135	1.000000	0.698963	7.37616e+06	-56889.1	1055.82	-29737.2	0.000000	0.000000	6.699030	-0.039974	NaN	0.000000	0.001535	0.001726	28.0809	0.056453	0.001936	29.1569	83.0748	-164.577	-0.121785	0.697591	-1.030820	-1.032192	-0.039974	29.1569	-1.029792	-5.710578E+13	7.000008E-16	NaN
1135	1.000000	0.756987	7.37616e+06	-56889.1	1055.82	-29737.2	0.000000	0.000000	6.757055	-0.030352	NaN	0.000000	0.001579	0.001733	28.0795	0.058595	0.001958	29.9287	-133.261	16.8435	-0.033419	0.755594	-0.972796	-0.974189	-0.030352	29.9287	-0.972035	-9.530019E+12	3.184906E-15	NaN
1135	1.000000	0.814992	7.37616e+06	-56889.1	1055.82	-29737.2	0.000000	0.000000	6.815059	-0.058729	NaN	0.000000	0.001543	0.001700	28.0796	0.046105	0.002066	22.3144	46.5613	-166.795	-0.091271	0.813660	-0.914791	-0.916123	-0.058729	22.3144	-0.912817	-1.514303E+12	3.878308E-14	NaN
1135	1.000000	0.873014	7.37616e+06	-56889.1	1055.82	-29737.2	0.000000	0.000000	6.873083	-0.005277	NaN	0.000000	0.001577	0.001715	28.0798	0.080677	0.002125	37.9736	-78.7267	16.7698	-0.046977	0.871635	-0.856769	-0.858148	-0.005277	37.9736	-0.856665	-2.636156E+11	2.001751E-14	NaN
1135	1.000000	0.931034	7.37616e+06	-56889.1	1055.82	-29737.2	0.000000	0.000000	6.931099	-0.088779	NaN	0.000000	0.001585	0.001729	28.0807	0.044495	0.001855	23.989	-169.928	-165.852	-0.018305	0.929757	-0.798749	-0.800026	-0.088779	23.989	-0.795973	-3.964602E+10	2.239289E-12	NaN
1135	1.000000	0.989081	7.37616e+06	-56889.1	1055.82	-29737.2	0.000000	0.000000	6.989150	0.001705	NaN	0.000000	0.001636	0.001745	28.0808	0.115928	0.001892	61.2864	20.1709	14.3398	0.103586	0.987765	-0.740702	-0.742018	0.001705	61.2864	-0.740723	-7.029076E+9	-2.425260E-13	NaN
1135	1.000000	1.047113	7.37616e+06	-56889.1	1055.82	-29737.2	0.000000	0.000000	7.047184	0.036268	NaN	0.000000	0.001673	0.001723	28.0793	0.012906	0.001916	6.737167	-45.8258	-166.212	0.050186	1.045790	-0.682669	-0.683993	0.036268	6.737167	-0.686707	-1.287974E+9	-2.815895E-11	NaN
1135	1.000000	1.105100	7.37616e+06	-56889.1	1055.82	-29737.2	0.000000	0.000000	7.105169	-0.018593	NaN	0.000000	0.001575	0.001726	28.0795	0.127345	0.001973	64.5396	-8.726853	16.1481	0.113589	1.103773	-0.624683	-0.626010	-0.018593	64.5396	-0.624467	-1.807247E+8	1.028816E-10	NaN
1135	1.000000	1.163132	7.37616e+06	-56889.1	1055.82	-29737.2	0.000000	0.000000	7.163200	-0.023124	NaN	0.000000	0.001600	0.001767	28.081	0.081893	0.002167	37.7986	-105.424	-167.539	0.009024	1.161814	-0.566651	-0.567969	-0.023124	37.7986	-0.566192	-2.844511E+7	8.129207E-10	NaN
1135	1.000000	1.221159	7.37616e+06	-56889.1	1055.82	-29737.2	0.000000	0.000000	7.221228	-0.013751	NaN	0.000000	0.001657	0.001741	28.0811	0.037883	0.002147	17.6474	40.133	14.1356	0.012892	1.219834	-0.508624	-0.509948	-0.013751	17.6474	-0.508039	-4.43714e+06	3.099107E-9	NaN
1135	1.000000	1.279188	7.37616e+06	-56889.1	1055.82	-29737.2	0.000000	0.000000	7.279256	-0.019916	NaN	0.000000	0.001662	0.001703	28.0811	0.066043	0.001933	34.1642	-19.4227	-163.582	-0.062783	1.277886	-0.450595	-0.451897	-0.019916	34.1642	-0.450158	-686379	2.901591E-8	NaN
1135	1.000000	1.337220	7.37616e+06	-56889.1	1055.82	-29737.2	0.000000	0.000000	7.337287	-0.045314	NaN	0.000000	0.001594	0.001686	28.0798	0.094448	0.001937	48.753	69.6216	11.0825	-0.022751	1.335825	-0.392563	-0.393957	-0.045314	48.753	-0.391866	-102294	4.429821E-7	NaN
1135	1.000000	1.395225	7.37616e+06	-56889.1	1055.82	-29737.2	0.000000	0.000000	7.395290	-0.086542	NaN	0.000000	0.001560	0.001709	28.0799	0.036589	0.001805	20.2742	147.153	-167.299	-0.125983	1.393898	-0.334558	-0.335885	-0.086542	20.2742	-0.331357	-13655.6	6.337448E-6	NaN
1135	1.000000	1.453307	7.37616e+06	-56889.1	1055.82	-29737.2	0.000000	0.000000	7.453376	0.007569	NaN	0.000000	0.001569	0.001737	28.0815	0.013568	0.002057	6.597619	-48.9941	10.6394	-0.005468	1.451870	-0.276476	-0.277913	0.007569	6.597619	-0.277336	-2151.53	-3.517743E-6	NaN
1135	1.000000	1.511275	7.37616e+06	-56889.1	1055.82	-29737.2	0.000000	0.000000	7.511344	-0.021209	NaN	0.000000	0.001571	0.001707	28.0812	0.075117	0.002013	37.3091	178.719	-167.859	-0.045733	1.510074	-0.218507	-0.219709	-0.021209	37.3091	-0.218081	-258.804	8.194932E-5	NaN
1135	1.000000	1.569358	7.37616e+06	-56889.1	1055.82	-29737.2	0.000000	0.000000	7.569426	-0.045164	NaN	0.000000	0.001572	0.001687	28.0802	0.043647	0.002093	20.8498	-1.976146	16.7473	-0.078831	1.567977	-0.160424	-0.161806	-0.045164	20.8498	-0.158800	-26.0992	0.001730	NaN
1135	1.000000	1.627362	7.37616e+06	-56889.1	1055.82	-29737.2	0.000000	0.000000	7.627432	0.000284	NaN	0.000000	0.001602	0.001714	28.08	0.056599	0.001991	28.4299	-154.324	-160.67	0.007846	1.626008	-0.102420	-0.103775	0.000284	28.4299	-0.102428	-2.066571	-0.000137	NaN
1135	1.000000	1.685383	7.37616e+06	-56889.1	1055.82	-29737.2	0.000000	0.000000	7.685448	-0.095380	NaN	0.000000	0.001543	0.001699	28.0801	0.043206	0.001954	22.1112	157.728	13.6044	-0.069115	1.684010	-0.044400	-0.045773	-0.095380	22.1112	-0.041165	-0.049068	1.943849	NaN
1135	2.000000	1.735834	7.37616e+06	-56889.1	1055.82	-29737.2	0.000000	0.000000	7.736410	12.3223	NaN	0.000000	0.001576	0.001706	28.0823	11.5865	0.001557	7440.5	2.754716	-173.483	11.0806	1.735536	0.006051	0.005753	12.3223	7440.5	0.004809	0.003960	3112.06	108032
1135	2.000000	1.750295	7.37616e+06	-56889.1	1055.82	-29737.2	0.000000	0.000000	7.752174	43.9803	NaN	0.000000	0.001609	0.001723	28.0822	26.1875	0.001782	14691.9	4.447242	2.471445	42.942	1.750024	0.020513	0.020241	43.9803	14691.9	0.018268	0.019893	2210.87	95170.6
1135	2.000000	1.764741	7.37616e+06	-56889.1	1055.82	-29737.2	0.000000	0.000000	7.768518	90.1257	NaN	0.000000	0.001610	0.001709	28.0804	40.1094	0.001914	20957.3	4.564743	178.565	89.0917	1.764392	0.034958	0.034609	90.1257	20957.3	0.031733	0.044412	2029.33	90857.3
1135	2.000000	1.779228	7.37616e+06	-56889.1	1055.82	-29737.2	0.000000	0.000000	7.785208	143.676	NaN	0.000000	0.001562	0.001715	28.0798	52.1317	0.001726	30212.2	6.764840	-7.593425	142.172	1.778908	0.049445	0.049126	143.676	30212.2	0.045878	0.080100	1793.7	97530.1
1135	2.000000	1.793713	7.37616e+06	-56889.1	1055.82	-29737.2	0.000000	0.000000	7.802829	219.888	NaN	0.000000	0.001513	0.001696	28.0811	65.6697	0.001836	35759.9	4.962983	173.734	218.855	1.793361	0.063931	0.063579	219.888	35759.9	0.059319	0.123377	1782.24	93014.9
1135	2.000000	1.808194	7.37616e+06	-56889.1	1055.82	-29737.2	0.000000	0.000000	7.820818	305.15	NaN	0.000000	0.001582	0.001735	28.0808	80.3272	0.002001	40146.8	7.235733	-9.695518	302.888	1.807786	0.078411	0.078004	305.15	40146.8	0.072710	0.175287	1740.86	87608.9
1135	2.000000	1.822685	7.37616e+06	-56889.1	1055.82	-29737.2	0.000000	0.000000	7.839086	396.952	NaN	0.000000	0.001601	0.001740	28.0809	88.6284	0.001807	49039.8	2.714447	173.106	397.229	1.822407	0.092902	0.092624	396.952	49039.8	0.086831	0.239214	1659.4	91607
1135	2.000000	1.831638	7.37616e+06	-56889.1	1055.82	-29737.2	0.000000	0.000000	7.850830	464.781	NaN	0.000000	0.001542	0.001750	28.0799	97.6633	0.001760	55496.7	1.321580	174.202	463.705	1.831359	0.101856	0.101576	464.781	55496.7	0.095574	0.283415	1639.93	95242.2