File: remote_trans/data/nanoindenter/0828-1/data/Data_2025-08-06,11h17m57s/2025-07-22_16-23-58_1_748.txt
2025-07-22, 16:23:58, 1
Index	Phase	Displacement	Time	Pos X	Pos Y	Pos Z	Rot A	Rot B	Piezo Z	Force A	Force B	Gripper	Voltage A	Voltage B	Temperature	Amplitude force	Amplitude pos	Stiffness	Phase shift	Phase excitation	Force A raw	Displacement raw	HMax	HMax raw	Real Force	Real Stiffness	Contact Depth	Area	Hardness	Reduced Mod.
[#]	[#]	[um]	[s]	[um]	[um]	[um]	[m°]	[m°]	[um]	[uN]	[uN]	[V]	[V]	[V]	[°C]	[uN]	[um]	[N/m]	[°]	[°]	[uN]	[um]	[um]	[um]	[uN]	[N/m]	[um]	[um^2]	[MPa]	[MPa]
748	1.000000	0.002867	7.37237e+06	-39689.1	1005.82	-29792.8	0.000000	0.000000	6.002792	0.018802	NaN	0.000000	0.001583	0.001698	28.0828	0.107289	0.000845	127.04	40.0456	-164.082	-0.053133	0.001670	-1.169174	-1.170371	0.018802	127.04	-1.169285	-4.258952E+15	-4.414611E-18	NaN
748	1.000000	0.046825	7.37237e+06	-39689.1	1005.82	-29792.8	0.000000	0.000000	6.046753	0.088574	NaN	0.000000	0.001610	0.001674	28.0822	0.029569	0.002016	14.6658	-94.2203	-163.073	0.042053	0.045539	-1.125216	-1.126502	0.088574	14.6658	-1.129746	-1.256655E+15	-7.048387E-17	NaN
748	1.000000	0.090845	7.37237e+06	-39689.1	1005.82	-29792.8	0.000000	0.000000	6.090769	0.012203	NaN	0.000000	0.001596	0.001684	28.0823	0.069402	0.002015	34.4355	-93.7392	-166.263	0.080619	0.089560	-1.081197	-1.082482	0.012203	34.4355	-1.081462	-2.825920E+14	-4.318074E-17	NaN
748	1.000000	0.134862	7.37237e+06	-39689.1	1005.82	-29792.8	0.000000	0.000000	6.134788	0.035314	NaN	0.000000	0.001636	0.001694	28.0846	0.022989	0.001965	11.6988	137.511	-166.176	0.000469	0.133542	-1.037179	-1.038499	0.035314	11.6988	-1.039443	-7.699767E+13	-4.586399E-16	NaN
748	1.000000	0.178865	7.37237e+06	-39689.1	1005.82	-29792.8	0.000000	0.000000	6.178789	-0.014849	NaN	0.000000	0.001549	0.001619	28.0837	0.055997	0.001976	28.3326	-108.266	-164.707	0.048589	0.177572	-0.993176	-0.994469	-0.014849	28.3326	-0.992783	-1.813793E+13	8.186598E-16	NaN
748	1.000000	0.222875	7.37237e+06	-39689.1	1005.82	-29792.8	0.000000	0.000000	6.222797	-0.073594	NaN	0.000000	0.001506	0.001640	28.0836	0.063362	0.001919	33.0228	20.5063	-164.626	-0.072154	0.221636	-0.949166	-0.950405	-0.073594	33.0228	-0.947494	-4.448694E+12	1.654294E-14	NaN
748	1.000000	0.266893	7.37237e+06	-39689.1	1005.82	-29792.8	0.000000	0.000000	6.266816	-0.024704	NaN	0.000000	0.001566	0.001710	28.0828	0.100170	0.001952	51.3205	9.373472	-168.145	0.040701	0.265627	-0.905149	-0.906414	-0.024704	51.3205	-0.904787	-1.179642E+12	2.094233E-14	NaN
748	1.000000	0.310926	7.37237e+06	-39689.1	1005.82	-29792.8	0.000000	0.000000	6.310849	-0.041025	NaN	0.000000	0.001559	0.001729	28.083	0.087780	0.002059	42.638	27.6571	-159.97	0.067417	0.309582	-0.861115	-0.862459	-0.041025	42.638	-0.860394	-2.961067E+11	1.385493E-13	NaN
748	1.000000	0.354960	7.37237e+06	-39689.1	1005.82	-29792.8	0.000000	0.000000	6.354884	-0.001289	NaN	0.000000	0.001676	0.001739	28.0826	0.008492	0.001979	4.290553	157.697	-161.338	-0.040655	0.353614	-0.817082	-0.818427	-0.001289	4.290553	-0.816856	-7.613366E+10	1.692739E-14	NaN
748	1.000000	0.398958	7.37237e+06	-39689.1	1005.82	-29792.8	0.000000	0.000000	6.398884	0.036374	NaN	0.000000	0.001624	0.001777	28.0838	0.032543	0.001927	16.8901	-168.064	-165.279	0.008659	0.397637	-0.773084	-0.774404	0.036374	16.8901	-0.774699	-2.037897E+10	-1.784858E-12	NaN
748	1.000000	0.442949	7.37237e+06	-39689.1	1005.82	-29792.8	0.000000	0.000000	6.442871	-0.034909	NaN	0.000000	0.001591	0.001773	28.0842	0.062330	0.002069	30.1313	-171.972	-167.927	-0.029731	0.441699	-0.729093	-0.730342	-0.034909	30.1313	-0.728224	-4.748949E+9	7.350982E-12	NaN
748	1.000000	0.486996	7.37237e+06	-39689.1	1005.82	-29792.8	0.000000	0.000000	6.486922	0.057834	NaN	0.000000	0.001594	0.001748	28.0839	0.065819	0.002032	32.3847	-10.9461	-164.868	-0.065820	0.485737	-0.685046	-0.686305	0.057834	32.3847	-0.686385	-1.274995E+9	-4.535982E-11	NaN
748	1.000000	0.531029	7.37237e+06	-39689.1	1005.82	-29792.8	0.000000	0.000000	6.530953	-0.009328	NaN	0.000000	0.001622	0.001743	28.0838	0.104586	0.001954	53.5144	-28.5802	-167.481	-0.011587	0.529691	-0.641012	-0.642350	-0.009328	53.5144	-0.640881	-3.036526E+8	3.071985E-11	NaN
748	1.000000	0.575037	7.37237e+06	-39689.1	1005.82	-29792.8	0.000000	0.000000	6.574962	0.013524	NaN	0.000000	0.001616	0.001765	28.0833	0.057992	0.002049	28.3088	14.712	-161.946	0.097158	0.573743	-0.597004	-0.598298	0.013524	28.3088	-0.597362	-7.658276E+7	-1.765936E-10	NaN
748	1.000000	0.619069	7.37237e+06	-39689.1	1005.82	-29792.8	0.000000	0.000000	6.618994	0.025184	NaN	0.000000	0.001579	0.001731	28.0834	0.110488	0.001989	55.5359	-34.8026	-167.945	-0.017497	0.617725	-0.552973	-0.554316	0.025184	55.5359	-0.553313	-1.887257E+7	-1.334406E-9	NaN
748	1.000000	0.663077	7.37237e+06	-39689.1	1005.82	-29792.8	0.000000	0.000000	6.663000	-0.028978	NaN	0.000000	0.001642	0.001756	28.083	0.011549	0.001958	5.898015	123.774	-164.829	-0.043276	0.661781	-0.508964	-0.510260	-0.028978	5.898015	-0.505279	-4.06106e+06	7.135645E-9	NaN
748	1.000000	0.707116	7.37237e+06	-39689.1	1005.82	-29792.8	0.000000	0.000000	6.707045	0.099959	NaN	0.000000	0.001612	0.001806	28.0843	0.011626	0.002032	5.721121	-24.4959	-167.657	0.090326	0.705798	-0.464925	-0.466243	0.099959	5.721121	-0.478029	-1.69016e+06	-5.914193E-8	NaN
748	1.000000	0.751092	7.37237e+06	-39689.1	1005.82	-29792.8	0.000000	0.000000	6.751017	0.006163	NaN	0.000000	0.001631	0.001774	28.0841	0.083397	0.001925	43.3295	154.754	-165.304	0.035063	0.749802	-0.420949	-0.422239	0.006163	43.3295	-0.421056	-266309	-2.314252E-8	NaN
748	1.000000	0.795134	7.37237e+06	-39689.1	1005.82	-29792.8	0.000000	0.000000	6.795057	-0.032990	NaN	0.000000	0.001641	0.001773	28.0842	0.083235	0.002128	39.1101	104.481	-168.826	0.009632	0.793849	-0.376907	-0.378192	-0.032990	39.1101	-0.376274	-61149	5.394984E-7	NaN
748	1.000000	0.839182	7.37237e+06	-39689.1	1005.82	-29792.8	0.000000	0.000000	6.839110	0.092965	NaN	0.000000	0.001624	0.001753	28.0829	0.054793	0.002035	26.9195	-143.696	-165.643	0.014655	0.837855	-0.332859	-0.334186	0.092965	26.9195	-0.335449	-15672.8	-5.931595E-6	NaN
748	1.000000	0.883167	7.37237e+06	-39689.1	1005.82	-29792.8	0.000000	0.000000	6.883088	-0.081996	NaN	0.000000	0.001604	0.001734	28.0831	0.039331	0.002073	18.9734	105.879	-166.293	-0.080706	0.881893	-0.288875	-0.290148	-0.081996	18.9734	-0.285633	-2869.37	2.857616E-5	NaN
748	1.000000	0.927200	7.37237e+06	-39689.1	1005.82	-29792.8	0.000000	0.000000	6.927127	0.062738	NaN	0.000000	0.001686	0.001710	28.0831	0.095319	0.001904	50.0625	-103.868	-165.165	0.038122	0.925869	-0.244841	-0.246172	0.062738	50.0625	-0.245781	-707.27	-8.870500E-5	NaN
748	1.000000	0.971179	7.37237e+06	-39689.1	1005.82	-29792.8	0.000000	0.000000	6.971104	0.010788	NaN	0.000000	0.001632	0.001712	28.0841	0.022089	0.002130	10.3692	-78.9186	-163.232	-0.050402	0.969890	-0.200862	-0.202151	0.010788	10.3692	-0.201642	-140.169	-7.696751E-5	NaN
748	1.000000	1.015218	7.37238e+06	-39689.1	1005.82	-29792.8	0.000000	0.000000	7.015143	0.017896	NaN	0.000000	0.001666	0.001714	28.0844	0.088273	0.001997	44.2096	5.179683	-163.68	0.011624	1.013877	-0.156824	-0.158164	0.017896	44.2096	-0.157127	-24.3644	-0.000735	NaN
748	1.000000	1.059251	7.37238e+06	-39689.1	1005.82	-29792.8	0.000000	0.000000	7.059174	-0.016959	NaN	0.000000	0.001625	0.001718	28.0844	0.049764	0.002008	24.7889	95.363	-165.541	-0.049818	1.057909	-0.112790	-0.114132	-0.016959	24.7889	-0.112277	-3.354591	0.005055	NaN
748	1.000000	1.103265	7.37238e+06	-39689.1	1005.82	-29792.8	0.000000	0.000000	7.103192	0.070721	NaN	0.000000	0.001594	0.001741	28.083	0.047495	0.002044	23.2406	3.541200	-163.921	0.152237	1.101903	-0.068776	-0.070138	0.070721	23.2406	-0.071059	-0.364035	-0.194270	NaN
748	1.000000	1.147274	7.37238e+06	-39689.1	1005.82	-29792.8	0.000000	0.000000	7.147199	0.003800	NaN	0.000000	0.001638	0.001738	28.0827	0.088609	0.002048	43.2652	33.2124	-167.872	-0.035696	1.145984	-0.024767	-0.026057	0.003800	43.2652	-0.024833	-0.016702	-0.227541	NaN
748	2.000000	1.181897	7.37238e+06	-39689.1	1005.82	-29792.8	0.000000	0.000000	7.182324	12.2522	NaN	0.000000	0.001593	0.001744	28.0836	11.7675	0.001739	6768.67	9.969284	-175.995	12.3777	1.181538	0.009855	0.009497	12.2522	6768.67	0.008498	0.007559	1620.8	71126.8
748	2.000000	1.192856	7.37238e+06	-39689.1	1005.82	-29792.8	0.000000	0.000000	7.194128	32.7927	NaN	0.000000	0.001682	0.001697	28.0845	22.5503	0.001895	11897.2	2.995209	-173.477	32.0331	1.192596	0.020815	0.020555	32.7927	11897.2	0.018747	0.020612	1590.94	75710.5
748	2.000000	1.203786	7.37238e+06	-39689.1	1005.82	-29792.8	0.000000	0.000000	7.206516	68.2868	NaN	0.000000	0.001560	0.001698	28.0844	32.6567	0.001808	18064.8	3.582341	-177.716	65.3924	1.203431	0.031745	0.031390	68.2868	18064.8	0.028910	0.038514	1773.04	84100.2
748	2.000000	1.214779	7.37238e+06	-39689.1	1005.82	-29792.8	0.000000	0.000000	7.219292	111.656	NaN	0.000000	0.001592	0.001730	28.0842	43.3301	0.001775	24404.5	3.671847	-179.99	109.628	1.214427	0.042738	0.042385	111.656	24404.5	0.039306	0.062248	1793.72	89367.5
748	2.000000	1.225815	7.37238e+06	-39689.1	1005.82	-29792.8	0.000000	0.000000	7.232193	157.027	NaN	0.000000	0.001635	0.001709	28.0828	54.9524	0.001773	30989.5	6.429774	174.22	159.12	1.225610	0.053774	0.053569	157.027	30989.5	0.049974	0.092332	1700.68	93177.7
748	2.000000	1.236692	7.37238e+06	-39689.1	1005.82	-29792.8	0.000000	0.000000	7.245853	224.761	NaN	0.000000	0.001638	0.001700	28.0832	64.6778	0.001738	37216.1	9.408589	169.939	221.282	1.236378	0.064651	0.064337	224.761	37216.1	0.060121	0.126243	1780.38	95697.2
748	2.000000	1.247762	7.37238e+06	-39689.1	1005.82	-29792.8	0.000000	0.000000	7.259921	297.724	NaN	0.000000	0.001656	0.001749	28.0829	75.5713	0.001860	40637.8	5.435004	173.239	296.34	1.247351	0.075721	0.075309	297.724	40637.8	0.070226	0.165010	1804.28	91400.4
748	2.000000	1.258671	7.37238e+06	-39689.1	1005.82	-29792.8	0.000000	0.000000	7.274003	374.926	NaN	0.000000	0.001611	0.001730	28.0838	83.7957	0.001834	45693.3	1.615966	176.69	369.966	1.258413	0.086630	0.086372	374.926	45693.3	0.080476	0.209295	1791.38	91252.8
748	2.000000	1.269705	7.37238e+06	-39689.1	1005.82	-29792.8	0.000000	0.000000	7.288840	467.484	NaN	0.000000	0.001615	0.001752	28.084	92.7607	0.001738	53358.7	3.319817	173.482	465.179	1.269391	0.097664	0.097350	467.484	53358.7	0.091093	0.260322	1795.79	95548.3
748	2.000000	1.277247	7.37238e+06	-39689.1	1005.82	-29792.8	0.000000	0.000000	7.298859	527.753	NaN	0.000000	0.001626	0.001775	28.0838	100.8	0.001692	59581	2.179416	-5.844827	525.786	1.276897	0.105206	0.104856	527.753	59581	0.098562	0.299322	1763.16	99497.4