File: remote_trans/data/nanoindenter/0828-1/data/Data_2025-08-06,11h17m57s/2025-07-22_16-23-58_1_1021.txt
2025-07-22, 16:23:58, 1
Index	Phase	Displacement	Time	Pos X	Pos Y	Pos Z	Rot A	Rot B	Piezo Z	Force A	Force B	Gripper	Voltage A	Voltage B	Temperature	Amplitude force	Amplitude pos	Stiffness	Phase shift	Phase excitation	Force A raw	Displacement raw	HMax	HMax raw	Real Force	Real Stiffness	Contact Depth	Area	Hardness	Reduced Mod.
[#]	[#]	[um]	[s]	[um]	[um]	[um]	[m°]	[m°]	[um]	[uN]	[uN]	[V]	[V]	[V]	[°C]	[uN]	[um]	[N/m]	[°]	[°]	[uN]	[um]	[um]	[um]	[uN]	[N/m]	[um]	[um^2]	[MPa]	[MPa]
1021	1.000000	0.002652	7.37503e+06	-51189.1	1055.82	-29753.1	0.000000	0.000000	6.002824	0.059109	NaN	0.000000	0.001604	0.001705	28.0833	0.098113	0.000941	104.272	-136.73	-168.41	0.011057	0.001402	-1.027084	-1.028335	0.059109	104.272	-1.027510	-5.320862E+13	-1.110893E-15	NaN
1021	1.000000	0.042551	7.37504e+06	-51189.1	1055.82	-29753.1	0.000000	0.000000	6.042724	0.077473	NaN	0.000000	0.001664	0.001733	28.0813	0.028919	0.001898	15.2399	32.8898	-164.07	0.063632	0.041279	-0.987186	-0.988457	0.077473	15.2399	-0.990999	-1.716168E+13	-4.514276E-15	NaN
1021	1.000000	0.082592	7.37504e+06	-51189.1	1055.82	-29753.1	0.000000	0.000000	6.082764	0.057897	NaN	0.000000	0.001603	0.001723	28.0815	0.078732	0.002021	38.9521	100.87	-165.152	0.009319	0.081242	-0.947145	-0.948494	0.057897	38.9521	-0.948260	-4.555689E+12	-1.270866E-14	NaN
1021	1.000000	0.122614	7.37504e+06	-51189.1	1055.82	-29753.1	0.000000	0.000000	6.122784	-0.007858	NaN	0.000000	0.001672	0.001687	28.0811	0.055142	0.002139	25.7763	73.5712	-167.844	0.070816	0.121362	-0.907122	-0.908375	-0.007858	25.7763	-0.906894	-1.259515E+12	6.239295E-15	NaN
1021	1.000000	0.162606	7.37504e+06	-51189.1	1055.82	-29753.1	0.000000	0.000000	6.162776	0.023056	NaN	0.000000	0.001621	0.001706	28.0811	0.063295	0.001942	32.5858	-2.476784	-165.361	-0.011773	0.161389	-0.867131	-0.868348	0.023056	32.5858	-0.867662	-3.713711E+11	-6.208233E-14	NaN
1021	1.000000	0.202632	7.37504e+06	-51189.1	1055.82	-29753.1	0.000000	0.000000	6.202802	0.005131	NaN	0.000000	0.001618	0.001676	28.0823	0.070778	0.001965	36.0135	98.7162	-166.373	-0.006470	0.201315	-0.827105	-0.828421	0.005131	36.0135	-0.827212	-1.051939E+11	-4.878101E-14	NaN
1021	1.000000	0.242685	7.37504e+06	-51189.1	1055.82	-29753.1	0.000000	0.000000	6.242857	0.055454	NaN	0.000000	0.001665	0.001653	28.0824	0.094218	0.002133	44.181	32.6523	-168.171	0.049645	0.241356	-0.787052	-0.788381	0.055454	44.181	-0.787994	-3.089100E+10	-1.795135E-12	NaN
1021	1.000000	0.282664	7.37504e+06	-51189.1	1055.82	-29753.1	0.000000	0.000000	6.282834	-0.015980	NaN	0.000000	0.001621	0.001663	28.0822	0.029848	0.002043	14.6074	-31.0549	-166.921	-0.003823	0.281302	-0.747072	-0.748435	-0.015980	14.6074	-0.746252	-8.359754E+9	1.911489E-12	NaN
1021	1.000000	0.322693	7.37504e+06	-51189.1	1055.82	-29753.1	0.000000	0.000000	6.322863	0.010159	NaN	0.000000	0.001636	0.001689	28.0811	0.010132	0.001967	5.151667	29.8319	-163.129	0.004804	0.321363	-0.707044	-0.708373	0.010159	5.151667	-0.708523	-2.557944E+9	-3.971459E-12	NaN
1021	1.000000	0.362693	7.37504e+06	-51189.1	1055.82	-29753.1	0.000000	0.000000	6.362864	0.047789	NaN	0.000000	0.001647	0.001695	28.0812	0.050726	0.002029	25.0011	10.7462	-163.399	0.078870	0.361417	-0.667044	-0.668320	0.047789	25.0011	-0.668478	-7.253616E+8	-6.588324E-11	NaN
1021	1.000000	0.402723	7.37504e+06	-51189.1	1055.82	-29753.1	0.000000	0.000000	6.402892	-0.023443	NaN	0.000000	0.001626	0.001675	28.0813	0.031647	0.001913	16.5444	-62.0538	-162.025	-0.018370	0.401449	-0.627014	-0.628288	-0.023443	16.5444	-0.625951	-1.894128E+8	1.237669E-10	NaN
1021	1.000000	0.442738	7.37504e+06	-51189.1	1055.82	-29753.1	0.000000	0.000000	6.442909	0.033605	NaN	0.000000	0.001658	0.001726	28.0824	0.014769	0.001907	7.742913	86.5236	-165.783	0.004062	0.441389	-0.586999	-0.588348	0.033605	7.742913	-0.590254	-6.111782E+7	-5.498362E-10	NaN
1021	1.000000	0.482740	7.37504e+06	-51189.1	1055.82	-29753.1	0.000000	0.000000	6.482912	0.073755	NaN	0.000000	0.001731	0.001770	28.0824	0.014286	0.001976	7.228576	-157.572	-167.712	0.128167	0.481425	-0.546997	-0.548312	0.073755	7.228576	-0.554650	-1.969418E+7	-3.745002E-9	NaN
1021	1.000000	0.522770	7.37504e+06	-51189.1	1055.82	-29753.1	0.000000	0.000000	6.522941	0.033928	NaN	0.000000	0.001699	0.001722	28.0823	0.030808	0.001957	15.741	-139.133	-169.143	0.050245	0.521478	-0.506967	-0.508259	0.033928	15.741	-0.508584	-4.5153e+06	-7.513954E-9	NaN
1021	1.000000	0.562803	7.37504e+06	-51189.1	1055.82	-29753.1	0.000000	0.000000	6.562972	0.006341	NaN	0.000000	0.001769	0.001758	28.0822	0.037450	0.001866	20.0728	-71.4319	-166.446	-0.056925	0.561440	-0.466934	-0.468297	0.006341	20.0728	-0.467171	-1.19048e+06	-5.326453E-9	NaN
1021	1.000000	0.602805	7.37504e+06	-51189.1	1055.82	-29753.1	0.000000	0.000000	6.602977	0.055975	NaN	0.000000	0.001716	0.001757	28.0809	0.082579	0.002150	38.4044	158.497	-166.997	0.047105	0.601487	-0.426931	-0.428250	0.055975	38.4044	-0.428025	-334278	-1.674511E-7	NaN
1021	1.000000	0.642818	7.37504e+06	-51189.1	1055.82	-29753.1	0.000000	0.000000	6.642991	0.080197	NaN	0.000000	0.001731	0.001718	28.0811	0.044410	0.001957	22.6911	85.2945	-166.495	0.122291	0.641515	-0.386919	-0.388222	0.080197	22.6911	-0.389569	-94843.3	-8.455737E-7	NaN
1021	1.000000	0.682849	7.37504e+06	-51189.1	1055.82	-29753.1	0.000000	0.000000	6.683022	0.068054	NaN	0.000000	0.001735	0.001726	28.0811	0.124623	0.001994	62.5147	156.124	-165.699	0.065032	0.681520	-0.346888	-0.348216	0.068054	62.5147	-0.347704	-23641	-2.878642E-6	NaN
1021	1.000000	0.722879	7.37504e+06	-51189.1	1055.82	-29753.1	0.000000	0.000000	6.723053	0.098749	NaN	0.000000	0.001695	0.001730	28.0823	0.100741	0.001997	50.4563	-89.2902	-165.976	0.105324	0.721524	-0.306858	-0.308213	0.098749	50.4563	-0.308326	-6255.54	-1.578586E-5	NaN
1021	1.000000	0.762877	7.37504e+06	-51189.1	1055.82	-29753.1	0.000000	0.000000	6.763047	0.006439	NaN	0.000000	0.001657	0.001773	28.0826	0.084444	0.002011	41.9909	-100.523	-165.993	0.059195	0.761578	-0.266860	-0.268159	0.006439	41.9909	-0.266975	-1497.98	-4.298428E-6	NaN
1021	1.000000	0.802888	7.37504e+06	-51189.1	1055.82	-29753.1	0.000000	0.000000	6.803061	0.081430	NaN	0.000000	0.001644	0.001802	28.0823	0.072172	0.001889	38.2157	103.527	-160.46	0.028143	0.801602	-0.226849	-0.228135	0.081430	38.2157	-0.228447	-378.417	-0.000215	NaN
1021	1.000000	0.842918	7.37504e+06	-51189.1	1055.82	-29753.1	0.000000	0.000000	6.843090	0.071885	NaN	0.000000	0.001665	0.001807	28.0824	0.094225	0.001953	48.246	-145.088	-164.332	-0.023634	0.841625	-0.186819	-0.188112	0.071885	48.246	-0.187937	-83.0796	-0.000865	NaN
1021	1.000000	0.882939	7.37504e+06	-51189.1	1055.82	-29753.1	0.000000	0.000000	6.883112	0.063986	NaN	0.000000	0.001634	0.001786	28.081	0.053469	0.002092	25.564	-144.962	-167.33	0.135775	0.881638	-0.146798	-0.148098	0.063986	25.564	-0.148675	-17.1314	-0.003735	NaN
1021	1.000000	0.922962	7.37504e+06	-51189.1	1055.82	-29753.1	0.000000	0.000000	6.923131	-0.015988	NaN	0.000000	0.001632	0.001796	28.0809	0.105010	0.002067	50.8005	10.7831	-167.497	0.074177	0.921646	-0.106774	-0.108091	-0.015988	50.8005	-0.106538	-2.536750	0.006303	NaN
1021	1.000000	0.962964	7.37504e+06	-51189.1	1055.82	-29753.1	0.000000	0.000000	6.963135	0.033577	NaN	0.000000	0.001642	0.001778	28.081	0.030819	0.002016	15.2877	179.731	-163.319	0.065595	0.961665	-0.066773	-0.068072	0.033577	15.2877	-0.068420	-0.309264	-0.108572	NaN
1021	1.000000	1.002937	7.37504e+06	-51189.1	1055.82	-29753.1	0.000000	0.000000	7.003105	-0.031634	NaN	0.000000	0.001643	0.001747	28.0821	0.010775	0.001985	5.428959	78.7213	-163.911	-0.047078	1.001701	-0.026800	-0.028036	-0.031634	5.428959	-0.022430	-0.014482	2.184416	NaN
1021	2.000000	1.036559	7.37504e+06	-51189.1	1055.82	-29753.1	0.000000	0.000000	7.037192	11.2611	NaN	0.000000	0.001634	0.001775	28.0821	10.5824	0.001720	6152.77	5.799474	-172.454	10.8996	1.036179	0.006822	0.006443	11.2611	6152.77	0.005450	0.004547	2476.4	83361.1
1021	2.000000	1.046510	7.37504e+06	-51189.1	1055.82	-29753.1	0.000000	0.000000	7.047838	28.1684	NaN	0.000000	0.001652	0.001710	28.0822	20.9766	0.001819	11534.1	5.769979	-177.245	27.1568	1.046188	0.016773	0.016451	28.1684	11534.1	0.014942	0.015208	1852.26	85453.1
1021	2.000000	1.056485	7.37504e+06	-51189.1	1055.82	-29753.1	0.000000	0.000000	7.058766	51.3311	NaN	0.000000	0.001676	0.001745	28.0813	29.1525	0.001757	16593.9	-0.642326	-173.985	50.6625	1.056135	0.026749	0.026399	51.3311	16593.9	0.024428	0.029984	1711.94	87553.8
1021	2.000000	1.066453	7.37504e+06	-51189.1	1055.82	-29753.1	0.000000	0.000000	7.069938	80.6194	NaN	0.000000	0.001603	0.001732	28.0814	38.2425	0.001805	21190.3	1.325856	-177.001	80.3124	1.066134	0.036717	0.036398	80.6194	21190.3	0.033863	0.049132	1640.88	87343.3
1021	2.000000	1.076401	7.37504e+06	-51189.1	1055.82	-29753.1	0.000000	0.000000	7.081758	126.144	NaN	0.000000	0.001685	0.001724	28.081	47.659	0.001771	26916.2	3.702183	178.557	123.686	1.076130	0.046664	0.046393	126.144	26916.2	0.043149	0.072420	1741.83	91381.1
1021	2.000000	1.086437	7.37504e+06	-51189.1	1055.82	-29753.1	0.000000	0.000000	7.093372	164.509	NaN	0.000000	0.001654	0.001746	28.081	57.78	0.001859	31088.7	3.995824	176.163	162.139	1.086138	0.056700	0.056402	164.509	31088.7	0.052732	0.101043	1628.11	89355.7
1021	2.000000	1.096445	7.37504e+06	-51189.1	1055.82	-29753.1	0.000000	0.000000	7.105524	216.648	NaN	0.000000	0.001713	0.001771	28.0821	66.9243	0.001813	36920.3	6.313019	172.366	215.335	1.096152	0.066708	0.066415	216.648	36920.3	0.062307	0.134212	1614.22	92075.2
1021	2.000000	1.106395	7.37504e+06	-51189.1	1055.82	-29753.1	0.000000	0.000000	7.118303	285.437	NaN	0.000000	0.001610	0.001719	28.0821	75.8129	0.001801	42094.1	1.919882	176.347	283.938	1.106081	0.076659	0.076344	285.437	42094.1	0.071573	0.170545	1673.67	93126.8
1021	2.000000	1.116460	7.37504e+06	-51189.1	1055.82	-29753.1	0.000000	0.000000	7.130954	348.319	NaN	0.000000	0.001646	0.001750	28.0824	83.9833	0.001734	48431.7	4.980958	172.451	353.05	1.116149	0.086723	0.086413	348.319	48431.7	0.081329	0.213202	1633.75	95831.2
1021	2.000000	1.126381	7.37504e+06	-51189.1	1055.82	-29753.1	0.000000	0.000000	7.143485	411.787	NaN	0.000000	0.001660	0.001752	28.081	91.5463	0.001747	52393.9	-1.482274	178.185	410.296	1.126186	0.096644	0.096449	411.787	52393.9	0.090750	0.258591	1592.43	94134.1
1021	2.000000	1.133073	7.37504e+06	-51189.1	1055.82	-29753.1	0.000000	0.000000	7.151954	454.996	NaN	0.000000	0.001632	0.001746	28.0813	99.7574	0.001747	57089.1	3.811009	-7.627851	461.222	1.132807	0.103337	0.103071	454.996	57089.1	0.097359	0.292867	1553.59	96381