File: remote_trans/data/nanoindenter/0828-1/data/Data_2025-08-06,11h17m57s/2025-07-22_16-23-58_1_1023.txt
2025-07-22, 16:23:58, 1
Index	Phase	Displacement	Time	Pos X	Pos Y	Pos Z	Rot A	Rot B	Piezo Z	Force A	Force B	Gripper	Voltage A	Voltage B	Temperature	Amplitude force	Amplitude pos	Stiffness	Phase shift	Phase excitation	Force A raw	Displacement raw	HMax	HMax raw	Real Force	Real Stiffness	Contact Depth	Area	Hardness	Reduced Mod.
[#]	[#]	[um]	[s]	[um]	[um]	[um]	[m°]	[m°]	[um]	[uN]	[uN]	[V]	[V]	[V]	[°C]	[uN]	[um]	[N/m]	[°]	[°]	[uN]	[um]	[um]	[um]	[uN]	[N/m]	[um]	[um^2]	[MPa]	[MPa]
1023	1.000000	0.002897	7.37505e+06	-51289.1	1055.82	-29752.8	0.000000	0.000000	6.002788	-0.008375	NaN	0.000000	0.001586	0.001703	28.0834	0.072914	0.001020	71.5077	114.875	-159.321	-0.052583	0.001587	-1.060107	-1.061417	-0.008375	71.5077	-1.060019	-1.455723E+14	5.752901E-17	NaN
1023	1.000000	0.042854	7.37505e+06	-51289.1	1055.82	-29752.8	0.000000	0.000000	6.042747	0.053176	NaN	0.000000	0.001611	0.001733	28.0831	0.090945	0.002004	45.3818	19.4285	-161.755	-0.018304	0.041576	-1.020151	-1.021428	0.053176	45.3818	-1.021029	-4.353153E+13	-1.221549E-15	NaN
1023	1.000000	0.082863	7.37505e+06	-51289.1	1055.82	-29752.8	0.000000	0.000000	6.082754	0.011478	NaN	0.000000	0.001623	0.001719	28.0832	0.078979	0.001949	40.5289	-49.1491	-165.072	-0.009077	0.081520	-0.980142	-0.981484	0.011478	40.5289	-0.980354	-1.233612E+13	-9.304218E-16	NaN
1023	1.000000	0.122895	7.37505e+06	-51289.1	1055.82	-29752.8	0.000000	0.000000	6.122786	-0.004247	NaN	0.000000	0.001651	0.001750	28.0842	0.032576	0.002192	14.864	16.1575	-165.861	0.041057	0.121576	-0.940109	-0.941428	-0.004247	14.864	-0.939895	-3.513313E+12	1.208966E-15	NaN
1023	1.000000	0.162918	7.37506e+06	-51289.1	1055.82	-29752.8	0.000000	0.000000	6.162808	-0.019461	NaN	0.000000	0.001622	0.001704	28.0844	0.094637	0.001936	48.885	-43.4993	-165.831	0.041667	0.161577	-0.900086	-0.901428	-0.019461	48.885	-0.899788	-1.009708E+12	1.927357E-14	NaN
1023	1.000000	0.202907	7.37506e+06	-51289.1	1055.82	-29752.8	0.000000	0.000000	6.202799	0.006763	NaN	0.000000	0.001612	0.001687	28.0842	0.068210	0.001995	34.1928	-60.5629	-167.448	-0.018405	0.201616	-0.860097	-0.861388	0.006763	34.1928	-0.860245	-2.947418E+11	-2.294518E-14	NaN
1023	1.000000	0.242947	7.37506e+06	-51289.1	1055.82	-29752.8	0.000000	0.000000	6.242835	-0.075431	NaN	0.000000	0.001627	0.001709	28.0832	0.089327	0.001975	45.221	53.7127	-164.104	-0.086071	0.241594	-0.820057	-0.821411	-0.075431	45.221	-0.818806	-8.091422E+10	9.322338E-13	NaN
1023	1.000000	0.282937	7.37506e+06	-51289.1	1055.82	-29752.8	0.000000	0.000000	6.282825	-0.049909	NaN	0.000000	0.001613	0.001713	28.083	0.115899	0.001996	58.0629	83.4528	-164.912	0.017683	0.281602	-0.780068	-0.781402	-0.049909	58.0629	-0.779423	-2.362610E+10	2.112452E-12	NaN
1023	1.000000	0.322969	7.37506e+06	-51289.1	1055.82	-29752.8	0.000000	0.000000	6.322859	-0.023388	NaN	0.000000	0.001678	0.001697	28.083	0.090548	0.001915	47.2768	166.649	-164.363	-0.020908	0.321677	-0.740036	-0.741327	-0.023388	47.2768	-0.739665	-6.799685E+9	3.439546E-12	NaN
1023	1.000000	0.362977	7.37506e+06	-51289.1	1055.82	-29752.8	0.000000	0.000000	6.362869	0.016906	NaN	0.000000	0.001673	0.001682	28.0829	0.019464	0.002010	9.684621	167.797	-169.976	-0.001431	0.361679	-0.700027	-0.701325	0.016906	9.684621	-0.701336	-2.040690E+9	-8.284420E-12	NaN
1023	1.000000	0.403010	7.37506e+06	-51289.1	1055.82	-29752.8	0.000000	0.000000	6.402901	-0.003642	NaN	0.000000	0.001639	0.001700	28.0838	0.067763	0.001989	34.0608	131.988	-165.82	0.032077	0.401696	-0.659995	-0.661308	-0.003642	34.0608	-0.659914	-5.537264E+8	6.577215E-12	NaN
1023	1.000000	0.442994	7.37506e+06	-51289.1	1055.82	-29752.8	0.000000	0.000000	6.442887	0.044132	NaN	0.000000	0.001649	0.001729	28.0844	0.062009	0.001992	31.1258	-63.5542	-162.17	0.030557	0.441651	-0.620010	-0.621353	0.044132	31.1258	-0.621073	-1.623250E+8	-2.718751E-10	NaN
1023	1.000000	0.483045	7.37506e+06	-51289.1	1055.82	-29752.8	0.000000	0.000000	6.482933	-0.085417	NaN	0.000000	0.001656	0.001665	28.0841	0.082504	0.001945	42.4204	117.198	-164.78	-0.007868	0.481757	-0.579959	-0.581247	-0.085417	42.4204	-0.578449	-4.200658E+7	2.033423E-9	NaN
1023	1.000000	0.523057	7.37506e+06	-51289.1	1055.82	-29752.8	0.000000	0.000000	6.522949	0.026062	NaN	0.000000	0.001688	0.001720	28.0828	0.095846	0.002001	47.9063	-123.843	-165.304	0.012554	0.521718	-0.539947	-0.541286	0.026062	47.9063	-0.540355	-1.248206E+7	-2.087934E-9	NaN
1023	1.000000	0.563074	7.37506e+06	-51289.1	1055.82	-29752.8	0.000000	0.000000	6.562965	0.005409	NaN	0.000000	0.001660	0.001690	28.0829	0.024276	0.001992	12.1841	178.963	-162.222	-0.040195	0.561753	-0.499930	-0.501252	0.005409	12.1841	-0.500263	-3.45692e+06	-1.564640E-9	NaN
1023	1.000000	0.603058	7.37506e+06	-51289.1	1055.82	-29752.8	0.000000	0.000000	6.602952	0.068160	NaN	0.000000	0.001632	0.001714	28.083	0.189601	0.001866	101.596	165.333	-168.554	0.095180	0.601779	-0.459946	-0.461225	0.068160	101.596	-0.460449	-957922	-7.115352E-8	NaN
1023	1.000000	0.643101	7.37506e+06	-51289.1	1055.82	-29752.8	0.000000	0.000000	6.642991	-0.018093	NaN	0.000000	0.001634	0.001736	28.0835	0.032633	0.001959	16.6559	-149.037	-166.025	-0.076727	0.641807	-0.419903	-0.421197	-0.018093	16.6559	-0.419088	-249738	7.244666E-8	NaN
1023	1.000000	0.683104	7.37506e+06	-51289.1	1055.82	-29752.8	0.000000	0.000000	6.682994	-0.028297	NaN	0.000000	0.001601	0.001743	28.0842	0.102911	0.001994	51.6231	124.2	-165.858	0.095616	0.681817	-0.379900	-0.381187	-0.028297	51.6231	-0.379489	-68007.7	4.160908E-7	NaN
1023	1.000000	0.723118	7.37506e+06	-51289.1	1055.82	-29752.8	0.000000	0.000000	6.723009	0.000423	NaN	0.000000	0.001647	0.001691	28.0843	0.144576	0.002177	66.3954	-56.2365	-167.412	-0.035850	0.721808	-0.339887	-0.341197	0.000423	66.3954	-0.339892	-18195.9	-2.324910E-8	NaN
1023	1.000000	0.763159	7.37506e+06	-51289.1	1055.82	-29752.8	0.000000	0.000000	6.763050	-0.010703	NaN	0.000000	0.001628	0.001692	28.0844	0.054959	0.002082	26.3931	-16.8995	-167.028	-0.065639	0.761857	-0.299845	-0.301148	-0.010703	26.3931	-0.299541	-4632.36	2.310479E-6	NaN
1023	1.000000	0.803136	7.37506e+06	-51289.1	1055.82	-29752.8	0.000000	0.000000	6.803028	0.025395	NaN	0.000000	0.001606	0.001695	28.083	0.079594	0.001887	42.175	30.2	-167.232	0.046656	0.801821	-0.259868	-0.261183	0.025395	42.175	-0.260320	-1185.27	-2.142564E-5	NaN
1023	1.000000	0.843171	7.37506e+06	-51289.1	1055.82	-29752.8	0.000000	0.000000	6.843060	-0.034827	NaN	0.000000	0.001631	0.001690	28.083	0.032098	0.002130	15.0679	17.285	-165.726	0.046588	0.841893	-0.219834	-0.221112	-0.034827	15.0679	-0.218100	-258.986	0.000134	NaN
1023	1.000000	0.883209	7.37506e+06	-51289.1	1055.82	-29752.8	0.000000	0.000000	6.883098	-0.038303	NaN	0.000000	0.001656	0.001678	28.0834	0.170924	0.001946	87.8169	10.6066	-165.506	-0.080120	0.881946	-0.179796	-0.181059	-0.038303	87.8169	-0.179468	-59.7611	0.000641	NaN
1023	1.000000	0.923164	7.37506e+06	-51289.1	1055.82	-29752.8	0.000000	0.000000	6.923055	0.007645	NaN	0.000000	0.001627	0.001682	28.0845	0.033394	0.002051	16.285	60.0853	-165.788	0.002685	0.921878	-0.139840	-0.141126	0.007645	16.285	-0.140192	-11.9284	-0.000641	NaN
1023	1.000000	0.963257	7.37506e+06	-51289.1	1055.82	-29752.8	0.000000	0.000000	6.963148	0.000825	NaN	0.000000	0.001643	0.001693	28.0843	0.068694	0.002121	32.395	23.9088	-162.111	-0.012704	0.961924	-0.099748	-0.101081	0.000825	32.395	-0.099767	-1.805518	-0.000457	NaN
1023	1.000000	1.003232	7.37506e+06	-51289.1	1055.82	-29752.8	0.000000	0.000000	7.003124	0.029132	NaN	0.000000	0.001651	0.001699	28.0844	0.116002	0.001945	59.6395	-14.0534	-165.554	-0.006729	1.001948	-0.059773	-0.061056	0.029132	59.6395	-0.060139	-0.181755	-0.160282	NaN
1023	1.000000	1.043288	7.37506e+06	-51289.1	1055.82	-29752.8	0.000000	0.000000	7.043175	-0.100569	NaN	0.000000	0.001634	0.001671	28.0843	0.055262	0.002030	27.2284	30.9213	-164.08	-0.139070	1.041967	-0.019716	-0.021038	-0.100569	27.2284	-0.016946	-0.010476	9.599909	NaN
1023	2.000000	1.071848	7.37506e+06	-51289.1	1055.82	-29752.8	0.000000	0.000000	7.072233	12.0232	NaN	0.000000	0.001648	0.001664	28.083	12.6422	0.001789	7066.46	7.877877	-175.137	11.8019	1.071553	0.008844	0.008549	12.0232	7066.46	0.007568	0.006601	1821.32	79461.8
1023	2.000000	1.081776	7.37506e+06	-51289.1	1055.82	-29752.8	0.000000	0.000000	7.082980	31.9282	NaN	0.000000	0.001602	0.001713	28.083	23.5834	0.001732	13616.5	5.842679	-178.628	32.1154	1.081522	0.018772	0.018517	31.9282	13616.5	0.017013	0.018064	1767.45	92560.4
1023	2.000000	1.091727	7.37506e+06	-51289.1	1055.82	-29752.8	0.000000	0.000000	7.094192	62.6109	NaN	0.000000	0.001642	0.001676	28.0831	33.979	0.001742	19506.9	4.210838	179.825	60.6941	1.091470	0.028722	0.028466	62.6109	19506.9	0.026315	0.033451	1871.7	97443.8
1023	2.000000	1.101784	7.37506e+06	-51289.1	1055.82	-29752.8	0.000000	0.000000	7.105607	95.6178	NaN	0.000000	0.001656	0.001709	28.0844	43.2001	0.001859	23243.3	4.453140	178.768	96.4472	1.101450	0.038780	0.038446	95.6178	23243.3	0.035694	0.053375	1791.44	91918.3
1023	2.000000	1.111759	7.37506e+06	-51289.1	1055.82	-29752.8	0.000000	0.000000	7.117764	148.676	NaN	0.000000	0.001686	0.001637	28.0846	52.5865	0.001734	30331.9	2.123619	179.056	149.013	1.111372	0.048754	0.048368	148.676	30331.9	0.045078	0.077809	1910.77	99347.6
1023	2.000000	1.121633	7.37506e+06	-51289.1	1055.82	-29752.8	0.000000	0.000000	7.129595	196.256	NaN	0.000000	0.001703	0.001646	28.0842	61.3434	0.001848	33203.2	3.565385	177.445	193.343	1.121369	0.058629	0.058365	196.256	33203.2	0.054196	0.105822	1854.59	93253.6
1023	2.000000	1.131630	7.37506e+06	-51289.1	1055.82	-29752.8	0.000000	0.000000	7.141717	247.945	NaN	0.000000	0.001639	0.001674	28.0841	70.9362	0.001909	37153.4	6.115191	173.273	243.126	1.131375	0.068625	0.068370	247.945	37153.4	0.063620	0.139108	1782.39	91011.2
1023	2.000000	1.141717	7.37506e+06	-51289.1	1055.82	-29752.8	0.000000	0.000000	7.154422	311.58	NaN	0.000000	0.001659	0.001661	28.0831	80.1896	0.001744	45986.1	1.509691	176.679	311.104	1.141352	0.078713	0.078348	311.58	45986.1	0.073631	0.179173	1738.99	99257.4
1023	2.000000	1.151662	7.37506e+06	-51289.1	1055.82	-29752.8	0.000000	0.000000	7.167135	378.892	NaN	0.000000	0.001650	0.001658	28.0825	90.2582	0.001890	47766.5	3.326421	174.272	376.24	1.151360	0.088658	0.088356	378.892	47766.5	0.082709	0.219593	1725.43	93129.6
1023	2.000000	1.161755	7.37506e+06	-51289.1	1055.82	-29752.8	0.000000	0.000000	7.179965	445.462	NaN	0.000000	0.001620	0.001621	28.083	98.3731	0.001769	55600.7	1.615277	174.805	447.772	1.161609	0.098751	0.098605	445.462	55600.7	0.092742	0.268712	1657.77	97996.3
1023	2.000000	1.166541	7.37506e+06	-51289.1	1055.82	-29752.8	0.000000	0.000000	7.186952	498.992	NaN	0.000000	0.001597	0.001645	28.084	102.752	0.001880	54668.6	3.530927	173.571	491.785	1.166259	0.103536	0.103255	498.992	54668.6	0.096691	0.289311	1724.76	92860.1