File: remote_trans/data/nanoindenter/0828-1/data/Data_2025-08-06,11h17m57s/2025-07-22_16-23-58_1_708.txt
2025-07-22, 16:23:58, 1
Index	Phase	Displacement	Time	Pos X	Pos Y	Pos Z	Rot A	Rot B	Piezo Z	Force A	Force B	Gripper	Voltage A	Voltage B	Temperature	Amplitude force	Amplitude pos	Stiffness	Phase shift	Phase excitation	Force A raw	Displacement raw	HMax	HMax raw	Real Force	Real Stiffness	Contact Depth	Area	Hardness	Reduced Mod.
[#]	[#]	[um]	[s]	[um]	[um]	[um]	[m°]	[m°]	[um]	[uN]	[uN]	[V]	[V]	[V]	[°C]	[uN]	[um]	[N/m]	[°]	[°]	[uN]	[um]	[um]	[um]	[uN]	[N/m]	[um]	[um^2]	[MPa]	[MPa]
708	1.000000	0.002767	7.37198e+06	-41689.1	1005.82	-29785.3	0.000000	0.000000	6.002793	0.026558	NaN	0.000000	0.001608	0.001756	28.0832	0.084208	0.001107	76.0779	98.8718	-169.7	-0.001797	0.001521	-1.188060	-1.189305	0.026558	76.0779	-1.188321	-7.661992E+15	-3.466206E-18	NaN
708	1.000000	0.046726	7.37198e+06	-41689.1	1005.82	-29785.3	0.000000	0.000000	6.046750	-0.012082	NaN	0.000000	0.001613	0.001764	28.0815	0.140425	0.002028	69.2582	-12.9867	-166.532	0.010154	0.045455	-1.144100	-1.145371	-0.012082	69.2582	-1.143969	-1.949676E+15	6.196750E-18	NaN
708	1.000000	0.090744	7.37198e+06	-41689.1	1005.82	-29785.3	0.000000	0.000000	6.090769	0.001291	NaN	0.000000	0.001719	0.001793	28.0814	0.039337	0.002112	18.6246	27.4853	-166.858	-0.101265	0.089431	-1.100082	-1.101396	0.001291	18.6246	-1.100134	-5.033512E+14	-2.564130E-18	NaN
708	1.000000	0.134768	7.37198e+06	-41689.1	1005.82	-29785.3	0.000000	0.000000	6.134793	-0.002963	NaN	0.000000	0.001643	0.001759	28.0815	0.084522	0.002030	41.645	169.593	-166.403	-0.012565	0.133467	-1.056058	-1.057359	-0.002963	41.645	-1.056005	-1.285674E+14	2.304582E-17	NaN
708	1.000000	0.178798	7.37198e+06	-41689.1	1005.82	-29785.3	0.000000	0.000000	6.178824	0.034042	NaN	0.000000	0.001698	0.001765	28.0832	0.052045	0.001887	27.5734	-70.1544	-169.81	-0.035172	0.177514	-1.012029	-1.013312	0.034042	27.5734	-1.012955	-3.389591E+13	-1.004297E-15	NaN
708	1.000000	0.222790	7.37198e+06	-41689.1	1005.82	-29785.3	0.000000	0.000000	6.222813	-0.033229	NaN	0.000000	0.001648	0.001726	28.0831	0.015935	0.002002	7.961132	96.3959	-165.473	-0.046207	0.221475	-0.968036	-0.969352	-0.033229	7.961132	-0.964906	-7.638424E+12	4.350306E-15	NaN
708	1.000000	0.266824	7.37198e+06	-41689.1	1005.82	-29785.3	0.000000	0.000000	6.266848	-0.012325	NaN	0.000000	0.001674	0.001753	28.083	0.087374	0.002012	43.4269	72.3136	-166.808	0.012685	0.265497	-0.924003	-0.925329	-0.012325	43.4269	-0.923790	-2.129953E+12	5.786349E-15	NaN
708	1.000000	0.310833	7.37198e+06	-41689.1	1005.82	-29785.3	0.000000	0.000000	6.310857	-0.021437	NaN	0.000000	0.001693	0.001781	28.0817	0.083249	0.001985	41.9364	-110.586	-166.29	-0.004909	0.309559	-0.879994	-0.881267	-0.021437	41.9364	-0.879610	-5.388122E+11	3.978620E-14	NaN
708	1.000000	0.354838	7.37198e+06	-41689.1	1005.82	-29785.3	0.000000	0.000000	6.354860	-0.061903	NaN	0.000000	0.001708	0.001736	28.0816	0.074298	0.002055	36.1576	149.111	-169.081	-0.083205	0.353554	-0.835988	-0.837272	-0.061903	36.1576	-0.834704	-1.329036E+11	4.657750E-13	NaN
708	1.000000	0.398858	7.37198e+06	-41689.1	1005.82	-29785.3	0.000000	0.000000	6.398883	0.009319	NaN	0.000000	0.001617	0.001740	28.0814	0.119700	0.001855	64.5419	-173.835	-163.221	-0.098297	0.397524	-0.791969	-0.793303	0.009319	64.5419	-0.792077	-3.509870E+10	-2.655064E-13	NaN
708	1.000000	0.442905	7.37198e+06	-41689.1	1005.82	-29785.3	0.000000	0.000000	6.442930	0.005477	NaN	0.000000	0.001626	0.001760	28.0825	0.042980	0.002057	20.8919	-79.7891	-166.276	0.029426	0.441570	-0.747921	-0.749256	0.005477	20.8919	-0.748118	-8.863330E+9	-6.179353E-13	NaN
708	1.000000	0.486918	7.37198e+06	-41689.1	1005.82	-29785.3	0.000000	0.000000	6.486943	0.002561	NaN	0.000000	0.001612	0.001775	28.0827	0.026953	0.002026	13.3026	37.9446	-169.248	0.028615	0.485631	-0.703908	-0.705195	0.002561	13.3026	-0.704053	-2.222647E+9	-1.152386E-12	NaN
708	1.000000	0.530927	7.37198e+06	-41689.1	1005.82	-29785.3	0.000000	0.000000	6.530953	0.021535	NaN	0.000000	0.001617	0.001763	28.083	0.066144	0.001950	33.9147	-104.699	-168.637	0.054433	0.529621	-0.659899	-0.661205	0.021535	33.9147	-0.660375	-5.618322E+8	-3.833012E-11	NaN
708	1.000000	0.574923	7.37198e+06	-41689.1	1005.82	-29785.3	0.000000	0.000000	6.574946	-0.037354	NaN	0.000000	0.001619	0.001752	28.0817	0.021986	0.001975	11.1312	-128.672	-167.232	-0.050653	0.573592	-0.615904	-0.617234	-0.037354	11.1312	-0.613387	-1.272631E+8	2.935218E-10	NaN
708	1.000000	0.618946	7.37198e+06	-41689.1	1005.82	-29785.3	0.000000	0.000000	6.618969	-0.047543	NaN	0.000000	0.001652	0.001694	28.0815	0.084778	0.002070	40.9513	-179.593	-165.441	-0.008350	0.617663	-0.571880	-0.573163	-0.047543	40.9513	-0.571009	-3.315735E+7	1.433869E-9	NaN
708	1.000000	0.662982	7.37198e+06	-41689.1	1005.82	-29785.3	0.000000	0.000000	6.663006	-0.011104	NaN	0.000000	0.001612	0.001786	28.0817	0.109117	0.001927	56.6129	69.7193	-165.293	0.067094	0.661658	-0.527845	-0.529168	-0.011104	56.6129	-0.527698	-8.329e+06	1.333125E-9	NaN
708	1.000000	0.706978	7.37198e+06	-41689.1	1005.82	-29785.3	0.000000	0.000000	6.707000	-0.048454	NaN	0.000000	0.001646	0.001767	28.0829	0.033322	0.001879	17.73	144.713	-170.698	-0.040164	0.705660	-0.483849	-0.485166	-0.048454	17.73	-0.481799	-1.90856e+06	2.538794E-8	NaN
708	1.000000	0.751009	7.37198e+06	-41689.1	1005.82	-29785.3	0.000000	0.000000	6.751034	0.017138	NaN	0.000000	0.001604	0.001762	28.0831	0.093695	0.002085	44.9323	-66.7036	-167.344	0.001392	0.749692	-0.439818	-0.441134	0.017138	44.9323	-0.440104	-495252	-3.460473E-8	NaN
708	1.000000	0.795048	7.37198e+06	-41689.1	1005.82	-29785.3	0.000000	0.000000	6.795071	-0.049674	NaN	0.000000	0.001638	0.001820	28.0829	0.096460	0.002154	44.7913	161.229	-167.369	-0.068411	0.793725	-0.395778	-0.397102	-0.049674	44.7913	-0.394946	-113206	4.387925E-7	NaN
708	1.000000	0.839070	7.37198e+06	-41689.1	1005.82	-29785.3	0.000000	0.000000	6.839095	0.006166	NaN	0.000000	0.001624	0.001758	28.083	0.035229	0.001948	18.0836	123.695	-164.124	-0.018708	0.837758	-0.351756	-0.353069	0.006166	18.0836	-0.352012	-27301.6	-2.258322E-7	NaN
708	1.000000	0.883085	7.37198e+06	-41689.1	1005.82	-29785.3	0.000000	0.000000	6.883109	-0.015376	NaN	0.000000	0.001626	0.001787	28.0818	0.041340	0.001970	20.9874	45.9261	-167.771	0.015047	0.881787	-0.307741	-0.309040	-0.015376	20.9874	-0.307192	-6018.19	2.554858E-6	NaN
708	1.000000	0.927083	7.37198e+06	-41689.1	1005.82	-29785.3	0.000000	0.000000	6.927110	0.039293	NaN	0.000000	0.001616	0.001762	28.0818	0.048265	0.001956	24.6801	-12.109	-170.619	-0.020176	0.925788	-0.263743	-0.265038	0.039293	24.6801	-0.264937	-1394.53	-2.817615E-5	NaN
708	1.000000	0.971127	7.37198e+06	-41689.1	1005.82	-29785.3	0.000000	0.000000	6.971150	-0.030138	NaN	0.000000	0.001670	0.001760	28.0821	0.026552	0.002033	13.0597	-15.7618	-165.996	-0.017940	0.969781	-0.219699	-0.221045	-0.030138	13.0597	-0.217969	-257.734	0.000117	NaN
708	1.000000	1.015122	7.37198e+06	-41689.1	1005.82	-29785.3	0.000000	0.000000	7.015148	0.018567	NaN	0.000000	0.001654	0.001765	28.083	0.039806	0.002031	19.596	82.1867	-167.158	-0.029785	1.013803	-0.175704	-0.177023	0.018567	19.596	-0.176414	-52.9968	-0.000350	NaN
708	1.000000	1.059161	7.37198e+06	-41689.1	1005.82	-29785.3	0.000000	0.000000	7.059186	0.013936	NaN	0.000000	0.001645	0.001781	28.0829	0.056183	0.002015	27.8789	-178.628	-169.308	0.003088	1.057827	-0.131665	-0.133000	0.013936	27.8789	-0.132040	-8.346448	-0.001670	NaN
708	1.000000	1.103156	7.37198e+06	-41689.1	1005.82	-29785.3	0.000000	0.000000	7.103182	0.014097	NaN	0.000000	0.001612	0.001774	28.0828	0.061480	0.001913	32.1372	89.8486	-166.567	0.022084	1.101871	-0.087670	-0.088955	0.014097	32.1372	-0.087999	-0.969570	-0.014539	NaN
708	1.000000	1.147140	7.37198e+06	-41689.1	1005.82	-29785.3	0.000000	0.000000	7.147164	-0.017973	NaN	0.000000	0.001591	0.001791	28.082	0.028254	0.002077	13.6051	-160.635	-166.405	-0.007596	1.145892	-0.043686	-0.044934	-0.017973	13.6051	-0.042695	-0.054640	0.328934	NaN
708	1.000000	1.191091	7.37198e+06	-41689.1	1005.82	-29785.3	0.000000	0.000000	7.191411	7.200291	NaN	0.000000	0.001594	0.001776	28.0821	7.283200	0.001605	4538.81	8.523292	-169.796	5.419049	1.189850	0.000264	-0.000976	7.200291	4538.81	-0.000925	-0.000679	-10597.5	NaN
708	2.000000	1.202743	7.37198e+06	-41689.1	1005.82	-29785.3	0.000000	0.000000	7.204301	37.2896	NaN	0.000000	0.001575	0.001796	28.0817	24.3816	0.001721	14163.8	1.939053	-176.92	35.8804	1.202435	0.011917	0.011608	37.2896	14163.8	0.009943	0.009118	4089.75	135522
708	2.000000	1.213756	7.37198e+06	-41689.1	1005.82	-29785.3	0.000000	0.000000	7.216508	66.3643	NaN	0.000000	0.001599	0.001762	28.0832	34.5215	0.001898	18193.1	5.397777	178.431	65.0343	1.213412	0.022930	0.022586	66.3643	18193.1	0.020194	0.022848	2904.62	109966
708	2.000000	1.224681	7.37198e+06	-41689.1	1005.82	-29785.3	0.000000	0.000000	7.228870	101.318	NaN	0.000000	0.001637	0.001727	28.0832	44.0318	0.001834	24006.1	4.520527	176.744	100.283	1.224485	0.033855	0.033659	101.318	24006.1	0.030689	0.042184	2401.79	106787
708	2.000000	1.235672	7.37198e+06	-41689.1	1005.82	-29785.3	0.000000	0.000000	7.241985	153.003	NaN	0.000000	0.001611	0.001713	28.0829	53.01	0.001632	32490	-0.711315	179.173	150.101	1.235374	0.044846	0.044548	153.003	32490	0.041314	0.067468	2267.79	114281
708	2.000000	1.246641	7.37199e+06	-41689.1	1005.82	-29785.3	0.000000	0.000000	7.255587	217.07	NaN	0.000000	0.001637	0.001750	28.0819	62.6051	0.001675	37373.4	5.536577	172.934	213.915	1.246237	0.055814	0.055411	217.07	37373.4	0.051458	0.096974	2238.43	109650
708	2.000000	1.257689	7.37199e+06	-41689.1	1005.82	-29785.3	0.000000	0.000000	7.269325	282.515	NaN	0.000000	0.001682	0.001727	28.0817	74.8427	0.001796	41669.9	6.505309	170.436	283.109	1.257403	0.066863	0.066577	282.515	41669.9	0.061778	0.132261	2136.04	104684
708	2.000000	1.268588	7.37199e+06	-41689.1	1005.82	-29785.3	0.000000	0.000000	7.283558	363.644	NaN	0.000000	0.001637	0.001754	28.082	84.7371	0.001833	46234.1	1.667178	174.907	359.009	1.268226	0.077762	0.077400	363.644	46234.1	0.071863	0.171748	2117.31	101927
708	2.000000	1.279614	7.37199e+06	-41689.1	1005.82	-29785.3	0.000000	0.000000	7.298005	446.891	NaN	0.000000	0.001625	0.001732	28.0829	94.8373	0.001763	53797.5	3.768148	171.77	445.27	1.279249	0.088787	0.088422	446.891	53797.5	0.082557	0.218887	2041.65	105057
708	2.000000	1.290484	7.37199e+06	-41689.1	1005.82	-29785.3	0.000000	0.000000	7.312762	541.448	NaN	0.000000	0.001648	0.001728	28.0832	105.085	0.001721	61067.3	6.390814	168.041	531.433	1.290250	0.099658	0.099423	541.448	61067.3	0.093008	0.270079	2004.78	107358