File: remote_trans/data/nanoindenter/0828-1/data/Data_2025-08-06,11h17m57s/2025-07-22_16-23-58_1_404.txt
2025-07-22, 16:23:58, 1
Index	Phase	Displacement	Time	Pos X	Pos Y	Pos Z	Rot A	Rot B	Piezo Z	Force A	Force B	Gripper	Voltage A	Voltage B	Temperature	Amplitude force	Amplitude pos	Stiffness	Phase shift	Phase excitation	Force A raw	Displacement raw	HMax	HMax raw	Real Force	Real Stiffness	Contact Depth	Area	Hardness	Reduced Mod.
[#]	[#]	[um]	[s]	[um]	[um]	[um]	[m°]	[m°]	[um]	[uN]	[uN]	[V]	[V]	[V]	[°C]	[uN]	[um]	[N/m]	[°]	[°]	[uN]	[um]	[um]	[um]	[uN]	[N/m]	[um]	[um^2]	[MPa]	[MPa]
404	1.000000	0.002021	7.36901e+06	-56889.1	1005.82	-29738	0.000000	0.000000	6.002816	0.026362	NaN	0.000000	0.001601	0.001680	28.0806	0.202560	0.000920	220.204	-0.069010	-162.496	0.010523	0.000770	-1.160499	-1.161750	0.026362	220.204	-1.160589	-3.256596E+15	-8.095079E-18	NaN
404	1.000000	0.043946	7.36901e+06	-56889.1	1005.82	-29738	0.000000	0.000000	6.044740	-0.017698	NaN	0.000000	0.001666	0.001732	28.0801	0.077418	0.002018	38.3638	-116.886	11.4629	0.007556	0.042649	-1.118574	-1.119871	-0.017698	38.3638	-1.118228	-8.804374E+14	2.010113E-17	NaN
404	1.000000	0.085990	7.36901e+06	-56889.1	1005.82	-29738	0.000000	0.000000	6.086782	-0.047597	NaN	0.000000	0.001681	0.001700	28.0815	0.114298	0.001998	57.1942	-115.586	-166.708	-0.086597	0.084690	-1.076531	-1.077830	-0.047597	57.1942	-1.075907	-2.379781E+14	2.000069E-16	NaN
404	1.000000	0.127976	7.36901e+06	-56889.1	1005.82	-29738	0.000000	0.000000	6.128770	-0.007096	NaN	0.000000	0.001566	0.001733	28.0815	0.044682	0.002018	22.1404	-53.7716	11.294	0.006344	0.126612	-1.034544	-1.035909	-0.007096	22.1404	-1.034304	-6.567025E+13	1.080603E-16	NaN
404	1.000000	0.170013	7.36901e+06	-56889.1	1005.82	-29738	0.000000	0.000000	6.170807	0.000854	NaN	0.000000	0.001606	0.001696	28.0815	0.146638	0.002025	72.4235	-98.5816	-165.192	0.126345	0.168744	-0.992507	-0.993777	0.000854	72.4235	-0.992516	-1.798866E+13	-4.746269E-17	NaN
404	1.000000	0.212023	7.36901e+06	-56889.1	1005.82	-29738	0.000000	0.000000	6.212815	-0.050051	NaN	0.000000	0.001610	0.001705	28.0813	0.051795	0.001874	27.6463	132.663	15.0074	0.060491	0.210720	-0.950498	-0.951801	-0.050051	27.6463	-0.949140	-4.681962E+12	1.069026E-14	NaN
404	1.000000	0.254036	7.36901e+06	-56889.1	1005.82	-29738	0.000000	0.000000	6.254829	-0.035909	NaN	0.000000	0.001568	0.001693	28.0802	0.118299	0.002017	58.6645	152.808	-164.84	-0.005950	0.252712	-0.908484	-0.909808	-0.035909	58.6645	-0.908025	-1.304629E+12	2.752397E-14	NaN
404	1.000000	0.296054	7.36901e+06	-56889.1	1005.82	-29738	0.000000	0.000000	6.296847	-0.050170	NaN	0.000000	0.001607	0.001706	28.0804	0.156922	0.001994	78.7106	153.651	12.8037	-0.086907	0.294685	-0.866466	-0.867835	-0.050170	78.7106	-0.865988	-3.524985E+11	1.423257E-13	NaN
404	1.000000	0.338087	7.36901e+06	-56889.1	1005.82	-29738	0.000000	0.000000	6.338881	-0.008076	NaN	0.000000	0.001617	0.001673	28.0804	0.073093	0.001977	36.9725	-63.6863	-165.909	0.139897	0.336795	-0.824433	-0.825725	-0.008076	36.9725	-0.824269	-9.596256E+10	8.415501E-14	NaN
404	1.000000	0.380088	7.36901e+06	-56889.1	1005.82	-29738	0.000000	0.000000	6.380881	-0.023869	NaN	0.000000	0.001627	0.001682	28.0817	0.055781	0.002007	27.7963	166.862	16.3813	-0.071771	0.378758	-0.782433	-0.783763	-0.023869	27.7963	-0.781789	-2.544110E+10	9.382013E-13	NaN
404	1.000000	0.422122	7.36901e+06	-56889.1	1005.82	-29738	0.000000	0.000000	6.422915	-0.050894	NaN	0.000000	0.001692	0.001745	28.0816	0.051622	0.002031	25.4159	74.8343	-167.005	-0.053248	0.420772	-0.740398	-0.741748	-0.050894	25.4159	-0.738896	-6.637709E+9	7.667437E-12	NaN
404	1.000000	0.464148	7.36901e+06	-56889.1	1005.82	-29738	0.000000	0.000000	6.464938	-0.085683	NaN	0.000000	0.001581	0.001758	28.0817	0.059883	0.002108	28.4141	-30.3161	18.6339	-0.030556	0.462761	-0.698373	-0.699759	-0.085683	28.4141	-0.696111	-1.731471E+9	4.948575E-11	NaN
404	1.000000	0.506137	7.36901e+06	-56889.1	1005.82	-29738	0.000000	0.000000	6.506929	-0.048528	NaN	0.000000	0.001605	0.001745	28.0803	0.063145	0.002038	30.9806	165.342	-165.257	-0.023220	0.504880	-0.656383	-0.657640	-0.048528	30.9806	-0.655208	-4.773353E+8	1.016642E-10	NaN
404	1.000000	0.548153	7.36901e+06	-56889.1	1005.82	-29738	0.000000	0.000000	6.548947	0.005959	NaN	0.000000	0.001635	0.001723	28.0804	0.110497	0.001946	56.7723	-155.39	18.4718	0.050582	0.546834	-0.614368	-0.615687	0.005959	56.7723	-0.614446	-1.316063E+8	-4.527858E-11	NaN
404	1.000000	0.590208	7.36901e+06	-56889.1	1005.82	-29738	0.000000	0.000000	6.591004	0.029038	NaN	0.000000	0.001658	0.001752	28.0805	0.063924	0.001971	32.4339	-164.568	-163.966	-0.074858	0.588834	-0.572312	-0.573686	0.029038	32.4339	-0.572984	-3.530622E+7	-8.224579E-10	NaN
404	1.000000	0.632217	7.36901e+06	-56889.1	1005.82	-29738	0.000000	0.000000	6.633011	-0.026452	NaN	0.000000	0.001618	0.001722	28.0821	0.076009	0.002024	37.5543	-129.016	15.222	0.012693	0.630836	-0.530303	-0.531685	-0.026452	37.5543	-0.529775	-8.9011e+06	2.971770E-9	NaN
404	1.000000	0.674215	7.36901e+06	-56889.1	1005.82	-29738	0.000000	0.000000	6.675009	-0.008408	NaN	0.000000	0.001575	0.001690	28.0819	0.068880	0.001960	35.1436	-54.9154	-164.039	-0.044955	0.672927	-0.488305	-0.489593	-0.008408	35.1436	-0.488126	-2.33991e+06	3.593492E-9	NaN
404	1.000000	0.716222	7.36902e+06	-56889.1	1005.82	-29738	0.000000	0.000000	6.717014	-0.059479	NaN	0.000000	0.001583	0.001702	28.0822	0.047846	0.002030	23.5674	-69.2746	15.3947	-0.079944	0.714876	-0.446298	-0.447644	-0.059479	23.5674	-0.444406	-569525	1.044363E-7	NaN
404	1.000000	0.758274	7.36902e+06	-56889.1	1005.82	-29738	0.000000	0.000000	6.759065	-0.066306	NaN	0.000000	0.001656	0.001742	28.0822	0.098781	0.001942	50.8605	84.1124	-164.59	-0.094090	0.756914	-0.404246	-0.405607	-0.066306	50.8605	-0.403269	-148794	4.456192E-7	NaN
404	1.000000	0.800268	7.36902e+06	-56889.1	1005.82	-29738	0.000000	0.000000	6.801062	-0.012845	NaN	0.000000	0.001709	0.001713	28.0808	0.139662	0.001978	70.6112	175.103	15.7945	-0.004228	0.798918	-0.362252	-0.363602	-0.012845	70.6112	-0.362116	-38231.5	3.359756E-7	NaN
404	1.000000	0.842273	7.36902e+06	-56889.1	1005.82	-29738	0.000000	0.000000	6.843066	-0.027160	NaN	0.000000	0.001648	0.001653	28.0807	0.064362	0.001864	34.528	136.708	-163.317	-0.023741	0.840914	-0.320247	-0.321606	-0.027160	34.528	-0.319657	-9195.81	2.953505E-6	NaN
404	1.000000	0.884303	7.36902e+06	-56889.1	1005.82	-29738	0.000000	0.000000	6.885096	-0.017602	NaN	0.000000	0.001665	0.001679	28.0806	0.065281	0.001962	33.2777	92.1087	15.9195	0.042207	0.882944	-0.278218	-0.279577	-0.017602	33.2777	-0.277821	-2188.12	8.044419E-6	NaN
404	1.000000	0.926334	7.36902e+06	-56889.1	1005.82	-29738	0.000000	0.000000	6.927127	-0.030000	NaN	0.000000	0.001730	0.001681	28.0818	0.021741	0.001969	11.0433	110.255	-166.425	-0.069006	0.924953	-0.236186	-0.237568	-0.030000	11.0433	-0.234149	-465.448	6.445442E-5	NaN
404	1.000000	0.968325	7.36902e+06	-56889.1	1005.82	-29738	0.000000	0.000000	6.969118	-0.019562	NaN	0.000000	0.001645	0.001687	28.082	0.101767	0.001961	51.9002	42.3486	13.8246	-0.031294	0.966958	-0.194196	-0.195562	-0.019562	51.9002	-0.193913	-104.515	0.000187	NaN
404	1.000000	1.010335	7.36902e+06	-56889.1	1005.82	-29738	0.000000	0.000000	7.011131	0.039047	NaN	0.000000	0.001617	0.001603	28.082	0.055049	0.001976	27.861	98.9109	-161.6	0.077478	1.009008	-0.152186	-0.153512	0.039047	27.861	-0.153237	-20.7384	-0.001883	NaN
404	1.000000	1.052335	7.36902e+06	-56889.1	1005.82	-29738	0.000000	0.000000	7.053129	-0.015833	NaN	0.000000	0.001626	0.001584	28.0812	0.069451	0.002109	32.9292	9.130022	14.4636	-0.102775	1.050949	-0.110185	-0.111571	-0.015833	32.9292	-0.109824	-2.979655	0.005314	NaN
404	1.000000	1.094408	7.36902e+06	-56889.1	1005.82	-29738	0.000000	0.000000	7.095201	-0.028555	NaN	0.000000	0.001613	0.001626	28.0806	0.085801	0.002086	41.1245	163.678	-168.07	-0.047663	1.093083	-0.068113	-0.069437	-0.028555	41.1245	-0.067592	-0.293650	0.097242	NaN
404	1.000000	1.136409	7.36902e+06	-56889.1	1005.82	-29738	0.000000	0.000000	7.137203	-0.016128	NaN	0.000000	0.001573	0.001592	28.0807	0.053858	0.002003	26.8883	-18.6708	15.5795	-0.038033	1.135044	-0.026111	-0.027476	-0.016128	26.8883	-0.025661	-0.017558	0.918590	NaN
404	2.000000	1.172078	7.36902e+06	-56889.1	1005.82	-29738	0.000000	0.000000	7.173385	12.4587	NaN	0.000000	0.001602	0.001661	28.0817	10.325	0.001624	6357.83	2.934666	-170.077	12.1235	1.171729	0.009558	0.009209	12.4587	6357.83	0.008088	0.007133	1746.63	68777.5
404	2.000000	1.182473	7.36902e+06	-56889.1	1005.82	-29738	0.000000	0.000000	7.184967	41.3048	NaN	0.000000	0.001674	0.001708	28.0819	21.9118	0.001780	12311.5	7.443023	2.156374	40.8421	1.182096	0.019953	0.019576	41.3048	12311.5	0.017437	0.018674	2211.94	82313.5
404	2.000000	1.192882	7.36902e+06	-56889.1	1005.82	-29738	0.000000	0.000000	7.196709	73.7037	NaN	0.000000	0.001714	0.001686	28.0818	30.5183	0.001796	16995.4	1.662616	-175.485	72.1555	1.192617	0.030362	0.030097	73.7037	16995.4	0.027110	0.034966	2107.9	83039.5
404	2.000000	1.203431	7.36902e+06	-56889.1	1005.82	-29738	0.000000	0.000000	7.208738	109.684	NaN	0.000000	0.001697	0.001698	28.082	39.7389	0.001740	22837.9	3.655991	-0.255144	107.478	1.203156	0.040910	0.040635	109.684	22837.9	0.037308	0.057257	1915.64	87199.6
404	2.000000	1.213909	7.36902e+06	-56889.1	1005.82	-29738	0.000000	0.000000	7.221110	155.708	NaN	0.000000	0.001710	0.001736	28.0808	51.4349	0.001873	27455.7	5.995419	176.23	152.376	1.213529	0.051389	0.051008	155.708	27455.7	0.047135	0.083765	1858.87	86671.2
404	2.000000	1.224484	7.36902e+06	-56889.1	1005.82	-29738	0.000000	0.000000	7.233929	210.256	NaN	0.000000	0.001702	0.001721	28.0804	60.4783	0.001803	33535.2	5.330201	-4.837570	213.019	1.224174	0.061964	0.061654	210.256	33535.2	0.057262	0.116173	1809.85	89892.1
404	2.000000	1.234859	7.36902e+06	-56889.1	1005.82	-29738	0.000000	0.000000	7.246630	266.796	NaN	0.000000	0.001692	0.001676	28.0807	71.2614	0.001801	39567.2	6.536728	171.984	263.934	1.234592	0.072339	0.072072	266.796	39567.2	0.067282	0.153206	1741.42	92357.3
404	2.000000	1.245318	7.36902e+06	-56889.1	1005.82	-29738	0.000000	0.000000	7.259984	337.18	NaN	0.000000	0.001688	0.001667	28.0821	78.9898	0.001766	44721.3	3.168320	-5.187697	331.893	1.244973	0.082797	0.082452	337.18	44721.3	0.077143	0.194351	1734.9	92681.7
404	2.000000	1.255821	7.36902e+06	-56889.1	1005.82	-29738	0.000000	0.000000	7.273492	410.185	NaN	0.000000	0.001686	0.001705	28.082	87.6639	0.001781	49225.5	0.660277	177.04	406.884	1.255541	0.093301	0.093021	410.185	49225.5	0.087051	0.240284	1707.08	91748.8
404	2.000000	1.266315	7.36902e+06	-56889.1	1005.82	-29738	0.000000	0.000000	7.287358	492.159	NaN	0.000000	0.001653	0.001667	28.0822	98.4371	0.001838	53562.2	5.122161	-8.280102	488.051	1.266002	0.103795	0.103481	492.159	53562.2	0.096903	0.290439	1694.54	90804
404	2.000000	1.268371	7.36902e+06	-56889.1	1005.82	-29738	0.000000	0.000000	7.290005	506.524	NaN	0.000000	0.001645	0.001701	28.0821	99.5277	0.001710	58204.7	2.155124	-5.805565	505.724	1.267999	0.105850	0.105479	506.524	58204.7	0.099323	0.303438	1669.28	96537.6