File: remote_trans/data/nanoindenter/0828-1/data/Data_2025-08-06,11h17m57s/2025-07-22_16-23-58_1_216.txt
2025-07-22, 16:23:58, 1
Index	Phase	Displacement	Time	Pos X	Pos Y	Pos Z	Rot A	Rot B	Piezo Z	Force A	Force B	Gripper	Voltage A	Voltage B	Temperature	Amplitude force	Amplitude pos	Stiffness	Phase shift	Phase excitation	Force A raw	Displacement raw	HMax	HMax raw	Real Force	Real Stiffness	Contact Depth	Area	Hardness	Reduced Mod.
[#]	[#]	[um]	[s]	[um]	[um]	[um]	[m°]	[m°]	[um]	[uN]	[uN]	[V]	[V]	[V]	[°C]	[uN]	[um]	[N/m]	[°]	[°]	[uN]	[um]	[um]	[um]	[uN]	[N/m]	[um]	[um^2]	[MPa]	[MPa]
216	1.000000	0.002398	7.36716e+06	-49439.1	955.818	-29759.4	0.000000	0.000000	6.002815	0.053100	NaN	0.000000	0.001688	0.001722	28.0805	0.077366	0.001003	77.1473	162.175	-167.556	0.062876	0.001169	-1.062670	-1.063899	0.053100	77.1473	-1.063186	-1.605588E+14	-3.307204E-16	NaN
216	1.000000	0.042339	7.36716e+06	-49439.1	955.819	-29759.4	0.000000	0.000000	6.042752	-0.036013	NaN	0.000000	0.001664	0.001709	28.0804	0.022701	0.001896	11.9717	99.5214	-163.43	-0.043725	0.041060	-1.022729	-1.024008	-0.036013	11.9717	-1.020473	-4.278751E+13	8.416812E-16	NaN
216	1.000000	0.082341	7.36716e+06	-49439.1	955.818	-29759.4	0.000000	0.000000	6.082756	-0.005176	NaN	0.000000	0.001649	0.001760	28.0804	0.170405	0.001969	86.5439	43.5243	-167.258	-0.088116	0.081098	-0.982726	-0.983970	-0.005176	86.5439	-0.982682	-1.325980E+13	3.903717E-16	NaN
216	1.000000	0.122352	7.36716e+06	-49439.1	955.819	-29759.4	0.000000	0.000000	6.122771	0.081203	NaN	0.000000	0.001657	0.001703	28.0791	0.129358	0.002085	62.0312	23.0587	-164.821	0.037567	0.121061	-0.942716	-0.944007	0.081203	62.0312	-0.943697	-3.953818E+12	-2.053798E-14	NaN
216	1.000000	0.162371	7.36716e+06	-49439.1	955.818	-29759.4	0.000000	0.000000	6.162786	0.004479	NaN	0.000000	0.001647	0.001734	28.0792	0.028029	0.002116	13.245	-3.272494	-167.538	0.094197	0.161060	-0.902697	-0.904008	0.004479	13.245	-0.902951	-1.114135E+12	-4.019722E-15	NaN
216	1.000000	0.202363	7.36716e+06	-49439.1	955.818	-29759.4	0.000000	0.000000	6.202782	0.076372	NaN	0.000000	0.001651	0.001721	28.0793	0.077392	0.002092	36.9982	152.552	-165.791	-0.015502	0.201075	-0.862705	-0.863993	0.076372	36.9982	-0.864253	-3.339469E+11	-2.286965E-13	NaN
216	1.000000	0.242422	7.36716e+06	-49439.1	955.817	-29759.4	0.000000	0.000000	6.242839	0.024324	NaN	0.000000	0.001619	0.001751	28.0792	0.012250	0.001855	6.602624	4.968339	-165.787	0.092509	0.241124	-0.822645	-0.823944	0.024324	6.602624	-0.825408	-9.943594E+10	-2.446216E-13	NaN
216	1.000000	0.282444	7.36716e+06	-49439.1	955.818	-29759.4	0.000000	0.000000	6.282862	0.066316	NaN	0.000000	0.001630	0.001764	28.0804	0.031561	0.002003	15.7571	171.717	-162.717	0.084258	0.281104	-0.782624	-0.783964	0.066316	15.7571	-0.785781	-2.882508E+10	-2.300649E-12	NaN
216	1.000000	0.322444	7.36716e+06	-49439.1	955.818	-29759.4	0.000000	0.000000	6.322864	0.138345	NaN	0.000000	0.001684	0.001718	28.0803	0.041229	0.001950	21.1424	-66.3869	-163.475	0.163392	0.321168	-0.742624	-0.743899	0.138345	21.1424	-0.747532	-8.702046E+9	-1.589800E-11	NaN
216	1.000000	0.362440	7.36716e+06	-49439.1	955.818	-29759.4	0.000000	0.000000	6.362856	0.025707	NaN	0.000000	0.001654	0.001745	28.0805	0.053523	0.002082	25.7058	-169.232	-167.199	0.016267	0.361216	-0.702628	-0.703852	0.025707	25.7058	-0.703378	-2.175979E+9	-1.181399E-11	NaN
216	1.000000	0.402481	7.36716e+06	-49439.1	955.819	-29759.4	0.000000	0.000000	6.402895	-0.032223	NaN	0.000000	0.001612	0.001739	28.0793	0.075681	0.002120	35.7027	113.562	-163.459	-0.110048	0.401181	-0.662587	-0.663887	-0.032223	35.7027	-0.661910	-5.896982E+8	5.464313E-11	NaN
216	1.000000	0.442508	7.36716e+06	-49439.1	955.819	-29759.4	0.000000	0.000000	6.442923	0.001631	NaN	0.000000	0.001635	0.001735	28.0793	0.052865	0.001995	26.4933	-141.183	-163.148	0.037389	0.441232	-0.622560	-0.623836	0.001631	26.4933	-0.622606	-1.703910E+8	-9.569859E-12	NaN
216	1.000000	0.482487	7.36716e+06	-49439.1	955.818	-29759.4	0.000000	0.000000	6.482903	0.031959	NaN	0.000000	0.001684	0.001753	28.0794	0.101828	0.002173	46.8512	-86.9304	-165.68	0.131993	0.481247	-0.582581	-0.583821	0.031959	46.8512	-0.583093	-4.868586E+7	-6.564386E-10	NaN
216	1.000000	0.522541	7.36716e+06	-49439.1	955.818	-29759.4	0.000000	0.000000	6.522959	0.065532	NaN	0.000000	0.001656	0.001677	28.0807	0.119580	0.002100	56.9329	39.5475	-166.797	0.030101	0.521195	-0.542526	-0.543873	0.065532	56.9329	-0.543390	-1.375176E+7	-4.765341E-9	NaN
216	1.000000	0.562561	7.36716e+06	-49439.1	955.819	-29759.4	0.000000	0.000000	6.562978	0.047669	NaN	0.000000	0.001647	0.001739	28.0804	0.044651	0.001986	22.48	-12.2073	-166.101	0.055221	0.561206	-0.502507	-0.503862	0.047669	22.48	-0.504097	-3.90983e+06	-1.219210E-8	NaN
216	1.000000	0.602559	7.36716e+06	-49439.1	955.818	-29759.4	0.000000	0.000000	6.602975	0.039650	NaN	0.000000	0.001660	0.001708	28.0804	0.081583	0.002186	37.3206	-20.2016	-165.126	0.028347	0.601253	-0.462509	-0.463815	0.039650	37.3206	-0.463306	-1.05066e+06	-3.773851E-8	NaN
216	1.000000	0.642572	7.36716e+06	-49439.1	955.818	-29759.4	0.000000	0.000000	6.642988	0.010266	NaN	0.000000	0.001763	0.001690	28.0805	0.096985	0.002035	47.6479	163.006	-173.301	0.118818	0.641315	-0.422495	-0.423753	0.010266	47.6479	-0.422657	-280598	-3.658585E-8	NaN
216	1.000000	0.682588	7.36716e+06	-49439.1	955.818	-29759.4	0.000000	0.000000	6.683003	-0.024136	NaN	0.000000	0.001704	0.001720	28.0796	0.094721	0.002115	44.7824	-126.158	-161.012	-0.027521	0.681275	-0.382479	-0.383793	-0.024136	44.7824	-0.382075	-74073	3.258439E-7	NaN
216	1.000000	0.722617	7.36716e+06	-49439.1	955.818	-29759.4	0.000000	0.000000	6.723034	0.044882	NaN	0.000000	0.001680	0.001674	28.0794	0.029195	0.002038	14.3267	105.299	-166.425	0.065902	0.721270	-0.342451	-0.343798	0.044882	14.3267	-0.344800	-21451.2	-2.092282E-6	NaN
216	1.000000	0.762587	7.36716e+06	-49439.1	955.818	-29759.4	0.000000	0.000000	6.763003	0.029857	NaN	0.000000	0.001673	0.001662	28.0797	0.044556	0.002058	21.6516	-121.505	-165.592	0.062014	0.761326	-0.302481	-0.303742	0.029857	21.6516	-0.303515	-5307.75	-5.625191E-6	NaN
216	1.000000	0.802684	7.36716e+06	-49439.1	955.818	-29759.4	0.000000	0.000000	6.803099	0.001101	NaN	0.000000	0.001696	0.001689	28.0809	0.096124	0.002033	47.2874	-85.3546	-165.675	0.016415	0.801358	-0.262384	-0.263710	0.001101	47.2874	-0.262401	-1275.5	-8.629039E-7	NaN
216	1.000000	0.842668	7.36716e+06	-49439.1	955.818	-29759.4	0.000000	0.000000	6.843086	0.081087	NaN	0.000000	0.001711	0.001639	28.081	0.027894	0.002063	13.5221	83.1992	-166.085	0.059307	0.841374	-0.222400	-0.223694	0.081087	13.5221	-0.226897	-357.633	-0.000227	NaN
216	1.000000	0.882702	7.36716e+06	-49439.1	955.819	-29759.4	0.000000	0.000000	6.883120	0.065845	NaN	0.000000	0.001728	0.001681	28.0807	0.121719	0.002062	59.0303	127.385	-163.501	0.002107	0.881363	-0.182366	-0.183705	0.065845	59.0303	-0.183202	-69.1486	-0.000952	NaN
216	1.000000	0.922669	7.36716e+06	-49439.1	955.819	-29759.4	0.000000	0.000000	6.923085	0.023892	NaN	0.000000	0.001730	0.001700	28.0807	0.069088	0.001979	34.9018	92.0501	-164.625	0.000240	0.921382	-0.142399	-0.143686	0.023892	34.9018	-0.142912	-13.4097	-0.001782	NaN
216	1.000000	0.962730	7.36716e+06	-49439.1	955.819	-29759.4	0.000000	0.000000	6.963147	0.042717	NaN	0.000000	0.001644	0.001718	28.0797	0.037300	0.002034	18.3373	-19.0758	-163.994	0.106572	0.961364	-0.102337	-0.103704	0.042717	18.3373	-0.104085	-2.245711	-0.019022	NaN
216	1.000000	1.002733	7.36716e+06	-49439.1	955.818	-29759.4	0.000000	0.000000	7.003151	0.066363	NaN	0.000000	0.001701	0.001661	28.0796	0.040860	0.001989	20.5455	-11.1729	-167.303	0.107687	1.001463	-0.062335	-0.063605	0.066363	20.5455	-0.064758	-0.245386	-0.270443	NaN
216	1.000000	1.042761	7.36716e+06	-49439.1	955.818	-29759.4	0.000000	0.000000	7.043177	0.038032	NaN	0.000000	0.001678	0.001729	28.0792	0.140993	0.001933	72.9273	-60.7478	-164.241	0.067664	1.041412	-0.022307	-0.023656	0.038032	72.9273	-0.022698	-0.014712	-2.585036	NaN
216	2.000000	1.074343	7.36716e+06	-49439.1	955.819	-29759.4	0.000000	0.000000	7.075248	11.912	NaN	0.000000	0.001688	0.001713	28.0806	12.3951	0.001795	6905.69	9.783458	-173.498	12.0196	1.074038	0.009275	0.008970	11.912	6905.69	0.007981	0.007023	1696.07	75285.1
216	2.000000	1.084247	7.36716e+06	-49439.1	955.819	-29759.4	0.000000	0.000000	7.085929	30.8242	NaN	0.000000	0.001692	0.001714	28.0804	23.2869	0.001771	13147.6	6.403102	-177.969	29.9268	1.083983	0.019179	0.018916	30.8242	13147.6	0.017421	0.018650	1652.76	87958.7
216	2.000000	1.094252	7.36716e+06	-49439.1	955.819	-29759.4	0.000000	0.000000	7.096978	56.2049	NaN	0.000000	0.001688	0.001712	28.0806	33.3366	0.001807	18449.2	4.395207	-179.495	57.2372	1.094012	0.029184	0.028944	56.2049	18449.2	0.026899	0.034561	1626.23	90668.1
216	2.000000	1.104239	7.36716e+06	-49439.1	955.82	-29759.4	0.000000	0.000000	7.108262	87.7393	NaN	0.000000	0.001700	0.001721	28.0795	43.4238	0.001867	23259.6	7.365110	175.9	87.8887	1.103974	0.039171	0.038906	87.7393	23259.6	0.036342	0.054917	1597.67	90682.3
216	2.000000	1.114165	7.36716e+06	-49439.1	955.82	-29759.4	0.000000	0.000000	7.119960	130.84	NaN	0.000000	0.001704	0.001706	28.0793	52.4579	0.001811	28973.7	2.147868	179.636	127.094	1.113788	0.049097	0.048721	130.84	28973.7	0.045710	0.079616	1643.38	93816.1
216	2.000000	1.124148	7.36716e+06	-49439.1	955.819	-29759.4	0.000000	0.000000	7.131849	177.207	NaN	0.000000	0.001744	0.001683	28.0795	62.4581	0.001767	35338.6	4.563060	175.307	174.594	1.123860	0.059080	0.058792	177.207	35338.6	0.055319	0.109560	1617.45	97543.2
216	2.000000	1.134229	7.36716e+06	-49439.1	955.819	-29759.4	0.000000	0.000000	7.144173	231.742	NaN	0.000000	0.001692	0.001676	28.0794	72.3003	0.001761	41054.2	3.335873	174.661	232.132	1.133908	0.069161	0.068840	231.742	41054.2	0.064927	0.144067	1608.57	98820.7
216	2.000000	1.144135	7.36716e+06	-49439.1	955.819	-29759.4	0.000000	0.000000	7.156546	291.729	NaN	0.000000	0.001688	0.001707	28.0806	80.9223	0.001676	48283.8	3.498868	173.898	290.558	1.143954	0.079067	0.078886	291.729	48283.8	0.074536	0.183027	1593.91	103114
216	2.000000	1.154192	7.36716e+06	-49439.1	955.819	-29759.4	0.000000	0.000000	7.169097	352.389	NaN	0.000000	0.001678	0.001699	28.0806	91.4378	0.001935	47248.1	4.772442	173.91	353.308	1.153775	0.089124	0.088707	352.389	47248.1	0.083531	0.223442	1577.1	91322
216	2.000000	1.164192	7.36717e+06	-49439.1	955.819	-29759.4	0.000000	0.000000	7.181908	420.761	NaN	0.000000	0.001659	0.001731	28.0806	98.6578	0.001848	53400.6	3.008721	174.156	422.312	1.163932	0.099124	0.098864	420.761	53400.6	0.093215	0.271140	1551.82	93696.3
216	2.000000	1.170199	7.36717e+06	-49439.1	955.819	-29759.4	0.000000	0.000000	7.190275	478.135	NaN	0.000000	0.001701	0.001685	28.0806	104.227	0.001781	58533	5.430145	171.58	477.874	1.169830	0.105131	0.104762	478.135	58533	0.099005	0.301712	1584.74	97359.5