File: remote_trans/data/nanoindenter/0828-1/data/Data_2025-08-06,11h17m57s/2025-07-22_16-23-58_1_482.txt
2025-07-22, 16:23:58, 1
Index	Phase	Displacement	Time	Pos X	Pos Y	Pos Z	Rot A	Rot B	Piezo Z	Force A	Force B	Gripper	Voltage A	Voltage B	Temperature	Amplitude force	Amplitude pos	Stiffness	Phase shift	Phase excitation	Force A raw	Displacement raw	HMax	HMax raw	Real Force	Real Stiffness	Contact Depth	Area	Hardness	Reduced Mod.
[#]	[#]	[um]	[s]	[um]	[um]	[um]	[m°]	[m°]	[um]	[uN]	[uN]	[V]	[V]	[V]	[°C]	[uN]	[um]	[N/m]	[°]	[°]	[uN]	[um]	[um]	[um]	[uN]	[N/m]	[um]	[um^2]	[MPa]	[MPa]
482	1.000000	0.002454	7.36977e+06	-52989.1	1005.82	-29747.7	0.000000	0.000000	6.002801	-0.018206	NaN	0.000000	0.001593	0.001765	28.0839	0.020113	0.001038	19.3793	168.853	-164.677	-0.116311	0.001200	-1.081725	-1.082979	-0.018206	19.3793	-1.081021	-2.787601E+14	6.531142E-17	NaN
482	1.000000	0.042449	7.36977e+06	-52989.1	1005.82	-29747.7	0.000000	0.000000	6.042795	-0.043908	NaN	0.000000	0.001601	0.001731	28.0841	0.154243	0.001997	77.2487	-162.155	-166.96	0.019857	0.041055	-1.041731	-1.043124	-0.043908	77.2487	-1.041304	-8.156520E+13	5.383133E-16	NaN
482	1.000000	0.082398	7.36977e+06	-52989.1	1005.82	-29747.7	0.000000	0.000000	6.082749	0.051988	NaN	0.000000	0.001565	0.001727	28.0839	0.067928	0.001913	35.504	-2.744696	-164.477	-0.044108	0.081104	-1.001781	-1.003075	0.051988	35.504	-1.002879	-2.480447E+13	-2.095924E-15	NaN
482	1.000000	0.122404	7.36977e+06	-52989.1	1005.82	-29747.7	0.000000	0.000000	6.122750	-0.041222	NaN	0.000000	0.001602	0.001740	28.0828	0.132825	0.002083	63.7759	19.5633	-165.058	-0.077689	0.121144	-0.961775	-0.963036	-0.041222	63.7759	-0.961291	-6.827612E+12	6.037510E-15	NaN
482	1.000000	0.162463	7.36977e+06	-52989.1	1005.82	-29747.7	0.000000	0.000000	6.162810	-0.029838	NaN	0.000000	0.001573	0.001776	28.0828	0.023645	0.002149	11.0049	-141.372	-165.114	-0.047012	0.161138	-0.921716	-0.923041	-0.029838	11.0049	-0.919682	-1.874630E+12	1.591701E-14	NaN
482	1.000000	0.202480	7.36977e+06	-52989.1	1005.82	-29747.7	0.000000	0.000000	6.202827	-0.026602	NaN	0.000000	0.001632	0.001742	28.0826	0.014715	0.001984	7.415362	87.9022	-164.866	-0.006619	0.201189	-0.881700	-0.882990	-0.026602	7.415362	-0.879009	-5.288183E+11	5.030407E-14	NaN
482	1.000000	0.242499	7.36977e+06	-52989.1	1005.82	-29747.7	0.000000	0.000000	6.242845	-0.031356	NaN	0.000000	0.001594	0.001801	28.0838	0.019235	0.001863	10.3266	-25.4864	-165.559	-0.073142	0.241153	-0.841681	-0.843026	-0.031356	10.3266	-0.839403	-1.538888E+11	2.037585E-13	NaN
482	1.000000	0.282493	7.36977e+06	-52989.1	1005.82	-29747.7	0.000000	0.000000	6.282840	-0.035989	NaN	0.000000	0.001545	0.001738	28.0841	0.127500	0.001851	68.8819	6.650535	-163.879	-0.049718	0.281175	-0.801686	-0.803004	-0.035989	68.8819	-0.801294	-4.681936E+10	7.686822E-13	NaN
482	1.000000	0.322515	7.36977e+06	-52989.1	1005.82	-29747.7	0.000000	0.000000	6.322862	-0.027207	NaN	0.000000	0.001570	0.001755	28.0839	0.042045	0.001962	21.4248	44.7714	-167.016	-0.032330	0.321180	-0.761664	-0.762999	-0.027207	21.4248	-0.760712	-1.315174E+10	2.068698E-12	NaN
482	1.000000	0.362551	7.36977e+06	-52989.1	1005.82	-29747.7	0.000000	0.000000	6.362896	-0.067881	NaN	0.000000	0.001565	0.001762	28.084	0.089427	0.001937	46.1573	-28.893	-166.957	-0.031431	0.361203	-0.721628	-0.722976	-0.067881	46.1573	-0.720525	-3.729390E+9	1.820166E-11	NaN
482	1.000000	0.402559	7.36977e+06	-52989.1	1005.82	-29747.7	0.000000	0.000000	6.402909	0.050689	NaN	0.000000	0.001591	0.001763	28.0825	0.068886	0.001970	34.9743	109.378	-164.811	-0.052122	0.401257	-0.681620	-0.682922	0.050689	34.9743	-0.682707	-1.135595E+9	-4.463679E-11	NaN
482	1.000000	0.442590	7.36977e+06	-52989.1	1005.82	-29747.7	0.000000	0.000000	6.442936	-0.036310	NaN	0.000000	0.001562	0.001720	28.0825	0.140043	0.001952	71.7316	-52.6082	-165.595	0.030194	0.441180	-0.641590	-0.642999	-0.036310	71.7316	-0.641210	-3.068237E+8	1.183424E-10	NaN
482	1.000000	0.482592	7.36977e+06	-52989.1	1005.82	-29747.7	0.000000	0.000000	6.482938	-0.038512	NaN	0.000000	0.001575	0.001747	28.0825	0.071428	0.001955	36.537	-72.4551	-161.853	-0.093590	0.481262	-0.601587	-0.602917	-0.038512	36.537	-0.600797	-8.539524E+7	4.509873E-10	NaN
482	1.000000	0.522569	7.36977e+06	-52989.1	1005.82	-29747.7	0.000000	0.000000	6.522918	0.021759	NaN	0.000000	0.001621	0.001746	28.0837	0.061152	0.001998	30.5988	66.6954	-166.638	-0.022886	0.521278	-0.561611	-0.562901	0.021759	30.5988	-0.562144	-2.500525E+7	-8.701696E-10	NaN
482	1.000000	0.562585	7.36977e+06	-52989.1	1005.82	-29747.7	0.000000	0.000000	6.562934	0.039718	NaN	0.000000	0.001628	0.001784	28.0835	0.017977	0.002092	8.591923	0.941023	-163.257	0.099024	0.561291	-0.521595	-0.522888	0.039718	8.591923	-0.525062	-7.65539e+06	-5.188215E-9	NaN
482	1.000000	0.602629	7.36977e+06	-52989.1	1005.82	-29747.7	0.000000	0.000000	6.602976	-0.047957	NaN	0.000000	0.001624	0.001723	28.0834	0.027909	0.001990	14.0247	87.2611	-165.705	0.032631	0.601345	-0.481550	-0.482834	-0.047957	14.0247	-0.478985	-1.74308e+06	2.751279E-8	NaN
482	1.000000	0.642691	7.36977e+06	-52989.1	1005.82	-29747.7	0.000000	0.000000	6.643039	-0.003938	NaN	0.000000	0.001628	0.001754	28.0821	0.087922	0.002168	40.5552	-23.5221	-164.162	0.042135	0.641358	-0.441488	-0.442821	-0.003938	40.5552	-0.441416	-516819	7.619752E-9	NaN
482	1.000000	0.682653	7.36977e+06	-52989.1	1005.82	-29747.7	0.000000	0.000000	6.682999	-0.045907	NaN	0.000000	0.001657	0.001762	28.0824	0.059656	0.002005	29.7516	166.551	-165.536	-0.051086	0.681286	-0.401526	-0.402893	-0.045907	29.7516	-0.400369	-135287	3.393268E-7	NaN
482	1.000000	0.722679	7.36977e+06	-52989.1	1005.82	-29747.7	0.000000	0.000000	6.723024	-0.081079	NaN	0.000000	0.001563	0.001788	28.0824	0.072006	0.001934	37.2293	125.639	-165.458	-0.052082	0.721348	-0.361500	-0.362831	-0.081079	37.2293	-0.359867	-35474.9	2.285536E-6	NaN
482	1.000000	0.762693	7.36977e+06	-52989.1	1005.82	-29747.7	0.000000	0.000000	6.763040	-0.036733	NaN	0.000000	0.001547	0.001761	28.0821	0.072513	0.001945	37.2826	32.4135	-167.238	-0.085337	0.761366	-0.321486	-0.322813	-0.036733	37.2826	-0.320747	-9541.8	3.849693E-6	NaN
482	1.000000	0.802704	7.36977e+06	-52989.1	1005.82	-29747.7	0.000000	0.000000	6.803053	0.004474	NaN	0.000000	0.001539	0.001751	28.0833	0.026668	0.002000	13.3364	-84.8863	-163.251	-0.029280	0.801377	-0.281475	-0.282802	0.004474	13.3364	-0.281727	-2506.11	-1.785278E-6	NaN
482	1.000000	0.842748	7.36977e+06	-52989.1	1005.82	-29747.7	0.000000	0.000000	6.843096	0.008225	NaN	0.000000	0.001560	0.001758	28.084	0.065988	0.002008	32.8551	116.954	-164.862	0.010506	0.841456	-0.241431	-0.242723	0.008225	32.8551	-0.241619	-609.286	-1.349998E-5	NaN
482	1.000000	0.882738	7.36977e+06	-52989.1	1005.82	-29747.7	0.000000	0.000000	6.883088	0.037854	NaN	0.000000	0.001517	0.001753	28.084	0.024154	0.002086	11.5811	87.2909	-165.014	0.021471	0.881461	-0.201441	-0.202718	0.037854	11.5811	-0.203892	-152.572	-0.000248	NaN
482	1.000000	0.922773	7.36977e+06	-52989.1	1005.82	-29747.8	0.000000	0.000000	6.923118	-0.076090	NaN	0.000000	0.001582	0.001807	28.0825	0.022202	0.001984	11.1927	16.5485	-169.509	-0.095824	0.921478	-0.161406	-0.162701	-0.076090	11.1927	-0.156307	-23.5542	0.003230	NaN
482	1.000000	0.962794	7.36977e+06	-52989.1	1005.82	-29747.8	0.000000	0.000000	6.963142	0.005585	NaN	0.000000	0.001539	0.001799	28.083	0.038783	0.001990	19.488	109.097	-168.997	-0.011214	0.961406	-0.121385	-0.122773	0.005585	19.488	-0.121600	-5.203285	-0.001073	NaN
482	1.000000	1.002784	7.36977e+06	-52989.1	1005.82	-29747.8	0.000000	0.000000	7.003133	0.019188	NaN	0.000000	0.001549	0.001739	28.0828	0.084696	0.002099	40.3457	30.2144	-166.17	-0.007925	1.001510	-0.081395	-0.082669	0.019188	40.3457	-0.081752	-0.684298	-0.028041	NaN
482	1.000000	1.042798	7.36977e+06	-52989.1	1005.82	-29747.8	0.000000	0.000000	7.043143	-0.077705	NaN	0.000000	0.001549	0.001773	28.0825	0.017140	0.002002	8.559938	-164.05	-163.93	-0.102506	1.041503	-0.041381	-0.042677	-0.077705	8.559938	-0.034573	-0.031112	2.497539	NaN
482	1.000000	1.082760	7.36977e+06	-52989.1	1005.82	-29747.8	0.000000	0.000000	7.083201	2.249598	NaN	0.000000	0.001595	0.001779	28.0836	3.069993	0.001877	1635.53	11.8244	-171.284	0.864912	1.081511	-0.001419	-0.002668	2.249598	1635.53	-0.002451	-0.001749	-1286.01	NaN
482	2.000000	1.097306	7.36977e+06	-52989.1	1005.82	-29747.8	0.000000	0.000000	7.098657	24.3842	NaN	0.000000	0.001563	0.001811	28.0837	19.4639	0.001766	11019.8	4.234299	-174.028	23.2677	1.097003	0.013127	0.012824	24.3842	11019.8	0.011467	0.010858	2245.77	96622.1
482	2.000000	1.107245	7.36977e+06	-52989.1	1005.82	-29747.8	0.000000	0.000000	7.109692	51.0319	NaN	0.000000	0.001573	0.001711	28.0839	30.6931	0.001844	16647.3	5.703504	-178.454	49.9439	1.107010	0.023066	0.022831	51.0319	16647.3	0.020767	0.023762	2147.66	98668.6
482	2.000000	1.117226	7.36977e+06	-52989.1	1005.82	-29747.8	0.000000	0.000000	7.121168	87.3835	NaN	0.000000	0.001590	0.001766	28.0823	39.9658	0.001757	22747.4	6.997846	176.419	84.6965	1.116911	0.033047	0.032732	87.3835	22747.4	0.030166	0.041089	2126.71	102529
482	2.000000	1.127252	7.36977e+06	-52989.1	1005.82	-29747.8	0.000000	0.000000	7.132719	124.449	NaN	0.000000	0.001592	0.001798	28.0826	50.4623	0.001843	27386.1	1.328937	-179.427	123.28	1.126942	0.043073	0.042763	124.449	27386.1	0.039665	0.063164	1970.24	99555.7
482	2.000000	1.137169	7.36977e+06	-52989.1	1005.82	-29747.8	0.000000	0.000000	7.145023	182.51	NaN	0.000000	0.001611	0.001762	28.0825	59.8683	0.001761	34004.9	6.626289	173.935	179.096	1.136877	0.052990	0.052698	182.51	34004.9	0.048964	0.089239	2045.19	104001
482	2.000000	1.147167	7.36977e+06	-52989.1	1005.82	-29747.8	0.000000	0.000000	7.157353	239.199	NaN	0.000000	0.001635	0.001810	28.0831	68.9867	0.001784	38659.5	5.677347	173.504	236.811	1.146906	0.062988	0.062727	239.199	38659.5	0.058348	0.119950	1994.16	101984
482	2.000000	1.157229	7.36977e+06	-52989.1	1005.82	-29747.8	0.000000	0.000000	7.170434	312.606	NaN	0.000000	0.001662	0.001779	28.0836	79.4804	0.001802	44110.7	7.880921	171.17	313.618	1.156848	0.073050	0.072668	312.606	44110.7	0.067734	0.154994	2016.89	102367
482	2.000000	1.167266	7.36977e+06	-52989.1	1005.82	-29747.8	0.000000	0.000000	7.182257	356.016	NaN	0.000000	0.001599	0.001795	28.0834	89.0712	0.001880	47371	1.349675	176.083	357.143	1.167225	0.083087	0.083046	356.016	47371	0.077450	0.195709	1819.11	97831.9
482	2.000000	1.177002	7.36977e+06	-52989.1	1005.82	-29747.8	0.000000	0.000000	7.196167	457.503	NaN	0.000000	0.001610	0.001785	28.0835	97.1234	0.001646	59020.7	1.807427	174.681	448.807	1.176813	0.092822	0.092634	457.503	59020.7	0.087009	0.240077	1905.65	110053
482	2.000000	1.186989	7.36977e+06	-52989.1	1005.82	-29747.8	0.000000	0.000000	7.209861	547.611	NaN	0.000000	0.001596	0.001783	28.0821	107.823	0.001722	62615.9	4.118978	171.824	536.12	1.186824	0.102810	0.102644	547.611	62615.9	0.096251	0.286982	1908.18	106790