File: remote_trans/data/nanoindenter/0828-1/data/Data_2025-08-06,11h17m57s/2025-07-22_16-23-58_1_454.txt
2025-07-22, 16:23:58, 1
Index	Phase	Displacement	Time	Pos X	Pos Y	Pos Z	Rot A	Rot B	Piezo Z	Force A	Force B	Gripper	Voltage A	Voltage B	Temperature	Amplitude force	Amplitude pos	Stiffness	Phase shift	Phase excitation	Force A raw	Displacement raw	HMax	HMax raw	Real Force	Real Stiffness	Contact Depth	Area	Hardness	Reduced Mod.
[#]	[#]	[um]	[s]	[um]	[um]	[um]	[m°]	[m°]	[um]	[uN]	[uN]	[V]	[V]	[V]	[°C]	[uN]	[um]	[N/m]	[°]	[°]	[uN]	[um]	[um]	[um]	[uN]	[N/m]	[um]	[um^2]	[MPa]	[MPa]
454	1.000000	0.002518	7.3695e+06	-54389.1	1005.82	-29743.7	0.000000	0.000000	6.002820	-0.053005	NaN	0.000000	0.001690	0.001751	28.0824	0.079586	0.000976	81.5189	-5.300499	-167.352	0.041297	0.001245	-1.066209	-1.067482	-0.053005	81.5189	-1.065721	-1.736600E+14	3.052214E-16	NaN
454	1.000000	0.042458	7.3695e+06	-54389.1	1005.82	-29743.7	0.000000	0.000000	6.042760	-0.022290	NaN	0.000000	0.001668	0.001754	28.0816	0.060333	0.002098	28.7602	166.271	-163.336	-0.058775	0.041134	-1.026270	-1.027593	-0.022290	28.7602	-1.025688	-5.029018E+13	4.432198E-16	NaN
454	1.000000	0.082457	7.3695e+06	-54389.1	1005.82	-29743.7	0.000000	0.000000	6.082759	-0.036123	NaN	0.000000	0.001651	0.001763	28.083	0.070099	0.001974	35.5192	6.554730	-166.154	-0.043657	0.081114	-0.986270	-0.987613	-0.036123	35.5192	-0.985507	-1.447445E+13	2.495636E-15	NaN
454	1.000000	0.122471	7.3695e+06	-54389.1	1005.82	-29743.8	0.000000	0.000000	6.122776	0.033598	NaN	0.000000	0.001711	0.001752	28.0832	0.107608	0.002065	52.0981	63.0504	-164.926	0.080851	0.121171	-0.946256	-0.947556	0.033598	52.0981	-0.946740	-4.345629E+12	-7.731375E-15	NaN
454	1.000000	0.162498	7.3695e+06	-54389.1	1005.82	-29743.8	0.000000	0.000000	6.162798	-0.066417	NaN	0.000000	0.001737	0.001748	28.0831	0.039553	0.001934	20.4529	-147.68	-166.255	0.033466	0.161202	-0.906230	-0.907525	-0.066417	20.4529	-0.903794	-1.143752E+12	5.806957E-14	NaN
454	1.000000	0.202490	7.3695e+06	-54389.1	1005.82	-29743.8	0.000000	0.000000	6.202793	0.005378	NaN	0.000000	0.001739	0.001757	28.0829	0.119716	0.002006	59.6913	32.6118	-165.909	-0.000730	0.201170	-0.866238	-0.867557	0.005378	59.6913	-0.866305	-3.560013E+11	-1.510713E-14	NaN
454	1.000000	0.242541	7.3695e+06	-54389.1	1005.82	-29743.8	0.000000	0.000000	6.242847	0.066324	NaN	0.000000	0.001674	0.001761	28.082	0.045007	0.002078	21.6536	84.4609	-166.046	-0.032900	0.241232	-0.826187	-0.827495	0.066324	21.6536	-0.828484	-1.094542E+11	-6.059505E-13	NaN
454	1.000000	0.282555	7.3695e+06	-54389.1	1005.82	-29743.8	0.000000	0.000000	6.282856	-0.053435	NaN	0.000000	0.001644	0.001772	28.0822	0.032987	0.002079	15.8668	30.645	-165.896	-0.013924	0.281272	-0.786172	-0.787455	-0.053435	15.8668	-0.783647	-2.696375E+10	1.981719E-12	NaN
454	1.000000	0.322575	7.3695e+06	-54389.1	1005.82	-29743.8	0.000000	0.000000	6.322879	0.020792	NaN	0.000000	0.001677	0.001802	28.0824	0.018286	0.001980	9.233202	153.18	-166.792	0.071973	0.321270	-0.746152	-0.747457	0.020792	9.233202	-0.747841	-8.786855E+9	-2.366218E-12	NaN
454	1.000000	0.362579	7.3695e+06	-54389.1	1005.82	-29743.8	0.000000	0.000000	6.362882	-0.007011	NaN	0.000000	0.001693	0.001788	28.083	0.039445	0.001910	20.6538	-171.113	-164.579	0.055733	0.361233	-0.706148	-0.707494	-0.007011	20.6538	-0.705894	-2.355061E+9	2.977105E-12	NaN
454	1.000000	0.402603	7.3695e+06	-54389.1	1005.82	-29743.8	0.000000	0.000000	6.402905	-0.045722	NaN	0.000000	0.001660	0.001704	28.0828	0.083337	0.002042	40.8078	60.5827	-171.488	-0.061678	0.401285	-0.666124	-0.667442	-0.045722	40.8078	-0.665283	-6.558794E+8	6.971155E-11	NaN
454	1.000000	0.442613	7.3695e+06	-54389.1	1005.82	-29743.8	0.000000	0.000000	6.442919	0.044880	NaN	0.000000	0.001710	0.001712	28.0826	0.071987	0.001960	36.7243	49.3802	-164.049	0.007276	0.441291	-0.626114	-0.627436	0.044880	36.7243	-0.627030	-1.959911E+8	-2.289913E-10	NaN
454	1.000000	0.482630	7.3695e+06	-54389.1	1005.82	-29743.8	0.000000	0.000000	6.482933	0.001825	NaN	0.000000	0.001691	0.001724	28.0822	0.156121	0.002047	76.254	59.3635	-167.149	-0.014253	0.481376	-0.586098	-0.587351	0.001825	76.254	-0.586116	-5.359240E+7	-3.405686E-11	NaN
454	1.000000	0.522639	7.3695e+06	-54389.1	1005.82	-29743.8	0.000000	0.000000	6.522943	-0.005949	NaN	0.000000	0.001618	0.001746	28.0817	0.076241	0.002140	35.6251	-65.2019	-164.585	0.025935	0.521346	-0.546088	-0.547381	-0.005949	35.6251	-0.545963	-1.492872E+7	3.984785E-10	NaN
454	1.000000	0.562650	7.3695e+06	-54389.1	1005.82	-29743.8	0.000000	0.000000	6.562952	-0.043099	NaN	0.000000	0.001586	0.001727	28.0817	0.036803	0.001919	19.1801	-156.991	-166.141	-0.024359	0.561375	-0.506077	-0.507352	-0.043099	19.1801	-0.504392	-3.94701e+06	1.091953E-8	NaN
454	1.000000	0.602694	7.3695e+06	-54389.1	1005.82	-29743.8	0.000000	0.000000	6.602995	-0.045294	NaN	0.000000	0.001648	0.001774	28.0819	0.068936	0.001982	34.7881	-82.1829	-165.637	-0.013427	0.601344	-0.466034	-0.467383	-0.045294	34.7881	-0.465057	-1.11186e+06	4.073690E-8	NaN
454	1.000000	0.642686	7.3695e+06	-54389.1	1005.82	-29743.8	0.000000	0.000000	6.642990	0.013891	NaN	0.000000	0.001656	0.001766	28.0834	0.023146	0.001965	11.7814	-71.4326	-164.049	-0.029557	0.641377	-0.426041	-0.427350	0.013891	11.7814	-0.426926	-322517	-4.306977E-8	NaN
454	1.000000	0.682709	7.3695e+06	-54389.1	1005.82	-29743.8	0.000000	0.000000	6.683012	-0.022718	NaN	0.000000	0.001655	0.001767	28.0835	0.073045	0.001872	39.0279	166.215	-166.93	-0.036651	0.681405	-0.386018	-0.387322	-0.022718	39.0279	-0.385581	-83160.5	2.731844E-7	NaN
454	1.000000	0.722718	7.3695e+06	-54389.1	1005.82	-29743.8	0.000000	0.000000	6.723021	-0.029299	NaN	0.000000	0.001622	0.001734	28.0833	0.080011	0.001844	43.3953	-138.761	-163.493	-0.005875	0.721421	-0.346009	-0.347306	-0.029299	43.3953	-0.345503	-21961.6	1.334086E-6	NaN
454	1.000000	0.762759	7.3695e+06	-54389.1	1005.82	-29743.8	0.000000	0.000000	6.763058	-0.111945	NaN	0.000000	0.001678	0.001747	28.082	0.045381	0.001937	23.4244	177.652	-163.43	-0.057771	0.761388	-0.305968	-0.307339	-0.111945	23.4244	-0.302384	-5106.21	2.192332E-5	NaN
454	1.000000	0.802759	7.3695e+06	-54389.1	1005.82	-29743.8	0.000000	0.000000	6.803062	0.007473	NaN	0.000000	0.001652	0.001764	28.0821	0.099135	0.001963	50.4996	62.9818	-167.503	0.001459	0.801474	-0.265969	-0.267253	0.007473	50.4996	-0.266080	-1451.64	-5.148249E-6	NaN
454	1.000000	0.842765	7.3695e+06	-54389.1	1005.82	-29743.8	0.000000	0.000000	6.843069	0.010028	NaN	0.000000	0.001662	0.001757	28.0822	0.067735	0.002107	32.1513	-13.1255	-165.409	-0.025579	0.841485	-0.225962	-0.227242	0.010028	32.1513	-0.226196	-348.596	-2.876671E-5	NaN
454	1.000000	0.882765	7.3695e+06	-54389.1	1005.82	-29743.8	0.000000	0.000000	6.883065	-0.069039	NaN	0.000000	0.001614	0.001755	28.0822	0.106275	0.001975	53.8073	-143.612	-164.969	-0.118085	0.881477	-0.185963	-0.187250	-0.069039	53.8073	-0.185000	-74.1544	0.000931	NaN
454	1.000000	0.922850	7.3695e+06	-54389.1	1005.82	-29743.8	0.000000	0.000000	6.923154	0.024349	NaN	0.000000	0.001642	0.001754	28.083	0.126849	0.002002	63.362	-107.225	-169.181	0.003723	0.921547	-0.145878	-0.147180	0.024349	63.362	-0.146166	-15.4063	-0.001580	NaN
454	1.000000	0.962789	7.3695e+06	-54389.1	1005.82	-29743.8	0.000000	0.000000	6.963091	-0.047301	NaN	0.000000	0.001682	0.001743	28.0833	0.080351	0.001958	41.0374	-159.709	-165.224	-0.012527	0.961582	-0.105938	-0.107145	-0.047301	41.0374	-0.105073	-2.359176	0.020050	NaN
454	1.000000	1.002846	7.3695e+06	-54389.1	1005.82	-29743.8	0.000000	0.000000	7.003150	0.003321	NaN	0.000000	0.001654	0.001787	28.0832	0.094090	0.001920	49.0087	33.8865	-164.607	0.015093	1.001533	-0.065881	-0.067194	0.003321	49.0087	-0.065932	-0.264446	-0.012557	NaN
454	1.000000	1.042836	7.3695e+06	-54389.1	1005.82	-29743.8	0.000000	0.000000	7.043140	-0.004132	NaN	0.000000	0.001679	0.001761	28.0818	0.028439	0.001912	14.874	60.7207	-168.227	-0.053097	1.041573	-0.025891	-0.027155	-0.004132	14.874	-0.025683	-0.017580	0.235057	NaN
454	2.000000	1.082315	7.3695e+06	-54389.1	1005.82	-29743.8	0.000000	0.000000	7.082963	8.364761	NaN	0.000000	0.001663	0.001777	28.0819	8.974894	0.001618	5545.49	8.059956	-172.946	7.631990	1.081536	0.013588	0.012809	8.364761	5545.49	0.012457	0.012042	694.654	46171.1
454	2.000000	1.092386	7.3695e+06	-54389.1	1005.82	-29743.8	0.000000	0.000000	7.093626	22.7598	NaN	0.000000	0.001633	0.001796	28.0818	19.7778	0.001687	11722.7	6.450741	-179.132	22.4882	1.092107	0.023659	0.023380	22.7598	11722.7	0.022203	0.026123	871.257	66266
454	2.000000	1.102371	7.3695e+06	-54389.1	1005.82	-29743.8	0.000000	0.000000	7.104539	45.3259	NaN	0.000000	0.001681	0.001752	28.082	29.67	0.001821	16294.3	4.440778	-178.678	44.7961	1.102067	0.033644	0.033340	45.3259	16294.3	0.031557	0.044033	1029.36	70944.3
454	2.000000	1.112318	7.3695e+06	-54389.1	1005.82	-29743.8	0.000000	0.000000	7.115761	76.3347	NaN	0.000000	0.001614	0.001747	28.0835	40.5752	0.001847	21970.3	4.378960	179.572	74.7727	1.111970	0.043590	0.043243	76.3347	21970.3	0.040984	0.066597	1146.21	77782.5
454	2.000000	1.122287	7.3695e+06	-54389.1	1005.82	-29743.8	0.000000	0.000000	7.127143	110.67	NaN	0.000000	0.001617	0.001759	28.0833	49.0033	0.001773	27641.7	1.417185	179.066	106.454	1.122075	0.053560	0.053348	110.67	27641.7	0.050557	0.094143	1175.55	82308.4
454	2.000000	1.132339	7.3695e+06	-54389.1	1005.82	-29743.8	0.000000	0.000000	7.139285	161.482	NaN	0.000000	0.001528	0.001749	28.0832	60.8406	0.001652	36824.6	9.324934	168.169	162.501	1.132007	0.063612	0.063279	161.482	36824.6	0.060323	0.126969	1271.83	94419.7
454	2.000000	1.142229	7.3695e+06	-54389.1	1005.82	-29743.8	0.000000	0.000000	7.151060	207.32	NaN	0.000000	0.001565	0.001778	28.082	71.3778	0.001791	39846.9	6.435310	170.634	204.175	1.142087	0.073501	0.073360	207.32	39846.9	0.069599	0.162461	1276.12	90321.8
454	2.000000	1.152319	7.3695e+06	-54389.1	1005.82	-29743.8	0.000000	0.000000	7.164142	280.033	NaN	0.000000	0.001542	0.001777	28.0821	80.6708	0.001824	44231.3	5.369763	172.265	281.932	1.151967	0.083592	0.083240	280.033	44231.3	0.078844	0.201912	1386.9	89933.5
454	2.000000	1.162241	7.3695e+06	-54389.1	1005.82	-29743.8	0.000000	0.000000	7.176587	341.399	NaN	0.000000	0.001556	0.001796	28.0822	90.8931	0.001795	50644	5.233433	170.61	338.371	1.162066	0.093513	0.093339	341.399	50644	0.088457	0.247170	1381.23	93068.6
454	2.000000	1.172185	7.3695e+06	-54389.1	1005.82	-29743.8	0.000000	0.000000	7.189502	413.611	NaN	0.000000	0.001555	0.001803	28.0838	102.315	0.001758	58195.2	1.911239	173.038	406.94	1.172011	0.103458	0.103284	413.611	58195.2	0.098127	0.296980	1392.72	97565.7
454	2.000000	1.180683	7.3695e+06	-54389.1	1005.82	-29743.8	0.000000	0.000000	7.200911	484.374	NaN	0.000000	0.001568	0.001767	28.0836	110.113	0.001729	63696.9	2.451404	-8.473296	477.327	1.180502	0.111956	0.111775	484.374	63696.9	0.106253	0.342126	1415.78	99494.3