File: remote_trans/data/nanoindenter/0828-1/data/Data_2025-08-06,11h17m57s/2025-07-22_16-23-58_1_663.txt
2025-07-22, 16:23:58, 1
Index	Phase	Displacement	Time	Pos X	Pos Y	Pos Z	Rot A	Rot B	Piezo Z	Force A	Force B	Gripper	Voltage A	Voltage B	Temperature	Amplitude force	Amplitude pos	Stiffness	Phase shift	Phase excitation	Force A raw	Displacement raw	HMax	HMax raw	Real Force	Real Stiffness	Contact Depth	Area	Hardness	Reduced Mod.
[#]	[#]	[um]	[s]	[um]	[um]	[um]	[m°]	[m°]	[um]	[uN]	[uN]	[V]	[V]	[V]	[°C]	[uN]	[um]	[N/m]	[°]	[°]	[uN]	[um]	[um]	[um]	[uN]	[N/m]	[um]	[um^2]	[MPa]	[MPa]
663	1.000000	0.002326	7.37154e+06	-43939.1	1005.82	-29777.3	0.000000	0.000000	6.002797	0.010894	NaN	0.000000	0.001632	0.001704	28.0836	0.074028	0.000905	81.8244	-163.255	-165.393	0.048222	0.001127	-1.105802	-1.107000	0.010894	81.8244	-1.105902	-6.015710E+14	-1.810922E-17	NaN
663	1.000000	0.044283	7.37154e+06	-43939.1	1005.82	-29777.3	0.000000	0.000000	6.044752	-0.056713	NaN	0.000000	0.001540	0.001753	28.0833	0.038267	0.001923	19.9037	-25.9572	16.75	-0.036788	0.042907	-1.063844	-1.065220	-0.056713	19.9037	-1.061707	-1.533789E+14	3.697604E-16	NaN
663	1.000000	0.086279	7.37154e+06	-43939.1	1005.82	-29777.3	0.000000	0.000000	6.086749	-0.014687	NaN	0.000000	0.001571	0.001710	28.0835	0.029078	0.002146	13.5499	23.0955	-168.811	0.054615	0.084971	-1.021849	-1.023156	-0.014687	13.5499	-1.021036	-4.354063E+13	3.373124E-16	NaN
663	1.000000	0.128313	7.37154e+06	-43939.1	1005.82	-29777.3	0.000000	0.000000	6.128783	-0.024006	NaN	0.000000	0.001577	0.001712	28.0824	0.085027	0.001916	44.3733	9.954788	11.5427	-0.054330	0.126924	-0.979814	-0.981204	-0.024006	44.3733	-0.979409	-1.197963E+13	2.003911E-15	NaN
663	1.000000	0.170334	7.37154e+06	-43939.1	1005.82	-29777.3	0.000000	0.000000	6.170805	-0.010713	NaN	0.000000	0.001587	0.001715	28.0824	0.060744	0.001887	32.1837	-148.734	-166.488	-0.071744	0.169080	-0.937793	-0.939048	-0.010713	32.1837	-0.937544	-3.265844E+12	3.280450E-15	NaN
663	1.000000	0.212351	7.37154e+06	-43939.1	1005.82	-29777.3	0.000000	0.000000	6.212823	0.030804	NaN	0.000000	0.001569	0.001735	28.0823	0.019953	0.001908	10.4598	175.187	12.8195	0.028852	0.211005	-0.895777	-0.897123	0.030804	10.4598	-0.897985	-9.546489E+11	-3.226684E-14	NaN
663	1.000000	0.254357	7.37154e+06	-43939.1	1005.82	-29777.3	0.000000	0.000000	6.254828	-0.004263	NaN	0.000000	0.001583	0.001740	28.0839	0.052423	0.001904	27.5282	72.6853	-167.302	0.012189	0.253015	-0.853770	-0.855112	-0.004263	27.5282	-0.853654	-2.400022E+11	1.776088E-14	NaN
663	1.000000	0.296389	7.37154e+06	-43939.1	1005.82	-29777.3	0.000000	0.000000	6.296860	0.017134	NaN	0.000000	0.001669	0.001724	28.0837	0.048863	0.001970	24.8059	-29.9327	12.5041	-0.078012	0.295014	-0.811739	-0.813114	0.017134	24.8059	-0.812257	-6.594626E+10	-2.598116E-13	NaN
663	1.000000	0.338360	7.37154e+06	-43939.1	1005.82	-29777.3	0.000000	0.000000	6.338829	-0.040519	NaN	0.000000	0.001583	0.001708	28.0839	0.043661	0.001885	23.1619	177.406	-163.193	-0.035632	0.337051	-0.769768	-0.771077	-0.040519	23.1619	-0.768456	-1.676149E+10	2.417412E-12	NaN
663	1.000000	0.380396	7.37154e+06	-43939.1	1005.82	-29777.3	0.000000	0.000000	6.380866	-0.014765	NaN	0.000000	0.001622	0.001745	28.0841	0.089619	0.002013	44.5295	-161.184	14.8819	-0.039645	0.379067	-0.727732	-0.729061	-0.014765	44.5295	-0.727483	-4.639806E+9	3.182313E-12	NaN
663	1.000000	0.422428	7.37154e+06	-43939.1	1005.82	-29777.3	0.000000	0.000000	6.422896	-0.089297	NaN	0.000000	0.001632	0.001723	28.0829	0.061736	0.001965	31.4233	-112.483	-166.82	-0.069507	0.421082	-0.685699	-0.687046	-0.089297	31.4233	-0.683568	-1.166796E+9	7.653150E-11	NaN
663	1.000000	0.464451	7.37154e+06	-43939.1	1005.82	-29777.3	0.000000	0.000000	6.464922	-0.003073	NaN	0.000000	0.001637	0.001720	28.083	0.035707	0.001996	17.8904	-106.896	11.0757	-0.013402	0.463050	-0.643676	-0.645077	-0.003073	17.8904	-0.643548	-3.303377E+8	9.303051E-12	NaN
663	1.000000	0.506457	7.37154e+06	-43939.1	1005.82	-29777.3	0.000000	0.000000	6.506931	0.080884	NaN	0.000000	0.001610	0.001716	28.0829	0.033780	0.001919	17.601	-171.55	-166.293	-0.011696	0.505174	-0.601671	-0.602953	0.080884	17.601	-0.605117	-9.793061E+7	-8.259309E-10	NaN
663	1.000000	0.548482	7.37154e+06	-43939.1	1005.82	-29777.3	0.000000	0.000000	6.548951	-0.043295	NaN	0.000000	0.001594	0.001733	28.0841	0.016605	0.001969	8.433605	-131.441	16.2061	-0.016128	0.547126	-0.559645	-0.561001	-0.043295	8.433605	-0.555795	-2.042654E+7	2.119535E-9	NaN
663	1.000000	0.590515	7.37154e+06	-43939.1	1005.82	-29777.3	0.000000	0.000000	6.590986	-0.004315	NaN	0.000000	0.001619	0.001735	28.0841	0.145393	0.001846	78.7797	11.9149	-165.648	-0.012804	0.589212	-0.517613	-0.518915	-0.004315	78.7797	-0.517572	-6.02307e+06	7.163915E-10	NaN
663	1.000000	0.632546	7.37154e+06	-43939.1	1005.82	-29777.3	0.000000	0.000000	6.633016	-0.006720	NaN	0.000000	0.001632	0.001707	28.084	0.119615	0.002040	58.6258	158.057	13.8344	-0.069592	0.631173	-0.475582	-0.476955	-0.006720	58.6258	-0.475496	-1.55758e+06	4.314184E-9	NaN
663	1.000000	0.674507	7.37154e+06	-43939.1	1005.82	-29777.3	0.000000	0.000000	6.674979	0.013632	NaN	0.000000	0.001603	0.001756	28.0825	0.055993	0.002122	26.3923	33.6109	-165.261	0.040312	0.673245	-0.433620	-0.434883	0.013632	26.3923	-0.434008	-406193	-3.355997E-8	NaN
663	1.000000	0.716579	7.37154e+06	-43939.1	1005.82	-29777.3	0.000000	0.000000	6.717048	-0.039370	NaN	0.000000	0.001561	0.001800	28.0828	0.047454	0.002100	22.5977	167.768	14.5196	-0.104937	0.715159	-0.391549	-0.392968	-0.039370	22.5977	-0.390242	-96968.4	4.060051E-7	NaN
663	1.000000	0.758549	7.37154e+06	-43939.1	1005.82	-29777.3	0.000000	0.000000	6.759019	-0.003813	NaN	0.000000	0.001593	0.001684	28.0823	0.070104	0.001837	38.1677	-172.061	-163.862	0.004864	0.757261	-0.349579	-0.350866	-0.003813	38.1677	-0.349504	-25107.5	1.518768E-7	NaN
663	1.000000	0.800596	7.37154e+06	-43939.1	1005.82	-29777.3	0.000000	0.000000	6.801065	-0.061278	NaN	0.000000	0.001611	0.001713	28.0835	0.023233	0.002106	11.0338	87.1129	15.0629	-0.038185	0.799187	-0.307531	-0.308941	-0.061278	11.0338	-0.303366	-5280.74	1.160398E-5	NaN
663	1.000000	0.842606	7.37154e+06	-43939.1	1005.82	-29777.3	0.000000	0.000000	6.843075	-0.029943	NaN	0.000000	0.001576	0.001725	28.0837	0.119922	0.001915	62.6227	-2.453559	-165.742	-0.067917	0.841308	-0.265522	-0.266820	-0.029943	62.6227	-0.265163	-1405.66	2.130172E-5	NaN
663	1.000000	0.884652	7.37154e+06	-43939.1	1005.82	-29777.3	0.000000	0.000000	6.885123	-0.010498	NaN	0.000000	0.001595	0.001796	28.0836	0.046233	0.001838	25.1589	-162.009	16.4547	0.008812	0.883263	-0.223475	-0.224864	-0.010498	25.1589	-0.223162	-311.97	3.365127E-5	NaN
663	1.000000	0.926661	7.37154e+06	-43939.1	1005.82	-29777.3	0.000000	0.000000	6.927133	0.015806	NaN	0.000000	0.001581	0.001765	28.0835	0.101737	0.002035	50.0046	59.3808	-167.246	-0.042854	0.925314	-0.181466	-0.182813	0.015806	50.0046	-0.181703	-65.2229	-0.000242	NaN
663	1.000000	0.968629	7.37154e+06	-43939.1	1005.82	-29777.3	0.000000	0.000000	6.969099	-0.019374	NaN	0.000000	0.001581	0.001743	28.0822	0.095715	0.001976	48.4403	46.2112	14.2693	0.040529	0.967306	-0.139499	-0.140821	-0.019374	48.4403	-0.139199	-11.4262	0.001696	NaN
663	1.000000	1.010675	7.37154e+06	-43939.1	1005.82	-29777.3	0.000000	0.000000	7.011144	-0.052206	NaN	0.000000	0.001578	0.001768	28.0824	0.065128	0.001969	33.0836	-10.0318	-163.631	-0.070284	1.009376	-0.097453	-0.098752	-0.052206	33.0836	-0.096269	-1.507396	0.034633	NaN
663	1.000000	1.052705	7.37154e+06	-43939.1	1005.82	-29777.3	0.000000	0.000000	7.053177	0.018674	NaN	0.000000	0.001600	0.001777	28.0824	0.147035	0.002012	73.073	-167.773	17.3246	-0.000770	1.051315	-0.055423	-0.056813	0.018674	73.073	-0.055614	-0.134267	-0.139080	NaN
663	1.000000	1.094693	7.37154e+06	-43939.1	1005.82	-29777.3	0.000000	0.000000	7.095163	-0.017813	NaN	0.000000	0.001617	0.001757	28.0832	0.137745	0.002064	66.7506	167.063	-163.4	-0.063481	1.093374	-0.013435	-0.014754	-0.017813	66.7506	-0.013235	-0.008238	2.162259	NaN
663	2.000000	1.121685	7.37154e+06	-43939.1	1005.82	-29777.3	0.000000	0.000000	7.122877	17.5444	NaN	0.000000	0.001608	0.001800	28.0832	14.3224	0.001734	8258.41	6.241723	5.142072	16.2064	1.121478	0.013557	0.013350	17.5444	8258.41	0.011964	0.011447	1532.7	70522.5
663	2.000000	1.132174	7.37154e+06	-43939.1	1005.82	-29777.3	0.000000	0.000000	7.134304	40.3769	NaN	0.000000	0.001549	0.001751	28.0831	24.2128	0.001763	13736.9	8.015583	179.631	40.5624	1.131830	0.024046	0.023702	40.3769	13736.9	0.021842	0.025519	1582.2	78564.3
663	2.000000	1.142674	7.37154e+06	-43939.1	1005.82	-29777.3	0.000000	0.000000	7.146133	72.71	NaN	0.000000	0.001558	0.001736	28.0823	33.2826	0.001792	18570.4	2.666146	2.698510	71.8771	1.142217	0.034546	0.034089	72.71	18570.4	0.031610	0.044146	1647.02	80750.9
663	2.000000	1.153149	7.37154e+06	-43939.1	1005.82	-29777.3	0.000000	0.000000	7.158191	111.211	NaN	0.000000	0.001612	0.001754	28.0823	44.2947	0.001914	23147	8.308944	174.864	111.952	1.152811	0.045022	0.044683	111.211	23147	0.041418	0.067745	1641.61	81251
663	2.000000	1.163592	7.37154e+06	-43939.1	1005.82	-29777.3	0.000000	0.000000	7.170615	159.427	NaN	0.000000	0.001623	0.001722	28.0824	51.8779	0.001710	30331	2.492792	-0.466461	155.819	1.163190	0.055464	0.055062	159.427	30331	0.051522	0.097175	1640.63	88896.3
663	2.000000	1.174099	7.37154e+06	-43939.1	1005.82	-29777.3	0.000000	0.000000	7.183436	215.718	NaN	0.000000	0.001682	0.001734	28.0836	62.2799	0.001852	33636.9	5.146735	175.547	214.664	1.173817	0.065971	0.065690	215.718	33636.9	0.061161	0.130005	1659.3	85233.1
663	2.000000	1.184604	7.37154e+06	-43939.1	1005.82	-29777.3	0.000000	0.000000	7.196497	277.886	NaN	0.000000	0.001632	0.001725	28.084	72.0868	0.001724	41815.7	2.747732	-3.763192	276.263	1.184153	0.076476	0.076026	277.886	41815.7	0.071492	0.170210	1632.61	92601.9
663	2.000000	1.195069	7.37154e+06	-43939.1	1005.82	-29777.3	0.000000	0.000000	7.209688	344.206	NaN	0.000000	0.001576	0.001733	28.0838	82.0774	0.001753	46828.6	5.128569	172.369	343.453	1.194744	0.086941	0.086617	344.206	46828.6	0.081428	0.213659	1611.01	92560
663	2.000000	1.205551	7.37154e+06	-43939.1	1005.82	-29777.3	0.000000	0.000000	7.223207	418.089	NaN	0.000000	0.001572	0.001681	28.0839	92.166	0.001725	53425.5	6.749200	-9.630611	415.529	1.205231	0.097424	0.097103	418.089	53425.5	0.091554	0.262657	1591.77	95241.7
663	2.000000	1.215044	7.37154e+06	-43939.1	1005.82	-29777.3	0.000000	0.000000	7.235785	493.138	NaN	0.000000	0.001522	0.001743	28.0825	101.205	0.001844	54886.3	2.628714	174.511	489.459	1.214699	0.106917	0.106572	493.138	54886.3	0.100178	0.308091	1600.62	90343.6