File: remote_trans/data/nanoindenter/0828-1/data/Data_2025-08-06,11h17m57s/2025-07-22_16-23-58_1_282.txt
2025-07-22, 16:23:58, 1
Index	Phase	Displacement	Time	Pos X	Pos Y	Pos Z	Rot A	Rot B	Piezo Z	Force A	Force B	Gripper	Voltage A	Voltage B	Temperature	Amplitude force	Amplitude pos	Stiffness	Phase shift	Phase excitation	Force A raw	Displacement raw	HMax	HMax raw	Real Force	Real Stiffness	Contact Depth	Area	Hardness	Reduced Mod.
[#]	[#]	[um]	[s]	[um]	[um]	[um]	[m°]	[m°]	[um]	[uN]	[uN]	[V]	[V]	[V]	[°C]	[uN]	[um]	[N/m]	[°]	[°]	[uN]	[um]	[um]	[um]	[uN]	[N/m]	[um]	[um^2]	[MPa]	[MPa]
282	1.000000	0.002323	7.36781e+06	-52739.1	955.818	-29748.6	0.000000	0.000000	6.002793	-0.031998	NaN	0.000000	0.001598	0.001694	28.0793	0.079697	0.001096	72.7158	-101.438	-160.634	-0.016502	0.001069	-1.071649	-1.072902	-0.031998	72.7158	-1.071319	-2.064922E+14	1.549599E-16	NaN
282	1.000000	0.042255	7.36781e+06	-52739.1	955.818	-29748.6	0.000000	0.000000	6.042724	-0.045347	NaN	0.000000	0.001612	0.001676	28.0796	0.162587	0.001986	81.8645	-35.1373	-165.938	-0.114212	0.040986	-1.031717	-1.032986	-0.045347	81.8645	-1.031301	-5.983921E+13	7.578197E-16	NaN
282	1.000000	0.082306	7.36781e+06	-52739.1	955.819	-29748.6	0.000000	0.000000	6.082775	-0.035383	NaN	0.000000	0.001631	0.001669	28.0793	0.052665	0.001932	27.2588	-166.903	-168.782	-0.041545	0.081004	-0.991666	-0.992967	-0.035383	27.2588	-0.990692	-1.699958E+13	2.081409E-15	NaN
282	1.000000	0.122339	7.36781e+06	-52739.1	955.819	-29748.6	0.000000	0.000000	6.122808	-0.035892	NaN	0.000000	0.001619	0.001695	28.0804	0.074909	0.002071	36.1712	-116.214	-159.194	-0.035893	0.120951	-0.951633	-0.953021	-0.035892	36.1712	-0.950889	-4.943256E+12	7.260821E-15	NaN
282	1.000000	0.162291	7.36781e+06	-52739.1	955.819	-29748.6	0.000000	0.000000	6.162758	-0.074762	NaN	0.000000	0.001672	0.001724	28.0804	0.057197	0.002087	27.4078	162.88	-165.249	-0.053401	0.161053	-0.911681	-0.912919	-0.074762	27.4078	-0.909635	-1.371627E+12	5.450598E-14	NaN
282	1.000000	0.202334	7.36781e+06	-52739.1	955.818	-29748.6	0.000000	0.000000	6.202803	-0.050995	NaN	0.000000	0.001634	0.001728	28.0806	0.023835	0.001848	12.9004	55.314	-164.072	-0.002649	0.200979	-0.871638	-0.872993	-0.050995	12.9004	-0.868673	-3.832561E+11	1.330574E-13	NaN
282	1.000000	0.242373	7.36781e+06	-52739.1	955.818	-29748.6	0.000000	0.000000	6.242841	-0.082972	NaN	0.000000	0.001635	0.001715	28.0792	0.021398	0.002021	10.588	-50.5402	-160.861	-0.104681	0.241072	-0.831598	-0.832900	-0.082972	10.588	-0.825721	-1.004110E+11	8.263282E-13	NaN
282	1.000000	0.282378	7.36781e+06	-52739.1	955.82	-29748.6	0.000000	0.000000	6.282845	-0.091909	NaN	0.000000	0.001619	0.001726	28.0792	0.059580	0.001917	31.0742	16.9588	-166.035	-0.076896	0.281069	-0.791594	-0.792903	-0.091909	31.0742	-0.789375	-3.225515E+10	2.849438E-12	NaN
282	1.000000	0.322414	7.36781e+06	-52739.1	955.818	-29748.6	0.000000	0.000000	6.322885	0.001193	NaN	0.000000	0.001584	0.001677	28.0793	0.068051	0.001968	34.5776	-30.3136	-162.268	-0.013017	0.321125	-0.751558	-0.752846	0.001193	34.5776	-0.751584	-9.880511E+9	-1.207927E-13	NaN
282	1.000000	0.362431	7.36781e+06	-52739.1	955.818	-29748.6	0.000000	0.000000	6.362897	-0.120598	NaN	0.000000	0.001591	0.001702	28.0792	0.025780	0.002059	12.5204	-129.275	-164.753	-0.166393	0.361084	-0.711541	-0.712888	-0.120598	12.5204	-0.704317	-2.241151E+9	5.381089E-11	NaN
282	1.000000	0.402421	7.36781e+06	-52739.1	955.818	-29748.6	0.000000	0.000000	6.402890	-0.043690	NaN	0.000000	0.001620	0.001720	28.0804	0.066451	0.002064	32.1934	-147.681	-162.076	-0.081731	0.401085	-0.671551	-0.672887	-0.043690	32.1934	-0.670533	-7.739070E+8	5.645335E-11	NaN
282	1.000000	0.442457	7.36781e+06	-52739.1	955.818	-29748.6	0.000000	0.000000	6.442925	-0.053046	NaN	0.000000	0.001602	0.001749	28.0803	0.062678	0.001989	31.513	22.6484	-165.959	-0.073359	0.441145	-0.631515	-0.632827	-0.053046	31.513	-0.630253	-2.170160E+8	2.444319E-10	NaN
282	1.000000	0.482484	7.36782e+06	-52739.1	955.817	-29748.6	0.000000	0.000000	6.482953	-0.036628	NaN	0.000000	0.001623	0.001717	28.0804	0.099429	0.002016	49.3274	-14.0335	-165.043	-0.100090	0.481106	-0.591488	-0.592866	-0.036628	49.3274	-0.590931	-6.244574E+7	5.865517E-10	NaN
282	1.000000	0.522490	7.36782e+06	-52739.1	955.819	-29748.6	0.000000	0.000000	6.522957	-0.094263	NaN	0.000000	0.001608	0.001732	28.0796	0.006724	0.001995	3.370284	-112.794	-164.574	-0.085812	0.521200	-0.551481	-0.552771	-0.094263	3.370284	-0.530505	-9.11139e+06	1.034561E-8	NaN
282	1.000000	0.562510	7.36782e+06	-52739.1	955.818	-29748.6	0.000000	0.000000	6.562979	-0.027756	NaN	0.000000	0.001603	0.001714	28.0795	0.047242	0.001916	24.6511	136.26	-163.262	-0.069274	0.561185	-0.511462	-0.512787	-0.027756	24.6511	-0.510618	-4.81968e+06	5.758955E-9	NaN
282	1.000000	0.602500	7.36782e+06	-52739.1	955.818	-29748.6	0.000000	0.000000	6.602967	-0.113953	NaN	0.000000	0.001618	0.001711	28.0795	0.077044	0.002021	38.1143	125.481	-163.27	-0.104965	0.601197	-0.471471	-0.472775	-0.113953	38.1143	-0.469229	-1.27231e+06	8.956376E-8	NaN
282	1.000000	0.642530	7.36782e+06	-52739.1	955.818	-29748.6	0.000000	0.000000	6.643000	-0.012728	NaN	0.000000	0.001599	0.001738	28.0796	0.030115	0.001956	15.3959	117.894	-164.39	-0.051181	0.641175	-0.431442	-0.432797	-0.012728	15.3959	-0.430822	-366175	3.476055E-8	NaN
282	1.000000	0.682555	7.36782e+06	-52739.1	955.818	-29748.6	0.000000	0.000000	6.683022	-0.090772	NaN	0.000000	0.001589	0.001709	28.0806	0.051205	0.001946	26.3087	-77.6483	-167.165	-0.018351	0.681210	-0.391417	-0.392761	-0.090772	26.3087	-0.388829	-92558.1	9.807071E-7	NaN
282	1.000000	0.722562	7.36782e+06	-52739.1	955.819	-29748.7	0.000000	0.000000	6.723029	-0.097115	NaN	0.000000	0.001650	0.001738	28.0805	0.087145	0.002098	41.5429	-138.641	-164.876	-0.097523	0.721228	-0.351410	-0.352744	-0.097115	41.5429	-0.349656	-25235.7	3.848297E-6	NaN
282	1.000000	0.762588	7.36782e+06	-52739.1	955.818	-29748.7	0.000000	0.000000	6.763058	-0.012661	NaN	0.000000	0.001638	0.001761	28.0804	0.043464	0.002042	21.2877	94.6234	-166.426	-0.028746	0.761284	-0.311384	-0.312688	-0.012661	21.2877	-0.310938	-6838.04	1.851541E-6	NaN
282	1.000000	0.802601	7.36782e+06	-52739.1	955.819	-29748.7	0.000000	0.000000	6.803067	-0.100652	NaN	0.000000	0.001584	0.001726	28.079	0.069015	0.002020	34.1744	61.4846	-165.399	-0.087436	0.801275	-0.271371	-0.272696	-0.100652	34.1744	-0.269162	-1617.34	6.223289E-5	NaN
282	1.000000	0.842589	7.36782e+06	-52739.1	955.818	-29748.7	0.000000	0.000000	6.843058	-0.048252	NaN	0.000000	0.001613	0.001773	28.0792	0.067864	0.001931	35.1469	-137.841	-165.838	-0.049769	0.841309	-0.231383	-0.232663	-0.048252	35.1469	-0.230353	-405.596	0.000119	NaN
282	1.000000	0.882654	7.36782e+06	-52739.1	955.818	-29748.7	0.000000	0.000000	6.883123	-0.047368	NaN	0.000000	0.001620	0.001736	28.0794	0.096485	0.002019	47.7774	121.41	-167.228	-0.007406	0.881298	-0.191318	-0.192674	-0.047368	47.7774	-0.190574	-91.9628	0.000515	NaN
282	1.000000	0.922636	7.36782e+06	-52739.1	955.819	-29748.7	0.000000	0.000000	6.923107	-0.002166	NaN	0.000000	0.001585	0.001745	28.0806	0.013154	0.001885	6.979711	29.1583	-166.202	-0.025963	0.921324	-0.151335	-0.152647	-0.002166	6.979711	-0.151103	-18.9706	0.000114	NaN
282	1.000000	0.962673	7.36782e+06	-52739.1	955.817	-29748.7	0.000000	0.000000	6.963142	-0.049489	NaN	0.000000	0.001599	0.001801	28.0809	0.070798	0.002028	34.909	-135.444	-167.784	-0.028609	0.961317	-0.111299	-0.112655	-0.049489	34.909	-0.110236	-3.039749	0.016281	NaN
282	1.000000	1.002697	7.36782e+06	-52739.1	955.818	-29748.7	0.000000	0.000000	7.003164	-0.090700	NaN	0.000000	0.001588	0.001739	28.0808	0.019254	0.001925	10.0026	44.0009	-168.694	-0.051081	1.001325	-0.071275	-0.072647	-0.090700	10.0026	-0.064474	-0.240972	0.376392	NaN
282	1.000000	1.042692	7.36782e+06	-52739.1	955.818	-29748.7	0.000000	0.000000	7.043159	-0.100010	NaN	0.000000	0.001580	0.001729	28.0807	0.060062	0.002116	28.3865	18.64	-167.63	-0.120835	1.041336	-0.031280	-0.032636	-0.100010	28.3865	-0.028637	-0.021103	4.739190	NaN
282	2.000000	1.082111	7.36782e+06	-52739.1	955.817	-29748.7	0.000000	0.000000	7.082936	8.607174	NaN	0.000000	0.001580	0.001744	28.0792	9.451708	0.001706	5538.71	12.3629	-174.667	8.669347	1.081344	0.008140	0.007373	8.607174	5538.71	0.006974	0.006008	1432.57	65284.4
282	2.000000	1.092172	7.36782e+06	-52739.1	955.818	-29748.7	0.000000	0.000000	7.093583	22.8577	NaN	0.000000	0.001577	0.001765	28.0796	19.8224	0.001733	11438	8.475191	178.821	20.9586	1.091920	0.018200	0.017949	22.8577	11438	0.016701	0.017622	1297.14	78723.1
282	2.000000	1.102166	7.36782e+06	-52739.1	955.818	-29748.7	0.000000	0.000000	7.104437	43.7771	NaN	0.000000	0.001608	0.001738	28.0803	29.6059	0.001898	15600.6	4.743192	-178.422	43.1494	1.101912	0.028194	0.027941	43.7771	15600.6	0.026089	0.033027	1325.48	78429.3
282	2.000000	1.112126	7.36782e+06	-52739.1	955.818	-29748.7	0.000000	0.000000	7.115564	72.1448	NaN	0.000000	0.001595	0.001731	28.081	38.2667	0.001891	20231	4.048942	179.7	71.5533	1.111896	0.038155	0.037924	72.1448	20231	0.035480	0.052869	1364.58	80387.3
282	2.000000	1.122179	7.36782e+06	-52739.1	955.818	-29748.7	0.000000	0.000000	7.127016	106.175	NaN	0.000000	0.001653	0.001751	28.0809	48.5464	0.001774	27372.9	7.331962	173.337	108.817	1.121855	0.048207	0.047883	106.175	27372.9	0.045298	0.078435	1353.66	89297.3
282	2.000000	1.132109	7.36782e+06	-52739.1	955.819	-29748.7	0.000000	0.000000	7.139176	160.371	NaN	0.000000	0.001659	0.001776	28.0809	57.8824	0.001951	29674	8.999522	172.44	160.867	1.131793	0.058137	0.057821	160.371	29674	0.054084	0.105453	1520.78	83487
282	2.000000	1.142064	7.36782e+06	-52739.1	955.819	-29748.7	0.000000	0.000000	7.151379	215.021	NaN	0.000000	0.001578	0.001757	28.081	66.1239	0.001713	38612.4	2.356265	176.115	212.631	1.141796	0.068093	0.067825	215.021	38612.4	0.063916	0.140224	1533.41	94208
282	2.000000	1.152082	7.36782e+06	-52739.1	955.818	-29748.7	0.000000	0.000000	7.163903	275.965	NaN	0.000000	0.001601	0.001718	28.0796	76.554	0.001837	41677.7	1.618411	176.042	275.95	1.151803	0.078111	0.077831	275.965	41677.7	0.073145	0.177115	1558.12	90479.5
282	2.000000	1.162118	7.36782e+06	-52739.1	955.818	-29748.7	0.000000	0.000000	7.176629	341.36	NaN	0.000000	0.001651	0.001751	28.0798	86.315	0.001751	49294.8	4.153593	172.232	341.297	1.161673	0.088146	0.087701	341.36	49294.8	0.082953	0.220732	1546.5	95861.1
282	2.000000	1.171994	7.36782e+06	-52739.1	955.818	-29748.7	0.000000	0.000000	7.189646	417.743	NaN	0.000000	0.001623	0.001752	28.0798	96.8511	0.001830	52926.7	6.203620	169.511	413.274	1.171570	0.098022	0.097599	417.743	52926.7	0.092102	0.265444	1573.75	93855.9
282	2.000000	1.180539	7.36782e+06	-52739.1	955.819	-29748.7	0.000000	0.000000	7.201081	488.004	NaN	0.000000	0.001588	0.001746	28.0809	104.451	0.001873	55767.3	7.596184	-11.9138	485.302	1.180147	0.106568	0.106176	488.004	55767.3	0.100005	0.307145	1588.84	91935.1