File: remote_trans/data/nanoindenter/0828-1/data/Data_2025-08-06,11h17m57s/2025-07-22_16-23-58_1_1020.txt
2025-07-22, 16:23:58, 1
Index	Phase	Displacement	Time	Pos X	Pos Y	Pos Z	Rot A	Rot B	Piezo Z	Force A	Force B	Gripper	Voltage A	Voltage B	Temperature	Amplitude force	Amplitude pos	Stiffness	Phase shift	Phase excitation	Force A raw	Displacement raw	HMax	HMax raw	Real Force	Real Stiffness	Contact Depth	Area	Hardness	Reduced Mod.
[#]	[#]	[um]	[s]	[um]	[um]	[um]	[m°]	[m°]	[um]	[uN]	[uN]	[V]	[V]	[V]	[°C]	[uN]	[um]	[N/m]	[°]	[°]	[uN]	[um]	[um]	[um]	[uN]	[N/m]	[um]	[um^2]	[MPa]	[MPa]
1020	1.000000	0.002903	7.37502e+06	-51139.1	1055.82	-29753.2	0.000000	0.000000	6.002820	0.081831	NaN	0.000000	0.001542	0.001645	28.0824	0.053489	0.001016	52.6523	5.483352	-169.821	0.052613	0.001616	-1.178563	-1.179851	0.081831	52.6523	-1.179729	-5.878147E+15	-1.392119E-17	NaN
1020	1.000000	0.046852	7.37502e+06	-51139.1	1055.82	-29753.2	0.000000	0.000000	6.046765	0.010348	NaN	0.000000	0.001557	0.001662	28.0835	0.060393	0.001959	30.8255	52.0778	-167.591	-0.003204	0.045520	-1.134615	-1.135946	0.010348	30.8255	-1.134867	-1.471961E+15	-7.030342E-18	NaN
1020	1.000000	0.090867	7.37503e+06	-51139.1	1055.82	-29753.2	0.000000	0.000000	6.090779	-0.027841	NaN	0.000000	0.001529	0.001633	28.0835	0.066968	0.001963	34.1206	62.5713	-168.851	-0.065324	0.089583	-1.090600	-1.091884	-0.027841	34.1206	-1.089988	-3.678306E+14	7.569031E-17	NaN
1020	1.000000	0.134848	7.37503e+06	-51139.1	1055.82	-29753.2	0.000000	0.000000	6.134761	-0.015946	NaN	0.000000	0.001555	0.001686	28.0832	0.061685	0.002037	30.2785	-78.5315	-165.547	0.035227	0.133569	-1.046618	-1.047897	-0.015946	30.2785	-1.046223	-9.498246E+13	1.678827E-16	NaN
1020	1.000000	0.178883	7.37503e+06	-51139.1	1055.82	-29753.2	0.000000	0.000000	6.178794	-0.060169	NaN	0.000000	0.001498	0.001617	28.0823	0.022452	0.001985	11.3124	-72.5189	-162.945	-0.081270	0.177541	-1.002583	-1.003926	-0.060169	11.3124	-0.998594	-2.171916E+13	2.770313E-15	NaN
1020	1.000000	0.222898	7.37503e+06	-51139.1	1055.82	-29753.2	0.000000	0.000000	6.222806	-0.121326	NaN	0.000000	0.001526	0.001658	28.0827	0.078227	0.002032	38.4896	-51.887	-167.532	-0.090498	0.221529	-0.958569	-0.959938	-0.121326	38.4896	-0.956205	-5.830432E+12	2.080909E-14	NaN
1020	1.000000	0.266940	7.37503e+06	-51139.1	1055.82	-29753.2	0.000000	0.000000	6.266853	-0.006526	NaN	0.000000	0.001558	0.001669	28.0826	0.108112	0.002107	51.3052	132.484	-166.559	0.080777	0.265619	-0.914527	-0.915847	-0.006526	51.3052	-0.914431	-1.592249E+12	4.098814E-15	NaN
1020	1.000000	0.310933	7.37503e+06	-51139.1	1055.82	-29753.2	0.000000	0.000000	6.310843	-0.081601	NaN	0.000000	0.001568	0.001639	28.0839	0.098627	0.002003	49.2389	-121.999	-167.632	-0.112611	0.309580	-0.870533	-0.871886	-0.081601	49.2389	-0.869290	-3.906992E+11	2.088580E-13	NaN
1020	1.000000	0.354958	7.37503e+06	-51139.1	1055.82	-29753.2	0.000000	0.000000	6.354870	-0.028521	NaN	0.000000	0.001516	0.001689	28.0837	0.047920	0.002060	23.2581	34.608	-165.712	0.055394	0.353655	-0.826509	-0.827812	-0.028521	23.2581	-0.825589	-9.999750E+10	2.852124E-13	NaN
1020	1.000000	0.398958	7.37503e+06	-51139.1	1055.82	-29753.2	0.000000	0.000000	6.398871	-0.007892	NaN	0.000000	0.001565	0.001684	28.0838	0.061687	0.001970	31.3205	-126.019	-165.283	-0.019728	0.397699	-0.782509	-0.783768	-0.007892	31.3205	-0.782320	-2.586753E+10	3.051073E-13	NaN
1020	1.000000	0.442984	7.37503e+06	-51139.1	1055.82	-29753.2	0.000000	0.000000	6.442898	0.019486	NaN	0.000000	0.001560	0.001687	28.0827	0.086000	0.001924	44.7068	114.467	-166.332	0.030685	0.441709	-0.738483	-0.739757	0.019486	44.7068	-0.738810	-6.619780E+9	-2.943640E-12	NaN
1020	1.000000	0.487037	7.37503e+06	-51139.1	1055.82	-29753.2	0.000000	0.000000	6.486950	0.008043	NaN	0.000000	0.001530	0.001727	28.0824	0.064574	0.002018	32.0002	162.426	-165.668	0.002500	0.485686	-0.694430	-0.695780	0.008043	32.0002	-0.694618	-1.652047E+9	-4.868618E-12	NaN
1020	1.000000	0.531057	7.37503e+06	-51139.1	1055.82	-29753.2	0.000000	0.000000	6.530970	-0.011209	NaN	0.000000	0.001522	0.001685	28.0825	0.137573	0.001989	69.1535	-83.7537	-168.377	0.083554	0.529730	-0.650410	-0.651737	-0.011209	69.1535	-0.650288	-4.086812E+8	2.742826E-11	NaN
1020	1.000000	0.575080	7.37503e+06	-51139.1	1055.82	-29753.2	0.000000	0.000000	6.574993	-0.001459	NaN	0.000000	0.001522	0.001667	28.0839	0.100432	0.002020	49.7228	95.7044	-166.568	0.092395	0.573771	-0.606387	-0.607696	-0.001459	49.7228	-0.606365	-1.018795E+8	1.431648E-11	NaN
1020	1.000000	0.619053	7.37503e+06	-51139.1	1055.82	-29753.2	0.000000	0.000000	6.618964	-0.044190	NaN	0.000000	0.001580	0.001707	28.0837	0.019738	0.001915	10.3069	134.647	-166.26	-0.028898	0.617725	-0.562414	-0.563742	-0.044190	10.3069	-0.559198	-2.276598E+7	1.941035E-9	NaN
1020	1.000000	0.663096	7.37503e+06	-51139.1	1055.82	-29753.2	0.000000	0.000000	6.663007	-0.055307	NaN	0.000000	0.001543	0.001699	28.0834	0.045989	0.001976	23.2689	174.119	-165.98	-0.034140	0.661775	-0.518371	-0.519691	-0.055307	23.2689	-0.516588	-5.8363e+06	9.476379E-9	NaN
1020	1.000000	0.707133	7.37503e+06	-51139.1	1055.82	-29753.2	0.000000	0.000000	6.707046	0.003965	NaN	0.000000	0.001614	0.001642	28.0821	0.141529	0.001910	74.1096	-97.8602	-168.067	0.025639	0.705755	-0.474334	-0.475712	0.003965	74.1096	-0.474374	-1.50219e+06	-2.639750E-9	NaN
1020	1.000000	0.751138	7.37503e+06	-51139.1	1055.82	-29753.2	0.000000	0.000000	6.751051	-0.012327	NaN	0.000000	0.001608	0.001671	28.0824	0.022846	0.002061	11.085	37.455	-165.099	0.044344	0.749892	-0.430329	-0.431574	-0.012327	11.085	-0.429494	-350679	3.515294E-8	NaN
1020	1.000000	0.795132	7.37503e+06	-51139.1	1055.82	-29753.2	0.000000	0.000000	6.795045	-0.005264	NaN	0.000000	0.001551	0.001657	28.0823	0.102999	0.001957	52.6322	45.6605	-166.825	-0.041808	0.793799	-0.386335	-0.387668	-0.005264	52.6322	-0.386260	-85041.4	6.189702E-8	NaN
1020	1.000000	0.839150	7.37503e+06	-51139.1	1055.82	-29753.2	0.000000	0.000000	6.839061	-0.042780	NaN	0.000000	0.001523	0.001659	28.0836	0.141370	0.001933	73.1403	144.909	-167.728	-0.018537	0.837862	-0.342317	-0.343605	-0.042780	73.1403	-0.341878	-19450	2.199503E-6	NaN
1020	1.000000	0.883200	7.37503e+06	-51139.1	1055.82	-29753.2	0.000000	0.000000	6.883112	-0.021293	NaN	0.000000	0.001563	0.001638	28.0836	0.027111	0.002047	13.2415	13.6032	-164.795	0.041214	0.881838	-0.298267	-0.299629	-0.021293	13.2415	-0.297061	-4254.46	5.004920E-6	NaN
1020	1.000000	0.927183	7.37503e+06	-51139.1	1055.82	-29753.2	0.000000	0.000000	6.927096	0.009517	NaN	0.000000	0.001556	0.001656	28.0836	0.040034	0.002055	19.4805	178.111	-168.934	0.013877	0.925935	-0.254284	-0.255532	0.009517	19.4805	-0.254651	-969.919	-9.812326E-6	NaN
1020	1.000000	0.971210	7.37503e+06	-51139.1	1055.82	-29753.2	0.000000	0.000000	6.971123	-0.008624	NaN	0.000000	0.001573	0.001652	28.0831	0.095650	0.001938	49.3463	17.2568	-167.919	-0.003445	0.969950	-0.210257	-0.211517	-0.008624	49.3463	-0.210126	-192.689	4.475704E-5	NaN
1020	1.000000	1.015232	7.37503e+06	-51139.1	1055.82	-29753.2	0.000000	0.000000	7.015142	-0.078494	NaN	0.000000	0.001549	0.001664	28.0822	0.135146	0.001909	70.778	47.7101	-164.052	-0.108423	1.013941	-0.166234	-0.167526	-0.078494	70.778	-0.165403	-34.1486	0.002299	NaN
1020	1.000000	1.059253	7.37503e+06	-51139.1	1055.82	-29753.2	0.000000	0.000000	7.059165	-0.034785	NaN	0.000000	0.001624	0.001663	28.0826	0.046689	0.002073	22.5244	106.03	-169.003	-0.045446	1.057931	-0.122214	-0.123536	-0.034785	22.5244	-0.121056	-5.073877	0.006856	NaN
1020	1.000000	1.103250	7.37503e+06	-51139.1	1055.82	-29753.2	0.000000	0.000000	7.103165	0.055287	NaN	0.000000	0.001617	0.001683	28.0824	0.066355	0.001972	33.6425	35.3628	-165.552	0.063977	1.101969	-0.078217	-0.079498	0.055287	33.6425	-0.079449	-0.599640	-0.092200	NaN
1020	1.000000	1.147276	7.37503e+06	-51139.1	1055.82	-29753.2	0.000000	0.000000	7.147183	-0.149447	NaN	0.000000	0.001531	0.001690	28.0838	0.048409	0.002057	23.5303	-26.4905	-167.891	-0.138974	1.146009	-0.034191	-0.035458	-0.149447	23.5303	-0.029427	-0.022186	6.736245	NaN
1020	2.000000	1.190721	7.37503e+06	-51139.1	1055.82	-29753.2	0.000000	0.000000	7.190958	7.867125	NaN	0.000000	0.001570	0.001686	28.084	8.024013	0.001719	4668.78	13.2684	-175.663	7.747414	1.189962	0.009255	0.008495	7.867125	4668.78	0.007991	0.007033	1118.59	50863.2
1020	2.000000	1.201807	7.37503e+06	-51139.1	1055.82	-29753.2	0.000000	0.000000	7.202797	26.1875	NaN	0.000000	0.001554	0.001688	28.0841	19.3829	0.001889	10261.2	7.196176	-178.505	25.4162	1.201561	0.020340	0.020094	26.1875	10261.2	0.018426	0.020129	1300.95	66077.5
1020	2.000000	1.212778	7.37503e+06	-51139.1	1055.82	-29753.2	0.000000	0.000000	7.215007	56.3156	NaN	0.000000	0.001570	0.001670	28.0824	29.7274	0.001841	16148.2	6.575872	179.266	55.9735	1.212488	0.031311	0.031021	56.3156	16148.2	0.028696	0.038084	1478.71	75600.8
1020	2.000000	1.223783	7.37503e+06	-51139.1	1055.82	-29753.2	0.000000	0.000000	7.227513	92.8212	NaN	0.000000	0.001532	0.001662	28.0823	39.9622	0.001888	21164.6	2.443455	179.383	91.8534	1.223527	0.042316	0.042060	92.8212	21164.6	0.039027	0.061538	1508.37	77949.6
1020	2.000000	1.234787	7.37503e+06	-51139.1	1055.82	-29753.2	0.000000	0.000000	7.240570	142.739	NaN	0.000000	0.001565	0.001699	28.0825	48.8989	0.001728	28300	5.631387	175.218	143.149	1.234385	0.053320	0.052918	142.739	28300	0.049537	0.090988	1568.77	85716.9
1020	2.000000	1.245672	7.37503e+06	-51139.1	1055.82	-29753.2	0.000000	0.000000	7.253765	198.899	NaN	0.000000	0.001560	0.001696	28.0834	57.9396	0.001694	34206.2	1.710746	176.342	193.098	1.245371	0.064205	0.063905	198.899	34206.2	0.059844	0.125251	1588	88305.4
1020	2.000000	1.256725	7.37503e+06	-51139.1	1055.82	-29753.2	0.000000	0.000000	7.267513	264.434	NaN	0.000000	0.001559	0.001683	28.0835	71.3492	0.001830	38985.5	5.358825	172.494	262.487	1.256394	0.075258	0.074927	264.434	38985.5	0.070171	0.164786	1604.72	87743.9
1020	2.000000	1.267685	7.37503e+06	-51139.1	1055.82	-29753.2	0.000000	0.000000	7.281371	334.892	NaN	0.000000	0.001604	0.001706	28.0836	80.6335	0.001904	42344	4.862635	172.49	332.329	1.267532	0.086219	0.086065	334.892	42344	0.080287	0.208434	1606.71	84738.5
1020	2.000000	1.278727	7.37503e+06	-51139.1	1055.82	-29753.2	0.000000	0.000000	7.296407	432.035	NaN	0.000000	0.001613	0.001670	28.0827	89.08	0.001783	49958.1	3.386967	173.144	431.918	1.278404	0.097260	0.096937	432.035	49958.1	0.090774	0.258713	1669.94	89736.6
1020	2.000000	1.289096	7.37503e+06	-51139.1	1055.82	-29753.2	0.000000	0.000000	7.310463	521.684	NaN	0.000000	0.001558	0.001743	28.0827	99.6719	0.001744	57162.5	6.428140	-11.0978	514.707	1.288725	0.107629	0.107258	521.684	57162.5	0.100784	0.311413	1675.21	93587