File: remote_trans/data/nanoindenter/0828-1/data/Data_2025-08-06,11h17m57s/2025-07-22_16-23-58_1_410.txt
2025-07-22, 16:23:58, 1
Index	Phase	Displacement	Time	Pos X	Pos Y	Pos Z	Rot A	Rot B	Piezo Z	Force A	Force B	Gripper	Voltage A	Voltage B	Temperature	Amplitude force	Amplitude pos	Stiffness	Phase shift	Phase excitation	Force A raw	Displacement raw	HMax	HMax raw	Real Force	Real Stiffness	Contact Depth	Area	Hardness	Reduced Mod.
[#]	[#]	[um]	[s]	[um]	[um]	[um]	[m°]	[m°]	[um]	[uN]	[uN]	[V]	[V]	[V]	[°C]	[uN]	[um]	[N/m]	[°]	[°]	[uN]	[um]	[um]	[um]	[uN]	[N/m]	[um]	[um^2]	[MPa]	[MPa]
410	1.000000	0.002479	7.36907e+06	-56589.1	1005.82	-29738.8	0.000000	0.000000	6.002829	0.027581	NaN	0.000000	0.001700	0.001594	28.0801	0.058850	0.000877	67.1246	-1.140612	-162.149	0.016893	0.001117	-1.050708	-1.052070	0.027581	67.1246	-1.051016	-1.101724E+14	-2.503422E-16	NaN
410	1.000000	0.042371	7.36907e+06	-56589.1	1005.82	-29738.8	0.000000	0.000000	6.042718	-0.013300	NaN	0.000000	0.001620	0.001592	28.0801	0.122006	0.001864	65.4607	-48.3721	-165.817	0.021427	0.041100	-1.010816	-1.012088	-0.013300	65.4607	-1.010664	-3.157314E+13	4.212286E-16	NaN
410	1.000000	0.082405	7.36907e+06	-56589.1	1005.82	-29738.8	0.000000	0.000000	6.082754	0.015232	NaN	0.000000	0.001603	0.001643	28.0802	0.048087	0.002110	22.7903	-56.742	-166.285	0.024015	0.081095	-0.970782	-0.972092	0.015232	22.7903	-0.971283	-9.310181E+12	-1.636023E-15	NaN
410	1.000000	0.122438	7.36907e+06	-56589.1	1005.82	-29738.8	0.000000	0.000000	6.122787	0.019588	NaN	0.000000	0.001576	0.001621	28.0816	0.064776	0.001918	33.7679	106.881	-166.317	0.038220	0.121162	-0.930750	-0.932025	0.019588	33.7679	-0.931185	-2.680309E+12	-7.308005E-15	NaN
410	1.000000	0.162434	7.36907e+06	-56589.1	1005.82	-29738.8	0.000000	0.000000	6.162782	-0.013074	NaN	0.000000	0.001593	0.001596	28.0816	0.105167	0.001865	56.3762	-123.214	-163.788	-0.004638	0.161130	-0.890753	-0.892058	-0.013074	56.3762	-0.890579	-7.581256E+11	1.724482E-14	NaN
410	1.000000	0.202473	7.36907e+06	-56589.1	1005.82	-29738.8	0.000000	0.000000	6.202821	-0.003415	NaN	0.000000	0.001585	0.001574	28.0817	0.050107	0.001997	25.0885	102.662	-164.93	-0.012005	0.201157	-0.850714	-0.852030	-0.003415	25.0885	-0.850612	-2.182857E+11	1.564324E-14	NaN
410	1.000000	0.242462	7.36907e+06	-56589.1	1005.82	-29738.8	0.000000	0.000000	6.242809	-0.011612	NaN	0.000000	0.001531	0.001626	28.0816	0.048554	0.002047	23.7195	-7.153429	-168.281	-0.010097	0.241157	-0.810725	-0.812030	-0.011612	23.7195	-0.810358	-6.214876E+10	1.868409E-13	NaN
410	1.000000	0.282513	7.36907e+06	-56589.1	1005.82	-29738.8	0.000000	0.000000	6.282860	-0.024016	NaN	0.000000	0.001626	0.001577	28.0802	0.159345	0.002051	77.7062	157.802	-167.721	0.045947	0.281187	-0.770675	-0.772000	-0.024016	77.7062	-0.770443	-1.783713E+10	1.346415E-12	NaN
410	1.000000	0.322518	7.36907e+06	-56589.1	1005.82	-29738.8	0.000000	0.000000	6.322867	0.022784	NaN	0.000000	0.001548	0.001584	28.08	0.124884	0.002089	59.7784	125.587	-165.805	0.011916	0.321213	-0.730669	-0.731975	0.022784	59.7784	-0.730955	-5.173989E+9	-4.403492E-12	NaN
410	1.000000	0.362523	7.36907e+06	-56589.1	1005.82	-29738.8	0.000000	0.000000	6.362875	0.088769	NaN	0.000000	0.001552	0.001602	28.0803	0.085058	0.001992	42.6932	-42.6906	-166.1	0.108429	0.361235	-0.690664	-0.691953	0.088769	42.6932	-0.692224	-1.532170E+9	-5.793696E-11	NaN
410	1.000000	0.402544	7.36907e+06	-56589.1	1005.82	-29738.8	0.000000	0.000000	6.402891	-0.026496	NaN	0.000000	0.001597	0.001572	28.0817	0.045800	0.002108	21.7273	-28.8897	-168.81	-0.018303	0.401184	-0.650643	-0.652003	-0.026496	21.7273	-0.649728	-4.015248E+8	6.598963E-11	NaN
410	1.000000	0.442565	7.36907e+06	-56589.1	1005.82	-29738.8	0.000000	0.000000	6.442912	-0.029525	NaN	0.000000	0.001608	0.001583	28.0816	0.085388	0.002033	42.0018	21.5125	-167.19	0.057157	0.441203	-0.610622	-0.611984	-0.029525	42.0018	-0.610095	-1.146618E+8	2.575001E-10	NaN
410	1.000000	0.482596	7.36907e+06	-56589.1	1005.82	-29738.8	0.000000	0.000000	6.482943	-0.025496	NaN	0.000000	0.001626	0.001518	28.0815	0.044731	0.001889	23.6823	-139.513	-166.837	-0.022865	0.481291	-0.570591	-0.571896	-0.025496	23.6823	-0.569784	-3.188908E+7	7.995093E-10	NaN
410	1.000000	0.522594	7.36907e+06	-56589.1	1005.82	-29738.8	0.000000	0.000000	6.522942	-0.016728	NaN	0.000000	0.001624	0.001534	28.0815	0.059100	0.002054	28.7709	157.155	-169.68	0.026986	0.521261	-0.530593	-0.531926	-0.016728	28.7709	-0.530157	-9.01065e+06	1.856469E-9	NaN
410	1.000000	0.562603	7.36907e+06	-56589.1	1005.82	-29738.8	0.000000	0.000000	6.562951	-0.011713	NaN	0.000000	0.001603	0.001562	28.0802	0.092383	0.002043	45.2161	38.5419	-163.69	-0.021593	0.561329	-0.490584	-0.491859	-0.011713	45.2161	-0.490390	-2.51676e+06	4.654117E-9	NaN
410	1.000000	0.602635	7.36907e+06	-56589.1	1005.82	-29738.8	0.000000	0.000000	6.602986	0.054435	NaN	0.000000	0.001593	0.001552	28.08	0.014939	0.002059	7.256877	148.592	-166.259	0.122063	0.601323	-0.450552	-0.451864	0.054435	7.256877	-0.456178	-834225	-6.525167E-8	NaN
410	1.000000	0.642664	7.36907e+06	-56589.1	1005.82	-29738.8	0.000000	0.000000	6.643012	0.006099	NaN	0.000000	0.001649	0.001569	28.0802	0.035836	0.002084	17.1982	-167.426	-166.535	-0.073919	0.641296	-0.410523	-0.411891	0.006099	17.1982	-0.410789	-190381	-3.203781E-8	NaN
410	1.000000	0.682667	7.36907e+06	-56589.1	1005.82	-29738.8	0.000000	0.000000	6.683015	0.005622	NaN	0.000000	0.001612	0.001588	28.0813	0.049277	0.002020	24.4004	14.17	-165.462	0.054631	0.681396	-0.370521	-0.371791	0.005622	24.4004	-0.370693	-50829.2	-1.106121E-7	NaN
410	1.000000	0.722657	7.36907e+06	-56589.1	1005.82	-29738.8	0.000000	0.000000	6.723006	0.010621	NaN	0.000000	0.001596	0.001530	28.0813	0.080931	0.001975	40.9783	173.557	-164.994	0.058113	0.721378	-0.330530	-0.331810	0.010621	40.9783	-0.330724	-13367.6	-7.945583E-7	NaN
410	1.000000	0.762705	7.36907e+06	-56589.1	1005.82	-29738.8	0.000000	0.000000	6.763053	-0.002530	NaN	0.000000	0.001608	0.001536	28.0812	0.062009	0.002072	29.927	152.743	-164.02	0.052436	0.761415	-0.290482	-0.291772	-0.002530	29.927	-0.290419	-3385.11	7.474671E-7	NaN
410	1.000000	0.802717	7.36907e+06	-56589.1	1005.82	-29738.8	0.000000	0.000000	6.803067	0.058312	NaN	0.000000	0.001577	0.001584	28.0804	0.052183	0.002060	25.332	-110.116	-165.517	0.051278	0.801376	-0.250470	-0.251811	0.058312	25.332	-0.252197	-889.012	-6.559205E-5	NaN
410	1.000000	0.842735	7.36907e+06	-56589.1	1005.82	-29738.8	0.000000	0.000000	6.843085	0.050314	NaN	0.000000	0.001625	0.001624	28.0802	0.073337	0.002043	35.8914	-176.649	-166.604	-0.001832	0.841398	-0.210453	-0.211789	0.050314	35.8914	-0.211504	-202.837	-0.000248	NaN
410	1.000000	0.882766	7.36907e+06	-56589.1	1005.82	-29738.8	0.000000	0.000000	6.883115	0.027548	NaN	0.000000	0.001624	0.001579	28.0802	0.068929	0.002054	33.5568	55.1918	-167.747	-0.002905	0.881452	-0.170422	-0.171735	0.027548	33.5568	-0.171037	-42.816	-0.000643	NaN
410	1.000000	0.922726	7.36907e+06	-56589.1	1005.82	-29738.8	0.000000	0.000000	6.923076	0.046466	NaN	0.000000	0.001625	0.001632	28.08	0.080859	0.001985	40.7276	111.085	-164.95	0.036025	0.921472	-0.130461	-0.131715	0.046466	40.7276	-0.131316	-8.082072	-0.005749	NaN
410	1.000000	0.962748	7.36907e+06	-56589.1	1005.82	-29738.8	0.000000	0.000000	6.963096	-0.016294	NaN	0.000000	0.001608	0.001649	28.0815	0.055225	0.001967	28.0786	-1.007261	-165.762	-0.000718	0.961484	-0.090439	-0.091703	-0.016294	28.0786	-0.090004	-1.081195	0.015070	NaN
410	1.000000	1.002775	7.36908e+06	-56589.1	1005.82	-29738.8	0.000000	0.000000	7.003126	0.062888	NaN	0.000000	0.001641	0.001601	28.0817	0.094283	0.002056	45.8573	95.025	-166.595	0.055653	1.001523	-0.050412	-0.051665	0.062888	45.8573	-0.051441	-0.100853	-0.623559	NaN
410	1.000000	1.042813	7.36908e+06	-56589.1	1005.82	-29738.8	0.000000	0.000000	7.043163	0.031223	NaN	0.000000	0.001686	0.001612	28.0814	0.082829	0.001958	42.3126	93.8026	-166.731	0.039669	1.041542	-0.010374	-0.011645	0.031223	42.3126	-0.010927	-0.006917	-4.514060	NaN
410	2.000000	1.068319	7.36908e+06	-56589.1	1005.82	-29738.8	0.000000	0.000000	7.069235	13.81	NaN	0.000000	0.001660	0.001585	28.0799	13.594	0.001738	7820.44	7.818850	-174.891	13.6352	1.067992	0.015131	0.014804	13.81	7820.44	0.013807	0.013727	1006.02	60983.2
410	2.000000	1.078291	7.36908e+06	-56589.1	1005.82	-29738.8	0.000000	0.000000	7.079933	31.4464	NaN	0.000000	0.001686	0.001568	28.08	23.3935	0.001818	12866.7	4.862545	-177.61	30.3889	1.077934	0.025104	0.024747	31.4464	12866.7	0.023271	0.027945	1125.3	70321.7
410	2.000000	1.088262	7.36908e+06	-56589.1	1005.82	-29738.8	0.000000	0.000000	7.090800	53.2152	NaN	0.000000	0.001705	0.001567	28.0799	32.4275	0.001820	17821.7	3.686300	-179.522	51.3486	1.087943	0.035075	0.034756	53.2152	17821.7	0.032835	0.046826	1136.45	75245.4
410	2.000000	1.098198	7.36908e+06	-56589.1	1005.82	-29738.8	0.000000	0.000000	7.102016	84.3215	NaN	0.000000	0.001640	0.001523	28.08	42.242	0.001791	23588.7	3.001523	179.263	82.2299	1.097917	0.045011	0.044730	84.3215	23588.7	0.042330	0.070189	1201.35	81347.1
410	2.000000	1.108294	7.36908e+06	-56589.1	1005.82	-29738.8	0.000000	0.000000	7.113595	120.38	NaN	0.000000	0.001627	0.001557	28.0813	51.5929	0.001823	28294.3	6.668782	173.354	123.355	1.107999	0.055107	0.054811	120.38	28294.3	0.051916	0.098426	1223.05	82398.1
410	2.000000	1.118182	7.36908e+06	-56589.1	1005.82	-29738.8	0.000000	0.000000	7.125090	159.433	NaN	0.000000	0.001648	0.001572	28.0813	60.3387	0.001755	34380.2	3.436353	175.068	158.105	1.117893	0.064995	0.064706	159.433	34380.2	0.061517	0.131304	1214.22	86684.8
410	2.000000	1.128228	7.36908e+06	-56589.1	1005.82	-29738.8	0.000000	0.000000	7.137264	211.171	NaN	0.000000	0.001618	0.001586	28.0814	69.4006	0.001785	38873.3	6.481607	171.189	211.787	1.127820	0.075041	0.074633	211.171	38873.3	0.070966	0.168041	1256.66	86639.7
410	2.000000	1.138196	7.36908e+06	-56589.1	1005.82	-29738.8	0.000000	0.000000	7.149498	266.237	NaN	0.000000	0.001675	0.001633	28.0801	78.1466	0.001750	44643.6	-0.248444	176.735	266.285	1.137924	0.085009	0.084737	266.237	44643.6	0.080536	0.209569	1270.4	89098.1
410	2.000000	1.148177	7.36908e+06	-56589.1	1005.82	-29738.8	0.000000	0.000000	7.161985	327.16	NaN	0.000000	0.001612	0.001554	28.0803	87.3937	0.001710	51115.9	-0.361491	175.942	327.128	1.147990	0.094990	0.094803	327.16	51115.9	0.090190	0.255779	1279.07	92341.5
410	2.000000	1.158103	7.36908e+06	-56589.1	1005.82	-29738.8	0.000000	0.000000	7.174736	395.838	NaN	0.000000	0.001578	0.001597	28.0799	96.4383	0.001795	53720.4	4.846350	170.04	391.801	1.157904	0.104916	0.104717	395.838	53720.4	0.099389	0.303795	1302.98	89047.6
410	2.000000	1.162268	7.36908e+06	-56589.1	1005.82	-29738.8	0.000000	0.000000	7.179768	416.91	NaN	0.000000	0.001606	0.001579	28.0799	100.687	0.001787	56339.6	6.010118	168.241	421.442	1.162012	0.109081	0.108825	416.91	56339.6	0.103531	0.326669	1276.25	90060.2