File: remote_trans/data/nanoindenter/0828-1/data/Data_2025-08-06,11h17m57s/2025-07-22_16-23-58_1_749.txt
2025-07-22, 16:23:58, 1
Index	Phase	Displacement	Time	Pos X	Pos Y	Pos Z	Rot A	Rot B	Piezo Z	Force A	Force B	Gripper	Voltage A	Voltage B	Temperature	Amplitude force	Amplitude pos	Stiffness	Phase shift	Phase excitation	Force A raw	Displacement raw	HMax	HMax raw	Real Force	Real Stiffness	Contact Depth	Area	Hardness	Reduced Mod.
[#]	[#]	[um]	[s]	[um]	[um]	[um]	[m°]	[m°]	[um]	[uN]	[uN]	[V]	[V]	[V]	[°C]	[uN]	[um]	[N/m]	[°]	[°]	[uN]	[um]	[um]	[um]	[uN]	[N/m]	[um]	[um^2]	[MPa]	[MPa]
749	1.000000	0.002522	7.37238e+06	-39639.1	1005.82	-29793.2	0.000000	0.000000	6.002802	-0.029112	NaN	0.000000	0.001659	0.001743	28.0838	0.009893	0.000910	10.8686	130.627	-170.693	-0.057742	0.001303	-1.042897	-1.044116	-0.029112	10.8686	-1.040888	-8.052039E+13	3.615502E-16	NaN
749	1.000000	0.042478	7.37238e+06	-39639.1	1005.82	-29793.2	0.000000	0.000000	6.042758	-0.042598	NaN	0.000000	0.001705	0.001813	28.084	0.038602	0.001996	19.3425	129.761	-164.208	-0.044622	0.041126	-1.002940	-1.004293	-0.042598	19.3425	-1.001289	-2.361121E+13	1.804127E-15	NaN
749	1.000000	0.082472	7.37238e+06	-39639.1	1005.82	-29793.2	0.000000	0.000000	6.082753	-0.009517	NaN	0.000000	0.001726	0.001756	28.0838	0.014221	0.001959	7.260604	-58.5399	-163.93	-0.021849	0.081133	-0.962946	-0.964285	-0.009517	7.260604	-0.961963	-6.971654E+12	1.365155E-15	NaN
749	1.000000	0.122495	7.37238e+06	-39639.1	1005.82	-29793.2	0.000000	0.000000	6.122778	0.037634	NaN	0.000000	0.001656	0.001807	28.0825	0.085181	0.002000	42.592	-38.7404	-164.91	0.052923	0.121222	-0.922923	-0.924197	0.037634	42.592	-0.923586	-2.116519E+12	-1.778089E-14	NaN
749	1.000000	0.162503	7.37238e+06	-39639.1	1005.82	-29793.2	0.000000	0.000000	6.162783	-0.028313	NaN	0.000000	0.001597	0.001774	28.0823	0.043127	0.002055	20.9832	159.21	-161.688	0.003282	0.161225	-0.882915	-0.884193	-0.028313	20.9832	-0.881903	-5.786926E+11	4.892569E-14	NaN
749	1.000000	0.202551	7.37238e+06	-39639.1	1005.82	-29793.2	0.000000	0.000000	6.202831	-0.030019	NaN	0.000000	0.001637	0.001747	28.0823	0.116881	0.001968	59.3819	-119.771	-163.786	0.047962	0.201239	-0.842867	-0.844179	-0.030019	59.3819	-0.842488	-1.694332E+11	1.771703E-13	NaN
749	1.000000	0.242522	7.37238e+06	-39639.1	1005.82	-29793.2	0.000000	0.000000	6.242802	-0.034061	NaN	0.000000	0.001681	0.001723	28.0832	0.090620	0.002038	44.475	-75.7132	-162.135	0.074402	0.241291	-0.802897	-0.804127	-0.034061	44.475	-0.802322	-4.834869E+10	7.044867E-13	NaN
749	1.000000	0.282553	7.37238e+06	-39639.1	1005.82	-29793.2	0.000000	0.000000	6.282831	-0.066172	NaN	0.000000	0.001665	0.001759	28.0833	0.126114	0.001862	67.7128	-71.3391	-164.7	0.001478	0.281230	-0.762866	-0.764189	-0.066172	67.7128	-0.762133	-1.375037E+10	4.812403E-12	NaN
749	1.000000	0.322582	7.37238e+06	-39639.1	1005.82	-29793.2	0.000000	0.000000	6.322860	-0.065912	NaN	0.000000	0.001643	0.001735	28.0833	0.139240	0.001972	70.5971	148.115	-163.165	-0.049746	0.321279	-0.722837	-0.724140	-0.065912	70.5971	-0.722137	-3.922914E+9	1.680175E-11	NaN
749	1.000000	0.362607	7.37238e+06	-39639.1	1005.82	-29793.2	0.000000	0.000000	6.362887	-0.014186	NaN	0.000000	0.001619	0.001685	28.0832	0.049500	0.002046	24.1949	-19.4429	-163.878	-0.097177	0.361288	-0.682812	-0.684130	-0.014186	24.1949	-0.682372	-1.123685E+9	1.262453E-11	NaN
749	1.000000	0.402593	7.37238e+06	-39639.1	1005.82	-29793.2	0.000000	0.000000	6.402872	-0.037132	NaN	0.000000	0.001614	0.001739	28.0821	0.036872	0.002066	17.8513	-58.4258	-165.559	-0.090079	0.401282	-0.642826	-0.644137	-0.037132	17.8513	-0.641266	-3.073664E+8	1.208063E-10	NaN
749	1.000000	0.442624	7.37238e+06	-39639.1	1005.82	-29793.2	0.000000	0.000000	6.442904	-0.011297	NaN	0.000000	0.001626	0.001788	28.0823	0.055696	0.002069	26.9183	-159.596	-164.791	-2.081206E-5	0.441364	-0.602795	-0.604055	-0.011297	26.9183	-0.602480	-9.007648E+7	1.254163E-10	NaN
749	1.000000	0.482643	7.37238e+06	-39639.1	1005.82	-29793.2	0.000000	0.000000	6.482924	-0.021664	NaN	0.000000	0.001585	0.001756	28.0823	0.115733	0.002023	57.2095	-75.747	-166.409	-0.025500	0.481363	-0.562775	-0.564055	-0.021664	57.2095	-0.562491	-2.528320E+7	8.568549E-10	NaN
749	1.000000	0.522676	7.37238e+06	-39639.1	1005.82	-29793.2	0.000000	0.000000	6.522956	-0.006798	NaN	0.000000	0.001560	0.001724	28.0836	0.043630	0.001994	21.8843	-123.202	-164.827	-0.041923	0.521352	-0.522743	-0.524066	-0.006798	21.8843	-0.522510	-7.05503e+06	9.635150E-10	NaN
749	1.000000	0.562685	7.37238e+06	-39639.1	1005.82	-29793.2	0.000000	0.000000	6.562967	0.007707	NaN	0.000000	0.001638	0.001716	28.0835	0.129047	0.002107	61.2367	176.442	-170.193	0.035313	0.561427	-0.482733	-0.483991	0.007707	61.2367	-0.482827	-1.97287e+06	-3.906666E-9	NaN
749	1.000000	0.602687	7.37238e+06	-39639.1	1005.82	-29793.2	0.000000	0.000000	6.602968	0.004651	NaN	0.000000	0.001687	0.001776	28.0836	0.093508	0.002050	45.6216	58.3279	-165.223	0.020657	0.601415	-0.442731	-0.444003	0.004651	45.6216	-0.442808	-540730	-8.601891E-9	NaN
749	1.000000	0.642733	7.37238e+06	-39639.1	1005.82	-29793.2	0.000000	0.000000	6.643012	-0.049067	NaN	0.000000	0.001634	0.001753	28.0823	0.132495	0.001929	68.6703	-69.9222	-163.294	-0.040022	0.641429	-0.402685	-0.403989	-0.049067	68.6703	-0.402150	-143430	3.420951E-7	NaN
749	1.000000	0.682746	7.37238e+06	-39639.1	1005.82	-29793.2	0.000000	0.000000	6.683028	0.022893	NaN	0.000000	0.001652	0.001713	28.0823	0.024815	0.002050	12.1044	-81.4993	-162.919	0.028592	0.681444	-0.362672	-0.363974	0.022893	12.1044	-0.364091	-40825.7	-5.607388E-7	NaN
749	1.000000	0.722772	7.37238e+06	-39639.1	1005.82	-29793.2	0.000000	0.000000	6.723053	-0.000215	NaN	0.000000	0.001681	0.001753	28.0822	0.097930	0.001870	52.3705	-8.796555	-165.682	-0.045611	0.721442	-0.322647	-0.323976	-0.000215	52.3705	-0.322644	-10174.7	2.116162E-8	NaN
749	1.000000	0.762771	7.37238e+06	-39639.1	1005.82	-29793.2	0.000000	0.000000	6.763051	-0.033579	NaN	0.000000	0.001560	0.001731	28.0823	0.078895	0.002116	37.2786	-113.417	-162.953	-0.024281	0.761438	-0.282648	-0.283981	-0.033579	37.2786	-0.281972	-2527.55	1.328523E-5	NaN
749	1.000000	0.802785	7.37238e+06	-39639.1	1005.82	-29793.2	0.000000	0.000000	6.803063	-0.068445	NaN	0.000000	0.001605	0.001769	28.0835	0.065508	0.002038	32.1502	146.138	-163.005	-0.054418	0.801473	-0.242634	-0.243945	-0.068445	32.1502	-0.241037	-596.682	0.000115	NaN
749	1.000000	0.842805	7.37238e+06	-39639.1	1005.82	-29793.2	0.000000	0.000000	6.843084	-0.061391	NaN	0.000000	0.001540	0.001724	28.0834	0.079799	0.002057	38.7901	92.4014	-166.333	-0.009513	0.841500	-0.202613	-0.203918	-0.061391	38.7901	-0.201427	-139.033	0.000442	NaN
749	1.000000	0.882835	7.37238e+06	-39639.1	1005.82	-29793.2	0.000000	0.000000	6.883112	-0.122794	NaN	0.000000	0.001588	0.001715	28.0833	0.109583	0.002003	54.7228	-50.6011	-164.464	-0.033761	0.881529	-0.162583	-0.163889	-0.122794	54.7228	-0.160900	-28.4421	0.004317	NaN
749	1.000000	0.922803	7.37238e+06	-39639.1	1005.82	-29793.2	0.000000	0.000000	6.923086	0.040705	NaN	0.000000	0.001679	0.001727	28.0817	0.059289	0.002145	27.6464	-175.42	-166.52	-0.014231	0.921508	-0.122616	-0.123910	0.040705	27.6464	-0.123720	-5.735872	-0.007097	NaN
749	1.000000	0.962849	7.37239e+06	-39639.1	1005.82	-29793.2	0.000000	0.000000	6.963128	-0.071516	NaN	0.000000	0.001627	0.001722	28.082	0.032052	0.001927	16.6358	170.157	-165.66	-0.074580	0.961499	-0.082569	-0.083919	-0.071516	16.6358	-0.079345	-0.596028	0.119987	NaN
749	1.000000	1.002867	7.37239e+06	-39639.1	1005.82	-29793.2	0.000000	0.000000	7.003147	-0.042102	NaN	0.000000	0.001608	0.001725	28.0821	0.103026	0.001955	52.6947	-126.024	-166.466	-0.074962	1.001563	-0.042551	-0.043855	-0.042102	52.6947	-0.041952	-0.051857	0.811894	NaN
749	1.000000	1.042881	7.37239e+06	-39639.1	1005.82	-29793.2	0.000000	0.000000	7.043163	0.010986	NaN	0.000000	0.001588	0.001767	28.0825	0.019487	0.001952	9.984568	-167.48	-164.809	-0.018630	1.041595	-0.002538	-0.003824	0.010986	9.984568	-0.003363	-0.002362	-4.651475	NaN
749	2.000000	1.061462	7.37239e+06	-39639.1	1005.82	-29793.2	0.000000	0.000000	7.062585	20.4971	NaN	0.000000	0.001571	0.001736	28.0838	16.3342	0.001828	8933.64	7.636243	-176.91	20.6846	1.061141	0.016043	0.015723	20.4971	8933.64	0.014323	0.014393	1424.13	68034.7
749	2.000000	1.071367	7.37239e+06	-39639.1	1005.82	-29793.2	0.000000	0.000000	7.073456	43.9975	NaN	0.000000	0.001549	0.001729	28.0834	25.4951	0.001776	14353.8	5.640202	-178.934	42.389	1.071011	0.025949	0.025593	43.9975	14353.8	0.023650	0.028605	1538.1	77538.9
749	2.000000	1.081329	7.37239e+06	-39639.1	1005.82	-29793.2	0.000000	0.000000	7.084726	75.8212	NaN	0.000000	0.001601	0.001687	28.0835	36.3277	0.001934	18782.7	4.236356	179.64	73.7476	1.081002	0.035911	0.035583	75.8212	18782.7	0.032883	0.046932	1615.55	79213
749	2.000000	1.091332	7.37239e+06	-39639.1	1005.82	-29793.2	0.000000	0.000000	7.096363	115.573	NaN	0.000000	0.001576	0.001770	28.0821	44.9127	0.001723	26070.1	7.344783	174.754	114.61	1.090971	0.045914	0.045552	115.573	26070.1	0.042589	0.070890	1630.31	89458.6
749	2.000000	1.101325	7.37239e+06	-39639.1	1005.82	-29793.2	0.000000	0.000000	7.108047	156.739	NaN	0.000000	0.001576	0.001716	28.0821	54.4196	0.001864	29191.8	3.137507	177.396	155.503	1.101133	0.055906	0.055714	156.739	29191.8	0.051879	0.098311	1594.31	85061.6
749	2.000000	1.111306	7.37239e+06	-39639.1	1005.82	-29793.2	0.000000	0.000000	7.120342	213.03	NaN	0.000000	0.001578	0.001707	28.0822	63.9031	0.001801	35491.1	5.476104	172.817	211.52	1.111080	0.065888	0.065662	213.03	35491.1	0.061386	0.130825	1628.35	89649.2
749	2.000000	1.121275	7.37239e+06	-39639.1	1005.82	-29793.2	0.000000	0.000000	7.132746	272.314	NaN	0.000000	0.001581	0.001745	28.0829	72.5239	0.001779	40765.2	5.511735	172.759	268.576	1.120942	0.075856	0.075524	272.314	40765.2	0.070846	0.167547	1625.31	90990.2
749	2.000000	1.131227	7.37239e+06	-39639.1	1005.82	-29793.2	0.000000	0.000000	7.145650	344.14	NaN	0.000000	0.001674	0.001738	28.0836	81.1873	0.001785	45483	6.608741	170.48	339.739	1.130909	0.085809	0.085490	344.14	45483	0.080134	0.207737	1656.62	91172.9
749	2.000000	1.141198	7.37239e+06	-39639.1	1005.82	-29793.2	0.000000	0.000000	7.158319	409.775	NaN	0.000000	0.001655	0.001703	28.0835	91.0098	0.001800	50573.2	3.493369	172.684	405.783	1.141013	0.095780	0.095594	409.775	50573.2	0.089703	0.253346	1617.45	91798.7
749	2.000000	1.151279	7.37239e+06	-39639.1	1005.82	-29793.2	0.000000	0.000000	7.171480	484.734	NaN	0.000000	0.001577	0.001723	28.083	100.543	0.001735	57958.7	4.207244	171.409	483.191	1.150929	0.105861	0.105510	484.734	57958.7	0.099588	0.304876	1589.94	95902.7
749	2.000000	1.152735	7.37239e+06	-39639.1	1005.82	-29793.2	0.000000	0.000000	7.173564	500.025	NaN	0.000000	0.001625	0.001722	28.0832	101.191	0.001743	58068.2	6.920580	-11.3016	495.384	1.152395	0.107317	0.106977	500.025	58068.2	0.100858	0.311819	1603.57	95007.9