File: remote_trans/data/nanoindenter/0828-1/data/Data_2025-08-06,11h17m57s/2025-07-22_16-23-58_1_108.txt
2025-07-22, 16:23:58, 1
Index	Phase	Displacement	Time	Pos X	Pos Y	Pos Z	Rot A	Rot B	Piezo Z	Force A	Force B	Gripper	Voltage A	Voltage B	Temperature	Amplitude force	Amplitude pos	Stiffness	Phase shift	Phase excitation	Force A raw	Displacement raw	HMax	HMax raw	Real Force	Real Stiffness	Contact Depth	Area	Hardness	Reduced Mod.
[#]	[#]	[um]	[s]	[um]	[um]	[um]	[m°]	[m°]	[um]	[uN]	[uN]	[V]	[V]	[V]	[°C]	[uN]	[um]	[N/m]	[°]	[°]	[uN]	[um]	[um]	[um]	[uN]	[N/m]	[um]	[um^2]	[MPa]	[MPa]
108	1.000000	0.002884	7.3661e+06	-44039.1	955.819	-29777.6	0.000000	0.000000	6.002808	-0.017394	NaN	0.000000	0.001562	0.001623	28.1089	0.084624	0.000897	94.3774	-94.5415	-172.614	-0.039621	0.001630	-0.995453	-0.996707	-0.017394	94.3774	-0.995314	-1.961916E+13	8.866027E-16	NaN
108	1.000000	0.040848	7.3661e+06	-44039.1	955.819	-29777.6	0.000000	0.000000	6.040770	-0.040387	NaN	0.000000	0.001534	0.001669	28.0828	0.078674	0.001990	39.5361	-152.324	13.7011	-0.027309	0.039492	-0.957489	-0.958845	-0.040387	39.5361	-0.956723	-5.925009E+12	6.816400E-15	NaN
108	1.000000	0.078820	7.3661e+06	-44039.1	955.818	-29777.6	0.000000	0.000000	6.078741	-0.089037	NaN	0.000000	0.001537	0.001711	28.0889	0.078640	0.001906	41.2646	-105.172	-165.571	-0.099235	0.077533	-0.919517	-0.920803	-0.089037	41.2646	-0.917898	-1.773496E+12	5.020423E-14	NaN
108	1.000000	0.116870	7.3661e+06	-44039.1	955.819	-29777.6	0.000000	0.000000	6.116791	-0.068423	NaN	0.000000	0.001544	0.001693	28.13	0.124582	0.002056	60.5895	-89.6961	17.4054	-0.116473	0.115499	-0.881467	-0.882838	-0.068423	60.5895	-0.880620	-5.560252E+11	1.230573E-13	NaN
108	1.000000	0.154855	7.3661e+06	-44039.1	955.819	-29777.6	0.000000	0.000000	6.154782	0.050323	NaN	0.000000	0.001560	0.001616	28.1089	0.046988	0.002050	22.9205	171.883	-163.537	0.051600	0.153593	-0.843482	-0.844743	0.050323	22.9205	-0.845128	-1.839754E+11	-2.735301E-13	NaN
108	1.000000	0.192874	7.3661e+06	-44039.1	955.819	-29777.6	0.000000	0.000000	6.192798	-0.013736	NaN	0.000000	0.001623	0.001658	28.0801	0.061675	0.001942	31.7605	148.927	14.1033	-0.025383	0.191521	-0.805462	-0.806816	-0.013736	31.7605	-0.805138	-5.279571E+10	2.601811E-13	NaN
108	1.000000	0.230923	7.3661e+06	-44039.1	955.817	-29777.6	0.000000	0.000000	6.230847	-0.013910	NaN	0.000000	0.001583	0.001675	28.0893	0.099437	0.002108	47.1726	-80.0338	-165.581	0.040796	0.229599	-0.767414	-0.768737	-0.013910	47.1726	-0.767192	-1.611126E+10	8.633678E-13	NaN
108	1.000000	0.268931	7.3661e+06	-44039.1	955.818	-29777.6	0.000000	0.000000	6.268857	0.044604	NaN	0.000000	0.001609	0.001644	28.1274	0.059209	0.002105	28.1289	147.056	17.1364	0.060484	0.267528	-0.729406	-0.730809	0.044604	28.1289	-0.730595	-5.115914E+9	-8.718671E-12	NaN
108	1.000000	0.306923	7.3661e+06	-44039.1	955.818	-29777.6	0.000000	0.000000	6.306846	-0.028487	NaN	0.000000	0.001567	0.001638	28.1079	0.049594	0.001913	25.9296	-32.9528	-168.038	0.051580	0.305622	-0.691414	-0.692715	-0.028487	25.9296	-0.690590	-1.455410E+9	1.957308E-11	NaN
108	1.000000	0.344918	7.3661e+06	-44039.1	955.819	-29777.6	0.000000	0.000000	6.344841	-0.025547	NaN	0.000000	0.001577	0.001676	28.0812	0.061013	0.001971	30.9612	-175.154	13.8991	-0.024277	0.343567	-0.653419	-0.654769	-0.025547	30.9612	-0.652800	-4.424004E+8	5.774631E-11	NaN
108	1.000000	0.382964	7.3661e+06	-44039.1	955.818	-29777.6	0.000000	0.000000	6.382886	-0.046301	NaN	0.000000	0.001595	0.001641	28.0909	0.128779	0.001944	66.2465	-58.829	-166.238	-0.023527	0.381585	-0.615373	-0.616752	-0.046301	66.2465	-0.614849	-1.332933E+8	3.473639E-10	NaN
108	1.000000	0.420935	7.3661e+06	-44039.1	955.818	-29777.6	0.000000	0.000000	6.420858	-0.044947	NaN	0.000000	0.001618	0.001687	28.1284	0.025133	0.001994	12.6035	-100.895	15.4848	-0.060193	0.419613	-0.577402	-0.578723	-0.044947	12.6035	-0.574727	-3.731885E+7	1.204394E-9	NaN
108	1.000000	0.458986	7.3661e+06	-44039.1	955.818	-29777.6	0.000000	0.000000	6.458909	-0.026467	NaN	0.000000	0.001519	0.001604	28.1055	0.039007	0.002045	19.0728	159.376	-164.308	-0.049998	0.457681	-0.539351	-0.540655	-0.026467	19.0728	-0.538310	-1.169293E+7	2.263509E-9	NaN
108	1.000000	0.497021	7.3661e+06	-44039.1	955.819	-29777.6	0.000000	0.000000	6.496948	0.063624	NaN	0.000000	0.001552	0.001646	28.0802	0.097647	0.002031	48.0804	-114.243	13.1139	0.030816	0.495667	-0.501316	-0.502670	0.063624	48.0804	-0.502308	-3.6916e+06	-1.723482E-8	NaN
108	1.000000	0.535031	7.3661e+06	-44039.1	955.817	-29777.6	0.000000	0.000000	6.534957	0.055849	NaN	0.000000	0.001544	0.001657	28.0892	0.116684	0.001921	60.7366	142.626	-170.505	0.044245	0.533730	-0.463306	-0.464607	0.055849	60.7366	-0.463996	-1.07436e+06	-5.198334E-8	NaN
108	1.000000	0.573044	7.3661e+06	-44039.1	955.818	-29777.6	0.000000	0.000000	6.572967	-0.047340	NaN	0.000000	0.001576	0.001656	28.1277	0.069017	0.002059	33.5181	-25.3944	14.0581	-0.033991	0.571690	-0.425293	-0.426647	-0.047340	33.5181	-0.424233	-295407	1.602545E-7	NaN
108	1.000000	0.611034	7.3661e+06	-44039.1	955.818	-29777.6	0.000000	0.000000	6.610955	-0.074650	NaN	0.000000	0.001569	0.001652	28.1056	0.020492	0.002090	9.802995	-59.3285	-163.604	0.029633	0.609716	-0.387303	-0.388621	-0.074650	9.802995	-0.381591	-72899.1	1.024020E-6	NaN
108	1.000000	0.649100	7.3661e+06	-44039.1	955.818	-29777.6	0.000000	0.000000	6.649021	-0.075992	NaN	0.000000	0.001634	0.001664	28.0802	0.079968	0.001991	40.1662	-55.9409	14.9319	-0.083811	0.647747	-0.349237	-0.350590	-0.075992	40.1662	-0.347818	-23731.4	3.202157E-6	NaN
108	1.000000	0.687126	7.3661e+06	-44039.1	955.819	-29777.6	0.000000	0.000000	6.687052	0.043805	NaN	0.000000	0.001655	0.001671	28.0917	0.017076	0.002078	8.219349	-60.3727	-167.09	0.039811	0.685799	-0.311211	-0.312537	0.043805	8.219349	-0.315208	-7907.13	-5.539877E-6	NaN
108	1.000000	0.725125	7.3661e+06	-44039.1	955.818	-29777.6	0.000000	0.000000	6.725049	-0.029761	NaN	0.000000	0.001545	0.001672	28.1277	0.157155	0.002018	77.8668	-130.619	16.0394	-0.073446	0.723744	-0.273211	-0.274592	-0.029761	77.8668	-0.272925	-1844.81	1.613215E-5	NaN
108	1.000000	0.763113	7.3661e+06	-44039.1	955.817	-29777.6	0.000000	0.000000	6.763036	-0.036008	NaN	0.000000	0.001569	0.001630	28.1044	0.062998	0.001971	31.9669	-26.3102	-167.847	-0.042918	0.761784	-0.235224	-0.236553	-0.036008	31.9669	-0.234379	-469.343	7.671994E-5	NaN
108	1.000000	0.801180	7.3661e+06	-44039.1	955.818	-29777.6	0.000000	0.000000	6.801102	-0.047108	NaN	0.000000	0.001508	0.001636	28.0795	0.040806	0.002035	20.0492	-84.0419	14.121	0.008876	0.799776	-0.197157	-0.198561	-0.047108	20.0492	-0.195395	-110.597	0.000426	NaN
108	1.000000	0.839122	7.3661e+06	-44039.1	955.818	-29777.6	0.000000	0.000000	6.839045	-0.028951	NaN	0.000000	0.001624	0.001634	28.0917	0.159689	0.002177	73.3636	-37.3885	-165.132	0.001296	0.837840	-0.159215	-0.160496	-0.028951	73.3636	-0.158919	-26.2274	0.001104	NaN
108	1.000000	0.877170	7.3661e+06	-44039.1	955.818	-29777.6	0.000000	0.000000	6.877095	0.013952	NaN	0.000000	0.001599	0.001642	28.1296	0.083934	0.002020	41.5468	-129.773	14.0966	-0.038827	0.875808	-0.121167	-0.122529	0.013952	41.5468	-0.121419	-5.159887	-0.002704	NaN
108	1.000000	0.915202	7.3661e+06	-44039.1	955.818	-29777.6	0.000000	0.000000	6.915126	-0.004099	NaN	0.000000	0.001612	0.001635	28.1052	0.084134	0.002190	38.4138	29.5996	-166.932	-0.003202	0.913869	-0.083135	-0.084468	-0.004099	38.4138	-0.083055	-0.736728	0.005564	NaN
108	1.000000	0.953208	7.3661e+06	-44039.1	955.818	-29777.6	0.000000	0.000000	6.953131	-0.043130	NaN	0.000000	0.001552	0.001619	28.0804	0.102305	0.002014	50.7984	66.9977	14.4075	-0.040586	0.951775	-0.045128	-0.046562	-0.043130	50.7984	-0.044492	-0.062008	0.695549	NaN
108	1.000000	0.991211	7.3661e+06	-44039.1	955.819	-29777.6	0.000000	0.000000	6.991132	-0.086402	NaN	0.000000	0.001520	0.001636	28.0908	0.090912	0.002061	44.1075	-34.5692	-166.126	-0.043868	0.989961	-0.007125	-0.008376	-0.086402	44.1075	-0.005656	-0.003825	22.5875	NaN
108	2.000000	1.014236	7.3661e+06	-44039.1	955.82	-29777.6	0.000000	0.000000	7.014766	14.7297	NaN	0.000000	0.001539	0.001613	28.1298	14.6473	0.001815	8069.79	8.657474	2.718517	14.169	1.013995	0.015899	0.015658	14.7297	8069.79	0.014530	0.014664	1004.49	60885.1
108	2.000000	1.023690	7.3661e+06	-44039.1	955.818	-29777.6	0.000000	0.000000	7.025051	34.9449	NaN	0.000000	0.001555	0.001607	28.1017	23.7291	0.001768	13421.3	6.298956	-178.855	34.6886	1.023361	0.025353	0.025024	34.9449	13421.3	0.023400	0.028170	1240.51	73059.1
108	2.000000	1.033163	7.3661e+06	-44039.1	955.82	-29777.6	0.000000	0.000000	7.035714	63.8934	NaN	0.000000	0.001575	0.001606	28.0802	32.7387	0.001880	17412.4	5.453809	-0.743559	62.359	1.032769	0.034826	0.034432	63.8934	17412.4	0.032074	0.045153	1415.04	74866.5
108	2.000000	1.042616	7.3661e+06	-44039.1	955.819	-29777.6	0.000000	0.000000	7.046445	95.003	NaN	0.000000	0.001577	0.001650	28.0926	42.0038	0.001937	21680.3	6.559805	175.96	93.4093	1.042323	0.044279	0.043986	95.003	21680.3	0.040992	0.066618	1426.08	76743.5
108	2.000000	1.052156	7.3661e+06	-44039.1	955.82	-29777.6	0.000000	0.000000	7.057394	129.267	NaN	0.000000	0.001541	0.001650	28.1305	50.3889	0.001912	26360.3	4.122604	-3.049882	130.128	1.051692	0.053819	0.053356	129.267	26360.3	0.050141	0.092850	1392.21	79037.3
108	2.000000	1.061601	7.3661e+06	-44039.1	955.82	-29777.6	0.000000	0.000000	7.068420	167.738	NaN	0.000000	0.001539	0.001594	28.1021	59.298	0.001890	31371.6	7.721971	170.909	165.909	1.061424	0.063264	0.063087	167.738	31371.6	0.059254	0.123147	1362.09	81676.4
108	2.000000	1.071070	7.3661e+06	-44039.1	955.82	-29777.6	0.000000	0.000000	7.079880	216.17	NaN	0.000000	0.001530	0.001647	28.0797	67.5786	0.001837	36794.8	7.953728	-10.0703	211.416	1.070680	0.072733	0.072344	216.17	36794.8	0.068327	0.157348	1373.84	84748
108	2.000000	1.080616	7.3661e+06	-44039.1	955.82	-29777.6	0.000000	0.000000	7.091465	265.789	NaN	0.000000	0.001551	0.001648	28.091	76.1421	0.001805	42191.7	5.491192	171.412	265.611	1.080239	0.082279	0.081902	265.789	42191.7	0.077554	0.196169	1354.9	87033.1
108	2.000000	1.090071	7.3661e+06	-44039.1	955.821	-29777.6	0.000000	0.000000	7.103349	324.873	NaN	0.000000	0.001573	0.001644	28.1298	84.2532	0.001964	42904.1	5.162556	-7.605166	322.824	1.089664	0.091734	0.091328	324.873	42904.1	0.086055	0.235461	1379.73	80781.6
108	2.000000	1.099516	7.3661e+06	-44039.1	955.82	-29777.6	0.000000	0.000000	7.115327	386.52	NaN	0.000000	0.001583	0.001648	28.0999	92.4868	0.001863	49647.7	3.159332	172.454	382.726	1.099260	0.101179	0.100923	386.52	49647.7	0.095340	0.282183	1369.75	85389.9
108	2.000000	1.107453	7.3661e+06	-44039.1	955.821	-29777.6	0.000000	0.000000	7.125703	445.859	NaN	0.000000	0.001595	0.001661	28.1021	102.515	0.001756	58391.1	7.015655	167.321	439.789	1.107049	0.109116	0.108712	445.859	58391.1	0.103389	0.325873	1368.2	93453.6