File: remote_trans/data/nanoindenter/0828-1/data/Data_2025-08-06,11h17m57s/2025-07-22_16-23-58_1_1016.txt
2025-07-22, 16:23:58, 1
Index	Phase	Displacement	Time	Pos X	Pos Y	Pos Z	Rot A	Rot B	Piezo Z	Force A	Force B	Gripper	Voltage A	Voltage B	Temperature	Amplitude force	Amplitude pos	Stiffness	Phase shift	Phase excitation	Force A raw	Displacement raw	HMax	HMax raw	Real Force	Real Stiffness	Contact Depth	Area	Hardness	Reduced Mod.
[#]	[#]	[um]	[s]	[um]	[um]	[um]	[m°]	[m°]	[um]	[uN]	[uN]	[V]	[V]	[V]	[°C]	[uN]	[um]	[N/m]	[°]	[°]	[uN]	[um]	[um]	[um]	[uN]	[N/m]	[um]	[um^2]	[MPa]	[MPa]
1016	1.000000	0.001926	7.37499e+06	-50939.1	1055.82	-29753.9	0.000000	0.000000	6.002766	0.025723	NaN	0.000000	0.001573	0.001696	28.084	0.030345	0.000873	34.7572	136.311	-166.808	0.064061	0.000707	-1.125220	-1.126439	0.025723	34.7572	-1.125775	-1.111585E+15	-2.314057E-17	NaN
1016	1.000000	0.043894	7.37499e+06	-50939.1	1055.82	-29753.9	0.000000	0.000000	6.044733	-0.004019	NaN	0.000000	0.001567	0.001671	28.0829	0.048745	0.001854	26.2934	163.636	16.2147	0.022516	0.042516	-1.083251	-1.084629	-0.004019	26.2934	-1.083136	-2.976038E+14	1.350530E-17	NaN
1016	1.000000	0.085928	7.37499e+06	-50939.1	1055.82	-29753.9	0.000000	0.000000	6.086767	0.017963	NaN	0.000000	0.001612	0.001659	28.083	0.122632	0.001946	63.0129	174.404	-167.361	0.011303	0.084613	-1.041217	-1.042532	0.017963	63.0129	-1.041431	-8.188615E+13	-2.193606E-16	NaN
1016	1.000000	0.127925	7.37499e+06	-50939.1	1055.82	-29753.9	0.000000	0.000000	6.128762	-0.041293	NaN	0.000000	0.001596	0.001627	28.0832	0.041376	0.001922	21.5221	72.0444	11.8533	-0.024914	0.126521	-0.999220	-1.000624	-0.041293	21.5221	-0.997782	-2.117871E+13	1.949735E-15	NaN
1016	1.000000	0.169958	7.37499e+06	-50939.1	1055.82	-29753.9	0.000000	0.000000	6.170795	-0.059036	NaN	0.000000	0.001615	0.001627	28.0842	0.122035	0.001944	62.7745	-54.2137	-165.961	0.026897	0.168629	-0.957187	-0.958516	-0.059036	62.7745	-0.956481	-5.880714E+12	1.003885E-14	NaN
1016	1.000000	0.211990	7.37499e+06	-50939.1	1055.82	-29753.9	0.000000	0.000000	6.212826	-0.051881	NaN	0.000000	0.001582	0.001674	28.0844	0.034634	0.001880	18.4219	-40.8405	14.5072	-0.051627	0.210580	-0.915155	-0.916565	-0.051881	18.4219	-0.913043	-1.524982E+12	3.402084E-14	NaN
1016	1.000000	0.253991	7.37499e+06	-50939.1	1055.82	-29753.9	0.000000	0.000000	6.254830	0.010351	NaN	0.000000	0.001607	0.001671	28.0842	0.156198	0.002016	77.4952	159.491	-166.954	0.047253	0.252698	-0.873154	-0.874447	0.010351	77.4952	-0.873255	-4.420531E+11	-2.341659E-14	NaN
1016	1.000000	0.295998	7.37499e+06	-50939.1	1055.82	-29753.9	0.000000	0.000000	6.296835	-0.025778	NaN	0.000000	0.001593	0.001657	28.083	0.119203	0.001976	60.3209	-26.5637	15.0367	-0.014964	0.294666	-0.831148	-0.832479	-0.025778	60.3209	-0.830827	-1.177593E+11	2.189025E-13	NaN
1016	1.000000	0.338032	7.37499e+06	-50939.1	1055.82	-29753.9	0.000000	0.000000	6.338870	-0.027410	NaN	0.000000	0.001578	0.001651	28.0831	0.048673	0.002026	24.0234	59.6256	-164.998	-0.033948	0.336704	-0.789113	-0.790442	-0.027410	24.0234	-0.788258	-3.114712E+10	8.800141E-13	NaN
1016	1.000000	0.380046	7.37499e+06	-50939.1	1055.82	-29753.9	0.000000	0.000000	6.380882	-0.049525	NaN	0.000000	0.001578	0.001673	28.0832	0.076014	0.001948	39.0192	-69.172	12.9245	-0.018026	0.378695	-0.747100	-0.748450	-0.049525	39.0192	-0.746148	-8.332486E+9	5.943594E-12	NaN
1016	1.000000	0.422049	7.37499e+06	-50939.1	1055.82	-29753.9	0.000000	0.000000	6.422886	-0.036631	NaN	0.000000	0.001577	0.001673	28.0843	0.114594	0.002102	54.5139	66.676	-165.92	-0.003045	0.420749	-0.705096	-0.706396	-0.036631	54.5139	-0.704592	-2.260669E+9	1.620360E-11	NaN
1016	1.000000	0.464099	7.37499e+06	-50939.1	1055.82	-29753.9	0.000000	0.000000	6.464942	0.107257	NaN	0.000000	0.001581	0.001670	28.0844	0.014737	0.001896	7.772999	-62.0988	17.3857	0.119790	0.462734	-0.663046	-0.664411	0.107257	7.772999	-0.673395	-8.469448E+8	-1.266401E-10	NaN
1016	1.000000	0.506105	7.37499e+06	-50939.1	1055.82	-29753.9	0.000000	0.000000	6.506940	-0.097247	NaN	0.000000	0.001544	0.001667	28.0843	0.047702	0.002009	23.7431	89.5852	-166.169	-0.076730	0.504819	-0.621040	-0.622326	-0.097247	23.7431	-0.617968	-1.471313E+8	6.609557E-10	NaN
1016	1.000000	0.548120	7.37499e+06	-50939.1	1055.82	-29753.9	0.000000	0.000000	6.548958	-0.033461	NaN	0.000000	0.001542	0.001697	28.084	0.097804	0.001945	50.2791	-142.909	17.0075	0.002638	0.546749	-0.579025	-0.580397	-0.033461	50.2791	-0.578526	-4.210904E+7	7.946326E-10	NaN
1016	1.000000	0.590152	7.37499e+06	-50939.1	1055.82	-29753.9	0.000000	0.000000	6.590990	-0.021645	NaN	0.000000	0.001545	0.001653	28.0829	0.098770	0.001930	51.1806	-55.3191	-167.811	0.031338	0.588840	-0.536993	-0.538305	-0.021645	51.1806	-0.536676	-1.109812E+7	1.950371E-9	NaN
1016	1.000000	0.632190	7.37499e+06	-50939.1	1055.82	-29753.9	0.000000	0.000000	6.633033	0.087411	NaN	0.000000	0.001588	0.001676	28.083	0.062968	0.001967	32.0204	-142.328	16.0323	0.152347	0.630771	-0.494955	-0.496374	0.087411	32.0204	-0.497002	-3.11305e+06	-2.807888E-8	NaN
1016	1.000000	0.674172	7.37499e+06	-50939.1	1055.82	-29753.9	0.000000	0.000000	6.675012	0.037202	NaN	0.000000	0.001572	0.001629	28.0832	0.128479	0.001895	67.8146	157.728	-166.275	0.029705	0.672860	-0.452973	-0.454285	0.037202	67.8146	-0.453385	-762059	-4.881814E-8	NaN
1016	1.000000	0.716217	7.37499e+06	-50939.1	1055.82	-29753.9	0.000000	0.000000	6.717052	-0.079469	NaN	0.000000	0.001572	0.001681	28.0843	0.022376	0.002037	10.9848	125.273	14.4522	-0.072200	0.714858	-0.410928	-0.412288	-0.079469	10.9848	-0.405502	-160104	4.963570E-7	NaN
1016	1.000000	0.758222	7.37499e+06	-50939.1	1055.82	-29753.9	0.000000	0.000000	6.759059	-0.051569	NaN	0.000000	0.001551	0.001691	28.0845	0.038665	0.002048	18.8836	149.93	-166.231	0.047343	0.756890	-0.368923	-0.370255	-0.051569	18.8836	-0.366875	-44781.6	1.151565E-6	NaN
1016	1.000000	0.800206	7.37499e+06	-50939.1	1055.82	-29753.9	0.000000	0.000000	6.801048	0.064602	NaN	0.000000	0.001570	0.001694	28.0845	0.066452	0.001810	36.7134	105.886	12.1745	0.032614	0.798833	-0.326939	-0.328312	0.064602	36.7134	-0.328258	-12300.9	-5.251798E-6	NaN
1016	1.000000	0.842254	7.37499e+06	-50939.1	1055.82	-29753.9	0.000000	0.000000	6.843088	-0.119642	NaN	0.000000	0.001492	0.001635	28.0832	0.016561	0.001901	8.710324	-104.559	-165.447	-0.081139	0.840933	-0.284891	-0.286212	-0.119642	8.710324	-0.274589	-1955.16	6.119288E-5	NaN
1016	1.000000	0.884256	7.37499e+06	-50939.1	1055.82	-29753.9	0.000000	0.000000	6.885095	0.002104	NaN	0.000000	0.001556	0.001652	28.0829	0.053023	0.002011	26.3643	-133.676	18.0485	0.003589	0.882945	-0.242889	-0.244200	0.002104	26.3643	-0.242949	-639.068	-3.292602E-6	NaN
1016	1.000000	0.926282	7.37499e+06	-50939.1	1055.82	-29753.9	0.000000	0.000000	6.927117	-0.082878	NaN	0.000000	0.001569	0.001672	28.0833	0.011497	0.002160	5.322242	-35.6348	-167.303	-0.111952	0.924951	-0.200863	-0.202195	-0.082878	5.322242	-0.189184	-87.1753	0.000951	NaN
1016	1.000000	0.968289	7.37499e+06	-50939.1	1055.82	-29753.9	0.000000	0.000000	6.969125	-0.074607	NaN	0.000000	0.001573	0.001672	28.0842	0.136665	0.002072	65.9703	77.7963	12.2163	0.041583	0.966965	-0.158856	-0.160180	-0.074607	65.9703	-0.158008	-25.2639	0.002953	NaN
1016	1.000000	1.010319	7.37499e+06	-50939.1	1055.82	-29753.9	0.000000	0.000000	7.011157	-0.021481	NaN	0.000000	0.001546	0.001672	28.084	0.084685	0.002081	40.6858	23.6999	-167.227	0.035216	1.008994	-0.116826	-0.118151	-0.021481	40.6858	-0.116431	-4.087924	0.005255	NaN
1016	1.000000	1.052283	7.37499e+06	-50939.1	1055.82	-29753.9	0.000000	0.000000	7.053120	-0.025536	NaN	0.000000	0.001545	0.001691	28.084	0.061707	0.001970	31.3195	-152.062	15.5611	-0.056455	1.050919	-0.074863	-0.076226	-0.025536	31.3195	-0.074251	-0.441669	0.057818	NaN
1016	1.000000	1.094337	7.37499e+06	-50939.1	1055.82	-29753.9	0.000000	0.000000	7.095174	-0.034497	NaN	0.000000	0.001563	0.001677	28.0842	0.059409	0.001993	29.816	-153.428	-163.016	0.028403	1.092997	-0.032808	-0.034148	-0.034497	29.816	-0.031940	-0.026104	1.321508	NaN
1016	2.000000	1.134436	7.37499e+06	-50939.1	1055.82	-29753.9	0.000000	0.000000	7.135631	8.656814	NaN	0.000000	0.001575	0.001731	28.0831	9.297863	0.001593	5835.05	8.194294	4.630742	8.296993	1.134149	0.007291	0.007004	8.656814	5835.05	0.006178	0.005235	1653.76	73684.2
1016	2.000000	1.144873	7.37499e+06	-50939.1	1055.82	-29753.9	0.000000	0.000000	7.146747	25.1749	NaN	0.000000	0.001622	0.001774	28.0838	20.7421	0.001908	10873.3	6.428551	-176.409	24.7201	1.144573	0.017728	0.017427	25.1749	10873.3	0.015991	0.016630	1513.81	77034.4
1016	2.000000	1.155320	7.37499e+06	-50939.1	1055.82	-29753.9	0.000000	0.000000	7.158269	51.3004	NaN	0.000000	0.001632	0.001775	28.0835	31.1509	0.001793	17368.9	2.682758	1.209743	49.3544	1.155115	0.028175	0.027970	51.3004	17368.9	0.025960	0.032785	1564.74	87640.7
1016	2.000000	1.165777	7.37499e+06	-50939.1	1055.82	-29753.9	0.000000	0.000000	7.170076	84.1424	NaN	0.000000	0.001642	0.001708	28.0845	40.2859	0.001802	22359.5	2.350034	-179.865	81.1584	1.165553	0.038632	0.038408	84.1424	22359.5	0.035809	0.053647	1568.45	88198.8
1016	2.000000	1.176271	7.37499e+06	-50939.1	1055.82	-29753.9	0.000000	0.000000	7.181999	118.883	NaN	0.000000	0.001532	0.001732	28.0845	49.8681	0.001870	26662.6	2.967931	-1.925684	115.565	1.175976	0.049126	0.048831	118.883	26662.6	0.045782	0.079822	1489.36	86221.5
1016	2.000000	1.186775	7.37499e+06	-50939.1	1055.82	-29753.9	0.000000	0.000000	7.194500	167.468	NaN	0.000000	0.001584	0.001741	28.0847	59.85	0.001724	34716.9	2.982779	176.355	164.903	1.186430	0.059629	0.059285	167.468	34716.9	0.056012	0.111896	1496.64	94821.6
1016	2.000000	1.197334	7.37499e+06	-50939.1	1055.82	-29753.9	0.000000	0.000000	7.207440	225.337	NaN	0.000000	0.001583	0.001729	28.0833	70.9916	0.001838	38619.4	5.379246	-6.302135	228.713	1.196871	0.070189	0.069726	225.337	38619.4	0.065813	0.147474	1527.98	91879.9
1016	2.000000	1.207726	7.37499e+06	-50939.1	1055.82	-29753.9	0.000000	0.000000	7.220505	290.349	NaN	0.000000	0.001569	0.001742	28.0833	79.3021	0.001865	42521.9	3.543427	173.768	285.215	1.207318	0.080581	0.080173	290.349	42521.9	0.075460	0.187005	1552.62	89837.7
1016	2.000000	1.218216	7.37499e+06	-50939.1	1055.82	-29753.9	0.000000	0.000000	7.233731	356.897	NaN	0.000000	0.001585	0.001744	28.0836	89.0875	0.001699	52423.4	4.837204	-9.085847	352.247	1.217846	0.091071	0.090701	356.897	52423.4	0.085965	0.235026	1518.54	98796.3
1016	2.000000	1.228610	7.37499e+06	-50939.1	1055.82	-29753.9	0.000000	0.000000	7.247668	443.041	NaN	0.000000	0.001585	0.001738	28.0848	99.3752	0.001775	55976.8	2.767356	172.531	435.92	1.228245	0.101465	0.101100	443.041	55976.8	0.095529	0.283174	1564.55	96106.9
1016	2.000000	1.232125	7.37499e+06	-50939.1	1055.82	-29753.9	0.000000	0.000000	7.252401	472.652	NaN	0.000000	0.001585	0.001726	28.0846	104.322	0.001715	60841.4	9.762305	-15.0177	465.229	1.231797	0.104980	0.104652	472.652	60841.4	0.099153	0.302515	1562.41	101065