File: remote_trans/data/nanoindenter/0828-1/data/Data_2025-08-06,11h17m57s/2025-07-22_16-23-58_1_589.txt
2025-07-22, 16:23:58, 1
Index	Phase	Displacement	Time	Pos X	Pos Y	Pos Z	Rot A	Rot B	Piezo Z	Force A	Force B	Gripper	Voltage A	Voltage B	Temperature	Amplitude force	Amplitude pos	Stiffness	Phase shift	Phase excitation	Force A raw	Displacement raw	HMax	HMax raw	Real Force	Real Stiffness	Contact Depth	Area	Hardness	Reduced Mod.
[#]	[#]	[um]	[s]	[um]	[um]	[um]	[m°]	[m°]	[um]	[uN]	[uN]	[V]	[V]	[V]	[°C]	[uN]	[um]	[N/m]	[°]	[°]	[uN]	[um]	[um]	[um]	[uN]	[N/m]	[um]	[um^2]	[MPa]	[MPa]
589	1.000000	0.002526	7.37081e+06	-47639.1	1005.82	-29765.2	0.000000	0.000000	6.002820	0.037773	NaN	0.000000	0.001538	0.001756	28.0811	0.058940	0.000960	61.368	93.3206	-158.79	0.073100	0.001230	-1.079509	-1.080805	0.037773	61.368	-1.079971	-2.698550E+14	-1.399747E-16	NaN
589	1.000000	0.042465	7.37081e+06	-47639.1	1005.82	-29765.2	0.000000	0.000000	6.042755	-0.056621	NaN	0.000000	0.001628	0.001778	28.0811	0.024942	0.002008	12.4211	18.0423	-166.394	-0.058360	0.041130	-1.039571	-1.040905	-0.056621	12.4211	-1.036152	-6.953778E+13	8.142527E-16	NaN
589	1.000000	0.082461	7.37081e+06	-47639.1	1005.82	-29765.2	0.000000	0.000000	6.082755	0.030856	NaN	0.000000	0.001647	0.001719	28.0812	0.125831	0.002039	61.7105	-107.066	-164.141	0.020552	0.081122	-0.999575	-1.000913	0.030856	61.7105	-0.999950	-2.265138E+13	-1.362228E-15	NaN
589	1.000000	0.122455	7.37081e+06	-47639.1	1005.82	-29765.2	0.000000	0.000000	6.122746	-0.036329	NaN	0.000000	0.001575	0.001746	28.0808	0.122009	0.002060	59.2283	163.78	-163.088	0.046808	0.121212	-0.959581	-0.960824	-0.036329	59.2283	-0.959121	-6.382830E+12	5.691704E-15	NaN
589	1.000000	0.162506	7.37081e+06	-47639.1	1005.82	-29765.2	0.000000	0.000000	6.162800	0.024599	NaN	0.000000	0.001575	0.001743	28.0798	0.002306	0.002003	1.151197	60.0091	-164.794	0.062724	0.161210	-0.919530	-0.920826	0.024599	1.151197	-0.935556	-3.070251E+12	-8.012082E-15	NaN
589	1.000000	0.202514	7.37081e+06	-47639.1	1005.82	-29765.2	0.000000	0.000000	6.202808	0.043273	NaN	0.000000	0.001578	0.001769	28.0801	0.047886	0.002008	23.8475	18.7106	-166.524	0.045297	0.201178	-0.879522	-0.880857	0.043273	23.8475	-0.880883	-5.605875E+11	-7.719139E-14	NaN
589	1.000000	0.242525	7.37081e+06	-47639.1	1005.82	-29765.2	0.000000	0.000000	6.242822	0.107930	NaN	0.000000	0.001596	0.001749	28.08	0.032352	0.001833	17.6545	81.903	-162.243	0.043333	0.241198	-0.839511	-0.840838	0.107930	17.6545	-0.844096	-1.781477E+11	-6.058456E-13	NaN
589	1.000000	0.282550	7.37081e+06	-47639.1	1005.82	-29765.2	0.000000	0.000000	6.282841	-0.037971	NaN	0.000000	0.001567	0.001772	28.0809	0.141020	0.002089	67.5044	91.5875	-164.706	0.068588	0.281264	-0.799486	-0.800772	-0.037971	67.5044	-0.799064	-4.366712E+10	8.695585E-13	NaN
589	1.000000	0.322623	7.37081e+06	-47639.1	1005.82	-29765.2	0.000000	0.000000	6.322918	0.045010	NaN	0.000000	0.001616	0.001778	28.0808	0.011576	0.002013	5.751744	1.301246	-166.428	0.034907	0.321254	-0.759412	-0.760781	0.045010	5.751744	-0.765282	-1.517553E+10	-2.965990E-12	NaN
589	1.000000	0.362568	7.37081e+06	-47639.1	1005.82	-29765.2	0.000000	0.000000	6.362862	0.019313	NaN	0.000000	0.001598	0.001747	28.081	0.084358	0.001940	43.4889	-73.9468	-168.168	-0.011469	0.361298	-0.719467	-0.720738	0.019313	43.4889	-0.719800	-3.645459E+9	-5.297864E-12	NaN
589	1.000000	0.402581	7.37081e+06	-47639.1	1005.82	-29765.2	0.000000	0.000000	6.402870	-0.070085	NaN	0.000000	0.001610	0.001738	28.0797	0.064503	0.002064	31.249	41.4876	-162.866	-0.104853	0.401346	-0.679455	-0.680690	-0.070085	31.249	-0.677773	-9.721831E+8	7.209066E-11	NaN
589	1.000000	0.442600	7.37081e+06	-47639.1	1005.82	-29765.2	0.000000	0.000000	6.442894	0.039587	NaN	0.000000	0.001607	0.001801	28.0798	0.057553	0.001929	29.8415	-101.29	-167.193	0.011050	0.441303	-0.639436	-0.640733	0.039587	29.8415	-0.640431	-2.993674E+8	-1.322352E-10	NaN
589	1.000000	0.482632	7.37081e+06	-47639.1	1005.82	-29765.2	0.000000	0.000000	6.482923	-0.046479	NaN	0.000000	0.001587	0.001756	28.0796	0.047313	0.002030	23.3105	-91.768	-168.005	-0.098277	0.481360	-0.599403	-0.600676	-0.046479	23.3105	-0.597908	-7.791940E+7	5.965021E-10	NaN
589	1.000000	0.522659	7.37081e+06	-47639.1	1005.82	-29765.2	0.000000	0.000000	6.522953	0.024824	NaN	0.000000	0.001586	0.001770	28.0798	0.141293	0.002025	69.7582	163.073	-163.191	0.026403	0.521347	-0.559377	-0.560688	0.024824	69.7582	-0.559643	-2.309118E+7	-1.075049E-9	NaN
589	1.000000	0.562655	7.37081e+06	-47639.1	1005.82	-29765.2	0.000000	0.000000	6.562946	-0.035493	NaN	0.000000	0.001553	0.001770	28.081	0.082353	0.001925	42.7907	-64.0232	-164.377	-0.019954	0.561327	-0.519380	-0.520709	-0.035493	42.7907	-0.518758	-6.25643e+06	5.672983E-9	NaN
589	1.000000	0.602689	7.37081e+06	-47639.1	1005.82	-29765.2	0.000000	0.000000	6.602981	-0.011946	NaN	0.000000	0.001591	0.001753	28.0809	0.112464	0.002156	52.1539	-63.2589	-165.212	-0.010195	0.601389	-0.479347	-0.480647	-0.011946	52.1539	-0.479175	-1.75379e+06	6.811687E-9	NaN
589	1.000000	0.642712	7.37081e+06	-47639.1	1005.82	-29765.2	0.000000	0.000000	6.643004	-0.003379	NaN	0.000000	0.001566	0.001767	28.0809	0.072176	0.002013	35.8628	-19.5429	-164.786	-0.045694	0.641412	-0.439324	-0.440624	-0.003379	35.8628	-0.439253	-481749	7.014039E-9	NaN
589	1.000000	0.682743	7.37081e+06	-47639.1	1005.82	-29765.2	0.000000	0.000000	6.683036	-0.003240	NaN	0.000000	0.001534	0.001751	28.0795	0.075140	0.002066	36.3621	108.786	-163.835	-0.017133	0.681414	-0.399292	-0.400622	-0.003240	36.3621	-0.399226	-130301	2.486822E-8	NaN
589	1.000000	0.722747	7.37081e+06	-47639.1	1005.82	-29765.2	0.000000	0.000000	6.723039	-0.011829	NaN	0.000000	0.001587	0.001774	28.0797	0.018999	0.002077	9.146922	161.465	-165.691	0.015152	0.721429	-0.359289	-0.360607	-0.011829	9.146922	-0.358319	-33692.5	3.510996E-7	NaN
589	1.000000	0.762771	7.37081e+06	-47639.1	1005.82	-29765.2	0.000000	0.000000	6.763063	-0.001547	NaN	0.000000	0.001530	0.001707	28.0797	0.092826	0.001888	49.172	-72.9804	-163.989	0.003542	0.761466	-0.319265	-0.320570	-0.001547	49.172	-0.319241	-9067.11	1.706647E-7	NaN
589	1.000000	0.802771	7.37081e+06	-47639.1	1005.82	-29765.2	0.000000	0.000000	6.803064	0.009043	NaN	0.000000	0.001594	0.001706	28.0799	0.093649	0.002088	44.8574	90.2717	-163.453	0.010597	0.801470	-0.279264	-0.280566	0.009043	44.8574	-0.279416	-2312.87	-3.909993E-6	NaN
589	1.000000	0.842784	7.37081e+06	-47639.1	1005.82	-29765.2	0.000000	0.000000	6.843076	-0.000135	NaN	0.000000	0.001600	0.001700	28.0809	0.028496	0.002122	13.4311	64.5343	-163.242	0.025503	0.841407	-0.239252	-0.240628	-0.000135	13.4311	-0.239244	-559.428	2.407847E-7	NaN
589	1.000000	0.882829	7.37081e+06	-47639.1	1005.82	-29765.2	0.000000	0.000000	6.883123	0.045988	NaN	0.000000	0.001599	0.001787	28.0812	0.038979	0.001924	20.2614	170.515	-162.157	-0.013952	0.881487	-0.199207	-0.200549	0.045988	20.2614	-0.200910	-136.344	-0.000337	NaN
589	1.000000	0.922806	7.37081e+06	-47639.1	1005.82	-29765.2	0.000000	0.000000	6.923099	0.003576	NaN	0.000000	0.001581	0.001742	28.081	0.025974	0.002017	12.8752	159.15	-164.266	-0.021924	0.921496	-0.159229	-0.160540	0.003576	12.8752	-0.159438	-26.791	-0.000133	NaN
589	1.000000	0.962843	7.37081e+06	-47639.1	1005.82	-29765.2	0.000000	0.000000	6.963135	-0.017642	NaN	0.000000	0.001568	0.001755	28.0796	0.081950	0.001909	42.926	102.578	-166.368	0.013347	0.961500	-0.119193	-0.120536	-0.017642	42.926	-0.118884	-4.586856	0.003846	NaN
589	1.000000	1.002820	7.37081e+06	-47639.1	1005.82	-29765.2	0.000000	0.000000	7.003113	0.013106	NaN	0.000000	0.001619	0.001784	28.0795	0.098837	0.002000	49.4251	108.183	-165.786	0.083270	1.001571	-0.079216	-0.080465	0.013106	49.4251	-0.079414	-0.598430	-0.021901	NaN
589	1.000000	1.042895	7.37081e+06	-47639.1	1005.82	-29765.2	0.000000	0.000000	7.043189	0.034631	NaN	0.000000	0.001589	0.001759	28.0795	0.009952	0.002208	4.507963	-100.308	-164.879	-0.062271	1.041544	-0.039141	-0.040492	0.034631	4.507963	-0.044902	-0.063828	-0.542572	NaN
589	1.000000	1.082880	7.37081e+06	-47639.1	1005.82	-29765.2	0.000000	0.000000	7.083317	3.504304	NaN	0.000000	0.001581	0.001768	28.0797	4.159766	0.001745	2384.15	8.097217	-166.854	2.279083	1.081514	0.000845	-0.000522	3.504304	2384.15	-0.000258	-0.000192	-18278.1	NaN
589	2.000000	1.096414	7.37081e+06	-47639.1	1005.82	-29765.2	0.000000	0.000000	7.097711	24.4429	NaN	0.000000	0.001570	0.001784	28.0809	18.9098	0.001818	10402	2.592991	-173.038	23.2863	1.096107	0.014378	0.014071	24.4429	10402	0.012616	0.012236	1997.64	85915.8
589	2.000000	1.106349	7.37081e+06	-47639.1	1005.82	-29765.2	0.000000	0.000000	7.108665	49.2195	NaN	0.000000	0.001537	0.001766	28.0808	29.5634	0.001816	16275.6	7.175841	178.448	48.6305	1.106157	0.024313	0.024122	49.2195	16275.6	0.022045	0.025858	1903.44	92472.2
589	2.000000	1.116349	7.37081e+06	-47639.1	1005.82	-29765.2	0.000000	0.000000	7.120226	87.1902	NaN	0.000000	0.001588	0.001856	28.0811	38.6319	0.001869	20667.2	2.775947	-179.056	84.9575	1.116087	0.034314	0.034051	87.1902	20667.2	0.031149	0.043160	2020.17	90889.7
589	2.000000	1.126317	7.37081e+06	-47639.1	1005.82	-29765.2	0.000000	0.000000	7.132086	133.204	NaN	0.000000	0.001597	0.001779	28.08	48.0394	0.001794	26772.6	2.097487	179.782	131.313	1.126038	0.044281	0.044002	133.204	26772.6	0.040550	0.065457	2034.98	95606.1
589	2.000000	1.136277	7.37082e+06	-47639.1	1005.82	-29765.2	0.000000	0.000000	7.144308	188.229	NaN	0.000000	0.001556	0.001759	28.08	57.3839	0.001755	32705.1	2.817861	177.439	185.454	1.136006	0.054241	0.053970	188.229	32705.1	0.049925	0.092180	2041.97	98416.8
589	2.000000	1.146282	7.37082e+06	-47639.1	1005.82	-29765.2	0.000000	0.000000	7.156748	247.464	NaN	0.000000	0.001626	0.001741	28.08	67.79	0.001780	38088.7	2.700030	176.742	247.506	1.146043	0.064246	0.064007	247.464	38088.7	0.059373	0.123570	2002.62	98995
589	2.000000	1.156287	7.37082e+06	-47639.1	1005.82	-29765.2	0.000000	0.000000	7.169491	314.061	NaN	0.000000	0.001578	0.001773	28.0811	79.1595	0.001811	43703.5	5.143627	172.513	310.854	1.156012	0.074251	0.073976	314.061	43703.5	0.068861	0.159487	1969.19	99983.2
589	2.000000	1.166278	7.37082e+06	-47639.1	1005.82	-29765.2	0.000000	0.000000	7.182905	397.328	NaN	0.000000	0.001586	0.001776	28.0809	86.9695	0.001877	46330.1	2.528992	175.766	395.682	1.165957	0.084242	0.083921	397.328	46330.1	0.077810	0.197300	2013.83	95295.5
589	2.000000	1.176251	7.37082e+06	-47639.1	1005.82	-29765.2	0.000000	0.000000	7.196107	475.839	NaN	0.000000	0.001604	0.001804	28.0809	95.2674	0.001739	54796.8	1.562701	175.136	473.616	1.176054	0.094215	0.094019	475.839	54796.8	0.087702	0.243462	1954.47	101464
589	2.000000	1.186209	7.37082e+06	-47639.1	1005.82	-29765.2	0.000000	0.000000	7.209787	566.364	NaN	0.000000	0.001601	0.001788	28.0807	106.443	0.001803	59045.7	6.790988	169.074	562.319	1.185997	0.104173	0.103961	566.364	59045.7	0.096979	0.290844	1947.31	100030