File: remote_trans/data/nanoindenter/0828-1/data/Data_2025-08-06,11h17m57s/2025-07-22_16-23-58_1_257.txt
2025-07-22, 16:23:58, 1
Index	Phase	Displacement	Time	Pos X	Pos Y	Pos Z	Rot A	Rot B	Piezo Z	Force A	Force B	Gripper	Voltage A	Voltage B	Temperature	Amplitude force	Amplitude pos	Stiffness	Phase shift	Phase excitation	Force A raw	Displacement raw	HMax	HMax raw	Real Force	Real Stiffness	Contact Depth	Area	Hardness	Reduced Mod.
[#]	[#]	[um]	[s]	[um]	[um]	[um]	[m°]	[m°]	[um]	[uN]	[uN]	[V]	[V]	[V]	[°C]	[uN]	[um]	[N/m]	[°]	[°]	[uN]	[um]	[um]	[um]	[uN]	[N/m]	[um]	[um^2]	[MPa]	[MPa]
257	1.000000	0.003130	7.36757e+06	-51489.1	955.818	-29752.3	0.000000	0.000000	6.002826	-0.112792	NaN	0.000000	0.001609	0.001612	28.0793	0.102443	0.000860	119.164	-86.1761	-162.554	-0.039124	0.001841	-1.210305	-1.211594	-0.112792	119.164	-1.209595	-1.476440E+16	7.639446E-18	NaN
257	1.000000	0.047072	7.36757e+06	-51489.1	955.819	-29752.3	0.000000	0.000000	6.046770	-0.072311	NaN	0.000000	0.001618	0.001579	28.0793	0.040662	0.001886	21.555	141.188	-160.294	-0.018809	0.045748	-1.166362	-1.167687	-0.072311	21.555	-1.163846	-3.600980E+15	2.008086E-17	NaN
257	1.000000	0.091061	7.36757e+06	-51489.1	955.819	-29752.3	0.000000	0.000000	6.090762	-0.023111	NaN	0.000000	0.001574	0.001634	28.0789	0.129129	0.002098	61.5592	129.428	-164.818	-0.035642	0.089788	-1.122373	-1.123646	-0.023111	61.5592	-1.122091	-9.920417E+14	2.329655E-17	NaN
257	1.000000	0.135096	7.36757e+06	-51489.1	955.818	-29752.3	0.000000	0.000000	6.134803	0.130787	NaN	0.000000	0.001623	0.001611	28.0802	0.081687	0.002030	40.235	140.747	-166.69	0.086852	0.133802	-1.078338	-1.079632	0.130787	40.235	-1.080776	-2.766567E+14	-4.727424E-16	NaN
257	1.000000	0.179110	7.36757e+06	-51489.1	955.818	-29752.3	0.000000	0.000000	6.178815	0.103016	NaN	0.000000	0.001667	0.001641	28.0802	0.069771	0.001940	35.9643	-166.642	-163.112	0.104450	0.177819	-1.034324	-1.035615	0.103016	35.9643	-1.036473	-7.023206E+13	-1.466789E-15	NaN
257	1.000000	0.223169	7.36757e+06	-51489.1	955.818	-29752.3	0.000000	0.000000	6.222869	-0.030265	NaN	0.000000	0.001616	0.001632	28.0801	0.002608	0.001910	1.365458	-137.124	-164.46	-0.023798	0.221785	-0.990265	-0.991649	-0.030265	1.365458	-0.973641	-1.001698E+13	3.021354E-15	NaN
257	1.000000	0.267110	7.36757e+06	-51489.1	955.819	-29752.3	0.000000	0.000000	6.266815	0.096984	NaN	0.000000	0.001632	0.001649	28.0788	0.040197	0.002018	19.9148	117.096	-167.065	-0.012391	0.265871	-0.946324	-0.947563	0.096984	19.9148	-0.949977	-4.805228E+12	-2.018309E-14	NaN
257	1.000000	0.311154	7.36757e+06	-51489.1	955.818	-29752.3	0.000000	0.000000	6.310856	0.014340	NaN	0.000000	0.001625	0.001627	28.079	0.049193	0.002078	23.6721	-144.964	-164.697	0.047785	0.309877	-0.902280	-0.903558	0.014340	23.6721	-0.902735	-1.106663E+12	-1.295746E-14	NaN
257	1.000000	0.355167	7.36757e+06	-51489.1	955.818	-29752.3	0.000000	0.000000	6.354870	0.048025	NaN	0.000000	0.001603	0.001648	28.0793	0.082679	0.002028	40.7628	76.8798	-161.049	0.022134	0.353913	-0.858268	-0.859522	0.048025	40.7628	-0.859151	-2.848614E+11	-1.685920E-13	NaN
257	1.000000	0.399199	7.36757e+06	-51489.1	955.818	-29752.3	0.000000	0.000000	6.398903	0.058744	NaN	0.000000	0.001603	0.001619	28.0803	0.140456	0.001915	73.3514	-164.314	-164.771	0.046278	0.397901	-0.814235	-0.815534	0.058744	73.3514	-0.814836	-7.147834E+10	-8.218374E-13	NaN
257	1.000000	0.443192	7.36757e+06	-51489.1	955.819	-29752.3	0.000000	0.000000	6.442892	-0.018605	NaN	0.000000	0.001618	0.001630	28.0803	0.025734	0.002013	12.7853	22.832	-163.968	-0.015556	0.441922	-0.770243	-0.771512	-0.018605	12.7853	-0.769151	-1.713036E+10	1.086090E-12	NaN
257	1.000000	0.487229	7.36757e+06	-51489.1	955.818	-29752.3	0.000000	0.000000	6.486930	-0.004803	NaN	0.000000	0.001587	0.001573	28.0804	0.060179	0.001782	33.7764	14.1057	-164.526	0.029733	0.485948	-0.726205	-0.727487	-0.004803	33.7764	-0.726099	-4.442514E+9	1.081209E-12	NaN
257	1.000000	0.531218	7.36757e+06	-51489.1	955.819	-29752.3	0.000000	0.000000	6.530920	0.014890	NaN	0.000000	0.001596	0.001596	28.0791	0.073802	0.001951	37.8304	-176.604	-167.032	-0.000400	0.529885	-0.682216	-0.683550	0.014890	37.8304	-0.682511	-1.128626E+9	-1.319268E-11	NaN
257	1.000000	0.575250	7.36757e+06	-51489.1	955.818	-29752.3	0.000000	0.000000	6.574952	0.002565	NaN	0.000000	0.001564	0.001600	28.079	0.077606	0.001951	39.7691	7.365082	-166.83	0.013468	0.573978	-0.638184	-0.639456	0.002565	39.7691	-0.638232	-2.792760E+8	-9.183439E-12	NaN
257	1.000000	0.619310	7.36757e+06	-51489.1	955.819	-29752.3	0.000000	0.000000	6.619013	0.059717	NaN	0.000000	0.001579	0.001531	28.0789	0.012415	0.001978	6.278068	139.881	-165.637	0.064267	0.618011	-0.594125	-0.595424	0.059717	6.278068	-0.601259	-8.665559E+7	-6.891350E-10	NaN
257	1.000000	0.663311	7.36757e+06	-51489.1	955.819	-29752.3	0.000000	0.000000	6.663012	0.001095	NaN	0.000000	0.001568	0.001551	28.08	0.045256	0.001992	22.7208	168.61	-166.388	0.001465	0.661926	-0.550123	-0.551508	0.001095	22.7208	-0.550160	-1.706734E+7	-6.413544E-11	NaN
257	1.000000	0.707350	7.36757e+06	-51489.1	955.819	-29752.3	0.000000	0.000000	6.707050	-0.042623	NaN	0.000000	0.001609	0.001578	28.0802	0.018439	0.001990	9.265640	-170.576	-165.191	-0.055497	0.706052	-0.506084	-0.507383	-0.042623	9.265640	-0.502634	-3.73043e+06	1.142589E-8	NaN
257	1.000000	0.751335	7.36757e+06	-51489.1	955.818	-29752.3	0.000000	0.000000	6.751037	0.024822	NaN	0.000000	0.001615	0.001552	28.0805	0.096011	0.001960	48.9926	-108.567	-166.263	-0.092204	0.750071	-0.462099	-0.463363	0.024822	48.9926	-0.462479	-1.02294e+06	-2.426519E-8	NaN
257	1.000000	0.795355	7.36757e+06	-51489.1	955.819	-29752.3	0.000000	0.000000	6.795055	-0.047164	NaN	0.000000	0.001594	0.001602	28.0797	0.083092	0.002022	41.0886	-148.299	-168.043	-0.074860	0.794094	-0.418079	-0.419340	-0.047164	41.0886	-0.417218	-234933	2.007556E-7	NaN
257	1.000000	0.839368	7.36757e+06	-51489.1	955.819	-29752.3	0.000000	0.000000	6.839074	0.132968	NaN	0.000000	0.001564	0.001604	28.0789	0.050593	0.002002	25.2769	-172.693	-164.608	-0.035295	0.838126	-0.374067	-0.375308	0.132968	25.2769	-0.378012	-64766.3	-2.053042E-6	NaN
257	1.000000	0.883396	7.36757e+06	-51489.1	955.818	-29752.3	0.000000	0.000000	6.883101	0.072583	NaN	0.000000	0.001678	0.001616	28.0789	0.094570	0.002113	44.7602	-137.421	-164.259	0.062601	0.882097	-0.330038	-0.331337	0.072583	44.7602	-0.331254	-13608.6	-5.333605E-6	NaN
257	1.000000	0.927437	7.36757e+06	-51489.1	955.818	-29752.3	0.000000	0.000000	6.927141	0.051934	NaN	0.000000	0.001564	0.001588	28.0803	0.035763	0.001962	18.227	-63.6157	-165.581	0.065593	0.926040	-0.285997	-0.287395	0.051934	18.227	-0.288134	-3128.46	-1.660039E-5	NaN
257	1.000000	0.971405	7.36757e+06	-51489.1	955.818	-29752.3	0.000000	0.000000	6.971106	-0.005922	NaN	0.000000	0.001616	0.001595	28.0808	0.123239	0.001982	62.1648	20.5138	-168.727	0.049879	0.970119	-0.242029	-0.243315	-0.005922	62.1648	-0.241957	-616.732	9.602808E-6	NaN
257	1.000000	1.015438	7.36757e+06	-51489.1	955.819	-29752.3	0.000000	0.000000	7.015141	0.038800	NaN	0.000000	0.001593	0.001704	28.0804	0.056008	0.002032	27.5651	-177.388	-164.025	0.041005	1.014070	-0.197996	-0.199364	0.038800	27.5651	-0.199052	-127.087	-0.000305	NaN
257	1.000000	1.059507	7.36757e+06	-51489.1	955.818	-29752.3	0.000000	0.000000	7.059209	0.012539	NaN	0.000000	0.001591	0.001672	28.0791	0.107442	0.002089	51.4403	-80.571	-168.835	-0.063668	1.058149	-0.153927	-0.155286	0.012539	51.4403	-0.154110	-21.5054	-0.000583	NaN
257	1.000000	1.103463	7.36757e+06	-51489.1	955.82	-29752.3	0.000000	0.000000	7.103163	-0.039646	NaN	0.000000	0.001555	0.001657	28.079	0.009024	0.002058	4.384641	23.8826	-164.717	-0.007324	1.102173	-0.109971	-0.111261	-0.039646	4.384641	-0.103190	-2.147303	0.018463	NaN
257	1.000000	1.147511	7.36757e+06	-51489.1	955.819	-29752.3	0.000000	0.000000	7.147209	-0.070029	NaN	0.000000	0.001550	0.001647	28.0793	0.036848	0.001923	19.1639	159.129	-164.912	0.004412	1.146212	-0.065924	-0.067222	-0.070029	19.1639	-0.063183	-0.221745	0.315808	NaN
257	1.000000	1.191513	7.36757e+06	-51489.1	955.82	-29752.3	0.000000	0.000000	7.191216	0.040376	NaN	0.000000	0.001582	0.001635	28.0806	0.066315	0.001880	35.2736	-97.1993	-163.147	0.036660	1.190178	-0.021921	-0.023257	0.040376	35.2736	-0.022780	-0.014783	-2.731177	NaN
257	2.000000	1.228144	7.36757e+06	-51489.1	955.82	-29752.3	0.000000	0.000000	7.228256	9.992435	NaN	0.000000	0.001577	0.001651	28.0804	10.3311	0.001773	5825.62	5.795622	-171.61	9.592310	1.227827	0.014710	0.014393	9.992435	5825.62	0.013423	0.013240	754.705	46256
257	2.000000	1.239066	7.36757e+06	-51489.1	955.819	-29752.3	0.000000	0.000000	7.239872	26.8602	NaN	0.000000	0.001611	0.001635	28.0804	21.0547	0.001730	12170.9	2.170719	-172.678	26.2285	1.238752	0.025632	0.025318	26.8602	12170.9	0.023977	0.029180	920.5	65095.8
257	2.000000	1.250035	7.36757e+06	-51489.1	955.819	-29752.3	0.000000	0.000000	7.251980	54.5398	NaN	0.000000	0.001578	0.001630	28.0815	33.4342	0.001793	18650.3	7.025366	177.66	54.5285	1.249675	0.036601	0.036240	54.5398	18650.3	0.034408	0.050376	1082.66	75918.6
257	2.000000	1.260984	7.36757e+06	-51489.1	955.82	-29752.3	0.000000	0.000000	7.264236	86.3382	NaN	0.000000	0.001668	0.001628	28.0791	43.824	0.001793	24448.1	3.633892	179.449	84.4372	1.260718	0.047550	0.047284	86.3382	24448.1	0.044901	0.077308	1116.81	80335.4
257	2.000000	1.271937	7.36757e+06	-51489.1	955.82	-29752.3	0.000000	0.000000	7.277256	136.586	NaN	0.000000	0.001665	0.001672	28.079	54.5537	0.001738	31390.5	5.209096	174.032	133.277	1.271670	0.058503	0.058235	136.586	31390.5	0.055240	0.109294	1249.71	86750.7
257	2.000000	1.283068	7.36757e+06	-51489.1	955.819	-29752.3	0.000000	0.000000	7.290512	188.266	NaN	0.000000	0.001673	0.001624	28.0789	66.5672	0.001862	35742.7	7.345895	172.241	191.868	1.282708	0.069634	0.069274	188.266	35742.7	0.065684	0.146974	1280.95	85180.4
257	2.000000	1.293931	7.36757e+06	-51489.1	955.821	-29752.3	0.000000	0.000000	7.304637	267.59	NaN	0.000000	0.001605	0.001612	28.0804	76.9709	0.001806	42621.8	5.376916	172.803	265.919	1.293590	0.080497	0.080156	267.59	42621.8	0.075788	0.188426	1420.13	89708.5
257	2.000000	1.304964	7.36757e+06	-51489.1	955.82	-29752.3	0.000000	0.000000	7.318942	347.14	NaN	0.000000	0.001605	0.001646	28.0802	86.1882	0.001743	49443.6	3.281049	173.355	346.603	1.304601	0.091530	0.091167	347.14	49443.6	0.086264	0.236469	1468.01	92895.8
257	2.000000	1.315900	7.36757e+06	-51489.1	955.82	-29752.3	0.000000	0.000000	7.333401	432.822	NaN	0.000000	0.001551	0.001642	28.0813	100.109	0.001770	56559.8	4.792552	170.428	428.011	1.315638	0.102466	0.102203	432.822	56559.8	0.096726	0.289498	1495.08	96041.3
257	2.000000	1.323862	7.36757e+06	-51489.1	955.82	-29752.3	0.000000	0.000000	7.344752	515.239	NaN	0.000000	0.001580	0.001684	28.0794	106.33	0.001768	60151.3	3.944107	171.047	510.717	1.323585	0.110427	0.110151	515.239	60151.3	0.104003	0.329327	1564.52	95764.5