File: remote_trans/data/nanoindenter/0828-1/data/Data_2025-08-06,11h17m57s/2025-07-22_16-23-58_1_376.txt
2025-07-22, 16:23:58, 1
Index	Phase	Displacement	Time	Pos X	Pos Y	Pos Z	Rot A	Rot B	Piezo Z	Force A	Force B	Gripper	Voltage A	Voltage B	Temperature	Amplitude force	Amplitude pos	Stiffness	Phase shift	Phase excitation	Force A raw	Displacement raw	HMax	HMax raw	Real Force	Real Stiffness	Contact Depth	Area	Hardness	Reduced Mod.
[#]	[#]	[um]	[s]	[um]	[um]	[um]	[m°]	[m°]	[um]	[uN]	[uN]	[V]	[V]	[V]	[°C]	[uN]	[um]	[N/m]	[°]	[°]	[uN]	[um]	[um]	[um]	[uN]	[N/m]	[um]	[um^2]	[MPa]	[MPa]
376	1.000000	0.002614	7.36874e+06	-57439.1	955.819	-29737.2	0.000000	0.000000	6.002850	-0.004268	NaN	0.000000	0.001595	0.001695	28.0817	0.054653	0.000854	64.0261	176.778	-165.7	-0.088746	0.001326	-1.076700	-1.077988	-0.004268	64.0261	-1.076650	-2.435124E+14	1.752820E-17	NaN
376	1.000000	0.044522	7.36874e+06	-57439.1	955.818	-29737.2	0.000000	0.000000	6.044758	0.005643	NaN	0.000000	0.001606	0.001678	28.0804	0.027054	0.002074	13.0467	-113.955	13.2803	0.049351	0.043157	-1.034792	-1.036157	0.005643	13.0467	-1.035117	-6.734362E+13	-8.379335E-17	NaN
376	1.000000	0.086561	7.36874e+06	-57439.1	955.818	-29737.2	0.000000	0.000000	6.086796	-0.040860	NaN	0.000000	0.001579	0.001677	28.0804	0.114087	0.001902	59.9814	-96.855	-167.169	0.031140	0.085242	-0.992753	-0.994072	-0.040860	59.9814	-0.992242	-1.783619E+13	2.290850E-15	NaN
376	1.000000	0.128552	7.36874e+06	-57439.1	955.818	-29737.2	0.000000	0.000000	6.128790	0.043564	NaN	0.000000	0.001625	0.001656	28.0804	0.037122	0.001909	19.4475	96.3147	12.8405	0.005342	0.127175	-0.950762	-0.952138	0.043564	19.4475	-0.952442	-5.187506E+12	-8.397901E-15	NaN
376	1.000000	0.170564	7.36874e+06	-57439.1	955.817	-29737.2	0.000000	0.000000	6.170802	0.016062	NaN	0.000000	0.001618	0.001671	28.0813	0.039102	0.002034	19.2223	-174.666	-163.151	0.003905	0.169221	-0.908749	-0.910093	0.016062	19.2223	-0.909376	-1.360617E+12	-1.180485E-14	NaN
376	1.000000	0.212554	7.36874e+06	-57439.1	955.818	-29737.2	0.000000	0.000000	6.212790	-0.017592	NaN	0.000000	0.001632	0.001669	28.0813	0.091589	0.002007	45.6253	34.6176	14.6674	-0.067650	0.211215	-0.866760	-0.868098	-0.017592	45.6253	-0.866471	-3.578433E+11	4.916195E-14	NaN
376	1.000000	0.254602	7.36874e+06	-57439.1	955.818	-29737.2	0.000000	0.000000	6.254838	-0.006376	NaN	0.000000	0.001564	0.001657	28.0817	0.080228	0.001991	40.2949	-109.818	-165.161	-0.095010	0.253251	-0.824712	-0.826063	-0.006376	40.2949	-0.824593	-9.693670E+10	6.577867E-14	NaN
376	1.000000	0.296622	7.36874e+06	-57439.1	955.817	-29737.2	0.000000	0.000000	6.296855	-0.086168	NaN	0.000000	0.001634	0.001637	28.0814	0.083513	0.001916	43.5917	102.639	13.9725	-0.019699	0.295229	-0.782692	-0.784085	-0.086168	43.5917	-0.781209	-2.498396E+10	3.448925E-12	NaN
376	1.000000	0.338635	7.36874e+06	-57439.1	955.819	-29737.2	0.000000	0.000000	6.338870	-0.057275	NaN	0.000000	0.001561	0.001657	28.08	0.049631	0.001985	25.0088	-177.078	-160.167	-0.036634	0.337336	-0.740678	-0.741978	-0.057275	25.0088	-0.738961	-6.651187E+9	8.611214E-12	NaN
376	1.000000	0.380683	7.36874e+06	-57439.1	955.818	-29737.2	0.000000	0.000000	6.380920	0.004103	NaN	0.000000	0.001656	0.001687	28.08	0.106488	0.002022	52.6689	-168.259	14.6953	0.015594	0.379291	-0.698631	-0.700022	0.004103	52.6689	-0.698689	-1.877714E+9	-2.185299E-12	NaN
376	1.000000	0.422680	7.36874e+06	-57439.1	955.818	-29737.2	0.000000	0.000000	6.422915	-0.042956	NaN	0.000000	0.001618	0.001699	28.0801	0.138157	0.002047	67.4993	-25.0964	-167.948	0.013362	0.421344	-0.656634	-0.657970	-0.042956	67.4993	-0.656156	-4.918260E+8	8.733917E-11	NaN
376	1.000000	0.464690	7.36874e+06	-57439.1	955.818	-29737.2	0.000000	0.000000	6.464927	0.003440	NaN	0.000000	0.001606	0.001697	28.0815	0.081255	0.002063	39.3841	64.7064	13.0176	0.061536	0.463315	-0.614624	-0.615998	0.003440	39.3841	-0.614689	-1.326227E+8	-2.593654E-11	NaN
376	1.000000	0.506714	7.36874e+06	-57439.1	955.818	-29737.2	0.000000	0.000000	6.506950	0.008011	NaN	0.000000	0.001602	0.001696	28.0814	0.047383	0.002029	23.3582	24.6175	-166.573	-0.011970	0.505412	-0.572600	-0.573902	0.008011	23.3582	-0.572857	-3.516478E+7	-2.278263E-10	NaN
376	1.000000	0.548737	7.36874e+06	-57439.1	955.819	-29737.2	0.000000	0.000000	6.548972	-0.018942	NaN	0.000000	0.001593	0.001654	28.0812	0.078838	0.001997	39.4805	-21.8601	15.1231	0.001603	0.547332	-0.530577	-0.531982	-0.018942	39.4805	-0.530217	-9.02802e+06	2.098184E-9	NaN
376	1.000000	0.590732	7.36874e+06	-57439.1	955.818	-29737.2	0.000000	0.000000	6.590969	0.001534	NaN	0.000000	0.001617	0.001683	28.0799	0.010957	0.002076	5.277069	-74.1784	-166.421	0.077976	0.589455	-0.488582	-0.489858	0.001534	5.277069	-0.488800	-2.3912e+06	-6.416947E-10	NaN
376	1.000000	0.632775	7.36874e+06	-57439.1	955.818	-29737.2	0.000000	0.000000	6.633009	-0.050896	NaN	0.000000	0.001592	0.001669	28.08	0.104477	0.002104	49.6608	-167.95	13.2676	-0.119605	0.631430	-0.446539	-0.447884	-0.050896	49.6608	-0.445770	-595323	8.549273E-8	NaN
376	1.000000	0.674771	7.36874e+06	-57439.1	955.817	-29737.2	0.000000	0.000000	6.675008	0.016240	NaN	0.000000	0.001552	0.001693	28.0801	0.058505	0.001997	29.3011	-83.5327	-164.197	0.078996	0.673503	-0.404543	-0.405810	0.016240	29.3011	-0.404958	-157274	-1.032587E-7	NaN
376	1.000000	0.716809	7.36874e+06	-57439.1	955.818	-29737.2	0.000000	0.000000	6.717045	-0.030992	NaN	0.000000	0.001667	0.001704	28.0811	0.100803	0.002037	49.4944	-66.3186	12.998	-0.112200	0.715511	-0.362504	-0.363803	-0.030992	49.4944	-0.362035	-38128.3	8.128397E-7	NaN
376	1.000000	0.758801	7.36874e+06	-57439.1	955.818	-29737.2	0.000000	0.000000	6.759038	0.019352	NaN	0.000000	0.001650	0.001696	28.0815	0.078366	0.001951	40.1654	-73.7348	-163.76	-0.001015	0.757486	-0.320513	-0.321828	0.019352	40.1654	-0.320875	-9583.14	-2.019411E-6	NaN
376	1.000000	0.800833	7.36874e+06	-57439.1	955.818	-29737.2	0.000000	0.000000	6.801067	-0.064798	NaN	0.000000	0.001665	0.001671	28.0815	0.064951	0.002010	32.3143	-123.829	14.2625	-0.046142	0.799493	-0.278481	-0.279820	-0.064798	32.3143	-0.276977	-2124.75	3.049669E-5	NaN
376	1.000000	0.842840	7.36874e+06	-57439.1	955.818	-29737.2	0.000000	0.000000	6.843078	0.015454	NaN	0.000000	0.001699	0.001687	28.081	0.019326	0.001964	9.838236	63.5096	-167.881	0.065966	0.841539	-0.236473	-0.237775	0.015454	9.838236	-0.237651	-528.231	-2.925705E-5	NaN
376	1.000000	0.884861	7.36875e+06	-57439.1	955.818	-29737.2	0.000000	0.000000	6.885098	0.013615	NaN	0.000000	0.001686	0.001693	28.0799	0.115673	0.001988	58.1907	-67.8717	13.3522	-0.028266	0.883540	-0.194453	-0.195774	0.013615	58.1907	-0.194628	-107.409	-0.000127	NaN
376	1.000000	0.926876	7.36875e+06	-57439.1	955.818	-29737.2	0.000000	0.000000	6.927112	0.001991	NaN	0.000000	0.001641	0.001659	28.08	0.145842	0.001949	74.8182	101.117	-166.029	0.000590	0.925595	-0.152438	-0.153718	0.001991	74.8182	-0.152458	-20.0765	-9.918374E-5	NaN
376	1.000000	0.968893	7.36875e+06	-57439.1	955.818	-29737.2	0.000000	0.000000	6.969129	-0.034840	NaN	0.000000	0.001685	0.001685	28.0799	0.038977	0.002205	17.6759	-39.8455	14.6991	-0.068126	0.967469	-0.110420	-0.111844	-0.034840	17.6759	-0.108942	-2.854362	0.012206	NaN
376	1.000000	1.010906	7.36875e+06	-57439.1	955.817	-29737.2	0.000000	0.000000	7.011142	-4.072557E-6	NaN	0.000000	0.001610	0.001723	28.0814	0.099518	0.001892	52.6105	-0.895109	-167.463	-0.069075	1.009557	-0.068408	-0.069756	-4.072557E-6	52.6105	-0.068408	-0.309029	1.317856E-5	NaN
376	1.000000	1.052929	7.36875e+06	-57439.1	955.816	-29737.2	0.000000	0.000000	7.053165	-0.028192	NaN	0.000000	0.001638	0.001749	28.0815	0.096874	0.002039	47.5093	-147.053	14.4283	0.026279	1.051573	-0.026385	-0.027740	-0.028192	47.5093	-0.025939	-0.017857	1.578807	NaN
376	1.000000	1.094928	7.36875e+06	-57439.1	955.817	-29737.2	0.000000	0.000000	7.095467	7.339262	NaN	0.000000	0.001648	0.001650	28.0813	6.896004	0.001639	4208.04	12.8439	-172.578	6.658965	1.093582	0.015615	0.014268	7.339262	4208.04	0.014307	0.014372	510.671	32069.9
376	2.000000	1.106957	7.36875e+06	-57439.1	955.818	-29737.2	0.000000	0.000000	7.108182	24.0134	NaN	0.000000	0.001653	0.001699	28.0801	19.0328	0.001655	11502.6	10.5906	-3.155984	23.571	1.106580	0.027644	0.027267	24.0134	11502.6	0.026078	0.033006	727.553	57846.2
376	2.000000	1.117370	7.36875e+06	-57439.1	955.816	-29737.2	0.000000	0.000000	7.119690	50.6303	NaN	0.000000	0.001618	0.001683	28.08	29.0194	0.001725	16819.9	3.039762	-177.205	49.6269	1.117051	0.038056	0.037737	50.6303	16819.9	0.035799	0.053622	944.212	66363
376	2.000000	1.127819	7.36875e+06	-57439.1	955.816	-29737.2	0.000000	0.000000	7.131258	77.8222	NaN	0.000000	0.001640	0.001642	28.0802	38.8094	0.001779	21816.4	3.438059	-0.221870	75.0293	1.127542	0.048505	0.048229	77.8222	21816.4	0.045830	0.079961	973.256	70488.6
376	2.000000	1.138302	7.36875e+06	-57439.1	955.816	-29737.2	0.000000	0.000000	7.143479	120.088	NaN	0.000000	0.001673	0.001675	28.0812	48.159	0.001737	27728	3.987271	177.2	117.821	1.138100	0.058988	0.058786	120.088	27728	0.055740	0.110976	1082.11	76046.1
376	2.000000	1.148777	7.36875e+06	-57439.1	955.816	-29737.2	0.000000	0.000000	7.155795	164.798	NaN	0.000000	0.001680	0.001654	28.0815	57.6724	0.001785	32317.1	3.758558	-4.109639	160.372	1.148520	0.069464	0.069206	164.798	32317.1	0.065639	0.146802	1122.58	77061.9
376	2.000000	1.159434	7.36875e+06	-57439.1	955.817	-29737.2	0.000000	0.000000	7.168773	221.216	NaN	0.000000	0.001596	0.001679	28.0815	71.0552	0.001841	38600.9	7.522556	171.692	225.952	1.159097	0.080120	0.079783	221.216	38600.9	0.075822	0.188575	1173.09	81213.6
376	2.000000	1.169792	7.36875e+06	-57439.1	955.817	-29737.2	0.000000	0.000000	7.182184	295.43	NaN	0.000000	0.001686	0.001694	28.0813	79.588	0.001873	42495.1	9.123431	-11.4037	292.606	1.169452	0.090478	0.090139	295.43	42495.1	0.085264	0.231664	1275.25	80664.5
376	2.000000	1.180128	7.36875e+06	-57439.1	955.817	-29737.2	0.000000	0.000000	7.194787	350.524	NaN	0.000000	0.001655	0.001678	28.08	87.8439	0.001790	49086.2	1.424604	175.366	340.389	1.179890	0.100814	0.100577	350.524	49086.2	0.095458	0.282805	1239.45	84331.3
376	2.000000	1.190769	7.36875e+06	-57439.1	955.818	-29737.2	0.000000	0.000000	7.208955	436.25	NaN	0.000000	0.001717	0.001700	28.0802	96.979	0.001675	57905.8	2.093406	-6.323075	430.239	1.190286	0.111455	0.110972	436.25	57905.8	0.105805	0.339560	1284.75	90789.7
376	2.000000	1.195276	7.36875e+06	-57439.1	955.817	-29737.2	0.000000	0.000000	7.214573	463.272	NaN	0.000000	0.001670	0.001666	28.0802	101.277	0.001677	60398.1	3.306984	171.678	462.522	1.194986	0.115962	0.115672	463.272	60398.1	0.110209	0.365194	1268.57	91313.5