File: remote_trans/data/nanoindenter/0828-1/data/Data_2025-08-06,11h17m57s/2025-07-22_16-23-58_1_250.txt
2025-07-22, 16:23:58, 1
Index	Phase	Displacement	Time	Pos X	Pos Y	Pos Z	Rot A	Rot B	Piezo Z	Force A	Force B	Gripper	Voltage A	Voltage B	Temperature	Amplitude force	Amplitude pos	Stiffness	Phase shift	Phase excitation	Force A raw	Displacement raw	HMax	HMax raw	Real Force	Real Stiffness	Contact Depth	Area	Hardness	Reduced Mod.
[#]	[#]	[um]	[s]	[um]	[um]	[um]	[m°]	[m°]	[um]	[uN]	[uN]	[V]	[V]	[V]	[°C]	[uN]	[um]	[N/m]	[°]	[°]	[uN]	[um]	[um]	[um]	[uN]	[N/m]	[um]	[um^2]	[MPa]	[MPa]
250	1.000000	0.002199	7.36749e+06	-51139.1	955.819	-29753.6	0.000000	0.000000	6.002758	-0.015152	NaN	0.000000	0.001698	0.001651	28.0798	0.120379	0.000820	146.825	148.316	-162.553	-0.039076	0.000988	-1.114676	-1.115887	-0.015152	146.825	-1.114599	-7.870427E+14	1.925171E-17	NaN
250	1.000000	0.044184	7.36749e+06	-51139.1	955.818	-29753.6	0.000000	0.000000	6.044747	0.063352	NaN	0.000000	0.001655	0.001661	28.0797	0.025927	0.001939	13.3687	154.799	15.5759	0.046560	0.042858	-1.072691	-1.074017	0.063352	13.3687	-1.076245	-2.404795E+14	-2.634404E-16	NaN
250	1.000000	0.086209	7.36749e+06	-51139.1	955.818	-29753.6	0.000000	0.000000	6.086769	-0.003928	NaN	0.000000	0.001673	0.001653	28.0799	0.029753	0.002024	14.7006	-140.196	-166.604	0.014138	0.084886	-1.030666	-1.031988	-0.003928	14.7006	-1.030465	-5.830917E+13	6.736396E-17	NaN
250	1.000000	0.128244	7.36749e+06	-51139.1	955.819	-29753.6	0.000000	0.000000	6.128804	-0.001570	NaN	0.000000	0.001692	0.001670	28.0789	0.054154	0.001855	29.1874	-136.413	15.4134	-0.025457	0.126889	-0.988631	-0.989986	-0.001570	29.1874	-0.988590	-1.592669E+13	9.857346E-17	NaN
250	1.000000	0.170227	7.36749e+06	-51139.1	955.818	-29753.6	0.000000	0.000000	6.170786	-0.020920	NaN	0.000000	0.001600	0.001662	28.0787	0.128029	0.002153	59.4525	-157.039	-163.598	0.012742	0.168942	-0.946648	-0.947932	-0.020920	59.4525	-0.946384	-4.297943E+12	4.867524E-15	NaN
250	1.000000	0.212268	7.36749e+06	-51139.1	955.818	-29753.6	0.000000	0.000000	6.212828	-0.004904	NaN	0.000000	0.001705	0.001638	28.0786	0.047877	0.002108	22.7163	-138.299	16.4472	-0.053612	0.210934	-0.904607	-0.905941	-0.004904	22.7163	-0.904445	-1.167146E+12	4.201975E-15	NaN
250	1.000000	0.254290	7.3675e+06	-51139.1	955.818	-29753.6	0.000000	0.000000	6.254850	0.005272	NaN	0.000000	0.001677	0.001649	28.0796	0.098241	0.001997	49.2048	178.093	-165.488	-0.042176	0.252972	-0.862585	-0.863902	0.005272	49.2048	-0.862665	-3.178315E+11	-1.658883E-14	NaN
250	1.000000	0.296281	7.3675e+06	-51139.1	955.819	-29753.6	0.000000	0.000000	6.296842	0.046484	NaN	0.000000	0.001656	0.001691	28.0799	0.043256	0.002022	21.3954	169.432	13.0295	0.003323	0.294910	-0.820594	-0.821964	0.046484	21.3954	-0.822224	-9.002544E+10	-5.163436E-13	NaN
250	1.000000	0.338343	7.3675e+06	-51139.1	955.819	-29753.6	0.000000	0.000000	6.338901	-0.038870	NaN	0.000000	0.001613	0.001686	28.0799	0.049831	0.001993	25.0053	-150.894	-165.164	-0.030537	0.337051	-0.778532	-0.779824	-0.038870	25.0053	-0.777366	-2.215341E+10	1.754605E-12	NaN
250	1.000000	0.380362	7.3675e+06	-51139.1	955.818	-29753.6	0.000000	0.000000	6.380923	0.016136	NaN	0.000000	0.001606	0.001707	28.0787	0.089096	0.001900	46.8859	105.146	14.5372	-0.014492	0.378963	-0.736512	-0.737912	0.016136	46.8859	-0.736770	-6.209598E+9	-2.598611E-12	NaN
250	1.000000	0.422315	7.3675e+06	-51139.1	955.818	-29753.6	0.000000	0.000000	6.422874	-0.035661	NaN	0.000000	0.001596	0.001637	28.0786	0.098512	0.001982	49.6987	137.997	-168.215	0.035818	0.421075	-0.694559	-0.695799	-0.035661	49.6987	-0.694021	-1.621308E+9	2.199512E-11	NaN
250	1.000000	0.464346	7.3675e+06	-51139.1	955.818	-29753.6	0.000000	0.000000	6.464904	-0.039576	NaN	0.000000	0.001546	0.001724	28.0786	0.104250	0.001870	55.7505	-83.7576	14.4975	-0.029719	0.463013	-0.652529	-0.653861	-0.039576	55.7505	-0.651996	-4.313236E+8	9.175407E-11	NaN
250	1.000000	0.506364	7.3675e+06	-51139.1	955.817	-29753.6	0.000000	0.000000	6.506923	-0.040297	NaN	0.000000	0.001550	0.001734	28.0789	0.074895	0.002119	35.3458	-24.2892	-162.582	-0.063632	0.505090	-0.610510	-0.611784	-0.040297	35.3458	-0.609655	-1.130765E+8	3.563694E-10	NaN
250	1.000000	0.548422	7.3675e+06	-51139.1	955.818	-29753.6	0.000000	0.000000	6.548981	-0.038400	NaN	0.000000	0.001593	0.001641	28.08	0.112918	0.001888	59.7932	-1.288948	11.8164	-0.085655	0.547080	-0.568452	-0.569795	-0.038400	59.7932	-0.567971	-3.010158E+7	1.275685E-9	NaN
250	1.000000	0.590425	7.3675e+06	-51139.1	955.819	-29753.6	0.000000	0.000000	6.590982	-0.070654	NaN	0.000000	0.001607	0.001668	28.0801	0.119194	0.002000	59.586	103.45	-162.146	0.007087	0.589087	-0.526450	-0.527788	-0.070654	59.586	-0.525560	-7.77857e+06	9.083139E-9	NaN
250	1.000000	0.632433	7.3675e+06	-51139.1	955.818	-29753.6	0.000000	0.000000	6.632995	0.056257	NaN	0.000000	0.001639	0.001751	28.0799	0.105297	0.001954	53.875	-66.2942	15.6798	0.129286	0.631061	-0.484442	-0.485814	0.056257	53.875	-0.485225	-2.13127e+06	-2.639585E-8	NaN
250	1.000000	0.674461	7.3675e+06	-51139.1	955.818	-29753.6	0.000000	0.000000	6.675024	0.053671	NaN	0.000000	0.001653	0.001658	28.0787	0.137867	0.002228	61.8845	105.348	-163.161	-0.040394	0.673208	-0.442413	-0.443667	0.053671	61.8845	-0.443064	-545246	-9.843528E-8	NaN
250	1.000000	0.716475	7.3675e+06	-51139.1	955.818	-29753.6	0.000000	0.000000	6.717036	0.027913	NaN	0.000000	0.001627	0.001679	28.0786	0.035822	0.001984	18.0584	-47.5404	15.0435	0.031546	0.715090	-0.400399	-0.401785	0.027913	18.0584	-0.401559	-140676	-1.984200E-7	NaN
250	1.000000	0.758505	7.3675e+06	-51139.1	955.817	-29753.6	0.000000	0.000000	6.759066	0.016937	NaN	0.000000	0.001655	0.001692	28.0785	0.131168	0.002070	63.3643	-113.014	-163.258	0.120659	0.757222	-0.358370	-0.359652	0.016937	63.3643	-0.358570	-33976.1	-4.984867E-7	NaN
250	1.000000	0.800490	7.3675e+06	-51139.1	955.818	-29753.6	0.000000	0.000000	6.801050	-0.001748	NaN	0.000000	0.001591	0.001696	28.0795	0.118389	0.002069	57.2208	14.2567	12.7749	-0.046765	0.799138	-0.316385	-0.317737	-0.001748	57.2208	-0.316362	-8223.25	2.125650E-7	NaN
250	1.000000	0.842555	7.3675e+06	-51139.1	955.818	-29753.6	0.000000	0.000000	6.843115	-0.014569	NaN	0.000000	0.001558	0.001664	28.0797	0.082991	0.002135	38.8715	103.351	-165.519	0.057466	0.841209	-0.274320	-0.275666	-0.014569	38.8715	-0.274039	-1917.95	7.596242E-6	NaN
250	1.000000	0.884538	7.3675e+06	-51139.1	955.818	-29753.6	0.000000	0.000000	6.885097	-0.011296	NaN	0.000000	0.001583	0.001688	28.0799	0.080405	0.001932	41.6112	118.494	16.4691	-0.036597	0.883184	-0.232337	-0.233691	-0.011296	41.6112	-0.232133	-432.676	2.610699E-5	NaN
250	1.000000	0.926563	7.3675e+06	-51139.1	955.817	-29753.6	0.000000	0.000000	6.927122	-0.016493	NaN	0.000000	0.001610	0.001662	28.0786	0.024351	0.001991	12.2304	-114.764	-162.708	-0.026277	0.925233	-0.190312	-0.191642	-0.016493	12.2304	-0.189301	-87.567	0.000188	NaN
250	1.000000	0.968576	7.3675e+06	-51139.1	955.819	-29753.6	0.000000	0.000000	6.969138	0.042335	NaN	0.000000	0.001616	0.001705	28.0787	0.152220	0.001922	79.2082	7.743571	9.809290	0.070030	0.967240	-0.148299	-0.149634	0.042335	79.2082	-0.148700	-17.1494	-0.002469	NaN
250	1.000000	1.010569	7.3675e+06	-51139.1	955.818	-29753.6	0.000000	0.000000	7.011130	0.026535	NaN	0.000000	0.001584	0.001687	28.0787	0.098410	0.001999	49.2357	175.303	-166.201	-0.014347	1.009276	-0.106306	-0.107599	0.026535	49.2357	-0.106710	-2.558308	-0.010372	NaN
250	1.000000	1.052599	7.3675e+06	-51139.1	955.818	-29753.6	0.000000	0.000000	7.053158	-0.014461	NaN	0.000000	0.001604	0.001678	28.0789	0.043577	0.001959	22.2462	31.5774	12.3266	0.057185	1.051257	-0.064276	-0.065618	-0.014461	22.2462	-0.063789	-0.230586	0.062714	NaN
250	1.000000	1.094615	7.3675e+06	-51139.1	955.82	-29753.6	0.000000	0.000000	7.095175	-0.000912	NaN	0.000000	0.001592	0.001651	28.08	0.088404	0.001982	44.5989	82.3171	-164.306	-0.057322	1.093309	-0.022260	-0.023565	-0.000912	44.5989	-0.022245	-0.014325	0.063682	NaN
250	2.000000	1.127718	7.3675e+06	-51139.1	955.82	-29753.6	0.000000	0.000000	7.128762	11.7824	NaN	0.000000	0.001564	0.001642	28.0804	12.1457	0.001758	6909.83	6.162315	8.066558	10.8699	1.127346	0.010843	0.010472	11.7824	6909.83	0.009564	0.008701	1354.13	67679
250	2.000000	1.138138	7.3675e+06	-51139.1	955.819	-29753.6	0.000000	0.000000	7.140117	34.511	NaN	0.000000	0.001575	0.001682	28.0805	23.6996	0.001691	14018.6	2.275135	-172.715	34.1183	1.137826	0.021263	0.020951	34.511	14018.6	0.019417	0.021634	1595.23	87078.2
250	2.000000	1.148587	7.3675e+06	-51139.1	955.819	-29753.6	0.000000	0.000000	7.151768	63.7362	NaN	0.000000	0.001584	0.001686	28.079	34.1924	0.001742	19630.1	6.003194	-1.883291	61.2726	1.148214	0.031712	0.031340	63.7362	19630.1	0.029277	0.039258	1623.52	90517.4
250	2.000000	1.159071	7.3675e+06	-51139.1	955.819	-29753.6	0.000000	0.000000	7.163743	100.009	NaN	0.000000	0.001582	0.001661	28.079	43.954	0.001766	24885.4	1.693629	-179.447	97.2683	1.158739	0.042196	0.041864	100.009	24885.4	0.039182	0.061931	1614.84	91361.5
250	2.000000	1.169573	7.3675e+06	-51139.1	955.818	-29753.6	0.000000	0.000000	7.176407	152.551	NaN	0.000000	0.001645	0.001708	28.0789	54.9048	0.001703	32249.5	7.831981	-7.044638	150.883	1.169157	0.052699	0.052282	152.551	32249.5	0.049151	0.089806	1698.67	98320.2
250	2.000000	1.180094	7.3675e+06	-51139.1	955.819	-29753.6	0.000000	0.000000	7.188944	201.588	NaN	0.000000	0.001664	0.001692	28.0805	65.385	0.001834	35646.8	3.698481	176.79	198.6	1.179730	0.063219	0.062855	201.588	35646.8	0.058978	0.122168	1650.09	93178.5
250	2.000000	1.190476	7.3675e+06	-51139.1	955.821	-29753.6	0.000000	0.000000	7.201806	261.873	NaN	0.000000	0.001562	0.001686	28.0799	75.7877	0.001792	42303.3	6.450343	-8.169538	254.843	1.190129	0.073602	0.073254	261.873	42303.3	0.068959	0.159878	1637.95	96661.5
250	2.000000	1.201013	7.3675e+06	-51139.1	955.819	-29753.6	0.000000	0.000000	7.215319	334.262	NaN	0.000000	0.001585	0.001674	28.0799	87.1032	0.001798	48453.2	4.388774	173.844	330.688	1.200664	0.084138	0.083789	334.262	48453.2	0.078964	0.202453	1651.06	98386
250	2.000000	1.211503	7.3675e+06	-51139.1	955.82	-29753.6	0.000000	0.000000	7.228490	399.46	NaN	0.000000	0.001578	0.001679	28.079	96.9122	0.001881	51514.4	2.529811	-5.473396	395.16	1.211322	0.094628	0.094447	399.46	51514.4	0.088813	0.248924	1604.75	94334.1
250	2.000000	1.222024	7.3675e+06	-51139.1	955.82	-29753.6	0.000000	0.000000	7.243391	505.97	NaN	0.000000	0.001559	0.001690	28.0787	106.926	0.001678	63729.9	4.844435	171.571	504.985	1.221561	0.105149	0.104686	505.97	63729.9	0.099194	0.302738	1671.32	105824
250	2.000000	1.222997	7.3675e+06	-51139.1	955.82	-29753.6	0.000000	0.000000	7.244099	499.523	NaN	0.000000	0.001567	0.001658	28.0787	107.791	0.001835	58736.8	3.441757	172.998	496.147	1.222756	0.106122	0.105882	499.523	58736.8	0.099744	0.305723	1633.91	97055.4