File: remote_trans/data/nanoindenter/0828-1/data/Data_2025-08-06,11h17m57s/2025-07-22_16-23-58_1_769.txt
2025-07-22, 16:23:58, 1
Index	Phase	Displacement	Time	Pos X	Pos Y	Pos Z	Rot A	Rot B	Piezo Z	Force A	Force B	Gripper	Voltage A	Voltage B	Temperature	Amplitude force	Amplitude pos	Stiffness	Phase shift	Phase excitation	Force A raw	Displacement raw	HMax	HMax raw	Real Force	Real Stiffness	Contact Depth	Area	Hardness	Reduced Mod.
[#]	[#]	[um]	[s]	[um]	[um]	[um]	[m°]	[m°]	[um]	[uN]	[uN]	[V]	[V]	[V]	[°C]	[uN]	[um]	[N/m]	[°]	[°]	[uN]	[um]	[um]	[um]	[uN]	[N/m]	[um]	[um^2]	[MPa]	[MPa]
769	1.000000	0.002854	7.37258e+06	-38639.1	1005.82	-29793.6	0.000000	0.000000	6.002802	0.040472	NaN	0.000000	0.001763	0.001745	28.0833	0.083942	0.000860	97.6468	172.185	-166.015	-0.055004	0.001575	-1.388997	-1.390275	0.040472	97.6468	-1.389308	-3.722436E+18	-1.087238E-20	NaN
769	1.000000	0.052777	7.37258e+06	-38639.1	1005.82	-29793.6	0.000000	0.000000	6.052723	-0.026882	NaN	0.000000	0.001761	0.001721	28.0817	0.114121	0.002011	56.7617	-138.332	15.816	-0.019175	0.051438	-1.339074	-1.340412	-0.026882	56.7617	-1.338718	-7.863198E+17	3.418658E-20	NaN
769	1.000000	0.102830	7.37258e+06	-38639.1	1005.82	-29793.6	0.000000	0.000000	6.102773	-0.083185	NaN	0.000000	0.001707	0.001788	28.0818	0.175567	0.001993	88.1014	169.598	-166.46	-0.073202	0.101515	-1.289021	-1.290335	-0.083185	88.1014	-1.288312	-1.668011E+17	4.987075E-19	NaN
769	1.000000	0.152863	7.37258e+06	-38639.1	1005.82	-29793.6	0.000000	0.000000	6.152810	0.007963	NaN	0.000000	0.001759	0.001733	28.0821	0.049261	0.002038	24.1681	-79.0926	15.1673	-0.025462	0.151484	-1.238987	-1.240367	0.007963	24.1681	-1.239234	-3.680441E+16	-2.163700E-19	NaN
769	1.000000	0.202874	7.37258e+06	-38639.1	1005.82	-29793.6	0.000000	0.000000	6.202817	-0.067576	NaN	0.000000	0.001634	0.001722	28.0831	0.103014	0.002005	51.3723	88.0889	-164.034	-0.003788	0.201530	-1.188977	-1.190321	-0.067576	51.3723	-1.187991	-7.584203E+15	8.910163E-18	NaN
769	1.000000	0.252916	7.37258e+06	-38639.1	1005.82	-29793.6	0.000000	0.000000	6.252861	-0.051899	NaN	0.000000	0.001639	0.001780	28.0836	0.048799	0.002014	24.2322	6.905805	15.33	-0.046782	0.251541	-1.138934	-1.140310	-0.051899	24.2322	-1.137328	-1.588204E+15	3.267780E-17	NaN
769	1.000000	0.302897	7.37258e+06	-38639.1	1005.82	-29793.6	0.000000	0.000000	6.302843	-0.009865	NaN	0.000000	0.001707	0.001779	28.0821	0.026056	0.002056	12.6729	88.908	-164.902	-0.026809	0.301600	-1.088954	-1.090250	-0.009865	12.6729	-1.088370	-3.498812E+14	2.819487E-17	NaN
769	1.000000	0.352909	7.37258e+06	-38639.1	1005.82	-29793.6	0.000000	0.000000	6.352857	0.039836	NaN	0.000000	0.001695	0.001821	28.0819	0.111055	0.001843	60.2691	81.6811	12.6408	-0.041720	0.351612	-1.038942	-1.040238	0.039836	60.2691	-1.039438	-7.698542E+13	-5.174523E-16	NaN
769	1.000000	0.402954	7.37258e+06	-38639.1	1005.82	-29793.6	0.000000	0.000000	6.402904	0.097298	NaN	0.000000	0.001716	0.001802	28.0821	0.040635	0.002135	19.0341	176.971	-166.174	0.015939	0.401605	-0.988897	-0.990246	0.097298	19.0341	-0.992731	-1.810880E+13	-5.372993E-15	NaN
769	1.000000	0.452995	7.37258e+06	-38639.1	1005.82	-29793.6	0.000000	0.000000	6.452940	-0.022962	NaN	0.000000	0.001698	0.001827	28.0831	0.080127	0.002000	40.0547	-136.47	12.1743	0.020682	0.451588	-0.938856	-0.940262	-0.022962	40.0547	-0.938426	-3.356613E+12	6.840825E-15	NaN
769	1.000000	0.503001	7.37258e+06	-38639.1	1005.82	-29793.6	0.000000	0.000000	6.502949	0.031339	NaN	0.000000	0.001693	0.001804	28.0836	0.057249	0.002095	27.331	73.1561	-167.564	-0.009498	0.501688	-0.888850	-0.890163	0.031339	27.331	-0.889710	-7.378935E+11	-4.247027E-14	NaN
769	1.000000	0.553030	7.37258e+06	-38639.1	1005.82	-29793.6	0.000000	0.000000	6.552974	-0.043301	NaN	0.000000	0.001713	0.001768	28.0831	0.066453	0.002013	33.0149	-154.251	17.108	-0.058315	0.551689	-0.838821	-0.840162	-0.043301	33.0149	-0.837837	-1.465526E+11	2.954623E-13	NaN
769	1.000000	0.603017	7.37258e+06	-38639.1	1005.82	-29793.6	0.000000	0.000000	6.602964	0.011779	NaN	0.000000	0.001684	0.001709	28.0818	0.010881	0.002043	5.324723	-68.8452	-160.665	-0.005555	0.601729	-0.788833	-0.790122	0.011779	5.324723	-0.790492	-3.340189E+10	-3.526310E-13	NaN
769	1.000000	0.653066	7.37258e+06	-38639.1	1005.82	-29793.6	0.000000	0.000000	6.653012	-0.018569	NaN	0.000000	0.001670	0.001755	28.0823	0.071249	0.001892	37.6486	37.2137	15.942	0.009785	0.651678	-0.738785	-0.740173	-0.018569	37.6486	-0.738415	-6.538304E+9	2.840016E-12	NaN
769	1.000000	0.703101	7.37258e+06	-38639.1	1005.82	-29793.6	0.000000	0.000000	6.703048	0.011695	NaN	0.000000	0.001692	0.001760	28.0821	0.062272	0.002000	31.1388	167.963	-163.694	-0.052170	0.701778	-0.688750	-0.690073	0.011695	31.1388	-0.689032	-1.385753E+9	-8.439116E-12	NaN
769	1.000000	0.753080	7.37258e+06	-38639.1	1005.82	-29793.6	0.000000	0.000000	6.753026	-0.016464	NaN	0.000000	0.001716	0.001745	28.0834	0.107301	0.002023	53.0405	108.181	13.5883	0.018031	0.751726	-0.638771	-0.640125	-0.016464	53.0405	-0.638538	-2.819843E+8	5.838471E-11	NaN
769	1.000000	0.803124	7.37258e+06	-38639.1	1005.82	-29793.6	0.000000	0.000000	6.803070	-0.025530	NaN	0.000000	0.001726	0.001737	28.0833	0.126801	0.001840	68.9275	-152.284	-162.812	-0.008380	0.801831	-0.588727	-0.590019	-0.025530	68.9275	-0.588449	-5.771371E+7	4.423574E-10	NaN
769	1.000000	0.853110	7.37258e+06	-38639.1	1005.82	-29793.6	0.000000	0.000000	6.853055	-0.033258	NaN	0.000000	0.001654	0.001721	28.0819	0.101276	0.001954	51.8241	159.387	16.7688	0.043710	0.851723	-0.538741	-0.540128	-0.033258	51.8241	-0.538259	-1.167388E+7	2.848939E-9	NaN
769	1.000000	0.903164	7.37258e+06	-38639.1	1005.82	-29793.6	0.000000	0.000000	6.903111	0.017634	NaN	0.000000	0.001666	0.001710	28.0821	0.049070	0.001955	25.102	-119.888	-163.966	0.022671	0.901826	-0.488687	-0.490025	0.017634	25.102	-0.489214	-2.42329e+06	-7.277072E-9	NaN
769	1.000000	0.953197	7.37258e+06	-38639.1	1005.82	-29793.6	0.000000	0.000000	6.953144	-0.002574	NaN	0.000000	0.001655	0.001744	28.0819	0.047091	0.001982	23.7558	168.789	15.3295	-0.044044	0.951854	-0.438653	-0.439997	-0.002574	23.7558	-0.438572	-471204	5.462487E-9	NaN
769	1.000000	1.003203	7.37258e+06	-38639.1	1005.82	-29793.6	0.000000	0.000000	7.003148	-0.048538	NaN	0.000000	0.001667	0.001681	28.0834	0.099742	0.002013	49.5558	-10.8607	-167.037	-0.060357	1.001892	-0.388648	-0.389959	-0.048538	49.5558	-0.387913	-89805.6	5.404781E-7	NaN
769	1.000000	1.053197	7.37258e+06	-38639.1	1005.82	-29793.6	0.000000	0.000000	7.053145	0.028650	NaN	0.000000	0.001714	0.001648	28.0831	0.113026	0.001894	59.6912	-33.1554	14.4626	0.011396	1.051850	-0.338653	-0.340000	0.028650	59.6912	-0.339013	-17667.2	-1.621670E-6	NaN
769	1.000000	1.103266	7.37258e+06	-38639.1	1005.82	-29793.6	0.000000	0.000000	7.103213	-0.009910	NaN	0.000000	0.001703	0.001665	28.0832	0.106382	0.002066	51.4816	-99.5475	-161.787	0.046785	1.101969	-0.288584	-0.289882	-0.009910	51.4816	-0.288440	-3161.67	3.134275E-6	NaN
769	1.000000	1.153250	7.37258e+06	-38639.1	1005.82	-29793.6	0.000000	0.000000	7.153197	0.024723	NaN	0.000000	0.001675	0.001717	28.0821	0.060492	0.001987	30.4449	161.335	16.5076	-0.010010	1.151884	-0.238601	-0.239966	0.024723	30.4449	-0.239210	-558.742	-4.424736E-5	NaN
769	1.000000	1.203263	7.37258e+06	-38639.1	1005.82	-29793.6	0.000000	0.000000	7.203207	-0.061722	NaN	0.000000	0.001710	0.001678	28.0819	0.038133	0.002010	18.9707	-108.281	-163.068	0.085069	1.202032	-0.188588	-0.189819	-0.061722	18.9707	-0.186148	-77.5281	0.000796	NaN
769	1.000000	1.253311	7.37258e+06	-38639.1	1005.82	-29793.6	0.000000	0.000000	7.253256	-0.053612	NaN	0.000000	0.001659	0.001696	28.0819	0.063456	0.001957	32.4201	-42.608	16.9465	-0.095800	1.251949	-0.138539	-0.139902	-0.053612	32.4201	-0.137299	-10.52	0.005096	NaN
769	1.000000	1.303323	7.37258e+06	-38639.1	1005.82	-29793.6	0.000000	0.000000	7.303274	0.096273	NaN	0.000000	0.001698	0.001681	28.083	0.112045	0.002036	55.0453	95.3023	-168.531	0.155377	1.302049	-0.088528	-0.089802	0.096273	55.0453	-0.089839	-1.071638	-0.089837	NaN
769	1.000000	1.353313	7.37258e+06	-38639.1	1005.82	-29793.6	0.000000	0.000000	7.353310	1.221859	NaN	0.000000	0.001794	0.001671	28.0833	0.591934	0.001979	299.174	19.8144	12.2687	1.036823	1.351988	-0.038538	-0.039863	1.221859	299.174	-0.041601	-0.050592	-24.1512	NaN
769	2.000000	1.397002	7.37258e+06	-38639.1	1005.82	-29793.6	0.000000	0.000000	7.397327	9.210399	NaN	0.000000	0.001771	0.001682	28.0823	2.480790	0.002126	1166.75	13.9513	-167.968	9.218735	1.396691	0.005151	0.004840	9.210399	1166.75	-0.000769	-0.000567	-16256	NaN
769	2.000000	1.409413	7.37258e+06	-38639.1	1005.82	-29793.6	0.000000	0.000000	7.409913	13.4541	NaN	0.000000	0.001733	0.001716	28.082	2.935894	0.001910	1537.38	12.6688	10.7488	13.3679	1.409101	0.017563	0.017251	13.4541	1537.38	0.010999	0.010313	1304.55	13831.2
769	2.000000	1.421937	7.37258e+06	-38639.1	1005.82	-29793.6	0.000000	0.000000	7.422673	19.2087	NaN	0.000000	0.001663	0.001701	28.0818	4.079318	0.001998	2041.2	11.697	-169.186	19.2261	1.421594	0.030086	0.029744	19.2087	2041.2	0.023028	0.027526	697.844	11240.6
769	2.000000	1.434394	7.37258e+06	-38639.1	1005.82	-29793.6	0.000000	0.000000	7.435438	26.7039	NaN	0.000000	0.001694	0.001705	28.0833	5.406584	0.002145	2520.86	12.194	10.8084	26.356	1.433933	0.042543	0.042083	26.7039	2520.86	0.034598	0.050815	525.509	10217.1
769	2.000000	1.446860	7.37258e+06	-38639.1	1005.82	-29793.6	0.000000	0.000000	7.448313	36.6661	NaN	0.000000	0.001660	0.001697	28.0831	7.032272	0.001954	3598.66	8.275385	-168.164	36.4914	1.446564	0.055009	0.054714	36.6661	3598.66	0.047368	0.084451	434.169	11313.9
769	2.000000	1.459367	7.37258e+06	-38639.1	1005.82	-29793.6	0.000000	0.000000	7.461438	51.7018	NaN	0.000000	0.001674	0.001649	28.0833	8.720269	0.001936	4504.01	10.9617	7.308365	51.2283	1.459022	0.067516	0.067171	51.7018	4504.01	0.058907	0.121917	424.075	11785.3
769	2.000000	1.471834	7.37258e+06	-38639.1	1005.82	-29793.6	0.000000	0.000000	7.474612	68.9006	NaN	0.000000	0.001683	0.001657	28.0818	10.0512	0.001997	5033.36	9.983100	-172.407	68.2786	1.471519	0.079983	0.079668	68.9006	5033.36	0.069717	0.162938	422.865	11392.5
769	2.000000	1.484324	7.37258e+06	-38639.1	1005.82	-29793.6	0.000000	0.000000	7.487851	87.1401	NaN	0.000000	0.001662	0.001675	28.0823	11.8802	0.002143	5544.92	11.9738	5.147490	86.4247	1.483996	0.092473	0.092145	87.1401	5544.92	0.080687	0.210257	414.445	11048.2
769	2.000000	1.493308	7.37258e+06	-38639.1	1005.82	-29793.6	0.000000	0.000000	7.497416	101.278	NaN	0.000000	0.001667	0.001685	28.0817	12.272	0.001946	6305.26	7.673009	8.313700	100.47	1.492936	0.101457	0.101085	101.278	6305.26	0.089410	0.251889	402.073	11478.1