File: remote_trans/data/nanoindenter/0828-1/data/Data_2025-08-06,11h17m57s/2025-07-22_16-23-58_1_1147.txt
2025-07-22, 16:23:58, 1
Index	Phase	Displacement	Time	Pos X	Pos Y	Pos Z	Rot A	Rot B	Piezo Z	Force A	Force B	Gripper	Voltage A	Voltage B	Temperature	Amplitude force	Amplitude pos	Stiffness	Phase shift	Phase excitation	Force A raw	Displacement raw	HMax	HMax raw	Real Force	Real Stiffness	Contact Depth	Area	Hardness	Reduced Mod.
[#]	[#]	[um]	[s]	[um]	[um]	[um]	[m°]	[m°]	[um]	[uN]	[uN]	[V]	[V]	[V]	[°C]	[uN]	[um]	[N/m]	[°]	[°]	[uN]	[um]	[um]	[um]	[uN]	[N/m]	[um]	[um^2]	[MPa]	[MPa]
1147	1.000000	0.001800	7.37627e+06	-57489.1	1055.82	-29736.2	0.000000	0.000000	6.002785	0.021438	NaN	0.000000	0.001561	0.001668	28.0806	0.107169	0.000953	112.463	144.986	-162.287	-0.018129	0.000617	-1.736125	-1.737307	0.021438	112.463	-1.736268	-1.542182E+23	-1.390108E-25	NaN
1147	1.000000	0.061787	7.37627e+06	-57489.1	1055.82	-29736.2	0.000000	0.000000	6.062776	0.124335	NaN	0.000000	0.001555	0.001705	28.0797	0.037432	0.002101	17.8201	-71.1401	-166.916	0.115355	0.060454	-1.676138	-1.677471	0.124335	17.8201	-1.681371	-2.877006E+22	-4.321689E-24	NaN
1147	1.000000	0.121812	7.37627e+06	-57489.1	1055.82	-29736.2	0.000000	0.000000	6.122799	0.096285	NaN	0.000000	0.001584	0.001714	28.0795	0.064563	0.001915	33.7128	-54.308	-163.177	0.062953	0.120471	-1.616113	-1.617454	0.096285	33.7128	-1.618255	-4.168671E+21	-2.309731E-23	NaN
1147	1.000000	0.181813	7.37627e+06	-57489.1	1055.82	-29736.2	0.000000	0.000000	6.182799	0.063731	NaN	0.000000	0.001596	0.001684	28.0808	0.042622	0.002124	20.0696	81.2975	-164.628	0.012734	0.180508	-1.556112	-1.557417	0.063731	20.0696	-1.558494	-6.683912E+20	-9.534959E-23	NaN
1147	1.000000	0.241830	7.37627e+06	-57489.1	1055.82	-29736.2	0.000000	0.000000	6.242816	0.068107	NaN	0.000000	0.001557	0.001729	28.0804	0.138968	0.001920	72.3863	151.586	-169.812	0.138461	0.240529	-1.496095	-1.497396	0.068107	72.3863	-1.496801	-1.008574E+20	-6.752818E-22	NaN
1147	1.000000	0.301866	7.37627e+06	-57489.1	1055.82	-29736.2	0.000000	0.000000	6.302850	0.010775	NaN	0.000000	0.001579	0.001699	28.0801	0.127933	0.001992	64.2093	101.479	-163.555	0.060962	0.300615	-1.436059	-1.437310	0.010775	64.2093	-1.436185	-1.570334E+19	-6.861868E-22	NaN
1147	1.000000	0.361881	7.37628e+06	-57489.1	1055.82	-29736.2	0.000000	0.000000	6.362867	0.049199	NaN	0.000000	0.001553	0.001698	28.0791	0.041938	0.002019	20.774	-175.407	-165.423	-0.120550	0.360558	-1.376043	-1.377367	0.049199	20.774	-1.377820	-2.615449E+18	-1.881092E-20	NaN
1147	1.000000	0.421941	7.37628e+06	-57489.1	1055.82	-29736.2	0.000000	0.000000	6.422926	0.024407	NaN	0.000000	0.001552	0.001667	28.0791	0.064938	0.001894	34.2899	47.5694	-168.057	0.033484	0.420618	-1.315984	-1.317307	0.024407	34.2899	-1.316518	-3.972729E+17	-6.143589E-20	NaN
1147	1.000000	0.481937	7.37628e+06	-57489.1	1055.82	-29736.2	0.000000	0.000000	6.482924	0.063814	NaN	0.000000	0.001582	0.001656	28.0801	0.018402	0.001901	9.679523	-42.043	-160.448	-0.001078	0.480604	-1.255988	-1.257321	0.063814	9.679523	-1.260932	-7.180230E+16	-8.887452E-19	NaN
1147	1.000000	0.541941	7.37628e+06	-57489.1	1055.82	-29736.2	0.000000	0.000000	6.542925	0.003473	NaN	0.000000	0.001556	0.001691	28.0805	0.079565	0.001945	40.9093	32.6632	-166.609	-0.051684	0.540636	-1.195983	-1.197289	0.003473	40.9093	-1.196047	-9.723313E+15	-3.571913E-19	NaN
1147	1.000000	0.601987	7.37628e+06	-57489.1	1055.82	-29736.2	0.000000	0.000000	6.602971	-0.008098	NaN	0.000000	0.001555	0.001678	28.079	0.095364	0.001963	48.5822	-132.829	-164.634	0.021209	0.600615	-1.135938	-1.137310	-0.008098	48.5822	-1.135813	-1.515589E+15	5.343043E-18	NaN
1147	1.000000	0.662046	7.37628e+06	-57489.1	1055.82	-29736.2	0.000000	0.000000	6.663028	-0.045040	NaN	0.000000	0.001565	0.001654	28.0793	0.045024	0.002006	22.449	70.9759	-164.726	-0.030601	0.660710	-1.075879	-1.077215	-0.045040	22.449	-1.074374	-2.269620E+14	1.984475E-16	NaN
1147	1.000000	0.722022	7.37628e+06	-57489.1	1055.82	-29736.2	0.000000	0.000000	6.723006	-0.003992	NaN	0.000000	0.001510	0.001696	28.0807	0.063403	0.001887	33.6033	-148.145	-163.542	0.039101	0.720771	-1.015903	-1.017154	-0.003992	33.6033	-1.015814	-3.703573E+13	1.077947E-16	NaN
1147	1.000000	0.782100	7.37628e+06	-57489.1	1055.82	-29736.2	0.000000	0.000000	6.783086	0.043205	NaN	0.000000	0.001603	0.001717	28.0803	0.144032	0.002097	68.6731	21.6204	-167.119	0.018193	0.780812	-0.955825	-0.957113	0.043205	68.6731	-0.956297	-5.847052E+12	-7.389130E-15	NaN
1147	1.000000	0.842091	7.37628e+06	-57489.1	1055.82	-29736.2	0.000000	0.000000	6.843075	-0.006351	NaN	0.000000	0.001525	0.001706	28.0799	0.082534	0.001965	42.0083	140.515	-163.875	-0.030042	0.840766	-0.895834	-0.897159	-0.006351	42.0083	-0.895721	-8.896834E+11	7.138213E-15	NaN
1147	1.000000	0.902129	7.37628e+06	-57489.1	1055.82	-29736.2	0.000000	0.000000	6.903116	0.059947	NaN	0.000000	0.001528	0.001720	28.0791	0.031997	0.002076	15.4113	152.966	-165.894	0.035488	0.900772	-0.835796	-0.837152	0.059947	15.4113	-0.838713	-1.506111E+11	-3.980258E-13	NaN
1147	1.000000	0.962159	7.37628e+06	-57489.1	1055.82	-29736.2	0.000000	0.000000	6.963144	0.041382	NaN	0.000000	0.001554	0.001670	28.0788	0.068348	0.002090	32.697	27.1911	-164.753	0.095208	0.960854	-0.775766	-0.777071	0.041382	32.697	-0.776715	-2.170668E+10	-1.906409E-12	NaN
1147	1.000000	1.022160	7.37628e+06	-57489.1	1055.82	-29736.2	0.000000	0.000000	7.023142	-0.051421	NaN	0.000000	0.001642	0.001661	28.0801	0.064698	0.002023	31.9819	17.1548	-166.343	-0.015324	1.020877	-0.715765	-0.717048	-0.051421	31.9819	-0.714559	-3.092127E+9	1.662961E-11	NaN
1147	1.000000	1.082199	7.37628e+06	-57489.1	1055.82	-29736.2	0.000000	0.000000	7.083186	0.078939	NaN	0.000000	0.001583	0.001666	28.0803	0.020795	0.002032	10.2356	178.783	-164.626	0.065046	1.080882	-0.655726	-0.657042	0.078939	10.2356	-0.661510	-5.823072E+8	-1.355618E-10	NaN
1147	1.000000	1.142206	7.37628e+06	-57489.1	1055.82	-29736.2	0.000000	0.000000	7.143190	0.015139	NaN	0.000000	0.001620	0.001644	28.079	0.094389	0.001940	48.6556	88.4535	-165.055	0.001244	1.140901	-0.595719	-0.597024	0.015139	48.6556	-0.595952	-7.323269E+7	-2.067289E-10	NaN
1147	1.000000	1.202263	7.37628e+06	-57489.1	1055.82	-29736.2	0.000000	0.000000	7.203247	0.019263	NaN	0.000000	0.001632	0.001648	28.0792	0.009431	0.002248	4.194590	4.897981	-165.025	0.039264	1.200881	-0.535662	-0.537044	0.019263	4.194590	-0.539107	-1.199410E+7	-1.606074E-9	NaN
1147	1.000000	1.262287	7.37628e+06	-57489.1	1055.82	-29736.2	0.000000	0.000000	7.263272	0.021359	NaN	0.000000	0.001511	0.001642	28.0805	0.085574	0.002035	42.0588	-28.8853	-163.65	-0.052419	1.261044	-0.475638	-0.476881	0.021359	42.0588	-0.476019	-1.58406e+06	-1.348400E-8	NaN
1147	1.000000	1.322297	7.37628e+06	-57489.1	1055.82	-29736.2	0.000000	0.000000	7.323278	-0.065311	NaN	0.000000	0.001525	0.001638	28.0802	0.046129	0.002012	22.9267	21.1005	-162.546	-0.076095	1.320961	-0.415628	-0.416964	-0.065311	22.9267	-0.413492	-207984	3.140187E-7	NaN
1147	1.000000	1.382307	7.37628e+06	-57489.1	1055.82	-29736.2	0.000000	0.000000	7.383291	0.006481	NaN	0.000000	0.001583	0.001603	28.0803	0.069577	0.002048	33.9649	-21.3654	-165.876	0.097139	1.381018	-0.355618	-0.356907	0.006481	33.9649	-0.355761	-30939.9	-2.094781E-7	NaN
1147	1.000000	1.442330	7.37628e+06	-57489.1	1055.82	-29736.2	0.000000	0.000000	7.443313	-0.024271	NaN	0.000000	0.001603	0.001636	28.0792	0.061449	0.001973	31.1464	19.1008	-165.006	-0.060977	1.441012	-0.295595	-0.296913	-0.024271	31.1464	-0.295010	-3964.97	6.121372E-6	NaN
1147	1.000000	1.502394	7.37628e+06	-57489.1	1055.82	-29736.2	0.000000	0.000000	7.503378	0.001849	NaN	0.000000	0.001611	0.001628	28.079	0.085962	0.001976	43.504	60.6302	-166.803	0.021011	1.501022	-0.235531	-0.236903	0.001849	43.504	-0.235563	-489.869	-3.775108E-6	NaN
1147	1.000000	1.562440	7.37628e+06	-57489.1	1055.82	-29736.2	0.000000	0.000000	7.563423	-0.031480	NaN	0.000000	0.001583	0.001648	28.0801	0.082160	0.002046	40.1637	5.630340	-160.726	0.036415	1.561145	-0.175485	-0.176780	-0.031480	40.1637	-0.174897	-49.9126	0.000631	NaN
1147	1.000000	1.622440	7.37628e+06	-57489.1	1055.82	-29736.2	0.000000	0.000000	7.623424	0.005203	NaN	0.000000	0.001601	0.001666	28.0805	0.139099	0.001992	69.813	98.6775	-164.528	0.032704	1.621150	-0.115484	-0.116775	0.005203	69.813	-0.115540	-3.919506	-0.001327	NaN
1147	1.000000	1.682470	7.37628e+06	-57489.1	1055.82	-29736.2	0.000000	0.000000	7.683451	-0.060808	NaN	0.000000	0.001527	0.001681	28.0791	0.094364	0.001904	49.5713	-125.269	-169.478	-0.036378	1.681112	-0.055455	-0.056812	-0.060808	49.5713	-0.054535	-0.124761	0.487391	NaN
1147	1.000000	1.742375	7.37628e+06	-57489.1	1055.82	-29736.2	0.000000	0.000000	7.743695	8.179730	NaN	0.000000	0.001513	0.001689	28.0791	8.517365	0.001655	5146.28	12.2952	-172.949	7.055457	1.741100	0.004450	0.003175	8.179730	5146.28	0.003258	0.002598	3148.38	92244.5
1147	2.000000	1.757921	7.37628e+06	-57489.1	1055.82	-29736.2	0.000000	0.000000	7.760444	37.4225	NaN	0.000000	0.001557	0.001691	28.0792	25.519	0.001818	14036.7	3.694678	-176.735	37.6011	1.757654	0.019996	0.019730	37.4225	14036.7	0.017996	0.019491	1919.98	91858.9
1147	2.000000	1.772947	7.37628e+06	-57489.1	1055.82	-29736.2	0.000000	0.000000	7.777214	79.7934	NaN	0.000000	0.001532	0.001709	28.0805	37.9126	0.001854	20444.8	3.861288	-177.914	81.3677	1.772617	0.035022	0.034692	79.7934	20444.8	0.032095	0.045198	1765.44	87861.5
1147	2.000000	1.787871	7.37628e+06	-57489.1	1055.82	-29736.2	0.000000	0.000000	7.794368	133.981	NaN	0.000000	0.001591	0.001637	28.0802	51.9133	0.001814	28615	4.367180	177.145	133.733	1.787464	0.049946	0.049539	133.981	28615	0.046435	0.081712	1639.67	91458.5
1147	2.000000	1.802798	7.37628e+06	-57489.1	1055.82	-29736.2	0.000000	0.000000	7.812320	207.514	NaN	0.000000	0.001568	0.001706	28.0792	64.945	0.001839	35314.2	5.181906	174.496	204.441	1.802531	0.064873	0.064606	207.514	35314.2	0.060466	0.127486	1627.74	90363.3
1147	2.000000	1.817811	7.37628e+06	-57489.1	1055.82	-29736.2	0.000000	0.000000	7.830546	285.619	NaN	0.000000	0.001567	0.001697	28.0789	77.9738	0.001803	43240.6	1.345624	176.573	284.734	1.817646	0.079886	0.079721	285.619	43240.6	0.074932	0.184726	1546.17	91918
1147	2.000000	1.832760	7.37628e+06	-57489.1	1055.82	-29736.2	0.000000	0.000000	7.849702	387.859	NaN	0.000000	0.001584	0.001699	28.0803	92.4974	0.001803	51295.6	5.040614	172.027	384.556	1.832463	0.094835	0.094538	387.859	51295.6	0.089164	0.250665	1547.32	93606.5
1147	2.000000	1.841733	7.37628e+06	-57489.1	1055.82	-29736.2	0.000000	0.000000	7.861287	451.344	NaN	0.000000	0.001601	0.001655	28.0806	101.261	0.001762	57455.1	5.957004	170.501	449.424	1.841479	0.103808	0.103554	451.344	57455.1	0.097917	0.295849	1525.59	96508.7