File: remote_trans/data/nanoindenter/0828-1/data/Data_2025-08-06,11h17m57s/2025-07-22_16-23-58_1_374.txt
2025-07-22, 16:23:58, 1
Index	Phase	Displacement	Time	Pos X	Pos Y	Pos Z	Rot A	Rot B	Piezo Z	Force A	Force B	Gripper	Voltage A	Voltage B	Temperature	Amplitude force	Amplitude pos	Stiffness	Phase shift	Phase excitation	Force A raw	Displacement raw	HMax	HMax raw	Real Force	Real Stiffness	Contact Depth	Area	Hardness	Reduced Mod.
[#]	[#]	[um]	[s]	[um]	[um]	[um]	[m°]	[m°]	[um]	[uN]	[uN]	[V]	[V]	[V]	[°C]	[uN]	[um]	[N/m]	[°]	[°]	[uN]	[um]	[um]	[um]	[uN]	[N/m]	[um]	[um^2]	[MPa]	[MPa]
374	1.000000	0.002100	7.36872e+06	-57339.1	955.818	-29737.4	0.000000	0.000000	6.002808	0.057880	NaN	0.000000	0.001603	0.001694	28.0819	0.008296	0.001048	7.912404	-145.306	-168.502	0.046463	0.000869	-1.015414	-1.016645	0.057880	7.912404	-1.020901	-4.335818E+13	-1.334927E-15	NaN
374	1.000000	0.042021	7.36872e+06	-57339.1	955.818	-29737.4	0.000000	0.000000	6.042729	0.064284	NaN	0.000000	0.001637	0.001725	28.0822	0.073754	0.002062	35.7668	-147.599	-165.491	0.085522	0.040814	-0.975494	-0.976701	0.064284	35.7668	-0.976842	-1.106265E+13	-5.810888E-15	NaN
374	1.000000	0.082021	7.36872e+06	-57339.1	955.819	-29737.4	0.000000	0.000000	6.082730	0.074417	NaN	0.000000	0.001619	0.001670	28.0824	0.065916	0.001974	33.3971	13.3598	-168.648	0.072624	0.080790	-0.935493	-0.936724	0.074417	33.3971	-0.937165	-3.227605E+12	-2.305646E-14	NaN
374	1.000000	0.122106	7.36872e+06	-57339.1	955.818	-29737.4	0.000000	0.000000	6.122815	0.091905	NaN	0.000000	0.001620	0.001674	28.081	0.087152	0.001856	46.9575	38.8555	-165.263	0.021584	0.120768	-0.895409	-0.896747	0.091905	46.9575	-0.896877	-9.222790E+11	-9.965025E-14	NaN
374	1.000000	0.162083	7.36872e+06	-57339.1	955.819	-29737.4	0.000000	0.000000	6.162793	0.117303	NaN	0.000000	0.001626	0.001658	28.0807	0.089773	0.002005	44.7723	-98.6556	-167.375	0.057472	0.160749	-0.855432	-0.856765	0.117303	44.7723	-0.857397	-2.697038E+11	-4.349331E-13	NaN
374	1.000000	0.202140	7.36872e+06	-57339.1	955.818	-29737.4	0.000000	0.000000	6.202850	0.132459	NaN	0.000000	0.001589	0.001673	28.0808	0.094053	0.002049	45.9109	63.829	-166.459	0.116255	0.200772	-0.815375	-0.816743	0.132459	45.9109	-0.817539	-7.777435E+10	-1.703125E-12	NaN
374	1.000000	0.242115	7.36872e+06	-57339.1	955.818	-29737.4	0.000000	0.000000	6.242823	0.074235	NaN	0.000000	0.001621	0.001728	28.0824	0.050108	0.002104	23.8147	-83.432	-166.433	0.061926	0.240800	-0.775400	-0.776714	0.074235	23.8147	-0.777737	-2.241217E+10	-3.312258E-12	NaN
374	1.000000	0.282154	7.36872e+06	-57339.1	955.819	-29737.4	0.000000	0.000000	6.282863	0.081059	NaN	0.000000	0.001639	0.001692	28.0819	0.084947	0.002043	41.5792	-128.269	-165.023	0.016616	0.280852	-0.735360	-0.736663	0.081059	41.5792	-0.736822	-6.219732E+9	-1.303250E-11	NaN
374	1.000000	0.322157	7.36872e+06	-57339.1	955.818	-29737.4	0.000000	0.000000	6.322860	-0.054992	NaN	0.000000	0.001633	0.001671	28.0825	0.080432	0.002012	39.9804	-69.4656	-169.614	-0.070633	0.320877	-0.695358	-0.696638	-0.054992	39.9804	-0.694326	-1.636924E+9	3.359464E-11	NaN
374	1.000000	0.362176	7.36872e+06	-57339.1	955.819	-29737.4	0.000000	0.000000	6.362883	0.036462	NaN	0.000000	0.001648	0.001690	28.0823	0.108373	0.002014	53.8006	-103.462	-166.037	0.017165	0.360866	-0.655339	-0.656649	0.036462	53.8006	-0.655847	-4.870494E+8	-7.486404E-11	NaN
374	1.000000	0.402188	7.36872e+06	-57339.1	955.818	-29737.4	0.000000	0.000000	6.402892	-0.020474	NaN	0.000000	0.001616	0.001675	28.0808	0.081535	0.001967	41.4428	-23.1963	-165.313	-0.017651	0.400938	-0.615327	-0.616577	-0.020474	41.4428	-0.614956	-1.337477E+8	1.530792E-10	NaN
374	1.000000	0.442204	7.36872e+06	-57339.1	955.818	-29737.4	0.000000	0.000000	6.442910	0.026395	NaN	0.000000	0.001643	0.001666	28.081	0.046777	0.002058	22.734	-90.0792	-165.403	0.132008	0.440891	-0.575311	-0.576624	0.026395	22.734	-0.576181	-3.908504E+7	-6.753111E-10	NaN
374	1.000000	0.482224	7.36872e+06	-57339.1	955.818	-29737.4	0.000000	0.000000	6.482931	0.041958	NaN	0.000000	0.001677	0.001692	28.0813	0.102745	0.001934	53.1123	-164.555	-167.133	-0.033888	0.480913	-0.535291	-0.536602	0.041958	53.1123	-0.535883	-1.082049E+7	-3.877686E-9	NaN
374	1.000000	0.522257	7.36872e+06	-57339.1	955.819	-29737.4	0.000000	0.000000	6.522960	-0.037790	NaN	0.000000	0.001644	0.001629	28.0824	0.074659	0.001936	38.5721	-115.86	-167.325	0.031241	0.520899	-0.495258	-0.496615	-0.037790	38.5721	-0.494523	-2.8746e+06	1.314626E-8	NaN
374	1.000000	0.562269	7.36872e+06	-57339.1	955.819	-29737.4	0.000000	0.000000	6.562975	0.023906	NaN	0.000000	0.001617	0.001653	28.0827	0.100741	0.001976	50.9705	18.988	-167.53	-0.002237	0.560946	-0.455246	-0.456569	0.023906	50.9705	-0.455598	-818705	-2.920034E-8	NaN
374	1.000000	0.602274	7.36872e+06	-57339.1	955.818	-29737.4	0.000000	0.000000	6.602979	-0.000997	NaN	0.000000	0.001602	0.001654	28.0828	0.095361	0.002010	47.4534	0.799564	-167.515	0.073849	0.601002	-0.415240	-0.416512	-0.000997	47.4534	-0.415225	-220113	4.529632E-9	NaN
374	1.000000	0.642296	7.36872e+06	-57339.1	955.818	-29737.4	0.000000	0.000000	6.643002	0.025056	NaN	0.000000	0.001591	0.001714	28.0821	0.078421	0.002060	38.0751	174.371	-165.216	-0.003799	0.640966	-0.375219	-0.376549	0.025056	38.0751	-0.375712	-60022.1	-4.174496E-7	NaN
374	1.000000	0.682327	7.36872e+06	-57339.1	955.818	-29737.4	0.000000	0.000000	6.683034	0.052885	NaN	0.000000	0.001597	0.001727	28.081	0.072848	0.001969	36.9932	-120.55	-165.297	0.098650	0.680995	-0.335188	-0.336520	0.052885	36.9932	-0.336260	-16106.3	-3.283480E-6	NaN
374	1.000000	0.722316	7.36872e+06	-57339.1	955.818	-29737.4	0.000000	0.000000	6.723021	-0.016421	NaN	0.000000	0.001622	0.001756	28.081	0.051451	0.002023	25.4335	74.9798	-165.541	-0.037784	0.721024	-0.295199	-0.296491	-0.016421	25.4335	-0.294714	-3924.83	4.183781E-6	NaN
374	1.000000	0.762325	7.36873e+06	-57339.1	955.817	-29737.4	0.000000	0.000000	6.763030	0.001516	NaN	0.000000	0.001611	0.001654	28.0811	0.028915	0.001873	15.4414	-151.499	-164.848	-0.061608	0.761065	-0.255190	-0.256450	0.001516	15.4414	-0.255264	-991.233	-1.528994E-6	NaN
374	1.000000	0.802357	7.36873e+06	-57339.1	955.818	-29737.4	0.000000	0.000000	6.803056	-0.157026	NaN	0.000000	0.001619	0.001702	28.0825	0.076743	0.002005	38.2689	-28.6599	-166.895	-0.238020	0.801005	-0.215158	-0.216509	-0.157026	38.2689	-0.212080	-207.233	0.000758	NaN
374	1.000000	0.842369	7.36873e+06	-57339.1	955.818	-29737.4	0.000000	0.000000	6.843068	-0.139031	NaN	0.000000	0.001606	0.001670	28.0826	0.059777	0.002017	29.6311	-177.299	-166.003	-0.139941	0.841090	-0.175146	-0.176425	-0.139031	29.6311	-0.171627	-43.8342	0.003172	NaN
374	1.000000	0.882389	7.36873e+06	-57339.1	955.819	-29737.4	0.000000	0.000000	6.883091	-0.084455	NaN	0.000000	0.001647	0.001691	28.0826	0.107035	0.002057	52.0448	158.701	-166.534	-0.149232	0.881039	-0.135126	-0.136476	-0.084455	52.0448	-0.133909	-9.066038	0.009316	NaN
374	1.000000	0.922402	7.36873e+06	-57339.1	955.818	-29737.4	0.000000	0.000000	6.923108	0.025436	NaN	0.000000	0.001615	0.001709	28.0813	0.015316	0.001945	7.875099	-133.699	-166.979	-0.058020	0.921085	-0.095112	-0.096430	0.025436	7.875099	-0.097535	-1.609768	-0.015801	NaN
374	1.000000	0.962438	7.36873e+06	-57339.1	955.818	-29737.4	0.000000	0.000000	6.963142	-0.021224	NaN	0.000000	0.001639	0.001666	28.0815	0.175498	0.001976	88.8094	103.724	-168.086	0.057126	0.961147	-0.055077	-0.056368	-0.021224	88.8094	-0.054898	-0.127886	0.165963	NaN
374	1.000000	1.002458	7.36873e+06	-57339.1	955.818	-29737.4	0.000000	0.000000	7.003160	-0.065060	NaN	0.000000	0.001628	0.001644	28.0815	0.108674	0.001976	54.9915	32.4144	-168.73	-0.007659	1.001109	-0.015057	-0.016406	-0.065060	54.9915	-0.014170	-0.008783	7.407568	NaN
374	2.000000	1.032947	7.36873e+06	-57339.1	955.818	-29737.4	0.000000	0.000000	7.034185	12.9428	NaN	0.000000	0.001606	0.001702	28.0815	12.9376	0.001784	7250.46	6.884232	-175.64	12.2526	1.032701	0.015432	0.015187	12.9428	7250.46	0.014094	0.014096	918.202	55794.9
374	2.000000	1.042909	7.36873e+06	-57339.1	955.818	-29737.4	0.000000	0.000000	7.044775	28.2235	NaN	0.000000	0.001628	0.001679	28.0826	23.0187	0.001881	12235	7.775557	-179.592	27.0274	1.042602	0.025394	0.025087	28.2235	12235	0.023664	0.028629	985.822	66064.8
374	2.000000	1.052844	7.36873e+06	-57339.1	955.819	-29737.4	0.000000	0.000000	7.055622	50.4035	NaN	0.000000	0.001645	0.001703	28.0827	32.8916	0.001807	18200	4.664839	178.785	48.034	1.052577	0.035329	0.035063	50.4035	18200	0.033252	0.047754	1055.49	76092.7
374	2.000000	1.062879	7.36873e+06	-57339.1	955.819	-29737.4	0.000000	0.000000	7.066712	76.0039	NaN	0.000000	0.001659	0.001651	28.0824	44.1151	0.001845	23907.4	8.353446	172.521	75.3026	1.062635	0.045365	0.045120	76.0039	23907.4	0.042980	0.071957	1056.24	81426.9
374	2.000000	1.072829	7.36873e+06	-57339.1	955.819	-29737.4	0.000000	0.000000	7.078187	113.095	NaN	0.000000	0.001610	0.001636	28.0812	52.255	0.001898	27533.2	3.351792	177.018	111.086	1.072510	0.055314	0.054995	113.095	27533.2	0.052234	0.099442	1137.29	79770.9
374	2.000000	1.082817	7.36873e+06	-57339.1	955.82	-29737.4	0.000000	0.000000	7.089856	153.94	NaN	0.000000	0.001609	0.001674	28.0814	61.7557	0.001705	36223.3	3.239850	174.459	150.963	1.082557	0.065303	0.065042	153.94	36223.3	0.062115	0.133503	1153.08	90576.4
374	2.000000	1.092778	7.36873e+06	-57339.1	955.818	-29737.4	0.000000	0.000000	7.101658	198.69	NaN	0.000000	0.001612	0.001661	28.0814	72.6243	0.001861	39018.1	4.603011	172.292	194.327	1.092547	0.075263	0.075032	198.69	39018.1	0.071444	0.170010	1168.7	86457.3
374	2.000000	1.102818	7.36873e+06	-57339.1	955.818	-29737.4	0.000000	0.000000	7.114554	268.108	NaN	0.000000	0.001578	0.001641	28.0812	82.5336	0.001871	44110.3	2.837991	174.129	265.963	1.102465	0.085303	0.084950	268.108	44110.3	0.080745	0.210521	1273.54	87834.6
374	2.000000	1.112679	7.36873e+06	-57339.1	955.817	-29737.4	0.000000	0.000000	7.126742	324.667	NaN	0.000000	0.001609	0.001667	28.0825	91.5527	0.001832	49974.7	4.450282	171.526	317.333	1.112540	0.095164	0.095025	324.667	49974.7	0.090291	0.256288	1266.8	90190.2
374	2.000000	1.122828	7.36873e+06	-57339.1	955.818	-29737.4	0.000000	0.000000	7.139330	383.929	NaN	0.000000	0.001635	0.001680	28.0825	102.845	0.001779	57811.4	6.204058	168.683	386.813	1.122574	0.105314	0.105060	383.929	57811.4	0.100333	0.308937	1242.74	95027.9
374	2.000000	1.128384	7.36873e+06	-57339.1	955.818	-29737.4	0.000000	0.000000	7.146683	427.613	NaN	0.000000	0.001605	0.001696	28.0825	106.283	0.001706	62308.6	8.079754	-13.1879	429.78	1.127824	0.110869	0.110309	427.613	62308.6	0.105722	0.339087	1261.07	97761