File: remote_trans/data/nanoindenter/0828-1/data/Data_2025-08-06,11h17m57s/2025-07-22_16-23-58_1_1045.txt
2025-07-22, 16:23:58, 1
Index	Phase	Displacement	Time	Pos X	Pos Y	Pos Z	Rot A	Rot B	Piezo Z	Force A	Force B	Gripper	Voltage A	Voltage B	Temperature	Amplitude force	Amplitude pos	Stiffness	Phase shift	Phase excitation	Force A raw	Displacement raw	HMax	HMax raw	Real Force	Real Stiffness	Contact Depth	Area	Hardness	Reduced Mod.
[#]	[#]	[um]	[s]	[um]	[um]	[um]	[m°]	[m°]	[um]	[uN]	[uN]	[V]	[V]	[V]	[°C]	[uN]	[um]	[N/m]	[°]	[°]	[uN]	[um]	[um]	[um]	[uN]	[N/m]	[um]	[um^2]	[MPa]	[MPa]
1045	1.000000	0.002604	7.37527e+06	-52389.1	1055.82	-29749.2	0.000000	0.000000	6.002764	0.034666	NaN	0.000000	0.001582	0.001813	28.0852	0.029659	0.001059	28.0127	38.1628	-163.424	0.016053	0.001367	-1.032863	-1.034099	0.034666	28.0127	-1.033791	-6.463466E+13	-5.363312E-16	NaN
1045	1.000000	0.042597	7.37527e+06	-52389.1	1055.82	-29749.3	0.000000	0.000000	6.042755	-0.006660	NaN	0.000000	0.001603	0.001840	28.085	0.055759	0.002003	27.8371	-19.4859	-163.583	0.034800	0.041268	-0.992869	-0.994198	-0.006660	27.8371	-0.992690	-1.808576E+13	3.682221E-16	NaN
1045	1.000000	0.082601	7.37527e+06	-52389.1	1055.82	-29749.3	0.000000	0.000000	6.082761	0.018971	NaN	0.000000	0.001562	0.001828	28.0839	0.085901	0.001953	43.9742	-6.929752	-166.394	0.051131	0.081295	-0.952865	-0.954171	0.018971	43.9742	-0.953189	-5.309176E+12	-3.573193E-15	NaN
1045	1.000000	0.122609	7.37527e+06	-52389.1	1055.82	-29749.3	0.000000	0.000000	6.122768	0.005330	NaN	0.000000	0.001587	0.001810	28.0842	0.081269	0.001976	41.1231	-46.3987	-164.362	-0.003709	0.121249	-0.912857	-0.914218	0.005330	41.1231	-0.912954	-1.520758E+12	-3.504638E-15	NaN
1045	1.000000	0.162635	7.37527e+06	-52389.1	1055.82	-29749.3	0.000000	0.000000	6.162793	-0.005010	NaN	0.000000	0.001646	0.001821	28.0838	0.026359	0.001980	13.3111	-31.0689	-165.385	0.032806	0.161314	-0.872832	-0.874153	-0.005010	13.3111	-0.872549	-4.324464E+11	1.158450E-14	NaN
1045	1.000000	0.202658	7.37527e+06	-52389.1	1055.82	-29749.3	0.000000	0.000000	6.202815	-0.034604	NaN	0.000000	0.001596	0.001810	28.0835	0.023852	0.002076	11.4889	104.209	-166.083	-0.043027	0.201351	-0.832808	-0.834115	-0.034604	11.4889	-0.830549	-1.167427E+11	2.964149E-13	NaN
1045	1.000000	0.242660	7.37527e+06	-52389.1	1055.82	-29749.3	0.000000	0.000000	6.242818	-0.009806	NaN	0.000000	0.001603	0.001768	28.0848	0.143845	0.002083	69.0644	-19.7675	-164.956	0.005711	0.241363	-0.792807	-0.794103	-0.009806	69.0644	-0.792700	-3.578927E+10	2.739982E-13	NaN
1045	1.000000	0.282720	7.37527e+06	-52389.1	1055.82	-29749.3	0.000000	0.000000	6.282876	-0.056030	NaN	0.000000	0.001590	0.001850	28.0849	0.077948	0.002082	37.4389	157.178	-164.521	-0.036430	0.281388	-0.752747	-0.754078	-0.056030	37.4389	-0.751624	-9.893031E+9	5.663535E-12	NaN
1045	1.000000	0.322700	7.37527e+06	-52389.1	1055.82	-29749.3	0.000000	0.000000	6.322855	-0.076591	NaN	0.000000	0.001600	0.001803	28.0847	0.076532	0.001912	40.0255	-48.3441	-161	-0.096687	0.321368	-0.712766	-0.714098	-0.076591	40.0255	-0.711331	-2.793929E+9	2.741349E-11	NaN
1045	1.000000	0.362727	7.37527e+06	-52389.1	1055.82	-29749.3	0.000000	0.000000	6.362883	-0.059373	NaN	0.000000	0.001635	0.001795	28.0835	0.031633	0.002148	14.7277	8.418874	-167.782	-0.051795	0.361426	-0.672740	-0.674041	-0.059373	14.7277	-0.669716	-7.542326E+8	7.871927E-11	NaN
1045	1.000000	0.402745	7.37527e+06	-52389.1	1055.82	-29749.3	0.000000	0.000000	6.402901	-0.049408	NaN	0.000000	0.001638	0.001800	28.0838	0.155521	0.001923	80.8625	-127.896	-166.044	-0.028193	0.401433	-0.632722	-0.634034	-0.049408	80.8625	-0.632263	-2.312603E+8	2.136462E-10	NaN
1045	1.000000	0.442753	7.37527e+06	-52389.1	1055.82	-29749.3	0.000000	0.000000	6.442914	0.050265	NaN	0.000000	0.001635	0.001752	28.0839	0.057457	0.002178	26.3833	-21.8113	-164.226	-0.032148	0.441445	-0.592713	-0.594021	0.050265	26.3833	-0.594142	-6.914410E+7	-7.269664E-10	NaN
1045	1.000000	0.482771	7.37527e+06	-52389.1	1055.82	-29749.3	0.000000	0.000000	6.482927	-0.055300	NaN	0.000000	0.001579	0.001801	28.085	0.020670	0.002075	9.959860	30.6428	-166.302	-0.128177	0.481412	-0.552695	-0.554054	-0.055300	9.959860	-0.548531	-1.620352E+7	3.412811E-9	NaN
1045	1.000000	0.522795	7.37527e+06	-52389.1	1055.82	-29749.3	0.000000	0.000000	6.522954	-0.009555	NaN	0.000000	0.001586	0.001763	28.0851	0.071978	0.002147	33.5194	-94.5596	-165.37	-0.016177	0.521519	-0.512671	-0.513947	-0.009555	33.5194	-0.512457	-5.1125e+06	1.869020E-9	NaN
1045	1.000000	0.562806	7.37527e+06	-52389.1	1055.82	-29749.3	0.000000	0.000000	6.562964	-0.013215	NaN	0.000000	0.001606	0.001796	28.0851	0.114364	0.002016	56.7352	120.686	-166.14	0.038290	0.561449	-0.472660	-0.474018	-0.013215	56.7352	-0.472486	-1.41338e+06	9.349979E-9	NaN
1045	1.000000	0.602817	7.37527e+06	-52389.1	1055.82	-29749.3	0.000000	0.000000	6.602978	0.056731	NaN	0.000000	0.001594	0.001737	28.0852	0.130327	0.002066	63.0823	109.433	-166.081	-0.066863	0.601544	-0.432649	-0.433922	0.056731	63.0823	-0.433324	-397247	-1.428095E-7	NaN
1045	1.000000	0.642848	7.37527e+06	-52389.1	1055.82	-29749.3	0.000000	0.000000	6.643009	0.049788	NaN	0.000000	0.001624	0.001738	28.0837	0.075958	0.001913	39.6958	-55.2989	-166.013	0.044295	0.641518	-0.392618	-0.393948	0.049788	39.6958	-0.393558	-108154	-4.603462E-7	NaN
1045	1.000000	0.682851	7.37527e+06	-52389.1	1055.82	-29749.3	0.000000	0.000000	6.683009	-0.015227	NaN	0.000000	0.001609	0.001794	28.0835	0.032291	0.001941	16.6377	178.243	-164.402	-0.031367	0.681589	-0.352615	-0.353877	-0.015227	16.6377	-0.351928	-27225.7	5.592896E-7	NaN
1045	1.000000	0.722880	7.37527e+06	-52389.1	1055.82	-29749.3	0.000000	0.000000	6.723036	-0.058053	NaN	0.000000	0.001686	0.001750	28.0836	0.133278	0.002001	66.5917	15.7597	-164.781	0.002886	0.721596	-0.312586	-0.313870	-0.058053	66.5917	-0.311932	-7073.48	8.207124E-6	NaN
1045	1.000000	0.762895	7.37527e+06	-52389.1	1055.82	-29749.3	0.000000	0.000000	6.763052	-0.020855	NaN	0.000000	0.001679	0.001751	28.085	0.082020	0.002024	40.5176	11.5811	-163.047	-0.085159	0.761562	-0.272572	-0.273905	-0.020855	40.5176	-0.272186	-1797.78	1.160020E-5	NaN
1045	1.000000	0.802893	7.37527e+06	-52389.1	1055.82	-29749.3	0.000000	0.000000	6.803049	-0.061054	NaN	0.000000	0.001693	0.001781	28.0853	0.033117	0.001864	17.7655	-69.917	-165.608	-0.008381	0.801640	-0.232573	-0.233827	-0.061054	17.7655	-0.229996	-400.363	0.000152	NaN
1045	1.000000	0.842928	7.37527e+06	-52389.1	1055.82	-29749.3	0.000000	0.000000	6.843089	0.047837	NaN	0.000000	0.001630	0.001753	28.0853	0.050883	0.001956	26.0154	-28.9097	-167.19	-0.013243	0.841579	-0.192538	-0.193887	0.047837	26.0154	-0.193917	-104.531	-0.000458	NaN
1045	1.000000	0.882959	7.37527e+06	-52389.1	1055.82	-29749.3	0.000000	0.000000	6.883120	0.061225	NaN	0.000000	0.001639	0.001726	28.0851	0.088350	0.001928	45.8334	-176.862	-164.467	0.028873	0.881647	-0.152507	-0.153819	0.061225	45.8334	-0.153509	-20.9749	-0.002919	NaN
1045	1.000000	0.922940	7.37527e+06	-52389.1	1055.82	-29749.3	0.000000	0.000000	6.923097	-0.040689	NaN	0.000000	0.001595	0.001749	28.084	0.051722	0.002045	25.297	80.9408	-164.785	0.005782	0.921658	-0.112526	-0.113808	-0.040689	25.297	-0.111320	-3.203474	0.012702	NaN
1045	1.000000	0.962973	7.37527e+06	-52389.1	1055.82	-29749.3	0.000000	0.000000	6.963130	-0.023273	NaN	0.000000	0.001625	0.001738	28.0842	0.052954	0.001967	26.9243	-175.107	-167.008	0.000956	0.961674	-0.072494	-0.073792	-0.023273	26.9243	-0.071845	-0.381952	0.060933	NaN
1045	1.000000	1.002966	7.37527e+06	-52389.1	1055.82	-29749.3	0.000000	0.000000	7.003144	0.468962	NaN	0.000000	0.001606	0.001780	28.0841	0.401237	0.002029	197.761	6.235900	-162.351	0.396051	1.001643	-0.032500	-0.033823	0.468962	197.761	-0.034279	-0.030501	-15.3755	NaN
1045	2.000000	1.040592	7.37527e+06	-52389.1	1055.82	-29749.3	0.000000	0.000000	7.041134	9.321026	NaN	0.000000	0.001626	0.001790	28.0854	5.897173	0.001845	3195.76	12.3163	-167.896	9.576031	1.040253	0.005126	0.004787	9.321026	3195.76	0.002938	0.002328	4003.98	60514.7
1045	2.000000	1.050466	7.37527e+06	-52389.1	1055.82	-29749.3	0.000000	0.000000	7.051421	19.3523	NaN	0.000000	0.001664	0.001728	28.0854	11.5146	0.001853	6215.43	12.5368	-175.04	19.4984	1.050171	0.015000	0.014705	19.3523	6215.43	0.012665	0.012296	1573.83	51210.3
1045	2.000000	1.060443	7.37527e+06	-52389.1	1055.82	-29749.3	0.000000	0.000000	7.062054	35.3337	NaN	0.000000	0.001614	0.001743	28.0856	19.5204	0.001718	11363.9	7.955630	-176.653	35.9636	1.060191	0.024976	0.024725	35.3337	11363.9	0.022644	0.026869	1315.04	63339.4
1045	2.000000	1.070455	7.37527e+06	-52389.1	1055.82	-29749.3	0.000000	0.000000	7.072929	56.2909	NaN	0.000000	0.001598	0.001729	28.0843	28.3858	0.001881	15090.9	8.491032	179.706	56.3882	1.070105	0.034989	0.034639	56.2909	15090.9	0.032191	0.045408	1239.67	64702.8
1045	2.000000	1.080406	7.37527e+06	-52389.1	1055.82	-29749.3	0.000000	0.000000	7.084516	96.0774	NaN	0.000000	0.001590	0.001759	28.0846	38	0.001675	22689.3	8.561262	174.47	95.8932	1.080036	0.044939	0.044570	96.0774	22689.3	0.041764	0.068665	1399.21	79108.8
1045	2.000000	1.090317	7.37527e+06	-52389.1	1055.82	-29749.3	0.000000	0.000000	7.097309	166.158	NaN	0.000000	0.001598	0.001725	28.0853	49.0082	0.001858	26374.9	4.993256	177.454	162.788	1.089990	0.054851	0.054523	166.158	26374.9	0.050126	0.092802	1790.45	79101.6
1045	2.000000	1.100387	7.37527e+06	-52389.1	1055.82	-29749.3	0.000000	0.000000	7.111060	255.642	NaN	0.000000	0.001569	0.001749	28.0847	58.7484	0.001890	31084.9	1.374973	179.071	254.055	1.100052	0.064921	0.064585	255.642	31084.9	0.058753	0.121375	2106.21	81518.6
1045	2.000000	1.110367	7.37527e+06	-52389.1	1055.82	-29749.3	0.000000	0.000000	7.124913	349.816	NaN	0.000000	0.001629	0.001796	28.0857	67.0851	0.001859	36085.3	4.865211	174.388	347.628	1.110016	0.074901	0.074550	349.816	36085.3	0.067630	0.154581	2263	83854.4
1045	2.000000	1.120275	7.37527e+06	-52389.1	1055.82	-29749.3	0.000000	0.000000	7.139943	474.345	NaN	0.000000	0.001641	0.001746	28.0858	72.0851	0.001806	39913.5	0.422465	178.264	469.52	1.120030	0.084809	0.084564	474.345	39913.5	0.075896	0.188895	2511.15	83903.9
1045	2.000000	1.130261	7.37527e+06	-52389.1	1055.82	-29749.3	0.000000	0.000000	7.155015	598.032	NaN	0.000000	0.001598	0.001765	28.0857	83.0661	0.001916	43345.5	4.868749	173.074	592.405	1.129948	0.094795	0.094482	598.032	43345.5	0.084447	0.227772	2625.58	82978.8
1045	2.000000	1.138208	7.37527e+06	-52389.1	1055.82	-29749.3	0.000000	0.000000	7.165790	666.789	NaN	0.000000	0.001607	0.001788	28.0844	87.9891	0.001856	47419.3	1.052704	176.282	659.364	1.137927	0.102742	0.102460	666.789	47419.3	0.092196	0.265921	2507.47	84014