File: remote_trans/data/nanoindenter/0828-1/data/Data_2025-08-06,11h17m57s/2025-07-22_16-23-58_1_1102.txt
2025-07-22, 16:23:58, 1
Index	Phase	Displacement	Time	Pos X	Pos Y	Pos Z	Rot A	Rot B	Piezo Z	Force A	Force B	Gripper	Voltage A	Voltage B	Temperature	Amplitude force	Amplitude pos	Stiffness	Phase shift	Phase excitation	Force A raw	Displacement raw	HMax	HMax raw	Real Force	Real Stiffness	Contact Depth	Area	Hardness	Reduced Mod.
[#]	[#]	[um]	[s]	[um]	[um]	[um]	[m°]	[m°]	[um]	[uN]	[uN]	[V]	[V]	[V]	[°C]	[uN]	[um]	[N/m]	[°]	[°]	[uN]	[um]	[um]	[um]	[uN]	[N/m]	[um]	[um^2]	[MPa]	[MPa]
1102	1.000000	0.002512	7.37583e+06	-55239.1	1055.82	-29741.9	0.000000	0.000000	6.002803	-0.041638	NaN	0.000000	0.001650	0.001700	28.083	0.063057	0.000978	64.4996	135.935	-169.147	-0.129273	0.001210	-1.167482	-1.168785	-0.041638	64.4996	-1.166998	-3.968826E+15	1.049124E-17	NaN
1102	1.000000	0.046441	7.37583e+06	-55239.1	1055.82	-29741.9	0.000000	0.000000	6.046733	-0.004535	NaN	0.000000	0.001664	0.001714	28.0817	0.072367	0.001990	36.36	-51.2194	-164.057	-0.008975	0.045197	-1.123554	-1.124798	-0.004535	36.36	-1.123460	-1.034894E+15	4.382309E-18	NaN
1102	1.000000	0.090472	7.37583e+06	-55239.1	1055.82	-29741.9	0.000000	0.000000	6.090763	-0.023413	NaN	0.000000	0.001639	0.001718	28.0813	0.071399	0.001916	37.2611	81.2045	-163.343	-0.005116	0.089151	-1.079523	-1.080844	-0.023413	37.2611	-1.079052	-2.622930E+14	8.926394E-17	NaN
1102	1.000000	0.134472	7.37583e+06	-55239.1	1055.82	-29741.9	0.000000	0.000000	6.134761	-0.067874	NaN	0.000000	0.001665	0.001709	28.0811	0.074923	0.001979	37.8598	94.238	-164.515	-0.082479	0.133200	-1.035523	-1.036795	-0.067874	37.8598	-1.034179	-6.541603E+13	1.037577E-15	NaN
1102	1.000000	0.178474	7.37583e+06	-55239.1	1055.82	-29741.9	0.000000	0.000000	6.178763	-0.076124	NaN	0.000000	0.001729	0.001672	28.0822	0.040052	0.001981	20.2194	-10.2284	-161.432	-0.099294	0.177174	-0.991521	-0.992821	-0.076124	20.2194	-0.988698	-1.597975E+13	4.763775E-15	NaN
1102	1.000000	0.222513	7.37583e+06	-55239.1	1055.82	-29741.9	0.000000	0.000000	6.222803	-0.069301	NaN	0.000000	0.001678	0.001681	28.0823	0.072157	0.001980	36.45	-138.471	-163.467	-0.081505	0.221170	-0.947482	-0.948825	-0.069301	36.45	-0.946056	-4.254292E+12	1.628960E-14	NaN
1102	1.000000	0.266516	7.37583e+06	-55239.1	1055.82	-29741.9	0.000000	0.000000	6.266807	-0.034976	NaN	0.000000	0.001690	0.001702	28.0823	0.083874	0.002148	39.0557	-59.6513	-165.094	0.028915	0.265252	-0.903478	-0.904743	-0.034976	39.0557	-0.902807	-1.109150E+12	3.153366E-14	NaN
1102	1.000000	0.310557	7.37583e+06	-55239.1	1055.82	-29741.9	0.000000	0.000000	6.310850	-0.008265	NaN	0.000000	0.001652	0.001750	28.081	0.097470	0.001977	49.304	178.361	-165.644	-0.028667	0.309243	-0.859437	-0.860751	-0.008265	49.304	-0.859312	-2.862882E+11	2.886873E-14	NaN
1102	1.000000	0.354592	7.37583e+06	-55239.1	1055.82	-29741.9	0.000000	0.000000	6.354887	0.071166	NaN	0.000000	0.001655	0.001695	28.0813	0.144744	0.002150	67.3173	166.96	-167.71	-0.027625	0.353333	-0.815403	-0.816662	0.071166	67.3173	-0.816196	-7.457899E+10	-9.542386E-13	NaN
1102	1.000000	0.398583	7.37583e+06	-55239.1	1055.82	-29741.9	0.000000	0.000000	6.398876	0.008009	NaN	0.000000	0.001650	0.001718	28.0812	0.083601	0.001960	42.6454	-96.688	-163.244	-0.039553	0.397320	-0.771412	-0.772675	0.008009	42.6454	-0.771552	-1.846771E+10	-4.336789E-13	NaN
1102	1.000000	0.442628	7.37583e+06	-55239.1	1055.82	-29741.9	0.000000	0.000000	6.442920	-0.019021	NaN	0.000000	0.001650	0.001735	28.0822	0.056386	0.001851	30.4547	94.9744	-163.89	-0.007073	0.441343	-0.727367	-0.728652	-0.019021	30.4547	-0.726898	-4.555431E+9	4.175365E-12	NaN
1102	1.000000	0.486645	7.37583e+06	-55239.1	1055.82	-29741.9	0.000000	0.000000	6.486934	-0.073008	NaN	0.000000	0.001663	0.001711	28.0822	0.091533	0.002031	45.0608	-70.3421	-165.966	-0.086842	0.485327	-0.683350	-0.684668	-0.073008	45.0608	-0.682135	-1.115317E+9	6.545919E-11	NaN
1102	1.000000	0.530654	7.37583e+06	-55239.1	1055.82	-29741.9	0.000000	0.000000	6.530944	-0.050414	NaN	0.000000	0.001648	0.001748	28.0825	0.018824	0.001979	9.512169	-67.9852	-166.941	-0.032101	0.529387	-0.639341	-0.640607	-0.050414	9.512169	-0.635366	-2.550896E+8	1.976334E-10	NaN
1102	1.000000	0.574651	7.37584e+06	-55239.1	1055.82	-29741.9	0.000000	0.000000	6.574944	0.010855	NaN	0.000000	0.001670	0.001723	28.0813	0.036058	0.002056	17.5411	-141.321	-166.707	-0.028457	0.573351	-0.595344	-0.596644	0.010855	17.5411	-0.595808	-7.289800E+7	-1.489066E-10	NaN
1102	1.000000	0.618671	7.37584e+06	-55239.1	1055.82	-29741.9	0.000000	0.000000	6.618963	-0.020401	NaN	0.000000	0.001687	0.001715	28.0813	0.067863	0.002014	33.6983	-31.4913	-163.723	-0.065677	0.617400	-0.551323	-0.552595	-0.020401	33.6983	-0.550869	-1.745812E+7	1.168545E-9	NaN
1102	1.000000	0.662730	7.37584e+06	-55239.1	1055.82	-29741.9	0.000000	0.000000	6.663018	-0.096847	NaN	0.000000	0.001620	0.001735	28.0811	0.060290	0.001971	30.5845	-148.365	-166.255	-0.072804	0.661445	-0.507265	-0.508550	-0.096847	30.5845	-0.504890	-4.0106e+06	2.414763E-8	NaN
1102	1.000000	0.706710	7.37584e+06	-55239.1	1055.82	-29741.9	0.000000	0.000000	6.707002	-0.016039	NaN	0.000000	0.001638	0.001696	28.081	0.077598	0.002023	38.3655	162.839	-164.531	-0.008179	0.705384	-0.463284	-0.464610	-0.016039	38.3655	-0.462971	-1.03934e+06	1.543180E-8	NaN
1102	1.000000	0.750740	7.37584e+06	-55239.1	1055.82	-29741.9	0.000000	0.000000	6.751029	-0.073424	NaN	0.000000	0.001671	0.001735	28.0823	0.023314	0.002116	11.0194	-108.513	-163.55	-0.148342	0.749424	-0.419255	-0.420571	-0.073424	11.0194	-0.414258	-213261	3.442920E-7	NaN
1102	1.000000	0.794746	7.37584e+06	-55239.1	1055.82	-29741.9	0.000000	0.000000	6.795037	-0.026407	NaN	0.000000	0.001618	0.001711	28.0824	0.010828	0.002016	5.371388	61.3684	-162.718	-0.010398	0.793493	-0.375249	-0.376502	-0.026407	5.371388	-0.371562	-52313.4	5.047770E-7	NaN
1102	1.000000	0.838791	7.37584e+06	-55239.1	1055.82	-29741.9	0.000000	0.000000	6.839085	0.030180	NaN	0.000000	0.001676	0.001750	28.0827	0.053741	0.002006	26.7889	7.408865	-165.675	-0.018724	0.837514	-0.331204	-0.332481	0.030180	26.7889	-0.332049	-13977.7	-2.159165E-6	NaN
1102	1.000000	0.882811	7.37584e+06	-55239.1	1055.82	-29741.9	0.000000	0.000000	6.883107	0.070771	NaN	0.000000	0.001635	0.001738	28.081	0.017941	0.002159	8.311913	127.001	-167.362	0.088071	0.881549	-0.287183	-0.288445	0.070771	8.311913	-0.293569	-3773.22	-1.875613E-5	NaN
1102	1.000000	0.926806	7.37584e+06	-55239.1	1055.82	-29741.9	0.000000	0.000000	6.927101	0.070925	NaN	0.000000	0.001686	0.001736	28.0808	0.074911	0.002037	36.7761	-64.41	-164.58	0.100200	0.925513	-0.243189	-0.244482	0.070925	36.7761	-0.244636	-678.872	-0.000104	NaN
1102	1.000000	0.970854	7.37584e+06	-55239.1	1055.82	-29741.9	0.000000	0.000000	6.971151	0.102285	NaN	0.000000	0.001684	0.001737	28.081	0.152628	0.001842	82.8815	54.6294	-165.019	0.123179	0.969573	-0.199140	-0.200422	0.102285	82.8815	-0.200066	-132.064	-0.000775	NaN
1102	1.000000	1.014862	7.37584e+06	-55239.1	1055.82	-29741.9	0.000000	0.000000	7.015159	0.110142	NaN	0.000000	0.001606	0.001766	28.0834	0.083127	0.002054	40.4651	10.2175	-165.015	0.126229	1.013590	-0.155133	-0.156405	0.110142	40.4651	-0.157175	-24.412	-0.004512	NaN
1102	1.000000	1.058898	7.37584e+06	-55239.1	1055.82	-29741.9	0.000000	0.000000	7.059200	0.222179	NaN	0.000000	0.001659	0.001655	28.0824	0.075538	0.002155	35.0488	35.9296	-167.582	0.209025	1.057546	-0.111097	-0.112449	0.222179	35.0488	-0.115851	-3.977571	-0.055858	NaN
1102	1.000000	1.102917	7.37584e+06	-55239.1	1055.82	-29741.9	0.000000	0.000000	7.103218	0.213037	NaN	0.000000	0.001682	0.001708	28.0823	0.078796	0.001949	40.4215	50.1626	-164.34	0.187691	1.101554	-0.067078	-0.068441	0.213037	40.4215	-0.071031	-0.363424	-0.586194	NaN
1102	1.000000	1.146897	7.37584e+06	-55239.1	1055.82	-29741.9	0.000000	0.000000	7.147202	0.299703	NaN	0.000000	0.001759	0.001697	28.0809	0.107251	0.001942	55.2195	15.7792	-160.705	0.349947	1.145558	-0.023098	-0.024437	0.299703	55.2195	-0.027168	-0.019254	-15.5658	NaN
1102	2.000000	1.179426	7.37584e+06	-55239.1	1055.82	-29741.9	0.000000	0.000000	7.180290	13.8984	NaN	0.000000	0.001661	0.001719	28.0813	13.6992	0.001800	7609.23	10.6105	-175.371	13.978	1.179093	0.009431	0.009098	13.8984	7609.23	0.008061	0.007105	1956.02	82474.3
1102	2.000000	1.190384	7.37584e+06	-55239.1	1055.82	-29741.9	0.000000	0.000000	7.192062	33.6808	NaN	0.000000	0.001641	0.001717	28.0811	24.484	0.001804	13574.3	8.160375	-179.25	33.1696	1.190094	0.020389	0.020099	33.6808	13574.3	0.018528	0.020282	1660.62	87083.4
1102	2.000000	1.201338	7.37584e+06	-55239.1	1055.82	-29741.9	0.000000	0.000000	7.204410	67.5611	NaN	0.000000	0.001628	0.001745	28.0825	35.1425	0.001792	19614	3.013064	-178.05	67.5339	1.201095	0.031344	0.031101	67.5611	19614	0.028760	0.038213	1768.01	91671.1
1102	2.000000	1.212332	7.37584e+06	-55239.1	1055.82	-29741.9	0.000000	0.000000	7.217087	108.492	NaN	0.000000	0.001653	0.001714	28.0824	46.6564	0.001837	25392.8	5.907500	176.82	107.871	1.211964	0.042337	0.041969	108.492	25392.8	0.039132	0.061805	1755.38	93319.3
1102	2.000000	1.223324	7.37584e+06	-55239.1	1055.82	-29741.9	0.000000	0.000000	7.230376	164.301	NaN	0.000000	0.001645	0.001696	28.0826	56.8613	0.001791	31744.2	5.072154	176.37	164.242	1.222967	0.053329	0.052972	164.301	31744.2	0.049448	0.090713	1811.21	96294.6
1102	2.000000	1.234272	7.37584e+06	-55239.1	1055.82	-29741.9	0.000000	0.000000	7.243732	222.848	NaN	0.000000	0.001650	0.001705	28.0811	66.3664	0.001683	39432.9	7.666801	171.307	221.765	1.233972	0.064277	0.063977	222.848	39432.9	0.060039	0.125947	1769.38	101517
1102	2.000000	1.245224	7.37584e+06	-55239.1	1055.82	-29741.9	0.000000	0.000000	7.257463	290.405	NaN	0.000000	0.001606	0.001702	28.0812	77.1942	0.001810	42647.9	4.452204	173.971	286.742	1.244960	0.075229	0.074965	290.405	42647.9	0.070122	0.164585	1764.47	96045.1
1102	2.000000	1.256272	7.37584e+06	-55239.1	1055.82	-29741.9	0.000000	0.000000	7.271917	373.215	NaN	0.000000	0.001625	0.001730	28.0814	86.8521	0.001745	49761.1	4.061224	173.545	371.567	1.255901	0.086277	0.085906	373.215	49761.1	0.080652	0.210096	1776.4	99187
1102	2.000000	1.267220	7.37584e+06	-55239.1	1055.82	-29741.9	0.000000	0.000000	7.286380	458.656	NaN	0.000000	0.001652	0.001718	28.0826	98.6607	0.001767	55844.3	5.137482	171.591	454.356	1.266912	0.097225	0.096917	458.656	55844.3	0.091065	0.260182	1762.83	100026
1102	2.000000	1.274287	7.37584e+06	-55239.1	1055.82	-29741.9	0.000000	0.000000	7.295779	515.342	NaN	0.000000	0.001646	0.001723	28.0823	105.097	0.001819	57783.2	8.235982	168.507	516.199	1.273907	0.104292	0.103912	515.342	57783.2	0.097603	0.294172	1751.84	97336