File: remote_trans/data/nanoindenter/0828-1/data/Data_2025-08-06,11h17m57s/2025-07-22_16-23-58_1_574.txt
2025-07-22, 16:23:58, 1
Index	Phase	Displacement	Time	Pos X	Pos Y	Pos Z	Rot A	Rot B	Piezo Z	Force A	Force B	Gripper	Voltage A	Voltage B	Temperature	Amplitude force	Amplitude pos	Stiffness	Phase shift	Phase excitation	Force A raw	Displacement raw	HMax	HMax raw	Real Force	Real Stiffness	Contact Depth	Area	Hardness	Reduced Mod.
[#]	[#]	[um]	[s]	[um]	[um]	[um]	[m°]	[m°]	[um]	[uN]	[uN]	[V]	[V]	[V]	[°C]	[uN]	[um]	[N/m]	[°]	[°]	[uN]	[um]	[um]	[um]	[uN]	[N/m]	[um]	[um^2]	[MPa]	[MPa]
574	1.000000	0.002283	7.37066e+06	-48389.1	1005.82	-29762.6	0.000000	0.000000	6.002764	-0.032139	NaN	0.000000	0.001583	0.001740	28.0796	0.057574	0.001018	56.5502	132.968	-170.8	0.036883	0.001056	-1.115726	-1.116953	-0.032139	56.5502	-1.115300	-8.042841E+14	3.995942E-17	NaN
574	1.000000	0.044281	7.37066e+06	-48389.1	1005.82	-29762.6	0.000000	0.000000	6.044762	-0.013705	NaN	0.000000	0.001553	0.001710	28.0794	0.032501	0.002140	15.1906	112.046	14.5939	0.026546	0.042895	-1.073728	-1.075114	-0.013705	15.1906	-1.073052	-2.178641E+14	6.290763E-17	NaN
574	1.000000	0.086271	7.37066e+06	-48389.1	1005.82	-29762.6	0.000000	0.000000	6.086748	-0.124717	NaN	0.000000	0.001601	0.001733	28.0798	0.045131	0.001882	23.9861	172.751	-166.557	-0.172547	0.084953	-1.031738	-1.033057	-0.124717	23.9861	-1.027839	-5.375348E+13	2.320164E-15	NaN
574	1.000000	0.128324	7.37066e+06	-48389.1	1005.82	-29762.6	0.000000	0.000000	6.128805	-0.017556	NaN	0.000000	0.001589	0.001775	28.0783	0.059755	0.002037	29.3376	-85.0301	13.893	-0.006716	0.126966	-0.989685	-0.991043	-0.017556	29.3376	-0.989236	-1.624908E+13	1.080404E-15	NaN
574	1.000000	0.170324	7.37066e+06	-48389.1	1005.82	-29762.6	0.000000	0.000000	6.170803	-0.067767	NaN	0.000000	0.001589	0.001757	28.0785	0.049660	0.001949	25.4763	-176.548	-164.26	-0.114908	0.169018	-0.947685	-0.948991	-0.067767	25.4763	-0.945690	-4.206290E+12	1.611083E-14	NaN
574	1.000000	0.212349	7.37066e+06	-48389.1	1005.82	-29762.6	0.000000	0.000000	6.212829	-0.050766	NaN	0.000000	0.001555	0.001676	28.0785	0.075152	0.001822	41.2498	-150.149	11.3839	-0.064886	0.210960	-0.905660	-0.907050	-0.050766	41.2498	-0.904737	-1.177799E+12	4.310206E-14	NaN
574	1.000000	0.254359	7.37066e+06	-48389.1	1005.82	-29762.6	0.000000	0.000000	6.254837	-0.082618	NaN	0.000000	0.001530	0.001669	28.0797	0.040556	0.002034	19.942	92.7859	-165.215	-0.048028	0.253033	-0.863650	-0.864976	-0.082618	19.942	-0.860543	-2.974903E+11	2.777153E-13	NaN
574	1.000000	0.296335	7.37066e+06	-48389.1	1005.82	-29762.6	0.000000	0.000000	6.296817	-0.002258	NaN	0.000000	0.001540	0.001723	28.0796	0.097031	0.001898	51.1275	-37.4818	12.7077	-0.035497	0.295005	-0.821674	-0.823004	-0.002258	51.1275	-0.821641	-8.840144E+10	2.553771E-14	NaN
574	1.000000	0.338398	7.37066e+06	-48389.1	1005.82	-29762.6	0.000000	0.000000	6.338878	-0.048872	NaN	0.000000	0.001525	0.001703	28.0796	0.107429	0.001957	54.9067	-58.5127	-167.107	-0.044945	0.337049	-0.779611	-0.780960	-0.048872	54.9067	-0.778944	-2.327429E+10	2.099836E-12	NaN
574	1.000000	0.380415	7.37066e+06	-48389.1	1005.82	-29762.6	0.000000	0.000000	6.380895	-0.038327	NaN	0.000000	0.001541	0.001704	28.0785	0.051054	0.001950	26.1876	-117.515	13.2188	-0.031426	0.379064	-0.737594	-0.738945	-0.038327	26.1876	-0.736497	-6.156483E+9	6.225397E-12	NaN
574	1.000000	0.422424	7.37066e+06	-48389.1	1005.82	-29762.6	0.000000	0.000000	6.422903	-0.077104	NaN	0.000000	0.001512	0.001673	28.0782	0.029916	0.002054	14.5624	169.439	-170.745	0.032458	0.421105	-0.695585	-0.696904	-0.077104	14.5624	-0.691614	-1.503055E+9	5.129841E-11	NaN
574	1.000000	0.464456	7.37066e+06	-48389.1	1005.82	-29762.6	0.000000	0.000000	6.464938	0.015191	NaN	0.000000	0.001543	0.001670	28.0784	0.142578	0.002183	65.3125	144.345	11.1389	-0.009100	0.463069	-0.653554	-0.654941	0.015191	65.3125	-0.653728	-4.555500E+8	-3.334650E-11	NaN
574	1.000000	0.506482	7.37066e+06	-48389.1	1005.82	-29762.6	0.000000	0.000000	6.506961	-0.062451	NaN	0.000000	0.001528	0.001658	28.0797	0.075476	0.001979	38.1349	-14.863	-168.83	-0.028823	0.505140	-0.611527	-0.612869	-0.062451	38.1349	-0.610299	-1.154060E+8	5.411399E-10	NaN
574	1.000000	0.548487	7.37066e+06	-48389.1	1005.82	-29762.6	0.000000	0.000000	6.548967	-0.053207	NaN	0.000000	0.001572	0.001682	28.0796	0.023820	0.001949	12.2227	34.3571	13.3653	-0.013432	0.547117	-0.569522	-0.570893	-0.053207	12.2227	-0.566258	-2.850432E+7	1.866627E-9	NaN
574	1.000000	0.590479	7.37066e+06	-48389.1	1005.82	-29762.6	0.000000	0.000000	6.590957	-0.088973	NaN	0.000000	0.001551	0.001685	28.0793	0.028383	0.001927	14.7274	-153.374	-166.392	-0.054618	0.589193	-0.527530	-0.528817	-0.088973	14.7274	-0.522999	-7.16636e+06	1.241540E-8	NaN
574	1.000000	0.632506	7.37066e+06	-48389.1	1005.82	-29762.6	0.000000	0.000000	6.632989	0.021457	NaN	0.000000	0.001566	0.001686	28.0792	0.018217	0.002008	9.070486	-62.753	13.299	0.031977	0.631142	-0.485503	-0.486867	0.021457	9.070486	-0.487277	-2.27687e+06	-9.423778E-9	NaN
574	1.000000	0.674554	7.37066e+06	-48389.1	1005.82	-29762.6	0.000000	0.000000	6.675035	-0.021910	NaN	0.000000	0.001571	0.001658	28.0783	0.075352	0.001963	38.3798	-133.916	-163.181	-0.039504	0.673192	-0.443455	-0.444817	-0.021910	38.3798	-0.443027	-544592	4.023253E-8	NaN
574	1.000000	0.716552	7.37067e+06	-48389.1	1005.82	-29762.6	0.000000	0.000000	6.717030	-0.093656	NaN	0.000000	0.001606	0.001708	28.0785	0.133376	0.002088	63.8753	-160.529	13.0009	-0.080935	0.715194	-0.401457	-0.402815	-0.093656	63.8753	-0.400357	-135234	6.925489E-7	NaN
574	1.000000	0.758574	7.37067e+06	-48389.1	1005.82	-29762.6	0.000000	0.000000	6.759051	-0.128641	NaN	0.000000	0.001578	0.001694	28.0788	0.044974	0.002117	21.2467	32.9708	-167.795	-0.075506	0.757229	-0.359435	-0.360780	-0.128641	21.2467	-0.354894	-30058	4.279763E-6	NaN
574	1.000000	0.800569	7.37067e+06	-48389.1	1005.82	-29762.6	0.000000	0.000000	6.801050	-0.023652	NaN	0.000000	0.001578	0.001686	28.0801	0.077882	0.002003	38.8882	114.638	16.1426	-0.063181	0.799253	-0.317440	-0.318757	-0.023652	38.8882	-0.316984	-8398.65	2.816185E-6	NaN
574	1.000000	0.842577	7.37067e+06	-48389.1	1005.82	-29762.6	0.000000	0.000000	6.843058	-0.026854	NaN	0.000000	0.001565	0.001655	28.08	0.108583	0.002007	54.0943	-160.534	-168.206	-0.076315	0.841305	-0.275432	-0.276704	-0.026854	54.0943	-0.275059	-1987.47	1.351164E-5	NaN
574	1.000000	0.884614	7.37067e+06	-48389.1	1005.82	-29762.6	0.000000	0.000000	6.885093	-0.076408	NaN	0.000000	0.001590	0.001675	28.0799	0.075368	0.001885	39.9857	77.6409	13.4022	-0.044074	0.883291	-0.233395	-0.234718	-0.076408	39.9857	-0.231962	-429.988	0.000178	NaN
574	1.000000	0.926625	7.37067e+06	-48389.1	1005.82	-29762.6	0.000000	0.000000	6.927104	-0.077948	NaN	0.000000	0.001487	0.001703	28.0784	0.106505	0.002059	51.7318	49.6399	-168.285	-0.073330	0.925314	-0.191384	-0.192695	-0.077948	51.7318	-0.190254	-90.8379	0.000858	NaN
574	1.000000	0.968652	7.37067e+06	-48389.1	1005.82	-29762.6	0.000000	0.000000	6.969131	-0.057963	NaN	0.000000	0.001539	0.001662	28.0788	0.091681	0.002155	42.5448	41.666	17.2023	-0.109029	0.967316	-0.149357	-0.150694	-0.057963	42.5448	-0.148336	-16.8881	0.003432	NaN
574	1.000000	1.010662	7.37067e+06	-48389.1	1005.82	-29762.6	0.000000	0.000000	7.011144	0.011807	NaN	0.000000	0.001566	0.001683	28.0785	0.025864	0.001881	13.7494	-152.092	-168.664	-0.033570	1.009382	-0.107348	-0.108627	0.011807	13.7494	-0.107992	-2.724738	-0.004333	NaN
574	1.000000	1.052672	7.37067e+06	-48389.1	1005.82	-29762.6	0.000000	0.000000	7.053154	-0.018781	NaN	0.000000	0.001543	0.001679	28.0796	0.069667	0.002063	33.7624	120.05	10.3593	-0.054345	1.051346	-0.065337	-0.066663	-0.018781	33.7624	-0.064920	-0.247939	0.075747	NaN
574	1.000000	1.094697	7.37067e+06	-48389.1	1005.82	-29762.6	0.000000	0.000000	7.095177	-0.065861	NaN	0.000000	0.001557	0.001686	28.0795	0.086908	0.002025	42.9117	37.5833	-167.854	-0.096433	1.093441	-0.023312	-0.024568	-0.065861	42.9117	-0.022161	-0.014255	4.620260	NaN
574	1.000000	1.136632	7.37067e+06	-48389.1	1005.82	-29762.6	0.000000	0.000000	7.137434	7.790681	NaN	0.000000	0.001582	0.001657	28.0798	7.496498	0.001712	4377.61	10.632	9.257605	6.048390	1.135330	0.018623	0.017320	7.790681	4377.61	0.017288	0.018458	422.072	29438.5
574	2.000000	1.148182	7.37067e+06	-48389.1	1005.82	-29762.6	0.000000	0.000000	7.149450	19.1291	NaN	0.000000	0.001630	0.001676	28.0796	16.8994	0.001756	9622.28	8.034751	-177.148	18.6495	1.147869	0.030172	0.029860	19.1291	9622.28	0.028681	0.038055	502.667	45065.5
574	2.000000	1.158662	7.37067e+06	-48389.1	1005.82	-29762.6	0.000000	0.000000	7.160929	43.405	NaN	0.000000	0.001564	0.001650	28.0787	28.6481	0.001911	14991.2	6.275708	-0.295810	42.7275	1.158291	0.040653	0.040282	43.405	14991.2	0.038482	0.060164	721.448	55839.8
574	2.000000	1.169107	7.37067e+06	-48389.1	1005.82	-29762.6	0.000000	0.000000	7.172653	74.5435	NaN	0.000000	0.001591	0.001606	28.0785	38.5556	0.001852	20823.2	3.058003	179.085	72.4806	1.168860	0.051097	0.050851	74.5435	20823.2	0.048413	0.087570	851.249	64290.1
574	2.000000	1.179608	7.37067e+06	-48389.1	1005.82	-29762.6	0.000000	0.000000	7.184736	113	NaN	0.000000	0.001598	0.001646	28.0792	46.8478	0.001763	26577.3	2.943674	-1.760648	110.24	1.179224	0.061599	0.061215	113	26577.3	0.058410	0.120170	940.333	70046.5
574	2.000000	1.190084	7.37067e+06	-48389.1	1005.82	-29762.6	0.000000	0.000000	7.197378	165.677	NaN	0.000000	0.001594	0.001644	28.0799	57.434	0.001719	33409.8	2.640761	176.152	161.202	1.189710	0.072075	0.071701	165.677	33409.8	0.068356	0.157463	1052.17	76923.3
574	2.000000	1.200642	7.37067e+06	-48389.1	1005.82	-29762.6	0.000000	0.000000	7.210119	218.783	NaN	0.000000	0.001597	0.001683	28.08	68.1493	0.001816	37529.9	4.144401	-6.190157	219.303	1.200279	0.082633	0.082270	218.783	37529.9	0.078261	0.199306	1097.72	76805.1
574	2.000000	1.211044	7.37067e+06	-48389.1	1005.82	-29762.6	0.000000	0.000000	7.222812	274.505	NaN	0.000000	0.001606	0.001669	28.08	77.2205	0.001679	45998.5	1.028675	174.866	271.049	1.210855	0.093035	0.092845	274.505	45998.5	0.088559	0.247671	1108.34	84446.1
574	2.000000	1.221614	7.37067e+06	-48389.1	1005.82	-29762.6	0.000000	0.000000	7.236728	355.888	NaN	0.000000	0.001633	0.001685	28.0787	88.916	0.001788	49731.1	6.838720	-10.7579	355.8	1.221174	0.103605	0.103165	355.888	49731.1	0.098238	0.297573	1195.97	83292.2
574	2.000000	1.231916	7.37067e+06	-48389.1	1005.82	-29762.6	0.000000	0.000000	7.250333	436.202	NaN	0.000000	0.001620	0.001632	28.0786	96.9223	0.001791	54123.3	3.537766	171.352	428.645	1.231654	0.113907	0.113645	436.202	54123.3	0.107862	0.351427	1241.23	83414.3
574	2.000000	1.236551	7.37067e+06	-48389.1	1005.82	-29762.6	0.000000	0.000000	7.256433	471.834	NaN	0.000000	0.001613	0.001613	28.0784	100.104	0.001696	59013.4	0.604322	-6.091449	467.283	1.236224	0.118542	0.118215	471.834	59013.4	0.112545	0.379148	1244.46	87562.8