File: remote_trans/data/nanoindenter/0828-1/data/Data_2025-08-06,11h17m57s/2025-07-22_16-23-58_1_758.txt
2025-07-22, 16:23:58, 1
Index	Phase	Displacement	Time	Pos X	Pos Y	Pos Z	Rot A	Rot B	Piezo Z	Force A	Force B	Gripper	Voltage A	Voltage B	Temperature	Amplitude force	Amplitude pos	Stiffness	Phase shift	Phase excitation	Force A raw	Displacement raw	HMax	HMax raw	Real Force	Real Stiffness	Contact Depth	Area	Hardness	Reduced Mod.
[#]	[#]	[um]	[s]	[um]	[um]	[um]	[m°]	[m°]	[um]	[uN]	[uN]	[V]	[V]	[V]	[°C]	[uN]	[um]	[N/m]	[°]	[°]	[uN]	[um]	[um]	[um]	[uN]	[N/m]	[um]	[um^2]	[MPa]	[MPa]
758	1.000000	0.002604	7.37247e+06	-39189.1	1005.82	-29794.7	0.000000	0.000000	6.002795	-0.037744	NaN	0.000000	0.001591	0.001732	28.0802	0.010508	0.000996	10.5473	173.707	-161.09	-0.007244	0.001352	-1.130019	-1.131271	-0.037744	10.5473	-1.127335	-1.166484E+15	3.235696E-17	NaN
758	1.000000	0.044544	7.37247e+06	-39189.1	1005.82	-29794.7	0.000000	0.000000	6.044733	-0.053744	NaN	0.000000	0.001613	0.001693	28.0816	0.047359	0.002029	23.3379	176.121	14.8507	-0.009434	0.043266	-1.088080	-1.089358	-0.053744	23.3379	-1.086353	-3.287285E+14	1.634909E-16	NaN
758	1.000000	0.086556	7.37247e+06	-39189.1	1005.82	-29794.7	0.000000	0.000000	6.086747	-0.013333	NaN	0.000000	0.001615	0.001696	28.0812	0.038619	0.001913	20.1926	15.3404	-167.269	-0.035910	0.085237	-1.046068	-1.047386	-0.013333	20.1926	-1.045573	-9.308834E+13	1.432322E-16	NaN
758	1.000000	0.128592	7.37247e+06	-39189.1	1005.82	-29794.7	0.000000	0.000000	6.128782	-0.063103	NaN	0.000000	0.001600	0.001730	28.0812	0.056315	0.001935	29.1048	-133.805	13.6835	-0.039731	0.127260	-1.004031	-1.005363	-0.063103	29.1048	-1.002405	-2.444271E+13	2.581689E-15	NaN
758	1.000000	0.170625	7.37247e+06	-39189.1	1005.82	-29794.7	0.000000	0.000000	6.170816	-0.026902	NaN	0.000000	0.001585	0.001696	28.0797	0.007706	0.002110	3.651896	-175.561	-165.379	-0.038457	0.169271	-0.961999	-0.963353	-0.026902	3.651896	-0.956474	-5.879302E+12	4.575774E-15	NaN
758	1.000000	0.212625	7.37247e+06	-39189.1	1005.82	-29794.7	0.000000	0.000000	6.212814	-0.052243	NaN	0.000000	0.001594	0.001744	28.0797	0.091092	0.002086	43.6635	120.864	14.6012	-0.090329	0.211267	-0.919999	-0.921356	-0.052243	43.6635	-0.919102	-1.841096E+12	2.837603E-14	NaN
758	1.000000	0.254611	7.37247e+06	-39189.1	1005.82	-29794.7	0.000000	0.000000	6.254801	-0.050722	NaN	0.000000	0.001589	0.001737	28.0801	0.024585	0.002027	12.1284	5.575303	-162.745	-0.006020	0.253311	-0.878013	-0.879313	-0.050722	12.1284	-0.874876	-4.649533E+11	1.090898E-13	NaN
758	1.000000	0.296650	7.37247e+06	-39189.1	1005.82	-29794.7	0.000000	0.000000	6.296839	-0.085414	NaN	0.000000	0.001615	0.001773	28.0796	0.028025	0.002081	13.4673	108.783	12.8881	-0.050950	0.295352	-0.835973	-0.837271	-0.085414	13.4673	-0.831216	-1.191985E+11	7.165702E-13	NaN
758	1.000000	0.338681	7.37247e+06	-39189.1	1005.82	-29794.7	0.000000	0.000000	6.338869	-0.081325	NaN	0.000000	0.001638	0.001629	28.0808	0.073314	0.001983	36.979	50.1557	-167.783	-0.161231	0.337305	-0.793943	-0.795319	-0.081325	36.979	-0.792294	-3.533720E+10	2.301389E-12	NaN
758	1.000000	0.380701	7.37247e+06	-39189.1	1005.82	-29794.7	0.000000	0.000000	6.380892	-0.029856	NaN	0.000000	0.001592	0.001684	28.081	0.070170	0.002128	32.9775	-161.164	11.6935	-0.068761	0.379364	-0.751922	-0.753259	-0.029856	32.9775	-0.751243	-9.775603E+9	3.054166E-12	NaN
758	1.000000	0.422719	7.37247e+06	-39189.1	1005.82	-29794.7	0.000000	0.000000	6.422909	-0.064762	NaN	0.000000	0.001557	0.001668	28.0808	0.042957	0.001966	21.8481	-155.452	-168.571	-0.091818	0.421416	-0.709904	-0.711208	-0.064762	21.8481	-0.707681	-2.491151E+9	2.599662E-11	NaN
758	1.000000	0.464722	7.37247e+06	-39189.1	1005.82	-29794.7	0.000000	0.000000	6.464911	-0.081313	NaN	0.000000	0.001614	0.001721	28.0797	0.091356	0.001935	47.2072	179.224	15.9126	-0.023622	0.463370	-0.667902	-0.669254	-0.081313	47.2072	-0.666610	-6.838867E+8	1.188978E-10	NaN
758	1.000000	0.506739	7.37247e+06	-39189.1	1005.82	-29794.7	0.000000	0.000000	6.506931	-0.009807	NaN	0.000000	0.001617	0.001699	28.08	0.018335	0.001997	9.179999	151.671	-168.318	-0.067204	0.505474	-0.625884	-0.627149	-0.009807	9.179999	-0.625083	-1.842825E+8	5.321929E-11	NaN
758	1.000000	0.548734	7.37247e+06	-39189.1	1005.82	-29794.7	0.000000	0.000000	6.548923	-0.087012	NaN	0.000000	0.001602	0.001689	28.08	0.032861	0.002044	16.0764	167.967	15.5802	-0.093517	0.547381	-0.583889	-0.585242	-0.087012	16.0764	-0.579830	-4.389120E+7	1.982450E-9	NaN
758	1.000000	0.590750	7.37247e+06	-39189.1	1005.82	-29794.7	0.000000	0.000000	6.590938	-0.103514	NaN	0.000000	0.001596	0.001668	28.0812	0.017393	0.001894	9.183224	-35.7917	-165.867	-0.131977	0.589438	-0.541873	-0.543186	-0.103514	9.183224	-0.533419	-1.000113E+7	1.035027E-8	NaN
758	1.000000	0.632786	7.37247e+06	-39189.1	1005.82	-29794.7	0.000000	0.000000	6.632978	0.016438	NaN	0.000000	0.001616	0.001669	28.0811	0.070131	0.001942	36.1135	85.5663	13.1748	-0.000132	0.631435	-0.499838	-0.501189	0.016438	36.1135	-0.500179	-3.44761e+06	-4.767839E-9	NaN
758	1.000000	0.674833	7.37247e+06	-39189.1	1005.82	-29794.7	0.000000	0.000000	6.675022	-0.091567	NaN	0.000000	0.001632	0.001648	28.0812	0.058462	0.001987	29.4214	-12.0277	-164.697	-0.054172	0.673520	-0.457790	-0.459104	-0.091567	29.4214	-0.455456	-814949	1.123597E-7	NaN
758	1.000000	0.716843	7.37247e+06	-39189.1	1005.82	-29794.7	0.000000	0.000000	6.717033	-0.028919	NaN	0.000000	0.001614	0.001661	28.0799	0.023648	0.001915	12.3512	-42.8041	14.5742	-0.042909	0.715513	-0.415781	-0.417110	-0.028919	12.3512	-0.414025	-211644	1.366421E-7	NaN
758	1.000000	0.758849	7.37247e+06	-39189.1	1005.82	-29794.7	0.000000	0.000000	6.759039	-0.046867	NaN	0.000000	0.001630	0.001657	28.0798	0.004425	0.002023	2.186973	-76.551	-163.989	-0.014530	0.757509	-0.373775	-0.375114	-0.046867	2.186973	-0.357703	-33008	1.419864E-6	NaN
758	1.000000	0.800869	7.37247e+06	-39189.1	1005.82	-29794.7	0.000000	0.000000	6.801058	-0.070048	NaN	0.000000	0.001570	0.001674	28.0798	0.160269	0.002014	79.5579	-132.641	15.717	-0.022313	0.799546	-0.331755	-0.333078	-0.070048	79.5579	-0.331095	-13535.6	5.175097E-6	NaN
758	1.000000	0.842915	7.37247e+06	-39189.1	1005.82	-29794.7	0.000000	0.000000	6.843104	-0.072256	NaN	0.000000	0.001650	0.001693	28.0796	0.037771	0.002134	17.7007	88.7937	-169.009	-0.023635	0.841550	-0.289709	-0.291074	-0.072256	17.7007	-0.286647	-2971.76	2.431427E-5	NaN
758	1.000000	0.884909	7.37247e+06	-39189.1	1005.82	-29794.7	0.000000	0.000000	6.885098	-0.071927	NaN	0.000000	0.001615	0.001633	28.0808	0.008423	0.002042	4.124118	92.8804	11.9577	-0.004512	0.883572	-0.247715	-0.249051	-0.071927	4.124118	-0.234634	-473.7	0.000152	NaN
758	1.000000	0.926919	7.37247e+06	-39189.1	1005.82	-29794.7	0.000000	0.000000	6.927108	-0.075339	NaN	0.000000	0.001653	0.001647	28.081	0.059152	0.002099	28.1863	167.628	-164.752	-0.021292	0.925613	-0.205705	-0.207011	-0.075339	28.1863	-0.203700	-151.474	0.000497	NaN
758	1.000000	0.968911	7.37247e+06	-39189.1	1005.82	-29794.7	0.000000	0.000000	6.969099	-0.092900	NaN	0.000000	0.001689	0.001654	28.0813	0.109130	0.002081	52.4423	-40.5336	14.213	-0.166715	0.967582	-0.163713	-0.165042	-0.092900	52.4423	-0.162384	-30.2159	0.003075	NaN
758	1.000000	1.010995	7.37247e+06	-39189.1	1005.82	-29794.7	0.000000	0.000000	7.011186	-0.041614	NaN	0.000000	0.001688	0.001670	28.0799	0.068978	0.002149	32.1024	142.359	-168.2	-0.022944	1.009680	-0.121628	-0.122943	-0.041614	32.1024	-0.120656	-4.980852	0.008355	NaN
758	1.000000	1.052977	7.37247e+06	-39189.1	1005.82	-29794.7	0.000000	0.000000	7.053166	-0.075039	NaN	0.000000	0.001629	0.001627	28.0801	0.113161	0.002046	55.3106	113.827	9.688818	-0.013877	1.051635	-0.079646	-0.080989	-0.075039	55.3106	-0.078629	-0.571798	0.131234	NaN
758	1.000000	1.094982	7.37247e+06	-39189.1	1005.82	-29794.7	0.000000	0.000000	7.095170	-0.103725	NaN	0.000000	0.001614	0.001681	28.08	0.026652	0.002003	13.3046	93.5965	-166.106	-0.118378	1.093700	-0.037642	-0.038923	-0.103725	13.3046	-0.031795	-0.025855	4.011756	NaN
758	2.000000	1.136700	7.37247e+06	-39189.1	1005.82	-29794.7	0.000000	0.000000	7.137210	7.735377	NaN	0.000000	0.001626	0.001660	28.0815	7.407090	0.001689	4385.71	13.1845	8.087085	8.144980	1.135575	0.004077	0.002952	7.735377	4385.71	0.002754	0.002174	3558.3	85939.7
758	2.000000	1.147467	7.37247e+06	-39189.1	1005.82	-29794.7	0.000000	0.000000	7.148738	26.2485	NaN	0.000000	0.001641	0.001721	28.0823	19.2526	0.001856	10373.6	4.918495	-175.576	25.9164	1.147275	0.014843	0.014651	26.2485	10373.6	0.012946	0.012643	2076.17	84291.3
758	2.000000	1.157903	7.37247e+06	-39189.1	1005.82	-29794.7	0.000000	0.000000	7.160233	52.0371	NaN	0.000000	0.001629	0.001706	28.0816	29.1521	0.001780	16380	6.559767	-1.192861	50.0198	1.157577	0.025279	0.024953	52.0371	16380	0.022897	0.027300	1906.13	90574.8
758	2.000000	1.168420	7.37247e+06	-39189.1	1005.82	-29794.7	0.000000	0.000000	7.172085	84.517	NaN	0.000000	0.001593	0.001674	28.0805	38.1636	0.001682	22687	5.723069	175.935	83.135	1.168011	0.035796	0.035388	84.517	22687	0.033002	0.047197	1790.74	95410.1
758	2.000000	1.178955	7.37247e+06	-39189.1	1005.82	-29794.7	0.000000	0.000000	7.184049	119.291	NaN	0.000000	0.001625	0.001690	28.0803	49.7227	0.001858	26758.6	6.363802	-5.571987	119.589	1.178521	0.046331	0.045898	119.291	26758.6	0.042987	0.071977	1657.35	91125.6
758	2.000000	1.189383	7.37247e+06	-39189.1	1005.82	-29794.7	0.000000	0.000000	7.196256	162.584	NaN	0.000000	0.001596	0.001618	28.08	57.7942	0.001757	32888.1	3.153944	175.832	161.73	1.189146	0.056759	0.056522	162.584	32888.1	0.053051	0.102077	1592.75	94047.4
758	2.000000	1.199836	7.37247e+06	-39189.1	1005.82	-29794.7	0.000000	0.000000	7.208748	212.184	NaN	0.000000	0.001588	0.001683	28.0804	66.8561	0.001905	35098.2	3.796418	-4.897808	207.028	1.199478	0.067213	0.066854	212.184	35098.2	0.062679	0.135588	1564.91	87085.7
758	2.000000	1.210306	7.37247e+06	-39189.1	1005.82	-29794.7	0.000000	0.000000	7.221338	263.797	NaN	0.000000	0.001627	0.001644	28.0813	75.8551	0.001746	43435	1.728772	175.116	259.89	1.210083	0.077682	0.077459	263.797	43435	0.073127	0.177042	1490.03	94313.8
758	2.000000	1.220882	7.37247e+06	-39189.1	1005.82	-29794.7	0.000000	0.000000	7.234642	330.161	NaN	0.000000	0.001584	0.001704	28.083	86.1913	0.001871	46072.4	3.098508	-6.458052	329.297	1.220656	0.088259	0.088032	330.161	46072.4	0.082884	0.220412	1497.93	89659.6
758	2.000000	1.231258	7.37247e+06	-39189.1	1005.82	-29794.7	0.000000	0.000000	7.248498	414.862	NaN	0.000000	0.001616	0.001661	28.0814	93.3242	0.001809	51576.2	5.032105	170.939	410.236	1.230948	0.098635	0.098324	414.862	51576.2	0.092602	0.267996	1548.02	91024.5
758	2.000000	1.235294	7.37248e+06	-39189.1	1005.82	-29794.7	0.000000	0.000000	7.254187	455.072	NaN	0.000000	0.001612	0.001701	28.0803	95.2449	0.001748	54490.7	3.069558	172.45	450.666	1.234973	0.102671	0.102350	455.072	54490.7	0.096407	0.287808	1581.16	92799.1