File: remote_trans/data/nanoindenter/0828-1/data/Data_2025-08-06,11h17m57s/2025-07-22_16-23-58_1_501.txt
2025-07-22, 16:23:58, 1
Index	Phase	Displacement	Time	Pos X	Pos Y	Pos Z	Rot A	Rot B	Piezo Z	Force A	Force B	Gripper	Voltage A	Voltage B	Temperature	Amplitude force	Amplitude pos	Stiffness	Phase shift	Phase excitation	Force A raw	Displacement raw	HMax	HMax raw	Real Force	Real Stiffness	Contact Depth	Area	Hardness	Reduced Mod.
[#]	[#]	[um]	[s]	[um]	[um]	[um]	[m°]	[m°]	[um]	[uN]	[uN]	[V]	[V]	[V]	[°C]	[uN]	[um]	[N/m]	[°]	[°]	[uN]	[um]	[um]	[um]	[uN]	[N/m]	[um]	[um^2]	[MPa]	[MPa]
501	1.000000	0.002746	7.36995e+06	-52039.1	1005.82	-29750.4	0.000000	0.000000	6.002826	0.006520	NaN	0.000000	0.001672	0.001716	28.081	0.057935	0.001035	55.9976	-107.717	-166.509	-0.072763	0.001468	-1.112061	-1.113339	0.006520	55.9976	-1.112149	-7.296659E+14	-8.935314E-18	NaN
501	1.000000	0.044674	7.36995e+06	-52039.1	1005.82	-29750.4	0.000000	0.000000	6.044757	0.059665	NaN	0.000000	0.001611	0.001681	28.0818	0.015557	0.001855	8.386680	-29.9775	14.5559	0.037861	0.043303	-1.070133	-1.071504	0.059665	8.386680	-1.075469	-2.347792E+14	-2.541317E-16	NaN
501	1.000000	0.086670	7.36995e+06	-52039.1	1005.82	-29750.4	0.000000	0.000000	6.086753	0.062999	NaN	0.000000	0.001655	0.001707	28.0819	0.063312	0.002006	31.5572	105.618	-166.799	0.109776	0.085345	-1.028137	-1.029462	0.062999	31.5572	-1.029634	-5.682741E+13	-1.108599E-15	NaN
501	1.000000	0.128694	7.36995e+06	-52039.1	1005.82	-29750.4	0.000000	0.000000	6.128775	0.015341	NaN	0.000000	0.001627	0.001694	28.0821	0.092496	0.001899	48.7075	-163.678	17.0005	0.064700	0.127349	-0.986113	-0.987458	0.015341	48.7075	-0.986349	-1.485738E+13	-1.032556E-15	NaN
501	1.000000	0.170704	7.36995e+06	-52039.1	1005.82	-29750.4	0.000000	0.000000	6.170786	0.041069	NaN	0.000000	0.001632	0.001719	28.0808	0.083145	0.001976	42.07	71.4413	-161.797	0.007135	0.169395	-0.944103	-0.945412	0.041069	42.07	-0.944835	-4.096036E+12	-1.002648E-14	NaN
501	1.000000	0.212715	7.36995e+06	-52039.1	1005.82	-29750.4	0.000000	0.000000	6.212797	0.049737	NaN	0.000000	0.001656	0.001727	28.081	0.051805	0.001932	26.8167	127.913	11.9817	0.124023	0.211396	-0.902092	-0.903411	0.049737	26.8167	-0.903483	-1.132747E+12	-4.390794E-14	NaN
501	1.000000	0.254757	7.36995e+06	-52039.1	1005.82	-29750.4	0.000000	0.000000	6.254839	0.039980	NaN	0.000000	0.001663	0.001748	28.0811	0.039395	0.001928	20.4301	11.3408	-165.399	-0.016492	0.253439	-0.860050	-0.861368	0.039980	20.4301	-0.861518	-3.066652E+11	-1.303689E-13	NaN
501	1.000000	0.296800	7.36995e+06	-52039.1	1005.82	-29750.4	0.000000	0.000000	6.296883	0.080446	NaN	0.000000	0.001664	0.001730	28.0824	0.066275	0.001945	34.0811	-45.9339	11.3116	0.003644	0.295477	-0.818007	-0.819330	0.080446	34.0811	-0.819778	-8.340597E+10	-9.645094E-13	NaN
501	1.000000	0.338761	7.36995e+06	-52039.1	1005.82	-29750.4	0.000000	0.000000	6.338842	0.007392	NaN	0.000000	0.001611	0.001691	28.0824	0.046066	0.001912	24.0919	-140.139	-164.817	0.019205	0.337461	-0.776046	-0.777346	0.007392	24.0919	-0.776276	-2.141013E+10	-3.452342E-13	NaN
501	1.000000	0.380811	7.36995e+06	-52039.1	1005.82	-29750.4	0.000000	0.000000	6.380894	0.056838	NaN	0.000000	0.001645	0.001722	28.0822	0.013984	0.001820	7.684075	102.678	9.821848	0.074932	0.379426	-0.733996	-0.735381	0.056838	7.684075	-0.739544	-6.773955E+9	-8.390690E-12	NaN
501	1.000000	0.422847	7.36995e+06	-52039.1	1005.82	-29750.4	0.000000	0.000000	6.422932	0.100875	NaN	0.000000	0.001662	0.001698	28.082	0.044005	0.002019	21.7904	-50.484	-167.402	0.008240	0.421475	-0.691960	-0.693332	0.100875	21.7904	-0.695432	-1.694882E+9	-5.951728E-11	NaN
501	1.000000	0.464840	7.36995e+06	-52039.1	1005.82	-29750.4	0.000000	0.000000	6.464924	0.101382	NaN	0.000000	0.001661	0.001678	28.0809	0.079236	0.001984	39.93	58.0072	13.4749	0.068746	0.463529	-0.649967	-0.651278	0.101382	39.93	-0.651871	-4.296251E+8	-2.359778E-10	NaN
501	1.000000	0.506833	7.36996e+06	-52039.1	1005.82	-29750.4	0.000000	0.000000	6.506914	0.020183	NaN	0.000000	0.001668	0.001689	28.0811	0.034398	0.001973	17.4313	166.206	-162.576	0.034601	0.505618	-0.607974	-0.609189	0.020183	17.4313	-0.608843	-1.102025E+8	-1.831429E-10	NaN
501	1.000000	0.548870	7.36996e+06	-52039.1	1005.82	-29750.4	0.000000	0.000000	6.548953	0.056019	NaN	0.000000	0.001689	0.001710	28.0808	0.094890	0.001851	51.2549	-32.5098	14.0587	0.113121	0.547594	-0.565937	-0.567213	0.056019	51.2549	-0.566757	-2.896070E+7	-1.934326E-9	NaN
501	1.000000	0.590903	7.36996e+06	-52039.1	1005.82	-29750.4	0.000000	0.000000	6.590982	-0.023407	NaN	0.000000	0.001721	0.001646	28.0819	0.050663	0.001976	25.6381	-2.255573	-165.72	-0.005712	0.589617	-0.523904	-0.525190	-0.023407	25.6381	-0.523219	-7.21707e+06	3.243283E-9	NaN
501	1.000000	0.632942	7.36996e+06	-52039.1	1005.82	-29750.4	0.000000	0.000000	6.633023	0.009716	NaN	0.000000	0.001708	0.001665	28.0819	0.057333	0.001804	31.7802	-20.2549	12.5314	0.079853	0.631512	-0.481865	-0.483295	0.009716	31.7802	-0.482094	-1.9268e+06	-5.042716E-9	NaN
501	1.000000	0.674949	7.36996e+06	-52039.1	1005.82	-29750.4	0.000000	0.000000	6.675029	-0.018176	NaN	0.000000	0.001728	0.001643	28.082	0.076574	0.002071	36.9715	-135.306	-167.817	-0.063730	0.673675	-0.439858	-0.441132	-0.018176	36.9715	-0.439489	-485458	3.744128E-8	NaN
501	1.000000	0.716953	7.36996e+06	-52039.1	1005.82	-29750.4	0.000000	0.000000	6.717034	0.024987	NaN	0.000000	0.001633	0.001672	28.0808	0.065929	0.001897	34.7573	169.965	12.7218	-0.029027	0.715581	-0.397854	-0.399225	0.024987	34.7573	-0.398393	-126788	-1.970767E-7	NaN
501	1.000000	0.758933	7.36996e+06	-52039.1	1005.82	-29750.4	0.000000	0.000000	6.759014	0.002274	NaN	0.000000	0.001666	0.001645	28.0805	0.081421	0.001863	43.7074	76.2167	-167.218	0.028573	0.757634	-0.355874	-0.357173	0.002274	43.7074	-0.355913	-31096.9	-7.311331E-8	NaN
501	1.000000	0.800972	7.36996e+06	-52039.1	1005.82	-29750.4	0.000000	0.000000	6.801054	0.024245	NaN	0.000000	0.001623	0.001683	28.0805	0.046601	0.002021	23.0599	52.3263	13.5777	0.007770	0.799669	-0.313835	-0.315138	0.024245	23.0599	-0.314623	-7751.48	-3.127743E-6	NaN
501	1.000000	0.843028	7.36996e+06	-52039.1	1005.82	-29750.4	0.000000	0.000000	6.843112	0.085184	NaN	0.000000	0.001649	0.001670	28.0816	0.065441	0.002048	31.9493	131.212	-163.809	0.039550	0.841631	-0.271778	-0.273176	0.085184	31.9493	-0.273778	-1900.6	-4.481944E-5	NaN
501	1.000000	0.884996	7.36996e+06	-52039.1	1005.82	-29750.4	0.000000	0.000000	6.885078	0.052129	NaN	0.000000	0.001642	0.001682	28.0817	0.086898	0.001973	44.0491	122.865	13.1635	0.068632	0.883622	-0.229811	-0.231185	0.052129	44.0491	-0.230699	-410.72	-0.000127	NaN
501	1.000000	0.927019	7.36996e+06	-52039.1	1005.82	-29750.4	0.000000	0.000000	6.927096	-0.066307	NaN	0.000000	0.001655	0.001716	28.0818	0.063760	0.001906	33.4458	-14.9751	-168.521	0.017949	0.925770	-0.187788	-0.189037	-0.066307	33.4458	-0.186301	-77.9906	0.000850	NaN
501	1.000000	0.969017	7.36996e+06	-52039.1	1005.82	-29750.4	0.000000	0.000000	6.969099	0.029095	NaN	0.000000	0.001699	0.001648	28.0818	0.115496	0.002148	53.7729	-93.2388	15.1081	0.025991	0.967699	-0.145790	-0.147108	0.029095	53.7729	-0.146196	-15.426	-0.001886	NaN
501	1.000000	1.011052	7.36996e+06	-52039.1	1005.82	-29750.4	0.000000	0.000000	7.011138	0.131592	NaN	0.000000	0.001650	0.001676	28.0806	0.053407	0.001958	27.2751	-43.3873	-161.704	0.092366	1.009790	-0.103755	-0.105017	0.131592	27.2751	-0.107373	-2.643275	-0.049784	NaN
501	1.000000	1.053079	7.36996e+06	-52039.1	1005.82	-29750.4	0.000000	0.000000	7.053159	-0.019633	NaN	0.000000	0.001733	0.001624	28.0806	0.105010	0.002008	52.3082	-53.7998	14.9693	0.002066	1.051693	-0.061728	-0.063114	-0.019633	52.3082	-0.061446	-0.198054	0.099128	NaN
501	1.000000	1.095100	7.36996e+06	-52039.1	1005.82	-29750.4	0.000000	0.000000	7.095181	0.008351	NaN	0.000000	0.001672	0.001694	28.0805	0.045356	0.001974	22.9787	36.5377	-165.273	-0.017772	1.093759	-0.019707	-0.021048	0.008351	22.9787	-0.019980	-0.012546	-0.665599	NaN
501	2.000000	1.123173	7.36996e+06	-52039.1	1005.82	-29750.4	0.000000	0.000000	7.123795	13.1659	NaN	0.000000	0.001634	0.001682	28.082	13.8479	0.001881	7361.81	12.2876	1.347839	13.3322	1.122790	0.008366	0.007983	13.1659	7361.81	0.007024	0.006058	2173.33	86416.1
501	2.000000	1.133701	7.36996e+06	-52039.1	1005.82	-29750.4	0.000000	0.000000	7.135083	31.6572	NaN	0.000000	0.001695	0.001696	28.0822	24.4633	0.001843	13271.4	14.7859	174.424	36.5965	1.133318	0.018894	0.018511	31.6572	13271.4	0.017105	0.018195	1739.88	89890.3
501	2.000000	1.144116	7.36996e+06	-52039.1	1005.82	-29750.4	0.000000	0.000000	7.146161	47.782	NaN	0.000000	0.001671	0.001715	28.0823	33.8197	0.001741	19420.3	4.643960	-1.223426	46.8255	1.143856	0.029309	0.029049	47.782	19420.3	0.027463	0.035650	1340.32	93972.7
501	2.000000	1.154539	7.36996e+06	-52039.1	1005.82	-29750.4	0.000000	0.000000	7.158164	86.175	NaN	0.000000	0.001639	0.001712	28.0806	43.8242	0.001721	25465.8	2.751613	177.868	84.865	1.154276	0.039732	0.039469	86.175	25465.8	0.037194	0.056979	1512.4	97470.5
501	2.000000	1.164987	7.36996e+06	-52039.1	1005.82	-29750.4	0.000000	0.000000	7.170567	133.729	NaN	0.000000	0.001652	0.001674	28.0804	54.0756	0.001880	28764	6.867710	-6.364288	129.067	1.164585	0.050180	0.049778	133.729	28764	0.046693	0.082465	1621.65	91513.7
501	2.000000	1.175554	7.36996e+06	-52039.1	1005.82	-29750.4	0.000000	0.000000	7.183361	187.88	NaN	0.000000	0.001652	0.001738	28.0807	65.9438	0.001849	35667.8	4.275255	174.989	186.44	1.175230	0.060747	0.060423	187.88	35667.8	0.056796	0.114570	1639.86	96274.9
501	2.000000	1.186133	7.36996e+06	-52039.1	1005.82	-29750.4	0.000000	0.000000	7.196157	241.766	NaN	0.000000	0.001641	0.001674	28.0819	75.9495	0.001812	41912.2	2.484342	-5.122558	243.355	1.185722	0.071326	0.070915	241.766	41912.2	0.067000	0.152098	1589.54	98186.5
501	2.000000	1.196497	7.36996e+06	-52039.1	1005.82	-29750.4	0.000000	0.000000	7.209547	315.359	NaN	0.000000	0.001639	0.001699	28.0818	85.4161	0.001730	49373.8	5.043836	171.517	313.994	1.196085	0.081690	0.081278	315.359	49373.8	0.076900	0.193284	1631.58	102606
501	2.000000	1.206969	7.36996e+06	-52039.1	1005.82	-29750.4	0.000000	0.000000	7.223419	398.028	NaN	0.000000	0.001663	0.001729	28.0818	94.5224	0.001779	53125.3	2.594275	-6.975947	394.418	1.206732	0.092162	0.091925	398.028	53125.3	0.086543	0.237815	1673.69	99530.2
501	2.000000	1.216898	7.36996e+06	-52039.1	1005.82	-29750.4	0.000000	0.000000	7.236652	478.362	NaN	0.000000	0.001625	0.001754	28.0817	104.027	0.001739	59809.9	5.948619	-11.1261	470.36	1.216596	0.102091	0.101789	478.362	59809.9	0.096092	0.286143	1671.75	102154