File: remote_trans/data/nanoindenter/0828-1/data/Data_2025-08-06,11h17m57s/2025-07-22_16-23-58_1_601.txt
2025-07-22, 16:23:58, 1
Index	Phase	Displacement	Time	Pos X	Pos Y	Pos Z	Rot A	Rot B	Piezo Z	Force A	Force B	Gripper	Voltage A	Voltage B	Temperature	Amplitude force	Amplitude pos	Stiffness	Phase shift	Phase excitation	Force A raw	Displacement raw	HMax	HMax raw	Real Force	Real Stiffness	Contact Depth	Area	Hardness	Reduced Mod.
[#]	[#]	[um]	[s]	[um]	[um]	[um]	[m°]	[m°]	[um]	[uN]	[uN]	[V]	[V]	[V]	[°C]	[uN]	[um]	[N/m]	[°]	[°]	[uN]	[um]	[um]	[um]	[uN]	[N/m]	[um]	[um^2]	[MPa]	[MPa]
601	1.000000	0.003105	7.37093e+06	-47039.1	1005.82	-29767.2	0.000000	0.000000	6.002827	-0.057944	NaN	0.000000	0.001514	0.001792	28.0809	0.071709	0.000910	78.8373	169.284	-168.151	-0.007641	0.001806	-1.088910	-1.090210	-0.057944	78.8373	-1.088359	-3.497681E+14	1.656643E-16	NaN
601	1.000000	0.045022	7.37093e+06	-47039.1	1005.82	-29767.2	0.000000	0.000000	6.044745	-0.008020	NaN	0.000000	0.001543	0.001741	28.0817	0.086315	0.001901	45.3981	0.256537	12.6379	0.006043	0.043741	-1.046994	-1.048274	-0.008020	45.3981	-1.046862	-9.687783E+13	8.277997E-17	NaN
601	1.000000	0.087063	7.37093e+06	-47039.1	1005.82	-29767.2	0.000000	0.000000	6.086786	-0.009275	NaN	0.000000	0.001604	0.001769	28.0817	0.032524	0.002149	15.1313	24.5999	-165.356	-0.014997	0.085726	-1.004953	-1.006290	-0.009275	15.1313	-1.004493	-2.607685E+13	3.556896E-16	NaN
601	1.000000	0.129079	7.37093e+06	-47039.1	1005.82	-29767.2	0.000000	0.000000	6.128799	-0.079495	NaN	0.000000	0.001572	0.001741	28.0815	0.110274	0.001823	60.4903	-147.153	15.3931	-0.063294	0.127800	-0.962937	-0.964216	-0.079495	60.4903	-0.961952	-6.969141E+12	1.140671E-14	NaN
601	1.000000	0.171057	7.37093e+06	-47039.1	1005.82	-29767.3	0.000000	0.000000	6.170778	-0.055817	NaN	0.000000	0.001562	0.001782	28.0813	0.079464	0.001813	43.8258	-123.639	-170.359	-0.114956	0.169792	-0.920959	-0.922224	-0.055817	43.8258	-0.920004	-1.893471E+12	2.947852E-14	NaN
601	1.000000	0.213106	7.37093e+06	-47039.1	1005.82	-29767.3	0.000000	0.000000	6.212830	0.010041	NaN	0.000000	0.001589	0.001752	28.0805	0.059054	0.001977	29.8644	39.8587	13.788	0.078567	0.211714	-0.878910	-0.880302	0.010041	29.8644	-0.879162	-5.313425E+11	-1.889829E-14	NaN
601	1.000000	0.255097	7.37093e+06	-47039.1	1005.82	-29767.3	0.000000	0.000000	6.254822	0.031731	NaN	0.000000	0.001516	0.001764	28.0806	0.194217	0.001933	100.467	-24.6625	-163.374	-0.032790	0.253722	-0.836919	-0.838293	0.031731	100.467	-0.837156	-1.434702E+11	-2.211691E-13	NaN
601	1.000000	0.297129	7.37093e+06	-47039.1	1005.82	-29767.3	0.000000	0.000000	6.296850	-0.059130	NaN	0.000000	0.001502	0.001844	28.0806	0.044552	0.002040	21.8359	-65.3653	11.8682	0.031773	0.295783	-0.794887	-0.796232	-0.059130	21.8359	-0.792856	-3.596383E+10	1.644148E-12	NaN
601	1.000000	0.339163	7.37093e+06	-47039.1	1005.82	-29767.3	0.000000	0.000000	6.338886	-0.002056	NaN	0.000000	0.001539	0.001844	28.082	0.082601	0.001998	41.3451	-151.857	-163.986	0.022737	0.337836	-0.752853	-0.754180	-0.002056	41.3451	-0.752816	-1.026941E+10	2.001964E-13	NaN
601	1.000000	0.381165	7.37093e+06	-47039.1	1005.82	-29767.3	0.000000	0.000000	6.380886	-0.082080	NaN	0.000000	0.001581	0.001784	28.0819	0.096340	0.002167	44.4507	33.0371	12.9035	-0.052904	0.379792	-0.710850	-0.712224	-0.082080	44.4507	-0.709466	-2.634842E+9	3.115178E-11	NaN
601	1.000000	0.423171	7.37093e+06	-47039.1	1005.82	-29767.3	0.000000	0.000000	6.422895	0.012097	NaN	0.000000	0.001599	0.001747	28.0817	0.074629	0.001986	37.575	-128.793	-166.595	-0.010434	0.421876	-0.668845	-0.670140	0.012097	37.575	-0.669086	-7.394019E+8	-1.635998E-11	NaN
601	1.000000	0.465216	7.37093e+06	-47039.1	1005.82	-29767.3	0.000000	0.000000	6.464938	-0.029222	NaN	0.000000	0.001547	0.001758	28.0808	0.091137	0.002079	43.8311	-158.227	14.5283	-0.038798	0.463883	-0.626800	-0.628133	-0.029222	43.8311	-0.626300	-1.915142E+8	1.525816E-10	NaN
601	1.000000	0.507218	7.37093e+06	-47039.1	1005.82	-29767.3	0.000000	0.000000	6.506943	0.030800	NaN	0.000000	0.001545	0.001782	28.0806	0.060284	0.002069	29.1421	-108.691	-169.133	-0.007050	0.505900	-0.584797	-0.586116	0.030800	29.1421	-0.585590	-5.270510E+7	-5.843752E-10	NaN
601	1.000000	0.549241	7.37093e+06	-47039.1	1005.82	-29767.3	0.000000	0.000000	6.548965	0.008564	NaN	0.000000	0.001561	0.001752	28.0803	0.085930	0.002048	41.9559	-22.2551	15.2683	0.016349	0.547875	-0.542775	-0.544140	0.008564	41.9559	-0.542928	-1.355049E+7	-6.319726E-10	NaN
601	1.000000	0.591264	7.37093e+06	-47039.1	1005.82	-29767.3	0.000000	0.000000	6.590989	0.032712	NaN	0.000000	0.001581	0.001765	28.0817	0.040635	0.002029	20.027	45.9264	-164.667	-0.002871	0.589929	-0.500752	-0.502086	0.032712	20.027	-0.501977	-3.65255e+06	-8.955950E-9	NaN
601	1.000000	0.633299	7.37093e+06	-47039.1	1005.82	-29767.3	0.000000	0.000000	6.633024	0.025005	NaN	0.000000	0.001524	0.001732	28.082	0.042239	0.002028	20.8244	-8.605496	14.8225	-0.034296	0.631875	-0.458717	-0.460140	0.025005	20.8244	-0.459617	-932478	-2.681551E-8	NaN
601	1.000000	0.675255	7.37093e+06	-47039.1	1005.82	-29767.3	0.000000	0.000000	6.674979	0.002683	NaN	0.000000	0.001590	0.001731	28.0819	0.111431	0.002056	54.1853	143.923	-166.023	0.011814	0.673914	-0.416761	-0.418101	0.002683	54.1853	-0.416798	-231728	-1.157946E-8	NaN
601	1.000000	0.717327	7.37093e+06	-47039.1	1005.82	-29767.3	0.000000	0.000000	6.717049	-0.041030	NaN	0.000000	0.001555	0.001686	28.0819	0.031109	0.002082	14.9448	165.102	13.8257	0.001810	0.715959	-0.374688	-0.376057	-0.041030	14.9448	-0.372629	-54197	7.570597E-7	NaN
601	1.000000	0.759352	7.37093e+06	-47039.1	1005.82	-29767.3	0.000000	0.000000	6.759077	0.035770	NaN	0.000000	0.001613	0.001747	28.0807	0.005138	0.001854	2.771405	-140.897	-168.343	0.087523	0.758007	-0.332664	-0.334009	0.035770	2.771405	-0.342344	-19756.4	-1.810541E-6	NaN
601	1.000000	0.801339	7.37093e+06	-47039.1	1005.82	-29767.3	0.000000	0.000000	6.801060	-0.052172	NaN	0.000000	0.001593	0.001685	28.0806	0.037762	0.001895	19.9241	33.3701	11.6189	-0.046590	0.799970	-0.290677	-0.292046	-0.052172	19.9241	-0.288713	-3191.62	1.634644E-5	NaN
601	1.000000	0.843360	7.37093e+06	-47039.1	1005.82	-29767.3	0.000000	0.000000	6.843083	-0.001018	NaN	0.000000	0.001535	0.001728	28.0806	0.027982	0.001922	14.5625	-172.444	-164.122	0.043058	0.842024	-0.248656	-0.249991	-0.001018	14.5625	-0.248604	-782.268	1.301884E-6	NaN
601	1.000000	0.885357	7.37093e+06	-47039.1	1005.82	-29767.3	0.000000	0.000000	6.885081	-0.001909	NaN	0.000000	0.001508	0.001785	28.0818	0.065428	0.001875	34.8984	103.512	17.1098	-3.990636E-5	0.884042	-0.206658	-0.207974	-0.001909	34.8984	-0.206617	-169.009	1.129267E-5	NaN
601	1.000000	0.927402	7.37093e+06	-47039.1	1005.82	-29767.3	0.000000	0.000000	6.927126	0.004797	NaN	0.000000	0.001509	0.001747	28.0822	0.037905	0.001939	19.5439	-134.714	-163.416	0.004697	0.926054	-0.164614	-0.165962	0.004797	19.5439	-0.164798	-33.3235	-0.000144	NaN
601	1.000000	0.969388	7.37093e+06	-47039.1	1005.82	-29767.3	0.000000	0.000000	6.969112	0.015694	NaN	0.000000	0.001585	0.001726	28.0818	0.071434	0.001992	35.8678	-19.4597	11.7324	0.034033	0.968026	-0.122628	-0.123989	0.015694	35.8678	-0.122956	-5.538481	-0.002834	NaN
601	1.000000	1.011426	7.37093e+06	-47039.1	1005.82	-29767.3	0.000000	0.000000	7.011151	0.028517	NaN	0.000000	0.001546	0.001744	28.0806	0.051673	0.001939	26.652	44.9469	-164.918	-0.042241	1.010129	-0.080590	-0.081887	0.028517	26.652	-0.081392	-0.670415	-0.042536	NaN
601	1.000000	1.053426	7.37093e+06	-47039.1	1005.82	-29767.3	0.000000	0.000000	7.053151	0.043282	NaN	0.000000	0.001602	0.001760	28.0807	0.145710	0.001982	73.5074	114.135	13.8173	0.051800	1.052090	-0.038590	-0.039926	0.043282	73.5074	-0.039031	-0.042266	-1.024049	NaN
601	1.000000	1.095458	7.37093e+06	-47039.1	1005.82	-29767.3	0.000000	0.000000	7.095406	5.459871	NaN	0.000000	0.001518	0.001763	28.0806	6.023952	0.001745	3452.56	15.4613	-173.374	3.907060	1.094102	0.003442	0.002087	5.459871	3452.56	0.002256	0.001763	3097.52	75132.9
601	2.000000	1.107588	7.37093e+06	-47039.1	1005.82	-29767.3	0.000000	0.000000	7.108405	26.5761	NaN	0.000000	0.001559	0.001713	28.0817	18.781	0.001716	10943	3.271372	6.029438	24.7613	1.107216	0.015573	0.015201	26.5761	10943	0.013751	0.013656	1946.1	85555.4
601	2.000000	1.118052	7.37093e+06	-47039.1	1005.82	-29767.3	0.000000	0.000000	7.120093	56.374	NaN	0.000000	0.001566	0.001703	28.0819	30.2511	0.001778	17012.6	4.536951	179.453	55.6875	1.117797	0.026036	0.025781	56.374	17012.6	0.023551	0.028432	1982.76	92180.7
601	2.000000	1.128463	7.37093e+06	-47039.1	1005.82	-29767.3	0.000000	0.000000	7.132074	94.5624	NaN	0.000000	0.001553	0.001742	28.0822	40.4507	0.001667	24267.5	3.085078	-1.593598	91.3106	1.128150	0.036447	0.036134	94.5624	24267.5	0.033525	0.048366	1955.13	100815
601	2.000000	1.138958	7.37093e+06	-47039.1	1005.82	-29767.3	0.000000	0.000000	7.144450	140.3	NaN	0.000000	0.001551	0.001754	28.0818	50.1222	0.001650	30371.4	4.385160	175.211	137.214	1.138659	0.046942	0.046643	140.3	30371.4	0.043478	0.073324	1913.41	102474
601	2.000000	1.149420	7.37094e+06	-47039.1	1005.82	-29767.3	0.000000	0.000000	7.157261	197.46	NaN	0.000000	0.001577	0.001729	28.0804	60.3755	0.001832	32950.7	4.324768	-4.721954	191.567	1.149097	0.057404	0.057081	197.46	32950.7	0.052909	0.101618	1943.16	94439.3
601	2.000000	1.159958	7.37094e+06	-47039.1	1005.82	-29767.3	0.000000	0.000000	7.170288	257.981	NaN	0.000000	0.001550	0.001752	28.0808	70.1006	0.001779	39413.9	2.393646	175.241	254.35	1.159666	0.067942	0.067651	257.981	39413.9	0.063033	0.136909	1884.33	97321.1
601	2.000000	1.170425	7.37094e+06	-47039.1	1005.82	-29767.3	0.000000	0.000000	7.183716	330.02	NaN	0.000000	0.001546	0.001704	28.0806	80.2682	0.001741	46114.2	1.840010	-4.944181	325.136	1.170064	0.078409	0.078048	330.02	46114.2	0.073042	0.176682	1867.88	100233
601	2.000000	1.180899	7.37094e+06	-47039.1	1005.82	-29767.3	0.000000	0.000000	7.197217	403.642	NaN	0.000000	0.001580	0.001742	28.0819	92.1258	0.001789	51490.3	5.345399	170.526	397.981	1.180574	0.088883	0.088559	403.642	51490.3	0.083003	0.220969	1826.69	100077
601	2.000000	1.191520	7.37094e+06	-47039.1	1005.82	-29767.3	0.000000	0.000000	7.210814	476.032	NaN	0.000000	0.001530	0.001739	28.082	102.32	0.001824	56088.7	6.542501	-11.5828	477.224	1.191318	0.099505	0.099302	476.032	56088.7	0.093139	0.270753	1758.17	98483.1
601	2.000000	1.195890	7.37094e+06	-47039.1	1005.82	-29767.3	0.000000	0.000000	7.217339	528.453	NaN	0.000000	0.001546	0.001709	28.0818	104.46	0.001732	60323.8	8.317324	166.889	524.76	1.195360	0.103874	0.103344	528.453	60323.8	0.097304	0.292570	1806.24	101893