File: remote_trans/data/nanoindenter/0828-1/data/Data_2025-08-06,11h17m57s/2025-07-22_16-23-58_1_163.txt
2025-07-22, 16:23:58, 1
Index	Phase	Displacement	Time	Pos X	Pos Y	Pos Z	Rot A	Rot B	Piezo Z	Force A	Force B	Gripper	Voltage A	Voltage B	Temperature	Amplitude force	Amplitude pos	Stiffness	Phase shift	Phase excitation	Force A raw	Displacement raw	HMax	HMax raw	Real Force	Real Stiffness	Contact Depth	Area	Hardness	Reduced Mod.
[#]	[#]	[um]	[s]	[um]	[um]	[um]	[m°]	[m°]	[um]	[uN]	[uN]	[V]	[V]	[V]	[°C]	[uN]	[um]	[N/m]	[°]	[°]	[uN]	[um]	[um]	[um]	[uN]	[N/m]	[um]	[um^2]	[MPa]	[MPa]
163	1.000000	0.002695	7.36663e+06	-46789.1	955.819	-29768.5	0.000000	0.000000	6.002784	-0.051920	NaN	0.000000	0.001632	0.001717	28.0854	0.049853	0.000939	53.0983	133.543	-172.22	-0.032484	0.001500	-1.128716	-1.129911	-0.051920	53.0983	-1.127982	-1.190035E+15	4.362861E-17	NaN
163	1.000000	0.044667	7.36663e+06	-46789.1	955.819	-29768.5	0.000000	0.000000	6.044760	0.022461	NaN	0.000000	0.001594	0.001727	28.0872	0.092470	0.001947	47.482	112.77	13.4259	-0.022395	0.043297	-1.086744	-1.088113	0.022461	47.482	-1.087098	-3.363944E+14	-6.676946E-17	NaN
163	1.000000	0.086690	7.36663e+06	-46789.1	955.819	-29768.5	0.000000	0.000000	6.086778	-0.084139	NaN	0.000000	0.001570	0.001745	28.1252	0.052424	0.001929	27.1815	-5.868435	-165.049	0.010885	0.085352	-1.044721	-1.046059	-0.084139	27.1815	-1.042399	-8.437807E+13	9.971680E-16	NaN
163	1.000000	0.128692	7.36663e+06	-46789.1	955.818	-29768.5	0.000000	0.000000	6.128780	-0.083767	NaN	0.000000	0.001612	0.001761	28.1165	0.025199	0.002057	12.2531	-40.9195	14.8459	0.013785	0.127404	-1.002719	-1.004006	-0.083767	12.2531	-0.997591	-2.105415E+13	3.978643E-15	NaN
163	1.000000	0.170723	7.36663e+06	-46789.1	955.819	-29768.5	0.000000	0.000000	6.170814	-0.022938	NaN	0.000000	0.001637	0.001727	28.0812	0.017965	0.001981	9.066646	-176.163	-164.295	-0.001463	0.169409	-0.960688	-0.962001	-0.022938	9.066646	-0.958790	-6.317701E+12	3.630780E-15	NaN
163	1.000000	0.212698	7.36663e+06	-46789.1	955.819	-29768.5	0.000000	0.000000	6.212790	0.011950	NaN	0.000000	0.001633	0.001751	28.0846	0.089524	0.001962	45.6222	127.305	13.7709	-0.040392	0.211301	-0.918713	-0.920110	0.011950	45.6222	-0.918909	-1.830118E+12	-6.529397E-15	NaN
163	1.000000	0.254775	7.36663e+06	-46789.1	955.818	-29768.5	0.000000	0.000000	6.254864	-0.056543	NaN	0.000000	0.001612	0.001727	28.1263	0.046131	0.002082	22.1607	-34.9625	-163.159	-0.051995	0.253400	-0.876636	-0.878010	-0.056543	22.1607	-0.874722	-4.627257E+11	1.221953E-13	NaN
163	1.000000	0.296772	7.36663e+06	-46789.1	955.818	-29768.5	0.000000	0.000000	6.296863	-0.016146	NaN	0.000000	0.001608	0.001742	28.1183	0.066651	0.002009	33.1713	44.8811	13.2182	-0.068176	0.295426	-0.834639	-0.835985	-0.016146	33.1713	-0.834273	-1.311299E+11	1.231280E-13	NaN
163	1.000000	0.338763	7.36663e+06	-46789.1	955.818	-29768.5	0.000000	0.000000	6.338855	0.003461	NaN	0.000000	0.001621	0.001779	28.0839	0.064230	0.002047	31.377	-64.1233	-167.205	-0.023750	0.337514	-0.792647	-0.793897	0.003461	31.377	-0.792730	-3.582259E+10	-9.662149E-14	NaN
163	1.000000	0.380789	7.36663e+06	-46789.1	955.818	-29768.5	0.000000	0.000000	6.380878	-0.060116	NaN	0.000000	0.001609	0.001754	28.0853	0.079119	0.002094	37.7786	121.533	10.7209	-0.144588	0.379460	-0.750622	-0.751951	-0.060116	37.7786	-0.749428	-9.235049E+9	6.509574E-12	NaN
163	1.000000	0.422820	7.36663e+06	-46789.1	955.818	-29768.5	0.000000	0.000000	6.422908	-0.065739	NaN	0.000000	0.001609	0.001731	28.1237	0.059255	0.002052	28.8787	-99.489	-165.527	-0.076864	0.421506	-0.708591	-0.709904	-0.065739	28.8787	-0.706884	-2.429497E+9	2.705872E-11	NaN
163	1.000000	0.464847	7.36663e+06	-46789.1	955.818	-29768.5	0.000000	0.000000	6.464940	0.034681	NaN	0.000000	0.001628	0.001721	28.1177	0.057587	0.002038	28.2523	116.871	18.1474	0.030002	0.463419	-0.666563	-0.667991	0.034681	28.2523	-0.667484	-7.029926E+8	-4.933402E-11	NaN
163	1.000000	0.506868	7.36663e+06	-46789.1	955.819	-29768.5	0.000000	0.000000	6.506962	0.053977	NaN	0.000000	0.001566	0.001785	28.0839	0.085414	0.001994	42.8385	-161.339	-167.387	-0.018235	0.505570	-0.624543	-0.625840	0.053977	42.8385	-0.625488	-1.866578E+8	-2.891760E-10	NaN
163	1.000000	0.548862	7.36664e+06	-46789.1	955.819	-29768.5	0.000000	0.000000	6.548956	0.057821	NaN	0.000000	0.001566	0.001815	28.0854	0.072642	0.001876	38.7207	136.696	13.1983	0.025219	0.547540	-0.582548	-0.583870	0.057821	38.7207	-0.583668	-4.958399E+7	-1.166116E-9	NaN
163	1.000000	0.590885	7.36664e+06	-46789.1	955.819	-29768.5	0.000000	0.000000	6.590977	0.011081	NaN	0.000000	0.001595	0.001764	28.1241	0.093951	0.001943	48.3464	-151.007	-165.538	-0.014673	0.589564	-0.540525	-0.541846	0.011081	48.3464	-0.540697	-1.261905E+7	-8.781281E-10	NaN
163	1.000000	0.632901	7.36664e+06	-46789.1	955.819	-29768.5	0.000000	0.000000	6.632992	-0.003686	NaN	0.000000	0.001593	0.001723	28.1198	0.160287	0.001895	84.5767	119.145	11.2669	0.025303	0.631525	-0.498510	-0.499886	-0.003686	84.5767	-0.498477	-3.26414e+06	1.129367E-9	NaN
163	1.000000	0.674923	7.36664e+06	-46789.1	955.817	-29768.5	0.000000	0.000000	6.675016	0.015914	NaN	0.000000	0.001572	0.001754	28.0836	0.097772	0.002077	47.0657	-109.169	-167.728	0.038397	0.673608	-0.456487	-0.457802	0.015914	47.0657	-0.456741	-849576	-1.873173E-8	NaN
163	1.000000	0.716952	7.36664e+06	-46789.1	955.818	-29768.5	0.000000	0.000000	6.717040	-0.077459	NaN	0.000000	0.001580	0.001735	28.0841	0.080931	0.001993	40.6093	-162.998	15.7826	-0.034537	0.715550	-0.414459	-0.415861	-0.077459	40.6093	-0.413028	-204855	3.781158E-7	NaN
163	1.000000	0.758944	7.36664e+06	-46789.1	955.818	-29768.5	0.000000	0.000000	6.759034	-0.036747	NaN	0.000000	0.001539	0.001760	28.1224	0.067922	0.001936	35.0745	132.827	-167.975	-0.024383	0.757684	-0.372466	-0.373727	-0.036747	35.0745	-0.371681	-52520	6.996784E-7	NaN
163	1.000000	0.800955	7.36664e+06	-46789.1	955.818	-29768.5	0.000000	0.000000	6.801046	-0.021848	NaN	0.000000	0.001611	0.001786	28.1206	0.099585	0.001915	52.0103	24.7135	13.1845	-0.122762	0.799623	-0.330455	-0.331787	-0.021848	52.0103	-0.330140	-13107	1.666930E-6	NaN
163	1.000000	0.842976	7.36664e+06	-46789.1	955.818	-29768.5	0.000000	0.000000	6.843067	-0.007786	NaN	0.000000	0.001633	0.001722	28.0842	0.082894	0.001946	42.5878	31.2104	-168.821	0.048221	0.841649	-0.288434	-0.289761	-0.007786	42.5878	-0.288297	-3146.15	2.474750E-6	NaN
163	1.000000	0.885040	7.36664e+06	-46789.1	955.818	-29768.5	0.000000	0.000000	6.885130	-0.054964	NaN	0.000000	0.001665	0.001759	28.0834	0.099530	0.001918	51.8931	89.5906	14.555	-0.067008	0.883662	-0.246370	-0.247748	-0.054964	51.8931	-0.245576	-702.098	7.828498E-5	NaN
163	1.000000	0.927019	7.36664e+06	-46789.1	955.818	-29768.5	0.000000	0.000000	6.927110	-0.005022	NaN	0.000000	0.001657	0.001784	28.1221	0.033506	0.002134	15.7036	-46.6983	-165.911	0.017724	0.925681	-0.204392	-0.205729	-0.005022	15.7036	-0.204152	-154.069	3.259283E-5	NaN
163	1.000000	0.969028	7.36664e+06	-46789.1	955.818	-29768.5	0.000000	0.000000	6.969120	0.007692	NaN	0.000000	0.001606	0.001757	28.1201	0.070426	0.002073	33.9727	119.498	12.1069	0.012285	0.967636	-0.162382	-0.163774	0.007692	33.9727	-0.162552	-30.4225	-0.000253	NaN
163	1.000000	1.011071	7.36664e+06	-46789.1	955.819	-29768.5	0.000000	0.000000	7.011161	-0.051211	NaN	0.000000	0.001583	0.001781	28.0851	0.083718	0.001956	42.8083	-127.206	-165.817	-0.007920	1.009778	-0.120339	-0.121633	-0.051211	42.8083	-0.119442	-4.707710	0.010878	NaN
163	1.000000	1.053095	7.36664e+06	-46789.1	955.818	-29768.5	0.000000	0.000000	7.053183	-0.076499	NaN	0.000000	0.001619	0.001784	28.0841	0.174111	0.001953	89.1338	-116.154	14.9313	-0.091783	1.051690	-0.078316	-0.079720	-0.076499	89.1338	-0.077672	-0.540771	0.141464	NaN
163	1.000000	1.095106	7.36664e+06	-46789.1	955.819	-29768.5	0.000000	0.000000	7.095199	0.023181	NaN	0.000000	0.001644	0.001817	28.1209	0.040574	0.002019	20.0923	-115.225	-165.397	-0.046538	1.093713	-0.036304	-0.037697	0.023181	20.0923	-0.037169	-0.037148	-0.624009	NaN
163	1.000000	1.137077	7.36664e+06	-46789.1	955.82	-29768.5	0.000000	0.000000	7.137405	5.749310	NaN	0.000000	0.001651	0.001819	28.1237	5.557476	0.001692	3285.43	7.966478	9.024489	3.445602	1.135733	0.005666	0.004322	5.749310	3285.43	0.004354	0.003551	1618.92	50369.9
163	2.000000	1.149640	7.36664e+06	-46789.1	955.819	-29768.5	0.000000	0.000000	7.150596	21.0303	NaN	0.000000	0.001632	0.001779	28.0848	17.8218	0.001763	10109.8	7.190239	-177.65	20.8047	1.149349	0.018229	0.017938	21.0303	10109.8	0.016669	0.017576	1196.54	69671.6
163	2.000000	1.160129	7.36664e+06	-46789.1	955.818	-29768.5	0.000000	0.000000	7.161926	41.4855	NaN	0.000000	0.001619	0.001817	28.0842	28.4356	0.001925	14775	6.908306	-0.143072	41.1235	1.159724	0.028719	0.028313	41.4855	14775	0.026613	0.034015	1219.62	73192.2
163	2.000000	1.170576	7.36664e+06	-46789.1	955.819	-29768.5	0.000000	0.000000	7.173689	73.4853	NaN	0.000000	0.001600	0.001798	28.1188	37.3248	0.001626	22951.2	3.390779	178.235	71.7253	1.170215	0.039166	0.038805	73.4853	22951.2	0.036764	0.055933	1313.8	88663.2
163	2.000000	1.181039	7.36664e+06	-46789.1	955.818	-29768.5	0.000000	0.000000	7.185652	109.962	NaN	0.000000	0.001554	0.001724	28.1226	47.6062	0.001720	27682.3	1.298939	-0.985196	106.755	1.180773	0.049629	0.049363	109.962	27682.3	0.046650	0.082339	1335.48	88140
163	2.000000	1.191557	7.36664e+06	-46789.1	955.819	-29768.5	0.000000	0.000000	7.198377	163.657	NaN	0.000000	0.001566	0.001770	28.0844	60.4814	0.001867	32400.8	9.224768	170.309	162.415	1.191144	0.060146	0.059733	163.657	32400.8	0.056358	0.113074	1447.35	88033.4
163	2.000000	1.202037	7.36664e+06	-46789.1	955.82	-29768.5	0.000000	0.000000	7.211023	216.35	NaN	0.000000	0.001549	0.001724	28.0848	70.0623	0.001825	38394.2	5.523379	-8.014167	214.507	1.201748	0.070627	0.070338	216.35	38394.2	0.066400	0.149754	1444.7	90646
163	2.000000	1.212460	7.36664e+06	-46789.1	955.818	-29768.5	0.000000	0.000000	7.224503	290.722	NaN	0.000000	0.001586	0.001752	28.1189	80.1023	0.001777	45082.2	4.238342	173.775	287.958	1.212118	0.081049	0.080707	290.722	45082.2	0.076213	0.190275	1527.91	94425.2
163	2.000000	1.222969	7.36664e+06	-46789.1	955.818	-29768.5	0.000000	0.000000	7.238115	366.195	NaN	0.000000	0.001616	0.001760	28.1234	90.7637	0.001914	47430.6	5.376526	-7.716647	362.2	1.222589	0.091558	0.091179	366.195	47430.6	0.085768	0.234077	1564.42	89568
163	2.000000	1.233509	7.36664e+06	-46789.1	955.819	-29768.5	0.000000	0.000000	7.251771	441.978	NaN	0.000000	0.001593	0.001742	28.0842	100.716	0.001789	56285.9	4.208441	171.474	443.512	1.233231	0.102098	0.101820	441.978	56285.9	0.096209	0.286759	1541.29	96031.6
163	2.000000	1.238456	7.36664e+06	-46789.1	955.818	-29768.5	0.000000	0.000000	7.258556	486.697	NaN	0.000000	0.001563	0.001775	28.1188	107.42	0.001797	59771.4	4.077209	170.833	481.256	1.238246	0.107046	0.106835	486.697	59771.4	0.100939	0.312261	1558.62	97725.4