File: remote_trans/data/nanoindenter/0828-1/data/Data_2025-08-06,11h17m57s/2025-07-22_16-23-58_1_29.txt
2025-07-22, 16:23:58, 1
Index	Phase	Displacement	Time	Pos X	Pos Y	Pos Z	Rot A	Rot B	Piezo Z	Force A	Force B	Gripper	Voltage A	Voltage B	Temperature	Amplitude force	Amplitude pos	Stiffness	Phase shift	Phase excitation	Force A raw	Displacement raw	HMax	HMax raw	Real Force	Real Stiffness	Contact Depth	Area	Hardness	Reduced Mod.
[#]	[#]	[um]	[s]	[um]	[um]	[um]	[m°]	[m°]	[um]	[uN]	[uN]	[V]	[V]	[V]	[°C]	[uN]	[um]	[N/m]	[°]	[°]	[uN]	[um]	[um]	[um]	[uN]	[N/m]	[um]	[um^2]	[MPa]	[MPa]
29	1.000000	0.002284	7.36532e+06	-40089.1	955.818	-29792	0.000000	0.000000	6.002833	0.012634	NaN	0.000000	0.001607	0.001734	28.0852	0.011347	0.000866	13.1036	-83.4674	-169.322	0.037730	0.000987	-1.025840	-1.027137	0.012634	13.1036	-1.026563	-5.167170E+13	-2.444959E-16	NaN
29	1.000000	0.042206	7.36532e+06	-40089.1	955.819	-29792.1	0.000000	0.000000	6.042755	0.012125	NaN	0.000000	0.001615	0.001755	28.087	0.020223	0.001966	10.2841	-167.785	-161.651	-0.002979	0.040926	-0.985918	-0.987198	0.012125	10.2841	-0.986802	-1.506744E+13	-8.047233E-16	NaN
29	1.000000	0.082247	7.36532e+06	-40089.1	955.819	-29792.1	0.000000	0.000000	6.082797	0.037789	NaN	0.000000	0.001619	0.001713	28.0856	0.068729	0.001982	34.6825	160.131	-164.594	0.084023	0.080960	-0.945877	-0.947164	0.037789	34.6825	-0.946694	-4.339492E+12	-8.708064E-15	NaN
29	1.000000	0.122242	7.36532e+06	-40089.1	955.817	-29792.1	0.000000	0.000000	6.122790	-0.021382	NaN	0.000000	0.001543	0.001737	28.0878	0.081645	0.001989	41.0483	133.549	-163.204	-0.052374	0.120966	-0.905882	-0.907158	-0.021382	41.0483	-0.905491	-1.205739E+12	1.773382E-14	NaN
29	1.000000	0.162257	7.36532e+06	-40089.1	955.818	-29792.1	0.000000	0.000000	6.162804	-0.047053	NaN	0.000000	0.001570	0.001675	28.0869	0.092111	0.001936	47.5842	-136.361	-163.261	-0.106466	0.160961	-0.865867	-0.867162	-0.047053	47.5842	-0.865125	-3.431519E+11	1.371197E-13	NaN
29	1.000000	0.202281	7.36532e+06	-40089.1	955.819	-29792.1	0.000000	0.000000	6.202829	-0.015649	NaN	0.000000	0.001569	0.001697	28.0867	0.114837	0.001908	60.1999	-53.8951	-165.345	0.085494	0.200975	-0.825843	-0.827149	-0.015649	60.1999	-0.825648	-1.001834E+11	1.562073E-13	NaN
29	1.000000	0.242297	7.36532e+06	-40089.1	955.819	-29792.1	0.000000	0.000000	6.242846	0.018708	NaN	0.000000	0.001591	0.001672	28.0852	0.047620	0.001966	24.2256	-145.828	-164.913	0.037856	0.241019	-0.785827	-0.787105	0.018708	24.2256	-0.786406	-2.939490E+10	-6.364385E-13	NaN
29	1.000000	0.282298	7.36532e+06	-40089.1	955.818	-29792.1	0.000000	0.000000	6.282844	-0.081288	NaN	0.000000	0.001585	0.001689	28.0857	0.017900	0.001916	9.344398	2.194486	-163.462	0.025465	0.280979	-0.745826	-0.747145	-0.081288	9.344398	-0.739301	-6.722643E+9	1.209170E-11	NaN
29	1.000000	0.322326	7.36532e+06	-40089.1	955.818	-29792.1	0.000000	0.000000	6.322873	-0.038462	NaN	0.000000	0.001565	0.001712	28.0853	0.145479	0.002151	67.6329	-122.786	-164.987	-0.055597	0.320982	-0.705798	-0.707142	-0.038462	67.6329	-0.705372	-2.316732E+9	1.660184E-11	NaN
29	1.000000	0.362346	7.36532e+06	-40089.1	955.818	-29792.1	0.000000	0.000000	6.362892	-0.069368	NaN	0.000000	0.001543	0.001658	28.0856	0.084125	0.001935	43.4844	106.565	-163.677	-0.054421	0.361051	-0.665778	-0.667072	-0.069368	43.4844	-0.664582	-6.415246E+8	1.081302E-10	NaN
29	1.000000	0.402368	7.36532e+06	-40089.1	955.817	-29792.1	0.000000	0.000000	6.402918	0.015284	NaN	0.000000	0.001569	0.001684	28.0863	0.038199	0.002030	18.8183	123.228	-169.469	-0.033777	0.401042	-0.625756	-0.627082	0.015284	18.8183	-0.626365	-1.919092E+8	-7.964037E-11	NaN
29	1.000000	0.442403	7.36532e+06	-40089.1	955.819	-29792.1	0.000000	0.000000	6.442950	-0.047826	NaN	0.000000	0.001570	0.001662	28.0871	0.095170	0.002060	46.188	1.635633	-164.742	-0.048125	0.441045	-0.585721	-0.587079	-0.047826	46.188	-0.584944	-5.163516E+7	9.262377E-10	NaN
29	1.000000	0.482385	7.36532e+06	-40089.1	955.819	-29792.1	0.000000	0.000000	6.482934	0.008224	NaN	0.000000	0.001576	0.001682	28.0846	0.031442	0.002078	15.1326	167.026	-167.724	0.017719	0.481039	-0.545739	-0.547085	0.008224	15.1326	-0.546146	-1.501640E+7	-5.476780E-10	NaN
29	1.000000	0.522375	7.36532e+06	-40089.1	955.819	-29792.1	0.000000	0.000000	6.522922	-0.045897	NaN	0.000000	0.001570	0.001696	28.0859	0.091539	0.001987	46.0584	-171.954	-164.869	-0.025944	0.521071	-0.505749	-0.507053	-0.045897	46.0584	-0.505001	-4.02496e+06	1.140303E-8	NaN
29	1.000000	0.562449	7.36533e+06	-40089.1	955.818	-29792.1	0.000000	0.000000	6.562995	-0.068809	NaN	0.000000	0.001592	0.001679	28.0851	0.139001	0.002041	68.0891	127.426	-167.964	-0.079099	0.561157	-0.465674	-0.466967	-0.068809	68.0891	-0.464917	-1.10682e+06	6.216805E-8	NaN
29	1.000000	0.602458	7.36533e+06	-40089.1	955.818	-29792.1	0.000000	0.000000	6.603006	-0.013859	NaN	0.000000	0.001539	0.001670	28.0849	0.069108	0.002105	32.832	78.1105	-165.226	0.073528	0.601114	-0.425666	-0.427010	-0.013859	32.832	-0.425350	-306363	4.523604E-8	NaN
29	1.000000	0.642449	7.36533e+06	-40089.1	955.819	-29792.1	0.000000	0.000000	6.642993	-0.113892	NaN	0.000000	0.001515	0.001616	28.084	0.112661	0.002074	54.3164	176.344	-163.195	-0.044944	0.641101	-0.385675	-0.387023	-0.113892	54.3164	-0.384102	-79199	1.438054E-6	NaN
29	1.000000	0.682480	7.36533e+06	-40089.1	955.818	-29792.1	0.000000	0.000000	6.683029	-0.013749	NaN	0.000000	0.001520	0.001663	28.0872	0.114417	0.002051	55.796	-149.312	-163.842	0.003570	0.681181	-0.345643	-0.346943	-0.013749	55.796	-0.345459	-21929.4	6.269473E-7	NaN
29	1.000000	0.722484	7.36533e+06	-40089.1	955.819	-29792.1	0.000000	0.000000	6.723031	-0.046760	NaN	0.000000	0.001591	0.001617	28.086	0.036292	0.001891	19.1957	-34.8987	-165.994	-0.018967	0.721187	-0.305640	-0.306937	-0.046760	19.1957	-0.303813	-5362.06	8.720481E-6	NaN
29	1.000000	0.762507	7.36533e+06	-40089.1	955.818	-29792.1	0.000000	0.000000	6.763053	-0.071667	NaN	0.000000	0.001582	0.001654	28.0867	0.040271	0.002032	19.8179	43.9111	-162.053	-0.019452	0.761189	-0.265616	-0.266935	-0.071667	19.8179	-0.262904	-1298.3	5.520121E-5	NaN
29	1.000000	0.802521	7.36533e+06	-40089.1	955.818	-29792.1	0.000000	0.000000	6.803069	-0.027514	NaN	0.000000	0.001597	0.001616	28.0836	0.088943	0.001993	44.6384	139.742	-165.475	-0.050479	0.801267	-0.225602	-0.226857	-0.027514	44.6384	-0.225140	-335.397	8.203290E-5	NaN
29	1.000000	0.842547	7.36533e+06	-40089.1	955.818	-29792.1	0.000000	0.000000	6.843096	-0.016063	NaN	0.000000	0.001618	0.001577	28.0849	0.008700	0.001959	4.441860	-132.156	-167.64	-0.025081	0.841256	-0.185576	-0.186868	-0.016063	4.441860	-0.182864	-68.244	0.000235	NaN
29	1.000000	0.882568	7.36533e+06	-40089.1	955.817	-29792.1	0.000000	0.000000	6.883114	-0.086433	NaN	0.000000	0.001615	0.001576	28.0843	0.067455	0.002067	32.6401	172.764	-164.543	-0.142917	0.881233	-0.145556	-0.146891	-0.086433	32.6401	-0.143570	-13.7926	0.006267	NaN
29	1.000000	0.922574	7.36533e+06	-40089.1	955.819	-29792.1	0.000000	0.000000	6.923117	-0.127892	NaN	0.000000	0.001616	0.001640	28.0856	0.038186	0.002023	18.8774	-48.586	-163.411	-0.163846	0.921266	-0.105550	-0.106857	-0.127892	18.8774	-0.100469	-1.871343	0.068342	NaN
29	1.000000	0.962592	7.36533e+06	-40089.1	955.818	-29792.1	0.000000	0.000000	6.963138	-0.077731	NaN	0.000000	0.001618	0.001559	28.085	0.031289	0.002113	14.8048	164.845	-165.025	0.065478	0.961246	-0.065532	-0.066877	-0.077731	14.8048	-0.061594	-0.199978	0.388697	NaN
29	1.000000	1.002594	7.36533e+06	-40089.1	955.817	-29792.1	0.000000	0.000000	7.003141	-0.053710	NaN	0.000000	0.001589	0.001545	28.0854	0.123850	0.001981	62.515	-95.1329	-163.988	-0.002150	1.001291	-0.025529	-0.026833	-0.053710	62.515	-0.024885	-0.016754	3.205744	NaN
29	2.000000	1.038284	7.36533e+06	-40089.1	955.817	-29792.1	0.000000	0.000000	7.039305	11.491	NaN	0.000000	0.001592	0.001515	28.0854	10.3636	0.001549	6691.72	2.033571	-170.234	10.9167	1.037858	0.010160	0.009735	11.491	6691.72	0.008872	0.007955	1444.56	68548.9
29	2.000000	1.048155	7.36533e+06	-40089.1	955.817	-29792.1	0.000000	0.000000	7.049991	31.3266	NaN	0.000000	0.001612	0.001563	28.084	21.5565	0.001830	11780.8	3.989184	-175.674	29.7538	1.047880	0.020031	0.019756	31.3266	11780.8	0.018036	0.019550	1602.36	76978.8
29	2.000000	1.058183	7.36533e+06	-40089.1	955.818	-29792.1	0.000000	0.000000	7.061059	56.6365	NaN	0.000000	0.001617	0.001569	28.0838	30.7956	0.001831	16820.2	3.544874	-177.062	58.5905	1.057894	0.030059	0.029770	56.6365	16820.2	0.027534	0.035787	1582.62	81235.1
29	2.000000	1.068180	7.36533e+06	-40089.1	955.818	-29792.1	0.000000	0.000000	7.072512	92.0416	NaN	0.000000	0.001584	0.001542	28.0847	41.3128	0.001909	21645.7	9.775814	174.756	94.0066	1.067815	0.040057	0.039692	92.0416	21645.7	0.036867	0.056184	1638.23	83433.6
29	2.000000	1.078076	7.36533e+06	-40089.1	955.817	-29792.1	0.000000	0.000000	7.084287	137.777	NaN	0.000000	0.001580	0.001547	28.0851	49.9354	0.001808	27613.1	0.342720	-178.486	134.605	1.077769	0.049952	0.049645	137.777	27613.1	0.046210	0.081059	1699.7	88610.7
29	2.000000	1.088066	7.36533e+06	-40089.1	955.818	-29792.1	0.000000	0.000000	7.096059	181.129	NaN	0.000000	0.001631	0.001583	28.0851	58.1198	0.001598	36370.9	2.427637	176.565	177.697	1.087816	0.059943	0.059692	181.129	36370.9	0.056207	0.112561	1609.16	99045.1
29	2.000000	1.098075	7.36533e+06	-40089.1	955.818	-29792.1	0.000000	0.000000	7.108114	230.938	NaN	0.000000	0.001621	0.001581	28.0846	68.3399	0.001839	37164.9	0.854059	178.436	228.869	1.097860	0.069951	0.069736	230.938	37164.9	0.065291	0.145460	1587.64	89029.5
29	2.000000	1.108104	7.36533e+06	-40089.1	955.818	-29792.1	0.000000	0.000000	7.120379	285.343	NaN	0.000000	0.001594	0.001548	28.0856	79.4234	0.001843	43087.6	8.540160	169.962	285.898	1.107725	0.079980	0.079601	285.343	43087.6	0.075013	0.185078	1541.75	91505.7
29	2.000000	1.117985	7.36533e+06	-40089.1	955.818	-29792.1	0.000000	0.000000	7.132968	351.224	NaN	0.000000	0.001606	0.001606	28.0831	86.236	0.001840	46866.2	4.894794	172.559	346.419	1.117761	0.089862	0.089637	351.224	46866.2	0.084241	0.226794	1548.65	89911.9
29	2.000000	1.127958	7.36533e+06	-40089.1	955.819	-29792.1	0.000000	0.000000	7.146141	429.119	NaN	0.000000	0.001657	0.001585	28.0843	93.8608	0.001739	53964.7	4.460967	172.235	424.142	1.127688	0.099834	0.099564	429.119	53964.7	0.093870	0.274525	1563.14	94100.6
29	2.000000	1.134988	7.36533e+06	-40089.1	955.818	-29792.1	0.000000	0.000000	7.154551	462.712	NaN	0.000000	0.001720	0.001570	28.1209	104.547	0.001652	63272.8	5.157757	170.994	459.044	1.134850	0.106864	0.106726	462.712	63272.8	0.101379	0.314687	1470.39	103051