File: remote_trans/data/nanoindenter/0828-1/data/Data_2025-08-06,11h17m57s/2025-07-22_16-23-58_1_1116.txt
2025-07-22, 16:23:58, 1
Index	Phase	Displacement	Time	Pos X	Pos Y	Pos Z	Rot A	Rot B	Piezo Z	Force A	Force B	Gripper	Voltage A	Voltage B	Temperature	Amplitude force	Amplitude pos	Stiffness	Phase shift	Phase excitation	Force A raw	Displacement raw	HMax	HMax raw	Real Force	Real Stiffness	Contact Depth	Area	Hardness	Reduced Mod.
[#]	[#]	[um]	[s]	[um]	[um]	[um]	[m°]	[m°]	[um]	[uN]	[uN]	[V]	[V]	[V]	[°C]	[uN]	[um]	[N/m]	[°]	[°]	[uN]	[um]	[um]	[um]	[uN]	[N/m]	[um]	[um^2]	[MPa]	[MPa]
1116	1.000000	0.002364	7.37597e+06	-55939.1	1055.82	-29740.3	0.000000	0.000000	6.002799	-0.054938	NaN	0.000000	0.001597	0.001713	28.0827	0.027217	0.000990	27.4933	-132.928	-168.67	0.046838	0.001101	-1.045034	-1.046297	-0.054938	27.4933	-1.043535	-8.739777E+13	6.285999E-16	NaN
1116	1.000000	0.042267	7.37597e+06	-55939.1	1055.82	-29740.3	0.000000	0.000000	6.042701	-0.078742	NaN	0.000000	0.001648	0.001729	28.0843	0.045539	0.002064	22.0653	-13.3154	-166.32	-0.085825	0.040955	-1.005131	-1.006443	-0.078742	22.0653	-1.002455	-2.448015E+13	3.216550E-15	NaN
1116	1.000000	0.082329	7.37597e+06	-55939.1	1055.82	-29740.3	0.000000	0.000000	6.082771	0.098394	NaN	0.000000	0.001673	0.001726	28.0846	0.051357	0.002027	25.3388	122.313	-166.779	0.053175	0.081042	-0.965069	-0.966356	0.098394	25.3388	-0.967981	-8.403354E+12	-1.170892E-14	NaN
1116	1.000000	0.122347	7.37597e+06	-55939.1	1055.82	-29740.3	0.000000	0.000000	6.122783	-0.043294	NaN	0.000000	0.001656	0.001786	28.0844	0.215080	0.002008	107.12	131.424	-166.477	-0.042483	0.121020	-0.925051	-0.926378	-0.043294	107.12	-0.924748	-2.194324E+12	1.972996E-14	NaN
1116	1.000000	0.162327	7.37597e+06	-55939.1	1055.82	-29740.3	0.000000	0.000000	6.162765	0.006335	NaN	0.000000	0.001696	0.001722	28.0841	0.083109	0.002041	40.7109	-35.6141	-167.536	0.000721	0.161061	-0.885071	-0.886337	0.006335	40.7109	-0.885188	-6.409954E+11	-9.883773E-15	NaN
1116	1.000000	0.202378	7.37597e+06	-55939.1	1055.82	-29740.3	0.000000	0.000000	6.202814	-0.038552	NaN	0.000000	0.001703	0.001705	28.0832	0.127187	0.002015	63.1276	108.524	-168.212	0.022144	0.201078	-0.845020	-0.846320	-0.038552	63.1276	-0.844562	-1.807564E+11	2.132833E-13	NaN
1116	1.000000	0.242399	7.37597e+06	-55939.1	1055.82	-29740.3	0.000000	0.000000	6.242834	-0.055827	NaN	0.000000	0.001713	0.001735	28.0831	0.134301	0.001991	67.4537	113.783	-165.268	-0.095161	0.241076	-0.804999	-0.806322	-0.055827	67.4537	-0.804379	-5.155780E+10	1.082811E-12	NaN
1116	1.000000	0.282385	7.37597e+06	-55939.1	1055.82	-29740.3	0.000000	0.000000	6.282821	-0.027393	NaN	0.000000	0.001645	0.001691	28.0833	0.015314	0.002017	7.591109	125.474	-168.059	-0.028214	0.281095	-0.765013	-0.766303	-0.027393	7.591109	-0.762307	-1.382559E+10	1.981314E-12	NaN
1116	1.000000	0.322422	7.37597e+06	-55939.1	1055.82	-29740.3	0.000000	0.000000	6.322857	-0.056646	NaN	0.000000	0.001660	0.001722	28.0844	0.041660	0.002019	20.6331	75.8497	-165.801	-0.076202	0.321117	-0.724976	-0.726281	-0.056646	20.6331	-0.722917	-4.020210E+9	1.409037E-11	NaN
1116	1.000000	0.362435	7.37597e+06	-55939.1	1055.82	-29740.3	0.000000	0.000000	6.362871	-0.016006	NaN	0.000000	0.001643	0.001745	28.0843	0.099925	0.001965	50.8581	52.5779	-163.097	-0.041007	0.361132	-0.684963	-0.686266	-0.016006	50.8581	-0.684727	-1.210175E+9	1.322606E-11	NaN
1116	1.000000	0.402516	7.37597e+06	-55939.1	1055.82	-29740.3	0.000000	0.000000	6.402953	-0.001539	NaN	0.000000	0.001677	0.001803	28.0844	0.048629	0.002133	22.7969	105.258	-165.353	-0.012885	0.401145	-0.644882	-0.646253	-0.001539	22.7969	-0.644831	-3.440066E+8	4.475121E-12	NaN
1116	1.000000	0.442468	7.37597e+06	-55939.1	1055.82	-29740.3	0.000000	0.000000	6.442903	-0.060556	NaN	0.000000	0.001631	0.001743	28.0845	0.081908	0.001981	41.3513	86.2889	-165.736	-0.018717	0.441132	-0.604930	-0.606266	-0.060556	41.3513	-0.603832	-9.402119E+7	6.440721E-10	NaN
1116	1.000000	0.482497	7.37597e+06	-55939.1	1055.82	-29740.3	0.000000	0.000000	6.482931	-0.080914	NaN	0.000000	0.001579	0.001709	28.0843	0.008186	0.001911	4.284850	-82.056	-171.415	0.007493	0.481136	-0.564901	-0.566262	-0.080914	4.284850	-0.550738	-1.738536E+7	4.654119E-9	NaN
1116	1.000000	0.522513	7.37597e+06	-55939.1	1055.82	-29740.3	0.000000	0.000000	6.522949	-0.042155	NaN	0.000000	0.001602	0.001718	28.0833	0.042168	0.001913	22.0379	-136.914	-167.039	-0.049864	0.521192	-0.524885	-0.526206	-0.042155	22.0379	-0.523450	-7.27053e+06	5.798124E-9	NaN
1116	1.000000	0.562548	7.37597e+06	-55939.1	1055.82	-29740.3	0.000000	0.000000	6.562982	-0.069572	NaN	0.000000	0.001594	0.001717	28.0835	0.068807	0.001865	36.9029	130.63	-163.565	-0.086066	0.561186	-0.484850	-0.486212	-0.069572	36.9029	-0.483436	-2.01195e+06	3.457929E-8	NaN
1116	1.000000	0.602535	7.37597e+06	-55939.1	1055.82	-29740.3	0.000000	0.000000	6.602973	0.024366	NaN	0.000000	0.001595	0.001750	28.0847	0.068226	0.001874	36.4009	-67.0292	-168.948	0.087434	0.601244	-0.444863	-0.446154	0.024366	36.4009	-0.445366	-587550	-4.147117E-8	NaN
1116	1.000000	0.642573	7.37597e+06	-55939.1	1055.82	-29740.3	0.000000	0.000000	6.643010	-0.017389	NaN	0.000000	0.001549	0.001756	28.0846	0.188164	0.002007	93.7477	165.956	-165.942	-0.046118	0.641236	-0.404825	-0.406162	-0.017389	93.7477	-0.404686	-155873	1.115610E-7	NaN
1116	1.000000	0.682578	7.37597e+06	-55939.1	1055.82	-29740.3	0.000000	0.000000	6.683016	-0.000984	NaN	0.000000	0.001572	0.001734	28.0844	0.065404	0.001939	33.7236	72.5285	-164.76	-0.042254	0.681234	-0.364820	-0.366164	-0.000984	33.7236	-0.364798	-41796.1	2.353472E-8	NaN
1116	1.000000	0.722622	7.37597e+06	-55939.1	1055.82	-29740.3	0.000000	0.000000	6.723056	-0.071219	NaN	0.000000	0.001596	0.001721	28.0836	0.088423	0.001963	45.0368	-86.8623	-167.174	-0.056614	0.721237	-0.324776	-0.326161	-0.071219	45.0368	-0.323590	-10505.9	6.778972E-6	NaN
1116	1.000000	0.762618	7.37597e+06	-55939.1	1055.82	-29740.3	0.000000	0.000000	6.763055	-0.008928	NaN	0.000000	0.001590	0.001778	28.0833	0.027738	0.001875	14.7951	-154.419	-164.1	-0.082983	0.761339	-0.284780	-0.286059	-0.008928	14.7951	-0.284327	-2742.54	3.255454E-6	NaN
1116	1.000000	0.802644	7.37597e+06	-55939.1	1055.82	-29740.3	0.000000	0.000000	6.803081	-0.001654	NaN	0.000000	0.001559	0.001798	28.0831	0.093951	0.002022	46.4629	9.737916	-162.745	0.004508	0.801306	-0.244754	-0.246092	-0.001654	46.4629	-0.244728	-681.116	2.428250E-6	NaN
1116	1.000000	0.842663	7.37597e+06	-55939.1	1055.82	-29740.3	0.000000	0.000000	6.843098	-0.055259	NaN	0.000000	0.001568	0.001707	28.0834	0.044751	0.001939	23.0848	-42.918	-166.563	-0.110810	0.841297	-0.204735	-0.206101	-0.055259	23.0848	-0.202940	-147.198	0.000375	NaN
1116	1.000000	0.882637	7.37597e+06	-55939.1	1055.82	-29740.3	0.000000	0.000000	6.883070	-0.098369	NaN	0.000000	0.001562	0.001712	28.0846	0.085437	0.002018	42.339	-28.6606	-165.515	-0.043043	0.881335	-0.164761	-0.166063	-0.098369	42.339	-0.163019	-31.0054	0.003173	NaN
1116	1.000000	0.922661	7.37597e+06	-55939.1	1055.82	-29740.3	0.000000	0.000000	6.923095	-0.072146	NaN	0.000000	0.001581	0.001751	28.0849	0.116253	0.001969	59.0532	18.8046	-166.709	-0.096547	0.921366	-0.124737	-0.126032	-0.072146	59.0532	-0.123821	-5.762550	0.012520	NaN
1116	1.000000	0.962679	7.37597e+06	-55939.1	1055.82	-29740.3	0.000000	0.000000	6.963114	-0.057133	NaN	0.000000	0.001562	0.001802	28.0848	0.092028	0.001921	47.9022	153.812	-163.395	-0.034703	0.961397	-0.084719	-0.086001	-0.057133	47.9022	-0.083824	-0.769345	0.074262	NaN
1116	1.000000	1.002708	7.37597e+06	-55939.1	1055.82	-29740.4	0.000000	0.000000	7.003144	-0.012456	NaN	0.000000	0.001598	0.001769	28.0832	0.108680	0.001953	55.6463	-29.249	-168.157	-0.040638	1.001361	-0.044690	-0.046037	-0.012456	55.6463	-0.044523	-0.062143	0.200447	NaN
1116	1.000000	1.042735	7.37597e+06	-55939.1	1055.82	-29740.4	0.000000	0.000000	7.043246	1.788113	NaN	0.000000	0.001607	0.001771	28.0831	1.342711	0.001972	681.052	11.187	-164.725	1.873734	1.041405	-0.004663	-0.005993	1.788113	681.052	-0.006633	-0.004420	-404.543	NaN
1116	2.000000	1.062358	7.37597e+06	-55939.1	1055.82	-29740.4	0.000000	0.000000	7.063404	14.7818	NaN	0.000000	0.001631	0.001716	28.0835	14.4616	0.001943	7442.82	8.299722	-175.004	14.7977	1.062038	0.014960	0.014640	14.7818	7442.82	0.013471	0.013300	1111.42	58963.9
1116	2.000000	1.072262	7.37597e+06	-55939.1	1055.82	-29740.4	0.000000	0.000000	7.074222	37.0023	NaN	0.000000	0.001628	0.001775	28.0828	23.5259	0.001734	13564.7	1.494288	-173.948	35.9435	1.071965	0.024864	0.024567	37.0023	13564.7	0.022818	0.027166	1362.07	75191.7
1116	2.000000	1.082281	7.37597e+06	-55939.1	1055.82	-29740.4	0.000000	0.000000	7.085348	63.9146	NaN	0.000000	0.001646	0.001777	28.0845	33.7556	0.001833	18420.1	5.304192	179.965	64.0499	1.081959	0.034883	0.034561	63.9146	18420.1	0.032281	0.045604	1401.51	78806.5
1116	2.000000	1.092270	7.37597e+06	-55939.1	1055.82	-29740.4	0.000000	0.000000	7.096718	97.4926	NaN	0.000000	0.001560	0.001747	28.0845	43.3472	0.001742	24890.6	5.028818	176.711	98.4192	1.091990	0.044872	0.044592	97.4926	24890.6	0.041934	0.069123	1410.41	86496.1
1116	2.000000	1.102241	7.37597e+06	-55939.1	1055.82	-29740.4	0.000000	0.000000	7.108672	145.679	NaN	0.000000	0.001657	0.001756	28.0848	55.0032	0.001861	29558.8	2.843779	178.179	145.75	1.101991	0.054843	0.054593	145.679	29558.8	0.051147	0.095992	1517.62	87165.3
1116	2.000000	1.112244	7.37597e+06	-55939.1	1055.82	-29740.4	0.000000	0.000000	7.120797	197.288	NaN	0.000000	0.001612	0.001739	28.0838	64.1782	0.001778	36091.4	4.812475	174.364	198.483	1.111986	0.064846	0.064588	197.288	36091.4	0.060746	0.128496	1535.36	91988.1
1116	2.000000	1.122151	7.37597e+06	-55939.1	1055.82	-29740.4	0.000000	0.000000	7.133279	259.867	NaN	0.000000	0.001572	0.001742	28.0834	74.009	0.001793	41273.3	0.528856	177.428	256.713	1.121940	0.074753	0.074542	259.867	41273.3	0.070031	0.164213	1582.5	93054.8
1116	2.000000	1.132199	7.37597e+06	-55939.1	1055.82	-29740.4	0.000000	0.000000	7.145999	324.801	NaN	0.000000	0.001618	0.001720	28.0832	83.9275	0.001900	44178.1	4.091001	173.76	324.231	1.131988	0.084801	0.084590	324.801	44178.1	0.079287	0.203905	1592.9	89385.3
1116	2.000000	1.142263	7.37597e+06	-55939.1	1055.82	-29740.4	0.000000	0.000000	7.159523	408.916	NaN	0.000000	0.001560	0.001734	28.0832	92.8026	0.001796	51679.6	3.265348	173.916	411.717	1.141874	0.094865	0.094476	408.916	51679.6	0.088930	0.249508	1638.89	94525.8
1116	2.000000	1.152171	7.37597e+06	-55939.1	1055.82	-29740.4	0.000000	0.000000	7.172635	486.808	NaN	0.000000	0.001568	0.001755	28.0841	102.411	0.001718	59608.5	1.253514	174.557	484.772	1.151871	0.104773	0.104473	486.808	59608.5	0.098648	0.299781	1623.88	99467
1116	2.000000	1.154068	7.37597e+06	-55939.1	1055.82	-29740.4	0.000000	0.000000	7.175306	505.62	NaN	0.000000	0.001568	0.001727	28.0842	102.972	0.001774	58043.4	0.966398	175.501	500.051	1.153854	0.106670	0.106456	505.62	58043.4	0.100136	0.307864	1642.35	95575.5