File: remote_trans/data/nanoindenter/0828-1/data/Data_2025-08-06,11h17m57s/2025-07-22_16-23-58_1_80.txt
2025-07-22, 16:23:58, 1
Index	Phase	Displacement	Time	Pos X	Pos Y	Pos Z	Rot A	Rot B	Piezo Z	Force A	Force B	Gripper	Voltage A	Voltage B	Temperature	Amplitude force	Amplitude pos	Stiffness	Phase shift	Phase excitation	Force A raw	Displacement raw	HMax	HMax raw	Real Force	Real Stiffness	Contact Depth	Area	Hardness	Reduced Mod.
[#]	[#]	[um]	[s]	[um]	[um]	[um]	[m°]	[m°]	[um]	[uN]	[uN]	[V]	[V]	[V]	[°C]	[uN]	[um]	[N/m]	[°]	[°]	[uN]	[um]	[um]	[um]	[uN]	[N/m]	[um]	[um^2]	[MPa]	[MPa]
80	1.000000	0.002399	7.36582e+06	-42639.1	955.818	-29782.6	0.000000	0.000000	6.002823	-0.060500	NaN	0.000000	0.001717	0.001671	28.0861	0.075816	0.001022	74.1645	173.141	-164.168	-0.099499	0.001173	-1.095886	-1.097112	-0.060500	74.1645	-1.095274	-4.331337E+14	1.396800E-16	NaN
80	1.000000	0.044324	7.36582e+06	-42639.1	955.818	-29782.6	0.000000	0.000000	6.044752	0.048652	NaN	0.000000	0.001639	0.001669	28.1264	0.072837	0.001990	36.6058	-98.9216	13.1464	0.069441	0.042967	-1.053961	-1.055318	0.048652	36.6058	-1.054958	-1.244667E+14	-3.908843E-16	NaN
80	1.000000	0.086346	7.36582e+06	-42639.1	955.818	-29782.6	0.000000	0.000000	6.086775	0.061415	NaN	0.000000	0.001601	0.001621	28.1105	0.042846	0.001879	22.8006	-146.651	-163.059	0.022160	0.085019	-1.011939	-1.013266	0.061415	22.8006	-1.013959	-3.496761E+13	-1.756348E-15	NaN
80	1.000000	0.128351	7.36582e+06	-42639.1	955.818	-29782.6	0.000000	0.000000	6.128776	-0.017468	NaN	0.000000	0.001593	0.001701	28.0815	0.110286	0.002028	54.3786	-12.1466	14.0599	0.097754	0.127012	-0.969934	-0.971273	-0.017468	54.3786	-0.969693	-8.862004E+12	1.971139E-15	NaN
80	1.000000	0.170372	7.36582e+06	-42639.1	955.818	-29782.6	0.000000	0.000000	6.170798	-0.023231	NaN	0.000000	0.001582	0.001732	28.0877	0.125882	0.001957	64.3143	87.865	-165.952	-0.009117	0.169034	-0.927913	-0.929251	-0.023231	64.3143	-0.927642	-2.400869E+12	9.675978E-15	NaN
80	1.000000	0.212411	7.36582e+06	-42639.1	955.818	-29782.6	0.000000	0.000000	6.212839	0.044273	NaN	0.000000	0.001666	0.001680	28.1256	0.085916	0.001893	45.3791	119.427	9.833307	0.004665	0.211014	-0.885874	-0.887271	0.044273	45.3791	-0.886605	-6.699221E+11	-6.608714E-14	NaN
80	1.000000	0.254416	7.36582e+06	-42639.1	955.818	-29782.6	0.000000	0.000000	6.254843	0.012391	NaN	0.000000	0.001651	0.001654	28.1118	0.013839	0.002083	6.644262	87.9124	-164.288	0.044213	0.253144	-0.843869	-0.845141	0.012391	6.644262	-0.845268	-1.847773E+11	-6.705726E-14	NaN
80	1.000000	0.296445	7.36582e+06	-42639.1	955.819	-29782.6	0.000000	0.000000	6.296872	0.019452	NaN	0.000000	0.001612	0.001650	28.0794	0.078279	0.001995	39.23	-169.111	13.6423	0.023561	0.295021	-0.801840	-0.803264	0.019452	39.23	-0.802212	-4.818277E+10	-4.037194E-13	NaN
80	1.000000	0.338463	7.36582e+06	-42639.1	955.818	-29782.6	0.000000	0.000000	6.338890	0.021423	NaN	0.000000	0.001630	0.001621	28.0847	0.020859	0.002035	10.2501	-55.4905	-170.021	0.019409	0.337134	-0.759822	-0.761151	0.021423	10.2501	-0.761390	-1.343401E+10	-1.594663E-12	NaN
80	1.000000	0.380447	7.36582e+06	-42639.1	955.818	-29782.6	0.000000	0.000000	6.380871	-0.035825	NaN	0.000000	0.001617	0.001612	28.1246	0.092392	0.002095	44.0973	-57.4518	14.6584	-0.071445	0.379122	-0.717838	-0.719163	-0.035825	44.0973	-0.717229	-3.362648E+9	1.065377E-11	NaN
80	1.000000	0.422464	7.36582e+06	-42639.1	955.818	-29782.6	0.000000	0.000000	6.422891	0.034986	NaN	0.000000	0.001579	0.001677	28.1133	0.031270	0.001929	16.2142	46.7682	-161.853	0.008359	0.421183	-0.675822	-0.677102	0.034986	16.2142	-0.677440	-9.620306E+8	-3.636731E-11	NaN
80	1.000000	0.464485	7.36582e+06	-42639.1	955.818	-29782.6	0.000000	0.000000	6.464911	0.011020	NaN	0.000000	0.001589	0.001651	28.0809	0.072459	0.002029	35.7033	167.245	14.1761	0.028639	0.463104	-0.633800	-0.635181	0.011020	35.7033	-0.634032	-2.445586E+8	-4.505998E-11	NaN
80	1.000000	0.506492	7.36582e+06	-42639.1	955.818	-29782.6	0.000000	0.000000	6.506922	0.090572	NaN	0.000000	0.001610	0.001649	28.085	0.022568	0.001988	11.352	-84.7252	-163.215	-0.022883	0.505173	-0.591793	-0.593112	0.090572	11.352	-0.597777	-7.759638E+7	-1.167219E-9	NaN
80	1.000000	0.548574	7.36582e+06	-42639.1	955.819	-29782.6	0.000000	0.000000	6.548999	-0.043961	NaN	0.000000	0.001598	0.001628	28.1227	0.070397	0.001993	35.3306	82.231	13.6931	-0.051911	0.547127	-0.549711	-0.551158	-0.043961	35.3306	-0.548777	-1.633133E+7	2.691832E-9	NaN
80	1.000000	0.590551	7.36582e+06	-42639.1	955.82	-29782.6	0.000000	0.000000	6.590975	-0.033907	NaN	0.000000	0.001614	0.001684	28.1121	0.031374	0.001989	15.7729	-145.981	-168.151	-0.012720	0.589267	-0.507735	-0.509018	-0.033907	15.7729	-0.506122	-4.17241e+06	8.126582E-9	NaN
80	1.000000	0.632587	7.36583e+06	-42639.1	955.817	-29782.6	0.000000	0.000000	6.633014	0.013452	NaN	0.000000	0.001579	0.001702	28.0815	0.089136	0.001908	46.7098	-107.639	13.3907	0.029343	0.631209	-0.465698	-0.467076	0.013452	46.7098	-0.465914	-1.14309e+06	-1.176803E-8	NaN
80	1.000000	0.674624	7.36583e+06	-42639.1	955.818	-29782.6	0.000000	0.000000	6.675051	0.015106	NaN	0.000000	0.001676	0.001675	28.0854	0.060523	0.001936	31.2681	176.715	-164.146	-0.007814	0.673245	-0.423661	-0.425040	0.015106	31.2681	-0.424023	-293390	-5.148917E-8	NaN
80	1.000000	0.716581	7.36583e+06	-42639.1	955.818	-29782.6	0.000000	0.000000	6.717004	-0.072420	NaN	0.000000	0.001681	0.001668	28.1244	0.052178	0.001944	26.841	-66.4097	13.2867	0.047479	0.715285	-0.381704	-0.383000	-0.072420	26.841	-0.379681	-68439.8	1.058161E-6	NaN
80	1.000000	0.758639	7.36583e+06	-42639.1	955.819	-29782.6	0.000000	0.000000	6.759066	0.010983	NaN	0.000000	0.001635	0.001642	28.1148	0.035151	0.001882	18.6732	121.516	-166.13	0.050418	0.757332	-0.339646	-0.340953	0.010983	18.6732	-0.340087	-18315.7	-5.996596E-7	NaN
80	1.000000	0.800661	7.36583e+06	-42639.1	955.819	-29782.6	0.000000	0.000000	6.801087	-0.008763	NaN	0.000000	0.001605	0.001673	28.08	0.088776	0.001958	45.3432	80.7106	16.8355	0.030664	0.799283	-0.297624	-0.299002	-0.008763	45.3432	-0.297479	-4315.97	2.030329E-6	NaN
80	1.000000	0.842656	7.36583e+06	-42639.1	955.818	-29782.6	0.000000	0.000000	6.843081	-0.017640	NaN	0.000000	0.001628	0.001680	28.0838	0.067559	0.002067	32.6776	-178.727	-167.356	-0.019688	0.841328	-0.255629	-0.256957	-0.017640	32.6776	-0.255224	-989.852	1.782063E-5	NaN
80	1.000000	0.884669	7.36583e+06	-42639.1	955.818	-29782.6	0.000000	0.000000	6.885094	-0.021275	NaN	0.000000	0.001683	0.001705	28.1225	0.071528	0.001929	37.0778	-134.895	13.9499	0.044444	0.883267	-0.213616	-0.215018	-0.021275	37.0778	-0.213186	-215.923	9.853035E-5	NaN
80	1.000000	0.926707	7.36583e+06	-42639.1	955.818	-29782.6	0.000000	0.000000	6.927135	0.026503	NaN	0.000000	0.001670	0.001690	28.1151	0.075955	0.002017	37.6555	-112.632	-165.65	0.012285	0.925411	-0.171578	-0.172874	0.026503	37.6555	-0.172106	-44.6784	-0.000593	NaN
80	1.000000	0.968702	7.36583e+06	-42639.1	955.818	-29782.6	0.000000	0.000000	6.969128	-0.005654	NaN	0.000000	0.001682	0.001712	28.0827	0.079948	0.002010	39.7676	32.4864	15.4746	0.021928	0.967322	-0.129583	-0.130963	-0.005654	39.7676	-0.129476	-7.444402	0.000760	NaN
80	1.000000	1.010734	7.36583e+06	-42639.1	955.818	-29782.6	0.000000	0.000000	7.011158	-0.062021	NaN	0.000000	0.001624	0.001699	28.0842	0.147223	0.002035	72.3549	-81.3679	-167.242	-0.005799	1.009467	-0.087551	-0.088818	-0.062021	72.3549	-0.086908	-0.913240	0.067913	NaN
80	1.000000	1.052754	7.36583e+06	-42639.1	955.819	-29782.6	0.000000	0.000000	7.053180	-0.002260	NaN	0.000000	0.001620	0.001691	28.1209	0.084883	0.001868	45.4404	-53.2501	15.1197	-0.100778	1.051378	-0.045531	-0.046907	-0.002260	45.4404	-0.045494	-0.066541	0.033962	NaN
80	1.000000	1.094775	7.36583e+06	-42639.1	955.819	-29782.6	0.000000	0.000000	7.095200	-0.013008	NaN	0.000000	0.001633	0.001617	28.1135	0.028883	0.002087	13.8403	-134.053	-167.781	-0.041419	1.093429	-0.003510	-0.004856	-0.013008	13.8403	-0.002805	-0.001990	6.537372	NaN
80	2.000000	1.115750	7.36583e+06	-42639.1	955.818	-29782.6	0.000000	0.000000	7.116920	18.0924	NaN	0.000000	0.001665	0.001687	28.0807	16.7815	0.001951	8601.83	12.5047	-0.721986	18.3577	1.115393	0.017465	0.017108	18.0924	8601.83	0.015888	0.016488	1097.33	61204.7
80	2.000000	1.126188	7.36583e+06	-42639.1	955.818	-29782.6	0.000000	0.000000	7.128468	45.123	NaN	0.000000	0.001664	0.001696	28.0826	27.0886	0.001721	15742.9	6.097548	178.309	43.3718	1.125901	0.027903	0.027616	45.123	15742.9	0.025753	0.032400	1392.7	79907.8
80	2.000000	1.136643	7.36583e+06	-42639.1	955.818	-29782.6	0.000000	0.000000	7.140137	74.6292	NaN	0.000000	0.001584	0.001706	28.1219	36.3209	0.001793	20254.3	2.141691	0.778255	72.3175	1.136342	0.038358	0.038057	74.6292	20254.3	0.035595	0.053139	1404.41	80275.3
80	2.000000	1.147195	7.36583e+06	-42639.1	955.818	-29782.6	0.000000	0.000000	7.152454	117.584	NaN	0.000000	0.001574	0.001693	28.1164	46.1644	0.001721	26831.1	3.568868	177.743	117.089	1.146810	0.048910	0.048525	117.584	26831.1	0.045623	0.079366	1481.55	87015.4
80	2.000000	1.157731	7.36583e+06	-42639.1	955.818	-29782.6	0.000000	0.000000	7.164834	162.465	NaN	0.000000	0.001578	0.001693	28.082	57.0762	0.001758	32463.2	1.058635	-2.417220	163.709	1.157406	0.059446	0.059121	162.465	32463.2	0.055692	0.110816	1466.08	89097.1
80	2.000000	1.168168	7.36583e+06	-42639.1	955.819	-29782.6	0.000000	0.000000	7.177975	228.239	NaN	0.000000	0.001616	0.001645	28.0828	67.9203	0.001708	39776.8	3.502632	173.757	225.906	1.167822	0.069883	0.069537	228.239	39776.8	0.065579	0.146571	1557.19	94924.5
80	2.000000	1.178591	7.36583e+06	-42639.1	955.82	-29782.6	0.000000	0.000000	7.191021	292.06	NaN	0.000000	0.001617	0.001675	28.1206	79.2297	0.001813	43708.6	4.749643	-7.850420	289.753	1.178225	0.080306	0.079940	292.06	43708.6	0.075295	0.186291	1567.76	92521.7
80	2.000000	1.189019	7.36583e+06	-42639.1	955.82	-29782.6	0.000000	0.000000	7.204441	364.84	NaN	0.000000	0.001555	0.001670	28.1162	87.1967	0.001862	46836.3	1.662828	174.539	360.172	1.188835	0.090734	0.090550	364.84	46836.3	0.084892	0.229887	1587.04	89247.9
80	2.000000	1.199569	7.36583e+06	-42639.1	955.82	-29782.6	0.000000	0.000000	7.218630	453.399	NaN	0.000000	0.001580	0.001630	28.0815	97.1473	0.001843	52719.2	5.899684	-10.0362	448.399	1.199245	0.101284	0.100960	453.399	52719.2	0.094834	0.279536	1621.97	91101
80	2.000000	1.206999	7.36583e+06	-42639.1	955.819	-29782.6	0.000000	0.000000	7.228746	518.749	NaN	0.000000	0.001641	0.001648	28.1173	102.522	0.001839	55744.7	4.972138	170.4	512.06	1.206742	0.108714	0.108457	518.749	55744.7	0.101734	0.316651	1638.24	90507.9