File: remote_trans/data/nanoindenter/0828-1/data/Data_2025-08-06,11h17m57s/2025-07-22_16-23-58_1_489.txt
2025-07-22, 16:23:58, 1
Index	Phase	Displacement	Time	Pos X	Pos Y	Pos Z	Rot A	Rot B	Piezo Z	Force A	Force B	Gripper	Voltage A	Voltage B	Temperature	Amplitude force	Amplitude pos	Stiffness	Phase shift	Phase excitation	Force A raw	Displacement raw	HMax	HMax raw	Real Force	Real Stiffness	Contact Depth	Area	Hardness	Reduced Mod.
[#]	[#]	[um]	[s]	[um]	[um]	[um]	[m°]	[m°]	[um]	[uN]	[uN]	[V]	[V]	[V]	[°C]	[uN]	[um]	[N/m]	[°]	[°]	[uN]	[um]	[um]	[um]	[uN]	[N/m]	[um]	[um^2]	[MPa]	[MPa]
489	1.000000	0.002414	7.36984e+06	-52639.1	1005.82	-29748.7	0.000000	0.000000	6.002731	0.048224	NaN	0.000000	0.001586	0.001743	28.083	0.022141	0.000957	23.1286	-126.11	179.53	0.034756	0.001169	-1.160144	-1.161389	0.048224	23.1286	-1.161708	-3.371016E+15	-1.430559E-17	NaN
489	1.000000	0.046407	7.36984e+06	-52639.1	1005.82	-29748.6	0.000000	0.000000	6.046721	-0.017216	NaN	0.000000	0.001568	0.001720	28.0817	0.040462	0.002076	19.4903	125.069	176.9	0.040564	0.045078	-1.116151	-1.117480	-0.017216	19.4903	-1.115488	-8.089805E+14	2.128074E-17	NaN
489	1.000000	0.090378	7.36984e+06	-52639.1	1005.82	-29748.6	0.000000	0.000000	6.090695	0.042657	NaN	0.000000	0.001543	0.001731	28.0818	0.072423	0.001882	38.4767	84.5825	176.985	0.046518	0.089056	-1.072180	-1.073503	0.042657	38.4767	-1.073012	-2.175951E+14	-1.960382E-16	NaN
489	1.000000	0.134413	7.36984e+06	-52639.1	1005.82	-29748.6	0.000000	0.000000	6.134726	-0.033114	NaN	0.000000	0.001528	0.001699	28.0816	0.020558	0.002037	10.094	-121.125	175.756	0.002803	0.133134	-1.028146	-1.029424	-0.033114	10.094	-1.025685	-5.028498E+13	6.585332E-16	NaN
489	1.000000	0.178390	7.36984e+06	-52639.1	1005.82	-29748.6	0.000000	0.000000	6.178704	-0.010903	NaN	0.000000	0.001586	0.001748	28.0833	0.107486	0.002104	51.095	-63.8466	176.744	0.029513	0.177082	-0.984168	-0.985476	-0.010903	51.095	-0.984008	-1.381675E+13	7.891063E-16	NaN
489	1.000000	0.222414	7.36984e+06	-52639.1	1005.82	-29748.6	0.000000	0.000000	6.222728	-0.019545	NaN	0.000000	0.001594	0.001698	28.083	0.063105	0.001979	31.8945	177.092	176.139	0.050382	0.221077	-0.940144	-0.941481	-0.019545	31.8945	-0.939685	-3.490453E+12	5.599660E-15	NaN
489	1.000000	0.266448	7.36984e+06	-52639.1	1005.82	-29748.6	0.000000	0.000000	6.266761	-0.032924	NaN	0.000000	0.001574	0.001687	28.083	0.132634	0.002017	65.7526	-17.7767	178.009	-0.004994	0.265134	-0.896111	-0.897424	-0.032924	65.7526	-0.895735	-8.900869E+11	3.698995E-14	NaN
489	1.000000	0.310454	7.36984e+06	-52639.1	1005.82	-29748.6	0.000000	0.000000	6.310771	0.059904	NaN	0.000000	0.001581	0.001656	28.0828	0.059204	0.001880	31.4914	164.133	174.893	-0.037944	0.309137	-0.852104	-0.853422	0.059904	31.4914	-0.853531	-2.390800E+11	-2.505610E-13	NaN
489	1.000000	0.354460	7.36984e+06	-52639.1	1005.82	-29748.6	0.000000	0.000000	6.354775	0.002159	NaN	0.000000	0.001581	0.001671	28.0814	0.133267	0.002030	65.6603	-96.1276	176.146	0.086188	0.353201	-0.808098	-0.809357	0.002159	65.6603	-0.808122	-5.795584E+10	-3.725889E-14	NaN
489	1.000000	0.398519	7.36984e+06	-52639.1	1005.82	-29748.6	0.000000	0.000000	6.398835	0.040789	NaN	0.000000	0.001509	0.001684	28.0813	0.041540	0.001927	21.558	91.5288	175.251	0.055531	0.397264	-0.764039	-0.765294	0.040789	21.558	-0.765458	-1.525980E+10	-2.673000E-12	NaN
489	1.000000	0.442542	7.36984e+06	-52639.1	1005.82	-29748.6	0.000000	0.000000	6.442856	-0.010671	NaN	0.000000	0.001561	0.001721	28.0815	0.137801	0.001961	70.2698	47.3108	173.582	0.005721	0.441240	-0.720016	-0.721318	-0.010671	70.2698	-0.719902	-3.657127E+9	2.917772E-12	NaN
489	1.000000	0.486522	7.36984e+06	-52639.1	1005.82	-29748.6	0.000000	0.000000	6.486836	-0.020037	NaN	0.000000	0.001583	0.001691	28.0825	0.050649	0.001981	25.5736	-58.5363	176.978	-0.029949	0.485244	-0.676036	-0.677315	-0.020037	25.5736	-0.675448	-9.035337E+8	2.217643E-11	NaN
489	1.000000	0.530588	7.36984e+06	-52639.1	1005.82	-29748.6	0.000000	0.000000	6.530904	0.036724	NaN	0.000000	0.001599	0.001715	28.0825	0.023407	0.001930	12.1276	-102.811	174.02	0.023348	0.529313	-0.631970	-0.633245	0.036724	12.1276	-0.634241	-2.461826E+8	-1.491719E-10	NaN
489	1.000000	0.574618	7.36984e+06	-52639.1	1005.82	-29748.6	0.000000	0.000000	6.574934	0.038268	NaN	0.000000	0.001554	0.001715	28.0825	0.072514	0.002066	35.0991	-69.0641	176.444	0.024292	0.573306	-0.587941	-0.589252	0.038268	35.0991	-0.588758	-5.828377E+7	-6.565776E-10	NaN
489	1.000000	0.618614	7.36984e+06	-52639.1	1005.82	-29748.6	0.000000	0.000000	6.618929	0.006052	NaN	0.000000	0.001546	0.001673	28.0814	0.080136	0.001991	40.244	-137.359	175.763	0.044946	0.617284	-0.543944	-0.545274	0.006052	40.244	-0.544057	-1.404783E+7	-4.308197E-10	NaN
489	1.000000	0.662663	7.36984e+06	-52639.1	1005.82	-29748.6	0.000000	0.000000	6.662979	0.028417	NaN	0.000000	0.001569	0.001723	28.0813	0.053786	0.002066	26.0283	133.54	176.248	0.088665	0.661320	-0.499895	-0.501239	0.028417	26.0283	-0.500714	-3.50733e+06	-8.102175E-9	NaN
489	1.000000	0.706638	7.36984e+06	-52639.1	1005.82	-29748.6	0.000000	0.000000	6.706954	0.033426	NaN	0.000000	0.001613	0.001711	28.0812	0.077811	0.002022	38.4822	-172.149	175.62	0.002140	0.705350	-0.455920	-0.457208	0.033426	38.4822	-0.456572	-844931	-3.956018E-8	NaN
489	1.000000	0.750645	7.36984e+06	-52639.1	1005.82	-29748.6	0.000000	0.000000	6.750962	0.051778	NaN	0.000000	0.001568	0.001701	28.0831	0.078780	0.002083	37.815	103.471	177.869	0.072887	0.749380	-0.411913	-0.413178	0.051778	37.815	-0.412940	-204263	-2.534886E-7	NaN
489	1.000000	0.794663	7.36984e+06	-52639.1	1005.82	-29748.6	0.000000	0.000000	6.794976	-0.021295	NaN	0.000000	0.001600	0.001701	28.0824	0.101171	0.001945	52.0109	58.1896	176.382	-0.032596	0.793361	-0.367896	-0.369197	-0.021295	52.0109	-0.367589	-45854.6	4.644122E-7	NaN
489	1.000000	0.838715	7.36984e+06	-52639.1	1005.82	-29748.6	0.000000	0.000000	6.839027	-0.080805	NaN	0.000000	0.001590	0.001713	28.0825	0.033462	0.002108	15.8757	79.3559	172.918	-0.085717	0.837406	-0.323843	-0.325153	-0.080805	15.8757	-0.320026	-9311.4	8.678052E-6	NaN
489	1.000000	0.882715	7.36984e+06	-52639.1	1005.82	-29748.6	0.000000	0.000000	6.883032	0.049813	NaN	0.000000	0.001637	0.001770	28.0814	0.056072	0.002050	27.3574	-118.974	173.881	0.037676	0.881343	-0.279843	-0.281215	0.049813	27.3574	-0.281209	-2461.49	-2.023680E-5	NaN
489	1.000000	0.926767	7.36984e+06	-52639.1	1005.82	-29748.6	0.000000	0.000000	6.927082	0.010637	NaN	0.000000	0.001678	0.001812	28.0812	0.037751	0.001948	19.3748	-177.054	174.885	0.038244	0.925449	-0.235792	-0.237110	0.010637	19.3748	-0.236203	-501.342	-2.121636E-5	NaN
489	1.000000	0.970752	7.36984e+06	-52639.1	1005.82	-29748.6	0.000000	0.000000	6.971067	0.000205	NaN	0.000000	0.001710	0.001816	28.0815	0.076715	0.001935	39.6417	-120.179	175.536	0.034309	0.969455	-0.191806	-0.193103	0.000205	39.6417	-0.191810	-96.4316	-2.124065E-6	NaN
489	1.000000	1.014756	7.36984e+06	-52639.1	1005.82	-29748.6	0.000000	0.000000	7.015071	0.009424	NaN	0.000000	0.001632	0.001819	28.0829	0.029008	0.002144	13.5318	-87.684	178.058	0.002593	1.013416	-0.147802	-0.149142	0.009424	13.5318	-0.148324	-16.8799	-0.000558	NaN
489	1.000000	1.058785	7.36984e+06	-52639.1	1005.82	-29748.6	0.000000	0.000000	7.059099	-0.020468	NaN	0.000000	0.001627	0.001799	28.0829	0.020843	0.001982	10.516	-156.191	175.226	0.036503	1.057434	-0.103774	-0.105124	-0.020468	10.516	-0.102314	-2.054712	0.009962	NaN
489	1.000000	1.102823	7.36984e+06	-52639.1	1005.82	-29748.6	0.000000	0.000000	7.103137	-0.025503	NaN	0.000000	0.001589	0.001807	28.0824	0.040807	0.002097	19.4554	138.128	176.806	0.014880	1.101477	-0.059735	-0.061081	-0.025503	19.4554	-0.058752	-0.165788	0.153830	NaN
489	1.000000	1.146846	7.36984e+06	-52639.1	1005.82	-29748.6	0.000000	0.000000	7.147160	-0.022009	NaN	0.000000	0.001604	0.001810	28.0815	0.064648	0.001896	34.0883	-119.535	171.09	-0.021582	1.145506	-0.015712	-0.017052	-0.022009	34.0883	-0.015228	-0.009413	2.338239	NaN
489	2.000000	1.172462	7.36984e+06	-52639.1	1005.82	-29748.6	0.000000	0.000000	7.173433	15.9698	NaN	0.000000	0.001593	0.001806	28.0816	15.519	0.001771	8761.26	8.270560	164.591	15.7896	1.172169	0.009904	0.009611	15.9698	8761.26	0.008537	0.007600	2101.29	91819.1
489	2.000000	1.183477	7.36984e+06	-52639.1	1005.82	-29748.6	0.000000	0.000000	7.185395	38.9623	NaN	0.000000	0.001637	0.001794	28.0818	26.5007	0.001867	14194.3	6.241750	162.408	39.5704	1.183111	0.020919	0.020552	38.9623	14194.3	0.018860	0.020783	1874.71	89956.2
489	2.000000	1.194382	7.36984e+06	-52639.1	1005.82	-29748.6	0.000000	0.000000	7.197472	67.4887	NaN	0.000000	0.001655	0.001800	28.0829	35.7584	0.001720	20790.6	3.402443	161.072	65.0336	1.194137	0.031824	0.031579	67.4887	20790.6	0.029389	0.039487	1709.14	95590.2
489	2.000000	1.205340	7.36984e+06	-52639.1	1005.82	-29748.6	0.000000	0.000000	7.210047	106.786	NaN	0.000000	0.001637	0.001783	28.0856	46.9771	0.001742	26971.2	3.661521	158.537	103.251	1.205173	0.042782	0.042615	106.786	26971.2	0.039812	0.063545	1680.49	97753.9
489	2.000000	1.216358	7.36984e+06	-52639.1	1005.82	-29748.6	0.000000	0.000000	7.223202	158.75	NaN	0.000000	0.001627	0.001797	28.0827	57.5464	0.001852	31076.9	7.036347	154.391	158.24	1.216089	0.053800	0.053531	158.75	31076.9	0.049969	0.092316	1719.63	93448.7
489	2.000000	1.227426	7.36984e+06	-52639.1	1005.82	-29748.6	0.000000	0.000000	7.236557	214.355	NaN	0.000000	0.001584	0.001798	28.0815	67.6619	0.001777	38073.7	5.056545	155.024	217.567	1.226936	0.064868	0.064378	214.355	38073.7	0.060645	0.128131	1672.93	97178.6
489	2.000000	1.238351	7.36984e+06	-52639.1	1005.82	-29748.6	0.000000	0.000000	7.250218	280.875	NaN	0.000000	0.001610	0.001788	28.0815	79.4934	0.001807	43982.5	4.234925	154.632	280.517	1.237978	0.075793	0.075420	280.875	43982.5	0.071003	0.168193	1669.96	97982.8
489	2.000000	1.249484	7.36984e+06	-52639.1	1005.82	-29748.6	0.000000	0.000000	7.263881	342.386	NaN	0.000000	0.001632	0.001790	28.0815	88.6219	0.001741	50897.3	4.171318	154.129	350.942	1.249065	0.086926	0.086507	342.386	50897.3	0.081881	0.215746	1586.99	100115
489	2.000000	1.260265	7.36984e+06	-52639.1	1005.82	-29748.6	0.000000	0.000000	7.278332	431.621	NaN	0.000000	0.001558	0.001769	28.0824	98.401	0.001788	55045.4	5.154487	152.171	427.177	1.259940	0.097707	0.097382	431.621	55045.4	0.091826	0.264036	1634.7	97873
489	2.000000	1.264820	7.36984e+06	-52639.1	1005.82	-29748.6	0.000000	0.000000	7.284146	462.232	NaN	0.000000	0.001542	0.001816	28.0828	102.547	0.001711	59920.8	4.877477	-27.9344	458.168	1.264422	0.102262	0.101864	462.232	59920.8	0.096476	0.288173	1604.01	101982