File: remote_trans/data/nanoindenter/0828-1/data/Data_2025-08-06,11h17m57s/2025-07-22_16-23-58_1_565.txt
2025-07-22, 16:23:58, 1
Index	Phase	Displacement	Time	Pos X	Pos Y	Pos Z	Rot A	Rot B	Piezo Z	Force A	Force B	Gripper	Voltage A	Voltage B	Temperature	Amplitude force	Amplitude pos	Stiffness	Phase shift	Phase excitation	Force A raw	Displacement raw	HMax	HMax raw	Real Force	Real Stiffness	Contact Depth	Area	Hardness	Reduced Mod.
[#]	[#]	[um]	[s]	[um]	[um]	[um]	[m°]	[m°]	[um]	[uN]	[uN]	[V]	[V]	[V]	[°C]	[uN]	[um]	[N/m]	[°]	[°]	[uN]	[um]	[um]	[um]	[uN]	[N/m]	[um]	[um^2]	[MPa]	[MPa]
565	1.000000	0.003006	7.37057e+06	-48839.1	1005.82	-29761	0.000000	0.000000	6.002806	-0.040609	NaN	0.000000	0.001570	0.001707	28.0826	0.039856	0.001069	37.2963	91.1518	-167.835	-0.047755	0.001754	-1.106167	-1.107420	-0.040609	37.2963	-1.105351	-5.914124E+14	6.866524E-17	NaN
565	1.000000	0.044938	7.37057e+06	-48839.1	1005.82	-29761	0.000000	0.000000	6.044740	0.005794	NaN	0.000000	0.001579	0.001700	28.0823	0.119892	0.002025	59.2018	-140.422	13.2493	0.013588	0.043586	-1.064235	-1.065588	0.005794	59.2018	-1.064309	-1.662337E+14	-3.485292E-17	NaN
565	1.000000	0.086990	7.37057e+06	-48839.1	1005.82	-29761	0.000000	0.000000	6.086791	-0.006499	NaN	0.000000	0.001660	0.001700	28.0814	0.062808	0.001968	31.9095	92.4852	-164.825	-0.056437	0.085587	-1.022184	-1.023587	-0.006499	31.9095	-1.022031	-4.490355E+13	1.447380E-16	NaN
565	1.000000	0.128992	7.37057e+06	-48839.1	1005.82	-29761	0.000000	0.000000	6.128794	0.014874	NaN	0.000000	0.001625	0.001716	28.0811	0.145377	0.002081	69.8462	88.2444	10.9959	0.002555	0.127608	-0.980182	-0.981565	0.014874	69.8462	-0.980341	-1.233131E+13	-1.206212E-15	NaN
565	1.000000	0.170992	7.37057e+06	-48839.1	1005.82	-29761	0.000000	0.000000	6.170798	0.083979	NaN	0.000000	0.001569	0.001698	28.0813	0.051913	0.001960	26.4878	-97.9455	-165.396	0.039807	0.169686	-0.938181	-0.939488	0.083979	26.4878	-0.940559	-3.586565E+12	-2.341480E-14	NaN
565	1.000000	0.213011	7.37058e+06	-48839.1	1005.82	-29761	0.000000	0.000000	6.212809	-0.084962	NaN	0.000000	0.001609	0.001723	28.0813	0.124901	0.002119	58.931	120.064	10.9797	-0.086238	0.211626	-0.896163	-0.897547	-0.084962	58.931	-0.895081	-8.721595E+11	9.741583E-14	NaN
565	1.000000	0.255037	7.37058e+06	-48839.1	1005.82	-29761	0.000000	0.000000	6.254833	-0.135292	NaN	0.000000	0.001582	0.001696	28.0827	0.068611	0.002120	32.3576	-113.749	-164.479	-0.137420	0.253728	-0.854137	-0.855446	-0.135292	32.3576	-0.851001	-2.209478E+11	6.123272E-13	NaN
565	1.000000	0.297082	7.37058e+06	-48839.1	1005.82	-29761	0.000000	0.000000	6.296879	-0.103343	NaN	0.000000	0.001528	0.001682	28.0826	0.024176	0.001921	12.5876	-26.8755	15.3936	-0.057334	0.295712	-0.812092	-0.813462	-0.103343	12.5876	-0.805934	-5.412608E+10	1.909299E-12	NaN
565	1.000000	0.339047	7.37058e+06	-48839.1	1005.82	-29761	0.000000	0.000000	6.338849	0.019830	NaN	0.000000	0.001570	0.001664	28.0826	0.120313	0.001992	60.4029	-109.411	-164.336	-0.007850	0.337783	-0.770127	-0.771391	0.019830	60.4029	-0.770373	-1.779815E+10	-1.114151E-12	NaN
565	1.000000	0.381080	7.37058e+06	-48839.1	1005.82	-29761	0.000000	0.000000	6.380880	-0.053891	NaN	0.000000	0.001546	0.001723	28.0816	0.055165	0.001833	30.09	111.574	14.3558	-0.086509	0.379711	-0.728093	-0.729462	-0.053891	30.09	-0.726750	-4.534281E+9	1.188520E-11	NaN
565	1.000000	0.423113	7.37058e+06	-48839.1	1005.82	-29761	0.000000	0.000000	6.422918	0.074864	NaN	0.000000	0.001556	0.001685	28.0816	0.007905	0.002018	3.917014	47.4162	-167.682	-0.000912	0.421775	-0.686061	-0.687398	0.074864	3.917014	-0.700395	-1.981192E+9	-3.778740E-11	NaN
565	1.000000	0.465074	7.37058e+06	-48839.1	1005.82	-29761	0.000000	0.000000	6.464876	0.011973	NaN	0.000000	0.001573	0.001674	28.0821	0.031892	0.001900	16.7825	147.093	14.6573	-0.055647	0.463791	-0.644100	-0.645383	0.011973	16.7825	-0.644635	-3.418788E+8	-3.502232E-11	NaN
565	1.000000	0.507166	7.37058e+06	-48839.1	1005.82	-29761	0.000000	0.000000	6.506968	0.005790	NaN	0.000000	0.001604	0.001652	28.0829	0.113367	0.002081	54.4869	-176.922	-167.284	0.006495	0.505847	-0.602008	-0.603326	0.005790	54.4869	-0.602088	-8.896288E+7	-6.508432E-11	NaN
565	1.000000	0.549174	7.37058e+06	-48839.1	1005.82	-29761	0.000000	0.000000	6.548976	0.002402	NaN	0.000000	0.001538	0.001665	28.0829	0.085403	0.001958	43.6094	-127.069	12.8465	-0.082367	0.547815	-0.560000	-0.561359	0.002402	43.6094	-0.560041	-2.338547E+7	-1.027010E-10	NaN
565	1.000000	0.591146	7.37058e+06	-48839.1	1005.82	-29761	0.000000	0.000000	6.590946	-0.037208	NaN	0.000000	0.001561	0.001710	28.0829	0.093272	0.001898	49.1378	35.6061	-167.835	-0.099364	0.589847	-0.518027	-0.519327	-0.037208	49.1378	-0.517459	-6.00146e+06	6.199812E-9	NaN
565	1.000000	0.633199	7.37058e+06	-48839.1	1005.82	-29761	0.000000	0.000000	6.633002	0.029163	NaN	0.000000	0.001574	0.001696	28.0814	0.084193	0.002148	39.1906	15.6896	14.2005	0.023382	0.631856	-0.475975	-0.477318	0.029163	39.1906	-0.476533	-1.61056e+06	-1.810739E-8	NaN
565	1.000000	0.675203	7.37058e+06	-48839.1	1005.82	-29761	0.000000	0.000000	6.675007	0.050633	NaN	0.000000	0.001533	0.001693	28.0814	0.054815	0.002004	27.3492	90.8703	-165.417	0.065882	0.673900	-0.433970	-0.435274	0.050633	27.3492	-0.435359	-424447	-1.192921E-7	NaN
565	1.000000	0.717227	7.37058e+06	-48839.1	1005.82	-29761	0.000000	0.000000	6.717030	0.019720	NaN	0.000000	0.001563	0.001659	28.0815	0.038514	0.001960	19.6526	159.891	12.7426	0.024519	0.715868	-0.391946	-0.393306	0.019720	19.6526	-0.392699	-105137	-1.875649E-7	NaN
565	1.000000	0.759236	7.37058e+06	-48839.1	1005.82	-29761	0.000000	0.000000	6.759037	-0.018701	NaN	0.000000	0.001602	0.001730	28.0814	0.073243	0.001926	38.0237	147.757	-167.634	0.011183	0.757923	-0.349937	-0.351251	-0.018701	38.0237	-0.349569	-25161.7	7.432158E-7	NaN
565	1.000000	0.801238	7.37058e+06	-48839.1	1005.82	-29761	0.000000	0.000000	6.801037	-0.060122	NaN	0.000000	0.001594	0.001651	28.0829	0.046889	0.001991	23.5559	145.839	14.5618	0.024800	0.799840	-0.307936	-0.309334	-0.060122	23.5559	-0.306021	-5782.44	1.039731E-5	NaN
565	1.000000	0.843294	7.37058e+06	-48839.1	1005.82	-29761	0.000000	0.000000	6.843094	-0.056231	NaN	0.000000	0.001560	0.001658	28.0827	0.025823	0.001978	13.0537	131.572	-164.864	-0.027134	0.841991	-0.265879	-0.267182	-0.056231	13.0537	-0.262648	-1286.65	4.370294E-5	NaN
565	1.000000	0.885318	7.37058e+06	-48839.1	1005.82	-29761	0.000000	0.000000	6.885120	-0.005828	NaN	0.000000	0.001584	0.001661	28.0828	0.066973	0.001911	35.0375	-4.265250	13.0554	0.039922	0.883882	-0.223855	-0.225291	-0.005828	35.0375	-0.223731	-318.535	1.829658E-5	NaN
565	1.000000	0.927325	7.37058e+06	-48839.1	1005.82	-29761	0.000000	0.000000	6.927126	0.005279	NaN	0.000000	0.001502	0.001690	28.0814	0.072982	0.002091	34.9087	164.224	-166.551	-0.071240	0.926005	-0.181849	-0.183168	0.005279	34.9087	-0.181962	-65.8857	-8.012979E-5	NaN
565	1.000000	0.969317	7.37058e+06	-48839.1	1005.82	-29761	0.000000	0.000000	6.969118	-0.014464	NaN	0.000000	0.001604	0.001666	28.0813	0.099064	0.002020	49.0367	28.1298	13.2225	-0.051730	0.967959	-0.139856	-0.141214	-0.014464	49.0367	-0.139635	-11.6441	0.001242	NaN
565	1.000000	1.011364	7.37058e+06	-48839.1	1005.82	-29761	0.000000	0.000000	7.011166	-0.010992	NaN	0.000000	0.001599	0.001659	28.0814	0.050852	0.001954	26.0258	85.8876	-168.32	0.000563	1.010090	-0.097809	-0.099083	-0.010992	26.0258	-0.097492	-1.606236	0.006843	NaN
565	1.000000	1.053359	7.37058e+06	-48839.1	1005.82	-29761	0.000000	0.000000	7.053161	0.003024	NaN	0.000000	0.001617	0.001690	28.083	0.125828	0.001919	65.5722	157.415	14.0515	-0.027075	1.051983	-0.055815	-0.057190	0.003024	65.5722	-0.055849	-0.136420	-0.022163	NaN
565	1.000000	1.095392	7.37058e+06	-48839.1	1005.82	-29761	0.000000	0.000000	7.095189	-0.126204	NaN	0.000000	0.001632	0.001770	28.0827	0.129822	0.001954	66.438	-174.97	-164.31	-0.074841	1.094047	-0.013781	-0.015127	-0.126204	66.438	-0.012357	-0.007733	16.3211	NaN
565	2.000000	1.120533	7.37058e+06	-48839.1	1005.82	-29761	0.000000	0.000000	7.120945	14.8524	NaN	0.000000	0.001627	0.001717	28.0829	14.3828	0.001802	7983.76	7.628076	5.299290	13.8848	1.120194	0.011360	0.011021	14.8524	7983.76	0.009964	0.009142	1624.67	76289.5
565	2.000000	1.130975	7.37058e+06	-48839.1	1005.82	-29761	0.000000	0.000000	7.132294	36.8985	NaN	0.000000	0.001614	0.001679	28.0817	25.981	0.001770	14682.6	5.222847	-178.981	35.5717	1.130649	0.021801	0.021476	36.8985	14682.6	0.019917	0.022411	1646.42	89606.7
565	2.000000	1.141443	7.37058e+06	-48839.1	1005.82	-29761	0.000000	0.000000	7.144137	70.3373	NaN	0.000000	0.001654	0.001671	28.0817	36.0999	0.001728	20885.6	1.489465	1.970149	68.3603	1.141171	0.032270	0.031998	70.3373	20885.6	0.029744	0.040214	1749.06	95154.7
565	2.000000	1.151952	7.37058e+06	-48839.1	1005.82	-29761	0.000000	0.000000	7.156336	111.442	NaN	0.000000	0.001662	0.001670	28.0817	45.0758	0.001677	26876.1	2.877598	177.121	112.661	1.151613	0.042778	0.042440	111.442	26876.1	0.039668	0.063174	1764.04	97694.5
565	2.000000	1.162401	7.37058e+06	-48839.1	1005.82	-29761	0.000000	0.000000	7.168790	160.226	NaN	0.000000	0.001542	0.001680	28.082	56.4333	0.001796	31423.1	3.658667	-4.817181	156.773	1.162079	0.053227	0.052905	160.226	31423.1	0.049403	0.090577	1768.95	95392.5
565	2.000000	1.173022	7.37058e+06	-48839.1	1005.82	-29761	0.000000	0.000000	7.181790	218.077	NaN	0.000000	0.001529	0.001665	28.0832	65.6915	0.001775	37015.2	5.212575	173.821	219.659	1.172668	0.063849	0.063494	218.077	37015.2	0.059430	0.123772	1761.92	96126.2
565	2.000000	1.183465	7.37058e+06	-48839.1	1005.82	-29761	0.000000	0.000000	7.194421	271.27	NaN	0.000000	0.001582	0.001672	28.0829	76.5875	0.001746	43872.9	4.284427	-7.643408	270.704	1.183164	0.074292	0.073991	271.27	43872.9	0.069655	0.162686	1667.45	99379
565	2.000000	1.193851	7.37058e+06	-48839.1	1005.82	-29761	0.000000	0.000000	7.207609	339.43	NaN	0.000000	0.001543	0.001647	28.0828	85.1615	0.001780	47834.1	5.154504	170.753	336.074	1.193632	0.084677	0.084459	339.43	47834.1	0.079355	0.204212	1662.14	96709.6
565	2.000000	1.204330	7.37058e+06	-48839.1	1005.82	-29761	0.000000	0.000000	7.220999	410.227	NaN	0.000000	0.001557	0.001685	28.0811	93.2922	0.001817	51346.1	4.693689	-8.551093	405.322	1.203937	0.095157	0.094764	410.227	51346.1	0.089165	0.250669	1636.52	93697.9
565	2.000000	1.213361	7.37058e+06	-48839.1	1005.82	-29761	0.000000	0.000000	7.232832	478.366	NaN	0.000000	0.001588	0.001747	28.0819	102.136	0.001741	58669.4	3.896070	-8.905034	475.497	1.213098	0.104188	0.103925	478.366	58669.4	0.098073	0.296686	1612.37	98409.4