File: remote_trans/data/nanoindenter/0828-1/data/Data_2025-08-06,11h17m57s/2025-07-22_16-23-58_1_78.txt
2025-07-22, 16:23:58, 1
Index	Phase	Displacement	Time	Pos X	Pos Y	Pos Z	Rot A	Rot B	Piezo Z	Force A	Force B	Gripper	Voltage A	Voltage B	Temperature	Amplitude force	Amplitude pos	Stiffness	Phase shift	Phase excitation	Force A raw	Displacement raw	HMax	HMax raw	Real Force	Real Stiffness	Contact Depth	Area	Hardness	Reduced Mod.
[#]	[#]	[um]	[s]	[um]	[um]	[um]	[m°]	[m°]	[um]	[uN]	[uN]	[V]	[V]	[V]	[°C]	[uN]	[um]	[N/m]	[°]	[°]	[uN]	[um]	[um]	[um]	[uN]	[N/m]	[um]	[um^2]	[MPa]	[MPa]
78	1.000000	0.002497	7.3658e+06	-42539.1	955.818	-29782.9	0.000000	0.000000	6.002791	0.050594	NaN	0.000000	0.001534	0.001675	28.13	0.076642	0.000939	81.6379	-110.652	-162.199	0.049519	0.001264	-1.059112	-1.060345	0.050594	81.6379	-1.059576	-1.435913E+14	-3.523484E-16	NaN
78	1.000000	0.042466	7.3658e+06	-42539.1	955.818	-29782.9	0.000000	0.000000	6.042758	-0.007775	NaN	0.000000	0.001546	0.001674	28.1294	0.071475	0.001978	36.1355	160.496	-162.667	0.032477	0.041156	-1.019142	-1.020452	-0.007775	36.1355	-1.018981	-4.085476E+13	1.903155E-16	NaN
78	1.000000	0.082464	7.3658e+06	-42539.1	955.818	-29782.9	0.000000	0.000000	6.082757	0.007258	NaN	0.000000	0.001555	0.001659	28.1285	0.089613	0.001861	48.1596	105.933	-164.416	-0.033693	0.081168	-0.979144	-0.980440	0.007258	48.1596	-0.979257	-1.192356E+13	-6.087239E-16	NaN
78	1.000000	0.122491	7.3658e+06	-42539.1	955.819	-29782.9	0.000000	0.000000	6.122785	0.031883	NaN	0.000000	0.001570	0.001683	28.1297	0.094269	0.002043	46.1413	-32.0641	-164.242	0.020224	0.121145	-0.939117	-0.940464	0.031883	46.1413	-0.939635	-3.485133E+12	-9.148312E-15	NaN
78	1.000000	0.162497	7.3658e+06	-42539.1	955.818	-29782.9	0.000000	0.000000	6.162791	0.032271	NaN	0.000000	0.001588	0.001691	28.1294	0.009929	0.002003	4.956784	-169.982	-165.479	0.033515	0.161212	-0.899112	-0.900397	0.032271	4.956784	-0.903994	-1.150896E+12	-2.803952E-14	NaN
78	1.000000	0.202512	7.3658e+06	-42539.1	955.819	-29782.9	0.000000	0.000000	6.202805	0.034453	NaN	0.000000	0.001588	0.001671	28.1309	0.062920	0.002097	30.007	-44.1368	-165.954	0.081435	0.201246	-0.859097	-0.860362	0.034453	30.007	-0.859958	-2.921135E+11	-1.179435E-13	NaN
78	1.000000	0.242550	7.3658e+06	-42539.1	955.818	-29782.9	0.000000	0.000000	6.242846	0.096413	NaN	0.000000	0.001582	0.001675	28.1299	0.059336	0.001853	32.0208	-174.497	-167.775	0.184856	0.241207	-0.819059	-0.820402	0.096413	32.0208	-0.821317	-8.751214E+10	-1.101713E-12	NaN
78	1.000000	0.282553	7.3658e+06	-42539.1	955.819	-29782.9	0.000000	0.000000	6.282847	0.047847	NaN	0.000000	0.001544	0.001698	28.131	0.088887	0.001984	44.805	-22.1193	-166.3	0.033205	0.281282	-0.779056	-0.780326	0.047847	44.805	-0.779857	-2.394871E+10	-1.997877E-12	NaN
78	1.000000	0.322593	7.3658e+06	-42539.1	955.819	-29782.9	0.000000	0.000000	6.322887	0.030391	NaN	0.000000	0.001569	0.001677	28.1285	0.042625	0.002015	21.1572	-49.7489	-166.036	0.018790	0.321268	-0.739016	-0.740340	0.030391	21.1572	-0.740093	-6.891610E+9	-4.409925E-12	NaN
78	1.000000	0.362592	7.3658e+06	-42539.1	955.819	-29782.9	0.000000	0.000000	6.362889	0.114085	NaN	0.000000	0.001569	0.001703	28.1294	0.048870	0.001923	25.4083	-141.339	-164.315	0.091232	0.361282	-0.699017	-0.700326	0.114085	25.4083	-0.702384	-2.109059E+9	-5.409293E-11	NaN
78	1.000000	0.402611	7.3658e+06	-42539.1	955.818	-29782.9	0.000000	0.000000	6.402903	-0.026433	NaN	0.000000	0.001561	0.001672	28.1284	0.122271	0.001847	66.1958	-161.308	-162.928	0.071448	0.401274	-0.658997	-0.660335	-0.026433	66.1958	-0.658698	-5.328799E+8	4.960449E-11	NaN
78	1.000000	0.442623	7.3658e+06	-42539.1	955.819	-29782.9	0.000000	0.000000	6.442915	-0.027256	NaN	0.000000	0.001557	0.001687	28.1309	0.080146	0.002035	39.3847	-34.4022	-162.824	0.044034	0.441282	-0.618985	-0.620326	-0.027256	39.3847	-0.618466	-1.494678E+8	1.823543E-10	NaN
78	1.000000	0.482661	7.36581e+06	-42539.1	955.819	-29782.9	0.000000	0.000000	6.482957	0.085886	NaN	0.000000	0.001500	0.001652	28.1299	0.105861	0.001975	53.5937	-153.277	-164.572	0.035484	0.481359	-0.578947	-0.580249	0.085886	53.5937	-0.580149	-4.433891E+7	-1.937038E-9	NaN
78	1.000000	0.522641	7.36581e+06	-42539.1	955.818	-29782.9	0.000000	0.000000	6.522933	-0.011218	NaN	0.000000	0.001558	0.001681	28.131	0.070621	0.001949	36.2285	-24.8037	-165.849	0.017205	0.521396	-0.538968	-0.540213	-0.011218	36.2285	-0.538736	-1.185278E+7	9.464296E-10	NaN
78	1.000000	0.562673	7.36581e+06	-42539.1	955.818	-29782.9	0.000000	0.000000	6.562969	0.087965	NaN	0.000000	0.001546	0.001663	28.1289	0.070070	0.001917	36.5592	-6.113324	-162.019	0.071987	0.561376	-0.498936	-0.500232	0.087965	36.5592	-0.500740	-3.51032e+06	-2.505888E-8	NaN
78	1.000000	0.602687	7.36581e+06	-42539.1	955.819	-29782.9	0.000000	0.000000	6.602977	-0.041248	NaN	0.000000	0.001563	0.001680	28.1303	0.026937	0.002135	12.6162	149.588	-163.552	-0.015139	0.601375	-0.458922	-0.460234	-0.041248	12.6162	-0.456470	-842152	4.897968E-8	NaN
78	1.000000	0.642704	7.36581e+06	-42539.1	955.819	-29782.9	0.000000	0.000000	6.642996	-0.010994	NaN	0.000000	0.001558	0.001684	28.1292	0.100479	0.001987	50.5608	-31.0223	-162.315	0.062931	0.641416	-0.418904	-0.420193	-0.010994	50.5608	-0.418741	-246923	4.452594E-8	NaN
78	1.000000	0.682720	7.36581e+06	-42539.1	955.819	-29782.9	0.000000	0.000000	6.683012	-0.018468	NaN	0.000000	0.001510	0.001671	28.1301	0.085131	0.002024	42.0649	-19.5342	-166.19	0.030698	0.681393	-0.378888	-0.380216	-0.018468	42.0649	-0.378559	-65948.4	2.800368E-7	NaN
78	1.000000	0.722729	7.36581e+06	-42539.1	955.819	-29782.9	0.000000	0.000000	6.723019	-0.043112	NaN	0.000000	0.001563	0.001680	28.1306	0.002354	0.002052	1.146801	-83.5098	-164.483	-0.042525	0.721422	-0.338880	-0.340186	-0.043112	1.146801	-0.310685	-6779.31	6.359363E-6	NaN
78	1.000000	0.762742	7.36581e+06	-42539.1	955.818	-29782.9	0.000000	0.000000	6.763033	-0.040172	NaN	0.000000	0.001542	0.001697	28.1312	0.064488	0.001906	33.8317	117.511	-163.454	-0.050164	0.761475	-0.298866	-0.300134	-0.040172	33.8317	-0.297976	-4390.2	9.150370E-6	NaN
78	1.000000	0.802774	7.36581e+06	-42539.1	955.819	-29782.9	0.000000	0.000000	6.803067	0.029008	NaN	0.000000	0.001562	0.001664	28.1304	0.088555	0.002003	44.2077	-27.6334	-166.258	-0.051408	0.801522	-0.258835	-0.260087	0.029008	44.2077	-0.259327	-1144.45	-2.534692E-5	NaN
78	1.000000	0.842803	7.36581e+06	-42539.1	955.819	-29782.9	0.000000	0.000000	6.843098	0.061934	NaN	0.000000	0.001599	0.001697	28.1303	0.083026	0.002014	41.2238	165.471	-164.334	0.014387	0.841477	-0.218806	-0.220131	0.061934	41.2238	-0.219932	-277.073	-0.000224	NaN
78	1.000000	0.882786	7.36581e+06	-42539.1	955.819	-29782.9	0.000000	0.000000	6.883079	0.013622	NaN	0.000000	0.001562	0.001695	28.1293	0.038760	0.001895	20.4488	-60.0539	-165.546	0.007284	0.881498	-0.178823	-0.180111	0.013622	20.4488	-0.179322	-59.4195	-0.000229	NaN
78	1.000000	0.922848	7.36581e+06	-42539.1	955.818	-29782.9	0.000000	0.000000	6.923140	-0.028082	NaN	0.000000	0.001648	0.001673	28.13	0.097523	0.001986	49.1036	69.3335	-167.216	0.101895	0.921547	-0.138760	-0.140062	-0.028082	49.1036	-0.138331	-11.0037	0.002552	NaN
78	1.000000	0.962863	7.36581e+06	-42539.1	955.818	-29782.9	0.000000	0.000000	6.963156	0.011282	NaN	0.000000	0.001595	0.001704	28.1291	0.045682	0.001983	23.0343	159.857	-162.6	-0.031378	0.961516	-0.098746	-0.100092	0.011282	23.0343	-0.099113	-1.746067	-0.006461	NaN
78	1.000000	1.002862	7.36581e+06	-42539.1	955.819	-29782.9	0.000000	0.000000	7.003153	-0.039454	NaN	0.000000	0.001583	0.001691	28.1314	0.056363	0.002020	27.901	-2.039576	-165.341	0.066556	1.001567	-0.058746	-0.060041	-0.039454	27.901	-0.057686	-0.154391	0.255545	NaN
78	1.000000	1.042881	7.36581e+06	-42539.1	955.818	-29782.9	0.000000	0.000000	7.043172	-0.048070	NaN	0.000000	0.001546	0.001654	28.1308	0.045623	0.001870	24.392	-75.6972	-162.222	0.045762	1.041494	-0.018727	-0.020114	-0.048070	24.392	-0.017249	-0.010671	4.504961	NaN
78	2.000000	1.075414	7.36581e+06	-42539.1	955.817	-29782.9	0.000000	0.000000	7.076193	11.8397	NaN	0.000000	0.001572	0.001656	28.1319	10.9732	0.001788	6138.81	7.457172	-171.892	11.5074	1.075134	0.013805	0.013525	11.8397	6138.81	0.012359	0.011923	993.045	51365.4
78	2.000000	1.085373	7.36581e+06	-42539.1	955.819	-29782.9	0.000000	0.000000	7.086791	27.3889	NaN	0.000000	0.001572	0.001701	28.1294	21.2783	0.001844	11539.5	7.390552	-176.652	27.03	1.085013	0.023764	0.023405	27.3889	11539.5	0.021984	0.025756	1063.39	65693.1
78	2.000000	1.095348	7.36581e+06	-42539.1	955.818	-29782.9	0.000000	0.000000	7.097889	54.7124	NaN	0.000000	0.001591	0.001708	28.1302	30.6478	0.001705	17971.5	7.959315	177.828	54.2047	1.094973	0.033740	0.033364	54.7124	17971.5	0.031457	0.043817	1248.66	78440.1
78	2.000000	1.105261	7.36581e+06	-42539.1	955.818	-29782.9	0.000000	0.000000	7.109210	88.953	NaN	0.000000	0.001604	0.001705	28.1295	40.6635	0.001741	23353.1	3.381541	179.652	87.2531	1.105010	0.043653	0.043401	88.953	23353.1	0.040796	0.066101	1345.7	82987.6
78	2.000000	1.115268	7.36581e+06	-42539.1	955.818	-29782.9	0.000000	0.000000	7.120962	131.422	NaN	0.000000	0.001599	0.001671	28.1317	53.2948	0.001774	30038.8	7.805042	173.029	128.156	1.115020	0.053660	0.053411	131.422	30038.8	0.050378	0.093586	1404.28	89711.7
78	2.000000	1.125178	7.36581e+06	-42539.1	955.819	-29782.9	0.000000	0.000000	7.133130	186.383	NaN	0.000000	0.001579	0.001677	28.1308	63.7058	0.001848	34476.9	7.258500	172.781	182.079	1.124879	0.063569	0.063270	186.383	34476.9	0.059515	0.124074	1502.19	89425.5
78	2.000000	1.135188	7.36581e+06	-42539.1	955.818	-29782.9	0.000000	0.000000	7.146115	258.751	NaN	0.000000	0.001589	0.001701	28.1316	74.2764	0.001862	39897.6	4.842769	173.989	254.723	1.134920	0.073580	0.073312	258.751	39897.6	0.068716	0.158902	1628.37	91444
78	2.000000	1.145145	7.36581e+06	-42539.1	955.819	-29782.9	0.000000	0.000000	7.159246	335.993	NaN	0.000000	0.001594	0.001698	28.1307	83.2197	0.001737	47919	2.532337	175.231	329.97	1.144958	0.083536	0.083349	335.993	47919	0.078277	0.199380	1685.19	98048.4
78	2.000000	1.155140	7.36581e+06	-42539.1	955.818	-29782.9	0.000000	0.000000	7.173563	441.137	NaN	0.000000	0.001576	0.001660	28.1303	93.9321	0.001806	52018	4.402590	172.895	435.861	1.154848	0.093531	0.093240	441.137	52018	0.087171	0.240867	1831.46	96836.4
78	2.000000	1.165182	7.36581e+06	-42539.1	955.819	-29782.9	0.000000	0.000000	7.187792	543.012	NaN	0.000000	0.001583	0.001689	28.1293	104.486	0.001820	57410.1	3.915858	172.39	540.098	1.165015	0.103573	0.103407	543.012	57410.1	0.096479	0.288189	1884.22	97706.5
78	2.000000	1.171231	7.36581e+06	-42539.1	955.818	-29782.9	0.000000	0.000000	7.196901	617.477	NaN	0.000000	0.001611	0.001702	28.1293	110.49	0.001803	61289.8	7.893505	168.382	616.656	1.170851	0.109622	0.109242	617.477	61289.8	0.102066	0.318490	1938.76	99223.2