File: remote_trans/data/nanoindenter/0828-1/data/Data_2025-08-06,11h17m57s/2025-07-22_16-23-58_1_1199.txt
2025-07-22, 16:23:58, 1
Index	Phase	Displacement	Time	Pos X	Pos Y	Pos Z	Rot A	Rot B	Piezo Z	Force A	Force B	Gripper	Voltage A	Voltage B	Temperature	Amplitude force	Amplitude pos	Stiffness	Phase shift	Phase excitation	Force A raw	Displacement raw	HMax	HMax raw	Real Force	Real Stiffness	Contact Depth	Area	Hardness	Reduced Mod.
[#]	[#]	[um]	[s]	[um]	[um]	[um]	[m°]	[m°]	[um]	[uN]	[uN]	[V]	[V]	[V]	[°C]	[uN]	[um]	[N/m]	[°]	[°]	[uN]	[um]	[um]	[um]	[uN]	[N/m]	[um]	[um^2]	[MPa]	[MPa]
1199	1.000000	0.002612	7.37677e+06	-55639.1	1105.82	-29741	0.000000	0.000000	6.002780	-0.039527	NaN	0.000000	0.001557	0.001671	28.0794	0.052030	0.000959	54.2811	23.028	-164.065	0.008942	0.001387	-1.069999	-1.071225	-0.039527	54.2811	-1.069453	-1.949140E+14	2.027941E-16	NaN
1199	1.000000	0.042559	7.37677e+06	-55639.1	1105.82	-29741	0.000000	0.000000	6.042728	-0.028040	NaN	0.000000	0.001560	0.001706	28.0808	0.048740	0.002016	24.1816	-131.299	-160.622	-0.023407	0.041294	-1.030053	-1.031318	-0.028040	24.1816	-1.029183	-5.603919E+13	5.003618E-16	NaN
1199	1.000000	0.082576	7.37677e+06	-55639.1	1105.82	-29741	0.000000	0.000000	6.082745	-0.023834	NaN	0.000000	0.001546	0.001683	28.0808	0.062139	0.001972	31.5103	7.027859	-162.145	-0.028881	0.081299	-0.990035	-0.991313	-0.023834	31.5103	-0.989468	-1.636621E+13	1.456299E-15	NaN
1199	1.000000	0.122618	7.37677e+06	-55639.1	1105.82	-29741	0.000000	0.000000	6.122790	0.045035	NaN	0.000000	0.001593	0.001685	28.0805	0.051364	0.002019	25.437	-148.915	-166.964	-0.022775	0.121310	-0.949993	-0.951302	0.045035	25.437	-0.951321	-5.010104E+12	-8.988840E-15	NaN
1199	1.000000	0.162616	7.37677e+06	-55639.1	1105.82	-29741	0.000000	0.000000	6.162786	0.004453	NaN	0.000000	0.001535	0.001650	28.0791	0.102370	0.001975	51.8305	-109.803	-163.77	-0.033951	0.161314	-0.909995	-0.911297	0.004453	51.8305	-0.910060	-1.389857E+12	-3.203859E-15	NaN
1199	1.000000	0.202633	7.37677e+06	-55639.1	1105.82	-29741	0.000000	0.000000	6.202802	-0.013591	NaN	0.000000	0.001590	0.001660	28.0792	0.143946	0.002122	67.8435	40.9074	-164.812	-0.008573	0.201351	-0.869978	-0.871261	-0.013591	67.8435	-0.869828	-3.973001E+11	3.420769E-14	NaN
1199	1.000000	0.242666	7.37677e+06	-55639.1	1105.82	-29741	0.000000	0.000000	6.242835	-0.013343	NaN	0.000000	0.001596	0.001663	28.0794	0.100833	0.001951	51.6774	-77.4764	-164.029	0.018726	0.241316	-0.829945	-0.831296	-0.013343	51.6774	-0.829752	-1.138729E+11	1.171740E-13	NaN
1199	1.000000	0.282658	7.37677e+06	-55639.1	1105.82	-29741	0.000000	0.000000	6.282827	-0.014839	NaN	0.000000	0.001578	0.001690	28.0794	0.045487	0.002042	22.2728	27.6207	-164.865	-0.077796	0.281344	-0.789954	-0.791267	-0.014839	22.2728	-0.789454	-3.233486E+10	4.589295E-13	NaN
1199	1.000000	0.322696	7.37677e+06	-55639.1	1105.82	-29741	0.000000	0.000000	6.322866	0.028160	NaN	0.000000	0.001551	0.001673	28.0805	0.077332	0.001976	39.1446	-120.161	-162.673	0.030840	0.321410	-0.749916	-0.751202	0.028160	39.1446	-0.750456	-9.537255E+9	-2.952586E-12	NaN
1199	1.000000	0.362700	7.37677e+06	-55639.1	1105.82	-29741	0.000000	0.000000	6.362867	-0.054338	NaN	0.000000	0.001592	0.001690	28.0807	0.151066	0.002123	71.1691	141.886	-163.734	-0.064160	0.361433	-0.709912	-0.711179	-0.054338	71.1691	-0.709339	-2.624424E+9	2.070464E-11	NaN
1199	1.000000	0.402723	7.37677e+06	-55639.1	1105.82	-29741	0.000000	0.000000	6.402889	-0.092230	NaN	0.000000	0.001584	0.001691	28.0806	0.059144	0.002007	29.4718	96.0287	-167.276	-0.087711	0.401409	-0.669888	-0.671202	-0.092230	29.4718	-0.667541	-7.042608E+8	1.309600E-10	NaN
1199	1.000000	0.442748	7.37677e+06	-55639.1	1105.82	-29741	0.000000	0.000000	6.442917	-0.010031	NaN	0.000000	0.001578	0.001687	28.0794	0.042648	0.002004	21.2806	-27.3974	-163.915	-0.026379	0.441441	-0.629864	-0.631171	-0.010031	21.2806	-0.629510	-2.119822E+8	4.732035E-11	NaN
1199	1.000000	0.482761	7.37677e+06	-55639.1	1105.82	-29741	0.000000	0.000000	6.482930	-0.010141	NaN	0.000000	0.001584	0.001686	28.0796	0.061388	0.002052	29.9183	-148.668	-162.795	-0.086252	0.481471	-0.589851	-0.591141	-0.010141	29.9183	-0.589597	-5.985612E+7	1.694239E-10	NaN
1199	1.000000	0.522803	7.37677e+06	-55639.1	1105.82	-29741	0.000000	0.000000	6.522973	0.002727	NaN	0.000000	0.001573	0.001695	28.0795	0.053758	0.001968	27.3094	86.1251	-163.549	0.050662	0.521480	-0.549809	-0.551132	0.002727	27.3094	-0.549884	-1.691778E+7	-1.612166E-10	NaN
1199	1.000000	0.562776	7.37677e+06	-55639.1	1105.82	-29741	0.000000	0.000000	6.562946	0.002967	NaN	0.000000	0.001566	0.001712	28.0807	0.066337	0.001931	34.3456	103.925	-165.952	-0.071283	0.561517	-0.509836	-0.511095	0.002967	34.3456	-0.509900	-4.71009e+06	-6.298349E-10	NaN
1199	1.000000	0.602841	7.37677e+06	-55639.1	1105.82	-29741	0.000000	0.000000	6.603009	-0.050269	NaN	0.000000	0.001565	0.001718	28.0805	0.041421	0.002112	19.6111	17.5712	-165.021	0.014994	0.601502	-0.469771	-0.471110	-0.050269	19.6111	-0.467848	-1.21681e+06	4.131166E-8	NaN
1199	1.000000	0.642840	7.37677e+06	-55639.1	1105.82	-29741	0.000000	0.000000	6.643011	0.023675	NaN	0.000000	0.001540	0.001686	28.0806	0.037327	0.001969	18.9541	-111.381	-163.598	0.006938	0.641470	-0.429771	-0.431142	0.023675	18.9541	-0.430708	-364821	-6.489515E-8	NaN
1199	1.000000	0.682841	7.37677e+06	-55639.1	1105.82	-29741	0.000000	0.000000	6.683010	-0.030852	NaN	0.000000	0.001615	0.001686	28.0806	0.029767	0.002092	14.2318	-103.182	-165.954	-0.097455	0.681557	-0.389770	-0.391055	-0.030852	14.2318	-0.388145	-90493.4	3.409258E-7	NaN
1199	1.000000	0.722894	7.37677e+06	-55639.1	1105.82	-29741	0.000000	0.000000	6.723066	0.064660	NaN	0.000000	0.001629	0.001721	28.0796	0.048847	0.001999	24.4395	-68.999	-162.612	0.073388	0.721553	-0.349718	-0.351058	0.064660	24.4395	-0.351702	-27021	-2.392959E-6	NaN
1199	1.000000	0.762862	7.37677e+06	-55639.1	1105.82	-29741	0.000000	0.000000	6.763032	0.004926	NaN	0.000000	0.001567	0.001698	28.0793	0.065048	0.001951	33.3413	178.279	-166.426	-0.043947	0.761560	-0.309749	-0.311052	0.004926	33.3413	-0.309860	-6591.51	-7.473014E-7	NaN
1199	1.000000	0.802926	7.37677e+06	-55639.1	1105.82	-29741	0.000000	0.000000	6.803094	-0.040763	NaN	0.000000	0.001560	0.001657	28.0794	0.015152	0.002097	7.226781	-96.4241	-165.406	0.033893	0.801608	-0.269686	-0.271004	-0.040763	7.226781	-0.265455	-1420.15	2.870330E-5	NaN
1199	1.000000	0.842899	7.37677e+06	-55639.1	1105.82	-29741	0.000000	0.000000	6.843065	-0.073976	NaN	0.000000	0.001597	0.001682	28.0806	0.002007	0.001755	1.143878	138.614	-163.867	-0.015081	0.841569	-0.229713	-0.231043	-0.073976	1.143878	-0.181209	-63.9764	0.001156	NaN
1199	1.000000	0.882921	7.37677e+06	-55639.1	1105.82	-29741	0.000000	0.000000	6.883088	-0.068062	NaN	0.000000	0.001632	0.001673	28.081	0.089530	0.002179	41.0913	-131.104	-169.964	-0.117945	0.881682	-0.189691	-0.190929	-0.068062	41.0913	-0.188448	-84.7365	0.000803	NaN
1199	1.000000	0.922919	7.37677e+06	-55639.1	1105.82	-29741	0.000000	0.000000	6.923087	-0.029071	NaN	0.000000	0.001624	0.001713	28.0806	0.042118	0.002052	20.5224	-172.169	-167.129	-0.077893	0.921615	-0.149693	-0.150997	-0.029071	20.5224	-0.148630	-17.0993	0.001700	NaN
1199	1.000000	0.962973	7.37677e+06	-55639.1	1105.82	-29741	0.000000	0.000000	6.963140	-0.073507	NaN	0.000000	0.001626	0.001687	28.0807	0.039151	0.001899	20.62	-72.3433	-164.125	-0.136604	0.961608	-0.109639	-0.111004	-0.073507	20.62	-0.106965	-2.590690	0.028373	NaN
1199	1.000000	1.002983	7.37677e+06	-55639.1	1105.82	-29741	0.000000	0.000000	7.003151	-0.040199	NaN	0.000000	0.001588	0.001687	28.0794	0.021694	0.002053	10.5648	-154.075	-168.367	0.002214	1.001682	-0.069628	-0.070930	-0.040199	10.5648	-0.066775	-0.278935	0.144116	NaN
1199	1.000000	1.042999	7.37677e+06	-55639.1	1105.82	-29741	0.000000	0.000000	7.043169	-0.000734	NaN	0.000000	0.001571	0.001717	28.0794	0.064712	0.002031	31.8562	-56.3749	-169.853	-0.004067	1.041676	-0.029612	-0.030936	-0.000734	31.8562	-0.029595	-0.022424	0.032745	NaN
1199	2.000000	1.079684	7.37677e+06	-55639.1	1105.82	-29741	0.000000	0.000000	7.080194	8.258181	NaN	0.000000	0.001602	0.001697	28.0792	9.592573	0.001685	5693.75	9.999373	-176.732	8.252335	1.079329	0.007072	0.006718	8.258181	5693.75	0.005985	0.005050	1635.29	73202.7
1199	2.000000	1.089596	7.37677e+06	-55639.1	1105.82	-29741	0.000000	0.000000	7.090653	21.5717	NaN	0.000000	0.001615	0.001715	28.0806	20.5833	0.001885	10916.8	8.053078	-179.396	22.224	1.089318	0.016984	0.016706	21.5717	10916.8	0.015502	0.015961	1351.55	78948.2
1199	2.000000	1.099532	7.37677e+06	-55639.1	1105.82	-29741	0.000000	0.000000	7.101608	46.3474	NaN	0.000000	0.001641	0.001662	28.0807	30.4226	0.001818	16736	3.695096	-178.784	45.7454	1.099227	0.026920	0.026615	46.3474	16736	0.024843	0.030731	1508.17	87224
1199	2.000000	1.109493	7.37677e+06	-55639.1	1105.82	-29741	0.000000	0.000000	7.112795	76.1472	NaN	0.000000	0.001549	0.001680	28.0807	39.1931	0.001802	21750.9	3.036701	179.023	72.5247	1.109241	0.036881	0.036629	76.1472	21750.9	0.034255	0.050026	1522.15	88848.7
1199	2.000000	1.119497	7.37677e+06	-55639.1	1105.82	-29741	0.000000	0.000000	7.124340	113.589	NaN	0.000000	0.001624	0.001683	28.0793	50.1434	0.001852	27069.2	3.398684	176.336	111.739	1.119325	0.046885	0.046713	113.589	27069.2	0.043738	0.074046	1534.03	90886.3
1199	2.000000	1.129553	7.37677e+06	-55639.1	1105.82	-29741	0.000000	0.000000	7.136485	164.375	NaN	0.000000	0.001572	0.001674	28.0794	58.728	0.001747	33618.2	4.010262	174.124	167.005	1.129189	0.056941	0.056578	164.375	33618.2	0.053274	0.102801	1598.96	95796.4
1199	2.000000	1.139451	7.37677e+06	-55639.1	1105.82	-29741	0.000000	0.000000	7.148466	215.012	NaN	0.000000	0.001593	0.001703	28.0795	67.3759	0.001742	38682.9	0.991080	176.008	212.136	1.139272	0.066839	0.066660	215.012	38682.9	0.062671	0.135559	1586.12	95990.5
1199	2.000000	1.149405	7.37677e+06	-55639.1	1105.82	-29741	0.000000	0.000000	7.161117	280.563	NaN	0.000000	0.001610	0.001721	28.0797	77.6828	0.001787	43476.6	5.039246	171.89	275.666	1.149033	0.076794	0.076421	280.563	43476.6	0.071954	0.172126	1629.99	95742.8
1199	2.000000	1.159421	7.37677e+06	-55639.1	1105.82	-29741	0.000000	0.000000	7.173761	344.458	NaN	0.000000	0.001612	0.001721	28.0809	87.6242	0.001778	49292.8	6.801046	168.222	341.113	1.159295	0.086809	0.086683	344.458	49292.8	0.081568	0.214304	1607.33	97284.1
1199	2.000000	1.169512	7.37677e+06	-55639.1	1105.82	-29741	0.000000	0.000000	7.186757	415.072	NaN	0.000000	0.001602	0.001727	28.0808	95.9673	0.001764	54414.6	5.357781	170.044	417.001	1.169068	0.096901	0.096457	415.072	54414.6	0.091180	0.260761	1591.77	97357.1
1199	2.000000	1.176958	7.37677e+06	-55639.1	1105.82	-29741	0.000000	0.000000	7.196472	470.228	NaN	0.000000	0.001608	0.001714	28.0807	102.813	0.001909	53869.2	2.357532	-7.219967	468.268	1.176620	0.104346	0.104009	470.228	53869.2	0.097799	0.295221	1592.8	90581.6