File: remote_trans/data/nanoindenter/0828-1/data/Data_2025-08-06,11h17m57s/2025-07-22_16-23-58_1_445.txt
2025-07-22, 16:23:58, 1
Index	Phase	Displacement	Time	Pos X	Pos Y	Pos Z	Rot A	Rot B	Piezo Z	Force A	Force B	Gripper	Voltage A	Voltage B	Temperature	Amplitude force	Amplitude pos	Stiffness	Phase shift	Phase excitation	Force A raw	Displacement raw	HMax	HMax raw	Real Force	Real Stiffness	Contact Depth	Area	Hardness	Reduced Mod.
[#]	[#]	[um]	[s]	[um]	[um]	[um]	[m°]	[m°]	[um]	[uN]	[uN]	[V]	[V]	[V]	[°C]	[uN]	[um]	[N/m]	[°]	[°]	[uN]	[um]	[um]	[um]	[uN]	[N/m]	[um]	[um^2]	[MPa]	[MPa]
445	1.000000	0.002834	7.36941e+06	-54839.1	1005.82	-29742.9	0.000000	0.000000	6.002791	-0.026333	NaN	0.000000	0.001618	0.001681	28.0805	0.064887	0.000995	65.1972	-95.3952	-162.887	-0.021040	0.001593	-1.099808	-1.101049	-0.026333	65.1972	-1.099505	-4.936543E+14	5.334299E-17	NaN
445	1.000000	0.044798	7.36941e+06	-54839.1	1005.82	-29742.9	0.000000	0.000000	6.044757	0.025094	NaN	0.000000	0.001605	0.001703	28.0814	0.101846	0.001902	53.5598	-83.8099	14.654	-0.033948	0.043448	-1.057844	-1.059194	0.025094	53.5598	-1.058195	-1.375842E+14	-1.823917E-16	NaN
445	1.000000	0.086779	7.36941e+06	-54839.1	1005.82	-29742.9	0.000000	0.000000	6.086734	-0.078922	NaN	0.000000	0.001702	0.001672	28.0814	0.044750	0.001868	23.9537	70.678	-169.355	-0.102927	0.085493	-1.015863	-1.017149	-0.078922	23.9537	-1.013392	-3.435816E+13	2.297035E-15	NaN
445	1.000000	0.128812	7.36941e+06	-54839.1	1005.82	-29742.9	0.000000	0.000000	6.128768	-0.055510	NaN	0.000000	0.001657	0.001682	28.0818	0.085439	0.001977	43.2148	-174.375	15.4891	-0.070176	0.127449	-0.973830	-0.975193	-0.055510	43.2148	-0.972867	-9.779037E+12	5.676448E-15	NaN
445	1.000000	0.170847	7.36941e+06	-54839.1	1005.82	-29742.9	0.000000	0.000000	6.170802	-0.076886	NaN	0.000000	0.001563	0.001698	28.0803	0.032580	0.001974	16.5045	-142.16	-167.313	-0.038633	0.169531	-0.931795	-0.933111	-0.076886	16.5045	-0.928301	-2.450593E+12	3.137442E-14	NaN
445	1.000000	0.212848	7.36941e+06	-54839.1	1005.82	-29742.9	0.000000	0.000000	6.212803	-0.072827	NaN	0.000000	0.001553	0.001720	28.0804	0.067833	0.002103	32.257	-72.1114	14.2711	-0.022008	0.211560	-0.889794	-0.891082	-0.072827	32.257	-0.888101	-7.018423E+11	1.037659E-13	NaN
445	1.000000	0.254872	7.36941e+06	-54839.1	1005.82	-29742.9	0.000000	0.000000	6.254826	-0.096890	NaN	0.000000	0.001604	0.001682	28.0805	0.037838	0.001946	19.4438	-54.7006	-164.709	-0.043335	0.253632	-0.847770	-0.849011	-0.096890	19.4438	-0.844032	-1.777945E+11	5.449527E-13	NaN
445	1.000000	0.296911	7.36941e+06	-54839.1	1005.82	-29742.9	0.000000	0.000000	6.296868	-0.021357	NaN	0.000000	0.001618	0.001724	28.0805	0.027264	0.001937	14.0786	-63.9157	14.2613	-0.101828	0.295555	-0.805731	-0.807087	-0.021357	14.0786	-0.804593	-5.190441E+10	4.114599E-13	NaN
445	1.000000	0.338901	7.36941e+06	-54839.1	1005.82	-29742.9	0.000000	0.000000	6.338858	-0.025210	NaN	0.000000	0.001585	0.001660	28.0814	0.117309	0.002079	56.4226	-62.6618	-166.117	-0.000220	0.337629	-0.763741	-0.765014	-0.025210	56.4226	-0.763406	-1.430997E+10	1.761687E-12	NaN
445	1.000000	0.380912	7.36941e+06	-54839.1	1005.82	-29742.9	0.000000	0.000000	6.380867	-0.074223	NaN	0.000000	0.001575	0.001624	28.0813	0.097523	0.001971	49.4715	117.679	18.1753	-0.060174	0.379519	-0.721730	-0.723123	-0.074223	49.4715	-0.720605	-3.738695E+9	1.985278E-11	NaN
445	1.000000	0.422967	7.36941e+06	-54839.1	1005.82	-29742.9	0.000000	0.000000	6.422925	0.014848	NaN	0.000000	0.001677	0.001675	28.0814	0.142377	0.002046	69.5768	-110.486	-162.769	0.055223	0.421625	-0.679676	-0.681017	0.014848	69.5768	-0.679836	-1.037430E+9	-1.431230E-11	NaN
445	1.000000	0.465003	7.36941e+06	-54839.1	1005.82	-29742.9	0.000000	0.000000	6.464962	0.031245	NaN	0.000000	0.001656	0.001662	28.08	0.021795	0.002025	10.7619	-106.311	13.0082	0.000204	0.463630	-0.637639	-0.639012	0.031245	10.7619	-0.639816	-2.936100E+8	-1.064182E-10	NaN
445	1.000000	0.506994	7.36941e+06	-54839.1	1005.82	-29742.9	0.000000	0.000000	6.506951	-0.025882	NaN	0.000000	0.001635	0.001693	28.0801	0.062823	0.001957	32.095	-23.2401	-164.19	0.032012	0.505668	-0.595648	-0.596974	-0.025882	32.095	-0.595043	-7.115073E+7	3.637686E-10	NaN
445	1.000000	0.548986	7.36941e+06	-54839.1	1005.82	-29742.9	0.000000	0.000000	6.548943	-0.025199	NaN	0.000000	0.001618	0.001694	28.0802	0.128014	0.002043	62.6474	-118.402	12.9412	-0.009830	0.547629	-0.553656	-0.555013	-0.025199	62.6474	-0.553354	-1.889749E+7	1.333455E-9	NaN
445	1.000000	0.591017	7.36941e+06	-54839.1	1005.82	-29742.9	0.000000	0.000000	6.590970	-0.119459	NaN	0.000000	0.001578	0.001679	28.0815	0.046855	0.002002	23.3995	-92.5644	-168.817	-0.065108	0.589682	-0.511625	-0.512960	-0.119459	23.3995	-0.507796	-4.40265e+06	2.713334E-8	NaN
445	1.000000	0.633045	7.36941e+06	-54839.1	1005.82	-29742.9	0.000000	0.000000	6.633002	-0.016714	NaN	0.000000	0.001568	0.001665	28.0814	0.075330	0.001947	38.6994	160.116	11.6053	-0.104321	0.631697	-0.469597	-0.470946	-0.016714	38.6994	-0.469273	-1.27412e+06	1.311841E-8	NaN
445	1.000000	0.675048	7.36941e+06	-54839.1	1005.82	-29742.9	0.000000	0.000000	6.675005	-0.021596	NaN	0.000000	0.001613	0.001625	28.0811	0.072447	0.002020	35.8625	17.6364	-165.895	5.742092E-5	0.673775	-0.427594	-0.428868	-0.021596	35.8625	-0.427143	-324805	6.649031E-8	NaN
445	1.000000	0.717090	7.36941e+06	-54839.1	1005.82	-29742.9	0.000000	0.000000	6.717044	-0.089348	NaN	0.000000	0.001585	0.001678	28.0802	0.083696	0.002052	40.7931	-118.194	14.3495	-0.136198	0.715698	-0.385552	-0.386945	-0.089348	40.7931	-0.383910	-78697.8	1.135327E-6	NaN
445	1.000000	0.759095	7.36941e+06	-54839.1	1005.82	-29742.9	0.000000	0.000000	6.759054	0.022551	NaN	0.000000	0.001606	0.001682	28.0802	0.106267	0.002044	51.9984	2.937312	-165.108	-0.007691	0.757778	-0.343547	-0.344864	0.022551	51.9984	-0.343872	-20794.6	-1.084474E-6	NaN
445	1.000000	0.801098	7.36941e+06	-54839.1	1005.82	-29742.9	0.000000	0.000000	6.801053	-0.055832	NaN	0.000000	0.001576	0.001643	28.0802	0.087724	0.002242	39.1261	126.677	14.4571	-0.007104	0.799731	-0.301545	-0.302912	-0.055832	39.1261	-0.300474	-4782.97	1.167305E-5	NaN
445	1.000000	0.843124	7.36941e+06	-54839.1	1005.82	-29742.9	0.000000	0.000000	6.843081	-0.019682	NaN	0.000000	0.001632	0.001668	28.0804	0.139128	0.002153	64.6312	115.051	-165.93	-0.029951	0.841810	-0.259518	-0.260832	-0.019682	64.6312	-0.259290	-1142.96	1.722000E-5	NaN
445	1.000000	0.885142	7.36941e+06	-54839.1	1005.82	-29742.9	0.000000	0.000000	6.885094	-0.127977	NaN	0.000000	0.001560	0.001675	28.0816	0.073031	0.001819	40.1591	119.527	14.5282	-0.076236	0.883766	-0.217501	-0.218877	-0.127977	40.1591	-0.215110	-231.895	0.000552	NaN
445	1.000000	0.927155	7.36942e+06	-54839.1	1005.82	-29742.9	0.000000	0.000000	6.927110	-0.091763	NaN	0.000000	0.001557	0.001712	28.082	0.079793	0.001978	40.3333	-65.7354	-161.508	-0.056839	0.925862	-0.175487	-0.176780	-0.091763	40.3333	-0.173780	-47.7526	0.001922	NaN
445	1.000000	0.969163	7.36942e+06	-54839.1	1005.82	-29742.9	0.000000	0.000000	6.969119	-0.041463	NaN	0.000000	0.001551	0.001664	28.0819	0.063813	0.001963	32.5025	-49.1319	18.5345	-0.032635	0.967818	-0.133479	-0.134824	-0.041463	32.5025	-0.132523	-8.526924	0.004863	NaN
445	1.000000	1.011204	7.36942e+06	-54839.1	1005.82	-29742.9	0.000000	0.000000	7.011162	0.003352	NaN	0.000000	0.001564	0.001715	28.0808	0.013804	0.002004	6.888271	-131.363	-163.614	0.027912	1.009922	-0.091438	-0.092720	0.003352	6.888271	-0.091803	-1.190975	-0.002814	NaN
445	1.000000	1.053202	7.36942e+06	-54839.1	1005.82	-29742.9	0.000000	0.000000	7.053159	-0.032580	NaN	0.000000	0.001576	0.001716	28.081	0.029770	0.001972	15.093	-63.8679	15.2848	-0.022479	1.051782	-0.049440	-0.050860	-0.032580	15.093	-0.047821	-0.078363	0.415765	NaN
445	1.000000	1.095191	7.36942e+06	-54839.1	1005.82	-29742.9	0.000000	0.000000	7.095148	-0.019013	NaN	0.000000	0.001571	0.001721	28.0808	0.084198	0.002027	41.5318	70.1975	-166.212	-0.094396	1.093933	-0.007451	-0.008709	-0.019013	41.5318	-0.007107	-0.004705	4.041366	NaN
445	2.000000	1.119229	7.36942e+06	-54839.1	1005.82	-29742.9	0.000000	0.000000	7.119869	16.586	NaN	0.000000	0.001579	0.001656	28.082	15.2566	0.001686	9048.21	5.672608	4.458884	15.7573	1.118845	0.016587	0.016203	16.586	9048.21	0.015212	0.015569	1065.29	66252
445	2.000000	1.129701	7.36942e+06	-54839.1	1005.82	-29742.9	0.000000	0.000000	7.131173	36.8148	NaN	0.000000	0.001589	0.001647	28.0819	25.6713	0.001773	14479.1	6.125706	-178.671	36.7281	1.129345	0.027059	0.026703	36.8148	14479.1	0.025152	0.031292	1176.48	74781.6
445	2.000000	1.140097	7.36942e+06	-54839.1	1005.82	-29742.9	0.000000	0.000000	7.142727	64.9559	NaN	0.000000	0.001613	0.001624	28.0817	35.5739	0.001771	20088.3	3.393279	1.052414	61.3893	1.139802	0.037455	0.037160	64.9559	20088.3	0.035030	0.051815	1253.61	80628.5
445	2.000000	1.150698	7.36942e+06	-54839.1	1005.82	-29742.9	0.000000	0.000000	7.154793	100.571	NaN	0.000000	0.001559	0.001626	28.0807	46.4225	0.001777	26121.5	7.288629	174.899	105.109	1.150379	0.048056	0.047737	100.571	26121.5	0.045168	0.078066	1288.28	85416.4
445	2.000000	1.161152	7.36942e+06	-54839.1	1005.82	-29742.9	0.000000	0.000000	7.167187	147.73	NaN	0.000000	0.001595	0.001670	28.0806	56.9455	0.001874	30384.1	8.463538	-7.479040	147.607	1.160745	0.058510	0.058103	147.73	30384.1	0.054863	0.108036	1367.42	84457.2
445	2.000000	1.171609	7.36942e+06	-54839.1	1005.82	-29742.9	0.000000	0.000000	7.180031	205.76	NaN	0.000000	0.001599	0.001646	28.0806	67.0988	0.001774	37824.4	4.912901	174.139	203.23	1.171358	0.068967	0.068716	205.76	37824.4	0.064887	0.143914	1429.75	91095
445	2.000000	1.182022	7.36942e+06	-54839.1	1005.82	-29742.9	0.000000	0.000000	7.192864	264.597	NaN	0.000000	0.001594	0.001589	28.081	77.9654	0.001844	42278.3	6.025782	-7.961795	257.396	1.181751	0.079380	0.079109	264.597	42278.3	0.074686	0.183670	1440.61	90130.4
445	2.000000	1.192543	7.36942e+06	-54839.1	1005.82	-29742.9	0.000000	0.000000	7.206498	340.262	NaN	0.000000	0.001576	0.001643	28.082	87.8969	0.001729	50831.1	6.221256	170.189	337.155	1.192272	0.089901	0.089630	340.262	50831.1	0.084881	0.229833	1480.48	96871.6
445	2.000000	1.203011	7.36942e+06	-54839.1	1005.82	-29742.9	0.000000	0.000000	7.220261	420.36	NaN	0.000000	0.001542	0.001676	28.0819	97.6608	0.001831	53347.2	7.273394	-10.7269	415.854	1.202797	0.100369	0.100155	420.36	53347.2	0.094459	0.277583	1514.36	92510
445	2.000000	1.211511	7.36942e+06	-54839.1	1005.82	-29742.9	0.000000	0.000000	7.232097	501.476	NaN	0.000000	0.001607	0.001604	28.0825	105.609	0.001685	62667.6	5.016430	170.521	495.794	1.211231	0.108869	0.108589	501.476	62667.6	0.102867	0.322951	1552.8	100751