File: remote_trans/data/nanoindenter/0828-1/data/Data_2025-08-06,11h17m57s/2025-07-22_16-23-58_1_1099.txt
2025-07-22, 16:23:58, 1
Index	Phase	Displacement	Time	Pos X	Pos Y	Pos Z	Rot A	Rot B	Piezo Z	Force A	Force B	Gripper	Voltage A	Voltage B	Temperature	Amplitude force	Amplitude pos	Stiffness	Phase shift	Phase excitation	Force A raw	Displacement raw	HMax	HMax raw	Real Force	Real Stiffness	Contact Depth	Area	Hardness	Reduced Mod.
[#]	[#]	[um]	[s]	[um]	[um]	[um]	[m°]	[m°]	[um]	[uN]	[uN]	[V]	[V]	[V]	[°C]	[uN]	[um]	[N/m]	[°]	[°]	[uN]	[um]	[um]	[um]	[uN]	[N/m]	[um]	[um^2]	[MPa]	[MPa]
1099	1.000000	0.002979	7.37581e+06	-55089.1	1055.82	-29742.3	0.000000	0.000000	6.004320	4.091090	NaN	0.000000	0.001677	0.001749	28.0827	2.876422	0.000873	3295.42	13.3326	-176.616	2.024286	0.001706	-0.008508	-0.009780	4.091090	3295.42	-0.009439	-0.006066	-674.457	NaN
1099	2.000000	0.009628	7.37581e+06	-55089.1	1055.82	-29742.3	0.000000	0.000000	6.011158	8.667160	NaN	0.000000	0.001676	0.001724	28.0817	4.078920	0.001595	2557.99	18.3964	-168.932	9.495217	0.009473	-0.001859	-0.002014	8.667160	2557.99	-0.004400	-0.003036	-2854.4	NaN
1099	2.000000	0.012547	7.37581e+06	-55089.1	1055.82	-29742.3	0.000000	0.000000	6.014078	8.680080	NaN	0.000000	0.001681	0.001721	28.0816	4.365600	0.001777	2456.93	-5.169469	-166.281	8.706316	0.012240	0.001061	0.000754	8.680080	2456.93	-0.001589	-0.001152	-7533.22	NaN
1099	2.000000	0.015483	7.37581e+06	-55089.1	1055.82	-29742.3	0.000000	0.000000	6.017046	9.479918	NaN	0.000000	0.001709	0.001696	28.0815	5.514977	0.001858	2968.11	2.922018	-169.598	9.337502	0.015160	0.003996	0.003674	9.479918	2968.11	0.001601	0.001235	7678.59	77177.7
1099	2.000000	0.018462	7.37581e+06	-55089.1	1055.82	-29742.3	0.000000	0.000000	6.020042	9.864724	NaN	0.000000	0.001686	0.001715	28.0814	5.781266	0.002053	2816.37	23.0891	-170.343	9.713093	0.018200	0.006976	0.006713	9.864724	2816.37	0.004349	0.003547	2781.16	43204.9
1099	2.000000	0.021452	7.37581e+06	-55089.1	1055.82	-29742.3	0.000000	0.000000	6.023057	10.5048	NaN	0.000000	0.001703	0.001725	28.0814	4.911373	0.001948	2521.64	8.352742	-171.477	10.1527	0.021138	0.009965	0.009652	10.5048	2521.64	0.006841	0.005877	1787.5	30052.8
1099	2.000000	0.024439	7.37581e+06	-55089.1	1055.82	-29742.3	0.000000	0.000000	6.026032	10.183	NaN	0.000000	0.001693	0.001720	28.0814	5.830831	0.001971	2958.21	8.915239	-169.776	10.2093	0.024172	0.012953	0.012686	10.183	2958.21	0.010371	0.009597	1061.09	27589.3
1099	2.000000	0.027440	7.37581e+06	-55089.1	1055.82	-29742.3	0.000000	0.000000	6.029091	11.5961	NaN	0.000000	0.001690	0.001712	28.0814	5.521284	0.001983	2783.77	11.6407	-174.279	11.9978	0.027156	0.015954	0.015670	11.5961	2783.77	0.012829	0.012499	927.78	22749.6
1099	2.000000	0.030393	7.37581e+06	-55089.1	1055.82	-29742.3	0.000000	0.000000	6.032078	12.4286	NaN	0.000000	0.001686	0.001698	28.0814	5.410935	0.001993	2714.56	1.811619	-168.968	11.981	0.030057	0.018907	0.018571	12.4286	2714.56	0.015473	0.015921	780.641	19655.6
1099	2.000000	0.033406	7.37581e+06	-55089.1	1055.82	-29742.3	0.000000	0.000000	6.035078	12.1365	NaN	0.000000	0.001782	0.001702	28.0816	6.012732	0.001951	3082.23	8.618311	-169.393	11.6978	0.033130	0.021919	0.021643	12.1365	3082.23	0.018966	0.020944	579.485	19458.7
1099	2.000000	0.036435	7.37581e+06	-55089.1	1055.82	-29742.3	0.000000	0.000000	6.038106	12.0963	NaN	0.000000	0.001707	0.001725	28.0817	5.747987	0.001961	2931.89	12.1179	-169.99	12.5738	0.036122	0.024949	0.024635	12.0963	2931.89	0.021855	0.025541	473.606	16761.1
1099	2.000000	0.039383	7.37581e+06	-55089.1	1055.82	-29742.3	0.000000	0.000000	6.041075	12.6156	NaN	0.000000	0.001710	0.001751	28.0816	5.036922	0.001988	2533.17	5.897839	-166.55	12.6014	0.039062	0.027896	0.027575	12.6156	2533.17	0.024161	0.029508	427.539	13473.2
1099	2.000000	0.042404	7.37581e+06	-55089.1	1055.82	-29742.3	0.000000	0.000000	6.044124	13.2889	NaN	0.000000	0.001656	0.001707	28.0826	6.077973	0.002030	2994.32	-5.599207	-167.344	13.2289	0.042059	0.030917	0.030572	13.2889	2994.32	0.027589	0.035894	370.229	14439.8
1099	2.000000	0.045399	7.37581e+06	-55089.1	1055.82	-29742.3	0.000000	0.000000	6.047096	12.7384	NaN	0.000000	0.001713	0.001706	28.0828	6.843825	0.002083	3286.33	10.8776	-170.87	12.9634	0.045105	0.033912	0.033618	12.7384	3286.33	0.031005	0.042853	297.258	14504.2
1099	2.000000	0.048391	7.37581e+06	-55089.1	1055.82	-29742.3	0.000000	0.000000	6.050099	12.9917	NaN	0.000000	0.001662	0.001712	28.0828	5.645996	0.002095	2695.45	15.5113	-167.821	13.3569	0.048122	0.036905	0.036636	12.9917	2695.45	0.033290	0.047839	271.572	11259.4
1099	2.000000	0.051407	7.37581e+06	-55089.1	1055.82	-29742.3	0.000000	0.000000	6.053109	12.8495	NaN	0.000000	0.001704	0.001710	28.0829	5.095677	0.002014	2529.92	0.057657	-168.661	13.5804	0.051096	0.039920	0.039610	12.8495	2529.92	0.036111	0.054364	236.358	9913.39
1099	2.000000	0.054390	7.37581e+06	-55089.1	1055.82	-29742.3	0.000000	0.000000	6.056140	14.0168	NaN	0.000000	0.001697	0.001775	28.0827	6.101963	0.001946	3135.95	3.188849	-166.881	14.2137	0.054103	0.042903	0.042617	14.0168	3135.95	0.039551	0.062873	222.94	11426.4
1099	2.000000	0.057395	7.37581e+06	-55089.1	1055.82	-29742.3	0.000000	0.000000	6.059122	13.4688	NaN	0.000000	0.001662	0.001734	28.0826	6.338549	0.001941	3265.35	13.2431	-172.092	13.3738	0.057098	0.045908	0.045612	13.4688	3265.35	0.042815	0.071504	188.364	11156.7
1099	2.000000	0.060389	7.37581e+06	-55089.1	1055.82	-29742.3	0.000000	0.000000	6.062093	12.8877	NaN	0.000000	0.001652	0.001763	28.0834	5.771055	0.002162	2669.39	13.4043	-170.295	13.0294	0.060102	0.048902	0.048615	12.8877	2669.39	0.045281	0.078388	164.408	8710.82
1099	2.000000	0.063375	7.37581e+06	-55089.1	1055.82	-29742.3	0.000000	0.000000	6.065109	13.6232	NaN	0.000000	0.001664	0.001729	28.0827	5.805386	0.001878	3091.88	1.056801	-166.525	13.4825	0.063105	0.051889	0.051619	13.6232	3091.88	0.048584	0.088088	154.655	9517.84
1099	2.000000	0.066364	7.37581e+06	-55089.1	1055.82	-29742.3	0.000000	0.000000	6.068074	13.0399	NaN	0.000000	0.001664	0.001770	28.0825	6.579349	0.002078	3166.59	5.026090	-169.057	13.3331	0.066064	0.054877	0.054578	13.0399	3166.59	0.051789	0.098022	133.03	9240.66
1099	2.000000	0.069355	7.37581e+06	-55089.1	1055.82	-29742.3	0.000000	0.000000	6.071112	14.1786	NaN	0.000000	0.001675	0.001743	28.0826	6.000684	0.001969	3047.29	8.183709	-168.87	14.1465	0.069079	0.057869	0.057593	14.1786	3047.29	0.054379	0.106428	133.223	8534.13
1099	2.000000	0.072374	7.37581e+06	-55089.1	1055.82	-29742.3	0.000000	0.000000	6.074124	14.016	NaN	0.000000	0.001710	0.001718	28.0825	6.493664	0.002031	3197.94	7.417826	-171.005	14.0653	0.072050	0.060888	0.060564	14.016	3197.94	0.057601	0.117345	119.443	8529.26
1099	2.000000	0.075341	7.37581e+06	-55089.1	1055.82	-29742.3	0.000000	0.000000	6.077072	13.5428	NaN	0.000000	0.001687	0.001774	28.0824	6.213208	0.002071	3000.19	11.1329	-168.422	13.8215	0.075058	0.063855	0.063572	13.5428	3000.19	0.060469	0.127496	106.222	7676.68
1099	2.000000	0.078369	7.37581e+06	-55089.1	1055.82	-29742.3	0.000000	0.000000	6.080075	12.952	NaN	0.000000	0.001687	0.001703	28.0814	5.761598	0.001933	2980.95	8.586247	-171.135	13.1635	0.078082	0.066882	0.066595	12.952	2980.95	0.063623	0.139121	93.099	7301.83
1099	2.000000	0.081355	7.37581e+06	-55089.1	1055.82	-29742.3	0.000000	0.000000	6.083109	14.1231	NaN	0.000000	0.001653	0.001717	28.0814	6.120556	0.002034	3009.65	4.962648	-170.066	13.8284	0.081056	0.069868	0.069569	14.1231	3009.65	0.066349	0.149553	94.4358	7110.37
1099	2.000000	0.084360	7.37581e+06	-55089.1	1055.82	-29742.3	0.000000	0.000000	6.086132	14.5378	NaN	0.000000	0.001708	0.001696	28.0815	6.447776	0.002026	3181.89	9.232598	-173.471	14.784	0.084040	0.072874	0.072553	14.5378	3181.89	0.069447	0.161845	89.8251	7226.17
1099	2.000000	0.087369	7.37581e+06	-55089.1	1055.82	-29742.3	0.000000	0.000000	6.089113	13.861	NaN	0.000000	0.001672	0.001741	28.0817	6.013187	0.002032	2959.72	11.2044	-170.795	14.09	0.087090	0.075882	0.075603	13.861	2959.72	0.072370	0.173862	79.7239	6485.16
1099	2.000000	0.090328	7.37581e+06	-55089.1	1055.82	-29742.3	0.000000	0.000000	6.092093	14.389	NaN	0.000000	0.001644	0.001792	28.0816	6.371491	0.001907	3340.7	3.546834	-168.028	14.5657	0.089994	0.078841	0.078508	14.389	3340.7	0.075611	0.187658	76.6768	7045.75
1099	2.000000	0.093350	7.37581e+06	-55089.1	1055.82	-29742.3	0.000000	0.000000	6.095136	14.8814	NaN	0.000000	0.001660	0.001805	28.0818	6.041731	0.002013	3000.83	10.4432	-171.295	14.7113	0.093053	0.081864	0.081566	14.8814	3000.83	0.078144	0.198787	74.8608	6149.22
1099	2.000000	0.096355	7.37581e+06	-55089.1	1055.82	-29742.3	0.000000	0.000000	6.098122	14.4255	NaN	0.000000	0.001714	0.001748	28.0816	6.353004	0.002031	3128.79	10.9726	-169.523	14.6543	0.096024	0.084868	0.084537	14.4255	3128.79	0.081410	0.213576	67.5428	6185.48
1099	2.000000	0.099342	7.37581e+06	-55089.1	1055.82	-29742.3	0.000000	0.000000	6.101139	15.1456	NaN	0.000000	0.001648	0.001766	28.0813	6.394085	0.002074	3082.96	1.890447	-165.95	15.1149	0.099019	0.087856	0.087532	15.1456	3082.96	0.084171	0.226463	66.8786	5918.91
1099	2.000000	0.102312	7.37581e+06	-55089.1	1055.82	-29742.3	0.000000	0.000000	6.104104	15.0275	NaN	0.000000	0.001678	0.001759	28.0814	6.048199	0.001955	3093.44	12.1319	-166.777	14.3183	0.101991	0.090826	0.090504	15.0275	3093.44	0.087182	0.240922	62.3748	5758.06
1099	2.000000	0.105355	7.37581e+06	-55089.1	1055.82	-29742.3	0.000000	0.000000	6.107116	14.2947	NaN	0.000000	0.001696	0.001738	28.0815	6.388792	0.001961	3257.51	3.775085	-171.047	14.7265	0.105011	0.093868	0.093525	14.2947	3257.51	0.090577	0.257723	55.4652	5862.48