File: remote_trans/data/nanoindenter/0828-1/data/Data_2025-08-06,11h17m57s/2025-07-22_16-23-58_1_17.txt
2025-07-22, 16:23:58, 1
Index	Phase	Displacement	Time	Pos X	Pos Y	Pos Z	Rot A	Rot B	Piezo Z	Force A	Force B	Gripper	Voltage A	Voltage B	Temperature	Amplitude force	Amplitude pos	Stiffness	Phase shift	Phase excitation	Force A raw	Displacement raw	HMax	HMax raw	Real Force	Real Stiffness	Contact Depth	Area	Hardness	Reduced Mod.
[#]	[#]	[um]	[s]	[um]	[um]	[um]	[m°]	[m°]	[um]	[uN]	[uN]	[V]	[V]	[V]	[°C]	[uN]	[um]	[N/m]	[°]	[°]	[uN]	[um]	[um]	[um]	[uN]	[N/m]	[um]	[um^2]	[MPa]	[MPa]
17	1.000000	0.002952	7.36521e+06	-39489.1	955.82	-29794.3	0.000000	0.000000	6.002831	-0.026592	NaN	0.000000	0.001552	0.001634	28.1062	0.027799	0.000886	31.3623	99.6774	-166.791	0.017131	0.001656	-1.097403	-1.098700	-0.026592	31.3623	-1.096767	-4.535995E+14	5.862468E-17	NaN
17	1.000000	0.044855	7.36521e+06	-39489.1	955.819	-29794.3	0.000000	0.000000	6.044735	0.007964	NaN	0.000000	0.001518	0.001661	28.1313	0.100108	0.001969	50.8443	35.0675	12.238	0.038694	0.043504	-1.055501	-1.056852	0.007964	50.8443	-1.055619	-1.270388E+14	-6.268956E-17	NaN
17	1.000000	0.086870	7.36521e+06	-39489.1	955.819	-29794.3	0.000000	0.000000	6.086749	-0.015833	NaN	0.000000	0.001569	0.001662	28.0932	0.087647	0.001913	45.8073	-102.935	-165.616	-0.022327	0.085581	-1.013486	-1.014774	-0.015833	45.8073	-1.013226	-3.418264E+13	4.631847E-16	NaN
17	1.000000	0.128902	7.36521e+06	-39489.1	955.818	-29794.3	0.000000	0.000000	6.128782	0.010778	NaN	0.000000	0.001550	0.001667	28.0815	0.180756	0.002044	88.4167	164.652	15.5049	-1.111977E-5	0.127490	-0.971454	-0.972865	0.010778	88.4167	-0.971545	-9.386120E+12	-1.148329E-15	NaN
17	1.000000	0.170918	7.36521e+06	-39489.1	955.817	-29794.3	0.000000	0.000000	6.170797	-0.016515	NaN	0.000000	0.001531	0.001712	28.1062	0.007912	0.002048	3.863545	-12.8515	-168.398	-0.023964	0.169623	-0.929438	-0.930733	-0.016515	3.863545	-0.926232	-2.297920E+12	7.187099E-15	NaN
17	1.000000	0.212920	7.36521e+06	-39489.1	955.819	-29794.3	0.000000	0.000000	6.212799	-0.019981	NaN	0.000000	0.001518	0.001677	28.1311	0.029915	0.002003	14.9361	152.837	15.9522	-0.026488	0.211586	-0.887435	-0.888770	-0.019981	14.9361	-0.886432	-6.663139E+11	2.998717E-14	NaN
17	1.000000	0.254991	7.36521e+06	-39489.1	955.818	-29794.3	0.000000	0.000000	6.254870	-0.006950	NaN	0.000000	0.001574	0.001663	28.0924	0.108357	0.001954	55.4572	140.684	-164.17	0.035352	0.253651	-0.845365	-0.846705	-0.006950	55.4572	-0.845271	-1.847964E+11	3.761097E-14	NaN
17	1.000000	0.297000	7.36521e+06	-39489.1	955.818	-29794.3	0.000000	0.000000	6.296878	-0.051604	NaN	0.000000	0.001580	0.001661	28.0822	0.053523	0.002059	25.9906	17.6249	12.4882	-0.122321	0.295585	-0.803356	-0.804771	-0.051604	25.9906	-0.801866	-4.766469E+10	1.082637E-12	NaN
17	1.000000	0.338990	7.36521e+06	-39489.1	955.819	-29794.3	0.000000	0.000000	6.338869	-0.011464	NaN	0.000000	0.001511	0.001659	28.1046	0.075720	0.002050	36.9291	144.008	-168.004	-0.095562	0.337640	-0.761366	-0.762716	-0.011464	36.9291	-0.761133	-1.332647E+10	8.602202E-13	NaN
17	1.000000	0.381025	7.36521e+06	-39489.1	955.818	-29794.3	0.000000	0.000000	6.380903	-0.042938	NaN	0.000000	0.001527	0.001618	28.1335	0.101395	0.001952	51.9388	110.549	14.9495	-0.076085	0.379692	-0.719331	-0.720663	-0.042938	51.9388	-0.718711	-3.522822E+9	1.218852E-11	NaN
17	1.000000	0.423064	7.36521e+06	-39489.1	955.818	-29794.3	0.000000	0.000000	6.422946	0.048504	NaN	0.000000	0.001588	0.001620	28.0934	0.026476	0.001980	13.375	58.4151	-167.169	0.012098	0.421686	-0.677291	-0.678670	0.048504	13.375	-0.680011	-1.043182E+9	-4.649657E-11	NaN
17	1.000000	0.465069	7.36521e+06	-39489.1	955.819	-29794.3	0.000000	0.000000	6.464949	-0.011366	NaN	0.000000	0.001603	0.001635	28.081	0.015852	0.001919	8.260699	41.3753	13.0132	-0.080821	0.463736	-0.635286	-0.636619	-0.011366	8.260699	-0.634254	-2.462850E+8	4.615157E-11	NaN
17	1.000000	0.507070	7.36521e+06	-39489.1	955.819	-29794.3	0.000000	0.000000	6.506950	0.001781	NaN	0.000000	0.001601	0.001647	28.1037	0.054046	0.002018	26.7769	22.2213	-162.096	0.060523	0.505776	-0.593285	-0.594580	0.001781	26.7769	-0.593335	-6.739719E+7	-2.642368E-11	NaN
17	1.000000	0.549073	7.36521e+06	-39489.1	955.818	-29794.3	0.000000	0.000000	6.548952	-0.030452	NaN	0.000000	0.001591	0.001599	28.1316	0.068142	0.001912	35.6402	66.2429	15.7528	0.053928	0.547737	-0.551283	-0.552619	-0.030452	35.6402	-0.550642	-1.733187E+7	1.756975E-9	NaN
17	1.000000	0.591115	7.36521e+06	-39489.1	955.819	-29794.3	0.000000	0.000000	6.590991	-0.069920	NaN	0.000000	0.001516	0.001595	28.0918	0.014432	0.001913	7.545560	-81.5113	-166.45	0.013267	0.589745	-0.509241	-0.510611	-0.069920	7.545560	-0.502291	-3.68959e+06	1.895075E-8	NaN
17	1.000000	0.633111	7.36521e+06	-39489.1	955.819	-29794.3	0.000000	0.000000	6.632988	-0.053782	NaN	0.000000	0.001483	0.001567	28.0815	0.032918	0.001971	16.7027	86.9088	11.383	-0.052950	0.631769	-0.467245	-0.468587	-0.053782	16.7027	-0.464830	-1.10373e+06	4.872790E-8	NaN
17	1.000000	0.675140	7.36521e+06	-39489.1	955.818	-29794.3	0.000000	0.000000	6.675018	-0.046081	NaN	0.000000	0.001603	0.001626	28.1027	0.074070	0.001904	38.9063	-148.934	-165.443	-0.045929	0.673850	-0.425216	-0.426505	-0.046081	38.9063	-0.424327	-296315	1.555123E-7	NaN
17	1.000000	0.717142	7.36521e+06	-39489.1	955.819	-29794.3	0.000000	0.000000	6.717023	0.032580	NaN	0.000000	0.001531	0.001632	28.1334	0.012863	0.001970	6.529054	125.136	10.1083	-0.080918	0.715843	-0.383213	-0.384513	0.032580	6.529054	-0.386956	-87016.3	-3.744118E-7	NaN
17	1.000000	0.759174	7.36521e+06	-39489.1	955.818	-29794.3	0.000000	0.000000	6.759051	-0.054853	NaN	0.000000	0.001538	0.001640	28.0934	0.079367	0.001975	40.1956	-156.881	-169.004	-0.092142	0.757867	-0.341182	-0.342489	-0.054853	40.1956	-0.340158	-18359.6	2.987684E-6	NaN
17	1.000000	0.801222	7.36521e+06	-39489.1	955.817	-29794.3	0.000000	0.000000	6.801101	-0.022759	NaN	0.000000	0.001535	0.001653	28.0806	0.095269	0.001911	49.862	136.954	11.8056	-0.020789	0.799806	-0.299134	-0.300550	-0.022759	49.862	-0.298791	-4514.79	5.040977E-6	NaN
17	1.000000	0.843221	7.36521e+06	-39489.1	955.818	-29794.3	0.000000	0.000000	6.843099	-0.041797	NaN	0.000000	0.001460	0.001656	28.1006	0.031060	0.001968	15.7797	96.5771	-165.91	0.026428	0.841923	-0.257134	-0.258432	-0.041797	15.7797	-0.255148	-987.168	4.234008E-5	NaN
17	1.000000	0.885229	7.36521e+06	-39489.1	955.817	-29794.3	0.000000	0.000000	6.885110	0.018988	NaN	0.000000	0.001526	0.001662	28.133	0.084354	0.002045	41.2502	-81.4379	13.9493	-0.008173	0.883817	-0.215127	-0.216539	0.018988	41.2502	-0.215472	-235.017	-8.079603E-5	NaN
17	1.000000	0.927235	7.36521e+06	-39489.1	955.818	-29794.3	0.000000	0.000000	6.927113	-0.023044	NaN	0.000000	0.001513	0.001668	28.0952	0.053226	0.001890	28.1564	-113.988	-166.716	-0.065095	0.925908	-0.173121	-0.174448	-0.023044	28.1564	-0.172507	-45.398	0.000508	NaN
17	1.000000	0.969243	7.36521e+06	-39489.1	955.818	-29794.3	0.000000	0.000000	6.969122	-0.021440	NaN	0.000000	0.001479	0.001656	28.0806	0.105335	0.001815	58.0458	-38.2671	11.3405	-0.030233	0.967943	-0.131112	-0.132413	-0.021440	58.0458	-0.130835	-7.910633	0.002710	NaN
17	1.000000	1.011283	7.36521e+06	-39489.1	955.817	-29794.3	0.000000	0.000000	7.011162	-0.005814	NaN	0.000000	0.001553	0.001630	28.1004	0.036520	0.001934	18.8811	125.316	-166.983	-0.008919	1.009925	-0.089073	-0.090430	-0.005814	18.8811	-0.088842	-1.015205	0.005727	NaN
17	1.000000	1.053295	7.36521e+06	-39489.1	955.817	-29794.3	0.000000	0.000000	7.053173	-0.030465	NaN	0.000000	0.001515	0.001601	28.1323	0.068456	0.002006	34.1174	-24.6833	12.5582	-0.063703	1.051926	-0.047061	-0.048430	-0.030465	34.1174	-0.046391	-0.070879	0.429811	NaN
17	1.000000	1.095318	7.36521e+06	-39489.1	955.818	-29794.3	0.000000	0.000000	7.095199	0.014933	NaN	0.000000	0.001512	0.001655	28.0951	0.101163	0.002037	49.6568	-28.4987	-166.17	-0.063341	1.094039	-0.005037	-0.006316	0.014933	49.6568	-0.005263	-0.003581	-4.169661	NaN
17	2.000000	1.116298	7.36521e+06	-39489.1	955.816	-29794.3	0.000000	0.000000	7.117033	20.8183	NaN	0.000000	0.001510	0.001634	28.0798	16.8953	0.001832	9222.66	5.138660	3.902782	19.8644	1.115984	0.015942	0.015628	20.8183	9222.66	0.014249	0.014297	1456.14	70470.8
17	2.000000	1.126720	7.36521e+06	-39489.1	955.817	-29794.3	0.000000	0.000000	7.128267	40.5835	NaN	0.000000	0.001499	0.001709	28.1019	26.2513	0.001794	14633.9	5.882093	-179.12	37.9079	1.126316	0.026364	0.025960	40.5835	14633.9	0.024284	0.029726	1365.25	77546.7
17	2.000000	1.137272	7.36521e+06	-39489.1	955.819	-29794.3	0.000000	0.000000	7.139699	62.0002	NaN	0.000000	0.001533	0.001751	28.1323	35.4726	0.001981	17902.1	9.390993	-4.555937	64.2854	1.136880	0.036916	0.036524	62.0002	17902.1	0.034318	0.050171	1235.78	73021.4
17	2.000000	1.147717	7.36521e+06	-39489.1	955.818	-29794.3	0.000000	0.000000	7.151704	99.932	NaN	0.000000	0.001503	0.001730	28.0977	42.8209	0.001707	25088.6	3.667804	177.112	98.2643	1.147322	0.047362	0.046966	99.932	25088.6	0.044374	0.075821	1317.99	83244.3
17	2.000000	1.158154	7.36521e+06	-39489.1	955.818	-29794.3	0.000000	0.000000	7.163898	142.702	NaN	0.000000	0.001494	0.001680	28.0812	52.61	0.001835	28674	8.309826	-8.272244	138.425	1.157892	0.057798	0.057536	142.702	28674	0.054066	0.105394	1353.99	80696.4
17	2.000000	1.168783	7.36521e+06	-39489.1	955.819	-29794.3	0.000000	0.000000	7.176466	189.899	NaN	0.000000	0.001558	0.001704	28.0989	63.2567	0.001863	33959.1	7.121609	172.914	192.574	1.168304	0.068427	0.067948	189.899	33959.1	0.064233	0.141424	1342.76	82502.6
17	2.000000	1.179241	7.36521e+06	-39489.1	955.818	-29794.3	0.000000	0.000000	7.189161	244.323	NaN	0.000000	0.001586	0.001784	28.1312	73.5669	0.001777	41406.1	4.896382	-7.902270	245.917	1.178963	0.078885	0.078607	244.323	41406.1	0.074460	0.182702	1337.28	88504.7
17	2.000000	1.189622	7.36521e+06	-39489.1	955.819	-29794.3	0.000000	0.000000	7.202455	315.221	NaN	0.000000	0.001501	0.001701	28.0983	81.6793	0.001813	45062.1	2.171568	174.618	312.33	1.189361	0.089266	0.089005	315.221	45062.1	0.084020	0.225748	1396.34	86650.8
17	2.000000	1.200148	7.36521e+06	-39489.1	955.817	-29794.3	0.000000	0.000000	7.216011	388.94	NaN	0.000000	0.001515	0.001710	28.0795	92.139	0.001785	51610.3	4.504458	-9.015888	385.334	1.199789	0.099792	0.099433	388.94	51610.3	0.094140	0.275926	1409.58	89766.3
17	2.000000	1.207558	7.36521e+06	-39489.1	955.82	-29794.3	0.000000	0.000000	7.225821	447.361	NaN	0.000000	0.001541	0.001709	28.0993	97.5006	0.001693	57583.8	4.627571	170.174	442.164	1.207396	0.107202	0.107040	447.361	57583.8	0.101375	0.314666	1421.7	93788.2