File: remote_trans/data/nanoindenter/0828-1/data/Data_2025-08-06,11h17m57s/2025-07-22_16-23-58_1_273.txt
2025-07-22, 16:23:58, 1
Index	Phase	Displacement	Time	Pos X	Pos Y	Pos Z	Rot A	Rot B	Piezo Z	Force A	Force B	Gripper	Voltage A	Voltage B	Temperature	Amplitude force	Amplitude pos	Stiffness	Phase shift	Phase excitation	Force A raw	Displacement raw	HMax	HMax raw	Real Force	Real Stiffness	Contact Depth	Area	Hardness	Reduced Mod.
[#]	[#]	[um]	[s]	[um]	[um]	[um]	[m°]	[m°]	[um]	[uN]	[uN]	[V]	[V]	[V]	[°C]	[uN]	[um]	[N/m]	[°]	[°]	[uN]	[um]	[um]	[um]	[uN]	[N/m]	[um]	[um^2]	[MPa]	[MPa]
273	1.000000	0.002570	7.36773e+06	-52289.1	955.819	-29749.9	0.000000	0.000000	6.002795	-0.002757	NaN	0.000000	0.001746	0.001644	28.0782	0.040144	0.001061	37.8438	161.57	-169.208	-0.040591	0.001332	-1.104972	-1.106209	-0.002757	37.8438	-1.104917	-5.835402E+14	4.724589E-18	NaN
273	1.000000	0.044531	7.36773e+06	-52289.1	955.819	-29749.9	0.000000	0.000000	6.044758	0.019252	NaN	0.000000	0.001719	0.001637	28.0783	0.080930	0.002081	38.8855	-20.9427	15.1269	0.017687	0.043214	-1.063010	-1.064328	0.019252	38.8855	-1.063382	-1.615340E+14	-1.191852E-16	NaN
273	1.000000	0.086551	7.36773e+06	-52289.1	955.817	-29749.9	0.000000	0.000000	6.086778	0.024391	NaN	0.000000	0.001727	0.001696	28.0786	0.111687	0.001951	57.2451	122.477	-164.683	-0.056439	0.085241	-1.020991	-1.022300	0.024391	57.2451	-1.021310	-4.391156E+13	-5.554469E-16	NaN
273	1.000000	0.128550	7.36773e+06	-52289.1	955.819	-29749.9	0.000000	0.000000	6.128776	0.035517	NaN	0.000000	0.001656	0.001660	28.0771	0.116823	0.001880	62.1249	-76.3433	12.8879	0.041096	0.127244	-0.978992	-0.980297	0.035517	62.1249	-0.979421	-1.198419E+13	-2.963624E-15	NaN
273	1.000000	0.170593	7.36773e+06	-52289.1	955.818	-29749.9	0.000000	0.000000	6.170818	3.048995E-5	NaN	0.000000	0.001704	0.001705	28.0772	0.051713	0.001946	26.5731	8.833832	-162.915	0.007677	0.169271	-0.936949	-0.938270	3.048995E-5	26.5731	-0.936950	-3.206143E+12	-9.509854E-18	NaN
273	1.000000	0.212588	7.36773e+06	-52289.1	955.818	-29749.9	0.000000	0.000000	6.212813	-0.002825	NaN	0.000000	0.001689	0.001655	28.0771	0.031618	0.002018	15.67	-24.5209	19.8097	-0.007383	0.211191	-0.894954	-0.896351	-0.002825	15.67	-0.894819	-8.650576E+11	3.265344E-15	NaN
273	1.000000	0.254639	7.36773e+06	-52289.1	955.818	-29749.9	0.000000	0.000000	6.254864	0.001756	NaN	0.000000	0.001709	0.001629	28.0785	0.047296	0.002061	22.9426	-76.833	-163.157	0.065102	0.253371	-0.852903	-0.854170	0.001756	22.9426	-0.852961	-2.348686E+11	-7.478555E-15	NaN
273	1.000000	0.296618	7.36773e+06	-52289.1	955.818	-29749.9	0.000000	0.000000	6.296845	0.049647	NaN	0.000000	0.001722	0.001692	28.0786	0.104765	0.002067	50.6733	-21.6145	15.5436	0.064709	0.295304	-0.810924	-0.812237	0.049647	50.6733	-0.811659	-6.472542E+10	-7.670428E-13	NaN
273	1.000000	0.338644	7.36773e+06	-52289.1	955.818	-29749.9	0.000000	0.000000	6.338871	0.031081	NaN	0.000000	0.001718	0.001673	28.0789	0.066195	0.001991	33.254	97.723	-166.221	-0.017825	0.337368	-0.768898	-0.770174	0.031081	33.254	-0.769598	-1.737187E+10	-1.789155E-12	NaN
273	1.000000	0.380644	7.36773e+06	-52289.1	955.819	-29749.9	0.000000	0.000000	6.380872	0.059785	NaN	0.000000	0.001700	0.001687	28.0789	0.048797	0.002008	24.2985	-16.6577	16.7579	0.049073	0.379316	-0.726898	-0.728226	0.059785	24.2985	-0.728743	-4.827021E+9	-1.238547E-11	NaN
273	1.000000	0.422650	7.36773e+06	-52289.1	955.819	-29749.9	0.000000	0.000000	6.422875	-0.016257	NaN	0.000000	0.001769	0.001658	28.0775	0.015687	0.001913	8.201211	72.2257	-166.607	-0.058089	0.421354	-0.684891	-0.686188	-0.016257	8.201211	-0.683405	-1.160815E+9	1.400510E-11	NaN
273	1.000000	0.464696	7.36773e+06	-52289.1	955.819	-29749.9	0.000000	0.000000	6.464924	0.059843	NaN	0.000000	0.001731	0.001657	28.0778	0.142919	0.002047	69.8294	32.5724	15.6782	0.058520	0.463360	-0.642846	-0.644182	0.059843	69.8294	-0.643489	-3.297247E+8	-1.814949E-10	NaN
273	1.000000	0.506755	7.36773e+06	-52289.1	955.818	-29749.9	0.000000	0.000000	6.506983	0.067240	NaN	0.000000	0.001774	0.001690	28.0778	0.076188	0.002073	36.7507	-43.7567	-165.099	-0.002414	0.505433	-0.600787	-0.602109	0.067240	36.7507	-0.602159	-8.916525E+7	-7.541109E-10	NaN
273	1.000000	0.548728	7.36773e+06	-52289.1	955.818	-29749.9	0.000000	0.000000	6.548955	0.027603	NaN	0.000000	0.001720	0.001661	28.0793	0.094133	0.002058	45.7459	100.146	14.9027	-0.072695	0.547383	-0.558814	-0.560158	0.027603	45.7459	-0.559266	-2.281520E+7	-1.209849E-9	NaN
273	1.000000	0.590761	7.36773e+06	-52289.1	955.818	-29749.9	0.000000	0.000000	6.590988	0.025641	NaN	0.000000	0.001692	0.001645	28.0791	0.056860	0.002117	26.864	-29.0879	-164.452	0.002022	0.589439	-0.516781	-0.518103	0.025641	26.864	-0.517497	-6.0086e+06	-4.267440E-9	NaN
273	1.000000	0.632765	7.36773e+06	-52289.1	955.819	-29749.9	0.000000	0.000000	6.632988	-0.058784	NaN	0.000000	0.001698	0.001650	28.0788	0.087667	0.001995	43.9539	-139.094	19.4377	0.064404	0.631405	-0.474777	-0.476137	-0.058784	43.9539	-0.473773	-1.47337e+06	3.989792E-8	NaN
273	1.000000	0.674794	7.36773e+06	-52289.1	955.818	-29749.9	0.000000	0.000000	6.675020	0.013321	NaN	0.000000	0.001745	0.001650	28.0772	0.069952	0.001948	35.9032	-163.755	-162.819	0.001638	0.673447	-0.432748	-0.434095	0.013321	35.9032	-0.433026	-393417	-3.385858E-8	NaN
273	1.000000	0.716805	7.36773e+06	-52289.1	955.819	-29749.9	0.000000	0.000000	6.717029	-0.030351	NaN	0.000000	0.001733	0.001672	28.0774	0.070420	0.001902	37.0187	160.556	13.483	-0.037844	0.715435	-0.390737	-0.392107	-0.030351	37.0187	-0.390122	-96585	3.142416E-7	NaN
273	1.000000	0.758796	7.36773e+06	-52289.1	955.818	-29749.9	0.000000	0.000000	6.759021	-0.005984	NaN	0.000000	0.001695	0.001657	28.0776	0.061766	0.001983	31.1466	81.3439	-168.222	0.065698	0.757507	-0.348746	-0.350035	-0.005984	31.1466	-0.348602	-24361.7	2.456492E-7	NaN
273	1.000000	0.800835	7.36773e+06	-52289.1	955.818	-29749.9	0.000000	0.000000	6.801059	-0.035867	NaN	0.000000	0.001677	0.001628	28.0787	0.041185	0.001947	21.1537	-139.872	13.6708	-0.030681	0.799466	-0.306707	-0.308076	-0.035867	21.1537	-0.305435	-5667.75	6.328218E-6	NaN
273	1.000000	0.842857	7.36773e+06	-52289.1	955.819	-29749.9	0.000000	0.000000	6.843083	0.012937	NaN	0.000000	0.001687	0.001683	28.0785	0.111030	0.002015	55.1037	-82.9536	-168.955	0.036809	0.841555	-0.264684	-0.265987	0.012937	55.1037	-0.264860	-1390.77	-9.302102E-6	NaN
273	1.000000	0.884851	7.36773e+06	-52289.1	955.819	-29749.9	0.000000	0.000000	6.885080	0.064594	NaN	0.000000	0.001662	0.001655	28.0787	0.047047	0.001970	23.8866	107.065	12.1242	-0.024067	0.883531	-0.222690	-0.224010	0.064594	23.8866	-0.224718	-330.264	-0.000196	NaN
273	1.000000	0.926893	7.36773e+06	-52289.1	955.819	-29749.9	0.000000	0.000000	6.927121	0.064385	NaN	0.000000	0.001770	0.001644	28.0786	0.127167	0.001991	63.8658	61.6833	-167.578	0.098898	0.925593	-0.180648	-0.181948	0.064385	63.8658	-0.181404	-64.4658	-0.000999	NaN
273	1.000000	0.968872	7.36773e+06	-52289.1	955.817	-29749.9	0.000000	0.000000	6.969097	-0.000306	NaN	0.000000	0.001778	0.001639	28.0776	0.096198	0.001914	50.2592	79.8073	10.8574	0.006031	0.967553	-0.138670	-0.139989	-0.000306	50.2592	-0.138665	-11.1645	2.743737E-5	NaN
273	1.000000	1.010924	7.36773e+06	-52289.1	955.816	-29749.9	0.000000	0.000000	7.011151	0.028308	NaN	0.000000	0.001747	0.001619	28.0775	0.107237	0.001917	55.9368	106.056	-172.148	0.100049	1.009597	-0.096618	-0.097944	0.028308	55.9368	-0.096997	-1.565563	-0.018082	NaN
273	1.000000	1.052958	7.36773e+06	-52289.1	955.817	-29749.9	0.000000	0.000000	7.053183	-0.003701	NaN	0.000000	0.001723	0.001646	28.0775	0.049086	0.002008	24.4419	-118.171	13.1692	0.048306	1.051534	-0.054584	-0.056008	-0.003701	24.4419	-0.054470	-0.124213	0.029796	NaN
273	1.000000	1.094962	7.36773e+06	-52289.1	955.818	-29749.9	0.000000	0.000000	7.095186	-0.023573	NaN	0.000000	0.001722	0.001630	28.0787	0.018117	0.001955	9.268046	36.0832	-168.154	0.016407	1.093700	-0.012580	-0.013842	-0.023573	9.268046	-0.010672	-0.006771	3.481390	NaN
273	2.000000	1.121108	7.36773e+06	-52289.1	955.818	-29749.9	0.000000	0.000000	7.121952	15.034	NaN	0.000000	0.001701	0.001637	28.0787	14.0329	0.001838	7635.44	8.060226	4.900650	13.8418	1.120783	0.013567	0.013241	15.034	7635.44	0.012090	0.011598	1296.25	64776.2
273	2.000000	1.131555	7.36773e+06	-52289.1	955.818	-29749.9	0.000000	0.000000	7.133363	38.4723	NaN	0.000000	0.001683	0.001652	28.0786	24.8953	0.001760	14142.8	4.959532	-178.675	38.4263	1.131239	0.024013	0.023697	38.4723	14142.8	0.021973	0.025738	1494.74	80541
273	2.000000	1.142038	7.36773e+06	-52289.1	955.817	-29749.9	0.000000	0.000000	7.144942	65.1286	NaN	0.000000	0.001718	0.001634	28.0777	34.6601	0.001664	20830.5	7.245205	-5.885359	62.3016	1.141736	0.034496	0.034195	65.1286	20830.5	0.032151	0.045320	1437.08	89398
273	2.000000	1.152482	7.36773e+06	-52289.1	955.817	-29749.9	0.000000	0.000000	7.157230	109.954	NaN	0.000000	0.001688	0.001643	28.0787	44.4591	0.001680	26464.6	6.122784	174.643	108.602	1.152151	0.044940	0.044609	109.954	26464.6	0.041824	0.068828	1597.53	92163.3
273	2.000000	1.162987	7.36773e+06	-52289.1	955.818	-29749.9	0.000000	0.000000	7.169437	151.344	NaN	0.000000	0.001741	0.001645	28.0774	54.7237	0.001767	30967.5	3.780857	-4.613423	149.504	1.162765	0.055446	0.055224	151.344	30967.5	0.051780	0.097995	1544.41	90381
273	2.000000	1.173497	7.36773e+06	-52289.1	955.817	-29749.9	0.000000	0.000000	7.182297	208.496	NaN	0.000000	0.001714	0.001734	28.0785	66.6971	0.001949	34215.2	9.441663	170.51	207.341	1.173166	0.065955	0.065624	208.496	34215.2	0.061385	0.130820	1593.76	86427.9
273	2.000000	1.183975	7.36773e+06	-52289.1	955.818	-29749.9	0.000000	0.000000	7.195302	269.947	NaN	0.000000	0.001710	0.001640	28.0786	75.8615	0.001823	41621.6	5.513845	-8.084094	268.502	1.183676	0.076433	0.076134	269.947	41621.6	0.071569	0.170528	1583.01	92086.3
273	2.000000	1.194408	7.36773e+06	-52289.1	955.818	-29749.9	0.000000	0.000000	7.208656	340.943	NaN	0.000000	0.001734	0.001604	28.0785	85.6662	0.001722	49744.4	5.901211	169.895	335.884	1.194176	0.086866	0.086634	340.943	49744.4	0.081726	0.215031	1585.55	98009.2
273	2.000000	1.204946	7.36773e+06	-52289.1	955.821	-29749.9	0.000000	0.000000	7.222629	424.48	NaN	0.000000	0.001675	0.001590	28.0786	96.0343	0.001799	53389.9	6.428485	-11.2158	420.764	1.204488	0.097405	0.096946	424.48	53389.9	0.091442	0.262086	1619.62	95282
273	2.000000	1.214362	7.36773e+06	-52289.1	955.82	-29749.9	0.000000	0.000000	7.234821	491.976	NaN	0.000000	0.001716	0.001624	28.0772	103.697	0.001732	59876.4	0.736944	173.589	485.062	1.214100	0.106820	0.106558	491.976	59876.4	0.100658	0.310720	1583.34	98139.7