File: remote_trans/data/nanoindenter/0828-1/data/Data_2025-08-06,11h17m57s/2025-07-22_16-23-58_1_505.txt
2025-07-22, 16:23:58, 1
Index	Phase	Displacement	Time	Pos X	Pos Y	Pos Z	Rot A	Rot B	Piezo Z	Force A	Force B	Gripper	Voltage A	Voltage B	Temperature	Amplitude force	Amplitude pos	Stiffness	Phase shift	Phase excitation	Force A raw	Displacement raw	HMax	HMax raw	Real Force	Real Stiffness	Contact Depth	Area	Hardness	Reduced Mod.
[#]	[#]	[um]	[s]	[um]	[um]	[um]	[m°]	[m°]	[um]	[uN]	[uN]	[V]	[V]	[V]	[°C]	[uN]	[um]	[N/m]	[°]	[°]	[uN]	[um]	[um]	[um]	[uN]	[N/m]	[um]	[um^2]	[MPa]	[MPa]
505	1.000000	0.002082	7.36999e+06	-51839.1	1005.82	-29751	0.000000	0.000000	6.002792	0.112311	NaN	0.000000	0.001554	0.001724	28.0827	0.087451	0.000921	94.9935	-68.0714	-170.137	0.078973	0.000794	-1.136569	-1.137857	0.112311	94.9935	-1.137456	-1.594486E+15	-7.043722E-17	NaN
505	1.000000	0.044029	7.36999e+06	-51839.1	1005.82	-29751	0.000000	0.000000	6.044735	0.021270	NaN	0.000000	0.001516	0.001755	28.0828	0.051318	0.002006	25.5799	-92.778	13.4131	0.036064	0.042675	-1.094622	-1.095976	0.021270	25.5799	-1.095246	-4.327544E+14	-4.915077E-17	NaN
505	1.000000	0.086039	7.36999e+06	-51839.1	1005.82	-29751	0.000000	0.000000	6.086745	0.038305	NaN	0.000000	0.001561	0.001709	28.0829	0.018953	0.002145	8.837389	-154.131	-166.819	0.074095	0.084741	-1.052613	-1.053910	0.038305	8.837389	-1.055863	-1.280050E+14	-2.992452E-16	NaN
505	1.000000	0.128063	7.36999e+06	-51839.1	1005.82	-29751	0.000000	0.000000	6.128770	0.053213	NaN	0.000000	0.001556	0.001704	28.0815	0.052304	0.002144	24.3929	-131.616	14.9404	0.004313	0.126696	-1.010588	-1.011956	0.053213	24.3929	-1.012225	-3.313764E+13	-1.605826E-15	NaN
505	1.000000	0.170108	7.36999e+06	-51839.1	1005.82	-29751	0.000000	0.000000	6.170813	0.013892	NaN	0.000000	0.001539	0.001741	28.0814	0.075292	0.002026	37.1604	-102.199	-167.757	0.036856	0.168807	-0.968544	-0.969844	0.013892	37.1604	-0.968824	-8.626084E+12	-1.610433E-15	NaN
505	1.000000	0.212118	7.36999e+06	-51839.1	1005.82	-29751	0.000000	0.000000	6.212824	0.023670	NaN	0.000000	0.001565	0.001651	28.0816	0.120971	0.001979	61.1178	-162.934	15.0039	0.020618	0.210771	-0.926533	-0.927880	0.023670	61.1178	-0.926824	-2.340592E+12	-1.011273E-14	NaN
505	1.000000	0.254134	7.36999e+06	-51839.1	1005.82	-29751	0.000000	0.000000	6.254839	0.021207	NaN	0.000000	0.001585	0.001651	28.0825	0.121688	0.001984	61.3241	152.9	-169.676	-0.010226	0.252872	-0.884518	-0.885779	0.021207	61.3241	-0.884777	-6.328563E+11	-3.351024E-14	NaN
505	1.000000	0.296154	7.36999e+06	-51839.1	1005.82	-29751	0.000000	0.000000	6.296856	-0.061204	NaN	0.000000	0.001552	0.001701	28.0823	0.016523	0.001981	8.339585	31.3252	11.5357	-0.033950	0.294744	-0.842498	-0.843907	-0.061204	8.339585	-0.836993	-1.427439E+11	4.287683E-13	NaN
505	1.000000	0.338158	7.36999e+06	-51839.1	1005.82	-29751	0.000000	0.000000	6.338861	-0.045597	NaN	0.000000	0.001553	0.001697	28.0823	0.031076	0.001972	15.7605	-102.381	-164.761	-0.046888	0.336852	-0.800494	-0.801800	-0.045597	15.7605	-0.798324	-4.266871E+10	1.068631E-12	NaN
505	1.000000	0.380159	7.36999e+06	-51839.1	1005.82	-29751	0.000000	0.000000	6.380865	0.032006	NaN	0.000000	0.001540	0.001674	28.0813	0.026779	0.002153	12.4395	137.568	13.4033	-0.036855	0.378768	-0.758492	-0.759884	0.032006	12.4395	-0.760422	-1.303296E+10	-2.455775E-12	NaN
505	1.000000	0.422220	7.36999e+06	-51839.1	1005.82	-29751	0.000000	0.000000	6.422922	-0.080422	NaN	0.000000	0.001567	0.001680	28.0821	0.074755	0.001970	37.9402	-50.6208	-163.232	0.086565	0.420890	-0.716431	-0.717761	-0.080422	37.9402	-0.714841	-3.119655E+9	2.577901E-11	NaN
505	1.000000	0.464232	7.36999e+06	-51839.1	1005.82	-29751	0.000000	0.000000	6.464941	0.079661	NaN	0.000000	0.001568	0.001675	28.0812	0.035777	0.002037	17.5637	-116.571	13.9429	0.032978	0.462865	-0.674419	-0.675787	0.079661	17.5637	-0.677821	-9.736345E+8	-8.181805E-11	NaN
505	1.000000	0.506232	7.36999e+06	-51839.1	1005.82	-29751	0.000000	0.000000	6.506936	-0.030050	NaN	0.000000	0.001521	0.001704	28.0812	0.019855	0.001951	10.1792	-123.842	-163.152	-0.019260	0.504914	-0.632419	-0.633737	-0.030050	10.1792	-0.630205	-2.166925E+8	1.386743E-10	NaN
505	1.000000	0.548241	7.36999e+06	-51839.1	1005.82	-29751	0.000000	0.000000	6.548946	0.002149	NaN	0.000000	0.001574	0.001718	28.0829	0.077094	0.001941	39.7232	143.964	16.1145	-0.005562	0.546865	-0.590410	-0.591786	0.002149	39.7232	-0.590451	-6.150062E+7	-3.495079E-11	NaN
505	1.000000	0.590253	7.36999e+06	-51839.1	1005.82	-29751	0.000000	0.000000	6.590959	0.016322	NaN	0.000000	0.001526	0.001706	28.0827	0.049838	0.002042	24.4035	12.5909	-167.221	0.015419	0.588912	-0.548398	-0.549739	0.016322	24.4035	-0.548899	-1.639500E+7	-9.955332E-10	NaN
505	1.000000	0.632277	7.36999e+06	-51839.1	1005.82	-29751	0.000000	0.000000	6.632982	0.007154	NaN	0.000000	0.001531	0.001698	28.0827	0.032706	0.001928	16.9618	104.524	13.3008	0.083184	0.630936	-0.506374	-0.507715	0.007154	16.9618	-0.506691	-4.24922e+06	-1.683664E-9	NaN
505	1.000000	0.674313	7.36999e+06	-51839.1	1005.82	-29751	0.000000	0.000000	6.675018	0.004256	NaN	0.000000	0.001559	0.001690	28.0811	0.051844	0.002007	25.8302	-173.615	-167.177	0.085887	0.672999	-0.464338	-0.465652	0.004256	25.8302	-0.464462	-1.09067e+06	-3.902279E-9	NaN
505	1.000000	0.716323	7.36999e+06	-51839.1	1005.82	-29751	0.000000	0.000000	6.717029	0.025599	NaN	0.000000	0.001541	0.001632	28.0813	0.128502	0.002013	63.835	176.004	15.0548	0.015156	0.714986	-0.422329	-0.423665	0.025599	63.835	-0.422630	-280347	-9.131038E-8	NaN
505	1.000000	0.758355	7.36999e+06	-51839.1	1005.82	-29751	0.000000	0.000000	6.759063	0.062096	NaN	0.000000	0.001599	0.001669	28.0811	0.002616	0.001932	1.353915	-97.7511	-165.352	0.093626	0.757031	-0.380296	-0.381620	0.062096	1.353915	-0.414694	-216329	-2.870440E-7	NaN
505	1.000000	0.800368	7.37e+06	-51839.1	1005.82	-29751	0.000000	0.000000	6.801074	0.036169	NaN	0.000000	0.001568	0.001697	28.0826	0.038766	0.002004	19.3399	-57.2971	16.804	-0.014557	0.798969	-0.338283	-0.339682	0.036169	19.3399	-0.339686	-18070.8	-2.001508E-6	NaN
505	1.000000	0.842364	7.37e+06	-51839.1	1005.82	-29751	0.000000	0.000000	6.843069	-0.002567	NaN	0.000000	0.001533	0.001722	28.0826	0.055791	0.002003	27.847	152.572	-163.044	-0.075262	0.841076	-0.296287	-0.297575	-0.002567	27.847	-0.296218	-4133.02	6.209818E-7	NaN
505	1.000000	0.884424	7.37e+06	-51839.1	1005.82	-29751	0.000000	0.000000	6.885127	-0.057332	NaN	0.000000	0.001581	0.001681	28.0826	0.070028	0.002005	34.9233	-91.7579	12.3033	-0.068069	0.883048	-0.254227	-0.255604	-0.057332	34.9233	-0.252996	-914.613	6.268438E-5	NaN
505	1.000000	0.926418	7.37e+06	-51839.1	1005.82	-29751	0.000000	0.000000	6.927126	0.057853	NaN	0.000000	0.001554	0.001705	28.0816	0.032372	0.001979	16.3568	-91.4677	-166.249	0.057454	0.925041	-0.212233	-0.213611	0.057853	16.3568	-0.214886	-229.971	-0.000252	NaN
505	1.000000	0.968403	7.37e+06	-51839.1	1005.82	-29751	0.000000	0.000000	6.969112	0.104424	NaN	0.000000	0.001507	0.001708	28.0815	0.037166	0.002020	18.3967	36.4206	11.4111	0.055412	0.967088	-0.170249	-0.171564	0.104424	18.3967	-0.174506	-49.1455	-0.002125	NaN
505	1.000000	1.010430	7.37e+06	-51839.1	1005.82	-29751	0.000000	0.000000	7.011134	-0.008752	NaN	0.000000	0.001529	0.001715	28.0816	0.017017	0.001879	9.054757	178.37	-164.876	0.002696	1.009087	-0.128222	-0.129564	-0.008752	9.054757	-0.127497	-6.810261	0.001285	NaN
505	1.000000	1.052435	7.37e+06	-51839.1	1005.82	-29751	0.000000	0.000000	7.053140	-0.008619	NaN	0.000000	0.001581	0.001715	28.0818	0.053776	0.002023	26.5885	-12.9504	14.7705	0.014922	1.051081	-0.086216	-0.087570	-0.008619	26.5885	-0.085973	-0.867285	0.009938	NaN
505	1.000000	1.094460	7.37e+06	-51839.1	1005.82	-29751	0.000000	0.000000	7.095164	-0.025668	NaN	0.000000	0.001559	0.001722	28.0828	0.073868	0.001952	37.8448	-146.151	-165.304	-0.103013	1.093140	-0.044191	-0.045511	-0.025668	37.8448	-0.043683	-0.058574	0.438216	NaN
505	1.000000	1.136493	7.37e+06	-51839.1	1005.82	-29751	0.000000	0.000000	7.137199	0.013168	NaN	0.000000	0.001542	0.001768	28.0831	0.085384	0.001941	43.9896	-0.661049	18.4209	0.022254	1.135134	-0.002158	-0.003517	0.013168	43.9896	-0.002383	-0.001703	-7.732557	NaN
505	2.000000	1.156005	7.37e+06	-51839.1	1005.82	-29751	0.000000	0.000000	7.157452	18.0544	NaN	0.000000	0.001540	0.001719	28.0829	16.087	0.001767	9105.04	3.703237	-173.541	17.4546	1.155701	0.017353	0.017050	18.0544	9105.04	0.015866	0.016458	1097.01	64843.8
505	2.000000	1.166481	7.37e+06	-51839.1	1005.82	-29751	0.000000	0.000000	7.168872	40.9956	NaN	0.000000	0.001551	0.001703	28.0818	26.9551	0.001743	15464.3	8.771860	-2.624344	40.2458	1.166086	0.027830	0.027435	40.9956	15464.3	0.025842	0.032565	1258.88	78293.7
505	2.000000	1.176955	7.37e+06	-51839.1	1005.82	-29751	0.000000	0.000000	7.180554	70.3681	NaN	0.000000	0.001531	0.001704	28.0817	37.9998	0.001771	21451.8	8.016248	175.261	69.5798	1.176667	0.038304	0.038016	70.3681	21451.8	0.035843	0.053728	1309.7	84554.2
505	2.000000	1.187488	7.37e+06	-51839.1	1005.82	-29751	0.000000	0.000000	7.192540	105.682	NaN	0.000000	0.001528	0.001723	28.0829	47.5535	0.001743	27287.8	5.398712	-4.119206	106.542	1.187071	0.048837	0.048419	105.682	27287.8	0.045932	0.080256	1316.81	88004.1
505	2.000000	1.198027	7.37e+06	-51839.1	1005.82	-29751	0.000000	0.000000	7.205021	152.938	NaN	0.000000	0.001514	0.001734	28.0826	59.5346	0.001837	32414.4	6.570614	173.361	152.316	1.197627	0.059375	0.058976	152.938	32414.4	0.055837	0.111304	1374.06	88767.9
505	2.000000	1.208392	7.37e+06	-51839.1	1005.82	-29751	0.000000	0.000000	7.217704	209.27	NaN	0.000000	0.001530	0.001739	28.0826	68.8348	0.001981	34754.9	0.776743	-2.064492	204.263	1.208050	0.069741	0.069399	209.27	34754.9	0.065225	0.145208	1441.18	83328.8
505	2.000000	1.218907	7.37e+06	-51839.1	1005.82	-29751	0.000000	0.000000	7.230706	269.77	NaN	0.000000	0.001596	0.001730	28.0827	77.5495	0.001723	45007.2	3.934690	172.976	268.638	1.218697	0.080255	0.080045	269.77	45007.2	0.075760	0.188304	1432.63	94759.9
505	2.000000	1.229250	7.37e+06	-51839.1	1005.82	-29751	0.000000	0.000000	7.244026	342.151	NaN	0.000000	0.001547	0.001722	28.0814	86.1183	0.001662	51811.9	1.873405	-6.548947	330.364	1.228955	0.090599	0.090303	342.151	51811.9	0.085646	0.233494	1465.36	97963.8
505	2.000000	1.239890	7.37e+06	-51839.1	1005.82	-29751	0.000000	0.000000	7.258329	431.211	NaN	0.000000	0.001513	0.001710	28.0813	96.5492	0.001676	57613.8	2.309810	172.227	430.355	1.239487	0.101239	0.100836	431.211	57613.8	0.095625	0.283682	1520.05	98828.9
505	2.000000	1.246842	7.37e+06	-51839.1	1005.82	-29751	0.000000	0.000000	7.267894	494.74	NaN	0.000000	0.001555	0.001753	28.0814	104.627	0.001761	59403.2	4.802138	169.387	491.628	1.246621	0.108191	0.107969	494.74	59403.2	0.101945	0.317817	1556.68	96270.8