File: remote_trans/data/nanoindenter/0828-1/data/Data_2025-08-06,11h17m57s/2025-07-22_16-23-58_1_1042.txt
2025-07-22, 16:23:58, 1
Index	Phase	Displacement	Time	Pos X	Pos Y	Pos Z	Rot A	Rot B	Piezo Z	Force A	Force B	Gripper	Voltage A	Voltage B	Temperature	Amplitude force	Amplitude pos	Stiffness	Phase shift	Phase excitation	Force A raw	Displacement raw	HMax	HMax raw	Real Force	Real Stiffness	Contact Depth	Area	Hardness	Reduced Mod.
[#]	[#]	[um]	[s]	[um]	[um]	[um]	[m°]	[m°]	[um]	[uN]	[uN]	[V]	[V]	[V]	[°C]	[uN]	[um]	[N/m]	[°]	[°]	[uN]	[um]	[um]	[um]	[uN]	[N/m]	[um]	[um^2]	[MPa]	[MPa]
1042	1.000000	0.001800	7.37524e+06	-52239.1	1055.82	-29749.7	0.000000	0.000000	6.002805	-0.040344	NaN	0.000000	0.001655	0.001637	28.084	0.048356	0.001126	42.9459	-81.9674	-155.893	0.007736	0.000534	-1.126043	-1.127310	-0.040344	42.9459	-1.125338	-1.096710E+15	3.678623E-17	NaN
1042	1.000000	0.043742	7.37524e+06	-52239.1	1055.82	-29749.7	0.000000	0.000000	6.044749	0.018422	NaN	0.000000	0.001627	0.001665	28.0839	0.071597	0.001969	36.3644	-57.7942	15.3144	-0.039815	0.042321	-1.084101	-1.085522	0.018422	36.3644	-1.084481	-3.102450E+14	-5.937981E-17	NaN
1042	1.000000	0.085758	7.37524e+06	-52239.1	1055.82	-29749.7	0.000000	0.000000	6.086767	0.066084	NaN	0.000000	0.001638	0.001663	28.0828	0.042213	0.001984	21.2798	-131.178	-166.041	0.014625	0.084451	-1.042085	-1.043392	0.066084	21.2798	-1.044414	-8.980921E+13	-7.358265E-16	NaN
1042	1.000000	0.127742	7.37524e+06	-52239.1	1055.82	-29749.7	0.000000	0.000000	6.128749	0.038976	NaN	0.000000	0.001628	0.001681	28.083	0.094050	0.002047	45.9475	-142.061	13.9546	-0.004414	0.126415	-1.000101	-1.001428	0.038976	45.9475	-1.000738	-2.321133E+13	-1.679173E-15	NaN
1042	1.000000	0.169795	7.37524e+06	-52239.1	1055.82	-29749.7	0.000000	0.000000	6.170798	-0.079346	NaN	0.000000	0.001648	0.001740	28.0834	0.051950	0.001989	26.1128	-170.739	-163.887	-0.100773	0.168428	-0.958048	-0.959415	-0.079346	26.1128	-0.955769	-5.752008E+12	1.379454E-14	NaN
1042	1.000000	0.211778	7.37524e+06	-52239.1	1055.82	-29749.7	0.000000	0.000000	6.212786	0.035112	NaN	0.000000	0.001654	0.001734	28.0845	0.016291	0.002057	7.919852	22.0801	15.3545	0.067492	0.210460	-0.916065	-0.917383	0.035112	7.919852	-0.919390	-1.857668E+12	-1.890138E-14	NaN
1042	1.000000	0.253817	7.37524e+06	-52239.1	1055.82	-29749.7	0.000000	0.000000	6.254827	0.086483	NaN	0.000000	0.001661	0.001695	28.0846	0.082862	0.001923	43.0962	-149.488	-165.054	0.115209	0.252540	-0.874026	-0.875303	0.086483	43.0962	-0.875531	-4.745343E+11	-1.822484E-13	NaN
1042	1.000000	0.295851	7.37524e+06	-52239.1	1055.82	-29749.7	0.000000	0.000000	6.296856	-0.032926	NaN	0.000000	0.001667	0.001718	28.0845	0.042982	0.002107	20.3993	-26.9052	17.7936	0.027038	0.294463	-0.831992	-0.833380	-0.032926	20.3993	-0.830781	-1.175905E+11	2.800048E-13	NaN
1042	1.000000	0.337864	7.37524e+06	-52239.1	1055.82	-29749.7	0.000000	0.000000	6.338872	0.045472	NaN	0.000000	0.001716	0.001709	28.0847	0.064582	0.002048	31.5277	156.419	-166.626	0.117262	0.336532	-0.789979	-0.791311	0.045472	31.5277	-0.791061	-3.400093E+10	-1.337368E-12	NaN
1042	1.000000	0.379887	7.37524e+06	-52239.1	1055.82	-29749.7	0.000000	0.000000	6.380894	0.020782	NaN	0.000000	0.001704	0.001667	28.0837	0.057380	0.002052	27.9573	-140.899	15.3945	-0.042964	0.378511	-0.747956	-0.749332	0.020782	27.9573	-0.748514	-8.973978E+9	-2.315811E-12	NaN
1042	1.000000	0.421880	7.37524e+06	-52239.1	1055.82	-29749.7	0.000000	0.000000	6.422887	0.021782	NaN	0.000000	0.001702	0.001686	28.0838	0.036403	0.002024	17.9847	60.4406	-166.039	-0.012999	0.420590	-0.705964	-0.707253	0.021782	17.9847	-0.706872	-2.428593E+9	-8.968819E-12	NaN
1042	1.000000	0.463920	7.37524e+06	-52239.1	1055.82	-29749.7	0.000000	0.000000	6.464925	-0.036812	NaN	0.000000	0.001663	0.001697	28.0835	0.020460	0.002071	9.878440	62.6991	18.797	0.005722	0.462565	-0.663923	-0.665278	-0.036812	9.878440	-0.661128	-5.753303E+8	6.398425E-11	NaN
1042	1.000000	0.505952	7.37524e+06	-52239.1	1055.82	-29749.7	0.000000	0.000000	6.506957	-0.024436	NaN	0.000000	0.001706	0.001669	28.085	0.030923	0.002029	15.2401	-44.9385	-166.904	0.003350	0.504658	-0.621891	-0.623185	-0.024436	15.2401	-0.620688	-1.603601E+8	1.523792E-10	NaN
1042	1.000000	0.547950	7.37524e+06	-52239.1	1055.82	-29749.7	0.000000	0.000000	6.548955	-0.009135	NaN	0.000000	0.001684	0.001629	28.0846	0.060654	0.002081	29.1527	-130.27	11.7378	-0.003515	0.546566	-0.579894	-0.581277	-0.009135	29.1527	-0.579659	-4.365286E+7	2.092754E-10	NaN
1042	1.000000	0.589968	7.37524e+06	-52239.1	1055.82	-29749.7	0.000000	0.000000	6.590974	-0.002593	NaN	0.000000	0.001662	0.001684	28.0846	0.012985	0.001995	6.509659	36.7817	-165.306	-0.071830	0.588694	-0.537875	-0.539149	-0.002593	6.509659	-0.537576	-1.142197E+7	2.270374E-10	NaN
1042	1.000000	0.632021	7.37524e+06	-52239.1	1055.82	-29749.7	0.000000	0.000000	6.633025	-0.043725	NaN	0.000000	0.001654	0.001646	28.0832	0.073917	0.002042	36.197	-143.037	16.3386	-0.093711	0.630639	-0.495822	-0.497205	-0.043725	36.197	-0.494916	-2.91117e+06	1.501961E-8	NaN
1042	1.000000	0.674011	7.37524e+06	-52239.1	1055.82	-29749.7	0.000000	0.000000	6.675015	-0.041215	NaN	0.000000	0.001780	0.001655	28.0833	0.173310	0.001948	88.9657	-27.2652	-163.436	-0.029972	0.672707	-0.453833	-0.455136	-0.041215	88.9657	-0.453485	-764546	5.390759E-8	NaN
1042	1.000000	0.716012	7.37524e+06	-52239.1	1055.82	-29749.7	0.000000	0.000000	6.717018	0.013793	NaN	0.000000	0.001737	0.001730	28.0836	0.085446	0.002042	41.8517	-144.361	13.2085	0.025362	0.714681	-0.411831	-0.413162	0.013793	41.8517	-0.412078	-198586	-6.945657E-8	NaN
1042	1.000000	0.758062	7.37524e+06	-52239.1	1055.82	-29749.7	0.000000	0.000000	6.759067	-0.024932	NaN	0.000000	0.001733	0.001684	28.0845	0.057772	0.001975	29.2524	-117.447	-162.958	0.071168	0.756763	-0.369781	-0.371080	-0.024932	29.2524	-0.369142	-48279.7	5.164017E-7	NaN
1042	1.000000	0.800073	7.37524e+06	-52239.1	1055.82	-29749.7	0.000000	0.000000	6.801077	-0.043159	NaN	0.000000	0.001734	0.001676	28.0849	0.039365	0.001840	21.3942	-7.786325	14.5518	-0.042606	0.798710	-0.327770	-0.329134	-0.043159	21.3942	-0.326257	-11497	3.753938E-6	NaN
1042	1.000000	0.842052	7.37524e+06	-52239.1	1055.82	-29749.7	0.000000	0.000000	6.843059	0.026252	NaN	0.000000	0.001706	0.001673	28.0848	0.122035	0.002002	60.9551	-8.900035	-166.716	0.054654	0.840727	-0.285791	-0.287116	0.026252	60.9551	-0.286114	-2917.49	-8.998248E-6	NaN
1042	1.000000	0.884106	7.37524e+06	-52239.1	1055.82	-29749.7	0.000000	0.000000	6.885109	-0.061850	NaN	0.000000	0.001649	0.001705	28.0851	0.065283	0.001898	34.394	-179.198	12.5819	-0.131667	0.882724	-0.243737	-0.245119	-0.061850	34.394	-0.242389	-626.347	9.874731E-5	NaN
1042	1.000000	0.926090	7.37524e+06	-52239.1	1055.82	-29749.7	0.000000	0.000000	6.927093	-0.071599	NaN	0.000000	0.001706	0.001646	28.0836	0.047240	0.001966	24.033	150.437	-163.574	-0.024360	0.924823	-0.201753	-0.203020	-0.071599	24.033	-0.199519	-129.356	0.000553	NaN
1042	1.000000	0.968118	7.37524e+06	-52239.1	1055.82	-29749.7	0.000000	0.000000	6.969123	-0.036483	NaN	0.000000	0.001607	0.001635	28.0838	0.162137	0.001923	84.2936	44.1798	13.0727	-0.041185	0.966750	-0.159725	-0.161093	-0.036483	84.2936	-0.159401	-26.7502	0.001364	NaN
1042	1.000000	1.010123	7.37524e+06	-52239.1	1055.82	-29749.7	0.000000	0.000000	7.011127	-0.040863	NaN	0.000000	0.001649	0.001653	28.0842	0.029355	0.001983	14.8018	-95.9366	-162.251	-0.088627	1.008832	-0.117720	-0.119011	-0.040863	14.8018	-0.115650	-3.939904	0.010372	NaN
1042	1.000000	1.052173	7.37524e+06	-52239.1	1055.82	-29749.7	0.000000	0.000000	7.053180	0.032704	NaN	0.000000	0.001666	0.001633	28.0852	0.115399	0.001981	58.2412	-75.1944	14.9479	0.031007	1.050793	-0.075670	-0.077050	0.032704	58.2412	-0.076091	-0.492776	-0.066368	NaN
1042	1.000000	1.094178	7.37524e+06	-52239.1	1055.82	-29749.7	0.000000	0.000000	7.095184	-0.005739	NaN	0.000000	0.001653	0.001637	28.085	0.070555	0.002119	33.3035	-151.436	-165.322	0.037507	1.092900	-0.033665	-0.034943	-0.005739	33.3035	-0.033536	-0.029017	0.197770	NaN
1042	2.000000	1.135258	7.37524e+06	-52239.1	1055.82	-29749.7	0.000000	0.000000	7.136608	8.352735	NaN	0.000000	0.001642	0.001641	28.0857	8.561909	0.001608	5325.03	7.077928	8.663871	7.798709	1.134660	0.007415	0.006817	8.352735	5325.03	0.006239	0.005293	1578.2	66874.8
1042	2.000000	1.145734	7.37524e+06	-52239.1	1055.82	-29749.7	0.000000	0.000000	7.147682	22.8925	NaN	0.000000	0.001665	0.001660	28.0839	19.4404	0.001792	10847.4	6.634235	-176.625	22.2094	1.145404	0.017891	0.017561	22.8925	10847.4	0.016308	0.017070	1341.12	75855.5
1042	2.000000	1.156158	7.37524e+06	-52239.1	1055.82	-29749.7	0.000000	0.000000	7.159141	48.0623	NaN	0.000000	0.001695	0.001690	28.0838	29.6913	0.001739	17073.4	5.388383	1.006161	45.1749	1.155785	0.028315	0.027942	48.0623	17073.4	0.026204	0.033243	1445.8	85554.9
1042	2.000000	1.166633	7.37524e+06	-52239.1	1055.82	-29749.7	0.000000	0.000000	7.170846	77.9768	NaN	0.000000	0.001721	0.001629	28.0836	39.9136	0.001823	21889.8	5.873424	177.112	74.6806	1.166407	0.038790	0.038564	77.9768	21889.8	0.036118	0.054381	1433.9	85761.5
1042	2.000000	1.177124	7.37524e+06	-52239.1	1055.82	-29749.7	0.000000	0.000000	7.183397	128.068	NaN	0.000000	0.001639	0.001640	28.0846	48.4138	0.001748	27689.2	3.028524	-1.013045	123.994	1.176702	0.049281	0.048859	128.068	27689.2	0.045812	0.079909	1602.67	89492.4
1042	2.000000	1.187643	7.37524e+06	-52239.1	1055.82	-29749.7	0.000000	0.000000	7.195682	171.002	NaN	0.000000	0.001729	0.001649	28.0849	59.4263	0.001751	33929	2.983155	178.03	170.885	1.187276	0.059800	0.059433	171.002	33929	0.056020	0.111923	1527.85	92658.3
1042	2.000000	1.198140	7.37524e+06	-52239.1	1055.82	-29749.7	0.000000	0.000000	7.208566	229.057	NaN	0.000000	0.001700	0.001632	28.0849	70.6907	0.001836	38510	4.045285	-4.618010	228.683	1.197855	0.070297	0.070012	229.057	38510	0.065836	0.147562	1552.27	91592.4
1042	2.000000	1.208613	7.37524e+06	-52239.1	1055.82	-29749.7	0.000000	0.000000	7.221707	293.9	NaN	0.000000	0.001657	0.001642	28.0855	81.1014	0.001786	45402.8	6.126609	171.983	292.548	1.208257	0.080770	0.080414	293.9	45402.8	0.075915	0.188980	1555.19	95421.8
1042	2.000000	1.219053	7.37524e+06	-52239.1	1055.82	-29749.7	0.000000	0.000000	7.235029	363.985	NaN	0.000000	0.001693	0.001650	28.084	90.2407	0.001823	49493.4	2.501953	-5.230064	359.533	1.218804	0.091210	0.090961	363.985	49493.4	0.085694	0.233724	1557.33	93533.8
1042	2.000000	1.229717	7.37524e+06	-52239.1	1055.82	-29749.7	0.000000	0.000000	7.248837	440.447	NaN	0.000000	0.001665	0.001667	28.084	99.5163	0.001740	57198.3	3.745463	173.009	448.931	1.229318	0.101874	0.101475	440.447	57198.3	0.096099	0.286177	1539.07	97687.5
1042	2.000000	1.233759	7.37524e+06	-52239.1	1055.82	-29749.7	0.000000	0.000000	7.254083	469.712	NaN	0.000000	0.001682	0.001674	28.0841	103.148	0.001706	60456.3	4.537088	172.176	480.653	1.233323	0.105916	0.105480	469.712	60456.3	0.100089	0.307607	1526.99	99590.3