File: remote_trans/data/nanoindenter/0828-1/data/Data_2025-08-06,11h17m57s/2025-07-22_16-23-58_1_73.txt
2025-07-22, 16:23:58, 1
Index	Phase	Displacement	Time	Pos X	Pos Y	Pos Z	Rot A	Rot B	Piezo Z	Force A	Force B	Gripper	Voltage A	Voltage B	Temperature	Amplitude force	Amplitude pos	Stiffness	Phase shift	Phase excitation	Force A raw	Displacement raw	HMax	HMax raw	Real Force	Real Stiffness	Contact Depth	Area	Hardness	Reduced Mod.
[#]	[#]	[um]	[s]	[um]	[um]	[um]	[m°]	[m°]	[um]	[uN]	[uN]	[V]	[V]	[V]	[°C]	[uN]	[um]	[N/m]	[°]	[°]	[uN]	[um]	[um]	[um]	[uN]	[N/m]	[um]	[um^2]	[MPa]	[MPa]
73	1.000000	0.002860	7.36576e+06	-42289.1	955.819	-29783.8	0.000000	0.000000	6.002809	0.045935	NaN	0.000000	0.001618	0.001650	28.0878	0.087269	0.000973	89.7086	174.48	-165.957	-0.017770	0.001559	-1.003966	-1.005267	0.045935	89.7086	-1.004350	-2.596133E+13	-1.769355E-15	NaN
73	1.000000	0.040819	7.36576e+06	-42289.1	955.818	-29783.8	0.000000	0.000000	6.040767	0.037773	NaN	0.000000	0.001563	0.001667	28.1257	0.032607	0.002013	16.1946	44.0061	10.2224	0.008442	0.039439	-0.966006	-0.967386	0.037773	16.1946	-0.967756	-8.344810E+12	-4.526566E-15	NaN
73	1.000000	0.078816	7.36576e+06	-42289.1	955.818	-29783.8	0.000000	0.000000	6.078760	-0.055230	NaN	0.000000	0.001585	0.001709	28.1072	0.054234	0.001960	27.6674	-74.8238	-165.064	-0.030090	0.077521	-0.928010	-0.929305	-0.055230	27.6674	-0.926513	-2.318092E+12	2.382584E-14	NaN
73	1.000000	0.116847	7.36576e+06	-42289.1	955.819	-29783.8	0.000000	0.000000	6.116791	-0.069130	NaN	0.000000	0.001590	0.001689	28.081	0.054025	0.001984	27.2247	-158.48	15.669	-0.014172	0.115478	-0.889978	-0.891348	-0.069130	27.2247	-0.888074	-7.012598E+11	9.857974E-14	NaN
73	1.000000	0.154842	7.36576e+06	-42289.1	955.818	-29783.9	0.000000	0.000000	6.154787	-0.033253	NaN	0.000000	0.001639	0.001643	28.088	0.064707	0.001975	32.7667	153.869	-162.395	0.083219	0.153564	-0.851984	-0.853262	-0.033253	32.7667	-0.851223	-2.224833E+11	1.494648E-13	NaN
73	1.000000	0.192871	7.36576e+06	-42289.1	955.818	-29783.9	0.000000	0.000000	6.192819	0.021166	NaN	0.000000	0.001641	0.001654	28.128	0.058971	0.002043	28.8607	84.541	16.8441	0.037708	0.191497	-0.813954	-0.815329	0.021166	28.8607	-0.814504	-7.074191E+10	-2.992038E-13	NaN
73	1.000000	0.230899	7.36576e+06	-42289.1	955.819	-29783.9	0.000000	0.000000	6.230846	-0.000261	NaN	0.000000	0.001550	0.001637	28.1065	0.039074	0.002155	18.1277	148.749	-162.497	-0.091079	0.229580	-0.775927	-0.777246	-0.000261	18.1277	-0.775916	-2.117034E+10	1.232782E-14	NaN
73	1.000000	0.268907	7.36576e+06	-42289.1	955.819	-29783.9	0.000000	0.000000	6.268852	-0.034593	NaN	0.000000	0.001530	0.001662	28.0797	0.073498	0.002060	35.6815	2.955168	16.2091	-0.011933	0.267544	-0.737918	-0.739282	-0.034593	35.6815	-0.737191	-6.292129E+9	5.497843E-12	NaN
73	1.000000	0.306917	7.36576e+06	-42289.1	955.818	-29783.9	0.000000	0.000000	6.306862	-0.033007	NaN	0.000000	0.001668	0.001695	28.0872	0.020217	0.001925	10.5	31.6762	-164.274	0.006565	0.305657	-0.699909	-0.701169	-0.033007	10.5	-0.697552	-1.811718E+9	1.821877E-11	NaN
73	1.000000	0.344943	7.36576e+06	-42289.1	955.819	-29783.9	0.000000	0.000000	6.344887	-0.065675	NaN	0.000000	0.001539	0.001680	28.1265	0.012758	0.001909	6.683203	150.332	17.1187	-0.070205	0.343597	-0.661882	-0.663229	-0.065675	6.683203	-0.654512	-4.669607E+8	1.406440E-10	NaN
73	1.000000	0.382946	7.36576e+06	-42289.1	955.818	-29783.9	0.000000	0.000000	6.382889	-0.078685	NaN	0.000000	0.001585	0.001677	28.1042	0.039044	0.001984	19.6754	-15.6868	-162.211	-0.019526	0.381622	-0.623880	-0.625204	-0.078685	19.6754	-0.620880	-1.613376E+8	4.877062E-10	NaN
73	1.000000	0.420973	7.36576e+06	-42289.1	955.818	-29783.9	0.000000	0.000000	6.420920	0.012231	NaN	0.000000	0.001608	0.001693	28.0805	0.093612	0.001922	48.7176	-123.402	17.0308	0.049325	0.419598	-0.585853	-0.587227	0.012231	48.7176	-0.586041	-5.346624E+7	-2.287668E-10	NaN
73	1.000000	0.458971	7.36576e+06	-42289.1	955.819	-29783.9	0.000000	0.000000	6.458916	-0.026875	NaN	0.000000	0.001655	0.001648	28.0885	0.100373	0.002046	49.0552	22.7517	-165.349	0.015881	0.457626	-0.547855	-0.549200	-0.026875	49.0552	-0.547444	-1.565114E+7	1.717115E-9	NaN
73	1.000000	0.496982	7.36576e+06	-42289.1	955.818	-29783.9	0.000000	0.000000	6.496931	0.050757	NaN	0.000000	0.001585	0.001677	28.1285	0.036119	0.002018	17.9003	-141.059	18.9324	0.020065	0.495659	-0.509844	-0.511167	0.050757	17.9003	-0.511971	-5.03337e+06	-1.008420E-8	NaN
73	1.000000	0.535003	7.36576e+06	-42289.1	955.819	-29783.9	0.000000	0.000000	6.534950	0.001597	NaN	0.000000	0.001592	0.001667	28.1026	0.113612	0.002148	52.891	-41.1189	-168.57	-0.107354	0.533701	-0.471823	-0.473125	0.001597	52.891	-0.471846	-1.38448e+06	-1.153600E-9	NaN
73	1.000000	0.573036	7.36576e+06	-42289.1	955.818	-29783.9	0.000000	0.000000	6.572979	-0.069116	NaN	0.000000	0.001559	0.001691	28.0791	0.050061	0.002109	23.7421	-125.933	17.9607	-0.046075	0.571677	-0.433790	-0.435149	-0.069116	23.7421	-0.431607	-375653	1.839877E-7	NaN
73	1.000000	0.611074	7.36576e+06	-42289.1	955.819	-29783.9	0.000000	0.000000	6.611022	0.049976	NaN	0.000000	0.001585	0.001690	28.088	0.060117	0.001960	30.6731	22.9728	-163.655	0.032396	0.609791	-0.395752	-0.397035	0.049976	30.6731	-0.396974	-121010	-4.129909E-7	NaN
73	1.000000	0.649078	7.36576e+06	-42289.1	955.818	-29783.9	0.000000	0.000000	6.649021	-0.074197	NaN	0.000000	0.001586	0.001718	28.1272	0.077025	0.002047	37.6263	-150.652	13.4607	-0.053311	0.647691	-0.357748	-0.359135	-0.074197	37.6263	-0.356269	-31468.4	2.357829E-6	NaN
73	1.000000	0.687059	7.36576e+06	-42289.1	955.818	-29783.9	0.000000	0.000000	6.687003	-0.070177	NaN	0.000000	0.001653	0.001708	28.1038	0.071868	0.002026	35.4787	27.6387	-165.364	0.004896	0.685802	-0.319767	-0.321024	-0.070177	35.4787	-0.318283	-8777.2	7.995370E-6	NaN
73	1.000000	0.725065	7.36576e+06	-42289.1	955.818	-29783.9	0.000000	0.000000	6.725011	-0.005364	NaN	0.000000	0.001549	0.001696	28.0814	0.089786	0.001945	46.1553	98.0853	17.1661	0.043890	0.723723	-0.281761	-0.283103	-0.005364	46.1553	-0.281674	-2501.55	2.144212E-6	NaN
73	1.000000	0.763116	7.36576e+06	-42289.1	955.818	-29783.9	0.000000	0.000000	6.763062	-0.005879	NaN	0.000000	0.001577	0.001681	28.0901	0.091654	0.001966	46.6294	160.411	-161.264	-0.023767	0.761780	-0.243710	-0.245046	-0.005879	46.6294	-0.243615	-654.511	8.981606E-6	NaN
73	1.000000	0.801138	7.36576e+06	-42289.1	955.819	-29783.9	0.000000	0.000000	6.801084	-0.028429	NaN	0.000000	0.001587	0.001674	28.1277	0.018244	0.001947	9.370678	-72.7641	15.9539	0.000290	0.799780	-0.205688	-0.207045	-0.028429	9.370678	-0.203412	-149.841	0.000190	NaN
73	1.000000	0.839110	7.36576e+06	-42289.1	955.819	-29783.9	0.000000	0.000000	6.839057	0.021728	NaN	0.000000	0.001580	0.001628	28.1011	0.044336	0.001972	22.4778	113.149	-167.659	0.018712	0.837838	-0.167716	-0.168988	0.021728	22.4778	-0.168441	-38.5916	-0.000563	NaN
73	1.000000	0.877147	7.36576e+06	-42289.1	955.819	-29783.9	0.000000	0.000000	6.877096	0.038601	NaN	0.000000	0.001572	0.001614	28.0792	0.059909	0.001972	30.387	-122.133	14.0743	0.048597	0.875753	-0.129678	-0.131073	0.038601	30.387	-0.130631	-7.838873	-0.004924	NaN
73	1.000000	0.915134	7.36576e+06	-42289.1	955.819	-29783.9	0.000000	0.000000	6.915081	0.024296	NaN	0.000000	0.001628	0.001671	28.0895	0.090809	0.002027	44.7959	-138.638	-164.641	0.004583	0.913865	-0.091692	-0.092961	0.024296	44.7959	-0.092099	-1.209911	-0.020081	NaN
73	1.000000	0.953173	7.36576e+06	-42289.1	955.819	-29783.9	0.000000	0.000000	6.953119	-0.008483	NaN	0.000000	0.001621	0.001653	28.1281	0.072308	0.001953	37.0288	-7.008761	13.2144	-0.011900	0.951806	-0.053653	-0.055020	-0.008483	37.0288	-0.053481	-0.116082	0.073082	NaN
73	1.000000	0.991200	7.36576e+06	-42289.1	955.818	-29783.9	0.000000	0.000000	6.991147	0.011691	NaN	0.000000	0.001657	0.001696	28.1036	0.011799	0.001937	6.090360	-29.881	-164.341	0.000184	0.989910	-0.015626	-0.016916	0.011691	6.090360	-0.017066	-0.010553	-1.107903	NaN
73	2.000000	1.020215	7.36576e+06	-42289.1	955.819	-29783.9	0.000000	0.000000	7.020710	13.3409	NaN	0.000000	0.001653	0.001634	28.0793	13.3926	0.001873	7152.2	10.0661	5.118460	12.9107	1.019906	0.013389	0.013080	13.3409	7152.2	0.011990	0.011478	1162.28	60992.4
73	2.000000	1.029659	7.36576e+06	-42289.1	955.819	-29783.9	0.000000	0.000000	7.031145	37.4509	NaN	0.000000	0.001560	0.001640	28.0922	23.9928	0.001851	12958.9	6.040926	-177.163	35.6908	1.029347	0.022833	0.022522	37.4509	12958.9	0.020666	0.023599	1586.96	77071.4
73	2.000000	1.039118	7.36576e+06	-42289.1	955.818	-29783.9	0.000000	0.000000	7.041394	56.6773	NaN	0.000000	0.001566	0.001612	28.1273	33.1024	0.001822	18172.9	9.486132	-4.446326	54.717	1.038867	0.032293	0.032042	56.6773	18172.9	0.029954	0.040648	1394.36	82353.1
73	2.000000	1.048621	7.36576e+06	-42289.1	955.819	-29783.9	0.000000	0.000000	7.052290	90.5859	NaN	0.000000	0.001562	0.001608	28.1015	41.1957	0.001744	23621.6	4.257314	177.886	89.8089	1.048329	0.041795	0.041503	90.5859	23621.6	0.038919	0.061264	1478.61	87192.7
73	2.000000	1.058070	7.36576e+06	-42289.1	955.819	-29783.9	0.000000	0.000000	7.063082	123.237	NaN	0.000000	0.001563	0.001623	28.0822	50.1681	0.001876	26740.5	3.330591	-0.594176	121.118	1.057746	0.051245	0.050920	123.237	26740.5	0.047788	0.085699	1438.02	83455.5
73	2.000000	1.067532	7.36576e+06	-42289.1	955.82	-29783.9	0.000000	0.000000	7.074293	165.8	NaN	0.000000	0.001592	0.001610	28.0946	57.9083	0.001934	29944.7	-0.085614	-179.105	161.386	1.067254	0.060706	0.060428	165.8	29944.7	0.056554	0.113741	1457.7	81121.5
73	2.000000	1.077041	7.36576e+06	-42289.1	955.819	-29783.9	0.000000	0.000000	7.085964	218.404	NaN	0.000000	0.001594	0.001630	28.1303	66.8616	0.001785	37453.1	4.989070	-6.182029	213.56	1.076774	0.070215	0.069949	218.404	37453.1	0.065841	0.147584	1479.87	89072.1
73	2.000000	1.086576	7.36576e+06	-42289.1	955.819	-29783.9	0.000000	0.000000	7.097885	276.459	NaN	0.000000	0.001573	0.001684	28.1024	77.9318	0.001871	41645.8	7.125408	171.806	275.563	1.086187	0.079750	0.079362	276.459	41645.8	0.074771	0.184037	1502.2	88693.6
73	2.000000	1.096025	7.36576e+06	-42289.1	955.82	-29783.9	0.000000	0.000000	7.110005	341.452	NaN	0.000000	0.001561	0.001610	28.0809	83.8479	0.001795	46717.7	1.232528	-3.759974	334.397	1.095655	0.089199	0.088830	341.452	46717.7	0.083717	0.224322	1522.16	90119.7
73	2.000000	1.105547	7.36576e+06	-42289.1	955.82	-29783.9	0.000000	0.000000	7.122341	409.918	NaN	0.000000	0.001569	0.001596	28.0935	92.6633	0.001713	54099.9	3.472903	173.538	408.986	1.105094	0.098721	0.098268	409.918	54099.9	0.093038	0.270233	1516.91	95082.4
73	2.000000	1.115003	7.36576e+06	-42289.1	955.821	-29783.9	0.000000	0.000000	7.134690	480.306	NaN	0.000000	0.001636	0.001637	28.1291	102.174	0.001861	54909.6	3.214192	-6.402257	476.411	1.114668	0.108178	0.107842	480.306	54909.6	0.101617	0.316004	1519.94	89243.2
73	2.000000	1.115557	7.36576e+06	-42289.1	955.821	-29783.9	0.000000	0.000000	7.135382	483.674	NaN	0.000000	0.001625	0.001643	28.0927	102.066	0.001822	56031.1	2.460260	174.212	483.269	1.115169	0.108731	0.108343	483.674	56031.1	0.102257	0.319551	1513.61	90559.2