File: remote_trans/data/nanoindenter/0828-1/data/Data_2025-08-06,11h17m57s/2025-07-22_16-23-58_1_231.txt
2025-07-22, 16:23:58, 1
Index	Phase	Displacement	Time	Pos X	Pos Y	Pos Z	Rot A	Rot B	Piezo Z	Force A	Force B	Gripper	Voltage A	Voltage B	Temperature	Amplitude force	Amplitude pos	Stiffness	Phase shift	Phase excitation	Force A raw	Displacement raw	HMax	HMax raw	Real Force	Real Stiffness	Contact Depth	Area	Hardness	Reduced Mod.
[#]	[#]	[um]	[s]	[um]	[um]	[um]	[m°]	[m°]	[um]	[uN]	[uN]	[V]	[V]	[V]	[°C]	[uN]	[um]	[N/m]	[°]	[°]	[uN]	[um]	[um]	[um]	[uN]	[N/m]	[um]	[um^2]	[MPa]	[MPa]
231	1.000000	0.002041	7.3673e+06	-50189.1	955.818	-29756.9	0.000000	0.000000	6.002802	0.012703	NaN	0.000000	0.001648	0.001710	28.0763	0.012629	0.000827	15.279	-156.607	-165.761	0.020998	0.000776	-1.008240	-1.009504	0.012703	15.279	-1.008863	-2.985959E+13	-4.254386E-16	NaN
231	1.000000	0.041988	7.3673e+06	-50189.1	955.818	-29756.9	0.000000	0.000000	6.042750	0.016083	NaN	0.000000	0.001620	0.001650	28.0767	0.027053	0.002006	13.4866	-144.62	-163.608	0.051965	0.040700	-0.968293	-0.969581	0.016083	13.4866	-0.969187	-8.723815E+12	-1.843619E-15	NaN
231	1.000000	0.082008	7.3673e+06	-50189.1	955.819	-29756.9	0.000000	0.000000	6.082771	0.067732	NaN	0.000000	0.001649	0.001703	28.0765	0.016358	0.001966	8.319480	-156.58	-166.399	0.129118	0.080673	-0.928273	-0.929608	0.067732	8.319480	-0.934379	-2.960021E+12	-2.288237E-14	NaN
231	1.000000	0.122004	7.36731e+06	-50189.1	955.819	-29756.9	0.000000	0.000000	6.122762	-0.044336	NaN	0.000000	0.001633	0.001659	28.0766	0.087218	0.001804	48.355	81.9165	-163.205	-0.021119	0.120770	-0.888277	-0.889511	-0.044336	48.355	-0.887590	-6.907641E+11	6.418453E-14	NaN
231	1.000000	0.162032	7.36731e+06	-50189.1	955.818	-29756.9	0.000000	0.000000	6.162793	0.014548	NaN	0.000000	0.001625	0.001668	28.0778	0.068419	0.002036	33.6083	-19.027	-164.678	-0.005514	0.160720	-0.848249	-0.849560	0.014548	33.6083	-0.848574	-2.048438E+11	-7.102235E-14	NaN
231	1.000000	0.202043	7.36731e+06	-50189.1	955.819	-29756.9	0.000000	0.000000	6.202803	-0.026223	NaN	0.000000	0.001701	0.001643	28.0776	0.019608	0.001936	10.1283	138.47	-162.372	-0.048988	0.200742	-0.808237	-0.809539	-0.026223	10.1283	-0.806296	-5.474022E+10	4.790459E-13	NaN
231	1.000000	0.242065	7.36731e+06	-50189.1	955.818	-29756.9	0.000000	0.000000	6.242826	0.008646	NaN	0.000000	0.001731	0.001641	28.0777	0.100499	0.001892	53.1257	119.127	-165.392	0.077465	0.240764	-0.768216	-0.769517	0.008646	53.1257	-0.768338	-1.669968E+10	-5.177536E-13	NaN
231	1.000000	0.282078	7.36731e+06	-50189.1	955.82	-29756.9	0.000000	0.000000	6.282838	-0.025789	NaN	0.000000	0.001723	0.001650	28.0764	0.130186	0.002013	64.659	-67.261	-165.7	-0.024768	0.280830	-0.728203	-0.729451	-0.025789	64.659	-0.727904	-4.701505E+9	5.485341E-12	NaN
231	1.000000	0.322079	7.36731e+06	-50189.1	955.819	-29756.9	0.000000	0.000000	6.322841	0.035853	NaN	0.000000	0.001649	0.001660	28.0763	0.042495	0.001891	22.4762	120.713	-166.32	-0.002908	0.320847	-0.688202	-0.689434	0.035853	22.4762	-0.689398	-1.401820E+9	-2.557585E-11	NaN
231	1.000000	0.362135	7.36731e+06	-50189.1	955.818	-29756.9	0.000000	0.000000	6.362896	0.012309	NaN	0.000000	0.001682	0.001616	28.0768	0.044306	0.001863	23.7811	-11.1788	-167.571	0.032041	0.360825	-0.648146	-0.649455	0.012309	23.7811	-0.648534	-3.866719E+8	-3.183258E-11	NaN
231	1.000000	0.402116	7.36731e+06	-50189.1	955.818	-29756.9	0.000000	0.000000	6.402876	-0.019391	NaN	0.000000	0.001661	0.001663	28.0763	0.019169	0.001984	9.660685	88.8336	-165.815	0.033085	0.400797	-0.608165	-0.609484	-0.019391	9.660685	-0.606659	-1.028358E+8	1.885579E-10	NaN
231	1.000000	0.442144	7.36731e+06	-50189.1	955.818	-29756.9	0.000000	0.000000	6.442904	-0.017308	NaN	0.000000	0.001727	0.001669	28.0777	0.074113	0.002059	35.9861	158.295	-161.679	0.052200	0.440829	-0.568137	-0.569452	-0.017308	35.9861	-0.567776	-2.991609E+7	5.785469E-10	NaN
231	1.000000	0.482185	7.36731e+06	-50189.1	955.818	-29756.9	0.000000	0.000000	6.482943	-0.050425	NaN	0.000000	0.001751	0.001666	28.0776	0.095894	0.002061	46.528	176.57	-162.846	-0.059091	0.480897	-0.528096	-0.529384	-0.050425	46.528	-0.527283	-8.21934e+06	6.134861E-9	NaN
231	1.000000	0.522199	7.36731e+06	-50189.1	955.818	-29756.9	0.000000	0.000000	6.522959	-0.018517	NaN	0.000000	0.001745	0.001634	28.0778	0.052675	0.001981	26.5866	-106.822	-165.58	-0.010744	0.520875	-0.488081	-0.489406	-0.018517	26.5866	-0.487559	-2.2976e+06	8.059446E-9	NaN
231	1.000000	0.562190	7.36731e+06	-50189.1	955.819	-29756.9	0.000000	0.000000	6.562950	-0.015844	NaN	0.000000	0.001727	0.001635	28.0764	0.030720	0.001961	15.6653	-32.5229	-167.024	-0.053119	0.560923	-0.448091	-0.449358	-0.015844	15.6653	-0.447332	-626278	2.529810E-8	NaN
231	1.000000	0.602198	7.36731e+06	-50189.1	955.818	-29756.9	0.000000	0.000000	6.602959	0.006965	NaN	0.000000	0.001648	0.001627	28.0764	0.035244	0.002048	17.2112	43.2997	-165.938	-0.054465	0.600940	-0.408083	-0.409341	0.006965	17.2112	-0.408386	-175973	-3.957840E-8	NaN
231	1.000000	0.642215	7.36731e+06	-50189.1	955.819	-29756.9	0.000000	0.000000	6.642975	-0.030646	NaN	0.000000	0.001666	0.001630	28.0764	0.178283	0.001955	91.1726	-123.614	-163.142	-0.024939	0.640958	-0.368066	-0.369323	-0.030646	91.1726	-0.367814	-46198.5	6.633492E-7	NaN
231	1.000000	0.682294	7.36731e+06	-50189.1	955.818	-29756.9	0.000000	0.000000	6.683055	0.006727	NaN	0.000000	0.001684	0.001611	28.077	0.041896	0.001985	21.1036	108.073	-163.803	-0.003674	0.680925	-0.327986	-0.329356	0.006727	21.1036	-0.328226	-12287.2	-5.474983E-7	NaN
231	1.000000	0.722291	7.36731e+06	-50189.1	955.817	-29756.9	0.000000	0.000000	6.723050	-0.030933	NaN	0.000000	0.001633	0.001666	28.0778	0.031274	0.002081	15.0281	-123.498	-165.574	-0.045770	0.720942	-0.287990	-0.289339	-0.030933	15.0281	-0.286446	-2951.2	1.048161E-5	NaN
231	1.000000	0.762291	7.36731e+06	-50189.1	955.818	-29756.9	0.000000	0.000000	6.763051	-0.018652	NaN	0.000000	0.001676	0.001622	28.0778	0.032295	0.001984	16.2772	102.833	-166.275	-0.033779	0.760976	-0.247989	-0.249305	-0.018652	16.2772	-0.247130	-742.197	2.513100E-5	NaN
231	1.000000	0.802328	7.36731e+06	-50189.1	955.818	-29756.9	0.000000	0.000000	6.803091	0.059949	NaN	0.000000	0.001648	0.001553	28.0777	0.065740	0.001966	33.4305	87.9833	-164.15	-0.035519	0.801014	-0.207953	-0.209267	0.059949	33.4305	-0.209298	-186.827	-0.000321	NaN
231	1.000000	0.842318	7.36731e+06	-50189.1	955.819	-29756.9	0.000000	0.000000	6.843078	-0.030949	NaN	0.000000	0.001678	0.001569	28.0763	0.049323	0.002027	24.3286	-175.284	-166.334	-0.048305	0.841042	-0.167963	-0.169239	-0.030949	24.3286	-0.167009	-36.4331	0.000849	NaN
231	1.000000	0.882345	7.36731e+06	-50189.1	955.819	-29756.9	0.000000	0.000000	6.883105	-0.012088	NaN	0.000000	0.001668	0.001588	28.0764	0.028305	0.001958	14.4563	-169.885	-164.46	0.017949	0.881057	-0.127936	-0.129224	-0.012088	14.4563	-0.127309	-6.752806	0.001790	NaN
231	1.000000	0.922340	7.36731e+06	-50189.1	955.819	-29756.9	0.000000	0.000000	6.923100	-0.020790	NaN	0.000000	0.001689	0.001619	28.0764	0.088985	0.002002	44.4464	46.4465	-161.538	-0.032981	0.921076	-0.087941	-0.089204	-0.020790	44.4464	-0.087590	-0.948099	0.021929	NaN
231	1.000000	0.962376	7.36731e+06	-50189.1	955.818	-29756.9	0.000000	0.000000	6.963136	-0.028261	NaN	0.000000	0.001637	0.001586	28.0777	0.023560	0.001946	12.1055	-153.975	-165.626	-0.007463	0.961086	-0.047904	-0.049194	-0.028261	12.1055	-0.046154	-0.069703	0.405453	NaN
231	1.000000	1.002361	7.36731e+06	-50189.1	955.819	-29756.9	0.000000	0.000000	7.003124	0.041663	NaN	0.000000	0.001614	0.001606	28.0774	0.057651	0.001933	29.8293	102.998	-162.279	0.026824	1.001098	-0.007919	-0.009182	0.041663	29.8293	-0.008967	-0.005794	-7.190846	NaN
231	1.000000	1.042385	7.36731e+06	-50189.1	955.818	-29756.9	0.000000	0.000000	7.043461	7.670891	NaN	0.000000	0.001598	0.001683	28.0773	3.418294	0.001960	1744.32	13.5763	-166.838	7.088782	1.041126	0.032104	0.030845	7.670891	1744.32	0.028806	0.038305	200.26	8142.8
231	2.000000	1.055002	7.36731e+06	-50189.1	955.817	-29756.9	0.000000	0.000000	7.056095	8.063463	NaN	0.000000	0.001682	0.001588	28.0777	5.409851	0.001939	2790.54	13.846	-170.738	8.070703	1.054632	0.044722	0.044351	8.063463	2790.54	0.042554	0.070796	113.896	9581.98
231	2.000000	1.064950	7.36731e+06	-50189.1	955.819	-29756.9	0.000000	0.000000	7.066214	12.2474	NaN	0.000000	0.001688	0.001643	28.0766	9.325718	0.001935	4818.68	11.7381	-171.454	11.8209	1.064622	0.054669	0.054342	12.2474	4818.68	0.052763	0.101144	121.088	13843
231	2.000000	1.074956	7.36731e+06	-50189.1	955.818	-29756.9	0.000000	0.000000	7.076784	25.9742	NaN	0.000000	0.001728	0.001595	28.0765	17.5553	0.001889	9295.86	11.5283	-178.3	25.2826	1.074642	0.064675	0.064361	25.9742	9295.86	0.062579	0.135219	192.09	23096.4
231	2.000000	1.084896	7.36731e+06	-50189.1	955.818	-29756.9	0.000000	0.000000	7.088498	69.1083	NaN	0.000000	0.001724	0.001616	28.0777	27.993	0.001785	15679.9	7.672528	179.037	68.5268	1.084663	0.074615	0.074382	69.1083	15679.9	0.071309	0.169455	407.826	34800.7
231	2.000000	1.094899	7.36731e+06	-50189.1	955.819	-29756.9	0.000000	0.000000	7.101201	134.756	NaN	0.000000	0.001610	0.001606	28.0793	38.9924	0.001791	21774.4	5.583534	177.414	133.82	1.094668	0.084618	0.084387	134.756	21774.4	0.079977	0.207023	650.923	43723.1
231	2.000000	1.104835	7.36731e+06	-50189.1	955.818	-29756.9	0.000000	0.000000	7.114718	221.825	NaN	0.000000	0.001601	0.001641	28.0782	48.0646	0.001762	27282.7	5.229357	175.88	218.779	1.104535	0.094555	0.094254	221.825	27282.7	0.088457	0.247166	897.47	50137.8
231	2.000000	1.114719	7.36731e+06	-50189.1	955.818	-29756.9	0.000000	0.000000	7.129458	339.908	NaN	0.000000	0.001567	0.001584	28.078	55.1433	0.001823	30240.7	2.963232	177.521	333.21	1.114476	0.104439	0.104195	339.908	30240.7	0.096009	0.285702	1189.73	51690.3
231	2.000000	1.124768	7.36731e+06	-50189.1	955.82	-29756.9	0.000000	0.000000	7.144759	467.672	NaN	0.000000	0.001573	0.001621	28.0778	64.2246	0.001885	34066.4	3.819463	175.255	461.341	1.124455	0.114487	0.114174	467.672	34066.4	0.104191	0.330385	1415.54	54148.8
231	2.000000	1.134868	7.36731e+06	-50189.1	955.819	-29756.9	0.000000	0.000000	7.158555	557.527	NaN	0.000000	0.001590	0.001608	28.0764	70.8206	0.001817	38985	2.747447	174.848	556.07	1.134705	0.124587	0.124424	557.527	38985	0.113861	0.387117	1440.2	57246.5
231	2.000000	1.144399	7.36731e+06	-50189.1	955.82	-29756.9	0.000000	0.000000	7.172815	672.538	NaN	0.000000	0.001589	0.001585	28.0773	79.1932	0.001849	42837.4	4.591442	-7.427703	669.244	1.144147	0.134118	0.133866	672.538	42837.4	0.122343	0.440367	1527.22	58977.8