File: remote_trans/data/nanoindenter/0828-1/data/Data_2025-08-06,11h17m57s/2025-07-22_16-23-58_1_144.txt
2025-07-22, 16:23:58, 1
Index	Phase	Displacement	Time	Pos X	Pos Y	Pos Z	Rot A	Rot B	Piezo Z	Force A	Force B	Gripper	Voltage A	Voltage B	Temperature	Amplitude force	Amplitude pos	Stiffness	Phase shift	Phase excitation	Force A raw	Displacement raw	HMax	HMax raw	Real Force	Real Stiffness	Contact Depth	Area	Hardness	Reduced Mod.
[#]	[#]	[um]	[s]	[um]	[um]	[um]	[m°]	[m°]	[um]	[uN]	[uN]	[V]	[V]	[V]	[°C]	[uN]	[um]	[N/m]	[°]	[°]	[uN]	[um]	[um]	[um]	[uN]	[N/m]	[um]	[um^2]	[MPa]	[MPa]
144	1.000000	0.002815	7.36644e+06	-45839.1	955.819	-29771.6	0.000000	0.000000	6.002751	0.022596	NaN	0.000000	0.001598	0.001690	28.1321	0.054269	0.001009	53.8089	18.2501	178.678	0.004406	0.001606	-1.051172	-1.052381	0.022596	53.8089	-1.051487	-1.117899E+14	-2.021260E-16	NaN
144	1.000000	0.042758	7.36644e+06	-45839.1	955.818	-29771.6	0.000000	0.000000	6.042694	0.001549	NaN	0.000000	0.001563	0.001699	28.1302	0.031535	0.001883	16.7502	-160.493	179.765	0.013908	0.041460	-1.011229	-1.012527	0.001549	16.7502	-1.011298	-3.219959E+13	-4.811742E-17	NaN
144	1.000000	0.082774	7.36644e+06	-45839.1	955.818	-29771.6	0.000000	0.000000	6.082711	0.032844	NaN	0.000000	0.001559	0.001700	28.1313	0.110593	0.001873	59.0354	51.4114	177.063	0.013310	0.081379	-0.971213	-0.972607	0.032844	59.0354	-0.971630	-9.410950E+12	-3.489973E-15	NaN
144	1.000000	0.122783	7.36644e+06	-45839.1	955.819	-29771.6	0.000000	0.000000	6.122720	0.022321	NaN	0.000000	0.001583	0.001694	28.1303	0.094045	0.002043	46.0363	-148.298	174.805	-0.010458	0.121460	-0.931204	-0.932527	0.022321	46.0363	-0.931567	-2.712368E+12	-8.229157E-15	NaN
144	1.000000	0.162779	7.36644e+06	-45839.1	955.819	-29771.6	0.000000	0.000000	6.162713	-0.031811	NaN	0.000000	0.001600	0.001696	28.1303	0.048441	0.002079	23.3011	-78.2224	176.619	-0.066993	0.161463	-0.891208	-0.892524	-0.031811	23.3011	-0.890184	-7.488697E+11	4.247822E-14	NaN
144	1.000000	0.202832	7.36644e+06	-45839.1	955.819	-29771.6	0.000000	0.000000	6.202765	-0.071155	NaN	0.000000	0.001663	0.001696	28.129	0.102923	0.002027	50.7835	77.8792	174.014	-0.040075	0.201511	-0.851155	-0.852476	-0.071155	50.7835	-0.850104	-2.148537E+11	3.311804E-13	NaN
144	1.000000	0.242812	7.36644e+06	-45839.1	955.819	-29771.6	0.000000	0.000000	6.242746	-0.030359	NaN	0.000000	0.001658	0.001699	28.1302	0.079582	0.002024	39.3246	62.4451	177.076	0.009282	0.241478	-0.811175	-0.812509	-0.030359	39.3246	-0.810596	-6.261231E+10	4.848746E-13	NaN
144	1.000000	0.282852	7.36645e+06	-45839.1	955.818	-29771.6	0.000000	0.000000	6.282788	0.000870	NaN	0.000000	0.001662	0.001693	28.1307	0.074998	0.001958	38.3007	142.795	-178.902	0.007710	0.281544	-0.771135	-0.772443	0.000870	38.3007	-0.771152	-1.823746E+10	-4.768368E-14	NaN
144	1.000000	0.322851	7.36645e+06	-45839.1	955.818	-29771.6	0.000000	0.000000	6.322785	-0.042227	NaN	0.000000	0.001665	0.001707	28.1318	0.112848	0.002105	53.6106	90.1488	177.731	-0.029933	0.321536	-0.731136	-0.732451	-0.042227	53.6106	-0.730545	-5.107886E+9	8.267074E-12	NaN
144	1.000000	0.362862	7.36645e+06	-45839.1	955.818	-29771.6	0.000000	0.000000	6.362796	-0.030392	NaN	0.000000	0.001582	0.001753	28.1303	0.027983	0.001959	14.2838	-167.47	-179.862	-0.070483	0.361595	-0.691125	-0.692392	-0.030392	14.2838	-0.689529	-1.407618E+9	2.159096E-11	NaN
144	1.000000	0.402867	7.36645e+06	-45839.1	955.818	-29771.6	0.000000	0.000000	6.402804	0.032389	NaN	0.000000	0.001596	0.001697	28.1311	0.095136	0.002225	42.7493	-110.827	179.582	-0.085600	0.401592	-0.651119	-0.652395	0.032389	42.7493	-0.651688	-4.271410E+8	-7.582848E-11	NaN
144	1.000000	0.442908	7.36645e+06	-45839.1	955.819	-29771.6	0.000000	0.000000	6.442841	-0.067661	NaN	0.000000	0.001568	0.001678	28.1296	0.046615	0.002109	22.1003	-164.573	176.991	-0.035382	0.441597	-0.611079	-0.612389	-0.067661	22.1003	-0.608782	-1.099919E+8	6.151453E-10	NaN
144	1.000000	0.482925	7.36645e+06	-45839.1	955.818	-29771.6	0.000000	0.000000	6.482862	0.033461	NaN	0.000000	0.001587	0.001679	28.1306	0.026973	0.002018	13.365	118.029	175.921	0.040613	0.481613	-0.571062	-0.572374	0.033461	13.365	-0.572939	-3.525656E+7	-9.490715E-10	NaN
144	1.000000	0.522951	7.36645e+06	-45839.1	955.818	-29771.6	0.000000	0.000000	6.522885	-0.040548	NaN	0.000000	0.001563	0.001735	28.1293	0.011135	0.001970	5.653300	-58.4335	172.128	-0.040744	0.521651	-0.531036	-0.532336	-0.040548	5.653300	-0.525656	-7.80247e+06	5.196798E-9	NaN
144	1.000000	0.562959	7.36645e+06	-45839.1	955.818	-29771.6	0.000000	0.000000	6.562892	-0.051185	NaN	0.000000	0.001543	0.001731	28.1317	0.078787	0.002114	37.2605	-160.408	175.22	-0.023737	0.561647	-0.491028	-0.492340	-0.051185	37.2605	-0.489998	-2.48519e+06	2.059603E-8	NaN
144	1.000000	0.602985	7.36645e+06	-45839.1	955.818	-29771.6	0.000000	0.000000	6.602921	0.009716	NaN	0.000000	0.001592	0.001711	28.1305	0.066813	0.001989	33.599	-33.4043	176.133	0.029207	0.601638	-0.451002	-0.452349	0.009716	33.599	-0.451219	-710409	-1.367681E-8	NaN
144	1.000000	0.642990	7.36645e+06	-45839.1	955.818	-29771.6	0.000000	0.000000	6.642925	-0.010727	NaN	0.000000	0.001621	0.001700	28.1318	0.113102	0.001943	58.2065	-97.4108	177.951	-0.010552	0.641639	-0.410997	-0.412347	-0.010727	58.2065	-0.410859	-190816	5.621468E-8	NaN
144	1.000000	0.683014	7.36645e+06	-45839.1	955.818	-29771.6	0.000000	0.000000	6.682952	0.054558	NaN	0.000000	0.001607	0.001677	28.1291	0.050991	0.001960	26.0137	50.3783	177.59	0.042874	0.681689	-0.370973	-0.372298	0.054558	26.0137	-0.372546	-54047.9	-1.009440E-6	NaN
144	1.000000	0.723040	7.36645e+06	-45839.1	955.819	-29771.6	0.000000	0.000000	6.722976	0.011756	NaN	0.000000	0.001582	0.001682	28.1303	0.162038	0.001971	82.2297	-99.9817	170.742	-0.028756	0.721684	-0.330947	-0.332303	0.011756	82.2297	-0.331054	-13517	-8.696937E-7	NaN
144	1.000000	0.763031	7.36645e+06	-45839.1	955.818	-29771.6	0.000000	0.000000	6.762964	-0.044998	NaN	0.000000	0.001615	0.001652	28.1293	0.047057	0.001979	23.7759	8.154403	178.256	-0.026284	0.761702	-0.290956	-0.292285	-0.044998	23.7759	-0.289537	-3283.71	1.370347E-5	NaN
144	1.000000	0.803078	7.36645e+06	-45839.1	955.819	-29771.6	0.000000	0.000000	6.803012	-0.043238	NaN	0.000000	0.001624	0.001673	28.13	0.106524	0.001854	57.4502	-112.831	177.059	-0.021996	0.801776	-0.250909	-0.252211	-0.043238	57.4502	-0.250345	-832.331	5.194784E-5	NaN
144	1.000000	0.843089	7.36645e+06	-45839.1	955.818	-29771.6	0.000000	0.000000	6.843023	-0.023130	NaN	0.000000	0.001560	0.001686	28.13	0.008349	0.001998	4.178367	-130.348	174.268	-0.051777	0.841755	-0.210898	-0.212231	-0.023130	4.178367	-0.206747	-169.829	0.000136	NaN
144	1.000000	0.883093	7.36645e+06	-45839.1	955.818	-29771.6	0.000000	0.000000	6.883029	0.029815	NaN	0.000000	0.001592	0.001669	28.1313	0.015045	0.002018	7.455699	-175.358	-179.977	0.068540	0.881746	-0.170894	-0.172241	0.029815	7.455699	-0.173893	-47.9672	-0.000622	NaN
144	1.000000	0.923105	7.36645e+06	-45839.1	955.818	-29771.6	0.000000	0.000000	6.923042	0.034803	NaN	0.000000	0.001589	0.001658	28.1302	0.147883	0.001961	75.3983	-22.2299	173.872	0.091316	0.921820	-0.130882	-0.132167	0.034803	75.3983	-0.131228	-8.050432	-0.004323	NaN
144	1.000000	0.963136	7.36645e+06	-45839.1	955.819	-29771.6	0.000000	0.000000	6.963073	0.042337	NaN	0.000000	0.001612	0.001695	28.1306	0.123397	0.001920	64.2656	-139.614	176.824	0.033020	0.961794	-0.090851	-0.092193	0.042337	64.2656	-0.091345	-1.162110	-0.036431	NaN
144	1.000000	1.003170	7.36645e+06	-45839.1	955.819	-29771.6	0.000000	0.000000	7.003108	0.069003	NaN	0.000000	0.001665	0.001697	28.1291	0.102815	0.002070	49.6802	-66.1343	173.031	0.054175	1.001828	-0.050817	-0.052159	0.069003	49.6802	-0.051859	-0.103813	-0.664688	NaN
144	1.000000	1.043191	7.36645e+06	-45839.1	955.818	-29771.6	0.000000	0.000000	7.043129	0.071917	NaN	0.000000	0.001701	0.001690	28.13	0.015759	0.002138	7.369906	33.4997	176.458	0.080308	1.041828	-0.010796	-0.012159	0.071917	7.369906	-0.018115	-0.011239	-6.398642	NaN
144	2.000000	1.068724	7.36645e+06	-45839.1	955.818	-29771.6	0.000000	0.000000	7.069287	15.2604	NaN	0.000000	0.001696	0.001681	28.129	13.4704	0.001644	8191.28	3.894198	168.412	14.8018	1.068443	0.014737	0.014456	15.2604	8191.28	0.013340	0.013135	1161.84	65300.3
144	2.000000	1.078732	7.36645e+06	-45839.1	955.818	-29771.6	0.000000	0.000000	7.079950	31.1974	NaN	0.000000	0.001711	0.001742	28.1313	22.6093	0.001647	13724	4.031183	165.145	30.5224	1.078368	0.024745	0.024381	31.1974	13724	0.023040	0.027546	1132.56	75548.3
144	2.000000	1.088729	7.36645e+06	-45839.1	955.817	-29771.6	0.000000	0.000000	7.090813	52.2698	NaN	0.000000	0.001626	0.001703	28.13	32.2922	0.001714	18836.5	6.503137	159.949	53.3574	1.088436	0.034742	0.034449	52.2698	18836.5	0.032661	0.046440	1125.54	79859.8
144	2.000000	1.098637	7.36645e+06	-45839.1	955.819	-29771.6	0.000000	0.000000	7.101966	82.5483	NaN	0.000000	0.001660	0.001725	28.1309	41.3432	0.001743	23716.6	3.905714	160.176	80.0524	1.098365	0.044650	0.044378	82.5483	23716.6	0.042039	0.069405	1189.37	82249.1
144	2.000000	1.108730	7.36645e+06	-45839.1	955.819	-29771.6	0.000000	0.000000	7.113496	117.502	NaN	0.000000	0.001661	0.001691	28.1285	52.4905	0.001823	28796.3	3.808507	158.832	119.212	1.108306	0.054743	0.054319	117.502	28796.3	0.051683	0.097685	1202.87	84177.4
144	2.000000	1.118649	7.36645e+06	-45839.1	955.819	-29771.6	0.000000	0.000000	7.125159	159.931	NaN	0.000000	0.001675	0.001712	28.1297	61.5451	0.001893	32508.7	6.476872	154.604	158.931	1.118445	0.064662	0.064458	159.931	32508.7	0.060972	0.129318	1236.73	82593
144	2.000000	1.128729	7.36645e+06	-45839.1	955.819	-29771.6	0.000000	0.000000	7.137441	213.498	NaN	0.000000	0.001613	0.001730	28.1283	71.5687	0.001911	37451.1	5.962761	154.412	214.917	1.128295	0.074742	0.074308	213.498	37451.1	0.070466	0.165990	1286.21	83983.9
144	2.000000	1.138630	7.36645e+06	-45839.1	955.819	-29771.6	0.000000	0.000000	7.149230	259.44	NaN	0.000000	0.001562	0.001679	28.131	79.4251	0.001843	43092.7	3.730774	155.681	258.685	1.138289	0.084643	0.084302	259.44	43092.7	0.080127	0.207707	1249.07	86387.6
144	2.000000	1.148612	7.36645e+06	-45839.1	955.819	-29771.6	0.000000	0.000000	7.161552	316.361	NaN	0.000000	0.001532	0.001680	28.1299	88.8834	0.001799	49405.9	4.978693	152.813	315.497	1.148416	0.094625	0.094429	316.361	49405.9	0.089822	0.253942	1245.8	89574.6
144	2.000000	1.158635	7.36645e+06	-45839.1	955.82	-29771.6	0.000000	0.000000	7.174631	390.684	NaN	0.000000	0.001517	0.001696	28.1305	97.1747	0.001800	53985.4	4.128020	153.275	390.336	1.158353	0.104648	0.104366	390.684	53985.4	0.099221	0.302880	1289.89	89621.8
144	2.000000	1.162617	7.36645e+06	-45839.1	955.818	-29771.6	0.000000	0.000000	7.179811	419.825	NaN	0.000000	0.001524	0.001693	28.1295	101.04	0.001749	57769.6	6.342914	150.865	419.545	1.162084	0.108630	0.108097	419.825	57769.6	0.103180	0.324701	1292.96	92625.5