File: remote_trans/data/nanoindenter/0828-1/data/Data_2025-08-06,11h17m57s/2025-07-22_16-23-58_1_541.txt
2025-07-22, 16:23:58, 1
Index	Phase	Displacement	Time	Pos X	Pos Y	Pos Z	Rot A	Rot B	Piezo Z	Force A	Force B	Gripper	Voltage A	Voltage B	Temperature	Amplitude force	Amplitude pos	Stiffness	Phase shift	Phase excitation	Force A raw	Displacement raw	HMax	HMax raw	Real Force	Real Stiffness	Contact Depth	Area	Hardness	Reduced Mod.
[#]	[#]	[um]	[s]	[um]	[um]	[um]	[m°]	[m°]	[um]	[uN]	[uN]	[V]	[V]	[V]	[°C]	[uN]	[um]	[N/m]	[°]	[°]	[uN]	[um]	[um]	[um]	[uN]	[N/m]	[um]	[um^2]	[MPa]	[MPa]
541	1.000000	0.002735	7.37034e+06	-50039.1	1005.82	-29757	0.000000	0.000000	6.002812	-0.086788	NaN	0.000000	0.001694	0.001838	28.083	0.046133	0.001083	42.5801	133.203	-159.205	-0.104290	0.001471	-1.132861	-1.134125	-0.086788	42.5801	-1.131332	-1.319745E+15	6.576089E-17	NaN
541	1.000000	0.044678	7.37034e+06	-50039.1	1005.82	-29757	0.000000	0.000000	6.044761	0.053877	NaN	0.000000	0.001682	0.001822	28.084	0.061965	0.001913	32.3939	105.045	14.7121	0.023790	0.043247	-1.090918	-1.092349	0.053877	32.3939	-1.092165	-3.934480E+14	-1.369349E-16	NaN
541	1.000000	0.086679	7.37034e+06	-50039.1	1005.82	-29757	0.000000	0.000000	6.086762	0.071316	NaN	0.000000	0.001675	0.001831	28.0837	0.058921	0.001966	29.9739	134.486	-167.065	0.024365	0.085380	-1.048917	-1.050216	0.071316	29.9739	-1.050701	-1.091048E+14	-6.536500E-16	NaN
541	1.000000	0.128690	7.37034e+06	-50039.1	1005.82	-29757	0.000000	0.000000	6.128771	0.025044	NaN	0.000000	0.001646	0.001872	28.0835	0.049299	0.001997	24.6908	-158.045	13.262	-0.088729	0.127344	-1.006906	-1.008252	0.025044	24.6908	-1.007667	-2.877254E+13	-8.704141E-16	NaN
541	1.000000	0.170727	7.37034e+06	-50039.1	1005.82	-29757	0.000000	0.000000	6.170806	-0.031951	NaN	0.000000	0.001644	0.001880	28.0823	0.057852	0.001853	31.2226	42.6129	-167.456	0.032584	0.169422	-0.964869	-0.966174	-0.031951	31.2226	-0.964101	-7.449988E+12	4.288702E-15	NaN
541	1.000000	0.212732	7.37034e+06	-50039.1	1005.82	-29757	0.000000	0.000000	6.212812	-0.019785	NaN	0.000000	0.001714	0.001794	28.0827	0.058634	0.002054	28.5484	77.2046	13.1168	0.053985	0.211315	-0.922864	-0.924280	-0.019785	28.5484	-0.922344	-2.036358E+12	9.715916E-15	NaN
541	1.000000	0.254755	7.37034e+06	-50039.1	1005.82	-29757	0.000000	0.000000	6.254836	-0.005328	NaN	0.000000	0.001586	0.001843	28.0828	0.036987	0.002058	17.9688	102.304	-166.153	0.016520	0.253458	-0.880841	-0.882138	-0.005328	17.9688	-0.880618	-5.559912E+11	9.583152E-15	NaN
541	1.000000	0.296761	7.37034e+06	-50039.1	1005.82	-29757	0.000000	0.000000	6.296842	0.024767	NaN	0.000000	0.001613	0.001810	28.0839	0.046838	0.002012	23.2768	-121.086	13.5096	-0.043887	0.295389	-0.838835	-0.840207	0.024767	23.2768	-0.839633	-1.549971E+11	-1.597892E-13	NaN
541	1.000000	0.338778	7.37034e+06	-50039.1	1005.82	-29757	0.000000	0.000000	6.338859	0.015014	NaN	0.000000	0.001633	0.001818	28.084	0.033917	0.002078	16.3252	10.8184	-167.286	-0.022612	0.337447	-0.796818	-0.798149	0.015014	16.3252	-0.797508	-4.159429E+10	-3.609519E-13	NaN
541	1.000000	0.380786	7.37034e+06	-50039.1	1005.82	-29757	0.000000	0.000000	6.380867	0.008142	NaN	0.000000	0.001642	0.001828	28.0841	0.062260	0.002073	30.0374	107.737	12.9712	-0.059180	0.379450	-0.754810	-0.756146	0.008142	30.0374	-0.755013	-1.100155E+10	-7.401133E-13	NaN
541	1.000000	0.422814	7.37034e+06	-50039.1	1005.82	-29757	0.000000	0.000000	6.422896	0.025778	NaN	0.000000	0.001676	0.001773	28.0826	0.083311	0.001961	42.4865	-58.6881	-165.733	0.046305	0.421511	-0.712782	-0.714085	0.025778	42.4865	-0.713237	-2.966316E+9	-8.690134E-12	NaN
541	1.000000	0.464857	7.37034e+06	-50039.1	1005.82	-29757	0.000000	0.000000	6.464938	0.027139	NaN	0.000000	0.001617	0.001820	28.0829	0.078788	0.002010	39.1979	176.009	13.4716	-0.004110	0.463480	-0.670739	-0.672116	0.027139	39.1979	-0.671259	-7.918016E+8	-3.427458E-11	NaN
541	1.000000	0.506880	7.37034e+06	-50039.1	1005.82	-29757	0.000000	0.000000	6.506962	0.043065	NaN	0.000000	0.001663	0.001816	28.0826	0.136348	0.002054	66.3819	10.0234	-163.814	0.045469	0.505498	-0.628716	-0.630098	0.043065	66.3819	-0.629203	-2.099299E+8	-2.051377E-10	NaN
541	1.000000	0.548880	7.37034e+06	-50039.1	1005.82	-29757	0.000000	0.000000	6.548957	-0.081436	NaN	0.000000	0.001608	0.001835	28.0823	0.052850	0.002054	25.7321	146.021	8.821135	-0.108025	0.547557	-0.586716	-0.588038	-0.081436	25.7321	-0.584342	-5.065752E+7	1.607579E-9	NaN
541	1.000000	0.590875	7.37034e+06	-50039.1	1005.82	-29757	0.000000	0.000000	6.590956	0.014356	NaN	0.000000	0.001638	0.001825	28.0839	0.115074	0.002071	55.5694	-122.088	-167.259	-0.018666	0.589559	-0.544721	-0.546037	0.014356	55.5694	-0.544914	-1.443751E+7	-9.943534E-10	NaN
541	1.000000	0.632931	7.37034e+06	-50039.1	1005.82	-29757	0.000000	0.000000	6.633011	-0.020800	NaN	0.000000	0.001630	0.001858	28.0838	0.109032	0.002003	54.4421	-166.098	15.0244	-0.051489	0.631576	-0.502665	-0.504019	-0.020800	54.4421	-0.502378	-3.69989e+06	5.621753E-9	NaN
541	1.000000	0.674934	7.37034e+06	-50039.1	1005.82	-29757	0.000000	0.000000	6.675015	0.012457	NaN	0.000000	0.001646	0.001801	28.084	0.034480	0.002004	17.2047	31.8366	-168.967	0.043690	0.673577	-0.460662	-0.462019	0.012457	17.2047	-0.461205	-981642	-1.269042E-8	NaN
541	1.000000	0.716959	7.37034e+06	-50039.1	1005.82	-29757	0.000000	0.000000	6.717036	-0.073779	NaN	0.000000	0.001624	0.001834	28.0826	0.097677	0.002088	46.7809	46.1093	15.6364	-0.028165	0.715584	-0.418637	-0.420012	-0.073779	46.7809	-0.417454	-236754	3.116262E-7	NaN
541	1.000000	0.758988	7.37034e+06	-50039.1	1005.82	-29757	0.000000	0.000000	6.759067	-0.031243	NaN	0.000000	0.001591	0.001808	28.0826	0.059037	0.002063	28.6139	-96.4568	-162.631	-0.056189	0.757731	-0.376608	-0.377865	-0.031243	28.6139	-0.375789	-60174.4	5.192051E-7	NaN
541	1.000000	0.800999	7.37034e+06	-50039.1	1005.82	-29757	0.000000	0.000000	6.801078	-0.049859	NaN	0.000000	0.001684	0.001812	28.0825	0.054505	0.002105	25.8958	-168.624	15.4123	0.031387	0.799641	-0.334597	-0.335955	-0.049859	25.8958	-0.333153	-14507.4	3.436801E-6	NaN
541	1.000000	0.842979	7.37034e+06	-50039.1	1005.82	-29757	0.000000	0.000000	6.843060	0.026136	NaN	0.000000	0.001660	0.001784	28.0836	0.016415	0.002008	8.174145	8.174636	-165.111	-0.100431	0.841717	-0.292617	-0.293879	0.026136	8.174145	-0.295015	-3965.68	-6.590550E-6	NaN
541	1.000000	0.885012	7.37034e+06	-50039.1	1005.82	-29757	0.000000	0.000000	6.885093	0.018148	NaN	0.000000	0.001660	0.001805	28.0836	0.083781	0.001998	41.9228	-124.291	14.9504	0.016628	0.883619	-0.250584	-0.251976	0.018148	41.9228	-0.250909	-849.213	-2.137061E-5	NaN
541	1.000000	0.927022	7.37034e+06	-50039.1	1005.82	-29757	0.000000	0.000000	6.927104	0.023311	NaN	0.000000	0.001672	0.001823	28.0835	0.059000	0.001930	30.575	85.7655	-168.14	0.023515	0.925724	-0.208573	-0.209871	0.023311	30.575	-0.209145	-185.767	-0.000125	NaN
541	1.000000	0.969037	7.37035e+06	-50039.1	1005.82	-29757	0.000000	0.000000	6.969119	0.030196	NaN	0.000000	0.001651	0.001765	28.0824	0.085268	0.002008	42.455	178.822	13.024	-0.081138	0.967658	-0.166559	-0.167938	0.030196	42.455	-0.167092	-36.5561	-0.000826	NaN
541	1.000000	1.011060	7.37035e+06	-50039.1	1005.82	-29757	0.000000	0.000000	7.011141	0.031560	NaN	0.000000	0.001726	0.001759	28.0824	0.119185	0.001976	60.3285	-169.909	-167.142	0.021880	1.009755	-0.124536	-0.125841	0.031560	60.3285	-0.124929	-6.061537	-0.005207	NaN
541	1.000000	1.053075	7.37035e+06	-50039.1	1005.82	-29757	0.000000	0.000000	7.053157	0.032112	NaN	0.000000	0.001684	0.001817	28.0824	0.107614	0.002018	53.3361	-87.0278	15.2798	-0.000656	1.051696	-0.082521	-0.083900	0.032112	53.3361	-0.082973	-0.733317	-0.043790	NaN
541	1.000000	1.095077	7.37035e+06	-50039.1	1005.82	-29757	0.000000	0.000000	7.095157	-0.012441	NaN	0.000000	0.001695	0.001797	28.0825	0.033695	0.002039	16.523	25.0797	-169.06	-0.057167	1.093794	-0.040519	-0.041802	-0.012441	16.523	-0.039954	-0.045077	0.276006	NaN
541	1.000000	1.137085	7.37035e+06	-50039.1	1005.82	-29757	0.000000	0.000000	7.137289	2.984293	NaN	0.000000	0.001629	0.001777	28.0836	3.594089	0.001970	1824.68	7.805588	13.5849	1.727624	1.135794	0.001490	0.000198	2.984293	1824.68	0.000263	0.000197	15113.4	118637
541	2.000000	1.152562	7.37035e+06	-50039.1	1005.82	-29757	0.000000	0.000000	7.153723	26.2732	NaN	0.000000	0.001664	0.001780	28.0845	18.6746	0.001635	11422.4	5.960179	-179.138	25.1633	1.152256	0.016966	0.016660	26.2732	11422.4	0.015241	0.015608	1683.35	83533.4
541	2.000000	1.163076	7.37035e+06	-50039.1	1005.82	-29757	0.000000	0.000000	7.165249	50.8795	NaN	0.000000	0.001609	0.001799	28.0848	29.7193	0.001786	16636.4	3.998911	1.421308	49.8731	1.162772	0.027481	0.027176	50.8795	16636.4	0.025187	0.031356	1622.62	85836.1
541	2.000000	1.173542	7.37035e+06	-50039.1	1005.82	-29757	0.000000	0.000000	7.176889	79.4443	NaN	0.000000	0.001640	0.001795	28.0826	38.8208	0.001747	22215.4	6.239244	176.198	78.8758	1.173220	0.037946	0.037624	79.4443	22215.4	0.035264	0.052363	1517.19	88698.5
541	2.000000	1.184000	7.37035e+06	-50039.1	1005.82	-29757	0.000000	0.000000	7.188969	118.884	NaN	0.000000	0.001615	0.001790	28.0825	47.7785	0.001776	26904.4	2.905071	-2.049721	117.483	1.183672	0.048404	0.048076	118.884	26904.4	0.045090	0.077842	1527.25	88102.9
541	2.000000	1.194505	7.37035e+06	-50039.1	1005.82	-29757	0.000000	0.000000	7.201337	164.209	NaN	0.000000	0.001634	0.001750	28.0825	58.3627	0.001736	33617.9	1.521358	178.38	161.636	1.194196	0.058909	0.058600	164.209	33617.9	0.055245	0.109313	1502.19	92898.4
541	2.000000	1.205013	7.37035e+06	-50039.1	1005.82	-29757	0.000000	0.000000	7.213855	213.062	NaN	0.000000	0.001613	0.001814	28.0836	70.0442	0.001727	40568.1	6.482250	-9.211339	213.299	1.204756	0.069417	0.069160	213.062	40568.1	0.065478	0.146182	1457.51	96941.7
541	2.000000	1.215445	7.37035e+06	-50039.1	1005.82	-29757	0.000000	0.000000	7.226992	278.86	NaN	0.000000	0.001610	0.001805	28.0836	79.7166	0.001909	41764.6	2.651350	174.959	274.725	1.215123	0.079849	0.079527	278.86	41764.6	0.074841	0.184337	1512.77	88873.9
541	2.000000	1.225886	7.37035e+06	-50039.1	1005.82	-29757	0.000000	0.000000	7.240612	356.161	NaN	0.000000	0.001631	0.001812	28.0834	88.4922	0.001794	49327.3	3.597826	-7.503922	351.081	1.225579	0.090290	0.089983	356.161	49327.3	0.084875	0.229806	1549.83	94011.2
541	2.000000	1.236426	7.37035e+06	-50039.1	1005.82	-29757	0.000000	0.000000	7.254519	438.057	NaN	0.000000	0.001598	0.001802	28.0825	98.2451	0.001817	54063.9	5.401079	170.884	435.393	1.236020	0.100830	0.100424	438.057	54063.9	0.094753	0.279112	1569.47	93495.6
541	2.000000	1.242424	7.37035e+06	-50039.1	1005.82	-29757	0.000000	0.000000	7.262104	476.629	NaN	0.000000	0.001607	0.001812	28.0823	104.016	0.001765	58943.8	2.947723	172.024	473.175	1.242124	0.106828	0.106528	476.629	58943.8	0.100763	0.311298	1531.1	96521.2