File: remote_trans/data/nanoindenter/0828-1/data/Data_2025-08-06,11h17m57s/2025-07-22_16-23-58_1_725.txt
2025-07-22, 16:23:58, 1
Index	Phase	Displacement	Time	Pos X	Pos Y	Pos Z	Rot A	Rot B	Piezo Z	Force A	Force B	Gripper	Voltage A	Voltage B	Temperature	Amplitude force	Amplitude pos	Stiffness	Phase shift	Phase excitation	Force A raw	Displacement raw	HMax	HMax raw	Real Force	Real Stiffness	Contact Depth	Area	Hardness	Reduced Mod.
[#]	[#]	[um]	[s]	[um]	[um]	[um]	[m°]	[m°]	[um]	[uN]	[uN]	[V]	[V]	[V]	[°C]	[uN]	[um]	[N/m]	[°]	[°]	[uN]	[um]	[um]	[um]	[uN]	[N/m]	[um]	[um^2]	[MPa]	[MPa]
725	1.000000	0.002517	7.37215e+06	-40839.1	1005.82	-29788.4	0.000000	0.000000	6.002823	0.042100	NaN	0.000000	0.001656	0.001617	28.083	0.078726	0.000974	80.805	-139.757	-169.213	0.087415	0.001296	-1.086727	-1.087949	0.042100	80.805	-1.087118	-3.365987E+14	-1.250759E-16	NaN
725	1.000000	0.042414	7.37215e+06	-40839.1	1005.82	-29788.4	0.000000	0.000000	6.042719	0.043419	NaN	0.000000	0.001706	0.001652	28.0829	0.075001	0.001942	38.6164	-50.8324	-165.658	0.087807	0.041128	-1.046831	-1.048117	0.043419	38.6164	-1.047674	-9.934442E+13	-4.370560E-16	NaN
725	1.000000	0.082452	7.37215e+06	-40839.1	1005.82	-29788.4	0.000000	0.000000	6.082754	-0.021367	NaN	0.000000	0.001670	0.001659	28.084	0.071728	0.002054	34.9246	1.233369	-163.466	0.020878	0.081143	-1.006793	-1.008102	-0.021367	34.9246	-1.006334	-2.760832E+13	7.739360E-16	NaN
725	1.000000	0.122476	7.37215e+06	-40839.1	1005.82	-29788.4	0.000000	0.000000	6.122780	0.032017	NaN	0.000000	0.001656	0.001658	28.0842	0.058220	0.001898	30.6706	6.095383	-166.643	0.050786	0.121158	-0.966769	-0.968086	0.032017	30.6706	-0.967552	-8.292200E+12	-3.861090E-15	NaN
725	1.000000	0.162509	7.37215e+06	-40839.1	1005.82	-29788.4	0.000000	0.000000	6.162818	0.137053	NaN	0.000000	0.001700	0.001632	28.0842	0.154580	0.002004	77.1532	83.2305	-166.666	0.096114	0.161154	-0.926736	-0.928091	0.137053	77.1532	-0.928068	-2.432879E+12	-5.633366E-14	NaN
725	1.000000	0.202492	7.37215e+06	-40839.1	1005.82	-29788.4	0.000000	0.000000	6.202797	0.054822	NaN	0.000000	0.001603	0.001614	28.0844	0.076637	0.002042	37.5336	-22.7212	-168.185	0.103350	0.201187	-0.886753	-0.888058	0.054822	37.5336	-0.887849	-6.963546E+11	-7.872660E-14	NaN
725	1.000000	0.242524	7.37215e+06	-40839.1	1005.82	-29788.4	0.000000	0.000000	6.242829	0.039599	NaN	0.000000	0.001633	0.001640	28.0833	0.057895	0.001988	29.1232	-48.4937	-159.7	0.081280	0.241224	-0.846721	-0.848020	0.039599	29.1232	-0.847741	-1.995932E+11	-1.984009E-13	NaN
725	1.000000	0.282550	7.37215e+06	-40839.1	1005.82	-29788.4	0.000000	0.000000	6.282854	0.019949	NaN	0.000000	0.001665	0.001668	28.0831	0.029366	0.001978	14.843	64.9498	-167.366	-0.012690	0.281248	-0.806695	-0.807997	0.019949	14.843	-0.807703	-5.720085E+10	-3.487533E-13	NaN
725	1.000000	0.322548	7.37215e+06	-40839.1	1005.82	-29788.4	0.000000	0.000000	6.322855	0.069508	NaN	0.000000	0.001678	0.001608	28.083	0.011364	0.002071	5.486816	-106.388	-167.723	0.040284	0.321247	-0.766696	-0.767998	0.069508	5.486816	-0.776197	-2.135766E+10	-3.254496E-12	NaN
725	1.000000	0.362569	7.37215e+06	-40839.1	1005.82	-29788.4	0.000000	0.000000	6.362873	0.020174	NaN	0.000000	0.001568	0.001610	28.0844	0.029394	0.002127	13.8225	-105.192	-169.238	0.029560	0.361265	-0.726676	-0.727980	0.020174	13.8225	-0.727771	-4.681882E+9	-4.309007E-12	NaN
725	1.000000	0.402563	7.37215e+06	-40839.1	1005.82	-29788.4	0.000000	0.000000	6.402871	0.098327	NaN	0.000000	0.001598	0.001621	28.0844	0.083092	0.002005	41.4424	172.054	-169.249	0.105771	0.401291	-0.686681	-0.687954	0.098327	41.4424	-0.688461	-1.361075E+9	-7.224188E-11	NaN
725	1.000000	0.442584	7.37215e+06	-40839.1	1005.82	-29788.4	0.000000	0.000000	6.442892	0.100032	NaN	0.000000	0.001631	0.001607	28.0845	0.064081	0.001980	32.3587	54.7561	-163.853	0.042081	0.441280	-0.646660	-0.647964	0.100032	32.3587	-0.648979	-3.921359E+8	-2.550957E-10	NaN
725	1.000000	0.482626	7.37215e+06	-40839.1	1005.82	-29788.4	0.000000	0.000000	6.482929	-0.006743	NaN	0.000000	0.001531	0.001640	28.0844	0.111158	0.002001	55.5515	160.498	-163.802	0.000711	0.481316	-0.606619	-0.607929	-0.006743	55.5515	-0.606528	-1.024073E+8	6.584962E-11	NaN
725	1.000000	0.522632	7.37215e+06	-40839.1	1005.82	-29788.4	0.000000	0.000000	6.522941	0.128974	NaN	0.000000	0.001641	0.001582	28.083	0.097067	0.001992	48.7243	-84.5862	-161.051	0.010142	0.521334	-0.566613	-0.567911	0.128974	48.7243	-0.568598	-3.070876E+7	-4.199904E-9	NaN
725	1.000000	0.562674	7.37215e+06	-40839.1	1005.82	-29788.4	0.000000	0.000000	6.562980	0.069214	NaN	0.000000	0.001640	0.001624	28.0825	0.100427	0.002005	50.096	-34.7811	-162.519	0.008796	0.561278	-0.526571	-0.527967	0.069214	50.096	-0.527607	-8.30497e+06	-8.334014E-9	NaN
725	1.000000	0.602666	7.37215e+06	-40839.1	1005.82	-29788.4	0.000000	0.000000	6.602972	0.043790	NaN	0.000000	0.001609	0.001593	28.0827	0.081731	0.002031	40.2437	111.207	-165.304	0.013407	0.601368	-0.486578	-0.487876	0.043790	40.2437	-0.487395	-2.28547e+06	-1.916032E-8	NaN
725	1.000000	0.642676	7.37215e+06	-40839.1	1005.82	-29788.4	0.000000	0.000000	6.642981	0.023438	NaN	0.000000	0.001596	0.001662	28.0842	0.123967	0.002094	59.191	-38.354	-162.483	0.029587	0.641378	-0.446568	-0.447867	0.023438	59.191	-0.446865	-616855	-3.799632E-8	NaN
725	1.000000	0.682693	7.37215e+06	-40839.1	1005.82	-29788.4	0.000000	0.000000	6.682997	0.032097	NaN	0.000000	0.001645	0.001723	28.0842	0.049849	0.001802	27.6672	138.57	-163.621	0.001620	0.681455	-0.406552	-0.407790	0.032097	27.6672	-0.407422	-170502	-1.882500E-7	NaN
725	1.000000	0.722699	7.37215e+06	-40839.1	1005.82	-29788.4	0.000000	0.000000	6.723002	-0.017260	NaN	0.000000	0.001634	0.001679	28.0849	0.063510	0.001896	33.4959	-165.068	-163.407	-0.000669	0.721398	-0.366545	-0.367847	-0.017260	33.4959	-0.366159	-43728.9	3.947073E-7	NaN
725	1.000000	0.762717	7.37215e+06	-40839.1	1005.82	-29788.4	0.000000	0.000000	6.763022	0.033709	NaN	0.000000	0.001646	0.001699	28.0842	0.028678	0.001991	14.4036	115.349	-164.767	0.074860	0.761364	-0.326528	-0.327881	0.033709	14.4036	-0.328283	-12311.1	-2.738087E-6	NaN
725	1.000000	0.802728	7.37215e+06	-40839.1	1005.82	-29788.4	0.000000	0.000000	6.803032	0.007647	NaN	0.000000	0.001587	0.001723	28.0831	0.165198	0.002083	79.3031	128.589	-162.41	0.063239	0.801439	-0.286516	-0.287805	0.007647	79.3031	-0.286589	-2965.77	-2.578460E-6	NaN
725	1.000000	0.842753	7.37215e+06	-40839.1	1005.82	-29788.4	0.000000	0.000000	6.843060	0.091620	NaN	0.000000	0.001571	0.001780	28.0831	0.112199	0.001919	58.4539	13.9957	-161.419	0.003254	0.841486	-0.246492	-0.247759	0.091620	58.4539	-0.247667	-756.569	-0.000121	NaN
725	1.000000	0.882795	7.37215e+06	-40839.1	1005.82	-29788.4	0.000000	0.000000	6.883101	0.056914	NaN	0.000000	0.001580	0.001800	28.083	0.058420	0.001927	30.3148	-40.2608	-166.886	-0.055156	0.881475	-0.206450	-0.207769	0.056914	30.3148	-0.207858	-177.04	-0.000321	NaN
725	1.000000	0.922797	7.37215e+06	-40839.1	1005.82	-29788.4	0.000000	0.000000	6.923102	0.032155	NaN	0.000000	0.001602	0.001772	28.0843	0.030899	0.002017	15.3157	-111.493	-165.89	0.004342	0.921514	-0.166448	-0.167731	0.032155	15.3157	-0.168023	-37.9491	-0.000847	NaN
725	1.000000	0.962811	7.37215e+06	-40839.1	1005.82	-29788.4	0.000000	0.000000	6.963116	0.037187	NaN	0.000000	0.001571	0.001762	28.0844	0.033501	0.002124	15.7725	157.948	-163.416	0.032142	0.961531	-0.126434	-0.127713	0.037187	15.7725	-0.128202	-7.030402	-0.005289	NaN
725	1.000000	1.002814	7.37215e+06	-40839.1	1005.82	-29788.4	0.000000	0.000000	7.003123	0.124837	NaN	0.000000	0.001622	0.001785	28.0842	0.051815	0.001931	26.8348	1.390135	-166.395	0.103899	1.001534	-0.086431	-0.087711	0.124837	26.8348	-0.089920	-1.076299	-0.115987	NaN
725	1.000000	1.042870	7.37215e+06	-40839.1	1005.82	-29788.4	0.000000	0.000000	7.043178	0.110561	NaN	0.000000	0.001631	0.001776	28.083	0.055194	0.001864	29.6067	-91.8264	-164.848	0.069728	1.041533	-0.046375	-0.047711	0.110561	29.6067	-0.049176	-0.086155	-1.283290	NaN
725	1.000000	1.082872	7.37215e+06	-40839.1	1005.82	-29788.4	0.000000	0.000000	7.083189	0.320914	NaN	0.000000	0.001608	0.001744	28.0831	0.479985	0.001999	240.144	8.844431	-163.252	0.085810	1.081550	-0.006372	-0.007694	0.320914	240.144	-0.007375	-0.004863	-65.9871	NaN
725	2.000000	1.101352	7.37215e+06	-40839.1	1005.82	-29788.4	0.000000	0.000000	7.102370	17.3829	NaN	0.000000	0.001624	0.001748	28.0829	16.8452	0.001867	9023.37	8.614829	-175.889	16.6623	1.101054	0.012107	0.011810	17.3829	9023.37	0.010662	0.009927	1751.09	82743.9
725	2.000000	1.111356	7.37215e+06	-40839.1	1005.82	-29788.4	0.000000	0.000000	7.113280	39.4304	NaN	0.000000	0.001601	0.001723	28.0832	26.8925	0.001768	15209.1	3.722587	-176.089	38.9811	1.111025	0.022111	0.021781	39.4304	15209.1	0.020167	0.022805	1729.04	92015.9
725	2.000000	1.121378	7.37215e+06	-40839.1	1005.82	-29788.4	0.000000	0.000000	7.124392	65.9542	NaN	0.000000	0.001604	0.001750	28.0842	37.615	0.001865	20164.2	7.124221	177.65	68.154	1.121013	0.032133	0.031768	65.9542	20164.2	0.029680	0.040083	1645.43	92018
725	2.000000	1.131285	7.37215e+06	-40839.1	1005.82	-29788.4	0.000000	0.000000	7.136211	112.476	NaN	0.000000	0.001605	0.001740	28.0841	47.2512	0.001748	27037.9	7.576545	175.575	111.426	1.130929	0.042041	0.041685	112.476	27037.9	0.038921	0.061269	1835.77	99799
725	2.000000	1.141220	7.37215e+06	-40839.1	1005.82	-29788.4	0.000000	0.000000	7.147706	150.432	NaN	0.000000	0.001666	0.001733	28.084	57.0867	0.001705	33474.3	1.741759	178.398	146.65	1.140983	0.051975	0.051738	150.432	33474.3	0.048605	0.088149	1706.56	103009
725	2.000000	1.151262	7.37215e+06	-40839.1	1005.82	-29788.4	0.000000	0.000000	7.159900	202.821	NaN	0.000000	0.001608	0.001752	28.0827	69.3248	0.001862	37228.2	3.345200	176.22	200.553	1.150990	0.062017	0.061745	202.821	37228.2	0.057931	0.118494	1711.66	98809.1
725	2.000000	1.161204	7.37215e+06	-40839.1	1005.82	-29788.4	0.000000	0.000000	7.172837	275.676	NaN	0.000000	0.001595	0.001760	28.0829	78.3705	0.001770	44284	0.894975	177.564	272.968	1.160967	0.071959	0.071722	275.676	44284	0.067290	0.153241	1798.97	103355
725	2.000000	1.171218	7.37215e+06	-40839.1	1005.82	-29788.4	0.000000	0.000000	7.185914	350.213	NaN	0.000000	0.001610	0.001755	28.0829	87.9509	0.001722	51070.6	3.179023	173.858	348.579	1.170969	0.081974	0.081724	350.213	51070.6	0.076831	0.192978	1814.78	106216
725	2.000000	1.181210	7.37215e+06	-40839.1	1005.82	-29788.4	0.000000	0.000000	7.199281	432.329	NaN	0.000000	0.001663	0.001751	28.0831	96.9671	0.001789	54202.7	3.351590	173.329	430.153	1.180982	0.091966	0.091737	432.329	54202.7	0.085984	0.235116	1838.79	102130
725	2.000000	1.191105	7.37215e+06	-40839.1	1005.82	-29788.4	0.000000	0.000000	7.213321	533.183	NaN	0.000000	0.001647	0.001780	28.0844	105.413	0.001742	60521.2	1.560005	174.474	526.719	1.190988	0.101861	0.101743	533.183	60521.2	0.095253	0.281730	1892.53	104175
725	2.000000	1.192748	7.37215e+06	-40839.1	1005.82	-29788.4	0.000000	0.000000	7.215622	549.212	NaN	0.000000	0.001648	0.001799	28.0849	107.699	0.001920	56093.5	7.360603	-10.7489	546.506	1.192372	0.103504	0.103127	549.212	56093.5	0.096160	0.286503	1916.95	95746.2