File: remote_trans/data/nanoindenter/0828-1/data/Data_2025-08-06,11h17m57s/2025-07-22_16-23-58_1_204.txt
2025-07-22, 16:23:58, 1
Index	Phase	Displacement	Time	Pos X	Pos Y	Pos Z	Rot A	Rot B	Piezo Z	Force A	Force B	Gripper	Voltage A	Voltage B	Temperature	Amplitude force	Amplitude pos	Stiffness	Phase shift	Phase excitation	Force A raw	Displacement raw	HMax	HMax raw	Real Force	Real Stiffness	Contact Depth	Area	Hardness	Reduced Mod.
[#]	[#]	[um]	[s]	[um]	[um]	[um]	[m°]	[m°]	[um]	[uN]	[uN]	[V]	[V]	[V]	[°C]	[uN]	[um]	[N/m]	[°]	[°]	[uN]	[um]	[um]	[um]	[uN]	[N/m]	[um]	[um^2]	[MPa]	[MPa]
204	1.000000	0.002549	7.36704e+06	-48839.1	955.819	-29761.3	0.000000	0.000000	6.002797	0.006293	NaN	0.000000	0.001684	0.001744	28.0783	0.155023	0.000861	180.048	177.412	-165.319	0.012518	0.001331	-1.122929	-1.124147	0.006293	180.048	-1.122955	-1.018880E+15	-6.176731E-18	NaN
204	1.000000	0.044515	7.36704e+06	-48839.1	955.818	-29761.3	0.000000	0.000000	6.044761	-0.039362	NaN	0.000000	0.001676	0.001784	28.0779	0.061995	0.001838	33.7333	-87.6241	12.8573	-0.032342	0.043114	-1.080964	-1.082364	-0.039362	33.7333	-1.080089	-2.708376E+14	1.453337E-16	NaN
204	1.000000	0.086477	7.36704e+06	-48839.1	955.818	-29761.3	0.000000	0.000000	6.086724	-0.025084	NaN	0.000000	0.001688	0.001738	28.0768	0.102908	0.001983	51.8933	-116.122	-168.809	0.024680	0.085199	-1.039001	-1.040279	-0.025084	51.8933	-1.038639	-7.510426E+13	3.339932E-16	NaN
204	1.000000	0.128552	7.36704e+06	-48839.1	955.818	-29761.3	0.000000	0.000000	6.128802	0.043717	NaN	0.000000	0.001696	0.001746	28.0768	0.065730	0.001980	33.1902	-92.6458	15.15	-0.005463	0.127204	-0.996926	-0.998274	0.043717	33.1902	-0.997914	-2.126574E+13	-2.055734E-15	NaN
204	1.000000	0.170540	7.36704e+06	-48839.1	955.818	-29761.3	0.000000	0.000000	6.170790	0.046689	NaN	0.000000	0.001637	0.001745	28.0768	0.002981	0.002016	1.478315	-97.9303	-162.062	0.036788	0.169239	-0.954938	-0.956239	0.046689	1.478315	-0.978625	-1.169202E+13	-3.993229E-15	NaN
204	1.000000	0.212552	7.36704e+06	-48839.1	955.819	-29761.3	0.000000	0.000000	6.212796	-0.081559	NaN	0.000000	0.001687	0.001770	28.0783	0.076464	0.002048	37.3405	-127.786	11.1776	-0.001899	0.211159	-0.912927	-0.914319	-0.081559	37.3405	-0.911288	-1.443991E+12	5.648187E-14	NaN
204	1.000000	0.254592	7.36704e+06	-48839.1	955.818	-29761.3	0.000000	0.000000	6.254835	-0.109472	NaN	0.000000	0.001690	0.001751	28.0779	0.101801	0.002067	49.2498	142.309	-163.72	-0.059220	0.253277	-0.870886	-0.872201	-0.109472	49.2498	-0.869219	-3.898321E+11	2.808193E-13	NaN
204	1.000000	0.296595	7.36704e+06	-48839.1	955.818	-29761.3	0.000000	0.000000	6.296843	0.016411	NaN	0.000000	0.001737	0.001787	28.078	0.109255	0.002035	53.6762	-97.1433	15.0245	-0.042754	0.295233	-0.828883	-0.830245	0.016411	53.6762	-0.829113	-1.116243E+11	-1.470173E-13	NaN
204	1.000000	0.338642	7.36704e+06	-48839.1	955.818	-29761.3	0.000000	0.000000	6.338891	0.032369	NaN	0.000000	0.001776	0.001767	28.0779	0.062233	0.002027	30.709	102.661	-163.606	-0.051983	0.337334	-0.786836	-0.788145	0.032369	30.709	-0.787627	-3.053880E+10	-1.059918E-12	NaN
204	1.000000	0.380660	7.36704e+06	-48839.1	955.819	-29761.3	0.000000	0.000000	6.380909	0.015419	NaN	0.000000	0.001798	0.001750	28.0767	0.077101	0.002019	38.1838	26.6771	12.9717	-0.005605	0.379302	-0.744818	-0.746176	0.015419	38.1838	-0.745121	-8.068482E+9	-1.910966E-12	NaN
204	1.000000	0.422668	7.36704e+06	-48839.1	955.818	-29761.3	0.000000	0.000000	6.422914	-0.028694	NaN	0.000000	0.001819	0.001769	28.0771	0.140763	0.002132	66.0185	53.2456	-167.773	-0.035391	0.421386	-0.702811	-0.704092	-0.028694	66.0185	-0.702485	-2.115723E+9	1.356206E-11	NaN
204	1.000000	0.464649	7.36704e+06	-48839.1	955.819	-29761.3	0.000000	0.000000	6.464897	-0.000903	NaN	0.000000	0.001808	0.001748	28.0771	0.028440	0.001985	14.3241	26.4766	15.6377	-0.051176	0.463317	-0.660829	-0.662161	-0.000903	14.3241	-0.660782	-5.690838E+8	1.586916E-12	NaN
204	1.000000	0.506663	7.36704e+06	-48839.1	955.819	-29761.3	0.000000	0.000000	6.506908	-0.068873	NaN	0.000000	0.001770	0.001725	28.0786	0.089636	0.001984	45.1699	63.8922	-167.307	-0.040295	0.505326	-0.618815	-0.620152	-0.068873	45.1699	-0.617672	-1.457564E+8	4.725230E-10	NaN
204	1.000000	0.548715	7.36704e+06	-48839.1	955.818	-29761.3	0.000000	0.000000	6.548963	0.014478	NaN	0.000000	0.001778	0.001754	28.0783	0.021294	0.001929	11.0383	-62.1545	15.8529	0.013155	0.547347	-0.576763	-0.578132	0.014478	11.0383	-0.577747	-4.107978E+7	-3.524476E-10	NaN
204	1.000000	0.590754	7.36704e+06	-48839.1	955.818	-29761.3	0.000000	0.000000	6.591001	-0.008652	NaN	0.000000	0.001723	0.001756	28.0781	0.031545	0.001999	15.7765	125.003	-163.484	-0.006297	0.589399	-0.534725	-0.536079	-0.008652	15.7765	-0.534313	-1.029105E+7	8.407291E-10	NaN
204	1.000000	0.632748	7.36704e+06	-48839.1	955.818	-29761.3	0.000000	0.000000	6.632994	-0.041084	NaN	0.000000	0.001755	0.001695	28.0769	0.067540	0.001969	34.298	17.192	12.6166	-0.056756	0.631366	-0.492731	-0.494112	-0.041084	34.298	-0.491832	-2.63629e+06	1.558388E-8	NaN
204	1.000000	0.674808	7.36704e+06	-48839.1	955.818	-29761.3	0.000000	0.000000	6.675056	0.009245	NaN	0.000000	0.001696	0.001696	28.0765	0.164252	0.001958	83.8715	-88.597	-163.272	-0.061049	0.673505	-0.450670	-0.451974	0.009245	83.8715	-0.450753	-699752	-1.321126E-8	NaN
204	1.000000	0.716775	7.36704e+06	-48839.1	955.818	-29761.3	0.000000	0.000000	6.717024	0.033042	NaN	0.000000	0.001700	0.001712	28.0762	0.039962	0.002061	19.3918	158.105	12.0301	-0.036497	0.715495	-0.408703	-0.409983	0.033042	19.3918	-0.409981	-185408	-1.782133E-7	NaN
204	1.000000	0.758818	7.36704e+06	-48839.1	955.817	-29761.3	0.000000	0.000000	6.759065	-0.012411	NaN	0.000000	0.001677	0.001705	28.0778	0.008605	0.002008	4.285937	-26.3478	-166.205	-0.040967	0.757488	-0.366660	-0.367990	-0.012411	4.285937	-0.364488	-41368.8	3.000181E-7	NaN
204	1.000000	0.800806	7.36704e+06	-48839.1	955.818	-29761.3	0.000000	0.000000	6.801051	-0.068283	NaN	0.000000	0.001677	0.001688	28.0779	0.125806	0.002100	59.8937	56.9765	12.0559	-0.055519	0.799502	-0.324672	-0.325976	-0.068283	59.8937	-0.323817	-10586.7	6.449915E-6	NaN
204	1.000000	0.842859	7.36704e+06	-48839.1	955.818	-29761.3	0.000000	0.000000	6.843107	0.026729	NaN	0.000000	0.001733	0.001716	28.0779	0.123167	0.002025	60.8293	-93.6005	-168.057	0.040349	0.841505	-0.282620	-0.283973	0.026729	60.8293	-0.282949	-2614.67	-1.022284E-5	NaN
204	1.000000	0.884854	7.36704e+06	-48839.1	955.819	-29761.3	0.000000	0.000000	6.885101	-0.022651	NaN	0.000000	0.001655	0.001747	28.0778	0.069143	0.002077	33.2865	34.2151	11.0253	0.044005	0.883499	-0.240624	-0.241979	-0.022651	33.2865	-0.240114	-577.2	3.924266E-5	NaN
204	1.000000	0.926847	7.36704e+06	-48839.1	955.818	-29761.3	0.000000	0.000000	6.927093	-0.037978	NaN	0.000000	0.001687	0.001679	28.0765	0.079685	0.002045	38.9688	-21.3763	-168.099	-0.050356	0.925587	-0.198632	-0.199891	-0.037978	38.9688	-0.197901	-121.659	0.000312	NaN
204	1.000000	0.968881	7.36704e+06	-48839.1	955.816	-29761.3	0.000000	0.000000	6.969125	-0.080317	NaN	0.000000	0.001782	0.001702	28.077	0.011465	0.001949	5.882320	144.655	14.2966	-0.071980	0.967549	-0.156597	-0.157929	-0.080317	5.882320	-0.146357	-15.5318	0.005171	NaN
204	1.000000	1.010913	7.36704e+06	-48839.1	955.817	-29761.3	0.000000	0.000000	7.011157	-0.094873	NaN	0.000000	0.001765	0.001750	28.0772	0.074701	0.002010	37.1735	-8.416320	-168.66	-0.103262	1.009592	-0.114565	-0.115886	-0.094873	37.1735	-0.112651	-3.415362	0.027778	NaN
204	1.000000	1.052928	7.36704e+06	-48839.1	955.817	-29761.3	0.000000	0.000000	7.053178	0.062854	NaN	0.000000	0.001697	0.001698	28.0787	0.123518	0.001995	61.9155	48.9278	13.1789	-0.018086	1.051552	-0.072550	-0.073926	0.062854	61.9155	-0.073312	-0.417429	-0.150575	NaN
204	1.000000	1.094951	7.36704e+06	-48839.1	955.818	-29761.3	0.000000	0.000000	7.095198	-0.016160	NaN	0.000000	0.001690	0.001716	28.0783	0.109888	0.002119	51.8564	121.449	-163.286	0.105574	1.093661	-0.030528	-0.031818	-0.016160	51.8564	-0.030294	-0.023452	0.689068	NaN
204	2.000000	1.134970	7.36704e+06	-48839.1	955.818	-29761.3	0.000000	0.000000	7.135699	11.6976	NaN	0.000000	0.001691	0.001724	28.0782	7.813053	0.001696	4607.95	6.761843	8.122590	10.9997	1.134595	0.009492	0.009117	11.6976	4607.95	0.007588	0.006622	1766.44	51734.8
204	2.000000	1.145435	7.36704e+06	-48839.1	955.818	-29761.3	0.000000	0.000000	7.146494	19.7416	NaN	0.000000	0.001663	0.001710	28.0765	17.6996	0.001805	9803.74	7.712643	-176.757	19.8559	1.145073	0.019956	0.019595	19.7416	9803.74	0.018446	0.020159	979.289	63085.5
204	2.000000	1.155904	7.36704e+06	-48839.1	955.818	-29761.3	0.000000	0.000000	7.157803	40.1687	NaN	0.000000	0.001610	0.001718	28.0765	28.3743	0.001790	15851.8	6.783124	-1.904465	39.756	1.155612	0.030426	0.030133	40.1687	15851.8	0.028525	0.037742	1064.28	74548.3
204	2.000000	1.166403	7.36704e+06	-48839.1	955.818	-29761.3	0.000000	0.000000	7.169457	68.2426	NaN	0.000000	0.001768	0.001660	28.0765	36.9841	0.001698	21786	4.872249	177.715	68.761	1.166037	0.040925	0.040559	68.2426	21786	0.038575	0.060399	1129.87	80991
204	2.000000	1.176848	7.36704e+06	-48839.1	955.818	-29761.3	0.000000	0.000000	7.181777	113.851	NaN	0.000000	0.001726	0.001688	28.0781	47.0054	0.001787	26311.3	4.550740	-2.573692	111.58	1.176407	0.051370	0.050929	113.851	26311.3	0.048124	0.086704	1313.1	81638.6
204	2.000000	1.187314	7.36704e+06	-48839.1	955.818	-29761.3	0.000000	0.000000	7.194154	160.35	NaN	0.000000	0.001708	0.001719	28.0779	58.4997	0.001829	31981	4.151846	175.997	157.641	1.186892	0.061835	0.061414	160.35	31981	0.058075	0.118996	1347.53	84703.1
204	2.000000	1.197867	7.36704e+06	-48839.1	955.818	-29761.3	0.000000	0.000000	7.206653	207.668	NaN	0.000000	0.001705	0.001705	28.0777	70.1966	0.001928	36401.6	3.335598	-4.546483	208.238	1.197504	0.072389	0.072026	207.668	36401.6	0.068110	0.156484	1327.09	84073.4
204	2.000000	1.208269	7.36705e+06	-48839.1	955.818	-29761.3	0.000000	0.000000	7.220123	282.256	NaN	0.000000	0.001692	0.001677	28.0776	80.4785	0.001798	44754.2	4.916048	171.787	279.768	1.207993	0.082791	0.082515	282.256	44754.2	0.078061	0.198416	1422.54	91794.9
204	2.000000	1.218765	7.36705e+06	-48839.1	955.82	-29761.3	0.000000	0.000000	7.233399	349.89	NaN	0.000000	0.001738	0.001684	28.0764	90.1094	0.001814	49682.1	5.668808	-9.668331	345.966	1.218503	0.093287	0.093025	349.89	49682.1	0.088005	0.244945	1428.45	91714.8
204	2.000000	1.229304	7.36705e+06	-48839.1	955.819	-29761.3	0.000000	0.000000	7.246804	419.595	NaN	0.000000	0.001714	0.001787	28.0766	99.0746	0.001733	57174.9	6.546992	168.373	419.535	1.228937	0.103825	0.103458	419.595	57174.9	0.098321	0.298022	1407.93	95687.3
204	2.000000	1.232677	7.36705e+06	-48839.1	955.818	-29761.3	0.000000	0.000000	7.251272	446.229	NaN	0.000000	0.001692	0.001703	28.0766	102.926	0.001917	53691.5	9.032459	-13.1324	438.068	1.232311	0.107199	0.106833	446.229	53691.5	0.100966	0.312410	1428.34	87764