File: remote_trans/data/nanoindenter/0828-1/data/Data_2025-08-06,11h17m57s/2025-07-22_16-23-58_1_1061.txt
2025-07-22, 16:23:58, 1
Index	Phase	Displacement	Time	Pos X	Pos Y	Pos Z	Rot A	Rot B	Piezo Z	Force A	Force B	Gripper	Voltage A	Voltage B	Temperature	Amplitude force	Amplitude pos	Stiffness	Phase shift	Phase excitation	Force A raw	Displacement raw	HMax	HMax raw	Real Force	Real Stiffness	Contact Depth	Area	Hardness	Reduced Mod.
[#]	[#]	[um]	[s]	[um]	[um]	[um]	[m°]	[m°]	[um]	[uN]	[uN]	[V]	[V]	[V]	[°C]	[uN]	[um]	[N/m]	[°]	[°]	[uN]	[um]	[um]	[um]	[uN]	[N/m]	[um]	[um^2]	[MPa]	[MPa]
1061	1.000000	0.002341	7.37542e+06	-53189.1	1055.82	-29746.9	0.000000	0.000000	6.002812	-0.004485	NaN	0.000000	0.001733	0.001696	28.0822	0.105407	0.000874	120.626	-165.221	-169.434	-0.106221	0.001104	-1.107867	-1.109105	-0.004485	120.626	-1.107839	-6.386887E+14	7.022600E-18	NaN
1061	1.000000	0.044235	7.37542e+06	-53189.1	1055.82	-29746.9	0.000000	0.000000	6.044704	-0.032446	NaN	0.000000	0.001685	0.001667	28.0832	0.049690	0.001946	25.5378	2.226675	13.4729	0.067653	0.042905	-1.065974	-1.067304	-0.032446	25.5378	-1.065021	-1.699397E+14	1.909277E-16	NaN
1061	1.000000	0.086277	7.37543e+06	-53189.1	1055.82	-29746.9	0.000000	0.000000	6.086746	-0.054940	NaN	0.000000	0.001665	0.001668	28.083	0.052607	0.001997	26.3438	67.4621	-168.446	-0.077175	0.085016	-1.023931	-1.025193	-0.054940	26.3438	-1.022367	-4.537314E+13	1.210852E-15	NaN
1061	1.000000	0.128307	7.37543e+06	-53189.1	1055.82	-29747	0.000000	0.000000	6.128776	-0.030864	NaN	0.000000	0.001648	0.001652	28.0833	0.044131	0.002008	21.9762	-127.377	14.881	0.011049	0.126954	-0.981902	-0.983254	-0.030864	21.9762	-0.980849	-1.252684E+13	2.463808E-15	NaN
1061	1.000000	0.170292	7.37543e+06	-53189.1	1055.82	-29747	0.000000	0.000000	6.170760	-0.065108	NaN	0.000000	0.001673	0.001663	28.0822	0.064021	0.002036	31.4483	-174.493	-165.899	-0.053937	0.168965	-0.939917	-0.941243	-0.065108	31.4483	-0.938364	-3.350132E+12	1.943434E-14	NaN
1061	1.000000	0.212338	7.37543e+06	-53189.1	1055.82	-29747	0.000000	0.000000	6.212806	-0.075418	NaN	0.000000	0.001650	0.001688	28.0816	0.050672	0.001912	26.496	-148.21	13.9944	-0.046870	0.210984	-0.897871	-0.899224	-0.075418	26.496	-0.895736	-8.901067E+11	8.472944E-14	NaN
1061	1.000000	0.254321	7.37543e+06	-53189.1	1055.82	-29747	0.000000	0.000000	6.254791	-0.026758	NaN	0.000000	0.001664	0.001641	28.0817	0.086307	0.002021	42.7004	116.612	-165.207	0.024900	0.253054	-0.855887	-0.857154	-0.026758	42.7004	-0.855417	-2.535620E+11	1.055296E-13	NaN
1061	1.000000	0.296406	7.37543e+06	-53189.1	1055.82	-29747	0.000000	0.000000	6.296877	0.004504	NaN	0.000000	0.001650	0.001665	28.0818	0.040422	0.001971	20.5076	-81.7465	16.434	-0.043879	0.295004	-0.813803	-0.815204	0.004504	20.5076	-0.813968	-6.956595E+10	-6.473941E-14	NaN
1061	1.000000	0.338407	7.37543e+06	-53189.1	1055.82	-29747	0.000000	0.000000	6.338878	-0.003744	NaN	0.000000	0.001656	0.001664	28.0832	0.028125	0.002019	13.9315	140.78	-166.067	-0.024447	0.337116	-0.771802	-0.773092	-0.003744	13.9315	-0.771600	-1.849519E+10	2.024197E-13	NaN
1061	1.000000	0.380421	7.37543e+06	-53189.1	1055.82	-29747	0.000000	0.000000	6.380892	-0.013038	NaN	0.000000	0.001632	0.001661	28.0832	0.028018	0.002077	13.4875	174.756	13.7955	0.031464	0.379108	-0.729787	-0.731101	-0.013038	13.4875	-0.729062	-4.875570E+9	2.674136E-12	NaN
1061	1.000000	0.422442	7.37543e+06	-53189.1	1055.82	-29747	0.000000	0.000000	6.422912	-0.012864	NaN	0.000000	0.001674	0.001685	28.0832	0.044186	0.002094	21.1035	-35.763	-165.547	-0.012692	0.421114	-0.687767	-0.689094	-0.012864	21.1035	-0.687310	-1.312648E+9	9.800155E-12	NaN
1061	1.000000	0.464474	7.37543e+06	-53189.1	1055.82	-29747	0.000000	0.000000	6.464943	-0.044151	NaN	0.000000	0.001679	0.001647	28.082	0.050213	0.002026	24.7801	106.132	11.8648	-0.025982	0.463081	-0.645735	-0.647127	-0.044151	24.7801	-0.644398	-3.393345E+8	1.301091E-10	NaN
1061	1.000000	0.506490	7.37543e+06	-53189.1	1055.82	-29747	0.000000	0.000000	6.506960	-0.034907	NaN	0.000000	0.001747	0.001683	28.082	0.116361	0.002098	55.4675	89.5804	-167.711	-0.096259	0.505125	-0.603718	-0.605084	-0.034907	55.4675	-0.603246	-9.229113E+7	3.782305E-10	NaN
1061	1.000000	0.548475	7.37543e+06	-53189.1	1055.82	-29747	0.000000	0.000000	6.548946	0.011859	NaN	0.000000	0.001677	0.001673	28.082	0.078951	0.001933	40.8487	-68.2572	16.0013	0.028259	0.547101	-0.561733	-0.563108	0.011859	40.8487	-0.561951	-2.485234E+7	-4.771584E-10	NaN
1061	1.000000	0.590522	7.37543e+06	-53189.1	1055.82	-29747	0.000000	0.000000	6.590991	-0.040108	NaN	0.000000	0.001675	0.001658	28.0832	0.106772	0.001977	54.0117	-95.8752	-166.411	-0.095090	0.589151	-0.519687	-0.521058	-0.040108	54.0117	-0.519130	-6.33131e+06	6.334930E-9	NaN
1061	1.000000	0.632529	7.37543e+06	-53189.1	1055.82	-29747	0.000000	0.000000	6.633001	0.022454	NaN	0.000000	0.001685	0.001677	28.0829	0.101162	0.001936	52.2415	25.8478	13.325	0.020302	0.631210	-0.477679	-0.478998	0.022454	52.2415	-0.478002	-1.68868e+06	-1.329657E-8	NaN
1061	1.000000	0.674506	7.37543e+06	-53189.1	1055.82	-29747	0.000000	0.000000	6.674974	-0.066773	NaN	0.000000	0.001685	0.001655	28.0833	0.062227	0.002161	28.7943	-27.1394	-167.583	-0.039843	0.673198	-0.435703	-0.437011	-0.066773	28.7943	-0.433964	-405611	1.646232E-7	NaN
1061	1.000000	0.716567	7.37543e+06	-53189.1	1055.82	-29747	0.000000	0.000000	6.717034	-0.073050	NaN	0.000000	0.001664	0.001682	28.0826	0.050419	0.001965	25.663	99.3473	14.9888	-0.066993	0.715191	-0.393642	-0.395018	-0.073050	25.663	-0.391507	-101093	7.226043E-7	NaN
1061	1.000000	0.758574	7.37543e+06	-53189.1	1055.82	-29747	0.000000	0.000000	6.759044	-0.034410	NaN	0.000000	0.001675	0.001670	28.0821	0.052721	0.001959	26.9134	-159.11	-163.012	-0.024357	0.757269	-0.351634	-0.352940	-0.034410	26.9134	-0.350675	-26109.8	1.317889E-6	NaN
1061	1.000000	0.800605	7.37543e+06	-53189.1	1055.82	-29747	0.000000	0.000000	6.801075	-0.025298	NaN	0.000000	0.001642	0.001666	28.082	0.042284	0.002003	21.1099	-38.06	14.0745	-0.020973	0.799250	-0.309604	-0.310958	-0.025298	21.1099	-0.308705	-6336.97	3.992182E-6	NaN
1061	1.000000	0.842623	7.37543e+06	-53189.1	1055.82	-29747	0.000000	0.000000	6.843094	-0.009036	NaN	0.000000	0.001701	0.001634	28.0822	0.061139	0.002015	30.3432	-51.2222	-164.294	-0.027019	0.841336	-0.267585	-0.268873	-0.009036	30.3432	-0.267362	-1518.46	5.951007E-6	NaN
1061	1.000000	0.884616	7.37543e+06	-53189.1	1055.82	-29747	0.000000	0.000000	6.885085	-0.044884	NaN	0.000000	0.001707	0.001682	28.0833	0.021900	0.001993	10.9907	76.709	13.0758	-0.062772	0.883261	-0.225593	-0.226948	-0.044884	10.9907	-0.222530	-304.822	0.000147	NaN
1061	1.000000	0.926644	7.37543e+06	-53189.1	1055.82	-29747	0.000000	0.000000	6.927113	-0.045026	NaN	0.000000	0.001660	0.001628	28.083	0.038338	0.002095	18.297	29.8542	-168.92	-0.026553	0.925340	-0.183564	-0.184869	-0.045026	18.297	-0.181719	-65.2617	0.000690	NaN
1061	1.000000	0.968646	7.37543e+06	-53189.1	1055.82	-29747	0.000000	0.000000	6.969116	-0.034764	NaN	0.000000	0.001686	0.001677	28.0832	0.080303	0.002075	38.6918	-28.6907	10.0247	0.029568	0.967346	-0.141562	-0.142863	-0.034764	38.6918	-0.140888	-12.2922	0.002828	NaN
1061	1.000000	1.010668	7.37543e+06	-53189.1	1055.82	-29747	0.000000	0.000000	7.011137	-0.026783	NaN	0.000000	0.001659	0.001657	28.0822	0.050962	0.001966	25.9259	50.2201	-165.366	0.010152	1.009339	-0.099541	-0.100869	-0.026783	25.9259	-0.098766	-1.715264	0.015614	NaN
1061	1.000000	1.052671	7.37543e+06	-53189.1	1055.82	-29747	0.000000	0.000000	7.053140	-0.037293	NaN	0.000000	0.001650	0.001631	28.0822	0.176271	0.001993	88.4611	-146.438	12.7446	-0.095925	1.051371	-0.057538	-0.058838	-0.037293	88.4611	-0.057222	-0.149659	0.249184	NaN
1061	1.000000	1.094690	7.37543e+06	-53189.1	1055.82	-29747	0.000000	0.000000	7.095159	-0.050128	NaN	0.000000	0.001695	0.001643	28.0827	0.030292	0.002040	14.8506	133.467	-167.264	-0.061888	1.093390	-0.015518	-0.016819	-0.050128	14.8506	-0.012987	-0.008095	6.192723	NaN
1061	2.000000	1.122831	7.37543e+06	-53189.1	1055.82	-29747	0.000000	0.000000	7.123833	12.9263	NaN	0.000000	0.001725	0.001660	28.0832	12.9542	0.001676	7730.07	6.149654	4.394911	12.1514	1.122499	0.012622	0.012291	12.9263	7730.07	0.011368	0.010742	1203.35	68142
1061	2.000000	1.133286	7.37543e+06	-53189.1	1055.82	-29747	0.000000	0.000000	7.135160	34.1074	NaN	0.000000	0.001752	0.001671	28.0831	23.7016	0.001814	13068.1	8.677821	178.675	35.1341	1.132950	0.023077	0.022741	34.1074	13068.1	0.021120	0.024332	1401.72	76540.5
1061	2.000000	1.143710	7.37543e+06	-53189.1	1055.82	-29747	0.000000	0.000000	7.146889	65.846	NaN	0.000000	0.001711	0.001684	28.0831	34.3006	0.001721	19928.8	6.549410	-3.883641	63.0431	1.143399	0.033502	0.033191	65.846	19928.8	0.031024	0.042892	1535.16	87915.5
1061	2.000000	1.154286	7.37543e+06	-53189.1	1055.82	-29747	0.000000	0.000000	7.158975	102.554	NaN	0.000000	0.001675	0.001678	28.0823	44.6908	0.001798	24851	4.765865	177.513	106.412	1.153906	0.044077	0.043698	102.554	24851	0.040982	0.066591	1540.05	87984.8
1061	2.000000	1.164645	7.37543e+06	-53189.1	1055.82	-29747	0.000000	0.000000	7.171459	154.216	NaN	0.000000	0.001725	0.001724	28.0818	53.7032	0.001724	31141.9	-1.445993	0.932807	148.572	1.164239	0.054436	0.054031	154.216	31141.9	0.050722	0.094659	1629.17	92477.8
1061	2.000000	1.175149	7.37543e+06	-53189.1	1055.82	-29747	0.000000	0.000000	7.184319	211.522	NaN	0.000000	0.001736	0.001676	28.0819	65.2892	0.001720	37957.7	3.306085	174.777	208.032	1.174971	0.064940	0.064763	211.522	37957.7	0.060761	0.128550	1645.45	96724.7
1061	2.000000	1.185662	7.37543e+06	-53189.1	1055.82	-29747	0.000000	0.000000	7.197649	279.995	NaN	0.000000	0.001711	0.001699	28.0822	75.6827	0.001768	42801.8	5.731098	-8.818810	275.866	1.185337	0.075453	0.075128	279.995	42801.8	0.070547	0.166320	1683.48	95887.8
1061	2.000000	1.196387	7.37543e+06	-53189.1	1055.82	-29747	0.000000	0.000000	7.211083	345.88	NaN	0.000000	0.001719	0.001618	28.0829	86.7861	0.001832	47362.9	5.574916	171.257	358.108	1.195913	0.086178	0.085704	345.88	47362.9	0.080701	0.210321	1644.53	94356.2
1061	2.000000	1.206578	7.37543e+06	-53189.1	1055.82	-29747	0.000000	0.000000	7.225307	443.925	NaN	0.000000	0.001694	0.001626	28.0829	95.9305	0.001690	56766.5	5.570822	-10.4281	438.128	1.206209	0.096369	0.096000	443.925	56766.5	0.090504	0.257356	1724.94	102235
1061	2.000000	1.216613	7.37543e+06	-53189.1	1055.82	-29747	0.000000	0.000000	7.238243	514.448	NaN	0.000000	0.001707	0.001662	28.083	104.958	0.001809	58024.9	1.629037	-6.505646	509.579	1.216362	0.106404	0.106153	514.448	58024.9	0.099755	0.305782	1682.4	95869.7