File: remote_trans/data/nanoindenter/0828-1/data/Data_2025-08-06,11h17m57s/2025-07-22_16-23-58_1_1121.txt
2025-07-22, 16:23:58, 1
Index	Phase	Displacement	Time	Pos X	Pos Y	Pos Z	Rot A	Rot B	Piezo Z	Force A	Force B	Gripper	Voltage A	Voltage B	Temperature	Amplitude force	Amplitude pos	Stiffness	Phase shift	Phase excitation	Force A raw	Displacement raw	HMax	HMax raw	Real Force	Real Stiffness	Contact Depth	Area	Hardness	Reduced Mod.
[#]	[#]	[um]	[s]	[um]	[um]	[um]	[m°]	[m°]	[um]	[uN]	[uN]	[V]	[V]	[V]	[°C]	[uN]	[um]	[N/m]	[°]	[°]	[uN]	[um]	[um]	[um]	[uN]	[N/m]	[um]	[um^2]	[MPa]	[MPa]
1121	1.000000	0.002548	7.37602e+06	-56189.1	1055.82	-29739.5	0.000000	0.000000	6.002764	0.040834	NaN	0.000000	0.001672	0.001751	28.0807	0.052172	0.000961	54.2789	-43.6407	-167.447	0.047652	0.001320	-1.143901	-1.145129	0.040834	54.2789	-1.144465	-1.979733E+15	-2.062578E-17	NaN
1121	1.000000	0.044523	7.37602e+06	-56189.1	1055.82	-29739.5	0.000000	0.000000	6.044737	-0.010941	NaN	0.000000	0.001628	0.001737	28.0807	0.048144	0.002064	23.3264	-143.633	9.015210	-0.009058	0.043129	-1.101925	-1.103320	-0.010941	23.3264	-1.101574	-5.262498E+14	2.078988E-17	NaN
1121	1.000000	0.086553	7.37602e+06	-56189.1	1055.82	-29739.5	0.000000	0.000000	6.086766	-0.023980	NaN	0.000000	0.001652	0.001767	28.0818	0.065568	0.001918	34.1935	-37.3898	-163.392	0.003079	0.085259	-1.059896	-1.061190	-0.023980	34.1935	-1.059370	-1.426772E+14	1.680736E-16	NaN
1121	1.000000	0.128583	7.37602e+06	-56189.1	1055.82	-29739.5	0.000000	0.000000	6.128797	-0.006932	NaN	0.000000	0.001585	0.001754	28.082	0.060483	0.002045	29.5708	177.229	12.9235	0.002676	0.127259	-1.017866	-1.019190	-0.006932	29.5708	-1.017690	-3.925251E+13	1.765987E-16	NaN
1121	1.000000	0.170592	7.37602e+06	-56189.1	1055.82	-29739.5	0.000000	0.000000	6.170807	0.011978	NaN	0.000000	0.001593	0.001744	28.0815	0.083612	0.002025	41.2911	-128.593	-165.534	0.006810	0.169273	-0.975857	-0.977176	0.011978	41.2911	-0.976074	-1.080231E+13	-1.108875E-15	NaN
1121	1.000000	0.212616	7.37602e+06	-56189.1	1055.82	-29739.5	0.000000	0.000000	6.212832	0.034673	NaN	0.000000	0.001575	0.001726	28.0819	0.022215	0.002137	10.3964	93.5327	12.6917	0.107455	0.211258	-0.933833	-0.935191	0.034673	10.3964	-0.936334	-3.145398E+12	-1.102350E-14	NaN
1121	1.000000	0.254628	7.37602e+06	-56189.1	1055.82	-29739.5	0.000000	0.000000	6.254841	-0.028936	NaN	0.000000	0.001567	0.001726	28.0807	0.030576	0.002005	15.2514	157.223	-166.22	-0.051144	0.253284	-0.891821	-0.893165	-0.028936	15.2514	-0.890398	-7.538746E+11	3.838249E-14	NaN
1121	1.000000	0.296633	7.37602e+06	-56189.1	1055.82	-29739.5	0.000000	0.000000	6.296846	-0.032569	NaN	0.000000	0.001606	0.001743	28.0809	0.090065	0.002009	44.8369	52.5545	16.8357	0.000704	0.295267	-0.849816	-0.851182	-0.032569	44.8369	-0.849271	-2.093467E+11	1.555759E-13	NaN
1121	1.000000	0.338640	7.37602e+06	-56189.1	1055.82	-29739.5	0.000000	0.000000	6.338852	-0.038310	NaN	0.000000	0.001597	0.001724	28.0811	0.052935	0.002048	25.8485	47.1373	-164.909	-0.041946	0.337315	-0.807809	-0.809134	-0.038310	25.8485	-0.806698	-5.543226E+10	6.911156E-13	NaN
1121	1.000000	0.380690	7.37602e+06	-56189.1	1055.82	-29739.5	0.000000	0.000000	6.380904	-0.017759	NaN	0.000000	0.001606	0.001694	28.082	0.006236	0.002070	3.012079	-65.9309	11.4814	-0.046035	0.379301	-0.765758	-0.767148	-0.017759	3.012079	-0.761336	-1.341163E+10	1.324182E-12	NaN
1121	1.000000	0.422696	7.37602e+06	-56189.1	1055.82	-29739.5	0.000000	0.000000	6.422910	0.000167	NaN	0.000000	0.001592	0.001746	28.0816	0.219497	0.002168	101.231	122.261	-167.861	-0.003814	0.421402	-0.723753	-0.725047	0.000167	101.231	-0.723754	-4.127336E+9	-4.048295E-14	NaN
1121	1.000000	0.464679	7.37602e+06	-56189.1	1055.82	-29739.5	0.000000	0.000000	6.464887	-0.131629	NaN	0.000000	0.001602	0.001750	28.0818	0.064931	0.001884	34.4622	48.24	15.1412	-0.106128	0.463356	-0.681770	-0.683093	-0.131629	34.4622	-0.678906	-1.007485E+9	1.306507E-10	NaN
1121	1.000000	0.506720	7.37602e+06	-56189.1	1055.82	-29739.5	0.000000	0.000000	6.506933	-0.050024	NaN	0.000000	0.001568	0.001730	28.0807	0.019927	0.001957	10.1834	-26.9111	-168.672	0.026070	0.505421	-0.639729	-0.641028	-0.050024	10.1834	-0.636044	-2.606189E+8	1.919445E-10	NaN
1121	1.000000	0.548745	7.37602e+06	-56189.1	1055.82	-29739.5	0.000000	0.000000	6.548959	0.006328	NaN	0.000000	0.001576	0.001780	28.0809	0.076910	0.002052	37.477	64.3463	15.4814	0.007436	0.547358	-0.597704	-0.599091	0.006328	37.477	-0.597831	-7.772847E+7	-8.140632E-11	NaN
1121	1.000000	0.590750	7.37602e+06	-56189.1	1055.82	-29739.5	0.000000	0.000000	6.590961	-0.080481	NaN	0.000000	0.001598	0.001803	28.0808	0.028747	0.001839	15.6291	54.304	-169.33	-0.054047	0.589439	-0.555699	-0.557010	-0.080481	15.6291	-0.551836	-1.800486E+7	4.469974E-9	NaN
1121	1.000000	0.632768	7.37602e+06	-56189.1	1055.82	-29739.5	0.000000	0.000000	6.632984	0.042184	NaN	0.000000	0.001570	0.001724	28.0819	0.023547	0.002100	11.2137	81.8997	12.7168	0.022991	0.631420	-0.513681	-0.515029	0.042184	11.2137	-0.516503	-5.82031e+06	-7.247754E-9	NaN
1121	1.000000	0.674805	7.37602e+06	-56189.1	1055.82	-29739.5	0.000000	0.000000	6.675022	0.055502	NaN	0.000000	0.001620	0.001731	28.082	0.051729	0.001964	26.342	123.655	-165.327	0.031029	0.673508	-0.471644	-0.472941	0.055502	26.342	-0.473224	-1.44747e+06	-3.834397E-8	NaN
1121	1.000000	0.716812	7.37602e+06	-56189.1	1055.82	-29739.5	0.000000	0.000000	6.717026	0.001714	NaN	0.000000	0.001575	0.001760	28.082	0.062480	0.001949	32.0641	-99.8273	13.0555	0.012525	0.715454	-0.429637	-0.430995	0.001714	32.0641	-0.429677	-352772	-4.859473E-9	NaN
1121	1.000000	0.758828	7.37602e+06	-56189.1	1055.82	-29739.5	0.000000	0.000000	6.759039	-0.084522	NaN	0.000000	0.001592	0.001824	28.082	0.070843	0.001992	35.5622	-164.997	-167.346	-0.035601	0.757588	-0.387621	-0.388861	-0.084522	35.5622	-0.385838	-83867.4	1.007800E-6	NaN
1121	1.000000	0.800850	7.37602e+06	-56189.1	1055.82	-29739.5	0.000000	0.000000	6.801065	0.011906	NaN	0.000000	0.001571	0.001818	28.0806	0.023985	0.002053	11.6804	-47.9123	15.3891	-0.006875	0.799470	-0.345599	-0.346979	0.011906	11.6804	-0.346363	-22603.7	-5.267348E-7	NaN
1121	1.000000	0.842857	7.37602e+06	-56189.1	1055.82	-29739.5	0.000000	0.000000	6.843071	-0.006732	NaN	0.000000	0.001521	0.001769	28.0806	0.040692	0.002110	19.2827	54.0407	-165.966	-0.028960	0.841567	-0.303592	-0.304882	-0.006732	19.2827	-0.303330	-5274.2	1.276321E-6	NaN
1121	1.000000	0.884904	7.37602e+06	-56189.1	1055.82	-29739.5	0.000000	0.000000	6.885118	0.003310	NaN	0.000000	0.001582	0.001771	28.0806	0.041134	0.001991	20.6583	-16.6643	13.5007	-0.031406	0.883508	-0.261545	-0.262941	0.003310	20.6583	-0.261665	-1242.87	-2.662951E-6	NaN
1121	1.000000	0.926903	7.37602e+06	-56189.1	1055.82	-29739.5	0.000000	0.000000	6.927119	0.041544	NaN	0.000000	0.001557	0.001784	28.0817	0.048410	0.001968	24.6011	-113.257	-168.211	0.010051	0.925592	-0.219545	-0.220857	0.041544	24.6011	-0.220812	-286.184	-0.000145	NaN
1121	1.000000	0.968930	7.37602e+06	-56189.1	1055.82	-29739.5	0.000000	0.000000	6.969144	-0.001417	NaN	0.000000	0.001529	0.001841	28.0816	0.068475	0.001921	35.6421	50.4997	11.9692	0.032322	0.967581	-0.177519	-0.178868	-0.001417	35.6421	-0.177489	-55.2891	2.563169E-5	NaN
1121	1.000000	1.010934	7.37602e+06	-56189.1	1055.82	-29739.5	0.000000	0.000000	7.011149	-0.001684	NaN	0.000000	0.001542	0.001766	28.0817	0.044171	0.001939	22.7772	54.0113	-164.733	0.008874	1.009643	-0.135515	-0.136806	-0.001684	22.7772	-0.135459	-9.706160	0.000173	NaN
1121	1.000000	1.052921	7.37602e+06	-56189.1	1055.82	-29739.5	0.000000	0.000000	7.053136	0.017900	NaN	0.000000	0.001513	0.001750	28.0806	0.033006	0.002214	14.9091	-62.4451	13.9326	-0.074584	1.051559	-0.093528	-0.094890	0.017900	14.9091	-0.094428	-1.368871	-0.013077	NaN
1121	1.000000	1.094972	7.37602e+06	-56189.1	1055.82	-29739.5	0.000000	0.000000	7.095183	-0.084246	NaN	0.000000	0.001659	0.001733	28.0805	0.149960	0.002157	69.5117	-51.2887	-163.686	-0.025774	1.093672	-0.051477	-0.052777	-0.084246	69.5117	-0.050568	-0.094926	0.887498	NaN
1121	1.000000	1.136963	7.37602e+06	-56189.1	1055.82	-29739.5	0.000000	0.000000	7.137178	0.038774	NaN	0.000000	0.001582	0.001784	28.0805	0.079419	0.001979	40.1339	11.0856	11.9332	-0.015979	1.135590	-0.009486	-0.010859	0.038774	40.1339	-0.010211	-0.006508	-5.957982	NaN
1121	2.000000	1.160554	7.37602e+06	-56189.1	1055.82	-29739.5	0.000000	0.000000	7.161414	15.6951	NaN	0.000000	0.001585	0.001709	28.0817	14.5117	0.001758	8254.75	7.492343	-174.47	15.4388	1.160233	0.014105	0.013784	15.6951	8254.75	0.012679	0.012314	1274.59	67964.1
1121	2.000000	1.170980	7.37602e+06	-56189.1	1055.82	-29739.5	0.000000	0.000000	7.172616	34.5402	NaN	0.000000	0.001616	0.001735	28.082	24.6483	0.001812	13603.7	6.845129	0.551562	33.2007	1.170614	0.024531	0.024166	34.5402	13603.7	0.022627	0.026840	1286.9	75864.7
1121	2.000000	1.181458	7.37602e+06	-56189.1	1055.82	-29739.5	0.000000	0.000000	7.184309	64.0899	NaN	0.000000	0.001629	0.001756	28.0822	34.7477	0.001802	19282.7	3.975663	-179.989	62.6624	1.181215	0.035009	0.034766	64.0899	19282.7	0.032516	0.046121	1389.6	82033.6
1121	2.000000	1.191966	7.37602e+06	-56189.1	1055.82	-29739.5	0.000000	0.000000	7.196446	103.706	NaN	0.000000	0.001667	0.001727	28.0833	43.5658	0.001733	25135.1	1.708145	0.433763	102.383	1.191628	0.045517	0.045179	103.706	25135.1	0.042422	0.070438	1472.31	86526.7
1121	2.000000	1.202455	7.37602e+06	-56189.1	1055.82	-29739.5	0.000000	0.000000	7.208841	150.007	NaN	0.000000	0.001569	0.001725	28.0846	55.9917	0.001903	29415.1	4.562172	176.45	150.186	1.202038	0.056007	0.055589	150.007	29415.1	0.052182	0.099276	1511.01	85294.7
1121	2.000000	1.212892	7.37602e+06	-56189.1	1055.82	-29739.5	0.000000	0.000000	7.221544	205.09	NaN	0.000000	0.001570	0.001753	28.081	67.7554	0.001828	37065.8	7.060386	-8.707675	202.577	1.212650	0.066444	0.066201	205.09	37065.8	0.062294	0.134161	1528.68	92455.6
1121	2.000000	1.223399	7.37602e+06	-56189.1	1055.82	-29739.5	0.000000	0.000000	7.234795	271.797	NaN	0.000000	0.001595	0.001754	28.0809	75.9408	0.001830	41493.1	3.614803	174.873	271.789	1.223054	0.076950	0.076605	271.797	41493.1	0.072037	0.172475	1575.87	91282.2
1121	2.000000	1.233889	7.37602e+06	-56189.1	1055.82	-29739.5	0.000000	0.000000	7.248162	341.728	NaN	0.000000	0.001541	0.001790	28.0822	86.4924	0.001784	48495	6.878022	-9.858051	339.539	1.233518	0.087440	0.087069	341.728	48495	0.082155	0.217017	1574.66	95109.4
1121	2.000000	1.244394	7.37602e+06	-56189.1	1055.82	-29739.5	0.000000	0.000000	7.261236	404.159	NaN	0.000000	0.001604	0.001766	28.0823	94.2268	0.001701	55398.6	2.979135	172.751	403.215	1.244361	0.097945	0.097912	404.159	55398.6	0.092474	0.267338	1511.79	97890.7
1121	2.000000	1.252924	7.37602e+06	-56189.1	1055.82	-29739.5	0.000000	0.000000	7.272717	475.879	NaN	0.000000	0.001675	0.001778	28.0819	105.089	0.001874	56073.4	2.169729	-5.894741	475.492	1.252666	0.106476	0.106217	475.879	56073.4	0.100111	0.307722	1546.46	92352.8