File: remote_trans/data/nanoindenter/0828-1/data/Data_2025-08-06,11h17m57s/2025-07-22_16-23-58_1_382.txt
2025-07-22, 16:23:58, 1
Index	Phase	Displacement	Time	Pos X	Pos Y	Pos Z	Rot A	Rot B	Piezo Z	Force A	Force B	Gripper	Voltage A	Voltage B	Temperature	Amplitude force	Amplitude pos	Stiffness	Phase shift	Phase excitation	Force A raw	Displacement raw	HMax	HMax raw	Real Force	Real Stiffness	Contact Depth	Area	Hardness	Reduced Mod.
[#]	[#]	[um]	[s]	[um]	[um]	[um]	[m°]	[m°]	[um]	[uN]	[uN]	[V]	[V]	[V]	[°C]	[uN]	[um]	[N/m]	[°]	[°]	[uN]	[um]	[um]	[um]	[uN]	[N/m]	[um]	[um^2]	[MPa]	[MPa]
382	1.000000	0.002483	7.3688e+06	-57739.1	955.818	-29736.7	0.000000	0.000000	6.002795	-0.056761	NaN	0.000000	0.001681	0.001664	28.0807	0.100732	0.000931	108.216	40.3422	-169.256	0.007314	0.001230	-1.057316	-1.058569	-0.056761	108.216	-1.056923	-1.322714E+14	4.291240E-16	NaN
382	1.000000	0.042423	7.3688e+06	-57739.1	955.819	-29736.7	0.000000	0.000000	6.042737	-0.024628	NaN	0.000000	0.001697	0.001633	28.08	0.062244	0.001971	31.5727	179.378	-166.003	-0.051696	0.041179	-1.017376	-1.018621	-0.024628	31.5727	-1.016791	-3.817471E+13	6.451306E-16	NaN
382	1.000000	0.082426	7.3688e+06	-57739.1	955.818	-29736.7	0.000000	0.000000	6.082740	-0.030294	NaN	0.000000	0.001645	0.001638	28.0812	0.044247	0.002048	21.6088	-123.432	-166.447	0.004910	0.081098	-0.977373	-0.978701	-0.030294	21.6088	-0.976322	-1.088552E+13	2.782938E-15	NaN
382	1.000000	0.122452	7.3688e+06	-57739.1	955.818	-29736.7	0.000000	0.000000	6.122762	-0.099594	NaN	0.000000	0.001657	0.001697	28.0813	0.124984	0.001966	63.5764	-47.8226	-164.371	-0.119931	0.121144	-0.937348	-0.938655	-0.099594	63.5764	-0.936173	-3.129659E+12	3.182263E-14	NaN
382	1.000000	0.162481	7.3688e+06	-57739.1	955.817	-29736.7	0.000000	0.000000	6.162795	-0.006347	NaN	0.000000	0.001679	0.001691	28.0813	0.056757	0.002023	28.0574	137.785	-168.152	-0.113752	0.161213	-0.897318	-0.898586	-0.006347	28.0574	-0.897149	-9.301123E+11	6.823422E-15	NaN
382	1.000000	0.202514	7.3688e+06	-57739.1	955.818	-29736.8	0.000000	0.000000	6.202829	0.018669	NaN	0.000000	0.001694	0.001680	28.0801	0.028525	0.001926	14.8079	-176.805	-166.896	-0.000489	0.201191	-0.857285	-0.858608	0.018669	14.8079	-0.858231	-2.768043E+11	-6.744534E-14	NaN
382	1.000000	0.242497	7.3688e+06	-57739.1	955.818	-29736.8	0.000000	0.000000	6.242811	-0.013850	NaN	0.000000	0.001606	0.001670	28.0802	0.078789	0.002020	39.0018	15.4593	-166.75	-0.028598	0.241213	-0.817302	-0.818587	-0.013850	39.0018	-0.817036	-7.656216E+10	1.809032E-13	NaN
382	1.000000	0.282549	7.3688e+06	-57739.1	955.818	-29736.8	0.000000	0.000000	6.282860	-0.083611	NaN	0.000000	0.001578	0.001690	28.08	0.074844	0.001970	37.9876	-44.5914	-166.329	-0.043287	0.281268	-0.777250	-0.778531	-0.083611	37.9876	-0.775600	-2.096186E+10	3.988719E-12	NaN
382	1.000000	0.322547	7.3688e+06	-57739.1	955.818	-29736.8	0.000000	0.000000	6.322861	-0.029606	NaN	0.000000	0.001578	0.001670	28.0805	0.055407	0.001966	28.1761	162.927	-165.526	-0.064226	0.321252	-0.737252	-0.738547	-0.029606	28.1761	-0.736464	-6.150161E+9	4.813901E-12	NaN
382	1.000000	0.362575	7.3688e+06	-57739.1	955.82	-29736.8	0.000000	0.000000	6.362887	-0.063753	NaN	0.000000	0.001575	0.001671	28.0819	0.047947	0.001850	25.9145	-120.615	-164.372	-0.030897	0.361275	-0.697224	-0.698524	-0.063753	25.9145	-0.695379	-1.692043E+9	3.767827E-11	NaN
382	1.000000	0.402599	7.3688e+06	-57739.1	955.818	-29736.8	0.000000	0.000000	6.402914	0.005173	NaN	0.000000	0.001573	0.001667	28.0814	0.081881	0.002101	38.9686	-122.809	-166.54	0.006158	0.401254	-0.657200	-0.658545	0.005173	38.9686	-0.657300	-5.098879E+8	-1.014501E-11	NaN
382	1.000000	0.442619	7.3688e+06	-57739.1	955.818	-29736.8	0.000000	0.000000	6.442933	0.004407	NaN	0.000000	0.001564	0.001703	28.0819	0.019791	0.001947	10.1633	159.478	-164.513	-0.016540	0.441285	-0.617181	-0.618515	0.004407	10.1633	-0.617506	-1.449925E+8	-3.039131E-11	NaN
382	1.000000	0.482591	7.3688e+06	-57739.1	955.818	-29736.8	0.000000	0.000000	6.482907	0.025911	NaN	0.000000	0.001572	0.001696	28.0803	0.092675	0.001837	50.4433	175.909	-163.517	0.054513	0.481264	-0.577208	-0.578535	0.025911	50.4433	-0.577593	-4.087906E+7	-6.338503E-10	NaN
382	1.000000	0.522670	7.3688e+06	-57739.1	955.818	-29736.8	0.000000	0.000000	6.522984	-0.014279	NaN	0.000000	0.001578	0.001659	28.0802	0.048849	0.001921	25.4232	-117.659	-165.616	0.013113	0.521322	-0.537129	-0.538478	-0.014279	25.4232	-0.536708	-1.110945E+7	1.285330E-9	NaN
382	1.000000	0.562646	7.3688e+06	-57739.1	955.819	-29736.8	0.000000	0.000000	6.562957	-0.090136	NaN	0.000000	0.001643	0.001748	28.0802	0.120348	0.001966	61.212	141.85	-168.875	-0.110202	0.561346	-0.497153	-0.498453	-0.090136	61.212	-0.496049	-3.0191e+06	2.985523E-8	NaN
382	1.000000	0.602662	7.3688e+06	-57739.1	955.818	-29736.8	0.000000	0.000000	6.602978	0.032550	NaN	0.000000	0.001586	0.001745	28.0813	0.023924	0.001969	12.1499	84.0293	-168.124	0.049554	0.601386	-0.457137	-0.458413	0.032550	12.1499	-0.459146	-918375	-3.544336E-8	NaN
382	1.000000	0.642681	7.3688e+06	-57739.1	955.819	-29736.8	0.000000	0.000000	6.642992	-0.094588	NaN	0.000000	0.001648	0.001704	28.0818	0.012278	0.002107	5.826706	162.395	-165.097	-0.060182	0.641404	-0.417118	-0.418396	-0.094588	5.826706	-0.404943	-157193	6.017339E-7	NaN
382	1.000000	0.682687	7.3688e+06	-57739.1	955.818	-29736.8	0.000000	0.000000	6.683001	-0.022116	NaN	0.000000	0.001725	0.001709	28.0815	0.074312	0.002016	36.8702	-152.871	-166.256	-0.099148	0.681401	-0.377112	-0.378398	-0.022116	36.8702	-0.376662	-61938.4	3.570672E-7	NaN
382	1.000000	0.722743	7.3688e+06	-57739.1	955.819	-29736.8	0.000000	0.000000	6.723055	-0.057323	NaN	0.000000	0.001636	0.001716	28.0815	0.020110	0.001954	10.2911	7.800049	-164.028	-0.032204	0.721400	-0.337056	-0.338400	-0.057323	10.2911	-0.332879	-14374.1	3.987931E-6	NaN
382	1.000000	0.762728	7.3688e+06	-57739.1	955.817	-29736.8	0.000000	0.000000	6.763041	-0.037459	NaN	0.000000	0.001686	0.001692	28.0804	0.108903	0.001873	58.1364	98.4788	-166.894	-0.032090	0.761455	-0.297072	-0.298344	-0.037459	58.1364	-0.296588	-4185.96	8.948653E-6	NaN
382	1.000000	0.802779	7.3688e+06	-57739.1	955.818	-29736.8	0.000000	0.000000	6.803091	-0.051704	NaN	0.000000	0.001741	0.001717	28.0803	0.065794	0.001979	33.2444	26.8165	-164.384	-0.073299	0.801469	-0.257021	-0.258330	-0.051704	33.2444	-0.255854	-1012.19	5.108124E-5	NaN
382	1.000000	0.842752	7.3688e+06	-57739.1	955.818	-29736.8	0.000000	0.000000	6.843067	0.024140	NaN	0.000000	0.001715	0.001702	28.0804	0.070961	0.002055	34.5289	69.324	-165.483	-0.051361	0.841423	-0.217047	-0.218376	0.024140	34.5289	-0.217572	-253.987	-9.504442E-5	NaN
382	1.000000	0.882790	7.3688e+06	-57739.1	955.819	-29736.8	0.000000	0.000000	6.883102	-0.072860	NaN	0.000000	0.001689	0.001733	28.0813	0.105656	0.002130	49.612	-63.2085	-164.361	0.011761	0.881445	-0.177009	-0.178355	-0.072860	49.612	-0.175908	-51.9478	0.001403	NaN
382	1.000000	0.922807	7.3688e+06	-57739.1	955.819	-29736.8	0.000000	0.000000	6.923118	-0.075117	NaN	0.000000	0.001748	0.001690	28.0814	0.014442	0.002019	7.154180	-10.7136	-167.755	-0.087439	0.921504	-0.136992	-0.138295	-0.075117	7.154180	-0.129118	-7.325596	0.010254	NaN
382	1.000000	0.962791	7.3688e+06	-57739.1	955.819	-29736.8	0.000000	0.000000	6.963104	-0.049498	NaN	0.000000	0.001611	0.001639	28.0816	0.107334	0.001939	55.3531	-157.307	-164.542	-0.087645	0.961547	-0.097008	-0.098253	-0.049498	55.3531	-0.096338	-1.512796	0.032720	NaN
382	1.000000	1.002818	7.3688e+06	-57739.1	955.818	-29736.8	0.000000	0.000000	7.003135	0.042357	NaN	0.000000	0.001611	0.001675	28.0817	0.073564	0.001876	39.2127	-61.1979	-162.814	-0.011223	1.001453	-0.056981	-0.058347	0.042357	39.2127	-0.057791	-0.155483	-0.272424	NaN
382	1.000000	1.042850	7.3688e+06	-57739.1	955.818	-29736.8	0.000000	0.000000	7.043161	-0.073136	NaN	0.000000	0.001610	0.001685	28.0801	0.024522	0.002001	12.2577	-82.3692	-165.999	-0.018546	1.041476	-0.016950	-0.018324	-0.073136	12.2577	-0.012475	-0.007800	9.376107	NaN
382	2.000000	1.074365	7.3688e+06	-57739.1	955.818	-29736.8	0.000000	0.000000	7.075179	12.1325	NaN	0.000000	0.001604	0.001621	28.0798	11.944	0.001803	6625.95	3.702667	-170.078	11.1944	1.074101	0.014566	0.014302	12.1325	6625.95	0.013192	0.012950	936.88	53197.2
382	2.000000	1.084317	7.3688e+06	-57739.1	955.818	-29736.8	0.000000	0.000000	7.085904	30.9117	NaN	0.000000	0.001615	0.001645	28.0801	22.8999	0.001903	12035.3	6.453969	-177.051	29.6225	1.083934	0.024518	0.024135	30.9117	12035.3	0.022592	0.026780	1154.3	67193.4
382	2.000000	1.094297	7.3688e+06	-57739.1	955.819	-29736.8	0.000000	0.000000	7.096826	53.8044	NaN	0.000000	0.001613	0.001618	28.0814	31.9127	0.001805	17678.7	6.209009	-179.308	52.8018	1.093981	0.034498	0.034181	53.8044	17678.7	0.032215	0.045460	1183.54	75754.1
382	2.000000	1.104266	7.3688e+06	-57739.1	955.819	-29736.8	0.000000	0.000000	7.108216	88.3533	NaN	0.000000	0.001653	0.001621	28.0813	42.8073	0.001911	22405.2	6.686377	177.434	87.0713	1.103895	0.044467	0.044095	88.3533	22405.2	0.041509	0.067988	1299.55	78506.9
382	2.000000	1.114236	7.3688e+06	-57739.1	955.819	-29736.8	0.000000	0.000000	7.119498	120.244	NaN	0.000000	0.001639	0.001613	28.0814	52.8455	0.001767	29904	6.621311	173.867	117.069	1.114093	0.054437	0.054294	120.244	29904	0.051421	0.096856	1241.47	87788.8
382	2.000000	1.124201	7.3688e+06	-57739.1	955.818	-29736.8	0.000000	0.000000	7.131767	176.219	NaN	0.000000	0.001611	0.001611	28.0809	61.6571	0.001679	36725.2	4.672214	174.189	173.508	1.123944	0.064402	0.064145	176.219	36725.2	0.060803	0.128705	1369.17	93527.6
382	2.000000	1.134258	7.3688e+06	-57739.1	955.819	-29736.8	0.000000	0.000000	7.143937	227.585	NaN	0.000000	0.001601	0.001640	28.0802	72.2688	0.001823	39649.9	6.466109	173.115	227.342	1.133838	0.074459	0.074039	227.585	39649.9	0.070154	0.164716	1381.68	89258
382	2.000000	1.144256	7.3688e+06	-57739.1	955.82	-29736.8	0.000000	0.000000	7.156484	289.542	NaN	0.000000	0.001562	0.001671	28.08	80.8926	0.001823	44379.1	6.275164	172	288.383	1.143985	0.084457	0.084186	289.542	44379.1	0.079563	0.205151	1411.36	89518.9
382	2.000000	1.154182	7.3688e+06	-57739.1	955.82	-29736.8	0.000000	0.000000	7.169569	366.308	NaN	0.000000	0.001643	0.001707	28.0801	90.6884	0.001827	49637	3.415453	174.695	363.537	1.153825	0.094383	0.094026	366.308	49637	0.088848	0.249099	1470.53	90864.1
382	2.000000	1.164097	7.3688e+06	-57739.1	955.819	-29736.8	0.000000	0.000000	7.182764	446.019	NaN	0.000000	0.001636	0.001700	28.0815	99.2387	0.001794	55322.7	4.163547	173.235	439.572	1.163878	0.104298	0.104078	446.019	55322.7	0.098251	0.297646	1498.49	92646
382	2.000000	1.170294	7.3688e+06	-57739.1	955.819	-29736.8	0.000000	0.000000	7.190548	484.583	NaN	0.000000	0.001611	0.001672	28.0814	105.048	0.001799	58382.2	5.570443	171.695	489.2	1.169900	0.110495	0.110101	484.583	58382.2	0.104270	0.330834	1464.73	92736.1