File: remote_trans/data/nanoindenter/0828-1/data/Data_2025-08-06,11h17m57s/2025-07-22_16-23-58_1_1188.txt
2025-07-22, 16:23:58, 1
Index	Phase	Displacement	Time	Pos X	Pos Y	Pos Z	Rot A	Rot B	Piezo Z	Force A	Force B	Gripper	Voltage A	Voltage B	Temperature	Amplitude force	Amplitude pos	Stiffness	Phase shift	Phase excitation	Force A raw	Displacement raw	HMax	HMax raw	Real Force	Real Stiffness	Contact Depth	Area	Hardness	Reduced Mod.
[#]	[#]	[um]	[s]	[um]	[um]	[um]	[m°]	[m°]	[um]	[uN]	[uN]	[V]	[V]	[V]	[°C]	[uN]	[um]	[N/m]	[°]	[°]	[uN]	[um]	[um]	[um]	[uN]	[N/m]	[um]	[um^2]	[MPa]	[MPa]
1188	1.000000	0.002397	7.37666e+06	-56189.1	1105.82	-29739.5	0.000000	0.000000	6.002778	-0.011273	NaN	0.000000	0.001581	0.001693	28.0809	0.055128	0.000991	55.6305	125.652	-172.876	-0.035693	0.001146	-1.061796	-1.063047	-0.011273	55.6305	-1.061644	-1.530782E+14	7.364329E-17	NaN
1188	1.000000	0.042364	7.37666e+06	-56189.1	1105.82	-29739.5	0.000000	0.000000	6.042748	0.060040	NaN	0.000000	0.001637	0.001716	28.0802	0.066589	0.001817	36.6399	169.006	-169.651	0.045779	0.041052	-1.021829	-1.023142	0.060040	36.6399	-1.023058	-4.635439E+13	-1.295232E-15	NaN
1188	1.000000	0.082348	7.37666e+06	-56189.1	1105.82	-29739.5	0.000000	0.000000	6.082729	-0.003967	NaN	0.000000	0.001641	0.001690	28.0815	0.039684	0.002223	17.8524	136.113	-163.255	-0.007692	0.081091	-0.981845	-0.983102	-0.003967	17.8524	-0.981679	-1.285364E+13	3.086354E-16	NaN
1188	1.000000	0.122385	7.37666e+06	-56189.1	1105.82	-29739.5	0.000000	0.000000	6.122766	-0.018036	NaN	0.000000	0.001635	0.001710	28.0815	0.094844	0.001949	48.6513	148.262	-165.096	0.052450	0.121096	-0.941808	-0.943097	-0.018036	48.6513	-0.941530	-3.696346E+12	4.879363E-15	NaN
1188	1.000000	0.162400	7.37667e+06	-56189.1	1105.82	-29739.5	0.000000	0.000000	6.162781	-0.022813	NaN	0.000000	0.001580	0.001642	28.0816	0.025082	0.002047	12.2528	27.8492	-166.702	-0.033509	0.161094	-0.901793	-0.903099	-0.022813	12.2528	-0.900396	-1.029011E+12	2.216984E-14	NaN
1188	1.000000	0.202397	7.37667e+06	-56189.1	1105.82	-29739.5	0.000000	0.000000	6.202777	-0.030330	NaN	0.000000	0.001587	0.001663	28.0803	0.085926	0.001945	44.1819	-41.499	-166.899	-0.079765	0.201154	-0.861796	-0.863039	-0.030330	44.1819	-0.861281	-3.044134E+11	9.963565E-14	NaN
1188	1.000000	0.242451	7.37667e+06	-56189.1	1105.82	-29739.5	0.000000	0.000000	6.242834	0.014767	NaN	0.000000	0.001553	0.001608	28.0804	0.105321	0.002002	52.612	53.1421	-166.689	0.028731	0.241129	-0.821742	-0.823064	0.014767	52.612	-0.821952	-8.926547E+10	-1.654260E-13	NaN
1188	1.000000	0.282458	7.37667e+06	-56189.1	1105.82	-29739.5	0.000000	0.000000	6.282840	0.004621	NaN	0.000000	0.001579	0.001687	28.0806	0.078840	0.001992	39.5871	-57.7724	-164.404	0.011272	0.281147	-0.781735	-0.783046	0.004621	39.5871	-0.781822	-2.546801E+10	-1.814574E-13	NaN
1188	1.000000	0.322452	7.37667e+06	-56189.1	1105.82	-29739.5	0.000000	0.000000	6.322830	-0.081495	NaN	0.000000	0.001557	0.001669	28.0807	0.087374	0.001900	45.9788	174.363	-163.678	-0.043246	0.321150	-0.741741	-0.743043	-0.081495	45.9788	-0.740412	-6.960868E+9	1.170766E-11	NaN
1188	1.000000	0.362500	7.37667e+06	-56189.1	1105.82	-29739.5	0.000000	0.000000	6.362881	-0.001536	NaN	0.000000	0.001538	0.001633	28.0817	0.087743	0.002089	42.0093	163.178	-163.658	-0.069789	0.361263	-0.701693	-0.702930	-0.001536	42.0093	-0.701666	-2.061954E+9	7.450088E-13	NaN
1188	1.000000	0.402524	7.37667e+06	-56189.1	1105.82	-29739.5	0.000000	0.000000	6.402904	-0.045712	NaN	0.000000	0.001540	0.001687	28.0819	0.106255	0.002024	52.5071	-139.172	-165.844	0.008217	0.401205	-0.661669	-0.662988	-0.045712	52.5071	-0.661016	-5.733059E+8	7.973464E-11	NaN
1188	1.000000	0.442511	7.37667e+06	-56189.1	1105.82	-29739.5	0.000000	0.000000	6.442889	-0.083684	NaN	0.000000	0.001633	0.001714	28.0819	0.071088	0.002022	35.1547	-124.594	-167.642	0.010477	0.441211	-0.621682	-0.622982	-0.083684	35.1547	-0.619897	-1.563925E+8	5.350922E-10	NaN
1188	1.000000	0.482537	7.37667e+06	-56189.1	1105.82	-29739.5	0.000000	0.000000	6.482919	-0.002515	NaN	0.000000	0.001650	0.001685	28.0808	0.041303	0.001856	22.2591	-145.589	-167.506	0.014314	0.481248	-0.581656	-0.582945	-0.002515	22.2591	-0.581571	-4.638790E+7	5.422228E-11	NaN
1188	1.000000	0.522577	7.37667e+06	-56189.1	1105.82	-29739.5	0.000000	0.000000	6.522957	-0.051130	NaN	0.000000	0.001532	0.001689	28.0806	0.011353	0.001986	5.717703	-69.6703	-163.237	-0.076144	0.521237	-0.541616	-0.542956	-0.051130	5.717703	-0.534909	-1.048878E+7	4.874705E-9	NaN
1188	1.000000	0.562603	7.37667e+06	-56189.1	1105.82	-29739.5	0.000000	0.000000	6.562983	-0.028275	NaN	0.000000	0.001591	0.001697	28.0805	0.141166	0.001979	71.3405	162.338	-162.212	-0.058822	0.561261	-0.501590	-0.502932	-0.028275	71.3405	-0.501293	-3.57319e+06	7.913237E-9	NaN
1188	1.000000	0.602596	7.37667e+06	-56189.1	1105.82	-29739.5	0.000000	0.000000	6.602974	-0.087271	NaN	0.000000	0.001525	0.001699	28.0818	0.047253	0.001962	24.0796	171.286	-164.283	0.001408	0.601322	-0.461597	-0.462871	-0.087271	24.0796	-0.458879	-910459	9.585341E-8	NaN
1188	1.000000	0.642610	7.37667e+06	-56189.1	1105.82	-29739.5	0.000000	0.000000	6.642994	0.057929	NaN	0.000000	0.001549	0.001660	28.0816	0.025756	0.001937	13.2945	95.0672	-168.055	0.026308	0.641305	-0.421584	-0.422888	0.057929	13.2945	-0.424851	-301425	-1.921825E-7	NaN
1188	1.000000	0.682635	7.37667e+06	-56189.1	1105.82	-29739.5	0.000000	0.000000	6.683015	-0.020804	NaN	0.000000	0.001567	0.001701	28.0817	0.091765	0.002034	45.1216	-153.102	-162.904	-0.047899	0.681321	-0.381558	-0.382872	-0.020804	45.1216	-0.381213	-71992.5	2.889771E-7	NaN
1188	1.000000	0.722636	7.37667e+06	-56189.1	1105.82	-29739.5	0.000000	0.000000	6.723017	-0.012654	NaN	0.000000	0.001626	0.001629	28.0816	0.113422	0.001907	59.4811	44.3826	-166.753	-0.019673	0.721393	-0.341557	-0.342800	-0.012654	59.4811	-0.341398	-19139.1	6.611633E-7	NaN
1188	1.000000	0.762675	7.37667e+06	-56189.1	1105.82	-29739.5	0.000000	0.000000	6.763054	-0.057754	NaN	0.000000	0.001630	0.001681	28.0807	0.053199	0.002116	25.1382	-27.4733	-165.065	-0.066050	0.761397	-0.301518	-0.302796	-0.057754	25.1382	-0.299795	-4672.9	1.235938E-5	NaN
1188	1.000000	0.802698	7.37667e+06	-56189.1	1105.82	-29739.5	0.000000	0.000000	6.803076	-0.092536	NaN	0.000000	0.001575	0.001720	28.0808	0.050005	0.001980	25.2609	83.0382	-167.048	-0.069698	0.801338	-0.261495	-0.262855	-0.092536	25.2609	-0.258748	-1121.29	8.252621E-5	NaN
1188	1.000000	0.842686	7.37667e+06	-56189.1	1105.82	-29739.5	0.000000	0.000000	6.843064	-0.077805	NaN	0.000000	0.001540	0.001689	28.0814	0.102013	0.001953	52.2446	148.383	-166.384	-0.060816	0.841322	-0.221507	-0.222871	-0.077805	52.2446	-0.220390	-281.78	0.000276	NaN
1188	1.000000	0.882705	7.37667e+06	-56189.1	1105.82	-29739.5	0.000000	0.000000	6.883087	0.013315	NaN	0.000000	0.001565	0.001665	28.0824	0.066517	0.001944	34.2218	-175.718	-167.297	-0.018745	0.881435	-0.181489	-0.182758	0.013315	34.2218	-0.181780	-65.4193	-0.000204	NaN
1188	1.000000	0.922733	7.37667e+06	-56189.1	1105.82	-29739.5	0.000000	0.000000	6.923114	-0.001630	NaN	0.000000	0.001570	0.001657	28.0821	0.150320	0.001818	82.6681	165.55	-165.802	0.020932	0.921452	-0.141461	-0.142742	-0.001630	82.6681	-0.141446	-12.5911	0.000129	NaN
1188	1.000000	0.962773	7.37667e+06	-56189.1	1105.82	-29739.5	0.000000	0.000000	6.963151	-0.096106	NaN	0.000000	0.001586	0.001650	28.082	0.041755	0.002029	20.5794	-12.7483	-165.871	-0.070277	0.961417	-0.101420	-0.102776	-0.096106	20.5794	-0.097917	-1.641889	0.058534	NaN
1188	1.000000	1.002751	7.37667e+06	-56189.1	1105.82	-29739.5	0.000000	0.000000	7.003130	-0.082054	NaN	0.000000	0.001554	0.001689	28.0819	0.096365	0.001935	49.7983	85.3543	-167.068	-0.153969	1.001452	-0.061442	-0.062741	-0.082054	49.7983	-0.060206	-0.182557	0.449470	NaN
1188	1.000000	1.042748	7.37667e+06	-56189.1	1105.82	-29739.5	0.000000	0.000000	7.043128	-0.032302	NaN	0.000000	0.001572	0.001697	28.0805	0.044720	0.002003	22.328	142.484	-163.354	-0.017807	1.041493	-0.021445	-0.022700	-0.032302	22.328	-0.020360	-0.012829	2.517962	NaN
1188	2.000000	1.073362	7.37667e+06	-56189.1	1105.82	-29739.5	0.000000	0.000000	7.074311	13.7995	NaN	0.000000	0.001570	0.001724	28.0802	13.1042	0.001790	7320.52	6.328939	-172.472	14.1956	1.073027	0.009169	0.008834	13.7995	7320.52	0.007755	0.006792	2031.85	81157.6
1188	2.000000	1.083281	7.37667e+06	-56189.1	1105.82	-29739.5	0.000000	0.000000	7.085019	32.9727	NaN	0.000000	0.001566	0.001712	28.0802	22.9981	0.001756	13098.4	6.072807	-179.402	32.3261	1.083005	0.019088	0.018812	32.9727	13098.4	0.017200	0.018331	1798.71	88388.5
1188	2.000000	1.093254	7.37667e+06	-56189.1	1105.82	-29739.5	0.000000	0.000000	7.096168	61.5557	NaN	0.000000	0.001643	0.001689	28.0814	32.1398	0.001654	19428.7	0.876264	-177.764	60.2279	1.092953	0.029061	0.028760	61.5557	19428.7	0.026685	0.034152	1802.38	96052
1188	2.000000	1.103294	7.37667e+06	-56189.1	1105.82	-29739.5	0.000000	0.000000	7.107447	91.6601	NaN	0.000000	0.001619	0.001722	28.0814	43.9655	0.001866	23560.3	4.003801	177.835	92.0757	1.102961	0.039101	0.038768	91.6601	23560.3	0.036183	0.054537	1680.7	92174.2
1188	2.000000	1.113227	7.37667e+06	-56189.1	1105.82	-29739.5	0.000000	0.000000	7.119175	135.307	NaN	0.000000	0.001580	0.001689	28.0814	53.2712	0.001954	27267.1	5.589941	175.085	134.193	1.112902	0.049034	0.048709	135.307	27267.1	0.045312	0.078476	1724.19	88929.2
1188	2.000000	1.123217	7.37667e+06	-56189.1	1105.82	-29739.5	0.000000	0.000000	7.131057	181.302	NaN	0.000000	0.001606	0.001693	28.0802	61.4361	0.001907	32218.2	1.019775	178.254	179.686	1.122955	0.059024	0.058762	181.302	32218.2	0.054803	0.107836	1681.27	89638
1188	2.000000	1.133232	7.37667e+06	-56189.1	1105.82	-29739.5	0.000000	0.000000	7.143552	241.57	NaN	0.000000	0.001537	0.001722	28.0804	70.8363	0.001791	39544.2	5.128594	172.81	240.977	1.132932	0.069039	0.068739	241.57	39544.2	0.064458	0.142277	1697.89	95783.1
1188	2.000000	1.143198	7.37667e+06	-56189.1	1105.82	-29739.5	0.000000	0.000000	7.156070	303.616	NaN	0.000000	0.001540	0.001823	28.0804	80.3184	0.001817	44199.7	7.450117	169.078	302.389	1.142885	0.079005	0.078692	303.616	44199.7	0.073853	0.180114	1685.69	95152.4
1188	2.000000	1.153183	7.37667e+06	-56189.1	1105.82	-29739.5	0.000000	0.000000	7.169000	375.182	NaN	0.000000	0.001570	0.001741	28.0806	86.7666	0.001665	52127.7	-1.041573	176.969	373.108	1.152976	0.088990	0.088783	375.182	52127.7	0.083592	0.223732	1676.93	100688
1188	2.000000	1.163248	7.37667e+06	-56189.1	1105.82	-29739.5	0.000000	0.000000	7.182370	455.546	NaN	0.000000	0.001576	0.001740	28.0817	97.8007	0.001706	57326.5	3.716494	171.611	458.042	1.162955	0.099055	0.098762	455.546	57326.5	0.093095	0.270523	1683.94	100699
1188	2.000000	1.168604	7.37667e+06	-56189.1	1105.82	-29739.5	0.000000	0.000000	7.189955	509.716	NaN	0.000000	0.001512	0.001703	28.0818	101.476	0.001787	56779.5	2.378055	-6.577581	501.962	1.168209	0.104411	0.104015	509.716	56779.5	0.097678	0.294569	1730.38	95581