File: remote_trans/data/nanoindenter/0828-1/data/Data_2025-08-06,11h17m57s/2025-07-22_16-23-58_1_617.txt
2025-07-22, 16:23:58, 1
Index	Phase	Displacement	Time	Pos X	Pos Y	Pos Z	Rot A	Rot B	Piezo Z	Force A	Force B	Gripper	Voltage A	Voltage B	Temperature	Amplitude force	Amplitude pos	Stiffness	Phase shift	Phase excitation	Force A raw	Displacement raw	HMax	HMax raw	Real Force	Real Stiffness	Contact Depth	Area	Hardness	Reduced Mod.
[#]	[#]	[um]	[s]	[um]	[um]	[um]	[m°]	[m°]	[um]	[uN]	[uN]	[V]	[V]	[V]	[°C]	[uN]	[um]	[N/m]	[°]	[°]	[uN]	[um]	[um]	[um]	[uN]	[N/m]	[um]	[um^2]	[MPa]	[MPa]
617	1.000000	0.003112	7.37109e+06	-46239.1	1005.82	-29769.9	0.000000	0.000000	6.002778	-0.041368	NaN	0.000000	0.001575	0.001689	28.0809	0.100225	0.000918	109.148	36.3112	-166.149	-0.049683	0.001896	-1.065741	-1.066957	-0.041368	109.148	-1.065457	-1.722462E+14	2.401700E-16	NaN
617	1.000000	0.043104	7.37109e+06	-46239.1	1005.82	-29769.9	0.000000	0.000000	6.042770	-0.041024	NaN	0.000000	0.001511	0.001680	28.0812	0.105388	0.001918	54.945	-152.551	-164.754	0.034190	0.041788	-1.025749	-1.027065	-0.041024	54.945	-1.025189	-4.951774E+13	8.284749E-16	NaN
617	1.000000	0.083082	7.37109e+06	-46239.1	1005.82	-29769.9	0.000000	0.000000	6.082748	-0.033001	NaN	0.000000	0.001498	0.001673	28.0828	0.084389	0.001887	44.7163	16.2158	-163.094	-0.053078	0.081760	-0.985771	-0.987093	-0.033001	44.7163	-0.985218	-1.434496E+13	2.300504E-15	NaN
617	1.000000	0.123131	7.37109e+06	-46239.1	1005.82	-29769.9	0.000000	0.000000	6.122796	-0.079319	NaN	0.000000	0.001522	0.001710	28.0828	0.058958	0.001943	30.3389	-164.609	-162.442	-0.014324	0.121807	-0.945722	-0.947046	-0.079319	30.3389	-0.943761	-3.961608E+12	2.002193E-14	NaN
617	1.000000	0.163123	7.37109e+06	-46239.1	1005.82	-29769.9	0.000000	0.000000	6.162790	-0.029577	NaN	0.000000	0.001554	0.001654	28.0827	0.105930	0.001957	54.1151	-1.264637	-166.474	-0.101223	0.161835	-0.905730	-0.907018	-0.029577	54.1151	-0.905320	-1.199346E+12	2.466052E-14	NaN
617	1.000000	0.203136	7.37109e+06	-46239.1	1005.82	-29769.9	0.000000	0.000000	6.202805	0.021586	NaN	0.000000	0.001561	0.001673	28.0827	0.048273	0.001956	24.6832	-72.4792	-164.365	-0.074189	0.201854	-0.865717	-0.866998	0.021586	24.6832	-0.866372	-3.567482E+11	-6.050804E-14	NaN
617	1.000000	0.243153	7.37109e+06	-46239.1	1005.82	-29769.9	0.000000	0.000000	6.242821	0.006786	NaN	0.000000	0.001578	0.001707	28.0814	0.031679	0.002053	15.4307	162.491	-162.579	0.012980	0.241835	-0.825700	-0.827017	0.006786	15.4307	-0.826030	-1.013828E+11	-6.693327E-14	NaN
617	1.000000	0.283175	7.37109e+06	-46239.1	1005.82	-29769.9	0.000000	0.000000	6.282842	-0.010044	NaN	0.000000	0.001590	0.001681	28.0814	0.075339	0.002131	35.3538	-113.179	-163.996	-0.003196	0.281907	-0.785678	-0.786945	-0.010044	35.3538	-0.785465	-2.854211E+10	3.519044E-13	NaN
617	1.000000	0.323197	7.37109e+06	-46239.1	1005.82	-29769.9	0.000000	0.000000	6.322863	-0.046517	NaN	0.000000	0.001549	0.001681	28.0814	0.027760	0.001980	14.0219	125.584	-165.49	-0.008188	0.321876	-0.745656	-0.746977	-0.046517	14.0219	-0.743168	-7.589292E+9	6.129348E-12	NaN
617	1.000000	0.363222	7.37109e+06	-46239.1	1005.82	-29769.9	0.000000	0.000000	6.362889	-0.033937	NaN	0.000000	0.001558	0.001644	28.083	0.119759	0.002310	51.8493	2.317144	-165.27	-0.087832	0.361914	-0.705630	-0.706939	-0.033937	51.8493	-0.705139	-2.299883E+9	1.475595E-11	NaN
617	1.000000	0.403235	7.37109e+06	-46239.1	1005.82	-29769.9	0.000000	0.000000	6.402903	0.009085	NaN	0.000000	0.001560	0.001653	28.083	0.083298	0.002140	38.9205	8.941008	-166.238	-0.017199	0.401974	-0.665618	-0.666878	0.009085	38.9205	-0.665793	-6.665064E+8	-1.363060E-11	NaN
617	1.000000	0.443246	7.37109e+06	-46239.1	1005.82	-29769.9	0.000000	0.000000	6.442911	-0.053065	NaN	0.000000	0.001554	0.001718	28.0833	0.124396	0.001928	64.5249	109.612	-163.218	-0.087348	0.441909	-0.625607	-0.626944	-0.053065	64.5249	-0.624990	-1.837432E+8	2.887992E-10	NaN
617	1.000000	0.483244	7.37109e+06	-46239.1	1005.82	-29769.9	0.000000	0.000000	6.482909	-0.067921	NaN	0.000000	0.001643	0.001679	28.0824	0.026381	0.002044	12.9092	-32.4056	-166.602	0.018855	0.481938	-0.585609	-0.586915	-0.067921	12.9092	-0.581663	-4.652347E+7	1.459930E-9	NaN
617	1.000000	0.523292	7.37109e+06	-46239.1	1005.82	-29769.9	0.000000	0.000000	6.522957	-0.054740	NaN	0.000000	0.001600	0.001767	28.0816	0.040105	0.001995	20.0983	-122.01	-164.453	-0.068267	0.521996	-0.545561	-0.546857	-0.054740	20.0983	-0.543518	-1.380835E+7	3.964283E-9	NaN
617	1.000000	0.563306	7.37109e+06	-46239.1	1005.82	-29769.9	0.000000	0.000000	6.562973	-0.028098	NaN	0.000000	0.001573	0.001721	28.0815	0.039699	0.001954	20.3198	85.9045	-165.837	-0.040889	0.561976	-0.505547	-0.506877	-0.028098	20.3198	-0.504510	-3.96194e+06	7.092072E-9	NaN
617	1.000000	0.603308	7.37109e+06	-46239.1	1005.82	-29769.9	0.000000	0.000000	6.602972	-0.103415	NaN	0.000000	0.001578	0.001741	28.0817	0.047914	0.002156	22.2241	141.964	-164.512	-0.123221	0.602057	-0.465544	-0.466796	-0.103415	22.2241	-0.462054	-1.00898e+06	1.024947E-7	NaN
617	1.000000	0.643303	7.37109e+06	-46239.1	1005.82	-29769.9	0.000000	0.000000	6.642969	-0.050871	NaN	0.000000	0.001570	0.001774	28.0831	0.071269	0.002093	34.048	-156.317	-167.937	-0.057892	0.642099	-0.425550	-0.426753	-0.050871	34.048	-0.424429	-297301	1.711106E-7	NaN
617	1.000000	0.683364	7.37109e+06	-46239.1	1005.82	-29769.9	0.000000	0.000000	6.683028	-0.100463	NaN	0.000000	0.001573	0.001742	28.0829	0.097655	0.001952	50.031	-133.461	-164.326	-0.110760	0.682001	-0.385488	-0.386851	-0.100463	50.031	-0.383982	-78886.8	1.273504E-6	NaN
617	1.000000	0.723368	7.37109e+06	-46239.1	1005.82	-29769.9	0.000000	0.000000	6.723034	-0.025999	NaN	0.000000	0.001557	0.001749	28.0828	0.079174	0.001920	41.2304	-69.0427	-167.631	-0.075920	0.722058	-0.345485	-0.346794	-0.025999	41.2304	-0.345012	-21604.1	1.203417E-6	NaN
617	1.000000	0.763375	7.37109e+06	-46239.1	1005.82	-29769.9	0.000000	0.000000	6.763038	-0.106772	NaN	0.000000	0.001563	0.001764	28.0816	0.060269	0.001981	30.4273	-107.265	-165.982	-0.085695	0.762068	-0.305478	-0.306785	-0.106772	30.4273	-0.302846	-5187.66	2.058190E-5	NaN
617	1.000000	0.803377	7.37109e+06	-46239.1	1005.82	-29769.9	0.000000	0.000000	6.803043	-0.039899	NaN	0.000000	0.001592	0.001784	28.0819	0.106517	0.002160	49.3117	-178.217	-164.057	-0.070281	0.802101	-0.265476	-0.266752	-0.039899	49.3117	-0.264869	-1391.21	2.867914E-5	NaN
617	1.000000	0.843432	7.37109e+06	-46239.1	1005.82	-29769.9	0.000000	0.000000	6.843098	-0.045791	NaN	0.000000	0.001595	0.001762	28.0817	0.015377	0.001955	7.863520	-30.5961	-169.646	-0.096631	0.842074	-0.225421	-0.226779	-0.045791	7.863520	-0.221054	-288.739	0.000159	NaN
617	1.000000	0.883435	7.37109e+06	-46239.1	1005.82	-29769.9	0.000000	0.000000	6.883099	-0.084011	NaN	0.000000	0.001564	0.001711	28.082	0.054643	0.001832	29.8265	26.2346	-164.421	-0.147541	0.882092	-0.185418	-0.186761	-0.084011	29.8265	-0.183305	-69.4268	0.001210	NaN
617	1.000000	0.923458	7.37109e+06	-46239.1	1005.82	-29769.9	0.000000	0.000000	6.923123	-0.052312	NaN	0.000000	0.001558	0.001688	28.0829	0.063827	0.001958	32.6037	79.1791	-165.122	-0.020010	0.922145	-0.145395	-0.146708	-0.052312	32.6037	-0.144192	-14.1644	0.003693	NaN
617	1.000000	0.963474	7.37109e+06	-46239.1	1005.82	-29769.9	0.000000	0.000000	6.963140	-0.023671	NaN	0.000000	0.001574	0.001681	28.0828	0.081891	0.002025	40.4427	103.572	-168.294	0.003636	0.962133	-0.105379	-0.106719	-0.023671	40.4427	-0.104940	-2.343599	0.010100	NaN
617	1.000000	1.003467	7.37109e+06	-46239.1	1005.82	-29769.9	0.000000	0.000000	7.003132	-0.066528	NaN	0.000000	0.001543	0.001669	28.0828	0.046308	0.002056	22.5243	73.8474	-165.049	-0.020655	1.002143	-0.065386	-0.066710	-0.066528	22.5243	-0.063170	-0.221567	0.300260	NaN
617	1.000000	1.043526	7.37109e+06	-46239.1	1005.82	-29769.9	0.000000	0.000000	7.043194	-0.006893	NaN	0.000000	0.001517	0.001600	28.0817	0.122574	0.001983	61.7998	116.228	-165.994	0.005529	1.042187	-0.025326	-0.026666	-0.006893	61.7998	-0.025243	-0.017119	0.402642	NaN
617	2.000000	1.076039	7.37109e+06	-46239.1	1005.82	-29769.9	0.000000	0.000000	7.076289	14.1435	NaN	0.000000	0.001558	0.001639	28.0816	12.3219	0.001719	7167.68	9.414871	-178.623	13.596	1.075675	0.007187	0.006822	14.1435	7167.68	0.005707	0.004788	2954.25	94644.9
617	2.000000	1.085970	7.37109e+06	-46239.1	1005.82	-29769.9	0.000000	0.000000	7.087050	34.3465	NaN	0.000000	0.001604	0.001689	28.0817	22.5639	0.001706	13228.9	5.272899	-179.167	33.7229	1.085632	0.017117	0.016779	34.3465	13228.9	0.015170	0.015513	2214.11	97041
617	2.000000	1.095873	7.37109e+06	-46239.1	1005.82	-29769.9	0.000000	0.000000	7.098205	64.8132	NaN	0.000000	0.001558	0.001676	28.0816	31.5576	0.001724	18303.8	5.281695	177.825	61.5548	1.095622	0.027020	0.026769	64.8132	18303.8	0.024365	0.029870	2169.87	96760.6
617	2.000000	1.105928	7.37109e+06	-46239.1	1005.82	-29769.9	0.000000	0.000000	7.109648	98.5631	NaN	0.000000	0.001526	0.001653	28.0828	42.1709	0.001778	23715.1	5.721477	174.582	98.2695	1.105703	0.037075	0.036851	98.5631	23715.1	0.033958	0.049348	1997.31	97535.7
617	2.000000	1.115924	7.37109e+06	-46239.1	1005.82	-29769.9	0.000000	0.000000	7.121584	145.766	NaN	0.000000	0.001507	0.001665	28.083	50.8448	0.001847	27526.1	2.325217	178	145.601	1.115593	0.047071	0.046740	145.766	27526.1	0.043099	0.072284	2016.58	93540
617	2.000000	1.125876	7.37109e+06	-46239.1	1005.82	-29769.9	0.000000	0.000000	7.133930	204.002	NaN	0.000000	0.001554	0.001647	28.0831	61.238	0.001852	33066.8	6.117267	172.464	203.506	1.125551	0.057023	0.056698	204.002	33066.8	0.052396	0.099962	2040.8	95553.9
617	2.000000	1.136001	7.37109e+06	-46239.1	1005.82	-29769.9	0.000000	0.000000	7.146079	253.242	NaN	0.000000	0.001544	0.001634	28.0821	68.5859	0.001733	39581.1	3.057026	173.739	258.36	1.135682	0.067148	0.066829	253.242	39581.1	0.062350	0.134368	1884.68	98653.5
617	2.000000	1.145891	7.37109e+06	-46239.1	1005.82	-29769.9	0.000000	0.000000	7.158897	324.449	NaN	0.000000	0.001596	0.001621	28.0827	76.9712	0.001805	42649.4	3.529109	172.813	324.733	1.145591	0.077038	0.076738	324.449	42649.4	0.071333	0.169552	1913.57	94631.4
617	2.000000	1.155815	7.37109e+06	-46239.1	1005.82	-29769.9	0.000000	0.000000	7.172071	403.509	NaN	0.000000	0.001586	0.001622	28.0819	86.8705	0.001744	49811.6	5.450404	170.303	400.536	1.155512	0.086963	0.086659	403.509	49811.6	0.080887	0.211173	1910.8	99034
617	2.000000	1.165818	7.37109e+06	-46239.1	1005.82	-29769.9	0.000000	0.000000	7.185345	483.078	NaN	0.000000	0.001589	0.001645	28.0829	94.6718	0.001773	53391.8	1.386174	173.661	480.246	1.165664	0.096965	0.096811	483.078	53391.8	0.090179	0.255728	1889.03	96462.6
617	2.000000	1.171818	7.37109e+06	-46239.1	1005.82	-29769.9	0.000000	0.000000	7.193754	541.696	NaN	0.000000	0.001580	0.001614	28.083	100.457	0.001786	56249	1.619333	173.752	538.619	1.171440	0.102965	0.102587	541.696	56249	0.095742	0.284297	1905.39	96383.3