File: remote_trans/data/nanoindenter/0828-1/data/Data_2025-08-06,11h17m57s/2025-07-22_16-23-58_1_741.txt
2025-07-22, 16:23:58, 1
Index	Phase	Displacement	Time	Pos X	Pos Y	Pos Z	Rot A	Rot B	Piezo Z	Force A	Force B	Gripper	Voltage A	Voltage B	Temperature	Amplitude force	Amplitude pos	Stiffness	Phase shift	Phase excitation	Force A raw	Displacement raw	HMax	HMax raw	Real Force	Real Stiffness	Contact Depth	Area	Hardness	Reduced Mod.
[#]	[#]	[um]	[s]	[um]	[um]	[um]	[m°]	[m°]	[um]	[uN]	[uN]	[V]	[V]	[V]	[°C]	[uN]	[um]	[N/m]	[°]	[°]	[uN]	[um]	[um]	[um]	[uN]	[N/m]	[um]	[um^2]	[MPa]	[MPa]
741	1.000000	0.002289	7.3723e+06	-40039.1	1005.82	-29791.5	0.000000	0.000000	6.002793	-0.009015	NaN	0.000000	0.001548	0.001692	28.0813	0.101166	0.001012	99.9698	77.643	-161.119	0.067178	0.000977	-1.124907	-1.126219	-0.009015	99.9698	-1.124839	-1.079923E+15	8.347938E-18	NaN
741	1.000000	0.044240	7.3723e+06	-40039.1	1005.82	-29791.5	0.000000	0.000000	6.044746	0.028912	NaN	0.000000	0.001567	0.001712	28.0811	0.108326	0.002080	52.0792	73.8091	14.6156	-0.031644	0.042910	-1.082956	-1.084286	0.028912	52.0792	-1.083372	-2.997861E+14	-9.644375E-17	NaN
741	1.000000	0.086250	7.3723e+06	-40039.1	1005.82	-29791.5	0.000000	0.000000	6.086753	-0.046804	NaN	0.000000	0.001547	0.001774	28.0809	0.064273	0.001918	33.5132	-48.2631	-164.206	-0.013591	0.084956	-1.040946	-1.042240	-0.046804	33.5132	-1.039898	-7.809039E+13	5.993563E-16	NaN
741	1.000000	0.128255	7.3723e+06	-40039.1	1005.82	-29791.5	0.000000	0.000000	6.128758	-0.025884	NaN	0.000000	0.001674	0.001709	28.0829	0.012070	0.002046	5.899014	42.4737	13.3126	0.019442	0.126908	-0.998941	-1.000288	-0.025884	5.899014	-0.995650	-1.982459E+13	1.305626E-15	NaN
741	1.000000	0.170276	7.3723e+06	-40039.1	1005.82	-29791.5	0.000000	0.000000	6.170781	0.021239	NaN	0.000000	0.001582	0.001760	28.0825	0.060023	0.001947	30.8269	100.946	-167.349	-0.036183	0.168920	-0.956920	-0.958276	0.021239	30.8269	-0.957437	-6.057706E+12	-3.506059E-15	NaN
741	1.000000	0.212322	7.3723e+06	-40039.1	1005.82	-29791.5	0.000000	0.000000	6.212828	0.041682	NaN	0.000000	0.001568	0.001702	28.0824	0.061595	0.001986	31.0135	16.5994	9.887135	0.018559	0.210916	-0.914874	-0.916280	0.041682	31.0135	-0.915882	-1.665737E+12	-2.502344E-14	NaN
741	1.000000	0.254337	7.3723e+06	-40039.1	1005.82	-29791.5	0.000000	0.000000	6.254840	-0.032218	NaN	0.000000	0.001562	0.001681	28.081	0.078076	0.002097	37.2342	-17.7058	-167.969	-0.025013	0.252995	-0.872859	-0.874201	-0.032218	37.2342	-0.872210	-4.279067E+11	7.529251E-14	NaN
741	1.000000	0.296351	7.3723e+06	-40039.1	1005.82	-29791.5	0.000000	0.000000	6.296854	-0.029969	NaN	0.000000	0.001580	0.001759	28.0811	0.135460	0.001908	71.0013	-39.4	16.3802	-0.082140	0.294998	-0.830846	-0.832198	-0.029969	71.0013	-0.830529	-1.166687E+11	2.568749E-13	NaN
741	1.000000	0.338375	7.3723e+06	-40039.1	1005.82	-29791.5	0.000000	0.000000	6.338878	-0.030422	NaN	0.000000	0.001564	0.001690	28.0809	0.005834	0.002047	2.849656	-76.9238	-167.839	0.015398	0.337085	-0.788821	-0.790111	-0.030422	2.849656	-0.780814	-2.467728E+10	1.232799E-12	NaN
741	1.000000	0.380358	7.3723e+06	-40039.1	1005.82	-29791.5	0.000000	0.000000	6.380864	0.023549	NaN	0.000000	0.001548	0.001708	28.0809	0.094787	0.001954	48.5161	78.1137	11.9641	0.023256	0.379009	-0.746838	-0.748187	0.023549	48.5161	-0.747202	-8.612449E+9	-2.734350E-12	NaN
741	1.000000	0.422386	7.3723e+06	-40039.1	1005.82	-29791.5	0.000000	0.000000	6.422891	0.008113	NaN	0.000000	0.001569	0.001666	28.082	0.036820	0.001882	19.5633	-158.486	-168.293	-0.040100	0.421175	-0.704810	-0.706021	0.008113	19.5633	-0.705121	-2.298562E+9	-3.529734E-12	NaN
741	1.000000	0.464412	7.3723e+06	-40039.1	1005.82	-29791.5	0.000000	0.000000	6.464915	-0.034521	NaN	0.000000	0.001555	0.001628	28.0824	0.063411	0.001927	32.9016	-109.067	12.7623	0.041051	0.463080	-0.662784	-0.664116	-0.034521	32.9016	-0.661997	-5.913260E+8	5.837866E-11	NaN
741	1.000000	0.506440	7.3723e+06	-40039.1	1005.82	-29791.5	0.000000	0.000000	6.506943	-0.022079	NaN	0.000000	0.001597	0.001677	28.0825	0.128056	0.002065	62.017	-176.872	-163.941	-0.094257	0.505078	-0.620756	-0.622118	-0.022079	62.017	-0.620489	-1.593534E+8	1.385556E-10	NaN
741	1.000000	0.548426	7.3723e+06	-40039.1	1005.82	-29791.5	0.000000	0.000000	6.548931	0.027888	NaN	0.000000	0.001577	0.001685	28.081	0.085771	0.001858	46.1695	159.585	10.8858	-0.037346	0.547104	-0.578771	-0.580092	0.027888	46.1695	-0.579224	-4.305360E+7	-6.477513E-10	NaN
741	1.000000	0.590477	7.3723e+06	-40039.1	1005.82	-29791.5	0.000000	0.000000	6.590979	-0.046510	NaN	0.000000	0.001554	0.001702	28.0809	0.020258	0.001818	11.1443	-23.8052	-166.726	-0.003533	0.589149	-0.536719	-0.538047	-0.046510	11.1443	-0.533589	-1.005568E+7	4.625266E-9	NaN
741	1.000000	0.632509	7.3723e+06	-40039.1	1005.82	-29791.5	0.000000	0.000000	6.633014	0.018989	NaN	0.000000	0.001655	0.001708	28.0811	0.155013	0.002027	76.458	141.45	11.5284	-0.050393	0.631146	-0.494687	-0.496050	0.018989	76.458	-0.494873	-2.90711e+06	-6.531949E-9	NaN
741	1.000000	0.674490	7.37231e+06	-40039.1	1005.82	-29791.5	0.000000	0.000000	6.674991	-0.071675	NaN	0.000000	0.001598	0.001690	28.0827	0.057673	0.002035	28.3425	-119.62	-165.114	0.059769	0.673150	-0.452706	-0.454046	-0.071675	28.3425	-0.450809	-701033	1.022421E-7	NaN
741	1.000000	0.716510	7.37231e+06	-40039.1	1005.82	-29791.5	0.000000	0.000000	6.717012	-0.061928	NaN	0.000000	0.001618	0.001657	28.0827	0.101147	0.001961	51.568	-85.2625	12.7103	-0.049959	0.715189	-0.410686	-0.412008	-0.061928	51.568	-0.409785	-184222	3.361579E-7	NaN
741	1.000000	0.758545	7.37231e+06	-40039.1	1005.82	-29791.5	0.000000	0.000000	6.759048	-0.015854	NaN	0.000000	0.001599	0.001619	28.0824	0.044984	0.001939	23.1998	-37.1286	-168.904	-0.019119	0.757209	-0.368652	-0.369987	-0.015854	23.1998	-0.368139	-46700.1	3.394877E-7	NaN
741	1.000000	0.800556	7.37231e+06	-40039.1	1005.82	-29791.5	0.000000	0.000000	6.801057	-0.071597	NaN	0.000000	0.001619	0.001631	28.0813	0.041102	0.001936	21.2333	114.736	16.1043	-0.055429	0.799228	-0.326640	-0.327968	-0.071597	21.2333	-0.324111	-10692.7	6.695926E-6	NaN
741	1.000000	0.842561	7.37231e+06	-40039.1	1005.82	-29791.5	0.000000	0.000000	6.843064	-0.043647	NaN	0.000000	0.001633	0.001667	28.0811	0.078437	0.001899	41.2991	-149.682	-166.043	-0.055864	0.841219	-0.284635	-0.285977	-0.043647	41.2991	-0.283842	-2696.85	1.618450E-5	NaN
741	1.000000	0.884609	7.37231e+06	-40039.1	1005.82	-29791.5	0.000000	0.000000	6.885113	-0.024369	NaN	0.000000	0.001615	0.001659	28.081	0.076508	0.002040	37.504	-122.267	13.8267	0.056299	0.883218	-0.242587	-0.243979	-0.024369	37.504	-0.242099	-619.879	3.931302E-5	NaN
741	1.000000	0.926604	7.37231e+06	-40039.1	1005.82	-29791.5	0.000000	0.000000	6.927107	-0.036752	NaN	0.000000	0.001613	0.001645	28.0813	0.091493	0.002044	44.7723	178.658	-167.301	0.079415	0.925312	-0.200592	-0.201884	-0.036752	44.7723	-0.199977	-131.617	0.000279	NaN
741	1.000000	0.968619	7.37231e+06	-40039.1	1005.82	-29791.5	0.000000	0.000000	6.969122	-0.035179	NaN	0.000000	0.001642	0.001624	28.0832	0.092323	0.002073	44.5261	101.738	15.8565	0.032201	0.967254	-0.158577	-0.159942	-0.035179	44.5261	-0.157985	-25.2397	0.001394	NaN
741	1.000000	1.010665	7.37231e+06	-40039.1	1005.82	-29791.5	0.000000	0.000000	7.011170	0.025071	NaN	0.000000	0.001593	0.001639	28.0827	0.093933	0.001923	48.8538	-54.9135	-168.752	0.029726	1.009319	-0.116532	-0.117877	0.025071	48.8538	-0.116916	-4.182609	-0.005994	NaN
741	1.000000	1.052657	7.37231e+06	-40039.1	1005.82	-29791.5	0.000000	0.000000	7.053160	-0.030874	NaN	0.000000	0.001589	0.001622	28.0825	0.100093	0.001926	51.9723	-35.0216	10.4419	0.042196	1.051304	-0.074539	-0.075892	-0.030874	51.9723	-0.074094	-0.437518	0.070566	NaN
741	1.000000	1.094678	7.37231e+06	-40039.1	1005.82	-29791.5	0.000000	0.000000	7.095186	0.097020	NaN	0.000000	0.001560	0.001677	28.0812	0.114824	0.002028	56.6195	33.382	-166.182	0.080288	1.093364	-0.032518	-0.033832	0.097020	56.6195	-0.033804	-0.029542	-3.284160	NaN
741	2.000000	1.134794	7.37231e+06	-40039.1	1005.82	-29791.5	0.000000	0.000000	7.135757	11.1695	NaN	0.000000	0.001586	0.001634	28.0812	9.413685	0.001697	5547.66	8.552095	7.274021	11.141	1.134411	0.007598	0.007215	11.1695	5547.66	0.006088	0.005148	2169.53	70639.6
741	2.000000	1.145184	7.37231e+06	-40039.1	1005.82	-29791.5	0.000000	0.000000	7.146918	29.923	NaN	0.000000	0.001593	0.001709	28.0818	21.0133	0.001736	12107.3	2.678856	-175.751	28.2926	1.144834	0.017988	0.017638	29.923	12107.3	0.016135	0.016828	1778.12	85270.7
741	2.000000	1.155688	7.37231e+06	-40039.1	1005.82	-29791.5	0.000000	0.000000	7.158648	59.7689	NaN	0.000000	0.001612	0.001631	28.083	33.2944	0.001805	18450.2	8.184913	-4.351107	58.5715	1.155321	0.028491	0.028125	59.7689	18450.2	0.026062	0.032976	1812.51	92827.3
741	2.000000	1.166118	7.37231e+06	-40039.1	1005.82	-29791.5	0.000000	0.000000	7.171041	107.535	NaN	0.000000	0.001585	0.001697	28.083	42.6459	0.001749	24384.9	6.603215	174.256	104.786	1.165836	0.038922	0.038640	107.535	24384.9	0.035615	0.053187	2021.84	96603.6
741	2.000000	1.176664	7.37231e+06	-40039.1	1005.82	-29791.5	0.000000	0.000000	7.184272	172.861	NaN	0.000000	0.001574	0.001620	28.0826	53.8191	0.001694	31763.7	4.958190	-5.817609	171.411	1.176200	0.049468	0.049004	172.861	31763.7	0.045387	0.078688	2196.78	103454
741	2.000000	1.187109	7.37231e+06	-40039.1	1005.82	-29791.5	0.000000	0.000000	7.198244	258.705	NaN	0.000000	0.001611	0.001648	28.0816	64.9409	0.001856	34985.1	3.480440	175.75	256.164	1.186803	0.059912	0.059607	258.705	34985.1	0.054366	0.106386	2431.77	97997.5
741	2.000000	1.197640	7.37231e+06	-40039.1	1005.82	-29791.5	0.000000	0.000000	7.212845	357.734	NaN	0.000000	0.001625	0.001668	28.0816	74.0384	0.001787	41435.9	2.981534	-5.332857	356.525	1.197145	0.070444	0.069949	357.734	41435.9	0.063969	0.140425	2547.52	101025
741	2.000000	1.208293	7.37231e+06	-40039.1	1005.82	-29791.5	0.000000	0.000000	7.227266	449.435	NaN	0.000000	0.001606	0.001679	28.0812	85.6035	0.001796	47673.6	6.488003	169.679	460.975	1.207864	0.081097	0.080668	449.435	47673.6	0.074026	0.180851	2485.12	102422
741	2.000000	1.218416	7.37231e+06	-40039.1	1005.82	-29791.5	0.000000	0.000000	7.242850	582.298	NaN	0.000000	0.001611	0.001641	28.081	93.5611	0.001825	51279.3	5.667398	-10.626	571.306	1.218233	0.091220	0.091036	582.298	51279.3	0.082704	0.219569	2652	99983.9
741	2.000000	1.228958	7.37231e+06	-40039.1	1005.82	-29791.5	0.000000	0.000000	7.259067	720.408	NaN	0.000000	0.001654	0.001668	28.0838	103.35	0.001764	58589.5	5.024365	169.946	711.551	1.228560	0.101761	0.101364	720.408	58589.5	0.092540	0.267676	2691.34	103464
741	2.000000	1.232581	7.37231e+06	-40039.1	1005.82	-29791.5	0.000000	0.000000	7.263885	749.483	NaN	0.000000	0.001598	0.001689	28.0825	105.896	0.001751	60464.8	2.887333	-8.543062	746.206	1.232366	0.105385	0.105170	749.483	60464.8	0.096088	0.286122	2619.46	103276