File: remote_trans/data/nanoindenter/0828-1/data/Data_2025-08-06,11h17m57s/2025-07-22_16-23-58_1_509.txt
2025-07-22, 16:23:58, 1
Index	Phase	Displacement	Time	Pos X	Pos Y	Pos Z	Rot A	Rot B	Piezo Z	Force A	Force B	Gripper	Voltage A	Voltage B	Temperature	Amplitude force	Amplitude pos	Stiffness	Phase shift	Phase excitation	Force A raw	Displacement raw	HMax	HMax raw	Real Force	Real Stiffness	Contact Depth	Area	Hardness	Reduced Mod.
[#]	[#]	[um]	[s]	[um]	[um]	[um]	[m°]	[m°]	[um]	[uN]	[uN]	[V]	[V]	[V]	[°C]	[uN]	[um]	[N/m]	[°]	[°]	[uN]	[um]	[um]	[um]	[uN]	[N/m]	[um]	[um^2]	[MPa]	[MPa]
509	1.000000	0.003172	7.37003e+06	-51639.1	1005.82	-29751.6	0.000000	0.000000	6.002796	0.041474	NaN	0.000000	0.001721	0.001731	28.0819	0.103955	0.000942	110.348	-55.7277	-170.271	0.066306	0.001919	-1.101167	-1.102419	0.041474	110.348	-1.101449	-5.242184E+14	-7.911537E-17	NaN
509	1.000000	0.045132	7.37003e+06	-51639.1	1005.82	-29751.6	0.000000	0.000000	6.044756	0.007456	NaN	0.000000	0.001695	0.001760	28.0815	0.081744	0.002051	39.8515	-164.124	18.1284	0.014005	0.043760	-1.059206	-1.060578	0.007456	39.8515	-1.059346	-1.425730E+14	-5.229940E-17	NaN
509	1.000000	0.087133	7.37003e+06	-51639.1	1005.82	-29751.6	0.000000	0.000000	6.086758	0.057165	NaN	0.000000	0.001711	0.001764	28.0828	0.044440	0.001997	22.2527	64.578	-164.613	-0.018289	0.085816	-1.017205	-1.018522	0.057165	22.2527	-1.019132	-4.104615E+13	-1.392689E-15	NaN
509	1.000000	0.129156	7.37003e+06	-51639.1	1005.82	-29751.6	0.000000	0.000000	6.128780	0.023245	NaN	0.000000	0.001661	0.001801	28.0828	0.049402	0.002026	24.3822	87.5481	14.2119	-0.044894	0.127759	-0.975182	-0.976580	0.023245	24.3822	-0.975897	-1.074307E+13	-2.163705E-15	NaN
509	1.000000	0.171158	7.37003e+06	-51639.1	1005.82	-29751.6	0.000000	0.000000	6.170781	-0.003223	NaN	0.000000	0.001682	0.001737	28.083	0.104711	0.002086	50.1955	60.966	-166.727	-0.094115	0.169874	-0.933180	-0.934464	-0.003223	50.1955	-0.933132	-2.847481E+12	1.131980E-15	NaN
509	1.000000	0.213183	7.37003e+06	-51639.1	1005.82	-29751.6	0.000000	0.000000	6.212808	0.034633	NaN	0.000000	0.001653	0.001728	28.0816	0.114108	0.001979	57.6492	94.663	12.1373	-0.044294	0.211781	-0.891155	-0.892557	0.034633	57.6492	-0.891606	-7.827486E+11	-4.424529E-14	NaN
509	1.000000	0.255222	7.37003e+06	-51639.1	1005.82	-29751.6	0.000000	0.000000	6.254845	-0.006895	NaN	0.000000	0.001680	0.001696	28.0818	0.118672	0.001994	59.5013	-145.083	-163.607	0.042555	0.253964	-0.849116	-0.850375	-0.006895	59.5013	-0.849030	-2.077767E+11	3.318422E-14	NaN
509	1.000000	0.297216	7.37003e+06	-51639.1	1005.82	-29751.6	0.000000	0.000000	6.296838	-0.027143	NaN	0.000000	0.001656	0.001719	28.0818	0.089513	0.001993	44.9194	152.946	13.2754	0.007464	0.295849	-0.807122	-0.808489	-0.027143	44.9194	-0.806669	-5.538233E+10	4.901093E-13	NaN
509	1.000000	0.339250	7.37003e+06	-51639.1	1005.82	-29751.6	0.000000	0.000000	6.338873	-0.005676	NaN	0.000000	0.001691	0.001693	28.0832	0.043403	0.001941	22.3632	139.255	-167.581	-0.068674	0.337960	-0.765088	-0.766378	-0.005676	22.3632	-0.764898	-1.499434E+10	3.785637E-13	NaN
509	1.000000	0.381287	7.37003e+06	-51639.1	1005.82	-29751.6	0.000000	0.000000	6.380914	0.076908	NaN	0.000000	0.001684	0.001740	28.0832	0.058903	0.002042	28.8451	-95.5104	11.7444	0.109729	0.379876	-0.723051	-0.724462	0.076908	28.8451	-0.725051	-4.298752E+9	-1.789070E-11	NaN
509	1.000000	0.423268	7.37003e+06	-51639.1	1005.82	-29751.6	0.000000	0.000000	6.422890	-0.026788	NaN	0.000000	0.001687	0.001733	28.083	0.062624	0.001937	32.3381	127.471	-164.686	-0.035753	0.421942	-0.681070	-0.682396	-0.026788	32.3381	-0.680449	-1.057652E+9	2.532745E-11	NaN
509	1.000000	0.465292	7.37003e+06	-51639.1	1005.82	-29751.6	0.000000	0.000000	6.464914	-0.024946	NaN	0.000000	0.001652	0.001695	28.082	0.034495	0.002043	16.8873	99.592	13.2107	-0.018934	0.463929	-0.639047	-0.640409	-0.024946	16.8873	-0.637939	-2.766965E+8	9.015630E-11	NaN
509	1.000000	0.507315	7.37003e+06	-51639.1	1005.82	-29751.6	0.000000	0.000000	6.506942	0.097107	NaN	0.000000	0.001626	0.001745	28.0821	0.034587	0.002006	17.238	-93.5827	-166.789	0.100545	0.506009	-0.597023	-0.598330	0.097107	17.238	-0.601248	-8.662564E+7	-1.120993E-9	NaN
509	1.000000	0.549336	7.37003e+06	-51639.1	1005.82	-29751.6	0.000000	0.000000	6.548959	-0.009131	NaN	0.000000	0.001584	0.001741	28.0819	0.065602	0.001908	34.3893	146.099	13.4023	-0.020828	0.548010	-0.555003	-0.556328	-0.009131	34.3893	-0.554803	-1.979095E+7	4.613799E-10	NaN
509	1.000000	0.591377	7.37003e+06	-51639.1	1005.82	-29751.6	0.000000	0.000000	6.591001	0.028124	NaN	0.000000	0.001611	0.001738	28.082	0.091758	0.002001	45.8475	-11.6935	-163.149	0.048786	0.590056	-0.512962	-0.514282	0.028124	45.8475	-0.513422	-5.27304e+06	-5.333567E-9	NaN
509	1.000000	0.633390	7.37003e+06	-51639.1	1005.82	-29751.6	0.000000	0.000000	6.633012	-0.038699	NaN	0.000000	0.001628	0.001732	28.0832	0.168914	0.002195	76.9529	64.9793	12.4593	0.006259	0.632006	-0.470948	-0.472332	-0.038699	76.9529	-0.470571	-1.32865e+06	2.912648E-8	NaN
509	1.000000	0.675385	7.37003e+06	-51639.1	1005.82	-29751.6	0.000000	0.000000	6.675008	-0.002611	NaN	0.000000	0.001626	0.001732	28.0836	0.040329	0.002082	19.3707	-36.436	-165.52	0.068538	0.674065	-0.428953	-0.430273	-0.002611	19.3707	-0.428852	-343415	7.603686E-9	NaN
509	1.000000	0.717395	7.37003e+06	-51639.1	1005.82	-29751.6	0.000000	0.000000	6.717020	0.047623	NaN	0.000000	0.001543	0.001739	28.0835	0.052756	0.001894	27.8515	-109.136	11.2955	0.037626	0.716022	-0.386943	-0.388316	0.047623	27.8515	-0.388225	-90735.1	-5.248545E-7	NaN
509	1.000000	0.759419	7.37003e+06	-51639.1	1005.82	-29751.6	0.000000	0.000000	6.759044	0.039065	NaN	0.000000	0.001557	0.001782	28.0821	0.034863	0.002014	17.314	-14.4242	-170.198	0.052430	0.758158	-0.344919	-0.346180	0.039065	17.314	-0.346611	-22791.9	-1.713998E-6	NaN
509	1.000000	0.801412	7.37003e+06	-51639.1	1005.82	-29751.6	0.000000	0.000000	6.801034	-0.029653	NaN	0.000000	0.001613	0.001728	28.0822	0.055221	0.002049	26.9508	-47.2093	14.8479	0.089434	0.800080	-0.302926	-0.304258	-0.029653	26.9508	-0.302101	-5056.91	5.863898E-6	NaN
509	1.000000	0.843482	7.37003e+06	-51639.1	1005.82	-29751.6	0.000000	0.000000	6.843105	-0.020470	NaN	0.000000	0.001628	0.001771	28.0823	0.029074	0.002044	14.2213	-81.4196	-165.464	-0.069934	0.842101	-0.260856	-0.262238	-0.020470	14.2213	-0.259776	-1162.76	1.760488E-5	NaN
509	1.000000	0.885471	7.37003e+06	-51639.1	1005.82	-29751.6	0.000000	0.000000	6.885094	0.007249	NaN	0.000000	0.001600	0.001753	28.0834	0.186928	0.001993	93.7994	86.923	14.6739	-0.065030	0.884096	-0.218868	-0.220242	0.007249	93.7994	-0.218926	-266.99	-2.715123E-5	NaN
509	1.000000	0.927505	7.37003e+06	-51639.1	1005.82	-29751.6	0.000000	0.000000	6.927129	0.009653	NaN	0.000000	0.001615	0.001772	28.0836	0.033085	0.001950	16.9665	-127.842	-164.2	0.052180	0.926209	-0.176833	-0.178129	0.009653	16.9665	-0.177260	-54.792	-0.000176	NaN
509	1.000000	0.969507	7.37004e+06	-51639.1	1005.82	-29751.6	0.000000	0.000000	6.969130	-0.008343	NaN	0.000000	0.001633	0.001745	28.0835	0.045902	0.002137	21.4777	-136.288	16.732	0.014308	0.968076	-0.134831	-0.136262	-0.008343	21.4777	-0.134540	-9.321635	0.000895	NaN
509	1.000000	1.011543	7.37004e+06	-51639.1	1005.82	-29751.6	0.000000	0.000000	7.011167	0.002884	NaN	0.000000	0.001636	0.001755	28.0821	0.069707	0.002076	33.5831	-21.5898	-161.717	0.071603	1.010195	-0.092795	-0.094143	0.002884	33.5831	-0.092859	-1.259910	-0.002289	NaN
509	1.000000	1.053560	7.37004e+06	-51639.1	1005.82	-29751.6	0.000000	0.000000	7.053181	-0.062246	NaN	0.000000	0.001689	0.001770	28.0819	0.027116	0.001977	13.7183	27.6293	15.0855	-0.057303	1.052201	-0.050778	-0.052137	-0.062246	13.7183	-0.047375	-0.075947	0.819602	NaN
509	1.000000	1.095545	7.37004e+06	-51639.1	1005.82	-29751.6	0.000000	0.000000	7.095170	0.042918	NaN	0.000000	0.001651	0.001755	28.0821	0.064124	0.001833	34.9791	-172.384	-166.439	0.013044	1.094223	-0.008794	-0.010116	0.042918	34.9791	-0.009714	-0.006224	-6.896135	NaN
509	2.000000	1.115504	7.37004e+06	-51639.1	1005.82	-29751.6	0.000000	0.000000	7.116110	23.9062	NaN	0.000000	0.001556	0.001744	28.0823	19.019	0.001695	11221	6.689514	2.194138	22.6811	1.115183	0.011166	0.010845	23.9062	11221	0.009568	0.008705	2746.28	109880
509	2.000000	1.125957	7.37004e+06	-51639.1	1005.82	-29751.6	0.000000	0.000000	7.127830	54.7113	NaN	0.000000	0.001637	0.001739	28.084	29.5195	0.001830	16132.7	0.924684	-174.52	54.2661	1.125699	0.021619	0.021361	54.7113	16132.7	0.019075	0.021110	2591.7	101446
509	2.000000	1.136435	7.37004e+06	-51639.1	1005.82	-29751.6	0.000000	0.000000	7.139889	93.1559	NaN	0.000000	0.001638	0.001743	28.0836	41.3329	0.001807	22874.5	8.286043	-5.521185	90.9817	1.136169	0.032097	0.031831	93.1559	22874.5	0.029042	0.038782	2402.05	106123
509	2.000000	1.146968	7.37004e+06	-51639.1	1005.82	-29751.6	0.000000	0.000000	7.152607	146.283	NaN	0.000000	0.001633	0.001734	28.0833	50.6119	0.001712	29554.8	2.212222	179.543	149.189	1.146615	0.042630	0.042277	146.283	29554.8	0.038918	0.061262	2387.85	109096
509	2.000000	1.157402	7.37004e+06	-51639.1	1005.82	-29751.6	0.000000	0.000000	7.165469	205.3	NaN	0.000000	0.001618	0.001760	28.082	60.5336	0.001794	33733.8	5.209652	-4.804097	202.706	1.157014	0.053064	0.052676	205.3	33733.8	0.048500	0.087832	2337.41	103995
509	2.000000	1.167844	7.37004e+06	-51639.1	1005.82	-29751.6	0.000000	0.000000	7.178636	271.571	NaN	0.000000	0.001573	0.001733	28.0819	73.1721	0.001841	39756.2	5.405442	174.011	267.01	1.167536	0.063506	0.063198	271.571	39756.2	0.058383	0.120074	2261.71	104822
509	2.000000	1.178460	7.37004e+06	-51639.1	1005.82	-29751.6	0.000000	0.000000	7.192287	345.37	NaN	0.000000	0.001583	0.001767	28.0821	83.0478	0.001789	46425.4	5.474231	-7.022187	346.42	1.177940	0.074122	0.073602	345.37	46425.4	0.068542	0.158209	2183.01	106638
509	2.000000	1.188920	7.37004e+06	-51639.1	1005.82	-29751.6	0.000000	0.000000	7.205924	422.645	NaN	0.000000	0.001585	0.001824	28.0834	92.4937	0.001786	51786.1	6.032524	170.918	423.359	1.188499	0.084581	0.084160	422.645	51786.1	0.078460	0.200196	2111.15	105745
509	2.000000	1.199226	7.37004e+06	-51639.1	1005.82	-29751.6	0.000000	0.000000	7.220064	515.848	NaN	0.000000	0.001590	0.001798	28.0832	103.007	0.001790	57559.4	2.638962	-6.530972	506.02	1.198880	0.094888	0.094542	515.848	57559.4	0.088167	0.245739	2099.17	106085
509	2.000000	1.206899	7.37004e+06	-51639.1	1005.82	-29751.6	0.000000	0.000000	7.231188	599.791	NaN	0.000000	0.001564	0.001828	28.0833	111.004	0.001809	61375.9	7.025886	169.649	599.705	1.206408	0.102560	0.102070	599.791	61375.9	0.095231	0.281613	2129.84	105668