File: remote_trans/data/nanoindenter/0828-1/data/Data_2025-08-06,11h17m57s/2025-07-22_16-23-58_1_1196.txt
2025-07-22, 16:23:58, 1
Index	Phase	Displacement	Time	Pos X	Pos Y	Pos Z	Rot A	Rot B	Piezo Z	Force A	Force B	Gripper	Voltage A	Voltage B	Temperature	Amplitude force	Amplitude pos	Stiffness	Phase shift	Phase excitation	Force A raw	Displacement raw	HMax	HMax raw	Real Force	Real Stiffness	Contact Depth	Area	Hardness	Reduced Mod.
[#]	[#]	[um]	[s]	[um]	[um]	[um]	[m°]	[m°]	[um]	[uN]	[uN]	[V]	[V]	[V]	[°C]	[uN]	[um]	[N/m]	[°]	[°]	[uN]	[um]	[um]	[um]	[uN]	[N/m]	[um]	[um^2]	[MPa]	[MPa]
1196	1.000000	0.002395	7.37674e+06	-55789.1	1105.82	-29740.5	0.000000	0.000000	6.002788	0.003384	NaN	0.000000	0.001533	0.001547	28.0824	0.028599	0.000984	29.0501	-176.779	-167.426	0.094556	0.001153	-1.165409	-1.166651	0.003384	29.0501	-1.165497	-3.789115E+15	-8.930144E-19	NaN
1196	1.000000	0.046373	7.37674e+06	-55789.1	1105.82	-29740.5	0.000000	0.000000	6.046769	0.073619	NaN	0.000000	0.001563	0.001598	28.0823	0.062311	0.002114	29.47	164.119	-163.619	-0.002215	0.045046	-1.121431	-1.122758	0.073619	29.47	-1.123304	-1.029918E+15	-7.148081E-17	NaN
1196	1.000000	0.090373	7.37674e+06	-55789.1	1105.82	-29740.5	0.000000	0.000000	6.090767	0.045960	NaN	0.000000	0.001522	0.001594	28.0825	0.073148	0.001929	37.928	-87.8204	-164.19	0.061855	0.089034	-1.077431	-1.078770	0.045960	37.928	-1.078340	-2.565804E+14	-1.791261E-16	NaN
1196	1.000000	0.134344	7.37674e+06	-55789.1	1105.82	-29740.5	0.000000	0.000000	6.134736	-0.009463	NaN	0.000000	0.001591	0.001600	28.081	0.055821	0.002023	27.5919	-119.41	-164.209	0.040393	0.133053	-1.033460	-1.034751	-0.009463	27.5919	-1.033203	-6.346880E+13	1.490987E-16	NaN
1196	1.000000	0.178393	7.37674e+06	-55789.1	1105.82	-29740.5	0.000000	0.000000	6.178786	0.026112	NaN	0.000000	0.001575	0.001574	28.081	0.095704	0.001973	48.4975	-98.4146	-165.438	0.049148	0.177040	-0.989411	-0.990764	0.026112	48.4975	-0.989815	-1.654336E+13	-1.578391E-15	NaN
1196	1.000000	0.222438	7.37674e+06	-55789.1	1105.82	-29740.5	0.000000	0.000000	6.222834	0.067974	NaN	0.000000	0.001549	0.001603	28.0843	0.047001	0.001950	24.1011	-37.6207	-163.606	0.115048	0.221077	-0.945366	-0.946727	0.067974	24.1011	-0.947481	-4.446839E+12	-1.528600E-14	NaN
1196	1.000000	0.266461	7.37674e+06	-55789.1	1105.82	-29740.5	0.000000	0.000000	6.266852	-0.035974	NaN	0.000000	0.001517	0.001610	28.0828	0.051835	0.001854	27.9551	84.0824	-165.158	-0.042055	0.265162	-0.901343	-0.902642	-0.035974	27.9551	-0.900378	-1.028423E+12	3.497937E-14	NaN
1196	1.000000	0.310471	7.37674e+06	-55789.1	1105.82	-29740.5	0.000000	0.000000	6.310862	-0.044400	NaN	0.000000	0.001538	0.001602	28.0825	0.062023	0.002191	28.3116	-69.8254	-164.642	-0.038481	0.309131	-0.857333	-0.858673	-0.044400	28.3116	-0.856157	-2.594750E+11	1.711147E-13	NaN
1196	1.000000	0.354475	7.37674e+06	-55789.1	1105.82	-29740.5	0.000000	0.000000	6.354868	0.002292	NaN	0.000000	0.001518	0.001648	28.0834	0.054115	0.002015	26.8615	-117.621	-159.208	0.050057	0.353191	-0.813329	-0.814614	0.002292	26.8615	-0.813393	-6.832887E+10	-3.353647E-14	NaN
1196	1.000000	0.398485	7.37674e+06	-55789.1	1105.82	-29740.5	0.000000	0.000000	6.398877	-0.004771	NaN	0.000000	0.001546	0.001583	28.0812	0.043147	0.002000	21.5699	5.802728	-169.092	-0.018188	0.397173	-0.769319	-0.770631	-0.004771	21.5699	-0.769154	-1.713154E+10	2.785127E-13	NaN
1196	1.000000	0.442521	7.37674e+06	-55789.1	1105.82	-29740.5	0.000000	0.000000	6.442913	-0.016909	NaN	0.000000	0.001556	0.001620	28.0813	0.098906	0.001965	50.3345	-172.949	-163.714	0.010677	0.441188	-0.725283	-0.726616	-0.016909	50.3345	-0.725031	-4.296056E+9	3.935831E-12	NaN
1196	1.000000	0.486521	7.37674e+06	-55789.1	1105.82	-29740.5	0.000000	0.000000	6.486915	0.038887	NaN	0.000000	0.001545	0.001588	28.0812	0.018931	0.001986	9.530115	-29.53	-164.081	0.085692	0.485250	-0.681283	-0.682554	0.038887	9.530115	-0.684343	-1.195636E+9	-3.252435E-11	NaN
1196	1.000000	0.530531	7.37674e+06	-55789.1	1105.82	-29740.5	0.000000	0.000000	6.530925	0.024119	NaN	0.000000	0.001568	0.001591	28.0826	0.123140	0.002022	60.9056	-65.8548	-164.387	0.062145	0.529244	-0.637273	-0.638560	0.024119	60.9056	-0.637570	-2.734920E+8	-8.818892E-11	NaN
1196	1.000000	0.574571	7.37674e+06	-55789.1	1105.82	-29740.5	0.000000	0.000000	6.574966	0.034974	NaN	0.000000	0.001583	0.001576	28.0825	0.060429	0.001981	30.5052	83.2063	-164.53	0.036658	0.573273	-0.593233	-0.594531	0.034974	30.5052	-0.594093	-6.903616E+7	-5.066073E-10	NaN
1196	1.000000	0.618619	7.37674e+06	-55789.1	1105.82	-29740.5	0.000000	0.000000	6.619013	0.041848	NaN	0.000000	0.001624	0.001604	28.0823	0.038419	0.001899	20.2298	123.484	-165.509	0.089390	0.617309	-0.549185	-0.550495	0.041848	20.2298	-0.550737	-1.738447E+7	-2.407208E-9	NaN
1196	1.000000	0.662597	7.37674e+06	-55789.1	1105.82	-29740.5	0.000000	0.000000	6.662991	0.029659	NaN	0.000000	0.001603	0.001611	28.0811	0.048341	0.002009	24.0649	-16.5332	-166.425	0.038833	0.661348	-0.505207	-0.506456	0.029659	24.0649	-0.506131	-4.17357e+06	-7.106465E-9	NaN
1196	1.000000	0.706618	7.37674e+06	-55789.1	1105.82	-29740.5	0.000000	0.000000	6.707012	0.019792	NaN	0.000000	0.001562	0.001628	28.0808	0.038028	0.001982	19.1872	-82.5368	-163.782	0.093295	0.705342	-0.461186	-0.462462	0.019792	19.1872	-0.461959	-1.00588e+06	-1.967590E-8	NaN
1196	1.000000	0.750648	7.37674e+06	-55789.1	1105.82	-29740.5	0.000000	0.000000	6.751043	0.044435	NaN	0.000000	0.001540	0.001586	28.0808	0.048930	0.001704	28.72	149.501	-165.386	0.058832	0.749407	-0.417156	-0.418397	0.044435	28.72	-0.418316	-243518	-1.824706E-7	NaN
1196	1.000000	0.794665	7.37675e+06	-55789.1	1105.82	-29740.5	0.000000	0.000000	6.795060	0.047871	NaN	0.000000	0.001546	0.001633	28.0821	0.046675	0.001995	23.3913	-175.838	-166.147	0.015967	0.793365	-0.373139	-0.374439	0.047871	23.3913	-0.374674	-57993.4	-8.254481E-7	NaN
1196	1.000000	0.838693	7.37675e+06	-55789.1	1105.82	-29740.5	0.000000	0.000000	6.839083	-0.077365	NaN	0.000000	0.001525	0.001659	28.0824	0.020983	0.002132	9.842616	-178.274	-168.112	-0.104743	0.837423	-0.329111	-0.330381	-0.077365	9.842616	-0.323216	-10373.7	7.457863E-6	NaN
1196	1.000000	0.882718	7.37675e+06	-55789.1	1105.82	-29740.5	0.000000	0.000000	6.883113	0.045497	NaN	0.000000	0.001508	0.001620	28.083	0.031607	0.001917	16.4847	124.163	-167.441	-0.002605	0.881442	-0.285086	-0.286362	0.045497	16.4847	-0.287156	-3024.46	-1.504301E-5	NaN
1196	1.000000	0.926741	7.37675e+06	-55789.1	1105.82	-29740.5	0.000000	0.000000	6.927132	-0.033808	NaN	0.000000	0.001555	0.001623	28.0813	0.017781	0.002000	8.889461	104.348	-165.096	-0.095777	0.925424	-0.241063	-0.242380	-0.033808	8.889461	-0.238211	-538.99	6.272413E-5	NaN
1196	1.000000	0.970720	7.37675e+06	-55789.1	1105.82	-29740.5	0.000000	0.000000	6.971113	0.007823	NaN	0.000000	0.001491	0.001642	28.0812	0.128961	0.001959	65.8215	160.496	-167.977	-0.015099	0.969410	-0.197084	-0.198394	0.007823	65.8215	-0.197173	-118.343	-6.610562E-5	NaN
1196	1.000000	1.014747	7.37675e+06	-55789.1	1105.82	-29740.5	0.000000	0.000000	7.015142	0.042144	NaN	0.000000	0.001558	0.001590	28.0813	0.102438	0.001984	51.6214	177.866	-166.747	-0.036664	1.013422	-0.153057	-0.154382	0.042144	51.6214	-0.153669	-21.1149	-0.001996	NaN
1196	1.000000	1.058749	7.37675e+06	-55789.1	1105.82	-29740.5	0.000000	0.000000	7.059143	0.018746	NaN	0.000000	0.001558	0.001602	28.0824	0.032839	0.002083	15.7675	-60.7168	-169.577	-0.048112	1.057511	-0.109055	-0.110293	0.018746	15.7675	-0.109947	-2.997432	-0.006254	NaN
1196	1.000000	1.102787	7.37675e+06	-55789.1	1105.82	-29740.5	0.000000	0.000000	7.103180	-0.010799	NaN	0.000000	0.001512	0.001598	28.0822	0.054043	0.002016	26.8016	176.833	-164.67	-0.012131	1.101421	-0.065017	-0.066383	-0.010799	26.8016	-0.064715	-0.244710	0.044130	NaN
1196	1.000000	1.146817	7.37675e+06	-55789.1	1105.82	-29740.5	0.000000	0.000000	7.147209	-0.032226	NaN	0.000000	0.001541	0.001545	28.0822	0.091072	0.001985	45.8724	71.4222	-168.534	0.058665	1.145450	-0.020987	-0.022354	-0.032226	45.8724	-0.020460	-0.012904	2.497409	NaN
1196	2.000000	1.178468	7.37675e+06	-55789.1	1105.82	-29740.5	0.000000	0.000000	7.179418	13.5422	NaN	0.000000	0.001534	0.001619	28.0824	12.354	0.001727	7152.15	4.184903	-172.99	13.113	1.178182	0.010664	0.010378	13.5422	7152.15	0.009244	0.008353	1621.19	71496
1196	2.000000	1.189412	7.37675e+06	-55789.1	1105.82	-29740.5	0.000000	0.000000	7.191259	35.3506	NaN	0.000000	0.001528	0.001629	28.0813	23.9817	0.001713	14003.3	5.408940	179.923	34.428	1.189105	0.021608	0.021301	35.3506	14003.3	0.019715	0.022096	1599.88	86069.4
1196	2.000000	1.200455	7.37675e+06	-55789.1	1105.82	-29740.5	0.000000	0.000000	7.203526	65.1108	NaN	0.000000	0.001574	0.001596	28.0809	34.0817	0.001739	19601.9	5.625320	177.454	65.5767	1.200076	0.032651	0.032272	65.1108	19601.9	0.030159	0.041074	1585.19	88366
1196	2.000000	1.211382	7.37675e+06	-55789.1	1105.82	-29740.5	0.000000	0.000000	7.216074	104.509	NaN	0.000000	0.001535	0.001574	28.0809	44.9574	0.001933	23258.2	3.538438	179.235	103.898	1.210976	0.043578	0.043172	104.509	23258.2	0.040208	0.064566	1618.64	83627.1
1196	2.000000	1.222342	7.37675e+06	-55789.1	1105.82	-29740.5	0.000000	0.000000	7.228921	150.356	NaN	0.000000	0.001549	0.001580	28.0821	54.2938	0.001709	31765.1	3.962879	174.549	148.752	1.222078	0.054538	0.054274	150.356	31765.1	0.050988	0.095493	1574.53	93915.7
1196	2.000000	1.233322	7.37675e+06	-55789.1	1105.82	-29740.5	0.000000	0.000000	7.242338	209.633	NaN	0.000000	0.001563	0.001605	28.0827	64.5506	0.001823	35418.6	7.771758	169.935	208.105	1.233080	0.065518	0.065276	209.633	35418.6	0.061079	0.129704	1616.24	89852.1
1196	2.000000	1.244318	7.37675e+06	-55789.1	1105.82	-29740.5	0.000000	0.000000	7.255994	274.262	NaN	0.000000	0.001559	0.001615	28.0824	76.1513	0.001936	39331.9	4.371930	173.033	273.964	1.244177	0.076514	0.076373	274.262	39331.9	0.071285	0.169352	1619.48	87321.8
1196	2.000000	1.255313	7.37675e+06	-55789.1	1105.82	-29740.5	0.000000	0.000000	7.270385	356.812	NaN	0.000000	0.001545	0.001657	28.0813	85.8747	0.001821	47163.3	3.885316	172.237	355.062	1.254932	0.087509	0.087128	356.812	47163.3	0.081835	0.215534	1655.48	92815.2
1196	2.000000	1.266283	7.37675e+06	-55789.1	1105.82	-29740.5	0.000000	0.000000	7.285119	448.309	NaN	0.000000	0.001568	0.001618	28.081	94.4141	0.001815	52010.4	5.042614	170.773	446.029	1.265981	0.098479	0.098177	448.309	52010.4	0.092014	0.264994	1691.77	92309.3
1196	2.000000	1.272744	7.37675e+06	-55789.1	1105.82	-29740.5	0.000000	0.000000	7.294026	507.787	NaN	0.000000	0.001560	0.001614	28.0812	99.83	0.001739	57407.8	3.751825	-9.158329	501.74	1.272439	0.104940	0.104635	507.787	57407.8	0.098306	0.297939	1704.33	96090.5