File: remote_trans/data/nanoindenter/0828-1/data/Data_2025-08-06,11h17m57s/2025-07-22_16-23-58_1_715.txt
2025-07-22, 16:23:58, 1
Index	Phase	Displacement	Time	Pos X	Pos Y	Pos Z	Rot A	Rot B	Piezo Z	Force A	Force B	Gripper	Voltage A	Voltage B	Temperature	Amplitude force	Amplitude pos	Stiffness	Phase shift	Phase excitation	Force A raw	Displacement raw	HMax	HMax raw	Real Force	Real Stiffness	Contact Depth	Area	Hardness	Reduced Mod.
[#]	[#]	[um]	[s]	[um]	[um]	[um]	[m°]	[m°]	[um]	[uN]	[uN]	[V]	[V]	[V]	[°C]	[uN]	[um]	[N/m]	[°]	[°]	[uN]	[um]	[um]	[um]	[uN]	[N/m]	[um]	[um^2]	[MPa]	[MPa]
715	1.000000	0.002033	7.37205e+06	-41339.1	1005.82	-29786.5	0.000000	0.000000	6.002748	-0.020018	NaN	0.000000	0.001682	0.001729	28.0826	0.146201	0.001012	144.443	140.605	-167.581	0.039344	0.000819	-1.137209	-1.138422	-0.020018	144.443	-1.137105	-1.577304E+15	1.269109E-17	NaN
715	1.000000	0.044050	7.37205e+06	-41339.1	1005.82	-29786.5	0.000000	0.000000	6.044766	-0.011507	NaN	0.000000	0.001673	0.001702	28.0836	0.059676	0.002023	29.4922	-73.0406	12.1254	-0.111360	0.042670	-1.095192	-1.096572	-0.011507	29.4922	-1.094899	-4.281421E+14	2.687765E-17	NaN
715	1.000000	0.086033	7.37205e+06	-41339.1	1005.82	-29786.5	0.000000	0.000000	6.086749	-0.015641	NaN	0.000000	0.001636	0.001743	28.0834	0.063957	0.001915	33.4012	145.823	-162.593	0.048262	0.084758	-1.053209	-1.054484	-0.015641	33.4012	-1.052857	-1.166336E+14	1.341016E-16	NaN
715	1.000000	0.128065	7.37205e+06	-41339.1	1005.82	-29786.5	0.000000	0.000000	6.128781	-0.020647	NaN	0.000000	0.001645	0.001687	28.0831	0.064722	0.001996	32.4228	67.8591	17.1167	-0.017781	0.126677	-1.011176	-1.012564	-0.020647	32.4228	-1.010699	-3.160728E+13	6.532370E-16	NaN
715	1.000000	0.170067	7.37205e+06	-41339.1	1005.82	-29786.5	0.000000	0.000000	6.170781	-0.060364	NaN	0.000000	0.001561	0.001740	28.0818	0.088326	0.002026	43.5997	-133.494	-165.141	-0.093025	0.168764	-0.969174	-0.970478	-0.060364	43.5997	-0.968136	-8.443864E+12	7.148801E-15	NaN
715	1.000000	0.212125	7.37205e+06	-41339.1	1005.82	-29786.5	0.000000	0.000000	6.212841	-0.016930	NaN	0.000000	0.001615	0.001711	28.0818	0.087703	0.001994	43.9905	-153.513	17.2217	-0.047775	0.210773	-0.927116	-0.928469	-0.016930	43.9905	-0.926828	-2.340883E+12	7.232509E-15	NaN
715	1.000000	0.254111	7.37205e+06	-41339.1	1005.82	-29786.5	0.000000	0.000000	6.254827	-0.005136	NaN	0.000000	0.001639	0.001718	28.0817	0.116742	0.002040	57.2126	-85.3961	-163.646	0.023956	0.252795	-0.885131	-0.886447	-0.005136	57.2126	-0.885063	-6.385204E+11	8.044162E-15	NaN
715	1.000000	0.296132	7.37205e+06	-41339.1	1005.82	-29786.5	0.000000	0.000000	6.296848	-0.000100	NaN	0.000000	0.001637	0.001742	28.0833	0.035576	0.002003	17.7643	137.144	12.2873	0.055956	0.294800	-0.843110	-0.844441	-0.000100	17.7643	-0.843105	-1.727265E+11	5.803078E-16	NaN
715	1.000000	0.338153	7.37205e+06	-41339.1	1005.82	-29786.5	0.000000	0.000000	6.338868	-0.027495	NaN	0.000000	0.001651	0.001813	28.0829	0.133027	0.002170	61.2944	34.0475	-168.095	0.027539	0.336842	-0.801089	-0.802400	-0.027495	61.2944	-0.800752	-4.603345E+10	5.972733E-13	NaN
715	1.000000	0.380147	7.37205e+06	-41339.1	1005.82	-29786.5	0.000000	0.000000	6.380863	0.009989	NaN	0.000000	0.001599	0.001745	28.083	0.049464	0.002040	24.2485	138.303	17.2109	0.016739	0.378788	-0.759095	-0.760453	0.009989	24.2485	-0.759404	-1.262388E+10	-7.912768E-13	NaN
715	1.000000	0.422179	7.37205e+06	-41339.1	1005.82	-29786.5	0.000000	0.000000	6.422895	-0.010862	NaN	0.000000	0.001635	0.001753	28.0817	0.072026	0.001977	36.435	-165.562	-164.834	0.031330	0.420880	-0.717063	-0.718362	-0.010862	36.435	-0.716839	-3.321698E+9	3.270133E-12	NaN
715	1.000000	0.464219	7.37205e+06	-41339.1	1005.82	-29786.5	0.000000	0.000000	6.464937	0.021407	NaN	0.000000	0.001604	0.001741	28.0817	0.044879	0.001915	23.438	-130.982	13.3305	0.024261	0.462808	-0.675022	-0.676434	0.021407	23.438	-0.675707	-9.109315E+8	-2.350010E-11	NaN
715	1.000000	0.506220	7.37205e+06	-41339.1	1005.82	-29786.5	0.000000	0.000000	6.506934	-0.050609	NaN	0.000000	0.001605	0.001734	28.0817	0.100898	0.002116	47.6832	68.5242	-167.003	-0.073311	0.504947	-0.633022	-0.634295	-0.050609	47.6832	-0.632226	-2.309867E+8	2.190988E-10	NaN
715	1.000000	0.548234	7.37205e+06	-41339.1	1005.82	-29786.5	0.000000	0.000000	6.548949	-0.018580	NaN	0.000000	0.001624	0.001740	28.0816	0.097918	0.001895	51.6841	-154.077	15.6931	0.002099	0.546903	-0.591008	-0.592338	-0.018580	51.6841	-0.590738	-6.206443E+7	2.993634E-10	NaN
715	1.000000	0.590259	7.37205e+06	-41339.1	1005.82	-29786.5	0.000000	0.000000	6.590976	0.021908	NaN	0.000000	0.001637	0.001746	28.0831	0.088306	0.001830	48.2628	57.3344	-168.007	0.045977	0.588928	-0.548982	-0.550313	0.021908	48.2628	-0.549323	-1.661788E+7	-1.318355E-9	NaN
715	1.000000	0.632258	7.37205e+06	-41339.1	1005.82	-29786.5	0.000000	0.000000	6.632973	-0.034122	NaN	0.000000	0.001653	0.001723	28.0828	0.041882	0.001938	21.6075	-5.897898	15.2209	0.000226	0.630892	-0.506984	-0.508349	-0.034122	21.6075	-0.505799	-4.1294e+06	8.263131E-9	NaN
715	1.000000	0.674289	7.37205e+06	-41339.1	1005.82	-29786.5	0.000000	0.000000	6.675003	-0.055044	NaN	0.000000	0.001620	0.001725	28.0828	0.032977	0.001954	16.8768	-87.9359	-165.686	0.022359	0.673031	-0.464953	-0.466211	-0.055044	16.8768	-0.462507	-1.02384e+06	5.376256E-8	NaN
715	1.000000	0.716326	7.37205e+06	-41339.1	1005.82	-29786.5	0.000000	0.000000	6.717042	-0.001223	NaN	0.000000	0.001585	0.001729	28.0818	0.037703	0.001838	20.5153	-143.22	15.8751	-0.032691	0.714933	-0.422915	-0.424309	-0.001223	20.5153	-0.422871	-282562	4.328591E-9	NaN
715	1.000000	0.758353	7.37205e+06	-41339.1	1005.82	-29786.5	0.000000	0.000000	6.759069	-0.002773	NaN	0.000000	0.001617	0.001710	28.0818	0.122063	0.001863	65.5035	-149.208	-166.353	0.059956	0.757052	-0.380888	-0.382190	-0.002773	65.5035	-0.380857	-71150.7	3.896950E-8	NaN
715	1.000000	0.800375	7.37205e+06	-41339.1	1005.82	-29786.5	0.000000	0.000000	6.801088	-0.069376	NaN	0.000000	0.001618	0.001729	28.0817	0.131464	0.002054	63.9974	162.933	16.6213	-0.022986	0.799011	-0.338867	-0.340230	-0.069376	63.9974	-0.338054	-17106.9	4.055456E-6	NaN
715	1.000000	0.842355	7.37205e+06	-41339.1	1005.82	-29786.5	0.000000	0.000000	6.843071	-0.018131	NaN	0.000000	0.001573	0.001709	28.0829	0.030953	0.002013	15.3791	105.845	-167.278	-0.000176	0.841019	-0.296886	-0.298223	-0.018131	15.3791	-0.296002	-4102.47	4.419607E-6	NaN
715	1.000000	0.884364	7.37205e+06	-41339.1	1005.82	-29786.5	0.000000	0.000000	6.885081	0.007983	NaN	0.000000	0.001680	0.001766	28.0831	0.030199	0.002042	14.7892	-123.53	14.0966	0.001449	0.883065	-0.254877	-0.256177	0.007983	14.7892	-0.255282	-991.879	-8.048825E-6	NaN
715	1.000000	0.926383	7.37205e+06	-41339.1	1005.82	-29786.5	0.000000	0.000000	6.927100	0.012836	NaN	0.000000	0.001688	0.001746	28.0831	0.041459	0.001896	21.8672	-164.276	-167.547	-0.018745	0.925097	-0.212859	-0.214144	0.012836	21.8672	-0.213299	-216.83	-5.920046E-5	NaN
715	1.000000	0.968430	7.37205e+06	-41339.1	1005.82	-29786.5	0.000000	0.000000	6.969143	-0.055910	NaN	0.000000	0.001674	0.001747	28.0821	0.097115	0.002068	46.9679	20.774	15.7046	-0.062177	0.967039	-0.170812	-0.172203	-0.055910	46.9679	-0.169919	-40.9459	0.001365	NaN
715	1.000000	1.010449	7.37205e+06	-41339.1	1005.82	-29786.5	0.000000	0.000000	7.011162	-0.068134	NaN	0.000000	0.001694	0.001743	28.0819	0.048030	0.001986	24.1786	62.9789	-165.797	-0.063423	1.009094	-0.128793	-0.130148	-0.068134	24.1786	-0.126680	-6.563300	0.010381	NaN
715	1.000000	1.052456	7.37205e+06	-41339.1	1005.82	-29786.5	0.000000	0.000000	7.053170	-0.063402	NaN	0.000000	0.001716	0.001762	28.082	0.067621	0.001936	34.9364	55.6209	15.3663	-0.030825	1.051072	-0.086785	-0.088169	-0.063402	34.9364	-0.085424	-0.841258	0.075366	NaN
715	1.000000	1.094495	7.37205e+06	-41339.1	1005.82	-29786.5	0.000000	0.000000	7.095209	-0.056635	NaN	0.000000	0.001664	0.001736	28.082	0.069201	0.001882	36.7637	141.842	-169.742	-0.037918	1.093113	-0.044746	-0.046129	-0.056635	36.7637	-0.043591	-0.058197	0.973164	NaN
715	1.000000	1.136460	7.37205e+06	-41339.1	1005.82	-29786.5	0.000000	0.000000	7.137205	0.711796	NaN	0.000000	0.001690	0.001723	28.0833	1.272763	0.001936	657.49	19.624	8.586319	0.332964	1.135132	-0.002782	-0.004109	0.711796	657.49	-0.003594	-0.002514	-283.142	NaN
715	2.000000	1.152127	7.37205e+06	-41339.1	1005.82	-29786.5	0.000000	0.000000	7.153771	22.5705	NaN	0.000000	0.001637	0.001760	28.0831	16.8901	0.001821	9276.93	6.668742	-177.659	22.5356	1.151859	0.012885	0.012618	22.5705	9276.93	0.011061	0.010384	2173.55	83174.8
715	2.000000	1.162587	7.37205e+06	-41339.1	1005.82	-29786.5	0.000000	0.000000	7.165358	49.9975	NaN	0.000000	0.001630	0.001719	28.0835	26.7156	0.001864	14335.7	6.810669	-0.446281	49.4035	1.162178	0.023345	0.022936	49.9975	14335.7	0.020730	0.023702	2109.42	85074.5
715	2.000000	1.173011	7.37205e+06	-41339.1	1005.82	-29786.5	0.000000	0.000000	7.177476	91.209	NaN	0.000000	0.001656	0.001755	28.0823	36.8748	0.001821	20250.6	7.285095	176.003	89.722	1.172700	0.033769	0.033458	91.209	20250.6	0.030391	0.041559	2194.7	90757
715	2.000000	1.183477	7.37205e+06	-41339.1	1005.82	-29786.5	0.000000	0.000000	7.189789	136.17	NaN	0.000000	0.001678	0.001774	28.0821	46.005	0.001710	26897.8	1.683197	-0.881143	131.399	1.183143	0.044235	0.043902	136.17	26897.8	0.040438	0.065166	2089.6	96267.7
715	2.000000	1.193999	7.37205e+06	-41339.1	1005.82	-29786.5	0.000000	0.000000	7.202499	189.379	NaN	0.000000	0.001631	0.001766	28.0821	56.5194	0.001786	31640	5.533465	174.311	187.733	1.193680	0.054758	0.054439	189.379	31640	0.050269	0.093246	2030.96	94666.3
715	2.000000	1.204499	7.37205e+06	-41339.1	1005.82	-29786.5	0.000000	0.000000	7.215715	255.493	NaN	0.000000	0.001671	0.001726	28.0835	66.7298	0.001771	37670.3	4.474766	-6.513564	252.672	1.204216	0.065257	0.064975	255.493	37670.3	0.060170	0.126420	2020.99	96797.5
715	2.000000	1.214923	7.37205e+06	-41339.1	1005.82	-29786.5	0.000000	0.000000	7.228946	323.77	NaN	0.000000	0.001612	0.001726	28.0833	76.8412	0.001749	43930.7	5.844754	171.226	318.443	1.214529	0.075682	0.075287	323.77	43930.7	0.070154	0.164716	1965.63	98894.8
715	2.000000	1.225437	7.37205e+06	-41339.1	1005.82	-29786.5	0.000000	0.000000	7.242324	393.487	NaN	0.000000	0.001622	0.001704	28.0837	87.4121	0.001911	45746.7	5.107591	-8.275796	390.387	1.225119	0.086195	0.085877	393.487	45746.7	0.079744	0.205969	1910.42	92094
715	2.000000	1.235957	7.37205e+06	-41339.1	1005.82	-29786.5	0.000000	0.000000	7.256526	483.075	NaN	0.000000	0.001600	0.001739	28.0824	96.2962	0.001727	55769.1	7.391299	167.799	483.029	1.235675	0.096716	0.096433	483.075	55769.1	0.090219	0.255926	1887.56	100719
715	2.000000	1.241832	7.37205e+06	-41339.1	1005.82	-29786.5	0.000000	0.000000	7.264596	536.477	NaN	0.000000	0.001570	0.001751	28.0823	102.423	0.001877	54569.9	7.451151	168.292	528.135	1.241484	0.102590	0.102242	536.477	54569.9	0.095217	0.281541	1905.5	93962.8