File: remote_trans/data/nanoindenter/0828-1/data/Data_2025-08-06,11h17m57s/2025-07-22_16-23-58_1_798.txt
2025-07-22, 16:23:58, 1
Index	Phase	Displacement	Time	Pos X	Pos Y	Pos Z	Rot A	Rot B	Piezo Z	Force A	Force B	Gripper	Voltage A	Voltage B	Temperature	Amplitude force	Amplitude pos	Stiffness	Phase shift	Phase excitation	Force A raw	Displacement raw	HMax	HMax raw	Real Force	Real Stiffness	Contact Depth	Area	Hardness	Reduced Mod.
[#]	[#]	[um]	[s]	[um]	[um]	[um]	[m°]	[m°]	[um]	[uN]	[uN]	[V]	[V]	[V]	[°C]	[uN]	[um]	[N/m]	[°]	[°]	[uN]	[um]	[um]	[um]	[uN]	[N/m]	[um]	[um^2]	[MPa]	[MPa]
798	1.000000	0.002649	7.37286e+06	-40039.1	1055.82	-29791.5	0.000000	0.000000	6.002782	-0.066071	NaN	0.000000	0.001547	0.001831	28.0825	0.144547	0.000912	158.575	78.7453	-161.225	-0.014170	0.001384	-1.078867	-1.080132	-0.066071	158.575	-1.078555	-2.582892E+14	2.558011E-16	NaN
798	1.000000	0.042604	7.37286e+06	-40039.1	1055.82	-29791.5	0.000000	0.000000	6.042741	0.032042	NaN	0.000000	0.001559	0.001814	28.0818	0.105144	0.001962	53.5772	65.7042	-164.31	-0.038447	0.041255	-1.038912	-1.040261	0.032042	53.5772	-1.039361	-7.680178E+13	-4.172095E-16	NaN
798	1.000000	0.082619	7.37286e+06	-40039.1	1055.82	-29791.5	0.000000	0.000000	6.082753	-0.034028	NaN	0.000000	0.001595	0.001819	28.0818	0.084578	0.002005	42.1803	-56.7309	-167.396	-0.081697	0.081335	-0.998897	-1.000181	-0.034028	42.1803	-0.998292	-2.151675E+13	1.581451E-15	NaN
798	1.000000	0.122648	7.37286e+06	-40039.1	1055.82	-29791.5	0.000000	0.000000	6.122777	-0.174985	NaN	0.000000	0.001543	0.001853	28.083	0.007492	0.001848	4.053492	160.383	-168.587	-0.160989	0.121409	-0.958868	-0.960107	-0.174985	4.053492	-0.926492	-2.316553E+12	7.553682E-14	NaN
798	1.000000	0.162647	7.37286e+06	-40039.1	1055.82	-29791.5	0.000000	0.000000	6.162778	-0.130751	NaN	0.000000	0.001627	0.001786	28.083	0.100632	0.002026	49.6638	-120.526	-167.196	-0.096473	0.161260	-0.918869	-0.920256	-0.130751	49.6638	-0.916894	-1.718989E+12	7.606259E-14	NaN
798	1.000000	0.202659	7.37286e+06	-40039.1	1055.82	-29791.5	0.000000	0.000000	6.202792	-0.073730	NaN	0.000000	0.001638	0.001783	28.0832	0.032946	0.001912	17.2345	-106.395	-163.475	-0.192229	0.201371	-0.878857	-0.880145	-0.073730	17.2345	-0.875649	-4.762773E+11	1.548055E-13	NaN
798	1.000000	0.242713	7.37286e+06	-40039.1	1055.82	-29791.5	0.000000	0.000000	6.242847	-0.054284	NaN	0.000000	0.001551	0.001807	28.082	0.125881	0.001994	63.1201	50.6493	-166.253	-0.035264	0.241387	-0.838803	-0.840129	-0.054284	63.1201	-0.838158	-1.480249E+11	3.667248E-13	NaN
798	1.000000	0.282707	7.37286e+06	-40039.1	1055.82	-29791.5	0.000000	0.000000	6.282839	-0.090488	NaN	0.000000	0.001517	0.001761	28.0818	0.095570	0.002111	45.2727	-93.0062	-165.579	-0.078556	0.281417	-0.798809	-0.800099	-0.090488	45.2727	-0.797310	-4.133754E+10	2.189004E-12	NaN
798	1.000000	0.322721	7.37286e+06	-40039.1	1055.82	-29791.5	0.000000	0.000000	6.322856	-0.038937	NaN	0.000000	0.001481	0.001826	28.0816	0.069252	0.001966	35.2217	92.1014	-166.947	-0.090545	0.321456	-0.758795	-0.760060	-0.038937	35.2217	-0.757966	-1.206768E+10	3.226514E-12	NaN
798	1.000000	0.362757	7.37286e+06	-40039.1	1055.82	-29791.5	0.000000	0.000000	6.362891	-0.055219	NaN	0.000000	0.001485	0.001807	28.0816	0.047262	0.001947	24.2766	35.1943	-165.81	-0.153685	0.361448	-0.718758	-0.720067	-0.055219	24.2766	-0.717053	-3.344044E+9	1.651278E-11	NaN
798	1.000000	0.402764	7.37286e+06	-40039.1	1055.82	-29791.5	0.000000	0.000000	6.402897	-0.084353	NaN	0.000000	0.001580	0.001816	28.0829	0.029981	0.002026	14.7949	-158.12	-164.954	-0.021972	0.401463	-0.678752	-0.680053	-0.084353	14.7949	-0.674476	-8.762790E+8	9.626246E-11	NaN
798	1.000000	0.442794	7.37286e+06	-40039.1	1055.82	-29791.5	0.000000	0.000000	6.442930	-0.006275	NaN	0.000000	0.001546	0.001812	28.0829	0.056756	0.001985	28.5963	-140.227	-164.873	-0.073931	0.441502	-0.638722	-0.640014	-0.006275	28.5963	-0.638558	-2.821634E+8	2.223952E-11	NaN
798	1.000000	0.482789	7.37286e+06	-40039.1	1055.82	-29791.5	0.000000	0.000000	6.482925	-0.006766	NaN	0.000000	0.001529	0.001792	28.0828	0.103992	0.001883	55.2241	-68.041	-165.695	-0.035289	0.481523	-0.598727	-0.599993	-0.006766	55.2241	-0.598635	-7.973681E+7	8.485655E-11	NaN
798	1.000000	0.522817	7.37286e+06	-40039.1	1055.82	-29791.5	0.000000	0.000000	6.522949	-0.088963	NaN	0.000000	0.001654	0.001782	28.0815	0.072727	0.001884	38.6117	-2.303027	-165.252	-0.027021	0.521519	-0.558699	-0.559997	-0.088963	38.6117	-0.556971	-2.120671E+7	4.195042E-9	NaN
798	1.000000	0.562866	7.37286e+06	-40039.1	1055.82	-29791.5	0.000000	0.000000	6.563001	-0.035905	NaN	0.000000	0.001586	0.001810	28.0816	0.076337	0.001993	38.3039	170.816	-166.236	-0.013033	0.561501	-0.518650	-0.520015	-0.035905	38.3039	-0.517947	-6.09588e+06	5.890087E-9	NaN
798	1.000000	0.602826	7.37286e+06	-40039.1	1055.82	-29791.5	0.000000	0.000000	6.602959	-0.083186	NaN	0.000000	0.001620	0.001822	28.0817	0.110916	0.002002	55.406	-154.529	-164.961	-0.062420	0.601530	-0.478690	-0.479986	-0.083186	55.406	-0.477564	-1.665e+06	4.996152E-8	NaN
798	1.000000	0.642874	7.37286e+06	-40039.1	1055.82	-29791.5	0.000000	0.000000	6.643011	0.022144	NaN	0.000000	0.001632	0.001828	28.0823	0.028746	0.002097	13.7067	-147.823	-168.157	-0.099171	0.641567	-0.438642	-0.439949	0.022144	13.7067	-0.439853	-491240	-4.507692E-8	NaN
798	1.000000	0.682880	7.37286e+06	-40039.1	1055.82	-29791.5	0.000000	0.000000	6.683017	0.018294	NaN	0.000000	0.001633	0.001849	28.0827	0.016701	0.002037	8.197876	-99.9182	-168.977	-0.015330	0.681620	-0.398636	-0.399896	0.018294	8.197876	-0.400310	-135023	-1.354861E-7	NaN
798	1.000000	0.722911	7.37286e+06	-40039.1	1055.82	-29791.5	0.000000	0.000000	6.723043	-0.125906	NaN	0.000000	0.001658	0.001817	28.0826	0.061220	0.002033	30.1087	-19.9785	-168.572	-0.038683	0.721586	-0.358604	-0.359930	-0.125906	30.1087	-0.355468	-30639.2	4.109306E-6	NaN
798	1.000000	0.762911	7.37286e+06	-40039.1	1055.82	-29791.5	0.000000	0.000000	6.763045	-0.048775	NaN	0.000000	0.001702	0.001798	28.0828	0.087462	0.001926	45.409	-72.6876	-164.228	-0.039816	0.761571	-0.318605	-0.319945	-0.048775	45.409	-0.317799	-8634.27	5.649014E-6	NaN
798	1.000000	0.802939	7.37286e+06	-40039.1	1055.82	-29791.5	0.000000	0.000000	6.803071	-0.106132	NaN	0.000000	0.001581	0.001830	28.082	0.084558	0.002011	42.0406	-10.8549	-167.026	-0.163721	0.801664	-0.278576	-0.279852	-0.106132	42.0406	-0.276683	-2103.15	5.046362E-5	NaN
798	1.000000	0.842945	7.37286e+06	-40039.1	1055.82	-29791.5	0.000000	0.000000	6.843080	-0.022243	NaN	0.000000	0.001608	0.001796	28.0821	0.060541	0.002051	29.5165	175.555	-164.916	-0.060513	0.841627	-0.238571	-0.239889	-0.022243	29.5165	-0.238006	-535.018	4.157407E-5	NaN
798	1.000000	0.882949	7.37286e+06	-40039.1	1055.82	-29791.5	0.000000	0.000000	6.883080	-0.115773	NaN	0.000000	0.001506	0.001783	28.0818	0.039793	0.002004	19.8593	177.882	-166.553	-0.049153	0.881671	-0.198567	-0.199845	-0.115773	19.8593	-0.194195	-105.647	0.001096	NaN
798	1.000000	0.923013	7.37286e+06	-40039.1	1055.82	-29791.6	0.000000	0.000000	6.923146	-0.058856	NaN	0.000000	0.001541	0.001765	28.0831	0.052827	0.002010	26.2857	-85.8248	-166.898	-0.082323	0.921646	-0.158503	-0.159870	-0.058856	26.2857	-0.156824	-24.0618	0.002446	NaN
798	1.000000	0.962975	7.37287e+06	-40039.1	1055.82	-29791.6	0.000000	0.000000	6.963110	-0.028126	NaN	0.000000	0.001510	0.001797	28.0832	0.037157	0.002010	18.4873	-150.919	-165.725	-0.118187	0.961625	-0.118541	-0.119891	-0.028126	18.4873	-0.117400	-4.278748	0.006574	NaN
798	1.000000	1.003024	7.37287e+06	-40039.1	1055.82	-29791.6	0.000000	0.000000	7.003157	-0.063811	NaN	0.000000	0.001595	0.001761	28.083	0.064951	0.001966	33.0376	-168.067	-166.9	-0.107201	1.001686	-0.078492	-0.079830	-0.063811	33.0376	-0.077044	-0.521218	0.122427	NaN
798	1.000000	1.043051	7.37287e+06	-40039.1	1055.82	-29791.6	0.000000	0.000000	7.043185	-0.056354	NaN	0.000000	0.001542	0.001792	28.083	0.124852	0.001944	64.2323	71.8853	-168.239	-0.126251	1.041778	-0.038464	-0.039738	-0.056354	64.2323	-0.037806	-0.038819	1.451722	NaN
798	1.000000	1.083027	7.37287e+06	-40039.1	1055.82	-29791.6	0.000000	0.000000	7.083383	5.350434	NaN	0.000000	0.001623	0.001793	28.0816	5.457082	0.001785	3057.45	14.5192	-172.116	4.466538	1.081668	0.001511	0.000152	5.350434	3057.45	0.000199	0.000149	35870.3	228721
798	2.000000	1.095553	7.37287e+06	-40039.1	1055.82	-29791.6	0.000000	0.000000	7.096606	22.3119	NaN	0.000000	0.001560	0.001785	28.0817	18.9376	0.001806	10484.8	7.753570	-177.312	23.0025	1.095291	0.014037	0.013776	22.3119	10484.8	0.012441	0.012022	1855.88	87365.7
798	2.000000	1.105545	7.37287e+06	-40039.1	1055.82	-29791.6	0.000000	0.000000	7.107576	46.0951	NaN	0.000000	0.001638	0.001829	28.0816	30.8798	0.001898	16273.4	6.162324	178.631	45	1.105311	0.024029	0.023795	46.0951	16273.4	0.021905	0.025624	1798.9	92880.8
798	2.000000	1.115547	7.37287e+06	-40039.1	1055.82	-29791.6	0.000000	0.000000	7.118863	77.3659	NaN	0.000000	0.001591	0.001883	28.0828	40.7702	0.001727	23606.7	5.231687	175.783	78.3805	1.115252	0.034032	0.033736	77.3659	23606.7	0.031574	0.044068	1755.58	102741
798	2.000000	1.125503	7.37287e+06	-40039.1	1055.82	-29791.6	0.000000	0.000000	7.130707	123.321	NaN	0.000000	0.001568	0.001804	28.083	50.472	0.001954	25834.9	6.099341	175.226	122.174	1.125207	0.043987	0.043691	123.321	25834.9	0.040407	0.065085	1894.79	92521.2
798	2.000000	1.135459	7.37287e+06	-40039.1	1055.82	-29791.6	0.000000	0.000000	7.143091	182.392	NaN	0.000000	0.001570	0.001761	28.083	59.5012	0.001746	34076.9	4.797992	174.358	179.406	1.135161	0.053943	0.053645	182.392	34076.9	0.049929	0.092193	1978.36	102538
798	2.000000	1.145467	7.37287e+06	-40039.1	1055.82	-29791.6	0.000000	0.000000	7.155744	246.786	NaN	0.000000	0.001542	0.001801	28.083	70.7628	0.001799	39324.4	3.089817	174.907	244.642	1.145290	0.063951	0.063775	246.786	39324.4	0.059244	0.123111	2004.59	102397
798	2.000000	1.155406	7.37287e+06	-40039.1	1055.82	-29791.6	0.000000	0.000000	7.168827	323.284	NaN	0.000000	0.001578	0.001831	28.0816	81.5597	0.001780	45822.9	4.615412	171.724	319.985	1.155157	0.073890	0.073641	323.284	45822.9	0.068598	0.158433	2040.5	105180
798	2.000000	1.165438	7.37287e+06	-40039.1	1055.82	-29791.6	0.000000	0.000000	7.182013	400.02	NaN	0.000000	0.001538	0.001810	28.0817	91.6334	0.001734	52841.8	4.939975	170.342	397.638	1.165237	0.083923	0.083721	400.02	52841.8	0.078245	0.199235	2007.78	108160
798	2.000000	1.175371	7.37287e+06	-40039.1	1055.82	-29791.6	0.000000	0.000000	7.196013	498.996	NaN	0.000000	0.001548	0.001813	28.0819	102.454	0.001805	56772.9	6.233608	169.058	494.283	1.175132	0.093855	0.093617	498.996	56772.9	0.087263	0.241315	2067.82	105590
798	2.000000	1.184882	7.37287e+06	-40039.1	1055.82	-29791.6	0.000000	0.000000	7.209579	597.664	NaN	0.000000	0.001575	0.001825	28.0832	111.224	0.001743	63804.6	2.985464	-7.593166	590.97	1.184439	0.103366	0.102923	597.664	63804.6	0.096341	0.287456	2079.14	108727