File: remote_trans/data/nanoindenter/0828-1/data/Data_2025-08-06,11h17m57s/2025-07-22_16-23-58_1_134.txt
2025-07-22, 16:23:58, 1
Index	Phase	Displacement	Time	Pos X	Pos Y	Pos Z	Rot A	Rot B	Piezo Z	Force A	Force B	Gripper	Voltage A	Voltage B	Temperature	Amplitude force	Amplitude pos	Stiffness	Phase shift	Phase excitation	Force A raw	Displacement raw	HMax	HMax raw	Real Force	Real Stiffness	Contact Depth	Area	Hardness	Reduced Mod.
[#]	[#]	[um]	[s]	[um]	[um]	[um]	[m°]	[m°]	[um]	[uN]	[uN]	[V]	[V]	[V]	[°C]	[uN]	[um]	[N/m]	[°]	[°]	[uN]	[um]	[um]	[um]	[uN]	[N/m]	[um]	[um^2]	[MPa]	[MPa]
134	1.000000	0.002695	7.36635e+06	-45339.1	955.819	-29773.2	0.000000	0.000000	6.002797	-0.018079	NaN	0.000000	0.001561	0.001712	28.0832	0.048917	0.000945	51.7881	125.805	-168.965	-0.042277	0.001426	-1.096738	-1.098008	-0.018079	51.7881	-1.096477	-4.495395E+14	4.021573E-17	NaN
134	1.000000	0.044654	7.36635e+06	-45339.1	955.818	-29773.2	0.000000	0.000000	6.044758	0.028528	NaN	0.000000	0.001533	0.001774	28.1111	0.123982	0.001999	62.0068	134.988	16.775	-0.006458	0.043315	-1.054780	-1.056118	0.028528	62.0068	-1.055125	-1.251124E+14	-2.280209E-16	NaN
134	1.000000	0.086646	7.36635e+06	-45339.1	955.818	-29773.2	0.000000	0.000000	6.086748	-0.035303	NaN	0.000000	0.001550	0.001724	28.1288	0.036214	0.001987	18.2225	-139.74	-164.881	-0.017113	0.085355	-1.012787	-1.014079	-0.035303	18.2225	-1.011334	-3.223600E+13	1.095137E-15	NaN
134	1.000000	0.128724	7.36635e+06	-45339.1	955.819	-29773.2	0.000000	0.000000	6.128826	-0.025630	NaN	0.000000	0.001568	0.001730	28.0876	0.066546	0.001947	34.1843	130.573	14.1426	-0.072352	0.127311	-0.970710	-0.972123	-0.025630	34.1843	-0.970148	-8.987770E+12	2.851640E-15	NaN
134	1.000000	0.170707	7.36635e+06	-45339.1	955.818	-29773.2	0.000000	0.000000	6.170808	-0.055916	NaN	0.000000	0.001541	0.001720	28.0829	0.156086	0.001942	80.3695	10.3895	-162.645	-0.062516	0.169375	-0.928727	-0.930059	-0.055916	80.3695	-0.928205	-2.443254E+12	2.288592E-14	NaN
134	1.000000	0.212712	7.36635e+06	-45339.1	955.818	-29773.2	0.000000	0.000000	6.212815	0.006731	NaN	0.000000	0.001546	0.001775	28.1112	0.092732	0.001937	47.8717	110.375	14.3706	-0.034435	0.211358	-0.886722	-0.888076	0.006731	47.8717	-0.886827	-6.745690E+11	-9.977846E-15	NaN
134	1.000000	0.254753	7.36635e+06	-45339.1	955.818	-29773.2	0.000000	0.000000	6.254857	0.021020	NaN	0.000000	0.001541	0.001792	28.1301	0.083495	0.002012	41.5019	-140.813	-166.643	0.042431	0.253432	-0.844681	-0.846001	0.021020	41.5019	-0.845061	-1.835878E+11	-1.144953E-13	NaN
134	1.000000	0.296718	7.36635e+06	-45339.1	955.818	-29773.2	0.000000	0.000000	6.296820	-0.001203	NaN	0.000000	0.001651	0.001760	28.0901	0.063500	0.002041	31.1049	39.3407	15.6329	-0.015113	0.295381	-0.802716	-0.804053	-0.001203	31.1049	-0.802687	-4.890299E+10	2.460065E-14	NaN
134	1.000000	0.338771	7.36635e+06	-45339.1	955.818	-29773.2	0.000000	0.000000	6.338871	-0.054380	NaN	0.000000	0.001653	0.001687	28.0804	0.096534	0.002006	48.1226	103.637	-167.047	-0.012468	0.337415	-0.760663	-0.762019	-0.054380	48.1226	-0.759815	-1.278761E+10	4.252544E-12	NaN
134	1.000000	0.380817	7.36635e+06	-45339.1	955.819	-29773.2	0.000000	0.000000	6.380919	-0.018005	NaN	0.000000	0.001586	0.001767	28.1089	0.077465	0.001926	40.2259	140.474	16.5001	0.030752	0.379456	-0.718617	-0.719978	-0.018005	40.2259	-0.718281	-3.475637E+9	5.180243E-12	NaN
134	1.000000	0.422797	7.36635e+06	-45339.1	955.819	-29773.2	0.000000	0.000000	6.422898	-0.036792	NaN	0.000000	0.001538	0.001754	28.1286	0.092131	0.002147	42.9134	-93.5043	-166.788	-0.099525	0.421494	-0.676637	-0.677940	-0.036792	42.9134	-0.675994	-9.192035E+8	4.002551E-11	NaN
134	1.000000	0.464818	7.36635e+06	-45339.1	955.818	-29773.2	0.000000	0.000000	6.464917	-0.093453	NaN	0.000000	0.001581	0.001755	28.0907	0.062528	0.002010	31.1084	-34.819	15.969	-0.040972	0.463483	-0.634615	-0.635951	-0.093453	31.1084	-0.632362	-2.319848E+8	4.028417E-10	NaN
134	1.000000	0.506839	7.36635e+06	-45339.1	955.818	-29773.2	0.000000	0.000000	6.506943	0.034530	NaN	0.000000	0.001564	0.001732	28.0827	0.049691	0.002005	24.7821	-163.65	-165.695	-0.009741	0.505553	-0.592595	-0.593880	0.034530	24.7821	-0.593640	-6.805190E+7	-5.074044E-10	NaN
134	1.000000	0.548855	7.36635e+06	-45339.1	955.819	-29773.2	0.000000	0.000000	6.548955	-0.060796	NaN	0.000000	0.001539	0.001734	28.1093	0.094537	0.001909	49.526	136.57	15.4524	-0.027420	0.547471	-0.550579	-0.551962	-0.060796	49.526	-0.549658	-1.679668E+7	3.619498E-9	NaN
134	1.000000	0.590896	7.36635e+06	-45339.1	955.817	-29773.2	0.000000	0.000000	6.590997	-0.033903	NaN	0.000000	0.001569	0.001748	28.1299	0.126826	0.002015	62.9566	90.5173	-167.952	-0.049303	0.589513	-0.508538	-0.509920	-0.033903	62.9566	-0.508134	-4.45066e+06	7.617623E-9	NaN
134	1.000000	0.632929	7.36635e+06	-45339.1	955.818	-29773.2	0.000000	0.000000	6.633030	-0.049220	NaN	0.000000	0.001644	0.001763	28.0908	0.023177	0.001912	12.1218	-39.35	18.8892	-0.037408	0.631541	-0.466505	-0.467893	-0.049220	12.1218	-0.463459	-1.05588e+06	4.661518E-8	NaN
134	1.000000	0.674928	7.36635e+06	-45339.1	955.818	-29773.2	0.000000	0.000000	6.675031	0.000665	NaN	0.000000	0.001628	0.001751	28.0813	0.083404	0.001952	42.7261	-72.9183	-166.334	0.005398	0.673587	-0.424506	-0.425846	0.000665	42.7261	-0.424518	-298159	-2.229237E-9	NaN
134	1.000000	0.716921	7.36635e+06	-45339.1	955.818	-29773.2	0.000000	0.000000	6.717024	-0.005498	NaN	0.000000	0.001664	0.001765	28.1072	0.057232	0.002033	28.1521	148.152	15.2948	-0.026613	0.715584	-0.382512	-0.383850	-0.005498	28.1521	-0.382366	-74787.5	7.350903E-8	NaN
134	1.000000	0.758948	7.36635e+06	-45339.1	955.818	-29773.2	0.000000	0.000000	6.759048	-0.050034	NaN	0.000000	0.001592	0.001776	28.13	0.058301	0.002090	27.8934	-47.6982	-165.885	-0.024961	0.757651	-0.340486	-0.341783	-0.050034	27.8934	-0.339141	-17743	2.819954E-6	NaN
134	1.000000	0.800982	7.36635e+06	-45339.1	955.818	-29773.2	0.000000	0.000000	6.801085	0.014635	NaN	0.000000	0.001588	0.001782	28.0923	0.065616	0.002018	32.5106	-160.304	11.7835	0.003513	0.799578	-0.298452	-0.299855	0.014635	32.5106	-0.298789	-4514.49	-3.241727E-6	NaN
134	1.000000	0.842990	7.36635e+06	-45339.1	955.818	-29773.2	0.000000	0.000000	6.843088	-0.121315	NaN	0.000000	0.001609	0.001767	28.0811	0.067122	0.001840	36.4731	117.748	-165.587	-0.098318	0.841691	-0.256443	-0.257743	-0.121315	36.4731	-0.253949	-946.073	0.000128	NaN
134	1.000000	0.885022	7.36635e+06	-45339.1	955.818	-29773.2	0.000000	0.000000	6.885122	-0.060524	NaN	0.000000	0.001579	0.001781	28.1062	0.063653	0.001962	32.4389	165.977	18.5784	-0.121560	0.883647	-0.214412	-0.215787	-0.060524	32.4389	-0.213012	-214.536	0.000282	NaN
134	1.000000	0.927009	7.36635e+06	-45339.1	955.818	-29773.2	0.000000	0.000000	6.927114	0.056969	NaN	0.000000	0.001548	0.001768	28.1294	0.050797	0.001993	25.4896	-94.751	-166.133	0.033134	0.925751	-0.172425	-0.173683	0.056969	25.4896	-0.174101	-48.3633	-0.001178	NaN
134	1.000000	0.969047	7.36635e+06	-45339.1	955.818	-29773.2	0.000000	0.000000	6.969150	-0.003271	NaN	0.000000	0.001544	0.001807	28.0922	0.069036	0.001921	35.9455	138.992	15.6394	-0.023378	0.967666	-0.130387	-0.131768	-0.003271	35.9455	-0.130318	-7.730200	0.000423	NaN
134	1.000000	1.011072	7.36635e+06	-45339.1	955.818	-29773.2	0.000000	0.000000	7.011176	0.036025	NaN	0.000000	0.001542	0.001778	28.08	0.017012	0.001993	8.535805	25.2132	-164.66	0.024989	1.009777	-0.088362	-0.089657	0.036025	8.535805	-0.091527	-1.173520	-0.030698	NaN
134	1.000000	1.053071	7.36635e+06	-45339.1	955.82	-29773.2	0.000000	0.000000	7.053173	-0.004741	NaN	0.000000	0.001640	0.001737	28.106	0.163360	0.002083	78.4415	-141.183	17.7753	-0.010779	1.051764	-0.046363	-0.047669	-0.004741	78.4415	-0.046318	-0.070512	0.067241	NaN
134	1.000000	1.095082	7.36635e+06	-45339.1	955.82	-29773.2	0.000000	0.000000	7.095224	0.942374	NaN	0.000000	0.001647	0.001757	28.1308	0.700937	0.002000	350.489	10.226	-164.973	0.977284	1.093817	-0.004351	-0.005617	0.942374	350.489	-0.006368	-0.004260	-221.206	NaN
134	2.000000	1.123072	7.36635e+06	-45339.1	955.819	-29773.2	0.000000	0.000000	7.123996	19.966	NaN	0.000000	0.001645	0.001760	28.0918	13.3487	0.001703	7839.74	5.260007	8.385408	18.0155	1.122670	0.023639	0.023237	19.966	7839.74	0.021729	0.025332	788.184	45003.2
134	2.000000	1.133499	7.36635e+06	-45339.1	955.819	-29773.2	0.000000	0.000000	7.136731	76.126	NaN	0.000000	0.001594	0.001754	28.0798	24.5996	0.001748	14073.8	2.014165	-174.522	73.5035	1.133197	0.034065	0.033763	76.126	14073.8	0.030009	0.040762	1867.59	63688
134	2.000000	1.144004	7.36635e+06	-45339.1	955.818	-29773.2	0.000000	0.000000	7.151124	170.699	NaN	0.000000	0.001619	0.001758	28.1029	35.77	0.001658	21571	1.182586	2.272785	167.789	1.143635	0.044570	0.044201	170.699	21571	0.038635	0.060549	2819.18	80092
134	2.000000	1.154436	7.36635e+06	-45339.1	955.819	-29773.2	0.000000	0.000000	7.166289	285.854	NaN	0.000000	0.001624	0.001750	28.1306	46.0622	0.001637	28145.8	1.973200	179.152	281.318	1.154157	0.055002	0.054724	285.854	28145.8	0.047385	0.084502	3382.79	88461.1
134	2.000000	1.164916	7.36636e+06	-45339.1	955.819	-29773.2	0.000000	0.000000	7.183014	437.771	NaN	0.000000	0.001615	0.001734	28.0935	57.0318	0.001753	32526	2.803685	-2.792749	430.844	1.164522	0.065482	0.065088	437.771	32526	0.055388	0.109791	3987.33	89685.2
134	2.000000	1.175307	7.36636e+06	-45339.1	955.818	-29773.2	0.000000	0.000000	7.200446	609.05	NaN	0.000000	0.001607	0.001743	28.0823	65.4367	0.001687	38787.8	0.342700	178.447	599.568	1.175036	0.075873	0.075602	609.05	38787.8	0.064096	0.140906	4322.4	94406.9
134	2.000000	1.185971	7.36636e+06	-45339.1	955.818	-29773.2	0.000000	0.000000	7.218761	795.158	NaN	0.000000	0.001587	0.001760	28.1036	75.6569	0.001891	40011.8	6.080019	-6.297893	792.108	1.185537	0.086538	0.086104	795.158	40011.8	0.071633	0.170793	4655.68	88455.8
134	2.000000	1.196325	7.36636e+06	-45339.1	955.82	-29773.2	0.000000	0.000000	7.233872	910.888	NaN	0.000000	0.001619	0.001722	28.1307	82.7524	0.001861	44465.4	3.335670	174.871	903.488	1.195943	0.096891	0.096509	910.888	44465.4	0.081527	0.214115	4254.2	87795.4
134	2.000000	1.206748	7.36636e+06	-45339.1	955.819	-29773.2	0.000000	0.000000	7.246912	974.544	NaN	0.000000	0.001611	0.001762	28.0925	89.8968	0.001820	49380.7	3.692167	-6.649273	961.657	1.206376	0.107314	0.106942	974.544	49380.7	0.092513	0.267540	3642.61	87224
134	2.000000	1.216868	7.36636e+06	-45339.1	955.82	-29773.2	0.000000	0.000000	7.264195	1148.81	NaN	0.000000	0.001594	0.001724	28.0932	97.8138	0.001920	50940.3	4.680758	-7.665764	1141.97	1.216509	0.117434	0.117075	1148.81	50940.3	0.100520	0.309962	3706.29	83595