File: remote_trans/data/nanoindenter/0828-1/data/Data_2025-08-06,11h17m57s/2025-07-22_16-23-58_1_452.txt
2025-07-22, 16:23:58, 1
Index	Phase	Displacement	Time	Pos X	Pos Y	Pos Z	Rot A	Rot B	Piezo Z	Force A	Force B	Gripper	Voltage A	Voltage B	Temperature	Amplitude force	Amplitude pos	Stiffness	Phase shift	Phase excitation	Force A raw	Displacement raw	HMax	HMax raw	Real Force	Real Stiffness	Contact Depth	Area	Hardness	Reduced Mod.
[#]	[#]	[um]	[s]	[um]	[um]	[um]	[m°]	[m°]	[um]	[uN]	[uN]	[V]	[V]	[V]	[°C]	[uN]	[um]	[N/m]	[°]	[°]	[uN]	[um]	[um]	[um]	[uN]	[N/m]	[um]	[um^2]	[MPa]	[MPa]
452	1.000000	0.002600	7.36948e+06	-54489.1	1005.82	-29743.5	0.000000	0.000000	6.002803	-0.000503	NaN	0.000000	0.001555	0.001672	28.0801	0.090910	0.001070	84.9359	127.373	-161.422	0.002296	0.001329	-1.090100	-1.091371	-0.000503	84.9359	-1.090096	-3.690582E+14	1.361678E-18	NaN
452	1.000000	0.044526	7.36948e+06	-54489.1	1005.82	-29743.5	0.000000	0.000000	6.044729	0.019550	NaN	0.000000	0.001553	0.001756	28.0801	0.097953	0.001899	51.5785	14.5572	12.1165	-0.022707	0.043160	-1.048174	-1.049540	0.019550	51.5785	-1.048459	-1.017873E+14	-1.920659E-16	NaN
452	1.000000	0.086568	7.36948e+06	-54489.1	1005.82	-29743.5	0.000000	0.000000	6.086769	-0.039398	NaN	0.000000	0.001612	0.001717	28.08	0.027815	0.001900	14.643	40.2703	-165.316	-0.006393	0.085243	-1.006132	-1.007457	-0.039398	14.643	-1.004114	-2.577270E+13	1.528669E-15	NaN
452	1.000000	0.128571	7.36948e+06	-54489.1	1005.82	-29743.5	0.000000	0.000000	6.128773	-0.031191	NaN	0.000000	0.001580	0.001751	28.0798	0.024014	0.001907	12.5909	-87.5898	15.0128	0.001775	0.127234	-0.964129	-0.965466	-0.031191	12.5909	-0.962271	-7.038624E+12	4.431453E-15	NaN
452	1.000000	0.170604	7.36948e+06	-54489.1	1005.82	-29743.5	0.000000	0.000000	6.170807	-0.008314	NaN	0.000000	0.001604	0.001756	28.0812	0.043195	0.001917	22.5275	108.552	-165.925	0.033796	0.169275	-0.922096	-0.923425	-0.008314	22.5275	-0.921819	-2.003406E+12	4.150095E-15	NaN
452	1.000000	0.212630	7.36948e+06	-54489.1	1005.82	-29743.5	0.000000	0.000000	6.212834	0.016189	NaN	0.000000	0.001566	0.001777	28.0812	0.087921	0.002127	41.3334	33.9751	8.913064	0.037134	0.211286	-0.880070	-0.881414	0.016189	41.3334	-0.880364	-5.516035E+11	-2.934838E-14	NaN
452	1.000000	0.254592	7.36948e+06	-54489.1	1005.82	-29743.5	0.000000	0.000000	6.254794	-0.019945	NaN	0.000000	0.001568	0.001751	28.0808	0.101489	0.002030	49.9914	-146.293	-166.013	-0.003860	0.253366	-0.838108	-0.839334	-0.019945	49.9914	-0.837809	-1.464207E+11	1.362158E-13	NaN
452	1.000000	0.296656	7.36948e+06	-54489.1	1005.82	-29743.5	0.000000	0.000000	6.296860	0.028254	NaN	0.000000	0.001581	0.001776	28.0797	0.018594	0.001819	10.224	80.0499	15.949	-0.009856	0.295313	-0.796044	-0.797387	0.028254	10.224	-0.798117	-4.239316E+10	-6.664770E-13	NaN
452	1.000000	0.338673	7.36948e+06	-54489.1	1005.82	-29743.5	0.000000	0.000000	6.338879	0.069707	NaN	0.000000	0.001576	0.001770	28.0798	0.050955	0.001887	26.9965	51.1711	-166.733	0.063463	0.337359	-0.754027	-0.755340	0.069707	26.9965	-0.755963	-1.133384E+10	-6.150343E-12	NaN
452	1.000000	0.380684	7.36948e+06	-54489.1	1005.82	-29743.5	0.000000	0.000000	6.380887	-0.005724	NaN	0.000000	0.001653	0.001739	28.0797	0.082210	0.002014	40.8235	32.1136	16.2908	0.025985	0.379305	-0.712015	-0.713395	-0.005724	40.8235	-0.711910	-2.845219E+9	2.011742E-12	NaN
452	1.000000	0.422716	7.36948e+06	-54489.1	1005.82	-29743.5	0.000000	0.000000	6.422917	-0.059136	NaN	0.000000	0.001599	0.001697	28.0811	0.099732	0.002085	47.8387	-151.305	-167.309	0.041268	0.421442	-0.669984	-0.671257	-0.059136	47.8387	-0.669057	-7.387241E+8	8.005099E-11	NaN
452	1.000000	0.464724	7.36948e+06	-54489.1	1005.82	-29743.5	0.000000	0.000000	6.464923	-0.097630	NaN	0.000000	0.001561	0.001744	28.0811	0.059297	0.001999	29.6604	115.247	11.4568	-0.045754	0.463364	-0.627976	-0.629336	-0.097630	29.6604	-0.625507	-1.867725E+8	5.227189E-10	NaN
452	1.000000	0.506716	7.36948e+06	-54489.1	1005.82	-29743.5	0.000000	0.000000	6.506917	-0.053429	NaN	0.000000	0.001564	0.001732	28.0814	0.027287	0.002049	13.3176	159.818	-165.693	0.008765	0.505357	-0.585984	-0.587343	-0.053429	13.3176	-0.582975	-4.850361E+7	1.101554E-9	NaN
452	1.000000	0.548743	7.36948e+06	-54489.1	1005.82	-29743.5	0.000000	0.000000	6.548945	-0.010294	NaN	0.000000	0.001511	0.001740	28.08	0.098935	0.001887	52.4206	52.6588	11.9522	0.069626	0.547341	-0.543957	-0.545359	-0.010294	52.4206	-0.543810	-1.393743E+7	7.385599E-10	NaN
452	1.000000	0.590798	7.36948e+06	-54489.1	1005.82	-29743.5	0.000000	0.000000	6.590999	-0.049821	NaN	0.000000	0.001533	0.001721	28.0804	0.090811	0.002122	42.796	92.6443	-164.638	0.018772	0.589509	-0.501902	-0.503191	-0.049821	42.796	-0.501028	-3.54295e+06	1.406203E-8	NaN
452	1.000000	0.632800	7.36948e+06	-54489.1	1005.82	-29743.5	0.000000	0.000000	6.633001	-0.052227	NaN	0.000000	0.001592	0.001775	28.0803	0.120036	0.001996	60.1489	-0.390114	14.512	-0.044485	0.631421	-0.459900	-0.461278	-0.052227	60.1489	-0.459249	-921433	5.668051E-8	NaN
452	1.000000	0.674799	7.36948e+06	-54489.1	1005.82	-29743.5	0.000000	0.000000	6.675002	-0.018907	NaN	0.000000	0.001517	0.001715	28.0804	0.089992	0.001876	47.9742	-38.7889	-168.747	-0.010889	0.673490	-0.417900	-0.419210	-0.018907	47.9742	-0.417605	-237922	7.946782E-8	NaN
452	1.000000	0.716834	7.36948e+06	-54489.1	1005.82	-29743.5	0.000000	0.000000	6.717036	-0.035326	NaN	0.000000	0.001554	0.001761	28.0815	0.111345	0.001944	57.2796	155.006	10.0237	0.009602	0.715466	-0.375866	-0.377234	-0.035326	57.2796	-0.375403	-59411.3	5.946027E-7	NaN
452	1.000000	0.758862	7.36948e+06	-54489.1	1005.82	-29743.5	0.000000	0.000000	6.759063	-0.055052	NaN	0.000000	0.001608	0.001762	28.0814	0.036751	0.002011	18.279	160.651	-166.205	-0.064325	0.757532	-0.333837	-0.335168	-0.055052	18.279	-0.331579	-13758.2	4.001365E-6	NaN
452	1.000000	0.800861	7.36948e+06	-54489.1	1005.82	-29743.5	0.000000	0.000000	6.801064	-0.002463	NaN	0.000000	0.001577	0.001799	28.0815	0.018645	0.002047	9.109709	-85.4635	15.6903	-0.082330	0.799514	-0.291839	-0.293186	-0.002463	9.109709	-0.291637	-3530.26	6.978090E-7	NaN
452	1.000000	0.842889	7.36948e+06	-54489.1	1005.82	-29743.5	0.000000	0.000000	6.843095	0.075356	NaN	0.000000	0.001660	0.001750	28.0805	0.041607	0.002068	20.1239	160.869	-166.037	-0.014426	0.841594	-0.249811	-0.251106	0.075356	20.1239	-0.252620	-902.47	-8.349984E-5	NaN
452	1.000000	0.884904	7.36948e+06	-54489.1	1005.82	-29743.5	0.000000	0.000000	6.885105	-0.061600	NaN	0.000000	0.001651	0.001780	28.08	0.089091	0.002015	44.2166	144.808	18.3321	-0.061580	0.883538	-0.207795	-0.209162	-0.061600	44.2166	-0.206751	-169.854	0.000363	NaN
452	1.000000	0.926877	7.36948e+06	-54489.1	1005.82	-29743.5	0.000000	0.000000	6.927079	-0.033371	NaN	0.000000	0.001666	0.001765	28.0801	0.016682	0.001933	8.628229	179.497	-168.55	0.035499	0.925523	-0.165823	-0.167177	-0.033371	8.628229	-0.162922	-30.8838	0.001081	NaN
452	1.000000	0.968905	7.36948e+06	-54489.1	1005.82	-29743.5	0.000000	0.000000	6.969107	-0.047375	NaN	0.000000	0.001675	0.001784	28.0812	0.038809	0.002009	19.3192	-176.927	16.5376	-0.057893	0.967512	-0.123794	-0.125188	-0.047375	19.3192	-0.121955	-5.289202	0.008957	NaN
452	1.000000	1.010933	7.36948e+06	-54489.1	1005.82	-29743.5	0.000000	0.000000	7.011135	-0.017017	NaN	0.000000	0.001653	0.001739	28.0812	0.074018	0.002074	35.6907	149.361	-166.528	0.009889	1.009615	-0.081767	-0.083085	-0.017017	35.6907	-0.081409	-0.671062	0.025358	NaN
452	1.000000	1.052951	7.36948e+06	-54489.1	1005.82	-29743.5	0.000000	0.000000	7.053154	-0.012053	NaN	0.000000	0.001633	0.001759	28.0814	0.049736	0.001996	24.9189	-147.125	17.1296	0.031323	1.051576	-0.039749	-0.041124	-0.012053	24.9189	-0.039386	-0.043324	0.278209	NaN
452	1.000000	1.094962	7.36948e+06	-54489.1	1005.82	-29743.5	0.000000	0.000000	7.095224	1.450127	NaN	0.000000	0.001646	0.001767	28.08	2.258226	0.001860	1214.17	6.563174	-167.752	0.483781	1.093651	0.002262	0.000951	1.450127	1214.17	0.001366	0.001049	1382.98	34257.7
452	2.000000	1.110099	7.36948e+06	-54489.1	1005.82	-29743.5	0.000000	0.000000	7.111168	21.0463	NaN	0.000000	0.001641	0.001780	28.0802	18.1857	0.001757	10351.9	6.988317	2.265755	20.2059	1.109736	0.017399	0.017036	21.0463	10351.9	0.015874	0.016469	1277.94	73698.5
452	2.000000	1.120607	7.36948e+06	-54489.1	1005.82	-29743.5	0.000000	0.000000	7.122580	43.014	NaN	0.000000	0.001664	0.001794	28.0803	29.4926	0.001947	15146.2	8.822842	178.24	44.397	1.120229	0.027907	0.027529	43.014	15146.2	0.025777	0.032445	1325.75	76825.3
452	2.000000	1.131043	7.36948e+06	-54489.1	1005.82	-29743.5	0.000000	0.000000	7.134305	74.3698	NaN	0.000000	0.001697	0.001781	28.0802	38.3436	0.001749	21917.5	4.616388	-1.878656	72.2863	1.130705	0.038343	0.038006	74.3698	21917.5	0.035798	0.053620	1386.98	86477.1
452	2.000000	1.141547	7.36948e+06	-54489.1	1005.82	-29743.5	0.000000	0.000000	7.146352	111.879	NaN	0.000000	0.001712	0.001765	28.0813	47.6015	0.001704	27932.5	3.957973	176.698	112.277	1.141298	0.048847	0.048598	111.879	27932.5	0.045843	0.079999	1398.5	90227.6
452	2.000000	1.152024	7.36948e+06	-54489.1	1005.82	-29743.5	0.000000	0.000000	7.158725	157.977	NaN	0.000000	0.001635	0.001821	28.0813	58.9183	0.001781	33081.6	6.961053	-7.479152	154.948	1.151690	0.059324	0.058990	157.977	33081.6	0.055742	0.110986	1423.4	90724.9
452	2.000000	1.162470	7.36948e+06	-54489.1	1005.82	-29743.5	0.000000	0.000000	7.171135	205.7	NaN	0.000000	0.001639	0.001802	28.0813	67.1404	0.001825	36788	2.338566	176.381	204.109	1.162237	0.069770	0.069537	205.7	36788	0.065577	0.146562	1403.51	87794.9
452	2.000000	1.172982	7.36949e+06	-54489.1	1005.82	-29743.5	0.000000	0.000000	7.183857	259.456	NaN	0.000000	0.001677	0.001801	28.0802	78.3774	0.001882	41644.6	4.210726	-6.409666	256.318	1.172780	0.080282	0.080080	259.456	41644.6	0.075609	0.187651	1382.65	87832.9
452	2.000000	1.183460	7.36949e+06	-54489.1	1005.82	-29743.5	0.000000	0.000000	7.197603	338.873	NaN	0.000000	0.001734	0.001764	28.0802	87.4999	0.001874	46700.6	3.462815	173.938	336.403	1.183134	0.090761	0.090434	338.873	46700.6	0.085318	0.231923	1461.15	88598
452	2.000000	1.193894	7.36949e+06	-54489.1	1005.82	-29743.5	0.000000	0.000000	7.211100	413.361	NaN	0.000000	0.001668	0.001780	28.0801	97.247	0.001704	57055.3	4.615468	-9.091480	408.077	1.193541	0.101194	0.100841	413.361	57055.3	0.095760	0.284391	1453.5	97748.7
452	2.000000	1.199548	7.36949e+06	-54489.1	1005.82	-29743.5	0.000000	0.000000	7.218492	455.589	NaN	0.000000	0.001638	0.001793	28.0803	103.72	0.001871	55447.2	2.158859	173.92	458.884	1.199227	0.106849	0.106527	455.589	55447.2	0.100686	0.310873	1465.51	90857.5