File: remote_trans/data/nanoindenter/0828-1/data/Data_2025-08-06,11h17m57s/2025-07-22_16-23-58_1_1111.txt
2025-07-22, 16:23:58, 1
Index	Phase	Displacement	Time	Pos X	Pos Y	Pos Z	Rot A	Rot B	Piezo Z	Force A	Force B	Gripper	Voltage A	Voltage B	Temperature	Amplitude force	Amplitude pos	Stiffness	Phase shift	Phase excitation	Force A raw	Displacement raw	HMax	HMax raw	Real Force	Real Stiffness	Contact Depth	Area	Hardness	Reduced Mod.
[#]	[#]	[um]	[s]	[um]	[um]	[um]	[m°]	[m°]	[um]	[uN]	[uN]	[V]	[V]	[V]	[°C]	[uN]	[um]	[N/m]	[°]	[°]	[uN]	[um]	[um]	[um]	[uN]	[N/m]	[um]	[um^2]	[MPa]	[MPa]
1111	1.000000	0.002470	7.37591e+06	-55689.1	1055.82	-29740.4	0.000000	0.000000	6.002829	-0.000815	NaN	0.000000	0.001569	0.001801	28.081	0.033787	0.000932	36.2622	-77.7577	-167.8	0.012299	0.001223	-1.707196	-1.708443	-0.000815	36.2622	-1.707179	-6.335822E+22	1.285912E-26	NaN
1111	1.000000	0.060422	7.37592e+06	-55689.1	1055.82	-29740.4	0.000000	0.000000	6.060781	-0.006893	NaN	0.000000	0.001574	0.001745	28.0816	0.036550	0.002179	16.7775	-42.4073	17.9981	-0.017639	0.059077	-1.649244	-1.650589	-0.006893	16.7775	-1.648936	-1.066330E+22	6.464444E-25	NaN
1111	1.000000	0.118403	7.37592e+06	-55689.1	1055.82	-29740.3	0.000000	0.000000	6.118762	-0.001328	NaN	0.000000	0.001659	0.001672	28.0813	0.132140	0.001771	74.6248	50.3234	-172.121	-0.000515	0.117079	-1.591263	-1.592587	-0.001328	74.6248	-1.591249	-1.823198E+21	7.282772E-25	NaN
1111	1.000000	0.176441	7.37592e+06	-55689.1	1055.82	-29740.3	0.000000	0.000000	6.176802	0.043328	NaN	0.000000	0.001633	0.001768	28.0819	0.061602	0.001991	30.935	1.705026	14.9049	0.060210	0.175083	-1.533225	-1.534583	0.043328	30.935	-1.534276	-3.181996E+20	-1.361668E-22	NaN
1111	1.000000	0.234457	7.37592e+06	-55689.1	1055.82	-29740.3	0.000000	0.000000	6.234815	-0.021354	NaN	0.000000	0.001630	0.001773	28.0806	0.065063	0.002050	31.7418	114.974	-167.698	-0.034292	0.233167	-1.475209	-1.476499	-0.021354	31.7418	-1.474705	-5.121050E+19	4.169800E-22	NaN
1111	1.000000	0.292515	7.37592e+06	-55689.1	1055.82	-29740.3	0.000000	0.000000	6.292875	0.002557	NaN	0.000000	0.001594	0.001787	28.0807	0.158210	0.002058	76.873	153.911	15.2214	-0.035087	0.291179	-1.417151	-1.418487	0.002557	76.873	-1.417176	-8.760719E+18	-2.918207E-22	NaN
1111	1.000000	0.350505	7.37592e+06	-55689.1	1055.82	-29740.3	0.000000	0.000000	6.350868	0.070336	NaN	0.000000	0.001638	0.001791	28.0817	0.021686	0.001823	11.896	144.879	-162.72	0.042208	0.349188	-1.359161	-1.360478	0.070336	11.896	-1.363595	-1.689305E+18	-4.163592E-20	NaN
1111	1.000000	0.408517	7.37592e+06	-55689.1	1055.82	-29740.3	0.000000	0.000000	6.408879	0.062458	NaN	0.000000	0.001608	0.001768	28.0817	0.048475	0.002134	22.7167	-85.5819	16.5984	0.098398	0.407206	-1.301149	-1.302460	0.062458	22.7167	-1.303211	-2.638203E+17	-2.367430E-19	NaN
1111	1.000000	0.466554	7.37592e+06	-55689.1	1055.82	-29740.3	0.000000	0.000000	6.466915	0.035642	NaN	0.000000	0.001581	0.001785	28.0807	0.074570	0.001865	39.9924	-131.062	-170.071	0.006919	0.465298	-1.243112	-1.244368	0.035642	39.9924	-1.243780	-4.233640E+16	-8.418728E-19	NaN
1111	1.000000	0.524602	7.37592e+06	-55689.1	1055.82	-29740.3	0.000000	0.000000	6.524964	0.063504	NaN	0.000000	0.001640	0.001779	28.0806	0.153025	0.001979	77.3104	112.361	12.0817	0.079607	0.523210	-1.185064	-1.186456	0.063504	77.3104	-1.185680	-7.062530E+15	-8.991688E-18	NaN
1111	1.000000	0.582603	7.37592e+06	-55689.1	1055.82	-29740.3	0.000000	0.000000	6.582962	0.007215	NaN	0.000000	0.001539	0.001737	28.0809	0.174012	0.002056	84.6546	-118.579	-165.577	-0.003499	0.581309	-1.127063	-1.128357	0.007215	84.6546	-1.127127	-1.159013E+15	-6.224748E-18	NaN
1111	1.000000	0.640635	7.37592e+06	-55689.1	1055.82	-29740.3	0.000000	0.000000	6.640997	0.056216	NaN	0.000000	0.001590	0.001778	28.082	0.056036	0.001970	28.441	73.8211	15.9723	0.153468	0.639316	-1.069031	-1.070350	0.056216	28.441	-1.070514	-2.014135E+14	-2.791087E-16	NaN
1111	1.000000	0.698672	7.37592e+06	-55689.1	1055.82	-29740.3	0.000000	0.000000	6.699032	0.019977	NaN	0.000000	0.001606	0.001733	28.0818	0.053989	0.002066	26.1264	-149.681	-165.824	-0.010482	0.697384	-1.010994	-1.012282	0.019977	26.1264	-1.011567	-3.246961E+13	-6.152471E-16	NaN
1111	1.000000	0.756672	7.37592e+06	-55689.1	1055.82	-29740.3	0.000000	0.000000	6.757031	-0.004089	NaN	0.000000	0.001560	0.001797	28.0807	0.039212	0.001944	20.1662	160.783	7.943364	0.069574	0.755322	-0.952994	-0.954344	-0.004089	20.1662	-0.952842	-5.252325E+12	7.784299E-16	NaN
1111	1.000000	0.814713	7.37592e+06	-55689.1	1055.82	-29740.3	0.000000	0.000000	6.815072	-0.003206	NaN	0.000000	0.001565	0.001760	28.0806	0.047376	0.002077	22.8047	-165.333	-163.343	-0.011607	0.813401	-0.894953	-0.896265	-0.003206	22.8047	-0.894848	-8.658453E+11	3.702992E-15	NaN
1111	1.000000	0.872747	7.37592e+06	-55689.1	1055.82	-29740.3	0.000000	0.000000	6.873110	0.098240	NaN	0.000000	0.001531	0.001749	28.0819	0.043272	0.002017	21.4487	-1.580594	13.1952	0.026057	0.871335	-0.836919	-0.838331	0.098240	21.4487	-0.840354	-1.585222E+11	-6.197243E-13	NaN
1111	1.000000	0.930768	7.37592e+06	-55689.1	1055.82	-29740.3	0.000000	0.000000	6.931127	-0.017629	NaN	0.000000	0.001677	0.001788	28.082	0.104860	0.001900	55.1812	104.636	-166.048	-0.101885	0.929464	-0.778898	-0.780202	-0.017629	55.1812	-0.778658	-2.306741E+10	7.642438E-13	NaN
1111	1.000000	0.988790	7.37592e+06	-55689.1	1055.82	-29740.3	0.000000	0.000000	6.989150	0.017657	NaN	0.000000	0.001659	0.001774	28.0817	0.013511	0.002093	6.456590	-46.1875	14.5068	0.018742	0.987393	-0.720876	-0.722273	0.017657	6.456590	-0.722927	-4.021478E+9	-4.390580E-12	NaN
1111	1.000000	1.046802	7.37592e+06	-55689.1	1055.82	-29740.3	0.000000	0.000000	7.047162	0.021150	NaN	0.000000	0.001550	0.001744	28.0804	0.109156	0.001955	55.8317	49.1748	-167.195	0.027833	1.045514	-0.662864	-0.664152	0.021150	55.8317	-0.663149	-6.131853E+8	-3.449231E-11	NaN
1111	1.000000	1.104846	7.37592e+06	-55689.1	1055.82	-29740.3	0.000000	0.000000	7.105209	0.082972	NaN	0.000000	0.001559	0.001725	28.0802	0.067031	0.001944	34.4852	-164.87	15.0217	0.076528	1.103469	-0.604820	-0.606197	0.082972	34.4852	-0.606625	-1.027223E+8	-8.077294E-10	NaN
1111	1.000000	1.162833	7.37592e+06	-55689.1	1055.82	-29740.3	0.000000	0.000000	7.163197	0.113216	NaN	0.000000	0.001567	0.001711	28.0815	0.027995	0.001964	14.2561	-11.5981	-164.788	0.032189	1.161630	-0.546833	-0.548036	0.113216	14.2561	-0.552789	-1.856023E+7	-6.099945E-9	NaN
1111	1.000000	1.220890	7.37592e+06	-55689.1	1055.82	-29740.3	0.000000	0.000000	7.221250	0.013155	NaN	0.000000	0.001659	0.001762	28.0816	0.113632	0.002069	54.9277	-135.097	15.193	0.070815	1.219529	-0.488776	-0.490137	0.013155	54.9277	-0.488955	-2.40322e+06	-5.473741E-9	NaN
1111	1.000000	1.278869	7.37592e+06	-55689.1	1055.82	-29740.3	0.000000	0.000000	7.279229	0.018559	NaN	0.000000	0.001566	0.001766	28.0807	0.102584	0.002066	49.6434	13.2316	-164.156	-0.017240	1.277558	-0.430797	-0.432108	0.018559	49.6434	-0.431077	-369231	-5.026332E-8	NaN
1111	1.000000	1.336900	7.37592e+06	-55689.1	1055.82	-29740.3	0.000000	0.000000	7.337261	0.057053	NaN	0.000000	0.001570	0.001717	28.0802	0.069397	0.001942	35.7277	-142.263	14.5118	0.054390	1.335601	-0.372766	-0.374065	0.057053	35.7277	-0.373964	-56646.7	-1.007173E-6	NaN
1111	1.000000	1.394953	7.37592e+06	-55689.1	1055.82	-29740.3	0.000000	0.000000	7.395315	0.063206	NaN	0.000000	0.001585	0.001726	28.0804	0.083772	0.001946	43.0415	-79.0022	-166.597	0.048427	1.393671	-0.314713	-0.315995	0.063206	43.0415	-0.315814	-8071.69	-7.830592E-6	NaN
1111	1.000000	1.452999	7.37592e+06	-55689.1	1055.82	-29740.3	0.000000	0.000000	7.453358	-0.009670	NaN	0.000000	0.001565	0.001716	28.0817	0.076448	0.001877	40.7266	19.5088	12.0091	-0.036203	1.451633	-0.256667	-0.258033	-0.009670	40.7266	-0.256489	-1035.19	9.341286E-6	NaN
1111	1.000000	1.510992	7.37592e+06	-55689.1	1055.82	-29740.3	0.000000	0.000000	7.511358	0.154933	NaN	0.000000	0.001555	0.001737	28.0823	0.145616	0.002077	70.104	9.958933	-161.947	0.063062	1.509720	-0.198674	-0.199946	0.154933	70.104	-0.200331	-133.397	-0.001161	NaN
1111	1.000000	1.569003	7.37592e+06	-55689.1	1055.82	-29740.3	0.000000	0.000000	7.569424	1.502162	NaN	0.000000	0.001561	0.001749	28.0807	0.540383	0.001941	278.347	21.2142	15.7724	1.455812	1.567630	-0.140663	-0.142036	1.502162	278.347	-0.144710	-14.4813	-0.103731	NaN
1111	1.000000	1.627070	7.37592e+06	-55689.1	1055.82	-29740.3	0.000000	0.000000	7.627536	2.595431	NaN	0.000000	0.001617	0.001724	28.0804	0.807004	0.001961	411.487	21.19	-168.133	2.545291	1.625716	-0.082596	-0.083950	2.595431	411.487	-0.087327	-0.934513	-2.777309	NaN
1111	1.000000	1.685092	7.37592e+06	-55689.1	1055.82	-29740.3	0.000000	0.000000	7.685611	3.886337	NaN	0.000000	0.001546	0.001724	28.0805	0.908833	0.001971	461.105	22.0888	14.0077	3.805699	1.683699	-0.024574	-0.025967	3.886337	461.105	-0.030895	-0.024381	-159.4	NaN
1111	2.000000	1.725648	7.37592e+06	-55689.1	1055.82	-29740.3	0.000000	0.000000	7.726554	13.2695	NaN	0.000000	0.001545	0.001723	28.0818	11.3911	0.001745	6528.4	6.955920	-174.87	13.1007	1.725378	0.015982	0.015712	13.2695	6528.4	0.014458	0.014569	910.786	49415.2
1111	2.000000	1.740077	7.37592e+06	-55689.1	1055.82	-29740.3	0.000000	0.000000	7.741841	34.1443	NaN	0.000000	0.001541	0.001719	28.082	26.2526	0.001912	13729.2	5.029788	2.795889	32.5272	1.739711	0.030411	0.030045	34.1443	13729.2	0.028546	0.037784	903.667	64530.3
1111	2.000000	1.754607	7.37592e+06	-55689.1	1055.82	-29740.3	0.000000	0.000000	7.757768	68.122	NaN	0.000000	0.001548	0.001683	28.0807	41.0512	0.001992	20604.5	8.990756	175.542	69.7329	1.754249	0.044941	0.044583	68.122	20604.5	0.042461	0.070543	965.679	70877.3
1111	2.000000	1.769027	7.37592e+06	-55689.1	1055.82	-29740.3	0.000000	0.000000	7.774169	116.252	NaN	0.000000	0.001552	0.001714	28.0806	52.1677	0.001769	29485.4	7.236994	-6.091784	115.83	1.768631	0.059361	0.058965	116.252	29485.4	0.056404	0.113231	1026.68	80056.7
1111	2.000000	1.783494	7.37592e+06	-55689.1	1055.82	-29740.3	0.000000	0.000000	7.791344	182.086	NaN	0.000000	0.001571	0.001699	28.0818	65.242	0.001797	36303.6	2.475332	175.767	180.172	1.783229	0.073828	0.073563	182.086	36303.6	0.070066	0.164358	1107.86	81814
1111	2.000000	1.797946	7.37592e+06	-55689.1	1055.82	-29740.3	0.000000	0.000000	7.808930	258.266	NaN	0.000000	0.001515	0.001666	28.0819	80.2216	0.001944	41272	4.822854	-7.317687	253.643	1.797575	0.088280	0.087909	258.266	41272	0.083587	0.223708	1154.48	79723.7
1111	2.000000	1.812524	7.37593e+06	-55689.1	1055.82	-29740.3	0.000000	0.000000	7.827397	352.797	NaN	0.000000	0.001528	0.001723	28.0817	89.5315	0.001825	49047.6	1.021837	175.735	355.549	1.812294	0.102858	0.102628	352.797	49047.6	0.097463	0.293422	1202.35	82726.5
1111	2.000000	1.818570	7.37593e+06	-55689.1	1055.82	-29740.3	0.000000	0.000000	7.835186	395.164	NaN	0.000000	0.001536	0.001703	28.0809	96.2303	0.001900	50647.3	6.389870	170.062	401.933	1.818177	0.108904	0.108511	395.164	50647.3	0.103053	0.323988	1219.69	81295.2