File: remote_trans/data/nanoindenter/0828-1/data/Data_2025-08-06,11h17m57s/2025-07-22_16-23-58_1_563.txt
2025-07-22, 16:23:58, 1
Index	Phase	Displacement	Time	Pos X	Pos Y	Pos Z	Rot A	Rot B	Piezo Z	Force A	Force B	Gripper	Voltage A	Voltage B	Temperature	Amplitude force	Amplitude pos	Stiffness	Phase shift	Phase excitation	Force A raw	Displacement raw	HMax	HMax raw	Real Force	Real Stiffness	Contact Depth	Area	Hardness	Reduced Mod.
[#]	[#]	[um]	[s]	[um]	[um]	[um]	[m°]	[m°]	[um]	[uN]	[uN]	[V]	[V]	[V]	[°C]	[uN]	[um]	[N/m]	[°]	[°]	[uN]	[um]	[um]	[um]	[uN]	[N/m]	[um]	[um^2]	[MPa]	[MPa]
563	1.000000	0.002846	7.37056e+06	-48939.1	1005.82	-29760.6	0.000000	0.000000	6.002747	-0.032016	NaN	0.000000	0.001501	0.001744	28.0841	0.043607	0.000993	43.9206	-22.7285	-171.182	0.020477	0.001666	-1.076793	-1.077973	-0.032016	43.9206	-1.076246	-2.404887E+14	1.331286E-16	NaN
563	1.000000	0.042849	7.37056e+06	-48939.1	1005.82	-29760.6	0.000000	0.000000	6.042756	0.113098	NaN	0.000000	0.001525	0.001754	28.0838	0.156024	0.002013	77.5231	-178.677	-166.257	0.051382	0.041549	-1.036790	-1.038090	0.113098	77.5231	-1.037884	-7.336884E+13	-1.541502E-15	NaN
563	1.000000	0.082848	7.37056e+06	-48939.1	1005.82	-29760.6	0.000000	0.000000	6.082752	0.035564	NaN	0.000000	0.001536	0.001690	28.0828	0.026967	0.001999	13.4872	88.5695	-163.739	0.078138	0.081553	-0.996790	-0.998086	0.035564	13.4872	-0.998768	-2.183648E+13	-1.628646E-15	NaN
563	1.000000	0.122853	7.37056e+06	-48939.1	1005.82	-29760.6	0.000000	0.000000	6.122753	-0.049549	NaN	0.000000	0.001533	0.001720	28.0824	0.004233	0.001992	2.125506	23.4344	-161.666	0.023233	0.121589	-0.956786	-0.958050	-0.049549	2.125506	-0.939302	-3.449242E+12	1.436521E-14	NaN
563	1.000000	0.162879	7.37056e+06	-48939.1	1005.82	-29760.6	0.000000	0.000000	6.162780	-0.017078	NaN	0.000000	0.001555	0.001709	28.0823	0.068181	0.002063	33.05	13.5616	-169.985	0.060043	0.161558	-0.916760	-0.918080	-0.017078	33.05	-0.916373	-1.691318E+12	1.009728E-14	NaN
563	1.000000	0.202901	7.37056e+06	-48939.1	1005.82	-29760.6	0.000000	0.000000	6.202804	0.024731	NaN	0.000000	0.001558	0.001685	28.0824	0.018944	0.001889	10.0286	-4.303243	-169.202	0.051594	0.201629	-0.876738	-0.878010	0.024731	10.0286	-0.878587	-5.219202E+11	-4.738438E-14	NaN
563	1.000000	0.242927	7.37056e+06	-48939.1	1005.82	-29760.6	0.000000	0.000000	6.242829	0.008446	NaN	0.000000	0.001477	0.001709	28.0837	0.061477	0.001932	31.8232	-100.074	-162.554	-0.024719	0.241621	-0.836712	-0.838018	0.008446	31.8232	-0.836911	-1.423777E+11	-5.932423E-14	NaN
563	1.000000	0.282937	7.37056e+06	-48939.1	1005.82	-29760.6	0.000000	0.000000	6.282837	-0.041318	NaN	0.000000	0.001492	0.001720	28.0837	0.124918	0.002005	62.3087	119.697	-164.049	-0.074503	0.281677	-0.796702	-0.797962	-0.041318	62.3087	-0.796205	-3.993341E+10	1.034682E-12	NaN
563	1.000000	0.322952	7.37056e+06	-48939.1	1005.82	-29760.6	0.000000	0.000000	6.322857	0.069776	NaN	0.000000	0.001523	0.001695	28.0837	0.046067	0.002017	22.8402	110.394	-165.188	0.111502	0.321657	-0.756687	-0.757982	0.069776	22.8402	-0.758978	-1.245667E+10	-5.601498E-12	NaN
563	1.000000	0.362971	7.37056e+06	-48939.1	1005.82	-29760.6	0.000000	0.000000	6.362874	0.026836	NaN	0.000000	0.001474	0.001759	28.0823	0.011522	0.002004	5.750284	63.375	-165.993	0.005351	0.361641	-0.716668	-0.717998	0.026836	5.750284	-0.720168	-3.687794E+9	-7.277029E-12	NaN
563	1.000000	0.402978	7.37056e+06	-48939.1	1005.82	-29760.6	0.000000	0.000000	6.402881	0.025231	NaN	0.000000	0.001470	0.001758	28.0824	0.022167	0.001966	11.2748	83.7537	-167.64	-0.012139	0.401675	-0.676661	-0.677963	0.025231	11.2748	-0.678339	-9.896692E+8	-2.549425E-11	NaN
563	1.000000	0.442993	7.37056e+06	-48939.1	1005.82	-29760.7	0.000000	0.000000	6.442895	-0.002329	NaN	0.000000	0.001539	0.001730	28.0824	0.093680	0.001999	46.8625	-130.712	-162.72	-0.027532	0.441739	-0.636646	-0.637900	-0.002329	46.8625	-0.636609	-2.653109E+8	8.777164E-12	NaN
563	1.000000	0.483068	7.37056e+06	-48939.1	1005.82	-29760.7	0.000000	0.000000	6.482971	0.030438	NaN	0.000000	0.001528	0.001698	28.0836	0.070849	0.002012	35.2054	39.8892	-167.997	0.065157	0.481745	-0.596571	-0.597894	0.030438	35.2054	-0.597219	-7.623581E+7	-3.992623E-10	NaN
563	1.000000	0.523043	7.37056e+06	-48939.1	1005.82	-29760.7	0.000000	0.000000	6.522947	0.057340	NaN	0.000000	0.001551	0.001720	28.0833	0.139182	0.001920	72.4796	-159.895	-168.203	0.063528	0.521760	-0.556596	-0.557879	0.057340	72.4796	-0.557189	-2.135445E+7	-2.685159E-9	NaN
563	1.000000	0.563053	7.37056e+06	-48939.1	1005.82	-29760.7	0.000000	0.000000	6.562954	-0.009699	NaN	0.000000	0.001603	0.001734	28.0834	0.061210	0.002007	30.4947	141.543	-165.172	0.061718	0.561718	-0.516586	-0.517921	-0.009699	30.4947	-0.516348	-5.79147e+06	1.674641E-9	NaN
563	1.000000	0.603054	7.37056e+06	-48939.1	1005.82	-29760.7	0.000000	0.000000	6.602956	-0.004901	NaN	0.000000	0.001642	0.001694	28.0833	0.068874	0.002096	32.8582	-49.2408	-165.671	0.027573	0.601773	-0.476585	-0.477866	-0.004901	32.8582	-0.476473	-1.60744e+06	3.048892E-9	NaN
563	1.000000	0.643080	7.37056e+06	-48939.1	1005.82	-29760.7	0.000000	0.000000	6.642983	0.035511	NaN	0.000000	0.001572	0.001734	28.0821	0.082369	0.002038	40.4192	141.279	-162.419	0.114747	0.641758	-0.436559	-0.437880	0.035511	40.4192	-0.437218	-450905	-7.875496E-8	NaN
563	1.000000	0.683105	7.37056e+06	-48939.1	1005.82	-29760.7	0.000000	0.000000	6.683008	0.029065	NaN	0.000000	0.001558	0.001740	28.082	0.096170	0.002126	45.2304	70.0026	-165.631	0.051392	0.681832	-0.396534	-0.397807	0.029065	45.2304	-0.397016	-121177	-2.398551E-7	NaN
563	1.000000	0.723163	7.37056e+06	-48939.1	1005.82	-29760.7	0.000000	0.000000	6.723065	0.007594	NaN	0.000000	0.001550	0.001721	28.0821	0.073790	0.001954	37.7556	-155.081	-164.485	0.009690	0.721855	-0.356476	-0.357784	0.007594	37.7556	-0.356627	-31845.6	-2.384558E-7	NaN
563	1.000000	0.763158	7.37056e+06	-48939.1	1005.82	-29760.7	0.000000	0.000000	6.763063	0.050365	NaN	0.000000	0.001519	0.001684	28.0834	0.005463	0.002010	2.718770	-41.0937	-163.997	0.112508	0.761835	-0.316480	-0.317803	0.050365	2.718770	-0.330374	-13210.8	-3.812422E-6	NaN
563	1.000000	0.803149	7.37056e+06	-48939.1	1005.82	-29760.7	0.000000	0.000000	6.803052	0.041261	NaN	0.000000	0.001488	0.001694	28.0837	0.056847	0.001816	31.3106	-114.327	-162.843	0.070241	0.801809	-0.276490	-0.277830	0.041261	31.3106	-0.277479	-2162.2	-1.908310E-5	NaN
563	1.000000	0.843161	7.37056e+06	-48939.1	1005.82	-29760.7	0.000000	0.000000	6.843065	0.045679	NaN	0.000000	0.001556	0.001733	28.0837	0.026990	0.001834	14.7142	-119.346	-163.953	0.064586	0.841825	-0.236478	-0.237814	0.045679	14.7142	-0.238806	-550.669	-8.295097E-5	NaN
563	1.000000	0.883183	7.37056e+06	-48939.1	1005.82	-29760.7	0.000000	0.000000	6.883086	0.007233	NaN	0.000000	0.001563	0.001700	28.0834	0.085582	0.001972	43.4046	13.7359	-162.63	-0.105882	0.881848	-0.196455	-0.197791	0.007233	43.4046	-0.196580	-115.704	-6.250935E-5	NaN
563	1.000000	0.923192	7.37056e+06	-48939.1	1005.82	-29760.7	0.000000	0.000000	6.923092	-0.036789	NaN	0.000000	0.001522	0.001764	28.0822	0.030519	0.001936	15.7617	-50.2794	-166.208	0.095760	0.921955	-0.156447	-0.157683	-0.036789	15.7617	-0.154697	-22.0353	0.001670	NaN
563	1.000000	0.963206	7.37056e+06	-48939.1	1005.82	-29760.7	0.000000	0.000000	6.963107	-0.030616	NaN	0.000000	0.001515	0.001751	28.0818	0.064906	0.002070	31.3566	-8.612911	-167.926	-0.066736	0.961933	-0.116433	-0.117706	-0.030616	31.3566	-0.115700	-3.949292	0.007752	NaN
563	1.000000	1.003205	7.37056e+06	-48939.1	1005.82	-29760.7	0.000000	0.000000	7.003109	0.048512	NaN	0.000000	0.001635	0.001730	28.082	0.025605	0.001980	12.9322	125.035	-159.276	0.040201	1.001927	-0.076434	-0.077712	0.048512	12.9322	-0.079247	-0.592677	-0.081852	NaN
563	1.000000	1.043272	7.37056e+06	-48939.1	1005.82	-29760.7	0.000000	0.000000	7.043176	0.048129	NaN	0.000000	0.001588	0.001706	28.0834	0.147015	0.001871	78.5605	107.664	-160.475	-0.000256	1.041911	-0.036367	-0.037728	0.048129	78.5605	-0.036827	-0.036281	-1.326573	NaN
563	1.000000	1.083241	7.37056e+06	-48939.1	1005.82	-29760.7	0.000000	0.000000	7.083320	4.301624	NaN	0.000000	0.001586	0.001746	28.0832	5.114177	0.001799	2842.78	7.847629	-168.78	2.707636	1.081904	0.003602	0.002265	4.301624	2842.78	0.002467	0.001936	2221.8	59027.2
563	2.000000	1.095771	7.37056e+06	-48939.1	1005.82	-29760.7	0.000000	0.000000	7.096666	24.1353	NaN	0.000000	0.001582	0.001763	28.0834	18.4954	0.001810	10216.3	4.930227	-173.765	22.213	1.095476	0.016132	0.015837	24.1353	10216.3	0.014360	0.014442	1671.2	77670.2
563	2.000000	1.105739	7.37056e+06	-48939.1	1005.82	-29760.7	0.000000	0.000000	7.107693	49.9055	NaN	0.000000	0.001602	0.001768	28.0822	29.0168	0.001804	16082.8	7.133276	-179.682	47.7586	1.105444	0.026100	0.025805	49.9055	16082.8	0.023773	0.028820	1731.6	86553.6
563	2.000000	1.115696	7.37056e+06	-48939.1	1005.82	-29760.7	0.000000	0.000000	7.119095	85.0602	NaN	0.000000	0.001584	0.001715	28.0819	39.742	0.001743	22803.6	4.071422	-179.843	82.5577	1.115420	0.036057	0.035782	85.0602	22803.6	0.033259	0.047771	1780.6	95323
563	2.000000	1.125717	7.37056e+06	-48939.1	1005.82	-29760.7	0.000000	0.000000	7.131048	132.013	NaN	0.000000	0.001583	0.001746	28.0822	50.3791	0.001855	27153.8	6.778638	175.656	129.722	1.125393	0.046079	0.045755	132.013	27153.8	0.042432	0.070466	1873.44	93457.9
563	2.000000	1.135726	7.37056e+06	-48939.1	1005.82	-29760.7	0.000000	0.000000	7.143175	183.538	NaN	0.000000	0.001518	0.001737	28.082	60.597	0.001865	32494.1	6.487824	174.86	184.269	1.135393	0.056087	0.055754	183.538	32494.1	0.051851	0.098221	1868.62	94727.4
563	2.000000	1.145724	7.37056e+06	-48939.1	1005.82	-29760.7	0.000000	0.000000	7.156017	252.717	NaN	0.000000	0.001552	0.001755	28.0833	68.5449	0.001808	37913.8	0.753057	179.685	254.422	1.145471	0.066085	0.065832	252.717	37913.8	0.061086	0.129731	1948	96171.9
563	2.000000	1.155626	7.37056e+06	-48939.1	1005.82	-29760.7	0.000000	0.000000	7.168645	319.017	NaN	0.000000	0.001548	0.001730	28.0834	80.2437	0.001797	44652.7	1.507816	176.827	315.686	1.155413	0.075987	0.075774	319.017	44652.7	0.070629	0.166655	1914.23	99933.6
563	2.000000	1.165592	7.37056e+06	-48939.1	1005.82	-29760.7	0.000000	0.000000	7.181664	393.287	NaN	0.000000	0.001539	0.001719	28.0833	89.1286	0.001723	51739.7	6.040212	171.538	386.859	1.165282	0.085953	0.085643	393.287	51739.7	0.080252	0.208273	1888.33	103581
563	2.000000	1.175679	7.37056e+06	-48939.1	1005.82	-29760.7	0.000000	0.000000	7.194939	470.812	NaN	0.000000	0.001503	0.001708	28.084	100.67	0.001857	54224.7	9.260193	168.544	469.49	1.175289	0.096040	0.095651	470.812	54224.7	0.089528	0.252474	1864.8	98596.6
563	2.000000	1.185225	7.37056e+06	-48939.1	1005.82	-29760.7	0.000000	0.000000	7.207844	552.503	NaN	0.000000	0.001589	0.001730	28.082	110.747	0.001871	59196.8	6.625662	-9.808261	552.699	1.184823	0.105586	0.105184	552.503	59196.8	0.098586	0.299449	1845.07	98834.9