File: remote_trans/data/nanoindenter/0828-1/data/Data_2025-08-06,11h17m57s/2025-07-22_16-23-58_1_1067.txt
2025-07-22, 16:23:58, 1
Index	Phase	Displacement	Time	Pos X	Pos Y	Pos Z	Rot A	Rot B	Piezo Z	Force A	Force B	Gripper	Voltage A	Voltage B	Temperature	Amplitude force	Amplitude pos	Stiffness	Phase shift	Phase excitation	Force A raw	Displacement raw	HMax	HMax raw	Real Force	Real Stiffness	Contact Depth	Area	Hardness	Reduced Mod.
[#]	[#]	[um]	[s]	[um]	[um]	[um]	[m°]	[m°]	[um]	[uN]	[uN]	[V]	[V]	[V]	[°C]	[uN]	[um]	[N/m]	[°]	[°]	[uN]	[um]	[um]	[um]	[uN]	[N/m]	[um]	[um^2]	[MPa]	[MPa]
1067	1.000000	0.002344	7.37548e+06	-53489.1	1055.82	-29746.1	0.000000	0.000000	6.002836	-0.041465	NaN	0.000000	0.001554	0.001657	28.0825	0.041146	0.000926	44.4121	-30.2641	-162.422	-0.000970	0.001044	-1.104881	-1.106181	-0.041465	44.4121	-1.104181	-5.704046E+14	7.269461E-17	NaN
1067	1.000000	0.044231	7.37548e+06	-53489.1	1055.82	-29746.1	0.000000	0.000000	6.044721	-0.073080	NaN	0.000000	0.001494	0.001703	28.0823	0.043183	0.001936	22.3101	32.3461	12.2684	-0.134183	0.042933	-1.062994	-1.064292	-0.073080	22.3101	-1.060537	-1.479244E+14	4.940330E-16	NaN
1067	1.000000	0.086265	7.37548e+06	-53489.1	1055.82	-29746.1	0.000000	0.000000	6.086755	-0.070590	NaN	0.000000	0.001532	0.001707	28.0826	0.057058	0.001879	30.3625	168.811	-167.542	-0.093802	0.084913	-1.020961	-1.022312	-0.070590	30.3625	-1.019217	-4.115450E+13	1.715233E-15	NaN
1067	1.000000	0.128284	7.37548e+06	-53489.1	1055.82	-29746.1	0.000000	0.000000	6.128778	0.036147	NaN	0.000000	0.001470	0.001702	28.0812	0.086939	0.001964	44.2749	72.4166	16.1219	0.051677	0.126921	-0.978942	-0.980305	0.036147	44.2749	-0.979554	-1.203372E+13	-3.003825E-15	NaN
1067	1.000000	0.170294	7.37548e+06	-53489.1	1055.82	-29746.1	0.000000	0.000000	6.170789	0.027517	NaN	0.000000	0.001536	0.001716	28.0814	0.012390	0.002067	5.994701	-4.841492	-166.833	0.024563	0.169011	-0.936931	-0.938215	0.027517	5.994701	-0.940374	-3.565970E+12	-7.716500E-15	NaN
1067	1.000000	0.212310	7.37548e+06	-53489.1	1055.82	-29746.1	0.000000	0.000000	6.212802	-0.027356	NaN	0.000000	0.001524	0.001688	28.0812	0.012884	0.002016	6.389861	-96.6304	17.2388	-0.030591	0.210977	-0.894915	-0.896248	-0.027356	6.389861	-0.891704	-7.851545E+11	3.484142E-14	NaN
1067	1.000000	0.254335	7.37549e+06	-53489.1	1055.82	-29746.1	0.000000	0.000000	6.254830	0.039956	NaN	0.000000	0.001572	0.001709	28.0823	0.127242	0.001882	67.6274	147.649	-164.751	0.001336	0.253047	-0.852890	-0.854179	0.039956	67.6274	-0.853333	-2.376136E+11	-1.681547E-13	NaN
1067	1.000000	0.296345	7.37549e+06	-53489.1	1055.82	-29746.1	0.000000	0.000000	6.296840	0.042285	NaN	0.000000	0.001544	0.001738	28.0823	0.148095	0.001947	76.0441	35.7599	16.1971	0.054582	0.294953	-0.810880	-0.812272	0.042285	76.0441	-0.811297	-6.399873E+10	-6.607179E-13	NaN
1067	1.000000	0.338364	7.37549e+06	-53489.1	1055.82	-29746.1	0.000000	0.000000	6.338854	-0.072462	NaN	0.000000	0.001549	0.001735	28.0821	0.029243	0.001980	14.7687	-142.101	-164.279	-0.040916	0.337032	-0.768861	-0.770193	-0.072462	14.7687	-0.765181	-1.512795E+10	4.789923E-12	NaN
1067	1.000000	0.380398	7.37549e+06	-53489.1	1055.82	-29746.1	0.000000	0.000000	6.380893	0.026940	NaN	0.000000	0.001549	0.001750	28.081	0.067053	0.002037	32.9098	151.995	14.29	-0.050129	0.378984	-0.726827	-0.728241	0.026940	32.9098	-0.727441	-4.633681E+9	-5.814058E-12	NaN
1067	1.000000	0.422391	7.37549e+06	-53489.1	1055.82	-29746.1	0.000000	0.000000	6.422884	-0.007168	NaN	0.000000	0.001541	0.001707	28.0809	0.063507	0.002143	29.6411	-116.46	-167.51	0.012163	0.421084	-0.684834	-0.686141	-0.007168	29.6411	-0.684653	-1.207341E+9	5.936864E-12	NaN
1067	1.000000	0.464439	7.37549e+06	-53489.1	1055.82	-29746.1	0.000000	0.000000	6.464931	-0.017306	NaN	0.000000	0.001510	0.001760	28.0809	0.055243	0.001847	29.9132	132.856	17.5021	0.014484	0.463085	-0.642786	-0.644140	-0.017306	29.9132	-0.642352	-3.180994E+8	5.440566E-11	NaN
1067	1.000000	0.506415	7.37549e+06	-53489.1	1055.82	-29746.1	0.000000	0.000000	6.506906	-0.043600	NaN	0.000000	0.001579	0.001727	28.0823	0.072418	0.001881	38.5099	-131.454	-166.725	-0.011246	0.505146	-0.600811	-0.602079	-0.043600	38.5099	-0.599962	-8.316307E+7	5.242750E-10	NaN
1067	1.000000	0.548497	7.37549e+06	-53489.1	1055.82	-29746.1	0.000000	0.000000	6.548989	-0.043644	NaN	0.000000	0.001553	0.001718	28.0821	0.028998	0.001918	15.1196	172.206	15.3231	-0.029819	0.547147	-0.558728	-0.560078	-0.043644	15.1196	-0.556563	-2.093259E+7	2.084972E-9	NaN
1067	1.000000	0.590454	7.37549e+06	-53489.1	1055.82	-29746.1	0.000000	0.000000	6.590948	0.025580	NaN	0.000000	0.001524	0.001695	28.0824	0.090404	0.002079	43.4853	-126.011	-167.451	0.032282	0.589149	-0.516771	-0.518076	0.025580	43.4853	-0.517213	-5.95418e+06	-4.296058E-9	NaN
1067	1.000000	0.632501	7.37549e+06	-53489.1	1055.82	-29746.1	0.000000	0.000000	6.632993	-0.017790	NaN	0.000000	0.001566	0.001693	28.0825	0.075214	0.001938	38.8113	11.5741	14.3523	0.012633	0.631122	-0.474724	-0.476103	-0.017790	38.8113	-0.474380	-1.50251e+06	1.183994E-8	NaN
1067	1.000000	0.674507	7.37549e+06	-53489.1	1055.82	-29746.1	0.000000	0.000000	6.674998	-0.049100	NaN	0.000000	0.001572	0.001683	28.0814	0.081733	0.001953	41.8479	175.7	-165.669	-0.057579	0.673199	-0.432718	-0.434026	-0.049100	41.8479	-0.431838	-378495	1.297250E-7	NaN
1067	1.000000	0.716515	7.37549e+06	-53489.1	1055.82	-29746.1	0.000000	0.000000	6.717009	0.013611	NaN	0.000000	0.001581	0.001713	28.0813	0.042310	0.002019	20.9519	141.635	15.0484	-0.032195	0.715168	-0.390710	-0.392057	0.013611	20.9519	-0.391197	-100067	-1.360223E-7	NaN
1067	1.000000	0.758534	7.37549e+06	-53489.1	1055.82	-29746.1	0.000000	0.000000	6.759025	-0.065541	NaN	0.000000	0.001561	0.001698	28.0813	0.066181	0.001968	33.6251	141.267	-164.84	-0.067610	0.757263	-0.348691	-0.349962	-0.065541	33.6251	-0.347229	-23268.1	2.816752E-6	NaN
1067	1.000000	0.800559	7.37549e+06	-53489.1	1055.82	-29746.1	0.000000	0.000000	6.801053	0.029116	NaN	0.000000	0.001561	0.001739	28.0827	0.055240	0.001845	29.9459	98.7831	11.1911	0.040515	0.799190	-0.306666	-0.308035	0.029116	29.9459	-0.307395	-6060.14	-4.804589E-6	NaN
1067	1.000000	0.842586	7.37549e+06	-53489.1	1055.82	-29746.1	0.000000	0.000000	6.843076	-0.078201	NaN	0.000000	0.001551	0.001662	28.0826	0.052587	0.001990	26.4208	90.4817	-167.1	-0.128647	0.841258	-0.264639	-0.265967	-0.078201	26.4208	-0.262420	-1276.33	6.127018E-5	NaN
1067	1.000000	0.884581	7.37549e+06	-53489.1	1055.82	-29746.1	0.000000	0.000000	6.885072	-0.070668	NaN	0.000000	0.001532	0.001670	28.0823	0.082873	0.001967	42.1379	4.926256	14.788	-0.099365	0.883220	-0.222644	-0.224005	-0.070668	42.1379	-0.221386	-292.286	0.000242	NaN
1067	1.000000	0.926597	7.37549e+06	-53489.1	1055.82	-29746.1	0.000000	0.000000	6.927087	-0.072743	NaN	0.000000	0.001543	0.001674	28.0814	0.077744	0.001909	40.7254	-73.3002	-166.181	-0.117054	0.925285	-0.180629	-0.181940	-0.072743	40.7254	-0.179289	-59.3419	0.001226	NaN
1067	1.000000	0.968648	7.37549e+06	-53489.1	1055.82	-29746.1	0.000000	0.000000	6.969142	0.027231	NaN	0.000000	0.001546	0.001689	28.0812	0.080243	0.002034	39.4563	169.998	15.7023	0.038042	0.967249	-0.138577	-0.139976	0.027231	39.4563	-0.139095	-11.3748	-0.002394	NaN
1067	1.000000	1.010667	7.37549e+06	-53489.1	1055.82	-29746.1	0.000000	0.000000	7.011158	-0.035331	NaN	0.000000	0.001520	0.001629	28.0812	0.019843	0.001949	10.1806	16.915	-164.061	-0.107377	1.009309	-0.096558	-0.097917	-0.035331	10.1806	-0.093956	-1.335201	0.026461	NaN
1067	1.000000	1.052687	7.37549e+06	-53489.1	1055.82	-29746.1	0.000000	0.000000	7.053180	0.009459	NaN	0.000000	0.001556	0.001679	28.0824	0.042870	0.002088	20.534	145.559	15.5777	0.004476	1.051300	-0.054538	-0.055925	0.009459	20.534	-0.054884	-0.127763	-0.074036	NaN
1067	1.000000	1.094662	7.37549e+06	-53489.1	1055.82	-29746.1	0.000000	0.000000	7.095153	-0.065938	NaN	0.000000	0.001618	0.001604	28.0825	0.079191	0.001958	40.4428	36.5692	-167.408	0.004902	1.093359	-0.012563	-0.013867	-0.065938	40.4428	-0.011340	-0.007152	9.219424	NaN
1067	2.000000	1.119690	7.37549e+06	-53489.1	1055.82	-29746.1	0.000000	0.000000	7.120779	14.486	NaN	0.000000	0.001570	0.001633	28.0825	15.108	0.001914	7894.89	10.7517	1.621485	13.812	1.119402	0.012465	0.012177	14.486	7894.89	0.011089	0.010417	1390.65	70673.1
1067	2.000000	1.130130	7.37549e+06	-53489.1	1055.82	-29746.1	0.000000	0.000000	7.132025	34.0875	NaN	0.000000	0.001552	0.001667	28.0827	26.0862	0.001719	15173.5	3.725057	-178.184	33.1979	1.129839	0.022905	0.022614	34.0875	15173.5	0.021220	0.024495	1391.59	88576.5
1067	2.000000	1.140643	7.37549e+06	-53489.1	1055.82	-29746.1	0.000000	0.000000	7.143770	64.0434	NaN	0.000000	0.001549	0.001648	28.0824	36.3297	0.001698	21392.4	2.010417	0.021080	62.7224	1.140293	0.033418	0.033068	64.0434	21392.4	0.031172	0.043209	1482.18	94025.6
1067	2.000000	1.151090	7.37549e+06	-53489.1	1055.82	-29746.1	0.000000	0.000000	7.155782	102.096	NaN	0.000000	0.001534	0.001690	28.0817	47.5503	0.001893	25118.7	4.178629	176.98	100.587	1.150747	0.043864	0.043522	102.096	25118.7	0.040816	0.066154	1543.31	89226.3
1067	2.000000	1.161561	7.37549e+06	-53489.1	1055.82	-29746.1	0.000000	0.000000	7.168108	147.167	NaN	0.000000	0.001503	0.001665	28.0811	56.7378	0.001752	32378.4	4.215536	-5.559160	142.726	1.161262	0.054336	0.054037	147.167	32378.4	0.050927	0.095301	1544.23	95825.2
1067	2.000000	1.172224	7.37549e+06	-53489.1	1055.82	-29746.1	0.000000	0.000000	7.180771	195.824	NaN	0.000000	0.001527	0.001686	28.0826	67.9451	0.001813	37476.5	9.382516	169.753	200.3	1.171733	0.064998	0.064508	195.824	37476.5	0.061080	0.129708	1509.73	95071.2
1067	2.000000	1.182569	7.37549e+06	-53489.1	1055.82	-29746.1	0.000000	0.000000	7.193578	255.668	NaN	0.000000	0.001522	0.001697	28.0827	76.8005	0.001888	40671.9	4.913956	-7.914625	253.111	1.182246	0.075344	0.075020	255.668	40671.9	0.070629	0.166658	1534.09	91023.7
1067	2.000000	1.193019	7.37549e+06	-53489.1	1055.82	-29746.1	0.000000	0.000000	7.206875	324.892	NaN	0.000000	0.001529	0.001677	28.0826	86.3073	0.001793	48132.2	7.585987	168.577	320.052	1.192671	0.085794	0.085445	324.892	48132.2	0.080731	0.210459	1543.73	95857.3
1067	2.000000	1.203461	7.37549e+06	-53489.1	1055.82	-29746.1	0.000000	0.000000	7.220094	392.398	NaN	0.000000	0.001538	0.001676	28.0812	95.5549	0.001774	53856.6	3.479685	-7.956845	385.822	1.203152	0.096236	0.095927	392.398	53856.6	0.090771	0.258699	1516.81	96741.8
1067	2.000000	1.212520	7.37549e+06	-53489.1	1055.82	-29746.1	0.000000	0.000000	7.232206	466.621	NaN	0.000000	0.001542	0.001723	28.0813	102.866	0.001741	59078.2	4.120131	-8.835127	462.542	1.212161	0.105295	0.104935	466.621	59078.2	0.099371	0.303695	1536.48	97944.9