File: remote_trans/data/nanoindenter/0828-1/data/Data_2025-08-06,11h17m57s/2025-07-22_16-23-58_1_515.txt
2025-07-22, 16:23:58, 1
Index	Phase	Displacement	Time	Pos X	Pos Y	Pos Z	Rot A	Rot B	Piezo Z	Force A	Force B	Gripper	Voltage A	Voltage B	Temperature	Amplitude force	Amplitude pos	Stiffness	Phase shift	Phase excitation	Force A raw	Displacement raw	HMax	HMax raw	Real Force	Real Stiffness	Contact Depth	Area	Hardness	Reduced Mod.
[#]	[#]	[um]	[s]	[um]	[um]	[um]	[m°]	[m°]	[um]	[uN]	[uN]	[V]	[V]	[V]	[°C]	[uN]	[um]	[N/m]	[°]	[°]	[uN]	[um]	[um]	[um]	[uN]	[N/m]	[um]	[um^2]	[MPa]	[MPa]
515	1.000000	0.002267	7.37009e+06	-51339.1	1005.82	-29752.6	0.000000	0.000000	6.002824	-0.091703	NaN	0.000000	0.001620	0.001673	28.0817	0.157297	0.001125	139.823	-164.589	-164.863	-0.147198	0.001007	-1.083460	-1.084721	-0.091703	139.823	-1.082969	-2.960660E+14	3.097393E-16	NaN
515	1.000000	0.044180	7.37009e+06	-51339.1	1005.82	-29752.6	0.000000	0.000000	6.044737	-0.068565	NaN	0.000000	0.001557	0.001670	28.0827	0.121461	0.002025	59.9937	101.833	10.3493	-0.023923	0.042794	-1.041548	-1.042933	-0.068565	59.9937	-1.040691	-8.003018E+13	8.567435E-16	NaN
515	1.000000	0.086210	7.37009e+06	-51339.1	1005.82	-29752.6	0.000000	0.000000	6.086767	-0.064299	NaN	0.000000	0.001566	0.001696	28.0828	0.135452	0.001932	70.1046	147.539	-168.942	-0.086491	0.084906	-0.999518	-1.000821	-0.064299	70.1046	-0.998830	-2.187852E+13	2.938907E-15	NaN
515	1.000000	0.128216	7.37009e+06	-51339.1	1005.82	-29752.6	0.000000	0.000000	6.128773	-0.081062	NaN	0.000000	0.001559	0.001664	28.0827	0.038427	0.002090	18.3825	-155.674	14.198	-0.118506	0.126831	-0.957512	-0.958897	-0.081062	18.3825	-0.954204	-5.479317E+12	1.479417E-14	NaN
515	1.000000	0.170224	7.37009e+06	-51339.1	1005.82	-29752.6	0.000000	0.000000	6.170780	-0.107048	NaN	0.000000	0.001580	0.001658	28.0826	0.084139	0.001939	43.391	118.098	-168.477	-0.149191	0.168918	-0.915503	-0.916810	-0.107048	43.391	-0.913653	-1.554178E+12	6.887754E-14	NaN
515	1.000000	0.212247	7.37009e+06	-51339.1	1005.82	-29752.6	0.000000	0.000000	6.212805	-0.040566	NaN	0.000000	0.001473	0.001670	28.0815	0.111200	0.001991	55.8491	-93.9473	14.5182	-0.102318	0.210891	-0.873481	-0.874836	-0.040566	55.8491	-0.872936	-4.376927E+11	9.268260E-14	NaN
515	1.000000	0.254299	7.37009e+06	-51339.1	1005.82	-29752.6	0.000000	0.000000	6.254854	-0.116726	NaN	0.000000	0.001562	0.001714	28.0815	0.123453	0.001944	63.518	-17.3206	-163.424	-0.046800	0.252935	-0.831429	-0.832792	-0.116726	63.518	-0.830050	-1.149393E+11	1.015543E-12	NaN
515	1.000000	0.296312	7.37009e+06	-51339.1	1005.82	-29752.7	0.000000	0.000000	6.296870	-0.041650	NaN	0.000000	0.001561	0.001748	28.0813	0.091530	0.001945	47.0498	97.1176	15.4366	-0.021624	0.294896	-0.789416	-0.790832	-0.041650	47.0498	-0.788752	-3.163261E+10	1.316676E-12	NaN
515	1.000000	0.338331	7.37009e+06	-51339.1	1005.82	-29752.7	0.000000	0.000000	6.338885	-0.162636	NaN	0.000000	0.001551	0.001768	28.0824	0.051320	0.002053	24.9951	34.5915	-166.847	-0.152907	0.336983	-0.747396	-0.748744	-0.162636	24.9951	-0.742516	-7.435782E+9	2.187212E-11	NaN
515	1.000000	0.380313	7.37009e+06	-51339.1	1005.82	-29752.7	0.000000	0.000000	6.380871	-0.047206	NaN	0.000000	0.001643	0.001776	28.0825	0.022573	0.002116	10.6656	-135.425	15.5305	-0.089468	0.378984	-0.705415	-0.706744	-0.047206	10.6656	-0.702095	-2.089990E+9	2.258686E-11	NaN
515	1.000000	0.422344	7.37009e+06	-51339.1	1005.82	-29752.7	0.000000	0.000000	6.422903	-0.034020	NaN	0.000000	0.001596	0.001694	28.0824	0.105420	0.001915	55.0496	11.0117	-165.398	-0.059494	0.421026	-0.663384	-0.664702	-0.034020	55.0496	-0.662920	-6.087876E+8	5.588196E-11	NaN
515	1.000000	0.464349	7.37009e+06	-51339.1	1005.82	-29752.7	0.000000	0.000000	6.464906	-0.066088	NaN	0.000000	0.001582	0.001766	28.0813	0.039844	0.002028	19.6435	5.313135	12.1769	-0.057530	0.462975	-0.621379	-0.622753	-0.066088	19.6435	-0.618856	-1.513235E+8	4.367325E-10	NaN
515	1.000000	0.506400	7.37009e+06	-51339.1	1005.82	-29752.7	0.000000	0.000000	6.506956	-0.087006	NaN	0.000000	0.001581	0.001715	28.0815	0.070633	0.002153	32.8085	-37.7966	-166.6	-0.005182	0.505093	-0.579328	-0.580635	-0.087006	32.8085	-0.577339	-4.055051E+7	2.145615E-9	NaN
515	1.000000	0.548433	7.37009e+06	-51339.1	1005.82	-29752.7	0.000000	0.000000	6.548993	0.014593	NaN	0.000000	0.001625	0.001731	28.0813	0.081619	0.002137	38.1882	132.101	13.8331	0.016134	0.547001	-0.537295	-0.538727	0.014593	38.1882	-0.537582	-1.142383E+7	-1.277383E-9	NaN
515	1.000000	0.590439	7.37009e+06	-51339.1	1005.82	-29752.7	0.000000	0.000000	6.590999	-0.002695	NaN	0.000000	0.001574	0.001717	28.0823	0.091406	0.001996	45.7939	-79.3307	-169.143	-0.011448	0.589099	-0.495289	-0.496629	-0.002695	45.7939	-0.495244	-2.94203e+06	9.161889E-10	NaN
515	1.000000	0.632415	7.37009e+06	-51339.1	1005.82	-29752.7	0.000000	0.000000	6.632973	-0.053959	NaN	0.000000	0.001557	0.001695	28.0826	0.093872	0.002043	45.9433	176.654	13.8868	-0.111366	0.631094	-0.453313	-0.454633	-0.053959	45.9433	-0.452432	-738888	7.302736E-8	NaN
515	1.000000	0.674460	7.37009e+06	-51339.1	1005.82	-29752.7	0.000000	0.000000	6.675016	-0.087697	NaN	0.000000	0.001551	0.001675	28.0826	0.068624	0.002061	33.3014	90.5515	-166.679	-0.123002	0.673155	-0.411268	-0.412572	-0.087697	33.3014	-0.409293	-181278	4.837711E-7	NaN
515	1.000000	0.716458	7.37009e+06	-51339.1	1005.82	-29752.7	0.000000	0.000000	6.717014	-0.097120	NaN	0.000000	0.001597	0.001741	28.0825	0.097011	0.002058	47.1325	87.0938	15.1002	-0.022266	0.715126	-0.369270	-0.370602	-0.097120	47.1325	-0.367724	-46061.7	2.108483E-6	NaN
515	1.000000	0.758510	7.37009e+06	-51339.1	1005.82	-29752.7	0.000000	0.000000	6.759065	-0.131484	NaN	0.000000	0.001576	0.001679	28.0812	0.074685	0.001956	38.1805	28.7965	-165.047	-0.102445	0.757182	-0.327218	-0.328546	-0.131484	38.1805	-0.324635	-10883.6	1.208093E-5	NaN
515	1.000000	0.800517	7.37009e+06	-51339.1	1005.82	-29752.7	0.000000	0.000000	6.801069	-0.181085	NaN	0.000000	0.001575	0.001748	28.0814	0.033936	0.001952	17.3818	-133.386	14.3142	-0.082589	0.799199	-0.285211	-0.286529	-0.181085	17.3818	-0.277397	-2156.1	8.398729E-5	NaN
515	1.000000	0.842523	7.37009e+06	-51339.1	1005.82	-29752.7	0.000000	0.000000	6.843080	-0.094282	NaN	0.000000	0.001612	0.001741	28.0816	0.018971	0.001889	10.0445	23.7715	-163.916	-0.124418	0.841157	-0.243204	-0.244571	-0.094282	10.0445	-0.236165	-500.638	0.000188	NaN
515	1.000000	0.884563	7.37009e+06	-51339.1	1005.82	-29752.7	0.000000	0.000000	6.885121	-0.050585	NaN	0.000000	0.001684	0.001750	28.0829	0.115848	0.002021	57.3172	-77.9633	14.6983	-0.072952	0.883233	-0.201164	-0.202494	-0.050585	57.3172	-0.200503	-134.262	0.000377	NaN
515	1.000000	0.926601	7.37009e+06	-51339.1	1005.82	-29752.7	0.000000	0.000000	6.927158	-0.069900	NaN	0.000000	0.001701	0.001730	28.0827	0.034753	0.001959	17.7378	-70.2751	-167.742	-0.111759	0.925212	-0.159127	-0.160515	-0.069900	17.7378	-0.156171	-23.4223	0.002984	NaN
515	1.000000	0.968593	7.37009e+06	-51339.1	1005.82	-29752.7	0.000000	0.000000	6.969150	-0.055688	NaN	0.000000	0.001671	0.001739	28.0829	0.128841	0.001999	64.4499	133.126	12.5543	0.018284	0.967192	-0.117135	-0.118536	-0.055688	64.4499	-0.116487	-4.098835	0.013586	NaN
515	1.000000	1.010595	7.37009e+06	-51339.1	1005.82	-29752.7	0.000000	0.000000	7.011150	-0.135510	NaN	0.000000	0.001656	0.001727	28.0815	0.057868	0.001951	29.6547	111.339	-165.28	-0.160401	1.009225	-0.075133	-0.076502	-0.135510	29.6547	-0.071705	-0.378709	0.357822	NaN
515	1.000000	1.052608	7.37009e+06	-51339.1	1005.82	-29752.7	0.000000	0.000000	7.053163	-0.124689	NaN	0.000000	0.001649	0.001746	28.0813	0.048252	0.002049	23.5441	140.252	12.5395	0.016303	1.051224	-0.033119	-0.034504	-0.124689	23.5441	-0.029147	-0.021794	5.721152	NaN
515	2.000000	1.092234	7.37009e+06	-51339.1	1005.82	-29752.7	0.000000	0.000000	7.093196	9.772644	NaN	0.000000	0.001611	0.001658	28.0812	10.3344	0.001615	6399.91	11.4	-176.028	10.387	1.091916	0.006506	0.006188	9.772644	6399.91	0.005361	0.004465	2188.53	87501.9
515	2.000000	1.102662	7.37009e+06	-51339.1	1005.82	-29752.7	0.000000	0.000000	7.104367	27.8484	NaN	0.000000	0.001599	0.001759	28.0832	21.9681	0.001847	11890.8	4.083341	4.615500	27.3559	1.102326	0.016934	0.016598	27.8484	11890.8	0.015177	0.015523	1794.06	87197.3
515	2.000000	1.113116	7.37009e+06	-51339.1	1005.82	-29752.7	0.000000	0.000000	7.116247	62.5276	NaN	0.000000	0.001646	0.001755	28.083	32.7991	0.001672	19615.6	4.508135	179.472	62.3201	1.112739	0.027388	0.027011	62.5276	19615.6	0.024997	0.031010	2016.35	101771
515	2.000000	1.123614	7.37009e+06	-51339.1	1005.82	-29752.7	0.000000	0.000000	7.128133	96.2652	NaN	0.000000	0.001582	0.001779	28.0828	43.5088	0.001760	24726.8	3.647406	-2.528602	95.9885	1.123384	0.037886	0.037656	96.2652	24726.8	0.034966	0.051667	1863.19	99388.4
515	2.000000	1.134074	7.37009e+06	-51339.1	1005.82	-29752.7	0.000000	0.000000	7.141123	157.78	NaN	0.000000	0.001643	0.001663	28.0826	54.1234	0.001767	30625.3	6.654541	173.274	157.45	1.133743	0.048346	0.048016	157.78	30625.3	0.044482	0.076124	2072.66	101413
515	2.000000	1.144535	7.37009e+06	-51339.1	1005.82	-29752.7	0.000000	0.000000	7.154112	219.251	NaN	0.000000	0.001599	0.001681	28.0813	63.8067	0.001727	36953.9	3.873957	-5.836718	214.602	1.144188	0.058807	0.058461	219.251	36953.9	0.054358	0.106357	2061.47	103526
515	2.000000	1.155088	7.37009e+06	-51339.1	1005.82	-29752.7	0.000000	0.000000	7.167569	289.873	NaN	0.000000	0.001612	0.001650	28.0813	75.6885	0.001850	40920.5	8.358322	170.015	289.429	1.154676	0.069360	0.068949	289.873	40920.5	0.064047	0.140720	2059.93	99663.4
515	2.000000	1.165500	7.37009e+06	-51339.1	1005.82	-29752.7	0.000000	0.000000	7.181017	363.701	NaN	0.000000	0.001610	0.001709	28.0815	85.2356	0.001837	46399.8	4.997482	-7.651605	358.717	1.165046	0.079773	0.079319	363.701	46399.8	0.073894	0.180287	2017.34	99840.5
515	2.000000	1.175960	7.37009e+06	-51339.1	1005.82	-29752.7	0.000000	0.000000	7.194468	436.438	NaN	0.000000	0.001638	0.001672	28.0825	94.1309	0.001803	52215.4	0.682442	175.111	432.302	1.175648	0.090232	0.089920	436.438	52215.4	0.083963	0.225482	1935.58	100465
515	2.000000	1.186441	7.37009e+06	-51339.1	1005.82	-29752.7	0.000000	0.000000	7.208373	519.692	NaN	0.000000	0.001590	0.001683	28.0829	105.427	0.001775	59389.6	3.991424	-9.131823	514.499	1.186191	0.100713	0.100463	519.692	59389.6	0.094150	0.275977	1883.1	103287
515	2.000000	1.190082	7.3701e+06	-51339.1	1005.82	-29752.7	0.000000	0.000000	7.213379	552.902	NaN	0.000000	0.001611	0.001629	28.0826	108.882	0.001938	56195.3	4.383739	171.141	555.817	1.189738	0.104354	0.104011	552.902	56195.3	0.096975	0.290819	1901.19	95205.4