File: remote_trans/data/nanoindenter/0828-1/data/Data_2025-08-06,11h17m57s/2025-07-22_16-23-58_1_804.txt
2025-07-22, 16:23:58, 1
Index	Phase	Displacement	Time	Pos X	Pos Y	Pos Z	Rot A	Rot B	Piezo Z	Force A	Force B	Gripper	Voltage A	Voltage B	Temperature	Amplitude force	Amplitude pos	Stiffness	Phase shift	Phase excitation	Force A raw	Displacement raw	HMax	HMax raw	Real Force	Real Stiffness	Contact Depth	Area	Hardness	Reduced Mod.
[#]	[#]	[um]	[s]	[um]	[um]	[um]	[m°]	[m°]	[um]	[uN]	[uN]	[V]	[V]	[V]	[°C]	[uN]	[um]	[N/m]	[°]	[°]	[uN]	[um]	[um]	[um]	[uN]	[N/m]	[um]	[um^2]	[MPa]	[MPa]
804	1.000000	0.001989	7.37292e+06	-40339.1	1055.82	-29790.4	0.000000	0.000000	6.002815	-0.028440	NaN	0.000000	0.001615	0.001755	28.083	0.044342	0.000874	50.7194	99.3829	-168.482	-0.034843	0.000722	-1.079788	-1.081055	-0.028440	50.7194	-1.079368	-2.648676E+14	1.073742E-16	NaN
804	1.000000	0.041932	7.37292e+06	-40339.1	1055.82	-29790.4	0.000000	0.000000	6.042760	-0.002510	NaN	0.000000	0.001629	0.001763	28.0831	0.118157	0.002119	55.7577	109.135	-166.972	0.042775	0.040627	-1.039845	-1.041150	-0.002510	55.7577	-1.039811	-7.788045E+13	3.222741E-17	NaN
804	1.000000	0.081914	7.37292e+06	-40339.1	1055.82	-29790.4	0.000000	0.000000	6.082740	-0.043011	NaN	0.000000	0.001650	0.001711	28.0829	0.038912	0.002030	19.1667	86.8039	-163.746	-0.004555	0.080600	-0.999863	-1.001177	-0.043011	19.1667	-0.998180	-2.144189E+13	2.005945E-15	NaN
804	1.000000	0.121940	7.37292e+06	-40339.1	1055.82	-29790.4	0.000000	0.000000	6.122767	-0.038775	NaN	0.000000	0.001628	0.001694	28.0815	0.162190	0.002154	75.309	154.441	-166.47	-0.047200	0.120625	-0.959837	-0.961152	-0.038775	75.309	-0.959450	-6.448508E+12	6.013018E-15	NaN
804	1.000000	0.161954	7.37292e+06	-40339.1	1055.82	-29790.4	0.000000	0.000000	6.162780	-0.033066	NaN	0.000000	0.001629	0.001706	28.0816	0.024182	0.002008	12.0413	126.324	-165.488	-0.016162	0.160672	-0.919823	-0.921105	-0.033066	12.0413	-0.917763	-1.766071E+12	1.872318E-14	NaN
804	1.000000	0.201995	7.37292e+06	-40339.1	1055.82	-29790.4	0.000000	0.000000	6.202819	-0.089865	NaN	0.000000	0.001598	0.001719	28.0816	0.027829	0.001907	14.5945	41.636	-168.777	-0.031076	0.200656	-0.879782	-0.881121	-0.089865	14.5945	-0.875163	-4.691318E+11	1.915553E-13	NaN
804	1.000000	0.242021	7.37292e+06	-40339.1	1055.82	-29790.4	0.000000	0.000000	6.242849	0.024684	NaN	0.000000	0.001607	0.001696	28.0823	0.096131	0.002074	46.347	-40.9425	-169.279	0.060754	0.240672	-0.839756	-0.841105	0.024684	46.347	-0.840156	-1.575449E+11	-1.566786E-13	NaN
804	1.000000	0.282035	7.37292e+06	-40339.1	1055.82	-29790.4	0.000000	0.000000	6.282860	-0.061303	NaN	0.000000	0.001635	0.001730	28.0829	0.055090	0.002057	26.7805	151.964	-167.267	-0.163634	0.280667	-0.799742	-0.801110	-0.061303	26.7805	-0.798025	-4.227237E+10	1.450200E-12	NaN
804	1.000000	0.322058	7.37292e+06	-40339.1	1055.82	-29790.4	0.000000	0.000000	6.322885	-0.008152	NaN	0.000000	0.001596	0.001767	28.0832	0.060424	0.002085	28.9862	-166.422	-166.279	0.007308	0.320693	-0.759719	-0.761084	-0.008152	28.9862	-0.759508	-1.266515E+10	6.436583E-13	NaN
804	1.000000	0.362026	7.37292e+06	-40339.1	1055.82	-29790.4	0.000000	0.000000	6.362849	-0.111685	NaN	0.000000	0.001607	0.001740	28.0832	0.100706	0.002023	49.7749	0.991833	-167.441	-0.097534	0.360799	-0.719751	-0.720978	-0.111685	49.7749	-0.718068	-3.452417E+9	3.234989E-11	NaN
804	1.000000	0.402061	7.37292e+06	-40339.1	1055.82	-29790.4	0.000000	0.000000	6.402888	-0.013982	NaN	0.000000	0.001639	0.001727	28.0816	0.046419	0.002090	22.2149	26.9256	-163.563	0.006887	0.400747	-0.679716	-0.681030	-0.013982	22.2149	-0.679244	-1.018286E+9	1.373067E-11	NaN
804	1.000000	0.442087	7.37292e+06	-40339.1	1055.82	-29790.4	0.000000	0.000000	6.442913	-0.042993	NaN	0.000000	0.001651	0.001714	28.0823	0.012063	0.001976	6.103257	68.1848	-168.215	-0.057883	0.440796	-0.639690	-0.640981	-0.042993	6.103257	-0.634407	-2.474744E+8	1.737260E-10	NaN
804	1.000000	0.482121	7.37292e+06	-40339.1	1055.82	-29790.4	0.000000	0.000000	6.482946	-0.073394	NaN	0.000000	0.001659	0.001714	28.0818	0.115092	0.002071	55.5764	138.138	-168.526	-0.049016	0.480816	-0.599656	-0.600961	-0.073394	55.5764	-0.598665	-7.981349E+7	9.195667E-10	NaN
804	1.000000	0.522107	7.37292e+06	-40339.1	1055.82	-29790.4	0.000000	0.000000	6.522933	-0.044479	NaN	0.000000	0.001622	0.001699	28.0828	0.026144	0.001908	13.7002	-103.757	-166.42	-0.019308	0.520841	-0.559670	-0.560936	-0.044479	13.7002	-0.557235	-2.138550E+7	2.079873E-9	NaN
804	1.000000	0.562138	7.37292e+06	-40339.1	1055.82	-29790.4	0.000000	0.000000	6.562965	-0.006892	NaN	0.000000	0.001616	0.001739	28.0828	0.070344	0.002091	33.6463	-42.3183	-166.366	-0.063906	0.560803	-0.519639	-0.520974	-0.006892	33.6463	-0.519486	-6.40391e+06	1.076171E-9	NaN
804	1.000000	0.602161	7.37292e+06	-40339.1	1055.82	-29790.4	0.000000	0.000000	6.602987	-0.037275	NaN	0.000000	0.001633	0.001728	28.0828	0.094265	0.002103	44.8284	36.5452	-167.484	-0.095060	0.600830	-0.479616	-0.480947	-0.037275	44.8284	-0.478992	-1.74348e+06	2.137953E-8	NaN
804	1.000000	0.642165	7.37292e+06	-40339.1	1055.82	-29790.4	0.000000	0.000000	6.642991	-0.039256	NaN	0.000000	0.001602	0.001718	28.0829	0.051387	0.002041	25.1756	-175.831	-166.848	-0.082156	0.640893	-0.439612	-0.440884	-0.039256	25.1756	-0.438442	-469215	8.366225E-8	NaN
804	1.000000	0.682183	7.37292e+06	-40339.1	1055.82	-29790.4	0.000000	0.000000	6.683008	-0.053409	NaN	0.000000	0.001595	0.001716	28.0816	0.043958	0.002116	20.7713	178.404	-167.042	-0.020871	0.680901	-0.399594	-0.400876	-0.053409	20.7713	-0.397666	-123793	4.314413E-7	NaN
804	1.000000	0.722218	7.37292e+06	-40339.1	1055.82	-29790.4	0.000000	0.000000	6.723044	-0.041233	NaN	0.000000	0.001630	0.001731	28.0815	0.051137	0.002079	24.6025	129.562	-165.472	-0.024646	0.720949	-0.359559	-0.360828	-0.041233	24.6025	-0.358302	-33673.6	1.224489E-6	NaN
804	1.000000	0.762232	7.37292e+06	-40339.1	1055.82	-29790.4	0.000000	0.000000	6.763056	-0.084056	NaN	0.000000	0.001625	0.001757	28.0818	0.128944	0.002083	61.9123	150.362	-167.575	-0.024059	0.760881	-0.319545	-0.320896	-0.084056	61.9123	-0.318527	-8850.19	9.497684E-6	NaN
804	1.000000	0.802244	7.37292e+06	-40339.1	1055.82	-29790.4	0.000000	0.000000	6.803069	-0.059717	NaN	0.000000	0.001647	0.001722	28.083	0.119905	0.001977	60.6524	-63.1941	-165.216	-0.084605	0.800904	-0.279533	-0.280873	-0.059717	60.6524	-0.278794	-2263.47	2.638274E-5	NaN
804	1.000000	0.842267	7.37292e+06	-40339.1	1055.82	-29790.4	0.000000	0.000000	6.843094	-0.030797	NaN	0.000000	0.001624	0.001703	28.083	0.074701	0.001902	39.2745	-26.8179	-166.608	0.039587	0.841008	-0.239510	-0.240769	-0.030797	39.2745	-0.238922	-552.971	5.569297E-5	NaN
804	1.000000	0.882274	7.37292e+06	-40339.1	1055.82	-29790.4	0.000000	0.000000	6.883101	-0.033854	NaN	0.000000	0.001616	0.001720	28.0829	0.070197	0.002024	34.6869	-2.058411	-166.169	-0.038620	0.880999	-0.199503	-0.200778	-0.033854	34.6869	-0.198771	-125.741	0.000269	NaN
804	1.000000	0.922255	7.37292e+06	-40339.1	1055.82	-29790.4	0.000000	0.000000	6.923081	-0.043612	NaN	0.000000	0.001634	0.001671	28.0829	0.039823	0.002035	19.5669	-165.384	-165.657	-0.062696	0.920962	-0.159522	-0.160815	-0.043612	19.5669	-0.157850	-25.1008	0.001737	NaN
804	1.000000	0.962300	7.37292e+06	-40339.1	1055.82	-29790.4	0.000000	0.000000	6.963126	-0.031173	NaN	0.000000	0.001586	0.001643	28.0818	0.056133	0.001982	28.3277	34.9532	-166.27	-0.067888	0.960978	-0.119477	-0.120799	-0.031173	28.3277	-0.118652	-4.537266	0.006870	NaN
804	1.000000	1.002322	7.37292e+06	-40339.1	1055.82	-29790.4	0.000000	0.000000	7.003148	-0.048605	NaN	0.000000	0.001605	0.001720	28.0818	0.095588	0.001957	48.8346	153.61	-167.623	-0.077990	1.000983	-0.079455	-0.080794	-0.048605	48.8346	-0.078708	-0.574444	0.084612	NaN
804	1.000000	1.042344	7.37292e+06	-40339.1	1055.82	-29790.4	0.000000	0.000000	7.043171	-0.013755	NaN	0.000000	0.001591	0.001662	28.0816	0.100181	0.001925	52.0523	-58.5241	-169.28	0.020215	1.040959	-0.039433	-0.040818	-0.013755	52.0523	-0.039235	-0.042870	0.320852	NaN
804	1.000000	1.082306	7.37292e+06	-40339.1	1055.82	-29790.4	0.000000	0.000000	7.083310	4.289609	NaN	0.000000	0.001596	0.001649	28.0826	5.156875	0.001700	3033.23	9.615533	-169.345	2.628102	1.081009	0.000529	-0.000768	4.289609	3033.23	-0.000532	-0.000393	-10907.1	NaN
804	2.000000	1.094822	7.37292e+06	-40339.1	1055.82	-29790.4	0.000000	0.000000	7.096554	21.9983	NaN	0.000000	0.001641	0.001687	28.0833	19.7297	0.001952	10106.7	5.994230	-176.093	22.095	1.094567	0.013045	0.012790	21.9983	10106.7	0.011413	0.010794	2037.92	88875.7
804	2.000000	1.104785	7.37292e+06	-40339.1	1055.82	-29790.4	0.000000	0.000000	7.107561	47.4202	NaN	0.000000	0.001575	0.001678	28.0843	29.4831	0.001834	16072.7	4.297858	-179.649	46.164	1.104480	0.023008	0.022703	47.4202	16072.7	0.020795	0.023807	1991.83	95171.3
804	2.000000	1.114798	7.37292e+06	-40339.1	1055.82	-29790.4	0.000000	0.000000	7.118674	74.1778	NaN	0.000000	0.001594	0.001667	28.0821	39.2896	0.001793	21912.2	7.499645	174.279	74.6166	1.114471	0.033021	0.032694	74.1778	21912.2	0.030482	0.041749	1776.74	97979.1
804	2.000000	1.124759	7.37292e+06	-40339.1	1055.82	-29790.4	0.000000	0.000000	7.130341	115.69	NaN	0.000000	0.001599	0.001761	28.082	49.0628	0.001825	26884.2	2.778476	177.283	113.449	1.124511	0.042982	0.042734	115.69	26884.2	0.039754	0.063395	1824.9	97553.1
804	2.000000	1.134765	7.37292e+06	-40339.1	1055.82	-29790.4	0.000000	0.000000	7.142390	165.413	NaN	0.000000	0.001629	0.001666	28.0819	57.69	0.001805	31968.1	4.125181	175.723	164.839	1.134341	0.052988	0.052564	165.413	31968.1	0.049107	0.089673	1844.62	97534.8
804	2.000000	1.144783	7.37292e+06	-40339.1	1055.82	-29790.4	0.000000	0.000000	7.154393	213.698	NaN	0.000000	0.001649	0.001720	28.0819	68.0005	0.001841	36939.9	8.280162	169.849	216.859	1.144471	0.063006	0.062694	213.698	36939.9	0.058668	0.121074	1765.02	96993.8
804	2.000000	1.154742	7.37293e+06	-40339.1	1055.82	-29790.4	0.000000	0.000000	7.166626	269.039	NaN	0.000000	0.001612	0.001728	28.0827	76.7287	0.001830	41919	0.212546	176.553	267.916	1.154538	0.072965	0.072761	269.039	41919	0.068152	0.156650	1717.45	96765.1
804	2.000000	1.164771	7.37293e+06	-40339.1	1055.82	-29790.4	0.000000	0.000000	7.179678	342.603	NaN	0.000000	0.001614	0.001736	28.0828	86.8372	0.001872	46397.2	3.976135	171.882	343.056	1.164507	0.082994	0.082730	342.603	46397.2	0.077456	0.195734	1750.35	95814.6
804	2.000000	1.174580	7.37293e+06	-40339.1	1055.82	-29790.4	0.000000	0.000000	7.192910	425.913	NaN	0.000000	0.001672	0.001738	28.0828	95.052	0.001798	52856.8	0.728646	174.788	419.543	1.174471	0.092803	0.092694	425.913	52856.8	0.086759	0.238865	1783.07	98809.3
804	2.000000	1.184060	7.37293e+06	-40339.1	1055.82	-29790.4	0.000000	0.000000	7.205410	499.383	NaN	0.000000	0.001638	0.001719	28.0815	105.831	0.001846	57319.5	2.326600	-7.569918	487.813	1.183637	0.102283	0.101860	499.383	57319.5	0.095749	0.284334	1756.32	98211.2