File: remote_trans/data/nanoindenter/0828-1/data/Data_2025-08-06,11h17m57s/2025-07-22_16-23-58_1_535.txt
2025-07-22, 16:23:58, 1
Index	Phase	Displacement	Time	Pos X	Pos Y	Pos Z	Rot A	Rot B	Piezo Z	Force A	Force B	Gripper	Voltage A	Voltage B	Temperature	Amplitude force	Amplitude pos	Stiffness	Phase shift	Phase excitation	Force A raw	Displacement raw	HMax	HMax raw	Real Force	Real Stiffness	Contact Depth	Area	Hardness	Reduced Mod.
[#]	[#]	[um]	[s]	[um]	[um]	[um]	[m°]	[m°]	[um]	[uN]	[uN]	[V]	[V]	[V]	[°C]	[uN]	[um]	[N/m]	[°]	[°]	[uN]	[um]	[um]	[um]	[uN]	[N/m]	[um]	[um^2]	[MPa]	[MPa]
535	1.000000	0.002588	7.37028e+06	-50339.1	1005.82	-29756	0.000000	0.000000	6.002788	-0.082787	NaN	0.000000	0.001648	0.001667	28.082	0.039161	0.001064	36.7929	-5.049319	-170.647	-0.070340	0.001372	-1.155504	-1.156721	-0.082787	36.7929	-1.153817	-2.642337E+15	3.133111E-17	NaN
535	1.000000	0.044545	7.37028e+06	-50339.1	1005.82	-29756	0.000000	0.000000	6.044745	-0.059774	NaN	0.000000	0.001715	0.001716	28.0818	0.039316	0.001938	20.2885	164.818	16.6117	0.019320	0.043161	-1.113548	-1.114931	-0.059774	20.2885	-1.111338	-7.116164E+14	8.399762E-17	NaN
535	1.000000	0.086608	7.37028e+06	-50339.1	1005.82	-29756	0.000000	0.000000	6.086810	-0.038019	NaN	0.000000	0.001696	0.001748	28.0805	0.054694	0.001891	28.9186	42.4559	-164.967	0.036331	0.085241	-1.071484	-1.072851	-0.038019	28.9186	-1.070498	-2.013174E+14	1.888510E-16	NaN
535	1.000000	0.128587	7.37028e+06	-50339.1	1005.82	-29756	0.000000	0.000000	6.128789	-0.046938	NaN	0.000000	0.001717	0.001731	28.0806	0.056904	0.001938	29.3674	39.8459	17.8603	-0.026253	0.127170	-1.029505	-1.030922	-0.046938	29.3674	-1.028306	-5.453768E+13	8.606533E-16	NaN
535	1.000000	0.170576	7.37028e+06	-50339.1	1005.82	-29756	0.000000	0.000000	6.170781	0.036308	NaN	0.000000	0.001646	0.001763	28.0804	0.087380	0.002027	43.1036	-15.3903	-166.69	0.055108	0.169234	-0.987516	-0.988858	0.036308	43.1036	-0.988148	-1.570972E+13	-2.311203E-15	NaN
535	1.000000	0.212617	7.37028e+06	-50339.1	1005.82	-29756	0.000000	0.000000	6.212822	0.032967	NaN	0.000000	0.001603	0.001767	28.0821	0.071325	0.002072	34.4276	6.137325	13.5243	0.035929	0.211279	-0.945475	-0.946813	0.032967	34.4276	-0.946193	-4.272498E+12	-7.716029E-15	NaN
535	1.000000	0.254630	7.37028e+06	-50339.1	1005.82	-29756	0.000000	0.000000	6.254833	-0.005518	NaN	0.000000	0.001620	0.001753	28.0822	0.083841	0.002021	41.4864	-33.1329	-163.971	-0.036687	0.253331	-0.903463	-0.904762	-0.005518	41.4864	-0.903363	-1.128505E+12	4.889932E-15	NaN
535	1.000000	0.296646	7.37028e+06	-50339.1	1005.82	-29756	0.000000	0.000000	6.296847	-0.041275	NaN	0.000000	0.001664	0.001727	28.0817	0.099864	0.002033	49.1119	-177.59	16.955	-0.036921	0.295298	-0.861447	-0.862794	-0.041275	49.1119	-0.860816	-3.000325E+11	1.375677E-13	NaN
535	1.000000	0.338664	7.37028e+06	-50339.1	1005.82	-29756	0.000000	0.000000	6.338865	-0.038356	NaN	0.000000	0.001665	0.001714	28.0812	0.034326	0.001975	17.3798	-150.649	-164.656	0.030855	0.337357	-0.819429	-0.820735	-0.038356	17.3798	-0.817774	-7.834626E+10	4.895722E-13	NaN
535	1.000000	0.380685	7.37028e+06	-50339.1	1005.82	-29756	0.000000	0.000000	6.380886	-0.048261	NaN	0.000000	0.001766	0.001728	28.0804	0.085105	0.002011	42.3176	57.6963	14.5074	-0.026059	0.379317	-0.777408	-0.778775	-0.048261	42.3176	-0.776552	-2.159621E+10	2.234701E-12	NaN
535	1.000000	0.422703	7.37028e+06	-50339.1	1005.82	-29756	0.000000	0.000000	6.422904	-0.045801	NaN	0.000000	0.001730	0.001742	28.0806	0.077554	0.002114	36.6868	-161.879	-167.361	-0.057890	0.421415	-0.735390	-0.736678	-0.045801	36.6868	-0.734453	-5.774226E+9	7.931985E-12	NaN
535	1.000000	0.464709	7.37028e+06	-50339.1	1005.82	-29756	0.000000	0.000000	6.464909	-0.081291	NaN	0.000000	0.001712	0.001770	28.0807	0.085506	0.002104	40.6489	170.153	14.3961	-0.094680	0.463357	-0.693384	-0.694735	-0.081291	40.6489	-0.691884	-1.515862E+9	5.362673E-11	NaN
535	1.000000	0.506733	7.37028e+06	-50339.1	1005.82	-29756	0.000000	0.000000	6.506937	0.033890	NaN	0.000000	0.001736	0.001775	28.0817	0.072589	0.001972	36.8127	-117.489	-166.224	-0.098283	0.505400	-0.651360	-0.652692	0.033890	36.8127	-0.652050	-4.320542E+8	-7.843997E-11	NaN
535	1.000000	0.548783	7.37028e+06	-50339.1	1005.82	-29756	0.000000	0.000000	6.548985	-0.029367	NaN	0.000000	0.001725	0.001768	28.0817	0.083357	0.002095	39.7955	60.4847	16.5696	-0.102676	0.547379	-0.609309	-0.610714	-0.029367	39.7955	-0.608756	-1.098989E+8	2.672210E-10	NaN
535	1.000000	0.590759	7.37028e+06	-50339.1	1005.82	-29756	0.000000	0.000000	6.590959	-0.080514	NaN	0.000000	0.001722	0.001745	28.0818	0.068394	0.001967	34.77	-126.995	-165.138	-0.165822	0.589469	-0.567334	-0.568623	-0.080514	34.77	-0.565597	-2.791109E+7	2.884674E-9	NaN
535	1.000000	0.632783	7.37029e+06	-50339.1	1005.82	-29756	0.000000	0.000000	6.632986	0.018287	NaN	0.000000	0.001748	0.001796	28.0808	0.112363	0.002058	54.6099	4.904330	16.011	-0.003580	0.631407	-0.525310	-0.526685	0.018287	54.6099	-0.525561	-7.7787e+06	-2.350898E-9	NaN
535	1.000000	0.674824	7.37029e+06	-50339.1	1005.82	-29756	0.000000	0.000000	6.675027	-0.002174	NaN	0.000000	0.001759	0.001753	28.081	0.073770	0.002129	34.6577	-130.378	-169.731	-0.012565	0.673552	-0.483268	-0.484541	-0.002174	34.6577	-0.483221	-1.99806e+06	1.088160E-9	NaN
535	1.000000	0.716818	7.37029e+06	-50339.1	1005.82	-29756	0.000000	0.000000	6.717021	-0.024079	NaN	0.000000	0.001735	0.001734	28.0809	0.099803	0.002027	49.2255	-14.013	11.4476	-0.104159	0.715449	-0.441274	-0.442644	-0.024079	49.2255	-0.440907	-508352	4.736723E-8	NaN
535	1.000000	0.758866	7.37029e+06	-50339.1	1005.82	-29756	0.000000	0.000000	6.759071	0.047864	NaN	0.000000	0.001737	0.001772	28.0823	0.058257	0.002056	28.3368	166.971	-164.361	0.056295	0.757510	-0.399226	-0.400582	0.047864	28.3368	-0.400493	-135839	-3.523568E-7	NaN
535	1.000000	0.800869	7.37029e+06	-50339.1	1005.82	-29756	0.000000	0.000000	6.801069	-0.069611	NaN	0.000000	0.001725	0.001761	28.0823	0.018655	0.002031	9.182839	-91.4616	11.2808	-0.029613	0.799532	-0.357224	-0.358560	-0.069611	9.182839	-0.351538	-26873.5	2.590309E-6	NaN
535	1.000000	0.842902	7.37029e+06	-50339.1	1005.82	-29756	0.000000	0.000000	6.843103	-0.058171	NaN	0.000000	0.001623	0.001768	28.0819	0.043302	0.001975	21.9231	-110.61	-166.953	-0.080720	0.841578	-0.315190	-0.316514	-0.058171	21.9231	-0.313200	-7385.31	7.876595E-6	NaN
535	1.000000	0.884889	7.37029e+06	-50339.1	1005.82	-29756	0.000000	0.000000	6.885089	-0.074015	NaN	0.000000	0.001621	0.001726	28.0817	0.082208	0.001917	42.8942	-64.9265	13.1453	-0.059356	0.883535	-0.273203	-0.274558	-0.074015	42.8942	-0.271909	-1780.5	4.156998E-5	NaN
535	1.000000	0.926924	7.37029e+06	-50339.1	1005.82	-29756	0.000000	0.000000	6.927125	-0.064247	NaN	0.000000	0.001659	0.001746	28.0809	0.050844	0.001955	26.0127	65.1653	-166.54	-0.113368	0.925638	-0.231168	-0.232455	-0.064247	26.0127	-0.229316	-390.581	0.000164	NaN
535	1.000000	0.968944	7.37029e+06	-50339.1	1005.82	-29756	0.000000	0.000000	6.969147	0.005096	NaN	0.000000	0.001652	0.001754	28.0809	0.059704	0.001992	29.9769	-30.5898	14.9334	-0.041866	0.967629	-0.189148	-0.190464	0.005096	29.9769	-0.189276	-87.4831	-5.825124E-5	NaN
535	1.000000	1.010938	7.37029e+06	-50339.1	1005.82	-29756	0.000000	0.000000	7.011138	-0.065606	NaN	0.000000	0.001608	0.001735	28.0808	0.024993	0.001944	12.8551	163.09	-165.73	0.028434	1.009623	-0.147155	-0.148470	-0.065606	12.8551	-0.143327	-13.6503	0.004806	NaN
535	1.000000	1.052985	7.37029e+06	-50339.1	1005.82	-29756	0.000000	0.000000	7.053186	-0.051138	NaN	0.000000	0.001566	0.001727	28.0825	0.079335	0.001886	42.0635	-147.15	15.4647	0.067635	1.051653	-0.105107	-0.106439	-0.051138	42.0635	-0.104196	-2.258202	0.022645	NaN
535	1.000000	1.094976	7.37029e+06	-50339.1	1005.82	-29756	0.000000	0.000000	7.095179	-0.017596	NaN	0.000000	0.001579	0.001745	28.0821	0.104446	0.001969	53.0526	46.6083	-165.933	-0.093428	1.093668	-0.063116	-0.064425	-0.017596	53.0526	-0.062867	-0.217262	0.080990	NaN
535	1.000000	1.137002	7.37029e+06	-50339.1	1005.82	-29756	0.000000	0.000000	7.137204	-0.029982	NaN	0.000000	0.001555	0.001811	28.0817	0.061774	0.002035	30.3555	13.491	13.1162	-0.025805	1.135587	-0.021090	-0.022505	-0.029982	30.3555	-0.020349	-0.012820	2.338669	NaN
535	2.000000	1.168520	7.37029e+06	-50339.1	1005.82	-29756	0.000000	0.000000	7.169252	12.8803	NaN	0.000000	0.001571	0.001792	28.0806	13.7425	0.001810	7593.16	6.200404	-174.929	12.2564	1.168158	0.010427	0.010066	12.8803	7593.16	0.009155	0.008257	1559.83	76343.5
535	2.000000	1.178971	7.37029e+06	-50339.1	1005.82	-29756	0.000000	0.000000	7.180261	26.4177	NaN	0.000000	0.001573	0.001797	28.0806	22.8183	0.001830	12467	7.484157	1.321424	27.3201	1.178653	0.020879	0.020561	26.4177	12467	0.019289	0.021438	1232.28	77793.1
535	2.000000	1.189446	7.37029e+06	-50339.1	1005.82	-29756	0.000000	0.000000	7.191718	50.3025	NaN	0.000000	0.001614	0.001784	28.0806	32.3899	0.001768	18324	5.024357	178.63	50.1138	1.189118	0.031354	0.031026	50.3025	18324	0.029295	0.039295	1280.11	84454.6
535	2.000000	1.199903	7.37029e+06	-50339.1	1005.82	-29756	0.000000	0.000000	7.203352	78.9309	NaN	0.000000	0.001625	0.001775	28.0816	42.2218	0.001767	23897.2	2.517044	-0.900776	77.8853	1.199550	0.041811	0.041458	78.9309	23897.2	0.039333	0.062317	1266.61	87461.8
535	2.000000	1.210399	7.37029e+06	-50339.1	1005.82	-29756	0.000000	0.000000	7.215540	120.079	NaN	0.000000	0.001678	0.001779	28.082	53.5367	0.001745	30673.4	3.803009	176.589	117.377	1.210055	0.052307	0.051963	120.079	30673.4	0.049371	0.090478	1327.16	93167.3
535	2.000000	1.220874	7.37029e+06	-50339.1	1005.82	-29756	0.000000	0.000000	7.228136	171.668	NaN	0.000000	0.001639	0.001856	28.082	65.4009	0.001885	34696.2	5.002171	-6.133967	170.299	1.220500	0.062781	0.062408	171.668	34696.2	0.059070	0.122496	1401.42	90572.1
535	2.000000	1.231375	7.37029e+06	-50339.1	1005.82	-29756	0.000000	0.000000	7.240593	219.238	NaN	0.000000	0.001646	0.001829	28.0815	74.6272	0.001752	42594.4	4.226140	172.006	217.928	1.231127	0.073283	0.073034	219.238	42594.4	0.069422	0.161745	1355.45	96763
535	2.000000	1.241885	7.37029e+06	-50339.1	1005.82	-29756	0.000000	0.000000	7.253685	282.02	NaN	0.000000	0.001657	0.001872	28.0805	84.434	0.001711	49357	3.140772	-7.536388	281.287	1.241646	0.083792	0.083553	282.02	49357	0.079507	0.204897	1376.4	99621.8
535	2.000000	1.252375	7.37029e+06	-50339.1	1005.82	-29756	0.000000	0.000000	7.267169	354.816	NaN	0.000000	0.001569	0.001815	28.0806	94.3966	0.001831	51553.7	9.007801	166.498	355.325	1.251999	0.094283	0.093906	354.816	51553.7	0.089121	0.250452	1416.7	94117.5
535	2.000000	1.262723	7.37029e+06	-50339.1	1005.82	-29756	0.000000	0.000000	7.280797	434.588	NaN	0.000000	0.001608	0.001784	28.0806	102.646	0.001833	55986	1.794822	-6.122186	426.805	1.262311	0.104631	0.104219	434.588	55986	0.098809	0.300651	1445.49	93287
535	2.000000	1.263284	7.37029e+06	-50339.1	1005.82	-29756	0.000000	0.000000	7.281741	443.918	NaN	0.000000	0.001636	0.001778	28.0806	103.831	0.001865	55686	4.658178	170.813	438.832	1.262905	0.105191	0.104813	443.918	55686	0.099212	0.302836	1465.87	92451.9