File: remote_trans/data/nanoindenter/0828-1/data/Data_2025-08-06,11h17m57s/2025-07-22_16-23-58_1_582.txt
2025-07-22, 16:23:58, 1
Index	Phase	Displacement	Time	Pos X	Pos Y	Pos Z	Rot A	Rot B	Piezo Z	Force A	Force B	Gripper	Voltage A	Voltage B	Temperature	Amplitude force	Amplitude pos	Stiffness	Phase shift	Phase excitation	Force A raw	Displacement raw	HMax	HMax raw	Real Force	Real Stiffness	Contact Depth	Area	Hardness	Reduced Mod.
[#]	[#]	[um]	[s]	[um]	[um]	[um]	[m°]	[m°]	[um]	[uN]	[uN]	[V]	[V]	[V]	[°C]	[uN]	[um]	[N/m]	[°]	[°]	[uN]	[um]	[um]	[um]	[uN]	[N/m]	[um]	[um^2]	[MPa]	[MPa]
582	1.000000	0.002032	7.37074e+06	-47989.1	1005.82	-29764	0.000000	0.000000	6.002814	-0.013317	NaN	0.000000	0.001623	0.001761	28.0792	0.002139	0.001096	1.951831	178.576	-164.087	0.030648	0.000700	-1.093218	-1.094550	-0.013317	1.951831	-1.088101	-3.469893E+14	3.837845E-17	NaN
582	1.000000	0.043962	7.37074e+06	-47989.1	1005.82	-29764	0.000000	0.000000	6.044744	-0.024991	NaN	0.000000	0.001562	0.001749	28.0796	0.055399	0.001950	28.4102	-27.592	12.3843	0.006547	0.042593	-1.051288	-1.052657	-0.024991	28.4102	-1.050628	-1.088570E+14	2.295729E-16	NaN
582	1.000000	0.085988	7.37074e+06	-47989.1	1005.82	-29764	0.000000	0.000000	6.086773	0.046258	NaN	0.000000	0.001597	0.001775	28.0798	0.045556	0.002075	21.9588	155.982	-163.663	0.056815	0.084637	-1.009262	-1.010613	0.046258	21.9588	-1.010842	-3.174793E+13	-1.457029E-15	NaN
582	1.000000	0.128014	7.37074e+06	-47989.1	1005.82	-29764	0.000000	0.000000	6.128798	0.045086	NaN	0.000000	0.001600	0.001754	28.0801	0.021411	0.002024	10.5794	-170.771	15.8039	0.038452	0.126687	-0.967237	-0.968563	0.045086	10.5794	-0.970433	-9.067669E+12	-4.972176E-15	NaN
582	1.000000	0.169991	7.37074e+06	-47989.1	1005.82	-29764	0.000000	0.000000	6.170773	-0.011401	NaN	0.000000	0.001618	0.001705	28.08	0.036341	0.001943	18.7075	-123.839	-164.749	-0.031570	0.168741	-0.925259	-0.926509	-0.011401	18.7075	-0.924802	-2.198047E+12	5.186713E-15	NaN
582	1.000000	0.212020	7.37074e+06	-47989.1	1005.82	-29764	0.000000	0.000000	6.212805	0.047854	NaN	0.000000	0.001592	0.001752	28.079	0.045251	0.002026	22.3343	9.182022	13.4149	-0.022004	0.210658	-0.883230	-0.884593	0.047854	22.3343	-0.884837	-6.340362E+11	-7.547503E-14	NaN
582	1.000000	0.254082	7.37074e+06	-47989.1	1005.82	-29764	0.000000	0.000000	6.254868	0.075687	NaN	0.000000	0.001562	0.001740	28.0788	0.055524	0.001874	29.6343	-61.6695	-163.029	0.156880	0.252753	-0.841168	-0.842498	0.075687	29.6343	-0.843084	-1.726099E+11	-4.384849E-13	NaN
582	1.000000	0.296034	7.37074e+06	-47989.1	1005.82	-29764	0.000000	0.000000	6.296818	0.032908	NaN	0.000000	0.001524	0.001710	28.0787	0.118851	0.002060	57.7074	173.707	16.1517	-0.042562	0.294694	-0.799216	-0.800556	0.032908	57.7074	-0.799644	-4.446615E+10	-7.400701E-13	NaN
582	1.000000	0.338064	7.37074e+06	-47989.1	1005.82	-29764	0.000000	0.000000	6.338848	0.018813	NaN	0.000000	0.001575	0.001733	28.0801	0.037861	0.002012	18.8167	-127.359	-166.252	-0.056481	0.336769	-0.757186	-0.758481	0.018813	18.8167	-0.757936	-1.205648E+10	-1.560446E-12	NaN
582	1.000000	0.380071	7.37074e+06	-47989.1	1005.82	-29764	0.000000	0.000000	6.380854	-0.008277	NaN	0.000000	0.001666	0.001754	28.0802	0.081976	0.001989	41.2132	148.589	14.9211	0.006177	0.378733	-0.715179	-0.716517	-0.008277	41.2132	-0.715029	-3.138072E+9	2.637516E-12	NaN
582	1.000000	0.422110	7.37074e+06	-47989.1	1005.82	-29764	0.000000	0.000000	6.422892	-0.010996	NaN	0.000000	0.001625	0.001736	28.0837	0.008241	0.002091	3.941596	92.4439	-164.253	-0.022651	0.420782	-0.673140	-0.674468	-0.010996	3.941596	-0.671048	-7.865667E+8	1.398009E-11	NaN
582	1.000000	0.464150	7.37074e+06	-47989.1	1005.82	-29764	0.000000	0.000000	6.464934	0.028829	NaN	0.000000	0.001605	0.001721	28.0788	0.139425	0.002180	63.9539	-153.999	16.967	-0.020314	0.462810	-0.631100	-0.632440	0.028829	63.9539	-0.631439	-2.253083E+8	-1.279523E-10	NaN
582	1.000000	0.506169	7.37074e+06	-47989.1	1005.82	-29764	0.000000	0.000000	6.506954	0.040139	NaN	0.000000	0.001550	0.001701	28.0787	0.106128	0.002020	52.5491	96.1396	-167.093	0.046420	0.504861	-0.589081	-0.590389	0.040139	52.5491	-0.589653	-5.996374E+7	-6.693816E-10	NaN
582	1.000000	0.548167	7.37074e+06	-47989.1	1005.82	-29764	0.000000	0.000000	6.548951	0.023055	NaN	0.000000	0.001569	0.001739	28.0787	0.048659	0.002021	24.0757	122.491	12.3212	0.007924	0.546860	-0.547083	-0.548390	0.023055	24.0757	-0.547802	-1.583074E+7	-1.456348E-9	NaN
582	1.000000	0.590180	7.37074e+06	-47989.1	1005.82	-29764	0.000000	0.000000	6.590965	0.038864	NaN	0.000000	0.001554	0.001698	28.0795	0.102512	0.001880	54.5374	178.687	-162.893	-0.081303	0.588886	-0.505070	-0.506364	0.038864	54.5374	-0.505604	-4.10362e+06	-9.470736E-9	NaN
582	1.000000	0.632185	7.37074e+06	-47989.1	1005.82	-29764	0.000000	0.000000	6.632970	0.047746	NaN	0.000000	0.001571	0.001786	28.08	0.092501	0.001967	47.0269	-136.647	12.4321	-0.010906	0.630862	-0.463065	-0.464388	0.047746	47.0269	-0.463826	-1.06848e+06	-4.468582E-8	NaN
582	1.000000	0.674259	7.37074e+06	-47989.1	1005.82	-29764	0.000000	0.000000	6.675043	0.017703	NaN	0.000000	0.001597	0.001759	28.0799	0.059579	0.002064	28.8687	-106.787	-164.045	-0.000622	0.672922	-0.420991	-0.422328	0.017703	28.8687	-0.421451	-269767	-6.562483E-8	NaN
582	1.000000	0.716266	7.37074e+06	-47989.1	1005.82	-29764.1	0.000000	0.000000	6.717050	0.020469	NaN	0.000000	0.001576	0.001717	28.0799	0.037965	0.001981	19.1635	-135.04	14.0271	0.020315	0.714856	-0.378984	-0.380394	0.020469	19.1635	-0.379785	-68675.2	-2.980569E-7	NaN
582	1.000000	0.758305	7.37074e+06	-47989.1	1005.82	-29764.1	0.000000	0.000000	6.759088	0.003108	NaN	0.000000	0.001583	0.001684	28.0788	0.059815	0.001946	30.7319	127.326	-164.807	0.139791	0.756931	-0.336945	-0.338319	0.003108	30.7319	-0.337021	-16523.4	-1.880723E-7	NaN
582	1.000000	0.800315	7.37074e+06	-47989.1	1005.82	-29764.1	0.000000	0.000000	6.801098	-0.001712	NaN	0.000000	0.001610	0.001731	28.0788	0.072376	0.002111	34.2915	-152.268	15.6444	0.016407	0.798868	-0.294935	-0.296382	-0.001712	34.2915	-0.294897	-3949.64	4.335567E-7	NaN
582	1.000000	0.842304	7.37074e+06	-47989.1	1005.82	-29764.1	0.000000	0.000000	6.843085	-0.053203	NaN	0.000000	0.001623	0.001664	28.0789	0.089058	0.001981	44.9621	-166.267	-165.682	-0.056068	0.840992	-0.252946	-0.254258	-0.053203	44.9621	-0.252059	-884.664	6.013865E-5	NaN
582	1.000000	0.884331	7.37074e+06	-47989.1	1005.82	-29764.1	0.000000	0.000000	6.885115	0.010030	NaN	0.000000	0.001622	0.001687	28.0799	0.139231	0.001986	70.1052	161.913	14.6892	-0.051835	0.882947	-0.210919	-0.212303	0.010030	70.1052	-0.211026	-199.263	-5.033292E-5	NaN
582	1.000000	0.926324	7.37074e+06	-47989.1	1005.82	-29764.1	0.000000	0.000000	6.927107	-0.021685	NaN	0.000000	0.001572	0.001689	28.08	0.051579	0.001864	27.6711	40.5224	-168.783	-0.020465	0.925016	-0.168926	-0.170234	-0.021685	27.6711	-0.168338	-38.4324	0.000564	NaN
582	1.000000	0.968341	7.37075e+06	-47989.1	1005.82	-29764.1	0.000000	0.000000	6.969125	0.023840	NaN	0.000000	0.001631	0.001704	28.0798	0.059857	0.001948	30.7247	-46.0577	18.6537	-0.040777	0.967027	-0.126909	-0.128223	0.023840	30.7247	-0.127491	-6.808508	-0.003501	NaN
582	1.000000	1.010381	7.37075e+06	-47989.1	1005.82	-29764.1	0.000000	0.000000	7.011164	-0.005405	NaN	0.000000	0.001591	0.001686	28.0786	0.093650	0.002101	44.5699	87.1837	-162.861	-0.039365	1.009051	-0.084869	-0.086199	-0.005405	44.5699	-0.084778	-0.811541	0.006661	NaN
582	1.000000	1.052403	7.37075e+06	-47989.1	1005.82	-29764.1	0.000000	0.000000	7.053185	-0.037029	NaN	0.000000	0.001540	0.001691	28.0784	0.015631	0.001996	7.831439	-13.9756	17.6803	0.014777	1.051031	-0.042847	-0.044219	-0.037029	7.831439	-0.039301	-0.043067	0.859792	NaN
582	1.000000	1.094388	7.37075e+06	-47989.1	1005.82	-29764.1	0.000000	0.000000	7.095202	0.750851	NaN	0.000000	0.001572	0.001689	28.0786	1.274649	0.001889	674.713	11.4441	-166.979	0.151766	1.093124	-0.000862	-0.002126	0.750851	674.713	-0.001696	-0.001228	-611.646	NaN
582	2.000000	1.109479	7.37075e+06	-47989.1	1005.82	-29764.1	0.000000	0.000000	7.111281	24.7716	NaN	0.000000	0.001549	0.001700	28.0791	17.852	0.001769	10090.2	3.927017	6.637248	23.9275	1.109143	0.014229	0.013893	24.7716	10090.2	0.012388	0.011958	2071.5	84301.9
582	2.000000	1.119946	7.37075e+06	-47989.1	1005.82	-29764.1	0.000000	0.000000	7.122994	55.078	NaN	0.000000	0.001565	0.001676	28.0799	28.6534	0.001790	16011.8	3.219501	-176.654	53.8725	1.119531	0.024696	0.024281	55.078	16011.8	0.022116	0.025977	2120.24	90764.4
582	2.000000	1.130387	7.37075e+06	-47989.1	1005.82	-29764.1	0.000000	0.000000	7.134817	88.7017	NaN	0.000000	0.001576	0.001732	28.08	38.7259	0.001758	22025.2	3.463913	-0.158130	85.8112	1.130136	0.035137	0.034886	88.7017	22025.2	0.032117	0.045246	1960.45	94603.1
582	2.000000	1.140860	7.37075e+06	-47989.1	1005.82	-29764.1	0.000000	0.000000	7.147462	141.542	NaN	0.000000	0.001571	0.001726	28.08	49.238	0.001762	27945.2	5.156872	177.401	139.847	1.140548	0.045610	0.045298	141.542	27945.2	0.041811	0.068792	2057.54	97344.4
582	2.000000	1.151381	7.37075e+06	-47989.1	1005.82	-29764.1	0.000000	0.000000	7.160420	200.794	NaN	0.000000	0.001654	0.001695	28.0788	58.9034	0.001823	32307.5	1.114633	-0.525413	198.131	1.151087	0.056131	0.055837	200.794	32307.5	0.051470	0.097010	2069.83	94769.4
582	2.000000	1.161867	7.37075e+06	-47989.1	1005.82	-29764.1	0.000000	0.000000	7.173779	270.681	NaN	0.000000	0.001547	0.001706	28.0788	71.4397	0.001815	39354.4	4.241332	174.892	266.637	1.161575	0.066617	0.066325	270.681	39354.4	0.061458	0.131090	2064.85	99307.6
582	2.000000	1.172393	7.37075e+06	-47989.1	1005.82	-29764.1	0.000000	0.000000	7.187626	351.453	NaN	0.000000	0.001540	0.001708	28.0786	81.4711	0.001870	43565.2	4.074262	-5.169426	351.159	1.172075	0.077143	0.076825	351.453	43565.2	0.071092	0.168559	2085.05	96947.6
582	2.000000	1.182773	7.37075e+06	-47989.1	1005.82	-29764.1	0.000000	0.000000	7.201663	440.42	NaN	0.000000	0.001564	0.001706	28.0796	90.8385	0.001763	51526.6	0.815037	176.08	436.676	1.182544	0.087522	0.087294	440.42	51526.6	0.081112	0.212204	2075.46	102195
582	2.000000	1.193355	7.37075e+06	-47989.1	1005.82	-29764.1	0.000000	0.000000	7.216275	538.432	NaN	0.000000	0.001553	0.001717	28.0799	102.391	0.001830	55936.5	3.758069	-7.771073	535.716	1.192994	0.098105	0.097744	538.432	55936.5	0.090885	0.259274	2076.69	100367
582	2.000000	1.198829	7.37075e+06	-47989.1	1005.82	-29764.1	0.000000	0.000000	7.224207	598.211	NaN	0.000000	0.001596	0.001716	28.0797	106.912	0.001687	63358	2.984314	172.752	595.224	1.198523	0.103579	0.103273	598.211	63358	0.096498	0.288289	2075.04	107811