File: remote_trans/data/nanoindenter/0828-1/data/Data_2025-08-06,11h17m57s/2025-07-22_16-23-58_1_242.txt
2025-07-22, 16:23:58, 1
Index	Phase	Displacement	Time	Pos X	Pos Y	Pos Z	Rot A	Rot B	Piezo Z	Force A	Force B	Gripper	Voltage A	Voltage B	Temperature	Amplitude force	Amplitude pos	Stiffness	Phase shift	Phase excitation	Force A raw	Displacement raw	HMax	HMax raw	Real Force	Real Stiffness	Contact Depth	Area	Hardness	Reduced Mod.
[#]	[#]	[um]	[s]	[um]	[um]	[um]	[m°]	[m°]	[um]	[uN]	[uN]	[V]	[V]	[V]	[°C]	[uN]	[um]	[N/m]	[°]	[°]	[uN]	[um]	[um]	[um]	[uN]	[N/m]	[um]	[um^2]	[MPa]	[MPa]
242	1.000000	0.002119	7.36741e+06	-50739.1	955.818	-29755	0.000000	0.000000	6.002801	-0.018019	NaN	0.000000	0.001582	0.001721	28.0779	0.193222	0.000879	219.929	-56.9856	-160.079	0.012557	0.000830	-1.100938	-1.102227	-0.018019	219.929	-1.100877	-5.150366E+14	3.498619E-17	NaN
242	1.000000	0.044059	7.36741e+06	-50739.1	955.819	-29755	0.000000	0.000000	6.044739	-0.063150	NaN	0.000000	0.001599	0.001787	28.0791	0.099035	0.002088	47.4204	151.522	19.9325	0.037211	0.042705	-1.058998	-1.060353	-0.063150	47.4204	-1.058000	-1.367533E+14	4.617834E-16	NaN
242	1.000000	0.086097	7.36741e+06	-50739.1	955.818	-29755	0.000000	0.000000	6.086779	-0.022568	NaN	0.000000	0.001601	0.001751	28.079	0.080087	0.001906	42.0165	41.9498	-164.018	-0.054915	0.084740	-1.016960	-1.018318	-0.022568	42.0165	-1.016558	-3.789949E+13	5.954650E-16	NaN
242	1.000000	0.128105	7.36741e+06	-50739.1	955.818	-29755	0.000000	0.000000	6.128785	-0.064939	NaN	0.000000	0.001598	0.001717	28.079	0.026601	0.001887	14.0989	-37.0609	13.086	-0.031001	0.126711	-0.974953	-0.976347	-0.064939	14.0989	-0.971499	-9.372568E+12	6.928606E-15	NaN
242	1.000000	0.170115	7.36741e+06	-50739.1	955.818	-29755	0.000000	0.000000	6.170796	-0.037152	NaN	0.000000	0.001587	0.001732	28.0789	0.093365	0.001985	47.0428	-171.868	-163.906	-0.083381	0.168823	-0.932943	-0.934234	-0.037152	47.0428	-0.932350	-2.779181E+12	1.336807E-14	NaN
242	1.000000	0.212154	7.36741e+06	-50739.1	955.819	-29755	0.000000	0.000000	6.212837	0.006451	NaN	0.000000	0.001561	0.001711	28.0777	0.133056	0.002000	66.5321	152.19	17.4699	0.016860	0.210794	-0.890903	-0.892264	0.006451	66.5321	-0.890976	-7.675519E+11	-8.404179E-15	NaN
242	1.000000	0.254158	7.36741e+06	-50739.1	955.819	-29755	0.000000	0.000000	6.254838	-0.064753	NaN	0.000000	0.001583	0.001723	28.0778	0.017660	0.001912	9.234847	-115.948	-163.314	-0.050841	0.252837	-0.848900	-0.850221	-0.064753	9.234847	-0.843641	-1.756352E+11	3.686814E-13	NaN
242	1.000000	0.296160	7.36741e+06	-50739.1	955.818	-29755	0.000000	0.000000	6.296840	-0.056128	NaN	0.000000	0.001571	0.001768	28.0775	0.033151	0.002128	15.5757	-45.0715	16.1004	-0.028733	0.294792	-0.806898	-0.808266	-0.056128	15.5757	-0.804195	-5.126326E+10	1.094905E-12	NaN
242	1.000000	0.338188	7.36741e+06	-50739.1	955.818	-29755	0.000000	0.000000	6.338869	-0.040684	NaN	0.000000	0.001606	0.001770	28.0789	0.099946	0.002067	48.3616	-119.084	-164.737	0.014921	0.336904	-0.764870	-0.766154	-0.040684	48.3616	-0.764239	-1.468794E+10	2.769864E-12	NaN
242	1.000000	0.380198	7.36741e+06	-50739.1	955.819	-29755	0.000000	0.000000	6.380878	-0.062410	NaN	0.000000	0.001580	0.001748	28.0789	0.076867	0.001965	39.1226	37.9093	17.4808	-0.126015	0.378862	-0.722860	-0.724196	-0.062410	39.1226	-0.721663	-3.865039E+9	1.614727E-11	NaN
242	1.000000	0.422213	7.36741e+06	-50739.1	955.817	-29755	0.000000	0.000000	6.422897	0.028614	NaN	0.000000	0.001651	0.001744	28.0789	0.021918	0.001916	11.4366	43.2379	-165.483	-0.043516	0.420914	-0.680844	-0.682143	0.028614	11.4366	-0.682721	-1.136093E+9	-2.518607E-11	NaN
242	1.000000	0.464226	7.36742e+06	-50739.1	955.819	-29755	0.000000	0.000000	6.464909	0.003588	NaN	0.000000	0.001628	0.001729	28.0775	0.070104	0.001968	35.6218	102.81	13.9306	0.055441	0.462885	-0.638831	-0.640173	0.003588	35.6218	-0.638907	-2.852919E+8	-1.257627E-11	NaN
242	1.000000	0.506260	7.36742e+06	-50739.1	955.818	-29755	0.000000	0.000000	6.506942	-0.015874	NaN	0.000000	0.001563	0.001694	28.0778	0.113011	0.002180	51.8515	39.6732	-165.966	-0.063054	0.504961	-0.596798	-0.598097	-0.015874	51.8515	-0.596568	-7.467671E+7	2.125638E-10	NaN
242	1.000000	0.548296	7.36742e+06	-50739.1	955.818	-29755	0.000000	0.000000	6.548976	-0.046601	NaN	0.000000	0.001643	0.001695	28.0778	0.008072	0.002015	4.005090	-114.654	13.573	-0.042759	0.546945	-0.554762	-0.556112	-0.046601	4.005090	-0.546036	-1.496344E+7	3.114301E-9	NaN
242	1.000000	0.590330	7.36742e+06	-50739.1	955.818	-29755	0.000000	0.000000	6.591010	-0.063210	NaN	0.000000	0.001584	0.001716	28.0792	0.109000	0.002036	53.5447	138.813	-163.818	-0.005503	0.588954	-0.512728	-0.514104	-0.063210	53.5447	-0.511843	-5.01276e+06	1.260992E-8	NaN
242	1.000000	0.632318	7.36742e+06	-50739.1	955.818	-29755	0.000000	0.000000	6.633000	-0.020629	NaN	0.000000	0.001593	0.001688	28.0794	0.112020	0.001948	57.4943	-45.7706	15.2968	-0.003781	0.631012	-0.470740	-0.472046	-0.020629	57.4943	-0.470470	-1.32436e+06	1.557698E-8	NaN
242	1.000000	0.674341	7.36742e+06	-50739.1	955.817	-29755	0.000000	0.000000	6.675020	-0.098064	NaN	0.000000	0.001593	0.001705	28.0794	0.145453	0.002024	71.8778	51.8788	-164.057	-0.149979	0.673001	-0.428716	-0.430056	-0.098064	71.8778	-0.427693	-330688	2.965457E-7	NaN
242	1.000000	0.716385	7.36742e+06	-50739.1	955.818	-29755	0.000000	0.000000	6.717066	-0.038315	NaN	0.000000	0.001593	0.001723	28.0795	0.030892	0.001962	15.7483	-165.236	14.5918	0.063041	0.715046	-0.386672	-0.388011	-0.038315	15.7483	-0.384848	-81171.8	4.720219E-7	NaN
242	1.000000	0.758355	7.36742e+06	-50739.1	955.818	-29755	0.000000	0.000000	6.759032	-0.130050	NaN	0.000000	0.001617	0.001683	28.0781	0.042316	0.001996	21.203	154.892	-163.444	-0.092328	0.757029	-0.344703	-0.346029	-0.130050	21.203	-0.340102	-18325.2	7.096789E-6	NaN
242	1.000000	0.800406	7.36742e+06	-50739.1	955.818	-29755	0.000000	0.000000	6.801086	-0.061470	NaN	0.000000	0.001623	0.001703	28.078	0.013915	0.001781	7.813423	0.212490	13.2019	-0.071591	0.799051	-0.302652	-0.304006	-0.061470	7.813423	-0.296751	-4209.48	1.460278E-5	NaN
242	1.000000	0.842433	7.36742e+06	-50739.1	955.819	-29755	0.000000	0.000000	6.843112	-0.090669	NaN	0.000000	0.001669	0.001683	28.078	0.082014	0.001974	41.555	33.6855	-166.621	-0.105051	0.841091	-0.260624	-0.261967	-0.090669	41.555	-0.258988	-1130.83	8.017879E-5	NaN
242	1.000000	0.884428	7.36742e+06	-50739.1	955.818	-29755	0.000000	0.000000	6.885106	-0.098978	NaN	0.000000	0.001623	0.001682	28.0792	0.078244	0.002008	38.9731	125.691	16.4691	-0.119085	0.883054	-0.218630	-0.220004	-0.098978	38.9731	-0.216725	-246.17	0.000402	NaN
242	1.000000	0.926435	7.36742e+06	-50739.1	955.819	-29755	0.000000	0.000000	6.927115	-0.086088	NaN	0.000000	0.001578	0.001712	28.0792	0.016563	0.001959	8.453222	54.577	-164.21	-0.095582	0.925091	-0.176622	-0.177967	-0.086088	8.453222	-0.168984	-39.4417	0.002183	NaN
242	1.000000	0.968445	7.36742e+06	-50739.1	955.819	-29755	0.000000	0.000000	6.969126	-0.051464	NaN	0.000000	0.001554	0.001734	28.0794	0.067625	0.002047	33.0306	22.3911	12.2753	-0.050683	0.967068	-0.134612	-0.135990	-0.051464	33.0306	-0.133444	-8.881862	0.005794	NaN
242	1.000000	1.010462	7.36742e+06	-50739.1	955.819	-29755	0.000000	0.000000	7.011142	-0.067334	NaN	0.000000	0.001593	0.001715	28.0778	0.092023	0.002024	45.4631	-86.3742	-164.415	-0.043092	1.009117	-0.092595	-0.093941	-0.067334	45.4631	-0.091484	-1.170829	0.057509	NaN
242	1.000000	1.052503	7.36742e+06	-50739.1	955.82	-29755	0.000000	0.000000	7.053184	-0.042293	NaN	0.000000	0.001580	0.001717	28.0779	0.125039	0.001963	63.684	-171.04	16.3061	0.003180	1.051132	-0.050555	-0.051925	-0.042293	63.684	-0.050057	-0.091614	0.461648	NaN
242	1.000000	1.094503	7.36742e+06	-50739.1	955.82	-29755	0.000000	0.000000	7.095185	-0.026672	NaN	0.000000	0.001669	0.001728	28.078	0.052822	0.002050	25.7627	134.07	-167.356	-0.050356	1.093172	-0.008554	-0.009885	-0.026672	25.7627	-0.007778	-0.005101	5.228449	NaN
242	2.000000	1.119540	7.36742e+06	-50739.1	955.82	-29755	0.000000	0.000000	7.120900	16.4681	NaN	0.000000	0.001662	0.001742	28.0794	15.1002	0.001814	8322.16	6.136214	5.760160	15.7459	1.119219	0.016482	0.016162	16.4681	8322.16	0.014998	0.015283	1077.57	61504.9
242	2.000000	1.129994	7.36742e+06	-50739.1	955.821	-29755	0.000000	0.000000	7.132351	40.7248	NaN	0.000000	0.001640	0.001728	28.0794	26.622	0.001734	15349.7	3.268402	-178.778	38.6192	1.129734	0.026936	0.026676	40.7248	15349.7	0.024947	0.030918	1317.17	79756.4
242	2.000000	1.140519	7.36742e+06	-50739.1	955.82	-29755	0.000000	0.000000	7.144234	73.7386	NaN	0.000000	0.001564	0.001752	28.0793	36.6005	0.001781	20553.2	5.737785	-2.063164	74.1819	1.140158	0.037462	0.037100	73.7386	20553.2	0.034771	0.051214	1439.81	82976.9
242	2.000000	1.150947	7.36742e+06	-50739.1	955.821	-29755	0.000000	0.000000	7.156187	110.83	NaN	0.000000	0.001579	0.001732	28.0797	46.0896	0.001752	26307.2	2.969050	178.018	108.606	1.150649	0.047889	0.047592	110.83	26307.2	0.044729	0.076820	1442.72	86718.2
242	2.000000	1.161403	7.36742e+06	-50739.1	955.822	-29755	0.000000	0.000000	7.168953	166.998	NaN	0.000000	0.001572	0.001745	28.0783	57.3227	0.001772	32354.4	5.206462	-5.984442	162.67	1.161020	0.058345	0.057962	166.998	32354.4	0.054474	0.106743	1564.49	90476.9
242	2.000000	1.171887	7.36742e+06	-50739.1	955.82	-29755	0.000000	0.000000	7.181781	224.011	NaN	0.000000	0.001559	0.001669	28.0779	67.1293	0.001779	37730	2.147093	176.352	218.973	1.171522	0.068829	0.068464	224.011	37730	0.064376	0.141967	1577.91	91488.5
242	2.000000	1.182402	7.36742e+06	-50739.1	955.821	-29755	0.000000	0.000000	7.195012	290.051	NaN	0.000000	0.001587	0.001750	28.0778	76.7162	0.001790	42869.9	2.311252	-5.161770	287.48	1.182035	0.079344	0.078978	290.051	42869.9	0.074270	0.181890	1594.65	91837.7
242	2.000000	1.192881	7.36742e+06	-50739.1	955.822	-29755	0.000000	0.000000	7.208645	366.74	NaN	0.000000	0.001587	0.001700	28.0791	86.4266	0.001701	50814.2	1.570517	174.352	363.946	1.192621	0.089824	0.089563	366.74	50814.2	0.084411	0.227599	1611.34	97313.7
242	2.000000	1.203537	7.36742e+06	-50739.1	955.823	-29755	0.000000	0.000000	7.222323	440.222	NaN	0.000000	0.001553	0.001675	28.0789	96.9813	0.001765	54956	4.030064	-8.433789	444.769	1.203227	0.100479	0.100169	440.222	54956	0.094472	0.277647	1585.55	95288.7
242	2.000000	1.212372	7.36742e+06	-50739.1	955.822	-29755	0.000000	0.000000	7.234692	526.153	NaN	0.000000	0.001552	0.001720	28.0793	105.954	0.001779	59548.2	3.207267	-8.212223	522.928	1.212156	0.109315	0.109099	526.153	59548.2	0.102688	0.321949	1634.27	95884.4