File: remote_trans/data/nanoindenter/0828-1/data/Data_2025-08-06,11h17m57s/2025-07-22_16-23-58_1_1001.txt
2025-07-22, 16:23:58, 1
Index	Phase	Displacement	Time	Pos X	Pos Y	Pos Z	Rot A	Rot B	Piezo Z	Force A	Force B	Gripper	Voltage A	Voltage B	Temperature	Amplitude force	Amplitude pos	Stiffness	Phase shift	Phase excitation	Force A raw	Displacement raw	HMax	HMax raw	Real Force	Real Stiffness	Contact Depth	Area	Hardness	Reduced Mod.
[#]	[#]	[um]	[s]	[um]	[um]	[um]	[m°]	[m°]	[um]	[uN]	[uN]	[V]	[V]	[V]	[°C]	[uN]	[um]	[N/m]	[°]	[°]	[uN]	[um]	[um]	[um]	[uN]	[N/m]	[um]	[um^2]	[MPa]	[MPa]
1001	1.000000	0.002058	7.37484e+06	-50189.1	1055.82	-29756.4	0.000000	0.000000	6.002805	-0.072346	NaN	0.000000	0.001526	0.001724	28.085	0.090670	0.000976	92.8726	-114.035	-168.763	-0.118725	0.000816	-1.111521	-1.112763	-0.072346	92.8726	-1.110937	-7.028408E+14	1.029339E-16	NaN
1001	1.000000	0.044010	7.37484e+06	-50189.1	1055.82	-29756.4	0.000000	0.000000	6.044757	-0.076780	NaN	0.000000	0.001489	0.001693	28.0836	0.093038	0.001966	47.3315	-135.453	9.715374	-0.107412	0.042648	-1.069569	-1.070931	-0.076780	47.3315	-1.068352	-1.883860E+14	4.075683E-16	NaN
1001	1.000000	0.086006	7.37484e+06	-50189.1	1055.82	-29756.4	0.000000	0.000000	6.086754	-0.047649	NaN	0.000000	0.001581	0.001760	28.0836	0.030549	0.001960	15.5865	107.821	-168.435	-0.097414	0.084747	-1.027572	-1.028831	-0.047649	15.5865	-1.025279	-4.965705E+13	9.595695E-16	NaN
1001	1.000000	0.128029	7.37484e+06	-50189.1	1055.82	-29756.4	0.000000	0.000000	6.128778	-0.005373	NaN	0.000000	0.001567	0.001778	28.0838	0.033996	0.002130	15.9626	-59.4981	15.8746	0.019128	0.126689	-0.985550	-0.986890	-0.005373	15.9626	-0.985298	-1.438055E+13	3.736368E-16	NaN
1001	1.000000	0.170049	7.37484e+06	-50189.1	1055.82	-29756.4	0.000000	0.000000	6.170796	-0.069633	NaN	0.000000	0.001559	0.001776	28.0847	0.109569	0.002045	53.5772	-121.622	-164.509	-0.031190	0.168721	-0.943530	-0.944858	-0.069633	53.5772	-0.942555	-3.815973E+12	1.824766E-14	NaN
1001	1.000000	0.212087	7.37484e+06	-50189.1	1055.82	-29756.4	0.000000	0.000000	6.212835	-0.031540	NaN	0.000000	0.001587	0.001700	28.0851	0.079043	0.001945	40.6333	-160.656	13.3083	-0.010897	0.210748	-0.901492	-0.902831	-0.031540	40.6333	-0.900910	-1.045587E+12	3.016507E-14	NaN
1001	1.000000	0.254080	7.37484e+06	-50189.1	1055.82	-29756.4	0.000000	0.000000	6.254826	-0.091985	NaN	0.000000	0.001537	0.001700	28.0853	0.045085	0.001994	22.6081	-106.528	-168.117	-0.143079	0.252776	-0.859498	-0.860803	-0.091985	22.6081	-0.856447	-2.618324E+11	3.513121E-13	NaN
1001	1.000000	0.296079	7.37484e+06	-50189.1	1055.82	-29756.4	0.000000	0.000000	6.296826	-0.074455	NaN	0.000000	0.001570	0.001668	28.084	0.005073	0.001824	2.781739	36.8284	13.3173	-0.078988	0.294697	-0.817499	-0.818882	-0.074455	2.781739	-0.797425	-4.148677E+10	1.794659E-12	NaN
1001	1.000000	0.338126	7.37484e+06	-50189.1	1055.82	-29756.4	0.000000	0.000000	6.338873	-0.049673	NaN	0.000000	0.001529	0.001721	28.0838	0.091255	0.002048	44.5665	-128.772	-164.06	-0.067388	0.336860	-0.775453	-0.776719	-0.049673	44.5665	-0.774617	-2.032702E+10	2.443688E-12	NaN
1001	1.000000	0.380135	7.37484e+06	-50189.1	1055.82	-29756.4	0.000000	0.000000	6.380881	-0.091172	NaN	0.000000	0.001518	0.001713	28.0842	0.034534	0.002094	16.4958	165.212	13.7645	-0.068968	0.378773	-0.733443	-0.734805	-0.091172	16.4958	-0.729298	-4.911816E+9	1.856176E-11	NaN
1001	1.000000	0.422186	7.37484e+06	-50189.1	1055.82	-29756.4	0.000000	0.000000	6.422933	-0.066294	NaN	0.000000	0.001577	0.001712	28.084	0.094269	0.002049	46.0093	70.7092	-167.471	-0.091999	0.420878	-0.691393	-0.692701	-0.066294	46.0093	-0.690312	-1.442739E+9	4.595045E-11	NaN
1001	1.000000	0.464191	7.37484e+06	-50189.1	1055.82	-29756.4	0.000000	0.000000	6.464937	-0.076818	NaN	0.000000	0.001565	0.001692	28.0853	0.117846	0.002054	57.3699	-130.459	15.845	-0.149054	0.462803	-0.649388	-0.650775	-0.076818	57.3699	-0.648384	-3.848394E+8	1.996113E-10	NaN
1001	1.000000	0.506197	7.37484e+06	-50189.1	1055.82	-29756.4	0.000000	0.000000	6.506947	0.008404	NaN	0.000000	0.001528	0.001700	28.0852	0.088224	0.002058	42.8642	151.177	-168.249	-0.063317	0.504865	-0.607382	-0.608713	0.008404	42.8642	-0.607529	-1.057097E+8	-7.950008E-11	NaN
1001	1.000000	0.548202	7.37484e+06	-50189.1	1055.82	-29756.4	0.000000	0.000000	6.548949	-0.052652	NaN	0.000000	0.001592	0.001707	28.0852	0.112651	0.001961	57.4569	44.7396	9.260637	-0.118874	0.546892	-0.565377	-0.566687	-0.052652	57.4569	-0.564690	-2.711677E+7	1.941673E-9	NaN
1001	1.000000	0.590228	7.37484e+06	-50189.1	1055.82	-29756.4	0.000000	0.000000	6.590971	-0.142947	NaN	0.000000	0.001569	0.001709	28.084	0.024226	0.002053	11.8	-147.166	-165.094	-0.184789	0.588922	-0.523351	-0.524657	-0.142947	11.8	-0.514266	-5.41765e+06	2.638544E-8	NaN
1001	1.000000	0.632235	7.37484e+06	-50189.1	1055.82	-29756.4	0.000000	0.000000	6.632983	-0.053909	NaN	0.000000	0.001566	0.001694	28.084	0.133735	0.001960	68.2446	-141.92	15.403	-0.104522	0.630902	-0.481344	-0.482677	-0.053909	68.2446	-0.480751	-1.84519e+06	2.921619E-8	NaN
1001	1.000000	0.674251	7.37484e+06	-50189.1	1055.82	-29756.4	0.000000	0.000000	6.674997	-0.082861	NaN	0.000000	0.001518	0.001700	28.0837	0.086541	0.002052	42.1659	-36.4534	-165.315	-0.179784	0.672980	-0.439328	-0.440598	-0.082861	42.1659	-0.437854	-460328	1.800050E-7	NaN
1001	1.000000	0.716241	7.37484e+06	-50189.1	1055.82	-29756.4	0.000000	0.000000	6.716987	-0.097756	NaN	0.000000	0.001598	0.001702	28.0851	0.030722	0.002051	14.9757	-19.0352	11.2162	-0.019966	0.714953	-0.397337	-0.398625	-0.097756	14.9757	-0.392442	-104251	9.376983E-7	NaN
1001	1.000000	0.758285	7.37484e+06	-50189.1	1055.82	-29756.4	0.000000	0.000000	6.759032	-0.060397	NaN	0.000000	0.001595	0.001729	28.0852	0.069828	0.002034	34.3307	138.38	-168.581	-0.049445	0.757015	-0.355294	-0.356564	-0.060397	34.3307	-0.353974	-29150.1	2.071928E-6	NaN
1001	1.000000	0.800291	7.37485e+06	-50189.1	1055.82	-29756.4	0.000000	0.000000	6.801041	0.007778	NaN	0.000000	0.001588	0.001722	28.0852	0.145424	0.001993	72.9742	99.0342	16.2655	-0.064852	0.799032	-0.313288	-0.314547	0.007778	72.9742	-0.313368	-7427.66	-1.047178E-6	NaN
1001	1.000000	0.842325	7.37485e+06	-50189.1	1055.82	-29756.4	0.000000	0.000000	6.843071	-0.093608	NaN	0.000000	0.001575	0.001757	28.0842	0.071367	0.002021	35.3056	-149.46	-168.554	-0.120693	0.841070	-0.271254	-0.272509	-0.093608	35.3056	-0.269265	-1623.2	5.766837E-5	NaN
1001	1.000000	0.884356	7.37485e+06	-50189.1	1055.82	-29756.4	0.000000	0.000000	6.885104	-0.059618	NaN	0.000000	0.001605	0.001710	28.0837	0.141219	0.001891	74.6911	91.7644	13.8382	-0.028750	0.883011	-0.229222	-0.230568	-0.059618	74.6911	-0.228624	-380.862	0.000157	NaN
1001	1.000000	0.926371	7.37485e+06	-50189.1	1055.82	-29756.4	0.000000	0.000000	6.927116	-0.131985	NaN	0.000000	0.001565	0.001744	28.0839	0.022789	0.002042	11.1612	55.4778	-166.271	-0.246230	0.925051	-0.187207	-0.188527	-0.131985	11.1612	-0.178338	-57.168	0.002309	NaN
1001	1.000000	0.968373	7.37485e+06	-50189.1	1055.82	-29756.4	0.000000	0.000000	6.969121	-0.031039	NaN	0.000000	0.001573	0.001786	28.0836	0.084366	0.001979	42.6387	113.47	11.3541	-0.037232	0.966975	-0.145206	-0.146603	-0.031039	42.6387	-0.144660	-14.4503	0.002148	NaN
1001	1.000000	1.010374	7.37485e+06	-50189.1	1055.82	-29756.4	0.000000	0.000000	7.011122	-0.035716	NaN	0.000000	0.001579	0.001698	28.085	0.049170	0.002096	23.4629	145.085	-169.832	-0.114984	1.009100	-0.103205	-0.104479	-0.035716	23.4629	-0.102063	-2.028858	0.017604	NaN
1001	1.000000	1.052412	7.37485e+06	-50189.1	1055.82	-29756.4	0.000000	0.000000	7.053159	-0.080998	NaN	0.000000	0.001539	0.001748	28.0848	0.043137	0.002010	21.4585	4.803808	15.0968	-0.071270	1.051065	-0.061167	-0.062513	-0.080998	21.4585	-0.058336	-0.161250	0.502312	NaN
1001	1.000000	1.094433	7.37485e+06	-50189.1	1055.82	-29756.4	0.000000	0.000000	7.095179	-0.085631	NaN	0.000000	0.001646	0.001732	28.0846	0.037241	0.002012	18.5061	23.9332	-165.807	-0.069628	1.093090	-0.019146	-0.020488	-0.085631	18.5061	-0.015676	-0.009684	8.842508	NaN
1001	2.000000	1.124535	7.37485e+06	-50189.1	1055.82	-29756.4	0.000000	0.000000	7.125863	14.0681	NaN	0.000000	0.001611	0.001734	28.0837	12.954	0.001741	7440.27	4.019880	7.078734	13.7415	1.124194	0.010956	0.010615	14.0681	7440.27	0.009538	0.008673	1622.11	72993.4
1001	2.000000	1.134958	7.37485e+06	-50189.1	1055.82	-29756.4	0.000000	0.000000	7.137244	37.366	NaN	0.000000	0.001598	0.001737	28.0835	23.6826	0.001773	13359.9	7.427263	-179.674	37.1473	1.134697	0.021379	0.021118	37.366	13359.9	0.019281	0.021425	1744.02	83389.8
1001	2.000000	1.145379	7.37485e+06	-50189.1	1055.82	-29756.4	0.000000	0.000000	7.149035	70.6784	NaN	0.000000	0.001626	0.001817	28.0833	34.3342	0.001762	19487.7	6.548567	-4.224668	68.067	1.145110	0.031801	0.031531	70.6784	19487.7	0.029080	0.038859	1818.83	90320.3
1001	2.000000	1.155924	7.37485e+06	-50189.1	1055.82	-29756.4	0.000000	0.000000	7.161485	117.024	NaN	0.000000	0.001637	0.001774	28.0847	44.1167	0.001782	24758.6	6.791933	173.896	117.05	1.155555	0.042345	0.041976	117.024	24758.6	0.038800	0.060963	1919.58	91614.5
1001	2.000000	1.166274	7.37485e+06	-50189.1	1055.82	-29756.4	0.000000	0.000000	7.174357	178.317	NaN	0.000000	0.001625	0.001760	28.0848	53.2126	0.001707	31170.3	2.193131	-2.729309	171.457	1.165869	0.052696	0.052290	178.317	31170.3	0.048405	0.087547	2036.81	96248.1
1001	2.000000	1.176868	7.37485e+06	-50189.1	1055.82	-29756.4	0.000000	0.000000	7.187671	244.481	NaN	0.000000	0.001647	0.001772	28.0848	66.1275	0.001790	36949.4	6.002950	172.406	240.986	1.176475	0.063290	0.062897	244.481	36949.4	0.058327	0.119878	2039.41	97501.3
1001	2.000000	1.187311	7.37485e+06	-50189.1	1055.82	-29756.4	0.000000	0.000000	7.201140	318.082	NaN	0.000000	0.001556	0.001737	28.0835	75.8826	0.001796	42252.6	2.431699	-5.290208	313.472	1.187043	0.073732	0.073464	318.082	42252.6	0.068086	0.156389	2033.92	97616.8
1001	2.000000	1.197899	7.37485e+06	-50189.1	1055.82	-29756.4	0.000000	0.000000	7.214879	394.708	NaN	0.000000	0.001577	0.001714	28.0837	86.3984	0.001797	48084	8.989032	167.135	395.588	1.197558	0.084320	0.083979	394.708	48084	0.078163	0.198872	1984.74	98511.6
1001	2.000000	1.208292	7.37485e+06	-50189.1	1055.82	-29756.4	0.000000	0.000000	7.228973	484.702	NaN	0.000000	0.001570	0.001776	28.0834	93.5887	0.001805	51847.1	3.120368	-6.855987	480.265	1.207976	0.094713	0.094397	484.702	51847.1	0.087702	0.243458	1990.91	96003.2
1001	2.000000	1.218705	7.37485e+06	-50189.1	1055.82	-29756.4	0.000000	0.000000	7.243238	578.38	NaN	0.000000	0.001647	0.001784	28.0836	104.013	0.001820	57154.2	7.360530	167.526	571.926	1.218407	0.105126	0.104828	578.38	57154.2	0.097537	0.293816	1968.51	96334.9