File: remote_trans/data/nanoindenter/0828-1/data/Data_2025-08-06,11h17m57s/2025-07-22_16-23-58_1_284.txt
2025-07-22, 16:23:58, 1
Index	Phase	Displacement	Time	Pos X	Pos Y	Pos Z	Rot A	Rot B	Piezo Z	Force A	Force B	Gripper	Voltage A	Voltage B	Temperature	Amplitude force	Amplitude pos	Stiffness	Phase shift	Phase excitation	Force A raw	Displacement raw	HMax	HMax raw	Real Force	Real Stiffness	Contact Depth	Area	Hardness	Reduced Mod.
[#]	[#]	[um]	[s]	[um]	[um]	[um]	[m°]	[m°]	[um]	[uN]	[uN]	[V]	[V]	[V]	[°C]	[uN]	[um]	[N/m]	[°]	[°]	[uN]	[um]	[um]	[um]	[uN]	[N/m]	[um]	[um^2]	[MPa]	[MPa]
284	1.000000	0.002669	7.36783e+06	-52839.1	955.818	-29748.4	0.000000	0.000000	6.002814	-0.067673	NaN	0.000000	0.001524	0.001733	28.0809	0.095505	0.001062	89.9188	73.2144	-164.098	-0.070916	0.001388	-1.101415	-1.102696	-0.067673	89.9188	-1.100850	-5.146145E+14	1.315023E-16	NaN
284	1.000000	0.044612	7.36783e+06	-52839.1	955.818	-29748.4	0.000000	0.000000	6.044761	0.049057	NaN	0.000000	0.001589	0.001696	28.0804	0.141979	0.002029	69.9897	48.6885	16.4342	-0.026031	0.043216	-1.059472	-1.060868	0.049057	69.9897	-1.059998	-1.454772E+14	-3.372169E-16	NaN
284	1.000000	0.086586	7.36783e+06	-52839.1	955.818	-29748.4	0.000000	0.000000	6.086733	-0.018672	NaN	0.000000	0.001609	0.001717	28.0808	0.029547	0.001912	15.4566	-55.6771	-165.257	-0.018728	0.085278	-1.017498	-1.018806	-0.018672	15.4566	-1.016592	-3.793932E+13	4.921456E-16	NaN
284	1.000000	0.128642	7.36783e+06	-52839.1	955.818	-29748.4	0.000000	0.000000	6.128787	-0.066606	NaN	0.000000	0.001567	0.001723	28.0808	0.058551	0.001960	29.8675	-97.791	13.2562	-0.051673	0.127257	-0.975442	-0.976827	-0.066606	29.8675	-0.973769	-1.005680E+13	6.622960E-15	NaN
284	1.000000	0.170644	7.36783e+06	-52839.1	955.818	-29748.4	0.000000	0.000000	6.170794	0.053077	NaN	0.000000	0.001601	0.001722	28.0798	0.097586	0.001854	52.6339	-125.679	-169.272	0.094053	0.169304	-0.933440	-0.934780	0.053077	52.6339	-0.934196	-2.943243E+12	-1.803337E-14	NaN
284	1.000000	0.212653	7.36783e+06	-52839.1	955.818	-29748.4	0.000000	0.000000	6.212799	-0.044347	NaN	0.000000	0.001598	0.001742	28.08	0.008154	0.001892	4.310554	66.981	11.7944	0.055241	0.211362	-0.891431	-0.892722	-0.044347	4.310554	-0.883715	-6.122636E+11	7.243103E-14	NaN
284	1.000000	0.254697	7.36783e+06	-52839.1	955.818	-29748.4	0.000000	0.000000	6.254843	-0.029532	NaN	0.000000	0.001685	0.001688	28.0799	0.032002	0.001999	16.0077	83.4202	-166.132	0.067126	0.253439	-0.849387	-0.850644	-0.029532	16.0077	-0.848004	-2.012353E+11	1.467543E-13	NaN
284	1.000000	0.296704	7.36783e+06	-52839.1	955.818	-29748.4	0.000000	0.000000	6.296850	-0.017193	NaN	0.000000	0.001659	0.001707	28.0808	0.074869	0.002047	36.5832	-26.9662	14.5528	0.038971	0.295374	-0.807380	-0.808709	-0.017193	36.5832	-0.807028	-5.600692E+10	3.069857E-13	NaN
284	1.000000	0.338747	7.36783e+06	-52839.1	955.818	-29748.4	0.000000	0.000000	6.338891	-0.086571	NaN	0.000000	0.001553	0.001696	28.0808	0.028975	0.002041	14.1971	100.223	-163.987	-0.095739	0.337397	-0.765337	-0.766687	-0.086571	14.1971	-0.760763	-1.317304E+10	6.571796E-12	NaN
284	1.000000	0.380706	7.36783e+06	-52839.1	955.818	-29748.4	0.000000	0.000000	6.380852	-0.032069	NaN	0.000000	0.001582	0.001715	28.0809	0.088499	0.001973	44.8578	-85.4624	13.6503	-0.133612	0.379365	-0.723378	-0.724719	-0.032069	44.8578	-0.722842	-4.010794E+9	7.995712E-12	NaN
284	1.000000	0.422754	7.36783e+06	-52839.1	955.818	-29748.4	0.000000	0.000000	6.422899	-0.039905	NaN	0.000000	0.001631	0.001684	28.0795	0.080022	0.002019	39.6371	118.415	-166.093	-0.019088	0.421476	-0.681330	-0.682608	-0.039905	39.6371	-0.680575	-1.061874E+9	3.757975E-11	NaN
284	1.000000	0.464767	7.36783e+06	-52839.1	955.818	-29748.4	0.000000	0.000000	6.464914	-0.005976	NaN	0.000000	0.001606	0.001758	28.0794	0.042257	0.001984	21.2978	-62.8209	15.0022	-0.014493	0.463431	-0.639317	-0.640653	-0.005976	21.2978	-0.639106	-2.870949E+8	2.081487E-11	NaN
284	1.000000	0.506844	7.36783e+06	-52839.1	955.819	-29748.4	0.000000	0.000000	6.506990	-0.042804	NaN	0.000000	0.001603	0.001722	28.0792	0.047945	0.002076	23.0915	91.6358	-163.888	-0.018613	0.505468	-0.597240	-0.598616	-0.042804	23.0915	-0.595849	-7.299350E+7	5.864133E-10	NaN
284	1.000000	0.548824	7.36784e+06	-52839.1	955.818	-29748.4	0.000000	0.000000	6.548971	-0.008233	NaN	0.000000	0.001630	0.001730	28.0807	0.106015	0.001905	55.6577	-34.0982	10.4008	0.022266	0.547477	-0.555260	-0.556607	-0.008233	55.6577	-0.555149	-2.001006E+7	4.114248E-10	NaN
284	1.000000	0.590842	7.36784e+06	-52839.1	955.819	-29748.4	0.000000	0.000000	6.590988	-0.031550	NaN	0.000000	0.001571	0.001776	28.081	0.074465	0.002068	36.0129	152.884	-168.234	-0.013146	0.589460	-0.513242	-0.514624	-0.031550	36.0129	-0.512585	-5.13349e+06	6.145981E-9	NaN
284	1.000000	0.632843	7.36784e+06	-52839.1	955.818	-29748.4	0.000000	0.000000	6.632990	-0.014324	NaN	0.000000	0.001623	0.001735	28.0813	0.134606	0.001952	68.9548	-127.192	11.7563	-0.006251	0.631472	-0.471241	-0.472612	-0.014324	68.9548	-0.471085	-1.35091e+06	1.060296E-8	NaN
284	1.000000	0.674840	7.36784e+06	-52839.1	955.818	-29748.4	0.000000	0.000000	6.674987	-0.011888	NaN	0.000000	0.001598	0.001723	28.0808	0.012271	0.001958	6.267514	-118.475	-166.938	0.033739	0.673561	-0.429244	-0.430523	-0.011888	6.267514	-0.427821	-332072	3.579836E-8	NaN
284	1.000000	0.716894	7.36784e+06	-52839.1	955.817	-29748.4	0.000000	0.000000	6.717039	-0.069943	NaN	0.000000	0.001622	0.001718	28.0797	0.050993	0.001987	25.6666	98.3518	15.3537	-0.063515	0.715529	-0.387189	-0.388555	-0.069943	25.6666	-0.385146	-81973.5	8.532381E-7	NaN
284	1.000000	0.758930	7.36784e+06	-52839.1	955.818	-29748.4	0.000000	0.000000	6.759075	-0.059081	NaN	0.000000	0.001629	0.001720	28.0796	0.038720	0.001892	20.4633	32.9916	-162.063	-0.100595	0.757587	-0.345154	-0.346496	-0.059081	20.4633	-0.342989	-20187.8	2.926578E-6	NaN
284	1.000000	0.800899	7.36784e+06	-52839.1	955.818	-29748.4	0.000000	0.000000	6.801043	-0.097666	NaN	0.000000	0.001607	0.001748	28.0795	0.064392	0.002010	32.0405	33.0714	14.9874	-0.092983	0.799561	-0.303185	-0.304523	-0.097666	32.0405	-0.300898	-4852.95	2.012510E-5	NaN
284	1.000000	0.842930	7.36784e+06	-52839.1	955.819	-29748.4	0.000000	0.000000	6.843072	-0.111214	NaN	0.000000	0.001619	0.001708	28.081	0.125202	0.002039	61.4108	-123.746	-165.651	-0.117438	0.841635	-0.261154	-0.262449	-0.111214	61.4108	-0.259796	-1163.57	9.557988E-5	NaN
284	1.000000	0.884969	7.36784e+06	-52839.1	955.818	-29748.4	0.000000	0.000000	6.885113	-0.076290	NaN	0.000000	0.001581	0.001758	28.081	0.013362	0.002095	6.378406	-122.949	15.9722	-0.008013	0.883592	-0.219115	-0.220492	-0.076290	6.378406	-0.210144	-192.821	0.000396	NaN
284	1.000000	0.926953	7.36784e+06	-52839.1	955.819	-29748.4	0.000000	0.000000	6.927100	-0.030019	NaN	0.000000	0.001600	0.001798	28.0808	0.135049	0.001962	68.839	89.6144	-168.384	-0.055707	0.925685	-0.177130	-0.178399	-0.030019	68.839	-0.176803	-53.8161	0.000558	NaN
284	1.000000	0.968960	7.36784e+06	-52839.1	955.819	-29748.4	0.000000	0.000000	6.969104	-0.064573	NaN	0.000000	0.001606	0.001725	28.0797	0.127994	0.002020	63.3582	-38.1328	15.1834	-0.083899	0.967575	-0.135124	-0.136509	-0.064573	63.3582	-0.134360	-9.248188	0.006982	NaN
284	1.000000	1.011008	7.36784e+06	-52839.1	955.819	-29748.4	0.000000	0.000000	7.011156	0.024266	NaN	0.000000	0.001557	0.001663	28.0794	0.059422	0.001958	30.3468	-92.596	-165.656	-0.046267	1.009684	-0.093076	-0.094400	0.024266	30.3468	-0.093676	-1.315607	-0.018445	NaN
284	1.000000	1.053038	7.36784e+06	-52839.1	955.82	-29748.4	0.000000	0.000000	7.053182	-0.071332	NaN	0.000000	0.001585	0.001698	28.0795	0.077419	0.001897	40.8015	103.069	11.9592	-0.050704	1.051702	-0.051046	-0.052381	-0.071332	40.8015	-0.049735	-0.089581	0.796283	NaN
284	1.000000	1.095008	7.36784e+06	-52839.1	955.82	-29748.4	0.000000	0.000000	7.095158	0.048351	NaN	0.000000	0.001601	0.001739	28.0812	0.048268	0.001996	24.1791	9.505138	-168.403	0.003380	1.093726	-0.009076	-0.010358	0.048351	24.1791	-0.010576	-0.006716	-7.199346	NaN
284	2.000000	1.119154	7.36784e+06	-52839.1	955.82	-29748.4	0.000000	0.000000	7.119863	13.6562	NaN	0.000000	0.001610	0.001767	28.0818	13.4904	0.001808	7461.93	3.132854	8.952350	13.1034	1.118868	0.015070	0.014784	13.6562	7461.93	0.013698	0.013588	1005.05	58486
284	2.000000	1.129644	7.36784e+06	-52839.1	955.82	-29748.4	0.000000	0.000000	7.131128	32.4946	NaN	0.000000	0.001613	0.001731	28.0814	23.3756	0.001619	14437.2	2.835308	-177.788	34.0098	1.129377	0.025560	0.025294	32.4946	14437.2	0.023872	0.028996	1120.68	77462
284	2.000000	1.140005	7.36784e+06	-52839.1	955.821	-29748.4	0.000000	0.000000	7.142788	64.07	NaN	0.000000	0.001647	0.001785	28.0812	34.3719	0.001832	18762.6	5.131388	-1.494841	60.9509	1.139760	0.035921	0.035677	64.07	18762.6	0.033360	0.047997	1334.89	78245.9
284	2.000000	1.150565	7.36784e+06	-52839.1	955.82	-29748.4	0.000000	0.000000	7.155076	106.092	NaN	0.000000	0.001635	0.001757	28.0803	43.8722	0.001836	23897.1	3.000502	178.95	105.432	1.150221	0.046481	0.046137	106.092	23897.1	0.043152	0.072427	1464.82	81127.7
284	2.000000	1.161066	7.36784e+06	-52839.1	955.821	-29748.4	0.000000	0.000000	7.167974	164.382	NaN	0.000000	0.001617	0.001727	28.0799	54.9375	0.001747	31440	8.894211	-8.658083	163.938	1.160609	0.056982	0.056525	164.382	31440	0.053061	0.102108	1609.88	89892.9
284	2.000000	1.171525	7.36784e+06	-52839.1	955.82	-29748.4	0.000000	0.000000	7.181088	228.92	NaN	0.000000	0.001611	0.001728	28.0797	65.6799	0.001864	35243.8	6.049390	173.097	229.096	1.171230	0.067441	0.067146	228.92	35243.8	0.062570	0.135184	1693.4	87577.8
284	2.000000	1.181980	7.36784e+06	-52839.1	955.82	-29748.4	0.000000	0.000000	7.194172	292.85	NaN	0.000000	0.001662	0.001743	28.081	75.377	0.001791	42089.7	3.339349	-6.138863	288.947	1.181618	0.077896	0.077534	292.85	42089.7	0.072677	0.175149	1672	91885
284	2.000000	1.192425	7.36784e+06	-52839.1	955.819	-29748.4	0.000000	0.000000	7.207179	355.146	NaN	0.000000	0.001634	0.001726	28.0815	86.2091	0.001828	47164.2	4.113930	172.313	351.904	1.192243	0.088341	0.088159	355.146	47164.2	0.082693	0.219520	1617.83	91970.5
284	2.000000	1.202900	7.36784e+06	-52839.1	955.82	-29748.4	0.000000	0.000000	7.220904	434.171	NaN	0.000000	0.001653	0.001730	28.0812	94.7183	0.001882	50324.4	3.157342	-7.013327	426.483	1.202643	0.098816	0.098559	434.171	50324.4	0.092345	0.266684	1628.04	89033.5
284	2.000000	1.211506	7.36784e+06	-52839.1	955.821	-29748.4	0.000000	0.000000	7.232434	505.25	NaN	0.000000	0.001613	0.001743	28.0802	101.27	0.001779	56933.8	2.239040	173.342	503.243	1.211178	0.107422	0.107094	505.25	56933.8	0.100766	0.311313	1622.96	93227.6