File: remote_trans/data/nanoindenter/0828-1/data/Data_2025-08-06,11h17m57s/2025-07-22_16-23-58_1_444.txt
2025-07-22, 16:23:58, 1
Index	Phase	Displacement	Time	Pos X	Pos Y	Pos Z	Rot A	Rot B	Piezo Z	Force A	Force B	Gripper	Voltage A	Voltage B	Temperature	Amplitude force	Amplitude pos	Stiffness	Phase shift	Phase excitation	Force A raw	Displacement raw	HMax	HMax raw	Real Force	Real Stiffness	Contact Depth	Area	Hardness	Reduced Mod.
[#]	[#]	[um]	[s]	[um]	[um]	[um]	[m°]	[m°]	[um]	[uN]	[uN]	[V]	[V]	[V]	[°C]	[uN]	[um]	[N/m]	[°]	[°]	[uN]	[um]	[um]	[um]	[uN]	[N/m]	[um]	[um^2]	[MPa]	[MPa]
444	1.000000	0.002996	7.3694e+06	-54889.1	1005.82	-29742.7	0.000000	0.000000	6.002808	-0.028096	NaN	0.000000	0.001681	0.001626	28.0802	0.146061	0.001066	137.071	-133.409	-160.238	0.114630	0.001721	-1.074768	-1.076044	-0.028096	137.071	-1.074614	-2.286531E+14	1.228755E-16	NaN
444	1.000000	0.042963	7.3694e+06	-54889.1	1005.82	-29742.7	0.000000	0.000000	6.042775	-0.013969	NaN	0.000000	0.001707	0.001672	28.081	0.049016	0.001986	24.6818	-62.1352	-166.72	0.026871	0.041647	-1.034802	-1.036117	-0.013969	24.6818	-1.034377	-6.581918E+13	2.122293E-16	NaN
444	1.000000	0.082937	7.3694e+06	-54889.1	1005.82	-29742.7	0.000000	0.000000	6.082749	-0.000511	NaN	0.000000	0.001645	0.001658	28.0812	0.059751	0.002041	29.2775	150.358	-167.083	-0.010370	0.081646	-0.994828	-0.996119	-0.000511	29.2775	-0.994815	-1.931753E+13	2.646647E-17	NaN
444	1.000000	0.122979	7.3694e+06	-54889.1	1005.82	-29742.7	0.000000	0.000000	6.122792	0.000860	NaN	0.000000	0.001659	0.001638	28.0813	0.064445	0.001997	32.2643	19.9607	-168.401	-0.108807	0.121656	-0.954786	-0.956108	0.000860	32.2643	-0.954806	-5.582553E+12	-1.540382E-16	NaN
444	1.000000	0.162996	7.3694e+06	-54889.1	1005.82	-29742.7	0.000000	0.000000	6.162806	-0.072201	NaN	0.000000	0.001629	0.001622	28.0814	0.036580	0.002059	17.7652	25.7734	-166.862	0.051799	0.161684	-0.914769	-0.916080	-0.072201	17.7652	-0.911721	-1.463532E+12	4.933353E-14	NaN
444	1.000000	0.203000	7.3694e+06	-54889.1	1005.82	-29742.8	0.000000	0.000000	6.202811	-0.049211	NaN	0.000000	0.001606	0.001606	28.08	0.094958	0.001996	47.5634	-76.4276	-164.19	-0.049568	0.201700	-0.874764	-0.876065	-0.049211	47.5634	-0.873988	-4.522696E+11	1.088091E-13	NaN
444	1.000000	0.243016	7.3694e+06	-54889.1	1005.82	-29742.8	0.000000	0.000000	6.242827	-0.054481	NaN	0.000000	0.001646	0.001645	28.0799	0.036322	0.002035	17.8453	57.2137	-165.649	-0.018766	0.241723	-0.834748	-0.836042	-0.054481	17.8453	-0.832458	-1.239086E+11	4.396848E-13	NaN
444	1.000000	0.283036	7.3694e+06	-54889.1	1005.82	-29742.8	0.000000	0.000000	6.282846	-0.059872	NaN	0.000000	0.001607	0.001619	28.08	0.129322	0.002018	64.079	-45.9613	-167.3	-0.056946	0.281766	-0.794729	-0.795998	-0.059872	64.079	-0.794028	-3.730650E+10	1.604859E-12	NaN
444	1.000000	0.323042	7.3694e+06	-54889.1	1005.82	-29742.8	0.000000	0.000000	6.322854	-0.031369	NaN	0.000000	0.001614	0.001668	28.0812	0.106412	0.002106	50.538	-146.029	-168.408	-0.082924	0.321790	-0.754722	-0.755974	-0.031369	50.538	-0.754257	-1.074378E+10	2.919752E-12	NaN
444	1.000000	0.363059	7.3694e+06	-54889.1	1005.82	-29742.8	0.000000	0.000000	6.362871	-0.006119	NaN	0.000000	0.001585	0.001593	28.081	0.016327	0.001992	8.195122	-106.686	-167.103	-0.083675	0.361734	-0.714706	-0.716030	-0.006119	8.195122	-0.714146	-3.052218E+9	2.004703E-12	NaN
444	1.000000	0.403105	7.3694e+06	-54889.1	1005.82	-29742.8	0.000000	0.000000	6.402918	-0.005110	NaN	0.000000	0.001598	0.001610	28.081	0.055957	0.001878	29.79	33.8689	-165.544	-0.064897	0.401754	-0.674659	-0.676011	-0.005110	29.79	-0.674530	-8.777773E+8	5.821508E-12	NaN
444	1.000000	0.443060	7.3694e+06	-54889.1	1005.82	-29742.8	0.000000	0.000000	6.442874	0.013745	NaN	0.000000	0.001600	0.001638	28.0812	0.026443	0.001992	13.2722	127.31	-171.107	0.009331	0.441798	-0.634704	-0.635966	0.013745	13.2722	-0.635481	-2.560182E+8	-5.368720E-11	NaN
444	1.000000	0.483125	7.3694e+06	-54889.1	1005.82	-29742.8	0.000000	0.000000	6.482938	-0.000326	NaN	0.000000	0.001606	0.001617	28.0807	0.085323	0.002043	41.7697	110.354	-162.464	-0.079808	0.481838	-0.594640	-0.595926	-0.000326	41.7697	-0.594634	-7.023188E+7	4.644220E-12	NaN
444	1.000000	0.523131	7.3694e+06	-54889.1	1005.82	-29742.8	0.000000	0.000000	6.522943	-0.018878	NaN	0.000000	0.001716	0.001629	28.0801	0.131173	0.001972	66.5123	-89.0633	-166.285	-0.119805	0.521857	-0.554634	-0.555908	-0.018878	66.5123	-0.554421	-1.955118E+7	9.655763E-10	NaN
444	1.000000	0.563159	7.3694e+06	-54889.1	1005.82	-29742.8	0.000000	0.000000	6.562970	-0.025801	NaN	0.000000	0.001703	0.001601	28.08	0.010414	0.001972	5.280035	162.863	-167.38	-0.003289	0.561863	-0.514606	-0.515902	-0.025801	5.280035	-0.510941	-4.86992e+06	5.298001E-9	NaN
444	1.000000	0.603177	7.3694e+06	-54889.1	1005.82	-29742.8	0.000000	0.000000	6.602987	-0.061573	NaN	0.000000	0.001745	0.001601	28.0813	0.102132	0.001941	52.6191	-129.501	-163.679	0.008907	0.601867	-0.474587	-0.475897	-0.061573	52.6191	-0.473710	-1.47034e+06	4.187647E-8	NaN
444	1.000000	0.643177	7.3694e+06	-54889.1	1005.82	-29742.8	0.000000	0.000000	6.642989	-0.040659	NaN	0.000000	0.001701	0.001577	28.0813	0.039037	0.001768	22.0847	85.4236	-165.262	-0.027128	0.641846	-0.434587	-0.435919	-0.040659	22.0847	-0.433206	-395732	1.027439E-7	NaN
444	1.000000	0.683185	7.3694e+06	-54889.1	1005.82	-29742.8	0.000000	0.000000	6.682993	-0.113221	NaN	0.000000	0.001629	0.001586	28.0812	0.041713	0.001870	22.3026	-12.9758	-164.467	0.051090	0.681892	-0.394580	-0.395873	-0.113221	22.3026	-0.390772	-98675.9	1.147399E-6	NaN
444	1.000000	0.723236	7.3694e+06	-54889.1	1005.82	-29742.8	0.000000	0.000000	6.723048	-0.020713	NaN	0.000000	0.001645	0.001608	28.0815	0.101533	0.002081	48.8014	-50.0879	-165.888	-0.027372	0.721910	-0.354528	-0.355854	-0.020713	48.8014	-0.354210	-29379.8	7.049937E-7	NaN
444	1.000000	0.763233	7.3694e+06	-54889.1	1005.82	-29742.8	0.000000	0.000000	6.763040	-0.132748	NaN	0.000000	0.001643	0.001658	28.0802	0.057674	0.002025	28.4768	-1.234428	-166.622	-0.148948	0.761867	-0.314532	-0.315897	-0.132748	28.4768	-0.311036	-6860.85	1.934855E-5	NaN
444	1.000000	0.803231	7.3694e+06	-54889.1	1005.82	-29742.8	0.000000	0.000000	6.803044	-0.014132	NaN	0.000000	0.001652	0.001672	28.0803	0.078612	0.002054	38.2743	15.38	-164.331	0.000603	0.801956	-0.274533	-0.275808	-0.014132	38.2743	-0.274256	-1932.56	7.312419E-6	NaN
444	1.000000	0.843270	7.36941e+06	-54889.1	1005.82	-29742.8	0.000000	0.000000	6.843081	-0.049819	NaN	0.000000	0.001676	0.001696	28.0802	0.033363	0.001968	16.9537	157.879	-166.959	-0.045716	0.841933	-0.234494	-0.235832	-0.049819	16.9537	-0.232290	-435.145	0.000114	NaN
444	1.000000	0.883261	7.36941e+06	-54889.1	1005.82	-29742.8	0.000000	0.000000	6.883072	-0.029819	NaN	0.000000	0.001654	0.001659	28.0817	0.051178	0.002040	25.087	-91.0328	-167.188	-0.101137	0.881936	-0.194504	-0.195828	-0.029819	25.087	-0.193612	-103.32	0.000289	NaN
444	1.000000	0.923288	7.36941e+06	-54889.1	1005.82	-29742.8	0.000000	0.000000	6.923097	-0.111259	NaN	0.000000	0.001645	0.001701	28.0817	0.104024	0.001883	55.2429	122.385	-162.352	-0.118485	0.921966	-0.154476	-0.155798	-0.111259	55.2429	-0.152966	-20.5056	0.005426	NaN
444	1.000000	0.963340	7.36941e+06	-54889.1	1005.82	-29742.8	0.000000	0.000000	6.963153	0.015738	NaN	0.000000	0.001622	0.001701	28.0814	0.040025	0.001922	20.8217	103.536	-166.397	-0.066150	0.961972	-0.114425	-0.115792	0.015738	20.8217	-0.114991	-3.818825	-0.004121	NaN
444	1.000000	1.003339	7.36941e+06	-54889.1	1005.82	-29742.8	0.000000	0.000000	7.003150	-0.023231	NaN	0.000000	0.001652	0.001674	28.0802	0.086843	0.002021	42.9654	-83.1251	-166.177	-0.022380	1.002024	-0.074426	-0.075740	-0.023231	42.9654	-0.074020	-0.435602	0.053330	NaN
444	1.000000	1.043342	7.36941e+06	-54889.1	1005.82	-29742.8	0.000000	0.000000	7.043155	0.021394	NaN	0.000000	0.001648	0.001712	28.08	0.116289	0.002067	56.2513	54.2997	-165.026	-0.065042	1.042001	-0.034423	-0.035763	0.021394	56.2513	-0.034708	-0.031397	-0.681390	NaN
444	1.000000	1.083338	7.36941e+06	-54889.1	1005.82	-29742.8	0.000000	0.000000	7.083266	2.796479	NaN	0.000000	0.001640	0.001684	28.0801	3.658575	0.001633	2240.42	12.622	-169.9	1.781440	1.082040	0.005574	0.004275	2.796479	2240.42	0.004638	0.003805	734.948	33183.7
444	2.000000	1.097876	7.36941e+06	-54889.1	1005.82	-29742.8	0.000000	0.000000	7.098680	24.0827	NaN	0.000000	0.001659	0.001677	28.0801	19.0454	0.001727	11025.2	4.057008	-174.3	22.4903	1.097569	0.020112	0.019805	24.0827	11025.2	0.018474	0.020200	1192.19	70873.1
444	2.000000	1.107846	7.36941e+06	-54889.1	1005.82	-29742.8	0.000000	0.000000	7.109692	49.4397	NaN	0.000000	0.001657	0.001703	28.0816	30.6615	0.001845	16618	6.367687	178.557	47.656	1.107531	0.030081	0.029766	49.4397	16618	0.027850	0.036406	1358.02	79573.3
444	2.000000	1.117831	7.36941e+06	-54889.1	1005.82	-29742.8	0.000000	0.000000	7.121265	88.0192	NaN	0.000000	0.001678	0.001665	28.0816	41.8044	0.001810	23101.9	5.560390	175.983	86.6423	1.117557	0.040067	0.039793	88.0192	23101.9	0.037209	0.057015	1543.78	88394.3
444	2.000000	1.127773	7.36941e+06	-54889.1	1005.82	-29742.8	0.000000	0.000000	7.133111	134.319	NaN	0.000000	0.001661	0.001724	28.0816	50.6538	0.001794	28234.1	4.972681	175.215	130.797	1.127483	0.050009	0.049719	134.319	28234.1	0.046441	0.081731	1643.44	90231
444	2.000000	1.137726	7.36941e+06	-54889.1	1005.82	-29742.8	0.000000	0.000000	7.145523	194.089	NaN	0.000000	0.001694	0.001729	28.0803	59.7891	0.001806	33112.1	2.270392	176.814	188.458	1.137387	0.059961	0.059622	194.089	33112.1	0.055565	0.110388	1758.24	91054
444	2.000000	1.147750	7.36941e+06	-54889.1	1005.82	-29742.8	0.000000	0.000000	7.158787	272.874	NaN	0.000000	0.001633	0.001667	28.0806	69.7597	0.001733	40250.1	3.784023	174.358	268.737	1.147408	0.069985	0.069643	272.874	40250.1	0.064901	0.143965	1895.41	96919.5
444	2.000000	1.157736	7.36941e+06	-54889.1	1005.82	-29742.8	0.000000	0.000000	7.172077	353.172	NaN	0.000000	0.001622	0.001664	28.0804	81.6186	0.001836	44464.6	5.449132	170.903	348.749	1.157456	0.079971	0.079692	353.172	44464.6	0.074014	0.180800	1953.38	95540.7
444	2.000000	1.167672	7.36941e+06	-54889.1	1005.82	-29742.8	0.000000	0.000000	7.186108	452.72	NaN	0.000000	0.001609	0.001660	28.0802	89.539	0.001857	48219.8	1.635750	174.882	446.726	1.167406	0.089907	0.089641	452.72	48219.8	0.082866	0.220326	2054.77	93856.7
444	2.000000	1.177751	7.36941e+06	-54889.1	1005.82	-29742.8	0.000000	0.000000	7.200424	555.735	NaN	0.000000	0.001659	0.001716	28.081	100.62	0.001824	55160.9	5.508150	169.917	554.144	1.177445	0.099987	0.099681	555.735	55160.9	0.092431	0.267119	2080.48	97510.8
444	2.000000	1.187762	7.36941e+06	-54889.1	1005.82	-29742.8	0.000000	0.000000	7.214978	666.164	NaN	0.000000	0.001641	0.001640	28.0813	109.498	0.001723	63562.2	1.783136	172.634	664.215	1.187538	0.109997	0.109774	666.164	63562.2	0.102137	0.318884	2089.05	102839
444	2.000000	1.188141	7.36941e+06	-54889.1	1005.82	-29742.8	0.000000	0.000000	7.215755	675.852	NaN	0.000000	0.001633	0.001639	28.0812	109.548	0.001741	62917.4	3.336450	-8.797564	667.105	1.187872	0.110376	0.110108	675.852	62917.4	0.102320	0.319900	2112.7	101633