File: remote_trans/data/nanoindenter/0828-1/data/Data_2025-08-06,11h17m57s/2025-07-22_16-23-58_1_1039.txt
2025-07-22, 16:23:58, 1
Index	Phase	Displacement	Time	Pos X	Pos Y	Pos Z	Rot A	Rot B	Piezo Z	Force A	Force B	Gripper	Voltage A	Voltage B	Temperature	Amplitude force	Amplitude pos	Stiffness	Phase shift	Phase excitation	Force A raw	Displacement raw	HMax	HMax raw	Real Force	Real Stiffness	Contact Depth	Area	Hardness	Reduced Mod.
[#]	[#]	[um]	[s]	[um]	[um]	[um]	[m°]	[m°]	[um]	[uN]	[uN]	[V]	[V]	[V]	[°C]	[uN]	[um]	[N/m]	[°]	[°]	[uN]	[um]	[um]	[um]	[uN]	[N/m]	[um]	[um^2]	[MPa]	[MPa]
1039	1.000000	0.002724	7.37521e+06	-52089.1	1055.82	-29750.1	0.000000	0.000000	6.002814	-0.037604	NaN	0.000000	0.001513	0.001734	28.0829	0.049861	0.000981	50.8181	-157.68	-165.792	0.051771	0.001436	-0.811184	-0.812472	-0.037604	50.8181	-0.810629	-6.267662E+10	5.999739E-13	NaN
1039	1.000000	0.036678	7.37521e+06	-52089.1	1055.82	-29750.1	0.000000	0.000000	6.036771	0.043356	NaN	0.000000	0.001645	0.001750	28.0822	0.075085	0.001938	38.7407	-171.276	14.4877	0.026727	0.035289	-0.777230	-0.778619	0.043356	38.7407	-0.778069	-2.264629E+10	-1.914497E-12	NaN
1039	1.000000	0.070659	7.37521e+06	-52089.1	1055.82	-29750.1	0.000000	0.000000	6.070752	0.032540	NaN	0.000000	0.001668	0.001694	28.0826	0.126239	0.001967	64.1928	116.411	-165.041	-0.044407	0.069377	-0.743249	-0.744531	0.032540	64.1928	-0.743629	-7.699823E+9	-4.226115E-12	NaN
1039	1.000000	0.104694	7.37521e+06	-52089.1	1055.82	-29750.1	0.000000	0.000000	6.104783	-0.066989	NaN	0.000000	0.001605	0.001735	28.0824	0.102608	0.002032	50.5065	-86.2284	17.4631	-0.029862	0.103303	-0.709215	-0.710605	-0.066989	50.5065	-0.708220	-2.533682E+9	2.643943E-11	NaN
1039	1.000000	0.138693	7.37521e+06	-52089.1	1055.82	-29750.1	0.000000	0.000000	6.138784	-0.011427	NaN	0.000000	0.001654	0.001731	28.0836	0.044804	0.002059	21.7612	-166.98	-164.559	0.021386	0.137388	-0.675215	-0.676520	-0.011427	21.7612	-0.674822	-8.858700E+8	1.289926E-11	NaN
1039	1.000000	0.172726	7.37521e+06	-52089.1	1055.82	-29750.1	0.000000	0.000000	6.172824	0.140112	NaN	0.000000	0.001636	0.001703	28.0835	0.057355	0.002074	27.6549	-133.505	12.4084	-0.007986	0.171374	-0.641182	-0.642534	0.140112	27.6549	-0.644982	-3.456418E+8	-4.053684E-10	NaN
1039	1.000000	0.206706	7.37521e+06	-52089.1	1055.82	-29750.1	0.000000	0.000000	6.206796	-0.052145	NaN	0.000000	0.001637	0.001726	28.0838	0.054127	0.002008	26.9546	103.795	-170.209	-0.096035	0.205468	-0.607202	-0.608441	-0.052145	26.9546	-0.605751	-9.991750E+7	5.218845E-10	NaN
1039	1.000000	0.240702	7.37521e+06	-52089.1	1055.82	-29750.1	0.000000	0.000000	6.240794	0.012240	NaN	0.000000	0.001638	0.001735	28.0834	0.060643	0.001956	31.0071	171.361	13.5986	-0.033664	0.239353	-0.573206	-0.574555	0.012240	31.0071	-0.573502	-3.589360E+7	-3.410062E-10	NaN
1039	1.000000	0.274733	7.37521e+06	-52089.1	1055.82	-29750.1	0.000000	0.000000	6.274822	-0.059193	NaN	0.000000	0.001671	0.001715	28.0826	0.079679	0.002013	39.5733	94.8141	-165.802	-0.070680	0.273443	-0.539175	-0.540465	-0.059193	39.5733	-0.538053	-1.159726E+7	5.104049E-9	NaN
1039	1.000000	0.308763	7.37521e+06	-52089.1	1055.82	-29750.1	0.000000	0.000000	6.308854	-0.011897	NaN	0.000000	0.001623	0.001708	28.0825	0.087819	0.002031	43.2422	-31.1873	15.1028	-0.060194	0.307448	-0.505145	-0.506460	-0.011897	43.2422	-0.504939	-4.01689e+06	2.961721E-9	NaN
1039	1.000000	0.342763	7.37521e+06	-52089.1	1055.82	-29750.1	0.000000	0.000000	6.342853	-0.026537	NaN	0.000000	0.001677	0.001659	28.0822	0.081083	0.002152	37.6752	156.982	-166.761	-0.019466	0.341509	-0.471145	-0.472399	-0.026537	37.6752	-0.470617	-1.33064e+06	1.994285E-8	NaN
1039	1.000000	0.376781	7.37521e+06	-52089.1	1055.82	-29750.1	0.000000	0.000000	6.376873	0.004717	NaN	0.000000	0.001644	0.001677	28.0822	0.046064	0.002066	22.2925	81.309	14.7238	0.013957	0.375478	-0.437127	-0.438431	0.004717	22.2925	-0.437286	-451906	-1.043825E-8	NaN
1039	1.000000	0.410817	7.37521e+06	-52089.1	1055.82	-29750.1	0.000000	0.000000	6.410909	-0.008535	NaN	0.000000	0.001715	0.001681	28.0836	0.082225	0.001953	42.0967	-131.895	-166.874	-0.005027	0.409477	-0.403091	-0.404431	-0.008535	42.0967	-0.402939	-147193	5.798589E-8	NaN
1039	1.000000	0.444804	7.37521e+06	-52089.1	1055.82	-29750.1	0.000000	0.000000	6.444896	0.014953	NaN	0.000000	0.001638	0.001675	28.0836	0.028613	0.002022	14.1482	66.779	13.0682	0.008087	0.443468	-0.369104	-0.370441	0.014953	14.1482	-0.369897	-49504.2	-3.020634E-7	NaN
1039	1.000000	0.478847	7.37521e+06	-52089.1	1055.82	-29750.1	0.000000	0.000000	6.478939	-0.007773	NaN	0.000000	0.001649	0.001604	28.0836	0.062242	0.002121	29.3512	-5.673579	-167.539	-0.015475	0.477535	-0.335061	-0.336373	-0.007773	29.3512	-0.334862	-15366.5	5.058719E-7	NaN
1039	1.000000	0.512872	7.37521e+06	-52089.1	1055.82	-29750.1	0.000000	0.000000	6.512965	0.018929	NaN	0.000000	0.001593	0.001635	28.0838	0.099513	0.001867	53.3126	56.5966	11.5264	0.032271	0.511472	-0.301036	-0.302437	0.018929	53.3126	-0.301302	-4920.57	-3.846964E-6	NaN
1039	1.000000	0.546849	7.37521e+06	-52089.1	1055.82	-29750.1	0.000000	0.000000	6.546939	-0.022293	NaN	0.000000	0.001674	0.001659	28.0826	0.055379	0.001965	28.1875	-130.212	-165.432	-0.053548	0.545500	-0.267060	-0.268408	-0.022293	28.1875	-0.266466	-1471.48	1.515007E-5	NaN
1039	1.000000	0.580888	7.37521e+06	-52089.1	1055.82	-29750.1	0.000000	0.000000	6.580983	0.069256	NaN	0.000000	0.001641	0.001646	28.083	0.037903	0.002046	18.5287	-41.908	15.2774	-0.005255	0.579503	-0.233020	-0.234406	0.069256	18.5287	-0.235823	-494.504	-0.000140	NaN
1039	1.000000	0.614906	7.37521e+06	-52089.1	1055.82	-29750.1	0.000000	0.000000	6.614997	-0.024982	NaN	0.000000	0.001680	0.001648	28.0825	0.022711	0.001955	11.6163	-7.935305	-164.258	-0.031664	0.613602	-0.199002	-0.200306	-0.024982	11.6163	-0.197389	-119.318	0.000209	NaN
1039	1.000000	0.648921	7.37521e+06	-52089.1	1055.82	-29750.1	0.000000	0.000000	6.649008	-0.104797	NaN	0.000000	0.001619	0.001651	28.0825	0.122705	0.001956	62.735	107.365	13.0331	-0.100730	0.647522	-0.164988	-0.166386	-0.104797	62.735	-0.163735	-31.9193	0.003283	NaN
1039	1.000000	0.682927	7.37521e+06	-52089.1	1055.82	-29750.1	0.000000	0.000000	6.683013	-0.143338	NaN	0.000000	0.001623	0.001671	28.0838	0.061951	0.001960	31.6071	-100.564	-165.948	-0.104766	0.681633	-0.130981	-0.132275	-0.143338	31.6071	-0.127580	-6.835782	0.020969	NaN
1039	1.000000	0.716938	7.37521e+06	-52089.1	1055.82	-29750.1	0.000000	0.000000	6.717029	-0.019694	NaN	0.000000	0.001623	0.001701	28.0836	0.082591	0.001983	41.6458	77.103	13.4306	-0.040772	0.715527	-0.096970	-0.098381	-0.019694	41.6458	-0.096615	-1.534816	0.012832	NaN
1039	1.000000	0.750948	7.37521e+06	-52089.1	1055.82	-29750.1	0.000000	0.000000	6.751101	1.496564	NaN	0.000000	0.001614	0.001670	28.084	0.593735	0.001975	300.633	3.949297	-171.042	1.459402	0.749668	-0.062960	-0.064241	1.496564	300.633	-0.066693	-0.277510	-5.392819	NaN
1039	1.000000	0.784974	7.37521e+06	-52089.1	1055.82	-29750.1	0.000000	0.000000	6.785157	2.232357	NaN	0.000000	0.001644	0.001690	28.0838	1.056605	0.001941	544.472	14.5258	15.7429	2.093725	0.783572	-0.028934	-0.030336	2.232357	544.472	-0.032009	-0.026222	-85.1317	NaN
1039	1.000000	0.818991	7.37521e+06	-52089.1	1055.82	-29750.1	0.000000	0.000000	6.819261	4.334642	NaN	0.000000	0.001684	0.001699	28.0826	2.215493	0.002064	1073.49	16.1763	-168.455	4.440710	0.817671	0.005083	0.003763	4.334642	1073.49	0.002054	0.001599	2711.29	24529.1
1039	2.000000	0.847143	7.37521e+06	-52089.1	1055.82	-29750.1	0.000000	0.000000	6.847532	7.223316	NaN	0.000000	0.001679	0.001655	28.0826	3.477743	0.001862	1867.79	3.145295	13.7781	6.923149	0.846817	0.033235	0.032909	7.223316	1867.79	0.030335	0.041440	174.308	8382.85
1039	2.000000	0.855607	7.37521e+06	-52089.1	1055.82	-29750.1	0.000000	0.000000	6.856153	11.0579	NaN	0.000000	0.001682	0.001755	28.0825	3.784749	0.001996	1896.01	-3.864672	-167.509	11.4505	0.855233	0.041699	0.041325	11.0579	1896.01	0.037325	0.057297	192.992	7236.8
1039	2.000000	0.864045	7.37521e+06	-52089.1	1055.82	-29750.1	0.000000	0.000000	6.864765	15.2887	NaN	0.000000	0.001709	0.001690	28.0827	4.567849	0.001979	2307.96	1.168837	10.9758	15.1145	0.863668	0.050137	0.049760	15.2887	2307.96	0.045168	0.078066	195.843	7546.92
1039	2.000000	0.872503	7.37521e+06	-52089.1	1055.82	-29750.1	0.000000	0.000000	6.873462	21.1042	NaN	0.000000	0.001725	0.001650	28.0843	4.819196	0.002020	2386.04	6.373482	-170.544	20.8284	0.872282	0.058594	0.058373	21.1042	2386.04	0.051961	0.098570	214.103	6943.5
1039	2.000000	0.881000	7.37521e+06	-52089.1	1055.82	-29750.1	0.000000	0.000000	6.882228	27.6469	NaN	0.000000	0.001625	0.001681	28.0839	4.807399	0.001920	2503.74	3.225336	11.3869	27.0388	0.880711	0.067092	0.066803	27.6469	2503.74	0.058810	0.121576	227.405	6560.54
1039	2.000000	0.889515	7.37522e+06	-52089.1	1055.82	-29750.1	0.000000	0.000000	6.890899	31.4384	NaN	0.000000	0.001683	0.001630	28.0838	5.144121	0.001898	2710.99	7.922642	-173.126	31.7167	0.889207	0.075606	0.075298	31.4384	2710.99	0.066909	0.151742	207.184	6358.42
1039	2.000000	0.898016	7.37522e+06	-52089.1	1055.82	-29750.1	0.000000	0.000000	6.899017	22.1056	NaN	0.000000	0.001637	0.001641	28.0837	4.957797	0.002045	2424.8	7.841610	10.0642	21.9751	0.897636	0.084108	0.083728	22.1056	2424.8	0.077271	0.194915	113.411	5017.95
1039	2.000000	0.906504	7.37522e+06	-52089.1	1055.82	-29750.1	0.000000	0.000000	6.907386	19.2026	NaN	0.000000	0.001704	0.001649	28.0827	4.853348	0.001917	2531.57	10.4653	-172.965	19.5041	0.906213	0.092596	0.092305	19.2026	2531.57	0.086907	0.239583	80.1499	4725.36
1039	2.000000	0.914980	7.37522e+06	-52089.1	1055.82	-29750.1	0.000000	0.000000	6.915835	18.5595	NaN	0.000000	0.001640	0.001647	28.0824	4.666708	0.001938	2408.12	9.044245	7.060903	18.56	0.914621	0.101072	0.100713	18.5595	2408.12	0.095291	0.281929	65.8303	4143.63
1039	2.000000	0.923459	7.37522e+06	-52089.1	1055.82	-29750.1	0.000000	0.000000	6.924323	18.7842	NaN	0.000000	0.001602	0.001674	28.0827	4.719502	0.001889	2498.95	5.437673	-171.512	18.737	0.923180	0.109551	0.109272	18.7842	2498.95	0.103914	0.328822	57.1258	3981.53
1039	2.000000	0.931985	7.37522e+06	-52089.1	1055.82	-29750.1	0.000000	0.000000	6.932819	18.0519	NaN	0.000000	0.001633	0.001608	28.0824	5.000761	0.001989	2514.27	8.805462	8.196915	18.3334	0.931632	0.118077	0.117724	18.0519	2514.27	0.112692	0.380031	47.5012	3726.27
1039	2.000000	0.940427	7.37522e+06	-52089.1	1055.82	-29750.1	0.000000	0.000000	6.941165	15.7168	NaN	0.000000	0.001664	0.001645	28.0839	4.768581	0.002100	2270.97	11.4411	-172.227	15.8953	0.940124	0.126518	0.126216	15.7168	2270.97	0.121328	0.433819	36.2289	3150.14
1039	2.000000	0.943430	7.37522e+06	-52089.1	1055.82	-29750.1	0.000000	0.000000	6.944128	14.7441	NaN	0.000000	0.001620	0.001635	28.0836	4.638899	0.001995	2325.58	7.434505	-170.824	14.8849	0.943165	0.129522	0.129256	14.7441	2325.58	0.124767	0.456186	32.3205	3145.82