File: remote_trans/data/nanoindenter/0828-1/data/Data_2025-08-06,11h17m57s/2025-07-22_16-23-58_1_1060.txt
2025-07-22, 16:23:58, 1
Index	Phase	Displacement	Time	Pos X	Pos Y	Pos Z	Rot A	Rot B	Piezo Z	Force A	Force B	Gripper	Voltage A	Voltage B	Temperature	Amplitude force	Amplitude pos	Stiffness	Phase shift	Phase excitation	Force A raw	Displacement raw	HMax	HMax raw	Real Force	Real Stiffness	Contact Depth	Area	Hardness	Reduced Mod.
[#]	[#]	[um]	[s]	[um]	[um]	[um]	[m°]	[m°]	[um]	[uN]	[uN]	[V]	[V]	[V]	[°C]	[uN]	[um]	[N/m]	[°]	[°]	[uN]	[um]	[um]	[um]	[uN]	[N/m]	[um]	[um^2]	[MPa]	[MPa]
1060	1.000000	0.002961	7.37541e+06	-53139.1	1055.82	-29747	0.000000	0.000000	6.002796	0.006330	NaN	0.000000	0.001698	0.001744	28.0844	0.104149	0.001037	100.429	148.073	-162.2	-0.019615	0.001745	-1.148658	-1.149873	0.006330	100.429	-1.148705	-2.256615E+15	-2.805251E-18	NaN
1060	1.000000	0.044913	7.37541e+06	-53139.1	1055.82	-29747	0.000000	0.000000	6.044747	-0.009704	NaN	0.000000	0.001685	0.001695	28.0831	0.099135	0.001987	49.8863	-104.632	15.3231	0.014350	0.043540	-1.106706	-1.108079	-0.009704	49.8863	-1.106560	-6.139314E+14	1.580650E-17	NaN
1060	1.000000	0.086915	7.37541e+06	-53139.1	1055.82	-29747	0.000000	0.000000	6.086751	0.029170	NaN	0.000000	0.001669	0.001761	28.0835	0.045636	0.002141	21.3146	66.5549	-169.56	0.086329	0.085595	-1.064704	-1.066023	0.029170	21.3146	-1.065730	-1.737090E+14	-1.679245E-16	NaN
1060	1.000000	0.128947	7.37542e+06	-53139.1	1055.82	-29747	0.000000	0.000000	6.128782	0.001699	NaN	0.000000	0.001585	0.001766	28.0833	0.082107	0.002008	40.8851	141.426	13.6549	-0.076385	0.127537	-1.022672	-1.024082	0.001699	40.8851	-1.022703	-4.584813E+13	-3.705263E-17	NaN
1060	1.000000	0.170951	7.37542e+06	-53139.1	1055.82	-29747	0.000000	0.000000	6.170787	0.028085	NaN	0.000000	0.001627	0.001728	28.0842	0.032287	0.002019	15.9948	-65.45	-166.051	0.038568	0.169637	-0.980668	-0.981982	0.028085	15.9948	-0.981984	-1.297613E+13	-2.164361E-15	NaN
1060	1.000000	0.212976	7.37542e+06	-53139.1	1055.82	-29747	0.000000	0.000000	6.212808	-0.080285	NaN	0.000000	0.001677	0.001761	28.0841	0.126669	0.002010	63.0194	35.5344	15.6992	-0.046218	0.211627	-0.938643	-0.939991	-0.080285	63.0194	-0.937687	-3.280447E+12	2.447366E-14	NaN
1060	1.000000	0.255016	7.37542e+06	-53139.1	1055.82	-29747	0.000000	0.000000	6.254848	-0.068510	NaN	0.000000	0.001607	0.001716	28.0842	0.004390	0.001937	2.265910	11.3387	-169.491	-0.017249	0.253716	-0.896603	-0.897903	-0.068510	2.265910	-0.873926	-4.513992E+11	1.517724E-13	NaN
1060	1.000000	0.297033	7.37542e+06	-53139.1	1055.82	-29747	0.000000	0.000000	6.296868	-0.011950	NaN	0.000000	0.001624	0.001710	28.0829	0.131935	0.001974	66.8437	79.1271	15.8862	-0.035136	0.295639	-0.854585	-0.855979	-0.011950	66.8437	-0.854451	-2.460418E+11	4.856830E-14	NaN
1060	1.000000	0.339034	7.37542e+06	-53139.1	1055.82	-29747	0.000000	0.000000	6.338869	-0.018339	NaN	0.000000	0.001670	0.001731	28.0833	0.110473	0.002005	55.097	152.464	-168.01	-0.097101	0.337726	-0.812584	-0.813893	-0.018339	55.097	-0.812335	-6.610644E+10	2.774134E-13	NaN
1060	1.000000	0.381056	7.37542e+06	-53139.1	1055.82	-29747.1	0.000000	0.000000	6.380891	-0.003717	NaN	0.000000	0.001628	0.001684	28.0833	0.084614	0.001946	43.4765	98.2777	11.8411	-0.129465	0.379708	-0.770562	-0.771910	-0.003717	43.4765	-0.770498	-1.786801E+10	2.080103E-13	NaN
1060	1.000000	0.423095	7.37542e+06	-53139.1	1055.82	-29747.1	0.000000	0.000000	6.422929	-0.035334	NaN	0.000000	0.001673	0.001718	28.0843	0.015997	0.001996	8.013820	145.066	-168.635	-0.092896	0.421736	-0.728524	-0.729883	-0.035334	8.013820	-0.725217	-4.321224E+9	8.176763E-12	NaN
1060	1.000000	0.465115	7.37542e+06	-53139.1	1055.82	-29747.1	0.000000	0.000000	6.464951	0.015267	NaN	0.000000	0.001672	0.001735	28.0844	0.107844	0.002048	52.6495	-65.1647	19.7721	0.014057	0.463751	-0.686504	-0.687867	0.015267	52.6495	-0.686721	-1.288555E+9	-1.184854E-11	NaN
1060	1.000000	0.507097	7.37542e+06	-53139.1	1055.82	-29747.1	0.000000	0.000000	6.506931	-0.030445	NaN	0.000000	0.001687	0.001715	28.0843	0.037426	0.001983	18.8748	79.8749	-166.508	0.037964	0.505808	-0.644521	-0.645811	-0.030445	18.8748	-0.643311	-3.278818E+8	9.285341E-11	NaN
1060	1.000000	0.549106	7.37542e+06	-53139.1	1055.82	-29747.1	0.000000	0.000000	6.548939	-0.041005	NaN	0.000000	0.001683	0.001758	28.0846	0.046798	0.002096	22.3245	36.6783	10.4883	-0.057633	0.547741	-0.602513	-0.603878	-0.041005	22.3245	-0.601135	-8.631697E+7	4.750522E-10	NaN
1060	1.000000	0.591121	7.37542e+06	-53139.1	1055.82	-29747.1	0.000000	0.000000	6.590954	-0.045407	NaN	0.000000	0.001717	0.001732	28.0834	0.023967	0.002033	11.7888	-23.5202	-166.196	-0.010863	0.589813	-0.560498	-0.561805	-0.045407	11.7888	-0.557609	-2.164202E+7	2.098085E-9	NaN
1060	1.000000	0.633155	7.37542e+06	-53139.1	1055.82	-29747.1	0.000000	0.000000	6.632987	-0.080474	NaN	0.000000	0.001705	0.001753	28.0833	0.097199	0.002066	47.0367	77.649	13.4994	-0.055571	0.631831	-0.518463	-0.519787	-0.080474	47.0367	-0.517180	-5.94804e+06	1.352956E-8	NaN
1060	1.000000	0.675145	7.37542e+06	-53139.1	1055.82	-29747.1	0.000000	0.000000	6.674979	-0.025228	NaN	0.000000	0.001727	0.001747	28.0837	0.095407	0.001981	48.1565	-1.317868	-165.351	-0.067977	0.673923	-0.476473	-0.477696	-0.025228	48.1565	-0.476081	-1.58723e+06	1.589441E-8	NaN
1060	1.000000	0.717203	7.37542e+06	-53139.1	1055.82	-29747.1	0.000000	0.000000	6.717038	-0.000188	NaN	0.000000	0.001648	0.001767	28.0846	0.075216	0.001953	38.5131	114.842	15.4752	-0.041487	0.715866	-0.434415	-0.435752	-0.000188	38.5131	-0.434412	-411567	4.570509E-10	NaN
1060	1.000000	0.759218	7.37542e+06	-53139.1	1055.82	-29747.1	0.000000	0.000000	6.759053	0.001080	NaN	0.000000	0.001663	0.001760	28.0843	0.168093	0.001985	84.6791	-87.3895	-164.883	0.035553	0.757884	-0.392400	-0.393735	0.001080	84.6791	-0.392410	-104142	-1.037027E-8	NaN
1060	1.000000	0.801229	7.37542e+06	-53139.1	1055.82	-29747.1	0.000000	0.000000	6.801063	-0.046078	NaN	0.000000	0.001664	0.001722	28.0846	0.098342	0.002036	48.311	178.642	11.8562	-0.007107	0.799824	-0.350389	-0.351794	-0.046078	48.311	-0.349674	-25250.3	1.824865E-6	NaN
1060	1.000000	0.843239	7.37542e+06	-53139.1	1055.82	-29747.1	0.000000	0.000000	6.843077	0.072494	NaN	0.000000	0.001711	0.001692	28.083	0.109865	0.002013	54.567	-36.9831	-166.258	0.081326	0.841925	-0.308380	-0.309693	0.072494	54.567	-0.309376	-6483.73	-1.118089E-5	NaN
1060	1.000000	0.885244	7.37542e+06	-53139.1	1055.82	-29747.1	0.000000	0.000000	6.885078	-0.023237	NaN	0.000000	0.001752	0.001703	28.0831	0.033407	0.002009	16.6276	62.365	11.5508	-0.042444	0.883974	-0.266374	-0.267645	-0.023237	16.6276	-0.265326	-1413.73	1.643644E-5	NaN
1060	1.000000	0.927270	7.37542e+06	-53139.1	1055.82	-29747.1	0.000000	0.000000	6.927105	0.006503	NaN	0.000000	0.001702	0.001746	28.0831	0.103046	0.001900	54.2262	175.688	-166.846	0.017681	0.925957	-0.224349	-0.225662	0.006503	54.2262	-0.224439	-326.901	-1.989390E-5	NaN
1060	1.000000	0.969302	7.37542e+06	-53139.1	1055.82	-29747.1	0.000000	0.000000	6.969140	0.063948	NaN	0.000000	0.001672	0.001729	28.0844	0.062852	0.002028	30.9981	49.019	13.1799	0.069381	0.967899	-0.182316	-0.183720	0.063948	30.9981	-0.183864	-70.9513	-0.000901	NaN
1060	1.000000	1.011285	7.37542e+06	-53139.1	1055.82	-29747.1	0.000000	0.000000	7.011119	-0.017668	NaN	0.000000	0.001631	0.001697	28.0845	0.127455	0.001959	65.0473	139.198	-163.185	-0.065096	1.010053	-0.140334	-0.141565	-0.017668	65.0473	-0.140130	-11.8964	0.001485	NaN
1060	1.000000	1.053325	7.37542e+06	-53139.1	1055.82	-29747.1	0.000000	0.000000	7.053158	-0.041530	NaN	0.000000	0.001741	0.001735	28.0846	0.091825	0.001989	46.1616	-42.9106	13.8409	-0.006127	1.051986	-0.098294	-0.099633	-0.041530	46.1616	-0.097619	-1.616790	0.025687	NaN
1060	1.000000	1.095353	7.37542e+06	-53139.1	1055.82	-29747.1	0.000000	0.000000	7.095190	0.040741	NaN	0.000000	0.001651	0.001723	28.0846	0.135489	0.002047	66.1887	-3.858923	-164.327	-0.012526	1.094041	-0.056265	-0.057577	0.040741	66.1887	-0.056727	-0.144756	-0.281443	NaN
1060	2.000000	1.134464	7.37542e+06	-53139.1	1055.82	-29747.1	0.000000	0.000000	7.134666	8.937763	NaN	0.000000	0.001679	0.001712	28.0833	3.032970	0.001957	1549.57	8.563214	13.2541	8.925828	1.134104	-0.017155	-0.017515	8.937763	1549.57	-0.021481	-0.013698	-652.487	NaN
1060	2.000000	1.144884	7.37542e+06	-53139.1	1055.82	-29747.1	0.000000	0.000000	7.145004	6.913491	NaN	0.000000	0.001691	0.001758	28.0831	3.041942	0.001973	1542.11	15.245	-172.216	7.037299	1.144536	-0.006734	-0.007083	6.913491	1542.11	-0.010097	-0.006443	-1073.09	NaN
1060	2.000000	1.155346	7.37542e+06	-53139.1	1055.82	-29747.1	0.000000	0.000000	7.155410	5.570951	NaN	0.000000	0.001646	0.001746	28.0833	3.414570	0.002022	1688.73	11.6711	12.7764	5.653444	1.155010	0.003727	0.003391	5.570951	1688.73	0.001253	0.000960	5804.17	49801
1060	2.000000	1.165818	7.37542e+06	-53139.1	1055.82	-29747.1	0.000000	0.000000	7.166296	15.6295	NaN	0.000000	0.001678	0.001751	28.0844	13.5238	0.001645	8219.63	5.856838	-174.405	15.8941	1.165566	0.014200	0.013947	15.6295	8219.63	0.012774	0.012430	1257.4	67358
1060	2.000000	1.176339	7.37542e+06	-53139.1	1055.82	-29747.1	0.000000	0.000000	7.177746	38.2095	NaN	0.000000	0.001625	0.001738	28.0845	24.6186	0.001849	13316.5	7.790503	-0.477103	37.6223	1.175911	0.024720	0.024292	38.2095	13316.5	0.022568	0.026740	1428.93	74401.8
1060	2.000000	1.186774	7.37542e+06	-53139.1	1055.82	-29747.1	0.000000	0.000000	7.189463	69.3773	NaN	0.000000	0.001651	0.001749	28.0845	34.5199	0.001821	18960	3.825815	179.962	68.2803	1.186497	0.035155	0.034878	69.3773	18960	0.032411	0.045889	1511.84	80863.9
1060	2.000000	1.197330	7.37542e+06	-53139.1	1055.82	-29747.1	0.000000	0.000000	7.201365	102.125	NaN	0.000000	0.001667	0.001733	28.0835	44.3448	0.001825	24296.4	4.767949	-3.561228	102.627	1.197050	0.045711	0.045431	102.125	24296.4	0.042559	0.070808	1442.28	83420.7
1060	2.000000	1.207737	7.37542e+06	-53139.1	1055.82	-29747.1	0.000000	0.000000	7.213753	150.26	NaN	0.000000	0.001636	0.001804	28.0833	53.2373	0.001726	30848	0.755783	179.08	146.838	1.207464	0.056119	0.055846	150.26	30848	0.052466	0.100186	1499.81	89042.1
1060	2.000000	1.218137	7.37542e+06	-53139.1	1055.82	-29747.1	0.000000	0.000000	7.226321	202.986	NaN	0.000000	0.001687	0.001750	28.0832	64.3074	0.001812	35491.4	3.664825	-4.727222	195.407	1.217836	0.066518	0.066217	202.986	35491.4	0.062229	0.133921	1515.71	88607.8
1060	2.000000	1.228789	7.37542e+06	-53139.1	1055.82	-29747.1	0.000000	0.000000	7.239565	266.025	NaN	0.000000	0.001625	0.001773	28.0845	75.9834	0.001852	41034.8	6.167144	171.654	268.493	1.228441	0.077170	0.076822	266.025	41034.8	0.072308	0.173603	1532.38	89980.2
1060	2.000000	1.231837	7.37542e+06	-53139.1	1055.82	-29747.1	0.000000	0.000000	7.243343	283.766	NaN	0.000000	0.001664	0.001760	28.0846	78.0895	0.001722	45360.2	6.515884	170.023	287.513	1.231464	0.080218	0.079846	283.766	45360.2	0.075526	0.187292	1515.1	95761