File: remote_trans/data/nanoindenter/0828-1/data/Data_2025-08-06,11h17m57s/2025-07-22_16-23-58_1_190.txt
2025-07-22, 16:23:58, 1
Index	Phase	Displacement	Time	Pos X	Pos Y	Pos Z	Rot A	Rot B	Piezo Z	Force A	Force B	Gripper	Voltage A	Voltage B	Temperature	Amplitude force	Amplitude pos	Stiffness	Phase shift	Phase excitation	Force A raw	Displacement raw	HMax	HMax raw	Real Force	Real Stiffness	Contact Depth	Area	Hardness	Reduced Mod.
[#]	[#]	[um]	[s]	[um]	[um]	[um]	[m°]	[m°]	[um]	[uN]	[uN]	[V]	[V]	[V]	[°C]	[uN]	[um]	[N/m]	[°]	[°]	[uN]	[um]	[um]	[um]	[uN]	[N/m]	[um]	[um^2]	[MPa]	[MPa]
190	1.000000	0.002615	7.3669e+06	-48139.1	955.817	-29763.8	0.000000	0.000000	6.002797	0.021229	NaN	0.000000	0.001688	0.001857	28.0793	0.072947	0.000922	79.104	-162.634	-167.848	0.035050	0.001343	-1.148834	-1.150106	0.021229	79.104	-1.149035	-2.279731E+15	-9.312093E-18	NaN
190	1.000000	0.044573	7.3669e+06	-48139.1	955.819	-29763.8	0.000000	0.000000	6.044753	-0.014936	NaN	0.000000	0.001689	0.001832	28.08	0.064569	0.001970	32.7699	92.2832	15.1587	-0.089583	0.043224	-1.106876	-1.108225	-0.014936	32.7699	-1.106534	-6.134454E+14	2.434812E-17	NaN
190	1.000000	0.086603	7.3669e+06	-48139.1	955.818	-29763.8	0.000000	0.000000	6.086783	-0.012680	NaN	0.000000	0.001676	0.001814	28.0796	0.057328	0.002076	27.6116	2.471614	-161.765	-0.024359	0.085293	-1.064846	-1.066156	-0.012680	27.6116	-1.064502	-1.672305E+14	7.582311E-17	NaN
190	1.000000	0.128620	7.3669e+06	-48139.1	955.819	-29763.8	0.000000	0.000000	6.128801	-0.018634	NaN	0.000000	0.001615	0.001833	28.0783	0.061200	0.001989	30.7748	163.346	14.1723	0.017221	0.127296	-1.022828	-1.024152	-0.018634	30.7748	-1.022374	-4.538336E+13	4.105918E-16	NaN
190	1.000000	0.170612	7.3669e+06	-48139.1	955.819	-29763.8	0.000000	0.000000	6.170793	0.006141	NaN	0.000000	0.001646	0.001832	28.0782	0.076325	0.002050	37.2231	115.903	-165.925	0.063133	0.169264	-0.980837	-0.982184	0.006141	37.2231	-0.980961	-1.257064E+13	-4.885167E-16	NaN
190	1.000000	0.212614	7.3669e+06	-48139.1	955.818	-29763.8	0.000000	0.000000	6.212793	-0.054517	NaN	0.000000	0.001630	0.001811	28.0796	0.043125	0.002020	21.3509	-83.1569	13.7367	-0.089288	0.211251	-0.938834	-0.940198	-0.054517	21.3509	-0.936919	-3.203108E+12	1.701995E-14	NaN
190	1.000000	0.254646	7.3669e+06	-48139.1	955.818	-29763.8	0.000000	0.000000	6.254829	0.056758	NaN	0.000000	0.001691	0.001808	28.0803	0.043597	0.001937	22.5039	-101.073	-163.162	-0.019243	0.253324	-0.896803	-0.898125	0.056758	22.5039	-0.898694	-9.759372E+11	-5.815741E-14	NaN
190	1.000000	0.296677	7.3669e+06	-48139.1	955.819	-29763.8	0.000000	0.000000	6.296857	-0.029072	NaN	0.000000	0.001708	0.001760	28.0798	0.038305	0.001808	21.1902	-103.211	14.559	0.045536	0.295349	-0.854772	-0.856100	-0.029072	21.1902	-0.853743	-2.406653E+11	1.207978E-13	NaN
190	1.000000	0.338670	7.3669e+06	-48139.1	955.819	-29763.8	0.000000	0.000000	6.338851	0.003114	NaN	0.000000	0.001673	0.001797	28.0799	0.020055	0.001964	10.213	-171.956	-163.93	0.050954	0.337370	-0.812779	-0.814079	0.003114	10.213	-0.813008	-6.751155E+10	-4.612577E-14	NaN
190	1.000000	0.380710	7.3669e+06	-48139.1	955.819	-29763.8	0.000000	0.000000	6.380890	-0.019601	NaN	0.000000	0.001647	0.001775	28.0787	0.181851	0.001911	95.1546	157.312	14.1621	-0.049363	0.379315	-0.770739	-0.772134	-0.019601	95.1546	-0.770584	-1.791620E+10	1.094032E-12	NaN
190	1.000000	0.422702	7.3669e+06	-48139.1	955.819	-29763.8	0.000000	0.000000	6.422885	0.062440	NaN	0.000000	0.001647	0.001802	28.0788	0.041948	0.001907	21.9993	125.209	-165.344	0.071831	0.421396	-0.728747	-0.730052	0.062440	21.9993	-0.730876	-5.161157E+9	-1.209809E-11	NaN
190	1.000000	0.464753	7.3669e+06	-48139.1	955.819	-29763.8	0.000000	0.000000	6.464933	-0.001482	NaN	0.000000	0.001657	0.001816	28.0787	0.074028	0.001925	38.464	-43.2816	17.0921	-0.051935	0.463365	-0.686696	-0.688084	-0.001482	38.464	-0.686667	-1.286377E+9	1.152400E-12	NaN
190	1.000000	0.506780	7.3669e+06	-48139.1	955.818	-29763.8	0.000000	0.000000	6.506960	-0.031013	NaN	0.000000	0.001657	0.001799	28.08	0.024914	0.002051	12.1481	41.4718	-162.475	-0.066353	0.505420	-0.644668	-0.646029	-0.031013	12.1481	-0.642754	-3.221577E+8	9.626792E-11	NaN
190	1.000000	0.548779	7.3669e+06	-48139.1	955.819	-29763.8	0.000000	0.000000	6.548959	-0.015475	NaN	0.000000	0.001604	0.001775	28.0797	0.095644	0.002038	46.9372	24.1174	19.1663	-0.018313	0.547428	-0.602670	-0.604020	-0.015475	46.9372	-0.602423	-8.991304E+7	1.721080E-10	NaN
190	1.000000	0.590816	7.3669e+06	-48139.1	955.819	-29763.8	0.000000	0.000000	6.590997	-0.007237	NaN	0.000000	0.001591	0.001782	28.0797	0.016429	0.002004	8.200165	-3.190962	-161.861	0.024419	0.589462	-0.560633	-0.561987	-0.007237	8.200165	-0.559971	-2.333317E+7	3.101579E-10	NaN
190	1.000000	0.632836	7.3669e+06	-48139.1	955.818	-29763.8	0.000000	0.000000	6.633018	0.027836	NaN	0.000000	0.001581	0.001776	28.0796	0.051379	0.001891	27.1709	-99.3041	13.3481	0.044025	0.631497	-0.518613	-0.519952	0.027836	27.1709	-0.519381	-6.38246e+06	-4.361280E-9	NaN
190	1.000000	0.674853	7.3669e+06	-48139.1	955.818	-29763.8	0.000000	0.000000	6.675031	-0.065913	NaN	0.000000	0.001634	0.001801	28.0782	0.120225	0.001928	62.3662	144.881	-168.513	-0.094484	0.673563	-0.476596	-0.477885	-0.065913	62.3662	-0.475803	-1.57308e+06	4.190023E-8	NaN
190	1.000000	0.716867	7.3669e+06	-48139.1	955.818	-29763.8	0.000000	0.000000	6.717052	0.094726	NaN	0.000000	0.001609	0.001798	28.0785	0.072209	0.001968	36.6925	95.9524	13.2114	0.060192	0.715485	-0.434582	-0.435963	0.094726	36.6925	-0.436518	-440756	-2.149179E-7	NaN
190	1.000000	0.758882	7.36691e+06	-48139.1	955.818	-29763.8	0.000000	0.000000	6.759062	-0.022401	NaN	0.000000	0.001594	0.001842	28.0784	0.139143	0.001990	69.932	19.0388	-163.03	-0.010654	0.757550	-0.392567	-0.393899	-0.022401	69.932	-0.392327	-103857	2.156852E-7	NaN
190	1.000000	0.800930	7.36691e+06	-48139.1	955.818	-29763.8	0.000000	0.000000	6.801108	-0.068988	NaN	0.000000	0.001634	0.001785	28.0793	0.040320	0.002038	19.7827	-139.829	14.7215	0.084423	0.799548	-0.350519	-0.351901	-0.068988	19.7827	-0.347904	-23799.3	2.898749E-6	NaN
190	1.000000	0.842940	7.36691e+06	-48139.1	955.819	-29763.8	0.000000	0.000000	6.843120	-0.022087	NaN	0.000000	0.001630	0.001783	28.0799	0.109579	0.002101	52.1526	141.817	-163.204	0.039189	0.841649	-0.308509	-0.309799	-0.022087	52.1526	-0.308192	-6227.02	3.546940E-6	NaN
190	1.000000	0.884916	7.36691e+06	-48139.1	955.819	-29763.8	0.000000	0.000000	6.885099	0.034348	NaN	0.000000	0.001598	0.001800	28.0799	0.058908	0.001913	30.7887	-1.515875	16.921	-0.059952	0.883614	-0.266532	-0.267835	0.034348	30.7887	-0.267369	-1518.83	-2.261459E-5	NaN
190	1.000000	0.926928	7.36691e+06	-48139.1	955.819	-29763.8	0.000000	0.000000	6.927108	-0.008361	NaN	0.000000	0.001574	0.001807	28.0787	0.068610	0.002074	33.0759	112.099	-164.382	-0.060066	0.925631	-0.224521	-0.225818	-0.008361	33.0759	-0.224332	-325.621	2.567818E-5	NaN
190	1.000000	0.968963	7.36691e+06	-48139.1	955.818	-29763.8	0.000000	0.000000	6.969145	0.023854	NaN	0.000000	0.001628	0.001807	28.0786	0.060267	0.001964	30.6865	-81.0316	14.654	-0.008080	0.967612	-0.182485	-0.183837	0.023854	30.6865	-0.183068	-68.7888	-0.000347	NaN
190	1.000000	1.010962	7.36691e+06	-48139.1	955.818	-29763.8	0.000000	0.000000	7.011142	-0.029862	NaN	0.000000	0.001603	0.001873	28.0786	0.073073	0.001995	36.6322	161.198	-166.057	-0.045423	1.009636	-0.140486	-0.141813	-0.029862	36.6322	-0.139875	-11.7658	0.002538	NaN
190	1.000000	1.053013	7.36691e+06	-48139.1	955.818	-29763.8	0.000000	0.000000	7.053193	-0.026788	NaN	0.000000	0.001609	0.001820	28.0798	0.055279	0.001892	29.2109	-25.4696	19.8827	-0.042633	1.051641	-0.098435	-0.099807	-0.026788	29.2109	-0.097748	-1.627572	0.016459	NaN
190	1.000000	1.094989	7.36691e+06	-48139.1	955.819	-29763.8	0.000000	0.000000	7.095172	0.050374	NaN	0.000000	0.001566	0.001800	28.0805	0.155975	0.002002	77.8974	-73.0815	-167.861	-0.045419	1.093664	-0.056460	-0.057785	0.050374	77.8974	-0.056945	-0.146900	-0.342910	NaN
190	1.000000	1.137031	7.36691e+06	-48139.1	955.818	-29763.8	0.000000	0.000000	7.137209	-0.072642	NaN	0.000000	0.001619	0.001830	28.0799	0.051597	0.002081	24.8	68.0437	12.5881	-0.105163	1.135650	-0.014418	-0.015799	-0.072642	24.8	-0.012221	-0.007655	9.489286	NaN
190	2.000000	1.166580	7.36691e+06	-48139.1	955.818	-29763.8	0.000000	0.000000	7.167338	14.0273	NaN	0.000000	0.001576	0.001816	28.0803	13.2522	0.001744	7600.55	5.879683	-172.533	13.1133	1.166267	0.015132	0.014818	14.0273	7600.55	0.013747	0.013651	1027.55	59433.7
190	2.000000	1.177068	7.36691e+06	-48139.1	955.818	-29763.8	0.000000	0.000000	7.178776	37.1403	NaN	0.000000	0.001581	0.001826	28.0798	25.5243	0.001914	13334.8	7.120790	1.602249	36.0722	1.176625	0.025619	0.025176	37.1403	13334.8	0.023530	0.028395	1307.96	72299.4
190	2.000000	1.187449	7.36691e+06	-48139.1	955.818	-29763.8	0.000000	0.000000	7.190653	73.5218	NaN	0.000000	0.001600	0.001843	28.0796	34.0121	0.001763	19291.4	-0.864986	-174.522	71.414	1.187225	0.036000	0.035777	73.5218	19291.4	0.033142	0.047508	1547.57	80863.7
190	2.000000	1.197968	7.36691e+06	-48139.1	955.818	-29763.8	0.000000	0.000000	7.202818	113.568	NaN	0.000000	0.001595	0.001840	28.0788	44.18	0.001830	24145.8	5.290267	-1.484009	111.889	1.197685	0.046519	0.046237	113.568	24145.8	0.042992	0.071989	1577.57	82220.8
190	2.000000	1.208475	7.36691e+06	-48139.1	955.818	-29763.8	0.000000	0.000000	7.215759	172.763	NaN	0.000000	0.001595	0.001817	28.0799	54.6735	0.001702	32120.3	1.783413	179.147	171.471	1.208139	0.057026	0.056690	172.763	32120.3	0.052992	0.101884	1695.68	91939
190	2.000000	1.218917	7.36691e+06	-48139.1	955.819	-29763.8	0.000000	0.000000	7.228520	229.174	NaN	0.000000	0.001577	0.001842	28.0796	67.2311	0.001758	38243	4.672639	-5.642478	223.796	1.218613	0.067468	0.067164	229.174	38243	0.062973	0.136686	1676.65	94506.9
190	2.000000	1.229432	7.36691e+06	-48139.1	955.819	-29763.8	0.000000	0.000000	7.242279	308.075	NaN	0.000000	0.001649	0.001861	28.0798	76.0498	0.001701	44699.6	5.352066	172.99	305.163	1.229059	0.077983	0.077610	308.075	44699.6	0.072814	0.175722	1753.2	97423.5
190	2.000000	1.239978	7.36691e+06	-48139.1	955.819	-29763.8	0.000000	0.000000	7.255816	380.83	NaN	0.000000	0.001671	0.001844	28.0784	86.4276	0.001727	50043.7	4.771274	-7.798409	380.494	1.239726	0.088529	0.088277	380.83	50043.7	0.082821	0.220118	1730.12	97453
190	2.000000	1.250332	7.36691e+06	-48139.1	955.819	-29763.8	0.000000	0.000000	7.270137	477.294	NaN	0.000000	0.001696	0.001843	28.0787	97.4339	0.001672	58270.5	5.032674	171.058	471.593	1.250025	0.098884	0.098576	477.294	58270.5	0.092740	0.268705	1776.28	102703
190	2.000000	1.260960	7.36691e+06	-48139.1	955.819	-29763.8	0.000000	0.000000	7.285198	585.109	NaN	0.000000	0.001694	0.001864	28.0784	108.099	0.001789	60436.5	5.823950	-9.554389	586.677	1.260565	0.109511	0.109116	585.109	60436.5	0.102250	0.319514	1831.25	97684.9