File: remote_trans/data/nanoindenter/0828-1/data/Data_2025-08-06,11h17m57s/2025-07-22_16-23-58_1_757.txt
2025-07-22, 16:23:58, 1
Index	Phase	Displacement	Time	Pos X	Pos Y	Pos Z	Rot A	Rot B	Piezo Z	Force A	Force B	Gripper	Voltage A	Voltage B	Temperature	Amplitude force	Amplitude pos	Stiffness	Phase shift	Phase excitation	Force A raw	Displacement raw	HMax	HMax raw	Real Force	Real Stiffness	Contact Depth	Area	Hardness	Reduced Mod.
[#]	[#]	[um]	[s]	[um]	[um]	[um]	[m°]	[m°]	[um]	[uN]	[uN]	[V]	[V]	[V]	[°C]	[uN]	[um]	[N/m]	[°]	[°]	[uN]	[um]	[um]	[um]	[uN]	[N/m]	[um]	[um^2]	[MPa]	[MPa]
757	1.000000	0.002376	7.37246e+06	-39239.1	1005.82	-29794.5	0.000000	0.000000	6.002767	-0.056421	NaN	0.000000	0.001563	0.001753	28.0809	0.069366	0.000884	78.4774	4.889573	-162.828	-0.014097	0.001089	-1.088753	-1.090040	-0.056421	78.4774	-1.088214	-3.481994E+14	1.620353E-16	NaN
757	1.000000	0.044366	7.37246e+06	-39239.1	1005.82	-29794.5	0.000000	0.000000	6.044759	0.012392	NaN	0.000000	0.001628	0.001744	28.0825	0.021469	0.001922	11.1712	-69.2595	14.5118	0.070471	0.043003	-1.046764	-1.048126	0.012392	11.1712	-1.047596	-9.910463E+13	-1.250367E-16	NaN
757	1.000000	0.086363	7.37246e+06	-39239.1	1005.82	-29794.5	0.000000	0.000000	6.086755	-0.016332	NaN	0.000000	0.001692	0.001749	28.0822	0.092418	0.001908	48.4484	-138.173	-165.399	0.011176	0.085039	-1.004766	-1.006091	-0.016332	48.4484	-1.004513	-2.609345E+13	6.259023E-16	NaN
757	1.000000	0.128403	7.37246e+06	-39239.1	1005.82	-29794.5	0.000000	0.000000	6.128800	0.093902	NaN	0.000000	0.001679	0.001733	28.0819	0.053021	0.002030	26.1186	30.6043	12.6976	0.005211	0.127016	-0.962726	-0.964114	0.093902	26.1186	-0.965423	-7.761907E+12	-1.209784E-14	NaN
757	1.000000	0.170391	7.37246e+06	-39239.1	1005.82	-29794.5	0.000000	0.000000	6.170784	0.004177	NaN	0.000000	0.001673	0.001762	28.0805	0.087089	0.001909	45.6106	110.352	-164.644	-0.002352	0.169111	-0.920738	-0.922019	0.004177	45.6106	-0.920807	-1.941319E+12	-2.151652E-15	NaN
757	1.000000	0.212430	7.37246e+06	-39239.1	1005.82	-29794.5	0.000000	0.000000	6.212824	0.023050	NaN	0.000000	0.001696	0.001794	28.0805	0.103726	0.001919	54.0522	-92.9706	12.7402	-0.046085	0.211046	-0.878700	-0.880083	0.023050	54.0522	-0.879019	-5.289897E+11	-4.357280E-14	NaN
757	1.000000	0.254446	7.37246e+06	-39239.1	1005.82	-29794.5	0.000000	0.000000	6.254838	-0.010405	NaN	0.000000	0.001667	0.001775	28.0808	0.012557	0.002050	6.125989	-42.1588	-168.422	-0.011441	0.253128	-0.836683	-0.838001	-0.010405	6.125989	-0.835410	-1.358613E+11	7.658224E-14	NaN
757	1.000000	0.296494	7.37246e+06	-39239.1	1005.82	-29794.5	0.000000	0.000000	6.296884	-0.049971	NaN	0.000000	0.001680	0.001755	28.0821	0.061578	0.001955	31.4917	-103.419	13.0343	0.009272	0.295059	-0.794636	-0.796070	-0.049971	31.4917	-0.793446	-3.663342E+10	1.364088E-12	NaN
757	1.000000	0.338506	7.37246e+06	-39239.1	1005.82	-29794.5	0.000000	0.000000	6.338898	-0.008148	NaN	0.000000	0.001643	0.001710	28.0819	0.059627	0.001924	30.9936	54.6611	-163.127	0.006636	0.337166	-0.752624	-0.753963	-0.008148	30.9936	-0.752427	-1.014493E+10	8.031448E-13	NaN
757	1.000000	0.380470	7.37246e+06	-39239.1	1005.82	-29794.5	0.000000	0.000000	6.380864	0.022168	NaN	0.000000	0.001618	0.001774	28.082	0.051993	0.001903	27.3287	87.502	14.017	-0.013616	0.379130	-0.710659	-0.712000	0.022168	27.3287	-0.711267	-2.788334E+9	-7.950279E-12	NaN
757	1.000000	0.422484	7.37246e+06	-39239.1	1005.82	-29794.5	0.000000	0.000000	6.422877	-0.009619	NaN	0.000000	0.001597	0.001784	28.0817	0.117295	0.001912	61.351	-164.105	-162.455	0.067783	0.421192	-0.668645	-0.669938	-0.009619	61.351	-0.668528	-7.265037E+8	1.323992E-11	NaN
757	1.000000	0.464546	7.37246e+06	-39239.1	1005.82	-29794.5	0.000000	0.000000	6.464940	0.026495	NaN	0.000000	0.001632	0.001756	28.0808	0.137779	0.001997	68.997	159.776	16.6092	0.112418	0.463103	-0.626583	-0.628026	0.026495	68.997	-0.626871	-1.950063E+8	-1.358690E-10	NaN
757	1.000000	0.506535	7.37246e+06	-39239.1	1005.82	-29794.5	0.000000	0.000000	6.506926	-0.030397	NaN	0.000000	0.001655	0.001755	28.0809	0.070536	0.001898	37.1666	-106.079	-165.845	-0.014577	0.505280	-0.584595	-0.585850	-0.030397	37.1666	-0.583982	-5.008007E+7	6.069651E-10	NaN
757	1.000000	0.548554	7.37246e+06	-39239.1	1005.82	-29794.5	0.000000	0.000000	6.548946	-0.019809	NaN	0.000000	0.001701	0.001768	28.081	0.077406	0.002062	37.5371	163.862	13.9444	-0.003324	0.547192	-0.542576	-0.543937	-0.019809	37.5371	-0.542180	-1.323082E+7	1.497172E-9	NaN
757	1.000000	0.590589	7.37246e+06	-39239.1	1005.82	-29794.5	0.000000	0.000000	6.590982	0.004680	NaN	0.000000	0.001654	0.001753	28.0822	0.089046	0.002049	43.4532	-5.026628	-164.56	0.018288	0.589290	-0.500540	-0.501839	0.004680	43.4532	-0.500621	-3.49687e+06	-1.338290E-9	NaN
757	1.000000	0.632610	7.37246e+06	-39239.1	1005.82	-29794.5	0.000000	0.000000	6.633004	0.033011	NaN	0.000000	0.001642	0.001761	28.0822	0.042387	0.001999	21.2064	-42.5836	16.3891	0.026319	0.631249	-0.458519	-0.459880	0.033011	21.2064	-0.459687	-934575	-3.532215E-8	NaN
757	1.000000	0.674614	7.37246e+06	-39239.1	1005.82	-29794.5	0.000000	0.000000	6.675008	0.031276	NaN	0.000000	0.001611	0.001767	28.0824	0.118981	0.002078	57.2642	121.149	-163.568	0.043637	0.673353	-0.416515	-0.417776	0.031276	57.2642	-0.416925	-232693	-1.344100E-7	NaN
757	1.000000	0.716652	7.37246e+06	-39239.1	1005.82	-29794.5	0.000000	0.000000	6.717047	0.047084	NaN	0.000000	0.001569	0.001710	28.0814	0.153636	0.001921	79.9634	78.3355	15.8045	-0.016977	0.715341	-0.374477	-0.375788	0.047084	79.9634	-0.374919	-58466.3	-8.053256E-7	NaN
757	1.000000	0.758655	7.37246e+06	-39239.1	1005.82	-29794.5	0.000000	0.000000	6.759047	-0.022970	NaN	0.000000	0.001665	0.001723	28.081	0.086544	0.001900	45.5376	64.8152	-165.452	-0.050706	0.757379	-0.332474	-0.333750	-0.022970	45.5376	-0.332096	-14000.1	1.640664E-6	NaN
757	1.000000	0.800683	7.37246e+06	-39239.1	1005.82	-29794.5	0.000000	0.000000	6.801073	-0.054950	NaN	0.000000	0.001664	0.001757	28.0812	0.150505	0.002078	72.4305	80.5964	13.7824	-0.038103	0.799282	-0.290447	-0.291847	-0.054950	72.4305	-0.289878	-3322.52	1.653858E-5	NaN
757	1.000000	0.842687	7.37246e+06	-39239.1	1005.82	-29794.5	0.000000	0.000000	6.843081	0.031720	NaN	0.000000	0.001605	0.001741	28.0825	0.047506	0.001975	24.0522	43.1383	-161.954	0.027949	0.841367	-0.248443	-0.249763	0.031720	24.0522	-0.249432	-805.702	-3.936882E-5	NaN
757	1.000000	0.884703	7.37246e+06	-39239.1	1005.82	-29794.5	0.000000	0.000000	6.885096	-0.000172	NaN	0.000000	0.001650	0.001766	28.0824	0.132743	0.002094	63.4001	152.637	15.3724	0.068255	0.883349	-0.206427	-0.207780	-0.000172	63.4001	-0.206424	-167.791	1.026304E-6	NaN
757	1.000000	0.926732	7.37246e+06	-39239.1	1005.82	-29794.5	0.000000	0.000000	6.927125	0.022669	NaN	0.000000	0.001612	0.001766	28.0826	0.076130	0.001997	38.126	161.227	-167.648	-0.020333	0.925485	-0.164398	-0.165645	0.022669	38.126	-0.164844	-33.3859	-0.000679	NaN
757	1.000000	0.968727	7.37246e+06	-39239.1	1005.82	-29794.5	0.000000	0.000000	6.969121	0.034626	NaN	0.000000	0.001683	0.001758	28.0834	0.111801	0.001989	56.2049	72.3049	10.3543	0.024419	0.967319	-0.122403	-0.123810	0.034626	56.2049	-0.122865	-5.515311	-0.006278	NaN
757	1.000000	1.010762	7.37246e+06	-39239.1	1005.82	-29794.5	0.000000	0.000000	7.011156	0.054148	NaN	0.000000	0.001618	0.001747	28.0815	0.098503	0.001986	49.6091	72.2288	-168.181	0.018705	1.009439	-0.080368	-0.081690	0.054148	49.6091	-0.081187	-0.662581	-0.081723	NaN
757	1.000000	1.052742	7.37246e+06	-39239.1	1005.82	-29794.5	0.000000	0.000000	7.053135	-0.000286	NaN	0.000000	0.001729	0.001751	28.0814	0.113325	0.002081	54.4524	-147.598	11.4697	-0.030447	1.051438	-0.038387	-0.039691	-0.000286	54.4524	-0.038383	-0.040403	0.007083	NaN
757	1.000000	1.094653	7.37246e+06	-39239.1	1005.82	-29794.5	0.000000	0.000000	7.095402	8.664246	NaN	0.000000	0.001609	0.001782	28.0812	8.502807	0.001810	4698.7	12.4056	-173.093	7.116009	1.093477	0.003524	0.002347	8.664246	4698.7	0.002141	0.001669	5190.79	105076
757	2.000000	1.105768	7.37246e+06	-39239.1	1005.82	-29794.5	0.000000	0.000000	7.107289	27.47	NaN	0.000000	0.001636	0.001746	28.0824	20.5815	0.001829	11250.9	7.870943	0.857810	26.7657	1.105414	0.014638	0.014284	27.47	11250.9	0.012807	0.012471	2202.66	92046.2
757	2.000000	1.116255	7.37246e+06	-39239.1	1005.82	-29794.5	0.000000	0.000000	7.119015	57.6023	NaN	0.000000	0.001578	0.001759	28.0821	30.3368	0.001702	17823.8	3.368194	179.861	56.6732	1.115903	0.025126	0.024773	57.6023	17823.8	0.022702	0.026967	2136.05	99165.1
757	2.000000	1.126710	7.37246e+06	-39239.1	1005.82	-29794.5	0.000000	0.000000	7.130989	94.5551	NaN	0.000000	0.001571	0.001723	28.0831	41.1691	0.001801	22853.2	8.124393	-6.380056	93.5438	1.126388	0.035581	0.035259	94.5551	22853.2	0.032478	0.046036	2053.94	97313.1
757	2.000000	1.137182	7.37246e+06	-39239.1	1005.82	-29794.5	0.000000	0.000000	7.143682	148.616	NaN	0.000000	0.001558	0.001734	28.0812	49.1255	0.001755	27993.4	5.496667	175.061	146.151	1.136744	0.046052	0.045615	148.616	27993.4	0.042071	0.069489	2138.7	97021.9
757	2.000000	1.147649	7.37246e+06	-39239.1	1005.82	-29794.5	0.000000	0.000000	7.156156	197.451	NaN	0.000000	0.001574	0.001733	28.0812	59.9441	0.001847	32455.5	4.348477	-5.166366	193.677	1.147264	0.056520	0.056135	197.451	32455.5	0.051957	0.098558	2003.39	94452.8
757	2.000000	1.158181	7.37246e+06	-39239.1	1005.82	-29794.5	0.000000	0.000000	7.169397	263.392	NaN	0.000000	0.001572	0.001747	28.0809	69.7988	0.001859	37556.4	7.597795	170.705	263.436	1.157829	0.067052	0.066700	263.392	37556.4	0.061792	0.132312	1990.69	94331.6
757	2.000000	1.168689	7.37246e+06	-39239.1	1005.82	-29794.5	0.000000	0.000000	7.182871	335.577	NaN	0.000000	0.001600	0.001745	28.0821	79.2064	0.001807	43832.4	3.227218	-5.957799	336.704	1.168354	0.077559	0.077225	335.577	43832.4	0.071817	0.171560	1956.04	96685.4
757	2.000000	1.179096	7.37247e+06	-39239.1	1005.82	-29794.5	0.000000	0.000000	7.196467	413.164	NaN	0.000000	0.001596	0.001709	28.0824	88.5327	0.001901	46572.5	6.578177	169.871	409.436	1.178859	0.087967	0.087729	413.164	46572.5	0.081313	0.213130	1938.56	92168.2
757	2.000000	1.189516	7.37247e+06	-39239.1	1005.82	-29794.5	0.000000	0.000000	7.210238	494.723	NaN	0.000000	0.001554	0.001748	28.0823	97.0153	0.001702	57005.2	1.643450	-6.437288	486.31	1.189141	0.098386	0.098011	494.723	57005.2	0.091877	0.264297	1871.84	101307
757	2.000000	1.194136	7.37247e+06	-39239.1	1005.82	-29794.5	0.000000	0.000000	7.216869	543.648	NaN	0.000000	0.001560	0.001748	28.0825	101.43	0.001723	58852.8	4.797945	170.379	543.939	1.193656	0.103006	0.102527	543.648	58852.8	0.096078	0.286068	1900.41	100532