File: remote_trans/data/nanoindenter/0828-1/data/Data_2025-08-06,11h17m57s/2025-07-22_16-23-58_1_150.txt
2025-07-22, 16:23:58, 1
Index	Phase	Displacement	Time	Pos X	Pos Y	Pos Z	Rot A	Rot B	Piezo Z	Force A	Force B	Gripper	Voltage A	Voltage B	Temperature	Amplitude force	Amplitude pos	Stiffness	Phase shift	Phase excitation	Force A raw	Displacement raw	HMax	HMax raw	Real Force	Real Stiffness	Contact Depth	Area	Hardness	Reduced Mod.
[#]	[#]	[um]	[s]	[um]	[um]	[um]	[m°]	[m°]	[um]	[uN]	[uN]	[V]	[V]	[V]	[°C]	[uN]	[um]	[N/m]	[°]	[°]	[uN]	[um]	[um]	[um]	[uN]	[N/m]	[um]	[um^2]	[MPa]	[MPa]
150	1.000000	0.002911	7.3665e+06	-46139.1	955.818	-29770.6	0.000000	0.000000	6.002823	-0.040229	NaN	0.000000	0.001605	0.001716	28.0808	0.102724	0.001020	100.73	-124.58	-164.272	-0.027098	0.001634	-1.005848	-1.007126	-0.040229	100.73	-1.005549	-2.694437E+13	1.493032E-15	NaN
150	1.000000	0.040806	7.3665e+06	-46139.1	955.818	-29770.6	0.000000	0.000000	6.040720	0.038822	NaN	0.000000	0.001570	0.001741	28.1163	0.030314	0.001970	15.3905	-142.922	12.9497	-0.020331	0.039496	-0.967954	-0.969263	0.038822	15.3905	-0.969846	-8.903981E+12	-4.360022E-15	NaN
150	1.000000	0.078863	7.36651e+06	-46139.1	955.817	-29770.7	0.000000	0.000000	6.078778	0.034787	NaN	0.000000	0.001599	0.001721	28.1237	0.057705	0.001934	29.8371	-68.7943	-165.983	0.071872	0.077537	-0.929896	-0.931223	0.034787	29.8371	-0.930771	-2.646066E+12	-1.314654E-14	NaN
150	1.000000	0.116870	7.36651e+06	-46139.1	955.818	-29770.7	0.000000	0.000000	6.116782	-0.017011	NaN	0.000000	0.001579	0.001752	28.0864	0.052370	0.002010	26.0498	25.1273	12.9737	-0.054663	0.115522	-0.891890	-0.893238	-0.017011	26.0498	-0.891400	-7.777478E+11	2.187263E-14	NaN
150	1.000000	0.154873	7.36651e+06	-46139.1	955.819	-29770.7	0.000000	0.000000	6.154787	0.002173	NaN	0.000000	0.001596	0.001717	28.0818	0.055791	0.001912	29.1767	-33.0874	-164.553	-0.049372	0.153549	-0.853886	-0.855211	0.002173	29.1767	-0.853942	-2.421652E+11	-8.973672E-15	NaN
150	1.000000	0.192884	7.36651e+06	-46139.1	955.817	-29770.7	0.000000	0.000000	6.192797	-0.003886	NaN	0.000000	0.001552	0.001736	28.1182	0.124364	0.002084	59.676	173.628	13.7298	0.042876	0.191585	-0.815876	-0.817174	-0.003886	59.676	-0.815827	-7.372512E+10	5.271141E-14	NaN
150	1.000000	0.230919	7.36651e+06	-46139.1	955.818	-29770.7	0.000000	0.000000	6.230836	0.085387	NaN	0.000000	0.001582	0.001752	28.1227	0.022396	0.002077	10.7814	30.6924	-168.855	0.052479	0.229590	-0.777840	-0.779169	0.085387	10.7814	-0.783780	-2.707670E+10	-3.153518E-12	NaN
150	1.000000	0.268934	7.36651e+06	-46139.1	955.819	-29770.7	0.000000	0.000000	6.268846	-0.036805	NaN	0.000000	0.001578	0.001714	28.0841	0.088351	0.001907	46.3345	-99.405	12.6004	-0.028973	0.267592	-0.739825	-0.741168	-0.036805	46.3345	-0.739230	-6.707559E+9	5.487076E-12	NaN
150	1.000000	0.306949	7.36651e+06	-46139.1	955.818	-29770.7	0.000000	0.000000	6.306864	0.038482	NaN	0.000000	0.001609	0.001725	28.0808	0.057192	0.002032	28.1425	-31.4566	-167.055	0.046671	0.305632	-0.701810	-0.703127	0.038482	28.1425	-0.702836	-2.139209E+9	-1.798903E-11	NaN
150	1.000000	0.344956	7.36651e+06	-46139.1	955.818	-29770.7	0.000000	0.000000	6.344871	0.025877	NaN	0.000000	0.001585	0.001711	28.116	0.161574	0.001957	82.5425	18.563	12.9386	0.032962	0.343602	-0.663803	-0.665157	0.025877	82.5425	-0.664038	-6.306284E+8	-4.103303E-11	NaN
150	1.000000	0.382979	7.36651e+06	-46139.1	955.818	-29770.7	0.000000	0.000000	6.382895	0.068339	NaN	0.000000	0.001635	0.001749	28.1239	0.056841	0.002136	26.6158	-163.447	-164.608	0.021004	0.381700	-0.625781	-0.627060	0.068339	26.6158	-0.627707	-2.002288E+8	-3.413052E-10	NaN
150	1.000000	0.420974	7.36651e+06	-46139.1	955.818	-29770.7	0.000000	0.000000	6.420889	0.038372	NaN	0.000000	0.001553	0.001729	28.0846	0.128099	0.001960	65.3456	154.778	14.9703	-0.048022	0.419621	-0.587786	-0.589139	0.038372	65.3456	-0.588226	-5.730675E+7	-6.695854E-10	NaN
150	1.000000	0.459044	7.36651e+06	-46139.1	955.818	-29770.7	0.000000	0.000000	6.458959	0.040562	NaN	0.000000	0.001557	0.001746	28.0847	0.056154	0.001996	28.1329	159.955	-165.465	0.031592	0.457728	-0.549715	-0.551032	0.040562	28.1329	-0.550796	-1.741748E+7	-2.328826E-9	NaN
150	1.000000	0.497028	7.36651e+06	-46139.1	955.818	-29770.7	0.000000	0.000000	6.496946	0.104357	NaN	0.000000	0.001626	0.001768	28.1169	0.082325	0.001957	42.0694	-156.055	14.8238	0.072011	0.495682	-0.511731	-0.513077	0.104357	42.0694	-0.513592	-5.30185e+06	-1.968311E-8	NaN
150	1.000000	0.535040	7.36651e+06	-46139.1	955.818	-29770.7	0.000000	0.000000	6.534952	-0.018409	NaN	0.000000	0.001622	0.001774	28.1212	0.095385	0.002047	46.5874	95.1759	-167.697	-0.054764	0.533736	-0.473720	-0.475024	-0.018409	46.5874	-0.473423	-1.45682e+06	1.263613E-8	NaN
150	1.000000	0.573059	7.36651e+06	-46139.1	955.819	-29770.7	0.000000	0.000000	6.572973	0.035152	NaN	0.000000	0.001561	0.001731	28.083	0.051487	0.001886	27.2965	106.702	13.6734	-0.025055	0.571685	-0.435701	-0.437074	0.035152	27.2965	-0.436667	-442893	-7.936958E-8	NaN
150	1.000000	0.611048	7.36651e+06	-46139.1	955.82	-29770.7	0.000000	0.000000	6.610965	0.076538	NaN	0.000000	0.001615	0.001749	28.0817	0.062092	0.002000	31.0383	162.467	-165.698	0.061736	0.609749	-0.397711	-0.399011	0.076538	31.0383	-0.399561	-131743	-5.809643E-7	NaN
150	1.000000	0.649076	7.36651e+06	-46139.1	955.818	-29770.7	0.000000	0.000000	6.648987	-0.063300	NaN	0.000000	0.001565	0.001711	28.1185	0.067366	0.001932	34.8601	-41.9138	14.2285	0.000360	0.647746	-0.359683	-0.361014	-0.063300	34.8601	-0.358322	-33695.7	1.878566E-6	NaN
150	1.000000	0.687111	7.36651e+06	-46139.1	955.818	-29770.7	0.000000	0.000000	6.687028	0.085432	NaN	0.000000	0.001565	0.001692	28.1223	0.103486	0.001941	53.3075	36.1394	-164.164	0.141098	0.685774	-0.321649	-0.322985	0.085432	53.3075	-0.322850	-10246.2	-8.337924E-6	NaN
150	1.000000	0.725101	7.36651e+06	-46139.1	955.819	-29770.7	0.000000	0.000000	6.725013	-0.013199	NaN	0.000000	0.001597	0.001749	28.0846	0.113317	0.002056	55.1233	133.406	13.7162	-0.067858	0.723750	-0.283659	-0.285010	-0.013199	55.1233	-0.283479	-2663.13	4.956017E-6	NaN
150	1.000000	0.763115	7.36651e+06	-46139.1	955.819	-29770.7	0.000000	0.000000	6.763027	-0.030977	NaN	0.000000	0.001620	0.001728	28.0836	0.124493	0.001834	67.8771	60.7267	-166.189	0.031440	0.761818	-0.245644	-0.246942	-0.030977	67.8771	-0.245302	-695.255	4.455480E-5	NaN
150	1.000000	0.801138	7.36651e+06	-46139.1	955.818	-29770.7	0.000000	0.000000	6.801049	-0.041598	NaN	0.000000	0.001580	0.001732	28.1177	0.041963	0.001849	22.693	-76.8019	14.9299	0.015084	0.799745	-0.207622	-0.209015	-0.041598	22.693	-0.206247	-166.677	0.000250	NaN
150	1.000000	0.839155	7.36651e+06	-46139.1	955.818	-29770.7	0.000000	0.000000	6.839072	0.079464	NaN	0.000000	0.001580	0.001708	28.1206	0.123960	0.002046	60.5791	-173.169	-171.686	0.048866	0.837864	-0.169604	-0.170895	0.079464	60.5791	-0.170588	-42.0553	-0.001890	NaN
150	1.000000	0.877214	7.36651e+06	-46139.1	955.818	-29770.7	0.000000	0.000000	6.877128	0.018126	NaN	0.000000	0.001633	0.001753	28.0823	0.101797	0.001991	51.1309	53.9517	12.0002	0.036897	0.875794	-0.131546	-0.132965	0.018126	51.1309	-0.131812	-8.262134	-0.002194	NaN
150	1.000000	0.915191	7.36651e+06	-46139.1	955.818	-29770.7	0.000000	0.000000	6.915105	0.011904	NaN	0.000000	0.001664	0.001750	28.0832	0.017132	0.001927	8.892156	-6.794494	-163.712	0.009748	0.913943	-0.093569	-0.094816	0.011904	8.892156	-0.094573	-1.379314	-0.008630	NaN
150	1.000000	0.953191	7.36651e+06	-46139.1	955.819	-29770.7	0.000000	0.000000	6.953104	-0.014683	NaN	0.000000	0.001663	0.001759	28.12	0.090085	0.001948	46.2386	64.3452	13.3678	-0.032070	0.951891	-0.055568	-0.056869	-0.014683	46.2386	-0.055330	-0.131700	0.111485	NaN
150	1.000000	0.991227	7.36651e+06	-46139.1	955.818	-29770.7	0.000000	0.000000	6.991141	0.026220	NaN	0.000000	0.001653	0.001715	28.1208	0.030953	0.002024	15.2969	84.0459	-166.244	-0.024121	0.989914	-0.017533	-0.018846	0.026220	15.2969	-0.018818	-0.011718	-2.237561	NaN
150	2.000000	1.021197	7.36651e+06	-46139.1	955.819	-29770.7	0.000000	0.000000	7.021719	14.8089	NaN	0.000000	0.001551	0.001697	28.0829	12.7521	0.001650	7728.4	2.834257	7.925399	13.7726	1.020852	0.012438	0.012092	14.8089	7728.4	0.011001	0.010315	1435.7	69523.6
150	2.000000	1.030665	7.36651e+06	-46139.1	955.818	-29770.7	0.000000	0.000000	7.032049	35.7699	NaN	0.000000	0.001563	0.001685	28.0838	22.7763	0.001710	13317.8	1.374608	-173.404	34.605	1.030328	0.021906	0.021569	35.7699	13317.8	0.019891	0.022372	1598.88	81349.2
150	2.000000	1.040086	7.36651e+06	-46139.1	955.819	-29770.7	0.000000	0.000000	7.042607	63.4381	NaN	0.000000	0.001584	0.001710	28.1207	32.0002	0.001664	19230.1	-0.023310	4.271115	60.2625	1.039740	0.031326	0.030980	63.4381	19230.1	0.028852	0.038398	1652.12	89660.2
150	2.000000	1.049544	7.36651e+06	-46139.1	955.82	-29770.7	0.000000	0.000000	7.053654	102.084	NaN	0.000000	0.001561	0.001679	28.1193	40.8326	0.001642	24871.3	1.792375	-179.458	99.6055	1.049260	0.040785	0.040501	102.084	24871.3	0.037706	0.058235	1752.97	94162.8
150	2.000000	1.059130	7.36651e+06	-46139.1	955.819	-29770.7	0.000000	0.000000	7.064922	143.02	NaN	0.000000	0.001659	0.001717	28.0829	53.0879	0.001752	30302	9.166328	-9.049366	144.114	1.058704	0.050370	0.049945	143.02	30302	0.046830	0.082868	1725.86	96172.2
150	2.000000	1.068544	7.36651e+06	-46139.1	955.82	-29770.7	0.000000	0.000000	7.076464	194.759	NaN	0.000000	0.001672	0.001712	28.0841	61.1428	0.001793	34105.9	5.063915	173.393	192.199	1.068373	0.059784	0.059614	194.759	34105.9	0.055502	0.110174	1767.74	93878
150	2.000000	1.078077	7.36651e+06	-46139.1	955.819	-29770.7	0.000000	0.000000	7.088803	263.026	NaN	0.000000	0.001646	0.001703	28.1223	71.4449	0.001828	39086.5	5.636725	-7.049787	260.588	1.077681	0.069317	0.068921	263.026	39086.5	0.064270	0.141565	1857.99	94912.2
150	2.000000	1.087658	7.36651e+06	-46139.1	955.821	-29770.7	0.000000	0.000000	7.100943	325.292	NaN	0.000000	0.001550	0.001713	28.1185	82.303	0.001739	47337.4	4.260260	172.167	331.097	1.087287	0.078898	0.078528	325.292	47337.4	0.073744	0.179653	1810.67	102038
150	2.000000	1.097113	7.36651e+06	-46139.1	955.82	-29770.7	0.000000	0.000000	7.113616	403.547	NaN	0.000000	0.001616	0.001685	28.0833	90.7331	0.001791	50652.8	3.880593	-7.297199	402.905	1.096628	0.088353	0.087868	403.547	50652.8	0.082378	0.218054	1850.68	99104.9
150	2.000000	1.106557	7.36651e+06	-46139.1	955.82	-29770.7	0.000000	0.000000	7.126291	482.147	NaN	0.000000	0.001614	0.001669	28.0838	99.9903	0.001754	57002.4	5.605534	170.021	483.82	1.106157	0.097798	0.097398	482.147	57002.4	0.091454	0.262149	1839.21	101717
150	2.000000	1.115999	7.36651e+06	-46139.1	955.82	-29770.7	0.000000	0.000000	7.138851	558.005	NaN	0.000000	0.001579	0.001649	28.1214	109.269	0.001781	61343.5	4.590946	-9.963859	553.56	1.115692	0.107239	0.106932	558.005	61343.5	0.100417	0.309399	1803.52	100759
150	2.000000	1.117036	7.36651e+06	-46139.1	955.821	-29770.7	0.000000	0.000000	7.140446	571.558	NaN	0.000000	0.001547	0.001624	28.0811	110.331	0.001821	60590.8	3.179861	-7.446164	569.518	1.116646	0.108277	0.107886	571.558	60590.8	0.101202	0.313711	1821.93	98835.9