File: remote_trans/data/nanoindenter/0828-1/data/Data_2025-08-06,11h17m57s/2025-07-22_16-23-58_1_314.txt
2025-07-22, 16:23:58, 1
Index	Phase	Displacement	Time	Pos X	Pos Y	Pos Z	Rot A	Rot B	Piezo Z	Force A	Force B	Gripper	Voltage A	Voltage B	Temperature	Amplitude force	Amplitude pos	Stiffness	Phase shift	Phase excitation	Force A raw	Displacement raw	HMax	HMax raw	Real Force	Real Stiffness	Contact Depth	Area	Hardness	Reduced Mod.
[#]	[#]	[um]	[s]	[um]	[um]	[um]	[m°]	[m°]	[um]	[uN]	[uN]	[V]	[V]	[V]	[°C]	[uN]	[um]	[N/m]	[°]	[°]	[uN]	[um]	[um]	[um]	[uN]	[N/m]	[um]	[um^2]	[MPa]	[MPa]
314	1.000000	0.002501	7.36814e+06	-54339.1	955.82	-29744.2	0.000000	0.000000	6.002816	0.007441	NaN	0.000000	0.001626	0.001737	28.0797	0.063562	0.000896	70.9771	138.962	-171.68	0.115660	0.001266	-0.985606	-0.986841	0.007441	70.9771	-0.985685	-1.455436E+13	-5.112644E-16	NaN
314	1.000000	0.040440	7.36814e+06	-54339.1	955.817	-29744.2	0.000000	0.000000	6.040754	-0.009860	NaN	0.000000	0.001605	0.001738	28.0796	0.035264	0.001821	19.3642	-11.1694	15.3438	-0.061767	0.039110	-0.947667	-0.948997	-0.009860	19.3642	-0.947286	-4.419952E+12	2.230875E-15	NaN
314	1.000000	0.078468	7.36814e+06	-54339.1	955.819	-29744.2	0.000000	0.000000	6.078782	-0.006847	NaN	0.000000	0.001630	0.001737	28.0803	0.056219	0.001958	28.7111	143.719	-165.21	0.030147	0.077174	-0.909640	-0.910933	-0.006847	28.7111	-0.909461	-1.364210E+12	5.019114E-15	NaN
314	1.000000	0.116455	7.36814e+06	-54339.1	955.819	-29744.2	0.000000	0.000000	6.116771	0.025537	NaN	0.000000	0.001607	0.001711	28.0806	0.094227	0.001996	47.2166	91.9817	12.979	0.049652	0.115076	-0.871652	-0.873031	0.025537	47.2166	-0.872058	-4.258736E+11	-5.996267E-14	NaN
314	1.000000	0.154459	7.36814e+06	-54339.1	955.818	-29744.2	0.000000	0.000000	6.154777	0.078609	NaN	0.000000	0.001595	0.001763	28.0808	0.065870	0.002139	30.8007	-71.8341	-168.608	0.130870	0.153124	-0.833648	-0.834983	0.078609	30.8007	-0.835563	-1.365114E+11	-5.758449E-13	NaN
314	1.000000	0.192508	7.36814e+06	-54339.1	955.818	-29744.2	0.000000	0.000000	6.192822	-0.025517	NaN	0.000000	0.001629	0.001686	28.0807	0.087184	0.002056	42.4055	129.415	12.6817	0.025101	0.191156	-0.795599	-0.796951	-0.025517	42.4055	-0.795148	-3.863609E+10	6.604461E-13	NaN
314	1.000000	0.230500	7.36814e+06	-54339.1	955.819	-29744.2	0.000000	0.000000	6.230813	-0.026411	NaN	0.000000	0.001618	0.001721	28.0794	0.051435	0.002094	24.5668	82.9129	-166.653	0.021204	0.229234	-0.757608	-0.758873	-0.026411	24.5668	-0.756801	-1.163542E+10	2.269852E-12	NaN
314	1.000000	0.268528	7.36814e+06	-54339.1	955.818	-29744.2	0.000000	0.000000	6.268840	-0.047469	NaN	0.000000	0.001557	0.001721	28.0796	0.124407	0.001814	68.5967	-111.754	13.4415	0.005652	0.267193	-0.719580	-0.720914	-0.047469	68.5967	-0.719061	-3.561745E+9	1.332734E-11	NaN
314	1.000000	0.306558	7.36814e+06	-54339.1	955.82	-29744.2	0.000000	0.000000	6.306872	-0.021584	NaN	0.000000	0.001608	0.001667	28.0792	0.041122	0.002072	19.8467	88.1939	-165.336	-0.010093	0.305212	-0.681550	-0.682895	-0.021584	19.8467	-0.680734	-1.067193E+9	2.022501E-11	NaN
314	1.000000	0.344581	7.36814e+06	-54339.1	955.818	-29744.2	0.000000	0.000000	6.344893	-0.074772	NaN	0.000000	0.001635	0.001693	28.0806	0.032450	0.001923	16.8707	97.8584	12.096	-0.130021	0.343178	-0.643526	-0.644930	-0.074772	16.8707	-0.640202	-2.972083E+8	2.515813E-10	NaN
314	1.000000	0.382585	7.36814e+06	-54339.1	955.818	-29744.2	0.000000	0.000000	6.382898	-0.041837	NaN	0.000000	0.001637	0.001708	28.0804	0.047451	0.001953	24.2905	-81.2276	-165.796	0.000995	0.381310	-0.605522	-0.606797	-0.041837	24.2905	-0.604230	-9.521607E+7	4.393944E-10	NaN
314	1.000000	0.420605	7.36814e+06	-54339.1	955.818	-29744.2	0.000000	0.000000	6.420917	-0.055620	NaN	0.000000	0.001657	0.001738	28.0806	0.064029	0.002061	31.063	-147.247	12.6528	-0.010868	0.419211	-0.567503	-0.568896	-0.055620	31.063	-0.566160	-2.841581E+7	1.957355E-9	NaN
314	1.000000	0.458624	7.36814e+06	-54339.1	955.818	-29744.2	0.000000	0.000000	6.458940	0.033368	NaN	0.000000	0.001656	0.001708	28.0805	0.016993	0.001887	9.007370	108.098	-163.907	-0.038386	0.457277	-0.529484	-0.530830	0.033368	9.007370	-0.532262	-9.63798e+06	-3.462171E-9	NaN
314	1.000000	0.496609	7.36814e+06	-54339.1	955.818	-29744.2	0.000000	0.000000	6.496923	-0.030256	NaN	0.000000	0.001634	0.001727	28.0793	0.030025	0.001896	15.8384	-117.942	9.159726	-0.069114	0.495289	-0.491498	-0.492818	-0.030256	15.8384	-0.490065	-2.49061e+06	1.214784E-8	NaN
314	1.000000	0.534643	7.36814e+06	-54339.1	955.818	-29744.2	0.000000	0.000000	6.534958	0.002289	NaN	0.000000	0.001609	0.001735	28.0794	0.080335	0.002107	38.135	25.1371	-168.15	-0.001449	0.533355	-0.453464	-0.454753	0.002289	38.135	-0.453509	-765146	-2.991589E-9	NaN
314	1.000000	0.572640	7.36814e+06	-54339.1	955.818	-29744.2	0.000000	0.000000	6.572952	-0.068795	NaN	0.000000	0.001630	0.001768	28.0793	0.047299	0.001873	25.2578	129.751	13.1951	-0.035653	0.571292	-0.415468	-0.416815	-0.068795	25.2578	-0.413425	-207530	3.314955E-7	NaN
314	1.000000	0.610668	7.36814e+06	-54339.1	955.819	-29744.2	0.000000	0.000000	6.610982	-0.019906	NaN	0.000000	0.001691	0.001724	28.0806	0.010119	0.002084	4.855213	14.1334	-166.296	-0.010797	0.609371	-0.377439	-0.378736	-0.019906	4.855213	-0.374364	-57402.2	3.467750E-7	NaN
314	1.000000	0.648706	7.36814e+06	-54339.1	955.817	-29744.2	0.000000	0.000000	6.649019	-0.036392	NaN	0.000000	0.001705	0.001712	28.0807	0.119968	0.002024	59.2697	3.629644	10.8956	-0.011825	0.647358	-0.339401	-0.340749	-0.036392	59.2697	-0.338941	-17624.3	2.064860E-6	NaN
314	1.000000	0.686726	7.36814e+06	-54339.1	955.819	-29744.2	0.000000	0.000000	6.687039	-0.020842	NaN	0.000000	0.001595	0.001696	28.0813	0.085232	0.002103	40.5197	-87.9324	-165.907	-0.017575	0.685418	-0.301382	-0.302689	-0.020842	40.5197	-0.300996	-4869.21	4.280425E-6	NaN
314	1.000000	0.724752	7.36814e+06	-54339.1	955.818	-29744.2	0.000000	0.000000	6.725067	-0.001428	NaN	0.000000	0.001677	0.001709	28.0806	0.080049	0.001917	41.7609	143.88	11.6999	0.044001	0.723316	-0.263355	-0.264791	-0.001428	41.7609	-0.263330	-1317.89	1.083661E-6	NaN
314	1.000000	0.762734	7.36814e+06	-54339.1	955.818	-29744.2	0.000000	0.000000	6.763049	0.013090	NaN	0.000000	0.001697	0.001740	28.0795	0.057968	0.001987	29.1717	32.7861	-165.129	0.030689	0.761419	-0.225374	-0.226688	0.013090	29.1717	-0.225710	-342.462	-3.822430E-5	NaN
314	1.000000	0.800744	7.36814e+06	-54339.1	955.819	-29744.2	0.000000	0.000000	6.801057	-0.024959	NaN	0.000000	0.001613	0.001714	28.0796	0.037393	0.002129	17.5617	54.4133	14.0287	-0.003427	0.799408	-0.187364	-0.188699	-0.024959	17.5617	-0.186298	-77.9793	0.000320	NaN
314	1.000000	0.838760	7.36814e+06	-54339.1	955.819	-29744.2	0.000000	0.000000	6.839074	-0.022692	NaN	0.000000	0.001615	0.001717	28.0795	0.016472	0.001990	8.276403	26.7983	-171.09	-0.017338	0.837446	-0.149347	-0.150661	-0.022692	8.276403	-0.147291	-16.1589	0.001404	NaN
314	1.000000	0.876808	7.36814e+06	-54339.1	955.818	-29744.2	0.000000	0.000000	6.877123	0.009235	NaN	0.000000	0.001618	0.001709	28.0798	0.057757	0.002207	26.1681	-177.106	11.2398	0.018495	0.875365	-0.111299	-0.112742	0.009235	26.1681	-0.111564	-3.241328	-0.002849	NaN
314	1.000000	0.914812	7.36814e+06	-54339.1	955.819	-29744.2	0.000000	0.000000	6.915125	-0.033511	NaN	0.000000	0.001633	0.001711	28.0807	0.025090	0.002043	12.2787	29.7541	-167.825	-0.010752	0.913519	-0.073295	-0.074588	-0.033511	12.2787	-0.071248	-0.368289	0.090990	NaN
314	1.000000	0.952792	7.36814e+06	-54339.1	955.818	-29744.2	0.000000	0.000000	6.953106	-0.029091	NaN	0.000000	0.001588	0.001709	28.0805	0.108869	0.002014	54.0599	141.732	11.6207	-0.015645	0.951424	-0.035315	-0.036683	-0.029091	54.0599	-0.034911	-0.031833	0.913871	NaN
314	1.000000	0.990807	7.36814e+06	-54339.1	955.819	-29744.2	0.000000	0.000000	6.991169	1.145122	NaN	0.000000	0.001633	0.001735	28.0807	1.558881	0.001827	853.065	12.783	-168.768	0.327171	0.989519	0.002699	0.001411	1.145122	853.065	0.001693	0.001308	875.588	21551.6
314	2.000000	1.005882	7.36814e+06	-54339.1	955.818	-29744.2	0.000000	0.000000	7.007012	19.8281	NaN	0.000000	0.001667	0.001772	28.0793	18.7339	0.001876	9987.6	10.8194	-1.140372	19.6894	1.005531	0.017774	0.017424	19.8281	9987.6	0.016285	0.017038	1163.78	69908.5
314	2.000000	1.015352	7.36814e+06	-54339.1	955.818	-29744.2	0.000000	0.000000	7.017196	37.1807	NaN	0.000000	0.001710	0.001727	28.0792	27.6888	0.001758	15753.6	7.679006	177.806	38.9579	1.015060	0.027245	0.026953	37.1807	15753.6	0.025475	0.031885	1166.08	80604.5
314	2.000000	1.024837	7.36814e+06	-54339.1	955.819	-29744.2	0.000000	0.000000	7.027993	69.0723	NaN	0.000000	0.001714	0.001719	28.0793	37.1156	0.001697	21873.3	6.712540	-4.840575	67.6202	1.024417	0.036730	0.036309	69.0723	21873.3	0.034362	0.050270	1374.03	89131.7
314	2.000000	1.034298	7.36814e+06	-54339.1	955.818	-29744.2	0.000000	0.000000	7.038734	100.184	NaN	0.000000	0.001638	0.001713	28.0791	46.5937	0.001792	25993.9	3.242753	176.809	99.3597	1.034026	0.046191	0.045919	100.184	25993.9	0.043300	0.072835	1375.5	87998.4
314	2.000000	1.043834	7.36814e+06	-54339.1	955.82	-29744.2	0.000000	0.000000	7.050127	145.338	NaN	0.000000	0.001627	0.001717	28.0806	57.639	0.001807	31904.3	7.266426	-8.815564	144.88	1.043458	0.055727	0.055351	145.338	31904.3	0.052310	0.099687	1457.94	92321.4
314	2.000000	1.053261	7.36814e+06	-54339.1	955.819	-29744.2	0.000000	0.000000	7.061434	191.056	NaN	0.000000	0.001636	0.001659	28.0804	66.9363	0.001819	36796.5	5.197523	172.472	190.175	1.052978	0.065153	0.064870	191.056	36796.5	0.061259	0.130362	1465.58	93111.7
314	2.000000	1.062799	7.36814e+06	-54339.1	955.819	-29744.2	0.000000	0.000000	7.073035	241.199	NaN	0.000000	0.001615	0.001727	28.0803	77.6265	0.001812	42847.2	6.937426	-10.524	240.754	1.062453	0.074691	0.074345	241.199	42847.2	0.070469	0.166003	1452.98	96081.1
314	2.000000	1.072264	7.36814e+06	-54339.1	955.819	-29744.2	0.000000	0.000000	7.085125	305.011	NaN	0.000000	0.001657	0.001711	28.0789	87.4665	0.001746	50093.3	1.878513	173.632	305.289	1.071994	0.084157	0.083886	305.011	50093.3	0.079590	0.205274	1485.87	101015
314	2.000000	1.081656	7.36814e+06	-54339.1	955.819	-29744.2	0.000000	0.000000	7.097558	378.938	NaN	0.000000	0.001640	0.001696	28.0793	97.2307	0.001773	54826.5	3.774556	-8.050456	370.187	1.081181	0.093549	0.093074	378.938	54826.5	0.088365	0.246715	1535.94	100848
314	2.000000	1.091114	7.36814e+06	-54339.1	955.82	-29744.2	0.000000	0.000000	7.110460	462.666	NaN	0.000000	0.001619	0.001684	28.0794	107.179	0.001787	59976.1	4.777960	169.568	456.173	1.090828	0.103007	0.102721	462.666	59976.1	0.097221	0.292130	1583.77	101383
314	2.000000	1.096769	7.36814e+06	-54339.1	955.82	-29744.2	0.000000	0.000000	7.118754	526.839	NaN	0.000000	0.001632	0.001701	28.0791	112.777	0.001721	65542.5	4.770668	-10.7714	526.325	1.096341	0.108661	0.108234	526.839	65542.5	0.102633	0.321643	1637.97	105587