File: remote_trans/data/nanoindenter/0828-1/data/Data_2025-08-06,11h17m57s/2025-07-22_16-23-58_1_594.txt
2025-07-22, 16:23:58, 1
Index	Phase	Displacement	Time	Pos X	Pos Y	Pos Z	Rot A	Rot B	Piezo Z	Force A	Force B	Gripper	Voltage A	Voltage B	Temperature	Amplitude force	Amplitude pos	Stiffness	Phase shift	Phase excitation	Force A raw	Displacement raw	HMax	HMax raw	Real Force	Real Stiffness	Contact Depth	Area	Hardness	Reduced Mod.
[#]	[#]	[um]	[s]	[um]	[um]	[um]	[m°]	[m°]	[um]	[uN]	[uN]	[V]	[V]	[V]	[°C]	[uN]	[um]	[N/m]	[°]	[°]	[uN]	[um]	[um]	[um]	[uN]	[N/m]	[um]	[um^2]	[MPa]	[MPa]
594	1.000000	0.002081	7.37086e+06	-47389.1	1005.82	-29765.6	0.000000	0.000000	6.002787	0.023423	NaN	0.000000	0.001565	0.001751	28.0794	0.041170	0.000886	46.4831	20.0974	-165.475	0.008699	0.000830	-1.798001	-1.799252	0.023423	46.4831	-1.798379	-1.029506E+24	-2.275121E-26	NaN
594	1.000000	0.062029	7.37086e+06	-47389.1	1005.82	-29765.6	0.000000	0.000000	6.062734	0.008298	NaN	0.000000	0.001639	0.001734	28.0783	0.031600	0.001899	16.6372	19.3125	-166.495	-0.075561	0.060732	-1.738053	-1.739350	0.008298	16.6372	-1.738427	-1.647430E+23	-5.036928E-26	NaN
594	1.000000	0.122061	7.37086e+06	-47389.1	1005.82	-29765.5	0.000000	0.000000	6.122764	-0.054541	NaN	0.000000	0.001608	0.001761	28.078	0.081189	0.002091	38.8311	-25.9502	-165.93	-0.016457	0.120779	-1.678021	-1.679303	-0.054541	38.8311	-1.676968	-2.514358E+22	2.169187E-24	NaN
594	1.000000	0.182108	7.37086e+06	-47389.1	1005.82	-29765.5	0.000000	0.000000	6.182816	0.066796	NaN	0.000000	0.001608	0.001755	28.0791	0.032731	0.001944	16.8338	141.167	-164.521	0.092819	0.180804	-1.617974	-1.619278	0.066796	16.8338	-1.620950	-4.527213E+21	-1.475424E-23	NaN
594	1.000000	0.242146	7.37086e+06	-47389.1	1005.82	-29765.5	0.000000	0.000000	6.242850	-0.017861	NaN	0.000000	0.001638	0.001783	28.0794	0.068990	0.001947	35.4337	-121.989	-167.245	0.013280	0.240832	-1.557936	-1.559251	-0.017861	35.4337	-1.557558	-6.495081E+20	2.749970E-23	NaN
594	1.000000	0.302119	7.37086e+06	-47389.1	1005.82	-29765.5	0.000000	0.000000	6.302825	0.015877	NaN	0.000000	0.001552	0.001787	28.0777	0.112362	0.001920	58.5337	164.782	-165.627	0.017368	0.300789	-1.497963	-1.499293	0.015877	58.5337	-1.498166	-1.051692E+20	-1.509624E-22	NaN
594	1.000000	0.362178	7.37086e+06	-47389.1	1005.82	-29765.5	0.000000	0.000000	6.362885	0.046628	NaN	0.000000	0.001582	0.001745	28.0774	0.073900	0.001979	37.3349	-99.6906	-166.739	-0.011383	0.360803	-1.437904	-1.439279	0.046628	37.3349	-1.438841	-1.703736E+19	-2.736791E-21	NaN
594	1.000000	0.422182	7.37086e+06	-47389.1	1005.82	-29765.5	0.000000	0.000000	6.422886	-0.026941	NaN	0.000000	0.001612	0.001769	28.0779	0.047796	0.001950	24.5113	-151.242	-167.269	0.017941	0.420886	-1.377900	-1.379196	-0.026941	24.5113	-1.377076	-2.556334E+18	1.053909E-20	NaN
594	1.000000	0.482237	7.37086e+06	-47389.1	1005.82	-29765.5	0.000000	0.000000	6.482943	0.012715	NaN	0.000000	0.001588	0.001781	28.0787	0.051376	0.002007	25.5991	121.032	-166.526	0.005246	0.480925	-1.317845	-1.319157	0.012715	25.5991	-1.318217	-4.185942E+17	-3.037616E-20	NaN
594	1.000000	0.542248	7.37086e+06	-47389.1	1005.82	-29765.5	0.000000	0.000000	6.542951	-0.043729	NaN	0.000000	0.001588	0.001790	28.079	0.013585	0.002107	6.447580	137.037	-165.456	0.006325	0.540951	-1.257834	-1.259132	-0.043729	6.447580	-1.252747	-5.580440E+16	7.836199E-19	NaN
594	1.000000	0.602270	7.37086e+06	-47389.1	1005.82	-29765.5	0.000000	0.000000	6.602976	0.011604	NaN	0.000000	0.001630	0.001771	28.078	0.038519	0.001922	20.0446	-51.9687	-167.062	-0.034412	0.601019	-1.197812	-1.199063	0.011604	20.0446	-1.198246	-1.040545E+16	-1.115146E-18	NaN
594	1.000000	0.662285	7.37086e+06	-47389.1	1005.82	-29765.5	0.000000	0.000000	6.662992	0.047309	NaN	0.000000	0.001602	0.001757	28.0776	0.109728	0.002119	51.7811	-178.031	-166.21	0.038938	0.660997	-1.137797	-1.139085	0.047309	51.7811	-1.138483	-1.645851E+15	-2.874424E-17	NaN
594	1.000000	0.722342	7.37086e+06	-47389.1	1005.82	-29765.5	0.000000	0.000000	6.723047	-0.006180	NaN	0.000000	0.001556	0.001787	28.0792	0.152722	0.001982	77.0603	157.698	-162.168	0.033904	0.721007	-1.077740	-1.079076	-0.006180	77.0603	-1.077680	-2.513931E+14	2.458267E-17	NaN
594	1.000000	0.782359	7.37086e+06	-47389.1	1005.82	-29765.5	0.000000	0.000000	6.783065	0.016846	NaN	0.000000	0.001558	0.001763	28.0791	0.102354	0.001907	53.6678	139.021	-164.39	-0.016063	0.781001	-1.017723	-1.019081	0.016846	53.6678	-1.017959	-3.958090E+13	-4.256052E-16	NaN
594	1.000000	0.842372	7.37086e+06	-47389.1	1005.82	-29765.5	0.000000	0.000000	6.843075	-0.056547	NaN	0.000000	0.001540	0.001752	28.0776	0.019585	0.001904	10.2885	32.4927	-164.415	-0.098704	0.841038	-0.957710	-0.959044	-0.056547	10.2885	-0.953588	-5.375382E+12	1.051965E-14	NaN
594	1.000000	0.902386	7.37086e+06	-47389.1	1005.82	-29765.5	0.000000	0.000000	6.903092	0.021038	NaN	0.000000	0.001551	0.001747	28.0778	0.011997	0.001983	6.050081	131.063	-167.091	0.053012	0.901117	-0.897696	-0.898966	0.021038	6.050081	-0.900304	-1.026073E+12	-2.050370E-14	NaN
594	1.000000	0.962394	7.37086e+06	-47389.1	1005.82	-29765.5	0.000000	0.000000	6.963100	0.021135	NaN	0.000000	0.001621	0.001752	28.0778	0.093018	0.002075	44.836	69.9234	-167.506	-0.011389	0.961102	-0.837689	-0.838980	0.021135	44.836	-0.838042	-1.474911E+11	-1.432951E-13	NaN
594	1.000000	1.022428	7.37086e+06	-47389.1	1005.82	-29765.5	0.000000	0.000000	7.023131	-0.038233	NaN	0.000000	0.001515	0.001777	28.0789	0.038611	0.001998	19.324	128.66	-168.739	-0.020640	1.021165	-0.777655	-0.778917	-0.038233	19.324	-0.776171	-2.133978E+10	1.791615E-12	NaN
594	1.000000	1.082459	7.37086e+06	-47389.1	1005.82	-29765.5	0.000000	0.000000	7.083163	-0.031083	NaN	0.000000	0.001620	0.001803	28.079	0.021156	0.002075	10.1943	-61.7184	-166.835	-0.011681	1.081130	-0.717623	-0.718952	-0.031083	10.1943	-0.715336	-3.168541E+9	9.809948E-12	NaN
594	1.000000	1.142493	7.37086e+06	-47389.1	1005.82	-29765.5	0.000000	0.000000	7.143202	0.097830	NaN	0.000000	0.001622	0.001793	28.0778	0.088250	0.001999	44.1421	28.0025	-171.546	0.083272	1.141151	-0.657589	-0.658931	0.097830	44.1421	-0.659252	-5.422726E+8	-1.804076E-10	NaN
594	1.000000	1.202502	7.37086e+06	-47389.1	1005.82	-29765.5	0.000000	0.000000	7.203206	-0.013065	NaN	0.000000	0.001643	0.001794	28.0783	0.022712	0.001862	12.1945	129.978	-164.27	-0.035579	1.201161	-0.597580	-0.598921	-0.013065	12.1945	-0.596777	-7.517269E+7	1.738013E-10	NaN
594	1.000000	1.262549	7.37086e+06	-47389.1	1005.82	-29765.5	0.000000	0.000000	7.263254	-0.005001	NaN	0.000000	0.001562	0.001772	28.0787	0.084474	0.002000	42.2356	119.981	-167.818	0.010552	1.261292	-0.537533	-0.538790	-0.005001	42.2356	-0.537444	-1.137391E+7	4.396940E-10	NaN
594	1.000000	1.322543	7.37086e+06	-47389.1	1005.82	-29765.5	0.000000	0.000000	7.323248	0.003518	NaN	0.000000	0.001578	0.001766	28.0792	0.040101	0.001910	20.9931	-85.19	-165.193	0.018784	1.321266	-0.477540	-0.478816	0.003518	20.9931	-0.477665	-1.67046e+06	-2.105842E-9	NaN
594	1.000000	1.382579	7.37086e+06	-47389.1	1005.82	-29765.5	0.000000	0.000000	7.383284	-0.015572	NaN	0.000000	0.001541	0.001800	28.0778	0.085450	0.002085	40.9829	170.699	-167.951	-0.016742	1.381287	-0.417503	-0.418795	-0.015572	40.9829	-0.417218	-234931	6.628501E-8	NaN
594	1.000000	1.442603	7.37086e+06	-47389.1	1005.82	-29765.5	0.000000	0.000000	7.443306	-0.039151	NaN	0.000000	0.001516	0.001782	28.0778	0.068392	0.002045	33.4394	-52.7533	-166.506	-0.082965	1.441262	-0.357480	-0.358821	-0.039151	33.4394	-0.356601	-31818.8	1.230433E-6	NaN
594	1.000000	1.502680	7.37086e+06	-47389.1	1005.82	-29765.5	0.000000	0.000000	7.503387	0.047217	NaN	0.000000	0.001526	0.001783	28.0778	0.054234	0.001861	29.1429	73.0036	-166.161	0.029550	1.501316	-0.297402	-0.298766	0.047217	29.1429	-0.298618	-4487.96	-1.052090E-5	NaN
594	1.000000	1.562695	7.37086e+06	-47389.1	1005.82	-29765.5	0.000000	0.000000	7.563396	-0.100519	NaN	0.000000	0.001543	0.001812	28.0789	0.037527	0.002033	18.4583	-139.505	-164.676	-0.056048	1.561372	-0.237387	-0.238710	-0.100519	18.4583	-0.233303	-451.407	0.000223	NaN
594	1.000000	1.622701	7.37087e+06	-47389.1	1005.82	-29765.5	0.000000	0.000000	7.623407	0.017838	NaN	0.000000	0.001606	0.001718	28.0801	0.099321	0.002049	48.4643	-162.034	-164.3	-0.019660	1.621391	-0.177381	-0.178691	0.017838	48.4643	-0.177657	-55.657	-0.000320	NaN
594	1.000000	1.682744	7.37087e+06	-47389.1	1005.82	-29765.5	0.000000	0.000000	7.683448	-0.012564	NaN	0.000000	0.001605	0.001723	28.0781	0.042911	0.002074	20.6926	-162.649	-166.675	0.055143	1.681437	-0.117339	-0.118645	-0.012564	20.6926	-0.116883	-4.176073	0.003009	NaN
594	1.000000	1.742752	7.37087e+06	-47389.1	1005.82	-29765.5	0.000000	0.000000	7.743457	0.015314	NaN	0.000000	0.001608	0.001775	28.0778	0.104780	0.002088	50.1756	43.7452	-166.329	-0.038104	1.741470	-0.057330	-0.058612	0.015314	50.1756	-0.057559	-0.153087	-0.100033	NaN
594	1.000000	1.802777	7.37087e+06	-47389.1	1005.82	-29765.5	0.000000	0.000000	7.803682	4.856498	NaN	0.000000	0.001552	0.001768	28.0791	5.392749	0.001817	2967.93	10.918	-171.193	3.409356	1.801435	0.002695	0.001353	4.856498	2967.93	0.001468	0.001129	4301.8	80703.2
594	2.000000	1.820311	7.37087e+06	-47389.1	1005.82	-29765.5	0.000000	0.000000	7.822367	32.8716	NaN	0.000000	0.001527	0.001745	28.0802	22.3841	0.001729	12946.9	4.645738	-177.889	32.8262	1.819914	0.020229	0.019832	32.8716	12946.9	0.018324	0.019977	1645.44	83689.4
594	2.000000	1.835258	7.37087e+06	-47389.1	1005.82	-29765.5	0.000000	0.000000	7.839234	79.5506	NaN	0.000000	0.001542	0.001746	28.08	36.6952	0.001719	21346.6	4.549080	176.979	79.553	1.834959	0.035176	0.034877	79.5506	21346.6	0.032381	0.045824	1736.01	91108.2
594	2.000000	1.850201	7.37087e+06	-47389.1	1005.82	-29765.5	0.000000	0.000000	7.856607	138.67	NaN	0.000000	0.001529	0.001705	28.0778	49.2437	0.001839	26782.2	5.268932	174.843	136.701	1.849990	0.050119	0.049908	138.67	26782.2	0.046236	0.081134	1709.14	85904.8
594	2.000000	1.865216	7.37087e+06	-47389.1	1005.82	-29765.5	0.000000	0.000000	7.874934	219.227	NaN	0.000000	0.001583	0.001726	28.0779	61.9495	0.001839	33683.5	2.581650	175.708	217.009	1.864915	0.065133	0.064833	219.227	33683.5	0.060252	0.126714	1730.09	86452.6
594	2.000000	1.880146	7.37087e+06	-47389.1	1005.82	-29765.5	0.000000	0.000000	7.893474	307.035	NaN	0.000000	0.001617	0.001754	28.0793	73.8558	0.001816	40674.9	4.773455	172.368	306.561	1.879854	0.080064	0.079772	307.035	40674.9	0.074403	0.182458	1682.77	86999.8
594	2.000000	1.895180	7.37087e+06	-47389.1	1005.82	-29765.5	0.000000	0.000000	7.912850	412.651	NaN	0.000000	0.001604	0.001757	28.0795	88.0762	0.001860	47344.3	6.340634	170.025	409.718	1.894825	0.095098	0.094743	412.651	47344.3	0.088561	0.247680	1666.06	86915.1
594	2.000000	1.904699	7.37087e+06	-47389.1	1005.82	-29765.5	0.000000	0.000000	7.924955	475.532	NaN	0.000000	0.001670	0.001774	28.078	96.0708	0.001853	51835.1	5.813742	-10.4443	474.301	1.904412	0.104617	0.104330	475.532	51835.1	0.097737	0.294885	1612.6	87210.8