File: remote_trans/data/nanoindenter/0828-1/data/Data_2025-08-06,11h17m57s/2025-07-22_16-23-58_1_711.txt
2025-07-22, 16:23:58, 1
Index	Phase	Displacement	Time	Pos X	Pos Y	Pos Z	Rot A	Rot B	Piezo Z	Force A	Force B	Gripper	Voltage A	Voltage B	Temperature	Amplitude force	Amplitude pos	Stiffness	Phase shift	Phase excitation	Force A raw	Displacement raw	HMax	HMax raw	Real Force	Real Stiffness	Contact Depth	Area	Hardness	Reduced Mod.
[#]	[#]	[um]	[s]	[um]	[um]	[um]	[m°]	[m°]	[um]	[uN]	[uN]	[V]	[V]	[V]	[°C]	[uN]	[um]	[N/m]	[°]	[°]	[uN]	[um]	[um]	[um]	[uN]	[N/m]	[um]	[um^2]	[MPa]	[MPa]
711	1.000000	0.002605	7.37201e+06	-41539.1	1005.82	-29785.9	0.000000	0.000000	6.002829	-0.022203	NaN	0.000000	0.001607	0.001665	28.0841	0.052254	0.001082	48.2951	123.22	-165.951	-0.064650	0.001260	-1.091295	-1.092640	-0.022203	48.2951	-1.090951	-3.789457E+14	5.859117E-17	NaN
711	1.000000	0.044504	7.37201e+06	-41539.1	1005.82	-29785.9	0.000000	0.000000	6.044728	-0.032369	NaN	0.000000	0.001668	0.001691	28.0835	0.101812	0.001907	53.3913	-179.741	12.3165	-0.009059	0.043159	-1.049396	-1.050741	-0.032369	53.3913	-1.048941	-1.033200E+14	3.132917E-16	NaN
711	1.000000	0.086515	7.37201e+06	-41539.1	1005.82	-29785.9	0.000000	0.000000	6.086739	-0.051728	NaN	0.000000	0.001677	0.001683	28.0839	0.044868	0.002099	21.3739	125.388	-165.423	-0.095738	0.085253	-1.007385	-1.008648	-0.051728	21.3739	-1.005570	-2.696208E+13	1.918563E-15	NaN
711	1.000000	0.128554	7.37201e+06	-41539.1	1005.82	-29785.9	0.000000	0.000000	6.128779	-0.015716	NaN	0.000000	0.001672	0.001691	28.0839	0.094889	0.001888	50.2568	-7.046270	11.4206	-0.017063	0.127213	-0.965346	-0.966687	-0.015716	50.2568	-0.965111	-7.687312E+12	2.044369E-15	NaN
711	1.000000	0.170549	7.37201e+06	-41539.1	1005.82	-29785.9	0.000000	0.000000	6.170776	0.025862	NaN	0.000000	0.001738	0.001695	28.0825	0.036700	0.002090	17.5594	-40.91	-165.998	0.013830	0.169242	-0.923351	-0.924658	0.025862	17.5594	-0.924455	-2.174490E+12	-1.189356E-14	NaN
711	1.000000	0.212558	7.37201e+06	-41539.1	1005.82	-29785.9	0.000000	0.000000	6.212782	-0.020599	NaN	0.000000	0.001639	0.001702	28.0825	0.012629	0.002122	5.951841	177.678	13.3898	-0.100578	0.211273	-0.881343	-0.882627	-0.020599	5.951841	-0.878747	-5.245203E+11	3.927302E-14	NaN
711	1.000000	0.254598	7.37201e+06	-41539.1	1005.82	-29785.9	0.000000	0.000000	6.254822	-0.032730	NaN	0.000000	0.001619	0.001682	28.0825	0.080465	0.001955	41.1679	-66.7416	-168.262	-0.003257	0.253275	-0.839302	-0.840625	-0.032730	41.1679	-0.838706	-1.505773E+11	2.173613E-13	NaN
711	1.000000	0.296638	7.37201e+06	-41539.1	1005.82	-29785.9	0.000000	0.000000	6.296864	0.006441	NaN	0.000000	0.001623	0.001698	28.0838	0.061337	0.001909	32.134	-129.654	15.9142	-0.031482	0.295322	-0.797262	-0.798579	0.006441	32.134	-0.797412	-4.147023E+10	-1.553076E-13	NaN
711	1.000000	0.338657	7.37201e+06	-41539.1	1005.82	-29785.9	0.000000	0.000000	6.338882	-0.006108	NaN	0.000000	0.001631	0.001729	28.0836	0.124117	0.002068	60.0254	-28.9043	-165	-0.049861	0.337347	-0.755244	-0.756554	-0.006108	60.0254	-0.755167	-1.105476E+10	5.525673E-13	NaN
711	1.000000	0.380674	7.37201e+06	-41539.1	1005.82	-29785.9	0.000000	0.000000	6.380900	0.025318	NaN	0.000000	0.001662	0.001718	28.0834	0.097162	0.001967	49.3853	-13.4202	14.0766	0.086336	0.379253	-0.713226	-0.714647	0.025318	49.3853	-0.713611	-3.001374E+9	-8.435506E-12	NaN
711	1.000000	0.422694	7.37201e+06	-41539.1	1005.82	-29785.9	0.000000	0.000000	6.422921	0.050196	NaN	0.000000	0.001646	0.001717	28.0822	0.034730	0.002083	16.6733	-90.2377	-163.865	-0.033080	0.421367	-0.671206	-0.672533	0.050196	16.6733	-0.673464	-8.487861E+8	-5.913903E-11	NaN
711	1.000000	0.464706	7.37201e+06	-41539.1	1005.82	-29785.9	0.000000	0.000000	6.464933	0.036581	NaN	0.000000	0.001604	0.001733	28.0822	0.091021	0.002153	42.2724	107.439	16.0568	0.067513	0.463351	-0.629195	-0.630549	0.036581	42.2724	-0.629844	-2.142283E+8	-1.707588E-10	NaN
711	1.000000	0.506695	7.37201e+06	-41539.1	1005.82	-29785.9	0.000000	0.000000	6.506918	-0.055618	NaN	0.000000	0.001631	0.001694	28.0825	0.104834	0.002138	49.0223	166.551	-165.184	-0.023023	0.505416	-0.587205	-0.588484	-0.055618	49.0223	-0.586354	-5.400029E+7	1.029955E-9	NaN
711	1.000000	0.548733	7.37201e+06	-41539.1	1005.82	-29785.9	0.000000	0.000000	6.548958	-0.018338	NaN	0.000000	0.001671	0.001702	28.0834	0.096452	0.002027	47.5848	-100.444	15.8562	0.057199	0.547373	-0.545167	-0.546527	-0.018338	47.5848	-0.544878	-1.442089E+7	1.271637E-9	NaN
711	1.000000	0.590753	7.37201e+06	-41539.1	1005.82	-29785.9	0.000000	0.000000	6.590982	0.075692	NaN	0.000000	0.001608	0.001726	28.0836	0.050253	0.001873	26.83	87.8763	-162.013	0.049050	0.589426	-0.503147	-0.504475	0.075692	26.83	-0.505263	-4.05893e+06	-1.864835E-8	NaN
711	1.000000	0.632753	7.37201e+06	-41539.1	1005.82	-29785.9	0.000000	0.000000	6.632979	0.002854	NaN	0.000000	0.001579	0.001749	28.0834	0.084072	0.002012	41.7912	-57.5489	15.1841	0.017973	0.631351	-0.461147	-0.462549	0.002854	41.7912	-0.461198	-981425	-2.907667E-9	NaN
711	1.000000	0.674791	7.37201e+06	-41539.1	1005.82	-29785.9	0.000000	0.000000	6.675016	-0.019948	NaN	0.000000	0.001628	0.001760	28.0837	0.112305	0.001915	58.6431	20.8619	-162.507	-0.072143	0.673494	-0.419109	-0.420406	-0.019948	58.6431	-0.418854	-247835	8.048903E-8	NaN
711	1.000000	0.716807	7.37201e+06	-41539.1	1005.82	-29785.9	0.000000	0.000000	6.717033	0.025304	NaN	0.000000	0.001577	0.001772	28.0825	0.064449	0.001923	33.5068	144.991	15.0237	0.007747	0.715412	-0.377093	-0.378488	0.025304	33.5068	-0.377660	-64016.4	-3.952727E-7	NaN
711	1.000000	0.758817	7.37201e+06	-41539.1	1005.82	-29785.9	0.000000	0.000000	6.759042	-0.001401	NaN	0.000000	0.001580	0.001736	28.0825	0.142810	0.001975	72.3201	-154.268	-162.734	-0.017584	0.757460	-0.335083	-0.336440	-0.001401	72.3201	-0.335069	-15473.6	9.052944E-8	NaN
711	1.000000	0.800814	7.37201e+06	-41539.1	1005.82	-29785.9	0.000000	0.000000	6.801041	0.022971	NaN	0.000000	0.001563	0.001710	28.0825	0.052891	0.001846	28.6529	-92.4618	17.2565	0.090746	0.799472	-0.293086	-0.294428	0.022971	28.6529	-0.293687	-3788.56	-6.063286E-6	NaN
711	1.000000	0.842837	7.37201e+06	-41539.1	1005.82	-29785.9	0.000000	0.000000	6.843062	-0.004415	NaN	0.000000	0.001581	0.001730	28.0838	0.119826	0.001883	63.6196	-32.7791	-165.589	-0.027758	0.841553	-0.251063	-0.252347	-0.004415	63.6196	-0.251011	-852.315	5.179860E-6	NaN
711	1.000000	0.884879	7.37201e+06	-41539.1	1005.82	-29785.9	0.000000	0.000000	6.885104	-0.026765	NaN	0.000000	0.001621	0.001758	28.0839	0.081667	0.002039	40.0494	-160.132	14.9781	-0.060971	0.883539	-0.209021	-0.210361	-0.026765	40.0494	-0.208520	-181.478	0.000147	NaN
711	1.000000	0.926896	7.37201e+06	-41539.1	1005.82	-29785.9	0.000000	0.000000	6.927121	-0.017905	NaN	0.000000	0.001629	0.001702	28.0838	0.044562	0.002000	22.2848	105.424	-165.068	-0.077529	0.925568	-0.167004	-0.168333	-0.017905	22.2848	-0.166401	-35.5527	0.000504	NaN
711	1.000000	0.968922	7.37201e+06	-41539.1	1005.82	-29785.9	0.000000	0.000000	6.969146	-0.044364	NaN	0.000000	0.001612	0.001724	28.0825	0.016486	0.001979	8.331581	90.0491	16.8804	-0.039748	0.967549	-0.124978	-0.126351	-0.044364	8.331581	-0.120985	-5.057290	0.008772	NaN
711	1.000000	1.010908	7.37201e+06	-41539.1	1005.82	-29785.9	0.000000	0.000000	7.011131	-0.063918	NaN	0.000000	0.001681	0.001741	28.0826	0.042208	0.001889	22.3404	-113.919	-164.634	-0.014880	1.009576	-0.082992	-0.084324	-0.063918	22.3404	-0.080846	-0.649799	0.098366	NaN
711	1.000000	1.052911	7.37201e+06	-41539.1	1005.82	-29785.9	0.000000	0.000000	7.053137	0.017562	NaN	0.000000	0.001644	0.001719	28.0823	0.049786	0.002077	23.9687	141.012	17.2935	-0.100698	1.051546	-0.040989	-0.042354	0.017562	23.9687	-0.041539	-0.050372	-0.348650	NaN
711	1.000000	1.094922	7.37201e+06	-41539.1	1005.82	-29785.9	0.000000	0.000000	7.095193	1.110469	NaN	0.000000	0.001616	0.001707	28.0834	1.764709	0.001895	931.395	3.396637	-158.781	0.318733	1.093632	0.001022	-0.000268	1.110469	931.395	0.000128	9.552339E-5	11625.1	87066.7
711	2.000000	1.110921	7.37201e+06	-41539.1	1005.82	-29785.9	0.000000	0.000000	7.111874	17.703	NaN	0.000000	0.001631	0.001709	28.0835	16.8157	0.001837	9152.3	7.770352	2.661310	16.71	1.110614	0.017021	0.016714	17.703	9152.3	0.015570	0.016053	1102.8	65997.6
711	2.000000	1.121419	7.37201e+06	-41539.1	1005.82	-29785.9	0.000000	0.000000	7.123359	41.7294	NaN	0.000000	0.001619	0.001733	28.0837	27.549	0.001822	15116.4	5.182960	-178.083	42.1728	1.121101	0.027518	0.027201	41.7294	15116.4	0.025448	0.031836	1310.77	77403.8
711	2.000000	1.131849	7.37201e+06	-41539.1	1005.82	-29785.9	0.000000	0.000000	7.134998	71.1421	NaN	0.000000	0.001580	0.001730	28.0834	37.6525	0.001850	20354.1	3.693328	1.177939	69.0638	1.131536	0.037948	0.037636	71.1421	20354.1	0.035327	0.052510	1354.83	81152.6
711	2.000000	1.142332	7.37201e+06	-41539.1	1005.82	-29785.9	0.000000	0.000000	7.146882	105.22	NaN	0.000000	0.001625	0.001731	28.0821	46.3456	0.001808	25634.2	1.384441	-179.238	101.696	1.142058	0.048432	0.048158	105.22	25634.2	0.045353	0.078593	1338.8	83541.4
711	2.000000	1.152857	7.37201e+06	-41539.1	1005.82	-29785.9	0.000000	0.000000	7.159262	150.378	NaN	0.000000	0.001619	0.001746	28.0823	56.5197	0.001730	32676.1	0.416220	0.251401	148.477	1.152422	0.058956	0.058522	150.378	32676.1	0.055505	0.110184	1364.79	89938.1
711	2.000000	1.163525	7.37201e+06	-41539.1	1005.82	-29785.9	0.000000	0.000000	7.172282	207.579	NaN	0.000000	0.001618	0.001754	28.0822	69.0544	0.001838	37568.7	13.7758	167.533	215.58	1.162963	0.069625	0.069063	207.579	37568.7	0.065481	0.146193	1419.9	89771
711	2.000000	1.173862	7.37201e+06	-41539.1	1005.82	-29785.9	0.000000	0.000000	7.185425	275.864	NaN	0.000000	0.001647	0.001741	28.0834	78.8167	0.001849	42630.1	5.649761	-6.666560	276.321	1.173500	0.079962	0.079599	275.864	42630.1	0.075109	0.185487	1487.24	90434.2
711	2.000000	1.184316	7.37201e+06	-41539.1	1005.82	-29785.9	0.000000	0.000000	7.198409	337.429	NaN	0.000000	0.001650	0.001709	28.0834	88.4874	0.001773	49922.2	5.169893	171.722	334.223	1.184017	0.090415	0.090116	337.429	49922.2	0.085346	0.232056	1454.09	94682.8
711	2.000000	1.194727	7.37201e+06	-41539.1	1005.82	-29785.9	0.000000	0.000000	7.212589	429.142	NaN	0.000000	0.001650	0.001728	28.0835	97.3567	0.001706	57078.3	2.935364	-5.996450	423.336	1.194408	0.100826	0.100508	429.142	57078.3	0.095188	0.281386	1525.1	98309.1
711	2.000000	1.200738	7.37201e+06	-41539.1	1005.82	-29785.9	0.000000	0.000000	7.220664	479.351	NaN	0.000000	0.001627	0.001752	28.0836	105.044	0.001893	55487.6	6.830840	-10.3453	473.482	1.200429	0.106838	0.106528	479.351	55487.6	0.100359	0.309081	1550.89	91187.1