File: remote_trans/data/nanoindenter/0828-1/data/Data_2025-08-06,11h17m57s/2025-07-22_16-23-58_1_767.txt
2025-07-22, 16:23:58, 1
Index	Phase	Displacement	Time	Pos X	Pos Y	Pos Z	Rot A	Rot B	Piezo Z	Force A	Force B	Gripper	Voltage A	Voltage B	Temperature	Amplitude force	Amplitude pos	Stiffness	Phase shift	Phase excitation	Force A raw	Displacement raw	HMax	HMax raw	Real Force	Real Stiffness	Contact Depth	Area	Hardness	Reduced Mod.
[#]	[#]	[um]	[s]	[um]	[um]	[um]	[m°]	[m°]	[um]	[uN]	[uN]	[V]	[V]	[V]	[°C]	[uN]	[um]	[N/m]	[°]	[°]	[uN]	[um]	[um]	[um]	[uN]	[N/m]	[um]	[um^2]	[MPa]	[MPa]
767	1.000000	0.002530	7.37256e+06	-38739.1	1005.82	-29796.3	0.000000	0.000000	6.002830	-0.062367	NaN	0.000000	0.001611	0.001807	28.0842	0.097475	0.000947	102.906	-1.105549	-164.322	-0.128794	0.001215	-1.114870	-1.116184	-0.062367	102.906	-1.114415	-7.825941E+14	7.969240E-17	NaN
767	1.000000	0.044439	7.37256e+06	-38739.1	1005.82	-29796.3	0.000000	0.000000	6.044742	-0.015111	NaN	0.000000	0.001541	0.001850	28.0837	0.087800	0.002051	42.8095	-13.0859	11.541	0.088055	0.043059	-1.072960	-1.074341	-0.015111	42.8095	-1.072696	-2.154787E+14	7.012791E-17	NaN
767	1.000000	0.086459	7.37256e+06	-38739.1	1005.82	-29796.3	0.000000	0.000000	6.086766	0.091513	NaN	0.000000	0.001591	0.001815	28.0838	0.095124	0.001987	47.8801	5.488979	-162.944	0.074326	0.085154	-1.030940	-1.032246	0.091513	47.8801	-1.032374	-6.185973E+13	-1.479363E-15	NaN
767	1.000000	0.128484	7.37256e+06	-38739.1	1005.82	-29796.3	0.000000	0.000000	6.128787	-0.025592	NaN	0.000000	0.001588	0.001803	28.0828	0.075632	0.001915	39.4872	-40.7124	11.371	-0.031482	0.127134	-0.988915	-0.990265	-0.025592	39.4872	-0.988429	-1.584709E+13	1.614946E-15	NaN
767	1.000000	0.170493	7.37256e+06	-38739.1	1005.82	-29796.3	0.000000	0.000000	6.170799	0.052307	NaN	0.000000	0.001595	0.001811	28.0828	0.062132	0.001953	31.8154	159.018	-165.139	0.007986	0.169167	-0.946906	-0.948232	0.052307	31.8154	-0.948139	-4.538728E+12	-1.152451E-14	NaN
767	1.000000	0.212506	7.37256e+06	-38739.1	1005.82	-29796.3	0.000000	0.000000	6.212809	-0.005156	NaN	0.000000	0.001687	0.001738	28.0825	0.031783	0.001957	16.2386	126.793	13.2321	0.013090	0.211096	-0.904894	-0.906303	-0.005156	16.2386	-0.904655	-1.174808E+12	4.388696E-15	NaN
767	1.000000	0.254534	7.37256e+06	-38739.1	1005.82	-29796.3	0.000000	0.000000	6.254838	0.022901	NaN	0.000000	0.001632	0.001787	28.0839	0.062023	0.002134	29.0643	147.404	-167.145	0.082314	0.253203	-0.862866	-0.864196	0.022901	29.0643	-0.863457	-3.257637E+11	-7.029889E-14	NaN
767	1.000000	0.296570	7.37256e+06	-38739.1	1005.82	-29796.3	0.000000	0.000000	6.296872	-0.039433	NaN	0.000000	0.001597	0.001783	28.0838	0.057637	0.002044	28.1942	-118.536	16.9749	0.019272	0.295252	-0.820829	-0.822147	-0.039433	28.1942	-0.819780	-8.341214E+10	4.727456E-13	NaN
767	1.000000	0.338544	7.37256e+06	-38739.1	1005.82	-29796.3	0.000000	0.000000	6.338845	-0.060334	NaN	0.000000	0.001602	0.001790	28.0833	0.046742	0.002073	22.5529	127.006	-166.208	-0.060258	0.337249	-0.778855	-0.780151	-0.060334	22.5529	-0.776849	-2.179753E+10	2.767916E-12	NaN
767	1.000000	0.380586	7.37256e+06	-38739.1	1005.82	-29796.3	0.000000	0.000000	6.380889	-0.024321	NaN	0.000000	0.001619	0.001787	28.0819	0.040590	0.001926	21.08	-151.154	14.4952	0.002908	0.379227	-0.736813	-0.738172	-0.024321	21.08	-0.735948	-6.051420E+9	4.019083E-12	NaN
767	1.000000	0.422579	7.37256e+06	-38739.1	1005.82	-29796.3	0.000000	0.000000	6.422881	-0.031276	NaN	0.000000	0.001590	0.001765	28.0822	0.094791	0.001989	47.6504	-108.952	-168.473	-0.024036	0.421319	-0.694820	-0.696080	-0.031276	47.6504	-0.694328	-1.637023E+9	1.910531E-11	NaN
767	1.000000	0.464623	7.37256e+06	-38739.1	1005.82	-29796.3	0.000000	0.000000	6.464926	-0.015185	NaN	0.000000	0.001646	0.001750	28.0821	0.011292	0.002010	5.616773	-64.4557	10.9907	-0.063396	0.463251	-0.652776	-0.654148	-0.015185	5.616773	-0.650749	-4.146693E+8	3.661968E-11	NaN
767	1.000000	0.506637	7.37256e+06	-38739.1	1005.82	-29796.3	0.000000	0.000000	6.506942	0.039044	NaN	0.000000	0.001686	0.001775	28.0835	0.141451	0.002109	67.0756	-40.8386	-166.396	-0.030019	0.505365	-0.610762	-0.612034	0.039044	67.0756	-0.611199	-1.187434E+8	-3.288066E-10	NaN
767	1.000000	0.548659	7.37256e+06	-38739.1	1005.82	-29796.3	0.000000	0.000000	6.548963	0.024757	NaN	0.000000	0.001578	0.001791	28.0832	0.120637	0.001912	63.0871	-5.578597	9.907910	0.026408	0.547254	-0.568741	-0.570146	0.024757	63.0871	-0.569035	-3.113852E+7	-7.950566E-10	NaN
767	1.000000	0.590689	7.37256e+06	-38739.1	1005.82	-29796.3	0.000000	0.000000	6.590995	0.081368	NaN	0.000000	0.001608	0.001787	28.0837	0.100661	0.001876	53.6447	104.395	-166.702	0.106779	0.589346	-0.526711	-0.528053	0.081368	53.6447	-0.527848	-8.36925e+06	-9.722251E-9	NaN
767	1.000000	0.632700	7.37256e+06	-38739.1	1005.82	-29796.3	0.000000	0.000000	6.633003	-0.007397	NaN	0.000000	0.001598	0.001797	28.0838	0.079953	0.002031	39.3601	64.4043	14.7085	0.025271	0.631369	-0.484699	-0.486030	-0.007397	39.3601	-0.484558	-2.08599e+06	3.546056E-9	NaN
767	1.000000	0.674705	7.37256e+06	-38739.1	1005.82	-29796.3	0.000000	0.000000	6.675009	-0.010217	NaN	0.000000	0.001532	0.001789	28.0826	0.097695	0.002022	48.3083	-174.151	-165.259	-0.009626	0.673402	-0.442694	-0.443997	-0.010217	48.3083	-0.442535	-535961	1.906239E-8	NaN
767	1.000000	0.716691	7.37256e+06	-38739.1	1005.82	-29796.3	0.000000	0.000000	6.716994	0.006551	NaN	0.000000	0.001576	0.001793	28.0825	0.077249	0.002010	38.4332	141.503	12.1985	0.121674	0.715344	-0.400709	-0.402055	0.006551	38.4332	-0.400836	-137380	-4.768874E-8	NaN
767	1.000000	0.758733	7.37256e+06	-38739.1	1005.82	-29796.3	0.000000	0.000000	6.759037	0.004095	NaN	0.000000	0.001635	0.001822	28.0823	0.045592	0.002006	22.7295	-29.2308	-165.665	0.045402	0.757441	-0.358666	-0.359958	0.004095	22.7295	-0.358801	-34238.2	-1.195964E-7	NaN
767	1.000000	0.800749	7.37256e+06	-38739.1	1005.82	-29796.3	0.000000	0.000000	6.801053	0.007154	NaN	0.000000	0.001693	0.001784	28.0835	0.127096	0.001990	63.881	-99.2812	14.6357	-0.002982	0.799398	-0.316651	-0.318001	0.007154	63.881	-0.316735	-8327.86	-8.590688E-7	NaN
767	1.000000	0.842771	7.37256e+06	-38739.1	1005.82	-29796.3	0.000000	0.000000	6.843075	0.016683	NaN	0.000000	0.001595	0.001798	28.0835	0.035944	0.002133	16.8479	-12.7805	-165.53	0.001865	0.841469	-0.274628	-0.275931	0.016683	16.8479	-0.275371	-2009.18	-8.303361E-6	NaN
767	1.000000	0.884810	7.37256e+06	-38739.1	1005.82	-29796.3	0.000000	0.000000	6.885114	0.008062	NaN	0.000000	0.001639	0.001824	28.0834	0.083479	0.002088	39.9836	-27.2174	17.8876	0.008546	0.883399	-0.232589	-0.234000	0.008062	39.9836	-0.232740	-442.302	-1.822798E-5	NaN
767	1.000000	0.926824	7.37256e+06	-38739.1	1005.82	-29796.3	0.000000	0.000000	6.927125	-0.064846	NaN	0.000000	0.001650	0.001823	28.0826	0.180816	0.002060	87.756	-110.451	-167.896	0.059118	0.925503	-0.190576	-0.191896	-0.064846	87.756	-0.190021	-90.0295	0.000720	NaN
767	1.000000	0.968814	7.37256e+06	-38739.1	1005.82	-29796.3	0.000000	0.000000	6.969117	-0.023623	NaN	0.000000	0.001672	0.001772	28.0825	0.044823	0.001843	24.3241	-103.522	12.7998	-0.040867	0.967497	-0.148585	-0.149902	-0.023623	24.3241	-0.147857	-16.55	0.001427	NaN
767	1.000000	1.010840	7.37256e+06	-38739.1	1005.82	-29796.3	0.000000	0.000000	7.011145	0.023376	NaN	0.000000	0.001689	0.001774	28.0823	0.042843	0.002088	20.5207	-4.298733	-166.06	0.026021	1.009527	-0.106559	-0.107872	0.023376	20.5207	-0.107413	-2.648492	-0.008826	NaN
767	1.000000	1.052882	7.37256e+06	-38739.1	1005.82	-29796.3	0.000000	0.000000	7.053187	0.025976	NaN	0.000000	0.001673	0.001767	28.0836	0.176424	0.002038	86.5638	40.4436	13.458	-0.025572	1.051536	-0.064517	-0.065863	0.025976	86.5638	-0.064742	-0.245140	-0.105963	NaN
767	1.000000	1.094886	7.37256e+06	-38739.1	1005.82	-29796.3	0.000000	0.000000	7.095190	0.006082	NaN	0.000000	0.001626	0.001732	28.0838	0.076388	0.002131	35.8536	38.353	-168.002	-0.054786	1.093575	-0.022513	-0.023824	0.006082	35.8536	-0.022641	-0.014663	-0.414792	NaN
767	2.000000	1.125869	7.37256e+06	-38739.1	1005.82	-29796.3	0.000000	0.000000	7.126717	13.2504	NaN	0.000000	0.001633	0.001782	28.0837	12.3721	0.001704	7259.72	3.820306	8.843611	11.9374	1.125517	0.008470	0.008118	13.2504	7259.72	0.007101	0.006134	2160.19	84688.5
767	2.000000	1.136343	7.37256e+06	-38739.1	1005.82	-29796.3	0.000000	0.000000	7.137879	29.9937	NaN	0.000000	0.001629	0.001802	28.0844	22.0701	0.001792	12313.3	7.287869	-179.509	29.7165	1.135961	0.018944	0.018562	29.9937	12313.3	0.017117	0.018213	1646.82	83359.6
767	2.000000	1.146817	7.37256e+06	-38739.1	1005.82	-29796.3	0.000000	0.000000	7.149432	56.2577	NaN	0.000000	0.001617	0.001826	28.0841	31.4434	0.001732	18151.2	2.873484	0.788000	54.4927	1.146449	0.029417	0.029050	56.2577	18151.2	0.027093	0.034934	1610.42	88727.4
767	2.000000	1.157396	7.37256e+06	-38739.1	1005.82	-29796.3	0.000000	0.000000	7.161210	85.4301	NaN	0.000000	0.001638	0.001853	28.083	42.2871	0.001725	24519.2	10.6895	173.364	88.8679	1.156968	0.039997	0.039569	85.4301	24519.2	0.037384	0.057443	1487.23	93467.9
767	2.000000	1.167783	7.37256e+06	-38739.1	1005.82	-29796.3	0.000000	0.000000	7.173086	121.665	NaN	0.000000	0.001653	0.001800	28.0824	52.3193	0.001843	28383.7	7.308904	-6.405177	118.864	1.167491	0.050384	0.050091	121.665	28383.7	0.047169	0.083865	1450.73	89547.6
767	2.000000	1.178217	7.37256e+06	-38739.1	1005.82	-29796.3	0.000000	0.000000	7.185282	164.547	NaN	0.000000	0.001649	0.001804	28.0838	61.1177	0.001838	33248.1	2.050805	177.126	161.148	1.177989	0.060817	0.060589	164.547	33248.1	0.057106	0.115634	1423	89329.8
767	2.000000	1.188722	7.37256e+06	-38739.1	1005.82	-29796.3	0.000000	0.000000	7.198135	221.678	NaN	0.000000	0.001712	0.001823	28.0839	70.6307	0.001831	38575	1.759857	-2.888077	217.606	1.188379	0.071323	0.070980	221.678	38575	0.067013	0.152149	1456.98	90353.4
767	2.000000	1.199218	7.37256e+06	-38739.1	1005.82	-29796.3	0.000000	0.000000	7.211780	298.326	NaN	0.000000	0.001660	0.001776	28.0842	80.1507	0.001761	45504.3	6.496376	170.498	295.059	1.198932	0.081819	0.081533	298.326	45504.3	0.076902	0.193290	1543.41	94563
767	2.000000	1.209708	7.37256e+06	-38739.1	1005.82	-29796.3	0.000000	0.000000	7.225071	366.484	NaN	0.000000	0.001610	0.001785	28.0828	89.4252	0.001770	50524.5	4.984480	-8.366134	361.174	1.209386	0.092309	0.091986	366.484	50524.5	0.086869	0.239397	1530.87	94344.4
767	2.000000	1.220220	7.37256e+06	-38739.1	1005.82	-29796.3	0.000000	0.000000	7.237692	417.812	NaN	0.000000	0.001633	0.001788	28.0831	97.4541	0.001745	55843.5	4.579496	171.166	415.793	1.219945	0.102821	0.102546	417.812	55843.5	0.097209	0.292067	1430.53	94407
767	2.000000	1.220646	7.37256e+06	-38739.1	1005.82	-29796.3	0.000000	0.000000	7.238465	426.253	NaN	0.000000	0.001646	0.001747	28.0832	96.6212	0.001759	54928.2	-0.562607	-3.225227	418.756	1.220371	0.103246	0.102972	426.253	54928.2	0.097426	0.293225	1453.67	92676.2