File: remote_trans/data/nanoindenter/0828-1/data/Data_2025-08-06,11h17m57s/2025-07-22_16-23-58_1_704.txt
2025-07-22, 16:23:58, 1
Index	Phase	Displacement	Time	Pos X	Pos Y	Pos Z	Rot A	Rot B	Piezo Z	Force A	Force B	Gripper	Voltage A	Voltage B	Temperature	Amplitude force	Amplitude pos	Stiffness	Phase shift	Phase excitation	Force A raw	Displacement raw	HMax	HMax raw	Real Force	Real Stiffness	Contact Depth	Area	Hardness	Reduced Mod.
[#]	[#]	[um]	[s]	[um]	[um]	[um]	[m°]	[m°]	[um]	[uN]	[uN]	[V]	[V]	[V]	[°C]	[uN]	[um]	[N/m]	[°]	[°]	[uN]	[um]	[um]	[um]	[uN]	[N/m]	[um]	[um^2]	[MPa]	[MPa]
704	1.000000	0.002271	7.37194e+06	-41889.1	1005.82	-29784.5	0.000000	0.000000	6.002799	0.025237	NaN	0.000000	0.001641	0.001711	28.0822	0.036247	0.000967	37.4688	-146.428	-172.369	0.062599	0.001079	-1.194936	-1.196128	0.025237	37.4688	-1.195441	-9.543356E+15	-2.644499E-18	NaN
704	1.000000	0.046215	7.37194e+06	-41889.1	1005.82	-29784.5	0.000000	0.000000	6.046742	0.011111	NaN	0.000000	0.001764	0.001723	28.0809	0.049390	0.001991	24.8094	2.429938	-160.288	0.027921	0.044836	-1.150993	-1.152371	0.011111	24.8094	-1.151328	-2.446975E+15	-4.540657E-18	NaN
704	1.000000	0.090263	7.37194e+06	-41889.1	1005.82	-29784.5	0.000000	0.000000	6.090789	-0.017979	NaN	0.000000	0.001784	0.001764	28.0805	0.050925	0.002092	24.3465	31.9165	-165.14	-0.060720	0.088910	-1.106945	-1.108298	-0.017979	24.3465	-1.106391	-6.107282E+14	2.943817E-17	NaN
704	1.000000	0.134264	7.37194e+06	-41889.1	1005.82	-29784.5	0.000000	0.000000	6.134791	0.021318	NaN	0.000000	0.001771	0.001779	28.0808	0.007637	0.001772	4.310781	-158.967	-164.575	-0.022417	0.132975	-1.062943	-1.064232	0.021318	4.310781	-1.066652	-1.787348E+14	-1.192709E-16	NaN
704	1.000000	0.178296	7.37194e+06	-41889.1	1005.82	-29784.5	0.000000	0.000000	6.178822	-0.027233	NaN	0.000000	0.001776	0.001760	28.0818	0.085318	0.002155	39.5882	-83.5847	-171.746	-0.023357	0.176935	-1.018911	-1.020272	-0.027233	39.5882	-1.018395	-4.011970E+13	6.788054E-16	NaN
704	1.000000	0.222308	7.37194e+06	-41889.1	1005.82	-29784.5	0.000000	0.000000	6.222833	-0.017848	NaN	0.000000	0.001693	0.001765	28.0821	0.099281	0.002070	47.9504	135.268	-164.752	-0.001430	0.220992	-0.974900	-0.976216	-0.017848	47.9504	-0.974621	-1.032594E+13	1.728505E-15	NaN
704	1.000000	0.266299	7.37194e+06	-41889.1	1005.82	-29784.5	0.000000	0.000000	6.266824	-0.039592	NaN	0.000000	0.001675	0.001740	28.0822	0.106571	0.001968	54.1459	-164.949	-168.63	-0.061035	0.264998	-0.930908	-0.932210	-0.039592	54.1459	-0.930360	-2.612462E+12	1.515516E-14	NaN
704	1.000000	0.310327	7.37194e+06	-41889.1	1005.82	-29784.5	0.000000	0.000000	6.310854	0.002106	NaN	0.000000	0.001688	0.001767	28.0822	0.057690	0.001923	29.9952	41.7875	-169.075	0.025226	0.309037	-0.886880	-0.888171	0.002106	29.9952	-0.886933	-6.767817E+11	-3.111482E-15	NaN
704	1.000000	0.354348	7.37194e+06	-41889.1	1005.82	-29784.5	0.000000	0.000000	6.354876	0.033250	NaN	0.000000	0.001693	0.001752	28.0815	0.006513	0.002074	3.140572	172.48	-166.015	0.007762	0.353065	-0.842859	-0.844142	0.033250	3.140572	-0.850799	-2.195642E+11	-1.514375E-13	NaN
704	1.000000	0.398360	7.37194e+06	-41889.1	1005.82	-29784.5	0.000000	0.000000	6.398884	-0.049777	NaN	0.000000	0.001751	0.001688	28.0809	0.086373	0.001951	44.2789	-39.4746	-166.483	0.019205	0.397048	-0.798847	-0.800159	-0.049777	44.2789	-0.798004	-4.224462E+10	1.178306E-12	NaN
704	1.000000	0.442371	7.37194e+06	-41889.1	1005.82	-29784.5	0.000000	0.000000	6.442895	-0.066865	NaN	0.000000	0.001705	0.001767	28.0809	0.017688	0.001950	9.070774	-161.479	-167.875	-0.048262	0.440989	-0.754836	-0.756219	-0.066865	9.070774	-0.749308	-9.200230E+9	7.267738E-12	NaN
704	1.000000	0.486415	7.37194e+06	-41889.1	1005.82	-29784.5	0.000000	0.000000	6.486941	-0.026918	NaN	0.000000	0.001678	0.001756	28.0823	0.073506	0.001959	37.5236	-126.733	-166.554	-0.036920	0.485034	-0.710792	-0.712174	-0.026918	37.5236	-0.710254	-2.700946E+9	9.966186E-12	NaN
704	1.000000	0.530411	7.37194e+06	-41889.1	1005.82	-29784.5	0.000000	0.000000	6.530933	-0.118319	NaN	0.000000	0.001726	0.001780	28.0824	0.040044	0.002018	19.8413	6.985446	-163.766	-0.043721	0.529112	-0.666796	-0.668096	-0.118319	19.8413	-0.662324	-5.974379E+8	1.980448E-10	NaN
704	1.000000	0.574430	7.37194e+06	-41889.1	1005.82	-29784.5	0.000000	0.000000	6.574957	0.008325	NaN	0.000000	0.001735	0.001782	28.0824	0.044838	0.001927	23.2689	-147.875	-167.789	-0.045584	0.573143	-0.622777	-0.624065	0.008325	23.2689	-0.623046	-1.727793E+8	-4.818054E-11	NaN
704	1.000000	0.618456	7.37194e+06	-41889.1	1005.82	-29784.5	0.000000	0.000000	6.618981	-0.024027	NaN	0.000000	0.001704	0.001785	28.0811	0.111984	0.002139	52.3466	-176.478	-166.103	-0.009029	0.617157	-0.578751	-0.580051	-0.024027	52.3466	-0.578407	-4.195084E+7	5.727399E-10	NaN
704	1.000000	0.662489	7.37194e+06	-41889.1	1005.82	-29784.5	0.000000	0.000000	6.663015	0.007116	NaN	0.000000	0.001699	0.001750	28.0811	0.089965	0.001941	46.3424	-172.89	-164.706	-0.041463	0.661227	-0.534719	-0.535980	0.007116	46.3424	-0.534834	-1.046365E+7	-6.800785E-10	NaN
704	1.000000	0.706492	7.37194e+06	-41889.1	1005.82	-29784.5	0.000000	0.000000	6.707020	0.021960	NaN	0.000000	0.001717	0.001788	28.081	0.067672	0.001950	34.708	-46.946	-166.638	-0.044937	0.705226	-0.490715	-0.491981	0.021960	34.708	-0.491189	-2.58234e+06	-8.504022E-9	NaN
704	1.000000	0.750519	7.37194e+06	-41889.1	1005.82	-29784.5	0.000000	0.000000	6.751048	0.048026	NaN	0.000000	0.001703	0.001730	28.0824	0.025276	0.002009	12.5815	-113.965	-169.237	0.051920	0.749205	-0.446688	-0.448002	0.048026	12.5815	-0.449551	-673006	-7.135996E-8	NaN
704	1.000000	0.794545	7.37194e+06	-41889.1	1005.82	-29784.5	0.000000	0.000000	6.795068	-0.078192	NaN	0.000000	0.001714	0.001750	28.0825	0.084699	0.001945	43.5433	-53.2313	-169.256	-0.079848	0.793171	-0.402663	-0.404036	-0.078192	43.5433	-0.401316	-139558	5.602850E-7	NaN
704	1.000000	0.838543	7.37194e+06	-41889.1	1005.82	-29784.5	0.000000	0.000000	6.839070	0.007630	NaN	0.000000	0.001700	0.001735	28.0826	0.047160	0.001900	24.8269	-159.185	-168.027	0.049658	0.837211	-0.358664	-0.359996	0.007630	24.8269	-0.358895	-34345.2	-2.221553E-7	NaN
704	1.000000	0.882591	7.37194e+06	-41889.1	1005.82	-29784.5	0.000000	0.000000	6.883116	-0.040178	NaN	0.000000	0.001698	0.001745	28.0809	0.022545	0.002061	10.9373	154.9	-166.695	-0.010703	0.881281	-0.314616	-0.315927	-0.040178	10.9373	-0.311861	-7056.48	5.693761E-6	NaN
704	1.000000	0.926588	7.37194e+06	-41889.1	1005.82	-29784.5	0.000000	0.000000	6.927114	-0.003847	NaN	0.000000	0.001725	0.001737	28.081	0.047317	0.002006	23.5827	-61.7889	-165.311	-0.026137	0.925297	-0.270620	-0.271910	-0.003847	23.5827	-0.270497	-1694.73	2.270261E-6	NaN
704	1.000000	0.970612	7.37194e+06	-41889.1	1005.82	-29784.5	0.000000	0.000000	6.971136	-0.042178	NaN	0.000000	0.001698	0.001739	28.0809	0.084376	0.002161	39.0535	46.6676	-165.569	-0.034241	0.969281	-0.226596	-0.227926	-0.042178	39.0535	-0.225786	-343.405	0.000123	NaN
704	1.000000	1.014623	7.37194e+06	-41889.1	1005.82	-29784.5	0.000000	0.000000	7.015151	0.031222	NaN	0.000000	0.001706	0.001718	28.0821	0.127962	0.002067	61.9027	-111.65	-165.324	0.031383	1.013304	-0.182584	-0.183903	0.031222	61.9027	-0.182963	-68.5061	-0.000456	NaN
704	1.000000	1.058639	7.37194e+06	-41889.1	1005.82	-29784.5	0.000000	0.000000	7.059163	-0.053543	NaN	0.000000	0.001777	0.001745	28.0823	0.119024	0.002226	53.4599	-51.5783	-167.075	0.006459	1.057304	-0.138568	-0.139903	-0.053543	53.4599	-0.137817	-10.7602	0.004976	NaN
704	1.000000	1.102668	7.37194e+06	-41889.1	1005.82	-29784.5	0.000000	0.000000	7.103197	0.052230	NaN	0.000000	0.001769	0.001729	28.0821	0.043678	0.002122	20.5842	-10.4453	-165.916	-0.056881	1.101417	-0.094539	-0.095790	0.052230	20.5842	-0.096442	-1.521067	-0.034338	NaN
704	1.000000	1.146638	7.37194e+06	-41889.1	1005.82	-29784.5	0.000000	0.000000	7.147163	-0.038683	NaN	0.000000	0.001775	0.001744	28.0811	0.093262	0.002036	45.8102	-60.0319	-166.253	-0.006966	1.145383	-0.050569	-0.051824	-0.038683	45.8102	-0.049936	-0.090843	0.425825	NaN
704	1.000000	1.190690	7.37194e+06	-41889.1	1005.82	-29784.5	0.000000	0.000000	7.191214	-0.060155	NaN	0.000000	0.001728	0.001724	28.0811	0.039642	0.001908	20.7789	-78.1059	-165.431	-0.106441	1.189402	-0.006517	-0.007805	-0.060155	20.7789	-0.004346	-0.003002	20.0392	NaN
704	2.000000	1.210109	7.37194e+06	-41889.1	1005.82	-29784.5	0.000000	0.000000	7.211710	26.1252	NaN	0.000000	0.001724	0.001753	28.0811	18.2896	0.001676	10915.8	5.863536	-177.466	24.0916	1.209852	0.012902	0.012645	26.1252	10915.8	0.011107	0.010438	2502.91	97615.7
704	2.000000	1.221130	7.37194e+06	-41889.1	1005.82	-29784.5	0.000000	0.000000	7.224507	69.3555	NaN	0.000000	0.001732	0.001742	28.0824	30.7815	0.001824	16874.1	9.729436	174.926	67.3556	1.220768	0.023922	0.023561	69.3555	16874.1	0.020840	0.023879	2904.46	99766.8
704	2.000000	1.232042	7.37194e+06	-41889.1	1005.82	-29784.5	0.000000	0.000000	7.237234	113.503	NaN	0.000000	0.001684	0.001789	28.0824	41.2427	0.001732	23810.9	0.741665	-179.819	109.628	1.231792	0.034835	0.034584	113.503	23810.9	0.031260	0.043395	2615.56	104431
704	2.000000	1.243041	7.37194e+06	-41889.1	1005.82	-29784.5	0.000000	0.000000	7.251224	186.306	NaN	0.000000	0.001681	0.001781	28.083	51.4512	0.001751	29377.3	2.683262	176.454	183.933	1.242714	0.045833	0.045507	186.306	29377.3	0.041077	0.066841	2787.3	103816
704	2.000000	1.253984	7.37194e+06	-41889.1	1005.82	-29784.5	0.000000	0.000000	7.264716	248.302	NaN	0.000000	0.001692	0.001769	28.0812	62.2544	0.001748	35610.3	3.438907	174.588	242.423	1.253750	0.056777	0.056543	248.302	35610.3	0.051547	0.097256	2553.07	104325
704	2.000000	1.265047	7.37194e+06	-41889.1	1005.82	-29784.5	0.000000	0.000000	7.279040	327.65	NaN	0.000000	0.001691	0.001770	28.0811	72.6921	0.001848	39331	3.094964	174.735	324.895	1.264684	0.067840	0.067477	327.65	39331	0.061592	0.131580	2490.13	99063.6
704	2.000000	1.276001	7.37194e+06	-41889.1	1005.82	-29784.5	0.000000	0.000000	7.293752	419.096	NaN	0.000000	0.001685	0.001762	28.0813	82.9847	0.001771	46856	1.043975	174.943	414.151	1.275761	0.078794	0.078554	419.096	46856	0.072085	0.172674	2427.09	103021
704	2.000000	1.287025	7.37194e+06	-41889.1	1005.82	-29784.5	0.000000	0.000000	7.309115	524.679	NaN	0.000000	0.001689	0.001801	28.0813	93.9405	0.001814	51791.1	4.876327	170.324	523.516	1.286714	0.089818	0.089507	524.679	51791.1	0.082220	0.217318	2414.34	101504
704	2.000000	1.298050	7.37194e+06	-41889.1	1005.82	-29784.5	0.000000	0.000000	7.324554	632.075	NaN	0.000000	0.001776	0.001764	28.0824	103.963	0.001838	56564.8	1.691491	173.971	631.21	1.297652	0.100843	0.100444	632.075	56564.8	0.092462	0.267280	2364.85	99962.4
704	2.000000	1.300489	7.37194e+06	-41889.1	1005.82	-29784.5	0.000000	0.000000	7.328306	664.035	NaN	0.000000	0.001709	0.001802	28.0822	104.628	0.001715	60994.3	1.634242	-7.148067	658.202	1.300073	0.103282	0.102866	664.035	60994.3	0.095116	0.281013	2363	105123