File: remote_trans/data/nanoindenter/0828-1/data/Data_2025-08-06,11h17m57s/2025-07-22_16-23-58_1_74.txt
2025-07-22, 16:23:58, 1
Index	Phase	Displacement	Time	Pos X	Pos Y	Pos Z	Rot A	Rot B	Piezo Z	Force A	Force B	Gripper	Voltage A	Voltage B	Temperature	Amplitude force	Amplitude pos	Stiffness	Phase shift	Phase excitation	Force A raw	Displacement raw	HMax	HMax raw	Real Force	Real Stiffness	Contact Depth	Area	Hardness	Reduced Mod.
[#]	[#]	[um]	[s]	[um]	[um]	[um]	[m°]	[m°]	[um]	[uN]	[uN]	[V]	[V]	[V]	[°C]	[uN]	[um]	[N/m]	[°]	[°]	[uN]	[um]	[um]	[um]	[uN]	[N/m]	[um]	[um^2]	[MPa]	[MPa]
74	1.000000	0.002747	7.36577e+06	-42339.1	955.818	-29783.5	0.000000	0.000000	6.002828	0.003130	NaN	0.000000	0.001587	0.001694	28.1317	0.062927	0.000864	72.8188	48.4915	-166.088	-0.014380	0.001435	-1.069785	-1.071097	0.003130	72.8188	-1.069817	-1.971192E+14	-1.587641E-17	NaN
74	1.000000	0.042677	7.36577e+06	-42339.1	955.818	-29783.6	0.000000	0.000000	6.042758	0.021610	NaN	0.000000	0.001545	0.001695	28.1328	0.075083	0.001961	38.2841	-118.606	-163.738	0.072650	0.041397	-1.029855	-1.031135	0.021610	38.2841	-1.030278	-5.797196E+13	-3.727584E-16	NaN
74	1.000000	0.082680	7.36577e+06	-42339.1	955.818	-29783.6	0.000000	0.000000	6.082762	0.054047	NaN	0.000000	0.001545	0.001680	28.1304	0.073294	0.001930	37.9833	129.225	-167.263	0.008168	0.081388	-0.989852	-0.991144	0.054047	37.9833	-0.990919	-1.711952E+13	-3.157040E-15	NaN
74	1.000000	0.122718	7.36577e+06	-42339.1	955.818	-29783.6	0.000000	0.000000	6.122800	0.022099	NaN	0.000000	0.001542	0.001648	28.1316	0.100670	0.002001	50.3142	1.074279	-167.759	-0.004055	0.121402	-0.949813	-0.951129	0.022099	50.3142	-0.950143	-4.830086E+12	-4.575194E-15	NaN
74	1.000000	0.162725	7.36577e+06	-42339.1	955.818	-29783.6	0.000000	0.000000	6.162803	-0.056377	NaN	0.000000	0.001579	0.001685	28.131	0.072045	0.001794	40.1555	-23.2809	-164.672	-0.047759	0.161410	-0.909806	-0.911122	-0.056377	40.1555	-0.908753	-1.334518E+12	4.224536E-14	NaN
74	1.000000	0.202758	7.36577e+06	-42339.1	955.818	-29783.6	0.000000	0.000000	6.202837	-0.021598	NaN	0.000000	0.001556	0.001677	28.1335	0.051989	0.002061	25.2261	-158.445	-165.187	0.028115	0.201402	-0.869774	-0.871130	-0.021598	25.2261	-0.869132	-3.887723E+11	5.555477E-14	NaN
74	1.000000	0.242751	7.36577e+06	-42339.1	955.818	-29783.6	0.000000	0.000000	6.242831	-0.020810	NaN	0.000000	0.001572	0.001717	28.1318	0.201340	0.001995	100.915	47.7157	-160.387	0.037853	0.241430	-0.829780	-0.831102	-0.020810	100.915	-0.829626	-1.134253E+11	1.834653E-13	NaN
74	1.000000	0.282775	7.36577e+06	-42339.1	955.818	-29783.6	0.000000	0.000000	6.282854	-0.036843	NaN	0.000000	0.001631	0.001655	28.1326	0.024525	0.001923	12.7538	-82.5135	-166.876	-0.053890	0.281457	-0.789757	-0.791075	-0.036843	12.7538	-0.787590	-3.050388E+10	1.207800E-12	NaN
74	1.000000	0.322794	7.36577e+06	-42339.1	955.818	-29783.6	0.000000	0.000000	6.322874	-0.012661	NaN	0.000000	0.001561	0.001676	28.1323	0.168321	0.002036	82.6777	-1.263996	-162.187	-0.142227	0.321496	-0.749738	-0.751036	-0.012661	82.6777	-0.749623	-9.291474E+9	1.362672E-12	NaN
74	1.000000	0.362808	7.36577e+06	-42339.1	955.818	-29783.6	0.000000	0.000000	6.362891	0.062648	NaN	0.000000	0.001543	0.001678	28.1317	0.051955	0.001982	26.207	-61.2078	-163.066	0.132273	0.361497	-0.709724	-0.711035	0.062648	26.207	-0.711517	-2.810263E+9	-2.229255E-11	NaN
74	1.000000	0.402823	7.36577e+06	-42339.1	955.818	-29783.6	0.000000	0.000000	6.402900	-0.086632	NaN	0.000000	0.001600	0.001697	28.1304	0.032284	0.002104	15.3403	-75.3286	-164.972	-0.107778	0.401465	-0.669708	-0.671067	-0.086632	15.3403	-0.665473	-6.598080E+8	1.312987E-10	NaN
74	1.000000	0.442854	7.36577e+06	-42339.1	955.817	-29783.6	0.000000	0.000000	6.442934	-0.012536	NaN	0.000000	0.001612	0.001668	28.1315	0.152280	0.001920	79.3169	-149.368	-166.243	-0.034551	0.441544	-0.629677	-0.630988	-0.012536	79.3169	-0.629559	-2.123059E+8	5.904477E-11	NaN
74	1.000000	0.482857	7.36577e+06	-42339.1	955.819	-29783.6	0.000000	0.000000	6.482935	-0.059550	NaN	0.000000	0.001590	0.001691	28.1317	0.063824	0.002095	30.4626	-51.9565	-164.129	-0.056779	0.481569	-0.589675	-0.590963	-0.059550	30.4626	-0.588208	-5.727488E+7	1.039722E-9	NaN
74	1.000000	0.522884	7.36577e+06	-42339.1	955.819	-29783.6	0.000000	0.000000	6.522967	0.054842	NaN	0.000000	0.001598	0.001665	28.1334	0.089225	0.001860	47.9636	-77.3368	-161.666	0.037692	0.521533	-0.549647	-0.550999	0.054842	47.9636	-0.550505	-1.725636E+7	-3.178054E-9	NaN
74	1.000000	0.562870	7.36577e+06	-42339.1	955.819	-29783.6	0.000000	0.000000	6.562951	-0.005700	NaN	0.000000	0.001577	0.001666	28.132	0.087433	0.002003	43.6508	-50.1074	-167.939	0.005233	0.561539	-0.509661	-0.510993	-0.005700	43.6508	-0.509563	-4.65943e+06	1.223281E-9	NaN
74	1.000000	0.602922	7.36577e+06	-42339.1	955.818	-29783.6	0.000000	0.000000	6.602999	-0.079221	NaN	0.000000	0.001559	0.001636	28.132	0.046493	0.001994	23.3172	-68.0086	-165.742	-0.067379	0.601569	-0.469610	-0.470962	-0.079221	23.3172	-0.467062	-1.18628e+06	6.678104E-8	NaN
74	1.000000	0.642900	7.36577e+06	-42339.1	955.819	-29783.6	0.000000	0.000000	6.642980	-0.025920	NaN	0.000000	0.001578	0.001710	28.1303	0.070984	0.001961	36.1993	-12.9748	-166.873	0.011069	0.641629	-0.429631	-0.430903	-0.025920	36.1993	-0.429094	-346136	7.488316E-8	NaN
74	1.000000	0.682945	7.36577e+06	-42339.1	955.818	-29783.6	0.000000	0.000000	6.683027	0.025244	NaN	0.000000	0.001610	0.001637	28.1313	0.040920	0.001972	20.7499	-176.165	-169.504	0.109908	0.681633	-0.389587	-0.390898	0.025244	20.7499	-0.390499	-97792.2	-2.581442E-7	NaN
74	1.000000	0.722964	7.36577e+06	-42339.1	955.818	-29783.6	0.000000	0.000000	6.723044	0.005208	NaN	0.000000	0.001608	0.001649	28.1297	0.095207	0.001978	48.1382	-121.975	-164.879	0.016962	0.721668	-0.349568	-0.350864	0.005208	48.1382	-0.349649	-25229.6	-2.064253E-7	NaN
74	1.000000	0.762962	7.36577e+06	-42339.1	955.819	-29783.6	0.000000	0.000000	6.763042	-0.024538	NaN	0.000000	0.001570	0.001625	28.1317	0.107910	0.002043	52.8086	-51.3807	-168.267	-0.028181	0.761621	-0.309569	-0.310911	-0.024538	52.8086	-0.309221	-6449.43	3.804654E-6	NaN
74	1.000000	0.802989	7.36577e+06	-42339.1	955.819	-29783.6	0.000000	0.000000	6.803068	-0.033085	NaN	0.000000	0.001574	0.001618	28.131	0.061821	0.002029	30.4634	-126.421	-168.715	-0.045406	0.801692	-0.269543	-0.270840	-0.033085	30.4634	-0.268729	-1592.97	2.076971E-5	NaN
74	1.000000	0.843017	7.36577e+06	-42339.1	955.819	-29783.6	0.000000	0.000000	6.843097	-0.015333	NaN	0.000000	0.001657	0.001661	28.1324	0.034183	0.001886	18.1273	123.766	-166.961	0.028070	0.841694	-0.229515	-0.230838	-0.015333	18.1273	-0.228881	-384.441	3.988285E-5	NaN
74	1.000000	0.883021	7.36577e+06	-42339.1	955.819	-29783.6	0.000000	0.000000	6.883099	-0.052009	NaN	0.000000	0.001574	0.001632	28.1298	0.160795	0.001911	84.1554	-142.589	-164.797	-0.007105	0.881737	-0.189511	-0.190794	-0.052009	84.1554	-0.189047	-86.7151	0.000600	NaN
74	1.000000	0.923039	7.36577e+06	-42339.1	955.818	-29783.6	0.000000	0.000000	6.923120	0.003493	NaN	0.000000	0.001602	0.001640	28.1312	0.086648	0.001998	43.3777	-43.3879	-164.573	-0.048269	0.921727	-0.149493	-0.150804	0.003493	43.3777	-0.149553	-17.7766	-0.000197	NaN
74	1.000000	0.963028	7.36577e+06	-42339.1	955.818	-29783.6	0.000000	0.000000	6.963109	0.004398	NaN	0.000000	0.001586	0.001675	28.1299	0.027705	0.001830	15.1436	113.599	-163.683	0.065819	0.961729	-0.109504	-0.110802	0.004398	15.1436	-0.109721	-2.964791	-0.001483	NaN
74	1.000000	1.003070	7.36577e+06	-42339.1	955.818	-29783.6	0.000000	0.000000	7.003151	-0.003497	NaN	0.000000	0.001599	0.001590	28.1317	0.027960	0.002055	13.6031	110.335	-164.662	0.077489	1.001772	-0.069461	-0.070760	-0.003497	13.6031	-0.069269	-0.326022	0.010727	NaN
74	1.000000	1.043068	7.36577e+06	-42339.1	955.819	-29783.6	0.000000	0.000000	7.043147	-0.015096	NaN	0.000000	0.001586	0.001684	28.1314	0.062986	0.001990	31.6438	-129.461	-164.016	0.025138	1.041797	-0.029464	-0.030735	-0.015096	31.6438	-0.029106	-0.021738	0.694481	NaN
74	2.000000	1.081693	7.36577e+06	-42339.1	955.818	-29783.6	0.000000	0.000000	7.082120	8.422860	NaN	0.000000	0.001526	0.001657	28.1321	8.169009	0.001743	4687.64	6.803597	-170.59	8.876841	1.081301	0.009162	0.008769	8.422860	4687.64	0.007814	0.006852	1229.32	51740.5
74	2.000000	1.091607	7.36577e+06	-42339.1	955.817	-29783.6	0.000000	0.000000	7.093070	33.638	NaN	0.000000	0.001583	0.001632	28.1307	19.3512	0.001894	10218.5	4.112844	-173.981	32.3053	1.091365	0.019075	0.018833	33.638	10218.5	0.016606	0.017487	1923.57	70598.9
74	2.000000	1.101610	7.36577e+06	-42339.1	955.818	-29783.6	0.000000	0.000000	7.104021	56.6918	NaN	0.000000	0.001550	0.001685	28.1306	29.0565	0.001755	16559.5	4.032083	-179.728	57.6655	1.101287	0.029078	0.028755	56.6918	16559.5	0.026511	0.033822	1676.2	82266.7
74	2.000000	1.111540	7.36577e+06	-42339.1	955.818	-29783.6	0.000000	0.000000	7.115323	90.0829	NaN	0.000000	0.001542	0.001681	28.1294	39.9445	0.001741	22949.6	2.419472	179.242	87.8496	1.111353	0.039008	0.038821	90.0829	22949.6	0.036064	0.054253	1660.43	90019.6
74	2.000000	1.121545	7.36577e+06	-42339.1	955.818	-29783.6	0.000000	0.000000	7.127140	134.181	NaN	0.000000	0.001568	0.001667	28.1305	51.591	0.001891	27283.1	4.496647	176.232	133.519	1.121195	0.049013	0.048663	134.181	27283.1	0.045325	0.078512	1709.05	88960.7
74	2.000000	1.131528	7.36577e+06	-42339.1	955.819	-29783.6	0.000000	0.000000	7.139377	189.031	NaN	0.000000	0.001600	0.001669	28.1291	61.6583	0.001777	34693.4	4.487611	174.278	187.734	1.131223	0.058996	0.058691	189.031	34693.4	0.054910	0.108190	1747.21	96366.4
74	2.000000	1.141540	7.36577e+06	-42339.1	955.818	-29783.6	0.000000	0.000000	7.152019	253.015	NaN	0.000000	0.001554	0.001684	28.1316	69.9562	0.001815	38549.5	1.960527	176.255	252.138	1.141278	0.069009	0.068746	253.015	38549.5	0.064086	0.140867	1796.13	93840
74	2.000000	1.151511	7.36577e+06	-42339.1	955.818	-29783.6	0.000000	0.000000	7.165014	326.584	NaN	0.000000	0.001612	0.001660	28.1304	81.3514	0.001729	47054.9	3.232411	173.874	325.826	1.151130	0.078980	0.078599	326.584	47054.9	0.073774	0.179780	1816.57	101393
74	2.000000	1.161529	7.36577e+06	-42339.1	955.819	-29783.6	0.000000	0.000000	7.178098	401.189	NaN	0.000000	0.001527	0.001666	28.1315	90.7129	0.001828	49637.7	6.000339	170.092	401.494	1.161197	0.088997	0.088666	401.189	49637.7	0.082936	0.220652	1818.19	96545.2
74	2.000000	1.171456	7.36577e+06	-42339.1	955.818	-29783.6	0.000000	0.000000	7.191058	474.973	NaN	0.000000	0.001648	0.001684	28.1289	99.1146	0.001673	59241.3	3.084285	171.671	473.047	1.171356	0.098925	0.098824	474.973	59241.3	0.092911	0.269582	1761.89	104244
74	2.000000	1.179469	7.36577e+06	-42339.1	955.819	-29783.6	0.000000	0.000000	7.202589	560.567	NaN	0.000000	0.001633	0.001690	28.1302	106.675	0.001854	57551.2	4.078988	172.183	557.939	1.178963	0.106938	0.106432	560.567	57551.2	0.099633	0.305117	1837.22	95190.7