File: remote_trans/data/nanoindenter/0828-1/data/Data_2025-08-06,11h17m57s/2025-07-22_16-23-58_1_265.txt
2025-07-22, 16:23:58, 1
Index	Phase	Displacement	Time	Pos X	Pos Y	Pos Z	Rot A	Rot B	Piezo Z	Force A	Force B	Gripper	Voltage A	Voltage B	Temperature	Amplitude force	Amplitude pos	Stiffness	Phase shift	Phase excitation	Force A raw	Displacement raw	HMax	HMax raw	Real Force	Real Stiffness	Contact Depth	Area	Hardness	Reduced Mod.
[#]	[#]	[um]	[s]	[um]	[um]	[um]	[m°]	[m°]	[um]	[uN]	[uN]	[V]	[V]	[V]	[°C]	[uN]	[um]	[N/m]	[°]	[°]	[uN]	[um]	[um]	[um]	[uN]	[N/m]	[um]	[um^2]	[MPa]	[MPa]
265	1.000000	0.002798	7.36764e+06	-51889.1	955.819	-29750.9	0.000000	0.000000	6.002857	0.024620	NaN	0.000000	0.001565	0.001624	28.0807	0.049040	0.000898	54.6342	111.375	-166.607	0.141686	0.001528	-1.196091	-1.197361	0.024620	54.6342	-1.196429	-9.838537E+15	-2.502387E-18	NaN
265	1.000000	0.046709	7.36764e+06	-51889.1	955.818	-29750.9	0.000000	0.000000	6.046766	-0.021532	NaN	0.000000	0.001591	0.001652	28.0808	0.062420	0.002034	30.6862	-74.3723	-164.532	0.061059	0.045418	-1.152180	-1.153471	-0.021532	30.6862	-1.151654	-2.471684E+15	8.711541E-18	NaN
265	1.000000	0.090707	7.36764e+06	-51889.1	955.818	-29750.9	0.000000	0.000000	6.090767	0.039139	NaN	0.000000	0.001579	0.001666	28.0812	0.110634	0.001933	57.2207	159.797	-164.189	0.092408	0.089439	-1.108182	-1.109450	0.039139	57.2207	-1.108695	-6.558041E+14	-5.968089E-17	NaN
265	1.000000	0.134685	7.36765e+06	-51889.1	955.818	-29750.9	0.000000	0.000000	6.134744	0.030322	NaN	0.000000	0.001566	0.001640	28.0818	0.022158	0.002006	11.0453	-96.6013	-166.245	-0.011286	0.133436	-1.064204	-1.065453	0.030322	11.0453	-1.066263	-1.765973E+14	-1.716996E-16	NaN
265	1.000000	0.178743	7.36765e+06	-51889.1	955.818	-29750.9	0.000000	0.000000	6.178804	0.060683	NaN	0.000000	0.001621	0.001678	28.0818	0.014904	0.002064	7.220957	45.3901	-163.271	-0.016776	0.177415	-1.020145	-1.021474	0.060683	7.220957	-1.026448	-5.148774E+13	-1.178588E-15	NaN
265	1.000000	0.222755	7.36765e+06	-51889.1	955.818	-29750.9	0.000000	0.000000	6.222816	0.074729	NaN	0.000000	0.001621	0.001707	28.0814	0.022244	0.001980	11.2325	-25.911	-163.797	0.019974	0.221447	-0.976134	-0.977442	0.074729	11.2325	-0.981123	-1.263414E+13	-5.914809E-15	NaN
265	1.000000	0.266775	7.36765e+06	-51889.1	955.819	-29750.9	0.000000	0.000000	6.266835	0.044326	NaN	0.000000	0.001655	0.001651	28.0811	0.057997	0.001941	29.8874	21.1533	-163.607	-0.015192	0.265485	-0.932114	-0.933404	0.044326	29.8874	-0.933226	-2.855853E+12	-1.552127E-14	NaN
265	1.000000	0.310779	7.36765e+06	-51889.1	955.818	-29750.9	0.000000	0.000000	6.310838	0.008748	NaN	0.000000	0.001677	0.001716	28.0806	0.063578	0.002143	29.6737	-121.079	-164.845	0.006956	0.309519	-0.888110	-0.889370	0.008748	29.6737	-0.888331	-7.068891E+11	-1.237533E-14	NaN
265	1.000000	0.354838	7.36765e+06	-51889.1	955.819	-29750.9	0.000000	0.000000	6.354899	0.048428	NaN	0.000000	0.001645	0.001690	28.0803	0.178390	0.001987	89.7978	170.554	-162.246	-0.026138	0.353461	-0.844051	-0.845428	0.048428	89.7978	-0.844455	-1.801530E+11	-2.688146E-13	NaN
265	1.000000	0.398874	7.36765e+06	-51889.1	955.819	-29750.9	0.000000	0.000000	6.398931	-0.016840	NaN	0.000000	0.001589	0.001675	28.0807	0.093967	0.001986	47.3239	54.1595	-164.838	0.021578	0.397513	-0.800015	-0.801376	-0.016840	47.3239	-0.799748	-4.461162E+10	3.774692E-13	NaN
265	1.000000	0.442858	7.36765e+06	-51889.1	955.819	-29750.9	0.000000	0.000000	6.442919	0.081037	NaN	0.000000	0.001609	0.001696	28.0818	0.074472	0.001976	37.6887	155.345	-169.185	0.083989	0.441563	-0.756031	-0.757326	0.081037	37.6887	-0.757644	-1.194673E+10	-6.783203E-12	NaN
265	1.000000	0.486877	7.36765e+06	-51889.1	955.819	-29750.9	0.000000	0.000000	6.486935	-0.020987	NaN	0.000000	0.001596	0.001664	28.0819	0.024882	0.001882	13.2193	-152.621	-166.607	0.037279	0.485567	-0.712012	-0.713322	-0.020987	13.2193	-0.710821	-2.749486E+9	7.633234E-12	NaN
265	1.000000	0.530932	7.36765e+06	-51889.1	955.819	-29750.9	0.000000	0.000000	6.530991	0.024025	NaN	0.000000	0.001633	0.001692	28.0818	0.092482	0.001961	47.1597	-91.8081	-165.551	0.072295	0.529555	-0.667957	-0.669333	0.024025	47.1597	-0.668339	-7.222047E+8	-3.326686E-11	NaN
265	1.000000	0.574940	7.36765e+06	-51889.1	955.818	-29750.9	0.000000	0.000000	6.575001	0.072889	NaN	0.000000	0.001632	0.001679	28.0805	0.071831	0.001928	37.256	86.3323	-169.138	0.045339	0.573641	-0.623949	-0.625248	0.072889	37.256	-0.625416	-1.862367E+8	-3.913797E-10	NaN
265	1.000000	0.618933	7.36765e+06	-51889.1	955.818	-29750.9	0.000000	0.000000	6.618992	0.032901	NaN	0.000000	0.001603	0.001686	28.0805	0.089083	0.002004	44.4512	-71.533	-167.315	0.008137	0.617625	-0.579956	-0.581264	0.032901	44.4512	-0.580511	-4.485195E+7	-7.335565E-10	NaN
265	1.000000	0.662919	7.36765e+06	-51889.1	955.818	-29750.9	0.000000	0.000000	6.662980	0.076008	NaN	0.000000	0.001723	0.001670	28.0812	0.058504	0.002040	28.6767	26.354	-163.467	0.090817	0.661669	-0.535970	-0.537220	0.076008	28.6767	-0.537958	-1.156201E+7	-6.573937E-9	NaN
265	1.000000	0.706973	7.36765e+06	-51889.1	955.819	-29750.9	0.000000	0.000000	6.707032	0.005775	NaN	0.000000	0.001669	0.001631	28.082	0.075250	0.002064	36.4623	174.197	-164.381	0.024049	0.705641	-0.491916	-0.493248	0.005775	36.4623	-0.492034	-2.6535e+06	-2.176225E-9	NaN
265	1.000000	0.751019	7.36765e+06	-51889.1	955.819	-29750.9	0.000000	0.000000	6.751075	-0.051146	NaN	0.000000	0.001669	0.001688	28.082	0.057691	0.001914	30.1457	-152.666	-165.211	-0.055175	0.749703	-0.447870	-0.449186	-0.051146	30.1457	-0.446598	-611523	8.363707E-8	NaN
265	1.000000	0.795004	7.36765e+06	-51889.1	955.819	-29750.9	0.000000	0.000000	6.795064	0.022309	NaN	0.000000	0.001695	0.001670	28.0818	0.134022	0.002009	66.7078	133.605	-166.775	-0.011149	0.793720	-0.403884	-0.405169	0.022309	66.7078	-0.404135	-153085	-1.457272E-7	NaN
265	1.000000	0.839024	7.36765e+06	-51889.1	955.818	-29750.9	0.000000	0.000000	6.839080	-0.040187	NaN	0.000000	0.001679	0.001679	28.0808	0.129685	0.002039	63.6167	-35.5566	-165.482	-0.057993	0.837735	-0.359865	-0.361154	-0.040187	63.6167	-0.359392	-34918	1.150909E-6	NaN
265	1.000000	0.883037	7.36765e+06	-51889.1	955.817	-29750.9	0.000000	0.000000	6.883096	0.022552	NaN	0.000000	0.001663	0.001651	28.0808	0.089698	0.002000	44.8469	113.786	-161.909	0.005178	0.881741	-0.315852	-0.317148	0.022552	44.8469	-0.316229	-8186.17	-2.754906E-6	NaN
265	1.000000	0.927079	7.36765e+06	-51889.1	955.819	-29750.9	0.000000	0.000000	6.927141	0.101894	NaN	0.000000	0.001606	0.001663	28.0806	0.038608	0.002115	18.2561	-133.968	-165.537	0.100503	0.925737	-0.271810	-0.273152	0.101894	18.2561	-0.275996	-2053.42	-4.962173E-5	NaN
265	1.000000	0.971053	7.36765e+06	-51889.1	955.818	-29750.9	0.000000	0.000000	6.971113	0.051950	NaN	0.000000	0.001605	0.001692	28.0819	0.095845	0.002051	46.7218	-51.6855	-161.039	0.055531	0.969761	-0.227836	-0.229128	0.051950	46.7218	-0.228670	-381.508	-0.000136	NaN
265	1.000000	1.015101	7.36765e+06	-51889.1	955.819	-29750.9	0.000000	0.000000	7.015159	0.010667	NaN	0.000000	0.001592	0.001689	28.0825	0.080162	0.001952	41.0656	156.908	-161.633	-0.033350	1.013750	-0.183788	-0.185139	0.010667	41.0656	-0.183983	-71.2813	-0.000150	NaN
265	1.000000	1.059108	7.36765e+06	-51889.1	955.818	-29750.9	0.000000	0.000000	7.059169	0.055366	NaN	0.000000	0.001563	0.001707	28.0826	0.125141	0.001953	64.0898	-52.9195	-166.704	-0.025197	1.057831	-0.139781	-0.141058	0.055366	64.0898	-0.140429	-12.0507	-0.004594	NaN
265	1.000000	1.103168	7.36765e+06	-51889.1	955.819	-29750.9	0.000000	0.000000	7.103226	0.000851	NaN	0.000000	0.001618	0.001714	28.0807	0.020407	0.002054	9.934422	-130.599	-165.574	0.029612	1.101823	-0.095721	-0.097066	0.000851	9.934422	-0.095785	-1.469837	-0.000579	NaN
265	1.000000	1.147178	7.36765e+06	-51889.1	955.818	-29750.9	0.000000	0.000000	7.147235	-0.029842	NaN	0.000000	0.001596	0.001691	28.0808	0.061125	0.002015	30.3342	-44.2364	-162.882	-0.017787	1.145834	-0.051711	-0.053055	-0.029842	30.3342	-0.050973	-0.097639	0.305635	NaN
265	1.000000	1.191152	7.36765e+06	-51889.1	955.817	-29750.9	0.000000	0.000000	7.191209	-0.021832	NaN	0.000000	0.001683	0.001658	28.0807	0.064249	0.001929	33.3022	68.0822	-164.563	-0.072585	1.189826	-0.007737	-0.009063	-0.021832	33.3022	-0.007246	-0.004787	4.560915	NaN
265	2.000000	1.215613	7.36765e+06	-51889.1	955.818	-29750.9	0.000000	0.000000	7.216579	22.0723	NaN	0.000000	0.001655	0.001673	28.0818	16.5089	0.001721	9591.48	9.533472	-177.025	22.04	1.215268	0.016724	0.016379	22.0723	9591.48	0.014998	0.015283	1444.28	70886
265	2.000000	1.226575	7.36765e+06	-51889.1	955.817	-29750.9	0.000000	0.000000	7.228696	50.1652	NaN	0.000000	0.001676	0.001653	28.0817	29.1929	0.001875	15568.4	7.973314	-179.221	50.0749	1.226215	0.027686	0.027326	50.1652	15568.4	0.025269	0.031507	1592.18	80133.3
265	2.000000	1.237577	7.36765e+06	-51889.1	955.818	-29750.9	0.000000	0.000000	7.240923	79.9596	NaN	0.000000	0.001713	0.001662	28.0816	38.948	0.001748	22281	1.736558	-178.167	79.5884	1.237232	0.038688	0.038343	79.9596	22281	0.035996	0.054091	1478.24	87527.8
265	2.000000	1.248498	7.36765e+06	-51889.1	955.818	-29750.9	0.000000	0.000000	7.253564	121.762	NaN	0.000000	0.001660	0.001663	28.0813	48.5148	0.001745	27798.5	2.704159	179.248	119.129	1.248157	0.049609	0.049268	121.762	27798.5	0.046324	0.081390	1496.02	89024.4
265	2.000000	1.259473	7.36765e+06	-51889.1	955.818	-29750.9	0.000000	0.000000	7.266763	175.853	NaN	0.000000	0.001729	0.001674	28.0807	59.4473	0.001790	33203.1	2.655425	178.232	172.353	1.259220	0.060584	0.060331	175.853	33203.1	0.056612	0.113940	1543.38	89869.8
265	2.000000	1.270539	7.36765e+06	-51889.1	955.818	-29750.9	0.000000	0.000000	7.280504	240.877	NaN	0.000000	0.001674	0.001670	28.0805	71.9112	0.001869	38477	4.022533	175.697	242.834	1.270222	0.071650	0.071333	240.877	38477	0.066955	0.151922	1585.53	90191.1
265	2.000000	1.281453	7.36765e+06	-51889.1	955.818	-29750.9	0.000000	0.000000	7.294320	311.475	NaN	0.000000	0.001701	0.001687	28.0815	81.6636	0.001907	42825.7	5.419923	173.57	309.291	1.281198	0.082564	0.082309	311.475	42825.7	0.077109	0.194202	1603.87	88787.2
265	2.000000	1.292597	7.36765e+06	-51889.1	955.818	-29750.9	0.000000	0.000000	7.308367	382.025	NaN	0.000000	0.001674	0.001673	28.0822	90.3026	0.001797	50256.7	8.024256	169.493	389.97	1.292223	0.093708	0.093334	382.025	50256.7	0.088007	0.244955	1559.57	92773.4
265	2.000000	1.303455	7.36765e+06	-51889.1	955.818	-29750.9	0.000000	0.000000	7.323128	476.943	NaN	0.000000	0.001723	0.001659	28.0822	102.72	0.001910	53776.6	2.501181	174.773	474.792	1.303108	0.104566	0.104219	476.943	53776.6	0.097914	0.295836	1612.19	90331.8
265	2.000000	1.307454	7.36765e+06	-51889.1	955.818	-29750.9	0.000000	0.000000	7.328353	506.743	NaN	0.000000	0.001671	0.001691	28.0818	107.629	0.001681	64015.2	5.554212	170.188	505.755	1.307057	0.108565	0.108168	506.743	64015.2	0.102628	0.321619	1575.6	103130