File: remote_trans/data/nanoindenter/0828-1/data/Data_2025-08-06,11h17m57s/2025-07-22_16-23-58_1_6.txt
2025-07-22, 16:23:58, 1
Index	Phase	Displacement	Time	Pos X	Pos Y	Pos Z	Rot A	Rot B	Piezo Z	Force A	Force B	Gripper	Voltage A	Voltage B	Temperature	Amplitude force	Amplitude pos	Stiffness	Phase shift	Phase excitation	Force A raw	Displacement raw	HMax	HMax raw	Real Force	Real Stiffness	Contact Depth	Area	Hardness	Reduced Mod.
[#]	[#]	[um]	[s]	[um]	[um]	[um]	[m°]	[m°]	[um]	[uN]	[uN]	[V]	[V]	[V]	[°C]	[uN]	[um]	[N/m]	[°]	[°]	[uN]	[um]	[um]	[um]	[uN]	[N/m]	[um]	[um^2]	[MPa]	[MPa]
6.000000	1.000000	0.002195	7.3651e+06	-38939.1	955.818	-29796.4	0.000000	0.000000	6.002812	0.009775	NaN	0.000000	0.001553	0.001642	28.0866	0.086379	0.001000	86.3577	-170.74	-165.726	0.001903	0.000936	-1.026675	-1.027934	0.009775	86.3577	-1.026760	-5.198690E+13	-1.880234E-16	NaN
6.000000	1.000000	0.042130	7.3651e+06	-38939.1	955.819	-29796.4	0.000000	0.000000	6.042749	0.062707	NaN	0.000000	0.001581	0.001692	28.083	0.030807	0.001900	16.2164	-70.1944	-164.571	0.119656	0.040853	-0.986740	-0.988017	0.062707	16.2164	-0.989640	-1.645368E+13	-3.811117E-15	NaN
6.000000	1.000000	0.082145	7.3651e+06	-38939.1	955.818	-29796.4	0.000000	0.000000	6.082762	0.029844	NaN	0.000000	0.001575	0.001654	28.0848	0.045958	0.002002	22.9524	130.699	-165.135	-0.079096	0.080883	-0.946725	-0.947987	0.029844	22.9524	-0.947700	-4.477217E+12	-6.665805E-15	NaN
6.000000	1.000000	0.122162	7.3651e+06	-38939.1	955.818	-29796.4	0.000000	0.000000	6.122782	0.085332	NaN	0.000000	0.001566	0.001658	28.0847	0.135839	0.001976	68.7487	19.6443	-164.178	0.054372	0.120862	-0.906708	-0.908008	0.085332	68.7487	-0.907639	-1.289048E+12	-6.619763E-14	NaN
6.000000	1.000000	0.162178	7.3651e+06	-38939.1	955.818	-29796.4	0.000000	0.000000	6.162795	0.040111	NaN	0.000000	0.001534	0.001606	28.0845	0.111382	0.001905	58.4719	148.171	-166.688	0.070086	0.160850	-0.866693	-0.868021	0.040111	58.4719	-0.867207	-3.661479E+11	-1.095475E-13	NaN
6.000000	1.000000	0.202206	7.3651e+06	-38939.1	955.819	-29796.4	0.000000	0.000000	6.202822	0.001254	NaN	0.000000	0.001524	0.001650	28.0825	0.050691	0.002029	24.9814	-106.351	-165.527	0.026882	0.200879	-0.826665	-0.827991	0.001254	24.9814	-0.826702	-1.035337E+11	-1.211266E-14	NaN
6.000000	1.000000	0.242238	7.3651e+06	-38939.1	955.818	-29796.4	0.000000	0.000000	6.242856	0.045211	NaN	0.000000	0.001551	0.001638	28.0833	0.083479	0.001958	42.6396	99.0773	-165.443	0.040855	0.240951	-0.786632	-0.787919	0.045211	42.6396	-0.787427	-3.034870E+10	-1.489721E-12	NaN
6.000000	1.000000	0.282229	7.3651e+06	-38939.1	955.819	-29796.4	0.000000	0.000000	6.282843	-0.040100	NaN	0.000000	0.001558	0.001650	28.0843	0.045976	0.001987	23.1344	-99.5155	-165.303	-0.012311	0.280934	-0.746641	-0.747936	-0.040100	23.1344	-0.745341	-8.124407E+9	4.935734E-12	NaN
6.000000	1.000000	0.322259	7.3651e+06	-38939.1	955.818	-29796.4	0.000000	0.000000	6.322877	0.035097	NaN	0.000000	0.001524	0.001694	28.0862	0.014261	0.002280	6.254721	-12.8002	-162.284	-0.001365	0.321016	-0.706611	-0.707855	0.035097	6.254721	-0.710819	-2.749357E+9	-1.276567E-11	NaN
6.000000	1.000000	0.362304	7.3651e+06	-38939.1	955.818	-29796.4	0.000000	0.000000	6.362919	-0.021255	NaN	0.000000	0.001496	0.001678	28.083	0.051919	0.001902	27.2925	-20.7971	-164.353	-0.024387	0.360979	-0.666566	-0.667891	-0.021255	27.2925	-0.665982	-6.704886E+8	3.170057E-11	NaN
6.000000	1.000000	0.402281	7.3651e+06	-38939.1	955.819	-29796.4	0.000000	0.000000	6.402897	-0.002977	NaN	0.000000	0.001464	0.001659	28.087	0.065087	0.001997	32.5928	64.6306	-164.114	0.007865	0.401037	-0.626589	-0.627833	-0.002977	32.5928	-0.626521	-1.928568E+8	1.543758E-11	NaN
6.000000	1.000000	0.442316	7.3651e+06	-38939.1	955.819	-29796.4	0.000000	0.000000	6.442933	0.039893	NaN	0.000000	0.001483	0.001650	28.0847	0.033692	0.002010	16.7591	6.001779	-165.027	0.029231	0.440993	-0.586555	-0.587878	0.039893	16.7591	-0.588340	-5.751426E+7	-6.936111E-10	NaN
6.000000	1.000000	0.482335	7.3651e+06	-38939.1	955.817	-29796.4	0.000000	0.000000	6.482952	0.017236	NaN	0.000000	0.001527	0.001713	28.084	0.115895	0.002157	53.7373	-27.6655	-166.603	0.014194	0.481000	-0.546535	-0.547870	0.017236	53.7373	-0.546776	-1.532092E+7	-1.125028E-9	NaN
6.000000	1.000000	0.522338	7.3651e+06	-38939.1	955.818	-29796.4	0.000000	0.000000	6.522953	-0.003931	NaN	0.000000	0.001543	0.001775	28.084	0.080933	0.002165	37.386	90.6881	-164.914	-0.052963	0.521036	-0.506532	-0.507834	-0.003931	37.386	-0.506454	-4.21701e+06	9.322745E-10	NaN
6.000000	1.000000	0.562371	7.3651e+06	-38939.1	955.818	-29796.4	0.000000	0.000000	6.562989	0.068617	NaN	0.000000	0.001535	0.001722	28.0869	0.033988	0.002023	16.7971	122.123	-165.048	-0.049956	0.561036	-0.466500	-0.467834	0.068617	16.7971	-0.469563	-1.28612e+06	-5.335162E-8	NaN
6.000000	1.000000	0.602416	7.3651e+06	-38939.1	955.818	-29796.4	0.000000	0.000000	6.603035	0.076994	NaN	0.000000	0.001566	0.001712	28.0858	0.076840	0.002027	37.9135	-168.824	-161.519	0.089299	0.601087	-0.426454	-0.427783	0.076994	37.9135	-0.427977	-333760	-2.306859E-7	NaN
6.000000	1.000000	0.642377	7.3651e+06	-38939.1	955.818	-29796.4	0.000000	0.000000	6.642991	-0.035177	NaN	0.000000	0.001530	0.001714	28.088	0.041404	0.002051	20.1851	39.0929	-163.562	-0.046727	0.641072	-0.386494	-0.387798	-0.035177	20.1851	-0.385187	-82084.5	4.285475E-7	NaN
6.000000	1.000000	0.682410	7.3651e+06	-38939.1	955.818	-29796.4	0.000000	0.000000	6.683025	-0.011736	NaN	0.000000	0.001540	0.001697	28.084	0.057303	0.001925	29.761	-101.179	-165.561	-0.006902	0.681089	-0.346461	-0.347781	-0.011736	29.761	-0.346165	-22454	5.226809E-7	NaN
6.000000	1.000000	0.722422	7.36511e+06	-38939.1	955.818	-29796.4	0.000000	0.000000	6.723039	0.033408	NaN	0.000000	0.001509	0.001703	28.086	0.062946	0.001977	31.8395	165.675	-165.278	0.006300	0.721104	-0.306448	-0.307766	0.033408	31.8395	-0.307235	-6027.07	-5.543004E-6	NaN
6.000000	1.000000	0.762427	7.36511e+06	-38939.1	955.818	-29796.4	0.000000	0.000000	6.763042	-0.018143	NaN	0.000000	0.001540	0.001673	28.0864	0.076846	0.001891	40.6478	79.1691	-164.02	-0.067051	0.761129	-0.266444	-0.267741	-0.018143	40.6478	-0.266109	-1453.13	1.248562E-5	NaN
6.000000	1.000000	0.802472	7.36511e+06	-38939.1	955.818	-29796.4	0.000000	0.000000	6.803087	-0.032162	NaN	0.000000	0.001544	0.001695	28.0846	0.107644	0.001961	54.8819	-114.444	-164.972	0.012627	0.801166	-0.226398	-0.227704	-0.032162	54.8819	-0.225958	-345.579	9.306725E-5	NaN
6.000000	1.000000	0.842483	7.36511e+06	-38939.1	955.819	-29796.4	0.000000	0.000000	6.843100	0.027339	NaN	0.000000	0.001543	0.001729	28.0864	0.152253	0.001934	78.7301	102.495	-163.689	-0.045519	0.841213	-0.186387	-0.187658	0.027339	78.7301	-0.186648	-79.0433	-0.000346	NaN
6.000000	1.000000	0.882519	7.36511e+06	-38939.1	955.819	-29796.4	0.000000	0.000000	6.883136	0.028606	NaN	0.000000	0.001534	0.001692	28.0869	0.034492	0.002023	17.0531	-175.564	-163.68	-0.052848	0.881218	-0.146352	-0.147652	0.028606	17.0531	-0.147610	-16.3782	-0.001747	NaN
6.000000	1.000000	0.922499	7.36511e+06	-38939.1	955.819	-29796.4	0.000000	0.000000	6.923116	0.016210	NaN	0.000000	0.001515	0.001699	28.0859	0.075567	0.001932	39.1049	65.5579	-163.8	-0.021878	0.921198	-0.106371	-0.107672	0.016210	39.1049	-0.106682	-2.554762	-0.006345	NaN
6.000000	1.000000	0.962523	7.36511e+06	-38939.1	955.818	-29796.4	0.000000	0.000000	6.963138	-0.006739	NaN	0.000000	0.001531	0.001707	28.0856	0.084754	0.002053	41.293	-2.398888	-166.909	0.048775	0.961173	-0.066347	-0.067697	-0.006739	41.293	-0.066225	-0.269408	0.025014	NaN
6.000000	1.000000	1.002528	7.36511e+06	-38939.1	955.818	-29796.4	0.000000	0.000000	7.003144	0.003624	NaN	0.000000	0.001576	0.001721	28.0844	0.050658	0.001878	26.9758	-120.69	-165.348	-0.012778	1.001208	-0.026342	-0.027662	0.003624	26.9758	-0.026443	-0.018414	-0.196795	NaN
6.000000	2.000000	1.039232	7.36511e+06	-38939.1	955.819	-29796.4	0.000000	0.000000	7.040225	9.177597	NaN	0.000000	0.001603	0.001697	28.0872	9.849112	0.001745	5644.88	9.016117	-173.49	8.561676	1.038934	0.010362	0.010064	9.177597	5644.88	0.009142	0.008244	1113.26	56801.8
6.000000	2.000000	1.049182	7.36511e+06	-38939.1	955.818	-29796.4	0.000000	0.000000	7.050863	25.9297	NaN	0.000000	0.001597	0.001716	28.0855	21.3901	0.001836	11650.8	7.825930	-179.611	25.5795	1.048857	0.020312	0.019987	25.9297	11650.8	0.018643	0.020454	1267.71	74428.9
6.000000	2.000000	1.059219	7.36511e+06	-38939.1	955.819	-29796.4	0.000000	0.000000	7.062006	52.8474	NaN	0.000000	0.001567	0.001689	28.0868	32.5234	0.001964	16562	6.574475	-179.501	56.0688	1.058944	0.030349	0.030074	52.8474	16562	0.027955	0.036612	1443.43	79081.2
6.000000	2.000000	1.069163	7.36511e+06	-38939.1	955.818	-29796.4	0.000000	0.000000	7.073205	83.3731	NaN	0.000000	0.001592	0.001687	28.0863	41.0219	0.001759	23320	2.539922	179.899	85.8271	1.068902	0.040293	0.040032	83.3731	23320	0.037612	0.058002	1437.42	88467
6.000000	2.000000	1.079053	7.36511e+06	-38939.1	955.818	-29796.4	0.000000	0.000000	7.084926	127.938	NaN	0.000000	0.001590	0.001679	28.0887	50.1651	0.001857	27018	4.046103	177.298	124.482	1.078767	0.050183	0.049897	127.938	27018	0.046632	0.082287	1554.79	86052.2
6.000000	2.000000	1.089071	7.36511e+06	-38939.1	955.818	-29796.4	0.000000	0.000000	7.097028	178.649	NaN	0.000000	0.001603	0.001682	28.0846	59.9478	0.001732	34611.2	6.411410	173.226	176.313	1.088653	0.060201	0.059783	178.649	34611.2	0.056330	0.112978	1581.27	94079.2
6.000000	2.000000	1.099070	7.36511e+06	-38939.1	955.818	-29796.4	0.000000	0.000000	7.109306	234.112	NaN	0.000000	0.001599	0.001698	28.0858	70.8489	0.001837	38562.5	5.342295	173.557	232.69	1.098767	0.070200	0.069896	234.112	38562.5	0.065647	0.146831	1594.44	91945.3
6.000000	2.000000	1.109039	7.36511e+06	-38939.1	955.817	-29796.4	0.000000	0.000000	7.122156	304.223	NaN	0.000000	0.001607	0.001685	28.0856	78.6738	0.001767	44513.8	4.413227	173.687	300.3	1.108679	0.080168	0.079809	304.223	44513.8	0.075043	0.185203	1642.64	94502.6
6.000000	2.000000	1.119039	7.36511e+06	-38939.1	955.818	-29796.4	0.000000	0.000000	7.134712	366.413	NaN	0.000000	0.001591	0.001733	28.0863	89.7563	0.001820	49318.3	8.045206	169.311	366.102	1.118727	0.090169	0.089857	366.413	49318.3	0.084597	0.228483	1603.68	94265.9
6.000000	2.000000	1.129051	7.36511e+06	-38939.1	955.818	-29796.4	0.000000	0.000000	7.148547	459.462	NaN	0.000000	0.001600	0.001701	28.0875	97.9312	0.001852	52867.9	6.845119	170.841	459.425	1.128649	0.100181	0.099779	459.462	52867.9	0.093663	0.273453	1680.22	92368.5
6.000000	2.000000	1.136497	7.36511e+06	-38939.1	955.818	-29796.4	0.000000	0.000000	7.158727	525.985	NaN	0.000000	0.001606	0.001695	28.1269	104.837	0.001734	60466.9	6.494866	-10.3989	519.553	1.136088	0.107627	0.107218	525.985	60466.9	0.101103	0.313166	1679.58	98719.8