File: remote_trans/data/nanoindenter/0828-1/data/Data_2025-08-06,11h17m57s/2025-07-22_16-23-58_1_146.txt
2025-07-22, 16:23:58, 1
Index	Phase	Displacement	Time	Pos X	Pos Y	Pos Z	Rot A	Rot B	Piezo Z	Force A	Force B	Gripper	Voltage A	Voltage B	Temperature	Amplitude force	Amplitude pos	Stiffness	Phase shift	Phase excitation	Force A raw	Displacement raw	HMax	HMax raw	Real Force	Real Stiffness	Contact Depth	Area	Hardness	Reduced Mod.
[#]	[#]	[um]	[s]	[um]	[um]	[um]	[m°]	[m°]	[um]	[uN]	[uN]	[V]	[V]	[V]	[°C]	[uN]	[um]	[N/m]	[°]	[°]	[uN]	[um]	[um]	[um]	[uN]	[N/m]	[um]	[um^2]	[MPa]	[MPa]
146	1.000000	0.002204	7.36647e+06	-45939.1	955.819	-29771.2	0.000000	0.000000	6.002808	-0.005115	NaN	0.000000	0.001615	0.001705	28.1233	0.011654	0.000950	12.2612	-122.415	-163.027	-0.006880	0.000871	-1.061834	-1.063167	-0.005115	12.2612	-1.061521	-1.524978E+14	3.354182E-17	NaN
146	1.000000	0.042159	7.36647e+06	-45939.1	955.818	-29771.2	0.000000	0.000000	6.042765	0.039125	NaN	0.000000	0.001533	0.001753	28.1243	0.116079	0.001858	62.4718	64.738	-168.187	-0.000882	0.040876	-1.021879	-1.023161	0.039125	62.4718	-1.022348	-4.534678E+13	-8.627973E-16	NaN
146	1.000000	0.082137	7.36647e+06	-45939.1	955.819	-29771.2	0.000000	0.000000	6.082745	0.059923	NaN	0.000000	0.001499	0.001757	28.1215	0.031711	0.001954	16.2262	-25.0349	-165.076	0.021762	0.080824	-0.981900	-0.983214	0.059923	16.2262	-0.984670	-1.410336E+13	-4.248840E-15	NaN
146	1.000000	0.122175	7.36647e+06	-45939.1	955.819	-29771.2	0.000000	0.000000	6.122780	0.013733	NaN	0.000000	0.001501	0.001715	28.1225	0.012719	0.002181	5.831864	166.503	-163.272	-0.001117	0.120900	-0.941863	-0.943137	0.013733	5.831864	-0.943629	-3.945452E+12	-3.480820E-15	NaN
146	1.000000	0.162198	7.36647e+06	-45939.1	955.819	-29771.2	0.000000	0.000000	6.162803	0.012690	NaN	0.000000	0.001583	0.001726	28.1212	0.057403	0.002002	28.6786	-58.371	-163.776	-0.013723	0.160885	-0.901840	-0.903153	0.012690	28.6786	-0.902172	-1.087451E+12	-1.166952E-14	NaN
146	1.000000	0.202215	7.36647e+06	-45939.1	955.819	-29771.2	0.000000	0.000000	6.202818	-0.026972	NaN	0.000000	0.001539	0.001692	28.1228	0.091160	0.001914	47.6352	168.894	-163.965	-0.023237	0.200821	-0.861823	-0.863217	-0.026972	47.6352	-0.861398	-3.055238E+11	8.828096E-14	NaN
146	1.000000	0.242241	7.36647e+06	-45939.1	955.819	-29771.2	0.000000	0.000000	6.242844	-0.038496	NaN	0.000000	0.001586	0.001737	28.1226	0.033491	0.002132	15.7087	-91.9454	-166.1	0.001020	0.240879	-0.821797	-0.823159	-0.038496	15.7087	-0.819959	-8.387999E+10	4.589387E-13	NaN
146	1.000000	0.282251	7.36647e+06	-45939.1	955.819	-29771.2	0.000000	0.000000	6.282853	-0.054820	NaN	0.000000	0.001524	0.001719	28.1229	0.087263	0.001954	44.6687	-82.7338	-166.913	-0.025645	0.280929	-0.781787	-0.783108	-0.054820	44.6687	-0.780866	-2.471746E+10	2.217849E-12	NaN
146	1.000000	0.322273	7.36647e+06	-45939.1	955.819	-29771.2	0.000000	0.000000	6.322881	0.081930	NaN	0.000000	0.001568	0.001723	28.1216	0.077759	0.001983	39.2218	-85.5164	-166.714	0.075877	0.320939	-0.741765	-0.743099	0.081930	39.2218	-0.743331	-7.628264E+9	-1.074026E-11	NaN
146	1.000000	0.362307	7.36647e+06	-45939.1	955.818	-29771.2	0.000000	0.000000	6.362910	-0.049731	NaN	0.000000	0.001524	0.001717	28.1214	0.099045	0.002034	48.6955	178.306	-162.808	-0.031172	0.361021	-0.701731	-0.703017	-0.049731	48.6955	-0.700965	-2.016999E+9	2.465569E-11	NaN
146	1.000000	0.402333	7.36647e+06	-45939.1	955.819	-29771.2	0.000000	0.000000	6.402934	-0.074912	NaN	0.000000	0.001541	0.001685	28.1205	0.068656	0.002009	34.1741	54.105	-161.927	-0.007689	0.400996	-0.661705	-0.663042	-0.074912	34.1741	-0.660061	-5.562960E+8	1.346628E-10	NaN
146	1.000000	0.442284	7.36647e+06	-45939.1	955.818	-29771.2	0.000000	0.000000	6.442888	-0.008159	NaN	0.000000	0.001525	0.001702	28.1215	0.048179	0.001954	24.6551	-30.2176	-167.196	0.044471	0.440986	-0.621754	-0.623051	-0.008159	24.6551	-0.621506	-1.645612E+8	4.958200E-11	NaN
146	1.000000	0.482318	7.36647e+06	-45939.1	955.819	-29771.2	0.000000	0.000000	6.482924	0.035553	NaN	0.000000	0.001572	0.001698	28.1205	0.055063	0.002118	25.9948	1.749439	-167.18	-0.029474	0.481017	-0.581720	-0.583021	0.035553	25.9948	-0.582745	-4.815164E+7	-7.383630E-10	NaN
146	1.000000	0.522350	7.36647e+06	-45939.1	955.818	-29771.2	0.000000	0.000000	6.522955	0.004713	NaN	0.000000	0.001529	0.001748	28.122	0.063005	0.002011	31.3247	14.4819	-166.653	-0.004643	0.521053	-0.541687	-0.542984	0.004713	31.3247	-0.541800	-1.307142E+7	-3.605616E-10	NaN
146	1.000000	0.562368	7.36647e+06	-45939.1	955.819	-29771.2	0.000000	0.000000	6.562971	-0.034796	NaN	0.000000	0.001549	0.001752	28.1208	0.111487	0.002067	53.9487	124.192	-159.413	-0.015499	0.561061	-0.501670	-0.502976	-0.034796	53.9487	-0.501186	-3.56096e+06	9.771464E-9	NaN
146	1.000000	0.602370	7.36647e+06	-45939.1	955.819	-29771.2	0.000000	0.000000	6.602972	-0.052489	NaN	0.000000	0.001552	0.001738	28.1217	0.063420	0.001928	32.8894	-158.328	-164.709	-0.010088	0.601041	-0.461668	-0.462997	-0.052489	32.8894	-0.460471	-958602	5.475527E-8	NaN
146	1.000000	0.642373	7.36647e+06	-45939.1	955.819	-29771.2	0.000000	0.000000	6.642979	0.037458	NaN	0.000000	0.001527	0.001728	28.1194	0.081578	0.002023	40.3271	-5.477150	-166.493	-0.057586	0.641095	-0.421665	-0.422942	0.037458	40.3271	-0.422362	-277908	-1.347870E-7	NaN
146	1.000000	0.682410	7.36647e+06	-45939.1	955.819	-29771.2	0.000000	0.000000	6.683014	-0.028885	NaN	0.000000	0.001524	0.001732	28.1201	0.072752	0.001980	36.748	-141.693	-161.558	0.024454	0.681015	-0.381627	-0.383022	-0.028885	36.748	-0.381038	-71578.6	4.035384E-7	NaN
146	1.000000	0.722421	7.36647e+06	-45939.1	955.819	-29771.2	0.000000	0.000000	6.723026	-0.006796	NaN	0.000000	0.001561	0.001746	28.1194	0.086522	0.002015	42.932	92.3654	-167.036	-0.058156	0.721115	-0.341616	-0.342923	-0.006796	42.932	-0.341498	-19203.4	3.539128E-7	NaN
146	1.000000	0.762444	7.36647e+06	-45939.1	955.818	-29771.2	0.000000	0.000000	6.763049	-0.002802	NaN	0.000000	0.001586	0.001729	28.1213	0.065834	0.002135	30.8421	-59.6429	-164.505	0.009606	0.761153	-0.301593	-0.302884	-0.002802	30.8421	-0.301525	-4958.26	5.651757E-7	NaN
146	1.000000	0.802482	7.36647e+06	-45939.1	955.818	-29771.2	0.000000	0.000000	6.803086	-0.029959	NaN	0.000000	0.001567	0.001749	28.1195	0.147952	0.001950	75.8802	117.683	-163.007	-0.071365	0.801154	-0.261555	-0.262884	-0.029959	75.8802	-0.261259	-1225.2	2.445253E-5	NaN
146	1.000000	0.842463	7.36647e+06	-45939.1	955.818	-29771.2	0.000000	0.000000	6.843069	0.034184	NaN	0.000000	0.001533	0.001716	28.1213	0.082385	0.001881	43.8024	-151.736	-165.431	0.054715	0.841165	-0.221574	-0.222873	0.034184	43.8024	-0.222160	-300.707	-0.000114	NaN
146	1.000000	0.882495	7.36647e+06	-45939.1	955.818	-29771.2	0.000000	0.000000	6.883098	-0.044148	NaN	0.000000	0.001578	0.001730	28.1193	0.031792	0.002038	15.6013	175.202	-163.841	-0.057935	0.881208	-0.181542	-0.182830	-0.044148	15.6013	-0.179420	-59.6476	0.000740	NaN
146	1.000000	0.922501	7.36647e+06	-45939.1	955.819	-29771.2	0.000000	0.000000	6.923103	-0.054191	NaN	0.000000	0.001575	0.001724	28.1183	0.084989	0.002128	39.9311	-122.7	-163.773	-0.072552	0.921182	-0.141537	-0.142856	-0.054191	39.9311	-0.140519	-12.0979	0.004479	NaN
146	1.000000	0.962515	7.36647e+06	-45939.1	955.818	-29771.2	0.000000	0.000000	6.963121	0.044565	NaN	0.000000	0.001558	0.001763	28.1184	0.009335	0.001965	4.751719	-48.4755	-166.108	0.044504	0.961199	-0.101523	-0.102839	0.044565	4.751719	-0.108557	-2.801181	-0.015909	NaN
146	1.000000	1.002539	7.36647e+06	-45939.1	955.816	-29771.2	0.000000	0.000000	7.003141	-0.060980	NaN	0.000000	0.001540	0.001695	28.1186	0.074372	0.001829	40.657	116.316	-167.528	-0.024254	1.001214	-0.061499	-0.062824	-0.060980	40.657	-0.060374	-0.184592	0.330348	NaN
146	1.000000	1.042544	7.36647e+06	-45939.1	955.816	-29771.2	0.000000	0.000000	7.043148	-0.023615	NaN	0.000000	0.001502	0.001721	28.1179	0.079702	0.002038	39.1152	5.074525	-162.929	-0.086284	1.041277	-0.021493	-0.022761	-0.023615	39.1152	-0.021041	-0.013350	1.768955	NaN
146	2.000000	1.076190	7.36647e+06	-45939.1	955.816	-29771.2	0.000000	0.000000	7.077236	10.7133	NaN	0.000000	0.001581	0.001693	28.1196	10.8224	0.001617	6691.17	3.987965	-171.595	9.645134	1.075943	0.012153	0.011905	10.7133	6691.17	0.010952	0.010259	1044.32	60357.3
146	2.000000	1.086158	7.36647e+06	-45939.1	955.814	-29771.2	0.000000	0.000000	7.087949	28.8691	NaN	0.000000	0.001582	0.001658	28.1185	22.1908	0.001736	12784.5	6.215684	-177.782	28.6579	1.085805	0.022120	0.021767	28.8691	12784.5	0.020426	0.023216	1243.48	76658.5
146	2.000000	1.096106	7.36647e+06	-45939.1	955.814	-29771.2	0.000000	0.000000	7.099082	57.68	NaN	0.000000	0.001620	0.001703	28.1192	32.8437	0.001813	18114.1	2.374081	-176.417	56.8835	1.095757	0.032068	0.031719	57.68	18114.1	0.029680	0.040083	1439.02	82662.9
146	2.000000	1.106058	7.36647e+06	-45939.1	955.816	-29771.2	0.000000	0.000000	7.110749	99.4099	NaN	0.000000	0.001614	0.001708	28.1163	42.2343	0.001682	25105.7	3.606624	178.746	98.2699	1.105797	0.042020	0.041759	99.4099	25105.7	0.039051	0.061598	1613.85	92419.2
146	2.000000	1.116058	7.36647e+06	-45939.1	955.815	-29771.3	0.000000	0.000000	7.122817	149.697	NaN	0.000000	0.001611	0.001722	28.1173	53.8281	0.001717	31346.9	4.046386	176.418	148.073	1.115831	0.052020	0.051793	149.697	31346.9	0.048439	0.087649	1707.92	96737.7
146	2.000000	1.126140	7.36647e+06	-45939.1	955.814	-29771.3	0.000000	0.000000	7.135121	203.765	NaN	0.000000	0.001602	0.001703	28.1159	64.8676	0.001880	34509.1	6.553184	173.955	208.499	1.125767	0.062102	0.061729	203.765	34509.1	0.057673	0.117598	1732.73	91940.6
146	2.000000	1.136063	7.36647e+06	-45939.1	955.814	-29771.3	0.000000	0.000000	7.148001	275.698	NaN	0.000000	0.001588	0.001729	28.1185	73.569	0.001734	42434.7	6.150278	172.5	276.836	1.135692	0.072025	0.071654	275.698	42434.7	0.067153	0.152699	1805.5	99214.9
146	2.000000	1.145966	7.36647e+06	-45939.1	955.812	-29771.3	0.000000	0.000000	7.160939	349.502	NaN	0.000000	0.001562	0.001712	28.1174	83.7436	0.001922	43564.3	5.967019	172.726	345.625	1.145734	0.081929	0.081696	349.502	43564.3	0.075912	0.188964	1849.57	91561.8
146	2.000000	1.156095	7.36647e+06	-45939.1	955.813	-29771.3	0.000000	0.000000	7.174274	427.513	NaN	0.000000	0.001556	0.001657	28.1176	90.898	0.001771	51323.9	3.848256	173.398	431.097	1.155775	0.092057	0.091738	427.513	51323.9	0.085810	0.234279	1824.8	96878.2
146	2.000000	1.166016	7.36647e+06	-45939.1	955.814	-29771.3	0.000000	0.000000	7.187974	519.432	NaN	0.000000	0.001594	0.001698	28.1163	102.367	0.001839	55678.2	9.702928	167.222	518.867	1.165736	0.101978	0.101698	519.432	55678.2	0.094981	0.280307	1853.08	96081.9
146	2.000000	1.172438	7.36647e+06	-45939.1	955.815	-29771.3	0.000000	0.000000	7.197196	587.548	NaN	0.000000	0.001622	0.001722	28.126	109.149	0.001933	56459.7	6.975964	-10.0814	582.118	1.172108	0.108400	0.108070	587.548	56459.7	0.100596	0.310377	1893.01	92590.6