File: remote_trans/data/nanoindenter/0828-1/data/Data_2025-08-06,11h17m57s/2025-07-22_16-23-58_1_527.txt
2025-07-22, 16:23:58, 1
Index	Phase	Displacement	Time	Pos X	Pos Y	Pos Z	Rot A	Rot B	Piezo Z	Force A	Force B	Gripper	Voltage A	Voltage B	Temperature	Amplitude force	Amplitude pos	Stiffness	Phase shift	Phase excitation	Force A raw	Displacement raw	HMax	HMax raw	Real Force	Real Stiffness	Contact Depth	Area	Hardness	Reduced Mod.
[#]	[#]	[um]	[s]	[um]	[um]	[um]	[m°]	[m°]	[um]	[uN]	[uN]	[V]	[V]	[V]	[°C]	[uN]	[um]	[N/m]	[°]	[°]	[uN]	[um]	[um]	[um]	[uN]	[N/m]	[um]	[um^2]	[MPa]	[MPa]
527	1.000000	0.002632	7.3702e+06	-50739.1	1005.82	-29754.6	0.000000	0.000000	6.002778	-0.024053	NaN	0.000000	0.001586	0.001745	28.0825	0.063479	0.000947	67.009	68.2869	-168.041	-0.084393	0.001431	-1.074864	-1.076065	-0.024053	67.009	-1.074595	-2.285171E+14	1.052573E-16	NaN
527	1.000000	0.042583	7.3702e+06	-50739.1	1005.82	-29754.7	0.000000	0.000000	6.042728	-0.060962	NaN	0.000000	0.001600	0.001737	28.0825	0.089932	0.001859	48.3707	-14.3136	-165.342	-0.130039	0.041225	-1.034913	-1.036271	-0.060962	48.3707	-1.033967	-6.498920E+13	9.380319E-16	NaN
527	1.000000	0.082633	7.3702e+06	-50739.1	1005.82	-29754.7	0.000000	0.000000	6.082778	-0.067456	NaN	0.000000	0.001608	0.001835	28.0831	0.051608	0.002142	24.0912	-31.0508	-167.004	-0.070617	0.081268	-0.994863	-0.996228	-0.067456	24.0912	-0.992763	-1.812683E+13	3.721319E-15	NaN
527	1.000000	0.122634	7.3702e+06	-50739.1	1005.82	-29754.7	0.000000	0.000000	6.122780	-0.044538	NaN	0.000000	0.001589	0.001767	28.083	0.049637	0.001931	25.6997	-141.372	-165.949	-0.041807	0.121314	-0.954862	-0.956182	-0.044538	25.6997	-0.953562	-5.371078E+12	8.292166E-15	NaN
527	1.000000	0.162635	7.3702e+06	-50739.1	1005.82	-29754.7	0.000000	0.000000	6.162782	-0.024064	NaN	0.000000	0.001632	0.001771	28.083	0.128466	0.002029	63.3138	-127.915	-163.698	0.026702	0.161391	-0.914861	-0.916105	-0.024064	63.3138	-0.914576	-1.599412E+12	1.504531E-14	NaN
527	1.000000	0.202675	7.3702e+06	-50739.1	1005.82	-29754.7	0.000000	0.000000	6.202820	-0.059564	NaN	0.000000	0.001625	0.001802	28.0816	0.047283	0.002005	23.5861	27.1221	-166.066	-0.025025	0.201329	-0.874821	-0.876167	-0.059564	23.5861	-0.872927	-4.375680E+11	1.361259E-13	NaN
527	1.000000	0.242686	7.3702e+06	-50739.1	1005.82	-29754.7	0.000000	0.000000	6.242829	-0.106556	NaN	0.000000	0.001596	0.001741	28.0818	0.064233	0.001886	34.0613	-94.3165	-169.286	-0.107334	0.241413	-0.834810	-0.836083	-0.106556	34.0613	-0.832464	-1.239310E+11	8.598027E-13	NaN
527	1.000000	0.282706	7.37021e+06	-50739.1	1005.82	-29754.7	0.000000	0.000000	6.282849	-0.121573	NaN	0.000000	0.001583	0.001760	28.0817	0.064717	0.001899	34.0877	-175.076	-164.766	-0.065378	0.281409	-0.794790	-0.796087	-0.121573	34.0877	-0.792115	-3.514047E+10	3.459629E-12	NaN
527	1.000000	0.322715	7.37021e+06	-50739.1	1005.82	-29754.7	0.000000	0.000000	6.322861	-0.021913	NaN	0.000000	0.001580	0.001797	28.0834	0.130273	0.002109	61.7786	49.5378	-167.372	-0.063914	0.321421	-0.754782	-0.756075	-0.021913	61.7786	-0.754516	-1.083125E+10	2.023081E-12	NaN
527	1.000000	0.362737	7.37021e+06	-50739.1	1005.82	-29754.7	0.000000	0.000000	6.362879	-0.124286	NaN	0.000000	0.001580	0.001780	28.0831	0.121386	0.002007	60.4833	-88.3895	-165.839	-0.142275	0.361405	-0.714760	-0.716091	-0.124286	60.4833	-0.713218	-2.964591E+9	4.192347E-11	NaN
527	1.000000	0.402742	7.37021e+06	-50739.1	1005.82	-29754.7	0.000000	0.000000	6.402884	-0.123008	NaN	0.000000	0.001547	0.001796	28.0835	0.122662	0.001878	65.3158	-13.018	-164.407	-0.139576	0.401450	-0.674754	-0.676046	-0.123008	65.3158	-0.673342	-8.455208E+8	1.454824E-10	NaN
527	1.000000	0.442762	7.37021e+06	-50739.1	1005.82	-29754.7	0.000000	0.000000	6.442907	-0.063911	NaN	0.000000	0.001512	0.001784	28.0835	0.028507	0.001989	14.3292	160.68	-166.697	-0.036407	0.441466	-0.634734	-0.636030	-0.063911	14.3292	-0.631389	-2.249535E+8	2.841078E-10	NaN
527	1.000000	0.482784	7.37021e+06	-50739.1	1005.82	-29754.7	0.000000	0.000000	6.482929	-0.061735	NaN	0.000000	0.001589	0.001751	28.0822	0.038320	0.001957	19.5853	91.9392	-165.669	-0.037869	0.481478	-0.594712	-0.596018	-0.061735	19.5853	-0.592348	-6.531843E+7	9.451325E-10	NaN
527	1.000000	0.522796	7.37021e+06	-50739.1	1005.82	-29754.7	0.000000	0.000000	6.522940	-0.089905	NaN	0.000000	0.001546	0.001782	28.0825	0.085469	0.002164	39.5022	157.138	-162.239	-0.058561	0.521491	-0.554700	-0.556005	-0.089905	39.5022	-0.552993	-1.868107E+7	4.812639E-9	NaN
527	1.000000	0.562826	7.37021e+06	-50739.1	1005.82	-29754.7	0.000000	0.000000	6.562972	-0.027852	NaN	0.000000	0.001517	0.001797	28.0823	0.121155	0.001906	63.5577	-112.407	-163.916	-0.027568	0.561493	-0.514670	-0.516003	-0.027852	63.5577	-0.514341	-5.43081e+06	5.128433E-9	NaN
527	1.000000	0.602799	7.37021e+06	-50739.1	1005.82	-29754.7	0.000000	0.000000	6.602944	-0.061075	NaN	0.000000	0.001565	0.001797	28.0835	0.048062	0.001944	24.7285	-87.0207	-168.95	-0.042268	0.601560	-0.474697	-0.475936	-0.061075	24.7285	-0.472844	-1.42985e+06	4.271414E-8	NaN
527	1.000000	0.642864	7.37021e+06	-50739.1	1005.82	-29754.7	0.000000	0.000000	6.643009	-0.054565	NaN	0.000000	0.001503	0.001848	28.0834	0.127022	0.002093	60.6869	-165.762	-170.501	-0.074651	0.641584	-0.434632	-0.435912	-0.054565	60.6869	-0.433958	-405530	1.345522E-7	NaN
527	1.000000	0.682859	7.37021e+06	-50739.1	1005.82	-29754.7	0.000000	0.000000	6.683003	-0.073345	NaN	0.000000	0.001532	0.001830	28.0834	0.077754	0.001967	39.5245	134.084	-167.269	-0.075512	0.681583	-0.394637	-0.395913	-0.073345	39.5245	-0.393246	-107046	6.851664E-7	NaN
527	1.000000	0.722879	7.37021e+06	-50739.1	1005.82	-29754.7	0.000000	0.000000	6.723023	-0.082640	NaN	0.000000	0.001587	0.001818	28.0835	0.093750	0.002060	45.5046	121.3	-167.369	-0.077392	0.721594	-0.354617	-0.355902	-0.082640	45.5046	-0.353255	-28458.8	2.903856E-6	NaN
527	1.000000	0.762888	7.37021e+06	-50739.1	1005.82	-29754.7	0.000000	0.000000	6.763035	-0.019586	NaN	0.000000	0.001582	0.001781	28.0821	0.050378	0.001992	25.2961	-60.3516	-167.626	-0.004414	0.761548	-0.314608	-0.315948	-0.019586	25.2961	-0.314027	-7595.96	2.578491E-6	NaN
527	1.000000	0.802922	7.37021e+06	-50739.1	1005.82	-29754.7	0.000000	0.000000	6.803071	0.037456	NaN	0.000000	0.001662	0.001786	28.0822	0.044525	0.002032	21.9144	-29.3339	-164.699	-0.019273	0.801651	-0.274574	-0.275845	0.037456	21.9144	-0.275856	-2043.39	-1.833021E-5	NaN
527	1.000000	0.842941	7.37021e+06	-50739.1	1005.82	-29754.7	0.000000	0.000000	6.843088	-0.006574	NaN	0.000000	0.001576	0.001767	28.0821	0.037131	0.001963	18.9136	172.654	-168.48	-0.030843	0.841615	-0.234555	-0.235882	-0.006574	18.9136	-0.234294	-467.908	1.404984E-5	NaN
527	1.000000	0.882965	7.37021e+06	-50739.1	1005.82	-29754.7	0.000000	0.000000	6.883111	-0.055177	NaN	0.000000	0.001580	0.001766	28.0833	0.038282	0.001948	19.6532	155.648	-165.806	-0.168345	0.881633	-0.194531	-0.195863	-0.055177	19.6532	-0.192425	-98.7314	0.000559	NaN
527	1.000000	0.922954	7.37021e+06	-50739.1	1005.82	-29754.7	0.000000	0.000000	6.923101	0.001894	NaN	0.000000	0.001606	0.001800	28.0831	0.061189	0.001928	31.7357	173.348	-166.337	-0.023468	0.921685	-0.154542	-0.155811	0.001894	31.7357	-0.154587	-21.9353	-8.636438E-5	NaN
527	1.000000	0.962984	7.37021e+06	-50739.1	1005.82	-29754.7	0.000000	0.000000	6.963130	-0.031984	NaN	0.000000	0.001582	0.001780	28.0831	0.147240	0.001988	74.0817	-17.282	-167.225	0.047914	0.961679	-0.114512	-0.115817	-0.031984	74.0817	-0.114189	-3.675769	0.008701	NaN
527	1.000000	1.003003	7.37021e+06	-50739.1	1005.82	-29754.7	0.000000	0.000000	7.003148	-0.067434	NaN	0.000000	0.001614	0.001806	28.0819	0.180146	0.001943	92.6934	137.518	-166.283	-0.066435	1.001708	-0.074493	-0.075789	-0.067434	92.6934	-0.073947	-0.433696	0.155487	NaN
527	1.000000	1.043006	7.37021e+06	-50739.1	1005.82	-29754.7	0.000000	0.000000	7.043153	-0.014549	NaN	0.000000	0.001604	0.001817	28.0819	0.090762	0.002058	44.1085	62.9365	-167.657	-0.024544	1.041684	-0.034490	-0.035812	-0.014549	44.1085	-0.034242	-0.030426	0.478190	NaN
527	2.000000	1.082535	7.37021e+06	-50739.1	1005.82	-29754.7	0.000000	0.000000	7.083015	8.088626	NaN	0.000000	0.001610	0.001760	28.0817	8.565308	0.001665	5145.55	11.7398	-174.91	7.451864	1.081673	0.005039	0.004177	8.088626	5145.55	0.003860	0.003116	2595.57	84213.9
527	2.000000	1.092666	7.37021e+06	-50739.1	1005.82	-29754.7	0.000000	0.000000	7.093904	26.5223	NaN	0.000000	0.001609	0.001835	28.0821	19.7283	0.001715	11500.9	6.213502	-177.687	25.9343	1.092295	0.015170	0.014799	26.5223	11500.9	0.013440	0.013262	1999.94	91244.6
527	2.000000	1.102547	7.37021e+06	-50739.1	1005.82	-29754.7	0.000000	0.000000	7.104841	52.2038	NaN	0.000000	0.001636	0.001751	28.0838	29.6913	0.001860	15966.3	3.714798	-177.64	49.8116	1.102370	0.025051	0.024874	52.2038	15966.3	0.022599	0.026792	1948.48	89119.8
527	2.000000	1.112593	7.37021e+06	-50739.1	1005.82	-29754.7	0.000000	0.000000	7.116270	85.8418	NaN	0.000000	0.001525	0.001808	28.0842	39.1347	0.001714	22836.5	1.122818	-178.975	84.1815	1.112271	0.035097	0.034775	85.8418	22836.5	0.032277	0.045597	1882.64	97709.3
527	2.000000	1.122527	7.37021e+06	-50739.1	1005.82	-29754.7	0.000000	0.000000	7.128101	131.963	NaN	0.000000	0.001555	0.001795	28.0853	49.3558	0.001814	27208.2	5.755985	174.747	128.34	1.122219	0.045031	0.044723	131.963	27208.2	0.041394	0.067680	1949.81	95553
527	2.000000	1.132599	7.37021e+06	-50739.1	1005.82	-29754.7	0.000000	0.000000	7.140145	179.921	NaN	0.000000	0.001565	0.001824	28.0823	58.6365	0.001687	34763.9	3.199035	174.64	179.514	1.132356	0.055102	0.054860	179.921	34763.9	0.051221	0.096224	1869.81	102391
527	2.000000	1.142557	7.37021e+06	-50739.1	1005.82	-29754.7	0.000000	0.000000	7.152387	235.459	NaN	0.000000	0.001565	0.001780	28.0822	69.4831	0.001771	39223.4	5.305948	172.511	233.901	1.142259	0.065061	0.064763	235.459	39223.4	0.060559	0.127820	1842.12	100235
527	2.000000	1.152483	7.37021e+06	-50739.1	1005.82	-29754.7	0.000000	0.000000	7.165333	308.895	NaN	0.000000	0.001569	0.001776	28.0818	77.2012	0.001837	42030.7	2.114385	174.939	306.135	1.152320	0.074987	0.074824	308.895	42030.7	0.069475	0.161957	1907.26	95420.1
527	2.000000	1.162467	7.37021e+06	-50739.1	1005.82	-29754.7	0.000000	0.000000	7.178587	388.426	NaN	0.000000	0.001615	0.001777	28.0819	88.4532	0.001642	53881.6	7.028211	168.27	385.363	1.162181	0.084971	0.084684	388.426	53881.6	0.079564	0.205156	1893.32	108686
527	2.000000	1.172580	7.37021e+06	-50739.1	1005.82	-29754.7	0.000000	0.000000	7.192099	471.083	NaN	0.000000	0.001573	0.001740	28.0833	98.7305	0.001771	55741.9	3.090944	172.72	472.884	1.172251	0.095084	0.094755	471.083	55741.9	0.088745	0.248592	1895.01	102144
527	2.000000	1.180967	7.37021e+06	-50739.1	1005.82	-29754.7	0.000000	0.000000	7.203744	550.316	NaN	0.000000	0.001583	0.001745	28.0839	105.256	0.001717	61313.6	0.886267	-6.153939	544.338	1.180685	0.103470	0.103189	550.316	61313.6	0.096739	0.289566	1900.49	104101