File: remote_trans/data/nanoindenter/0828-1/data/Data_2025-08-06,11h17m57s/2025-07-22_16-23-58_1_775.txt
2025-07-22, 16:23:58, 1
Index	Phase	Displacement	Time	Pos X	Pos Y	Pos Z	Rot A	Rot B	Piezo Z	Force A	Force B	Gripper	Voltage A	Voltage B	Temperature	Amplitude force	Amplitude pos	Stiffness	Phase shift	Phase excitation	Force A raw	Displacement raw	HMax	HMax raw	Real Force	Real Stiffness	Contact Depth	Area	Hardness	Reduced Mod.
[#]	[#]	[um]	[s]	[um]	[um]	[um]	[m°]	[m°]	[um]	[uN]	[uN]	[V]	[V]	[V]	[°C]	[uN]	[um]	[N/m]	[°]	[°]	[uN]	[um]	[um]	[um]	[uN]	[N/m]	[um]	[um^2]	[MPa]	[MPa]
775	1.000000	0.002308	7.37264e+06	-38889.1	1055.82	-29795.8	0.000000	0.000000	6.002801	-0.018218	NaN	0.000000	0.001773	0.001743	28.0826	0.059943	0.001068	56.1456	-77.0557	-164.461	-0.002870	0.001044	-1.037727	-1.038991	-0.018218	56.1456	-1.037483	-7.246426E+13	2.514045E-16	NaN
775	1.000000	0.042263	7.37264e+06	-38889.1	1055.82	-29795.9	0.000000	0.000000	6.042756	-0.007487	NaN	0.000000	0.001681	0.001706	28.0838	0.091662	0.001907	48.0751	-150.057	-166.028	-0.019940	0.040968	-0.997772	-0.999067	-0.007487	48.0751	-0.997655	-2.109587E+13	3.549056E-16	NaN
775	1.000000	0.082251	7.37264e+06	-38889.1	1055.82	-29795.9	0.000000	0.000000	6.082744	0.003427	NaN	0.000000	0.001691	0.001756	28.0839	0.070866	0.002071	34.2248	105.075	-167.14	0.010733	0.080913	-0.957784	-0.959122	0.003427	34.2248	-0.957859	-6.137716E+12	-5.583739E-16	NaN
775	1.000000	0.122278	7.37264e+06	-38889.1	1055.82	-29795.9	0.000000	0.000000	6.122772	0.033789	NaN	0.000000	0.001669	0.001744	28.0834	0.010898	0.001915	5.691636	-37.7141	-162.687	0.000210	0.120917	-0.917757	-0.919118	0.033789	5.691636	-0.922210	-2.027875E+12	-1.666229E-14	NaN
775	1.000000	0.162336	7.37264e+06	-38889.1	1055.82	-29795.9	0.000000	0.000000	6.162830	0.019857	NaN	0.000000	0.001661	0.001841	28.0837	0.091256	0.002050	44.5044	119.868	-165.549	-0.083396	0.160962	-0.877699	-0.879073	0.019857	44.5044	-0.878034	-5.129972E+11	-3.870730E-14	NaN
775	1.000000	0.202304	7.37264e+06	-38889.1	1055.82	-29795.9	0.000000	0.000000	6.202796	-0.026420	NaN	0.000000	0.001664	0.001835	28.0825	0.100283	0.002079	48.2249	9.441193	-162.731	0.034464	0.200998	-0.837731	-0.839037	-0.026420	48.2249	-0.837320	-1.442045E+11	1.832125E-13	NaN
775	1.000000	0.242372	7.37264e+06	-38889.1	1055.82	-29795.9	0.000000	0.000000	6.242864	-0.024155	NaN	0.000000	0.001644	0.001734	28.0825	0.016637	0.002064	8.062115	54.942	-162.381	-0.071337	0.240957	-0.797663	-0.799078	-0.024155	8.062115	-0.795416	-3.896061E+10	6.199783E-13	NaN
775	1.000000	0.282367	7.37264e+06	-38889.1	1055.82	-29795.9	0.000000	0.000000	6.282856	-0.086389	NaN	0.000000	0.001696	0.001765	28.0828	0.054859	0.002007	27.3356	-63.3898	-165.782	-0.044403	0.281048	-0.757668	-0.758987	-0.086389	27.3356	-0.755298	-1.110004E+10	7.782774E-12	NaN
775	1.000000	0.322390	7.37264e+06	-38889.1	1055.82	-29795.9	0.000000	0.000000	6.322885	0.045637	NaN	0.000000	0.001685	0.001745	28.0834	0.024167	0.001925	12.5542	-39.1432	-164.783	0.044722	0.321049	-0.717645	-0.718986	0.045637	12.5542	-0.720372	-3.711446E+9	-1.229635E-11	NaN
775	1.000000	0.362385	7.37264e+06	-38889.1	1055.82	-29795.9	0.000000	0.000000	6.362878	-0.007466	NaN	0.000000	0.001695	0.001747	28.0837	0.005537	0.001909	2.899980	46.5255	-162.969	0.018282	0.361102	-0.677650	-0.678933	-0.007466	2.899980	-0.675719	-9.112784E+8	8.193253E-12	NaN
775	1.000000	0.402395	7.37264e+06	-38889.1	1055.82	-29795.9	0.000000	0.000000	6.402888	0.009615	NaN	0.000000	0.001729	0.001701	28.0838	0.101411	0.002040	49.7061	78.11	-165.727	-0.029638	0.401034	-0.637640	-0.639001	0.009615	49.7061	-0.637785	-2.753599E+8	-3.491645E-11	NaN
775	1.000000	0.442435	7.37264e+06	-38889.1	1055.82	-29795.9	0.000000	0.000000	6.442929	0.008759	NaN	0.000000	0.001703	0.001731	28.0836	0.056576	0.001994	28.3668	130.306	-162.859	-0.024065	0.441136	-0.597600	-0.598899	0.008759	28.3668	-0.597831	-7.773032E+7	-1.126880E-10	NaN
775	1.000000	0.482427	7.37264e+06	-38889.1	1055.82	-29795.9	0.000000	0.000000	6.482922	0.049393	NaN	0.000000	0.001733	0.001731	28.0822	0.081815	0.001877	43.5851	-9.288789	-166.027	0.030281	0.481157	-0.557608	-0.558878	0.049393	43.5851	-0.558458	-2.223566E+7	-2.221327E-9	NaN
775	1.000000	0.522444	7.37264e+06	-38889.1	1055.82	-29795.9	0.000000	0.000000	6.522939	0.055123	NaN	0.000000	0.001668	0.001770	28.0822	0.047327	0.002185	21.6576	-121.406	-162.691	0.064077	0.521125	-0.517591	-0.518910	0.055123	21.6576	-0.519500	-6.40681e+06	-8.603884E-9	NaN
775	1.000000	0.562496	7.37264e+06	-38889.1	1055.82	-29795.9	0.000000	0.000000	6.562987	-0.043178	NaN	0.000000	0.001708	0.001760	28.0826	0.123441	0.001993	61.9225	-133.072	-163.729	0.005123	0.561099	-0.477539	-0.478936	-0.043178	61.9225	-0.477016	-1.63587e+06	2.639475E-8	NaN
775	1.000000	0.602487	7.37264e+06	-38889.1	1055.82	-29795.9	0.000000	0.000000	6.602980	0.010542	NaN	0.000000	0.001685	0.001763	28.0839	0.083276	0.002123	39.2219	44.3315	-164.525	0.085884	0.601178	-0.437548	-0.438857	0.010542	39.2219	-0.437750	-458775	-2.297833E-8	NaN
775	1.000000	0.642463	7.37264e+06	-38889.1	1055.82	-29795.9	0.000000	0.000000	6.642958	0.036002	NaN	0.000000	0.001685	0.001787	28.0836	0.165325	0.001982	83.4135	63.2185	-162.015	0.026739	0.641191	-0.397572	-0.398844	0.036002	83.4135	-0.397895	-124730	-2.886439E-7	NaN
775	1.000000	0.682520	7.37264e+06	-38889.1	1055.82	-29795.9	0.000000	0.000000	6.683013	-0.002883	NaN	0.000000	0.001709	0.001720	28.0839	0.039269	0.002026	19.3845	91.8863	-165.943	-0.038231	0.681208	-0.357515	-0.358827	-0.002883	19.3845	-0.357404	-32681.2	8.823030E-8	NaN
775	1.000000	0.722557	7.37264e+06	-38889.1	1055.82	-29795.9	0.000000	0.000000	6.723051	1.071215E-5	NaN	0.000000	0.001656	0.001763	28.0827	0.089585	0.002067	43.346	-165.128	-165.382	0.005105	0.721230	-0.317478	-0.318805	1.071215E-5	43.346	-0.317478	-8540.64	-1.254257E-9	NaN
775	1.000000	0.762567	7.37264e+06	-38889.1	1055.82	-29795.9	0.000000	0.000000	6.763061	0.001771	NaN	0.000000	0.001691	0.001754	28.0827	0.038781	0.002193	17.6805	148.261	-166.686	0.001581	0.761250	-0.277468	-0.278785	0.001771	17.6805	-0.277543	-2167.04	-8.172440E-7	NaN
775	1.000000	0.802583	7.37264e+06	-38889.1	1055.82	-29795.9	0.000000	0.000000	6.803076	0.009349	NaN	0.000000	0.001681	0.001727	28.0827	0.023997	0.001994	12.0345	-60.8595	-164.471	0.057232	0.801271	-0.237452	-0.238764	0.009349	12.0345	-0.238035	-535.582	-1.745486E-5	NaN
775	1.000000	0.842588	7.37264e+06	-38889.1	1055.82	-29795.9	0.000000	0.000000	6.843079	-0.047686	NaN	0.000000	0.001690	0.001742	28.0826	0.070263	0.001993	35.2585	115.493	-167.333	-0.038256	0.841286	-0.197447	-0.198749	-0.047686	35.2585	-0.196433	-115.055	0.000414	NaN
775	1.000000	0.882612	7.37264e+06	-38889.1	1055.82	-29795.9	0.000000	0.000000	6.883104	-0.015966	NaN	0.000000	0.001692	0.001742	28.0841	0.059363	0.002026	29.2998	-164.929	-167.629	-0.039588	0.881287	-0.157423	-0.158748	-0.015966	29.2998	-0.157015	-24.2517	0.000658	NaN
775	1.000000	0.922612	7.37264e+06	-38889.1	1055.82	-29795.9	0.000000	0.000000	6.923106	0.013556	NaN	0.000000	0.001674	0.001777	28.0839	0.114106	0.001905	59.8855	50.7311	-166.207	-0.003812	0.921335	-0.117423	-0.118700	0.013556	59.8855	-0.117592	-4.317657	-0.003140	NaN
775	1.000000	0.962626	7.37264e+06	-38889.1	1055.82	-29795.9	0.000000	0.000000	6.963119	0.005515	NaN	0.000000	0.001686	0.001802	28.084	0.167831	0.001963	85.5166	-68.0993	-164.404	-0.003162	0.961304	-0.077409	-0.078731	0.005515	85.5166	-0.077458	-0.534037	-0.010328	NaN
775	1.000000	1.002647	7.37264e+06	-38889.1	1055.82	-29795.9	0.000000	0.000000	7.003141	0.017706	NaN	0.000000	0.001716	0.001721	28.0826	0.059702	0.002025	29.4844	57.2651	-166.474	0.053824	1.001349	-0.037388	-0.038686	0.017706	29.4844	-0.037838	-0.038905	-0.455095	NaN
775	1.000000	1.042662	7.37264e+06	-38889.1	1055.82	-29795.9	0.000000	0.000000	7.043378	5.429626	NaN	0.000000	0.001688	0.001769	28.0828	6.015736	0.001797	3348.38	13.6088	-172.796	3.674922	1.041326	0.002627	0.001291	5.429626	3348.38	0.001410	0.001084	5010.62	92932.8
775	2.000000	1.054301	7.37264e+06	-38889.1	1055.82	-29795.9	0.000000	0.000000	7.055741	23.0472	NaN	0.000000	0.001687	0.001787	28.0827	18.8126	0.001790	10508.9	6.128062	-175.841	22.8535	1.053963	0.014266	0.013928	23.0472	10508.9	0.012621	0.012242	1882.62	86776.3
775	2.000000	1.064246	7.37264e+06	-38889.1	1055.82	-29795.9	0.000000	0.000000	7.066839	51.0965	NaN	0.000000	0.001691	0.001801	28.0829	29.1034	0.001766	16476.7	4.377159	-177.498	49.522	1.063867	0.024211	0.023832	51.0965	16476.7	0.021885	0.025591	1996.64	94101.8
775	2.000000	1.074265	7.37264e+06	-38889.1	1055.82	-29795.9	0.000000	0.000000	7.078351	87.4288	NaN	0.000000	0.001652	0.001763	28.084	39.5716	0.001715	23079.7	6.291285	176.998	87.401	1.073870	0.034230	0.033835	87.4288	23079.7	0.031389	0.043673	2001.91	100902
775	2.000000	1.084179	7.37264e+06	-38889.1	1055.82	-29795.9	0.000000	0.000000	7.090445	140.488	NaN	0.000000	0.001635	0.001734	28.0843	49.075	0.001821	26948.5	7.469013	174.642	137.31	1.083865	0.044144	0.043830	140.488	26948.5	0.040234	0.064635	2173.56	96844.3
775	2.000000	1.094198	7.37264e+06	-38889.1	1055.82	-29795.9	0.000000	0.000000	7.102278	184.63	NaN	0.000000	0.001670	0.001771	28.0844	59.2881	0.001840	32229.6	2.977463	177.685	184.182	1.094086	0.054163	0.054051	184.63	32229.6	0.049866	0.092000	2006.85	97081.2
775	2.000000	1.104170	7.37264e+06	-38889.1	1055.82	-29795.9	0.000000	0.000000	7.114680	243.768	NaN	0.000000	0.001693	0.001741	28.0828	66.9743	0.001869	35838.8	2.866666	177.039	242.168	1.103933	0.064135	0.063898	243.768	35838.8	0.059033	0.122365	1992.14	93604.9
775	2.000000	1.114214	7.37264e+06	-38889.1	1055.82	-29795.9	0.000000	0.000000	7.127878	320.508	NaN	0.000000	0.001758	0.001762	28.0824	77.555	0.001775	43698.7	7.705757	170.899	319.788	1.113810	0.074179	0.073775	320.508	43698.7	0.068678	0.158753	2018.91	100203
775	2.000000	1.124173	7.37264e+06	-38889.1	1055.82	-29795.9	0.000000	0.000000	7.140821	393.132	NaN	0.000000	0.001710	0.001737	28.0827	86.9283	0.001824	47648.1	3.622928	174.451	392.249	1.123852	0.084138	0.083817	393.132	47648.1	0.077950	0.197923	1986.29	97852.2
775	2.000000	1.134140	7.37264e+06	-38889.1	1055.82	-29795.9	0.000000	0.000000	7.153930	469.614	NaN	0.000000	0.001678	0.001736	28.0828	96.4537	0.001827	52792.4	3.014406	174.504	466.755	1.133752	0.094105	0.093717	469.614	52792.4	0.087433	0.242145	1939.39	98018.2
775	2.000000	1.143085	7.37264e+06	-38889.1	1055.82	-29795.9	0.000000	0.000000	7.166508	558.012	NaN	0.000000	0.001602	0.001719	28.0839	103.697	0.001819	57005.3	7.653871	169.136	551.214	1.142711	0.103050	0.102676	558.012	57005.3	0.095709	0.284121	1964	97709.6