File: remote_trans/data/nanoindenter/0828-1/data/Data_2025-08-06,11h17m57s/2025-07-22_16-23-58_1_241.txt
2025-07-22, 16:23:58, 1
Index	Phase	Displacement	Time	Pos X	Pos Y	Pos Z	Rot A	Rot B	Piezo Z	Force A	Force B	Gripper	Voltage A	Voltage B	Temperature	Amplitude force	Amplitude pos	Stiffness	Phase shift	Phase excitation	Force A raw	Displacement raw	HMax	HMax raw	Real Force	Real Stiffness	Contact Depth	Area	Hardness	Reduced Mod.
[#]	[#]	[um]	[s]	[um]	[um]	[um]	[m°]	[m°]	[um]	[uN]	[uN]	[V]	[V]	[V]	[°C]	[uN]	[um]	[N/m]	[°]	[°]	[uN]	[um]	[um]	[um]	[uN]	[N/m]	[um]	[um^2]	[MPa]	[MPa]
241	1.000000	0.002779	7.3674e+06	-50689.1	955.818	-29755	0.000000	0.000000	6.002816	0.015830	NaN	0.000000	0.001616	0.001686	28.0814	0.098353	0.000840	117.13	-16.3023	-159.047	0.042396	0.001495	-1.237224	-1.238508	0.015830	117.13	-1.237325	-3.470177E+16	-4.561716E-19	NaN
241	1.000000	0.046728	7.3674e+06	-50689.1	955.817	-29755	0.000000	0.000000	6.046763	-0.023975	NaN	0.000000	0.001629	0.001724	28.0817	0.067782	0.002002	33.8562	-48.4325	-165.019	-0.076631	0.045449	-1.193275	-1.194553	-0.023975	33.8562	-1.192743	-8.781522E+15	2.730139E-18	NaN
241	1.000000	0.090747	7.3674e+06	-50689.1	955.819	-29755	0.000000	0.000000	6.090782	-0.015902	NaN	0.000000	0.001610	0.001725	28.0802	0.114230	0.002056	55.548	129.101	-164.515	0.013488	0.089423	-1.149256	-1.150579	-0.015902	55.548	-1.149041	-2.280181E+15	6.973911E-18	NaN
241	1.000000	0.134744	7.3674e+06	-50689.1	955.818	-29755	0.000000	0.000000	6.134781	0.021107	NaN	0.000000	0.001601	0.001726	28.0797	0.065065	0.001945	33.4484	-157.285	-165.755	-0.031613	0.133433	-1.105258	-1.106570	0.021107	33.4484	-1.105732	-5.984139E+14	-3.527213E-17	NaN
241	1.000000	0.178751	7.3674e+06	-50689.1	955.819	-29755	0.000000	0.000000	6.178786	-0.031099	NaN	0.000000	0.001599	0.001721	28.0801	0.017541	0.002025	8.660451	-77.2799	-165.254	-0.007616	0.177421	-1.061251	-1.062582	-0.031099	8.660451	-1.058558	-1.391370E+14	2.235150E-16	NaN
241	1.000000	0.222796	7.3674e+06	-50689.1	955.819	-29755	0.000000	0.000000	6.222830	-0.041536	NaN	0.000000	0.001616	0.001696	28.0817	0.085541	0.002047	41.7894	-50.8021	-163.429	-0.106600	0.221486	-1.017207	-1.018517	-0.041536	41.7894	-1.016462	-3.778702E+13	1.099216E-15	NaN
241	1.000000	0.266791	7.3674e+06	-50689.1	955.819	-29755	0.000000	0.000000	6.266825	-0.036391	NaN	0.000000	0.001574	0.001713	28.0815	0.020778	0.002102	9.882763	43.0026	-164.758	-0.054499	0.265510	-0.973212	-0.974492	-0.036391	9.882763	-0.970450	-9.072578E+12	4.011110E-15	NaN
241	1.000000	0.310807	7.3674e+06	-50689.1	955.819	-29755	0.000000	0.000000	6.310842	-0.012986	NaN	0.000000	0.001584	0.001717	28.0813	0.159092	0.002058	77.3022	121.87	-164.776	-0.059755	0.309481	-0.929196	-0.930522	-0.012986	77.3022	-0.929070	-2.509820E+12	5.173892E-15	NaN
241	1.000000	0.354830	7.3674e+06	-50689.1	955.818	-29755	0.000000	0.000000	6.354869	0.075998	NaN	0.000000	0.001626	0.001716	28.0799	0.135633	0.001997	67.9157	48.0002	-167.122	-0.042356	0.353572	-0.885172	-0.886431	0.075998	67.9157	-0.886012	-6.576536E+11	-1.155595E-13	NaN
241	1.000000	0.398850	7.3674e+06	-50689.1	955.819	-29755	0.000000	0.000000	6.398884	-0.031768	NaN	0.000000	0.001683	0.001722	28.0798	0.041631	0.001983	20.9891	73.2251	-163.439	-0.012696	0.397616	-0.841153	-0.842386	-0.031768	20.9891	-0.840018	-1.568676E+11	2.025132E-13	NaN
241	1.000000	0.442870	7.3674e+06	-50689.1	955.819	-29755	0.000000	0.000000	6.442904	-0.051642	NaN	0.000000	0.001673	0.001722	28.0802	0.087690	0.002047	42.8404	-170.648	-166.272	-0.100036	0.441573	-0.797132	-0.798430	-0.051642	42.8404	-0.796228	-3.996310E+10	1.292252E-12	NaN
241	1.000000	0.486894	7.3674e+06	-50689.1	955.819	-29755	0.000000	0.000000	6.486929	-0.030222	NaN	0.000000	0.001659	0.001704	28.0812	0.058795	0.001922	30.5951	-41.9559	-164.941	0.012160	0.485599	-0.753109	-0.754404	-0.030222	30.5951	-0.752368	-1.012626E+10	2.984519E-12	NaN
241	1.000000	0.530920	7.36741e+06	-50689.1	955.818	-29755	0.000000	0.000000	6.530955	-0.020895	NaN	0.000000	0.001681	0.001673	28.0813	0.040700	0.001975	20.6089	158.424	-167.302	-0.037365	0.529604	-0.709083	-0.710399	-0.020895	20.6089	-0.708322	-2.541867E+9	8.220288E-12	NaN
241	1.000000	0.574922	7.36741e+06	-50689.1	955.819	-29755	0.000000	0.000000	6.574957	-0.028730	NaN	0.000000	0.001656	0.001686	28.0813	0.036621	0.001937	18.9059	-27.3221	-169.026	-0.091329	0.573618	-0.665081	-0.666385	-0.028730	18.9059	-0.663941	-6.287024E+8	4.569773E-11	NaN
241	1.000000	0.618963	7.36741e+06	-50689.1	955.819	-29755	0.000000	0.000000	6.618997	-0.050617	NaN	0.000000	0.001670	0.001732	28.0802	0.110230	0.001939	56.8462	8.757750	-160.955	-0.072751	0.617616	-0.621040	-0.622387	-0.050617	56.8462	-0.620372	-1.587607E+8	3.188283E-10	NaN
241	1.000000	0.662948	7.36741e+06	-50689.1	955.82	-29755	0.000000	0.000000	6.662982	-0.045686	NaN	0.000000	0.001670	0.001745	28.0802	0.107459	0.001928	55.7346	148.514	-164.059	-0.012391	0.661641	-0.577055	-0.578361	-0.045686	55.7346	-0.576440	-3.940811E+7	1.159304E-9	NaN
241	1.000000	0.707001	7.36741e+06	-50689.1	955.818	-29755	0.000000	0.000000	6.707036	-0.038032	NaN	0.000000	0.001616	0.001731	28.0798	0.069825	0.002064	33.8289	-123.107	-164.798	-0.088750	0.705650	-0.533001	-0.534353	-0.038032	33.8289	-0.532158	-9.60597e+06	3.959189E-9	NaN
241	1.000000	0.751002	7.36741e+06	-50689.1	955.819	-29755	0.000000	0.000000	6.751037	-0.029555	NaN	0.000000	0.001611	0.001684	28.0811	0.049956	0.001902	26.2613	128.389	-164.81	-0.101015	0.749731	-0.489001	-0.490272	-0.029555	26.2613	-0.488156	-2.34221e+06	1.261862E-8	NaN
241	1.000000	0.795026	7.36741e+06	-50689.1	955.818	-29755	0.000000	0.000000	6.795061	-0.008742	NaN	0.000000	0.001614	0.001656	28.0811	0.112034	0.001917	58.4384	-72.6814	-165.199	-0.050698	0.793718	-0.444977	-0.446285	-0.008742	58.4384	-0.444865	-578073	1.512227E-8	NaN
241	1.000000	0.839051	7.36741e+06	-50689.1	955.818	-29755	0.000000	0.000000	6.839085	-0.044930	NaN	0.000000	0.001580	0.001648	28.0813	0.074535	0.001979	37.6692	30.0259	-163.542	-0.063573	0.837701	-0.400952	-0.402301	-0.044930	37.6692	-0.400057	-133909	3.355269E-7	NaN
241	1.000000	0.883070	7.36741e+06	-50689.1	955.818	-29755	0.000000	0.000000	6.883104	-0.036582	NaN	0.000000	0.001591	0.001710	28.0797	0.027466	0.001949	14.0958	176.189	-163.05	-0.022775	0.881743	-0.356933	-0.358260	-0.036582	14.0958	-0.354986	-30150.9	1.213287E-6	NaN
241	1.000000	0.927080	7.36741e+06	-50689.1	955.818	-29755	0.000000	0.000000	6.927116	0.012105	NaN	0.000000	0.001611	0.001696	28.0797	0.072426	0.002000	36.2206	-96.3466	-163.975	0.032815	0.925731	-0.312923	-0.314272	0.012105	36.2206	-0.313174	-7378.71	-1.640481E-6	NaN
241	1.000000	0.971100	7.36741e+06	-50689.1	955.818	-29755	0.000000	0.000000	6.971134	-0.056510	NaN	0.000000	0.001644	0.001703	28.0801	0.127952	0.001962	65.2138	7.780703	-167.244	0.019478	0.969754	-0.268902	-0.270249	-0.056510	65.2138	-0.268252	-1566.61	3.607155E-5	NaN
241	1.000000	1.015129	7.36741e+06	-50689.1	955.819	-29755	0.000000	0.000000	7.015166	0.011996	NaN	0.000000	0.001598	0.001701	28.0816	0.065089	0.002066	31.5	93.6206	-165.442	-0.016566	1.013811	-0.224873	-0.226192	0.011996	31.5	-0.225159	-335.629	-3.574263E-5	NaN
241	1.000000	1.059147	7.36741e+06	-50689.1	955.819	-29755	0.000000	0.000000	7.059180	-0.066012	NaN	0.000000	0.001573	0.001671	28.0812	0.059354	0.002036	29.1586	130.587	-164.198	0.014377	1.057813	-0.180856	-0.182190	-0.066012	29.1586	-0.179158	-59.0377	0.001118	NaN
241	1.000000	1.103140	7.36741e+06	-50689.1	955.819	-29755	0.000000	0.000000	7.103178	0.036465	NaN	0.000000	0.001651	0.001661	28.0811	0.081798	0.002077	39.3762	-58.2885	-165.47	0.003824	1.101840	-0.136862	-0.138163	0.036465	39.3762	-0.137557	-10.639	-0.003428	NaN
241	1.000000	1.147150	7.36741e+06	-50689.1	955.819	-29755	0.000000	0.000000	7.147186	0.005008	NaN	0.000000	0.001664	0.001692	28.0806	0.038314	0.001930	19.8522	107.189	-163.532	-0.011250	1.145832	-0.092853	-0.094171	0.005008	19.8522	-0.093042	-1.272171	-0.003936	NaN
241	1.000000	1.191170	7.36741e+06	-50689.1	955.819	-29755	0.000000	0.000000	7.191204	-0.033242	NaN	0.000000	0.001659	0.001672	28.0802	0.012077	0.002035	5.934522	-35.6648	-165.802	0.028691	1.189873	-0.048833	-0.050130	-0.033242	5.934522	-0.044632	-0.062625	0.530807	NaN
241	1.000000	1.235199	7.36741e+06	-50689.1	955.82	-29755	0.000000	0.000000	7.235238	0.081589	NaN	0.000000	0.001648	0.001677	28.0803	0.033891	0.001978	17.1332	-81.914	-166.723	0.122664	1.233894	-0.004804	-0.006109	0.081589	17.1332	-0.008375	-0.005451	-14.9683	NaN
241	2.000000	1.255849	7.36741e+06	-50689.1	955.82	-29755	0.000000	0.000000	7.256676	19.2476	NaN	0.000000	0.001644	0.001671	28.0799	17.0026	0.001847	9207.16	4.369937	-171.472	18.0918	1.255521	0.015846	0.015519	19.2476	9207.16	0.014278	0.014335	1342.7	70258.6
241	2.000000	1.266821	7.36741e+06	-50689.1	955.82	-29755	0.000000	0.000000	7.268733	45.6214	NaN	0.000000	0.001677	0.001689	28.0811	28.2431	0.001739	16240.8	3.453361	-177.335	44.6778	1.266515	0.026818	0.026512	45.6214	16240.8	0.024711	0.030492	1496.17	84974.2
241	2.000000	1.277787	7.36741e+06	-50689.1	955.82	-29755	0.000000	0.000000	7.281146	80.8191	NaN	0.000000	0.001614	0.001710	28.0808	38.1694	0.001777	21480.1	2.623489	-178.836	80.7136	1.277471	0.037784	0.037468	80.8191	21480.1	0.034962	0.051658	1564.52	86345.9
241	2.000000	1.288777	7.36741e+06	-50689.1	955.818	-29755	0.000000	0.000000	7.294281	132.979	NaN	0.000000	0.001597	0.001721	28.0811	50.1125	0.001812	27652.2	5.573266	177.597	133.413	1.288352	0.048774	0.048349	132.979	27652.2	0.045168	0.078064	1703.46	90422.6
241	2.000000	1.299729	7.36741e+06	-50689.1	955.819	-29755	0.000000	0.000000	7.307853	196.69	NaN	0.000000	0.001609	0.001710	28.0797	60.9062	0.001759	34634.9	3.902040	176.401	196.304	1.299441	0.059726	0.059438	196.69	34634.9	0.055467	0.110058	1787.15	95384.1
241	2.000000	1.310704	7.36741e+06	-50689.1	955.819	-29755	0.000000	0.000000	7.321508	261.838	NaN	0.000000	0.001609	0.001693	28.0806	72.3556	0.001886	38360.2	5.391562	174.362	258.522	1.310359	0.070702	0.070356	261.838	38360.2	0.065582	0.146583	1786.28	91540.4
241	2.000000	1.321664	7.36741e+06	-50689.1	955.819	-29755	0.000000	0.000000	7.335904	345.41	NaN	0.000000	0.001604	0.001674	28.0802	81.1988	0.001815	44734.3	3.701175	174.289	343.108	1.321374	0.081661	0.081372	345.41	44734.3	0.075870	0.188784	1829.66	94065.8
241	2.000000	1.332797	7.36741e+06	-50689.1	955.819	-29755	0.000000	0.000000	7.350862	438.437	NaN	0.000000	0.001586	0.001713	28.0814	94.5192	0.001884	50170.7	8.032824	170.528	439.206	1.332229	0.092794	0.092226	438.437	50170.7	0.086240	0.236352	1855.02	94285.2
241	2.000000	1.343667	7.36741e+06	-50689.1	955.818	-29755	0.000000	0.000000	7.365396	527.526	NaN	0.000000	0.001660	0.001679	28.0812	104.449	0.001755	59507.4	1.303246	174.863	523.871	1.343522	0.103664	0.103520	527.526	59507.4	0.097016	0.291038	1812.57	100779
241	2.000000	1.346549	7.36741e+06	-50689.1	955.818	-29755	0.000000	0.000000	7.369832	565.309	NaN	0.000000	0.001627	0.001713	28.0815	107.4	0.001847	58139.9	3.919191	172.885	557.422	1.346333	0.106546	0.106330	565.309	58139.9	0.099254	0.303060	1865.33	96490.1