File: remote_trans/data/nanoindenter/0828-1/data/Data_2025-08-06,11h17m57s/2025-07-22_16-23-58_1_406.txt
2025-07-22, 16:23:58, 1
Index	Phase	Displacement	Time	Pos X	Pos Y	Pos Z	Rot A	Rot B	Piezo Z	Force A	Force B	Gripper	Voltage A	Voltage B	Temperature	Amplitude force	Amplitude pos	Stiffness	Phase shift	Phase excitation	Force A raw	Displacement raw	HMax	HMax raw	Real Force	Real Stiffness	Contact Depth	Area	Hardness	Reduced Mod.
[#]	[#]	[um]	[s]	[um]	[um]	[um]	[m°]	[m°]	[um]	[uN]	[uN]	[V]	[V]	[V]	[°C]	[uN]	[um]	[N/m]	[°]	[°]	[uN]	[um]	[um]	[um]	[uN]	[N/m]	[um]	[um^2]	[MPa]	[MPa]
406	1.000000	0.002801	7.36903e+06	-56789.1	1005.82	-29738.3	0.000000	0.000000	6.002793	0.028619	NaN	0.000000	0.001632	0.001675	28.0787	0.030401	0.000899	33.8289	41.8862	-169.868	0.020589	0.001558	-1.061108	-1.062351	0.028619	33.8289	-1.061742	-1.535451E+14	-1.863881E-16	NaN
406	1.000000	0.042774	7.36903e+06	-56789.1	1005.82	-29738.3	0.000000	0.000000	6.042767	0.034889	NaN	0.000000	0.001620	0.001689	28.08	0.018121	0.001979	9.154899	114.716	-168.476	0.033244	0.041453	-1.021134	-1.022455	0.034889	9.154899	-1.023993	-4.771652E+13	-7.311672E-16	NaN
406	1.000000	0.082748	7.36903e+06	-56789.1	1005.82	-29738.3	0.000000	0.000000	6.082738	-0.041122	NaN	0.000000	0.001575	0.001646	28.0803	0.118212	0.002065	57.2326	-99.0356	-167.629	-0.023178	0.081453	-0.981160	-0.982455	-0.041122	57.2326	-0.980621	-1.243884E+13	3.305913E-15	NaN
406	1.000000	0.122789	7.36903e+06	-56789.1	1005.82	-29738.3	0.000000	0.000000	6.122780	0.002069	NaN	0.000000	0.001587	0.001632	28.0799	0.016268	0.002038	7.983650	105.8	-166.975	-0.022581	0.121462	-0.941120	-0.942447	0.002069	7.983650	-0.941314	-3.671686E+12	-5.636290E-16	NaN
406	1.000000	0.162821	7.36903e+06	-56789.1	1005.82	-29738.3	0.000000	0.000000	6.162813	0.008921	NaN	0.000000	0.001615	0.001673	28.0786	0.049711	0.002095	23.7227	-82.3154	-163.316	0.051926	0.161517	-0.901087	-0.902391	0.008921	23.7227	-0.901369	-1.060633E+12	-8.411022E-15	NaN
406	1.000000	0.202821	7.36903e+06	-56789.1	1005.82	-29738.3	0.000000	0.000000	6.202812	-0.001707	NaN	0.000000	0.001626	0.001605	28.0786	0.051661	0.001925	26.8437	67.3679	-164.972	-0.007351	0.201513	-0.861088	-0.862395	-0.001707	26.8437	-0.861040	-3.021352E+11	5.650855E-15	NaN
406	1.000000	0.242842	7.36903e+06	-56789.1	1005.82	-29738.3	0.000000	0.000000	6.242832	-0.021673	NaN	0.000000	0.001684	0.001632	28.0785	0.040487	0.001964	20.6136	-97.3811	-171.625	-0.024747	0.241551	-0.821067	-0.822357	-0.021673	20.6136	-0.820278	-8.471896E+10	2.558277E-13	NaN
406	1.000000	0.282866	7.36903e+06	-56789.1	1005.82	-29738.3	0.000000	0.000000	6.282858	0.028093	NaN	0.000000	0.001652	0.001646	28.08	0.017591	0.001920	9.159792	120.406	-169.261	-0.011475	0.281576	-0.781043	-0.782332	0.028093	9.159792	-0.783343	-2.670890E+10	-1.051834E-12	NaN
406	1.000000	0.322882	7.36903e+06	-56789.1	1005.82	-29738.3	0.000000	0.000000	6.322871	-0.047702	NaN	0.000000	0.001664	0.001637	28.0801	0.064790	0.002041	31.7469	35.2695	-161.903	-0.076245	0.321556	-0.741026	-0.742352	-0.047702	31.7469	-0.739899	-6.849946E+9	6.963832E-12	NaN
406	1.000000	0.362894	7.36903e+06	-56789.1	1005.82	-29738.3	0.000000	0.000000	6.362883	-0.069618	NaN	0.000000	0.001629	0.001668	28.0801	0.031083	0.002023	15.3678	-83.5002	-166.133	-0.028875	0.361565	-0.701014	-0.702343	-0.069618	15.3678	-0.697617	-1.815430E+9	3.834816E-11	NaN
406	1.000000	0.402879	7.36903e+06	-56789.1	1005.82	-29738.3	0.000000	0.000000	6.402868	-0.050060	NaN	0.000000	0.001584	0.001614	28.08	0.020165	0.002034	9.916090	112.631	-165.092	-0.033682	0.401605	-0.661030	-0.662303	-0.050060	9.916090	-0.657244	-5.089886E+8	9.835133E-11	NaN
406	1.000000	0.442927	7.36903e+06	-56789.1	1005.82	-29738.3	0.000000	0.000000	6.442915	-0.071726	NaN	0.000000	0.001614	0.001599	28.0789	0.019243	0.001818	10.5818	155.105	-166.882	0.006284	0.441653	-0.620981	-0.622255	-0.071726	10.5818	-0.615898	-1.377956E+8	5.205245E-10	NaN
406	1.000000	0.482950	7.36903e+06	-56789.1	1005.82	-29738.3	0.000000	0.000000	6.482940	-0.013679	NaN	0.000000	0.001623	0.001658	28.0789	0.060947	0.001911	31.8972	-19.4648	-166.994	-0.045058	0.481658	-0.580959	-0.582251	-0.013679	31.8972	-0.580637	-4.503203E+7	3.037613E-10	NaN
406	1.000000	0.522976	7.36903e+06	-56789.1	1005.82	-29738.3	0.000000	0.000000	6.522963	-0.113392	NaN	0.000000	0.001582	0.001616	28.0787	0.021552	0.002057	10.4759	2.883865	-167.207	-0.071149	0.521651	-0.540932	-0.542258	-0.113392	10.4759	-0.532814	-9.80964e+06	1.155928E-8	NaN
406	1.000000	0.562974	7.36903e+06	-56789.1	1005.82	-29738.3	0.000000	0.000000	6.562968	0.073027	NaN	0.000000	0.001602	0.001651	28.0806	0.043075	0.001945	22.1455	-74.4919	-162.353	0.018049	0.561650	-0.500935	-0.502258	0.073027	22.1455	-0.503408	-3.82426e+06	-1.909573E-8	NaN
406	1.000000	0.602984	7.36903e+06	-56789.1	1005.82	-29738.3	0.000000	0.000000	6.602973	-0.058021	NaN	0.000000	0.001619	0.001621	28.08	0.038522	0.001881	20.4835	-142.42	-166.411	-0.009686	0.601705	-0.460924	-0.462203	-0.058021	20.4835	-0.458800	-908134	6.389037E-8	NaN
406	1.000000	0.643005	7.36903e+06	-56789.1	1005.82	-29738.3	0.000000	0.000000	6.642995	-0.033958	NaN	0.000000	0.001608	0.001601	28.0798	0.054797	0.001914	28.6334	8.585281	-162.932	0.071746	0.641691	-0.420903	-0.422218	-0.033958	28.6334	-0.420014	-257401	1.319277E-7	NaN
406	1.000000	0.683027	7.36903e+06	-56789.1	1005.82	-29738.3	0.000000	0.000000	6.683018	-0.006964	NaN	0.000000	0.001671	0.001654	28.0799	0.096611	0.001981	48.7573	-118.914	-163.009	0.052656	0.681744	-0.380882	-0.382164	-0.006964	48.7573	-0.380774	-70958.1	9.814843E-8	NaN
406	1.000000	0.723053	7.36903e+06	-56789.1	1005.82	-29738.3	0.000000	0.000000	6.723044	0.003345	NaN	0.000000	0.001648	0.001628	28.0788	0.031603	0.001996	15.8339	-142.493	-160.001	0.017751	0.721755	-0.340856	-0.342154	0.003345	15.8339	-0.341014	-18894.4	-1.770568E-7	NaN
406	1.000000	0.763084	7.36903e+06	-56789.1	1005.82	-29738.3	0.000000	0.000000	6.763075	-0.017630	NaN	0.000000	0.001705	0.001632	28.0788	0.021506	0.001875	11.4706	-119.356	-164.338	0.009785	0.761769	-0.300824	-0.302139	-0.017630	11.4706	-0.299672	-4653.14	3.788735E-6	NaN
406	1.000000	0.803091	7.36903e+06	-56789.1	1005.82	-29738.3	0.000000	0.000000	6.803084	0.038590	NaN	0.000000	0.001698	0.001634	28.0787	0.082863	0.002020	41.0258	173.421	-165.447	-0.022979	0.801746	-0.260817	-0.262163	0.038590	41.0258	-0.261523	-1236.64	-3.120526E-5	NaN
406	1.000000	0.843088	7.36904e+06	-56789.1	1005.82	-29738.3	0.000000	0.000000	6.843082	0.051199	NaN	0.000000	0.001713	0.001598	28.0798	0.086676	0.001986	43.6413	93.2916	-164.954	0.033768	0.841771	-0.220820	-0.222137	0.051199	43.6413	-0.221700	-295.678	-0.000173	NaN
406	1.000000	0.883116	7.36904e+06	-56789.1	1005.82	-29738.3	0.000000	0.000000	6.883110	0.066772	NaN	0.000000	0.001651	0.001627	28.0798	0.104922	0.001989	52.7455	-115.732	-162.627	-0.020514	0.881825	-0.180792	-0.182084	0.066772	52.7455	-0.181742	-65.3206	-0.001022	NaN
406	1.000000	0.923128	7.36904e+06	-56789.1	1005.82	-29738.3	0.000000	0.000000	6.923117	-0.056898	NaN	0.000000	0.001687	0.001649	28.0798	0.130435	0.002033	64.1671	116.244	-162.916	-0.014486	0.921764	-0.140780	-0.142144	-0.056898	64.1671	-0.140115	-11.8885	0.004786	NaN
406	1.000000	0.963123	7.36904e+06	-56789.1	1005.82	-29738.3	0.000000	0.000000	6.963112	-0.034453	NaN	0.000000	0.001694	0.001662	28.0792	0.148351	0.001956	75.8531	63.7819	-165.302	-0.005780	0.961842	-0.100786	-0.102066	-0.034453	75.8531	-0.100445	-1.869099	0.018433	NaN
406	1.000000	1.003155	7.36904e+06	-56789.1	1005.82	-29738.3	0.000000	0.000000	7.003146	-0.001885	NaN	0.000000	0.001600	0.001627	28.0787	0.022005	0.002024	10.8717	114.769	-163.707	0.025690	1.001841	-0.060754	-0.062067	-0.001885	10.8717	-0.060624	-0.187655	0.010045	NaN
406	1.000000	1.043168	7.36904e+06	-56789.1	1005.82	-29738.3	0.000000	0.000000	7.043157	-0.044109	NaN	0.000000	0.001622	0.001647	28.0788	0.075814	0.001961	38.6694	109.74	-165.645	-0.156595	1.041893	-0.020741	-0.022016	-0.044109	38.6694	-0.019885	-0.012477	3.535260	NaN
406	2.000000	1.075614	7.36904e+06	-56789.1	1005.82	-29738.3	0.000000	0.000000	7.076134	12.8468	NaN	0.000000	0.001632	0.001663	28.0792	11.927	0.001784	6685.86	5.741122	-173.809	11.5012	1.075370	0.011705	0.011461	12.8468	6685.86	0.010264	0.009477	1355.64	62748.7
406	2.000000	1.085600	7.36904e+06	-56789.1	1005.82	-29738.3	0.000000	0.000000	7.086755	28.2821	NaN	0.000000	0.001618	0.001658	28.0804	21.463	0.001777	12079.9	4.642742	-176.03	27.7859	1.085309	0.021692	0.021401	28.2821	12079.9	0.019936	0.022442	1260.25	73673.4
406	2.000000	1.095540	7.36904e+06	-56789.1	1005.82	-29738.3	0.000000	0.000000	7.097713	53.0411	NaN	0.000000	0.001637	0.001624	28.08	31.4365	0.001642	19150.3	5.724935	177.781	50.8509	1.095258	0.031631	0.031349	53.0411	19150.3	0.029554	0.039824	1331.87	87674.4
406	2.000000	1.105565	7.36904e+06	-56789.1	1005.82	-29738.3	0.000000	0.000000	7.108909	81.4985	NaN	0.000000	0.001597	0.001604	28.0801	41.2677	0.001816	22725.3	1.740558	-178.475	82.1618	1.105363	0.041656	0.041455	81.4985	22725.3	0.038966	0.061384	1327.67	83801.9
406	2.000000	1.115503	7.36904e+06	-56789.1	1005.82	-29738.3	0.000000	0.000000	7.120862	130.477	NaN	0.000000	0.001629	0.001610	28.0787	50.4303	0.001788	28204.8	4.100221	178.069	129.615	1.115256	0.051595	0.051347	130.477	28204.8	0.048125	0.086706	1504.83	87513
406	2.000000	1.125539	7.36904e+06	-56789.1	1005.82	-29738.3	0.000000	0.000000	7.133015	181.924	NaN	0.000000	0.001635	0.001593	28.0786	59.6087	0.001706	34930.6	6.779528	173.269	183.291	1.125217	0.061630	0.061309	181.924	34930.6	0.057724	0.117775	1544.68	92993.7
406	2.000000	1.135519	7.36904e+06	-56789.1	1005.82	-29738.3	0.000000	0.000000	7.145237	236.407	NaN	0.000000	0.001682	0.001650	28.0788	69.538	0.001795	38741	3.774518	176.147	235.402	1.135142	0.071611	0.071233	236.407	38741	0.067034	0.152233	1552.93	90717.4
406	2.000000	1.145509	7.36904e+06	-56789.1	1005.82	-29738.3	0.000000	0.000000	7.157769	298.21	NaN	0.000000	0.001658	0.001564	28.0788	78.5067	0.001748	44899.6	2.963564	175.149	300.44	1.145289	0.081600	0.081381	298.21	44899.6	0.076619	0.192051	1552.77	93606.8
406	2.000000	1.155447	7.36904e+06	-56789.1	1005.82	-29738.3	0.000000	0.000000	7.171037	379.139	NaN	0.000000	0.001645	0.001614	28.0799	87.792	0.001763	49787.6	-0.025125	177.523	376.905	1.155220	0.091538	0.091311	379.139	49787.6	0.085827	0.234363	1617.74	93961.6
406	2.000000	1.165416	7.36904e+06	-56789.1	1005.82	-29738.3	0.000000	0.000000	7.184648	467.657	NaN	0.000000	0.001624	0.001570	28.0799	97.8109	0.001874	52196.8	1.167145	176.015	462.453	1.165030	0.101508	0.101122	467.657	52196.8	0.094788	0.279298	1674.4	90236.6
406	2.000000	1.171488	7.36904e+06	-56789.1	1005.82	-29738.3	0.000000	0.000000	7.193446	533.915	NaN	0.000000	0.001648	0.001611	28.0798	104.596	0.001822	57413	6.725207	170.124	533.06	1.171100	0.107580	0.107191	533.915	57413	0.100605	0.310428	1719.93	94146.2