File: remote_trans/data/nanoindenter/0828-1/data/Data_2025-08-06,11h17m57s/2025-07-22_16-23-58_1_202.txt
2025-07-22, 16:23:58, 1
Index	Phase	Displacement	Time	Pos X	Pos Y	Pos Z	Rot A	Rot B	Piezo Z	Force A	Force B	Gripper	Voltage A	Voltage B	Temperature	Amplitude force	Amplitude pos	Stiffness	Phase shift	Phase excitation	Force A raw	Displacement raw	HMax	HMax raw	Real Force	Real Stiffness	Contact Depth	Area	Hardness	Reduced Mod.
[#]	[#]	[um]	[s]	[um]	[um]	[um]	[m°]	[m°]	[um]	[uN]	[uN]	[V]	[V]	[V]	[°C]	[uN]	[um]	[N/m]	[°]	[°]	[uN]	[um]	[um]	[um]	[uN]	[N/m]	[um]	[um^2]	[MPa]	[MPa]
202	1.000000	0.003083	7.36702e+06	-48739.1	955.819	-29761.7	0.000000	0.000000	6.002798	0.050755	NaN	0.000000	0.001625	0.001677	28.0781	0.037640	0.001005	37.4458	-30.8607	-166.522	-0.024759	0.001825	-1.068552	-1.069810	0.050755	37.4458	-1.069569	-1.956114E+14	-2.594679E-16	NaN
202	1.000000	0.043035	7.36702e+06	-48739.1	955.819	-29761.7	0.000000	0.000000	6.042743	-0.098656	NaN	0.000000	0.001638	0.001691	28.0783	0.080300	0.001959	40.9934	62.4506	-166.332	-0.056063	0.041692	-1.028601	-1.029943	-0.098656	40.9934	-1.026796	-5.204491E+13	1.895592E-15	NaN
202	1.000000	0.083054	7.36702e+06	-48739.1	955.819	-29761.7	0.000000	0.000000	6.082765	-0.035408	NaN	0.000000	0.001573	0.001715	28.0798	0.088002	0.001982	44.3984	-98.6042	-167.686	-0.096246	0.081718	-0.988582	-0.989917	-0.035408	44.3984	-0.987983	-1.562973E+13	2.265436E-15	NaN
202	1.000000	0.123060	7.36702e+06	-48739.1	955.819	-29761.7	0.000000	0.000000	6.122771	-0.024609	NaN	0.000000	0.001585	0.001698	28.0799	0.041734	0.002084	20.0295	64.8214	-166.837	0.020561	0.121807	-0.948575	-0.949828	-0.024609	20.0295	-0.947654	-4.470796E+12	5.504351E-15	NaN
202	1.000000	0.163081	7.36702e+06	-48739.1	955.819	-29761.7	0.000000	0.000000	6.162793	-0.012861	NaN	0.000000	0.001616	0.001725	28.0796	0.070821	0.001943	36.4583	-83.0392	-166.785	0.036426	0.161785	-0.908554	-0.909850	-0.012861	36.4583	-0.908289	-1.315392E+12	9.777561E-15	NaN
202	1.000000	0.203108	7.36702e+06	-48739.1	955.817	-29761.7	0.000000	0.000000	6.202818	-0.053287	NaN	0.000000	0.001595	0.001716	28.0796	0.082532	0.001974	41.8012	109.774	-165.308	0.014968	0.201816	-0.868527	-0.869820	-0.053287	41.8012	-0.867571	-3.703232E+11	1.438923E-13	NaN
202	1.000000	0.243125	7.36702e+06	-48739.1	955.818	-29761.7	0.000000	0.000000	6.242840	0.064914	NaN	0.000000	0.001630	0.001698	28.078	0.065084	0.001970	33.0392	-1.613197	-167.905	0.023418	0.241791	-0.828510	-0.829844	0.064914	33.0392	-0.829984	-1.147002E+11	-5.659428E-13	NaN
202	1.000000	0.283121	7.36702e+06	-48739.1	955.819	-29761.7	0.000000	0.000000	6.282833	-0.020849	NaN	0.000000	0.001647	0.001701	28.0784	0.081544	0.002000	40.7651	-18.6742	-165.277	-0.023218	0.281842	-0.788514	-0.789793	-0.020849	40.7651	-0.788130	-3.102349E+10	6.720364E-13	NaN
202	1.000000	0.323162	7.36702e+06	-48739.1	955.819	-29761.7	0.000000	0.000000	6.322873	-0.029210	NaN	0.000000	0.001652	0.001669	28.0779	0.093645	0.001940	48.2632	68.4795	-168.419	0.038215	0.321863	-0.748474	-0.749772	-0.029210	48.2632	-0.748020	-8.836165E+9	3.305719E-12	NaN
202	1.000000	0.363160	7.36702e+06	-48739.1	955.819	-29761.7	0.000000	0.000000	6.362873	-0.007080	NaN	0.000000	0.001657	0.001712	28.0792	0.078896	0.002011	39.2399	-149.827	-165.955	0.031638	0.361834	-0.708475	-0.709801	-0.007080	39.2399	-0.708340	-2.543238E+9	2.783983E-12	NaN
202	1.000000	0.403167	7.36702e+06	-48739.1	955.819	-29761.7	0.000000	0.000000	6.402879	-0.014315	NaN	0.000000	0.001562	0.001714	28.0791	0.115120	0.001879	61.2658	175.008	-164.831	-0.041529	0.401874	-0.668468	-0.669761	-0.014315	61.2658	-0.668293	-7.211501E+8	1.984956E-11	NaN
202	1.000000	0.443208	7.36702e+06	-48739.1	955.818	-29761.7	0.000000	0.000000	6.442922	0.047910	NaN	0.000000	0.001616	0.001674	28.0791	0.041537	0.002057	20.1924	-88.5307	-169.589	0.080677	0.441912	-0.628428	-0.629723	0.047910	20.1924	-0.630207	-2.167051E+8	-2.210817E-10	NaN
202	1.000000	0.483238	7.36702e+06	-48739.1	955.819	-29761.7	0.000000	0.000000	6.482950	-0.012358	NaN	0.000000	0.001606	0.001686	28.0795	0.047946	0.002027	23.6547	97.2651	-168.424	0.012321	0.481909	-0.588397	-0.589727	-0.012358	23.6547	-0.588005	-5.690680E+7	2.171663E-10	NaN
202	1.000000	0.523236	7.36702e+06	-48739.1	955.819	-29761.7	0.000000	0.000000	6.522947	-0.032127	NaN	0.000000	0.001607	0.001723	28.0784	0.077400	0.002061	37.5544	47.4916	-165.217	0.008535	0.521948	-0.548399	-0.549687	-0.032127	37.5544	-0.547758	-1.580852E+7	2.032238E-9	NaN
202	1.000000	0.563281	7.36702e+06	-48739.1	955.819	-29761.7	0.000000	0.000000	6.562994	0.016316	NaN	0.000000	0.001599	0.001693	28.0786	0.091758	0.001983	46.2838	-96.9487	-166.386	0.052457	0.561988	-0.508354	-0.509648	0.016316	46.2838	-0.508618	-4.52032e+06	-3.609423E-9	NaN
202	1.000000	0.603279	7.36702e+06	-48739.1	955.818	-29761.7	0.000000	0.000000	6.602991	-0.006596	NaN	0.000000	0.001645	0.001737	28.0786	0.070951	0.001823	38.9237	119.249	-162.757	-0.060197	0.601967	-0.468356	-0.469669	-0.006596	38.9237	-0.468229	-1.23187e+06	5.354189E-9	NaN
202	1.000000	0.643259	7.36702e+06	-48739.1	955.818	-29761.7	0.000000	0.000000	6.642970	-0.041117	NaN	0.000000	0.001578	0.001672	28.0797	0.081140	0.001987	40.8433	40.5192	-169.224	-0.056662	0.641975	-0.428376	-0.429660	-0.041117	40.8433	-0.427621	-329909	1.246326E-7	NaN
202	1.000000	0.683291	7.36702e+06	-48739.1	955.819	-29761.7	0.000000	0.000000	6.683005	0.015354	NaN	0.000000	0.001591	0.001701	28.0798	0.098230	0.001964	50.0056	54.1921	-164.282	0.047834	0.681984	-0.388344	-0.389651	0.015354	50.0056	-0.388574	-91783.7	-1.672828E-7	NaN
202	1.000000	0.723322	7.36702e+06	-48739.1	955.819	-29761.7	0.000000	0.000000	6.723036	0.030741	NaN	0.000000	0.001584	0.001685	28.0796	0.041424	0.002076	19.9554	48.9453	-169.521	-0.020004	0.722058	-0.348313	-0.349577	0.030741	19.9554	-0.349468	-25077.5	-1.225843E-6	NaN
202	1.000000	0.763345	7.36702e+06	-48739.1	955.817	-29761.7	0.000000	0.000000	6.763059	0.046494	NaN	0.000000	0.001591	0.001681	28.0783	0.098886	0.001989	49.7194	-139.599	-167.187	0.057241	0.761973	-0.308290	-0.309662	0.046494	49.7194	-0.308992	-6399.26	-7.265485E-6	NaN
202	1.000000	0.803349	7.36702e+06	-48739.1	955.818	-29761.7	0.000000	0.000000	6.803061	0.004301	NaN	0.000000	0.001671	0.001697	28.0784	0.007189	0.001950	3.686353	86.1012	-167.405	0.041769	0.801986	-0.268287	-0.269649	0.004301	3.686353	-0.269162	-1617.32	-2.659098E-6	NaN
202	1.000000	0.843371	7.36702e+06	-48739.1	955.818	-29761.7	0.000000	0.000000	6.843082	-0.037499	NaN	0.000000	0.001619	0.001697	28.0793	0.121890	0.002033	59.968	-11.118	-167.915	-0.010050	0.842057	-0.228264	-0.229579	-0.037499	59.968	-0.227795	-369.54	0.000101	NaN
202	1.000000	0.883378	7.36702e+06	-48739.1	955.818	-29761.7	0.000000	0.000000	6.883090	-0.011741	NaN	0.000000	0.001578	0.001706	28.0784	0.054895	0.002050	26.7758	-6.241269	-166.439	-0.047392	0.882067	-0.188257	-0.189568	-0.011741	26.7758	-0.187928	-83.0522	0.000141	NaN
202	1.000000	0.923404	7.36702e+06	-48739.1	955.818	-29761.7	0.000000	0.000000	6.923115	-0.052465	NaN	0.000000	0.001625	0.001688	28.0796	0.063399	0.001885	33.6351	148.518	-164.623	0.067400	0.922050	-0.148231	-0.149585	-0.052465	33.6351	-0.147061	-16.0024	0.003279	NaN
202	1.000000	0.963420	7.36702e+06	-48739.1	955.818	-29761.7	0.000000	0.000000	6.963130	-0.049997	NaN	0.000000	0.001584	0.001665	28.0797	0.071421	0.001964	36.3621	-144.039	-166.092	-0.076584	0.962165	-0.108216	-0.109470	-0.049997	36.3621	-0.107184	-2.618829	0.019091	NaN
202	1.000000	1.003448	7.36702e+06	-48739.1	955.818	-29761.7	0.000000	0.000000	7.003161	0.000223	NaN	0.000000	0.001530	0.001663	28.08	0.036277	0.001933	18.7703	169.91	-166.033	-0.043785	1.002113	-0.068187	-0.069522	0.000223	18.7703	-0.068196	-0.304971	-0.000731	NaN
202	1.000000	1.043441	7.36702e+06	-48739.1	955.819	-29761.7	0.000000	0.000000	7.043152	-0.041498	NaN	0.000000	0.001568	0.001738	28.0783	0.092063	0.001995	46.1485	-63.6205	-170.971	0.025615	1.042198	-0.028194	-0.029437	-0.041498	46.1485	-0.027519	-0.019677	2.108906	NaN
202	2.000000	1.082880	7.36702e+06	-48739.1	955.818	-29761.7	0.000000	0.000000	7.082977	9.345610	NaN	0.000000	0.001570	0.001702	28.0782	8.921302	0.001595	5594.65	8.983820	-173.051	8.766530	1.082035	0.011245	0.010400	9.345610	5594.65	0.009992	0.009173	1018.85	53370.1
202	2.000000	1.092931	7.36702e+06	-48739.1	955.819	-29761.7	0.000000	0.000000	7.093843	29.1633	NaN	0.000000	0.001587	0.001671	28.0781	21.0756	0.001785	11804.2	7.932267	179.656	28.4193	1.092654	0.021296	0.021019	29.1633	11804.2	0.019443	0.021675	1345.49	73253.7
202	2.000000	1.102925	7.36702e+06	-48739.1	955.819	-29761.7	0.000000	0.000000	7.104948	56.2086	NaN	0.000000	0.001627	0.001700	28.0779	32.3907	0.001866	17360.1	7.880741	176.272	56.3722	1.102668	0.031290	0.031033	56.2086	17360.1	0.028861	0.038417	1463.13	80921.9
202	2.000000	1.112890	7.36702e+06	-48739.1	955.818	-29761.7	0.000000	0.000000	7.116100	85.0523	NaN	0.000000	0.001578	0.001634	28.0793	40.3734	0.001786	22609.7	4.647955	177.46	83.7206	1.112638	0.041255	0.041003	85.0523	22609.7	0.038434	0.060044	1416.51	84301.5
202	2.000000	1.122869	7.36702e+06	-48739.1	955.819	-29761.7	0.000000	0.000000	7.127872	128.663	NaN	0.000000	0.001620	0.001661	28.0794	51.5016	0.001817	28340.5	3.505440	175.895	126.655	1.122579	0.051234	0.050943	128.663	28340.5	0.047829	0.085820	1499.22	88386.4
202	2.000000	1.132916	7.36702e+06	-48739.1	955.819	-29761.7	0.000000	0.000000	7.139732	172.769	NaN	0.000000	0.001599	0.001661	28.0794	61.677	0.001829	33716	3.670789	174.909	176.034	1.132705	0.061280	0.061070	172.769	33716	0.057437	0.116780	1479.44	90141.7
202	2.000000	1.142840	7.36702e+06	-48739.1	955.818	-29761.7	0.000000	0.000000	7.152270	236.361	NaN	0.000000	0.001619	0.001692	28.0781	71.5688	0.001824	39247.2	3.225968	174.225	235.316	1.142592	0.071204	0.070957	236.361	39247.2	0.066688	0.150875	1566.6	92315.2
202	2.000000	1.152756	7.36702e+06	-48739.1	955.818	-29761.7	0.000000	0.000000	7.165102	307.263	NaN	0.000000	0.001565	0.001638	28.078	81.3292	0.001883	43194.3	2.873875	173.71	300.716	1.152440	0.081121	0.080805	307.263	43194.3	0.075785	0.188416	1630.77	90916.3
202	2.000000	1.162919	7.36703e+06	-48739.1	955.818	-29761.7	0.000000	0.000000	7.177640	365.036	NaN	0.000000	0.001579	0.001639	28.078	90.3523	0.001840	49115.4	4.046896	171.266	368.593	1.162778	0.091284	0.091142	365.036	49115.4	0.085710	0.233798	1561.33	92804.9
202	2.000000	1.172860	7.36703e+06	-48739.1	955.818	-29761.7	0.000000	0.000000	7.191480	459.848	NaN	0.000000	0.001574	0.001645	28.079	100.698	0.001932	52133	6.412385	168.777	463.39	1.172541	0.101225	0.100906	459.848	52133	0.094610	0.278366	1651.96	90277.1
202	2.000000	1.181236	7.36703e+06	-48739.1	955.819	-29761.7	0.000000	0.000000	7.203110	538.987	NaN	0.000000	0.001568	0.001694	28.0791	106.211	0.001740	61042.3	5.748251	-11.5618	530.734	1.180819	0.109601	0.109184	538.987	61042.3	0.102978	0.323573	1665.74	98043.3