File: remote_trans/data/nanoindenter/0828-1/data/Data_2025-08-06,11h17m57s/2025-07-22_16-23-58_1_443.txt
2025-07-22, 16:23:58, 1
Index	Phase	Displacement	Time	Pos X	Pos Y	Pos Z	Rot A	Rot B	Piezo Z	Force A	Force B	Gripper	Voltage A	Voltage B	Temperature	Amplitude force	Amplitude pos	Stiffness	Phase shift	Phase excitation	Force A raw	Displacement raw	HMax	HMax raw	Real Force	Real Stiffness	Contact Depth	Area	Hardness	Reduced Mod.
[#]	[#]	[um]	[s]	[um]	[um]	[um]	[m°]	[m°]	[um]	[uN]	[uN]	[V]	[V]	[V]	[°C]	[uN]	[um]	[N/m]	[°]	[°]	[uN]	[um]	[um]	[um]	[uN]	[N/m]	[um]	[um^2]	[MPa]	[MPa]
443	1.000000	0.002545	7.36939e+06	-54939.1	1005.82	-29742.7	0.000000	0.000000	6.002801	-0.054911	NaN	0.000000	0.001525	0.001763	28.0813	0.123029	0.000949	129.638	150.035	-169.922	-0.043978	0.001297	-1.013666	-1.014915	-0.054911	129.638	-1.013349	-3.431237E+13	1.600314E-15	NaN
443	1.000000	0.042505	7.36939e+06	-54939.1	1005.82	-29742.7	0.000000	0.000000	6.042763	-0.024345	NaN	0.000000	0.001568	0.001760	28.0811	0.100873	0.001915	52.6745	59.5301	-161.166	-0.014070	0.041148	-0.973706	-0.975063	-0.024345	52.6745	-0.973360	-9.929810E+12	2.451671E-15	NaN
443	1.000000	0.082501	7.36939e+06	-54939.1	1005.82	-29742.7	0.000000	0.000000	6.082758	-0.024530	NaN	0.000000	0.001648	0.001730	28.081	0.086095	0.001883	45.7144	151.338	-163.858	0.006874	0.081219	-0.933711	-0.934992	-0.024530	45.7144	-0.933308	-2.863142E+12	8.567523E-15	NaN
443	1.000000	0.122486	7.36939e+06	-54939.1	1005.82	-29742.7	0.000000	0.000000	6.122744	-0.009980	NaN	0.000000	0.001590	0.001711	28.0797	0.059243	0.002059	28.7659	93.9292	-161.313	-0.016299	0.121177	-0.893725	-0.895034	-0.009980	28.7659	-0.893465	-8.293817E+11	1.203265E-14	NaN
443	1.000000	0.162525	7.36939e+06	-54939.1	1005.82	-29742.7	0.000000	0.000000	6.162781	-0.051302	NaN	0.000000	0.001630	0.001759	28.0796	0.025780	0.001987	12.9755	-115.207	-163.639	-0.067017	0.161195	-0.853687	-0.855016	-0.051302	12.9755	-0.850721	-2.190298E+11	2.342261E-13	NaN
443	1.000000	0.202514	7.36939e+06	-54939.1	1005.82	-29742.7	0.000000	0.000000	6.202775	0.047371	NaN	0.000000	0.001599	0.001742	28.0796	0.106250	0.001992	53.3298	110.324	-163.957	0.040405	0.201206	-0.813697	-0.815005	0.047371	53.3298	-0.814363	-7.043060E+10	-6.725962E-13	NaN
443	1.000000	0.242603	7.36939e+06	-54939.1	1005.82	-29742.7	0.000000	0.000000	6.242861	-0.035492	NaN	0.000000	0.001622	0.001730	28.0795	0.123548	0.002132	57.946	25.0356	-167.374	-0.038209	0.241292	-0.773608	-0.774919	-0.035492	57.946	-0.773149	-1.941382E+10	1.828168E-12	NaN
443	1.000000	0.282597	7.36939e+06	-54939.1	1005.82	-29742.7	0.000000	0.000000	6.282857	0.008700	NaN	0.000000	0.001624	0.001722	28.0808	0.083079	0.001996	41.6215	-7.702008	-159.541	0.093750	0.281287	-0.733614	-0.734924	0.008700	41.6215	-0.733770	-5.651841E+9	-1.539309E-12	NaN
443	1.000000	0.322575	7.36939e+06	-54939.1	1005.82	-29742.7	0.000000	0.000000	6.322832	-0.033963	NaN	0.000000	0.001635	0.001751	28.0806	0.054636	0.001962	27.841	-61.499	-165.293	0.001811	0.321229	-0.693636	-0.694983	-0.033963	27.841	-0.692721	-1.556348E+9	2.182223E-11	NaN
443	1.000000	0.362617	7.36939e+06	-54939.1	1005.82	-29742.7	0.000000	0.000000	6.362877	0.005994	NaN	0.000000	0.001666	0.001767	28.0808	0.165629	0.002028	81.667	86.9244	-162.687	-0.002439	0.361336	-0.653594	-0.654875	0.005994	81.667	-0.653649	-4.544122E+8	-1.319135E-11	NaN
443	1.000000	0.402648	7.36939e+06	-54939.1	1005.82	-29742.7	0.000000	0.000000	6.402906	-0.020006	NaN	0.000000	0.001590	0.001806	28.0798	0.124947	0.002092	59.7202	96.9132	-169.277	0.043133	0.401353	-0.613563	-0.614858	-0.020006	59.7202	-0.613312	-1.269624E+8	1.575722E-10	NaN
443	1.000000	0.442682	7.36939e+06	-54939.1	1005.82	-29742.7	0.000000	0.000000	6.442937	-0.082825	NaN	0.000000	0.001620	0.001759	28.0797	0.066235	0.001991	33.2656	17.678	-169.044	-0.055840	0.441370	-0.573530	-0.574841	-0.082825	33.2656	-0.571662	-3.385302E+7	2.446612E-9	NaN
443	1.000000	0.482673	7.36939e+06	-54939.1	1005.82	-29742.7	0.000000	0.000000	6.482932	-0.007500	NaN	0.000000	0.001649	0.001761	28.0797	0.123682	0.001915	64.5924	66.2709	-164.261	-0.013348	0.481382	-0.533538	-0.534830	-0.007500	64.5924	-0.533451	-1.001132E+7	7.491925E-10	NaN
443	1.000000	0.522712	7.36939e+06	-54939.1	1005.82	-29742.7	0.000000	0.000000	6.522968	-0.075341	NaN	0.000000	0.001667	0.001779	28.0798	0.064872	0.002129	30.4766	-176.116	-164.995	-0.017690	0.521369	-0.493499	-0.494842	-0.075341	30.4766	-0.491645	-2.62043e+06	2.875125E-8	NaN
443	1.000000	0.562720	7.36939e+06	-54939.1	1005.82	-29742.7	0.000000	0.000000	6.562978	-0.027048	NaN	0.000000	0.001643	0.001764	28.0813	0.098075	0.001855	52.8598	179.926	-162.866	-0.056143	0.561381	-0.453491	-0.454830	-0.027048	52.8598	-0.453108	-755248	3.581373E-8	NaN
443	1.000000	0.602696	7.36939e+06	-54939.1	1005.82	-29742.7	0.000000	0.000000	6.602955	-0.013508	NaN	0.000000	0.001597	0.001716	28.0813	0.090692	0.001946	46.6031	-127.771	-165.248	-0.027591	0.601424	-0.413515	-0.414787	-0.013508	46.6031	-0.413297	-206666	6.536168E-8	NaN
443	1.000000	0.642753	7.36939e+06	-54939.1	1005.82	-29742.7	0.000000	0.000000	6.643009	-0.065954	NaN	0.000000	0.001600	0.001749	28.0811	0.052159	0.002066	25.246	127.601	-165.845	-0.035427	0.641462	-0.373459	-0.374749	-0.065954	25.246	-0.371499	-52205.2	1.263369E-6	NaN
443	1.000000	0.682734	7.36939e+06	-54939.1	1005.82	-29742.7	0.000000	0.000000	6.682995	0.045002	NaN	0.000000	0.001580	0.001766	28.08	0.019288	0.002047	9.422374	-89.9743	-165.785	0.006464	0.681424	-0.333477	-0.334787	0.045002	9.422374	-0.337059	-16544.5	-2.720065E-6	NaN
443	1.000000	0.722759	7.3694e+06	-54939.1	1005.82	-29742.7	0.000000	0.000000	6.723018	0.009534	NaN	0.000000	0.001624	0.001733	28.0797	0.084628	0.001983	42.6687	63.1865	-162.865	-0.006768	0.721483	-0.293452	-0.294728	0.009534	42.6687	-0.293620	-3779.78	-2.522447E-6	NaN
443	1.000000	0.762828	7.3694e+06	-54939.1	1005.82	-29742.7	0.000000	0.000000	6.763087	-0.019712	NaN	0.000000	0.001585	0.001755	28.0798	0.121245	0.002063	58.7669	106.718	-165.779	-0.015314	0.761482	-0.253383	-0.254729	-0.019712	58.7669	-0.253131	-919.012	2.144950E-5	NaN
443	1.000000	0.802835	7.3694e+06	-54939.1	1005.82	-29742.7	0.000000	0.000000	6.803090	-0.093268	NaN	0.000000	0.001582	0.001738	28.0802	0.030260	0.002071	14.6131	-143.285	-166.226	-0.040173	0.801518	-0.213376	-0.214693	-0.093268	14.6131	-0.208589	-181.948	0.000513	NaN
443	1.000000	0.842836	7.3694e+06	-54939.1	1005.82	-29742.7	0.000000	0.000000	6.843092	-0.071758	NaN	0.000000	0.001569	0.001760	28.0811	0.070643	0.001986	35.5724	127.524	-168.884	-0.079623	0.841476	-0.173375	-0.174735	-0.071758	35.5724	-0.171862	-44.2466	0.001622	NaN
443	1.000000	0.882854	7.3694e+06	-54939.1	1005.82	-29742.7	0.000000	0.000000	6.883110	-0.065968	NaN	0.000000	0.001520	0.001718	28.081	0.107824	0.002067	52.1599	-99.4821	-164.647	-0.112388	0.881603	-0.133357	-0.134608	-0.065968	52.1599	-0.132409	-8.484039	0.007776	NaN
443	1.000000	0.922840	7.3694e+06	-54939.1	1005.82	-29742.7	0.000000	0.000000	6.923100	0.014552	NaN	0.000000	0.001585	0.001722	28.0809	0.073413	0.002088	35.1584	81.8952	-167.908	-0.041540	0.921521	-0.093371	-0.094690	0.014552	35.1584	-0.093681	-1.315981	-0.011058	NaN
443	1.000000	0.962908	7.3694e+06	-54939.1	1005.82	-29742.7	0.000000	0.000000	6.963166	-0.018951	NaN	0.000000	0.001594	0.001788	28.0797	0.121610	0.002066	58.8489	-128.756	-164.389	-0.032960	0.961576	-0.053304	-0.054635	-0.018951	58.8489	-0.053062	-0.112790	0.168021	NaN
443	1.000000	1.002902	7.3694e+06	-54939.1	1005.82	-29742.7	0.000000	0.000000	7.003163	0.046642	NaN	0.000000	0.001585	0.001753	28.0796	0.120294	0.001958	61.4437	-75.5634	-162.977	0.043457	1.001613	-0.013309	-0.014598	0.046642	61.4437	-0.013878	-0.008612	-5.416017	NaN
443	2.000000	1.030487	7.3694e+06	-54939.1	1005.82	-29742.7	0.000000	0.000000	7.031252	12.3131	NaN	0.000000	0.001584	0.001709	28.0798	12.2511	0.001772	6915.56	9.164776	-176.449	11.6337	1.030226	0.014276	0.014015	12.3131	6915.56	0.012940	0.012636	974.43	56207.3
443	2.000000	1.040433	7.3694e+06	-54939.1	1005.82	-29742.7	0.000000	0.000000	7.041864	28.4992	NaN	0.000000	0.001613	0.001714	28.0812	23.0625	0.001737	13279.2	3.879785	-177.868	27.9928	1.040163	0.024222	0.023952	28.4992	13279.2	0.022612	0.026814	1062.85	74090.8
443	2.000000	1.050425	7.3694e+06	-54939.1	1005.82	-29742.7	0.000000	0.000000	7.052758	50.4356	NaN	0.000000	0.001637	0.001745	28.0811	31.5872	0.001813	17425.8	4.973100	-179.454	49.285	1.050101	0.034214	0.033890	50.4356	17425.8	0.032043	0.045084	1118.7	74981.3
443	2.000000	1.060402	7.3694e+06	-54939.1	1005.82	-29742.7	0.000000	0.000000	7.063895	78.6	NaN	0.000000	0.001530	0.001736	28.0812	41.6378	0.001738	23952.6	1.715966	179.232	77.8772	1.060173	0.044191	0.043962	78.6	23952.6	0.041730	0.068576	1146.17	83567.8
443	2.000000	1.070396	7.3694e+06	-54939.1	1005.82	-29742.7	0.000000	0.000000	7.075411	115.63	NaN	0.000000	0.001533	0.001733	28.0814	52.015	0.001816	28640.2	2.159897	178.259	116.424	1.070139	0.054185	0.053928	115.63	28640.2	0.051157	0.096021	1204.21	84443.2
443	2.000000	1.080391	7.3694e+06	-54939.1	1005.82	-29742.7	0.000000	0.000000	7.086986	154.042	NaN	0.000000	0.001605	0.001786	28.0803	60.32	0.001746	34542.2	4.940933	173.485	152.772	1.080192	0.064179	0.063981	154.042	34542.2	0.060835	0.128819	1195.8	87929.3
443	2.000000	1.090402	7.3694e+06	-54939.1	1005.82	-29742.7	0.000000	0.000000	7.099146	206.259	NaN	0.000000	0.001551	0.001736	28.0805	70.9612	0.001815	39088.2	9.030707	168.69	206.821	1.090175	0.074191	0.073964	206.259	39088.2	0.070234	0.165039	1249.76	87907.3
443	2.000000	1.100390	7.3694e+06	-54939.1	1005.82	-29742.7	0.000000	0.000000	7.111144	255.14	NaN	0.000000	0.001570	0.001701	28.0801	79.0947	0.001766	44798.7	4.106618	171.973	255.462	1.100172	0.084179	0.083961	255.14	44798.7	0.079907	0.206709	1234.3	90024.2
443	2.000000	1.110266	7.3694e+06	-54939.1	1005.82	-29742.7	0.000000	0.000000	7.123808	322.894	NaN	0.000000	0.001575	0.001725	28.0812	90.195	0.001807	49903.9	6.685834	168.74	316.665	1.109971	0.094055	0.093760	322.894	49903.9	0.089203	0.250856	1287.16	91032.2
443	2.000000	1.120339	7.3694e+06	-54939.1	1005.82	-29742.7	0.000000	0.000000	7.136876	395.713	NaN	0.000000	0.001563	0.001723	28.0812	99.2169	0.001831	54192.4	6.321924	168.978	394.72	1.119991	0.104128	0.103780	395.713	54192.4	0.098652	0.299803	1319.91	90426.1
443	2.000000	1.124821	7.3694e+06	-54939.1	1005.82	-29742.7	0.000000	0.000000	7.143021	436.136	NaN	0.000000	0.001585	0.001712	28.0813	102.168	0.001713	59642.6	5.524422	-10.7623	433.255	1.124507	0.108610	0.108295	436.136	59642.6	0.103125	0.324396	1344.46	95673.6