File: remote_trans/data/nanoindenter/0828-1/data/Data_2025-08-06,11h17m57s/2025-07-22_16-23-58_1_323.txt
2025-07-22, 16:23:58, 1
Index	Phase	Displacement	Time	Pos X	Pos Y	Pos Z	Rot A	Rot B	Piezo Z	Force A	Force B	Gripper	Voltage A	Voltage B	Temperature	Amplitude force	Amplitude pos	Stiffness	Phase shift	Phase excitation	Force A raw	Displacement raw	HMax	HMax raw	Real Force	Real Stiffness	Contact Depth	Area	Hardness	Reduced Mod.
[#]	[#]	[um]	[s]	[um]	[um]	[um]	[m°]	[m°]	[um]	[uN]	[uN]	[V]	[V]	[V]	[°C]	[uN]	[um]	[N/m]	[°]	[°]	[uN]	[um]	[um]	[um]	[uN]	[N/m]	[um]	[um^2]	[MPa]	[MPa]
323	1.000000	0.002414	7.36822e+06	-54789.1	955.817	-29743.1	0.000000	0.000000	6.002809	0.060770	NaN	0.000000	0.001588	0.001648	28.0786	0.034765	0.001064	32.6738	46.3183	-169.111	0.048051	0.001128	-1.114882	-1.116168	0.060770	32.6738	-1.116277	-8.289271E+14	-7.331162E-17	NaN
323	1.000000	0.044364	7.36823e+06	-54789.1	955.818	-29743.1	0.000000	0.000000	6.044757	0.015302	NaN	0.000000	0.001591	0.001660	28.0792	0.110432	0.001925	57.3697	175.576	14.2205	-0.029476	0.042983	-1.072932	-1.074313	0.015302	57.3697	-1.073132	-2.184064E+14	-7.006256E-17	NaN
323	1.000000	0.086388	7.36823e+06	-54789.1	955.818	-29743.1	0.000000	0.000000	6.086780	-0.006561	NaN	0.000000	0.001568	0.001684	28.0787	0.090163	0.002063	43.7056	80.4211	-167.78	-0.043425	0.085005	-1.030908	-1.032290	-0.006561	43.7056	-1.030795	-5.890789E+13	1.113841E-16	NaN
323	1.000000	0.128397	7.36823e+06	-54789.1	955.818	-29743.1	0.000000	0.000000	6.128789	-0.023099	NaN	0.000000	0.001620	0.001718	28.0799	0.093201	0.002006	46.464	-7.712272	16.7868	0.046970	0.127020	-0.988898	-0.990275	-0.023099	46.464	-0.988526	-1.589474E+13	1.453229E-15	NaN
323	1.000000	0.170394	7.36823e+06	-54789.1	955.817	-29743.1	0.000000	0.000000	6.170783	-0.092451	NaN	0.000000	0.001660	0.001664	28.08	0.075746	0.002088	36.2732	48.5947	-164.331	-0.113121	0.169085	-0.946902	-0.948210	-0.092451	36.2732	-0.944990	-4.115800E+12	2.246250E-14	NaN
323	1.000000	0.212425	7.36823e+06	-54789.1	955.818	-29743.1	0.000000	0.000000	6.212817	-0.013166	NaN	0.000000	0.001580	0.001632	28.0799	0.028457	0.002026	14.0493	111.86	16.3538	-0.119709	0.211131	-0.904871	-0.906165	-0.013166	14.0493	-0.904168	-1.157129E+12	1.137793E-14	NaN
323	1.000000	0.254434	7.36823e+06	-54789.1	955.818	-29743.1	0.000000	0.000000	6.254828	0.018907	NaN	0.000000	0.001626	0.001643	28.0787	0.066706	0.001995	33.4382	153.199	-167.145	0.049789	0.253145	-0.862861	-0.864150	0.018907	33.4382	-0.863285	-3.240320E+11	-5.834818E-14	NaN
323	1.000000	0.296467	7.36823e+06	-54789.1	955.817	-29743.1	0.000000	0.000000	6.296861	0.033134	NaN	0.000000	0.001623	0.001672	28.0787	0.103249	0.002014	51.2768	53.5117	14.8641	0.046142	0.295076	-0.820829	-0.822219	0.033134	51.2768	-0.821314	-8.750342E+10	-3.786559E-13	NaN
323	1.000000	0.338462	7.36823e+06	-54789.1	955.817	-29743.1	0.000000	0.000000	6.338853	-0.055634	NaN	0.000000	0.001607	0.001637	28.0783	0.035005	0.001952	17.9345	-112.812	-166.526	-0.031707	0.337186	-0.778833	-0.780110	-0.055634	17.9345	-0.776507	-2.156553E+10	2.579751E-12	NaN
323	1.000000	0.380514	7.36823e+06	-54789.1	955.818	-29743.1	0.000000	0.000000	6.380909	0.059895	NaN	0.000000	0.001612	0.001638	28.0783	0.007997	0.002028	3.942949	164.476	15.9649	0.033761	0.379124	-0.736782	-0.738172	0.059895	3.942949	-0.748175	-8.879145E+9	-6.745547E-12	NaN
323	1.000000	0.422533	7.36823e+06	-54789.1	955.818	-29743.1	0.000000	0.000000	6.422926	0.003973	NaN	0.000000	0.001609	0.001653	28.0794	0.049085	0.001889	25.9911	179.018	-168.409	-0.039836	0.421188	-0.694762	-0.696107	0.003973	25.9911	-0.694877	-1.665552E+9	-2.385299E-12	NaN
323	1.000000	0.464543	7.36823e+06	-54789.1	955.818	-29743.1	0.000000	0.000000	6.464935	-0.038226	NaN	0.000000	0.001601	0.001613	28.0795	0.092014	0.002028	45.3611	-122.45	13.9559	-0.061884	0.463216	-0.652752	-0.654079	-0.038226	45.3611	-0.652120	-4.330115E+8	8.827885E-11	NaN
323	1.000000	0.506546	7.36823e+06	-54789.1	955.817	-29743.1	0.000000	0.000000	6.506937	-0.056048	NaN	0.000000	0.001607	0.001632	28.0797	0.024098	0.002028	11.8811	-72.3801	-165.418	-0.091587	0.505200	-0.610749	-0.612096	-0.056048	11.8811	-0.607211	-1.046498E+8	5.355744E-10	NaN
323	1.000000	0.548570	7.36823e+06	-54789.1	955.818	-29743.1	0.000000	0.000000	6.548960	-0.067563	NaN	0.000000	0.001616	0.001693	28.0787	0.029300	0.002140	13.6894	-48.4839	16.2303	-0.095693	0.547220	-0.568725	-0.570076	-0.067563	13.6894	-0.565024	-2.740631E+7	2.465247E-9	NaN
323	1.000000	0.590591	7.36823e+06	-54789.1	955.817	-29743.1	0.000000	0.000000	6.590983	-0.027327	NaN	0.000000	0.001567	0.001656	28.0788	0.047664	0.001882	25.3327	-163.68	-166.767	-0.040155	0.589303	-0.526704	-0.527993	-0.027327	25.3327	-0.525895	-7.86237e+06	3.475727E-9	NaN
323	1.000000	0.632586	7.36823e+06	-54789.1	955.818	-29743.1	0.000000	0.000000	6.632978	-0.002791	NaN	0.000000	0.001599	0.001630	28.0785	0.071182	0.002100	33.8893	168.049	11.5241	-0.039520	0.631225	-0.484710	-0.486071	-0.002791	33.8893	-0.484648	-2.09205e+06	1.334017E-9	NaN
323	1.000000	0.674608	7.36823e+06	-54789.1	955.818	-29743.1	0.000000	0.000000	6.674999	-0.022851	NaN	0.000000	0.001612	0.001638	28.0799	0.150356	0.001939	77.5326	36.5879	-167.621	-0.025817	0.673279	-0.442688	-0.444016	-0.022851	77.5326	-0.442467	-534776	4.272934E-8	NaN
323	1.000000	0.716649	7.36823e+06	-54789.1	955.817	-29743.1	0.000000	0.000000	6.717042	0.020684	NaN	0.000000	0.001615	0.001642	28.0798	0.036737	0.001938	18.9561	50.3904	13.4123	0.036420	0.715351	-0.400647	-0.401945	0.020684	18.9561	-0.401465	-140245	-1.474862E-7	NaN
323	1.000000	0.758627	7.36823e+06	-54789.1	955.818	-29743.1	0.000000	0.000000	6.759019	-0.019413	NaN	0.000000	0.001651	0.001650	28.0801	0.020076	0.002128	9.432514	119.776	-166.585	0.009759	0.757328	-0.358669	-0.359968	-0.019413	9.432514	-0.357125	-32379.4	5.995492E-7	NaN
323	1.000000	0.800671	7.36823e+06	-54789.1	955.819	-29743.1	0.000000	0.000000	6.801062	-0.043573	NaN	0.000000	0.001710	0.001616	28.0789	0.131273	0.002065	63.5795	129.178	11.7228	-0.054690	0.799279	-0.316625	-0.318017	-0.043573	63.5795	-0.316111	-8153.26	5.344297E-6	NaN
323	1.000000	0.842698	7.36823e+06	-54789.1	955.818	-29743.1	0.000000	0.000000	6.843092	0.021913	NaN	0.000000	0.001693	0.001649	28.0787	0.041118	0.002049	20.0695	173.279	-165.266	-0.045317	0.841390	-0.274597	-0.275905	0.021913	20.0695	-0.275416	-2012.33	-1.088961E-5	NaN
323	1.000000	0.884707	7.36823e+06	-54789.1	955.818	-29743.1	0.000000	0.000000	6.885100	0.005029	NaN	0.000000	0.001601	0.001636	28.0787	0.043807	0.001947	22.503	-57.3447	14.5102	-0.079219	0.883356	-0.232588	-0.233939	0.005029	22.503	-0.232756	-442.552	-1.136423E-5	NaN
323	1.000000	0.926723	7.36823e+06	-54789.1	955.818	-29743.1	0.000000	0.000000	6.927118	0.061194	NaN	0.000000	0.001657	0.001653	28.0787	0.059185	0.002008	29.4816	162.275	-164.41	0.052468	0.925461	-0.190572	-0.191834	0.061194	29.4816	-0.192129	-97.6182	-0.000627	NaN
323	1.000000	0.968731	7.36823e+06	-54789.1	955.819	-29743.1	0.000000	0.000000	6.969120	-0.102090	NaN	0.000000	0.001649	0.001673	28.0794	0.127375	0.002147	59.3382	40.381	13.2769	-0.028223	0.967331	-0.148565	-0.149965	-0.102090	59.3382	-0.147274	-16.1474	0.006322	NaN
323	1.000000	1.010778	7.36823e+06	-54789.1	955.818	-29743.1	0.000000	0.000000	7.011178	0.165748	NaN	0.000000	0.001675	0.001640	28.08	0.144653	0.001963	73.6835	46.638	-166.167	0.146881	1.009498	-0.106517	-0.107798	0.165748	73.6835	-0.108204	-2.753251	-0.060201	NaN
323	1.000000	1.052767	7.36823e+06	-54789.1	955.818	-29743.1	0.000000	0.000000	7.053200	0.986666	NaN	0.000000	0.001654	0.001667	28.08	0.422422	0.002199	192.072	32.2936	11.9349	1.057923	1.051385	-0.064529	-0.065910	0.986666	192.072	-0.068381	-0.308521	-3.198056	NaN
323	1.000000	1.094782	7.36823e+06	-54789.1	955.819	-29743.1	0.000000	0.000000	7.095241	1.609871	NaN	0.000000	0.001667	0.001665	28.0787	0.669010	0.002190	305.458	20.7069	-166.971	1.529078	1.093492	-0.022513	-0.023803	1.609871	305.458	-0.026466	-0.018440	-87.304	NaN
323	2.000000	1.128850	7.36823e+06	-54789.1	955.82	-29743.1	0.000000	0.000000	7.129651	9.919894	NaN	0.000000	0.001643	0.001672	28.079	10.2481	0.001864	5499.15	9.775438	4.836019	9.379918	1.128521	0.011555	0.011225	9.919894	5499.15	0.010202	0.009407	1054.56	51802.6
323	2.000000	1.139325	7.36823e+06	-54789.1	955.819	-29743.1	0.000000	0.000000	7.140764	25.4373	NaN	0.000000	0.001646	0.001680	28.0788	20.4409	0.001754	11654.5	5.967204	-178.039	24.9118	1.139029	0.022029	0.021734	25.4373	11654.5	0.020392	0.023163	1098.21	69964.1
323	2.000000	1.149768	7.36823e+06	-54789.1	955.819	-29743.1	0.000000	0.000000	7.152409	54.6657	NaN	0.000000	0.001629	0.001694	28.0799	32.4708	0.001730	18767.7	10.379	-7.247687	52.1802	1.149453	0.032472	0.032157	54.6657	18767.7	0.030288	0.041342	1322.28	84331.1
323	2.000000	1.160223	7.36823e+06	-54789.1	955.819	-29743.1	0.000000	0.000000	7.164315	89.9401	NaN	0.000000	0.001651	0.001707	28.08	44.5689	0.001812	24591.2	8.451985	172.961	88.1827	1.159982	0.042927	0.042687	89.9401	24591.2	0.040184	0.064505	1394.31	88461.9
323	2.000000	1.170700	7.36823e+06	-54789.1	955.819	-29743.1	0.000000	0.000000	7.176876	140.582	NaN	0.000000	0.001687	0.001662	28.0804	54.4672	0.001714	31787	7.175946	-8.658581	136.063	1.170404	0.053404	0.053108	140.582	31787	0.050087	0.092683	1516.8	95394.3
323	2.000000	1.181273	7.36823e+06	-54789.1	955.82	-29743.1	0.000000	0.000000	7.189501	190.491	NaN	0.000000	0.001652	0.001659	28.079	64.9545	0.001822	35646.4	3.320363	175.777	189.991	1.180899	0.063977	0.063604	190.491	35646.4	0.059969	0.125697	1515.47	91859.8
323	2.000000	1.191751	7.36823e+06	-54789.1	955.819	-29743.1	0.000000	0.000000	7.202438	250.259	NaN	0.000000	0.001628	0.001703	28.079	77.388	0.001939	39918.1	4.145493	-6.549810	249.545	1.191380	0.074455	0.074085	250.259	39918.1	0.069753	0.163086	1534.52	90309.8
323	2.000000	1.202253	7.36823e+06	-54789.1	955.82	-29743.1	0.000000	0.000000	7.215593	314.731	NaN	0.000000	0.001599	0.001711	28.0788	85.294	0.001762	48411.1	4.957243	170.87	315.865	1.201930	0.084958	0.084634	314.731	48411.1	0.080082	0.207501	1516.77	97097.6
323	2.000000	1.212667	7.36823e+06	-54789.1	955.82	-29743.1	0.000000	0.000000	7.229690	404.27	NaN	0.000000	0.001538	0.001655	28.0786	94.8473	0.001798	52755	5.056250	-9.308542	401.801	1.212368	0.095372	0.095072	404.27	52755	0.089624	0.252954	1598.2	95833.2
323	2.000000	1.223164	7.36823e+06	-54789.1	955.82	-29743.1	0.000000	0.000000	7.243737	490.582	NaN	0.000000	0.001615	0.001733	28.08	103.698	0.001692	61272.2	0.645704	173.585	487.222	1.222821	0.105869	0.105526	490.582	61272.2	0.099864	0.306376	1601.24	101137
323	2.000000	1.224680	7.36823e+06	-54789.1	955.82	-29743.1	0.000000	0.000000	7.245996	508.618	NaN	0.000000	0.001588	0.001721	28.0802	108.274	0.001863	58132	6.710377	-11.562	505.101	1.224241	0.107385	0.106945	508.618	58132	0.100823	0.311625	1632.15	95142