File: remote_trans/data/nanoindenter/0828-1/data/Data_2025-08-06,11h17m57s/2025-07-22_16-23-58_1_358.txt
2025-07-22, 16:23:58, 1
Index	Phase	Displacement	Time	Pos X	Pos Y	Pos Z	Rot A	Rot B	Piezo Z	Force A	Force B	Gripper	Voltage A	Voltage B	Temperature	Amplitude force	Amplitude pos	Stiffness	Phase shift	Phase excitation	Force A raw	Displacement raw	HMax	HMax raw	Real Force	Real Stiffness	Contact Depth	Area	Hardness	Reduced Mod.
[#]	[#]	[um]	[s]	[um]	[um]	[um]	[m°]	[m°]	[um]	[uN]	[uN]	[V]	[V]	[V]	[°C]	[uN]	[um]	[N/m]	[°]	[°]	[uN]	[um]	[um]	[um]	[uN]	[N/m]	[um]	[um^2]	[MPa]	[MPa]
358	1.000000	0.002295	7.36856e+06	-56539.1	955.818	-29739	0.000000	0.000000	6.002823	0.025128	NaN	0.000000	0.001551	0.001747	28.082	0.088707	0.001008	87.9963	-132.906	-164.839	-0.034245	0.001137	-1.034420	-1.035577	0.025128	87.9963	-1.034634	-6.634446E+13	-3.787519E-16	NaN
358	1.000000	0.042217	7.36856e+06	-56539.1	955.82	-29739	0.000000	0.000000	6.042745	0.012625	NaN	0.000000	0.001538	0.001746	28.0821	0.011306	0.001769	6.391087	65.6975	-165.274	0.002834	0.040951	-0.994497	-0.995764	0.012625	6.391087	-0.995979	-2.002743E+13	-6.303948E-16	NaN
358	1.000000	0.082229	7.36856e+06	-56539.1	955.819	-29739	0.000000	0.000000	6.082753	-0.080470	NaN	0.000000	0.001572	0.001763	28.0823	0.113288	0.002001	56.6116	-79.5184	-162.262	-0.015106	0.080897	-0.954485	-0.955817	-0.080470	56.6116	-0.953419	-5.347345E+12	1.504856E-14	NaN
358	1.000000	0.122264	7.36856e+06	-56539.1	955.818	-29739	0.000000	0.000000	6.122790	-0.027779	NaN	0.000000	0.001618	0.001747	28.0808	0.058098	0.002031	28.6119	-26.457	-165.08	0.025754	0.120935	-0.914450	-0.915779	-0.027779	28.6119	-0.913722	-1.557512E+12	1.783577E-14	NaN
358	1.000000	0.162292	7.36856e+06	-56539.1	955.818	-29739	0.000000	0.000000	6.162815	-0.086444	NaN	0.000000	0.001616	0.001718	28.0809	0.086097	0.002038	42.2358	174.77	-164.59	-0.094509	0.160922	-0.874423	-0.875792	-0.086444	42.2358	-0.872888	-4.370294E+11	1.977988E-13	NaN
358	1.000000	0.202284	7.36856e+06	-56539.1	955.819	-29739	0.000000	0.000000	6.202809	-0.031574	NaN	0.000000	0.001624	0.001787	28.0807	0.075647	0.002009	37.6566	-159.78	-163.421	-0.117583	0.200945	-0.834431	-0.835770	-0.031574	37.6566	-0.833802	-1.292148E+11	2.443511E-13	NaN
358	1.000000	0.242288	7.36856e+06	-56539.1	955.818	-29739	0.000000	0.000000	6.242814	-0.015070	NaN	0.000000	0.001555	0.001755	28.082	0.092213	0.002007	45.9361	4.260788	-161.706	-0.003004	0.240972	-0.794427	-0.795743	-0.015070	45.9361	-0.794181	-3.748502E+10	4.020296E-13	NaN
358	1.000000	0.282312	7.36856e+06	-56539.1	955.818	-29739	0.000000	0.000000	6.282834	-0.107437	NaN	0.000000	0.001543	0.001723	28.0817	0.083323	0.002051	40.619	-119.91	-168.232	-0.042012	0.281036	-0.754402	-0.755679	-0.107437	40.619	-0.752419	-1.014242E+10	1.059284E-11	NaN
358	1.000000	0.322349	7.36856e+06	-56539.1	955.819	-29739	0.000000	0.000000	6.322875	-0.005618	NaN	0.000000	0.001580	0.001751	28.0818	0.146557	0.002080	70.4597	43.0856	-165.144	-0.035380	0.321003	-0.714366	-0.715711	-0.005618	70.4597	-0.714306	-3.067659E+9	1.831443E-12	NaN
358	1.000000	0.362330	7.36856e+06	-56539.1	955.818	-29739	0.000000	0.000000	6.362855	-0.027615	NaN	0.000000	0.001532	0.001780	28.0817	0.075314	0.002000	37.6608	-93.9324	-163.872	-0.053768	0.361049	-0.674385	-0.675666	-0.027615	37.6608	-0.673835	-8.587561E+8	3.215704E-11	NaN
358	1.000000	0.402370	7.36856e+06	-56539.1	955.818	-29739	0.000000	0.000000	6.402894	-0.057196	NaN	0.000000	0.001503	0.001735	28.0804	0.013504	0.001962	6.881126	-116.009	-166.064	0.017071	0.401072	-0.634344	-0.635643	-0.057196	6.881126	-0.628110	-2.028023E+8	2.820276E-10	NaN
358	1.000000	0.442378	7.36856e+06	-56539.1	955.819	-29739	0.000000	0.000000	6.442902	-0.050395	NaN	0.000000	0.001512	0.001710	28.0805	0.073496	0.001994	36.8498	59.2616	-164.723	-0.040059	0.441088	-0.594337	-0.595626	-0.050395	36.8498	-0.593311	-6.734569E+7	7.482986E-10	NaN
358	1.000000	0.482409	7.36856e+06	-56539.1	955.819	-29739.1	0.000000	0.000000	6.482936	0.023046	NaN	0.000000	0.001525	0.001707	28.0808	0.123801	0.002078	59.5777	-84.3367	-167.255	0.092765	0.481122	-0.554306	-0.555592	0.023046	59.5777	-0.554596	-1.966052E+7	-1.172204E-9	NaN
358	1.000000	0.522413	7.36856e+06	-56539.1	955.818	-29739.1	0.000000	0.000000	6.522941	0.016267	NaN	0.000000	0.001573	0.001746	28.0821	0.091894	0.001988	46.219	147.171	-166.032	-0.022244	0.521137	-0.514301	-0.515578	0.016267	46.219	-0.514565	-5.4699e+06	-2.973935E-9	NaN
358	1.000000	0.562453	7.36856e+06	-56539.1	955.818	-29739.1	0.000000	0.000000	6.562980	-0.006009	NaN	0.000000	0.001548	0.001730	28.082	0.072701	0.001876	38.7502	-176.299	-165.793	0.028039	0.561132	-0.474261	-0.475582	-0.006009	38.7502	-0.474145	-1.49113e+06	4.029681E-9	NaN
358	1.000000	0.602445	7.36856e+06	-56539.1	955.819	-29739.1	0.000000	0.000000	6.602970	-0.016422	NaN	0.000000	0.001517	0.001743	28.0817	0.037550	0.002052	18.295	130.08	-166.438	-0.123711	0.601149	-0.434270	-0.435565	-0.016422	18.295	-0.433597	-400796	4.097462E-8	NaN
358	1.000000	0.642484	7.36856e+06	-56539.1	955.818	-29739.1	0.000000	0.000000	6.643011	-0.002157	NaN	0.000000	0.001472	0.001751	28.0809	0.084918	0.002082	40.7958	110.976	-164.184	-0.036257	0.641166	-0.394230	-0.395548	-0.002157	40.7958	-0.394191	-110426	1.953279E-8	NaN
358	1.000000	0.682508	7.36856e+06	-56539.1	955.819	-29739.1	0.000000	0.000000	6.683033	-0.040192	NaN	0.000000	0.001632	0.001738	28.0801	0.064331	0.002085	30.8538	-113.787	-164.729	-0.008206	0.681129	-0.354207	-0.355586	-0.040192	30.8538	-0.353230	-28434.4	1.413508E-6	NaN
358	1.000000	0.722505	7.36857e+06	-56539.1	955.818	-29739.1	0.000000	0.000000	6.723029	-0.057584	NaN	0.000000	0.001554	0.001716	28.08	0.040551	0.001909	21.238	121.564	-164.183	0.008891	0.721235	-0.314210	-0.315479	-0.057584	21.238	-0.312176	-7132.52	8.073477E-6	NaN
358	1.000000	0.762537	7.36857e+06	-56539.1	955.819	-29739.1	0.000000	0.000000	6.763062	-0.032049	NaN	0.000000	0.001524	0.001723	28.0803	0.081068	0.002081	38.9637	-175.154	-165.422	-0.080592	0.761214	-0.274178	-0.275500	-0.032049	38.9637	-0.273561	-1886.25	1.699110E-5	NaN
358	1.000000	0.802537	7.36857e+06	-56539.1	955.819	-29739.1	0.000000	0.000000	6.803060	-0.082544	NaN	0.000000	0.001502	0.001753	28.0815	0.063066	0.001872	33.6808	48.6488	-165.418	-0.033701	0.801282	-0.234178	-0.235432	-0.082544	33.6808	-0.232340	-435.925	0.000189	NaN
358	1.000000	0.842552	7.36857e+06	-56539.1	955.819	-29739.1	0.000000	0.000000	6.843079	0.032707	NaN	0.000000	0.001525	0.001770	28.0814	0.041017	0.002029	20.2169	-20.9967	-165.152	0.024502	0.841258	-0.194163	-0.195457	0.032707	20.2169	-0.195376	-110.519	-0.000296	NaN
358	1.000000	0.882566	7.36857e+06	-56539.1	955.819	-29739.1	0.000000	0.000000	6.883090	-0.055336	NaN	0.000000	0.001536	0.001742	28.0816	0.018790	0.002042	9.203050	-105.172	-163.281	0.012094	0.881235	-0.154148	-0.155480	-0.055336	9.203050	-0.149639	-17.8408	0.003102	NaN
358	1.000000	0.922566	7.36857e+06	-56539.1	955.819	-29739.1	0.000000	0.000000	6.923092	-0.037822	NaN	0.000000	0.001465	0.001744	28.0804	0.081808	0.001948	41.9917	-147.257	-163.646	-0.058371	0.921312	-0.114148	-0.115402	-0.037822	41.9917	-0.113473	-3.552322	0.010647	NaN
358	1.000000	0.962622	7.36857e+06	-56539.1	955.818	-29739.1	0.000000	0.000000	6.963149	0.014118	NaN	0.000000	0.001567	0.001716	28.0822	0.059041	0.001916	30.81	-130.084	-164.666	0.039226	0.961316	-0.074093	-0.075398	0.014118	30.81	-0.074436	-0.446590	-0.031612	NaN
358	1.000000	1.002612	7.36857e+06	-56539.1	955.817	-29739.1	0.000000	0.000000	7.003139	-0.005914	NaN	0.000000	0.001598	0.001766	28.0808	0.045626	0.002004	22.7673	104.925	-169.779	0.011901	1.001336	-0.034102	-0.035379	-0.005914	22.7673	-0.033907	-0.029748	0.198790	NaN
358	1.000000	1.042611	7.36857e+06	-56539.1	955.818	-29739.1	0.000000	0.000000	7.043263	3.058786	NaN	0.000000	0.001604	0.001812	28.0805	3.700376	0.001795	2062.01	11.6281	-167.104	2.053460	1.041265	0.005896	0.004551	3.058786	2062.01	0.004784	0.003937	776.949	30025.2
358	2.000000	1.057106	7.36857e+06	-56539.1	955.82	-29739.1	0.000000	0.000000	7.058545	22.1717	NaN	0.000000	0.001539	0.001766	28.0813	18.6786	0.001863	10025.3	11.0547	-178.313	22.7401	1.056771	0.020391	0.020056	22.1717	10025.3	0.018733	0.020590	1076.83	63832.9
358	2.000000	1.067107	7.36857e+06	-56539.1	955.821	-29739.1	0.000000	0.000000	7.069329	41.2108	NaN	0.000000	0.001521	0.001762	28.0812	28.1171	0.001695	16592.4	6.230276	179.136	40.6073	1.066786	0.030392	0.030071	41.2108	16592.4	0.028529	0.037750	1091.67	78022.7
358	2.000000	1.077023	7.36857e+06	-56539.1	955.82	-29739.1	0.000000	0.000000	7.080505	71.8245	NaN	0.000000	0.001555	0.001809	28.0815	38.6112	0.001856	20804.1	3.991157	-179.66	70.3635	1.076839	0.040309	0.040125	71.8245	20804.1	0.037719	0.058267	1232.67	78742.4
358	2.000000	1.087013	7.36857e+06	-56539.1	955.82	-29739.1	0.000000	0.000000	7.092150	112.07	NaN	0.000000	0.001623	0.001785	28.0803	47.381	0.001774	26704.4	5.199390	176.916	110.195	1.086711	0.050298	0.049996	112.07	26704.4	0.047151	0.083811	1337.18	84276.6
358	2.000000	1.097038	7.36857e+06	-56539.1	955.82	-29739.1	0.000000	0.000000	7.103681	148.663	NaN	0.000000	0.001559	0.001767	28.0804	58.491	0.001875	31193.2	9.101295	171.803	149.203	1.096826	0.060324	0.060112	148.663	31193.2	0.056749	0.114410	1299.39	84256.2
358	2.000000	1.107009	7.36857e+06	-56539.1	955.82	-29739.1	0.000000	0.000000	7.115580	195.527	NaN	0.000000	0.001557	0.001766	28.0803	67.2737	0.001788	37628.7	5.061395	173.816	193.574	1.106689	0.070294	0.069974	195.527	37628.7	0.066397	0.149741	1305.77	88842.9
358	2.000000	1.117047	7.36857e+06	-56539.1	955.82	-29739.1	0.000000	0.000000	7.128003	253.485	NaN	0.000000	0.001570	0.001798	28.0803	78.4928	0.001823	43058	8.085592	169.46	256.089	1.116795	0.080333	0.080081	253.485	43058	0.075917	0.188989	1341.27	90491.7
358	2.000000	1.127020	7.36857e+06	-56539.1	955.82	-29739.1	0.000000	0.000000	7.140958	325.986	NaN	0.000000	0.001563	0.001773	28.0819	88.0372	0.001829	48121	5.565037	172.597	327.667	1.126649	0.090306	0.089934	325.986	48121	0.085225	0.231476	1408.29	91380.8
358	2.000000	1.137026	7.36857e+06	-56539.1	955.82	-29739.1	0.000000	0.000000	7.153576	389.448	NaN	0.000000	0.001644	0.001766	28.0816	97.893	0.001726	56723.8	2.200762	173.841	387.698	1.136802	0.100312	0.100088	389.448	56723.8	0.095163	0.281255	1384.68	97721.2
358	2.000000	1.147144	7.36857e+06	-56539.1	955.819	-29739.1	0.000000	0.000000	7.167048	471.003	NaN	0.000000	0.001622	0.001815	28.0815	108.667	0.001891	57456.7	7.297488	169.259	480.958	1.146767	0.110429	0.110053	471.003	57456.7	0.104281	0.330897	1423.41	91257.3