File: remote_trans/data/nanoindenter/0828-1/data/Data_2025-08-06,11h17m57s/2025-07-22_16-23-58_1_395.txt
2025-07-22, 16:23:58, 1
Index	Phase	Displacement	Time	Pos X	Pos Y	Pos Z	Rot A	Rot B	Piezo Z	Force A	Force B	Gripper	Voltage A	Voltage B	Temperature	Amplitude force	Amplitude pos	Stiffness	Phase shift	Phase excitation	Force A raw	Displacement raw	HMax	HMax raw	Real Force	Real Stiffness	Contact Depth	Area	Hardness	Reduced Mod.
[#]	[#]	[um]	[s]	[um]	[um]	[um]	[m°]	[m°]	[um]	[uN]	[uN]	[V]	[V]	[V]	[°C]	[uN]	[um]	[N/m]	[°]	[°]	[uN]	[um]	[um]	[um]	[uN]	[N/m]	[um]	[um^2]	[MPa]	[MPa]
395	1.000000	0.002976	7.36892e+06	-57339.1	1005.82	-29737.2	0.000000	0.000000	6.002790	0.027293	NaN	0.000000	0.001643	0.001616	28.0786	0.045180	0.000912	49.5272	-45.2973	-166.269	0.017553	0.001718	-1.095167	-1.096424	0.027293	49.5272	-1.095580	-4.372492E+14	-6.241937E-17	NaN
395	1.000000	0.044934	7.36892e+06	-57339.1	1005.82	-29737.2	0.000000	0.000000	6.044750	0.068674	NaN	0.000000	0.001646	0.001654	28.0796	0.074554	0.001848	40.3399	16.607	12.2329	0.076719	0.043602	-1.053208	-1.054541	0.068674	40.3399	-1.054485	-1.226604E+14	-5.598723E-16	NaN
395	1.000000	0.086966	7.36892e+06	-57339.1	1005.82	-29737.2	0.000000	0.000000	6.086776	-0.070321	NaN	0.000000	0.001569	0.001673	28.0793	0.065818	0.001943	33.8688	108.101	-166.437	-0.117496	0.085629	-1.011176	-1.012514	-0.070321	33.8688	-1.009619	-3.056684E+13	2.300562E-15	NaN
395	1.000000	0.128986	7.36892e+06	-57339.1	1005.82	-29737.2	0.000000	0.000000	6.128799	0.016506	NaN	0.000000	0.001663	0.001639	28.0793	0.069580	0.001990	34.9669	158.445	14.1759	0.048884	0.127609	-0.969156	-0.970533	0.016506	34.9669	-0.969510	-8.811825E+12	-1.873212E-15	NaN
395	1.000000	0.170978	7.36893e+06	-57339.1	1005.82	-29737.2	0.000000	0.000000	6.170791	-0.000546	NaN	0.000000	0.001674	0.001640	28.0779	0.078155	0.001980	39.4714	-5.480861	-167.089	0.034885	0.169667	-0.927164	-0.928476	-0.000546	39.4714	-0.927154	-2.364736E+12	2.309699E-16	NaN
395	1.000000	0.212993	7.36893e+06	-57339.1	1005.82	-29737.2	0.000000	0.000000	6.212804	-0.047120	NaN	0.000000	0.001586	0.001629	28.078	0.101120	0.001956	51.6991	-92.5017	16.5245	-0.001396	0.211655	-0.885149	-0.886487	-0.047120	51.6991	-0.884465	-6.267451E+11	7.518241E-14	NaN
395	1.000000	0.255016	7.36893e+06	-57339.1	1005.82	-29737.2	0.000000	0.000000	6.254828	-0.012099	NaN	0.000000	0.001627	0.001627	28.0779	0.071377	0.001958	36.4607	173.811	-162.973	-0.030649	0.253698	-0.843126	-0.844445	-0.012099	36.4607	-0.842878	-1.715038E+11	7.054632E-14	NaN
395	1.000000	0.297040	7.36893e+06	-57339.1	1005.82	-29737.2	0.000000	0.000000	6.296853	-0.012829	NaN	0.000000	0.001629	0.001652	28.0778	0.048645	0.001912	25.4419	160.244	14.893	-0.113150	0.295661	-0.801102	-0.802482	-0.012829	25.4419	-0.800724	-4.599239E+10	2.789404E-13	NaN
395	1.000000	0.339096	7.36893e+06	-57339.1	1005.82	-29737.2	0.000000	0.000000	6.338905	-0.095463	NaN	0.000000	0.001622	0.001626	28.0793	0.096011	0.002010	47.7609	-97.2553	-166.807	0.060944	0.337707	-0.759046	-0.760435	-0.095463	47.7609	-0.757547	-1.191041E+10	8.015051E-12	NaN
395	1.000000	0.381080	7.36893e+06	-57339.1	1005.82	-29737.2	0.000000	0.000000	6.380892	-0.007264	NaN	0.000000	0.001688	0.001613	28.0794	0.090494	0.001966	46.0393	-127.417	12.8158	-0.046092	0.379749	-0.717062	-0.718394	-0.007264	46.0393	-0.716944	-3.332679E+9	2.179589E-12	NaN
395	1.000000	0.423097	7.36893e+06	-57339.1	1005.82	-29737.2	0.000000	0.000000	6.422911	0.026433	NaN	0.000000	0.001660	0.001654	28.0793	0.111341	0.002049	54.3413	-62.4811	-164.463	0.066506	0.421802	-0.675045	-0.676341	0.026433	54.3413	-0.675410	-9.024352E+8	-2.929031E-11	NaN
395	1.000000	0.465113	7.36893e+06	-57339.1	1005.82	-29737.2	0.000000	0.000000	6.464924	-0.037579	NaN	0.000000	0.001609	0.001649	28.078	0.135751	0.001958	69.3338	50.2768	12.0181	-0.058086	0.463764	-0.633030	-0.634378	-0.037579	69.3338	-0.632623	-2.339062E+8	1.606590E-10	NaN
395	1.000000	0.507125	7.36893e+06	-57339.1	1005.82	-29737.2	0.000000	0.000000	6.506939	0.030264	NaN	0.000000	0.001641	0.001654	28.078	0.046940	0.002035	23.0624	11.3727	-168.021	-0.060330	0.505805	-0.591017	-0.592337	0.030264	23.0624	-0.592001	-6.460329E+7	-4.684635E-10	NaN
395	1.000000	0.549178	7.36893e+06	-57339.1	1005.82	-29737.2	0.000000	0.000000	6.548990	-0.017439	NaN	0.000000	0.001650	0.001641	28.0779	0.075366	0.002101	35.8738	21.3769	12.7635	0.001629	0.547779	-0.548964	-0.550363	-0.017439	35.8738	-0.548600	-1.623892E+7	1.073911E-9	NaN
395	1.000000	0.591163	7.36893e+06	-57339.1	1005.82	-29737.2	0.000000	0.000000	6.590980	0.093224	NaN	0.000000	0.001674	0.001618	28.0792	0.063366	0.001988	31.8761	63.2524	-165.414	0.083667	0.589856	-0.506979	-0.508286	0.093224	31.8761	-0.509173	-4.6014e+06	-2.025992E-8	NaN
395	1.000000	0.633166	7.36893e+06	-57339.1	1005.82	-29737.2	0.000000	0.000000	6.632977	-0.034632	NaN	0.000000	0.001650	0.001687	28.0791	0.008987	0.002027	4.433797	130.048	17.3559	-0.063913	0.631781	-0.464977	-0.466362	-0.034632	4.433797	-0.459118	-917545	3.774393E-8	NaN
395	1.000000	0.675221	7.36893e+06	-57339.1	1005.82	-29737.2	0.000000	0.000000	6.675033	-0.024370	NaN	0.000000	0.001594	0.001623	28.0792	0.060337	0.002075	29.0751	171.454	-168.071	0.032726	0.673932	-0.422921	-0.424210	-0.024370	29.0751	-0.422292	-277278	8.789074E-8	NaN
395	1.000000	0.717241	7.36893e+06	-57339.1	1005.82	-29737.2	0.000000	0.000000	6.717053	-0.023685	NaN	0.000000	0.001631	0.001644	28.0777	0.030587	0.002084	14.6781	163.509	13.5207	-0.046483	0.715833	-0.380901	-0.382309	-0.023685	14.6781	-0.379691	-68462.7	3.459587E-7	NaN
395	1.000000	0.759241	7.36893e+06	-57339.1	1005.82	-29737.2	0.000000	0.000000	6.759052	-0.025523	NaN	0.000000	0.001592	0.001681	28.078	0.046033	0.001963	23.4538	91.5629	-169.446	0.040320	0.757951	-0.338902	-0.340191	-0.025523	23.4538	-0.338085	-17125.2	1.490383E-6	NaN
395	1.000000	0.801247	7.36893e+06	-57339.1	1005.82	-29737.2	0.000000	0.000000	6.801058	-0.028262	NaN	0.000000	0.001637	0.001632	28.078	0.068112	0.001931	35.2641	-36.8287	18.5628	0.019303	0.799905	-0.296896	-0.298238	-0.028262	35.2641	-0.296295	-4143.92	6.820016E-6	NaN
395	1.000000	0.843258	7.36893e+06	-57339.1	1005.82	-29737.2	0.000000	0.000000	6.843069	-0.029989	NaN	0.000000	0.001562	0.001654	28.0781	0.043725	0.001970	22.1985	-139.32	-163.847	-0.075507	0.841935	-0.254885	-0.256207	-0.029989	22.1985	-0.253871	-943.483	3.178569E-5	NaN
395	1.000000	0.885303	7.36893e+06	-57339.1	1005.82	-29737.2	0.000000	0.000000	6.885114	-0.047777	NaN	0.000000	0.001603	0.001652	28.0793	0.085673	0.001937	44.2232	-1.432873	13.7047	-0.023656	0.883896	-0.212839	-0.214246	-0.047777	44.2232	-0.212029	-206.837	0.000231	NaN
395	1.000000	0.927298	7.36893e+06	-57339.1	1005.82	-29737.2	0.000000	0.000000	6.927108	-0.061398	NaN	0.000000	0.001600	0.001659	28.0792	0.033494	0.002042	16.4013	-35.7331	-169.89	-0.057787	0.926038	-0.170845	-0.172104	-0.061398	16.4013	-0.168037	-37.9711	0.001617	NaN
395	1.000000	0.969351	7.36893e+06	-57339.1	1005.82	-29737.2	0.000000	0.000000	6.969162	-0.030981	NaN	0.000000	0.001640	0.001680	28.0793	0.036913	0.001932	19.1023	-114.334	9.309401	-0.015507	0.967937	-0.128792	-0.130205	-0.030981	19.1023	-0.127575	-6.834466	0.004533	NaN
395	1.000000	1.011321	7.36893e+06	-57339.1	1005.82	-29737.2	0.000000	0.000000	7.011133	-0.022699	NaN	0.000000	0.001661	0.001671	28.0781	0.130628	0.002023	64.5635	-144.346	-167.363	0.032306	1.010046	-0.086821	-0.088096	-0.022699	64.5635	-0.086557	-0.895741	0.025341	NaN
395	1.000000	1.053337	7.36893e+06	-57339.1	1005.82	-29737.2	0.000000	0.000000	7.053150	0.008616	NaN	0.000000	0.001662	0.001666	28.078	0.006607	0.001961	3.368807	-8.122115	15.8784	-0.032882	1.052007	-0.044805	-0.046135	0.008616	3.368807	-0.046724	-0.072553	-0.118755	NaN
395	1.000000	1.095381	7.36893e+06	-57339.1	1005.82	-29737.2	0.000000	0.000000	7.095193	-0.034294	NaN	0.000000	0.001634	0.001617	28.0779	0.046612	0.002131	21.8781	178.999	-163.569	-0.148619	1.094094	-0.002761	-0.004048	-0.034294	21.8781	-0.001585	-0.001150	29.8289	NaN
395	2.000000	1.115501	7.36893e+06	-57339.1	1005.82	-29737.2	0.000000	0.000000	7.115946	15.3842	NaN	0.000000	0.001609	0.001654	28.0795	15.2214	0.001815	8385.98	6.871123	6.303262	15.9767	1.115124	0.017358	0.016982	15.3842	8385.98	0.015982	0.016618	925.771	59434.8
395	2.000000	1.125919	7.36893e+06	-57339.1	1005.82	-29737.2	0.000000	0.000000	7.127208	35.8655	NaN	0.000000	0.001580	0.001647	28.0793	25.9447	0.001707	15199.3	5.144684	-179.534	34.3567	1.125614	0.027777	0.027472	35.8655	15199.3	0.026007	0.032873	1091.02	76590.4
395	2.000000	1.136433	7.36893e+06	-57339.1	1005.82	-29737.2	0.000000	0.000000	7.138790	61.8357	NaN	0.000000	0.001617	0.001636	28.0793	37.1681	0.001777	20914.9	3.799636	-0.321631	62.0234	1.136072	0.038291	0.037929	61.8357	20914.9	0.036074	0.054275	1139.29	82021.4
395	2.000000	1.146869	7.36893e+06	-57339.1	1005.82	-29737.2	0.000000	0.000000	7.150972	104.274	NaN	0.000000	0.001556	0.001668	28.0778	47.3687	0.001731	27358.4	3.844779	177.45	101.922	1.146590	0.048727	0.048447	104.274	27358.4	0.045868	0.080071	1302.28	88333.8
395	2.000000	1.157393	7.36893e+06	-57339.1	1005.82	-29737.2	0.000000	0.000000	7.163273	147.459	NaN	0.000000	0.001585	0.001686	28.0785	57.0165	0.001683	33869.9	4.591938	-5.388726	145.818	1.157088	0.059251	0.058945	147.459	33869.9	0.055985	0.111807	1318.86	92544.9
395	2.000000	1.167814	7.36893e+06	-57339.1	1005.82	-29737.2	0.000000	0.000000	7.176314	211.124	NaN	0.000000	0.001585	0.001687	28.0784	67.7855	0.001823	37180.2	1.134408	178.112	205.741	1.167532	0.069672	0.069389	211.124	37180.2	0.065413	0.145932	1446.72	88922.1
395	2.000000	1.178323	7.36893e+06	-57339.1	1005.82	-29737.2	0.000000	0.000000	7.189083	266.059	NaN	0.000000	0.001593	0.001660	28.0781	79.2671	0.001846	42928.4	6.465909	-9.262752	262.238	1.178114	0.080181	0.079972	266.059	42928.4	0.075532	0.187318	1420.36	90620.8
395	2.000000	1.188736	7.36893e+06	-57339.1	1005.82	-29737.2	0.000000	0.000000	7.202942	349.825	NaN	0.000000	0.001611	0.001679	28.079	86.1249	0.001735	49641.1	0.325482	176.817	344.76	1.188396	0.090594	0.090253	349.825	49641.1	0.085309	0.231876	1508.67	94186.2
395	2.000000	1.199307	7.36893e+06	-57339.1	1005.82	-29737.2	0.000000	0.000000	7.216489	422.139	NaN	0.000000	0.001577	0.001668	28.079	99.3105	0.001821	54547.2	9.690296	-13.6035	419.583	1.198809	0.101165	0.100667	422.139	54547.2	0.095361	0.282292	1495.4	93798.6
395	2.000000	1.206799	7.36893e+06	-57339.1	1005.82	-29737.2	0.000000	0.000000	7.226153	474.946	NaN	0.000000	0.001625	0.001664	28.0792	103.942	0.001810	57425.1	5.725229	169.843	472.428	1.206606	0.108656	0.108464	474.946	57425.1	0.102453	0.320643	1481.23	92654.1