File: remote_trans/data/nanoindenter/0828-1/data/Data_2025-08-06,11h17m57s/2025-07-22_16-23-58_1_1149.txt
2025-07-22, 16:23:58, 1
Index	Phase	Displacement	Time	Pos X	Pos Y	Pos Z	Rot A	Rot B	Piezo Z	Force A	Force B	Gripper	Voltage A	Voltage B	Temperature	Amplitude force	Amplitude pos	Stiffness	Phase shift	Phase excitation	Force A raw	Displacement raw	HMax	HMax raw	Real Force	Real Stiffness	Contact Depth	Area	Hardness	Reduced Mod.
[#]	[#]	[um]	[s]	[um]	[um]	[um]	[m°]	[m°]	[um]	[uN]	[uN]	[V]	[V]	[V]	[°C]	[uN]	[um]	[N/m]	[°]	[°]	[uN]	[um]	[um]	[um]	[uN]	[N/m]	[um]	[um^2]	[MPa]	[MPa]
1149	1.000000	0.002459	7.3763e+06	-57589.1	1055.82	-29736.6	0.000000	0.000000	6.002817	-0.041840	NaN	0.000000	0.001561	0.001727	28.0814	0.059558	0.001022	58.2568	-14.4321	-171.308	-0.027772	0.001162	-1.172985	-1.174283	-0.041840	58.2568	-1.172447	-4.695395E+15	8.910803E-18	NaN
1149	1.000000	0.046401	7.3763e+06	-57589.1	1055.82	-29736.6	0.000000	0.000000	6.046760	0.005783	NaN	0.000000	0.001537	0.001738	28.0812	0.100298	0.001942	51.6407	115.46	-164.71	0.038099	0.045102	-1.129044	-1.130343	0.005783	51.6407	-1.129128	-1.232899E+15	-4.690288E-18	NaN
1149	1.000000	0.090446	7.3763e+06	-57589.1	1055.82	-29736.6	0.000000	0.000000	6.090804	-0.027016	NaN	0.000000	0.001597	0.001707	28.0826	0.113240	0.001995	56.7755	-88.315	-167.656	-0.028850	0.089110	-1.084999	-1.086335	-0.027016	56.7755	-1.084642	-3.117894E+14	8.664870E-17	NaN
1149	1.000000	0.134426	7.3763e+06	-57589.1	1055.82	-29736.6	0.000000	0.000000	6.134785	-0.006474	NaN	0.000000	0.001562	0.001709	28.0825	0.074730	0.002102	35.5439	29.8188	-163.311	-0.063204	0.133146	-1.041019	-1.042299	-0.006474	35.5439	-1.040882	-8.050607E+13	8.041463E-17	NaN
1149	1.000000	0.178448	7.3763e+06	-57589.1	1055.82	-29736.6	0.000000	0.000000	6.178805	-0.064684	NaN	0.000000	0.001569	0.001732	28.0823	0.106214	0.001988	53.4401	153.052	-165.031	-0.007284	0.177118	-0.996997	-0.998327	-0.064684	53.4401	-0.996089	-2.009597E+13	3.218744E-15	NaN
1149	1.000000	0.222459	7.3763e+06	-57589.1	1055.82	-29736.6	0.000000	0.000000	6.222815	-0.087021	NaN	0.000000	0.001663	0.001725	28.0814	0.054377	0.002005	27.1162	-111.206	-164.881	-0.067476	0.221160	-0.952986	-0.954285	-0.087021	27.1162	-0.950579	-4.895968E+12	1.777397E-14	NaN
1149	1.000000	0.266457	7.3763e+06	-57589.1	1055.82	-29736.6	0.000000	0.000000	6.266814	-0.050406	NaN	0.000000	0.001628	0.001713	28.0818	0.100293	0.001989	50.4358	12.3907	-165.572	-0.041936	0.265167	-0.908988	-0.910278	-0.050406	50.4358	-0.908238	-1.313306E+12	3.838075E-14	NaN
1149	1.000000	0.310473	7.3763e+06	-57589.1	1055.82	-29736.6	0.000000	0.000000	6.310830	-0.037491	NaN	0.000000	0.001642	0.001753	28.0814	0.030080	0.001931	15.5769	-164.197	-168.123	0.013873	0.309200	-0.864972	-0.866245	-0.037491	15.5769	-0.863167	-3.228393E+11	1.161301E-13	NaN
1149	1.000000	0.354499	7.3763e+06	-57589.1	1055.82	-29736.6	0.000000	0.000000	6.354855	-0.068355	NaN	0.000000	0.001626	0.001726	28.0826	0.038332	0.001997	19.1983	-170.713	-166.336	-0.068317	0.353233	-0.820946	-0.822212	-0.068355	19.1983	-0.818276	-7.958454E+10	8.589015E-13	NaN
1149	1.000000	0.398539	7.3763e+06	-57589.1	1055.82	-29736.6	0.000000	0.000000	6.398892	-0.143867	NaN	0.000000	0.001556	0.001790	28.0827	0.076328	0.002073	36.8157	-146.87	-163.885	-0.111919	0.397244	-0.776906	-0.778201	-0.143867	36.8157	-0.773976	-1.992289E+10	7.221210E-12	NaN
1149	1.000000	0.442557	7.3763e+06	-57589.1	1055.82	-29736.6	0.000000	0.000000	6.442915	-0.030544	NaN	0.000000	0.001605	0.001752	28.0829	0.097648	0.001998	48.8762	92.0841	-166.706	-0.053895	0.441267	-0.732888	-0.734178	-0.030544	48.8762	-0.732420	-5.417306E+9	5.638282E-12	NaN
1149	1.000000	0.486583	7.3763e+06	-57589.1	1055.82	-29736.6	0.000000	0.000000	6.486938	-0.099352	NaN	0.000000	0.001558	0.001760	28.0815	0.015166	0.001926	7.874890	165.946	-168.964	-0.159341	0.485286	-0.688862	-0.690159	-0.099352	7.874890	-0.679400	-1.023297E+9	9.709001E-11	NaN
1149	1.000000	0.530577	7.3763e+06	-57589.1	1055.82	-29736.6	0.000000	0.000000	6.530936	-0.011759	NaN	0.000000	0.001607	0.001796	28.0813	0.034574	0.002050	16.8694	-164.729	-163.591	-0.025647	0.529260	-0.644867	-0.646185	-0.011759	16.8694	-0.644345	-3.387575E+8	3.471140E-11	NaN
1149	1.000000	0.574605	7.3763e+06	-57589.1	1055.82	-29736.6	0.000000	0.000000	6.574963	-0.019100	NaN	0.000000	0.001614	0.001749	28.0816	0.084853	0.002007	42.2873	-166.475	-168.886	-0.013001	0.573347	-0.600840	-0.602098	-0.019100	42.2873	-0.600502	-8.459966E+7	2.257672E-10	NaN
1149	1.000000	0.618651	7.3763e+06	-57589.1	1055.82	-29736.6	0.000000	0.000000	6.619009	-0.031897	NaN	0.000000	0.001620	0.001739	28.0828	0.119116	0.002039	58.4279	45.0212	-165.332	-0.033835	0.617312	-0.556794	-0.558133	-0.031897	58.4279	-0.556385	-2.081386E+7	1.532479E-9	NaN
1149	1.000000	0.662640	7.3763e+06	-57589.1	1055.82	-29736.6	0.000000	0.000000	6.662992	-0.165924	NaN	0.000000	0.001602	0.001698	28.0834	0.053905	0.001957	27.5415	-36.5086	-165.155	-0.114079	0.661359	-0.512805	-0.514086	-0.165924	27.5415	-0.508286	-4.47245e+06	3.709922E-8	NaN
1149	1.000000	0.706685	7.3763e+06	-57589.1	1055.82	-29736.6	0.000000	0.000000	6.707045	0.004135	NaN	0.000000	0.001608	0.001730	28.083	0.045062	0.002005	22.476	137.124	-165.387	-0.014363	0.705331	-0.468760	-0.470113	0.004135	22.476	-0.468898	-1.25877e+06	-3.285293E-9	NaN
1149	1.000000	0.750671	7.3763e+06	-57589.1	1055.82	-29736.6	0.000000	0.000000	6.751026	-0.115255	NaN	0.000000	0.001577	0.001743	28.0815	0.044550	0.002006	22.2127	87.7184	-165.574	-0.174128	0.749402	-0.424773	-0.426042	-0.115255	22.2127	-0.420882	-264802	4.352515E-7	NaN
1149	1.000000	0.794703	7.3763e+06	-57589.1	1055.82	-29736.6	0.000000	0.000000	6.795060	-0.064522	NaN	0.000000	0.001580	0.001720	28.0816	0.034445	0.002164	15.9158	-54.8318	-167.205	-0.075416	0.793361	-0.380742	-0.382083	-0.064522	15.9158	-0.377701	-64104	1.006526E-6	NaN
1149	1.000000	0.838727	7.3763e+06	-57589.1	1055.82	-29736.6	0.000000	0.000000	6.839087	-0.000198	NaN	0.000000	0.001594	0.001767	28.0817	0.211856	0.002042	103.729	107.833	-168.551	0.071889	0.837458	-0.336718	-0.337986	-0.000198	103.729	-0.336716	-16355	1.211768E-8	NaN
1149	1.000000	0.882737	7.3763e+06	-57589.1	1055.82	-29736.6	0.000000	0.000000	6.883095	-0.024718	NaN	0.000000	0.001612	0.001758	28.0819	0.058859	0.002090	28.1673	164.466	-169.092	-0.052786	0.881439	-0.292708	-0.294006	-0.024718	28.1673	-0.292050	-3580.92	6.902801E-6	NaN
1149	1.000000	0.926752	7.3763e+06	-57589.1	1055.82	-29736.6	0.000000	0.000000	6.927109	-0.079336	NaN	0.000000	0.001572	0.001731	28.0831	0.131810	0.002200	59.9066	-179.97	-170.082	-0.089249	0.925409	-0.248692	-0.250036	-0.079336	59.9066	-0.247699	-757.432	0.000105	NaN
1149	1.000000	0.970766	7.3763e+06	-57589.1	1055.82	-29736.6	0.000000	0.000000	6.971124	-0.032536	NaN	0.000000	0.001577	0.001743	28.0833	0.038150	0.002140	17.8255	-86.6673	-164.089	-0.014720	0.969460	-0.204679	-0.205985	-0.032536	17.8255	-0.203310	-149.267	0.000218	NaN
1149	1.000000	1.014777	7.3763e+06	-57589.1	1055.82	-29736.6	0.000000	0.000000	7.015136	-0.017422	NaN	0.000000	0.001567	0.001728	28.083	0.152925	0.001939	78.8615	-149.012	-168.451	-0.075262	1.013452	-0.160667	-0.161993	-0.017422	78.8615	-0.160502	-27.9831	0.000623	NaN
1149	1.000000	1.058810	7.3763e+06	-57589.1	1055.82	-29736.6	0.000000	0.000000	7.059169	-0.000541	NaN	0.000000	0.001589	0.001756	28.0818	0.092179	0.002119	43.4927	3.635618	-167.184	0.009284	1.057498	-0.116635	-0.117947	-0.000541	43.4927	-0.116626	-4.125780	0.000131	NaN
1149	1.000000	1.102831	7.3763e+06	-57589.1	1055.82	-29736.6	0.000000	0.000000	7.103188	-0.054557	NaN	0.000000	0.001584	0.001737	28.0816	0.040177	0.002089	19.2336	-40.1884	-165.663	-0.053354	1.101563	-0.072614	-0.073882	-0.054557	19.2336	-0.070486	-0.351478	0.155223	NaN
1149	1.000000	1.146828	7.3763e+06	-57589.1	1055.82	-29736.6	0.000000	0.000000	7.147186	-0.027200	NaN	0.000000	0.001613	0.001727	28.0815	0.072019	0.001953	36.8727	-89.6062	-165.421	0.009639	1.145485	-0.028617	-0.029960	-0.027200	36.8727	-0.028064	-0.020356	1.336185	NaN
1149	2.000000	1.182296	7.3763e+06	-57589.1	1055.82	-29736.6	0.000000	0.000000	7.183409	18.3177	NaN	0.000000	0.001556	0.001745	28.0825	11.8144	0.001805	6546.2	1.532997	-170.847	17.3056	1.182033	0.006851	0.006588	18.3177	6546.2	0.004753	0.003909	4686.11	95660.7
1149	2.000000	1.193277	7.3763e+06	-57589.1	1055.82	-29736.6	0.000000	0.000000	7.195455	44.2065	NaN	0.000000	0.001600	0.001751	28.0838	23.4865	0.001901	12356.7	7.207803	179.651	43.5678	1.192952	0.017832	0.017507	44.2065	12356.7	0.015149	0.015484	2854.94	90725.9
1149	2.000000	1.204284	7.3763e+06	-57589.1	1055.82	-29736.6	0.000000	0.000000	7.207527	70.0764	NaN	0.000000	0.001609	0.001732	28.0828	32.9601	0.001815	18162.3	5.747291	178.506	71.5283	1.204004	0.028840	0.028559	70.0764	18162.3	0.025946	0.032759	2139.17	91681.2
1149	2.000000	1.215199	7.3763e+06	-57589.1	1055.82	-29736.6	0.000000	0.000000	7.219495	95.6765	NaN	0.000000	0.001661	0.001723	28.0817	41.6189	0.001835	22678.9	4.099249	177.826	93.3888	1.214946	0.039754	0.039501	95.6765	22678.9	0.036590	0.055513	1723.49	87942.2
1149	2.000000	1.226185	7.3763e+06	-57589.1	1055.82	-29736.6	0.000000	0.000000	7.232003	132.677	NaN	0.000000	0.001642	0.001680	28.0816	51.8366	0.001802	28760.2	2.911284	176.535	130.089	1.225982	0.050740	0.050538	132.677	28760.2	0.047280	0.084191	1575.9	90558.9
1149	2.000000	1.237270	7.3763e+06	-57589.1	1055.82	-29736.6	0.000000	0.000000	7.245187	183.675	NaN	0.000000	0.001587	0.001703	28.0814	61.5452	0.001826	33706.6	9.025786	170.986	185.975	1.236789	0.061826	0.061344	183.675	33706.6	0.057739	0.117824	1558.89	89716.1
1149	2.000000	1.248178	7.3763e+06	-57589.1	1055.82	-29736.6	0.000000	0.000000	7.258166	234.022	NaN	0.000000	0.001629	0.001724	28.083	73.0796	0.001824	40072	3.457239	173.624	232.312	1.247876	0.072733	0.072431	234.022	40072	0.068353	0.157453	1486.3	92265.4
1149	2.000000	1.259126	7.3763e+06	-57589.1	1055.82	-29736.6	0.000000	0.000000	7.271851	300.531	NaN	0.000000	0.001559	0.001705	28.0828	82.3451	0.001820	45239.3	4.806777	172.07	296.378	1.258733	0.083681	0.083288	300.531	45239.3	0.078699	0.201262	1493.23	92131.5
1149	2.000000	1.270118	7.3763e+06	-57589.1	1055.82	-29736.6	0.000000	0.000000	7.285912	375.141	NaN	0.000000	0.001548	0.001729	28.0825	92.2428	0.001797	51343.2	5.341432	170.488	373.549	1.269829	0.094673	0.094384	375.141	51343.2	0.089193	0.250808	1495.73	93666.8
1149	2.000000	1.278209	7.3763e+06	-57589.1	1055.82	-29736.6	0.000000	0.000000	7.296305	431.065	NaN	0.000000	0.001522	0.001733	28.0813	100.546	0.001819	55267.8	5.119170	170.124	434.031	1.277850	0.102764	0.102405	431.065	55267.8	0.096915	0.290500	1483.87	93685.6