File: remote_trans/data/nanoindenter/0828-1/data/Data_2025-08-06,11h17m57s/2025-07-22_16-23-58_1_252.txt
2025-07-22, 16:23:58, 1
Index	Phase	Displacement	Time	Pos X	Pos Y	Pos Z	Rot A	Rot B	Piezo Z	Force A	Force B	Gripper	Voltage A	Voltage B	Temperature	Amplitude force	Amplitude pos	Stiffness	Phase shift	Phase excitation	Force A raw	Displacement raw	HMax	HMax raw	Real Force	Real Stiffness	Contact Depth	Area	Hardness	Reduced Mod.
[#]	[#]	[um]	[s]	[um]	[um]	[um]	[m°]	[m°]	[um]	[uN]	[uN]	[V]	[V]	[V]	[°C]	[uN]	[um]	[N/m]	[°]	[°]	[uN]	[um]	[um]	[um]	[uN]	[N/m]	[um]	[um^2]	[MPa]	[MPa]
252	1.000000	0.002609	7.36751e+06	-51239.1	955.818	-29753.2	0.000000	0.000000	6.002809	-0.082967	NaN	0.000000	0.001604	0.001682	28.078	0.043338	0.001005	43.1144	-89.0449	-163.949	0.038062	0.001379	-1.156733	-1.157962	-0.082967	43.1144	-1.155290	-2.765225E+15	3.000388E-17	NaN
252	1.000000	0.046546	7.36751e+06	-51239.1	955.82	-29753.2	0.000000	0.000000	6.046746	-0.081052	NaN	0.000000	0.001533	0.001686	28.0776	0.018465	0.002060	8.964703	56.966	-165.782	-0.075808	0.045231	-1.112796	-1.114111	-0.081052	8.964703	-1.106015	-6.036768E+14	1.342647E-16	NaN
252	1.000000	0.090553	7.36751e+06	-51239.1	955.819	-29753.2	0.000000	0.000000	6.090757	0.016094	NaN	0.000000	0.001540	0.001675	28.0779	0.009762	0.001948	5.011335	-22.4884	-166	-0.019640	0.089265	-1.068788	-1.070076	0.016094	5.011335	-1.071197	-2.057174E+14	-7.823465E-17	NaN
252	1.000000	0.134613	7.36751e+06	-51239.1	955.818	-29753.2	0.000000	0.000000	6.134818	0.032318	NaN	0.000000	0.001616	0.001718	28.0789	0.031786	0.001890	16.8154	177.03	-165.369	0.002835	0.133245	-1.024728	-1.026097	0.032318	16.8154	-1.026170	-5.104573E+13	-6.331252E-16	NaN
252	1.000000	0.178602	7.36751e+06	-51239.1	955.818	-29753.2	0.000000	0.000000	6.178806	0.019215	NaN	0.000000	0.001612	0.001713	28.0788	0.072127	0.001988	36.2831	44.6749	-165.933	0.027714	0.177304	-0.980740	-0.982038	0.019215	36.2831	-0.981137	-1.263936E+13	-1.520266E-15	NaN
252	1.000000	0.222635	7.36751e+06	-51239.1	955.818	-29753.2	0.000000	0.000000	6.222840	0.047311	NaN	0.000000	0.001597	0.001662	28.0789	0.069909	0.002054	34.0369	-110.35	-164.139	0.073266	0.221373	-0.936707	-0.937969	0.047311	34.0369	-0.937749	-3.286759E+12	-1.439427E-14	NaN
252	1.000000	0.266631	7.36751e+06	-51239.1	955.818	-29753.2	0.000000	0.000000	6.266832	-0.057447	NaN	0.000000	0.001696	0.001685	28.0778	0.089089	0.001931	46.1448	-133.293	-166.543	-0.034978	0.265391	-0.892711	-0.893950	-0.057447	46.1448	-0.891777	-7.869295E+11	7.300188E-14	NaN
252	1.000000	0.310651	7.36752e+06	-51239.1	955.819	-29753.2	0.000000	0.000000	6.310854	0.010128	NaN	0.000000	0.001692	0.001707	28.0776	0.004846	0.001968	2.462774	128.662	-163.42	0.018268	0.309362	-0.848691	-0.849980	0.010128	2.462774	-0.851775	-2.263474E+11	-4.474522E-14	NaN
252	1.000000	0.354707	7.36752e+06	-51239.1	955.819	-29753.2	0.000000	0.000000	6.354910	-0.001322	NaN	0.000000	0.001685	0.001651	28.0775	0.031751	0.002053	15.4642	-78.2209	-165.443	0.003479	0.353332	-0.804635	-0.806010	-0.001322	15.4642	-0.804571	-5.186807E+10	2.549681E-14	NaN
252	1.000000	0.398700	7.36752e+06	-51239.1	955.818	-29753.2	0.000000	0.000000	6.398902	-0.018144	NaN	0.000000	0.001567	0.001693	28.0787	0.120328	0.002025	59.4244	102.424	-164.043	-0.019473	0.397400	-0.760642	-0.761942	-0.018144	59.4244	-0.760413	-1.302926E+10	1.392534E-12	NaN
252	1.000000	0.442725	7.36752e+06	-51239.1	955.819	-29753.2	0.000000	0.000000	6.442929	0.013155	NaN	0.000000	0.001603	0.001704	28.0788	0.052756	0.001936	27.2559	65.8336	-168.793	-0.048180	0.441426	-0.716617	-0.717916	0.013155	27.2559	-0.716979	-3.336296E+9	-3.942914E-12	NaN
252	1.000000	0.486736	7.36752e+06	-51239.1	955.818	-29753.2	0.000000	0.000000	6.486937	-0.049279	NaN	0.000000	0.001567	0.001713	28.0792	0.087737	0.002028	43.2572	-103.699	-166.44	-0.049487	0.485493	-0.672606	-0.673849	-0.049279	43.2572	-0.671752	-8.041976E+8	6.127764E-11	NaN
252	1.000000	0.530729	7.36752e+06	-51239.1	955.818	-29753.2	0.000000	0.000000	6.530933	0.003891	NaN	0.000000	0.001572	0.001649	28.0776	0.135391	0.002080	65.0882	130.43	-164.239	0.050877	0.529360	-0.628612	-0.629981	0.003891	65.0882	-0.628657	-2.063401E+8	-1.885577E-11	NaN
252	1.000000	0.574777	7.36752e+06	-51239.1	955.818	-29753.2	0.000000	0.000000	6.574980	-0.000949	NaN	0.000000	0.001617	0.001670	28.0777	0.065316	0.001979	33.0063	165.283	-166.595	0.032733	0.573509	-0.584564	-0.585833	-0.000949	33.0063	-0.584543	-5.098096E+7	1.860914E-11	NaN
252	1.000000	0.618793	7.36752e+06	-51239.1	955.819	-29753.2	0.000000	0.000000	6.618997	0.008191	NaN	0.000000	0.001569	0.001648	28.0774	0.111226	0.001904	58.4123	-128.571	-166.523	0.085251	0.617532	-0.540548	-0.541810	0.008191	58.4123	-0.540653	-1.260145E+7	-6.500075E-10	NaN
252	1.000000	0.662827	7.36752e+06	-51239.1	955.819	-29753.2	0.000000	0.000000	6.663029	-0.023502	NaN	0.000000	0.001542	0.001667	28.0789	0.068126	0.001984	34.3317	179.988	-162.681	0.003629	0.661500	-0.496514	-0.497842	-0.023502	34.3317	-0.496001	-3.01446e+06	7.796523E-9	NaN
252	1.000000	0.706815	7.36752e+06	-51239.1	955.818	-29753.2	0.000000	0.000000	6.707022	0.084695	NaN	0.000000	0.001584	0.001688	28.0788	0.058615	0.002093	27.9988	37.1998	-164.128	0.052261	0.705533	-0.452526	-0.453808	0.084695	27.9988	-0.454795	-797686	-1.061759E-7	NaN
252	1.000000	0.750833	7.36752e+06	-51239.1	955.818	-29753.2	0.000000	0.000000	6.751037	0.014209	NaN	0.000000	0.001631	0.001663	28.0788	0.008252	0.001915	4.308469	106.971	-163.752	-0.022765	0.749500	-0.408509	-0.409841	0.014209	4.308469	-0.410982	-191586	-7.416367E-8	NaN
252	1.000000	0.794883	7.36752e+06	-51239.1	955.818	-29753.2	0.000000	0.000000	6.795087	0.020062	NaN	0.000000	0.001572	0.001695	28.0777	0.071450	0.002002	35.6961	-34.9035	-169.235	-0.061156	0.793542	-0.364459	-0.365800	0.020062	35.6961	-0.364880	-41910.9	-4.786712E-7	NaN
252	1.000000	0.838892	7.36752e+06	-51239.1	955.818	-29753.2	0.000000	0.000000	6.839095	-0.016940	NaN	0.000000	0.001564	0.001730	28.0773	0.066808	0.001964	34.0117	-21.7546	-165.808	0.017251	0.837545	-0.320449	-0.321797	-0.016940	34.0117	-0.320076	-9327.26	1.816155E-6	NaN
252	1.000000	0.882900	7.36752e+06	-51239.1	955.818	-29753.2	0.000000	0.000000	6.883103	0.009864	NaN	0.000000	0.001578	0.001736	28.0775	0.106397	0.001975	53.8729	-11.0349	-167.741	-0.112766	0.881602	-0.276442	-0.277740	0.009864	53.8729	-0.276579	-2095.54	-4.707054E-6	NaN
252	1.000000	0.926903	7.36752e+06	-51239.1	955.818	-29753.2	0.000000	0.000000	6.927107	0.018135	NaN	0.000000	0.001622	0.001686	28.0787	0.014485	0.002020	7.172643	-38.2606	-164.897	-0.040991	0.925631	-0.232439	-0.233711	0.018135	7.172643	-0.234335	-468.601	-3.869993E-5	NaN
252	1.000000	0.970947	7.36752e+06	-51239.1	955.819	-29753.2	0.000000	0.000000	6.971146	-0.081330	NaN	0.000000	0.001638	0.001710	28.0782	0.180753	0.001962	92.1486	169.534	-168.736	-0.018847	0.969621	-0.188395	-0.189720	-0.081330	92.1486	-0.187733	-82.43	0.000987	NaN
252	1.000000	1.014981	7.36752e+06	-51239.1	955.818	-29753.2	0.000000	0.000000	7.015182	-0.049127	NaN	0.000000	0.001670	0.001749	28.0784	0.053682	0.002099	25.5688	-172.017	-163.955	0.020086	1.013646	-0.144361	-0.145696	-0.049127	25.5688	-0.142920	-13.4144	0.003662	NaN
252	1.000000	1.058987	7.36752e+06	-51239.1	955.819	-29753.2	0.000000	0.000000	7.059188	-0.040050	NaN	0.000000	0.001643	0.001693	28.0775	0.051739	0.001992	25.969	88.0792	-161.804	-0.020303	1.057656	-0.100355	-0.101685	-0.040050	25.969	-0.099198	-1.753711	0.022837	NaN
252	1.000000	1.102964	7.36752e+06	-51239.1	955.819	-29753.2	0.000000	0.000000	7.103165	-0.046849	NaN	0.000000	0.001656	0.001719	28.0777	0.045706	0.002027	22.5461	147.931	-164.46	-0.003078	1.101680	-0.056377	-0.057662	-0.046849	22.5461	-0.054819	-0.127200	0.368306	NaN
252	1.000000	1.146995	7.36752e+06	-51239.1	955.819	-29753.2	0.000000	0.000000	7.147197	-0.018100	NaN	0.000000	0.001675	0.001662	28.0778	0.143444	0.001980	72.433	88.5293	-166.668	-0.038727	1.145668	-0.012347	-0.013674	-0.018100	72.433	-0.012160	-0.007620	2.375418	NaN
252	2.000000	1.174617	7.36752e+06	-51239.1	955.819	-29753.2	0.000000	0.000000	7.175407	14.2759	NaN	0.000000	0.001586	0.001596	28.0786	14.5718	0.001785	8161.98	7.608006	-175.021	14.1062	1.174333	0.015276	0.014991	14.2759	8161.98	0.013964	0.013928	1024.96	63186
252	2.000000	1.185626	7.36752e+06	-51239.1	955.819	-29753.2	0.000000	0.000000	7.187387	37.8732	NaN	0.000000	0.001600	0.001641	28.0788	25.5193	0.001701	14999.9	4.503088	-176.989	38.1921	1.185165	0.026284	0.025824	37.8732	14999.9	0.024391	0.029917	1265.96	79232.7
252	2.000000	1.196520	7.36752e+06	-51239.1	955.82	-29753.2	0.000000	0.000000	7.199716	72.776	NaN	0.000000	0.001617	0.001612	28.0786	35.7924	0.001681	21291.2	5.807757	178.277	71.0389	1.196165	0.037179	0.036823	72.776	21291.2	0.034615	0.050854	1431.08	86260.5
252	2.000000	1.207562	7.36752e+06	-51239.1	955.82	-29753.2	0.000000	0.000000	7.212532	115.923	NaN	0.000000	0.001588	0.001641	28.0781	47.5808	0.001807	26325.4	10.3184	171.995	118.7	1.207205	0.048220	0.047864	115.923	26325.4	0.044918	0.077354	1498.6	86478.1
252	2.000000	1.218388	7.36752e+06	-51239.1	955.819	-29753.2	0.000000	0.000000	7.225605	170.547	NaN	0.000000	0.001572	0.001602	28.0776	57.013	0.001892	30130.6	4.030511	176.406	163.811	1.218165	0.059047	0.058823	170.547	30130.6	0.054802	0.107830	1581.63	83832.1
252	2.000000	1.229612	7.36752e+06	-51239.1	955.819	-29753.2	0.000000	0.000000	7.239151	227.015	NaN	0.000000	0.001649	0.001610	28.0776	65.7119	0.001811	36287.2	4.983267	174.723	234.011	1.229281	0.070271	0.069939	227.015	36287.2	0.065579	0.146569	1548.86	86597.8
252	2.000000	1.240651	7.36752e+06	-51239.1	955.82	-29753.2	0.000000	0.000000	7.252898	292.868	NaN	0.000000	0.001662	0.001623	28.0778	78.6784	0.001881	41829.3	8.963134	169.445	303.55	1.240274	0.081309	0.080932	292.868	41829.3	0.076058	0.189602	1544.65	87767.3
252	2.000000	1.251442	7.36752e+06	-51239.1	955.82	-29753.2	0.000000	0.000000	7.267566	387.141	NaN	0.000000	0.001548	0.001634	28.0789	87.3843	0.001779	49112	6.754748	170.677	385.167	1.251111	0.092101	0.091769	387.141	49112	0.086189	0.236104	1639.71	92344.1
252	2.000000	1.262449	7.36752e+06	-51239.1	955.82	-29753.2	0.000000	0.000000	7.282439	481.147	NaN	0.000000	0.001540	0.001631	28.0789	98.3729	0.001813	54250.3	10.9738	166.412	480.367	1.261990	0.103107	0.102648	481.147	54250.3	0.096456	0.288064	1670.28	92348.6
252	2.000000	1.267465	7.36752e+06	-51239.1	955.819	-29753.2	0.000000	0.000000	7.289058	520.142	NaN	0.000000	0.001514	0.001642	28.0789	101.762	0.001660	61304.3	3.441155	172.508	518.844	1.267148	0.108123	0.107806	520.142	61304.3	0.101760	0.316791	1641.91	99512.4