File: remote_trans/data/nanoindenter/0828-1/data/Data_2025-08-06,11h17m57s/2025-07-22_16-23-58_1_336.txt
2025-07-22, 16:23:58, 1
Index	Phase	Displacement	Time	Pos X	Pos Y	Pos Z	Rot A	Rot B	Piezo Z	Force A	Force B	Gripper	Voltage A	Voltage B	Temperature	Amplitude force	Amplitude pos	Stiffness	Phase shift	Phase excitation	Force A raw	Displacement raw	HMax	HMax raw	Real Force	Real Stiffness	Contact Depth	Area	Hardness	Reduced Mod.
[#]	[#]	[um]	[s]	[um]	[um]	[um]	[m°]	[m°]	[um]	[uN]	[uN]	[V]	[V]	[V]	[°C]	[uN]	[um]	[N/m]	[°]	[°]	[uN]	[um]	[um]	[um]	[uN]	[N/m]	[um]	[um^2]	[MPa]	[MPa]
336	1.000000	0.002635	7.36835e+06	-55439.1	955.818	-29741.9	0.000000	0.000000	6.002783	0.012419	NaN	0.000000	0.001528	0.001703	28.0799	0.090454	0.000862	104.983	-12.5966	-157.843	0.037178	0.001377	-1.015962	-1.017221	0.012419	104.983	-1.016051	-3.730939E+13	-3.328695E-16	NaN
336	1.000000	0.042623	7.36835e+06	-55439.1	955.819	-29741.9	0.000000	0.000000	6.042775	0.096333	NaN	0.000000	0.001533	0.001708	28.0795	0.072110	0.002041	35.332	-83.0878	-162.596	0.108143	0.041304	-0.975974	-0.977294	0.096333	35.332	-0.978019	-1.147427E+13	-8.395562E-15	NaN
336	1.000000	0.082592	7.36835e+06	-55439.1	955.82	-29741.9	0.000000	0.000000	6.082739	-0.010173	NaN	0.000000	0.001522	0.001701	28.078	0.069575	0.002011	34.594	-50.2569	-163.649	-0.052745	0.081342	-0.936006	-0.937256	-0.010173	34.594	-0.935785	-3.092236E+12	3.289968E-15	NaN
336	1.000000	0.122619	7.36835e+06	-55439.1	955.819	-29741.9	0.000000	0.000000	6.122767	0.019017	NaN	0.000000	0.001521	0.001712	28.0777	0.057836	0.001977	29.2526	-54.4686	-166.827	-0.007410	0.121339	-0.895979	-0.897258	0.019017	29.2526	-0.896466	-9.105694E+11	-2.088475E-14	NaN
336	1.000000	0.162627	7.36835e+06	-55439.1	955.819	-29741.9	0.000000	0.000000	6.162775	0.026176	NaN	0.000000	0.001508	0.001704	28.0777	0.075143	0.002059	36.5012	89.0416	-165.175	0.027391	0.161317	-0.855971	-0.857281	0.026176	36.5012	-0.856509	-2.623371E+11	-9.978185E-14	NaN
336	1.000000	0.202666	7.36835e+06	-55439.1	955.818	-29741.9	0.000000	0.000000	6.202815	0.036284	NaN	0.000000	0.001551	0.001724	28.0776	0.071289	0.002086	34.1699	-70.2875	-162.432	-0.042357	0.201340	-0.815931	-0.817257	0.036284	34.1699	-0.816728	-7.582850E+10	-4.785068E-13	NaN
336	1.000000	0.242663	7.36835e+06	-55439.1	955.817	-29741.9	0.000000	0.000000	6.242813	0.056452	NaN	0.000000	0.001486	0.001727	28.0789	0.134338	0.001985	67.6753	177.554	-165.897	-0.032844	0.241366	-0.775935	-0.777232	0.056452	67.6753	-0.776560	-2.160161E+10	-2.613329E-12	NaN
336	1.000000	0.282716	7.36835e+06	-55439.1	955.819	-29741.9	0.000000	0.000000	6.282862	-0.029469	NaN	0.000000	0.001496	0.001673	28.0789	0.066956	0.002112	31.6954	-142.424	-162.918	-0.029368	0.281377	-0.735881	-0.737221	-0.029469	31.6954	-0.735184	-5.908147E+9	4.987898E-12	NaN
336	1.000000	0.322750	7.36835e+06	-55439.1	955.819	-29741.9	0.000000	0.000000	6.322896	-0.038283	NaN	0.000000	0.001528	0.001717	28.079	0.022976	0.002006	11.4562	128.131	-164.451	-0.034516	0.321372	-0.695848	-0.697226	-0.038283	11.4562	-0.693342	-1.587007E+9	2.412260E-11	NaN
336	1.000000	0.362742	7.36835e+06	-55439.1	955.819	-29741.9	0.000000	0.000000	6.362891	0.040265	NaN	0.000000	0.001593	0.001717	28.0776	0.035476	0.002102	16.8735	9.354822	-166.137	-0.022568	0.361445	-0.655855	-0.657152	0.040265	16.8735	-0.657645	-5.154755E+8	-7.811144E-11	NaN
336	1.000000	0.402755	7.36835e+06	-55439.1	955.819	-29741.9	0.000000	0.000000	6.402904	0.036769	NaN	0.000000	0.001595	0.001696	28.0777	0.070946	0.001997	35.52	-97.34	-165.296	0.086156	0.401383	-0.615842	-0.617214	0.036769	35.52	-0.616619	-1.409776E+8	-2.608177E-10	NaN
336	1.000000	0.442750	7.36835e+06	-55439.1	955.82	-29741.9	0.000000	0.000000	6.442899	0.022040	NaN	0.000000	0.001551	0.001668	28.0783	0.080734	0.001932	41.7885	-96.1089	-164.261	-0.054119	0.441463	-0.575847	-0.577134	0.022040	41.7885	-0.576243	-3.916160E+7	-5.627906E-10	NaN
336	1.000000	0.482751	7.36835e+06	-55439.1	955.819	-29741.9	0.000000	0.000000	6.482900	0.035057	NaN	0.000000	0.001569	0.001677	28.0782	0.023237	0.002089	11.1253	-115.584	-164.224	-0.013878	0.481457	-0.535846	-0.537140	0.035057	11.1253	-0.538210	-1.165532E+7	-3.007833E-9	NaN
336	1.000000	0.522799	7.36835e+06	-55439.1	955.818	-29741.9	0.000000	0.000000	6.522949	0.081349	NaN	0.000000	0.001552	0.001733	28.0792	0.089385	0.001922	46.5035	-4.984325	-163.623	0.106330	0.521466	-0.495799	-0.497132	0.081349	46.5035	-0.497111	-3.12395e+06	-2.604052E-8	NaN
336	1.000000	0.562808	7.36835e+06	-55439.1	955.819	-29741.9	0.000000	0.000000	6.562953	-0.074414	NaN	0.000000	0.001535	0.001684	28.0791	0.005816	0.001951	2.980197	-126.229	-163.595	0.024363	0.561475	-0.455789	-0.457122	-0.074414	2.980197	-0.437062	-448626	1.658714E-7	NaN
336	1.000000	0.602866	7.36835e+06	-55439.1	955.819	-29741.9	0.000000	0.000000	6.603017	0.091023	NaN	0.000000	0.001473	0.001749	28.079	0.084004	0.002034	41.2932	86.114	-163.24	0.070816	0.601567	-0.415732	-0.417031	0.091023	41.2932	-0.417385	-236219	-3.853318E-7	NaN
336	1.000000	0.642884	7.36835e+06	-55439.1	955.818	-29741.9	0.000000	0.000000	6.643031	-0.023711	NaN	0.000000	0.001499	0.001711	28.0775	0.120918	0.002042	59.2134	-161.826	-167.47	0.016513	0.641534	-0.375714	-0.377063	-0.023711	59.2134	-0.375413	-59430.8	3.989662E-7	NaN
336	1.000000	0.682860	7.36835e+06	-55439.1	955.819	-29741.9	0.000000	0.000000	6.683006	-0.028507	NaN	0.000000	0.001525	0.001677	28.0777	0.052218	0.002040	25.6027	-70.9054	-162.371	0.022939	0.681505	-0.335737	-0.337092	-0.028507	25.6027	-0.334902	-15387.3	1.852616E-6	NaN
336	1.000000	0.722891	7.36835e+06	-55439.1	955.819	-29741.9	0.000000	0.000000	6.723037	-0.032745	NaN	0.000000	0.001535	0.001719	28.0777	0.083943	0.001999	42.0005	110.853	-163.307	-0.012682	0.721607	-0.295707	-0.296990	-0.032745	42.0005	-0.295122	-3980.22	8.227030E-6	NaN
336	1.000000	0.762932	7.36835e+06	-55439.1	955.818	-29741.9	0.000000	0.000000	6.763079	-0.009797	NaN	0.000000	0.001526	0.001718	28.078	0.113119	0.002016	56.1004	-92.1415	-164.679	0.012817	0.761545	-0.255665	-0.257052	-0.009797	56.1004	-0.255534	-1000.79	9.789064E-6	NaN
336	1.000000	0.802910	7.36835e+06	-55439.1	955.818	-29741.9	0.000000	0.000000	6.803057	0.005955	NaN	0.000000	0.001523	0.001750	28.0791	0.065903	0.002153	30.6109	-125.734	-162.489	-0.047230	0.801596	-0.215688	-0.217002	0.005955	30.6109	-0.215834	-238.187	-2.500016E-5	NaN
336	1.000000	0.842895	7.36835e+06	-55439.1	955.819	-29741.9	0.000000	0.000000	6.843041	-0.030320	NaN	0.000000	0.001535	0.001725	28.0795	0.063022	0.002116	29.7831	129.895	-166.073	0.025177	0.841676	-0.175703	-0.176921	-0.030320	29.7831	-0.174939	-49.9959	0.000606	NaN
336	1.000000	0.882963	7.36835e+06	-55439.1	955.819	-29741.9	0.000000	0.000000	6.883109	-0.019180	NaN	0.000000	0.001494	0.001731	28.0794	0.041433	0.001848	22.4197	26.2765	-164.295	-0.012107	0.881641	-0.135635	-0.136956	-0.019180	22.4197	-0.134993	-9.509662	0.002017	NaN
336	1.000000	0.922990	7.36835e+06	-55439.1	955.819	-29741.9	0.000000	0.000000	6.923135	-0.054644	NaN	0.000000	0.001531	0.001695	28.0783	0.056655	0.002092	27.0848	107.124	-163.301	-0.052528	0.921658	-0.095607	-0.096940	-0.054644	27.0848	-0.094094	-1.344999	0.040628	NaN
336	1.000000	0.962973	7.36835e+06	-55439.1	955.819	-29741.9	0.000000	0.000000	6.963121	0.027804	NaN	0.000000	0.001527	0.001707	28.0784	0.050740	0.001859	27.2989	-121.95	-166.658	-0.017952	0.961705	-0.055625	-0.056893	0.027804	27.2989	-0.056389	-0.141490	-0.196509	NaN
336	1.000000	1.002965	7.36835e+06	-55439.1	955.819	-29741.9	0.000000	0.000000	7.003112	-0.008348	NaN	0.000000	0.001504	0.001699	28.0785	0.082288	0.002036	40.4064	105.297	-165.334	0.025530	1.001723	-0.015632	-0.016874	-0.008348	40.4064	-0.015477	-0.009563	0.872952	NaN
336	2.000000	1.032565	7.36836e+06	-55439.1	955.818	-29741.9	0.000000	0.000000	7.033193	11.6782	NaN	0.000000	0.001459	0.001727	28.08	12.7572	0.001729	7378.79	6.612351	-174.198	10.7666	1.032371	0.013967	0.013773	11.6782	7378.79	0.012780	0.012438	938.901	60447.8
336	2.000000	1.042498	7.36836e+06	-55439.1	955.819	-29741.9	0.000000	0.000000	7.043813	28.3697	NaN	0.000000	0.001499	0.001707	28.0799	22.8037	0.001799	12675.7	6.415916	-178.007	27.3385	1.042256	0.023901	0.023658	28.3697	12675.7	0.022222	0.026155	1084.67	71608.7
336	2.000000	1.052494	7.36836e+06	-55439.1	955.819	-29741.9	0.000000	0.000000	7.054741	51.0468	NaN	0.000000	0.001467	0.001786	28.0794	31.311	0.001820	17206.8	8.156678	178.333	49.7554	1.052153	0.033896	0.033555	51.0468	17206.8	0.031671	0.044278	1152.87	74710.2
336	2.000000	1.062480	7.36836e+06	-55439.1	955.819	-29741.9	0.000000	0.000000	7.066140	85.3845	NaN	0.000000	0.001499	0.001743	28.0794	42.115	0.001791	23520.6	5.302706	178.175	85.1159	1.062152	0.043883	0.043555	85.3845	23520.6	0.041160	0.067060	1273.25	82982.9
336	2.000000	1.072494	7.36836e+06	-55439.1	955.819	-29741.9	0.000000	0.000000	7.078005	130.376	NaN	0.000000	0.001457	0.001741	28.0778	50.086	0.001718	29154.8	3.882197	178.289	130.431	1.072050	0.053896	0.053452	130.376	29154.8	0.050542	0.094097	1385.55	86834.9
336	2.000000	1.082488	7.36836e+06	-55439.1	955.819	-29741.9	0.000000	0.000000	7.089702	171.775	NaN	0.000000	0.001546	0.001742	28.0778	63.0615	0.001874	33656.7	6.027733	174.001	173.218	1.082215	0.063890	0.063618	171.775	33656.7	0.060063	0.126033	1362.94	86617.1
336	2.000000	1.092422	7.36836e+06	-55439.1	955.819	-29741.9	0.000000	0.000000	7.101973	228.604	NaN	0.000000	0.001510	0.001760	28.0779	70.702	0.001786	39579.6	2.123625	176.976	227.999	1.092065	0.073824	0.073467	228.604	39579.6	0.069492	0.162028	1410.89	89835.7
336	2.000000	1.102391	7.36836e+06	-55439.1	955.82	-29741.9	0.000000	0.000000	7.114489	290.506	NaN	0.000000	0.001483	0.001720	28.0793	81.5375	0.001802	45242	8.067231	169.627	287.508	1.102049	0.083793	0.083451	290.506	45242	0.078977	0.202512	1434.51	91852.2
336	2.000000	1.112396	7.36836e+06	-55439.1	955.819	-29741.9	0.000000	0.000000	7.127542	364.599	NaN	0.000000	0.001516	0.001797	28.0792	90.0946	0.001825	49357.5	8.840973	168.736	362.111	1.112075	0.093798	0.093477	364.599	49357.5	0.088258	0.246187	1480.98	90885.3
336	2.000000	1.122380	7.36836e+06	-55439.1	955.82	-29741.9	0.000000	0.000000	7.140638	440.251	NaN	0.000000	0.001533	0.001783	28.079	99.1496	0.001759	56370.9	6.679890	170.329	438.766	1.122035	0.103782	0.103437	440.251	56370.9	0.097925	0.295893	1487.87	94680.5
336	2.000000	1.127405	7.36836e+06	-55439.1	955.821	-29741.9	0.000000	0.000000	7.147238	478.524	NaN	0.000000	0.001497	0.001740	28.0792	102.195	0.001621	63063.7	3.176452	172.758	477.575	1.127168	0.108808	0.108571	478.524	63063.7	0.103117	0.324348	1475.34	101169