File: remote_trans/data/nanoindenter/0828-1/data/Data_2025-08-06,11h17m57s/2025-07-22_16-23-58_1_416.txt
2025-07-22, 16:23:58, 1
Index	Phase	Displacement	Time	Pos X	Pos Y	Pos Z	Rot A	Rot B	Piezo Z	Force A	Force B	Gripper	Voltage A	Voltage B	Temperature	Amplitude force	Amplitude pos	Stiffness	Phase shift	Phase excitation	Force A raw	Displacement raw	HMax	HMax raw	Real Force	Real Stiffness	Contact Depth	Area	Hardness	Reduced Mod.
[#]	[#]	[um]	[s]	[um]	[um]	[um]	[m°]	[m°]	[um]	[uN]	[uN]	[V]	[V]	[V]	[°C]	[uN]	[um]	[N/m]	[°]	[°]	[uN]	[um]	[um]	[um]	[uN]	[N/m]	[um]	[um^2]	[MPa]	[MPa]
416	1.000000	0.002607	7.36913e+06	-56289.1	1005.82	-29739.5	0.000000	0.000000	6.002788	0.005464	NaN	0.000000	0.001744	0.001672	28.0783	0.078450	0.000910	86.2451	-157.609	-170.391	-0.001976	0.001379	-1.044703	-1.045930	0.005464	86.2451	-1.044750	-9.074821E+13	-6.020873E-17	NaN
416	1.000000	0.042588	7.36913e+06	-56289.1	1005.82	-29739.5	0.000000	0.000000	6.042768	-0.028995	NaN	0.000000	0.001684	0.001664	28.0783	0.042097	0.001953	21.5578	-32.9044	-163.226	-0.005872	0.041218	-1.004721	-1.006092	-0.028995	21.5578	-1.003712	-2.545356E+13	1.139133E-15	NaN
416	1.000000	0.082610	7.36913e+06	-56289.1	1005.82	-29739.5	0.000000	0.000000	6.082793	0.042582	NaN	0.000000	0.001665	0.001603	28.0783	0.063873	0.001931	33.0831	-119.142	-166.645	0.055625	0.081314	-0.964699	-0.965995	0.042582	33.0831	-0.965664	-7.820318E+12	-5.445087E-15	NaN
416	1.000000	0.122577	7.36913e+06	-56289.1	1005.82	-29739.5	0.000000	0.000000	6.122761	0.083140	NaN	0.000000	0.001683	0.001654	28.0797	0.105501	0.001996	52.8621	169.353	-168.567	0.061334	0.121308	-0.924733	-0.926001	0.083140	52.8621	-0.925912	-2.275208E+12	-3.654190E-14	NaN
416	1.000000	0.162607	7.36913e+06	-56289.1	1005.82	-29739.5	0.000000	0.000000	6.162790	0.042705	NaN	0.000000	0.001687	0.001619	28.0796	0.061796	0.002031	30.4256	31.591	-167.711	-0.029361	0.161303	-0.884702	-0.886007	0.042705	30.4256	-0.885755	-6.524152E+11	-6.545711E-14	NaN
416	1.000000	0.202638	7.36913e+06	-56289.1	1005.82	-29739.5	0.000000	0.000000	6.202821	0.048437	NaN	0.000000	0.001675	0.001632	28.0796	0.121305	0.002061	58.8517	-31.6261	-167.526	0.014833	0.201360	-0.844671	-0.845949	0.048437	58.8517	-0.845288	-1.848952E+11	-2.619705E-13	NaN
416	1.000000	0.242667	7.36913e+06	-56289.1	1005.82	-29739.5	0.000000	0.000000	6.242846	-0.027047	NaN	0.000000	0.001717	0.001649	28.0785	0.034078	0.001913	17.8142	-101.365	-166.671	0.021515	0.241368	-0.804643	-0.805941	-0.027047	17.8142	-0.803504	-5.016755E+10	5.391299E-13	NaN
416	1.000000	0.282661	7.36913e+06	-56289.1	1005.82	-29739.5	0.000000	0.000000	6.282843	0.027874	NaN	0.000000	0.001683	0.001642	28.0785	0.009004	0.002030	4.436310	85.2653	-164.225	0.062740	0.281394	-0.764648	-0.765915	0.027874	4.436310	-0.769360	-1.724276E+10	-1.616540E-12	NaN
416	1.000000	0.322683	7.36913e+06	-56289.1	1005.82	-29739.5	0.000000	0.000000	6.322864	0.011185	NaN	0.000000	0.001715	0.001668	28.0783	0.085431	0.002052	41.6342	100.698	-165.026	-0.005674	0.321392	-0.724626	-0.725917	0.011185	41.6342	-0.724828	-4.268771E+9	-2.620235E-12	NaN
416	1.000000	0.362726	7.36913e+06	-56289.1	1005.82	-29739.5	0.000000	0.000000	6.362908	0.027256	NaN	0.000000	0.001706	0.001700	28.0783	0.104038	0.002049	50.7715	34.3018	-165.293	0.037457	0.361437	-0.684583	-0.685872	0.027256	50.7715	-0.684986	-1.220067E+9	-2.233984E-11	NaN
416	1.000000	0.402706	7.36913e+06	-56289.1	1005.82	-29739.5	0.000000	0.000000	6.402888	0.017154	NaN	0.000000	0.001715	0.001632	28.0795	0.015135	0.001972	7.675648	-11.3178	-165.534	-0.010641	0.401377	-0.644603	-0.645932	0.017154	7.675648	-0.646279	-3.600949E+8	-4.763757E-11	NaN
416	1.000000	0.442718	7.36913e+06	-56289.1	1005.82	-29739.5	0.000000	0.000000	6.442899	0.002496	NaN	0.000000	0.001691	0.001633	28.0795	0.022919	0.002040	11.2342	81.6909	-166.32	0.073349	0.441408	-0.604591	-0.605901	0.002496	11.2342	-0.604758	-9.682077E+7	-2.577695E-11	NaN
416	1.000000	0.482731	7.36913e+06	-56289.1	1005.82	-29739.5	0.000000	0.000000	6.482912	-0.006299	NaN	0.000000	0.001681	0.001629	28.0797	0.051373	0.001850	27.7658	-145.948	-167.838	-0.057140	0.481407	-0.564578	-0.565902	-0.006299	27.7658	-0.564408	-2.687432E+7	2.343822E-10	NaN
416	1.000000	0.522775	7.36913e+06	-56289.1	1005.82	-29739.5	0.000000	0.000000	6.522956	0.011757	NaN	0.000000	0.001702	0.001613	28.0784	0.077271	0.002118	36.4866	9.779448	-166.913	0.070892	0.521441	-0.524535	-0.525869	0.011757	36.4866	-0.524776	-7.58584e+06	-1.549827E-9	NaN
416	1.000000	0.562802	7.36913e+06	-56289.1	1005.82	-29739.5	0.000000	0.000000	6.562983	0.004861	NaN	0.000000	0.001694	0.001636	28.0783	0.034557	0.002033	16.9987	2.946218	-165.582	-0.015796	0.561484	-0.484507	-0.485826	0.004861	16.9987	-0.484722	-2.09699e+06	-2.318126E-9	NaN
416	1.000000	0.602827	7.36913e+06	-56289.1	1005.82	-29739.5	0.000000	0.000000	6.603012	0.086728	NaN	0.000000	0.001706	0.001617	28.0785	0.054946	0.001911	28.7467	-140.754	-167.004	0.150191	0.601460	-0.444482	-0.445849	0.086728	28.7467	-0.446744	-614442	-1.411499E-7	NaN
416	1.000000	0.642802	7.36913e+06	-56289.1	1005.82	-29739.5	0.000000	0.000000	6.642983	-0.004709	NaN	0.000000	0.001732	0.001622	28.0797	0.055602	0.001998	27.827	106.987	-166.764	0.010924	0.641541	-0.404507	-0.405768	-0.004709	27.827	-0.404380	-154319	3.051778E-8	NaN
416	1.000000	0.682855	7.36913e+06	-56289.1	1005.82	-29739.5	0.000000	0.000000	6.683037	0.028510	NaN	0.000000	0.001719	0.001629	28.0801	0.075972	0.001984	38.2933	-165.252	-166.631	0.002380	0.681524	-0.364454	-0.365786	0.028510	38.2933	-0.365012	-42095.3	-6.772825E-7	NaN
416	1.000000	0.722872	7.36913e+06	-56289.1	1005.82	-29739.5	0.000000	0.000000	6.723055	0.041999	NaN	0.000000	0.001751	0.001645	28.0796	0.052700	0.002088	25.2436	99.0955	-167.072	0.016643	0.721502	-0.324437	-0.325808	0.041999	25.2436	-0.325685	-11276.8	-3.724375E-6	NaN
416	1.000000	0.762854	7.36913e+06	-56289.1	1005.82	-29739.5	0.000000	0.000000	6.763034	-0.007051	NaN	0.000000	0.001629	0.001641	28.0796	0.110269	0.001963	56.1699	-75.6654	-164.796	-0.041826	0.761547	-0.284456	-0.285762	-0.007051	56.1699	-0.284362	-2745.79	2.567947E-6	NaN
416	1.000000	0.802882	7.36913e+06	-56289.1	1005.82	-29739.5	0.000000	0.000000	6.803063	0.014041	NaN	0.000000	0.001693	0.001590	28.0782	0.088303	0.001968	44.8586	68.6945	-166.182	0.075094	0.801564	-0.244428	-0.245746	0.014041	44.8586	-0.244662	-679.525	-2.066361E-5	NaN
416	1.000000	0.842922	7.36913e+06	-56289.1	1005.82	-29739.5	0.000000	0.000000	6.843102	-0.043231	NaN	0.000000	0.001716	0.001644	28.0784	0.144623	0.002057	70.3167	-86.2243	-165.27	-0.002246	0.841570	-0.204387	-0.205739	-0.043231	70.3167	-0.203926	-152.765	0.000283	NaN
416	1.000000	0.882913	7.36913e+06	-56289.1	1005.82	-29739.5	0.000000	0.000000	6.883092	-0.033378	NaN	0.000000	0.001747	0.001661	28.0784	0.089490	0.002088	42.8574	-107.02	-167.487	-0.016928	0.881606	-0.164396	-0.165703	-0.033378	42.8574	-0.163812	-32.0199	0.001042	NaN
416	1.000000	0.922922	7.36913e+06	-56289.1	1005.82	-29739.5	0.000000	0.000000	6.923104	0.025110	NaN	0.000000	0.001690	0.001598	28.0797	0.053229	0.001996	26.6677	53.7365	-163.966	0.014739	0.921677	-0.124388	-0.125632	0.025110	26.6677	-0.125094	-6.107307	-0.004112	NaN
416	1.000000	0.962960	7.36913e+06	-56289.1	1005.82	-29739.5	0.000000	0.000000	6.963140	-0.033439	NaN	0.000000	0.001671	0.001624	28.0797	0.099812	0.001947	51.2714	-21.535	-166.761	-0.021444	0.961618	-0.084349	-0.085691	-0.033439	51.2714	-0.083860	-0.770868	0.043378	NaN
416	1.000000	1.002963	7.36913e+06	-56289.1	1005.82	-29739.5	0.000000	0.000000	7.003145	0.019528	NaN	0.000000	0.001686	0.001625	28.0799	0.012062	0.002036	5.925579	-7.522802	-169.49	0.063071	1.001646	-0.044346	-0.045664	0.019528	5.925579	-0.046818	-0.073035	-0.267374	NaN
416	1.000000	1.042950	7.36913e+06	-56289.1	1005.82	-29739.5	0.000000	0.000000	7.043139	0.193872	NaN	0.000000	0.001707	0.001588	28.0797	0.145454	0.001915	75.9643	55.5983	-166.432	0.155086	1.041679	-0.004359	-0.005630	0.193872	75.9643	-0.006273	-0.004203	-46.1311	NaN
416	2.000000	1.063550	7.36913e+06	-56289.1	1005.82	-29739.5	0.000000	0.000000	7.064455	17.6164	NaN	0.000000	0.001673	0.001572	28.0782	15.8927	0.001595	9966.44	4.077375	-175.808	18.0546	1.063258	0.016240	0.015949	17.6164	9966.44	0.014915	0.015172	1161.13	73925.7
416	2.000000	1.073485	7.36913e+06	-56289.1	1005.82	-29739.5	0.000000	0.000000	7.075191	37.0855	NaN	0.000000	0.001698	0.001552	28.0784	25.5945	0.001805	14179.1	6.864321	179.719	36.2951	1.073050	0.026175	0.025741	37.0855	14179.1	0.024214	0.029601	1252.86	75295.9
416	2.000000	1.083500	7.36913e+06	-56289.1	1005.82	-29739.5	0.000000	0.000000	7.086160	60.2813	NaN	0.000000	0.001688	0.001576	28.0784	35.4198	0.001773	19983	5.013898	177.76	61.5654	1.083202	0.036190	0.035893	60.2813	19983	0.033928	0.049279	1223.27	82243.7
416	2.000000	1.093411	7.36913e+06	-56289.1	1005.82	-29739.5	0.000000	0.000000	7.097610	97.6631	NaN	0.000000	0.001791	0.001572	28.0798	44.9126	0.001854	24228.4	5.112774	175.669	93.7022	1.093136	0.046102	0.045827	97.6631	24228.4	0.043079	0.072226	1352.18	82366.4
416	2.000000	1.103446	7.36914e+06	-56289.1	1005.82	-29739.5	0.000000	0.000000	7.109456	141.682	NaN	0.000000	0.001695	0.001571	28.0797	53.5907	0.001906	28123.7	3.501421	177.357	142.119	1.103104	0.056137	0.055794	141.682	28123.7	0.052359	0.099843	1419.04	81317.9
416	2.000000	1.113449	7.36914e+06	-56289.1	1005.82	-29739.5	0.000000	0.000000	7.121126	182.206	NaN	0.000000	0.001772	0.001574	28.0797	62.8068	0.001796	34969.8	9.648890	169.247	180.935	1.113096	0.066140	0.065787	182.206	34969.8	0.062232	0.133935	1360.41	87301.1
416	2.000000	1.123428	7.36914e+06	-56289.1	1005.82	-29739.5	0.000000	0.000000	7.132831	224.158	NaN	0.000000	0.001689	0.001575	28.0795	70.0405	0.001676	41792.1	3.379695	172.723	222.478	1.123287	0.076119	0.075978	224.158	41792.1	0.072096	0.172719	1297.82	91874.9
416	2.000000	1.133425	7.36914e+06	-56289.1	1005.82	-29739.5	0.000000	0.000000	7.145642	292.545	NaN	0.000000	0.001679	0.001621	28.0785	81.0171	0.001840	44035.6	4.747636	171.481	292.738	1.133122	0.086116	0.085812	292.545	44035.6	0.081134	0.212303	1377.96	87316.9
416	2.000000	1.143363	7.36914e+06	-56289.1	1005.82	-29739.5	0.000000	0.000000	7.158364	360.225	NaN	0.000000	0.001701	0.001661	28.0784	90.1313	0.001675	53817.6	4.679368	170.178	356.996	1.143080	0.096054	0.095771	360.225	53817.6	0.091034	0.260023	1385.36	96425.4
416	2.000000	1.153387	7.36914e+06	-56289.1	1005.82	-29739.5	0.000000	0.000000	7.171349	432.196	NaN	0.000000	0.001706	0.001615	28.0784	99.3163	0.001750	56760.7	1.659849	173.166	431.007	1.153105	0.106078	0.105795	432.196	56760.7	0.100367	0.309124	1398.13	93272.7
416	2.000000	1.155288	7.36914e+06	-56289.1	1005.82	-29739.5	0.000000	0.000000	7.174312	458.012	NaN	0.000000	0.001696	0.001602	28.0782	100.909	0.001739	58038.5	10.6479	164.203	453.075	1.154972	0.107979	0.107663	458.012	58038.5	0.102060	0.318459	1438.22	93964.3