File: remote_trans/data/nanoindenter/0828-1/data/Data_2025-08-06,11h17m57s/2025-07-22_16-23-58_1_513.txt
2025-07-22, 16:23:58, 1
Index	Phase	Displacement	Time	Pos X	Pos Y	Pos Z	Rot A	Rot B	Piezo Z	Force A	Force B	Gripper	Voltage A	Voltage B	Temperature	Amplitude force	Amplitude pos	Stiffness	Phase shift	Phase excitation	Force A raw	Displacement raw	HMax	HMax raw	Real Force	Real Stiffness	Contact Depth	Area	Hardness	Reduced Mod.
[#]	[#]	[um]	[s]	[um]	[um]	[um]	[m°]	[m°]	[um]	[uN]	[uN]	[V]	[V]	[V]	[°C]	[uN]	[um]	[N/m]	[°]	[°]	[uN]	[um]	[um]	[um]	[uN]	[N/m]	[um]	[um^2]	[MPa]	[MPa]
513	1.000000	0.002159	7.37007e+06	-51439.1	1005.82	-29752.3	0.000000	0.000000	6.002826	-0.097878	NaN	0.000000	0.001562	0.001649	28.0821	0.062526	0.000918	68.0872	126.719	-173.135	-0.083398	0.000859	-1.074953	-1.076253	-0.097878	68.0872	-1.073875	-2.234817E+14	4.379693E-16	NaN
513	1.000000	0.044083	7.37007e+06	-51439.1	1005.82	-29752.3	0.000000	0.000000	6.044752	-0.060904	NaN	0.000000	0.001606	0.001732	28.0825	0.100509	0.001979	50.7864	164.518	13.1379	-0.090347	0.042754	-1.033029	-1.034358	-0.060904	50.7864	-1.032129	-6.139303E+13	9.920346E-16	NaN
513	1.000000	0.086100	7.37007e+06	-51439.1	1005.82	-29752.3	0.000000	0.000000	6.086769	-0.058824	NaN	0.000000	0.001589	0.001724	28.081	0.060028	0.001955	30.7009	178.766	-167.324	-0.109385	0.084798	-0.991012	-0.992314	-0.058824	30.7009	-0.989575	-1.642048E+13	3.582378E-15	NaN
513	1.000000	0.128122	7.37007e+06	-51439.1	1005.82	-29752.3	0.000000	0.000000	6.128789	-0.098144	NaN	0.000000	0.001575	0.001756	28.0812	0.111188	0.001891	58.7938	97.6585	16.0303	-0.061757	0.126765	-0.948990	-0.950347	-0.098144	58.7938	-0.947738	-4.482500E+12	2.189487E-14	NaN
513	1.000000	0.170120	7.37007e+06	-51439.1	1005.82	-29752.3	0.000000	0.000000	6.170787	-0.128966	NaN	0.000000	0.001553	0.001758	28.0813	0.094054	0.002101	44.7746	-163.035	-165.156	-0.118458	0.168778	-0.906991	-0.908334	-0.128966	44.7746	-0.904831	-1.181245E+12	1.091777E-13	NaN
513	1.000000	0.212143	7.37007e+06	-51439.1	1005.82	-29752.3	0.000000	0.000000	6.212810	-0.114448	NaN	0.000000	0.001580	0.001721	28.0823	0.014900	0.002191	6.800119	-138.039	15.572	-0.066257	0.210776	-0.864969	-0.866335	-0.114448	6.800119	-0.852346	-2.304114E+11	4.967096E-13	NaN
513	1.000000	0.254129	7.37007e+06	-51439.1	1005.82	-29752.3	0.000000	0.000000	6.254799	-0.037029	NaN	0.000000	0.001589	0.001757	28.0825	0.077624	0.001980	39.2028	54.3791	-165.606	-0.001176	0.252853	-0.822983	-0.824259	-0.037029	39.2028	-0.822275	-9.016864E+10	4.106648E-13	NaN
513	1.000000	0.296183	7.37007e+06	-51439.1	1005.82	-29752.3	0.000000	0.000000	6.296851	-0.084551	NaN	0.000000	0.001559	0.001721	28.0823	0.046865	0.001933	24.2417	136.605	10.6566	-0.135499	0.294854	-0.780929	-0.782257	-0.084551	24.2417	-0.778313	-2.281970E+10	3.705177E-12	NaN
513	1.000000	0.338202	7.37007e+06	-51439.1	1005.82	-29752.3	0.000000	0.000000	6.338872	-0.028081	NaN	0.000000	0.001619	0.001740	28.0807	0.088992	0.001940	45.8742	-18.2913	-163.846	-0.001865	0.336847	-0.738910	-0.740264	-0.028081	45.8742	-0.738451	-6.545664E+9	4.289960E-12	NaN
513	1.000000	0.380212	7.37007e+06	-51439.1	1005.82	-29752.3	0.000000	0.000000	6.380882	-0.044526	NaN	0.000000	0.001538	0.001724	28.0809	0.036468	0.002162	16.8668	-69.3728	16.9168	-0.074285	0.378863	-0.696900	-0.698249	-0.044526	16.8668	-0.694920	-1.667797E+9	2.669769E-11	NaN
513	1.000000	0.422250	7.37007e+06	-51439.1	1005.82	-29752.3	0.000000	0.000000	6.422920	-0.048984	NaN	0.000000	0.001593	0.001733	28.0809	0.005456	0.001933	2.822523	117.655	-165.056	-0.005824	0.420911	-0.654862	-0.656201	-0.048984	2.822523	-0.641846	-3.130476E+8	1.564754E-10	NaN
513	1.000000	0.464270	7.37007e+06	-51439.1	1005.82	-29752.3	0.000000	0.000000	6.464941	-0.011953	NaN	0.000000	0.001576	0.001715	28.0812	0.059639	0.002035	29.3062	-143.212	16.4892	-0.092959	0.462907	-0.612842	-0.614204	-0.011953	29.3062	-0.612536	-1.238796E+8	9.648672E-11	NaN
513	1.000000	0.506297	7.37007e+06	-51439.1	1005.82	-29752.3	0.000000	0.000000	6.506964	-0.111529	NaN	0.000000	0.001558	0.001743	28.0821	0.030290	0.002017	15.0146	41.2139	-165.028	-0.070000	0.504937	-0.570814	-0.572174	-0.111529	15.0146	-0.565243	-2.759882E+7	4.041088E-9	NaN
513	1.000000	0.548302	7.37007e+06	-51439.1	1005.82	-29752.3	0.000000	0.000000	6.548970	-0.091410	NaN	0.000000	0.001525	0.001715	28.0821	0.028817	0.001920	15.0126	97.7289	14.7911	-0.125602	0.546898	-0.528809	-0.530214	-0.091410	15.0126	-0.524243	-7.45737e+06	1.225768E-8	NaN
513	1.000000	0.590340	7.37007e+06	-51439.1	1005.82	-29752.3	0.000000	0.000000	6.591008	-0.090782	NaN	0.000000	0.001562	0.001693	28.0822	0.035757	0.002035	17.5727	-41.6972	-164.955	-0.097929	0.588997	-0.486771	-0.488115	-0.090782	17.5727	-0.482897	-1.97728e+06	4.591258E-8	NaN
513	1.000000	0.632325	7.37007e+06	-51439.1	1005.82	-29752.3	0.000000	0.000000	6.632992	-0.097259	NaN	0.000000	0.001559	0.001690	28.0809	0.092949	0.002036	45.6497	-171.642	18.1429	-0.136957	0.630953	-0.444787	-0.446159	-0.097259	45.6497	-0.443189	-547468	1.776529E-7	NaN
513	1.000000	0.674351	7.37007e+06	-51439.1	1005.82	-29752.3	0.000000	0.000000	6.675017	-0.136931	NaN	0.000000	0.001573	0.001690	28.0807	0.144565	0.002062	70.0974	81.0944	-162.426	-0.064205	0.673008	-0.402761	-0.404104	-0.136931	70.0974	-0.401296	-139467	9.818197E-7	NaN
513	1.000000	0.716381	7.37007e+06	-51439.1	1005.82	-29752.3	0.000000	0.000000	6.717052	-0.024672	NaN	0.000000	0.001653	0.001725	28.0811	0.105395	0.001869	56.3975	21.8924	14.7068	0.004415	0.715053	-0.360730	-0.362058	-0.024672	56.3975	-0.360402	-36112.5	6.832077E-7	NaN
513	1.000000	0.758385	7.37007e+06	-51439.1	1005.82	-29752.3	0.000000	0.000000	6.759053	-0.095877	NaN	0.000000	0.001570	0.001706	28.0825	0.038892	0.002095	18.5679	1.739692	-165.188	-0.026910	0.757067	-0.318726	-0.320044	-0.095877	18.5679	-0.314854	-7812.48	1.227234E-5	NaN
513	1.000000	0.800385	7.37007e+06	-51439.1	1005.82	-29752.3	0.000000	0.000000	6.801052	-0.110621	NaN	0.000000	0.001567	0.001697	28.0824	0.068615	0.002070	33.1443	-147.858	16.7393	-0.041570	0.799057	-0.276727	-0.278054	-0.110621	33.1443	-0.274223	-1930.36	5.730580E-5	NaN
513	1.000000	0.842416	7.37007e+06	-51439.1	1005.82	-29752.3	0.000000	0.000000	6.843080	-0.175420	NaN	0.000000	0.001598	0.001756	28.0826	0.044163	0.001962	22.5089	84.6152	-161.983	-0.158642	0.841151	-0.234696	-0.235960	-0.175420	22.5089	-0.228851	-384.027	0.000457	NaN
513	1.000000	0.884398	7.37007e+06	-51439.1	1005.82	-29752.3	0.000000	0.000000	6.885065	-0.129687	NaN	0.000000	0.001537	0.001710	28.0809	0.058531	0.001962	29.8366	-14.7969	15.5199	-0.031073	0.883039	-0.192713	-0.194073	-0.129687	29.8366	-0.189453	-88.0827	0.001472	NaN
513	1.000000	0.926462	7.37007e+06	-51439.1	1005.82	-29752.3	0.000000	0.000000	6.927128	-0.145082	NaN	0.000000	0.001595	0.001744	28.0807	0.116426	0.001957	59.4983	-60.4784	-163.597	-0.188768	0.925164	-0.150649	-0.151948	-0.145082	59.4983	-0.148821	-17.2369	0.008417	NaN
513	1.000000	0.968445	7.37007e+06	-51439.1	1005.82	-29752.3	0.000000	0.000000	6.969115	-0.045570	NaN	0.000000	0.001651	0.001731	28.081	0.092912	0.001974	47.0596	-92.0383	13.3065	-0.048222	0.967124	-0.108666	-0.109988	-0.045570	47.0596	-0.107940	-2.717851	0.016767	NaN
513	1.000000	1.010524	7.37007e+06	-51439.1	1005.82	-29752.3	0.000000	0.000000	7.011193	-0.049374	NaN	0.000000	0.001651	0.001703	28.0811	0.054937	0.001897	28.9673	-144.038	-169.345	-0.070849	1.009203	-0.066588	-0.067909	-0.049374	28.9673	-0.065310	-0.254189	0.194240	NaN
513	1.000000	1.052506	7.37007e+06	-51439.1	1005.82	-29752.3	0.000000	0.000000	7.053173	-0.107529	NaN	0.000000	0.001651	0.001701	28.0822	0.103947	0.001996	52.0646	161.979	15.3551	-0.081666	1.051173	-0.024606	-0.025939	-0.107529	52.0646	-0.023057	-0.015027	7.155719	NaN
513	2.000000	1.092163	7.37007e+06	-51439.1	1005.82	-29752.3	0.000000	0.000000	7.093170	8.151546	NaN	0.000000	0.001648	0.001730	28.0819	8.909818	0.001688	5277.54	8.520477	-171.128	8.439628	1.091865	0.015051	0.014753	8.151546	5277.54	0.013893	0.013837	589.11	40990.5
513	2.000000	1.102589	7.37007e+06	-51439.1	1005.82	-29752.3	0.000000	0.000000	7.104197	22.7512	NaN	0.000000	0.001627	0.001747	28.082	19.0397	0.001762	10803	8.331279	2.699874	22.5292	1.102221	0.025478	0.025110	22.7512	10803	0.023898	0.029042	783.396	57916.8
513	2.000000	1.113039	7.37007e+06	-51439.1	1005.82	-29752.3	0.000000	0.000000	7.115519	43.9762	NaN	0.000000	0.001551	0.001746	28.0809	29.4805	0.001715	17187.1	6.060374	179.293	43.2559	1.112793	0.035927	0.035681	43.9762	17187.1	0.034008	0.049462	889.093	70605.7
513	2.000000	1.123555	7.37008e+06	-51439.1	1005.82	-29752.3	0.000000	0.000000	7.127245	73.4042	NaN	0.000000	0.001569	0.001722	28.0811	39.557	0.001874	21110	6.262916	-1.862688	74.0851	1.123244	0.046443	0.046132	73.4042	21110	0.043835	0.074315	987.75	70749.8
513	2.000000	1.134034	7.37008e+06	-51439.1	1005.82	-29752.3	0.000000	0.000000	7.139343	112.773	NaN	0.000000	0.001566	0.001697	28.0812	48.8042	0.001783	27370	4.196291	178.145	114.362	1.133677	0.056922	0.056565	112.773	27370	0.053832	0.104625	1077.87	77309
513	2.000000	1.144558	7.37008e+06	-51439.1	1005.82	-29752.3	0.000000	0.000000	7.151352	148.886	NaN	0.000000	0.001559	0.001736	28.0825	57.4022	0.001687	34020.3	5.781126	-5.886642	149.23	1.144185	0.067446	0.067073	148.886	34020.3	0.064164	0.141161	1054.72	82728.3
513	2.000000	1.154998	7.37008e+06	-51439.1	1005.82	-29752.3	0.000000	0.000000	7.163747	196.411	NaN	0.000000	0.001528	0.001697	28.0823	68.3694	0.001765	38738.7	8.570225	171.011	194.088	1.154575	0.077886	0.077463	196.411	38738.7	0.074084	0.181096	1084.57	83169.5
513	2.000000	1.165480	7.37008e+06	-51439.1	1005.82	-29752.3	0.000000	0.000000	7.176580	253.586	NaN	0.000000	0.001651	0.001760	28.0824	79.369	0.001756	45211.1	4.021370	-5.895957	249.921	1.164985	0.088369	0.087873	253.586	45211.1	0.084162	0.226420	1119.98	86808.2
513	2.000000	1.175900	7.37008e+06	-51439.1	1005.82	-29752.3	0.000000	0.000000	7.189782	321.23	NaN	0.000000	0.001683	0.001742	28.0809	89.3737	0.001882	47491.1	7.825988	170.178	317.208	1.175526	0.098789	0.098415	321.23	47491.1	0.093716	0.273725	1173.55	82933.2
513	2.000000	1.186755	7.37008e+06	-51439.1	1005.82	-29752.3	0.000000	0.000000	7.202054	355.684	NaN	0.000000	0.001649	0.001750	28.0811	97.4621	0.001892	51517.8	2.600003	-5.477891	368.468	1.186592	0.109643	0.109480	355.684	51517.8	0.104465	0.331938	1071.54	81696.2
513	2.000000	1.189908	7.37008e+06	-51439.1	1005.82	-29752.3	0.000000	0.000000	7.207243	405.194	NaN	0.000000	0.001656	0.001746	28.081	99.4164	0.001764	56366.8	4.350930	172.902	401.631	1.189594	0.112797	0.112483	405.194	56366.8	0.107405	0.348774	1161.77	87201.7