File: remote_trans/data/nanoindenter/0828-1/data/Data_2025-08-06,11h17m57s/2025-07-22_16-23-58_1_213.txt
2025-07-22, 16:23:58, 1
Index	Phase	Displacement	Time	Pos X	Pos Y	Pos Z	Rot A	Rot B	Piezo Z	Force A	Force B	Gripper	Voltage A	Voltage B	Temperature	Amplitude force	Amplitude pos	Stiffness	Phase shift	Phase excitation	Force A raw	Displacement raw	HMax	HMax raw	Real Force	Real Stiffness	Contact Depth	Area	Hardness	Reduced Mod.
[#]	[#]	[um]	[s]	[um]	[um]	[um]	[m°]	[m°]	[um]	[uN]	[uN]	[V]	[V]	[V]	[°C]	[uN]	[um]	[N/m]	[°]	[°]	[uN]	[um]	[um]	[um]	[uN]	[N/m]	[um]	[um^2]	[MPa]	[MPa]
213	1.000000	0.002312	7.36713e+06	-49289.1	955.819	-29759.6	0.000000	0.000000	6.002836	-0.044784	NaN	0.000000	0.001650	0.001827	28.0801	0.074510	0.000988	75.4067	-108.724	-164.327	-0.060802	0.001045	-1.249362	-1.250629	-0.044784	75.4067	-1.248917	-4.959392E+16	9.030162E-19	NaN
213	1.000000	0.048221	7.36713e+06	-49289.1	955.818	-29759.6	0.000000	0.000000	6.048747	-0.022746	NaN	0.000000	0.001571	0.001787	28.0803	0.132401	0.001965	67.3855	-171.078	16.1438	0.055049	0.046852	-1.203453	-1.204822	-0.022746	67.3855	-1.203199	-1.212240E+16	1.876383E-18	NaN
213	1.000000	0.094261	7.36713e+06	-49289.1	955.818	-29759.6	0.000000	0.000000	6.094789	0.022621	NaN	0.000000	0.001585	0.001807	28.0804	0.093600	0.002022	46.2915	89.8355	-164.61	-0.016862	0.092983	-1.157412	-1.158691	0.022621	46.2915	-1.157779	-2.986064E+15	-7.575637E-18	NaN
213	1.000000	0.140245	7.36713e+06	-49289.1	955.819	-29759.6	0.000000	0.000000	6.140771	-0.025899	NaN	0.000000	0.001667	0.001779	28.0789	0.013244	0.002102	6.301402	4.927198	17.1523	-0.018411	0.138909	-1.111428	-1.112765	-0.025899	6.301402	-1.108346	-6.487667E+14	3.992066E-17	NaN
213	1.000000	0.186273	7.36713e+06	-49289.1	955.817	-29759.6	0.000000	0.000000	6.186797	-0.048853	NaN	0.000000	0.001665	0.001802	28.0787	0.012213	0.001985	6.152694	145.345	-165.201	0.058790	0.184915	-1.065401	-1.066759	-0.048853	6.152694	-1.059446	-1.430125E+14	3.415977E-16	NaN
213	1.000000	0.232298	7.36713e+06	-49289.1	955.819	-29759.7	0.000000	0.000000	6.232822	-0.048976	NaN	0.000000	0.001593	0.001787	28.0794	0.112028	0.002002	55.9627	102.554	11.6964	-0.007857	0.230926	-1.019376	-1.020747	-0.048976	55.9627	-1.018720	-4.052520E+13	1.208539E-15	NaN
213	1.000000	0.278322	7.36713e+06	-49289.1	955.818	-29759.7	0.000000	0.000000	6.278850	0.026020	NaN	0.000000	0.001610	0.001790	28.0801	0.175334	0.002081	84.2736	-57.3461	-169.855	0.105393	0.277017	-0.973351	-0.974657	0.026020	84.2736	-0.973583	-9.998740E+12	-2.602290E-15	NaN
213	1.000000	0.324312	7.36713e+06	-49289.1	955.819	-29759.7	0.000000	0.000000	6.324837	-0.025349	NaN	0.000000	0.001683	0.001729	28.0802	0.056112	0.002085	26.908	-19.893	16.7614	-0.031360	0.322936	-0.927362	-0.928737	-0.025349	26.908	-0.926655	-2.328362E+12	1.088691E-14	NaN
213	1.000000	0.370345	7.36713e+06	-49289.1	955.818	-29759.7	0.000000	0.000000	6.370872	0.022942	NaN	0.000000	0.001694	0.001786	28.0802	0.042651	0.001963	21.7276	154.009	-166.729	-0.021652	0.369105	-0.881329	-0.882568	0.022942	21.7276	-0.882121	-5.826228E+11	-3.937647E-14	NaN
213	1.000000	0.416375	7.36713e+06	-49289.1	955.817	-29759.7	0.000000	0.000000	6.416904	0.059411	NaN	0.000000	0.001587	0.001711	28.0789	0.063894	0.001978	32.2952	0.400736	12.5689	0.073425	0.414976	-0.835299	-0.836698	0.059411	32.2952	-0.836679	-1.413486E+11	-4.203147E-13	NaN
213	1.000000	0.462385	7.36713e+06	-49289.1	955.819	-29759.7	0.000000	0.000000	6.462912	0.009716	NaN	0.000000	0.001605	0.001710	28.0786	0.059954	0.002078	28.8567	-171.984	-164.597	0.032065	0.461105	-0.789289	-0.790568	0.009716	28.8567	-0.789541	-3.242322E+10	-2.996763E-13	NaN
213	1.000000	0.508429	7.36713e+06	-49289.1	955.818	-29759.7	0.000000	0.000000	6.508955	-0.007359	NaN	0.000000	0.001608	0.001764	28.0787	0.071540	0.002027	35.2922	-105.866	13.7433	-0.010628	0.507102	-0.743245	-0.744572	-0.007359	35.2922	-0.743088	-7.570391E+9	9.720957E-13	NaN
213	1.000000	0.554472	7.36713e+06	-49289.1	955.818	-29759.7	0.000000	0.000000	6.554998	0.004852	NaN	0.000000	0.001586	0.001763	28.0802	0.010838	0.002133	5.080656	166.516	-165.078	-0.060083	0.553169	-0.697202	-0.698504	0.004852	5.080656	-0.697918	-1.832741E+9	-2.647484E-12	NaN
213	1.000000	0.600458	7.36713e+06	-49289.1	955.817	-29759.7	0.000000	0.000000	6.600986	0.038779	NaN	0.000000	0.001595	0.001751	28.0803	0.137019	0.001985	69.0121	-113.494	13.0253	-0.002612	0.599092	-0.651215	-0.652582	0.038779	69.0121	-0.651637	-4.264558E+8	-9.093304E-11	NaN
213	1.000000	0.646461	7.36713e+06	-49289.1	955.818	-29759.7	0.000000	0.000000	6.646987	-0.015047	NaN	0.000000	0.001541	0.001778	28.0801	0.047753	0.002055	23.2384	74.7936	-165.471	-0.030550	0.645185	-0.605213	-0.606489	-0.015047	23.2384	-0.604727	-9.672745E+7	1.555647E-10	NaN
213	1.000000	0.692492	7.36713e+06	-49289.1	955.818	-29759.7	0.000000	0.000000	6.693017	-0.032713	NaN	0.000000	0.001591	0.001796	28.0788	0.015835	0.002059	7.689506	-167.351	18.56	-0.048060	0.691136	-0.559182	-0.560537	-0.032713	7.689506	-0.555991	-2.055459E+7	1.591514E-9	NaN
213	1.000000	0.738544	7.36713e+06	-49289.1	955.818	-29759.7	0.000000	0.000000	6.739071	0.010237	NaN	0.000000	0.001624	0.001783	28.0791	0.055005	0.002081	26.4369	-167.826	-163.938	-0.061076	0.737154	-0.513130	-0.514520	0.010237	26.4369	-0.513420	-5.27278e+06	-1.941471E-9	NaN
213	1.000000	0.784541	7.36713e+06	-49289.1	955.819	-29759.7	0.000000	0.000000	6.785069	0.053300	NaN	0.000000	0.001564	0.001731	28.0788	0.045929	0.001928	23.8277	152.049	14.6426	0.018914	0.783178	-0.467133	-0.468496	0.053300	23.8277	-0.468811	-1.25523e+06	-4.246231E-8	NaN
213	1.000000	0.830547	7.36713e+06	-49289.1	955.818	-29759.7	0.000000	0.000000	6.831072	-0.027432	NaN	0.000000	0.001614	0.001741	28.0799	0.108871	0.002058	52.9009	-170.098	-167.544	-0.037869	0.829250	-0.421127	-0.422423	-0.027432	52.9009	-0.420738	-263559	1.040840E-7	NaN
213	1.000000	0.876572	7.36713e+06	-49289.1	955.817	-29759.7	0.000000	0.000000	6.877098	-0.014337	NaN	0.000000	0.001555	0.001740	28.0801	0.026297	0.002166	12.1416	-45.235	15.4522	0.039740	0.875190	-0.375102	-0.376484	-0.014337	12.1416	-0.374216	-57121.4	2.509977E-7	NaN
213	1.000000	0.922584	7.36713e+06	-49289.1	955.818	-29759.7	0.000000	0.000000	6.923109	-0.042573	NaN	0.000000	0.001548	0.001734	28.0799	0.044534	0.001951	22.8297	144.392	-162.506	0.029110	0.921309	-0.329090	-0.330364	-0.042573	22.8297	-0.327691	-12067.6	3.527844E-6	NaN
213	1.000000	0.968604	7.36713e+06	-49289.1	955.818	-29759.7	0.000000	0.000000	6.969129	-0.047182	NaN	0.000000	0.001548	0.001689	28.0786	0.048410	0.001952	24.7971	-88.2526	15.3678	0.051280	0.967281	-0.283070	-0.284393	-0.047182	24.7971	-0.281643	-2498.82	1.888185E-5	NaN
213	1.000000	1.014641	7.36713e+06	-49289.1	955.817	-29759.7	0.000000	0.000000	7.015167	-0.025392	NaN	0.000000	0.001523	0.001716	28.0789	0.089311	0.001962	45.518	-153.65	-166.511	0.013158	1.013320	-0.237032	-0.238354	-0.025392	45.518	-0.236614	-508.829	4.990349E-5	NaN
213	1.000000	1.060634	7.36713e+06	-49289.1	955.818	-29759.7	0.000000	0.000000	7.061161	0.024872	NaN	0.000000	0.001560	0.001730	28.0786	0.053510	0.002012	26.5923	90.9902	12.5382	0.027341	1.059369	-0.191040	-0.192305	0.024872	26.5923	-0.191741	-96.1778	-0.000259	NaN
213	1.000000	1.106671	7.36713e+06	-49289.1	955.818	-29759.7	0.000000	0.000000	7.107197	-0.012182	NaN	0.000000	0.001552	0.001725	28.0797	0.083301	0.001931	43.1485	65.3833	-165.31	-0.122309	1.105311	-0.145003	-0.146362	-0.012182	43.1485	-0.144791	-14.5311	0.000838	NaN
213	1.000000	1.152693	7.36713e+06	-49289.1	955.817	-29759.7	0.000000	0.000000	7.153223	0.086118	NaN	0.000000	0.001596	0.001795	28.0801	0.074350	0.002082	35.7083	-48.3371	14.1228	-0.007554	1.151318	-0.098980	-0.100355	0.086118	35.7083	-0.100789	-1.902072	-0.045276	NaN
213	1.000000	1.198667	7.36713e+06	-49289.1	955.817	-29759.7	0.000000	0.000000	7.199193	-0.006426	NaN	0.000000	0.001644	0.001793	28.079	0.047170	0.001921	24.5526	-19.3626	-165.951	0.015669	1.197466	-0.053006	-0.054208	-0.006426	24.5526	-0.052810	-0.110853	0.057970	NaN
213	1.000000	1.244749	7.36713e+06	-49289.1	955.818	-29759.7	0.000000	0.000000	7.245273	-0.064760	NaN	0.000000	0.001639	0.001773	28.0785	0.059819	0.001836	32.5823	-93.861	12.462	-0.033143	1.243371	-0.006925	-0.008303	-0.064760	32.5823	-0.005434	-0.003688	17.5611	NaN
213	2.000000	1.269229	7.36713e+06	-49289.1	955.818	-29759.7	0.000000	0.000000	7.270613	20.8413	NaN	0.000000	0.001666	0.001715	28.0786	16.3878	0.001744	9394.47	7.210365	-176.71	21.1684	1.268917	0.017555	0.017244	20.8413	9394.47	0.015892	0.016493	1263.67	66834.4
213	2.000000	1.280690	7.36713e+06	-49289.1	955.817	-29759.7	0.000000	0.000000	7.283332	51.4405	NaN	0.000000	0.001638	0.001771	28.0798	29.5295	0.001939	15225.7	4.456940	2.196488	50.654	1.280260	0.029016	0.028586	51.4405	15225.7	0.026482	0.033768	1523.37	75700.9
213	2.000000	1.292102	7.36713e+06	-49289.1	955.817	-29759.7	0.000000	0.000000	7.296558	95.5573	NaN	0.000000	0.001617	0.001745	28.0796	40.4111	0.001794	22526.3	6.736383	175.394	93.5503	1.291834	0.040429	0.040160	95.5573	22526.3	0.037247	0.057108	1673.27	86121.9
213	2.000000	1.303715	7.36714e+06	-49289.1	955.818	-29759.7	0.000000	0.000000	7.309842	136.196	NaN	0.000000	0.001625	0.001747	28.0799	51.8903	0.001745	29736.9	1.550865	-1.984586	137.832	1.303489	0.052042	0.051815	136.196	29736.9	0.048607	0.088156	1544.94	91504.6
213	2.000000	1.315148	7.36714e+06	-49289.1	955.818	-29759.7	0.000000	0.000000	7.324087	204.575	NaN	0.000000	0.001624	0.001698	28.0784	63.0137	0.001791	35175.5	6.564757	171.272	205.142	1.314943	0.063475	0.063270	204.575	35175.5	0.059113	0.122646	1668.01	91766.9
213	2.000000	1.326651	7.36714e+06	-49289.1	955.818	-29759.7	0.000000	0.000000	7.338672	279.553	NaN	0.000000	0.001639	0.001701	28.0782	75.6142	0.001776	42565	5.834371	-8.546216	278.821	1.326374	0.074977	0.074700	279.553	42565	0.070052	0.164298	1701.5	95942.1
213	2.000000	1.337934	7.36714e+06	-49289.1	955.817	-29759.7	0.000000	0.000000	7.353474	365.114	NaN	0.000000	0.001671	0.001740	28.079	86.7613	0.001720	50443.6	5.386862	170.075	357.451	1.337645	0.086261	0.085971	365.114	50443.6	0.080832	0.210921	1731.04	100350
213	2.000000	1.349544	7.36714e+06	-49289.1	955.818	-29759.7	0.000000	0.000000	7.368731	453.84	NaN	0.000000	0.001679	0.001762	28.0799	97.3552	0.001905	51103.3	3.491361	-6.770857	449.38	1.349232	0.097870	0.097558	453.84	51103.3	0.091209	0.260911	1739.45	91406.4
213	2.000000	1.360553	7.36714e+06	-49289.1	955.817	-29759.7	0.000000	0.000000	7.383381	542.378	NaN	0.000000	0.001694	0.001781	28.0796	106.259	0.001762	60290.5	0.165571	-5.137105	539.464	1.360334	0.108879	0.108661	542.378	60290.5	0.102132	0.318856	1701.01	97549.4