File: remote_trans/data/nanoindenter/0828-1/data/Data_2025-08-06,11h17m57s/2025-07-22_16-23-58_1_391.txt
2025-07-22, 16:23:58, 1
Index	Phase	Displacement	Time	Pos X	Pos Y	Pos Z	Rot A	Rot B	Piezo Z	Force A	Force B	Gripper	Voltage A	Voltage B	Temperature	Amplitude force	Amplitude pos	Stiffness	Phase shift	Phase excitation	Force A raw	Displacement raw	HMax	HMax raw	Real Force	Real Stiffness	Contact Depth	Area	Hardness	Reduced Mod.
[#]	[#]	[um]	[s]	[um]	[um]	[um]	[m°]	[m°]	[um]	[uN]	[uN]	[V]	[V]	[V]	[°C]	[uN]	[um]	[N/m]	[°]	[°]	[uN]	[um]	[um]	[um]	[uN]	[N/m]	[um]	[um^2]	[MPa]	[MPa]
391	1.000000	0.002513	7.36889e+06	-57539.1	1005.82	-29736.9	0.000000	0.000000	6.002793	-0.012055	NaN	0.000000	0.001651	0.001642	28.0807	0.040014	0.000949	42.1468	-93.507	-166.648	0.002470	0.001218	-1.053070	-1.054365	-0.012055	42.1468	-1.052856	-1.166280E+14	1.033608E-16	NaN
391	1.000000	0.042478	7.36889e+06	-57539.1	1005.82	-29736.9	0.000000	0.000000	6.042760	0.007860	NaN	0.000000	0.001635	0.001654	28.0814	0.104106	0.001914	54.3974	-122.446	-169.178	-0.069967	0.041198	-1.013105	-1.014385	0.007860	54.3974	-1.013213	-3.416854E+13	-2.300487E-16	NaN
391	1.000000	0.082458	7.36889e+06	-57539.1	1005.82	-29736.9	0.000000	0.000000	6.082740	0.028427	NaN	0.000000	0.001612	0.001648	28.0813	0.183595	0.001939	94.6702	-154.222	-167.089	-0.041987	0.081158	-0.973125	-0.974425	0.028427	94.6702	-0.973350	-9.926909E+12	-2.863668E-15	NaN
391	1.000000	0.122529	7.36889e+06	-57539.1	1005.82	-29736.9	0.000000	0.000000	6.122807	-0.064569	NaN	0.000000	0.001658	0.001657	28.0814	0.048368	0.002067	23.3952	72.2313	-164.081	-0.032458	0.121161	-0.933054	-0.934422	-0.064569	23.3952	-0.930984	-2.663672E+12	2.424072E-14	NaN
391	1.000000	0.162522	7.36889e+06	-57539.1	1005.82	-29736.9	0.000000	0.000000	6.162804	0.009262	NaN	0.000000	0.001630	0.001649	28.0798	0.043583	0.001965	22.1842	109.577	-167.189	0.047828	0.161155	-0.893061	-0.894428	0.009262	22.1842	-0.893374	-8.270250E+11	-1.119932E-14	NaN
391	1.000000	0.202524	7.36889e+06	-57539.1	1005.82	-29736.9	0.000000	0.000000	6.202805	-0.015153	NaN	0.000000	0.001655	0.001626	28.0799	0.053600	0.001935	27.7001	118.442	-166.367	0.035941	0.201240	-0.853059	-0.854343	-0.015153	27.7001	-0.852649	-2.325965E+11	6.514909E-14	NaN
391	1.000000	0.242553	7.36889e+06	-57539.1	1005.82	-29736.9	0.000000	0.000000	6.242833	-0.026937	NaN	0.000000	0.001656	0.001630	28.0798	0.069106	0.002026	34.1135	145.887	-163.733	0.039883	0.241190	-0.813030	-0.814393	-0.026937	34.1135	-0.812437	-6.631906E+10	4.061769E-13	NaN
391	1.000000	0.282557	7.36889e+06	-57539.1	1005.82	-29737	0.000000	0.000000	6.282838	-0.011796	NaN	0.000000	0.001670	0.001640	28.08	0.056905	0.002116	26.889	-51.5529	-168.865	0.051783	0.281240	-0.773026	-0.774343	-0.011796	26.889	-0.772696	-1.914104E+10	6.162926E-13	NaN
391	1.000000	0.322568	7.36889e+06	-57539.1	1005.82	-29737	0.000000	0.000000	6.322848	-0.043462	NaN	0.000000	0.001660	0.001659	28.0812	0.064371	0.001979	32.5227	132.76	-164.778	-0.011085	0.321321	-0.733015	-0.734262	-0.043462	32.5227	-0.732012	-5.348524E+9	8.126041E-12	NaN
391	1.000000	0.362604	7.36889e+06	-57539.1	1005.82	-29737	0.000000	0.000000	6.362882	-0.068354	NaN	0.000000	0.001618	0.001667	28.0809	0.006483	0.001946	3.330996	177.355	-164.894	-0.042295	0.361282	-0.692979	-0.694301	-0.068354	3.330996	-0.677589	-9.665513E+8	7.071936E-11	NaN
391	1.000000	0.402621	7.36889e+06	-57539.1	1005.82	-29737	0.000000	0.000000	6.402901	-0.026665	NaN	0.000000	0.001608	0.001648	28.0809	0.100062	0.002015	49.6579	52.728	-166.918	0.030908	0.401337	-0.652962	-0.654246	-0.026665	49.6579	-0.652559	-4.390523E+8	6.073302E-11	NaN
391	1.000000	0.442629	7.36889e+06	-57539.1	1005.82	-29737	0.000000	0.000000	6.442910	0.006950	NaN	0.000000	0.001619	0.001627	28.0795	0.090932	0.002046	44.4535	-35.3885	-163.969	-0.013728	0.441372	-0.612954	-0.614211	0.006950	44.4535	-0.613071	-1.259988E+8	-5.515536E-11	NaN
391	1.000000	0.482675	7.36889e+06	-57539.1	1005.82	-29737	0.000000	0.000000	6.482955	-0.035393	NaN	0.000000	0.001638	0.001649	28.0793	0.041510	0.001862	22.2928	-116.339	-168.472	0.020831	0.481352	-0.572908	-0.574231	-0.035393	22.2928	-0.571717	-3.391213E+7	1.043656E-9	NaN
391	1.000000	0.522658	7.36889e+06	-57539.1	1005.82	-29737	0.000000	0.000000	6.522940	0.006237	NaN	0.000000	0.001597	0.001641	28.0795	0.019119	0.002047	9.339150	-47.2988	-167.077	-0.028936	0.521372	-0.532925	-0.534211	0.006237	9.339150	-0.533425	-1.000312E+7	-6.234592E-10	NaN
391	1.000000	0.562667	7.36889e+06	-57539.1	1005.82	-29737	0.000000	0.000000	6.562945	-0.083330	NaN	0.000000	0.001571	0.001648	28.0796	0.120220	0.001941	61.9492	177.603	-165.096	-0.048569	0.561373	-0.492916	-0.494210	-0.083330	61.9492	-0.491907	-2.64265e+06	3.153268E-8	NaN
391	1.000000	0.602687	7.36889e+06	-57539.1	1005.82	-29737	0.000000	0.000000	6.602967	-0.029058	NaN	0.000000	0.001621	0.001679	28.0811	0.028847	0.002100	13.74	-18.8018	-163.276	-0.079567	0.601466	-0.452896	-0.454117	-0.029058	13.74	-0.451310	-712495	4.078339E-8	NaN
391	1.000000	0.642726	7.36889e+06	-57539.1	1005.82	-29737	0.000000	0.000000	6.643003	-0.089210	NaN	0.000000	0.001613	0.001643	28.0812	0.059869	0.002071	28.9146	6.503062	-166.386	0.043495	0.641410	-0.412857	-0.414173	-0.089210	28.9146	-0.410543	-188853	4.723782E-7	NaN
391	1.000000	0.682733	7.36889e+06	-57539.1	1005.82	-29737	0.000000	0.000000	6.683013	-0.035170	NaN	0.000000	0.001642	0.001606	28.0812	0.138111	0.001976	69.9093	-111.174	-166.583	0.017870	0.681442	-0.372850	-0.374141	-0.035170	69.9093	-0.372473	-53916.9	6.523029E-7	NaN
391	1.000000	0.722739	7.36889e+06	-57539.1	1005.82	-29737	0.000000	0.000000	6.723018	-0.054761	NaN	0.000000	0.001615	0.001579	28.0798	0.036443	0.001961	18.5853	-11.3519	-165.009	-0.045568	0.721428	-0.332844	-0.334155	-0.054761	18.5853	-0.330635	-13327.3	4.108943E-6	NaN
391	1.000000	0.762769	7.36889e+06	-57539.1	1005.82	-29737	0.000000	0.000000	6.763050	0.003151	NaN	0.000000	0.001608	0.001582	28.0798	0.044306	0.002080	21.2979	130.25	-167.255	0.001725	0.761526	-0.292814	-0.294057	0.003151	21.2979	-0.292925	-3690.49	-8.538022E-7	NaN
391	1.000000	0.802799	7.36889e+06	-57539.1	1005.82	-29737	0.000000	0.000000	6.803080	-0.017279	NaN	0.000000	0.001657	0.001588	28.0798	0.066052	0.002004	32.9625	84.7542	-166.506	-0.087860	0.801451	-0.252784	-0.254132	-0.017279	32.9625	-0.252390	-895.148	1.930277E-5	NaN
391	1.000000	0.842796	7.36889e+06	-57539.1	1005.82	-29737	0.000000	0.000000	6.843076	-0.018624	NaN	0.000000	0.001697	0.001616	28.0815	0.048459	0.002012	24.0793	51.2552	-166.008	0.012811	0.841494	-0.212787	-0.214089	-0.018624	24.0793	-0.212207	-208.213	8.944866E-5	NaN
391	1.000000	0.882810	7.36889e+06	-57539.1	1005.82	-29737	0.000000	0.000000	6.883091	0.005506	NaN	0.000000	0.001641	0.001615	28.0811	0.067422	0.002071	32.5584	-104.717	-167.151	-0.045641	0.881480	-0.172773	-0.174103	0.005506	32.5584	-0.172900	-46.1125	-0.000119	NaN
391	1.000000	0.922850	7.36889e+06	-57539.1	1005.82	-29737	0.000000	0.000000	6.923129	-0.043203	NaN	0.000000	0.001655	0.001585	28.0815	0.065551	0.001906	34.4006	146.722	-164.846	-0.010083	0.921502	-0.132733	-0.134081	-0.043203	34.4006	-0.131791	-8.254532	0.005234	NaN
391	1.000000	0.962856	7.36889e+06	-57539.1	1005.82	-29737	0.000000	0.000000	6.963138	0.015898	NaN	0.000000	0.001592	0.001566	28.0812	0.011736	0.002038	5.760053	161.032	-166.258	-0.034994	0.961529	-0.092726	-0.094054	0.015898	5.760053	-0.094797	-1.395647	-0.011391	NaN
391	1.000000	1.002889	7.36889e+06	-57539.1	1005.82	-29737	0.000000	0.000000	7.003171	0.015543	NaN	0.000000	0.001564	0.001575	28.0796	0.037576	0.001928	19.4889	122.313	-167.614	0.057684	1.001541	-0.052694	-0.054042	0.015543	19.4889	-0.053292	-0.114584	-0.135644	NaN
391	1.000000	1.042885	7.36889e+06	-57539.1	1005.82	-29737	0.000000	0.000000	7.043167	0.009038	NaN	0.000000	0.001685	0.001551	28.0797	0.138700	0.001997	69.4523	-44.2045	-166.103	0.045273	1.041583	-0.012698	-0.014000	0.009038	69.4523	-0.012796	-0.007985	-1.131986	NaN
391	2.000000	1.069481	7.36889e+06	-57539.1	1005.82	-29737	0.000000	0.000000	7.070308	13.2583	NaN	0.000000	0.001587	0.001578	28.0799	13.5253	0.001740	7774.61	4.468072	-173.205	13.0222	1.069147	0.013898	0.013564	13.2583	7774.61	0.012619	0.012240	1083.21	64204.3
391	2.000000	1.079387	7.36889e+06	-57539.1	1005.82	-29737	0.000000	0.000000	7.080900	29.9146	NaN	0.000000	0.001608	0.001582	28.0814	24.0441	0.001860	12927.7	11.0869	176.557	30.1969	1.079084	0.023804	0.023501	29.9146	12927.7	0.022069	0.025898	1155.08	73394
391	2.000000	1.089373	7.36889e+06	-57539.1	1005.82	-29737	0.000000	0.000000	7.092055	58.3489	NaN	0.000000	0.001655	0.001580	28.0817	35.5821	0.001689	21062.9	5.431037	177.637	58.1181	1.089058	0.033790	0.033475	58.3489	21062.9	0.031712	0.044367	1315.14	91361
391	2.000000	1.099339	7.36889e+06	-57539.1	1005.82	-29737	0.000000	0.000000	7.103552	95.5597	NaN	0.000000	0.001639	0.001600	28.0812	45.0358	0.001663	27082.5	4.792659	175.375	94.796	1.099132	0.043756	0.043549	95.5597	27082.5	0.041110	0.066928	1427.8	95644.1
391	2.000000	1.109381	7.36889e+06	-57539.1	1005.82	-29737	0.000000	0.000000	7.114968	128.955	NaN	0.000000	0.001608	0.001600	28.0817	55.7074	0.001854	30051	3.808784	175.387	130.527	1.109178	0.053798	0.053595	128.955	30051	0.050580	0.094214	1368.75	89448.9
391	2.000000	1.119282	7.36889e+06	-57539.1	1005.82	-29737	0.000000	0.000000	7.127074	182.551	NaN	0.000000	0.001642	0.001595	28.0801	66.0683	0.001781	37099.4	4.105593	173.462	179.668	1.119066	0.063699	0.063483	182.551	37099.4	0.060009	0.125839	1450.67	95550.5
391	2.000000	1.129276	7.36889e+06	-57539.1	1005.82	-29737	0.000000	0.000000	7.139439	240.17	NaN	0.000000	0.001696	0.001611	28.0799	75.9208	0.001747	43460.7	3.385324	173.344	236.948	1.129031	0.073693	0.073448	240.17	43460.7	0.069549	0.162256	1480.19	98575.5
391	2.000000	1.139212	7.36889e+06	-57539.1	1005.82	-29737	0.000000	0.000000	7.152396	313.603	NaN	0.000000	0.001665	0.001650	28.0799	86.657	0.001859	46621.3	3.132499	173.139	309.141	1.138943	0.083629	0.083360	313.603	46621.3	0.078584	0.200749	1562.16	95067.3
391	2.000000	1.149268	7.36889e+06	-57539.1	1005.82	-29737	0.000000	0.000000	7.165433	386.043	NaN	0.000000	0.001597	0.001658	28.0811	95.229	0.001770	53810.7	0.627892	174.967	383.142	1.149090	0.093685	0.093507	386.043	53810.7	0.088304	0.246417	1566.63	99039
391	2.000000	1.159284	7.36889e+06	-57539.1	1005.82	-29737	0.000000	0.000000	7.178755	466.388	NaN	0.000000	0.001592	0.001651	28.0813	104.716	0.001820	57538.9	6.540496	168.134	466.1	1.159095	0.103701	0.103512	466.388	57538.9	0.097622	0.294273	1584.88	96908.1
391	2.000000	1.163233	7.36889e+06	-57539.1	1005.82	-29737	0.000000	0.000000	7.184511	510.295	NaN	0.000000	0.001592	0.001606	28.0814	107.153	0.001737	61690.1	4.251545	170.435	507.531	1.162775	0.107650	0.107192	510.295	61690.1	0.101447	0.315060	1619.67	100413