File: remote_trans/data/nanoindenter/0828-1/data/Data_2025-08-06,11h17m57s/2025-07-22_16-23-58_1_387.txt
2025-07-22, 16:23:58, 1
Index	Phase	Displacement	Time	Pos X	Pos Y	Pos Z	Rot A	Rot B	Piezo Z	Force A	Force B	Gripper	Voltage A	Voltage B	Temperature	Amplitude force	Amplitude pos	Stiffness	Phase shift	Phase excitation	Force A raw	Displacement raw	HMax	HMax raw	Real Force	Real Stiffness	Contact Depth	Area	Hardness	Reduced Mod.
[#]	[#]	[um]	[s]	[um]	[um]	[um]	[m°]	[m°]	[um]	[uN]	[uN]	[V]	[V]	[V]	[°C]	[uN]	[um]	[N/m]	[°]	[°]	[uN]	[um]	[um]	[um]	[uN]	[N/m]	[um]	[um^2]	[MPa]	[MPa]
387	1.000000	0.002742	7.36885e+06	-57739.1	1005.82	-29736.6	0.000000	0.000000	6.002781	0.058882	NaN	0.000000	0.001607	0.001669	28.0811	0.050104	0.001021	49.0509	-90.6628	-167.159	0.023991	0.001495	-1.125162	-1.126410	0.058882	49.0509	-1.126062	-1.121505E+15	-5.250270E-17	NaN
387	1.000000	0.044725	7.36885e+06	-57739.1	1005.82	-29736.6	0.000000	0.000000	6.044760	-0.022123	NaN	0.000000	0.001647	0.001699	28.0796	0.086522	0.001944	44.5063	85.1809	11.6166	-0.026084	0.043342	-1.083179	-1.084562	-0.022123	44.5063	-1.082807	-2.945871E+14	7.509900E-17	NaN
387	1.000000	0.086712	7.36885e+06	-57739.1	1005.82	-29736.6	0.000000	0.000000	6.086747	-0.035915	NaN	0.000000	0.001649	0.001674	28.0796	0.057473	0.001925	29.8617	132.376	-162.544	-0.013462	0.085407	-1.041192	-1.042497	-0.035915	29.8617	-1.040290	-7.904340E+13	4.543725E-16	NaN
387	1.000000	0.128739	7.36885e+06	-57739.1	1005.82	-29736.6	0.000000	0.000000	6.128775	0.008181	NaN	0.000000	0.001665	0.001743	28.0797	0.101019	0.002038	49.576	-134.5	15.1448	0.011308	0.127393	-0.999165	-1.000511	0.008181	49.576	-0.999289	-2.219200E+13	-3.686530E-16	NaN
387	1.000000	0.170759	7.36885e+06	-57739.1	1005.82	-29736.6	0.000000	0.000000	6.170794	-0.030575	NaN	0.000000	0.001660	0.001727	28.081	0.074787	0.002092	35.7572	24.936	-167.669	-0.050337	0.169449	-0.957145	-0.958455	-0.030575	35.7572	-0.956504	-5.884810E+12	5.195573E-15	NaN
387	1.000000	0.212755	7.36885e+06	-57739.1	1005.82	-29736.6	0.000000	0.000000	6.212789	-0.028756	NaN	0.000000	0.001656	0.001696	28.0811	0.110573	0.002037	54.2761	-161.019	13.8389	-0.027740	0.211398	-0.915150	-0.916506	-0.028756	54.2761	-0.914752	-1.608221E+12	1.788036E-14	NaN
387	1.000000	0.254788	7.36885e+06	-57739.1	1005.82	-29736.6	0.000000	0.000000	6.254824	-0.001353	NaN	0.000000	0.001683	0.001688	28.0808	0.073760	0.001938	38.0676	-115.236	-165.83	0.079230	0.253470	-0.873116	-0.874434	-0.001353	38.0676	-0.873089	-4.397841E+11	3.076953E-15	NaN
387	1.000000	0.296806	7.36885e+06	-57739.1	1005.82	-29736.6	0.000000	0.000000	6.296841	-0.026409	NaN	0.000000	0.001649	0.001709	28.0808	0.051426	0.001994	25.7892	-158.805	14.8935	-0.028506	0.295419	-0.831098	-0.832485	-0.026409	25.7892	-0.830330	-1.159481E+11	2.277659E-13	NaN
387	1.000000	0.338802	7.36885e+06	-57739.1	1005.82	-29736.6	0.000000	0.000000	6.338836	-0.041667	NaN	0.000000	0.001562	0.001678	28.0796	0.134572	0.002027	66.3941	152.008	-165.352	-0.040106	0.337565	-0.789102	-0.790339	-0.041667	66.3941	-0.788632	-3.151379E+10	1.322179E-12	NaN
387	1.000000	0.380828	7.36885e+06	-57739.1	1005.82	-29736.6	0.000000	0.000000	6.380863	-0.016912	NaN	0.000000	0.001577	0.001692	28.0798	0.094572	0.001949	48.5174	173.247	15.8631	0.006019	0.379461	-0.747077	-0.748443	-0.016912	48.5174	-0.746815	-8.508675E+9	1.987644E-12	NaN
387	1.000000	0.422875	7.36885e+06	-57739.1	1005.82	-29736.6	0.000000	0.000000	6.422914	0.065824	NaN	0.000000	0.001601	0.001664	28.0798	0.042022	0.002109	19.927	-164.973	-165.523	0.107227	0.421554	-0.705029	-0.706350	0.065824	19.927	-0.707506	-2.477514E+9	-2.656856E-11	NaN
387	1.000000	0.464880	7.36885e+06	-57739.1	1005.82	-29736.6	0.000000	0.000000	6.464912	-0.075398	NaN	0.000000	0.001567	0.001644	28.0812	0.085020	0.001958	43.413	-93.587	10.2425	-0.031128	0.463540	-0.663025	-0.664364	-0.075398	43.413	-0.661722	-5.862114E+8	1.286195E-10	NaN
387	1.000000	0.506925	7.36885e+06	-57739.1	1005.82	-29736.6	0.000000	0.000000	6.506964	0.063000	NaN	0.000000	0.001638	0.001691	28.081	0.102987	0.001864	55.2501	-69.9105	-168.097	-0.029646	0.505540	-0.620979	-0.622364	0.063000	55.2501	-0.621834	-1.662800E+8	-3.788798E-10	NaN
387	1.000000	0.548921	7.36885e+06	-57739.1	1005.82	-29736.6	0.000000	0.000000	6.548954	-0.063314	NaN	0.000000	0.001594	0.001694	28.0808	0.099324	0.001861	53.3758	-116.862	10.7085	-0.034924	0.547576	-0.578983	-0.580328	-0.063314	53.3758	-0.578093	-4.153455E+7	1.524370E-9	NaN
387	1.000000	0.590942	7.36885e+06	-57739.1	1005.82	-29736.6	0.000000	0.000000	6.590976	-0.030315	NaN	0.000000	0.001638	0.001679	28.0796	0.079515	0.001960	40.5606	-65.2763	-168.213	-0.016763	0.589592	-0.536963	-0.538313	-0.030315	40.5606	-0.536402	-1.100135E+7	2.755610E-9	NaN
387	1.000000	0.632963	7.36885e+06	-57739.1	1005.82	-29736.6	0.000000	0.000000	6.632995	-0.114079	NaN	0.000000	0.001661	0.001692	28.0798	0.132777	0.002123	62.5339	147.28	14.5773	-0.102513	0.631627	-0.494941	-0.496277	-0.114079	62.5339	-0.493573	-2.78806e+06	4.091719E-8	NaN
387	1.000000	0.674985	7.36885e+06	-57739.1	1005.82	-29736.6	0.000000	0.000000	6.675023	0.039986	NaN	0.000000	0.001697	0.001707	28.0798	0.083271	0.002035	40.9292	97.9114	-163.857	0.027053	0.673686	-0.452919	-0.454218	0.039986	40.9292	-0.453652	-768683	-5.201832E-8	NaN
387	1.000000	0.716987	7.36885e+06	-57739.1	1005.82	-29736.6	0.000000	0.000000	6.717019	-0.080579	NaN	0.000000	0.001603	0.001709	28.081	0.142249	0.001985	71.654	-174.331	13.8418	-0.096172	0.715632	-0.410918	-0.412273	-0.080579	71.654	-0.410074	-185976	4.332769E-7	NaN
387	1.000000	0.759015	7.36885e+06	-57739.1	1005.82	-29736.6	0.000000	0.000000	6.759050	-0.009273	NaN	0.000000	0.001609	0.001672	28.0811	0.025892	0.002000	12.9486	104.776	-168.609	0.061622	0.757702	-0.368890	-0.370202	-0.009273	12.9486	-0.368353	-47032.2	1.971657E-7	NaN
387	1.000000	0.801029	7.36885e+06	-57739.1	1005.82	-29736.6	0.000000	0.000000	6.801064	-0.013761	NaN	0.000000	0.001615	0.001722	28.081	0.044521	0.001981	22.4733	146.825	9.397990	-0.041529	0.799693	-0.326876	-0.328211	-0.013761	22.4733	-0.326416	-11559.1	1.190516E-6	NaN
387	1.000000	0.843060	7.36885e+06	-57739.1	1005.82	-29736.6	0.000000	0.000000	6.843091	-0.115979	NaN	0.000000	0.001586	0.001696	28.0809	0.084559	0.001971	42.8999	17.4426	-167.599	-0.124870	0.841761	-0.284844	-0.286144	-0.115979	42.8999	-0.282816	-2602.65	4.456201E-5	NaN
387	1.000000	0.885049	7.36885e+06	-57739.1	1005.82	-29736.6	0.000000	0.000000	6.885084	-0.016192	NaN	0.000000	0.001603	0.001743	28.0797	0.050140	0.001959	25.5975	-82.656	8.406796	0.007541	0.883701	-0.242855	-0.244203	-0.016192	25.5975	-0.242381	-626.176	2.585891E-5	NaN
387	1.000000	0.927083	7.36885e+06	-57739.1	1005.82	-29736.6	0.000000	0.000000	6.927117	-0.035492	NaN	0.000000	0.001589	0.001694	28.0801	0.108232	0.001979	54.6998	44.3709	-167.886	-0.090444	0.925736	-0.200822	-0.202168	-0.035492	54.6998	-0.200335	-133.415	0.000266	NaN
387	1.000000	0.969086	7.36885e+06	-57739.1	1005.82	-29736.6	0.000000	0.000000	6.969122	0.003856	NaN	0.000000	0.001602	0.001664	28.08	0.078797	0.001941	40.6062	-69.4783	14.243	-0.024744	0.967739	-0.158818	-0.160165	0.003856	40.6062	-0.158890	-26.1957	-0.000147	NaN
387	1.000000	1.011097	7.36885e+06	-57739.1	1005.82	-29736.6	0.000000	0.000000	7.011133	0.002756	NaN	0.000000	0.001688	0.001709	28.0813	0.137269	0.002149	63.8776	102.343	-169.564	0.033517	1.009762	-0.116807	-0.118143	0.002756	63.8776	-0.116840	-4.167517	-0.000661	NaN
387	1.000000	1.053170	7.36885e+06	-57739.1	1005.82	-29736.6	0.000000	0.000000	7.053209	0.070849	NaN	0.000000	0.001595	0.001683	28.0812	0.126657	0.001954	64.8088	161.044	13.0346	-0.005234	1.051801	-0.074734	-0.076104	0.070849	64.8088	-0.075554	-0.477330	-0.148427	NaN
387	1.000000	1.095165	7.36885e+06	-57739.1	1005.82	-29736.6	0.000000	0.000000	7.095202	0.012112	NaN	0.000000	0.001604	0.001695	28.0812	0.052300	0.002033	25.7204	94.0894	-166.462	0.068941	1.093877	-0.032739	-0.034028	0.012112	25.7204	-0.033092	-0.028171	-0.429949	NaN
387	2.000000	1.136145	7.36885e+06	-57739.1	1005.82	-29736.6	0.000000	0.000000	7.136557	9.142097	NaN	0.000000	0.001592	0.001693	28.0802	8.799549	0.001623	5422.59	5.425769	10.5457	8.560571	1.135609	0.008241	0.007705	9.142097	5422.59	0.006977	0.006011	1520.96	63902.2
387	2.000000	1.146579	7.36885e+06	-57739.1	1005.82	-29736.6	0.000000	0.000000	7.147645	25.0317	NaN	0.000000	0.001631	0.001694	28.0801	21.0605	0.001819	11576.3	5.523096	-177.735	22.8689	1.146289	0.018675	0.018384	25.0317	11576.3	0.017053	0.018122	1381.3	78567.1
387	2.000000	1.157166	7.36885e+06	-57739.1	1005.82	-29736.6	0.000000	0.000000	7.159097	46.0605	NaN	0.000000	0.001683	0.001687	28.0801	30.534	0.001769	17264.5	6.767497	-1.195000	48.5107	1.156770	0.029261	0.028866	46.0605	17264.5	0.027260	0.035256	1306.44	84005.7
387	2.000000	1.167640	7.36885e+06	-57739.1	1005.82	-29736.6	0.000000	0.000000	7.170968	80.0187	NaN	0.000000	0.001660	0.001709	28.0811	40.7805	0.001837	22198.6	6.424925	177.437	81.8463	1.167217	0.039736	0.039313	80.0187	22198.6	0.037032	0.056584	1414.17	85261.5
387	2.000000	1.178018	7.36885e+06	-57739.1	1005.82	-29736.6	0.000000	0.000000	7.183086	122.292	NaN	0.000000	0.001623	0.001687	28.0813	49.583	0.001718	28862.9	4.425496	-5.121236	117.906	1.177731	0.050114	0.049827	122.292	28862.9	0.046936	0.083179	1470.23	91433.8
387	2.000000	1.188597	7.36885e+06	-57739.1	1005.82	-29736.6	0.000000	0.000000	7.195209	159.841	NaN	0.000000	0.001684	0.001693	28.0811	62.8986	0.001814	34673.3	6.328013	172.48	158.952	1.188304	0.060693	0.060400	159.841	34673.3	0.057235	0.116081	1376.97	92979.5
387	2.000000	1.199070	7.36885e+06	-57739.1	1005.82	-29736.6	0.000000	0.000000	7.207936	214.615	NaN	0.000000	0.001674	0.001680	28.0809	71.4621	0.001762	40553.4	3.778196	-5.040174	215.761	1.198620	0.071165	0.070716	214.615	40553.4	0.067196	0.152870	1403.9	94763
387	2.000000	1.209484	7.36885e+06	-57739.1	1005.82	-29736.6	0.000000	0.000000	7.221175	283.283	NaN	0.000000	0.001699	0.001730	28.0797	81.6432	0.001742	46868.8	4.289274	171.431	279.65	1.209143	0.081579	0.081239	283.283	46868.8	0.077046	0.193926	1460.78	97238.8
387	2.000000	1.220062	7.36885e+06	-57739.1	1005.82	-29736.6	0.000000	0.000000	7.234857	358.708	NaN	0.000000	0.001655	0.001718	28.0802	91.2937	0.001809	50467.5	7.580809	-11.1703	359.661	1.219555	0.092158	0.091650	358.708	50467.5	0.086827	0.239196	1499.64	94277.5
387	2.000000	1.230333	7.36885e+06	-57739.1	1005.82	-29736.6	0.000000	0.000000	7.248678	444.967	NaN	0.000000	0.001739	0.001701	28.0798	99.3275	0.001756	56558.6	5.367150	169.53	438.017	1.230075	0.102429	0.102170	444.967	56558.6	0.096528	0.288450	1542.62	96213.7
387	2.000000	1.234512	7.36885e+06	-57739.1	1005.82	-29736.6	0.000000	0.000000	7.254312	480.327	NaN	0.000000	0.001669	0.001733	28.0799	103.877	0.001753	59247.9	3.711896	170.968	480.625	1.234088	0.106608	0.106184	480.327	59247.9	0.100528	0.310006	1549.41	97221.3