File: remote_trans/data/nanoindenter/0828-1/data/Data_2025-08-06,11h17m57s/2025-07-22_16-23-58_1_361.txt
2025-07-22, 16:23:58, 1
Index	Phase	Displacement	Time	Pos X	Pos Y	Pos Z	Rot A	Rot B	Piezo Z	Force A	Force B	Gripper	Voltage A	Voltage B	Temperature	Amplitude force	Amplitude pos	Stiffness	Phase shift	Phase excitation	Force A raw	Displacement raw	HMax	HMax raw	Real Force	Real Stiffness	Contact Depth	Area	Hardness	Reduced Mod.
[#]	[#]	[um]	[s]	[um]	[um]	[um]	[m°]	[m°]	[um]	[uN]	[uN]	[V]	[V]	[V]	[°C]	[uN]	[um]	[N/m]	[°]	[°]	[uN]	[um]	[um]	[um]	[uN]	[N/m]	[um]	[um^2]	[MPa]	[MPa]
361	1.000000	0.002527	7.36859e+06	-56689.1	955.818	-29738.1	0.000000	0.000000	6.002797	0.000184	NaN	0.000000	0.001670	0.001752	28.0798	0.012655	0.000783	16.1562	-168.834	-163.935	-0.002142	0.001230	-1.714764	-1.716061	0.000184	16.1562	-1.714773	-7.992252E+22	-2.303828E-27	NaN
361	1.000000	0.060466	7.36859e+06	-56689.1	955.819	-29738	0.000000	0.000000	6.060734	-0.045973	NaN	0.000000	0.001551	0.001653	28.0793	0.106507	0.001995	53.3797	61.3421	13.4787	-0.000217	0.059111	-1.656826	-1.658180	-0.045973	53.3797	-1.656180	-1.330973E+22	3.454121E-24	NaN
361	1.000000	0.118492	7.36859e+06	-56689.1	955.819	-29738	0.000000	0.000000	6.118765	0.050836	NaN	0.000000	0.001556	0.001704	28.0784	0.100969	0.001944	51.9323	168.485	-165.71	-0.071962	0.117204	-1.598799	-1.600088	0.050836	51.9323	-1.599533	-2.349737E+21	-2.163490E-23	NaN
361	1.000000	0.176524	7.36859e+06	-56689.1	955.818	-29738	0.000000	0.000000	6.176794	-0.010858	NaN	0.000000	0.001595	0.001687	28.0782	0.059196	0.001943	30.463	81.4791	14.6879	-0.035499	0.175171	-1.540767	-1.542120	-0.010858	30.463	-1.540500	-3.850811E+20	2.819705E-23	NaN
361	1.000000	0.234530	7.36859e+06	-56689.1	955.819	-29738	0.000000	0.000000	6.234801	0.028438	NaN	0.000000	0.001605	0.001688	28.0796	0.045209	0.002024	22.3386	-145.1	-159.72	0.100963	0.233230	-1.482762	-1.484062	0.028438	22.3386	-1.483717	-6.751833E+19	-4.211887E-22	NaN
361	1.000000	0.292587	7.36859e+06	-56689.1	955.819	-29738	0.000000	0.000000	6.292857	0.012236	NaN	0.000000	0.001591	0.001691	28.0794	0.051190	0.001878	27.2629	175.476	17.7967	-0.029735	0.291214	-1.424705	-1.426077	0.012236	27.2629	-1.425041	-1.115388E+19	-1.097055E-21	NaN
361	1.000000	0.350586	7.36859e+06	-56689.1	955.819	-29738	0.000000	0.000000	6.350855	-0.023573	NaN	0.000000	0.001567	0.001708	28.0795	0.047699	0.001968	24.2324	75.9257	-164.367	-0.005314	0.349288	-1.366705	-1.368004	-0.023573	24.2324	-1.365976	-1.817542E+18	1.296958E-20	NaN
361	1.000000	0.408651	7.36859e+06	-56689.1	955.819	-29738	0.000000	0.000000	6.408922	0.006732	NaN	0.000000	0.001561	0.001714	28.0782	0.095122	0.001873	50.7852	58.9743	13.111	-0.070508	0.407297	-1.308640	-1.309995	0.006732	50.7852	-1.308740	-3.127355E+17	-2.152576E-20	NaN
361	1.000000	0.466665	7.36859e+06	-56689.1	955.818	-29738	0.000000	0.000000	6.466931	-0.107179	NaN	0.000000	0.001567	0.001733	28.0782	0.095127	0.002027	46.9385	60.9574	-162.295	-0.072298	0.465350	-1.250627	-1.251942	-0.107179	46.9385	-1.248914	-4.959043E+16	2.161275E-18	NaN
361	1.000000	0.524707	7.36859e+06	-56689.1	955.818	-29738	0.000000	0.000000	6.524977	0.003947	NaN	0.000000	0.001612	0.001707	28.0794	0.139496	0.002037	68.4979	-81.0452	16.4365	0.033199	0.523311	-1.192585	-1.193980	0.003947	68.4979	-1.192628	-8.750258E+15	-4.510674E-19	NaN
361	1.000000	0.582692	7.36859e+06	-56689.1	955.818	-29738	0.000000	0.000000	6.582963	0.024126	NaN	0.000000	0.001604	0.001752	28.0792	0.007355	0.002085	3.527486	168.248	-164.284	-0.005199	0.581385	-1.134600	-1.135906	0.024126	3.527486	-1.139729	-1.710449E+15	-1.410492E-17	NaN
361	1.000000	0.640745	7.36859e+06	-56689.1	955.818	-29738	0.000000	0.000000	6.641013	-0.051988	NaN	0.000000	0.001575	0.001709	28.0782	0.067032	0.002023	33.1301	-156.955	16.3307	0.020277	0.639404	-1.076547	-1.077887	-0.051988	33.1301	-1.075370	-2.340626E+14	2.221122E-16	NaN
361	1.000000	0.698756	7.36859e+06	-56689.1	955.819	-29738	0.000000	0.000000	6.699025	-0.049574	NaN	0.000000	0.001604	0.001714	28.0785	0.104408	0.001938	53.8677	50.2155	-164.024	0.032032	0.697454	-1.018535	-1.019838	-0.049574	53.8677	-1.017845	-3.944170E+13	1.256887E-15	NaN
361	1.000000	0.756812	7.36859e+06	-56689.1	955.819	-29738	0.000000	0.000000	6.757082	0.011252	NaN	0.000000	0.001651	0.001750	28.0786	0.084909	0.001973	43.0411	-121.743	13.7079	0.012449	0.755433	-0.960480	-0.961859	0.011252	43.0411	-0.960676	-6.698570E+12	-1.679828E-15	NaN
361	1.000000	0.814812	7.36859e+06	-56689.1	955.818	-29738	0.000000	0.000000	6.815080	-0.050474	NaN	0.000000	0.001627	0.001767	28.0798	0.082183	0.002065	39.8047	-81.5713	-167.977	-0.072136	0.813519	-0.902479	-0.903773	-0.050474	39.8047	-0.901528	-1.065898E+12	4.735327E-14	NaN
361	1.000000	0.872831	7.36859e+06	-56689.1	955.818	-29738	0.000000	0.000000	6.873102	0.025551	NaN	0.000000	0.001591	0.001690	28.0797	0.081118	0.001992	40.7131	-101.26	12.4018	0.006478	0.871448	-0.844461	-0.845843	0.025551	40.7131	-0.844931	-1.828488E+11	-1.397370E-13	NaN
361	1.000000	0.930833	7.36859e+06	-56689.1	955.817	-29738	0.000000	0.000000	6.931101	-0.031296	NaN	0.000000	0.001553	0.001745	28.0787	0.053555	0.001997	26.812	-7.559658	-164.202	-0.033943	0.929569	-0.786459	-0.787722	-0.031296	26.812	-0.785584	-2.864804E+10	1.092444E-12	NaN
361	1.000000	0.988873	7.3686e+06	-56689.1	955.819	-29738	0.000000	0.000000	6.989144	0.026951	NaN	0.000000	0.001598	0.001716	28.0786	0.092438	0.001942	47.6049	-163.9	14.9154	0.038749	0.987522	-0.728419	-0.729769	0.026951	47.6049	-0.728843	-4.842171E+9	-5.565900E-12	NaN
361	1.000000	1.046924	7.3686e+06	-56689.1	955.819	-29738	0.000000	0.000000	7.047192	-0.052977	NaN	0.000000	0.001689	0.001715	28.0795	0.010441	0.001878	5.560342	30.2735	-163.177	-0.092200	1.045559	-0.670367	-0.671733	-0.052977	5.560342	-0.663222	-6.146017E+8	8.619682E-11	NaN
361	1.000000	1.104918	7.3686e+06	-56689.1	955.82	-29738	0.000000	0.000000	7.105185	-0.064809	NaN	0.000000	0.001619	0.001730	28.0796	0.038618	0.002089	18.484	-170.38	13.3872	-0.041996	1.103558	-0.612374	-0.613734	-0.064809	18.484	-0.609744	-1.133956E+8	5.715333E-10	NaN
361	1.000000	1.162934	7.3686e+06	-56689.1	955.819	-29738	0.000000	0.000000	7.163205	0.005673	NaN	0.000000	0.001597	0.001718	28.0796	0.039311	0.002117	18.5701	163.028	-164.018	0.098595	1.161577	-0.554357	-0.555715	0.005673	18.5701	-0.554586	-1.965458E+7	-2.886586E-10	NaN
361	1.000000	1.220963	7.3686e+06	-56689.1	955.819	-29738	0.000000	0.000000	7.221236	0.055701	NaN	0.000000	0.001593	0.001702	28.0786	0.107471	0.002025	53.0668	169.814	16.3942	0.040856	1.219585	-0.496328	-0.497707	0.055701	53.0668	-0.497115	-3.1244e+06	-1.782779E-8	NaN
361	1.000000	1.278984	7.3686e+06	-56689.1	955.819	-29738	0.000000	0.000000	7.279254	-0.020526	NaN	0.000000	0.001600	0.001712	28.0788	0.165929	0.002031	81.7122	167.191	-163.916	-0.020578	1.277706	-0.438307	-0.439585	-0.020526	81.7122	-0.438119	-464311	4.420751E-8	NaN
361	1.000000	1.337054	7.3686e+06	-56689.1	955.82	-29738	0.000000	0.000000	7.337322	-0.048166	NaN	0.000000	0.001613	0.001726	28.0802	0.017202	0.002026	8.491379	103.958	15.8412	0.027673	1.335641	-0.380238	-0.381651	-0.048166	8.491379	-0.375984	-60563.5	7.953003E-7	NaN
361	1.000000	1.395077	7.3686e+06	-56689.1	955.819	-29738	0.000000	0.000000	7.395344	-0.058827	NaN	0.000000	0.001620	0.001706	28.0799	0.061838	0.001943	31.8248	-127.688	-167.426	-0.019612	1.393782	-0.322215	-0.323509	-0.058827	31.8248	-0.320829	-9568.22	6.148190E-6	NaN
361	1.000000	1.453091	7.3686e+06	-56689.1	955.82	-29738	0.000000	0.000000	7.453361	0.000585	NaN	0.000000	0.001542	0.001678	28.0797	0.057137	0.002027	28.1894	104.342	17.8601	-0.007707	1.451745	-0.264201	-0.265547	0.000585	28.1894	-0.264217	-1359.65	-4.300600E-7	NaN
361	1.000000	1.511066	7.3686e+06	-56689.1	955.82	-29738	0.000000	0.000000	7.511335	-0.011914	NaN	0.000000	0.001613	0.001715	28.0788	0.120884	0.001980	61.064	118.86	-164.926	-0.085425	1.509821	-0.206226	-0.207471	-0.011914	61.064	-0.206080	-165.636	7.192917E-5	NaN
361	1.000000	1.569118	7.3686e+06	-56689.1	955.821	-29738	0.000000	0.000000	7.569387	-0.037546	NaN	0.000000	0.001598	0.001713	28.0787	0.038257	0.002052	18.6455	-177.794	18.2528	-0.106219	1.567795	-0.148174	-0.149497	-0.037546	18.6455	-0.146663	-15.7349	0.002386	NaN
361	1.000000	1.627151	7.3686e+06	-56689.1	955.822	-29738	0.000000	0.000000	7.627420	-0.030757	NaN	0.000000	0.001602	0.001719	28.0799	0.058891	0.001981	29.7347	-1.172989	-166.721	0.001277	1.625849	-0.090141	-0.091443	-0.030757	29.7347	-0.089365	-1.044450	0.029448	NaN
361	1.000000	1.685167	7.3686e+06	-56689.1	955.821	-29738	0.000000	0.000000	7.685434	-0.071448	NaN	0.000000	0.001692	0.001742	28.0799	0.008493	0.002032	4.180059	167.139	11.8654	-0.106635	1.683765	-0.032125	-0.033527	-0.071448	4.180059	-0.019305	-0.012059	5.924807	NaN
361	2.000000	1.737740	7.3686e+06	-56689.1	955.821	-29738	0.000000	0.000000	7.738308	7.247548	NaN	0.000000	0.001604	0.001729	28.0786	9.119716	0.001737	5249.68	12.9717	-174.312	7.142464	1.737420	0.020448	0.020129	7.247548	5249.68	0.019412	0.021627	335.109	32614
361	2.000000	1.752171	7.3686e+06	-56689.1	955.821	-29738	0.000000	0.000000	7.753553	27.0412	NaN	0.000000	0.001618	0.001708	28.0785	24.7974	0.001807	13721.4	8.672938	1.000528	28.3698	1.751910	0.034879	0.034618	27.0412	13721.4	0.033401	0.048088	562.324	57167.9
361	2.000000	1.766594	7.3686e+06	-56689.1	955.821	-29738	0.000000	0.000000	7.769150	55.5774	NaN	0.000000	0.001604	0.001761	28.0785	37.4233	0.001794	20863.5	2.687475	-178.596	54.8092	1.766369	0.049302	0.049077	55.5774	20863.5	0.047304	0.084262	659.576	65666.5
361	2.000000	1.780999	7.3686e+06	-56689.1	955.824	-29738	0.000000	0.000000	7.785320	98.4636	NaN	0.000000	0.001596	0.001718	28.0797	49.4903	0.001690	29276	2.756218	-1.736134	93.9562	1.780684	0.063707	0.063393	98.4636	29276	0.061184	0.130090	756.89	74158.8
361	2.000000	1.795524	7.3686e+06	-56689.1	955.822	-29738	0.000000	0.000000	7.801921	148.913	NaN	0.000000	0.001570	0.001742	28.0807	64.0498	0.001716	37319.4	4.531195	174.653	147.064	1.795297	0.078232	0.078005	148.913	37319.4	0.075240	0.186053	800.377	79047.7
361	2.000000	1.810154	7.3686e+06	-56689.1	955.822	-29738	0.000000	0.000000	7.819491	220.378	NaN	0.000000	0.001602	0.001714	28.0791	77.2788	0.001743	44325.8	3.322870	-5.108009	222.879	1.809850	0.092863	0.092558	220.378	44325.8	0.089134	0.250515	879.7	80912
361	2.000000	1.824502	7.3686e+06	-56689.1	955.822	-29738	0.000000	0.000000	7.837646	312.917	NaN	0.000000	0.001627	0.001741	28.0785	89.9072	0.001859	48358.9	8.043921	170.397	312.152	1.824107	0.107210	0.106815	312.917	48358.9	0.102357	0.320106	977.54	78091.2
361	2.000000	1.834641	7.3686e+06	-56689.1	955.823	-29738	0.000000	0.000000	7.850088	368.884	NaN	0.000000	0.001578	0.001741	28.0785	99.3844	0.001861	53389.7	7.874653	170.694	372.922	1.834061	0.117350	0.116770	368.884	53389.7	0.112168	0.376875	978.795	79456.9