File: remote_trans/data/nanoindenter/0828-1/data/Data_2025-08-06,11h17m57s/2025-07-22_16-23-58_1_140.txt
2025-07-22, 16:23:58, 1
Index	Phase	Displacement	Time	Pos X	Pos Y	Pos Z	Rot A	Rot B	Piezo Z	Force A	Force B	Gripper	Voltage A	Voltage B	Temperature	Amplitude force	Amplitude pos	Stiffness	Phase shift	Phase excitation	Force A raw	Displacement raw	HMax	HMax raw	Real Force	Real Stiffness	Contact Depth	Area	Hardness	Reduced Mod.
[#]	[#]	[um]	[s]	[um]	[um]	[um]	[m°]	[m°]	[um]	[uN]	[uN]	[V]	[V]	[V]	[°C]	[uN]	[um]	[N/m]	[°]	[°]	[uN]	[um]	[um]	[um]	[uN]	[N/m]	[um]	[um^2]	[MPa]	[MPa]
140	1.000000	0.002803	7.36641e+06	-45639.1	955.818	-29772.3	0.000000	0.000000	6.002793	-0.034790	NaN	0.000000	0.001604	0.001677	28.0963	0.095754	0.000952	100.625	0.775522	-163.091	-0.073279	0.001532	-0.990614	-0.991886	-0.034790	100.625	-0.990355	-1.682257E+13	2.068041E-15	NaN
140	1.000000	0.040754	7.36641e+06	-45639.1	955.818	-29772.3	0.000000	0.000000	6.040745	-0.013617	NaN	0.000000	0.001603	0.001689	28.0809	0.048754	0.001993	24.463	-47.0774	12.754	-0.003224	0.039448	-0.952664	-0.953970	-0.013617	24.463	-0.952246	-5.156080E+12	2.640930E-15	NaN
140	1.000000	0.078759	7.36641e+06	-45639.1	955.818	-29772.3	0.000000	0.000000	6.078750	-0.007702	NaN	0.000000	0.001593	0.001698	28.0982	0.134319	0.001859	72.2547	-95.0049	-167.267	-0.106127	0.077436	-0.914659	-0.915982	-0.007702	72.2547	-0.914579	-1.599586E+12	4.814867E-15	NaN
140	1.000000	0.116788	7.36641e+06	-45639.1	955.819	-29772.3	0.000000	0.000000	6.116779	-0.003850	NaN	0.000000	0.001640	0.001708	28.1307	0.037604	0.001966	19.1251	127.322	14.6726	0.014790	0.115461	-0.876630	-0.877956	-0.003850	19.1251	-0.876479	-4.887464E+11	7.876348E-15	NaN
140	1.000000	0.154816	7.36641e+06	-45639.1	955.818	-29772.3	0.000000	0.000000	6.154807	0.004352	NaN	0.000000	0.001619	0.001667	28.0944	0.075426	0.002007	37.5824	18.8232	-167.205	0.019545	0.153465	-0.838602	-0.839953	0.004352	37.5824	-0.838689	-1.504972E+11	-2.891463E-14	NaN
140	1.000000	0.192800	7.36641e+06	-45639.1	955.819	-29772.3	0.000000	0.000000	6.192791	-0.013213	NaN	0.000000	0.001591	0.001704	28.0822	0.056278	0.001873	30.0404	1.375160	14.0627	-0.042302	0.191470	-0.800617	-0.801948	-0.013213	30.0404	-0.800288	-4.536977E+10	2.912206E-13	NaN
140	1.000000	0.230844	7.36641e+06	-45639.1	955.818	-29772.3	0.000000	0.000000	6.230834	-0.026200	NaN	0.000000	0.001579	0.001648	28.0996	0.079083	0.001984	39.8592	-88.2616	-167.867	0.084889	0.229480	-0.762574	-0.763938	-0.026200	39.8592	-0.762081	-1.372793E+10	1.908535E-12	NaN
140	1.000000	0.268883	7.36641e+06	-45639.1	955.818	-29772.3	0.000000	0.000000	6.268873	-0.046051	NaN	0.000000	0.001557	0.001719	28.1312	0.053905	0.001964	27.4408	21.4805	11.7341	-0.070684	0.267499	-0.724534	-0.725918	-0.046051	27.4408	-0.723276	-4.065753E+9	1.132647E-11	NaN
140	1.000000	0.306863	7.36641e+06	-45639.1	955.818	-29772.3	0.000000	0.000000	6.306850	-0.080626	NaN	0.000000	0.001541	0.001700	28.0944	0.066254	0.002038	32.5077	-141.571	-166.739	-0.021521	0.305584	-0.686555	-0.687833	-0.080626	32.5077	-0.684695	-1.208938E+9	6.669146E-11	NaN
140	1.000000	0.344891	7.36641e+06	-45639.1	955.818	-29772.3	0.000000	0.000000	6.344882	-0.023063	NaN	0.000000	0.001600	0.001641	28.08	0.077587	0.002078	37.3336	79.0675	14.6881	0.041191	0.343537	-0.648526	-0.649880	-0.023063	37.3336	-0.648063	-3.809623E+8	6.053900E-11	NaN
140	1.000000	0.382908	7.36641e+06	-45639.1	955.818	-29772.3	0.000000	0.000000	6.382899	-0.017845	NaN	0.000000	0.001577	0.001683	28.0991	0.019010	0.001899	10.0109	106.27	-163.29	0.022305	0.381581	-0.610510	-0.611837	-0.017845	10.0109	-0.609173	-1.113603E+8	1.602490E-10	NaN
140	1.000000	0.420906	7.36641e+06	-45639.1	955.818	-29772.3	0.000000	0.000000	6.420895	-0.058969	NaN	0.000000	0.001584	0.001696	28.1299	0.115166	0.002037	56.5487	27.3147	16.3404	-0.020239	0.419539	-0.572511	-0.573878	-0.058969	56.5487	-0.571729	-3.392515E+7	1.738207E-9	NaN
140	1.000000	0.458919	7.36641e+06	-45639.1	955.818	-29772.3	0.000000	0.000000	6.458910	-0.009700	NaN	0.000000	0.001575	0.001716	28.093	0.042491	0.001956	21.7272	-101.243	-165.18	-0.023412	0.457596	-0.534498	-0.535822	-0.009700	21.7272	-0.534163	-1.024189E+7	9.471381E-10	NaN
140	1.000000	0.496961	7.36641e+06	-45639.1	955.818	-29772.3	0.000000	0.000000	6.496951	-0.019846	NaN	0.000000	0.001562	0.001648	28.0811	0.019074	0.002040	9.348198	-106.081	13.7534	-0.012407	0.495616	-0.496457	-0.497802	-0.019846	9.348198	-0.494865	-2.90635e+06	6.828387E-9	NaN
140	1.000000	0.534962	7.36641e+06	-45639.1	955.819	-29772.3	0.000000	0.000000	6.534953	0.000931	NaN	0.000000	0.001563	0.001640	28.1029	0.010996	0.001967	5.590422	66.7351	-164.577	0.072591	0.533645	-0.458456	-0.459773	0.000931	5.590422	-0.458580	-901710	-1.033007E-9	NaN
140	1.000000	0.572964	7.36641e+06	-45639.1	955.818	-29772.3	0.000000	0.000000	6.572956	0.013450	NaN	0.000000	0.001562	0.001619	28.1304	0.116073	0.001904	60.9562	-70.4336	12.7997	-0.039546	0.571637	-0.420454	-0.421781	0.013450	60.9562	-0.420619	-262541	-5.123132E-8	NaN
140	1.000000	0.610996	7.36641e+06	-45639.1	955.818	-29772.3	0.000000	0.000000	6.610985	-0.038703	NaN	0.000000	0.001486	0.001646	28.0934	0.049875	0.002011	24.8047	177.985	-165.964	-0.000872	0.609712	-0.382422	-0.383705	-0.038703	24.8047	-0.381252	-72085.6	5.369056E-7	NaN
140	1.000000	0.649013	7.36641e+06	-45639.1	955.818	-29772.3	0.000000	0.000000	6.649002	-0.071231	NaN	0.000000	0.001528	0.001683	28.0787	0.055032	0.002043	26.9413	-89.8111	13.8004	-0.021670	0.647657	-0.344404	-0.345761	-0.071231	26.9413	-0.342421	-19807.6	3.596126E-6	NaN
140	1.000000	0.687020	7.36641e+06	-45639.1	955.818	-29772.3	0.000000	0.000000	6.687012	0.017853	NaN	0.000000	0.001561	0.001668	28.1019	0.067586	0.002071	32.6413	-80.0389	-165.046	-0.020560	0.685729	-0.306398	-0.307688	0.017853	32.6413	-0.306808	-5939.81	-3.005631E-6	NaN
140	1.000000	0.725041	7.36641e+06	-45639.1	955.819	-29772.3	0.000000	0.000000	6.725030	-0.049606	NaN	0.000000	0.001557	0.001709	28.1285	0.054266	0.001929	28.1382	-134.743	15.3779	0.029362	0.723689	-0.268377	-0.269728	-0.049606	28.1382	-0.267055	-1502.18	3.302251E-5	NaN
140	1.000000	0.763078	7.36641e+06	-45639.1	955.819	-29772.3	0.000000	0.000000	6.763067	-0.050534	NaN	0.000000	0.001655	0.001708	28.0938	0.048201	0.001910	25.2315	-24.695	-167.71	-0.004647	0.761756	-0.230339	-0.231661	-0.050534	25.2315	-0.228837	-383.835	0.000132	NaN
140	1.000000	0.801073	7.36641e+06	-45639.1	955.818	-29772.3	0.000000	0.000000	6.801066	0.032405	NaN	0.000000	0.001586	0.001717	28.0806	0.081881	0.002005	40.8298	108.137	13.5593	-0.002059	0.799715	-0.192344	-0.193703	0.032405	40.8298	-0.192940	-100.696	-0.000322	NaN
140	1.000000	0.839072	7.36641e+06	-45639.1	955.819	-29772.3	0.000000	0.000000	6.839063	0.000804	NaN	0.000000	0.001558	0.001728	28.1039	0.075368	0.001940	38.8548	-35.8675	-166.202	0.001922	0.837799	-0.154346	-0.155619	0.000804	38.8548	-0.154361	-21.7306	-3.697584E-5	NaN
140	1.000000	0.877105	7.36641e+06	-45639.1	955.818	-29772.3	0.000000	0.000000	6.877094	-0.033299	NaN	0.000000	0.001621	0.001683	28.1276	0.091262	0.002000	45.6366	70.4503	13.2286	0.009720	0.875758	-0.116313	-0.117660	-0.033299	45.6366	-0.115766	-3.961557	0.008406	NaN
140	1.000000	0.915120	7.36641e+06	-45639.1	955.82	-29772.3	0.000000	0.000000	6.915109	-0.073719	NaN	0.000000	0.001581	0.001723	28.0911	0.120803	0.001936	62.3931	-54.3308	-162.294	-0.077038	0.913808	-0.078297	-0.079609	-0.073719	62.3931	-0.077411	-0.532581	0.138418	NaN
140	1.000000	0.953120	7.36641e+06	-45639.1	955.818	-29772.3	0.000000	0.000000	6.953111	-0.009900	NaN	0.000000	0.001454	0.001767	28.0796	0.044692	0.001999	22.3555	-174.285	13.1907	0.012769	0.951772	-0.040297	-0.041645	-0.009900	22.3555	-0.039965	-0.045112	0.219460	NaN
140	1.000000	0.991141	7.36641e+06	-45639.1	955.817	-29772.3	0.000000	0.000000	6.991132	-0.006254	NaN	0.000000	0.001520	0.001729	28.1037	0.077716	0.002017	38.5375	107.308	-166.704	-0.024315	0.989879	-0.002277	-0.003539	-0.006254	38.5375	-0.002155	-0.001546	4.044362	NaN
140	2.000000	1.008138	7.36641e+06	-45639.1	955.818	-29772.3	0.000000	0.000000	7.009101	23.637	NaN	0.000000	0.001588	0.001709	28.1291	15.7702	0.001750	9011.12	5.095470	5.493841	23.0449	1.007771	0.014720	0.014353	23.637	9011.12	0.012753	0.012404	1905.56	73920.9
140	2.000000	1.017649	7.36641e+06	-45639.1	955.818	-29772.3	0.000000	0.000000	7.019382	42.383	NaN	0.000000	0.001592	0.001681	28.0926	25.6892	0.001810	14190	5.362399	-178.756	42.2182	1.017305	0.024231	0.023888	42.383	14190	0.021991	0.025768	1644.82	80764.1
140	2.000000	1.027100	7.36641e+06	-45639.1	955.819	-29772.3	0.000000	0.000000	7.029880	67.8295	NaN	0.000000	0.001542	0.001698	28.0796	33.1934	0.001773	18725.2	4.270867	-0.019652	66.888	1.026719	0.033683	0.033301	67.8295	18725.2	0.030966	0.042769	1585.94	82724.5
140	2.000000	1.036487	7.36641e+06	-45639.1	955.819	-29772.3	0.000000	0.000000	7.040814	105.457	NaN	0.000000	0.001552	0.001691	28.1065	41.072	0.001725	23807.7	-0.645763	-177.527	101.972	1.036233	0.043070	0.042816	105.457	23807.7	0.039748	0.063377	1663.96	86402
140	2.000000	1.046023	7.36641e+06	-45639.1	955.819	-29772.3	0.000000	0.000000	7.052096	147.943	NaN	0.000000	0.001554	0.001657	28.1288	51.4891	0.001916	26879.2	4.461150	-3.342196	145.724	1.045722	0.052605	0.052305	147.943	26879.2	0.048477	0.087764	1685.7	82895.8
140	2.000000	1.055539	7.36641e+06	-45639.1	955.82	-29772.3	0.000000	0.000000	7.063503	193.94	NaN	0.000000	0.001541	0.001677	28.09	60.4185	0.001870	32314.5	5.276627	174.35	193.789	1.055239	0.062121	0.061822	193.94	32314.5	0.057620	0.117413	1651.78	86161.3
140	2.000000	1.064961	7.36641e+06	-45639.1	955.82	-29772.3	0.000000	0.000000	7.075052	245.685	NaN	0.000000	0.001558	0.001698	28.08	68.7124	0.001722	39897	2.602294	-5.336182	240.915	1.064710	0.071543	0.071292	245.685	39897	0.066925	0.151805	1618.43	93555.8
140	2.000000	1.074496	7.36641e+06	-45639.1	955.819	-29772.3	0.000000	0.000000	7.087289	311.424	NaN	0.000000	0.001564	0.001691	28.1056	77.8791	0.001805	43141.9	2.187313	175.113	310.413	1.074243	0.081079	0.080826	311.424	43141.9	0.075665	0.187891	1657.47	90932.6
140	2.000000	1.084004	7.36641e+06	-45639.1	955.821	-29772.3	0.000000	0.000000	7.099735	382.891	NaN	0.000000	0.001570	0.001736	28.1297	84.4477	0.001731	48779.6	-1.515983	-1.902288	379.949	1.083726	0.090586	0.090309	382.891	48779.6	0.084699	0.228969	1672.24	93137.1
140	2.000000	1.093591	7.36641e+06	-45639.1	955.82	-29772.3	0.000000	0.000000	7.112235	453.742	NaN	0.000000	0.001535	0.001761	28.0905	94.6384	0.001842	51365.1	5.817928	170.429	456.379	1.093163	0.100174	0.099745	453.742	51365.1	0.093548	0.272861	1662.91	89840.3
140	2.000000	1.099386	7.36641e+06	-45639.1	955.819	-29772.3	0.000000	0.000000	7.120140	505.084	NaN	0.000000	0.001516	0.001735	28.0908	100.663	0.001868	53889.5	3.294552	172.487	499.6	1.099133	0.105968	0.105716	505.084	53889.5	0.098939	0.301353	1676.05	89689.1