File: remote_trans/data/nanoindenter/0828-1/data/Data_2025-08-06,11h17m57s/2025-07-22_16-23-58_1_1092.txt
2025-07-22, 16:23:58, 1
Index	Phase	Displacement	Time	Pos X	Pos Y	Pos Z	Rot A	Rot B	Piezo Z	Force A	Force B	Gripper	Voltage A	Voltage B	Temperature	Amplitude force	Amplitude pos	Stiffness	Phase shift	Phase excitation	Force A raw	Displacement raw	HMax	HMax raw	Real Force	Real Stiffness	Contact Depth	Area	Hardness	Reduced Mod.
[#]	[#]	[um]	[s]	[um]	[um]	[um]	[m°]	[m°]	[um]	[uN]	[uN]	[V]	[V]	[V]	[°C]	[uN]	[um]	[N/m]	[°]	[°]	[uN]	[um]	[um]	[um]	[uN]	[N/m]	[um]	[um^2]	[MPa]	[MPa]
1092	1.000000	0.002599	7.37573e+06	-54739.1	1055.82	-29742.9	0.000000	0.000000	6.002806	0.090959	NaN	0.000000	0.001712	0.001688	28.084	0.136294	0.001016	134.141	-146.987	-162.159	0.018986	0.001327	-1.045900	-1.047172	0.090959	134.141	-1.046409	-9.552920E+13	-9.521640E-16	NaN
1092	1.000000	0.042554	7.37573e+06	-54739.1	1055.82	-29742.9	0.000000	0.000000	6.042760	0.061852	NaN	0.000000	0.001660	0.001697	28.0843	0.060348	0.002023	29.8266	-7.671721	-165.278	0.021451	0.041245	-1.005945	-1.007254	0.061852	29.8266	-1.007500	-2.862416E+13	-2.160842E-15	NaN
1092	1.000000	0.082555	7.37573e+06	-54739.1	1055.82	-29742.9	0.000000	0.000000	6.082762	0.091332	NaN	0.000000	0.001698	0.001682	28.083	0.048998	0.001822	26.8987	-78.0741	-166.272	0.024766	0.081225	-0.965944	-0.967273	0.091332	26.8987	-0.968491	-8.537320E+12	-1.069793E-14	NaN
1092	1.000000	0.122562	7.37573e+06	-54739.1	1055.82	-29742.9	0.000000	0.000000	6.122764	-0.019597	NaN	0.000000	0.001623	0.001716	28.0828	0.138345	0.001927	71.7932	132.633	-164.022	0.024597	0.121250	-0.925937	-0.927249	-0.019597	71.7932	-0.925733	-2.262540E+12	8.661486E-15	NaN
1092	1.000000	0.162581	7.37573e+06	-54739.1	1055.82	-29742.9	0.000000	0.000000	6.162786	0.032742	NaN	0.000000	0.001637	0.001680	28.083	0.040898	0.002098	19.4964	-11.8559	-171.404	0.058139	0.161267	-0.885918	-0.887232	0.032742	19.4964	-0.887177	-6.819506E+11	-4.801185E-14	NaN
1092	1.000000	0.202598	7.37573e+06	-54739.1	1055.82	-29743	0.000000	0.000000	6.202801	0.002280	NaN	0.000000	0.001632	0.001671	28.0843	0.062232	0.002203	28.2464	94.3467	-165.426	-0.049766	0.201341	-0.845901	-0.847158	0.002280	28.2464	-0.845961	-1.888183E+11	-1.207645E-14	NaN
1092	1.000000	0.242642	7.37573e+06	-54739.1	1055.82	-29743	0.000000	0.000000	6.242846	0.029639	NaN	0.000000	0.001656	0.001675	28.0844	0.050592	0.002023	25.0048	161.242	-165.953	0.023628	0.241297	-0.805857	-0.807202	0.029639	25.0048	-0.806746	-5.551577E+10	-5.338886E-13	NaN
1092	1.000000	0.282622	7.37574e+06	-54739.1	1055.82	-29743	0.000000	0.000000	6.282825	-0.011021	NaN	0.000000	0.001688	0.001673	28.0843	0.056465	0.002062	27.3802	-77.1227	-166.98	0.013615	0.281303	-0.765877	-0.767195	-0.011021	27.3802	-0.765575	-1.531547E+10	7.195799E-13	NaN
1092	1.000000	0.322664	7.37574e+06	-54739.1	1055.82	-29743	0.000000	0.000000	6.322866	-0.031416	NaN	0.000000	0.001648	0.001721	28.0841	0.104292	0.001950	53.4843	28.2501	-166.674	-0.011151	0.321281	-0.725835	-0.727218	-0.031416	53.4843	-0.725394	-4.345360E+9	7.229847E-12	NaN
1092	1.000000	0.362693	7.37574e+06	-54739.1	1055.82	-29743	0.000000	0.000000	6.362896	0.005101	NaN	0.000000	0.001652	0.001672	28.0826	0.107810	0.002092	51.5312	105.048	-169.276	0.057491	0.361403	-0.685806	-0.687095	0.005101	51.5312	-0.685880	-1.254907E+9	-4.064676E-12	NaN
1092	1.000000	0.402671	7.37574e+06	-54739.1	1055.82	-29743	0.000000	0.000000	6.402876	0.021801	NaN	0.000000	0.001608	0.001694	28.0842	0.120808	0.002038	59.2866	124.444	-166.966	-0.007120	0.401421	-0.645827	-0.647077	0.021801	59.2866	-0.646103	-3.581017E+8	-6.087973E-11	NaN
1092	1.000000	0.442693	7.37574e+06	-54739.1	1055.82	-29743	0.000000	0.000000	6.442895	-0.044698	NaN	0.000000	0.001618	0.001722	28.083	0.047660	0.001921	24.8139	-30.4388	-170.561	-0.070513	0.441408	-0.605805	-0.607091	-0.044698	24.8139	-0.604454	-9.589459E+7	4.661110E-10	NaN
1092	1.000000	0.482744	7.37574e+06	-54739.1	1055.82	-29743	0.000000	0.000000	6.482948	0.019295	NaN	0.000000	0.001636	0.001660	28.084	0.034831	0.001934	18.0081	-4.857604	-162.429	-0.005712	0.481476	-0.565755	-0.567023	0.019295	18.0081	-0.566558	-2.877840E+7	-6.704834E-10	NaN
1092	1.000000	0.522741	7.37574e+06	-54739.1	1055.82	-29743	0.000000	0.000000	6.522943	-0.026004	NaN	0.000000	0.001622	0.001748	28.0838	0.044765	0.002063	21.6986	69.6491	-163.686	-0.014433	0.521438	-0.525758	-0.527061	-0.026004	21.6986	-0.524859	-7.60595e+06	3.418946E-9	NaN
1092	1.000000	0.562764	7.37574e+06	-54739.1	1055.82	-29743	0.000000	0.000000	6.562968	0.007110	NaN	0.000000	0.001671	0.001721	28.0843	0.074519	0.001976	37.7028	-61.8552	-165.545	0.011803	0.561443	-0.485735	-0.487056	0.007110	37.7028	-0.485876	-2.17642e+06	-3.266652E-9	NaN
1092	1.000000	0.602769	7.37574e+06	-54739.1	1055.82	-29743	0.000000	0.000000	6.602972	0.002982	NaN	0.000000	0.001642	0.001699	28.0839	0.041487	0.001942	21.3595	55.5455	-165.523	-0.030124	0.601454	-0.445730	-0.447044	0.002982	21.3595	-0.445835	-596565	-4.998093E-9	NaN
1092	1.000000	0.642793	7.37574e+06	-54739.1	1055.82	-29743	0.000000	0.000000	6.642997	0.008742	NaN	0.000000	0.001655	0.001676	28.0827	0.043872	0.001974	22.2302	131.039	-162.142	0.122457	0.641462	-0.405705	-0.407036	0.008742	22.2302	-0.406000	-162739	-5.371981E-8	NaN
1092	1.000000	0.682810	7.37574e+06	-54739.1	1055.82	-29743	0.000000	0.000000	6.683011	-0.035511	NaN	0.000000	0.001635	0.001698	28.0829	0.086535	0.001974	43.8298	-53.3958	-163.626	0.008681	0.681497	-0.365689	-0.367002	-0.035511	43.8298	-0.365082	-42192.1	8.416591E-7	NaN
1092	1.000000	0.722852	7.37574e+06	-54739.1	1055.82	-29743	0.000000	0.000000	6.723055	0.008274	NaN	0.000000	0.001632	0.001683	28.0828	0.036600	0.001998	18.3147	83.4651	-162.9	0.039808	0.721536	-0.325647	-0.326963	0.008274	18.3147	-0.325986	-11392.3	-7.262539E-7	NaN
1092	1.000000	0.762827	7.37574e+06	-54739.1	1055.82	-29743	0.000000	0.000000	6.763032	0.044187	NaN	0.000000	0.001641	0.001684	28.0843	0.138002	0.001970	70.0691	-110.351	-165.872	0.098389	0.761535	-0.285672	-0.286963	0.044187	70.0691	-0.286145	-2920.58	-1.512956E-5	NaN
1092	1.000000	0.802887	7.37574e+06	-54739.1	1055.82	-29743	0.000000	0.000000	6.803091	0.039325	NaN	0.000000	0.001650	0.001666	28.0845	0.044549	0.002012	22.1468	106.308	-166.949	0.021982	0.801542	-0.245612	-0.246957	0.039325	22.1468	-0.246944	-737.282	-5.333722E-5	NaN
1092	1.000000	0.842879	7.37574e+06	-54739.1	1055.82	-29743	0.000000	0.000000	6.843083	0.031982	NaN	0.000000	0.001643	0.001726	28.0844	0.045427	0.001966	23.1041	101.967	-166.489	0.063392	0.841554	-0.205620	-0.206945	0.031982	23.1041	-0.206658	-169.268	-0.000189	NaN
1092	1.000000	0.882882	7.37574e+06	-54739.1	1055.82	-29743	0.000000	0.000000	6.883082	-0.074999	NaN	0.000000	0.001636	0.001604	28.084	0.077166	0.001947	39.6365	88.8454	-163.177	0.006233	0.881581	-0.165616	-0.166918	-0.074999	39.6365	-0.164197	-32.5235	0.002306	NaN
1092	1.000000	0.922915	7.37574e+06	-54739.1	1055.82	-29743	0.000000	0.000000	6.923119	0.030086	NaN	0.000000	0.001641	0.001637	28.0832	0.056421	0.002033	27.7562	-70.7854	-166.114	-0.019705	0.921577	-0.125584	-0.126922	0.030086	27.7562	-0.126397	-6.479849	-0.004643	NaN
1092	1.000000	0.962924	7.37574e+06	-54739.1	1055.82	-29743	0.000000	0.000000	6.963129	0.045739	NaN	0.000000	0.001623	0.001621	28.0833	0.041318	0.002014	20.5151	-105.469	-168.119	-0.017459	0.961610	-0.085575	-0.086889	0.045739	20.5151	-0.087247	-0.930422	-0.049160	NaN
1092	1.000000	1.002935	7.37574e+06	-54739.1	1055.82	-29743	0.000000	0.000000	7.003139	0.006206	NaN	0.000000	0.001640	0.001650	28.0832	0.074197	0.002080	35.6654	172.322	-166.087	0.025454	1.001669	-0.045564	-0.046830	0.006206	35.6654	-0.045694	-0.067486	-0.091956	NaN
1092	1.000000	1.042941	7.37574e+06	-54739.1	1055.82	-29743	0.000000	0.000000	7.043139	-0.117628	NaN	0.000000	0.001658	0.001634	28.0843	0.068239	0.002153	31.7016	-73.2243	-162.258	-0.075369	1.041687	-0.005558	-0.006812	-0.117628	31.7016	-0.002775	-0.001969	59.7279	NaN
1092	2.000000	1.061467	7.37574e+06	-54739.1	1055.82	-29743	0.000000	0.000000	7.062389	17.4714	NaN	0.000000	0.001624	0.001614	28.0842	16.7879	0.001843	9107.85	7.086831	-176.498	17.5212	1.061156	0.012968	0.012657	17.4714	9107.85	0.011529	0.010931	1598.33	79590
1092	2.000000	1.071365	7.37574e+06	-54739.1	1055.82	-29743	0.000000	0.000000	7.073068	36.4441	NaN	0.000000	0.001576	0.001641	28.0847	26.3104	0.001759	14957.9	3.567928	-178.313	34.7717	1.071165	0.022866	0.022666	36.4441	14957.9	0.021039	0.024201	1505.87	87846.3
1092	2.000000	1.081336	7.37574e+06	-54739.1	1055.82	-29743	0.000000	0.000000	7.084051	61.0826	NaN	0.000000	0.001614	0.001657	28.0834	35.7504	0.001792	19953.6	4.368436	178.855	58.7308	1.081078	0.032837	0.032579	61.0826	19953.6	0.030541	0.041872	1458.78	89090.5
1092	2.000000	1.091340	7.37574e+06	-54739.1	1055.82	-29743	0.000000	0.000000	7.095780	103.007	NaN	0.000000	0.001593	0.001667	28.0833	45.8987	0.001868	24564.7	3.804169	177.513	100.544	1.091128	0.042841	0.042629	103.007	24564.7	0.039696	0.063245	1628.7	89242.5
1092	2.000000	1.101421	7.37574e+06	-54739.1	1055.82	-29743	0.000000	0.000000	7.107597	145.205	NaN	0.000000	0.001600	0.001650	28.0833	58.0543	0.001747	33227.1	8.925521	169.752	149.842	1.101053	0.052922	0.052554	145.205	33227.1	0.049645	0.091318	1590.1	100459
1092	2.000000	1.111320	7.37574e+06	-54739.1	1055.82	-29743	0.000000	0.000000	7.119671	198.069	NaN	0.000000	0.001659	0.001631	28.0836	65.718	0.001809	36336.7	-3.862254	-178.099	195.252	1.111096	0.062822	0.062597	198.069	36336.7	0.058733	0.121306	1632.81	95318.7
1092	2.000000	1.121288	7.37574e+06	-54739.1	1055.82	-29743	0.000000	0.000000	7.132441	266.196	NaN	0.000000	0.001653	0.001656	28.0847	77.1593	0.001750	44084.7	4.820818	171.727	263.447	1.121074	0.072789	0.072576	266.196	44084.7	0.068260	0.157082	1694.63	101624
1092	2.000000	1.131305	7.37574e+06	-54739.1	1055.82	-29743	0.000000	0.000000	7.145419	338.176	NaN	0.000000	0.001614	0.001700	28.0849	86.33	0.001838	46966.8	3.000628	173.4	334.699	1.130901	0.082806	0.082402	338.176	46966.8	0.077406	0.195512	1729.7	97046
1092	2.000000	1.141338	7.37574e+06	-54739.1	1055.82	-29743	0.000000	0.000000	7.158452	411.091	NaN	0.000000	0.001711	0.001640	28.0847	95.7418	0.001755	54541	2.697615	172.284	411.478	1.141098	0.092839	0.092599	411.091	54541	0.087186	0.240942	1706.18	101517
1092	2.000000	1.151123	7.37574e+06	-54739.1	1055.82	-29743	0.000000	0.000000	7.172024	503.148	NaN	0.000000	0.001667	0.001607	28.0831	106.914	0.001784	59931.4	4.771788	170.109	491.745	1.150857	0.102625	0.102359	503.148	59931.4	0.096328	0.287389	1750.76	102139
1092	2.000000	1.152810	7.37574e+06	-54739.1	1055.82	-29743	0.000000	0.000000	7.174220	515.536	NaN	0.000000	0.001688	0.001613	28.0828	107.281	0.001751	61266.6	4.662601	-10.1661	515.079	1.152578	0.104311	0.104079	515.536	61266.6	0.098000	0.296299	1739.92	102833