File: remote_trans/data/nanoindenter/0828-1/data/Data_2025-08-06,11h17m57s/2025-07-22_16-23-58_1_15.txt
2025-07-22, 16:23:58, 1
Index	Phase	Displacement	Time	Pos X	Pos Y	Pos Z	Rot A	Rot B	Piezo Z	Force A	Force B	Gripper	Voltage A	Voltage B	Temperature	Amplitude force	Amplitude pos	Stiffness	Phase shift	Phase excitation	Force A raw	Displacement raw	HMax	HMax raw	Real Force	Real Stiffness	Contact Depth	Area	Hardness	Reduced Mod.
[#]	[#]	[um]	[s]	[um]	[um]	[um]	[m°]	[m°]	[um]	[uN]	[uN]	[V]	[V]	[V]	[°C]	[uN]	[um]	[N/m]	[°]	[°]	[uN]	[um]	[um]	[um]	[uN]	[N/m]	[um]	[um^2]	[MPa]	[MPa]
15	1.000000	0.002572	7.36519e+06	-39389.1	955.818	-29794.7	0.000000	0.000000	6.002807	-0.049188	NaN	0.000000	0.001604	0.001746	28.115	0.123168	0.000909	135.453	-115.66	-166.514	0.010754	0.001284	-1.080593	-1.081881	-0.049188	135.453	-1.080321	-2.727875E+14	1.803172E-16	NaN
15	1.000000	0.042536	7.36519e+06	-39389.1	955.818	-29794.7	0.000000	0.000000	6.042772	-0.017528	NaN	0.000000	0.001543	0.001767	28.1164	0.074116	0.001913	38.7382	-57.14	-166.586	-0.037064	0.041238	-1.040629	-1.041927	-0.017528	38.7382	-1.040290	-7.904333E+13	2.217506E-16	NaN
15	1.000000	0.082534	7.36519e+06	-39389.1	955.818	-29794.7	0.000000	0.000000	6.082769	-0.030315	NaN	0.000000	0.001600	0.001727	28.1155	0.030502	0.001891	16.1319	112.251	-166.108	-0.006897	0.081221	-1.000632	-1.001944	-0.030315	16.1319	-0.999222	-2.214610E+13	1.368850E-15	NaN
15	1.000000	0.122539	7.36519e+06	-39389.1	955.818	-29794.7	0.000000	0.000000	6.122774	-0.027140	NaN	0.000000	0.001578	0.001751	28.1177	0.033480	0.002039	16.4216	-44.1148	-168.177	-0.078687	0.121257	-0.960627	-0.961908	-0.027140	16.4216	-0.959387	-6.435831E+12	4.217026E-15	NaN
15	1.000000	0.162581	7.36519e+06	-39389.1	955.819	-29794.7	0.000000	0.000000	6.162813	-0.110350	NaN	0.000000	0.001608	0.001774	28.1175	0.163060	0.001958	83.2795	140.248	-165.74	-0.084794	0.161240	-0.920584	-0.921925	-0.110350	83.2795	-0.919591	-1.869293E+12	5.903297E-14	NaN
15	1.000000	0.202593	7.36519e+06	-39389.1	955.818	-29794.7	0.000000	0.000000	6.202828	-0.047105	NaN	0.000000	0.001630	0.001761	28.1173	0.057918	0.002001	28.9442	90.7875	-166.374	0.005636	0.201266	-0.880572	-0.881899	-0.047105	28.9442	-0.879351	-5.344838E+11	8.813105E-14	NaN
15	1.000000	0.242613	7.36519e+06	-39389.1	955.819	-29794.7	0.000000	0.000000	6.242844	-0.123997	NaN	0.000000	0.001624	0.001721	28.1164	0.043267	0.001952	22.163	-174.375	-164.296	-0.123714	0.241254	-0.840553	-0.841912	-0.123997	22.163	-0.836357	-1.399358E+11	8.860962E-13	NaN
15	1.000000	0.282640	7.36519e+06	-39389.1	955.818	-29794.7	0.000000	0.000000	6.282874	-0.066784	NaN	0.000000	0.001539	0.001774	28.116	0.092389	0.002002	46.147	109.65	-170.016	-0.029194	0.281338	-0.800525	-0.801827	-0.066784	46.147	-0.799440	-4.418341E+10	1.511519E-12	NaN
15	1.000000	0.322650	7.36519e+06	-39389.1	955.817	-29794.7	0.000000	0.000000	6.322884	-0.070415	NaN	0.000000	0.001611	0.001719	28.116	0.039724	0.002090	19.0033	-176.799	-166.064	-0.084446	0.321283	-0.760515	-0.761883	-0.070415	19.0033	-0.757736	-1.198127E+10	5.877124E-12	NaN
15	1.000000	0.362661	7.36519e+06	-39389.1	955.818	-29794.7	0.000000	0.000000	6.362897	-0.012649	NaN	0.000000	0.001627	0.001741	28.1171	0.033944	0.002155	15.7489	-62.4322	-164.942	-0.003780	0.361320	-0.720504	-0.721845	-0.012649	15.7489	-0.719902	-3.657081E+9	3.458799E-12	NaN
15	1.000000	0.402691	7.36519e+06	-39389.1	955.819	-29794.7	0.000000	0.000000	6.402924	-0.092928	NaN	0.000000	0.001595	0.001719	28.1171	0.045194	0.002100	21.5176	-118.241	-169.313	-0.016474	0.401388	-0.680474	-0.681778	-0.092928	21.5176	-0.677235	-9.558426E+8	9.722086E-11	NaN
15	1.000000	0.442675	7.36519e+06	-39389.1	955.818	-29794.7	0.000000	0.000000	6.442911	-0.026294	NaN	0.000000	0.001615	0.001747	28.1185	0.062793	0.002020	31.0896	-38.9882	-167.946	0.018272	0.441348	-0.640490	-0.641817	-0.026294	31.0896	-0.639856	-2.939739E+8	8.944402E-11	NaN
15	1.000000	0.482714	7.36519e+06	-39389.1	955.818	-29794.7	0.000000	0.000000	6.482948	-0.045762	NaN	0.000000	0.001574	0.001776	28.1173	0.066199	0.002036	32.5154	128.214	-166.17	-0.033431	0.481423	-0.600451	-0.601742	-0.045762	32.5154	-0.599396	-8.168471E+7	5.602261E-10	NaN
15	1.000000	0.522708	7.36519e+06	-39389.1	955.819	-29794.7	0.000000	0.000000	6.522943	-0.022392	NaN	0.000000	0.001594	0.001710	28.1173	0.082478	0.001873	44.0424	114.695	-166.438	-0.045258	0.521385	-0.560457	-0.561780	-0.022392	44.0424	-0.560076	-2.341158E+7	9.564399E-10	NaN
15	1.000000	0.562766	7.36519e+06	-39389.1	955.818	-29794.7	0.000000	0.000000	6.563002	-0.000989	NaN	0.000000	0.001583	0.001766	28.1166	0.086224	0.002032	42.4418	3.135269	-166.347	0.021492	0.561421	-0.520399	-0.521744	-0.000989	42.4418	-0.520382	-6.59037e+06	1.500640E-10	NaN
15	1.000000	0.602766	7.36519e+06	-39389.1	955.818	-29794.7	0.000000	0.000000	6.602998	-0.099530	NaN	0.000000	0.001613	0.001761	28.1177	0.042618	0.001912	22.288	146.898	-164.539	-0.042695	0.601442	-0.480399	-0.481724	-0.099530	22.288	-0.477050	-1.63765e+06	6.077608E-8	NaN
15	1.000000	0.642752	7.36519e+06	-39389.1	955.818	-29794.7	0.000000	0.000000	6.642986	-0.062186	NaN	0.000000	0.001582	0.001782	28.1169	0.079158	0.002194	36.0845	-117.465	-165.958	-0.102135	0.641485	-0.440414	-0.441680	-0.062186	36.0845	-0.439121	-479685	1.296390E-7	NaN
15	1.000000	0.682829	7.36519e+06	-39389.1	955.817	-29794.7	0.000000	0.000000	6.683062	-0.093302	NaN	0.000000	0.001601	0.001726	28.1186	0.088485	0.002049	43.1895	41.2861	-168.918	-0.052443	0.681451	-0.400336	-0.401714	-0.093302	43.1895	-0.398715	-128136	7.281441E-7	NaN
15	1.000000	0.722788	7.36519e+06	-39389.1	955.819	-29794.7	0.000000	0.000000	6.723023	-0.056290	NaN	0.000000	0.001682	0.001783	28.1182	0.044159	0.001923	22.9674	-54.4084	-165.89	-0.080253	0.721469	-0.360377	-0.361696	-0.056290	22.9674	-0.358539	-33940.3	1.658509E-6	NaN
15	1.000000	0.762812	7.36519e+06	-39389.1	955.819	-29794.7	0.000000	0.000000	6.763045	-0.082485	NaN	0.000000	0.001681	0.001760	28.1198	0.041420	0.001891	21.9073	-54.3379	-170.587	-0.076300	0.761474	-0.320353	-0.321691	-0.082485	21.9073	-0.317529	-8555.51	9.641133E-6	NaN
15	1.000000	0.802846	7.36519e+06	-39389.1	955.819	-29794.7	0.000000	0.000000	6.803081	-0.051338	NaN	0.000000	0.001605	0.001751	28.1176	0.098426	0.001955	50.3462	-141.867	-166.775	-0.112184	0.801490	-0.280319	-0.281676	-0.051338	50.3462	-0.279554	-2324.04	2.208975E-5	NaN
15	1.000000	0.842862	7.36519e+06	-39389.1	955.819	-29794.7	0.000000	0.000000	6.843094	-0.100034	NaN	0.000000	0.001633	0.001773	28.1189	0.066335	0.002033	32.6227	-160.247	-168.52	-0.050055	0.841527	-0.240303	-0.241638	-0.100034	32.6227	-0.238003	-534.977	0.000187	NaN
15	1.000000	0.882887	7.36519e+06	-39389.1	955.817	-29794.7	0.000000	0.000000	6.883120	-0.087785	NaN	0.000000	0.001637	0.001748	28.1181	0.054240	0.001963	27.6339	-145.606	-164.054	-0.068803	0.881528	-0.200278	-0.201637	-0.087785	27.6339	-0.197896	-121.634	0.000722	NaN
15	1.000000	0.922887	7.36519e+06	-39389.1	955.818	-29794.7	0.000000	0.000000	6.923120	-0.090958	NaN	0.000000	0.001629	0.001735	28.1195	0.092258	0.001924	47.9522	-157.236	-163.309	-0.189168	0.921551	-0.160278	-0.161614	-0.090958	47.9522	-0.158855	-26.1589	0.003477	NaN
15	1.000000	0.962905	7.36519e+06	-39389.1	955.818	-29794.7	0.000000	0.000000	6.963138	-0.088353	NaN	0.000000	0.001623	0.001750	28.1201	0.054974	0.002027	27.1202	-164.098	-162.143	0.002713	0.961598	-0.120260	-0.121567	-0.088353	27.1202	-0.117817	-4.363362	0.020249	NaN
15	1.000000	1.002919	7.36519e+06	-39389.1	955.82	-29794.7	0.000000	0.000000	7.003154	-0.049461	NaN	0.000000	0.001564	0.001765	28.1204	0.045362	0.001982	22.89	-49.6331	-169.287	-0.002691	1.001616	-0.080246	-0.081549	-0.049461	22.89	-0.078626	-0.571686	0.086518	NaN
15	1.000000	1.042949	7.36519e+06	-39389.1	955.819	-29794.7	0.000000	0.000000	7.043184	-0.058288	NaN	0.000000	0.001571	0.001749	28.1214	0.063281	0.002000	31.6336	139.642	-166.825	-0.066651	1.041598	-0.040216	-0.041567	-0.058288	31.6336	-0.038834	-0.041689	1.398174	NaN
15	1.000000	1.082933	7.36519e+06	-39389.1	955.821	-29794.7	0.000000	0.000000	7.083252	2.003896	NaN	0.000000	0.001567	0.001749	28.1202	1.210810	0.002049	590.901	17.7818	-168.047	1.700891	1.081623	-0.000233	-0.001542	2.003896	590.901	-0.002776	-0.001970	-1017.23	NaN
15	2.000000	1.099409	7.36519e+06	-39389.1	955.82	-29794.7	0.000000	0.000000	7.100705	25.785	NaN	0.000000	0.001562	0.001751	28.1194	15.6316	0.001681	9296.36	7.655525	179.271	24.3323	1.099074	0.016244	0.015908	25.785	9296.36	0.014164	0.014186	1817.63	71310.7
15	2.000000	1.109392	7.36519e+06	-39389.1	955.82	-29794.7	0.000000	0.000000	7.111996	57.5947	NaN	0.000000	0.001539	0.001773	28.1214	23.7002	0.001622	14607.3	2.625693	-178.299	56.0091	1.109034	0.026227	0.025869	57.5947	14607.3	0.023270	0.027943	2061.13	79837
15	2.000000	1.119395	7.36519e+06	-39389.1	955.82	-29794.7	0.000000	0.000000	7.123790	101.205	NaN	0.000000	0.001586	0.001734	28.1201	31.9877	0.001856	17232.1	2.533478	-177.796	100.283	1.119024	0.036230	0.035859	101.205	17232.1	0.031825	0.044611	2268.59	74539.9
15	2.000000	1.129385	7.36519e+06	-39389.1	955.82	-29794.7	0.000000	0.000000	7.135853	151.636	NaN	0.000000	0.001573	0.001772	28.1224	40.8075	0.001805	22613.3	3.800678	177.867	150.573	1.128955	0.046220	0.045790	151.636	22613.3	0.041190	0.067141	2258.48	79734
15	2.000000	1.139285	7.36519e+06	-39389.1	955.822	-29794.7	0.000000	0.000000	7.147755	200.382	NaN	0.000000	0.001582	0.001760	28.1211	49.2481	0.001818	27091.8	2.644360	177.074	197.112	1.139057	0.056119	0.055892	200.382	27091.8	0.050572	0.094190	2127.43	80651.1
15	2.000000	1.149371	7.36519e+06	-39389.1	955.821	-29794.7	0.000000	0.000000	7.160309	260.434	NaN	0.000000	0.001533	0.001769	28.1223	59.5793	0.001755	33944.4	3.462651	174.865	261.711	1.148960	0.066205	0.065794	260.434	33944.4	0.060451	0.127431	2043.73	86876.8
15	2.000000	1.159331	7.36519e+06	-39389.1	955.821	-29794.7	0.000000	0.000000	7.173304	334.282	NaN	0.000000	0.001598	0.001798	28.1201	67.3532	0.001864	36135.5	2.070511	175.682	334.586	1.159002	0.076166	0.075837	334.282	36135.5	0.069228	0.160961	2076.79	82290.1
15	2.000000	1.169265	7.36519e+06	-39389.1	955.823	-29794.7	0.000000	0.000000	7.186482	413.215	NaN	0.000000	0.001598	0.001754	28.1214	75.9998	0.001822	41716.2	1.605683	175.229	409.2	1.168994	0.086100	0.085829	413.215	41716.2	0.078671	0.201136	2054.4	84983.1
15	2.000000	1.179187	7.36519e+06	-39389.1	955.822	-29794.7	0.000000	0.000000	7.199807	496.012	NaN	0.000000	0.001570	0.001808	28.1211	85.0097	0.001854	45851.5	5.859104	170.383	489.64	1.178984	0.096022	0.095819	496.012	45851.5	0.087909	0.244473	2028.9	84724.9
15	2.000000	1.189232	7.36519e+06	-39389.1	955.822	-29794.7	0.000000	0.000000	7.213383	581.963	NaN	0.000000	0.001544	0.001770	28.1234	96.1787	0.001895	50741.9	5.835247	169.775	577.571	1.188961	0.106066	0.105796	581.963	50741.9	0.097465	0.293430	1983.31	85583
15	2.000000	1.190249	7.36519e+06	-39389.1	955.822	-29794.7	0.000000	0.000000	7.215058	597.962	NaN	0.000000	0.001544	0.001788	28.083	94.8348	0.001777	53378	1.333504	174.244	594.699	1.189847	0.107084	0.106682	597.962	53378	0.098682	0.299968	1993.42	89042.7