File: remote_trans/data/nanoindenter/0828-1/data/Data_2025-08-06,11h17m57s/2025-07-22_16-23-58_1_411.txt
2025-07-22, 16:23:58, 1
Index	Phase	Displacement	Time	Pos X	Pos Y	Pos Z	Rot A	Rot B	Piezo Z	Force A	Force B	Gripper	Voltage A	Voltage B	Temperature	Amplitude force	Amplitude pos	Stiffness	Phase shift	Phase excitation	Force A raw	Displacement raw	HMax	HMax raw	Real Force	Real Stiffness	Contact Depth	Area	Hardness	Reduced Mod.
[#]	[#]	[um]	[s]	[um]	[um]	[um]	[m°]	[m°]	[um]	[uN]	[uN]	[V]	[V]	[V]	[°C]	[uN]	[um]	[N/m]	[°]	[°]	[uN]	[um]	[um]	[um]	[uN]	[N/m]	[um]	[um^2]	[MPa]	[MPa]
411	1.000000	0.002431	7.36908e+06	-56539.1	1005.82	-29738.8	0.000000	0.000000	6.002814	0.035265	NaN	0.000000	0.001596	0.001624	28.0808	0.063213	0.001133	55.7782	168.041	-166.877	0.105291	0.001198	-1.166627	-1.167859	0.035265	55.7782	-1.167101	-3.981388E+15	-8.857539E-18	NaN
411	1.000000	0.046382	7.36908e+06	-56539.1	1005.82	-29738.8	0.000000	0.000000	6.046763	-0.000393	NaN	0.000000	0.001589	0.001591	28.0809	0.053658	0.002029	26.4517	117.591	-169.587	0.025057	0.045086	-1.122676	-1.123971	-0.000393	26.4517	-1.122665	-1.009766E+15	3.894882E-19	NaN
411	1.000000	0.090367	7.36908e+06	-56539.1	1005.82	-29738.8	0.000000	0.000000	6.090750	0.025481	NaN	0.000000	0.001603	0.001588	28.0819	0.019957	0.001943	10.2699	-43.5755	-166.979	-0.007084	0.089076	-1.078690	-1.079982	0.025481	10.2699	-1.080551	-2.747386E+14	-9.274627E-17	NaN
411	1.000000	0.134402	7.36908e+06	-56539.1	1005.82	-29738.8	0.000000	0.000000	6.134782	-0.036083	NaN	0.000000	0.001580	0.001564	28.0823	0.026273	0.001955	13.437	172.395	-169.721	0.057212	0.133103	-1.034656	-1.035954	-0.036083	13.437	-1.032642	-6.237490E+13	5.784792E-16	NaN
411	1.000000	0.178429	7.36908e+06	-56539.1	1005.82	-29738.8	0.000000	0.000000	6.178813	0.053976	NaN	0.000000	0.001570	0.001564	28.082	0.100049	0.001873	53.4153	62.4959	-166.784	0.034753	0.177148	-0.990628	-0.991910	0.053976	53.4153	-0.991386	-1.736925E+13	-3.107561E-15	NaN
411	1.000000	0.222428	7.36908e+06	-56539.1	1005.82	-29738.8	0.000000	0.000000	6.222808	-0.030390	NaN	0.000000	0.001595	0.001584	28.0815	0.179548	0.002098	85.5849	-64.9066	-170.002	-0.006189	0.221075	-0.946630	-0.947982	-0.030390	85.5849	-0.946363	-4.295140E+12	7.075446E-15	NaN
411	1.000000	0.266440	7.36908e+06	-56539.1	1005.82	-29738.8	0.000000	0.000000	6.266825	0.074193	NaN	0.000000	0.001606	0.001531	28.0805	0.013082	0.002062	6.345273	127.811	-162.817	0.046538	0.265143	-0.902617	-0.903915	0.074193	6.345273	-0.911387	-1.448414E+12	-5.122338E-14	NaN
411	1.000000	0.310518	7.36908e+06	-56539.1	1005.82	-29738.8	0.000000	0.000000	6.310900	0.018799	NaN	0.000000	0.001602	0.001577	28.0809	0.057773	0.002002	28.8633	90.7285	-169.02	0.088464	0.309097	-0.858540	-0.859960	0.018799	28.8633	-0.859028	-2.837704E+11	-6.624799E-14	NaN
411	1.000000	0.354512	7.36908e+06	-56539.1	1005.82	-29738.8	0.000000	0.000000	6.354894	0.016553	NaN	0.000000	0.001672	0.001589	28.0821	0.088086	0.001912	46.0713	118.191	-164.812	-0.003409	0.353188	-0.814545	-0.815869	0.016553	46.0713	-0.814815	-7.143129E+10	-2.317359E-13	NaN
411	1.000000	0.398512	7.36908e+06	-56539.1	1005.82	-29738.8	0.000000	0.000000	6.398892	-0.045714	NaN	0.000000	0.001598	0.001609	28.0817	0.051059	0.001959	26.0693	-66.3134	-166.983	-0.003840	0.397238	-0.770546	-0.771820	-0.045714	26.0693	-0.769231	-1.717291E+10	2.662007E-12	NaN
411	1.000000	0.442547	7.36908e+06	-56539.1	1005.82	-29738.8	0.000000	0.000000	6.442927	-0.036111	NaN	0.000000	0.001592	0.001587	28.082	0.054995	0.002133	25.7774	-43.6638	-165.213	-0.076631	0.441326	-0.726510	-0.727732	-0.036111	25.7774	-0.725460	-4.354305E+9	8.293181E-12	NaN
411	1.000000	0.486553	7.36908e+06	-56539.1	1005.82	-29738.8	0.000000	0.000000	6.486935	0.001461	NaN	0.000000	0.001643	0.001594	28.0808	0.055901	0.002032	27.5118	47.3688	-164.974	-0.054753	0.485268	-0.682504	-0.683790	0.001461	27.5118	-0.682544	-1.129785E+9	-1.293449E-12	NaN
411	1.000000	0.530569	7.36908e+06	-56539.1	1005.82	-29738.8	0.000000	0.000000	6.530949	-0.037591	NaN	0.000000	0.001632	0.001651	28.0804	0.087773	0.002016	43.5474	149.106	-163.62	-0.024275	0.529231	-0.638488	-0.639826	-0.037591	43.5474	-0.637841	-2.758451E+8	1.362763E-10	NaN
411	1.000000	0.574547	7.36908e+06	-56539.1	1005.82	-29738.8	0.000000	0.000000	6.574927	-0.046329	NaN	0.000000	0.001614	0.001632	28.0804	0.027980	0.002133	13.1196	-72.4916	-167.175	-0.034638	0.573306	-0.594510	-0.595751	-0.046329	13.1196	-0.591862	-6.431832E+7	7.203033E-10	NaN
411	1.000000	0.618623	7.36908e+06	-56539.1	1005.82	-29738.8	0.000000	0.000000	6.619000	-0.108761	NaN	0.000000	0.001615	0.001683	28.0817	0.111392	0.002056	54.1894	-30.6083	-166.649	-0.074376	0.617329	-0.550434	-0.551728	-0.108761	54.1894	-0.548929	-1.641042E+7	6.627536E-9	NaN
411	1.000000	0.662617	7.36908e+06	-56539.1	1005.82	-29738.8	0.000000	0.000000	6.662996	-0.063729	NaN	0.000000	0.001611	0.001664	28.0818	0.047386	0.001951	24.2929	-175.138	-166.648	-0.011155	0.661347	-0.506441	-0.507710	-0.063729	24.2929	-0.504473	-3.9573e+06	1.610414E-8	NaN
411	1.000000	0.706648	7.36908e+06	-56539.1	1005.82	-29738.8	0.000000	0.000000	6.707029	0.003131	NaN	0.000000	0.001690	0.001696	28.082	0.062459	0.001951	32.018	2.923679	-168.055	-0.085881	0.705332	-0.462410	-0.463726	0.003131	32.018	-0.462483	-1.02308e+06	-3.060574E-9	NaN
411	1.000000	0.750680	7.36908e+06	-56539.1	1005.82	-29738.8	0.000000	0.000000	6.751059	-0.061804	NaN	0.000000	0.001579	0.001653	28.0818	0.068748	0.001991	34.522	153.11	-164.351	0.027019	0.749351	-0.418377	-0.419707	-0.061804	34.522	-0.417034	-233528	2.646552E-7	NaN
411	1.000000	0.794678	7.36908e+06	-56539.1	1005.82	-29738.8	0.000000	0.000000	6.795056	-0.089586	NaN	0.000000	0.001673	0.001661	28.0804	0.049495	0.002071	23.8962	155.312	-166.406	-0.063266	0.793388	-0.374380	-0.375669	-0.089586	23.8962	-0.371568	-52323.9	1.712145E-6	NaN
411	1.000000	0.838667	7.36908e+06	-56539.1	1005.82	-29738.8	0.000000	0.000000	6.839049	0.001172	NaN	0.000000	0.001672	0.001671	28.0803	0.051703	0.001961	26.3696	83.5875	-164.587	0.038966	0.837407	-0.330390	-0.331651	0.001172	26.3696	-0.330424	-13232.9	-8.856753E-8	NaN
411	1.000000	0.882748	7.36908e+06	-56539.1	1005.82	-29738.8	0.000000	0.000000	6.883129	-0.011291	NaN	0.000000	0.001649	0.001661	28.0806	0.053713	0.001832	29.3168	-133.07	-168.109	0.062411	0.881417	-0.286309	-0.287641	-0.011291	29.3168	-0.286021	-2908.06	3.882639E-6	NaN
411	1.000000	0.926728	7.36908e+06	-56539.1	1005.82	-29738.8	0.000000	0.000000	6.927109	-0.021581	NaN	0.000000	0.001666	0.001648	28.082	0.136119	0.001880	72.4119	-166.274	-166.503	-0.016319	0.925425	-0.242330	-0.243633	-0.021581	72.4119	-0.242106	-620.03	3.480572E-5	NaN
411	1.000000	0.970744	7.36908e+06	-56539.1	1005.82	-29738.8	0.000000	0.000000	6.971125	-0.002208	NaN	0.000000	0.001627	0.001632	28.0816	0.123501	0.002106	58.6547	113.276	-167.066	-0.023417	0.969393	-0.198314	-0.199664	-0.002208	58.6547	-0.198286	-123.449	1.788962E-5	NaN
411	1.000000	1.014789	7.36908e+06	-56539.1	1005.82	-29738.8	0.000000	0.000000	7.015174	0.087340	NaN	0.000000	0.001680	0.001660	28.0817	0.075393	0.001952	38.614	90.2824	-165.845	0.134081	1.013446	-0.154269	-0.155611	0.087340	38.614	-0.155965	-23.2235	-0.003761	NaN
411	1.000000	1.058747	7.36909e+06	-56539.1	1005.82	-29738.8	0.000000	0.000000	7.059126	-0.057364	NaN	0.000000	0.001692	0.001641	28.0806	0.117934	0.001928	61.1563	-137.575	-164.919	-0.126712	1.057542	-0.110310	-0.111516	-0.057364	61.1563	-0.109607	-2.948324	0.019456	NaN
411	1.000000	1.102828	7.36909e+06	-56539.1	1005.82	-29738.8	0.000000	0.000000	7.103207	-0.072587	NaN	0.000000	0.001670	0.001638	28.0806	0.070794	0.002015	35.1253	85.2923	-164.249	-0.144401	1.101538	-0.066229	-0.067519	-0.072587	35.1253	-0.064679	-0.244159	0.297295	NaN
411	1.000000	1.146814	7.36909e+06	-56539.1	1005.82	-29738.8	0.000000	0.000000	7.147200	0.104135	NaN	0.000000	0.001679	0.001649	28.0807	0.088096	0.001970	44.7097	51.157	-165.28	0.060938	1.145514	-0.022244	-0.023544	0.104135	44.7097	-0.023991	-0.015882	-6.556928	NaN
411	2.000000	1.182419	7.36909e+06	-56539.1	1005.82	-29738.8	0.000000	0.000000	7.183258	11.1157	NaN	0.000000	0.001665	0.001627	28.0819	11.8119	0.001648	7167.56	2.624901	-171.942	10.8101	1.182101	0.013362	0.013043	11.1157	7167.56	0.012199	0.011729	947.722	60466.7
411	2.000000	1.193336	7.36909e+06	-56539.1	1005.82	-29738.8	0.000000	0.000000	7.195037	32.0854	NaN	0.000000	0.001610	0.001654	28.0818	22.8619	0.001734	13187.9	4.668801	-178.322	31.0917	1.192983	0.024278	0.023926	32.0854	13187.9	0.022453	0.026545	1208.71	73952.9
411	2.000000	1.204328	7.36909e+06	-56539.1	1005.82	-29738.8	0.000000	0.000000	7.207313	63.2654	NaN	0.000000	0.001644	0.001663	28.0819	33.5566	0.001767	18990.9	7.573769	175.956	63.3666	1.204001	0.035271	0.034944	63.2654	18990.9	0.032772	0.046685	1355.14	80302.2
411	2.000000	1.215298	7.36909e+06	-56539.1	1005.82	-29738.8	0.000000	0.000000	7.219915	102.954	NaN	0.000000	0.001621	0.001622	28.0809	44.6004	0.001814	24586.6	4.412423	176.878	102.051	1.215022	0.046240	0.045964	102.954	24586.6	0.043100	0.072285	1424.28	83550.5
411	2.000000	1.226291	7.36909e+06	-56539.1	1005.82	-29738.8	0.000000	0.000000	7.232764	148.063	NaN	0.000000	0.001658	0.001662	28.0805	54.4544	0.001771	30742.8	5.890874	173.354	150.17	1.226020	0.057233	0.056962	148.063	30742.8	0.053621	0.103933	1424.6	87124.3
411	2.000000	1.237336	7.36909e+06	-56539.1	1005.82	-29738.8	0.000000	0.000000	7.246329	209.309	NaN	0.000000	0.001647	0.001638	28.0804	64.1691	0.001768	36290.2	7.699201	170.241	212.64	1.236993	0.068279	0.067935	209.309	36290.2	0.063953	0.140364	1491.19	88498.3
411	2.000000	1.248313	7.36909e+06	-56539.1	1005.82	-29738.8	0.000000	0.000000	7.259992	274.614	NaN	0.000000	0.001619	0.001630	28.0819	74.4262	0.001794	41481.1	0.481133	177.242	274.49	1.247985	0.079255	0.078928	274.614	41481.1	0.074290	0.181976	1509.07	88841.6
411	2.000000	1.259253	7.36909e+06	-56539.1	1005.82	-29738.8	0.000000	0.000000	7.273382	334.137	NaN	0.000000	0.001612	0.001633	28.0816	83.8161	0.001639	51127.4	4.310755	171.13	335.228	1.258902	0.090196	0.089845	334.137	51127.4	0.085294	0.231807	1441.44	97020.5
411	2.000000	1.270210	7.36909e+06	-56539.1	1005.82	-29738.8	0.000000	0.000000	7.288123	426.131	NaN	0.000000	0.001589	0.001674	28.0817	94.0106	0.001781	52770.9	7.141787	168.949	424.615	1.269838	0.101152	0.100780	426.131	52770.9	0.095096	0.280904	1517	90967.9
411	2.000000	1.278193	7.36909e+06	-56539.1	1005.82	-29738.8	0.000000	0.000000	7.298495	484.188	NaN	0.000000	0.001600	0.001616	28.0803	103.637	0.001869	55462.8	7.058556	169.075	482.073	1.277738	0.109135	0.108680	484.188	55462.8	0.102588	0.321392	1506.54	89383.5