File: remote_trans/data/nanoindenter/0828-1/data/Data_2025-08-06,11h17m57s/2025-07-22_16-23-58_1_296.txt
2025-07-22, 16:23:58, 1
Index	Phase	Displacement	Time	Pos X	Pos Y	Pos Z	Rot A	Rot B	Piezo Z	Force A	Force B	Gripper	Voltage A	Voltage B	Temperature	Amplitude force	Amplitude pos	Stiffness	Phase shift	Phase excitation	Force A raw	Displacement raw	HMax	HMax raw	Real Force	Real Stiffness	Contact Depth	Area	Hardness	Reduced Mod.
[#]	[#]	[um]	[s]	[um]	[um]	[um]	[m°]	[m°]	[um]	[uN]	[uN]	[V]	[V]	[V]	[°C]	[uN]	[um]	[N/m]	[°]	[°]	[uN]	[um]	[um]	[um]	[uN]	[N/m]	[um]	[um^2]	[MPa]	[MPa]
296	1.000000	0.002423	7.36795e+06	-53439.1	955.819	-29746.6	0.000000	0.000000	6.002804	-0.024111	NaN	0.000000	0.001672	0.001747	28.0788	0.043952	0.000922	47.6514	72.7541	-166.41	-0.111028	0.001177	-1.026049	-1.027295	-0.024111	47.6514	-1.025669	-5.026001E+13	4.797346E-16	NaN
296	1.000000	0.042361	7.36796e+06	-53439.1	955.819	-29746.6	0.000000	0.000000	6.042742	-0.028804	NaN	0.000000	0.001632	0.001723	28.0788	0.079360	0.001893	41.93	-31.9021	-164.364	-0.043068	0.041070	-0.986111	-0.987402	-0.028804	41.93	-0.985595	-1.451397E+13	1.984553E-15	NaN
296	1.000000	0.082393	7.36796e+06	-53439.1	955.818	-29746.6	0.000000	0.000000	6.082772	-0.055222	NaN	0.000000	0.001629	0.001709	28.0802	0.083611	0.002018	41.4323	-72.1834	-164.394	-0.009378	0.081129	-0.946079	-0.947343	-0.055222	41.4323	-0.945080	-4.127257E+12	1.337992E-14	NaN
296	1.000000	0.122388	7.36796e+06	-53439.1	955.819	-29746.6	0.000000	0.000000	6.122765	-0.101028	NaN	0.000000	0.001674	0.001678	28.0802	0.146477	0.002051	71.4186	-68.8982	-165.282	-0.015890	0.121093	-0.906084	-0.907379	-0.101028	71.4186	-0.905023	-1.188310E+12	8.501794E-14	NaN
296	1.000000	0.162403	7.36796e+06	-53439.1	955.818	-29746.6	0.000000	0.000000	6.162782	-0.067592	NaN	0.000000	0.001692	0.001744	28.08	0.063995	0.002019	31.7016	-21.4354	-161.977	0.001077	0.161057	-0.866069	-0.867414	-0.067592	31.7016	-0.864470	-3.362112E+11	2.010390E-13	NaN
296	1.000000	0.202409	7.36796e+06	-53439.1	955.819	-29746.6	0.000000	0.000000	6.202791	0.006124	NaN	0.000000	0.001659	0.001762	28.0787	0.085129	0.001997	42.6336	124.863	-167.254	-0.036038	0.201134	-0.826063	-0.827338	0.006124	42.6336	-0.826170	-1.018290E+11	-6.014201E-14	NaN
296	1.000000	0.242434	7.36796e+06	-53439.1	955.819	-29746.6	0.000000	0.000000	6.242813	-0.062431	NaN	0.000000	0.001661	0.001709	28.0784	0.140419	0.002079	67.5319	-172.018	-165.406	-0.121749	0.241136	-0.786038	-0.787336	-0.062431	67.5319	-0.785344	-2.843436E+10	2.195620E-12	NaN
296	1.000000	0.282457	7.36796e+06	-53439.1	955.817	-29746.6	0.000000	0.000000	6.282837	-0.038312	NaN	0.000000	0.001615	0.001682	28.0788	0.062547	0.001914	32.6781	-60.8768	-163.887	-0.052933	0.281174	-0.746014	-0.747298	-0.038312	32.6781	-0.745135	-8.072104E+9	4.746270E-12	NaN
296	1.000000	0.322485	7.36796e+06	-53439.1	955.818	-29746.6	0.000000	0.000000	6.322865	-0.034747	NaN	0.000000	0.001624	0.001659	28.0789	0.070104	0.002221	31.5656	119.9	-163.701	-0.069157	0.321173	-0.705987	-0.707299	-0.034747	31.5656	-0.705161	-2.301441E+9	1.509789E-11	NaN
296	1.000000	0.362484	7.36796e+06	-53439.1	955.819	-29746.6	0.000000	0.000000	6.362865	-0.018644	NaN	0.000000	0.001666	0.001687	28.0802	0.121244	0.002137	56.7306	58.9468	-164.214	-0.028344	0.361200	-0.665987	-0.667272	-0.018644	56.7306	-0.665741	-6.654070E+8	2.801957E-11	NaN
296	1.000000	0.402508	7.36796e+06	-53439.1	955.819	-29746.6	0.000000	0.000000	6.402886	-0.081667	NaN	0.000000	0.001676	0.001687	28.0802	0.119683	0.002008	59.6078	174.129	-164.247	-0.077447	0.401230	-0.625964	-0.627241	-0.081667	59.6078	-0.624937	-1.834314E+8	4.452180E-10	NaN
296	1.000000	0.442527	7.36796e+06	-53439.1	955.819	-29746.6	0.000000	0.000000	6.442905	-0.076679	NaN	0.000000	0.001665	0.001720	28.0799	0.089714	0.002056	43.6426	-46.8321	-164.147	-0.098544	0.441208	-0.585945	-0.587264	-0.076679	43.6426	-0.584627	-5.111812E+7	1.500043E-9	NaN
296	1.000000	0.482524	7.36796e+06	-53439.1	955.818	-29746.6	0.000000	0.000000	6.482904	-0.037944	NaN	0.000000	0.001532	0.001734	28.0788	0.034378	0.001966	17.4904	-142.154	-164.854	-0.003296	0.481225	-0.545947	-0.547247	-0.037944	17.4904	-0.544320	-1.416643E+7	2.678435E-9	NaN
296	1.000000	0.522567	7.36796e+06	-53439.1	955.818	-29746.6	0.000000	0.000000	6.522950	0.019043	NaN	0.000000	0.001595	0.001700	28.0788	0.158227	0.001948	81.2402	60.9143	-162.245	0.015284	0.521286	-0.505904	-0.507186	0.019043	81.2402	-0.506080	-4.16679e+06	-4.570090E-9	NaN
296	1.000000	0.562589	7.36796e+06	-53439.1	955.818	-29746.6	0.000000	0.000000	6.562969	-0.034474	NaN	0.000000	0.001589	0.001687	28.0785	0.117653	0.001976	59.5546	-51.3678	-162.952	0.033574	0.561279	-0.465883	-0.467193	-0.034474	59.5546	-0.465449	-1.12603e+06	3.061588E-8	NaN
296	1.000000	0.602600	7.36796e+06	-53439.1	955.818	-29746.6	0.000000	0.000000	6.602981	-0.028255	NaN	0.000000	0.001611	0.001731	28.08	0.062725	0.002021	31.0293	110.636	-167.308	-0.085847	0.601299	-0.425871	-0.427173	-0.028255	31.0293	-0.425188	-304755	9.271461E-8	NaN
296	1.000000	0.642619	7.36796e+06	-53439.1	955.819	-29746.6	0.000000	0.000000	6.642995	-0.121687	NaN	0.000000	0.001702	0.001716	28.0795	0.061678	0.002129	28.9726	-78.3772	-166.669	-0.135185	0.641365	-0.385853	-0.387107	-0.121687	28.9726	-0.382703	-75624.8	1.609092E-6	NaN
296	1.000000	0.682637	7.36796e+06	-53439.1	955.819	-29746.6	0.000000	0.000000	6.683020	0.012973	NaN	0.000000	0.001637	0.001674	28.0796	0.145462	0.001919	75.8002	172.542	-158.497	-0.036191	0.681287	-0.345834	-0.347185	0.012973	75.8002	-0.345963	-22302.5	-5.816648E-7	NaN
296	1.000000	0.722655	7.36796e+06	-53439.1	955.819	-29746.6	0.000000	0.000000	6.723032	-0.093740	NaN	0.000000	0.001619	0.001673	28.0798	0.156909	0.001942	80.7902	23.8476	-162.086	0.028603	0.721392	-0.305817	-0.307080	-0.093740	80.7902	-0.304947	-5573.99	1.681741E-5	NaN
296	1.000000	0.762669	7.36796e+06	-53439.1	955.818	-29746.6	0.000000	0.000000	6.763051	0.019266	NaN	0.000000	0.001623	0.001643	28.0786	0.071883	0.002023	35.529	90.3423	-162.518	0.014777	0.761344	-0.265803	-0.267128	0.019266	35.529	-0.266210	-1458.28	-1.321119E-5	NaN
296	1.000000	0.802703	7.36796e+06	-53439.1	955.818	-29746.6	0.000000	0.000000	6.803081	-0.097804	NaN	0.000000	0.001595	0.001677	28.0787	0.086326	0.001941	44.467	153.849	-167.37	-0.001489	0.801374	-0.225768	-0.227098	-0.097804	44.467	-0.224119	-323.097	0.000303	NaN
296	1.000000	0.842715	7.36796e+06	-53439.1	955.818	-29746.6	0.000000	0.000000	6.843095	-0.025160	NaN	0.000000	0.001619	0.001664	28.0794	0.036105	0.002043	17.6701	135.612	-165.156	-0.008734	0.841374	-0.185757	-0.187097	-0.025160	17.6701	-0.184689	-73.2639	0.000343	NaN
296	1.000000	0.882701	7.36796e+06	-53439.1	955.817	-29746.6	0.000000	0.000000	6.883082	-0.016447	NaN	0.000000	0.001608	0.001633	28.08	0.125326	0.001888	66.3652	16.3907	-162.483	0.034605	0.881419	-0.145770	-0.147053	-0.016447	66.3652	-0.145584	-15.0304	0.001094	NaN
296	1.000000	0.922745	7.36796e+06	-53439.1	955.819	-29746.6	0.000000	0.000000	6.923127	0.006742	NaN	0.000000	0.001595	0.001671	28.0795	0.052215	0.002060	25.3437	80.2645	-164.115	-0.104171	0.921406	-0.105727	-0.107066	0.006742	25.3437	-0.105926	-2.461120	-0.002739	NaN
296	1.000000	0.962733	7.36796e+06	-53439.1	955.819	-29746.6	0.000000	0.000000	6.963115	0.003214	NaN	0.000000	0.001618	0.001663	28.0796	0.052150	0.002051	25.4285	1.262554	-164.239	-0.052097	0.961464	-0.065739	-0.067007	0.003214	25.4285	-0.065834	-0.262804	-0.012230	NaN
296	1.000000	1.002775	7.36796e+06	-53439.1	955.819	-29746.6	0.000000	0.000000	7.003157	0.012295	NaN	0.000000	0.001608	0.001687	28.0797	0.099720	0.001964	50.7651	-162.808	-162.246	0.036869	1.001435	-0.025696	-0.027037	0.012295	50.7651	-0.025878	-0.017790	-0.691130	NaN
296	2.000000	1.039377	7.36796e+06	-53439.1	955.819	-29746.6	0.000000	0.000000	7.040148	9.482397	NaN	0.000000	0.001605	0.001701	28.0784	10.3201	0.001710	6034.04	7.660722	-174.989	8.780907	1.039119	0.010905	0.010647	9.482397	6034.04	0.009726	0.008879	1067.96	58506
296	2.000000	1.049304	7.36796e+06	-53439.1	955.82	-29746.6	0.000000	0.000000	7.050659	23.6617	NaN	0.000000	0.001616	0.001665	28.0783	21.5511	0.002026	10636.2	8.414518	-177.608	24.5255	1.048999	0.020833	0.020528	23.6617	10636.2	0.019164	0.021246	1113.7	66668.2
296	2.000000	1.059258	7.36796e+06	-53439.1	955.82	-29746.6	0.000000	0.000000	7.061492	45.0441	NaN	0.000000	0.001600	0.001640	28.0782	30.356	0.001793	16932.1	5.139373	179.402	43.5583	1.059036	0.030786	0.030564	45.0441	16932.1	0.028791	0.038275	1176.87	79073
296	2.000000	1.069199	7.36796e+06	-53439.1	955.819	-29746.6	0.000000	0.000000	7.072639	74.3687	NaN	0.000000	0.001593	0.001669	28.0795	39.9429	0.001770	22571.4	5.814597	176.218	71.6448	1.069007	0.040727	0.040535	74.3687	22571.4	0.038256	0.059599	1247.81	84471.7
296	2.000000	1.079194	7.36796e+06	-53439.1	955.819	-29746.6	0.000000	0.000000	7.084160	111.463	NaN	0.000000	0.001632	0.001662	28.0795	48.586	0.001745	27850.8	0.983149	179.281	108.629	1.078921	0.050723	0.050449	111.463	27850.8	0.047721	0.085499	1303.67	87022.3
296	2.000000	1.089232	7.36796e+06	-53439.1	955.82	-29746.6	0.000000	0.000000	7.095860	151.879	NaN	0.000000	0.001593	0.001652	28.0795	60.5123	0.001722	35147.4	2.948319	175.374	151.604	1.088979	0.060760	0.060507	151.879	35147.4	0.057519	0.117062	1297.42	93855
296	2.000000	1.099305	7.36796e+06	-53439.1	955.821	-29746.6	0.000000	0.000000	7.107964	201.236	NaN	0.000000	0.001588	0.001667	28.0785	69.3917	0.001753	39576.3	6.486098	171.981	205.529	1.098879	0.070833	0.070407	201.236	39576.3	0.067020	0.152177	1322.38	92690.2
296	2.000000	1.109127	7.36796e+06	-53439.1	955.82	-29746.6	0.000000	0.000000	7.120343	263.426	NaN	0.000000	0.001570	0.001654	28.0787	77.6798	0.001733	44819.8	1.694841	175.209	258.59	1.108898	0.080655	0.080426	263.426	44819.8	0.076247	0.190424	1383.36	93838.8
296	2.000000	1.119317	7.36796e+06	-53439.1	955.821	-29746.6	0.000000	0.000000	7.132701	316.115	NaN	0.000000	0.001583	0.001682	28.0788	89.5461	0.001802	49696.8	2.785173	174.337	325.705	1.119022	0.090845	0.090550	316.115	49696.8	0.086075	0.235555	1342	93552.4
296	2.000000	1.129209	7.36796e+06	-53439.1	955.821	-29746.6	0.000000	0.000000	7.145790	393.852	NaN	0.000000	0.001605	0.001667	28.0786	98.8455	0.001686	58630.3	3.264218	171.188	393.37	1.129028	0.100737	0.100556	393.852	58630.3	0.095699	0.284071	1386.46	100504
296	2.000000	1.136689	7.36796e+06	-53439.1	955.82	-29746.6	0.000000	0.000000	7.155935	458.655	NaN	0.000000	0.001616	0.001684	28.0801	104.807	0.001740	60224.7	4.030508	-8.684691	457.87	1.136334	0.108217	0.107862	458.655	60224.7	0.102505	0.320933	1429.13	97127.1