File: remote_trans/data/nanoindenter/0828-1/data/Data_2025-08-06,11h17m57s/2025-07-22_16-23-58_1_768.txt
2025-07-22, 16:23:58, 1
Index	Phase	Displacement	Time	Pos X	Pos Y	Pos Z	Rot A	Rot B	Piezo Z	Force A	Force B	Gripper	Voltage A	Voltage B	Temperature	Amplitude force	Amplitude pos	Stiffness	Phase shift	Phase excitation	Force A raw	Displacement raw	HMax	HMax raw	Real Force	Real Stiffness	Contact Depth	Area	Hardness	Reduced Mod.
[#]	[#]	[um]	[s]	[um]	[um]	[um]	[m°]	[m°]	[um]	[uN]	[uN]	[V]	[V]	[V]	[°C]	[uN]	[um]	[N/m]	[°]	[°]	[uN]	[um]	[um]	[um]	[uN]	[N/m]	[um]	[um^2]	[MPa]	[MPa]
768	1.000000	0.002738	7.37257e+06	-38689.1	1005.82	-29796.5	0.000000	0.000000	6.002809	0.047040	NaN	0.000000	0.001638	0.001824	28.0827	0.049718	0.001111	44.7333	103.339	-168.283	0.030865	0.001470	-1.117386	-1.118654	0.047040	44.7333	-1.118175	-8.789915E+14	-5.351635E-17	NaN
768	1.000000	0.044687	7.37257e+06	-38689.1	1005.82	-29796.5	0.000000	0.000000	6.044759	0.060058	NaN	0.000000	0.001700	0.001765	28.0827	0.059030	0.001905	30.9893	-47.1865	16.968	0.039327	0.043299	-1.075436	-1.076824	0.060058	30.9893	-1.076890	-2.453273E+14	-2.448066E-16	NaN
768	1.000000	0.086694	7.37257e+06	-38689.1	1005.82	-29796.5	0.000000	0.000000	6.086762	-0.039647	NaN	0.000000	0.001685	0.001769	28.0809	0.128887	0.002108	61.129	-119.172	-167.076	-0.104971	0.085420	-1.033429	-1.034703	-0.039647	61.129	-1.032943	-6.295959E+13	6.297239E-16	NaN
768	1.000000	0.128717	7.37257e+06	-38689.1	1005.82	-29796.5	0.000000	0.000000	6.128785	-0.037421	NaN	0.000000	0.001706	0.001755	28.0806	0.029505	0.001977	14.9257	-36.7413	14.3818	0.040066	0.127319	-0.991407	-0.992804	-0.037421	14.9257	-0.989526	-1.639585E+13	2.282329E-15	NaN
768	1.000000	0.170718	7.37257e+06	-38689.1	1005.82	-29796.5	0.000000	0.000000	6.170785	-0.048987	NaN	0.000000	0.001707	0.001740	28.0805	0.126933	0.002026	62.6397	-152.056	-164.143	0.034633	0.169444	-0.949406	-0.950679	-0.048987	62.6397	-0.948819	-4.635552E+12	1.056767E-14	NaN
768	1.000000	0.212750	7.37257e+06	-38689.1	1005.82	-29796.5	0.000000	0.000000	6.212816	-0.082456	NaN	0.000000	0.001679	0.001747	28.0819	0.059543	0.002004	29.7067	-116.317	16.1182	-0.068625	0.211383	-0.907373	-0.908741	-0.082456	29.7067	-0.905291	-1.198283E+12	6.881179E-14	NaN
768	1.000000	0.254761	7.37257e+06	-38689.1	1005.82	-29796.5	0.000000	0.000000	6.254828	-0.076180	NaN	0.000000	0.001690	0.001745	28.082	0.078256	0.002114	37.026	154.295	-165.071	-0.089897	0.253463	-0.865362	-0.866661	-0.076180	37.026	-0.863819	-3.294657E+11	2.312237E-13	NaN
768	1.000000	0.296799	7.37257e+06	-38689.1	1005.82	-29796.5	0.000000	0.000000	6.296870	0.043208	NaN	0.000000	0.001766	0.001781	28.0822	0.115934	0.001965	59.0015	-134.739	19.5851	0.047708	0.295409	-0.823324	-0.824714	0.043208	59.0015	-0.823874	-9.478392E+10	-4.558578E-13	NaN
768	1.000000	0.338790	7.37257e+06	-38689.1	1005.82	-29796.5	0.000000	0.000000	6.338858	-0.042470	NaN	0.000000	0.001734	0.001763	28.0808	0.080585	0.001922	41.9341	-78.0417	-163.25	-0.080758	0.337439	-0.781333	-0.782685	-0.042470	41.9341	-0.780574	-2.449230E+10	1.734012E-12	NaN
768	1.000000	0.380803	7.37257e+06	-38689.1	1005.82	-29796.5	0.000000	0.000000	6.380873	0.018611	NaN	0.000000	0.001720	0.001780	28.0809	0.073913	0.001902	38.8559	-116.711	17.1828	-0.001831	0.379429	-0.739321	-0.740694	0.018611	38.8559	-0.739680	-6.802946E+9	-2.735778E-12	NaN
768	1.000000	0.422845	7.37257e+06	-38689.1	1005.82	-29796.5	0.000000	0.000000	6.422916	0.041182	NaN	0.000000	0.001731	0.001813	28.0808	0.052254	0.002064	25.3181	-36.8471	-164.795	0.012886	0.421586	-0.697279	-0.698537	0.041182	25.3181	-0.698499	-1.866503E+9	-2.206346E-11	NaN
768	1.000000	0.464860	7.37257e+06	-38689.1	1005.82	-29796.5	0.000000	0.000000	6.464928	-0.027735	NaN	0.000000	0.001700	0.001808	28.0817	0.054004	0.002147	25.1547	42.8306	14.9934	0.049468	0.463536	-0.655264	-0.656587	-0.027735	25.1547	-0.654437	-4.658518E+8	5.953680E-11	NaN
768	1.000000	0.506864	7.37257e+06	-38689.1	1005.82	-29796.5	0.000000	0.000000	6.506931	-0.065576	NaN	0.000000	0.001694	0.001813	28.082	0.090398	0.001886	47.9238	89.7925	-167.034	-0.089949	0.505573	-0.613259	-0.614550	-0.065576	47.9238	-0.612233	-1.226975E+8	5.344526E-10	NaN
768	1.000000	0.548897	7.37257e+06	-38689.1	1005.82	-29796.5	0.000000	0.000000	6.548963	-0.094164	NaN	0.000000	0.001735	0.001849	28.0819	0.108671	0.001900	57.1918	-146.372	12.9428	-0.083593	0.547532	-0.571227	-0.572592	-0.094164	57.1918	-0.569992	-3.210089E+7	2.933386E-9	NaN
768	1.000000	0.590899	7.37257e+06	-38689.1	1005.82	-29796.5	0.000000	0.000000	6.590966	-0.041255	NaN	0.000000	0.001697	0.001754	28.0821	0.071688	0.001982	36.1762	-27.9894	-167.957	-0.104239	0.589591	-0.529225	-0.530532	-0.041255	36.1762	-0.528370	-8.51009e+06	4.847762E-9	NaN
768	1.000000	0.632930	7.37257e+06	-38689.1	1005.82	-29796.5	0.000000	0.000000	6.632996	-0.082780	NaN	0.000000	0.001657	0.001780	28.0809	0.056024	0.002002	27.9789	110.706	16.1215	-0.088529	0.631634	-0.487193	-0.488490	-0.082780	27.9789	-0.484974	-2.11414e+06	3.915558E-8	NaN
768	1.000000	0.674940	7.37257e+06	-38689.1	1005.82	-29796.5	0.000000	0.000000	6.675009	-0.005652	NaN	0.000000	0.001627	0.001730	28.0809	0.012756	0.002074	6.149571	1.036643	-167.717	-0.032800	0.673651	-0.445183	-0.446472	-0.005652	6.149571	-0.444494	-571162	9.895975E-9	NaN
768	1.000000	0.716959	7.37257e+06	-38689.1	1005.82	-29796.5	0.000000	0.000000	6.717025	-0.068725	NaN	0.000000	0.001672	0.001808	28.0811	0.077165	0.002174	35.4975	149.689	13.1907	-0.021711	0.715628	-0.403165	-0.404496	-0.068725	35.4975	-0.401713	-141390	4.860674E-7	NaN
768	1.000000	0.758950	7.37257e+06	-38689.1	1005.82	-29796.5	0.000000	0.000000	6.759019	-0.012583	NaN	0.000000	0.001726	0.001870	28.0825	0.054355	0.001956	27.7942	28.7126	-165.604	-0.052695	0.757679	-0.361174	-0.362445	-0.012583	27.7942	-0.360834	-36635.2	3.434672E-7	NaN
768	1.000000	0.801014	7.37257e+06	-38689.1	1005.82	-29796.5	0.000000	0.000000	6.801080	-0.086645	NaN	0.000000	0.001678	0.001802	28.0821	0.060506	0.001944	31.1307	-121.66	12.3398	-0.087061	0.799648	-0.319109	-0.320476	-0.086645	31.1307	-0.317022	-8409.54	1.030323E-5	NaN
768	1.000000	0.843026	7.37257e+06	-38689.1	1005.82	-29796.5	0.000000	0.000000	6.843094	-0.032603	NaN	0.000000	0.001655	0.001795	28.0823	0.032173	0.001947	16.5212	123.45	-163.471	-0.120048	0.841680	-0.277098	-0.278444	-0.032603	16.5212	-0.275618	-2026.53	1.608813E-5	NaN
768	1.000000	0.885031	7.37257e+06	-38689.1	1005.82	-29796.5	0.000000	0.000000	6.885101	0.028745	NaN	0.000000	0.001721	0.001805	28.081	0.075164	0.002036	36.9112	-26.1634	13.6533	0.034961	0.883687	-0.235093	-0.236437	0.028745	36.9112	-0.235677	-491.901	-5.843682E-5	NaN
768	1.000000	0.927040	7.37257e+06	-38689.1	1005.82	-29796.5	0.000000	0.000000	6.927106	-0.075791	NaN	0.000000	0.001682	0.001838	28.0809	0.064106	0.001892	33.8896	-158.826	-161.411	-0.009622	0.925716	-0.193084	-0.194408	-0.075791	33.8896	-0.191407	-94.9506	0.000798	NaN
768	1.000000	0.969040	7.37257e+06	-38689.1	1005.82	-29796.5	0.000000	0.000000	6.969108	-0.041450	NaN	0.000000	0.001781	0.001811	28.0811	0.022077	0.002019	10.934	-14.5436	12.0199	-0.072431	0.967728	-0.151083	-0.152396	-0.041450	10.934	-0.148240	-16.8202	0.002464	NaN
768	1.000000	1.011074	7.37257e+06	-38689.1	1005.82	-29796.5	0.000000	0.000000	7.011143	-0.024027	NaN	0.000000	0.001744	0.001794	28.0817	0.068495	0.001973	34.7106	-135.756	-165.339	-0.002881	1.009801	-0.109050	-0.110323	-0.024027	34.7106	-0.108530	-2.797545	0.008588	NaN
768	1.000000	1.053091	7.37257e+06	-38689.1	1005.82	-29796.5	0.000000	0.000000	7.053161	-0.001792	NaN	0.000000	0.001744	0.001775	28.0824	0.027769	0.001951	14.2339	134.111	12.8352	-0.013212	1.051720	-0.067032	-0.068403	-0.001792	14.2339	-0.066938	-0.281821	0.006358	NaN
768	1.000000	1.095103	7.37257e+06	-38689.1	1005.82	-29796.5	0.000000	0.000000	7.095171	-0.030573	NaN	0.000000	0.001654	0.001839	28.0823	0.117525	0.002028	57.9392	107.55	-163.739	-0.008408	1.093837	-0.025021	-0.026287	-0.030573	57.9392	-0.024625	-0.016495	1.853430	NaN
768	2.000000	1.133311	7.37257e+06	-38689.1	1005.82	-29796.5	0.000000	0.000000	7.133921	13.1643	NaN	0.000000	0.001667	0.001800	28.0822	10.8295	0.001756	6167.08	3.714795	9.836044	11.7438	1.132934	0.013187	0.012811	13.1643	6167.08	0.011586	0.010998	1197	53728
768	2.000000	1.143662	7.37257e+06	-38689.1	1005.82	-29796.5	0.000000	0.000000	7.145124	33.8879	NaN	0.000000	0.001658	0.001803	28.0811	21.4362	0.001645	13028	3.207600	-174.893	31.2138	1.143466	0.023538	0.023342	33.8879	13028	0.021587	0.025098	1350.2	75132.6
768	2.000000	1.154210	7.37257e+06	-38689.1	1005.82	-29796.5	0.000000	0.000000	7.157029	66.9142	NaN	0.000000	0.001684	0.001753	28.0811	31.6716	0.001980	15996.5	7.267781	-0.799353	65.5805	1.153816	0.034087	0.033692	66.9142	15996.5	0.030949	0.042734	1565.83	70698.5
768	2.000000	1.164692	7.37257e+06	-38689.1	1005.82	-29796.5	0.000000	0.000000	7.168253	84.9712	NaN	0.000000	0.001659	0.001748	28.0812	37.6808	0.001879	20052.4	4.239591	-179.971	83.2703	1.164497	0.044568	0.044373	84.9712	20052.4	0.041390	0.067670	1255.68	70427.5
768	2.000000	1.175204	7.37257e+06	-38689.1	1005.82	-29796.5	0.000000	0.000000	7.180222	120.433	NaN	0.000000	0.001642	0.001753	28.0824	44.6069	0.001751	25476.4	6.221142	-3.889469	119.08	1.174872	0.055080	0.054749	120.433	25476.4	0.051535	0.097216	1238.81	74652.1
768	2.000000	1.185739	7.37257e+06	-38689.1	1005.82	-29796.5	0.000000	0.000000	7.192523	163.421	NaN	0.000000	0.001653	0.001779	28.0824	53.5684	0.001733	30907.9	4.736739	176.915	165.288	1.185374	0.065615	0.065251	163.421	30907.9	0.061649	0.131789	1240.02	77786.4
768	2.000000	1.196265	7.37257e+06	-38689.1	1005.82	-29796.5	0.000000	0.000000	7.204232	192.19	NaN	0.000000	0.001689	0.001757	28.0823	63.326	0.001734	36515.2	5.064439	-5.919398	195.914	1.196027	0.076141	0.075903	192.19	36515.2	0.072194	0.173127	1110.11	80179.7
768	2.000000	1.206578	7.37257e+06	-38689.1	1005.82	-29796.5	0.000000	0.000000	7.216926	250.133	NaN	0.000000	0.001723	0.001739	28.0813	72.7097	0.001799	40425.6	3.885840	175.099	245.323	1.206344	0.086454	0.086221	250.133	40425.6	0.081814	0.215437	1161.05	79573.7
768	2.000000	1.217060	7.37257e+06	-38689.1	1005.82	-29796.5	0.000000	0.000000	7.230239	319.04	NaN	0.000000	0.001738	0.001798	28.0811	80.4658	0.001860	43262	1.226975	-2.296584	313.855	1.216682	0.096936	0.096558	319.04	43262	0.091405	0.261902	1218.16	77234.2
768	2.000000	1.227633	7.37257e+06	-38689.1	1005.82	-29796.5	0.000000	0.000000	7.243309	379.782	NaN	0.000000	0.001661	0.001771	28.081	89.0522	0.001665	53485.7	2.586261	174.093	376.953	1.227357	0.107510	0.107233	379.782	53485.7	0.102184	0.319146	1189.99	86500
768	2.000000	1.230531	7.37257e+06	-38689.1	1005.82	-29796.5	0.000000	0.000000	7.247680	415.629	NaN	0.000000	0.001638	0.001766	28.0812	92.838	0.001821	50978.1	5.209416	172.136	409.19	1.230133	0.110408	0.110010	415.629	50978.1	0.104293	0.330962	1255.82	80959.5