File: remote_trans/data/nanoindenter/0828-1/data/Data_2025-08-06,11h17m57s/2025-07-22_16-23-58_1_270.txt
2025-07-22, 16:23:58, 1
Index	Phase	Displacement	Time	Pos X	Pos Y	Pos Z	Rot A	Rot B	Piezo Z	Force A	Force B	Gripper	Voltage A	Voltage B	Temperature	Amplitude force	Amplitude pos	Stiffness	Phase shift	Phase excitation	Force A raw	Displacement raw	HMax	HMax raw	Real Force	Real Stiffness	Contact Depth	Area	Hardness	Reduced Mod.
[#]	[#]	[um]	[s]	[um]	[um]	[um]	[m°]	[m°]	[um]	[uN]	[uN]	[V]	[V]	[V]	[°C]	[uN]	[um]	[N/m]	[°]	[°]	[uN]	[um]	[um]	[um]	[uN]	[N/m]	[um]	[um^2]	[MPa]	[MPa]
270	1.000000	0.002620	7.3677e+06	-52139.1	955.818	-29750.4	0.000000	0.000000	6.002788	-0.036860	NaN	0.000000	0.001691	0.001690	28.0796	0.016356	0.000989	16.5447	111.967	-163.395	-0.039505	0.001434	-1.050829	-1.052015	-0.036860	16.5447	-1.049158	-1.040140E+14	3.543711E-16	NaN
270	1.000000	0.042577	7.3677e+06	-52139.1	955.818	-29750.4	0.000000	0.000000	6.042744	-0.062536	NaN	0.000000	0.001662	0.001685	28.0804	0.144385	0.002036	70.9065	-100.722	-164.85	-0.109724	0.041318	-1.010872	-1.012131	-0.062536	70.9065	-1.010210	-3.113249E+13	2.008710E-15	NaN
270	1.000000	0.082605	7.3677e+06	-52139.1	955.818	-29750.4	0.000000	0.000000	6.082773	-0.042909	NaN	0.000000	0.001680	0.001657	28.0806	0.009880	0.002077	4.758049	-127.819	-167.164	0.015408	0.081291	-0.970844	-0.972158	-0.042909	4.758049	-0.964081	-7.445223E+12	5.763320E-15	NaN
270	1.000000	0.122617	7.3677e+06	-52139.1	955.818	-29750.4	0.000000	0.000000	6.122787	0.022698	NaN	0.000000	0.001761	0.001712	28.0801	0.113135	0.001947	58.1153	-25.1453	-163.282	-0.010105	0.121333	-0.930832	-0.932116	0.022698	58.1153	-0.931125	-2.675358E+12	-8.484148E-15	NaN
270	1.000000	0.162658	7.3677e+06	-52139.1	955.818	-29750.4	0.000000	0.000000	6.162826	-0.034255	NaN	0.000000	0.001768	0.001681	28.0801	0.082656	0.002082	39.6976	160.197	-165.337	0.027115	0.161291	-0.890791	-0.892158	-0.034255	39.6976	-0.890144	-7.479315E+11	4.579939E-14	NaN
270	1.000000	0.202622	7.3677e+06	-52139.1	955.818	-29750.4	0.000000	0.000000	6.202790	-0.056028	NaN	0.000000	0.001693	0.001739	28.0787	0.087889	0.002023	43.4537	-55.6369	-167.46	-0.070667	0.201319	-0.850827	-0.852130	-0.056028	43.4537	-0.849860	-2.132238E+11	2.627680E-13	NaN
270	1.000000	0.242671	7.3677e+06	-52139.1	955.818	-29750.4	0.000000	0.000000	6.242838	-0.053134	NaN	0.000000	0.001739	0.001727	28.0784	0.104040	0.001881	55.3108	-131.432	-163.65	-0.027810	0.241319	-0.810778	-0.812130	-0.053134	55.3108	-0.810058	-6.156761E+10	8.630211E-13	NaN
270	1.000000	0.282663	7.3677e+06	-52139.1	955.818	-29750.4	0.000000	0.000000	6.282831	-0.046871	NaN	0.000000	0.001739	0.001740	28.0785	0.075467	0.001960	38.4994	-161.359	-167.882	-0.099631	0.281376	-0.770786	-0.772072	-0.046871	38.4994	-0.769872	-1.752151E+10	2.675082E-12	NaN
270	1.000000	0.322722	7.3677e+06	-52139.1	955.819	-29750.4	0.000000	0.000000	6.322889	-0.075339	NaN	0.000000	0.001676	0.001720	28.0796	0.078682	0.001982	39.6978	44.5924	-166.611	0.010752	0.321378	-0.730727	-0.732071	-0.075339	39.6978	-0.729304	-4.912657E+9	1.533577E-11	NaN
270	1.000000	0.362693	7.3677e+06	-52139.1	955.819	-29750.4	0.000000	0.000000	6.362859	-0.089439	NaN	0.000000	0.001682	0.001733	28.0799	0.038380	0.001901	20.184	-56.7443	-166.439	-0.043934	0.361351	-0.690756	-0.692098	-0.089439	20.184	-0.687433	-1.317745E+9	6.787310E-11	NaN
270	1.000000	0.402739	7.3677e+06	-52139.1	955.818	-29750.4	0.000000	0.000000	6.402908	-0.028766	NaN	0.000000	0.001700	0.001661	28.0798	0.105307	0.002021	52.1095	-26.3022	-170.668	-0.108946	0.401433	-0.650709	-0.652016	-0.028766	52.1095	-0.650295	-4.087762E+8	7.037003E-11	NaN
270	1.000000	0.442731	7.3677e+06	-52139.1	955.818	-29750.4	0.000000	0.000000	6.442897	-0.073131	NaN	0.000000	0.001713	0.001722	28.0798	0.037701	0.001954	19.2912	40.1237	-167.833	-0.073841	0.441396	-0.610718	-0.612053	-0.073131	19.2912	-0.607875	-1.068746E+8	6.842649E-10	NaN
270	1.000000	0.482752	7.3677e+06	-52139.1	955.819	-29750.4	0.000000	0.000000	6.482920	-0.060542	NaN	0.000000	0.001681	0.001712	28.0784	0.059393	0.001955	30.3765	-47.3665	-165.514	-0.104614	0.481447	-0.570696	-0.572002	-0.060542	30.3765	-0.569202	-3.130399E+7	1.933996E-9	NaN
270	1.000000	0.522789	7.3677e+06	-52139.1	955.818	-29750.4	0.000000	0.000000	6.522957	-0.044846	NaN	0.000000	0.001673	0.001699	28.0784	0.088293	0.002005	44.0313	64.7877	-168.033	-0.066804	0.521513	-0.530659	-0.531936	-0.044846	44.0313	-0.529896	-8.93563e+06	5.018779E-9	NaN
270	1.000000	0.562789	7.3677e+06	-52139.1	955.819	-29750.4	0.000000	0.000000	6.562959	0.007513	NaN	0.000000	0.001681	0.001705	28.079	0.043429	0.002008	21.6233	-63.4832	-166.944	0.019941	0.561532	-0.490660	-0.491917	0.007513	21.6233	-0.490921	-2.56011e+06	-2.934746E-9	NaN
270	1.000000	0.602805	7.3677e+06	-52139.1	955.817	-29750.4	0.000000	0.000000	6.602973	-0.051806	NaN	0.000000	0.001679	0.001675	28.0798	0.053999	0.001934	27.9246	-122.401	-166.332	-0.117909	0.601524	-0.450643	-0.451925	-0.051806	27.9246	-0.449252	-666512	7.772780E-8	NaN
270	1.000000	0.642842	7.3677e+06	-52139.1	955.818	-29750.4	0.000000	0.000000	6.643008	-0.073604	NaN	0.000000	0.001670	0.001695	28.0802	0.100897	0.001928	52.3203	-130.671	-169.101	-0.024749	0.641510	-0.410607	-0.411938	-0.073604	52.3203	-0.409552	-182824	4.025959E-7	NaN
270	1.000000	0.682853	7.3677e+06	-52139.1	955.819	-29750.4	0.000000	0.000000	6.683021	-0.042911	NaN	0.000000	0.001669	0.001740	28.0803	0.083899	0.002066	40.6186	166.47	-169.003	-0.110858	0.681578	-0.370596	-0.371871	-0.042911	40.6186	-0.369804	-49351.3	8.695006E-7	NaN
270	1.000000	0.722864	7.3677e+06	-52139.1	955.818	-29750.4	0.000000	0.000000	6.723030	-0.092211	NaN	0.000000	0.001678	0.001741	28.0788	0.090754	0.002076	43.726	-30.8803	-164.751	-0.081044	0.721553	-0.330585	-0.331896	-0.092211	43.726	-0.329003	-12614	7.310205E-6	NaN
270	1.000000	0.762888	7.3677e+06	-52139.1	955.819	-29750.4	0.000000	0.000000	6.763052	-0.123598	NaN	0.000000	0.001698	0.001684	28.0787	0.053852	0.001989	27.0817	-29.5721	-166.05	-0.136812	0.761570	-0.290561	-0.291879	-0.123598	27.0817	-0.287138	-3022.64	4.089065E-5	NaN
270	1.000000	0.802893	7.3677e+06	-52139.1	955.818	-29750.4	0.000000	0.000000	6.803062	-0.013407	NaN	0.000000	0.001658	0.001710	28.0785	0.171490	0.001998	85.8162	-154.644	-168.793	0.003975	0.801613	-0.250556	-0.251836	-0.013407	85.8162	-0.250439	-835.125	1.605412E-5	NaN
270	1.000000	0.842905	7.3677e+06	-52139.1	955.818	-29750.4	0.000000	0.000000	6.843076	0.018475	NaN	0.000000	0.001678	0.001673	28.0786	0.072138	0.002092	34.4788	-98.8587	-166.091	0.060072	0.841576	-0.210544	-0.211873	0.018475	34.4788	-0.210945	-198.664	-9.299712E-5	NaN
270	1.000000	0.882913	7.3677e+06	-52139.1	955.819	-29750.4	0.000000	0.000000	6.883079	-0.086255	NaN	0.000000	0.001655	0.001722	28.0795	0.149177	0.002021	73.7995	7.709412	-165.774	-0.080083	0.881630	-0.170536	-0.171819	-0.086255	73.7995	-0.169659	-40.5223	0.002129	NaN
270	1.000000	0.922923	7.3677e+06	-52139.1	955.817	-29750.4	0.000000	0.000000	6.923091	-0.056926	NaN	0.000000	0.001648	0.001741	28.0796	0.032369	0.001970	16.4282	57.451	-165.582	-0.075464	0.921640	-0.130526	-0.131809	-0.056926	16.4282	-0.127927	-6.943679	0.008198	NaN
270	1.000000	0.962967	7.3677e+06	-52139.1	955.819	-29750.4	0.000000	0.000000	6.963134	-0.068980	NaN	0.000000	0.001612	0.001732	28.0799	0.049846	0.001913	26.0552	103.628	-166.849	-0.141331	0.961638	-0.090482	-0.091811	-0.068980	26.0552	-0.088496	-0.996271	0.069238	NaN
270	1.000000	1.002972	7.3677e+06	-52139.1	955.819	-29750.4	0.000000	0.000000	7.003141	-0.006947	NaN	0.000000	0.001652	0.001710	28.0784	0.123473	0.001928	64.0369	-69.2374	-162.325	0.000312	1.001652	-0.050477	-0.051797	-0.006947	64.0369	-0.050396	-0.093797	0.074061	NaN
270	1.000000	1.042996	7.3677e+06	-52139.1	955.819	-29750.4	0.000000	0.000000	7.043161	-0.093732	NaN	0.000000	0.001705	0.001719	28.0784	0.037947	0.001917	19.7977	10.4041	-163.863	-0.173048	1.041673	-0.010453	-0.011776	-0.093732	19.7977	-0.006902	-0.004582	20.4563	NaN
270	2.000000	1.067544	7.3677e+06	-52139.1	955.819	-29750.4	0.000000	0.000000	7.068385	16.3171	NaN	0.000000	0.001679	0.001686	28.0786	14.6199	0.001625	8998.28	4.797237	-176.429	15.2443	1.067293	0.014095	0.013844	16.3171	8998.28	0.012735	0.012383	1317.73	73879.6
270	2.000000	1.077511	7.3677e+06	-52139.1	955.82	-29750.4	0.000000	0.000000	7.079130	35.2429	NaN	0.000000	0.001777	0.001699	28.0787	24.7591	0.001819	13612.1	4.017919	-177.357	34.502	1.077177	0.024062	0.023728	35.2429	13612.1	0.022120	0.025984	1356.32	77151.5
270	2.000000	1.087478	7.3677e+06	-52139.1	955.819	-29750.4	0.000000	0.000000	7.090362	65.9939	NaN	0.000000	0.001760	0.001657	28.0802	35.2552	0.001897	18584.7	7.050171	176.439	64.5325	1.087258	0.034029	0.033809	65.9939	18584.7	0.031366	0.043622	1512.86	81297.5
270	2.000000	1.097474	7.3677e+06	-52139.1	955.819	-29750.4	0.000000	0.000000	7.101716	99.0155	NaN	0.000000	0.001724	0.001673	28.0799	45.4246	0.001813	25059.3	3.060300	178.137	98.9777	1.097101	0.044025	0.043652	99.0155	25059.3	0.041062	0.066801	1482.24	88582.7
270	2.000000	1.107424	7.3677e+06	-52139.1	955.819	-29750.4	0.000000	0.000000	7.113609	146.274	NaN	0.000000	0.001677	0.001704	28.08	54.4336	0.001719	31673.7	3.558068	176.693	145.703	1.106983	0.053975	0.053534	146.274	31673.7	0.050511	0.094001	1556.1	94385.8
270	2.000000	1.117411	7.3677e+06	-52139.1	955.82	-29750.4	0.000000	0.000000	7.125678	196.887	NaN	0.000000	0.001767	0.001699	28.0791	63.9078	0.001798	35547.1	3.733331	174.918	192.259	1.117119	0.063962	0.063670	196.887	35547.1	0.059808	0.125122	1573.56	91814.5
270	2.000000	1.127425	7.3677e+06	-52139.1	955.819	-29750.4	0.000000	0.000000	7.138131	256.191	NaN	0.000000	0.001728	0.001709	28.079	72.9826	0.001778	41051	0.023511	177.325	254.95	1.127161	0.073976	0.073712	256.191	41051	0.069295	0.161232	1588.96	93405.2
270	2.000000	1.137405	7.3677e+06	-52139.1	955.819	-29750.4	0.000000	0.000000	7.150825	322.193	NaN	0.000000	0.001641	0.001713	28.0793	83.1953	0.001789	46495.1	2.829550	173.661	321.246	1.137140	0.083956	0.083692	322.193	46495.1	0.078759	0.201530	1598.74	94626
270	2.000000	1.147436	7.3677e+06	-52139.1	955.818	-29750.4	0.000000	0.000000	7.163948	397.359	NaN	0.000000	0.001783	0.001706	28.0792	93.516	0.001737	53829.2	6.807388	169.1	397.512	1.147017	0.093988	0.093568	397.359	53829.2	0.088451	0.247140	1607.83	98928.1
270	2.000000	1.157430	7.3677e+06	-52139.1	955.818	-29750.4	0.000000	0.000000	7.177197	476.513	NaN	0.000000	0.001698	0.001760	28.08	103.478	0.001831	56505.6	3.516024	171.892	478.112	1.157021	0.103981	0.103572	476.513	56505.6	0.097656	0.294456	1618.28	95138.1
270	2.000000	1.160852	7.3677e+06	-52139.1	955.819	-29750.4	0.000000	0.000000	7.181996	509.996	NaN	0.000000	0.001699	0.001700	28.0797	107.466	0.001805	59536.5	3.748244	-9.350224	503.245	1.160510	0.107403	0.107061	509.996	59536.5	0.100978	0.312478	1632.1	97307.7