File: remote_trans/data/nanoindenter/0828-1/data/Data_2025-08-06,11h17m57s/2025-07-22_16-23-58_1_243.txt
2025-07-22, 16:23:58, 1
Index	Phase	Displacement	Time	Pos X	Pos Y	Pos Z	Rot A	Rot B	Piezo Z	Force A	Force B	Gripper	Voltage A	Voltage B	Temperature	Amplitude force	Amplitude pos	Stiffness	Phase shift	Phase excitation	Force A raw	Displacement raw	HMax	HMax raw	Real Force	Real Stiffness	Contact Depth	Area	Hardness	Reduced Mod.
[#]	[#]	[um]	[s]	[um]	[um]	[um]	[m°]	[m°]	[um]	[uN]	[uN]	[V]	[V]	[V]	[°C]	[uN]	[um]	[N/m]	[°]	[°]	[uN]	[um]	[um]	[um]	[uN]	[N/m]	[um]	[um^2]	[MPa]	[MPa]
243	1.000000	0.002546	7.36742e+06	-50789.1	955.818	-29754.9	0.000000	0.000000	6.002829	0.037303	NaN	0.000000	0.001590	0.001687	28.079	0.063439	0.000936	67.7706	128.276	-170.483	-0.045704	0.001244	-1.066575	-1.067877	0.037303	67.7706	-1.066988	-1.806022E+14	-2.065482E-16	NaN
243	1.000000	0.042476	7.36742e+06	-50789.1	955.819	-29754.9	0.000000	0.000000	6.042757	-0.022439	NaN	0.000000	0.001596	0.001679	28.0806	0.115225	0.002004	57.5038	164.935	-165.686	-0.035631	0.041174	-1.026645	-1.027947	-0.022439	57.5038	-1.026352	-5.133529E+13	4.371157E-16	NaN
243	1.000000	0.082515	7.36742e+06	-50789.1	955.818	-29754.9	0.000000	0.000000	6.082794	-0.045471	NaN	0.000000	0.001580	0.001695	28.0802	0.028385	0.001862	15.2474	12.936	-166.231	-0.118024	0.081194	-0.986606	-0.987927	-0.045471	15.2474	-0.984370	-1.397261E+13	3.254260E-15	NaN
243	1.000000	0.122495	7.36742e+06	-50789.1	955.818	-29754.9	0.000000	0.000000	6.122775	-0.026370	NaN	0.000000	0.001602	0.001698	28.0801	0.040903	0.001992	20.533	-169.063	-171.897	-0.024877	0.121244	-0.946627	-0.947877	-0.026370	20.533	-0.945663	-4.202783E+12	6.274521E-15	NaN
243	1.000000	0.162513	7.36742e+06	-50789.1	955.818	-29754.9	0.000000	0.000000	6.162794	-0.018862	NaN	0.000000	0.001592	0.001665	28.079	0.044614	0.002069	21.5623	16.6695	-166.225	-0.057804	0.161221	-0.906608	-0.907901	-0.018862	21.5623	-0.905952	-1.223160E+12	1.542108E-14	NaN
243	1.000000	0.202514	7.36742e+06	-50789.1	955.818	-29754.9	0.000000	0.000000	6.202796	0.012387	NaN	0.000000	0.001583	0.001668	28.0792	0.013985	0.002005	6.974997	-115.39	-163.489	-0.020072	0.201236	-0.866607	-0.867885	0.012387	6.974997	-0.867939	-3.745959E+11	-3.306748E-14	NaN
243	1.000000	0.242559	7.36742e+06	-50789.1	955.819	-29754.9	0.000000	0.000000	6.242838	-0.050591	NaN	0.000000	0.001580	0.001714	28.079	0.052473	0.001975	26.562	-40.8303	-167.012	-0.034137	0.241209	-0.826562	-0.827912	-0.050591	26.562	-0.825134	-9.858747E+10	5.131620E-13	NaN
243	1.000000	0.282559	7.36742e+06	-50789.1	955.819	-29754.9	0.000000	0.000000	6.282840	-0.001488	NaN	0.000000	0.001565	0.001684	28.079	0.114651	0.001885	60.8186	-93.5852	-166.645	0.038965	0.281258	-0.786562	-0.787863	-0.001488	60.8186	-0.786544	-2.952146E+10	5.038907E-14	NaN
243	1.000000	0.322586	7.36742e+06	-50789.1	955.818	-29754.9	0.000000	0.000000	6.322866	-0.021618	NaN	0.000000	0.001672	0.001710	28.0802	0.044725	0.002035	21.9796	161.111	-165.471	-0.090185	0.321266	-0.746536	-0.747855	-0.021618	21.9796	-0.745798	-8.241663E+9	2.622981E-12	NaN
243	1.000000	0.362588	7.36742e+06	-50789.1	955.818	-29754.9	0.000000	0.000000	6.362868	-0.032250	NaN	0.000000	0.001623	0.001736	28.0801	0.040447	0.001986	20.3621	-130.55	-167.382	-0.054410	0.361279	-0.706533	-0.707843	-0.032250	20.3621	-0.705345	-2.314799E+9	1.393228E-11	NaN
243	1.000000	0.402620	7.36742e+06	-50789.1	955.819	-29754.9	0.000000	0.000000	6.402904	0.065683	NaN	0.000000	0.001611	0.001698	28.0797	0.054885	0.001902	28.8628	149.666	-166.805	0.067841	0.401282	-0.666501	-0.667839	0.065683	28.8628	-0.668208	-7.192137E+8	-9.132644E-11	NaN
243	1.000000	0.442634	7.36742e+06	-50789.1	955.819	-29754.9	0.000000	0.000000	6.442913	-0.046172	NaN	0.000000	0.001654	0.001698	28.0787	0.129574	0.002083	62.2025	-28.1035	-168.538	-0.030224	0.441305	-0.626488	-0.627817	-0.046172	62.2025	-0.625931	-1.892938E+8	2.439189E-10	NaN
243	1.000000	0.482631	7.36742e+06	-50789.1	955.818	-29754.9	0.000000	0.000000	6.482916	0.096279	NaN	0.000000	0.001619	0.001676	28.079	0.009478	0.001844	5.140484	-14.978	-166.946	0.071043	0.481348	-0.586490	-0.587774	0.096279	5.140484	-0.600537	-8.469588E+7	-1.136766E-9	NaN
243	1.000000	0.522682	7.36743e+06	-50789.1	955.819	-29754.9	0.000000	0.000000	6.522966	0.069931	NaN	0.000000	0.001636	0.001670	28.0787	0.058564	0.002130	27.4978	-6.377851	-164.683	0.034736	0.521411	-0.546439	-0.547710	0.069931	27.4978	-0.548347	-1.610847E+7	-4.341243E-9	NaN
243	1.000000	0.562682	7.36743e+06	-50789.1	955.819	-29754.9	0.000000	0.000000	6.562965	0.040035	NaN	0.000000	0.001695	0.001687	28.0787	0.043234	0.001974	21.8986	-120.356	-163.586	0.088196	0.561392	-0.506439	-0.507729	0.040035	21.8986	-0.507810	-4.40464e+06	-9.089369E-9	NaN
243	1.000000	0.602686	7.36743e+06	-50789.1	955.818	-29754.9	0.000000	0.000000	6.602969	0.031075	NaN	0.000000	0.001647	0.001681	28.08	0.105000	0.001933	54.3223	107.965	-168.473	0.029346	0.601414	-0.466435	-0.467708	0.031075	54.3223	-0.466864	-1.17872e+06	-2.636360E-8	NaN
243	1.000000	0.642738	7.36743e+06	-50789.1	955.818	-29754.9	0.000000	0.000000	6.643022	0.056891	NaN	0.000000	0.001628	0.001675	28.0798	0.060090	0.002000	30.0513	-104.908	-165.263	0.023794	0.641408	-0.426383	-0.427714	0.056891	30.0513	-0.427803	-331870	-1.714267E-7	NaN
243	1.000000	0.682736	7.36743e+06	-50789.1	955.819	-29754.9	0.000000	0.000000	6.683017	-0.026008	NaN	0.000000	0.001608	0.001711	28.0798	0.033229	0.001929	17.2306	-14.8829	-166.983	0.068466	0.681416	-0.386385	-0.387705	-0.026008	17.2306	-0.385253	-82263.9	3.161550E-7	NaN
243	1.000000	0.722766	7.36743e+06	-50789.1	955.819	-29754.9	0.000000	0.000000	6.723046	-0.048369	NaN	0.000000	0.001660	0.001703	28.0788	0.095557	0.001975	48.3953	-82.2267	-163.643	-0.076119	0.721433	-0.346355	-0.347689	-0.048369	48.3953	-0.345605	-22037.4	2.194868E-6	NaN
243	1.000000	0.762804	7.36743e+06	-50789.1	955.818	-29754.9	0.000000	0.000000	6.763085	-0.012353	NaN	0.000000	0.001588	0.001705	28.0788	0.105173	0.001919	54.7949	42.4132	-165.87	-0.033208	0.761423	-0.306317	-0.307698	-0.012353	54.7949	-0.306148	-5807.47	2.127140E-6	NaN
243	1.000000	0.802802	7.36743e+06	-50789.1	955.818	-29754.9	0.000000	0.000000	6.803083	-0.008179	NaN	0.000000	0.001635	0.001669	28.0787	0.042203	0.002212	19.0795	131.327	-167.026	-0.025499	0.801515	-0.266319	-0.267606	-0.008179	19.0795	-0.265998	-1447.47	5.650582E-6	NaN
243	1.000000	0.842834	7.36743e+06	-50789.1	955.818	-29754.9	0.000000	0.000000	6.843115	-0.007419	NaN	0.000000	0.001573	0.001673	28.0799	0.056630	0.002058	27.5122	-75.6235	-165.01	-0.008188	0.841514	-0.226287	-0.227607	-0.007419	27.5122	-0.226085	-347.179	2.136833E-5	NaN
243	1.000000	0.882815	7.36743e+06	-50789.1	955.818	-29754.9	0.000000	0.000000	6.883097	0.025160	NaN	0.000000	0.001591	0.001658	28.0799	0.050262	0.002056	24.4507	52.5902	-162.347	0.012698	0.881500	-0.186306	-0.187622	0.025160	24.4507	-0.187078	-80.369	-0.000313	NaN
243	1.000000	0.922831	7.36743e+06	-50789.1	955.819	-29754.9	0.000000	0.000000	6.923111	-0.027354	NaN	0.000000	0.001629	0.001674	28.0796	0.120332	0.001950	61.7076	83.1122	-167.454	-0.028187	0.921517	-0.146290	-0.147604	-0.027354	61.7076	-0.145958	-15.2708	0.001791	NaN
243	1.000000	0.962837	7.36743e+06	-50789.1	955.819	-29754.9	0.000000	0.000000	6.963118	-0.011750	NaN	0.000000	0.001569	0.001692	28.08	0.110345	0.001909	57.8018	38.7048	-166.531	0.004275	0.961519	-0.106284	-0.107602	-0.011750	57.8018	-0.106131	-2.486259	0.004726	NaN
243	1.000000	1.002888	7.36743e+06	-50789.1	955.818	-29754.9	0.000000	0.000000	7.003169	-0.008120	NaN	0.000000	0.001600	0.001701	28.0789	0.057509	0.001905	30.1912	-2.393583	-164.741	-0.010392	1.001537	-0.066233	-0.067585	-0.008120	30.1912	-0.066031	-0.266124	0.030512	NaN
243	1.000000	1.042871	7.36743e+06	-50789.1	955.819	-29754.9	0.000000	0.000000	7.043152	-0.003710	NaN	0.000000	0.001573	0.001692	28.0791	0.069161	0.002031	34.0542	176.163	-163.631	-0.045196	1.041581	-0.026251	-0.027540	-0.003710	34.0542	-0.026169	-0.018108	0.204861	NaN
243	2.000000	1.080444	7.36743e+06	-50789.1	955.819	-29754.9	0.000000	0.000000	7.081048	7.842985	NaN	0.000000	0.001635	0.001682	28.0795	8.955655	0.001654	5416.06	10.2082	-178.391	7.363200	1.080150	0.011323	0.011028	7.842985	5416.06	0.010237	0.009446	830.316	50914.1
243	2.000000	1.090388	7.36743e+06	-50789.1	955.819	-29754.9	0.000000	0.000000	7.091574	22.016	NaN	0.000000	0.001658	0.001724	28.0804	19.4146	0.001785	10878.6	3.923711	-174.708	21.8922	1.090028	0.021266	0.020907	22.016	10878.6	0.019748	0.022148	994.019	66784.5
243	2.000000	1.100349	7.36743e+06	-50789.1	955.819	-29754.9	0.000000	0.000000	7.102459	44.4681	NaN	0.000000	0.001579	0.001657	28.0814	29.9549	0.001754	17080.2	6.367333	177.97	44.0361	1.100078	0.031228	0.030956	44.4681	17080.2	0.029275	0.039254	1132.82	78763.2
243	2.000000	1.110305	7.36743e+06	-50789.1	955.819	-29754.9	0.000000	0.000000	7.113722	76.2483	NaN	0.000000	0.001564	0.001681	28.0803	40.7976	0.001855	21997.3	7.375321	175.198	76.8637	1.109981	0.041184	0.040859	76.2483	21997.3	0.038584	0.060421	1261.96	81761.6
243	2.000000	1.120273	7.36743e+06	-50789.1	955.819	-29754.9	0.000000	0.000000	7.125224	113.562	NaN	0.000000	0.001564	0.001693	28.0803	48.5947	0.001950	24918.8	4.317408	176.974	111.707	1.120050	0.051152	0.050929	113.562	24918.8	0.047734	0.085538	1327.63	77843.5
243	2.000000	1.130281	7.36743e+06	-50789.1	955.82	-29754.9	0.000000	0.000000	7.136985	156.197	NaN	0.000000	0.001550	0.001689	28.0788	57.5314	0.001767	32566	2.167403	176.381	155.155	1.130032	0.061159	0.060911	156.197	32566	0.057562	0.117211	1332.61	86906.7
243	2.000000	1.140255	7.36743e+06	-50789.1	955.819	-29754.9	0.000000	0.000000	7.149108	208.445	NaN	0.000000	0.001631	0.001688	28.079	68.2654	0.001810	37724.7	5.106863	173.123	206.671	1.139967	0.071133	0.070845	208.445	37724.7	0.066989	0.152056	1370.84	88388.7
243	2.000000	1.150212	7.36743e+06	-50789.1	955.819	-29754.9	0.000000	0.000000	7.161286	262.474	NaN	0.000000	0.001589	0.001668	28.0791	77.647	0.001843	42124.9	3.522062	173.169	257.12	1.149880	0.081090	0.080759	262.474	42124.9	0.076417	0.191167	1373.01	88024.8
243	2.000000	1.160177	7.36743e+06	-50789.1	955.818	-29754.9	0.000000	0.000000	7.173899	326.843	NaN	0.000000	0.001594	0.001646	28.0802	87.6893	0.001747	50204.5	4.798721	170.86	321.115	1.159930	0.091056	0.090809	326.843	50204.5	0.086173	0.236028	1384.76	94413.3
243	2.000000	1.170221	7.36743e+06	-50789.1	955.82	-29754.9	0.000000	0.000000	7.186867	397.952	NaN	0.000000	0.001562	0.001701	28.0803	95.261	0.001705	55868.9	4.844373	169.672	396.254	1.169915	0.101100	0.100793	397.952	55868.9	0.095758	0.284379	1399.37	95718.3
243	2.000000	1.178246	7.36743e+06	-50789.1	955.82	-29754.9	0.000000	0.000000	7.197690	465.975	NaN	0.000000	0.001564	0.001678	28.0802	101.643	0.001799	56514.1	6.820011	169.273	465.37	1.177756	0.109125	0.108634	465.975	56514.1	0.102941	0.323364	1441.02	90799.6