File: remote_trans/data/nanoindenter/0828-1/data/Data_2025-08-06,11h17m57s/2025-07-22_16-23-58_1_1029.txt
2025-07-22, 16:23:58, 1
Index	Phase	Displacement	Time	Pos X	Pos Y	Pos Z	Rot A	Rot B	Piezo Z	Force A	Force B	Gripper	Voltage A	Voltage B	Temperature	Amplitude force	Amplitude pos	Stiffness	Phase shift	Phase excitation	Force A raw	Displacement raw	HMax	HMax raw	Real Force	Real Stiffness	Contact Depth	Area	Hardness	Reduced Mod.
[#]	[#]	[um]	[s]	[um]	[um]	[um]	[m°]	[m°]	[um]	[uN]	[uN]	[V]	[V]	[V]	[°C]	[uN]	[um]	[N/m]	[°]	[°]	[uN]	[um]	[um]	[um]	[uN]	[N/m]	[um]	[um^2]	[MPa]	[MPa]
1029	1.000000	0.002081	7.37511e+06	-51589.1	1055.82	-29751.7	0.000000	0.000000	6.002798	0.004611	NaN	0.000000	0.001541	0.001568	28.083	0.060313	0.000862	70.0028	-95.7754	-167.072	-0.004577	0.000796	-1.078825	-1.080110	0.004611	70.0028	-1.078874	-2.608540E+14	-1.767769E-17	NaN
1029	1.000000	0.042049	7.37511e+06	-51589.1	1055.82	-29751.7	0.000000	0.000000	6.042762	-0.061176	NaN	0.000000	0.001661	0.001561	28.0817	0.130793	0.001935	67.5902	-127.441	-164.674	-0.072237	0.040738	-1.038858	-1.040168	-0.061176	67.5902	-1.038179	-7.404201E+13	8.262394E-16	NaN
1029	1.000000	0.082016	7.37511e+06	-51589.1	1055.82	-29751.7	0.000000	0.000000	6.082728	-0.085812	NaN	0.000000	0.001635	0.001541	28.0818	0.030243	0.001916	15.7883	-45.3329	-166.918	-0.040165	0.080771	-0.998890	-1.000135	-0.085812	15.7883	-0.994814	-1.931712E+13	4.442291E-15	NaN
1029	1.000000	0.122076	7.37511e+06	-51589.1	1055.82	-29751.7	0.000000	0.000000	6.122792	-0.017192	NaN	0.000000	0.001669	0.001573	28.0817	0.051506	0.002069	24.899	136.744	-164.171	0.059261	0.120708	-0.958830	-0.960198	-0.017192	24.899	-0.958312	-6.224643E+12	2.761888E-15	NaN
1029	1.000000	0.162065	7.37511e+06	-51589.1	1055.82	-29751.7	0.000000	0.000000	6.162781	-0.016082	NaN	0.000000	0.001705	0.001527	28.083	0.138735	0.002069	67.0437	46.1114	-166.597	0.019666	0.160818	-0.918841	-0.920088	-0.016082	67.0437	-0.918661	-1.816050E+12	8.855515E-15	NaN
1029	1.000000	0.202090	7.37511e+06	-51589.1	1055.82	-29751.7	0.000000	0.000000	6.202806	0.000583	NaN	0.000000	0.001715	0.001553	28.083	0.031162	0.002053	15.1757	-125.321	-167.652	-0.053150	0.200717	-0.878816	-0.880190	0.000583	15.1757	-0.878845	-5.261284E+11	-1.107178E-15	NaN
1029	1.000000	0.242113	7.37511e+06	-51589.1	1055.82	-29751.7	0.000000	0.000000	6.242828	-0.014227	NaN	0.000000	0.001681	0.001565	28.0829	0.072894	0.001978	36.856	11.1429	-164.187	0.025103	0.240802	-0.838793	-0.840104	-0.014227	36.856	-0.838504	-1.496313E+11	9.508013E-14	NaN
1029	1.000000	0.282130	7.37511e+06	-51589.1	1055.82	-29751.7	0.000000	0.000000	6.282841	-0.118917	NaN	0.000000	0.001603	0.001582	28.0827	0.073373	0.002033	36.0986	146.604	-168.232	-0.095591	0.280856	-0.798776	-0.800050	-0.118917	36.0986	-0.796306	-4.005992E+10	2.968490E-12	NaN
1029	1.000000	0.322151	7.37511e+06	-51589.1	1055.82	-29751.7	0.000000	0.000000	6.322863	-0.105365	NaN	0.000000	0.001648	0.001602	28.0816	0.033380	0.002098	15.911	-136.505	-165.791	-0.073259	0.320841	-0.758755	-0.760065	-0.105365	15.911	-0.753789	-1.058740E+10	9.951940E-12	NaN
1029	1.000000	0.362175	7.37511e+06	-51589.1	1055.82	-29751.7	0.000000	0.000000	6.362887	-0.099947	NaN	0.000000	0.001618	0.001592	28.0815	0.091992	0.002038	45.1278	155.686	-161.391	-0.080543	0.360875	-0.718732	-0.720031	-0.099947	45.1278	-0.717071	-3.345944E+9	2.987101E-11	NaN
1029	1.000000	0.402152	7.37511e+06	-51589.1	1055.82	-29751.7	0.000000	0.000000	6.402866	-0.035486	NaN	0.000000	0.001555	0.001599	28.0819	0.058318	0.001894	30.789	109.218	-165.529	-0.047067	0.400861	-0.678755	-0.680045	-0.035486	30.789	-0.677890	-9.757724E+8	3.636724E-11	NaN
1029	1.000000	0.442216	7.37512e+06	-51589.1	1055.82	-29751.7	0.000000	0.000000	6.442932	-0.007799	NaN	0.000000	0.001602	0.001616	28.0827	0.121028	0.001938	62.4404	135.412	-164.52	-0.000690	0.440882	-0.638690	-0.640024	-0.007799	62.4404	-0.638596	-2.825065E+8	2.760738E-11	NaN
1029	1.000000	0.482248	7.37512e+06	-51589.1	1055.82	-29751.7	0.000000	0.000000	6.482964	-0.005064	NaN	0.000000	0.001592	0.001596	28.0831	0.133557	0.002000	66.7765	160.554	-164.036	-0.024624	0.480937	-0.598658	-0.599970	-0.005064	66.7765	-0.598601	-7.965218E+7	6.357783E-11	NaN
1029	1.000000	0.522240	7.37512e+06	-51589.1	1055.82	-29751.7	0.000000	0.000000	6.522954	-0.043758	NaN	0.000000	0.001586	0.001624	28.083	0.039865	0.002202	18.1021	-117.791	-163.641	-0.030943	0.520947	-0.558666	-0.559959	-0.043758	18.1021	-0.556853	-2.112712E+7	2.071172E-9	NaN
1029	1.000000	0.562257	7.37512e+06	-51589.1	1055.82	-29751.7	0.000000	0.000000	6.562973	-0.008875	NaN	0.000000	0.001588	0.001625	28.0816	0.074383	0.002078	35.7982	-157.449	-164.376	-0.005702	0.560947	-0.518649	-0.519959	-0.008875	35.7982	-0.518463	-6.19762e+06	1.432004E-9	NaN
1029	1.000000	0.602268	7.37512e+06	-51589.1	1055.82	-29751.7	0.000000	0.000000	6.602981	-0.064660	NaN	0.000000	0.001555	0.001609	28.0813	0.140942	0.001967	71.6556	-152.083	-164.786	0.024672	0.600927	-0.478638	-0.479979	-0.064660	71.6556	-0.477962	-1.6865e+06	3.833960E-8	NaN
1029	1.000000	0.642281	7.37512e+06	-51589.1	1055.82	-29751.7	0.000000	0.000000	6.642995	-0.043777	NaN	0.000000	0.001636	0.001549	28.0814	0.031374	0.001934	16.2199	-118.477	-162.665	-0.120356	0.640937	-0.438625	-0.439969	-0.043777	16.2199	-0.436601	-441947	9.905541E-8	NaN
1029	1.000000	0.682316	7.37512e+06	-51589.1	1055.82	-29751.7	0.000000	0.000000	6.683033	0.020647	NaN	0.000000	0.001598	0.001553	28.0814	0.101340	0.002167	46.7572	18.7866	-163.224	0.039326	0.681021	-0.398590	-0.399885	0.020647	46.7572	-0.398921	-129004	-1.600456E-7	NaN
1029	1.000000	0.722297	7.37512e+06	-51589.1	1055.82	-29751.7	0.000000	0.000000	6.723011	-0.038009	NaN	0.000000	0.001620	0.001622	28.0825	0.025255	0.001996	12.6554	-87.9082	-160.72	-0.041659	0.720942	-0.358610	-0.359964	-0.038009	12.6554	-0.356357	-31560.8	1.204298E-6	NaN
1029	1.000000	0.762360	7.37512e+06	-51589.1	1055.82	-29751.7	0.000000	0.000000	6.763078	0.045794	NaN	0.000000	0.001584	0.001568	28.0825	0.029975	0.001952	15.3576	139.97	-161.477	0.033249	0.760995	-0.318546	-0.319912	0.045794	15.3576	-0.320782	-9553.24	-4.793570E-6	NaN
1029	1.000000	0.802334	7.37512e+06	-51589.1	1055.82	-29751.7	0.000000	0.000000	6.803047	-0.065824	NaN	0.000000	0.001535	0.001559	28.0826	0.104217	0.002108	49.4459	-130.606	-167.609	-0.055311	0.801022	-0.278572	-0.279885	-0.065824	49.4459	-0.277574	-2169.4	3.034224E-5	NaN
1029	1.000000	0.842390	7.37512e+06	-51589.1	1055.82	-29751.7	0.000000	0.000000	6.843105	-0.030313	NaN	0.000000	0.001579	0.001560	28.0813	0.021330	0.001970	10.8292	-93.6087	-160.962	-0.034888	0.841010	-0.238516	-0.239896	-0.030313	10.8292	-0.236417	-505.215	5.999931E-5	NaN
1029	1.000000	0.882392	7.37512e+06	-51589.1	1055.82	-29751.7	0.000000	0.000000	6.883106	-0.056202	NaN	0.000000	0.001581	0.001556	28.0815	0.045623	0.001950	23.3915	-9.268176	-164.701	-0.103819	0.881094	-0.198514	-0.199812	-0.056202	23.3915	-0.196712	-116.284	0.000483	NaN
1029	1.000000	0.922414	7.37512e+06	-51589.1	1055.82	-29751.7	0.000000	0.000000	6.923125	-0.117199	NaN	0.000000	0.001571	0.001623	28.0818	0.064746	0.001990	32.5405	142.906	-167.526	-0.063835	0.921117	-0.158492	-0.159790	-0.117199	32.5405	-0.155791	-23.057	0.005083	NaN
1029	1.000000	0.962404	7.37512e+06	-51589.1	1055.82	-29751.7	0.000000	0.000000	6.963118	-0.067967	NaN	0.000000	0.001535	0.001603	28.0819	0.088932	0.002037	43.665	175.635	-163.191	-0.112095	0.961081	-0.118502	-0.119825	-0.067967	43.665	-0.117335	-4.265703	0.015933	NaN
1029	1.000000	1.002443	7.37512e+06	-51589.1	1055.82	-29751.7	0.000000	0.000000	7.003157	-0.064284	NaN	0.000000	0.001552	0.001613	28.0835	0.023949	0.001885	12.7057	127.053	-166.762	-0.086590	1.001138	-0.078463	-0.079769	-0.064284	12.7057	-0.074668	-0.452822	0.141963	NaN
1029	1.000000	1.042443	7.37512e+06	-51589.1	1055.82	-29751.7	0.000000	0.000000	7.043158	-0.038649	NaN	0.000000	0.001552	0.001618	28.0831	0.035056	0.001985	17.6643	-127.19	-165.385	0.039881	1.041153	-0.038463	-0.039753	-0.038649	17.6643	-0.036822	-0.036270	1.065580	NaN
1029	1.000000	1.082406	7.37512e+06	-51589.1	1055.82	-29751.7	0.000000	0.000000	7.083396	6.651693	NaN	0.000000	0.001561	0.001589	28.0831	7.046815	0.001837	3836.68	10.996	-169.2	4.272017	1.081079	0.001500	0.000173	6.651693	3836.68	0.000200	0.000150	44441.8	286522
1029	2.000000	1.093936	7.37512e+06	-51589.1	1055.82	-29751.7	0.000000	0.000000	7.095694	25.3306	NaN	0.000000	0.001567	0.001605	28.0816	20.3556	0.001895	10739.7	6.088154	-175.349	24.8678	1.093606	0.013030	0.012700	25.3306	10739.7	0.011261	0.010617	2385.86	95228.3
1029	2.000000	1.103857	7.37512e+06	-51589.1	1055.82	-29751.7	0.000000	0.000000	7.106514	47.1961	NaN	0.000000	0.001583	0.001589	28.0817	28.3463	0.001701	16668.5	1.219468	-175.323	45.1618	1.103626	0.022951	0.022720	47.1961	16668.5	0.020827	0.023858	1978.17	98593.3
1029	2.000000	1.113876	7.37512e+06	-51589.1	1055.82	-29751.7	0.000000	0.000000	7.117852	79.2733	NaN	0.000000	0.001546	0.001560	28.0817	39.5012	0.001831	21572.9	4.692674	178.354	77.849	1.113629	0.032970	0.032723	79.2733	21572.9	0.030214	0.041188	1924.66	97117.1
1029	2.000000	1.123848	7.37512e+06	-51589.1	1055.82	-29751.7	0.000000	0.000000	7.129599	122.409	NaN	0.000000	0.001602	0.001630	28.0827	48.7462	0.001858	26237.3	6.859081	175.41	119.874	1.123556	0.042942	0.042649	122.409	26237.3	0.039443	0.062597	1955.52	95811.2
1029	2.000000	1.133837	7.37512e+06	-51589.1	1055.82	-29751.7	0.000000	0.000000	7.141617	171.763	NaN	0.000000	0.001579	0.001617	28.0828	57.3485	0.001924	29805.7	4.910231	175.576	169.988	1.133498	0.052930	0.052592	171.763	29805.7	0.048608	0.088160	1948.3	91714.1
1029	2.000000	1.143825	7.37512e+06	-51589.1	1055.82	-29751.7	0.000000	0.000000	7.153905	227.706	NaN	0.000000	0.001554	0.001631	28.0828	65.3956	0.001678	38981.8	1.955328	176.956	225.974	1.143420	0.062918	0.062514	227.706	38981.8	0.058537	0.120616	1887.86	102549
1029	2.000000	1.153823	7.37512e+06	-51589.1	1055.82	-29751.7	0.000000	0.000000	7.166672	295.038	NaN	0.000000	0.001617	0.001626	28.0828	75.7758	0.001872	40485.5	5.272398	173.104	292.364	1.153392	0.072916	0.072485	295.038	40485.5	0.067451	0.153873	1917.42	94295.8
1029	2.000000	1.163826	7.37512e+06	-51589.1	1055.82	-29751.7	0.000000	0.000000	7.179491	363.512	NaN	0.000000	0.001639	0.001607	28.0818	84.7238	0.001775	47723.2	6.961166	169.959	364.759	1.163496	0.082919	0.082590	363.512	47723.2	0.077207	0.194632	1867.69	98831.4
1029	2.000000	1.173764	7.37512e+06	-51589.1	1055.82	-29751.7	0.000000	0.000000	7.192244	431.941	NaN	0.000000	0.001608	0.001590	28.0815	92.7935	0.001862	49837.5	2.602630	173.525	429.254	1.173630	0.092858	0.092724	431.941	49837.5	0.086358	0.236922	1823.14	93546.3
1029	2.000000	1.182789	7.37512e+06	-51589.1	1055.82	-29751.7	0.000000	0.000000	7.205088	524.801	NaN	0.000000	0.001573	0.001616	28.0817	99.2748	0.001734	57261.8	6.704242	168.884	522.755	1.182441	0.101883	0.101535	524.801	57261.8	0.095009	0.280451	1871.27	98789.2