File: remote_trans/data/nanoindenter/0828-1/data/Data_2025-08-06,11h17m57s/2025-07-22_16-23-58_1_373.txt
2025-07-22, 16:23:58, 1
Index	Phase	Displacement	Time	Pos X	Pos Y	Pos Z	Rot A	Rot B	Piezo Z	Force A	Force B	Gripper	Voltage A	Voltage B	Temperature	Amplitude force	Amplitude pos	Stiffness	Phase shift	Phase excitation	Force A raw	Displacement raw	HMax	HMax raw	Real Force	Real Stiffness	Contact Depth	Area	Hardness	Reduced Mod.
[#]	[#]	[um]	[s]	[um]	[um]	[um]	[m°]	[m°]	[um]	[uN]	[uN]	[V]	[V]	[V]	[°C]	[uN]	[um]	[N/m]	[°]	[°]	[uN]	[um]	[um]	[um]	[uN]	[N/m]	[um]	[um^2]	[MPa]	[MPa]
373	1.000000	0.002356	7.36871e+06	-57289.1	955.819	-29737.5	0.000000	0.000000	6.002807	0.060799	NaN	0.000000	0.001578	0.001711	28.0806	0.056579	0.001030	54.9187	-162.871	-162.078	0.047318	0.001070	-1.020190	-1.021477	0.060799	54.9187	-1.021021	-4.351965E+13	-1.397055E-15	NaN
373	1.000000	0.042289	7.36871e+06	-57289.1	955.818	-29737.5	0.000000	0.000000	6.042737	-0.007065	NaN	0.000000	0.001575	0.001682	28.0799	0.066810	0.002131	31.3497	97.107	-166.801	0.065263	0.040932	-0.980258	-0.981615	-0.007065	31.3497	-0.980089	-1.223503E+13	5.774229E-16	NaN
373	1.000000	0.082304	7.36871e+06	-57289.1	955.818	-29737.5	0.000000	0.000000	6.082756	0.067449	NaN	0.000000	0.001574	0.001720	28.0795	0.054631	0.002119	25.784	-50.5948	-165.31	0.030702	0.081027	-0.940242	-0.941520	0.067449	25.784	-0.942204	-3.774620E+12	-1.786897E-14	NaN
373	1.000000	0.122336	7.36871e+06	-57289.1	955.819	-29737.5	0.000000	0.000000	6.122785	-0.002895	NaN	0.000000	0.001607	0.001629	28.0794	0.063242	0.001939	32.622	76.3076	-166.602	0.011717	0.120998	-0.900210	-0.901548	-0.002895	32.622	-0.900144	-1.020961E+12	2.835525E-15	NaN
373	1.000000	0.162356	7.36871e+06	-57289.1	955.819	-29737.5	0.000000	0.000000	6.162804	-0.007700	NaN	0.000000	0.001621	0.001637	28.0794	0.049349	0.001943	25.396	166.336	-168.798	0.015530	0.161083	-0.860191	-0.861464	-0.007700	25.396	-0.859964	-2.921658E+11	2.635487E-14	NaN
373	1.000000	0.202366	7.36871e+06	-57289.1	955.819	-29737.5	0.000000	0.000000	6.202814	-0.006847	NaN	0.000000	0.001625	0.001684	28.0808	0.105250	0.002045	51.4598	-60.2518	-164.67	0.081615	0.200990	-0.820181	-0.821557	-0.006847	51.4598	-0.820081	-8.419907E+10	8.131720E-14	NaN
373	1.000000	0.242376	7.36871e+06	-57289.1	955.818	-29737.5	0.000000	0.000000	6.242826	0.034119	NaN	0.000000	0.001593	0.001659	28.081	0.025618	0.002061	12.4325	73.5024	-168.144	-0.010618	0.241109	-0.780171	-0.781437	0.034119	12.4325	-0.782229	-2.579421E+10	-1.322747E-12	NaN
373	1.000000	0.282411	7.36871e+06	-57289.1	955.818	-29737.5	0.000000	0.000000	6.282860	0.008645	NaN	0.000000	0.001600	0.001648	28.081	0.041896	0.001951	21.4793	81.2672	-166.011	-0.008671	0.281060	-0.740136	-0.741487	0.008645	21.4793	-0.740438	-6.966576E+9	-1.240946E-12	NaN
373	1.000000	0.322436	7.36871e+06	-57289.1	955.819	-29737.5	0.000000	0.000000	6.322883	-0.021859	NaN	0.000000	0.001633	0.001641	28.0799	0.147472	0.002007	73.4618	49.4666	-167.755	0.030451	0.321107	-0.700111	-0.701440	-0.021859	73.4618	-0.699888	-1.949850E+9	1.121053E-11	NaN
373	1.000000	0.362425	7.36871e+06	-57289.1	955.818	-29737.5	0.000000	0.000000	6.362873	-0.003972	NaN	0.000000	0.001601	0.001643	28.0796	0.032789	0.002001	16.3824	-140.959	-165.516	-0.014214	0.361142	-0.660122	-0.661404	-0.003972	16.3824	-0.659940	-5.541765E+8	7.166687E-12	NaN
373	1.000000	0.402440	7.36871e+06	-57289.1	955.818	-29737.5	0.000000	0.000000	6.402889	0.027916	NaN	0.000000	0.001696	0.001668	28.0795	0.069089	0.001950	35.4216	55.6827	-166.634	0.061393	0.401093	-0.620107	-0.621454	0.027916	35.4216	-0.620698	-1.604092E+8	-1.740330E-10	NaN
373	1.000000	0.442482	7.36871e+06	-57289.1	955.818	-29737.5	0.000000	0.000000	6.442931	0.027586	NaN	0.000000	0.001654	0.001640	28.0794	0.047707	0.002103	22.6851	-145.419	-169.197	-0.011018	0.441162	-0.580065	-0.581385	0.027586	22.6851	-0.580977	-4.552080E+7	-6.060060E-10	NaN
373	1.000000	0.482518	7.36871e+06	-57289.1	955.818	-29737.5	0.000000	0.000000	6.482967	0.026138	NaN	0.000000	0.001710	0.001713	28.081	0.107603	0.001970	54.6098	-23.5054	-168.995	-0.002058	0.481191	-0.540029	-0.541355	0.026138	54.6098	-0.540388	-1.249507E+7	-2.091842E-9	NaN
373	1.000000	0.522529	7.36871e+06	-57289.1	955.819	-29737.5	0.000000	0.000000	6.522977	0.001068	NaN	0.000000	0.001653	0.001697	28.0813	0.028309	0.001965	14.4064	-178.294	-162.129	-0.003747	0.521221	-0.500018	-0.501326	0.001068	14.4064	-0.500073	-3.43592e+06	-3.109751E-10	NaN
373	1.000000	0.562553	7.36871e+06	-57289.1	955.819	-29737.5	0.000000	0.000000	6.563002	0.011321	NaN	0.000000	0.001650	0.001702	28.0809	0.075623	0.001993	37.9391	-57.4364	-165.96	0.059077	0.561185	-0.459993	-0.461362	0.011321	37.9391	-0.460217	-950756	-1.190760E-8	NaN
373	1.000000	0.602569	7.36871e+06	-57289.1	955.818	-29737.5	0.000000	0.000000	6.603017	0.000247	NaN	0.000000	0.001651	0.001653	28.0794	0.070710	0.001974	35.8181	145.245	-162.804	0.017366	0.601238	-0.419978	-0.421308	0.000247	35.8181	-0.419983	-257142	-9.595629E-10	NaN
373	1.000000	0.642559	7.36872e+06	-57289.1	955.819	-29737.5	0.000000	0.000000	6.643011	0.075754	NaN	0.000000	0.001652	0.001697	28.0795	0.055603	0.002019	27.5352	161.867	-165.955	0.084255	0.641303	-0.379988	-0.381244	0.075754	27.5352	-0.382051	-74014	-1.023510E-6	NaN
373	1.000000	0.682576	7.36872e+06	-57289.1	955.818	-29737.5	0.000000	0.000000	6.683024	-0.010494	NaN	0.000000	0.001613	0.001659	28.0794	0.046752	0.002113	22.1261	105.053	-168.575	0.099449	0.681286	-0.339971	-0.341260	-0.010494	22.1261	-0.339615	-18027.9	5.821176E-7	NaN
373	1.000000	0.722604	7.36872e+06	-57289.1	955.818	-29737.5	0.000000	0.000000	6.723052	-0.017515	NaN	0.000000	0.001562	0.001666	28.0792	0.042189	0.002014	20.9483	167.409	-168.052	-0.027941	0.721317	-0.299943	-0.301229	-0.017515	20.9483	-0.299315	-4596.67	3.810358E-6	NaN
373	1.000000	0.762591	7.36872e+06	-57289.1	955.818	-29737.5	0.000000	0.000000	6.763039	-0.016792	NaN	0.000000	0.001657	0.001689	28.0806	0.116494	0.001907	61.0989	-54.6658	-169.732	-0.093765	0.761249	-0.259956	-0.261298	-0.016792	61.0989	-0.259750	-1161.67	1.445510E-5	NaN
373	1.000000	0.802626	7.36872e+06	-57289.1	955.818	-29737.5	0.000000	0.000000	6.803073	-0.037376	NaN	0.000000	0.001620	0.001642	28.0808	0.018132	0.002085	8.696668	-87.878	-165.565	-0.049391	0.801352	-0.219920	-0.221194	-0.037376	8.696668	-0.216697	-245.911	0.000152	NaN
373	1.000000	0.842643	7.36872e+06	-57289.1	955.818	-29737.5	0.000000	0.000000	6.843091	-0.009805	NaN	0.000000	0.001680	0.001710	28.0807	0.069459	0.002041	34.0298	20.9443	-165.25	0.003147	0.841330	-0.179903	-0.181217	-0.009805	34.0298	-0.179687	-60.2764	0.000163	NaN
373	1.000000	0.882685	7.36872e+06	-57289.1	955.819	-29737.5	0.000000	0.000000	6.883133	-0.017957	NaN	0.000000	0.001702	0.001721	28.0795	0.047597	0.002077	22.9204	161.308	-167.114	-0.037968	0.881351	-0.139862	-0.141196	-0.017957	22.9204	-0.139274	-11.4634	0.001566	NaN
373	1.000000	0.922669	7.36872e+06	-57289.1	955.818	-29737.5	0.000000	0.000000	6.923118	-0.000435	NaN	0.000000	0.001707	0.001708	28.0795	0.053773	0.001969	27.3127	124.525	-166.666	-0.021549	0.921367	-0.099877	-0.101180	-0.000435	27.3127	-0.099865	-1.814613	0.000240	NaN
373	1.000000	0.962684	7.36872e+06	-57289.1	955.819	-29737.5	0.000000	0.000000	6.963132	0.000751	NaN	0.000000	0.001687	0.001728	28.0797	0.073385	0.002015	36.4177	-8.277811	-169.793	0.044859	0.961357	-0.059863	-0.061190	0.000751	36.4177	-0.059878	-0.178650	-0.004202	NaN
373	1.000000	1.002673	7.36872e+06	-57289.1	955.819	-29737.5	0.000000	0.000000	7.003185	1.542879	NaN	0.000000	0.001661	0.001696	28.0807	0.672417	0.002034	330.569	26.8265	-166.046	1.498434	1.001345	-0.019873	-0.021201	1.542879	330.569	-0.023374	-0.015311	-100.768	NaN
373	2.000000	1.034335	7.36872e+06	-57289.1	955.819	-29737.5	0.000000	0.000000	7.035207	10.2987	NaN	0.000000	0.001654	0.001688	28.0808	10.2728	0.001706	6023.28	6.183744	-172.508	9.681919	1.034000	0.011788	0.011453	10.2987	6023.28	0.010506	0.009749	1056.36	55734.3
373	2.000000	1.044276	7.36872e+06	-57289.1	955.818	-29737.5	0.000000	0.000000	7.045842	27.1539	NaN	0.000000	0.001689	0.001645	28.0805	21.0333	0.001844	11404.5	4.660233	-176.037	26.7287	1.043910	0.021730	0.021364	27.1539	11404.5	0.019944	0.022454	1209.3	69534.3
373	2.000000	1.054241	7.36872e+06	-57289.1	955.82	-29737.5	0.000000	0.000000	7.056818	51.7334	NaN	0.000000	0.001652	0.001680	28.0808	31.2649	0.001798	17389.1	5.348541	178.996	50.1793	1.053953	0.031694	0.031407	51.7334	17389.1	0.029463	0.039638	1305.15	79798.5
373	2.000000	1.064216	7.36872e+06	-57289.1	955.818	-29737.5	0.000000	0.000000	7.068074	82.8511	NaN	0.000000	0.001653	0.001630	28.0796	41.2734	0.001860	22188	7.634919	174.056	81.939	1.063911	0.041670	0.041364	82.8511	22188	0.038869	0.061139	1355.13	81984.8
373	2.000000	1.074179	7.36872e+06	-57289.1	955.82	-29737.5	0.000000	0.000000	7.079618	121.289	NaN	0.000000	0.001677	0.001599	28.0798	48.9816	0.001801	27199.4	3.828465	176.582	117.802	1.073802	0.051632	0.051255	121.289	27199.4	0.048288	0.087195	1391.01	84156.5
373	2.000000	1.084189	7.36872e+06	-57289.1	955.82	-29737.5	0.000000	0.000000	7.091237	160.407	NaN	0.000000	0.001695	0.001661	28.0798	61.4186	0.001899	32350.7	10.1028	168.22	160.457	1.083940	0.061642	0.061393	160.407	32350.7	0.057924	0.118468	1354.01	85872.9
373	2.000000	1.094135	7.36872e+06	-57289.1	955.82	-29737.5	0.000000	0.000000	7.103741	222.584	NaN	0.000000	0.001636	0.001694	28.0811	68.2307	0.001796	37986.5	6.446850	172.42	219.08	1.093758	0.071588	0.071211	222.584	37986.5	0.067194	0.152860	1456.14	88767.9
373	2.000000	1.104202	7.36872e+06	-57289.1	955.82	-29737.5	0.000000	0.000000	7.115964	274.952	NaN	0.000000	0.001692	0.001672	28.0807	76.8525	0.001850	41541.5	4.791844	172.97	276.674	1.103877	0.081656	0.081331	274.952	41541.5	0.076692	0.192370	1429.29	86534.1
373	2.000000	1.114198	7.36872e+06	-57289.1	955.82	-29737.5	0.000000	0.000000	7.128517	337.122	NaN	0.000000	0.001702	0.001707	28.0807	85.8775	0.001765	48669	1.243864	174.779	337.876	1.113894	0.091651	0.091347	337.122	48669	0.086456	0.237397	1420.08	91261.7
373	2.000000	1.124105	7.36872e+06	-57289.1	955.82	-29737.5	0.000000	0.000000	7.141209	404.798	NaN	0.000000	0.001704	0.001659	28.0807	93.6214	0.001805	51872.3	2.712737	172.704	402.294	1.123885	0.101559	0.101339	404.798	51872.3	0.095706	0.284106	1424.81	88913.7
373	2.000000	1.130140	7.36872e+06	-57289.1	955.82	-29737.5	0.000000	0.000000	7.148853	443.924	NaN	0.000000	0.001702	0.001672	28.0794	98.4769	0.001720	57270.2	0.620613	174.265	440.695	1.129887	0.107593	0.107340	443.924	57270.2	0.101780	0.316903	1400.82	92947.7