File: remote_trans/data/nanoindenter/0828-1/data/Data_2025-08-06,11h17m57s/2025-07-22_16-23-58_1_1131.txt
2025-07-22, 16:23:58, 1
Index	Phase	Displacement	Time	Pos X	Pos Y	Pos Z	Rot A	Rot B	Piezo Z	Force A	Force B	Gripper	Voltage A	Voltage B	Temperature	Amplitude force	Amplitude pos	Stiffness	Phase shift	Phase excitation	Force A raw	Displacement raw	HMax	HMax raw	Real Force	Real Stiffness	Contact Depth	Area	Hardness	Reduced Mod.
[#]	[#]	[um]	[s]	[um]	[um]	[um]	[m°]	[m°]	[um]	[uN]	[uN]	[V]	[V]	[V]	[°C]	[uN]	[um]	[N/m]	[°]	[°]	[uN]	[um]	[um]	[um]	[uN]	[N/m]	[um]	[um^2]	[MPa]	[MPa]
1131	1.000000	0.002105	7.37611e+06	-56689.1	1055.82	-29738.1	0.000000	0.000000	6.002800	0.012013	NaN	0.000000	0.001573	0.001661	28.0833	0.075694	0.001015	74.5713	-88.3617	-166.68	-0.026299	0.000813	-1.248769	-1.250062	0.012013	74.5713	-1.248890	-4.955340E+16	-2.424259E-19	NaN
1131	1.000000	0.048074	7.37611e+06	-56689.1	1055.82	-29738.1	0.000000	0.000000	6.048769	0.027908	NaN	0.000000	0.001605	0.001705	28.0826	0.097974	0.001898	51.6252	-110.315	15.9312	0.004580	0.046673	-1.202801	-1.204202	0.027908	51.6252	-1.203206	-1.212502E+16	-2.301667E-18	NaN
1131	1.000000	0.094053	7.37611e+06	-56689.1	1055.82	-29738.1	0.000000	0.000000	6.094747	0.002838	NaN	0.000000	0.001594	0.001730	28.0843	0.140621	0.001881	74.7518	123.475	-164.272	0.046820	0.092749	-1.156822	-1.158126	0.002838	74.7518	-1.156850	-2.901668E+15	-9.779623E-19	NaN
1131	1.000000	0.140066	7.37611e+06	-56689.1	1055.82	-29738.1	0.000000	0.000000	6.140759	-0.022813	NaN	0.000000	0.001599	0.001740	28.0844	0.111580	0.002019	55.2613	1.189938	16.6037	-0.119549	0.138753	-1.110809	-1.112122	-0.022813	55.2613	-1.110499	-6.934006E+14	3.289996E-17	NaN
1131	1.000000	0.186079	7.37611e+06	-56689.1	1055.82	-29738.1	0.000000	0.000000	6.186774	0.016234	NaN	0.000000	0.001556	0.001754	28.0843	0.040837	0.001952	20.9215	-93.5665	-164.725	0.066570	0.184809	-1.064795	-1.066066	0.016234	20.9215	-1.065377	-1.718229E+14	-9.447909E-17	NaN
1131	1.000000	0.232106	7.37612e+06	-56689.1	1055.82	-29738.1	0.000000	0.000000	6.232800	0.000187	NaN	0.000000	0.001561	0.001710	28.083	0.076346	0.001833	41.6401	124.399	14.0051	0.042462	0.230761	-1.018768	-1.020114	0.000187	41.6401	-1.018772	-4.059044E+13	-4.612645E-18	NaN
1131	1.000000	0.278164	7.37612e+06	-56689.1	1055.82	-29738.1	0.000000	0.000000	6.278859	0.038916	NaN	0.000000	0.001581	0.001701	28.0834	0.037380	0.002042	18.3054	-117.053	-163.774	0.092348	0.276898	-0.972711	-0.973977	0.038916	18.3054	-0.974305	-1.022542E+13	-3.805801E-15	NaN
1131	1.000000	0.324193	7.37612e+06	-56689.1	1055.82	-29738.1	0.000000	0.000000	6.324889	0.058909	NaN	0.000000	0.001605	0.001718	28.0832	0.109443	0.001923	56.8992	120.014	16.0913	0.015100	0.322831	-0.926682	-0.928044	0.058909	56.8992	-0.927459	-2.387238E+12	-2.467671E-14	NaN
1131	1.000000	0.370204	7.37612e+06	-56689.1	1055.82	-29738.1	0.000000	0.000000	6.370900	0.045543	NaN	0.000000	0.001544	0.001721	28.0847	0.035350	0.002018	17.5137	117.533	-164.205	0.035035	0.368901	-0.880670	-0.881973	0.045543	17.5137	-0.882621	-5.917610E+11	-7.696118E-14	NaN
1131	1.000000	0.416183	7.37612e+06	-56689.1	1055.82	-29738.1	0.000000	0.000000	6.416877	0.021800	NaN	0.000000	0.001567	0.001751	28.0846	0.013182	0.002049	6.432598	-165.089	16.4401	0.016455	0.414837	-0.834692	-0.836038	0.021800	6.432598	-0.837234	-1.438187E+11	-1.515794E-13	NaN
1131	1.000000	0.462201	7.37612e+06	-56689.1	1055.82	-29738.1	0.000000	0.000000	6.462896	0.012183	NaN	0.000000	0.001583	0.001707	28.0846	0.096055	0.002091	45.9431	58.017	-161.89	0.072218	0.460908	-0.788673	-0.789966	0.012183	45.9431	-0.788872	-3.175156E+10	-3.836978E-13	NaN
1131	1.000000	0.508267	7.37612e+06	-56689.1	1055.82	-29738.1	0.000000	0.000000	6.508961	-0.001635	NaN	0.000000	0.001611	0.001707	28.083	0.067114	0.001995	33.644	58.9682	14.1655	0.014265	0.506880	-0.742608	-0.743994	-0.001635	33.644	-0.742571	-7.448648E+9	2.195337E-13	NaN
1131	1.000000	0.554291	7.37612e+06	-56689.1	1055.82	-29738.1	0.000000	0.000000	6.554983	-0.038931	NaN	0.000000	0.001649	0.001666	28.0834	0.079592	0.002029	39.2347	131.973	-163.721	0.037540	0.552911	-0.696583	-0.697964	-0.038931	39.2347	-0.695839	-1.716731E+9	2.267728E-11	NaN
1131	1.000000	0.600265	7.37612e+06	-56689.1	1055.82	-29738.1	0.000000	0.000000	6.600958	-0.019149	NaN	0.000000	0.001683	0.001646	28.0831	0.067718	0.001867	36.2722	69.2209	15.8899	0.006848	0.598941	-0.650610	-0.651934	-0.019149	36.2722	-0.650214	-4.077244E+8	4.696652E-11	NaN
1131	1.000000	0.646303	7.37612e+06	-56689.1	1055.82	-29738.2	0.000000	0.000000	6.647000	0.078741	NaN	0.000000	0.001608	0.001726	28.0843	0.062776	0.001982	31.6703	-175.132	-164.637	0.059173	0.644955	-0.604572	-0.605920	0.078741	31.6703	-0.606436	-1.021115E+8	-7.711301E-10	NaN
1131	1.000000	0.692327	7.37612e+06	-56689.1	1055.82	-29738.2	0.000000	0.000000	6.693020	-0.010637	NaN	0.000000	0.001602	0.001725	28.0848	0.090430	0.002076	43.5638	3.033263	17.4837	0.023518	0.690971	-0.558548	-0.559904	-0.010637	43.5638	-0.558365	-2.216956E+7	4.798196E-10	NaN
1131	1.000000	0.738369	7.37612e+06	-56689.1	1055.82	-29738.2	0.000000	0.000000	6.739063	0.015133	NaN	0.000000	0.001581	0.001729	28.0848	0.033453	0.002048	16.3341	4.181934	-166.833	0.055018	0.737037	-0.512506	-0.513838	0.015133	16.3341	-0.513201	-5.23581e+06	-2.890247E-9	NaN
1131	1.000000	0.784384	7.37612e+06	-56689.1	1055.82	-29738.2	0.000000	0.000000	6.785075	-0.066932	NaN	0.000000	0.001591	0.001705	28.0833	0.044837	0.001857	24.1502	-72.6698	14.3153	0.066774	0.783010	-0.466490	-0.467865	-0.066932	24.1502	-0.464412	-1.0889e+06	6.146778E-8	NaN
1131	1.000000	0.830397	7.37612e+06	-56689.1	1055.82	-29738.2	0.000000	0.000000	6.831092	0.030625	NaN	0.000000	0.001597	0.001732	28.0836	0.090451	0.002070	43.6874	-44.1748	-166.34	0.044759	0.829042	-0.420478	-0.421833	0.030625	43.6874	-0.421003	-265854	-1.151932E-7	NaN
1131	1.000000	0.876420	7.37612e+06	-56689.1	1055.82	-29738.2	0.000000	0.000000	6.877112	-0.038580	NaN	0.000000	0.001583	0.001672	28.0833	0.084948	0.002042	41.5976	79.7245	11.6887	0.033873	0.875057	-0.374455	-0.375817	-0.038580	41.5976	-0.373759	-56264	6.857040E-7	NaN
1131	1.000000	0.922440	7.37612e+06	-56689.1	1055.82	-29738.2	0.000000	0.000000	6.923135	0.035855	NaN	0.000000	0.001582	0.001692	28.0845	0.076850	0.002053	37.4387	-15.9463	-162.305	0.046748	0.921092	-0.328435	-0.329782	0.035855	37.4387	-0.329153	-12677.8	-2.828210E-6	NaN
1131	1.000000	0.968450	7.37612e+06	-56689.1	1055.82	-29738.2	0.000000	0.000000	6.969145	0.018778	NaN	0.000000	0.001629	0.001679	28.0845	0.104869	0.001951	53.745	-127.177	16.2448	-0.003097	0.967080	-0.282424	-0.283795	0.018778	53.745	-0.282686	-2590.95	-7.247354E-6	NaN
1131	1.000000	1.014470	7.37612e+06	-56689.1	1055.82	-29738.2	0.000000	0.000000	7.015164	0.009616	NaN	0.000000	0.001688	0.001673	28.0843	0.082222	0.001997	41.1637	-147.051	-164.584	-0.008574	1.013099	-0.236405	-0.237776	0.009616	41.1637	-0.236580	-508.21	-1.892071E-5	NaN
1131	1.000000	1.060484	7.37612e+06	-56689.1	1055.82	-29738.2	0.000000	0.000000	7.061178	-0.001279	NaN	0.000000	0.001709	0.001729	28.0828	0.089591	0.001995	44.9184	-85.1428	17.3924	-0.009000	1.059144	-0.190391	-0.191731	-0.001279	44.9184	-0.190369	-91.2419	1.402181E-5	NaN
1131	1.000000	1.106504	7.37612e+06	-56689.1	1055.82	-29738.2	0.000000	0.000000	7.107196	-0.041557	NaN	0.000000	0.001755	0.001702	28.0832	0.092024	0.002050	44.8874	-6.366463	-164.885	-0.017908	1.105164	-0.144371	-0.145710	-0.041557	44.8874	-0.143677	-13.8559	0.002999	NaN
1131	1.000000	1.152534	7.37612e+06	-56689.1	1055.82	-29738.2	0.000000	0.000000	7.153227	-0.010996	NaN	0.000000	0.001739	0.001686	28.0834	0.053298	0.002036	26.1737	16.7399	17.878	0.134696	1.151141	-0.098341	-0.099734	-0.010996	26.1737	-0.098026	-1.651112	0.006660	NaN
1131	1.000000	1.198521	7.37612e+06	-56689.1	1055.82	-29738.2	0.000000	0.000000	7.199215	0.025244	NaN	0.000000	0.001790	0.001724	28.0846	0.011202	0.002037	5.499291	36.7592	-166.344	0.018562	1.197212	-0.052354	-0.053663	0.025244	5.499291	-0.055797	-0.135940	-0.185703	NaN
1131	1.000000	1.244561	7.37612e+06	-56689.1	1055.82	-29738.2	0.000000	0.000000	7.245256	0.028867	NaN	0.000000	0.001764	0.001682	28.0846	0.086527	0.001986	43.5722	121.44	16.8882	0.052373	1.243210	-0.006314	-0.007665	0.028867	43.5722	-0.006810	-0.004527	-6.376696	NaN
1131	2.000000	1.266119	7.37612e+06	-56689.1	1055.82	-29738.2	0.000000	0.000000	7.267662	20.6412	NaN	0.000000	0.001704	0.001728	28.0833	17.7356	0.001738	10202.6	6.446424	-174.564	22.1726	1.265783	0.015244	0.014908	20.6412	10202.6	0.013727	0.013625	1514.93	79857
1131	2.000000	1.277498	7.37612e+06	-56689.1	1055.82	-29738.2	0.000000	0.000000	7.280237	49.7077	NaN	0.000000	0.001745	0.001670	28.0837	30.536	0.001773	17226.6	6.529043	-1.624648	46.6577	1.277245	0.026623	0.026370	49.7077	17226.6	0.024459	0.030039	1654.76	90809.1
1131	2.000000	1.289032	7.37612e+06	-56689.1	1055.82	-29738.2	0.000000	0.000000	7.293286	86.5278	NaN	0.000000	0.001768	0.001700	28.0835	41.121	0.001721	23889	5.619656	177.262	86.1446	1.288728	0.038157	0.037854	86.5278	23889	0.035441	0.052777	1639.49	95005.4
1131	2.000000	1.300472	7.37612e+06	-56689.1	1055.82	-29738.2	0.000000	0.000000	7.306670	133.787	NaN	0.000000	0.001749	0.001705	28.0843	53.4429	0.001753	30479.3	3.502738	-4.057936	130.444	1.300249	0.049597	0.049374	133.787	30479.3	0.046305	0.081336	1644.86	97641.7
1131	2.000000	1.312012	7.37612e+06	-56689.1	1055.82	-29738.2	0.000000	0.000000	7.320770	195.99	NaN	0.000000	0.001708	0.001722	28.0845	64.71	0.001725	37504.8	9.443210	169.309	196.584	1.311609	0.061138	0.060734	195.99	37504.8	0.057218	0.116023	1689.23	100598
1131	2.000000	1.323667	7.37612e+06	-56689.1	1055.82	-29738.2	0.000000	0.000000	7.334708	251.491	NaN	0.000000	0.001705	0.001730	28.0844	77.5686	0.001738	44628.1	8.820248	-10.8295	259.248	1.323100	0.072792	0.072225	251.491	44628.1	0.068566	0.158303	1588.67	102480
1131	2.000000	1.334916	7.37612e+06	-56689.1	1055.82	-29738.2	0.000000	0.000000	7.349401	335.209	NaN	0.000000	0.001725	0.001682	28.083	86.9865	0.001725	50430.6	5.391576	170.775	332.299	1.334583	0.084042	0.083708	335.209	50430.6	0.079056	0.202867	1652.36	102297
1131	2.000000	1.346467	7.37612e+06	-56689.1	1055.82	-29738.2	0.000000	0.000000	7.364411	419.299	NaN	0.000000	0.001683	0.001699	28.0835	99.6071	0.001833	54346.2	10.3005	-14.267	416.116	1.346022	0.095592	0.095147	419.299	54346.2	0.089805	0.253857	1651.71	98548
1131	2.000000	1.356381	7.37612e+06	-56689.1	1055.82	-29738.2	0.000000	0.000000	7.377394	493.881	NaN	0.000000	0.001681	0.001735	28.0836	106.812	0.001872	57067.3	3.908526	-8.150574	485.849	1.356030	0.105506	0.105155	493.881	57067.3	0.099015	0.301768	1636.62	94912.5