File: remote_trans/data/nanoindenter/0828-1/data/Data_2025-08-06,11h17m57s/2025-07-22_16-23-58_1_346.txt
2025-07-22, 16:23:58, 1
Index	Phase	Displacement	Time	Pos X	Pos Y	Pos Z	Rot A	Rot B	Piezo Z	Force A	Force B	Gripper	Voltage A	Voltage B	Temperature	Amplitude force	Amplitude pos	Stiffness	Phase shift	Phase excitation	Force A raw	Displacement raw	HMax	HMax raw	Real Force	Real Stiffness	Contact Depth	Area	Hardness	Reduced Mod.
[#]	[#]	[um]	[s]	[um]	[um]	[um]	[m°]	[m°]	[um]	[uN]	[uN]	[V]	[V]	[V]	[°C]	[uN]	[um]	[N/m]	[°]	[°]	[uN]	[um]	[um]	[um]	[uN]	[N/m]	[um]	[um^2]	[MPa]	[MPa]
346	1.000000	0.002347	7.36844e+06	-55939.1	955.819	-29740.6	0.000000	0.000000	6.002806	-0.019608	NaN	0.000000	0.001594	0.001724	28.0812	0.089759	0.001005	89.309	-150.801	-171.816	-0.068234	0.001114	-1.048441	-1.049674	-0.019608	89.309	-1.048276	-1.012144E+14	1.937271E-16	NaN
346	1.000000	0.042315	7.36844e+06	-55939.1	955.818	-29740.6	0.000000	0.000000	6.042776	0.031366	NaN	0.000000	0.001617	0.001660	28.0824	0.062480	0.001966	31.7883	67.1656	-167.765	-0.015628	0.040996	-1.008474	-1.009792	0.031366	31.7883	-1.009214	-3.018559E+13	-1.039118E-15	NaN
346	1.000000	0.082296	7.36845e+06	-55939.1	955.818	-29740.6	0.000000	0.000000	6.082756	-0.007051	NaN	0.000000	0.001580	0.001690	28.0818	0.083246	0.002020	41.2114	-16.1956	-167.968	-0.034169	0.081012	-0.968492	-0.969777	-0.007051	41.2114	-0.968364	-8.503771E+12	8.291280E-16	NaN
346	1.000000	0.122338	7.36845e+06	-55939.1	955.819	-29740.6	0.000000	0.000000	6.122798	0.006530	NaN	0.000000	0.001620	0.001697	28.0837	0.088998	0.001950	45.6415	71.4507	-164.668	-0.011710	0.121006	-0.928450	-0.929782	0.006530	45.6415	-0.928557	-2.470149E+12	-2.643731E-15	NaN
346	1.000000	0.162324	7.36845e+06	-55939.1	955.818	-29740.6	0.000000	0.000000	6.162781	-0.062350	NaN	0.000000	0.001581	0.001704	28.0828	0.037075	0.002039	18.1814	153.073	-166.148	-0.009765	0.161043	-0.888465	-0.889746	-0.062350	18.1814	-0.885893	-6.552225E+11	9.515800E-14	NaN
346	1.000000	0.202351	7.36845e+06	-55939.1	955.818	-29740.6	0.000000	0.000000	6.202807	-0.072259	NaN	0.000000	0.001583	0.001653	28.0822	0.036425	0.002067	17.6215	-32.7589	-166.798	-0.090251	0.201076	-0.848438	-0.849712	-0.072259	17.6215	-0.845362	-1.853233E+11	3.899097E-13	NaN
346	1.000000	0.242348	7.36845e+06	-55939.1	955.819	-29740.6	0.000000	0.000000	6.242807	-0.014544	NaN	0.000000	0.001577	0.001657	28.0824	0.026317	0.001895	13.8897	-5.046915	-165.924	-0.002371	0.241101	-0.808440	-0.809687	-0.014544	13.8897	-0.807655	-5.711499E+10	2.546468E-13	NaN
346	1.000000	0.282353	7.36845e+06	-55939.1	955.818	-29740.6	0.000000	0.000000	6.282814	0.024832	NaN	0.000000	0.001571	0.001702	28.0813	0.039015	0.001971	19.7908	121.764	-167.008	-0.049233	0.281059	-0.768435	-0.769729	0.024832	19.7908	-0.769376	-1.725135E+10	-1.439400E-12	NaN
346	1.000000	0.322418	7.36845e+06	-55939.1	955.818	-29740.6	0.000000	0.000000	6.322878	0.003212	NaN	0.000000	0.001564	0.001668	28.0812	0.059218	0.001953	30.3187	-117.345	-165.418	0.048903	0.321115	-0.728371	-0.729673	0.003212	30.3187	-0.728450	-4.782796E+9	-6.715439E-13	NaN
346	1.000000	0.362433	7.36845e+06	-55939.1	955.818	-29740.6	0.000000	0.000000	6.362893	0.009965	NaN	0.000000	0.001606	0.001658	28.081	0.103513	0.002125	48.7213	-172.533	-166.667	-0.023715	0.361122	-0.688355	-0.689666	0.009965	48.7213	-0.688509	-1.363121E+9	-7.310713E-12	NaN
346	1.000000	0.402408	7.36845e+06	-55939.1	955.818	-29740.6	0.000000	0.000000	6.402868	0.002887	NaN	0.000000	0.001575	0.001629	28.081	0.027776	0.001970	14.1028	-129.604	-164.302	0.005091	0.401120	-0.648380	-0.649668	0.002887	14.1028	-0.648534	-3.866672E+8	-7.465496E-12	NaN
346	1.000000	0.442427	7.36845e+06	-55939.1	955.818	-29740.6	0.000000	0.000000	6.442889	0.045235	NaN	0.000000	0.001526	0.001681	28.0825	0.124703	0.002042	61.063	-156.841	-166.708	-0.022989	0.441150	-0.608361	-0.609638	0.045235	61.063	-0.608917	-1.104606E+8	-4.095154E-10	NaN
346	1.000000	0.482469	7.36845e+06	-55939.1	955.819	-29740.6	0.000000	0.000000	6.482929	0.018837	NaN	0.000000	0.001561	0.001664	28.0826	0.086033	0.002049	41.9853	-102.938	-163.613	0.020798	0.481205	-0.568320	-0.569584	0.018837	41.9853	-0.568656	-3.076544E+7	-6.122724E-10	NaN
346	1.000000	0.522503	7.36845e+06	-55939.1	955.818	-29740.6	0.000000	0.000000	6.522963	0.002685	NaN	0.000000	0.001605	0.001673	28.0825	0.033547	0.002025	16.5655	-170.75	-164.033	-0.015930	0.521182	-0.528285	-0.529606	0.002685	16.5655	-0.528406	-8.52001e+06	-3.150824E-10	NaN
346	1.000000	0.562517	7.36845e+06	-55939.1	955.818	-29740.6	0.000000	0.000000	6.562977	-0.011339	NaN	0.000000	0.001558	0.001626	28.0813	0.019172	0.002018	9.499744	-120.056	-165.67	-0.048329	0.561168	-0.488271	-0.489620	-0.011339	9.499744	-0.487376	-2.28409e+06	4.964495E-9	NaN
346	1.000000	0.602532	7.36845e+06	-55939.1	955.818	-29740.6	0.000000	0.000000	6.602993	0.020179	NaN	0.000000	0.001563	0.001677	28.0813	0.067979	0.002009	33.8296	-22.3062	-164.481	0.012938	0.601203	-0.448256	-0.449585	0.020179	33.8296	-0.448703	-654756	-3.081927E-8	NaN
346	1.000000	0.642570	7.36845e+06	-55939.1	955.819	-29740.6	0.000000	0.000000	6.643030	0.017575	NaN	0.000000	0.001596	0.001693	28.0814	0.011351	0.002052	5.530809	-54.3923	-168.989	0.112641	0.641237	-0.408219	-0.409551	0.017575	5.530809	-0.410602	-189218	-9.288504E-8	NaN
346	1.000000	0.682555	7.36845e+06	-55939.1	955.818	-29740.6	0.000000	0.000000	6.683014	-0.013022	NaN	0.000000	0.001623	0.001735	28.0823	0.097955	0.002031	48.2415	-9.051842	-165.806	0.051128	0.681253	-0.368234	-0.369535	-0.013022	48.2415	-0.368031	-46533.5	2.798419E-7	NaN
346	1.000000	0.722586	7.36845e+06	-55939.1	955.818	-29740.6	0.000000	0.000000	6.723043	-0.060973	NaN	0.000000	0.001642	0.001675	28.0822	0.036407	0.002018	18.0452	-14.5919	-170.63	-0.068228	0.721265	-0.328202	-0.329523	-0.060973	18.0452	-0.325668	-11270.5	5.409910E-6	NaN
346	1.000000	0.762587	7.36845e+06	-55939.1	955.819	-29740.6	0.000000	0.000000	6.763048	0.023183	NaN	0.000000	0.001633	0.001675	28.0826	0.056016	0.002145	26.1145	-30.3869	-164.652	-0.010257	0.761283	-0.288201	-0.289505	0.023183	26.1145	-0.288867	-3208.65	-7.225051E-6	NaN
346	1.000000	0.802576	7.36845e+06	-55939.1	955.818	-29740.6	0.000000	0.000000	6.803036	0.000161	NaN	0.000000	0.001634	0.001700	28.0827	0.071619	0.001914	37.4144	113.32	-167.828	-0.136506	0.801295	-0.248212	-0.249493	0.000161	37.4144	-0.248215	-771.505	-2.090406E-7	NaN
346	1.000000	0.842650	7.36845e+06	-55939.1	955.819	-29740.6	0.000000	0.000000	6.843109	-0.005389	NaN	0.000000	0.001633	0.001728	28.0811	0.054568	0.001993	27.3773	-128.545	-167	-0.053242	0.841319	-0.208139	-0.209469	-0.005389	27.3773	-0.207991	-177.926	3.028969E-5	NaN
346	1.000000	0.882635	7.36845e+06	-55939.1	955.818	-29740.6	0.000000	0.000000	6.883096	0.019889	NaN	0.000000	0.001593	0.001751	28.0811	0.109790	0.001914	57.3664	-178.726	-166.438	-0.000308	0.881350	-0.168153	-0.169439	0.019889	57.3664	-0.168413	-38.5487	-0.000516	NaN
346	1.000000	0.922633	7.36845e+06	-55939.1	955.819	-29740.6	0.000000	0.000000	6.923094	0.030968	NaN	0.000000	0.001627	0.001764	28.0809	0.151619	0.002135	71.0268	-172.724	-168.623	0.023782	0.921374	-0.128155	-0.129414	0.030968	71.0268	-0.128482	-7.119431	-0.004350	NaN
346	1.000000	0.962684	7.36845e+06	-55939.1	955.817	-29740.6	0.000000	0.000000	6.963142	-0.029780	NaN	0.000000	0.001621	0.001747	28.0823	0.067346	0.001941	34.691	108.747	-166.991	0.047981	0.961354	-0.088105	-0.089434	-0.029780	34.691	-0.087461	-0.941404	0.031634	NaN
346	1.000000	1.002697	7.36845e+06	-55939.1	955.817	-29740.6	0.000000	0.000000	7.003156	-0.015327	NaN	0.000000	0.001643	0.001689	28.0822	0.097077	0.002095	46.3422	-33.6528	-167.087	0.029069	1.001362	-0.048092	-0.049427	-0.015327	46.3422	-0.047844	-0.078487	0.195284	NaN
346	1.000000	1.042710	7.36845e+06	-55939.1	955.816	-29740.6	0.000000	0.000000	7.043168	-0.048496	NaN	0.000000	0.001589	0.001723	28.0824	0.095271	0.001865	51.0954	87.5727	-164.386	-0.053376	1.041352	-0.008078	-0.009437	-0.048496	51.0954	-0.007367	-0.004859	9.981705	NaN
346	2.000000	1.067226	7.36845e+06	-55939.1	955.815	-29740.6	0.000000	0.000000	7.068333	15.7252	NaN	0.000000	0.001623	0.001697	28.0833	15.0823	0.001831	8239.04	9.495713	-177.18	15.6128	1.066883	0.016438	0.016095	15.7252	8239.04	0.015006	0.015294	1028.19	60868.1
346	2.000000	1.077156	7.36845e+06	-55939.1	955.818	-29740.6	0.000000	0.000000	7.079209	38.7139	NaN	0.000000	0.001619	0.001773	28.0812	26.594	0.001801	14767.3	8.259681	177.777	37.918	1.076792	0.026368	0.026004	38.7139	14767.3	0.024402	0.029936	1293.21	77978.9
346	2.000000	1.087149	7.36845e+06	-55939.1	955.816	-29740.6	0.000000	0.000000	7.090339	66.3812	NaN	0.000000	0.001621	0.001717	28.0821	38.2176	0.001854	20611.4	4.720656	177.328	65.5366	1.086888	0.036360	0.036100	66.3812	20611.4	0.033945	0.049318	1345.99	84796.7
346	2.000000	1.097084	7.36845e+06	-55939.1	955.815	-29740.6	0.000000	0.000000	7.101825	104.073	NaN	0.000000	0.001634	0.001731	28.081	46.8457	0.001781	26298.9	8.137146	171.451	99.3342	1.096850	0.046296	0.046062	104.073	26298.9	0.043328	0.072911	1427.4	88984.6
346	2.000000	1.107127	7.36845e+06	-55939.1	955.817	-29740.6	0.000000	0.000000	7.113702	148.655	NaN	0.000000	0.001690	0.001720	28.0823	56.277	0.001770	31794.6	6.246663	173.139	147.253	1.106721	0.056338	0.055933	148.655	31794.6	0.052832	0.101367	1466.5	91238.8
346	2.000000	1.117149	7.36845e+06	-55939.1	955.817	-29740.6	0.000000	0.000000	7.126087	206.091	NaN	0.000000	0.001650	0.001738	28.0823	66.2378	0.001716	38606.1	8.852977	168.538	207.327	1.116708	0.066361	0.065920	206.091	38606.1	0.062357	0.134397	1533.45	96213.3
346	2.000000	1.127140	7.36845e+06	-55939.1	955.817	-29740.6	0.000000	0.000000	7.138422	263.072	NaN	0.000000	0.001630	0.001728	28.0824	76.0333	0.001804	42158.3	3.944405	173.184	266.431	1.126766	0.076352	0.075977	263.072	42158.3	0.071672	0.170954	1538.84	93157.2
346	2.000000	1.137003	7.36845e+06	-55939.1	955.816	-29740.6	0.000000	0.000000	7.150765	323.345	NaN	0.000000	0.001603	0.001712	28.0814	86.624	0.001861	46542.2	5.970854	169.821	319.149	1.136907	0.086214	0.086119	323.345	46542.2	0.081004	0.211709	1527.31	92416.9
346	2.000000	1.146953	7.36845e+06	-55939.1	955.815	-29740.6	0.000000	0.000000	7.164126	406.254	NaN	0.000000	0.001648	0.001743	28.0811	94.141	0.001813	51913.9	4.780228	170.415	398.854	1.146732	0.096165	0.095944	406.254	51913.9	0.090296	0.256310	1585.01	93685.9
346	2.000000	1.156977	7.36845e+06	-55939.1	955.817	-29740.6	0.000000	0.000000	7.177173	479.734	NaN	0.000000	0.001678	0.001719	28.0812	102.784	0.001826	56302.2	2.545880	172.348	473.493	1.156778	0.106189	0.105990	479.734	56302.2	0.099798	0.306020	1567.66	92987.3
346	2.000000	1.160528	7.36845e+06	-55939.1	955.816	-29740.6	0.000000	0.000000	7.182056	512.123	NaN	0.000000	0.001624	0.001729	28.0809	105.581	0.001700	62115.2	5.097794	-10.985	508.902	1.160223	0.109740	0.109435	512.123	62115.2	0.103556	0.326813	1567.02	99270.8