File: remote_trans/data/nanoindenter/0828-1/data/Data_2025-08-06,11h17m57s/2025-07-22_16-23-58_1_760.txt
2025-07-22, 16:23:58, 1
Index	Phase	Displacement	Time	Pos X	Pos Y	Pos Z	Rot A	Rot B	Piezo Z	Force A	Force B	Gripper	Voltage A	Voltage B	Temperature	Amplitude force	Amplitude pos	Stiffness	Phase shift	Phase excitation	Force A raw	Displacement raw	HMax	HMax raw	Real Force	Real Stiffness	Contact Depth	Area	Hardness	Reduced Mod.
[#]	[#]	[um]	[s]	[um]	[um]	[um]	[m°]	[m°]	[um]	[uN]	[uN]	[V]	[V]	[V]	[°C]	[uN]	[um]	[N/m]	[°]	[°]	[uN]	[um]	[um]	[um]	[uN]	[N/m]	[um]	[um^2]	[MPa]	[MPa]
760	1.000000	0.002202	7.37249e+06	-39089.1	1005.82	-29795.1	0.000000	0.000000	6.002787	0.074512	NaN	0.000000	0.001599	0.001669	28.0833	0.056215	0.000973	57.7618	63.6203	-170.814	0.047752	0.000924	-1.075812	-1.077090	0.074512	57.7618	-1.076780	-2.444940E+14	-3.047620E-16	NaN
760	1.000000	0.042165	7.37249e+06	-39089.1	1005.82	-29795.1	0.000000	0.000000	6.042749	0.032330	NaN	0.000000	0.001620	0.001726	28.0821	0.077994	0.001870	41.7179	110.753	-167.006	-0.023114	0.040853	-1.035849	-1.037161	0.032330	41.7179	-1.036430	-7.013906E+13	-4.609392E-16	NaN
760	1.000000	0.082179	7.37249e+06	-39089.1	1005.82	-29795.1	0.000000	0.000000	6.082761	-0.013168	NaN	0.000000	0.001678	0.001761	28.0822	0.072982	0.002012	36.2743	137.162	-167.789	-0.009578	0.080912	-0.995835	-0.997102	-0.013168	36.2743	-0.995562	-1.977053E+13	6.660264E-16	NaN
760	1.000000	0.122191	7.37249e+06	-39089.1	1005.82	-29795.1	0.000000	0.000000	6.122774	0.013794	NaN	0.000000	0.001685	0.001769	28.0821	0.020624	0.001998	10.3213	74.581	-165.808	-0.001536	0.120881	-0.955823	-0.957133	0.013794	10.3213	-0.956825	-5.943864E+12	-2.320738E-15	NaN
760	1.000000	0.162210	7.37249e+06	-39089.1	1005.82	-29795.1	0.000000	0.000000	6.162791	-0.021442	NaN	0.000000	0.001686	0.001780	28.0829	0.064243	0.002024	31.748	15.6103	-166.924	0.016767	0.160865	-0.915804	-0.917149	-0.021442	31.748	-0.915298	-1.635726E+12	1.310881E-14	NaN
760	1.000000	0.202213	7.37249e+06	-39089.1	1005.82	-29795.1	0.000000	0.000000	6.202796	0.017297	NaN	0.000000	0.001678	0.001798	28.0828	0.079504	0.002020	39.3496	20.0699	-169.974	-0.005867	0.200902	-0.875801	-0.877112	0.017297	39.3496	-0.876130	-4.834745E+11	-3.577648E-14	NaN
760	1.000000	0.242265	7.37249e+06	-39089.1	1005.82	-29795.1	0.000000	0.000000	6.242849	0.027800	NaN	0.000000	0.001668	0.001769	28.0827	0.115294	0.002012	57.3092	42.2507	-167.26	0.042645	0.240988	-0.835749	-0.837025	0.027800	57.3092	-0.836113	-1.388751E+11	-2.001815E-13	NaN
760	1.000000	0.282251	7.37249e+06	-39089.1	1005.82	-29795.1	0.000000	0.000000	6.282834	0.027222	NaN	0.000000	0.001743	0.001741	28.0827	0.043213	0.001849	23.3713	-24.9601	-167.938	0.012086	0.281000	-0.795763	-0.797014	0.027222	23.3713	-0.796637	-4.047700E+10	-6.725387E-13	NaN
760	1.000000	0.322265	7.37249e+06	-39089.1	1005.82	-29795.1	0.000000	0.000000	6.322848	0.028845	NaN	0.000000	0.001674	0.001807	28.0813	0.114709	0.002078	55.2145	-107.753	-167.718	0.032287	0.320993	-0.755749	-0.757021	0.028845	55.2145	-0.756141	-1.139720E+10	-2.530842E-12	NaN
760	1.000000	0.362290	7.37249e+06	-39089.1	1005.82	-29795.1	0.000000	0.000000	6.362874	0.050722	NaN	0.000000	0.001615	0.001793	28.0817	0.064554	0.002060	31.3334	-31.2993	-167.617	0.064475	0.361017	-0.715724	-0.716997	0.050722	31.3334	-0.716939	-3.332091E+9	-1.522229E-11	NaN
760	1.000000	0.402329	7.37249e+06	-39089.1	1005.82	-29795.1	0.000000	0.000000	6.402914	0.079498	NaN	0.000000	0.001614	0.001760	28.0821	0.068151	0.001931	35.2852	120.681	-166.742	-0.005966	0.401024	-0.675685	-0.676990	0.079498	35.2852	-0.677375	-9.600662E+8	-8.280487E-11	NaN
760	1.000000	0.442336	7.37249e+06	-39089.1	1005.82	-29795.1	0.000000	0.000000	6.442920	0.041003	NaN	0.000000	0.001602	0.001802	28.0834	0.014440	0.002037	7.088790	121.198	-167.515	-0.030973	0.441011	-0.635678	-0.637003	0.041003	7.088790	-0.640016	-2.954674E+8	-1.387738E-10	NaN
760	1.000000	0.482362	7.37249e+06	-39089.1	1005.82	-29795.1	0.000000	0.000000	6.482947	0.053802	NaN	0.000000	0.001606	0.001765	28.083	0.059294	0.002134	27.7803	174.414	-168.749	0.063085	0.481078	-0.595652	-0.596936	0.053802	27.7803	-0.597104	-7.595848E+7	-7.083112E-10	NaN
760	1.000000	0.522346	7.37249e+06	-39089.1	1005.82	-29795.1	0.000000	0.000000	6.522928	0.004083	NaN	0.000000	0.001573	0.001750	28.0825	0.069865	0.002058	33.9551	156.931	-164.131	0.082155	0.521064	-0.555668	-0.556950	0.004083	33.9551	-0.555758	-2.040268E+7	-2.001125E-10	NaN
760	1.000000	0.562363	7.37249e+06	-39089.1	1005.82	-29795.1	0.000000	0.000000	6.562949	0.070171	NaN	0.000000	0.001653	0.001741	28.0828	0.060154	0.002006	29.991	105.215	-165.219	-0.008939	0.561026	-0.515650	-0.516988	0.070171	29.991	-0.517405	-5.99107e+06	-1.171267E-8	NaN
760	1.000000	0.602386	7.37249e+06	-39089.1	1005.82	-29795.1	0.000000	0.000000	6.602966	-0.055754	NaN	0.000000	0.001661	0.001803	28.0817	0.087608	0.002020	43.3634	9.397691	-166.664	-0.030505	0.601074	-0.475628	-0.476940	-0.055754	43.3634	-0.474664	-1.51631e+06	3.676973E-8	NaN
760	1.000000	0.642426	7.37249e+06	-39089.1	1005.82	-29795.1	0.000000	0.000000	6.643008	-0.009637	NaN	0.000000	0.001562	0.001736	28.0815	0.097592	0.001939	50.3273	142.553	-165.752	0.001052	0.641121	-0.435588	-0.436893	-0.009637	50.3273	-0.435445	-425633	2.264187E-8	NaN
760	1.000000	0.682432	7.37249e+06	-39089.1	1005.82	-29795.1	0.000000	0.000000	6.683013	-0.047101	NaN	0.000000	0.001620	0.001771	28.0816	0.134620	0.002031	66.2945	-63.9218	-167.818	0.075194	0.681092	-0.395582	-0.396922	-0.047101	66.2945	-0.395049	-113588	4.146695E-7	NaN
760	1.000000	0.722445	7.37249e+06	-39089.1	1005.82	-29795.1	0.000000	0.000000	6.723027	-0.023372	NaN	0.000000	0.001643	0.001756	28.0829	0.075707	0.001975	38.3353	-165.299	-164.22	-0.004047	0.721136	-0.355569	-0.356878	-0.023372	38.3353	-0.355111	-30276.7	7.719330E-7	NaN
760	1.000000	0.762418	7.37249e+06	-39089.1	1005.82	-29795.1	0.000000	0.000000	6.762998	-0.052324	NaN	0.000000	0.001581	0.001765	28.083	0.026316	0.002118	12.4229	-136.15	-167.147	-0.024916	0.761113	-0.315596	-0.316901	-0.052324	12.4229	-0.312437	-7196.08	7.271120E-6	NaN
760	1.000000	0.802467	7.37249e+06	-39089.1	1005.82	-29795.1	0.000000	0.000000	6.803049	-6.850696E-5	NaN	0.000000	0.001620	0.001770	28.0829	0.023100	0.001956	11.8111	-40.6794	-163.773	-0.015484	0.801186	-0.275547	-0.276828	-6.850696E-5	11.8111	-0.275543	-2021.22	3.389387E-8	NaN
760	1.000000	0.842477	7.37249e+06	-39089.1	1005.82	-29795.1	0.000000	0.000000	6.843060	0.016886	NaN	0.000000	0.001589	0.001815	28.082	0.060279	0.002009	30.0053	-175.445	-166.1	-0.044534	0.841239	-0.235537	-0.236775	0.016886	30.0053	-0.235959	-496.93	-3.398146E-5	NaN
760	1.000000	0.882510	7.37249e+06	-39089.1	1005.82	-29795.1	0.000000	0.000000	6.883089	-0.085487	NaN	0.000000	0.001591	0.001781	28.0815	0.029334	0.001918	15.2917	-81.5828	-165.384	-0.018077	0.881203	-0.195504	-0.196811	-0.085487	15.2917	-0.191311	-94.6038	0.000904	NaN
760	1.000000	0.922561	7.37249e+06	-39089.1	1005.82	-29795.1	0.000000	0.000000	6.923143	-0.014613	NaN	0.000000	0.001565	0.001747	28.0819	0.096128	0.001991	48.2742	108.161	-165.035	0.067860	0.921192	-0.155453	-0.156822	-0.014613	48.2742	-0.155226	-22.5237	0.000649	NaN
760	1.000000	0.962563	7.37249e+06	-39089.1	1005.82	-29795.1	0.000000	0.000000	6.963144	-0.031607	NaN	0.000000	0.001624	0.001789	28.082	0.077520	0.001916	40.4694	103.668	-165.619	0.028539	0.961224	-0.115451	-0.116790	-0.031607	40.4694	-0.114865	-3.795965	0.008326	NaN
760	1.000000	1.002588	7.37249e+06	-39089.1	1005.82	-29795.1	0.000000	0.000000	7.003169	-0.040308	NaN	0.000000	0.001550	0.001821	28.0831	0.068244	0.002007	34.0102	-144.111	-168.253	-0.126280	1.001244	-0.075426	-0.076770	-0.040308	34.0102	-0.074537	-0.449293	0.089714	NaN
760	1.000000	1.042600	7.37249e+06	-39089.1	1005.82	-29795.1	0.000000	0.000000	7.043183	0.021371	NaN	0.000000	0.001629	0.001800	28.0833	0.052332	0.001985	26.3624	1.806454	-166.354	0.039675	1.041297	-0.035414	-0.036717	0.021371	26.3624	-0.036022	-0.034333	-0.622467	NaN
760	1.000000	1.082494	7.37249e+06	-39089.1	1005.82	-29795.1	0.000000	0.000000	7.083370	7.155164	NaN	0.000000	0.001611	0.001762	28.0834	6.718793	0.001752	3834.14	7.718841	-169.039	5.639573	1.081252	0.004480	0.003238	7.155164	3834.14	0.003080	0.002448	2923.3	70805.6
760	2.000000	1.093236	7.37249e+06	-39089.1	1005.82	-29795.1	0.000000	0.000000	7.094697	21.3773	NaN	0.000000	0.001632	0.001755	28.0822	18.0192	0.001734	10390.4	11.0166	-179.118	22.1428	1.092842	0.015222	0.014828	21.3773	10390.4	0.013679	0.013565	1575.97	81508.1
760	2.000000	1.103239	7.37249e+06	-39089.1	1005.82	-29795.1	0.000000	0.000000	7.105967	52.1985	NaN	0.000000	0.001600	0.001811	28.0819	31.2282	0.001767	17670.3	11.7171	174.403	52.7132	1.102830	0.025225	0.024816	52.1985	17670.3	0.023010	0.027494	1898.52	97363.3
760	2.000000	1.113132	7.37249e+06	-39089.1	1005.82	-29795.1	0.000000	0.000000	7.116980	79.4564	NaN	0.000000	0.001580	0.001845	28.0817	40.4849	0.001820	22240.3	5.084815	177.865	78.5231	1.112841	0.035118	0.034827	79.4564	22240.3	0.032439	0.045950	1729.18	94791.5
760	2.000000	1.123156	7.37249e+06	-39089.1	1005.82	-29795.1	0.000000	0.000000	7.129049	129.223	NaN	0.000000	0.001572	0.001793	28.0817	51.5341	0.001843	27959.5	8.458897	172.438	129.004	1.122910	0.045142	0.044896	129.223	27959.5	0.041676	0.068432	1888.35	97650.3
760	2.000000	1.133113	7.37249e+06	-39089.1	1005.82	-29795.1	0.000000	0.000000	7.141718	195.23	NaN	0.000000	0.001639	0.001787	28.0831	61.1527	0.001695	36079.3	7.192306	170.918	193.231	1.132822	0.055099	0.054808	195.23	36079.3	0.051041	0.095658	2040.92	106579
760	2.000000	1.143084	7.37249e+06	-39089.1	1005.82	-29795.1	0.000000	0.000000	7.154783	270.511	NaN	0.000000	0.001608	0.001813	28.0828	71.7833	0.001752	40976.7	4.644183	172.9	268.121	1.142834	0.065070	0.064820	270.511	40976.7	0.060119	0.126236	2142.9	105370
760	2.000000	1.153065	7.37249e+06	-39089.1	1005.82	-29795.1	0.000000	0.000000	7.168247	355.276	NaN	0.000000	0.001589	0.001745	28.0829	82.29	0.001988	41390.3	6.516842	171.592	351.256	1.152716	0.075051	0.074702	355.276	41390.3	0.068613	0.158493	2241.58	94987.5
760	2.000000	1.163034	7.37249e+06	-39089.1	1005.82	-29795.1	0.000000	0.000000	7.182025	447.969	NaN	0.000000	0.001622	0.001787	28.0817	91.4448	0.001824	50121.8	8.355287	168.236	444.616	1.162718	0.085020	0.084704	447.969	50121.8	0.078317	0.199556	2244.83	102510
760	2.000000	1.173204	7.37249e+06	-39089.1	1005.82	-29795.1	0.000000	0.000000	7.195713	533.602	NaN	0.000000	0.001637	0.001744	28.0819	100.07	0.001765	56697.5	4.379542	171.469	540.995	1.172787	0.095190	0.094773	533.602	56697.5	0.088131	0.245564	2172.96	104533
760	2.000000	1.181983	7.37249e+06	-39089.1	1005.82	-29795.1	0.000000	0.000000	7.207882	616.106	NaN	0.000000	0.001649	0.001775	28.0819	107.579	0.001913	56221.6	2.129349	173.267	609.928	1.181799	0.103969	0.103785	616.106	56221.6	0.095750	0.284337	2166.82	96329.5