File: remote_trans/data/nanoindenter/0828-1/data/Data_2025-08-06,11h17m57s/2025-07-22_16-23-58_1_637.txt
2025-07-22, 16:23:58, 1
Index	Phase	Displacement	Time	Pos X	Pos Y	Pos Z	Rot A	Rot B	Piezo Z	Force A	Force B	Gripper	Voltage A	Voltage B	Temperature	Amplitude force	Amplitude pos	Stiffness	Phase shift	Phase excitation	Force A raw	Displacement raw	HMax	HMax raw	Real Force	Real Stiffness	Contact Depth	Area	Hardness	Reduced Mod.
[#]	[#]	[um]	[s]	[um]	[um]	[um]	[m°]	[m°]	[um]	[uN]	[uN]	[V]	[V]	[V]	[°C]	[uN]	[um]	[N/m]	[°]	[°]	[uN]	[um]	[um]	[um]	[uN]	[N/m]	[um]	[um^2]	[MPa]	[MPa]
637	1.000000	0.002591	7.37128e+06	-45239.1	1005.82	-29773.1	0.000000	0.000000	6.002838	-0.021122	NaN	0.000000	0.001669	0.001733	28.0844	0.102808	0.001051	97.8517	153.349	-169.089	0.040848	0.001333	-1.063408	-1.064667	-0.021122	97.8517	-1.063247	-1.608602E+14	1.313095E-16	NaN
637	1.000000	0.042507	7.37128e+06	-45239.1	1005.82	-29773.1	0.000000	0.000000	6.042756	0.014186	NaN	0.000000	0.001650	0.001758	28.0847	0.139120	0.002038	68.277	-31.1057	-161.001	0.042484	0.041186	-1.023492	-1.024814	0.014186	68.277	-1.023648	-4.721032E+13	-3.004812E-16	NaN
637	1.000000	0.082507	7.37128e+06	-45239.1	1005.82	-29773.1	0.000000	0.000000	6.082755	0.015409	NaN	0.000000	0.001666	0.001743	28.0835	0.041772	0.001973	21.1699	24.4501	-165.593	-0.003896	0.081227	-0.983493	-0.984773	0.015409	21.1699	-0.984039	-1.382994E+13	-1.114153E-15	NaN
637	1.000000	0.122494	7.37128e+06	-45239.1	1005.82	-29773.1	0.000000	0.000000	6.122741	-0.032870	NaN	0.000000	0.001678	0.001740	28.0833	0.069519	0.002003	34.7039	-82.2183	-164.931	-0.068663	0.121186	-0.943506	-0.944813	-0.032870	34.7039	-0.942795	-3.844560E+12	8.549748E-15	NaN
637	1.000000	0.162520	7.37128e+06	-45239.1	1005.82	-29773.1	0.000000	0.000000	6.162766	-0.032304	NaN	0.000000	0.001709	0.001705	28.0832	0.035201	0.001933	18.2123	63.9705	-166.245	0.034360	0.161238	-0.903480	-0.904761	-0.032304	18.2123	-0.902150	-1.086720E+12	2.972599E-14	NaN
637	1.000000	0.202590	7.37128e+06	-45239.1	1005.82	-29773.1	0.000000	0.000000	6.202839	0.021864	NaN	0.000000	0.001721	0.001772	28.084	0.028873	0.001999	14.4442	-165.411	-165.506	-0.088528	0.201247	-0.863410	-0.864753	0.021864	14.4442	-0.864545	-3.370051E+11	-6.487836E-14	NaN
637	1.000000	0.242583	7.37128e+06	-45239.1	1005.82	-29773.1	0.000000	0.000000	6.242832	0.009986	NaN	0.000000	0.001703	0.001734	28.0849	0.055433	0.001986	27.911	4.368854	-163.22	-0.007267	0.241306	-0.823417	-0.824694	0.009986	27.911	-0.823685	-9.422703E+10	-1.059775E-13	NaN
637	1.000000	0.282604	7.37128e+06	-45239.1	1005.82	-29773.1	0.000000	0.000000	6.282849	-0.051211	NaN	0.000000	0.001664	0.001729	28.0852	0.053066	0.001923	27.5957	70.0141	-163.377	-0.008607	0.281338	-0.783396	-0.784662	-0.051211	27.5957	-0.782005	-2.561353E+10	1.999360E-12	NaN
637	1.000000	0.322612	7.37128e+06	-45239.1	1005.82	-29773.1	0.000000	0.000000	6.322862	0.046462	NaN	0.000000	0.001734	0.001712	28.0852	0.106129	0.002104	50.4478	-35.4838	-165.249	0.061345	0.321279	-0.743388	-0.744721	0.046462	50.4478	-0.744079	-7.809117E+9	-5.949751E-12	NaN
637	1.000000	0.362635	7.37128e+06	-45239.1	1005.82	-29773.1	0.000000	0.000000	6.362887	0.104845	NaN	0.000000	0.001741	0.001736	28.0839	0.064971	0.001898	34.24	178.27	-166.107	0.040629	0.361313	-0.703365	-0.704687	0.104845	34.24	-0.705662	-2.337933E+9	-4.484524E-11	NaN
637	1.000000	0.402700	7.37128e+06	-45239.1	1005.82	-29773.1	0.000000	0.000000	6.402947	-0.023744	NaN	0.000000	0.001683	0.001760	28.0839	0.109074	0.002076	52.5465	-141.468	-163.841	0.003373	0.401353	-0.663299	-0.664646	-0.023744	52.5465	-0.662961	-6.095595E+8	3.895201E-11	NaN
637	1.000000	0.442645	7.37128e+06	-45239.1	1005.82	-29773.1	0.000000	0.000000	6.442894	0.040660	NaN	0.000000	0.001670	0.001764	28.0839	0.061819	0.002068	29.8998	107.801	-166.444	0.076673	0.441355	-0.623355	-0.624645	0.040660	29.8998	-0.624375	-1.802019E+8	-2.256382E-10	NaN
637	1.000000	0.482653	7.37128e+06	-45239.1	1005.82	-29773.1	0.000000	0.000000	6.482898	-0.067724	NaN	0.000000	0.001651	0.001739	28.0834	0.133792	0.001909	70.0995	32.8848	-166.065	-0.056710	0.481387	-0.583347	-0.584613	-0.067724	70.0995	-0.582623	-4.796419E+7	1.411966E-9	NaN
637	1.000000	0.522719	7.37128e+06	-45239.1	1005.82	-29773.1	0.000000	0.000000	6.522964	-0.054494	NaN	0.000000	0.001689	0.001734	28.0842	0.120459	0.001944	61.9788	88.2297	-167.165	0.026613	0.521428	-0.543281	-0.544572	-0.054494	61.9788	-0.542622	-1.341876E+7	4.060993E-9	NaN
637	1.000000	0.562738	7.37128e+06	-45239.1	1005.82	-29773.1	0.000000	0.000000	6.562987	0.026409	NaN	0.000000	0.001690	0.001688	28.0843	0.066351	0.002110	31.4465	39.8844	-163.621	-0.054736	0.561311	-0.503262	-0.504689	0.026409	31.4465	-0.503892	-3.88417e+06	-6.799100E-9	NaN
637	1.000000	0.602752	7.37128e+06	-45239.1	1005.82	-29773.1	0.000000	0.000000	6.602998	-0.031050	NaN	0.000000	0.001698	0.001689	28.0842	0.069855	0.002038	34.2701	156.514	-163.309	0.100598	0.601415	-0.463248	-0.464584	-0.031050	34.2701	-0.462569	-1.0259e+06	3.026558E-8	NaN
637	1.000000	0.642745	7.37128e+06	-45239.1	1005.82	-29773.1	0.000000	0.000000	6.642993	0.025761	NaN	0.000000	0.001656	0.001733	28.083	0.076202	0.002064	36.9175	129.244	-162.91	-0.063751	0.641455	-0.423255	-0.424544	0.025761	36.9175	-0.423779	-291059	-8.850752E-8	NaN
637	1.000000	0.682777	7.37128e+06	-45239.1	1005.82	-29773.1	0.000000	0.000000	6.683027	0.044800	NaN	0.000000	0.001692	0.001714	28.0827	0.035811	0.001911	18.7367	-17.8896	-166.657	0.034316	0.681484	-0.383223	-0.384516	0.044800	18.7367	-0.385016	-81624.1	-5.488593E-7	NaN
637	1.000000	0.722789	7.37128e+06	-45239.1	1005.82	-29773.1	0.000000	0.000000	6.723036	-0.004823	NaN	0.000000	0.001628	0.001714	28.0826	0.122713	0.002026	60.5545	146.857	-163.506	0.023811	0.721489	-0.343211	-0.344511	-0.004823	60.5545	-0.343152	-20298.4	2.376210E-7	NaN
637	1.000000	0.762829	7.37129e+06	-45239.1	1005.82	-29773.1	0.000000	0.000000	6.763078	0.025289	NaN	0.000000	0.001654	0.001749	28.0842	0.081502	0.001984	41.0826	-15.7817	-165.158	0.002091	0.761497	-0.303171	-0.304503	0.025289	41.0826	-0.303633	-5329.11	-4.745531E-6	NaN
637	1.000000	0.802826	7.37129e+06	-45239.1	1005.82	-29773.1	0.000000	0.000000	6.803071	-0.071156	NaN	0.000000	0.001714	0.001729	28.0846	0.065740	0.001976	33.2643	139.286	-163.718	-0.077660	0.801482	-0.263174	-0.264518	-0.071156	33.2643	-0.261570	-1238.67	5.744520E-5	NaN
637	1.000000	0.842846	7.37129e+06	-45239.1	1005.82	-29773.1	0.000000	0.000000	6.843092	-0.025172	NaN	0.000000	0.001651	0.001732	28.0844	0.055869	0.002033	27.4788	-102.411	-165.27	-0.041677	0.841518	-0.223154	-0.224482	-0.025172	27.4788	-0.222467	-304.12	8.276973E-5	NaN
637	1.000000	0.882857	7.37129e+06	-45239.1	1005.82	-29773.1	0.000000	0.000000	6.883106	0.013098	NaN	0.000000	0.001687	0.001772	28.0844	0.130096	0.001903	68.362	99.6344	-164.267	0.048632	0.881553	-0.183143	-0.184447	0.013098	68.362	-0.183286	-69.3751	-0.000189	NaN
637	1.000000	0.922869	7.37129e+06	-45239.1	1005.82	-29773.1	0.000000	0.000000	6.923119	0.050123	NaN	0.000000	0.001693	0.001766	28.0829	0.117444	0.002093	56.1257	161.112	-165.992	0.085208	0.921550	-0.143131	-0.144450	0.050123	56.1257	-0.143801	-13.9298	-0.003598	NaN
637	1.000000	0.962869	7.37129e+06	-45239.1	1005.82	-29773.1	0.000000	0.000000	6.963114	-0.069176	NaN	0.000000	0.001701	0.001754	28.0828	0.042981	0.001950	22.0383	-12.4253	-167.547	-0.104224	0.961563	-0.103131	-0.104436	-0.069176	22.0383	-0.100777	-1.900864	0.036392	NaN
637	1.000000	1.002877	7.37129e+06	-45239.1	1005.82	-29773.1	0.000000	0.000000	7.003135	0.246047	NaN	0.000000	0.001641	0.001782	28.0831	0.375716	0.002048	183.445	28.9684	-169.021	0.217932	1.001596	-0.063123	-0.064404	0.246047	183.445	-0.064129	-0.235687	-1.043954	NaN
637	1.000000	1.042897	7.37129e+06	-45239.1	1005.82	-29773.1	0.000000	0.000000	7.043220	1.830607	NaN	0.000000	0.001641	0.001771	28.0845	0.904417	0.001953	463.076	32.2807	-168.807	1.880030	1.041607	-0.023103	-0.024393	1.830607	463.076	-0.026068	-0.017997	-101.718	NaN
637	2.000000	1.072572	7.37129e+06	-45239.1	1005.82	-29773.1	0.000000	0.000000	7.073225	9.857498	NaN	0.000000	0.001617	0.001744	28.0846	11.4614	0.001898	6039.08	7.597436	-172.286	10.3234	1.072248	0.006572	0.006248	9.857498	6039.08	0.005348	0.004453	2213.54	82680.6
637	2.000000	1.082473	7.37129e+06	-45239.1	1005.82	-29773.1	0.000000	0.000000	7.083935	29.5476	NaN	0.000000	0.001623	0.001782	28.0844	22.016	0.001895	11617.7	5.143544	-176.029	28.3648	1.082178	0.016473	0.016178	29.5476	11617.7	0.014565	0.014710	2008.65	87515.1
637	2.000000	1.092436	7.37129e+06	-45239.1	1005.82	-29773.1	0.000000	0.000000	7.095132	59.5683	NaN	0.000000	0.001667	0.001762	28.0845	33.0611	0.001880	17589.2	8.805307	176.768	58.8897	1.092132	0.026436	0.026132	59.5683	17589.2	0.023896	0.029038	2051.41	94305.4
637	2.000000	1.102435	7.37129e+06	-45239.1	1005.82	-29773.1	0.000000	0.000000	7.106732	98.4969	NaN	0.000000	0.001667	0.001802	28.0836	43.1094	0.001713	25167.3	4.537300	177.237	96.8762	1.102120	0.036435	0.036120	98.4969	25167.3	0.033500	0.048311	2038.81	104613
637	2.000000	1.112430	7.37129e+06	-45239.1	1005.82	-29773.1	0.000000	0.000000	7.118856	150.282	NaN	0.000000	0.001672	0.001846	28.0835	52.3076	0.001595	32797.1	5.481784	173.475	150.026	1.112110	0.046431	0.046110	150.282	32797.1	0.042994	0.071994	2087.41	111676
637	2.000000	1.122422	7.37129e+06	-45239.1	1005.82	-29773.1	0.000000	0.000000	7.131369	211.624	NaN	0.000000	0.001741	0.001813	28.0835	64.4991	0.001914	33706.4	2.050089	176.762	208.972	1.122097	0.056423	0.056097	211.624	33706.4	0.051714	0.097784	2164.2	98481.1
637	2.000000	1.132413	7.37129e+06	-45239.1	1005.82	-29773.1	0.000000	0.000000	7.144007	276.035	NaN	0.000000	0.001722	0.001814	28.0849	74.277	0.001822	40766.8	6.636299	170.777	277.95	1.132073	0.066413	0.066073	276.035	40766.8	0.061334	0.130637	2113	103050
637	2.000000	1.142315	7.37129e+06	-45239.1	1005.82	-29773.1	0.000000	0.000000	7.156827	347.019	NaN	0.000000	0.001743	0.001780	28.0843	82.9355	0.001882	44069.6	4.519691	172.156	343.819	1.142070	0.076315	0.076070	347.019	44069.6	0.070409	0.165756	2093.56	98895.8
637	2.000000	1.152405	7.37129e+06	-45239.1	1005.82	-29773.1	0.000000	0.000000	7.169970	421.271	NaN	0.000000	0.001722	0.001779	28.0845	92.6962	0.001812	51163.1	3.978568	171.435	422.573	1.152106	0.086405	0.086106	421.271	51163.1	0.080230	0.208174	2023.65	102451
637	2.000000	1.162328	7.37129e+06	-45239.1	1005.82	-29773.1	0.000000	0.000000	7.183478	508.484	NaN	0.000000	0.001709	0.001708	28.0837	101.097	0.001850	54633.9	2.307094	172.693	505.296	1.162075	0.096328	0.096075	508.484	54633.9	0.089348	0.251579	2021.17	99517.1
637	2.000000	1.167361	7.37129e+06	-45239.1	1005.82	-29773.1	0.000000	0.000000	7.190757	563.122	NaN	0.000000	0.001734	0.001673	28.0832	106.16	0.001938	54787.3	3.547070	171.575	560.804	1.167061	0.101361	0.101061	563.122	54787.3	0.093653	0.273399	2059.71	95731.3