File: remote_trans/data/nanoindenter/0828-1/data/Data_2025-08-06,11h17m57s/2025-07-22_16-23-58_1_678.txt
2025-07-22, 16:23:58, 1
Index	Phase	Displacement	Time	Pos X	Pos Y	Pos Z	Rot A	Rot B	Piezo Z	Force A	Force B	Gripper	Voltage A	Voltage B	Temperature	Amplitude force	Amplitude pos	Stiffness	Phase shift	Phase excitation	Force A raw	Displacement raw	HMax	HMax raw	Real Force	Real Stiffness	Contact Depth	Area	Hardness	Reduced Mod.
[#]	[#]	[um]	[s]	[um]	[um]	[um]	[m°]	[m°]	[um]	[uN]	[uN]	[V]	[V]	[V]	[°C]	[uN]	[um]	[N/m]	[°]	[°]	[uN]	[um]	[um]	[um]	[uN]	[N/m]	[um]	[um^2]	[MPa]	[MPa]
678	1.000000	0.002974	7.37168e+06	-43189.1	1005.82	-29780	0.000000	0.000000	6.002798	0.003662	NaN	0.000000	0.001591	0.001755	28.0826	0.073042	0.000887	82.3154	-64.2262	-167.607	-0.038076	0.001662	-1.091304	-1.092616	0.003662	82.3154	-1.091337	-3.835029E+14	-9.548020E-18	NaN
678	1.000000	0.042911	7.37168e+06	-43189.1	1005.82	-29780	0.000000	0.000000	6.042737	0.032863	NaN	0.000000	0.001625	0.001773	28.0813	0.040323	0.001945	20.7348	-158.464	-164.693	0.070687	0.041639	-1.051366	-1.052639	0.032863	20.7348	-1.052555	-1.155466E+14	-2.844103E-16	NaN
678	1.000000	0.082956	7.37168e+06	-43189.1	1005.82	-29780	0.000000	0.000000	6.082778	-0.035566	NaN	0.000000	0.001676	0.001736	28.0813	0.049276	0.001898	25.9686	-77.1528	-165.063	-0.040454	0.081632	-1.011322	-1.012646	-0.035566	25.9686	-1.010295	-3.121409E+13	1.139412E-15	NaN
678	1.000000	0.122934	7.37168e+06	-43189.1	1005.82	-29780	0.000000	0.000000	6.122754	-0.093411	NaN	0.000000	0.001695	0.001754	28.0814	0.061083	0.001944	31.4194	18.1239	-166.037	-0.019313	0.121623	-0.971344	-0.972654	-0.093411	31.4194	-0.969114	-8.704086E+12	1.073181E-14	NaN
678	1.000000	0.162933	7.37168e+06	-43189.1	1005.82	-29780	0.000000	0.000000	6.162754	-0.063125	NaN	0.000000	0.001669	0.001737	28.0824	0.004564	0.002035	2.242369	-114.01	-165.625	0.027482	0.161651	-0.931345	-0.932626	-0.063125	2.242369	-0.910232	-1.397312E+12	4.517591E-14	NaN
678	1.000000	0.202982	7.37168e+06	-43189.1	1005.82	-29780	0.000000	0.000000	6.202806	-0.006989	NaN	0.000000	0.001702	0.001721	28.0824	0.057150	0.002036	28.0751	41.0855	-165.077	-0.024064	0.201671	-0.891295	-0.892607	-0.006989	28.0751	-0.891108	-7.707239E+11	9.067839E-15	NaN
678	1.000000	0.242993	7.37168e+06	-43189.1	1005.82	-29780	0.000000	0.000000	6.242819	0.045318	NaN	0.000000	0.001688	0.001743	28.0822	0.084518	0.002121	39.8538	38.2155	-162.461	-0.034720	0.241692	-0.851285	-0.852586	0.045318	39.8538	-0.852138	-2.289186E+11	-1.979644E-13	NaN
678	1.000000	0.283040	7.37168e+06	-43189.1	1005.82	-29780	0.000000	0.000000	6.282863	-0.022844	NaN	0.000000	0.001695	0.001736	28.0824	0.068367	0.001994	34.2918	93.7304	-167.603	-0.034778	0.281748	-0.811237	-0.812530	-0.022844	34.2918	-0.810738	-6.288950E+10	3.632343E-13	NaN
678	1.000000	0.323059	7.37168e+06	-43189.1	1005.82	-29780	0.000000	0.000000	6.322882	-0.035890	NaN	0.000000	0.001606	0.001742	28.0812	0.069940	0.001947	35.9155	-95.2085	-162.836	0.029354	0.321683	-0.771218	-0.772595	-0.035890	35.9155	-0.770469	-1.785169E+10	2.010441E-12	NaN
678	1.000000	0.363067	7.37168e+06	-43189.1	1005.82	-29780	0.000000	0.000000	6.362893	0.036990	NaN	0.000000	0.001633	0.001773	28.0812	0.038557	0.002070	18.6229	-158.307	-165.182	-0.001574	0.361731	-0.731210	-0.732547	0.036990	18.6229	-0.732700	-5.465194E+9	-6.768242E-12	NaN
678	1.000000	0.403067	7.37168e+06	-43189.1	1005.82	-29780	0.000000	0.000000	6.402892	0.035989	NaN	0.000000	0.001629	0.001755	28.0813	0.102907	0.001969	52.2748	-17.7431	-166.447	0.069358	0.401779	-0.691211	-0.692498	0.035989	52.2748	-0.691727	-1.508413E+9	-2.385891E-11	NaN
678	1.000000	0.443077	7.37168e+06	-43189.1	1005.82	-29780	0.000000	0.000000	6.442901	0.006661	NaN	0.000000	0.001645	0.001701	28.083	0.035983	0.001990	18.0822	74.2922	-164.522	0.027856	0.441824	-0.651201	-0.652454	0.006661	18.0822	-0.651477	-4.243082E+8	-1.569842E-11	NaN
678	1.000000	0.483103	7.37168e+06	-43189.1	1005.82	-29780	0.000000	0.000000	6.482927	0.019746	NaN	0.000000	0.001593	0.001746	28.0829	0.113571	0.001898	59.8233	-81.6631	-164.204	-0.040123	0.481805	-0.611175	-0.612473	0.019746	59.8233	-0.611423	-1.195874E+8	-1.651204E-10	NaN
678	1.000000	0.523104	7.37168e+06	-43189.1	1005.82	-29780	0.000000	0.000000	6.522926	-0.053390	NaN	0.000000	0.001592	0.001721	28.0828	0.102342	0.002009	50.9409	45.9727	-165.453	-0.053743	0.521793	-0.571173	-0.572485	-0.053390	50.9409	-0.570387	-3.250735E+7	1.642401E-9	NaN
678	1.000000	0.563157	7.37168e+06	-43189.1	1005.82	-29780	0.000000	0.000000	6.562979	-0.037921	NaN	0.000000	0.001635	0.001691	28.0828	0.124176	0.002002	62.0179	-170.546	-164.446	-0.034278	0.561858	-0.531121	-0.532419	-0.037921	62.0179	-0.530662	-9.1574e+06	4.141007E-9	NaN
678	1.000000	0.603158	7.37168e+06	-43189.1	1005.82	-29780	0.000000	0.000000	6.602981	-0.015669	NaN	0.000000	0.001625	0.001660	28.0811	0.087267	0.002067	42.2134	113.685	-161.698	-0.013781	0.601832	-0.491120	-0.492446	-0.015669	42.2134	-0.490841	-2.55357e+06	6.135955E-9	NaN
678	1.000000	0.643172	7.37168e+06	-43189.1	1005.82	-29780	0.000000	0.000000	6.642997	0.021042	NaN	0.000000	0.001628	0.001710	28.0813	0.029543	0.001889	15.6387	-141.118	-164.993	-0.035886	0.641885	-0.451106	-0.452393	0.021042	15.6387	-0.452115	-731342	-2.877216E-8	NaN
678	1.000000	0.683203	7.37169e+06	-43189.1	1005.82	-29780	0.000000	0.000000	6.683026	-0.006450	NaN	0.000000	0.001595	0.001688	28.0812	0.082549	0.002008	41.1163	48.2571	-167.136	-0.018398	0.681920	-0.411075	-0.412358	-0.006450	41.1163	-0.410957	-191430	3.369310E-8	NaN
678	1.000000	0.723179	7.37169e+06	-43189.1	1005.82	-29780	0.000000	0.000000	6.723003	0.011030	NaN	0.000000	0.001609	0.001710	28.0823	0.045302	0.001873	24.1922	-15.0244	-165.608	0.050217	0.721918	-0.371099	-0.372360	0.011030	24.1922	-0.371441	-52103.7	-2.117025E-7	NaN
678	1.000000	0.763210	7.37169e+06	-43189.1	1005.82	-29780	0.000000	0.000000	6.763034	0.006411	NaN	0.000000	0.001614	0.001729	28.0822	0.087866	0.002209	39.7693	-88.9785	-165.676	-0.008799	0.761881	-0.331068	-0.332397	0.006411	39.7693	-0.331188	-13578.5	-4.721326E-7	NaN
678	1.000000	0.803246	7.37169e+06	-43189.1	1005.82	-29780	0.000000	0.000000	6.803066	-0.104230	NaN	0.000000	0.001607	0.001695	28.0823	0.055316	0.001984	27.8748	157.974	-162.552	0.027942	0.801938	-0.291031	-0.292339	-0.104230	27.8748	-0.288227	-3138.51	3.321008E-5	NaN
678	1.000000	0.843233	7.37169e+06	-43189.1	1005.82	-29780	0.000000	0.000000	6.843056	-0.043495	NaN	0.000000	0.001609	0.001715	28.0817	0.085486	0.002048	41.7432	149.271	-164.038	-0.038324	0.842002	-0.251044	-0.252275	-0.043495	41.7432	-0.250263	-829.904	5.240918E-5	NaN
678	1.000000	0.883266	7.37169e+06	-43189.1	1005.82	-29780	0.000000	0.000000	6.883093	0.059414	NaN	0.000000	0.001685	0.001723	28.0812	0.086242	0.001991	43.3063	139.867	-166.573	0.118442	0.881970	-0.211011	-0.212308	0.059414	43.3063	-0.212040	-206.927	-0.000287	NaN
678	1.000000	0.923266	7.37169e+06	-43189.1	1005.82	-29780	0.000000	0.000000	6.923089	-0.031312	NaN	0.000000	0.001667	0.001686	28.0815	0.079762	0.001875	42.5379	122.327	-166.88	0.011507	0.921975	-0.171011	-0.172302	-0.031312	42.5379	-0.170459	-41.8396	0.000748	NaN
678	1.000000	0.963294	7.37169e+06	-43189.1	1005.82	-29780	0.000000	0.000000	6.963118	-0.004976	NaN	0.000000	0.001706	0.001729	28.0811	0.043918	0.001984	22.1395	171.546	-164.829	-0.016066	0.962010	-0.130983	-0.132268	-0.004976	22.1395	-0.130815	-7.903439	0.000630	NaN
678	1.000000	1.003336	7.37169e+06	-43189.1	1005.82	-29780	0.000000	0.000000	7.003160	-0.002335	NaN	0.000000	0.001632	0.001731	28.0824	0.068274	0.001938	35.2328	-83.4053	-165.478	0.043657	1.002047	-0.090942	-0.092230	-0.002335	35.2328	-0.090892	-1.134210	0.002059	NaN
678	1.000000	1.043331	7.37169e+06	-43189.1	1005.82	-29780	0.000000	0.000000	7.043157	0.057353	NaN	0.000000	0.001652	0.001741	28.0822	0.037000	0.002064	17.9241	-139.457	-166.562	-0.075136	1.042053	-0.050947	-0.052224	0.057353	17.9241	-0.053346	-0.115015	-0.498660	NaN
678	1.000000	1.083350	7.37169e+06	-43189.1	1005.82	-29780	0.000000	0.000000	7.083172	-0.053009	NaN	0.000000	0.001614	0.001757	28.0823	0.089952	0.002015	44.6512	0.779276	-164.873	-0.078488	1.082022	-0.010927	-0.012256	-0.053009	44.6512	-0.010037	-0.006408	8.271813	NaN
678	2.000000	1.104914	7.37169e+06	-43189.1	1005.82	-29780	0.000000	0.000000	7.105429	16.8166	NaN	0.000000	0.001649	0.001722	28.0808	15.7408	0.001712	9193.89	8.998557	-178.167	16.2563	1.104641	0.010636	0.010364	16.8166	9193.89	0.009264	0.008375	2007.91	91785.7
678	2.000000	1.114956	7.37169e+06	-43189.1	1005.82	-29780	0.000000	0.000000	7.116255	35.8882	NaN	0.000000	0.001639	0.001709	28.0808	25.7715	0.001775	14517.4	6.204289	-178.501	37.6958	1.114629	0.020679	0.020351	35.8882	14517.4	0.018825	0.020729	1731.32	92124.1
678	2.000000	1.124869	7.37169e+06	-43189.1	1005.82	-29780	0.000000	0.000000	7.127584	70.3207	NaN	0.000000	0.001715	0.001738	28.0809	36.4692	0.001807	20176.8	4.570987	179.673	69.1678	1.124579	0.030592	0.030301	70.3207	20176.8	0.027978	0.036657	1918.35	96282.4
678	2.000000	1.134884	7.37169e+06	-43189.1	1005.82	-29780	0.000000	0.000000	7.139354	113.025	NaN	0.000000	0.001692	0.001725	28.081	46.2709	0.001880	24608.6	7.255981	175.746	113.267	1.134554	0.040607	0.040277	113.025	24608.6	0.037162	0.056900	1986.39	94254.9
678	2.000000	1.144931	7.37169e+06	-43189.1	1005.82	-29780	0.000000	0.000000	7.151214	157.132	NaN	0.000000	0.001643	0.001717	28.0825	54.3353	0.001817	29896.7	5.482877	175.344	159.658	1.144576	0.050654	0.050299	157.132	29896.7	0.046712	0.082521	1904.16	95085.5
678	2.000000	1.154845	7.37169e+06	-43189.1	1005.82	-29780	0.000000	0.000000	7.163048	203.853	NaN	0.000000	0.001643	0.001714	28.0826	63.568	0.001800	35323.9	4.045536	175.506	203.383	1.154447	0.060568	0.060170	203.853	35323.9	0.056240	0.112670	1809.29	96147.4
678	2.000000	1.164777	7.37169e+06	-43189.1	1005.82	-29780	0.000000	0.000000	7.175445	263.827	NaN	0.000000	0.001622	0.001683	28.0825	71.9387	0.001888	38093.5	3.310339	175.633	260.697	1.164490	0.070499	0.070212	263.827	38093.5	0.065305	0.145516	1813.04	91236.5
678	2.000000	1.174830	7.37169e+06	-43189.1	1005.82	-29780	0.000000	0.000000	7.187997	324.632	NaN	0.000000	0.001644	0.001703	28.0813	82.1208	0.001816	45227.7	4.211233	173.53	325.725	1.174656	0.080552	0.080378	324.632	45227.7	0.075169	0.185748	1747.7	95877.1
678	2.000000	1.184774	7.37169e+06	-43189.1	1005.82	-29780	0.000000	0.000000	7.201547	412.358	NaN	0.000000	0.001637	0.001680	28.0809	89.496	0.001770	50548.8	7.723484	169.757	409.339	1.184411	0.090497	0.090134	412.358	50548.8	0.084378	0.227445	1813	96837.9
678	2.000000	1.194793	7.37169e+06	-43189.1	1005.82	-29780	0.000000	0.000000	7.214677	488.058	NaN	0.000000	0.001622	0.001716	28.0808	98.283	0.001765	55676.9	2.468211	173.594	487.486	1.194554	0.100515	0.100276	488.058	55676.9	0.093941	0.274890	1775.47	97021.7
678	2.000000	1.197236	7.37169e+06	-43189.1	1005.82	-29780	0.000000	0.000000	7.218078	511.378	NaN	0.000000	0.001621	0.001617	28.0809	99.776	0.001734	57537.6	3.138261	-6.500545	504.084	1.196977	0.102958	0.102700	511.378	57537.6	0.096293	0.287202	1780.55	98091.6