File: remote_trans/data/nanoindenter/0828-1/data/Data_2025-08-06,11h17m57s/2025-07-22_16-23-58_1_333.txt
2025-07-22, 16:23:58, 1
Index	Phase	Displacement	Time	Pos X	Pos Y	Pos Z	Rot A	Rot B	Piezo Z	Force A	Force B	Gripper	Voltage A	Voltage B	Temperature	Amplitude force	Amplitude pos	Stiffness	Phase shift	Phase excitation	Force A raw	Displacement raw	HMax	HMax raw	Real Force	Real Stiffness	Contact Depth	Area	Hardness	Reduced Mod.
[#]	[#]	[um]	[s]	[um]	[um]	[um]	[m°]	[m°]	[um]	[uN]	[uN]	[V]	[V]	[V]	[°C]	[uN]	[um]	[N/m]	[°]	[°]	[uN]	[um]	[um]	[um]	[uN]	[N/m]	[um]	[um^2]	[MPa]	[MPa]
333	1.000000	0.002736	7.36832e+06	-55289.1	955.819	-29742.1	0.000000	0.000000	6.002855	0.107913	NaN	0.000000	0.001698	0.001728	28.0789	0.037197	0.000977	38.057	88.2737	-167.563	-0.042316	0.001458	-1.094171	-1.095449	0.107913	38.057	-1.096297	-4.470554E+14	-2.413860E-16	NaN
333	1.000000	0.044638	7.36832e+06	-55289.1	955.818	-29742.1	0.000000	0.000000	6.044753	0.034417	NaN	0.000000	0.001639	0.001707	28.0789	0.009607	0.002095	4.585117	110.603	17.7082	0.011244	0.043291	-1.052269	-1.053616	0.034417	4.585117	-1.057899	-1.363279E+14	-2.524603E-16	NaN
333	1.000000	0.086657	7.36832e+06	-55289.1	955.818	-29742.1	0.000000	0.000000	6.086773	0.052865	NaN	0.000000	0.001638	0.001674	28.0776	0.061167	0.002191	27.9178	-93.472	-161.942	0.070201	0.085340	-1.010250	-1.011567	0.052865	27.9178	-1.011670	-3.257324E+13	-1.622948E-15	NaN
333	1.000000	0.128656	7.36832e+06	-55289.1	955.818	-29742.1	0.000000	0.000000	6.128769	-0.026894	NaN	0.000000	0.001621	0.001658	28.0776	0.052947	0.002008	26.3657	175.2	14.31	-0.056766	0.127333	-0.968251	-0.969575	-0.026894	26.3657	-0.967486	-8.275262E+12	3.249967E-15	NaN
333	1.000000	0.170681	7.36832e+06	-55289.1	955.818	-29742.1	0.000000	0.000000	6.170798	0.071324	NaN	0.000000	0.001676	0.001711	28.0774	0.055185	0.002032	27.1641	120.157	-164.756	0.093353	0.169358	-0.926226	-0.927549	0.071324	27.1641	-0.928195	-2.442526E+12	-2.920105E-14	NaN
333	1.000000	0.212658	7.36832e+06	-55289.1	955.819	-29742.1	0.000000	0.000000	6.212772	0.003606	NaN	0.000000	0.001711	0.001711	28.0773	0.016502	0.002017	8.182672	74.8037	11.3947	-0.028686	0.211364	-0.884249	-0.885543	0.003606	8.182672	-0.884579	-6.289738E+11	-5.733839E-15	NaN
333	1.000000	0.254689	7.36832e+06	-55289.1	955.819	-29742.1	0.000000	0.000000	6.254804	0.023574	NaN	0.000000	0.001723	0.001667	28.079	0.061039	0.002067	29.5234	87.2746	-163.536	0.037379	0.253371	-0.842218	-0.843536	0.023574	29.5234	-0.842817	-1.711796E+11	-1.377151E-13	NaN
333	1.000000	0.296740	7.36832e+06	-55289.1	955.818	-29742.1	0.000000	0.000000	6.296855	0.008576	NaN	0.000000	0.001657	0.001641	28.0789	0.042789	0.001921	22.274	-147.472	13.12	0.024068	0.295369	-0.800167	-0.801538	0.008576	22.274	-0.800455	-4.560827E+10	-1.880371E-13	NaN
333	1.000000	0.338753	7.36832e+06	-55289.1	955.818	-29742.1	0.000000	0.000000	6.338871	0.112659	NaN	0.000000	0.001659	0.001646	28.0788	0.150805	0.001904	79.1955	-163.066	-164.536	0.108237	0.337471	-0.758154	-0.759436	0.112659	79.1955	-0.759221	-1.255185E+10	-8.975459E-12	NaN
333	1.000000	0.380760	7.36832e+06	-55289.1	955.818	-29742.1	0.000000	0.000000	6.380872	-0.040550	NaN	0.000000	0.001619	0.001639	28.078	0.083195	0.002066	40.2613	-162.178	13.5392	-0.055194	0.379435	-0.716147	-0.717472	-0.040550	40.2613	-0.715392	-3.174062E+9	1.277558E-11	NaN
333	1.000000	0.422803	7.36832e+06	-55289.1	955.817	-29742.1	0.000000	0.000000	6.422917	0.004076	NaN	0.000000	0.001639	0.001669	28.0777	0.008657	0.002005	4.316858	-44.9045	-163.851	0.032893	0.421528	-0.674104	-0.675380	0.004076	4.316858	-0.674812	-8.856077E+8	-4.602227E-12	NaN
333	1.000000	0.464804	7.36832e+06	-55289.1	955.818	-29742.1	0.000000	0.000000	6.464921	0.067564	NaN	0.000000	0.001642	0.001669	28.0775	0.096741	0.001995	48.486	-119.11	14.3737	0.065764	0.463461	-0.632103	-0.633446	0.067564	48.486	-0.633148	-2.378180E+8	-2.840979E-10	NaN
333	1.000000	0.506832	7.36832e+06	-55289.1	955.819	-29742.1	0.000000	0.000000	6.506944	-0.065344	NaN	0.000000	0.001620	0.001707	28.0789	0.024452	0.002081	11.7496	-93.7277	-165.295	-0.032671	0.505536	-0.590075	-0.591371	-0.065344	11.7496	-0.585904	-5.323268E+7	1.227514E-9	NaN
333	1.000000	0.548839	7.36832e+06	-55289.1	955.818	-29742.1	0.000000	0.000000	6.548956	0.062441	NaN	0.000000	0.001577	0.001658	28.0787	0.135853	0.001939	70.0471	88.5342	15.1041	0.079620	0.547509	-0.548068	-0.549398	0.062441	70.0471	-0.548737	-1.631004E+7	-3.828374E-9	NaN
333	1.000000	0.590858	7.36832e+06	-55289.1	955.819	-29742.1	0.000000	0.000000	6.590972	-0.004131	NaN	0.000000	0.001615	0.001664	28.0786	0.041117	0.002065	19.9129	161.378	-163.119	0.010462	0.589534	-0.506049	-0.507373	-0.004131	19.9129	-0.505893	-4.14187e+06	9.972814E-10	NaN
333	1.000000	0.632860	7.36832e+06	-55289.1	955.818	-29742.1	0.000000	0.000000	6.632974	0.003540	NaN	0.000000	0.001625	0.001717	28.0772	0.041718	0.001918	21.7472	5.871135	15.0257	0.039766	0.631548	-0.464047	-0.465359	0.003540	21.7472	-0.464169	-1.08038e+06	-3.276877E-9	NaN
333	1.000000	0.674897	7.36832e+06	-55289.1	955.818	-29742.1	0.000000	0.000000	6.675012	0.023754	NaN	0.000000	0.001600	0.001642	28.0773	0.081204	0.002008	40.45	-6.786934	-163.782	0.028377	0.673608	-0.422010	-0.423299	0.023754	40.45	-0.422450	-278713	-8.522855E-8	NaN
333	1.000000	0.716913	7.36832e+06	-55289.1	955.818	-29742.1	0.000000	0.000000	6.717027	0.006805	NaN	0.000000	0.001609	0.001675	28.0779	0.021083	0.001894	11.1331	-51.5828	16.6035	0.026254	0.715556	-0.379994	-0.381351	0.006805	11.1331	-0.380453	-70208.2	-9.692715E-8	NaN
333	1.000000	0.758938	7.36833e+06	-55289.1	955.819	-29742.1	0.000000	0.000000	6.759053	0.026591	NaN	0.000000	0.001650	0.001653	28.0775	0.091410	0.001953	46.798	153.766	-164.886	0.042529	0.757593	-0.337969	-0.339315	0.026591	46.798	-0.338395	-17304.3	-1.536669E-6	NaN
333	1.000000	0.800948	7.36833e+06	-55289.1	955.819	-29742.1	0.000000	0.000000	6.801060	-0.044223	NaN	0.000000	0.001646	0.001643	28.0785	0.063625	0.002059	30.9014	71.1186	14.3178	0.030871	0.799628	-0.295959	-0.297279	-0.044223	30.9014	-0.294886	-3948.1	1.120112E-5	NaN
333	1.000000	0.842997	7.36833e+06	-55289.1	955.818	-29742.1	0.000000	0.000000	6.843114	0.072292	NaN	0.000000	0.001635	0.001655	28.0786	0.080031	0.002014	39.7276	166.066	-164.397	0.120888	0.841628	-0.253910	-0.255279	0.072292	39.7276	-0.255274	-991.609	-7.290344E-5	NaN
333	1.000000	0.884980	7.36833e+06	-55289.1	955.818	-29742.1	0.000000	0.000000	6.885093	-0.018171	NaN	0.000000	0.001600	0.001624	28.0785	0.108081	0.001896	57.0108	-137.397	14.3858	0.005611	0.883600	-0.211928	-0.213307	-0.018171	57.0108	-0.211688	-204.235	8.897331E-5	NaN
333	1.000000	0.927005	7.36833e+06	-55289.1	955.818	-29742.1	0.000000	0.000000	6.927120	0.010428	NaN	0.000000	0.001627	0.001656	28.0777	0.066845	0.001903	35.118	-51.8792	-163.204	-0.014839	0.925673	-0.169902	-0.171234	0.010428	35.118	-0.170124	-41.2833	-0.000253	NaN
333	1.000000	0.969041	7.36833e+06	-55289.1	955.818	-29742.1	0.000000	0.000000	6.969155	-0.020481	NaN	0.000000	0.001588	0.001749	28.0773	0.030554	0.002003	15.2549	-176.925	14.1942	0.013348	0.967661	-0.127866	-0.129246	-0.020481	15.2549	-0.126859	-6.616732	0.003095	NaN
333	1.000000	1.011034	7.36833e+06	-55289.1	955.819	-29742.1	0.000000	0.000000	7.011148	0.001333	NaN	0.000000	0.001657	0.001621	28.0773	0.097327	0.002056	47.3459	73.4619	-165.017	0.072762	1.009695	-0.085873	-0.087212	0.001333	47.3459	-0.085894	-0.863482	-0.001544	NaN
333	1.000000	1.053059	7.36833e+06	-55289.1	955.818	-29742.1	0.000000	0.000000	7.053172	-0.015551	NaN	0.000000	0.001632	0.001631	28.0787	0.091740	0.002021	45.3918	106.893	12.1569	-0.008840	1.051728	-0.043849	-0.045179	-0.015551	45.3918	-0.043592	-0.058199	0.267204	NaN
333	1.000000	1.095068	7.36833e+06	-55289.1	955.819	-29742.1	0.000000	0.000000	7.095181	-0.028039	NaN	0.000000	0.001499	0.001610	28.0787	0.024907	0.002016	12.3551	-51.7107	-166.359	-0.056837	1.093780	-0.001839	-0.003127	-0.028039	12.3551	-0.000137	-0.000102	274.743	NaN
333	2.000000	1.117124	7.36833e+06	-55289.1	955.819	-29742.1	0.000000	0.000000	7.118067	20.153	NaN	0.000000	0.001569	0.001659	28.0787	16.2192	0.001697	9557.09	4.598300	4.418357	18.6146	1.116746	0.020217	0.019839	20.153	9557.09	0.018636	0.020444	985.772	61068.5
333	2.000000	1.127569	7.36833e+06	-55289.1	955.82	-29742.1	0.000000	0.000000	7.129555	45.529	NaN	0.000000	0.001524	0.001678	28.0776	27.4701	0.001819	15101.9	6.572862	179.832	44.5986	1.127204	0.030662	0.030297	45.529	15101.9	0.028400	0.037494	1214.32	71256.7
333	2.000000	1.138069	7.36833e+06	-55289.1	955.819	-29742.1	0.000000	0.000000	7.141308	75.9654	NaN	0.000000	0.001585	0.001652	28.0774	36.8538	0.001767	20852.3	4.898171	-1.533366	74.8569	1.137763	0.041162	0.040856	75.9654	20852.3	0.038430	0.060033	1265.4	77755.6
333	2.000000	1.148472	7.36833e+06	-55289.1	955.82	-29742.1	0.000000	0.000000	7.153506	119.61	NaN	0.000000	0.001601	0.001671	28.0776	46.5415	0.001771	26274.6	5.140304	176.839	116.403	1.148278	0.051564	0.051371	119.61	26274.6	0.048150	0.086782	1378.29	81488.5
333	2.000000	1.158999	7.36833e+06	-55289.1	955.82	-29742.1	0.000000	0.000000	7.165883	164.572	NaN	0.000000	0.001548	0.001721	28.0775	55.8085	0.001667	33471.6	5.895026	-5.374417	162.081	1.158651	0.062092	0.061744	164.572	33471.6	0.058404	0.120149	1369.73	88224.6
333	2.000000	1.169567	7.36833e+06	-55289.1	955.82	-29742.1	0.000000	0.000000	7.178605	216.942	NaN	0.000000	0.001537	0.001688	28.0786	67.4208	0.001914	35232.2	5.443021	175.134	217.435	1.169077	0.072660	0.072170	216.942	35232.2	0.068042	0.156213	1388.76	81443.2
333	2.000000	1.179965	7.36833e+06	-55289.1	955.821	-29742.1	0.000000	0.000000	7.191550	278.85	NaN	0.000000	0.001572	0.001660	28.0788	76.2763	0.001843	41390.2	7.338720	-8.925374	276.243	1.179608	0.083058	0.082701	278.85	41390.2	0.078005	0.198166	1407.15	84948.5
333	2.000000	1.190453	7.36833e+06	-55289.1	955.821	-29742.1	0.000000	0.000000	7.204417	336.674	NaN	0.000000	0.001584	0.001688	28.0786	85.4385	0.001866	45788.9	5.281105	172.096	334.883	1.190214	0.093546	0.093307	336.674	45788.9	0.088031	0.245073	1373.77	84505.5
333	2.000000	1.200873	7.36833e+06	-55289.1	955.821	-29742.1	0.000000	0.000000	7.218216	418.808	NaN	0.000000	0.001578	0.001686	28.0775	92.8761	0.001795	51748.4	4.737488	-7.407060	410.42	1.200565	0.103966	0.103658	418.808	51748.4	0.097896	0.295740	1416.14	86939.1
333	2.000000	1.208936	7.36833e+06	-55289.1	955.821	-29742.1	0.000000	0.000000	7.228478	472.27	NaN	0.000000	0.001508	0.001663	28.0773	100.224	0.001823	54990.2	5.103921	-8.217693	469.174	1.208616	0.112029	0.111709	472.27	54990.2	0.105588	0.338318	1395.94	86376.5