File: remote_trans/data/nanoindenter/0828-1/data/Data_2025-08-06,11h17m57s/2025-07-22_16-23-58_1_217.txt
2025-07-22, 16:23:58, 1
Index	Phase	Displacement	Time	Pos X	Pos Y	Pos Z	Rot A	Rot B	Piezo Z	Force A	Force B	Gripper	Voltage A	Voltage B	Temperature	Amplitude force	Amplitude pos	Stiffness	Phase shift	Phase excitation	Force A raw	Displacement raw	HMax	HMax raw	Real Force	Real Stiffness	Contact Depth	Area	Hardness	Reduced Mod.
[#]	[#]	[um]	[s]	[um]	[um]	[um]	[m°]	[m°]	[um]	[uN]	[uN]	[V]	[V]	[V]	[°C]	[uN]	[um]	[N/m]	[°]	[°]	[uN]	[um]	[um]	[um]	[uN]	[N/m]	[um]	[um^2]	[MPa]	[MPa]
217	1.000000	0.002837	7.36717e+06	-49489.1	955.818	-29759.2	0.000000	0.000000	6.002799	0.083915	NaN	0.000000	0.001647	0.001742	28.0771	0.041638	0.000899	46.3289	-41.6423	-159.356	0.025785	0.001584	-1.051435	-1.052688	0.083915	46.3289	-1.052793	-1.164021E+14	-7.209051E-16	NaN
217	1.000000	0.042801	7.36717e+06	-49489.1	955.82	-29759.2	0.000000	0.000000	6.042757	-0.047325	NaN	0.000000	0.001696	0.001745	28.0769	0.114390	0.001827	62.6068	140.474	-165.115	-0.059040	0.041454	-1.011471	-1.012818	-0.047325	62.6068	-1.010904	-3.180909E+13	1.487791E-15	NaN
217	1.000000	0.082828	7.36717e+06	-49489.1	955.818	-29759.2	0.000000	0.000000	6.082786	-0.000534	NaN	0.000000	0.001685	0.001724	28.0769	0.038077	0.002000	19.039	65.3891	-165.732	0.084044	0.081527	-0.971444	-0.972745	-0.000534	19.039	-0.971423	-9.350513E+12	5.707759E-17	NaN
217	1.000000	0.122865	7.36717e+06	-49489.1	955.819	-29759.2	0.000000	0.000000	6.122824	0.026829	NaN	0.000000	0.001699	0.001761	28.0769	0.098190	0.001937	50.6926	44.594	-164.301	0.038430	0.121546	-0.931407	-0.932726	0.026829	50.6926	-0.931804	-2.732396E+12	-9.818758E-15	NaN
217	1.000000	0.162816	7.36717e+06	-49489.1	955.819	-29759.2	0.000000	0.000000	6.162776	0.055776	NaN	0.000000	0.001661	0.001720	28.0756	0.115405	0.002121	54.4091	-139.374	-162.524	0.000729	0.161530	-0.891456	-0.892742	0.055776	54.4091	-0.892225	-7.979706E+11	-6.989793E-14	NaN
217	1.000000	0.202863	7.36717e+06	-49489.1	955.818	-29759.2	0.000000	0.000000	6.202820	-0.037561	NaN	0.000000	0.001662	0.001686	28.0755	0.071916	0.002004	35.8818	159.166	-163.85	-0.018079	0.201518	-0.851409	-0.852755	-0.037561	35.8818	-0.850624	-2.183644E+11	1.720124E-13	NaN
217	1.000000	0.242881	7.36717e+06	-49489.1	955.818	-29759.2	0.000000	0.000000	6.242836	-0.079576	NaN	0.000000	0.001690	0.001744	28.0757	0.058392	0.002117	27.5769	115.585	-163.783	-0.007757	0.241577	-0.811391	-0.812695	-0.079576	27.5769	-0.809226	-5.998952E+10	1.326491E-12	NaN
217	1.000000	0.282894	7.36717e+06	-49489.1	955.819	-29759.2	0.000000	0.000000	6.282854	0.038246	NaN	0.000000	0.001656	0.001748	28.0774	0.070617	0.001998	35.3423	-3.409181	-164.323	0.046748	0.281579	-0.771378	-0.772693	0.038246	35.3423	-0.772189	-1.883957E+10	-2.030104E-12	NaN
217	1.000000	0.322920	7.36717e+06	-49489.1	955.818	-29759.2	0.000000	0.000000	6.322876	-0.060058	NaN	0.000000	0.001670	0.001745	28.0774	0.043520	0.001834	23.729	-13.5806	-168.069	0.027758	0.321617	-0.731352	-0.732655	-0.060058	23.729	-0.729454	-4.935847E+9	1.216774E-11	NaN
217	1.000000	0.362937	7.36717e+06	-49489.1	955.818	-29759.2	0.000000	0.000000	6.362894	-0.026443	NaN	0.000000	0.001680	0.001736	28.0768	0.053646	0.002018	26.5824	-68.7815	-167.006	-0.011123	0.361636	-0.691335	-0.692636	-0.026443	26.5824	-0.690589	-1.455334E+9	1.816978E-11	NaN
217	1.000000	0.402937	7.36717e+06	-49489.1	955.818	-29759.2	0.000000	0.000000	6.402894	-0.010056	NaN	0.000000	0.001687	0.001797	28.0757	0.016200	0.002021	8.015113	34.0323	-163.477	0.028881	0.401578	-0.651336	-0.652694	-0.010056	8.015113	-0.650395	-4.100592E+8	2.452277E-11	NaN
217	1.000000	0.442914	7.36717e+06	-49489.1	955.818	-29759.2	0.000000	0.000000	6.442869	-0.059892	NaN	0.000000	0.001679	0.001751	28.0756	0.039809	0.002002	19.8828	-72.1785	-166.798	0.010493	0.441619	-0.611359	-0.612653	-0.059892	19.8828	-0.609099	-1.111019E+8	5.390770E-10	NaN
217	1.000000	0.482982	7.36717e+06	-49489.1	955.818	-29759.2	0.000000	0.000000	6.482938	-0.049131	NaN	0.000000	0.001733	0.001795	28.0755	0.097026	0.001986	48.8483	-72.8051	-165.652	-0.027393	0.481683	-0.571290	-0.572590	-0.049131	48.8483	-0.570536	-3.266131E+7	1.504254E-9	NaN
217	1.000000	0.522984	7.36717e+06	-49489.1	955.817	-29759.2	0.000000	0.000000	6.522943	0.030913	NaN	0.000000	0.001733	0.001763	28.0754	0.028889	0.001855	15.5718	-68.2501	-162.013	0.012097	0.521685	-0.531288	-0.532587	0.030913	15.5718	-0.532777	-9.79804e+06	-3.155045E-9	NaN
217	1.000000	0.563014	7.36717e+06	-49489.1	955.819	-29759.2	0.000000	0.000000	6.562973	0.012211	NaN	0.000000	0.001673	0.001773	28.0768	0.065612	0.001912	34.317	-17.2653	-170.024	-0.021328	0.561707	-0.491258	-0.492565	0.012211	34.317	-0.491525	-2.61033e+06	-4.678007E-9	NaN
217	1.000000	0.603012	7.36717e+06	-49489.1	955.818	-29759.2	0.000000	0.000000	6.602970	0.010689	NaN	0.000000	0.001726	0.001757	28.0767	0.030429	0.002094	14.5337	103.239	-166.925	0.002605	0.601711	-0.451260	-0.452561	0.010689	14.5337	-0.451812	-724188	-1.476056E-8	NaN
217	1.000000	0.643064	7.36717e+06	-49489.1	955.819	-29759.2	0.000000	0.000000	6.643023	0.029873	NaN	0.000000	0.001678	0.001718	28.077	0.095143	0.001983	47.9867	-5.412379	-167.817	0.073665	0.641692	-0.411208	-0.412580	0.029873	47.9867	-0.411675	-195983	-1.524288E-7	NaN
217	1.000000	0.683054	7.36717e+06	-49489.1	955.819	-29759.2	0.000000	0.000000	6.683009	-0.061931	NaN	0.000000	0.001648	0.001755	28.076	0.086831	0.002134	40.6841	158.457	-162.098	-0.013123	0.681759	-0.371219	-0.372513	-0.061931	40.6841	-0.370077	-49800.7	1.243573E-6	NaN
217	1.000000	0.723065	7.36717e+06	-49489.1	955.818	-29759.2	0.000000	0.000000	6.723023	0.007982	NaN	0.000000	0.001633	0.001768	28.0759	0.092481	0.001943	47.595	62.0095	-161.905	-0.035994	0.721743	-0.331207	-0.332530	0.007982	47.595	-0.331333	-13644.8	-5.850032E-7	NaN
217	1.000000	0.763081	7.36717e+06	-49489.1	955.818	-29759.2	0.000000	0.000000	6.763037	-0.035480	NaN	0.000000	0.001638	0.001807	28.0757	0.038669	0.001902	20.3341	-166.001	-164.398	-0.057851	0.761790	-0.291192	-0.292482	-0.035480	20.3341	-0.289883	-3323.14	1.067653E-5	NaN
217	1.000000	0.803112	7.36717e+06	-49489.1	955.819	-29759.2	0.000000	0.000000	6.803070	0.009273	NaN	0.000000	0.001653	0.001787	28.0759	0.082364	0.001999	41.1942	-153.513	-164.691	0.000261	0.801784	-0.251160	-0.252488	0.009273	41.1942	-0.251329	-862.004	-1.075703E-5	NaN
217	1.000000	0.843104	7.36717e+06	-49489.1	955.818	-29759.2	0.000000	0.000000	6.843058	-0.078893	NaN	0.000000	0.001627	0.001741	28.0774	0.058387	0.002103	27.7656	101.331	-167.038	-0.064410	0.841820	-0.211168	-0.212452	-0.078893	27.7656	-0.209037	-185.019	0.000426	NaN
217	1.000000	0.883161	7.36717e+06	-49489.1	955.818	-29759.2	0.000000	0.000000	6.883117	-0.051627	NaN	0.000000	0.001622	0.001776	28.077	0.055176	0.002061	26.775	-107.419	-163.467	-0.158598	0.881895	-0.171111	-0.172377	-0.051627	26.775	-0.169665	-40.5316	0.001274	NaN
217	1.000000	0.923138	7.36717e+06	-49489.1	955.818	-29759.2	0.000000	0.000000	6.923095	-0.023632	NaN	0.000000	0.001704	0.001726	28.077	0.076209	0.002014	37.8308	89.2342	-159.113	0.030709	0.921827	-0.131134	-0.132445	-0.023632	37.8308	-0.130666	-7.851116	0.003010	NaN
217	1.000000	0.963187	7.36717e+06	-49489.1	955.818	-29759.2	0.000000	0.000000	6.963141	-0.106743	NaN	0.000000	0.001625	0.001785	28.0758	0.029280	0.001974	14.8305	70.1119	-164.097	-0.050979	0.961833	-0.091085	-0.092439	-0.106743	14.8305	-0.085687	-0.853617	0.125048	NaN
217	1.000000	1.003188	7.36717e+06	-49489.1	955.819	-29759.2	0.000000	0.000000	7.003146	-0.000400	NaN	0.000000	0.001686	0.001740	28.0757	0.064256	0.001993	32.2364	-102.425	-164.805	-0.037491	1.001927	-0.051084	-0.052345	-0.000400	32.2364	-0.051075	-0.098329	0.004066	NaN
217	1.000000	1.043207	7.36717e+06	-49489.1	955.819	-29759.2	0.000000	0.000000	7.043165	-0.001751	NaN	0.000000	0.001640	0.001734	28.0755	0.091551	0.001933	47.3715	-27.7473	-163.756	0.024511	1.041908	-0.011065	-0.012364	-0.001751	47.3715	-0.011037	-0.006979	0.250921	NaN
217	2.000000	1.067721	7.36717e+06	-49489.1	955.819	-29759.2	0.000000	0.000000	7.068447	18.6865	NaN	0.000000	0.001616	0.001759	28.0761	15.2239	0.001654	9205.41	6.267447	-174.22	17.8517	1.067397	0.013449	0.013125	18.6865	9205.41	0.011927	0.011402	1638.85	78763
217	2.000000	1.077703	7.36717e+06	-49489.1	955.818	-29759.2	0.000000	0.000000	7.079365	41.4525	NaN	0.000000	0.001666	0.001754	28.077	25.4139	0.001777	14300.5	3.098540	-175.86	39.9685	1.077322	0.023431	0.023050	41.4525	14300.5	0.021257	0.024556	1688.07	83376.8
217	2.000000	1.087595	7.36717e+06	-49489.1	955.819	-29759.2	0.000000	0.000000	7.090389	68.9825	NaN	0.000000	0.001643	0.001687	28.0772	35.6697	0.001847	19314.7	4.347737	-178.439	67.1597	1.087339	0.033323	0.033067	68.9825	19314.7	0.030644	0.042090	1638.93	86014.4
217	2.000000	1.097614	7.36717e+06	-49489.1	955.82	-29759.2	0.000000	0.000000	7.102023	108.253	NaN	0.000000	0.001683	0.001762	28.0772	45.2262	0.001811	24977.8	1.636753	-178.354	107.48	1.097328	0.043342	0.043056	108.253	24977.8	0.040092	0.064266	1684.46	90019.5
217	2.000000	1.107615	7.36717e+06	-49489.1	955.819	-29759.2	0.000000	0.000000	7.114127	159.403	NaN	0.000000	0.001681	0.001720	28.0762	55.7167	0.001848	30153.8	3.610215	178.126	158.094	1.107232	0.053343	0.052960	159.403	30153.8	0.049378	0.090500	1761.36	91578.2
217	2.000000	1.117581	7.36717e+06	-49489.1	955.82	-29759.2	0.000000	0.000000	7.126075	207.599	NaN	0.000000	0.001684	0.001712	28.0761	64.827	0.001720	37697.4	6.991225	172.266	205.122	1.117296	0.063309	0.063023	207.599	37697.4	0.059179	0.122879	1689.46	98253
217	2.000000	1.127492	7.36717e+06	-49489.1	955.82	-29759.2	0.000000	0.000000	7.138691	273.392	NaN	0.000000	0.001653	0.001780	28.0762	74.3911	0.001654	44982.7	2.203267	175.547	267.982	1.127228	0.073220	0.072956	273.392	44982.7	0.068662	0.158687	1722.84	103169
217	2.000000	1.137548	7.36717e+06	-49489.1	955.82	-29759.2	0.000000	0.000000	7.151446	339.012	NaN	0.000000	0.001656	0.001768	28.0774	84.4971	0.001911	44215.2	5.409294	173.311	335.313	1.137212	0.083276	0.082940	339.012	44215.2	0.077526	0.196042	1729.28	91236.8
217	2.000000	1.147546	7.36717e+06	-49489.1	955.82	-29759.2	0.000000	0.000000	7.163817	396.716	NaN	0.000000	0.001751	0.001770	28.0771	91.5903	0.001813	50512.4	3.830292	173.397	394.986	1.147376	0.093274	0.093104	396.716	50512.4	0.087384	0.241905	1639.97	93831.5
217	2.000000	1.157478	7.36717e+06	-49489.1	955.821	-29759.2	0.000000	0.000000	7.176740	469.477	NaN	0.000000	0.001698	0.001732	28.0772	100.871	0.001893	53300	4.880327	172.171	464.022	1.157270	0.103206	0.102998	469.477	53300	0.096600	0.288826	1625.46	90611.2
217	2.000000	1.161082	7.36717e+06	-49489.1	955.821	-29759.2	0.000000	0.000000	7.180783	480.14	NaN	0.000000	0.001728	0.001732	28.0771	103.643	0.001963	52810.8	2.588044	-5.723543	478.235	1.160842	0.106810	0.106570	480.14	52810.8	0.099991	0.307072	1563.61	87071.4