File: remote_trans/data/nanoindenter/0828-1/data/Data_2025-08-06,11h17m57s/2025-07-22_16-23-58_1_1068.txt
2025-07-22, 16:23:58, 1
Index	Phase	Displacement	Time	Pos X	Pos Y	Pos Z	Rot A	Rot B	Piezo Z	Force A	Force B	Gripper	Voltage A	Voltage B	Temperature	Amplitude force	Amplitude pos	Stiffness	Phase shift	Phase excitation	Force A raw	Displacement raw	HMax	HMax raw	Real Force	Real Stiffness	Contact Depth	Area	Hardness	Reduced Mod.
[#]	[#]	[um]	[s]	[um]	[um]	[um]	[m°]	[m°]	[um]	[uN]	[uN]	[V]	[V]	[V]	[°C]	[uN]	[um]	[N/m]	[°]	[°]	[uN]	[um]	[um]	[um]	[uN]	[N/m]	[um]	[um^2]	[MPa]	[MPa]
1068	1.000000	0.002489	7.37549e+06	-53539.1	1055.82	-29745.9	0.000000	0.000000	6.002794	0.033347	NaN	0.000000	0.001644	0.001692	28.0839	0.120607	0.000979	123.251	-62.5491	-160.845	-0.029012	0.001230	-1.052010	-1.053269	0.033347	123.251	-1.052213	-1.143301E+14	-2.916757E-16	NaN
1068	1.000000	0.042390	7.37549e+06	-53539.1	1055.82	-29745.9	0.000000	0.000000	6.042695	0.037778	NaN	0.000000	0.001597	0.001703	28.0844	0.025198	0.001975	12.7588	-152.65	-165.916	-0.000598	0.041177	-1.012109	-1.013322	0.037778	12.7588	-1.014330	-3.537130E+13	-1.068048E-15	NaN
1068	1.000000	0.082442	7.37549e+06	-53539.1	1055.82	-29745.9	0.000000	0.000000	6.082744	-0.040195	NaN	0.000000	0.001641	0.001706	28.0826	0.118169	0.001878	62.9341	179.086	-167.346	-0.056606	0.081165	-0.972057	-0.973334	-0.040195	62.9341	-0.971578	-9.395671E+12	4.278075E-15	NaN
1068	1.000000	0.122453	7.37549e+06	-53539.1	1055.82	-29746	0.000000	0.000000	6.122755	-0.035344	NaN	0.000000	0.001619	0.001721	28.0829	0.057554	0.001991	28.901	29.7877	-163.135	0.032501	0.121186	-0.932046	-0.933312	-0.035344	28.901	-0.931129	-2.675683E+12	1.320950E-14	NaN
1068	1.000000	0.162494	7.37549e+06	-53539.1	1055.82	-29746	0.000000	0.000000	6.162799	0.041653	NaN	0.000000	0.001644	0.001691	28.0829	0.032817	0.001939	16.9233	143.245	-164.583	0.018557	0.161211	-0.892005	-0.893288	0.041653	16.9233	-0.893851	-8.393932E+11	-4.962256E-14	NaN
1068	1.000000	0.202478	7.37549e+06	-53539.1	1055.82	-29746	0.000000	0.000000	6.202781	-0.015786	NaN	0.000000	0.001608	0.001676	28.0841	0.123893	0.001975	62.7339	104.666	-164.056	-0.035883	0.201207	-0.852021	-0.853292	-0.015786	62.7339	-0.851832	-2.267479E+11	6.961936E-14	NaN
1068	1.000000	0.242535	7.37549e+06	-53539.1	1055.82	-29746	0.000000	0.000000	6.242835	-0.085836	NaN	0.000000	0.001657	0.001723	28.084	0.197446	0.001844	107.072	21.8482	-163.797	-0.148412	0.241235	-0.811964	-0.813264	-0.085836	107.072	-0.811363	-6.412999E+10	1.338463E-12	NaN
1068	1.000000	0.282546	7.37549e+06	-53539.1	1055.82	-29746	0.000000	0.000000	6.282852	0.060818	NaN	0.000000	0.001706	0.001669	28.0839	0.028134	0.002025	13.8948	-2.457018	-167.256	0.031467	0.281273	-0.771953	-0.773225	0.060818	13.8948	-0.775236	-2.072438E+10	-2.934626E-12	NaN
1068	1.000000	0.322581	7.3755e+06	-53539.1	1055.82	-29746	0.000000	0.000000	6.322885	0.004282	NaN	0.000000	0.001667	0.001682	28.0833	0.032767	0.002047	16.0067	59.3726	-163.987	-0.047052	0.321236	-0.731918	-0.733263	0.004282	16.0067	-0.732119	-5.366367E+9	-7.978880E-13	NaN
1068	1.000000	0.362580	7.3755e+06	-53539.1	1055.82	-29746	0.000000	0.000000	6.362882	-0.028169	NaN	0.000000	0.001616	0.001651	28.0825	0.018518	0.002047	9.046675	-124.349	-163.63	-0.043403	0.361232	-0.691919	-0.693267	-0.028169	9.046675	-0.689583	-1.410020E+9	1.997754E-11	NaN
1068	1.000000	0.402577	7.3755e+06	-53539.1	1055.82	-29746	0.000000	0.000000	6.402882	0.039944	NaN	0.000000	0.001614	0.001668	28.0831	0.093525	0.001927	48.5233	-15.2176	-163.665	0.000286	0.401219	-0.651922	-0.653279	0.039944	48.5233	-0.652539	-4.387756E+8	-9.103407E-11	NaN
1068	1.000000	0.442591	7.3755e+06	-53539.1	1055.82	-29746	0.000000	0.000000	6.442895	0.003360	NaN	0.000000	0.001684	0.001665	28.0828	0.058600	0.001913	30.6405	172.684	-164.641	-0.004186	0.441316	-0.611908	-0.613183	0.003360	30.6405	-0.611990	-1.217554E+8	-2.759520E-11	NaN
1068	1.000000	0.482600	7.3755e+06	-53539.1	1055.82	-29746	0.000000	0.000000	6.482903	-0.009270	NaN	0.000000	0.001662	0.001650	28.0838	0.070131	0.002090	33.5548	47.942	-162.858	-0.011189	0.481334	-0.571899	-0.573165	-0.009270	33.5548	-0.571692	-3.388510E+7	2.735598E-10	NaN
1068	1.000000	0.522634	7.3755e+06	-53539.1	1055.82	-29746	0.000000	0.000000	6.522936	-0.031530	NaN	0.000000	0.001645	0.001602	28.0836	0.010600	0.002025	5.234120	120.094	-166.582	0.021345	0.521327	-0.531865	-0.533172	-0.031530	5.234120	-0.527347	-8.23613e+06	3.828235E-9	NaN
1068	1.000000	0.562681	7.3755e+06	-53539.1	1055.82	-29746	0.000000	0.000000	6.562983	-0.039593	NaN	0.000000	0.001648	0.001595	28.0838	0.022066	0.001999	11.0369	132.846	-166.426	0.063649	0.561311	-0.491818	-0.493188	-0.039593	11.0369	-0.489127	-2.41654e+06	1.638437E-8	NaN
1068	1.000000	0.602698	7.3755e+06	-53539.1	1055.82	-29746	0.000000	0.000000	6.603001	-0.008771	NaN	0.000000	0.001647	0.001598	28.0828	0.109653	0.001928	56.8857	-25.7353	-165.414	0.033534	0.601375	-0.451801	-0.453124	-0.008771	56.8857	-0.451685	-721216	1.216102E-8	NaN
1068	1.000000	0.642694	7.3755e+06	-53539.1	1055.82	-29746	0.000000	0.000000	6.642998	0.001326	NaN	0.000000	0.001672	0.001619	28.0828	0.080631	0.001969	40.9509	170.579	-165.64	0.061670	0.641370	-0.411804	-0.413128	0.001326	40.9509	-0.411829	-196970	-6.731806E-9	NaN
1068	1.000000	0.682707	7.3755e+06	-53539.1	1055.82	-29746	0.000000	0.000000	6.683012	0.026741	NaN	0.000000	0.001628	0.001629	28.0829	0.043073	0.002019	21.3363	49.2636	-163.872	0.094656	0.681378	-0.371792	-0.373121	0.026741	21.3363	-0.372732	-54380.9	-4.917285E-7	NaN
1068	1.000000	0.722717	7.3755e+06	-53539.1	1055.82	-29746	0.000000	0.000000	6.723020	-0.000814	NaN	0.000000	0.001643	0.001619	28.0828	0.037863	0.001996	18.9714	119.939	-163.334	-0.065552	0.721375	-0.331782	-0.333124	-0.000814	18.9714	-0.331750	-13837.8	5.883595E-8	NaN
1068	1.000000	0.762735	7.3755e+06	-53539.1	1055.82	-29746	0.000000	0.000000	6.763040	0.028483	NaN	0.000000	0.001652	0.001600	28.0841	0.032327	0.001955	16.5351	146.58	-166.492	0.043319	0.761453	-0.291764	-0.293046	0.028483	16.5351	-0.293055	-3707.08	-7.683463E-6	NaN
1068	1.000000	0.802749	7.3755e+06	-53539.1	1055.82	-29746	0.000000	0.000000	6.803050	-0.055114	NaN	0.000000	0.001640	0.001612	28.0842	0.053525	0.001988	26.9252	-85.0819	-163.377	-0.100470	0.801394	-0.251750	-0.253105	-0.055114	26.9252	-0.250215	-828.492	6.652373E-5	NaN
1068	1.000000	0.842777	7.3755e+06	-53539.1	1055.82	-29746	0.000000	0.000000	6.843079	-0.050554	NaN	0.000000	0.001600	0.001586	28.084	0.115916	0.001970	58.8537	152.631	-168.078	-0.103809	0.841476	-0.211721	-0.213023	-0.050554	58.8537	-0.211077	-199.64	0.000253	NaN
1068	1.000000	0.882798	7.3755e+06	-53539.1	1055.82	-29746	0.000000	0.000000	6.883103	0.030142	NaN	0.000000	0.001622	0.001624	28.0827	0.086623	0.002078	41.6834	-91.9657	-163.742	0.010540	0.881568	-0.171701	-0.172931	0.030142	41.6834	-0.172243	-44.9233	-0.000671	NaN
1068	1.000000	0.922812	7.3755e+06	-53539.1	1055.82	-29746	0.000000	0.000000	6.923259	3.477770	NaN	0.000000	0.001607	0.001620	28.0828	1.355771	0.001992	680.722	11.5529	-166.678	3.080945	0.921516	-0.131687	-0.132982	3.477770	680.722	-0.135518	-9.731401	-0.357376	NaN
1068	1.000000	0.962815	7.3755e+06	-53539.1	1055.82	-29746	0.000000	0.000000	6.963204	2.078914	NaN	0.000000	0.001582	0.001639	28.0829	1.323156	0.001873	706.469	24.0749	-166.176	2.084739	0.961518	-0.091684	-0.092980	2.078914	706.469	-0.093891	-1.330645	-1.562335	NaN
1068	1.000000	1.002816	7.3755e+06	-53539.1	1055.82	-29746	0.000000	0.000000	7.003193	1.792318	NaN	0.000000	0.001630	0.001628	28.0828	1.209200	0.002016	599.935	19.3278	-164.31	1.733304	1.001522	-0.051683	-0.052977	1.792318	599.935	-0.053923	-0.119653	-14.9793	NaN
1068	1.000000	1.042859	7.3755e+06	-53539.1	1055.82	-29746	0.000000	0.000000	7.043271	2.645193	NaN	0.000000	0.001628	0.001638	28.0842	2.119071	0.001959	1081.63	21.4902	-168.196	2.721996	1.041469	-0.011640	-0.013030	2.645193	1081.63	-0.013474	-0.008377	-315.776	NaN
1068	2.000000	1.068447	7.3755e+06	-53539.1	1055.82	-29746	0.000000	0.000000	7.069293	13.176	NaN	0.000000	0.001611	0.001643	28.0842	13.3224	0.001870	7125.13	13.6093	-177.434	13.0221	1.068079	0.013948	0.013580	13.176	7125.13	0.012561	0.012170	1082.7	59010.6
1068	2.000000	1.078352	7.3755e+06	-53539.1	1055.82	-29746	0.000000	0.000000	7.079878	29.7388	NaN	0.000000	0.001628	0.001625	28.0843	23.5681	0.001842	12794.7	8.655730	-178.238	28.5573	1.078054	0.023853	0.023555	29.7388	12794.7	0.022110	0.025966	1145.29	72543.7
1068	2.000000	1.088307	7.3755e+06	-53539.1	1055.82	-29746	0.000000	0.000000	7.091068	59.7285	NaN	0.000000	0.001627	0.001625	28.0829	34.4839	0.001735	19869.8	4.971718	-179.192	58.8913	1.088086	0.033809	0.033587	59.7285	19869.8	0.031554	0.044027	1356.65	86518.5
1068	2.000000	1.098279	7.3755e+06	-53539.1	1055.82	-29746	0.000000	0.000000	7.102664	99.2319	NaN	0.000000	0.001629	0.001623	28.0832	45.029	0.001754	25669.9	5.854275	177.451	96.3156	1.097923	0.043780	0.043425	99.2319	25669.9	0.040881	0.066325	1496.14	91066.3
1068	2.000000	1.108304	7.3755e+06	-53539.1	1055.82	-29746	0.000000	0.000000	7.114437	141.71	NaN	0.000000	0.001622	0.001627	28.0829	53.5883	0.001717	31213.7	5.114599	176.014	140.424	1.107990	0.053806	0.053491	141.71	31213.7	0.050401	0.093655	1513.1	93186.5
1068	2.000000	1.118300	7.3755e+06	-53539.1	1055.82	-29746	0.000000	0.000000	7.126422	190.093	NaN	0.000000	0.001619	0.001707	28.0843	64.8771	0.001921	33768.9	8.012127	172.851	189.489	1.118008	0.063801	0.063509	190.093	33768.9	0.059579	0.124304	1529.26	87507.9
1068	2.000000	1.128305	7.3755e+06	-53539.1	1055.82	-29746	0.000000	0.000000	7.138794	247.646	NaN	0.000000	0.001576	0.001726	28.0843	71.8527	0.001756	40924.9	6.787742	172.502	247.124	1.127993	0.073806	0.073494	247.646	40924.9	0.069268	0.161121	1537.02	93150.3
1068	2.000000	1.138167	7.3755e+06	-53539.1	1055.82	-29746	0.000000	0.000000	7.151318	312.352	NaN	0.000000	0.001580	0.001727	28.0842	81.0879	0.001786	45389.4	5.865684	172.745	306.324	1.137907	0.083668	0.083408	312.352	45389.4	0.078507	0.200403	1558.62	92635.1
1068	2.000000	1.148285	7.3755e+06	-53539.1	1055.82	-29746	0.000000	0.000000	7.163891	372.035	NaN	0.000000	0.001636	0.001691	28.0845	91.6027	0.001778	51516.5	8.112328	169.368	373.052	1.147883	0.093786	0.093384	372.035	51516.5	0.088370	0.246740	1507.8	94754.4
1068	2.000000	1.158255	7.3755e+06	-53539.1	1055.82	-29746	0.000000	0.000000	7.176547	437.348	NaN	0.000000	0.001630	0.001690	28.0832	99.6419	0.001667	59780.2	2.902194	173.244	437.013	1.157976	0.103756	0.103477	437.348	59780.2	0.098269	0.297743	1468.88	100094
1068	2.000000	1.162198	7.3755e+06	-53539.1	1055.82	-29746	0.000000	0.000000	7.182520	486.696	NaN	0.000000	0.001672	0.001725	28.083	102.857	0.001739	59155.5	5.623577	171.257	483.057	1.161783	0.107699	0.107285	486.696	59155.5	0.101529	0.315513	1542.55	96218.7