File: remote_trans/data/nanoindenter/0828-1/data/Data_2025-08-06,11h17m57s/2025-07-22_16-23-58_1_801.txt
2025-07-22, 16:23:58, 1
Index	Phase	Displacement	Time	Pos X	Pos Y	Pos Z	Rot A	Rot B	Piezo Z	Force A	Force B	Gripper	Voltage A	Voltage B	Temperature	Amplitude force	Amplitude pos	Stiffness	Phase shift	Phase excitation	Force A raw	Displacement raw	HMax	HMax raw	Real Force	Real Stiffness	Contact Depth	Area	Hardness	Reduced Mod.
[#]	[#]	[um]	[s]	[um]	[um]	[um]	[m°]	[m°]	[um]	[uN]	[uN]	[V]	[V]	[V]	[°C]	[uN]	[um]	[N/m]	[°]	[°]	[uN]	[um]	[um]	[um]	[uN]	[N/m]	[um]	[um^2]	[MPa]	[MPa]
801	1.000000	0.002934	7.37289e+06	-40189.1	1055.82	-29790.9	0.000000	0.000000	6.002806	0.075308	NaN	0.000000	0.001665	0.001690	28.0819	0.057999	0.000981	59.1523	87.3982	-167.313	-0.069218	0.001653	-1.094909	-1.096190	0.075308	59.1523	-1.095864	-4.411060E+14	-1.707251E-16	NaN
801	1.000000	0.044865	7.37289e+06	-40189.1	1055.82	-29790.9	0.000000	0.000000	6.044736	0.045612	NaN	0.000000	0.001578	0.001687	28.0811	0.052633	0.001891	27.8345	79.6275	15.204	0.043812	0.043508	-1.052978	-1.054335	0.045612	27.8345	-1.054207	-1.216077E+14	-3.750729E-16	NaN
801	1.000000	0.086880	7.37289e+06	-40189.1	1055.82	-29790.9	0.000000	0.000000	6.086747	-0.055444	NaN	0.000000	0.001640	0.001692	28.0812	0.131996	0.002115	62.4206	167.405	-166.286	0.044297	0.085591	-1.010963	-1.012252	-0.055444	62.4206	-1.010297	-3.121588E+13	1.776156E-15	NaN
801	1.000000	0.128902	7.37289e+06	-40189.1	1055.82	-29790.9	0.000000	0.000000	6.128772	0.047366	NaN	0.000000	0.001586	0.001654	28.08	0.073412	0.002065	35.5467	178.384	13.2021	0.021086	0.127616	-0.968941	-0.970227	0.047366	35.5467	-0.969941	-8.930210E+12	-5.304032E-15	NaN
801	1.000000	0.170917	7.37289e+06	-40189.1	1055.82	-29790.9	0.000000	0.000000	6.170789	0.061967	NaN	0.000000	0.001592	0.001709	28.0801	0.053349	0.002049	26.0427	148.963	-162.889	0.027900	0.169589	-0.926926	-0.928254	0.061967	26.0427	-0.928710	-2.481933E+12	-2.496737E-14	NaN
801	1.000000	0.212934	7.37289e+06	-40189.1	1055.82	-29790.9	0.000000	0.000000	6.212802	-0.017662	NaN	0.000000	0.001690	0.001708	28.0802	0.177574	0.002049	86.6468	44.1746	16.3301	0.090106	0.211596	-0.884909	-0.886247	-0.017662	86.6468	-0.884756	-6.324369E+11	2.792655E-14	NaN
801	1.000000	0.254950	7.37289e+06	-40189.1	1055.82	-29790.9	0.000000	0.000000	6.254822	0.070478	NaN	0.000000	0.001645	0.001716	28.0805	0.131137	0.001999	65.6154	17.2387	-165.129	0.042291	0.253610	-0.842893	-0.844233	0.070478	65.6154	-0.843698	-1.759504E+11	-4.005572E-13	NaN
801	1.000000	0.296986	7.37289e+06	-40189.1	1055.82	-29790.9	0.000000	0.000000	6.296853	-0.036601	NaN	0.000000	0.001682	0.001660	28.0818	0.061617	0.001849	33.3297	61.1909	11.2966	-0.021014	0.295659	-0.800857	-0.802184	-0.036601	33.3297	-0.800033	-4.501026E+10	8.131721E-13	NaN
801	1.000000	0.338996	7.37289e+06	-40189.1	1055.82	-29790.9	0.000000	0.000000	6.338865	0.010457	NaN	0.000000	0.001674	0.001721	28.0819	0.041035	0.001952	21.0221	-81.7879	-164.448	0.030752	0.337706	-0.758847	-0.760137	0.010457	21.0221	-0.759220	-1.255137E+10	-8.331288E-13	NaN
801	1.000000	0.381023	7.37289e+06	-40189.1	1055.82	-29790.9	0.000000	0.000000	6.380892	0.001850	NaN	0.000000	0.001609	0.001630	28.0815	0.032685	0.001904	17.1655	-89.903	16.1828	-0.015107	0.379655	-0.716820	-0.718188	0.001850	17.1655	-0.716901	-3.328134E+9	-5.559927E-13	NaN
801	1.000000	0.423033	7.37289e+06	-40189.1	1055.82	-29790.9	0.000000	0.000000	6.422899	-0.060885	NaN	0.000000	0.001673	0.001701	28.0799	0.087508	0.002013	43.4699	67.9973	-168.531	0.007242	0.421748	-0.674811	-0.676095	-0.060885	43.4699	-0.673760	-8.567348E+8	7.106578E-11	NaN
801	1.000000	0.465039	7.37289e+06	-40189.1	1055.82	-29790.9	0.000000	0.000000	6.464905	-0.047492	NaN	0.000000	0.001648	0.001660	28.0805	0.168862	0.002055	82.1684	-81.6059	16.0476	-0.044445	0.463696	-0.632804	-0.634147	-0.047492	82.1684	-0.632371	-2.320487E+8	2.046622E-10	NaN
801	1.000000	0.507063	7.37289e+06	-40189.1	1055.82	-29790.9	0.000000	0.000000	6.506933	0.036592	NaN	0.000000	0.001642	0.001695	28.0804	0.050223	0.002050	24.5042	-94.7185	-164.951	0.034572	0.505794	-0.590781	-0.592050	0.036592	24.5042	-0.591901	-6.439695E+7	-5.682310E-10	NaN
801	1.000000	0.549078	7.37289e+06	-40189.1	1055.82	-29790.9	0.000000	0.000000	6.548947	0.022908	NaN	0.000000	0.001666	0.001693	28.0815	0.064521	0.002172	29.6994	-32.3497	14.3691	-0.007428	0.547707	-0.548765	-0.550136	0.022908	29.6994	-0.549344	-1.662894E+7	-1.377590E-9	NaN
801	1.000000	0.591089	7.37289e+06	-40189.1	1055.82	-29790.9	0.000000	0.000000	6.590957	-0.009144	NaN	0.000000	0.001621	0.001686	28.0817	0.087771	0.002018	43.4916	121.963	-163.452	-0.012581	0.589766	-0.506754	-0.508077	-0.009144	43.4916	-0.506596	-4.23638e+06	2.158514E-9	NaN
801	1.000000	0.633127	7.37289e+06	-40189.1	1055.82	-29790.9	0.000000	0.000000	6.632997	0.043671	NaN	0.000000	0.001652	0.001651	28.0814	0.059854	0.002090	28.6404	-105.099	14.2947	0.062139	0.631794	-0.464716	-0.466049	0.043671	28.6404	-0.465860	-1.14109e+06	-3.827132E-8	NaN
801	1.000000	0.675140	7.37289e+06	-40189.1	1055.82	-29790.9	0.000000	0.000000	6.675010	0.036068	NaN	0.000000	0.001620	0.001665	28.0802	0.120351	0.001901	63.3131	-45.8256	-166.757	0.013201	0.673842	-0.422703	-0.424001	0.036068	63.3131	-0.423131	-284970	-1.265692E-7	NaN
801	1.000000	0.717155	7.37289e+06	-40189.1	1055.82	-29790.9	0.000000	0.000000	6.717023	-0.018873	NaN	0.000000	0.001648	0.001627	28.0804	0.049682	0.001898	26.179	-73.7613	14.4593	0.020419	0.715824	-0.380688	-0.382019	-0.018873	26.179	-0.380147	-69502.6	2.715433E-7	NaN
801	1.000000	0.759205	7.37289e+06	-40189.1	1055.82	-29790.9	0.000000	0.000000	6.759073	-0.003838	NaN	0.000000	0.001661	0.001644	28.0804	0.028675	0.002092	13.7065	-12.7237	-168.37	0.035721	0.757867	-0.338638	-0.339976	-0.003838	13.7065	-0.338428	-17323.4	2.215719E-7	NaN
801	1.000000	0.801169	7.37289e+06	-40189.1	1055.82	-29790.9	0.000000	0.000000	6.801036	-0.040622	NaN	0.000000	0.001637	0.001675	28.0805	0.077955	0.001888	41.2919	-126.887	13.3515	-0.056012	0.799868	-0.296674	-0.297975	-0.040622	41.2919	-0.295936	-4093.18	9.924318E-6	NaN
801	1.000000	0.843209	7.37289e+06	-40189.1	1055.82	-29790.9	0.000000	0.000000	6.843078	0.019776	NaN	0.000000	0.001619	0.001670	28.0819	0.064301	0.002135	30.1211	26.4973	-167.801	0.052686	0.841897	-0.254634	-0.255946	0.019776	30.1211	-0.255127	-986.435	-2.004768E-5	NaN
801	1.000000	0.885238	7.37289e+06	-40189.1	1055.82	-29790.9	0.000000	0.000000	6.885107	0.026412	NaN	0.000000	0.001601	0.001690	28.0813	0.062176	0.001956	31.7884	-12.2804	12.9884	0.059541	0.883926	-0.212605	-0.213917	0.026412	31.7884	-0.213228	-216.265	-0.000122	NaN
801	1.000000	0.927228	7.37289e+06	-40189.1	1055.82	-29790.9	0.000000	0.000000	6.927095	-0.039137	NaN	0.000000	0.001636	0.001672	28.0816	0.088196	0.001948	45.278	63.5879	-167.385	-0.002400	0.925951	-0.170615	-0.171893	-0.039137	45.278	-0.169967	-41.0235	0.000954	NaN
801	1.000000	0.969282	7.37289e+06	-40189.1	1055.82	-29790.9	0.000000	0.000000	6.969154	0.074099	NaN	0.000000	0.001659	0.001614	28.0803	0.068198	0.002055	33.1942	-119.658	13.4175	0.127502	0.967948	-0.128561	-0.129895	0.074099	33.1942	-0.130235	-7.701534	-0.009621	NaN
801	1.000000	1.011259	7.37289e+06	-40189.1	1055.82	-29790.9	0.000000	0.000000	7.011124	-0.099320	NaN	0.000000	0.001671	0.001757	28.0801	0.040959	0.001932	21.2045	154.465	-165.915	-0.093346	1.009927	-0.086584	-0.087916	-0.099320	21.2045	-0.083071	-0.737399	0.134689	NaN
801	1.000000	1.053302	7.37289e+06	-40189.1	1055.82	-29790.9	0.000000	0.000000	7.053171	0.002398	NaN	0.000000	0.001664	0.001766	28.0802	0.051904	0.001986	26.1395	151.147	13.5835	0.029928	1.051965	-0.044541	-0.045878	0.002398	26.1395	-0.044610	-0.062526	-0.038345	NaN
801	1.000000	1.095323	7.37289e+06	-40189.1	1055.82	-29790.9	0.000000	0.000000	7.095189	-0.062755	NaN	0.000000	0.001653	0.001722	28.0813	0.075345	0.002004	37.5922	-42.201	-163.777	-0.076066	1.094005	-0.002520	-0.003838	-0.062755	37.5922	-0.001268	-0.000925	67.8369	NaN
801	2.000000	1.130355	7.3729e+06	-40189.1	1055.82	-29790.9	0.000000	0.000000	7.130743	12.6498	NaN	0.000000	0.001650	0.001721	28.0814	11.1428	0.001761	6327.16	7.591741	4.693257	11.8079	1.129979	0.032512	0.032136	12.6498	6327.16	0.031012	0.042868	295.086	27919.9
801	2.000000	1.140790	7.3729e+06	-40189.1	1055.82	-29790.9	0.000000	0.000000	7.141782	27.3311	NaN	0.000000	0.001624	0.001757	28.0814	19.4427	0.001567	12406.6	6.375657	-179.056	25.7264	1.140384	0.042947	0.042541	27.3311	12406.6	0.041295	0.067417	405.405	43655.7
801	2.000000	1.151250	7.3729e+06	-40189.1	1055.82	-29790.9	0.000000	0.000000	7.153407	55.6797	NaN	0.000000	0.001694	0.001710	28.0801	31.5528	0.001899	16616.6	7.322382	-3.018404	52.622	1.150804	0.053407	0.052961	55.6797	16616.6	0.050894	0.095197	584.889	49204.3
801	2.000000	1.161716	7.3729e+06	-40189.1	1055.82	-29790.9	0.000000	0.000000	7.165242	88.9991	NaN	0.000000	0.001687	0.001691	28.0801	39.8677	0.001832	21761.3	3.463226	178.781	87.2065	1.161436	0.063873	0.063593	88.9991	21761.3	0.060805	0.128712	691.461	55417.9
801	2.000000	1.172209	7.3729e+06	-40189.1	1055.82	-29790.9	0.000000	0.000000	7.177614	134.731	NaN	0.000000	0.001615	0.001691	28.0801	50.4108	0.001754	28734	4.534738	-3.775319	132.46	1.171870	0.074366	0.074027	134.731	28734	0.070849	0.167559	804.083	64133.6
801	2.000000	1.182702	7.3729e+06	-40189.1	1055.82	-29790.9	0.000000	0.000000	7.189923	178.92	NaN	0.000000	0.001584	0.001740	28.0802	57.7697	0.001752	32972.8	3.488224	176.099	175.496	1.182431	0.084858	0.084588	178.92	32972.8	0.080789	0.210723	849.08	65625.5
801	2.000000	1.193212	7.3729e+06	-40189.1	1055.82	-29790.9	0.000000	0.000000	7.202638	232.568	NaN	0.000000	0.001636	0.001677	28.0817	68.0587	0.001863	36540.8	7.255722	-7.836653	232.431	1.192829	0.095369	0.094986	232.568	36540.8	0.090596	0.257815	902.071	65750.1
801	2.000000	1.203640	7.3729e+06	-40189.1	1055.82	-29790.9	0.000000	0.000000	7.215962	303.042	NaN	0.000000	0.001712	0.001682	28.0815	77.3516	0.001887	40984.6	5.320165	172.465	301.176	1.203362	0.105797	0.105519	303.042	40984.6	0.100251	0.308490	982.34	67417.6
801	2.000000	1.214194	7.3729e+06	-40189.1	1055.82	-29790.9	0.000000	0.000000	7.229230	369.087	NaN	0.000000	0.001661	0.001692	28.0816	83.6807	0.001749	47833.2	0.675974	-3.944197	367.303	1.213886	0.116351	0.116043	369.087	47833.2	0.110564	0.367297	1004.87	72109.7
801	2.000000	1.224702	7.3729e+06	-40189.1	1055.82	-29790.9	0.000000	0.000000	7.243214	453.659	NaN	0.000000	0.001653	0.001667	28.0804	94.3961	0.001725	54707.4	6.674120	169.544	456.317	1.224300	0.126859	0.126457	453.659	54707.4	0.120640	0.429411	1056.47	76275
801	2.000000	1.226644	7.3729e+06	-40189.1	1055.82	-29790.9	0.000000	0.000000	7.245655	465.807	NaN	0.000000	0.001682	0.001680	28.0802	98.8301	0.001895	52148.5	8.554141	167.804	463.773	1.226321	0.128801	0.128478	465.807	52148.5	0.122102	0.438808	1061.53	71924.6