File: remote_trans/data/nanoindenter/0828-1/data/Data_2025-08-06,11h17m57s/2025-07-22_16-23-58_1_494.txt
2025-07-22, 16:23:58, 1
Index	Phase	Displacement	Time	Pos X	Pos Y	Pos Z	Rot A	Rot B	Piezo Z	Force A	Force B	Gripper	Voltage A	Voltage B	Temperature	Amplitude force	Amplitude pos	Stiffness	Phase shift	Phase excitation	Force A raw	Displacement raw	HMax	HMax raw	Real Force	Real Stiffness	Contact Depth	Area	Hardness	Reduced Mod.
[#]	[#]	[um]	[s]	[um]	[um]	[um]	[m°]	[m°]	[um]	[uN]	[uN]	[V]	[V]	[V]	[°C]	[uN]	[um]	[N/m]	[°]	[°]	[uN]	[um]	[um]	[um]	[uN]	[N/m]	[um]	[um^2]	[MPa]	[MPa]
494	1.000000	0.002398	7.36988e+06	-52389.1	1005.82	-29749.4	0.000000	0.000000	6.002802	0.012409	NaN	0.000000	0.001668	0.001798	28.0831	0.051325	0.000836	61.4035	-101.468	-159.783	0.095273	0.001147	-1.111949	-1.113200	0.012409	61.4035	-1.112101	-7.285878E+14	-1.703127E-17	NaN
494	1.000000	0.044346	7.36988e+06	-52389.1	1005.82	-29749.4	0.000000	0.000000	6.044751	0.041359	NaN	0.000000	0.001708	0.001743	28.083	0.080608	0.002048	39.3657	25.4193	17.9437	0.023540	0.042997	-1.070001	-1.071350	0.041359	39.3657	-1.070789	-2.031400E+14	-2.036007E-16	NaN
494	1.000000	0.086352	7.36989e+06	-52389.1	1005.82	-29749.4	0.000000	0.000000	6.086758	0.057233	NaN	0.000000	0.001644	0.001783	28.0815	0.043562	0.001990	21.8941	-52.073	-161.769	0.014852	0.085140	-1.027995	-1.029207	0.057233	21.8941	-1.029956	-5.739656E+13	-9.971457E-16	NaN
494	1.000000	0.128364	7.36989e+06	-52389.1	1005.82	-29749.4	0.000000	0.000000	6.128768	0.006614	NaN	0.000000	0.001550	0.001773	28.0815	0.050683	0.002001	25.3314	0.616579	15.0943	-0.079903	0.127065	-0.985983	-0.987282	0.006614	25.3314	-0.986179	-1.477914E+13	-4.475172E-16	NaN
494	1.000000	0.170387	7.36989e+06	-52389.1	1005.82	-29749.4	0.000000	0.000000	6.170791	0.007395	NaN	0.000000	0.001614	0.001768	28.0816	0.081436	0.002000	40.7245	-74.1866	-163.935	-0.038760	0.169089	-0.943960	-0.945259	0.007395	40.7245	-0.944096	-4.003125E+12	-1.847233E-15	NaN
494	1.000000	0.212415	7.36989e+06	-52389.1	1005.82	-29749.4	0.000000	0.000000	6.212820	0.023203	NaN	0.000000	0.001532	0.001774	28.0828	0.039787	0.002168	18.3526	-40.5164	15.8538	0.075458	0.211075	-0.901932	-0.903272	0.023203	18.3526	-0.902880	-1.111683E+12	-2.087236E-14	NaN
494	1.000000	0.254431	7.36989e+06	-52389.1	1005.82	-29749.4	0.000000	0.000000	6.254834	-0.021592	NaN	0.000000	0.001615	0.001762	28.0825	0.064868	0.001970	32.9268	-73.2454	-164.738	-0.040167	0.253126	-0.859916	-0.861222	-0.021592	32.9268	-0.859425	-2.872981E+11	7.515483E-14	NaN
494	1.000000	0.296442	7.36989e+06	-52389.1	1005.82	-29749.4	0.000000	0.000000	6.296846	-0.010624	NaN	0.000000	0.001615	0.001723	28.0826	0.033884	0.001968	17.2196	88.9601	14.7569	-0.060248	0.295069	-0.817905	-0.819278	-0.010624	17.2196	-0.817442	-7.753977E+10	1.370079E-13	NaN
494	1.000000	0.338448	7.36989e+06	-52389.1	1005.82	-29749.4	0.000000	0.000000	6.338849	-0.069933	NaN	0.000000	0.001653	0.001727	28.0827	0.048361	0.002016	23.987	-106.354	-164.081	-0.115981	0.337182	-0.775899	-0.777165	-0.069933	23.987	-0.773713	-1.975958E+10	3.539189E-12	NaN
494	1.000000	0.380480	7.36989e+06	-52389.1	1005.82	-29749.4	0.000000	0.000000	6.380886	0.050537	NaN	0.000000	0.001554	0.001782	28.0817	0.063218	0.001937	32.6306	-91.4068	16.3069	-0.009421	0.379151	-0.733867	-0.735196	0.050537	32.6306	-0.735029	-5.879426E+9	-8.595487E-12	NaN
494	1.000000	0.422489	7.36989e+06	-52389.1	1005.82	-29749.4	0.000000	0.000000	6.422890	-0.067628	NaN	0.000000	0.001674	0.001803	28.0817	0.124114	0.002048	60.6122	-126.551	-163.623	-0.029219	0.421212	-0.691858	-0.693136	-0.067628	60.6122	-0.691021	-1.475283E+9	4.584074E-11	NaN
494	1.000000	0.464497	7.36989e+06	-52389.1	1005.82	-29749.4	0.000000	0.000000	6.464900	-0.022192	NaN	0.000000	0.001662	0.001802	28.0818	0.082716	0.002048	40.3803	164.484	14.0658	0.068389	0.463153	-0.649850	-0.651195	-0.022192	40.3803	-0.649438	-3.978602E+8	5.577754E-11	NaN
494	1.000000	0.506538	7.36989e+06	-52389.1	1005.82	-29749.4	0.000000	0.000000	6.506942	-0.012786	NaN	0.000000	0.001682	0.001819	28.0832	0.055016	0.001962	28.037	50.4089	-158.314	0.057573	0.505214	-0.607809	-0.609133	-0.012786	28.037	-0.607467	-1.055011E+8	1.211975E-10	NaN
494	1.000000	0.548567	7.36989e+06	-52389.1	1005.82	-29749.4	0.000000	0.000000	6.548971	0.009010	NaN	0.000000	0.001705	0.001826	28.0832	0.067601	0.001854	36.4613	75.0821	12.6294	-0.041841	0.547210	-0.565781	-0.567137	0.009010	36.4613	-0.565966	-2.824094E+7	-3.190262E-10	NaN
494	1.000000	0.590555	7.36989e+06	-52389.1	1005.82	-29749.4	0.000000	0.000000	6.590960	0.011138	NaN	0.000000	0.001669	0.001778	28.0833	0.071145	0.001865	38.1563	29.1533	-163.764	-0.006703	0.589264	-0.523792	-0.525083	0.011138	38.1563	-0.524011	-7.40227e+06	-1.504643E-9	NaN
494	1.000000	0.632603	7.36989e+06	-52389.1	1005.82	-29749.4	0.000000	0.000000	6.633006	-0.020012	NaN	0.000000	0.001650	0.001792	28.0817	0.008348	0.002047	4.077913	1.906165	13.4389	-0.032808	0.631267	-0.481745	-0.483080	-0.020012	4.077913	-0.478064	-1.69208e+06	1.182708E-8	NaN
494	1.000000	0.674624	7.36989e+06	-52389.1	1005.82	-29749.4	0.000000	0.000000	6.675029	0.023450	NaN	0.000000	0.001625	0.001793	28.0816	0.086781	0.002023	42.906	-59.6255	-163.523	-0.013761	0.673341	-0.439723	-0.441006	0.023450	42.906	-0.440133	-495720	-4.730539E-8	NaN
494	1.000000	0.716620	7.36989e+06	-52389.1	1005.82	-29749.4	0.000000	0.000000	6.717027	0.065967	NaN	0.000000	0.001529	0.001774	28.0816	0.105693	0.002074	50.9521	169.798	15.0353	0.090481	0.715184	-0.397727	-0.399163	0.065967	50.9521	-0.398698	-128063	-5.151155E-7	NaN
494	1.000000	0.758645	7.36989e+06	-52389.1	1005.82	-29749.4	0.000000	0.000000	6.759046	-0.061278	NaN	0.000000	0.001612	0.001790	28.083	0.053810	0.001975	27.2495	21.066	-166.247	-0.109767	0.757369	-0.355702	-0.356978	-0.061278	27.2495	-0.354016	-29190.3	2.099261E-6	NaN
494	1.000000	0.800664	7.36989e+06	-52389.1	1005.82	-29749.4	0.000000	0.000000	6.801069	0.031488	NaN	0.000000	0.001632	0.001745	28.083	0.079731	0.001955	40.7752	-12.9515	15.0235	0.013058	0.799326	-0.313684	-0.315021	0.031488	40.7752	-0.314263	-7657.12	-4.112229E-6	NaN
494	1.000000	0.842696	7.36989e+06	-52389.1	1005.82	-29749.4	0.000000	0.000000	6.843100	-0.010707	NaN	0.000000	0.001651	0.001809	28.0831	0.070824	0.001997	35.4692	-32.6665	-165.449	0.024092	0.841370	-0.271651	-0.272978	-0.010707	35.4692	-0.271425	-1750.6	6.116437E-6	NaN
494	1.000000	0.884706	7.36989e+06	-52389.1	1005.82	-29749.4	0.000000	0.000000	6.885111	0.013598	NaN	0.000000	0.001676	0.001794	28.0828	0.017075	0.002009	8.498949	-48.8813	14.6322	0.049353	0.883320	-0.229641	-0.231028	0.013598	8.498949	-0.230841	-412.847	-3.293828E-5	NaN
494	1.000000	0.926717	7.36989e+06	-52389.1	1005.82	-29749.4	0.000000	0.000000	6.927119	-0.046169	NaN	0.000000	0.001664	0.001813	28.0818	0.070200	0.002058	34.1133	89.4586	-163.773	0.017354	0.925410	-0.187631	-0.188937	-0.046169	34.1133	-0.186616	-78.9446	0.000585	NaN
494	1.000000	0.968722	7.36989e+06	-52389.1	1005.82	-29749.4	0.000000	0.000000	6.969126	0.009983	NaN	0.000000	0.001616	0.001792	28.0818	0.012825	0.002037	6.296540	45.6602	15.7056	0.041656	0.967402	-0.145625	-0.146946	0.009983	6.296540	-0.146814	-15.8358	-0.000630	NaN
494	1.000000	1.010766	7.36989e+06	-52389.1	1005.82	-29749.4	0.000000	0.000000	7.011171	0.024637	NaN	0.000000	0.001639	0.001711	28.0817	0.111098	0.002003	55.4593	9.059859	-164.489	-0.027228	1.009397	-0.103581	-0.104950	0.024637	55.4593	-0.103914	-2.226679	-0.011065	NaN
494	1.000000	1.052767	7.36989e+06	-52389.1	1005.82	-29749.4	0.000000	0.000000	7.053188	0.414933	NaN	0.000000	0.001625	0.001775	28.083	0.398885	0.001970	202.473	26.1781	12.6641	0.384555	1.051411	-0.061580	-0.062936	0.414933	202.473	-0.063117	-0.220807	-1.879163	NaN
494	1.000000	1.094781	7.36989e+06	-52389.1	1005.82	-29749.4	0.000000	0.000000	7.095338	3.727566	NaN	0.000000	0.001619	0.001755	28.0834	3.484493	0.001857	1876.73	17.4762	-162.232	3.736756	1.093423	-0.019566	-0.020924	3.727566	1876.73	-0.021056	-0.013362	-278.977	NaN
494	2.000000	1.123804	7.36989e+06	-52389.1	1005.82	-29749.4	0.000000	0.000000	7.124788	14.1217	NaN	0.000000	0.001594	0.001760	28.0833	13.0954	0.001732	7559.42	9.215064	6.736785	13.4539	1.123454	0.009457	0.009107	14.1217	7559.42	0.008055	0.007099	1989.12	81969
494	2.000000	1.134249	7.36989e+06	-52389.1	1005.82	-29749.4	0.000000	0.000000	7.136148	36.3469	NaN	0.000000	0.001596	0.001731	28.0818	26.0311	0.001842	14132.1	8.937813	178.637	36.5521	1.133940	0.019902	0.019593	36.3469	14132.1	0.017973	0.019457	1868.08	92564.5
494	2.000000	1.144715	7.36989e+06	-52389.1	1005.82	-29749.4	0.000000	0.000000	7.148298	77.2799	NaN	0.000000	0.001535	0.001730	28.0819	35.1397	0.001839	19106.1	3.596653	2.314021	75.1233	1.144292	0.030368	0.029945	77.2799	19106.1	0.027335	0.035400	2183.03	92777.4
494	2.000000	1.155151	7.36989e+06	-52389.1	1005.82	-29749.4	0.000000	0.000000	7.159954	106.958	NaN	0.000000	0.001593	0.001781	28.0818	43.8206	0.001789	24491.9	7.161329	176.033	104.922	1.154900	0.040804	0.040552	106.958	24491.9	0.037529	0.057797	1850.57	93076.8
494	2.000000	1.165664	7.36989e+06	-52389.1	1005.82	-29749.4	0.000000	0.000000	7.171798	139.338	NaN	0.000000	0.001627	0.001751	28.0831	51.7671	0.001772	29206.2	6.840356	-4.792156	137.841	1.165284	0.051317	0.050937	139.338	29206.2	0.047739	0.085551	1628.7	91229.2
494	2.000000	1.176237	7.36989e+06	-52389.1	1005.82	-29749.4	0.000000	0.000000	7.184003	179.009	NaN	0.000000	0.001590	0.001769	28.0831	60.9616	0.001885	32343.5	4.690499	176.499	181.611	1.175857	0.061890	0.061510	179.009	32343.5	0.057739	0.117825	1519.28	86087.9
494	2.000000	1.186629	7.36989e+06	-52389.1	1005.82	-29749.4	0.000000	0.000000	7.196491	229.973	NaN	0.000000	0.001613	0.001735	28.0833	68.4052	0.001865	36680.9	3.477090	-3.660678	227.339	1.186351	0.072282	0.072003	229.973	36680.9	0.067579	0.154381	1489.65	85293.6
494	2.000000	1.197139	7.36989e+06	-52389.1	1005.82	-29749.4	0.000000	0.000000	7.209153	282.307	NaN	0.000000	0.001525	0.001734	28.0831	75.4728	0.001721	43863.6	2.640422	175.994	281.63	1.196831	0.082792	0.082484	282.307	43863.6	0.077965	0.197988	1425.88	90065.4
494	2.000000	1.207565	7.36989e+06	-52389.1	1005.82	-29749.4	0.000000	0.000000	7.222180	345.523	NaN	0.000000	0.001521	0.001763	28.0816	86.257	0.001828	47180.8	4.910671	-6.699032	340.835	1.207290	0.093218	0.092943	345.523	47180.8	0.087726	0.243576	1418.55	87341.7
494	2.000000	1.218075	7.36989e+06	-52389.1	1005.82	-29749.4	0.000000	0.000000	7.235569	415.531	NaN	0.000000	0.001516	0.001740	28.0817	94.4624	0.001812	52122.1	5.945494	171.304	412.766	1.217703	0.103728	0.103356	415.531	52122.1	0.097749	0.294951	1408.82	87683.9