File: remote_trans/data/nanoindenter/0828-1/data/Data_2025-08-06,11h17m57s/2025-07-22_16-23-58_1_1161.txt
2025-07-22, 16:23:58, 1
Index	Phase	Displacement	Time	Pos X	Pos Y	Pos Z	Rot A	Rot B	Piezo Z	Force A	Force B	Gripper	Voltage A	Voltage B	Temperature	Amplitude force	Amplitude pos	Stiffness	Phase shift	Phase excitation	Force A raw	Displacement raw	HMax	HMax raw	Real Force	Real Stiffness	Contact Depth	Area	Hardness	Reduced Mod.
[#]	[#]	[um]	[s]	[um]	[um]	[um]	[m°]	[m°]	[um]	[uN]	[uN]	[V]	[V]	[V]	[°C]	[uN]	[um]	[N/m]	[°]	[°]	[uN]	[um]	[um]	[um]	[uN]	[N/m]	[um]	[um^2]	[MPa]	[MPa]
1161	1.000000	0.002589	7.37641e+06	-57539.1	1105.82	-29736.6	0.000000	0.000000	6.002780	-0.016820	NaN	0.000000	0.001633	0.001696	28.0816	0.201099	0.001078	186.622	117.683	-158.339	0.005802	0.001330	-1.119322	-1.120581	-0.016820	186.622	-1.119255	-9.088133E+14	1.850738E-17	NaN
1161	1.000000	0.044579	7.37641e+06	-57539.1	1105.82	-29736.6	0.000000	0.000000	6.044772	0.020890	NaN	0.000000	0.001650	0.001650	28.0815	0.068326	0.002001	34.1513	-95.2142	17.6882	0.022875	0.043235	-1.077332	-1.078677	0.020890	34.1513	-1.077791	-2.522600E+14	-8.280963E-17	NaN
1161	1.000000	0.086583	7.37641e+06	-57539.1	1105.82	-29736.6	0.000000	0.000000	6.086774	-0.029175	NaN	0.000000	0.001661	0.001665	28.0826	0.016689	0.001952	8.550772	-145.524	-162.59	-0.039815	0.085280	-1.035328	-1.036631	-0.029175	8.550772	-1.032769	-6.262188E+13	4.658846E-16	NaN
1161	1.000000	0.128562	7.37641e+06	-57539.1	1105.82	-29736.6	0.000000	0.000000	6.128751	-0.066677	NaN	0.000000	0.001660	0.001669	28.0826	0.080048	0.001966	40.7233	-138.542	18.4764	-0.071050	0.127258	-0.993349	-0.994653	-0.066677	40.7233	-0.992121	-1.776965E+13	3.752319E-15	NaN
1161	1.000000	0.170616	7.37641e+06	-57539.1	1105.82	-29736.6	0.000000	0.000000	6.170810	0.046143	NaN	0.000000	0.001674	0.001655	28.0827	0.033171	0.002094	15.8401	19.2527	-165.442	0.028522	0.169275	-0.951295	-0.952636	0.046143	15.8401	-0.953480	-5.357404E+12	-8.612946E-15	NaN
1161	1.000000	0.212630	7.37641e+06	-57539.1	1105.82	-29736.6	0.000000	0.000000	6.212821	-0.033076	NaN	0.000000	0.001657	0.001663	28.0824	0.048877	0.002044	23.9141	22.6105	15.7924	-0.091781	0.211249	-0.909281	-0.910662	-0.033076	23.9141	-0.908244	-1.313525E+12	2.518087E-14	NaN
1161	1.000000	0.254629	7.37641e+06	-57539.1	1105.82	-29736.6	0.000000	0.000000	6.254822	0.023643	NaN	0.000000	0.001668	0.001692	28.0811	0.052120	0.001877	27.7655	39.1639	-164.926	-0.033100	0.253373	-0.867282	-0.868538	0.023643	27.7655	-0.867921	-3.743817E+11	-6.315237E-14	NaN
1161	1.000000	0.296650	7.37641e+06	-57539.1	1105.82	-29736.6	0.000000	0.000000	6.296839	-0.067862	NaN	0.000000	0.001593	0.001688	28.0816	0.040213	0.001969	20.4201	70.9497	11.0504	-0.049575	0.295324	-0.825262	-0.826587	-0.067862	20.4201	-0.822769	-9.157127E+10	7.410819E-13	NaN
1161	1.000000	0.338674	7.37641e+06	-57539.1	1105.82	-29736.6	0.000000	0.000000	6.338864	-0.054070	NaN	0.000000	0.001595	0.001688	28.0824	0.107274	0.001990	53.9182	18.1911	-165.868	-0.076424	0.337341	-0.783237	-0.784570	-0.054070	53.9182	-0.782485	-2.600144E+10	2.079519E-12	NaN
1161	1.000000	0.380700	7.37641e+06	-57539.1	1105.82	-29736.6	0.000000	0.000000	6.380890	-0.038918	NaN	0.000000	0.001613	0.001713	28.0824	0.134832	0.001934	69.7251	33.1493	19.0063	-0.052322	0.379373	-0.741211	-0.742538	-0.038918	69.7251	-0.740793	-7.044506E+9	5.524532E-12	NaN
1161	1.000000	0.422742	7.37641e+06	-57539.1	1105.82	-29736.6	0.000000	0.000000	6.422930	-0.096772	NaN	0.000000	0.001591	0.001651	28.0824	0.148293	0.001893	78.3569	19.2274	-164.469	-0.046792	0.421397	-0.699169	-0.700514	-0.096772	78.3569	-0.698243	-1.851540E+9	5.226578E-11	NaN
1161	1.000000	0.464736	7.37641e+06	-57539.1	1105.82	-29736.6	0.000000	0.000000	6.464927	-0.038463	NaN	0.000000	0.001689	0.001632	28.081	0.063720	0.001907	33.4216	-161.141	15.4564	-0.064917	0.463357	-0.657175	-0.658554	-0.038463	33.4216	-0.656312	-4.942424E+8	7.782212E-11	NaN
1161	1.000000	0.506744	7.37641e+06	-57539.1	1105.82	-29736.6	0.000000	0.000000	6.506936	-0.000311	NaN	0.000000	0.001537	0.001700	28.0812	0.061647	0.001900	32.4532	159.635	-165.17	-0.062860	0.505430	-0.615167	-0.616481	-0.000311	32.4532	-0.615160	-1.346123E+8	2.311521E-12	NaN
1161	1.000000	0.548770	7.37641e+06	-57539.1	1105.82	-29736.6	0.000000	0.000000	6.548961	-0.031505	NaN	0.000000	0.001517	0.001687	28.0811	0.089986	0.001971	45.6665	-173.817	16.776	-0.076989	0.547433	-0.573141	-0.574478	-0.031505	45.6665	-0.572623	-3.490389E+7	9.026108E-10	NaN
1161	1.000000	0.590760	7.37641e+06	-57539.1	1105.82	-29736.6	0.000000	0.000000	6.590952	0.013854	NaN	0.000000	0.001603	0.001708	28.0811	0.119391	0.001991	59.9517	53.649	-165.38	-0.056125	0.589472	-0.531151	-0.532440	0.013854	59.9517	-0.531325	-9.3534e+06	-1.481185E-9	NaN
1161	1.000000	0.632805	7.37641e+06	-57539.1	1105.82	-29736.6	0.000000	0.000000	6.632993	-0.102688	NaN	0.000000	0.001551	0.001657	28.0824	0.043388	0.002230	19.4532	-80.6472	16.2058	-0.096010	0.631480	-0.489106	-0.490431	-0.102688	19.4532	-0.485147	-2.12591e+06	4.830322E-8	NaN
1161	1.000000	0.674852	7.37641e+06	-57539.1	1105.82	-29736.6	0.000000	0.000000	6.675042	-0.049982	NaN	0.000000	0.001612	0.001702	28.0827	0.107708	0.001978	54.4473	-121.075	-166.451	0.052118	0.673512	-0.447059	-0.448399	-0.049982	54.4473	-0.446370	-607027	8.233945E-8	NaN
1161	1.000000	0.716831	7.37641e+06	-57539.1	1105.82	-29736.6	0.000000	0.000000	6.717022	-0.032814	NaN	0.000000	0.001625	0.001637	28.0827	0.060722	0.001986	30.5813	-157.37	16.5938	0.002231	0.715528	-0.405080	-0.406383	-0.032814	30.5813	-0.404275	-153790	2.133693E-7	NaN
1161	1.000000	0.758851	7.37641e+06	-57539.1	1105.82	-29736.6	0.000000	0.000000	6.759043	-0.010482	NaN	0.000000	0.001601	0.001668	28.0816	0.049270	0.001847	26.6762	104.501	-166.695	-0.047925	0.757554	-0.363060	-0.364357	-0.010482	26.6762	-0.362765	-39065.8	2.683291E-7	NaN
1161	1.000000	0.800872	7.37641e+06	-57539.1	1105.82	-29736.6	0.000000	0.000000	6.801059	-0.122501	NaN	0.000000	0.001603	0.001675	28.0814	0.104914	0.001968	53.3189	169.043	15.7829	-0.094923	0.799591	-0.321039	-0.322320	-0.122501	53.3189	-0.319316	-9089.96	1.347649E-5	NaN
1161	1.000000	0.842863	7.37641e+06	-57539.1	1105.82	-29736.6	0.000000	0.000000	6.843051	-0.093889	NaN	0.000000	0.001582	0.001684	28.0813	0.056964	0.002008	28.369	61.5136	-166.153	0.026768	0.841591	-0.279048	-0.280320	-0.093889	28.369	-0.276566	-2094.59	4.482465E-5	NaN
1161	1.000000	0.884883	7.37641e+06	-57539.1	1105.82	-29736.6	0.000000	0.000000	6.885074	-0.032331	NaN	0.000000	0.001580	0.001679	28.0829	0.115659	0.002210	52.3375	46.8568	14.8685	-0.004296	0.883527	-0.237028	-0.238384	-0.032331	52.3375	-0.236565	-507.921	6.365284E-5	NaN
1161	1.000000	0.926900	7.37641e+06	-57539.1	1105.82	-29736.6	0.000000	0.000000	6.927088	-0.107956	NaN	0.000000	0.001599	0.001670	28.0828	0.032693	0.002101	15.5643	131.572	-164.01	-0.131993	0.925535	-0.195011	-0.196377	-0.107956	15.5643	-0.189809	-89.2973	0.001209	NaN
1161	1.000000	0.968921	7.37641e+06	-57539.1	1105.82	-29736.6	0.000000	0.000000	6.969109	-0.096323	NaN	0.000000	0.001620	0.001677	28.0827	0.062997	0.001960	32.1369	49.0048	17.6838	-0.091042	0.967596	-0.152990	-0.154315	-0.096323	32.1369	-0.150742	-18.6864	0.005155	NaN
1161	1.000000	1.010943	7.37641e+06	-57539.1	1105.82	-29736.6	0.000000	0.000000	7.011133	-0.032756	NaN	0.000000	0.001538	0.001676	28.0814	0.027315	0.002071	13.1905	122.932	-166.107	-0.037307	1.009625	-0.110969	-0.112286	-0.032756	13.1905	-0.109106	-2.877309	0.011384	NaN
1161	1.000000	1.052969	7.37641e+06	-57539.1	1105.82	-29736.6	0.000000	0.000000	7.053159	-0.050775	NaN	0.000000	0.001612	0.001687	28.0813	0.096207	0.001983	48.5079	-142.149	14.405	-0.127637	1.051634	-0.068942	-0.070277	-0.050775	48.5079	-0.068157	-0.304225	0.166898	NaN
1161	1.000000	1.094937	7.37641e+06	-57539.1	1105.82	-29736.6	0.000000	0.000000	7.095128	-0.039513	NaN	0.000000	0.001600	0.001711	28.0812	0.104168	0.001951	53.396	47.5636	-163.236	-0.101159	1.093693	-0.026974	-0.028219	-0.039513	53.396	-0.026419	-0.018387	2.149046	NaN
1161	2.000000	1.133115	7.37641e+06	-57539.1	1105.82	-29736.6	0.000000	0.000000	7.133667	8.746378	NaN	0.000000	0.001580	0.001662	28.0811	9.739210	0.001800	5409.45	9.114320	8.071037	8.304510	1.132742	0.011204	0.010831	8.746378	5409.45	0.009991	0.009172	953.617	51605.9
1161	2.000000	1.143544	7.37641e+06	-57539.1	1105.82	-29736.6	0.000000	0.000000	7.144794	25.7248	NaN	0.000000	0.001611	0.001662	28.0825	19.9644	0.001725	11574.3	7.960822	-179.34	25.8945	1.143211	0.021633	0.021300	25.7248	11574.3	0.019966	0.022488	1143.92	70516.7
1161	2.000000	1.153973	7.37641e+06	-57539.1	1105.82	-29736.6	0.000000	0.000000	7.156078	46.4957	NaN	0.000000	0.001604	0.001754	28.0826	30.1417	0.001854	16260.3	6.978791	-0.335534	44.499	1.153604	0.032062	0.031693	46.4957	16260.3	0.029918	0.040573	1145.98	73753.4
1161	2.000000	1.164407	7.37641e+06	-57539.1	1105.82	-29736.6	0.000000	0.000000	7.168015	83.0079	NaN	0.000000	0.001649	0.001706	28.0825	39.9763	0.001882	21242.7	4.599541	179.035	79.1288	1.164131	0.042496	0.042219	83.0079	21242.7	0.039565	0.062910	1319.47	77378.9
1161	2.000000	1.175001	7.37641e+06	-57539.1	1105.82	-29736.6	0.000000	0.000000	7.180222	122.226	NaN	0.000000	0.001626	0.001674	28.0816	47.6092	0.001687	28217.8	8.469395	-7.284556	124.354	1.174528	0.053090	0.052617	122.226	28217.8	0.049841	0.091923	1329.66	85032.3
1161	2.000000	1.185440	7.37641e+06	-57539.1	1105.82	-29736.6	0.000000	0.000000	7.192695	171.645	NaN	0.000000	0.001610	0.001754	28.0813	59.7836	0.001815	32937.2	2.821175	176.362	169.731	1.185124	0.063529	0.063213	171.645	32937.2	0.059621	0.124451	1379.21	85302.2
1161	2.000000	1.195875	7.37641e+06	-57539.1	1105.82	-29736.6	0.000000	0.000000	7.205514	229.599	NaN	0.000000	0.001570	0.001731	28.0815	69.9749	0.001707	40987.4	2.961628	-6.345990	224.678	1.195649	0.073964	0.073738	229.599	40987.4	0.069763	0.163124	1407.51	92718.2
1161	2.000000	1.206361	7.37641e+06	-57539.1	1105.82	-29736.6	0.000000	0.000000	7.219055	303.851	NaN	0.000000	0.001587	0.001696	28.0829	81.0103	0.001763	45942.1	5.795322	170.746	299.307	1.206001	0.084449	0.084090	303.851	45942.1	0.079489	0.204816	1483.53	92747.4
1161	2.000000	1.216941	7.37641e+06	-57539.1	1105.82	-29736.6	0.000000	0.000000	7.232240	367.168	NaN	0.000000	0.001605	0.001721	28.0826	90.2672	0.001791	50405.5	6.155423	-10.1179	366.725	1.216424	0.095029	0.094513	367.168	50405.5	0.089566	0.252665	1453.18	91617.6
1161	2.000000	1.227373	7.37641e+06	-57539.1	1105.82	-29736.6	0.000000	0.000000	7.245767	442.391	NaN	0.000000	0.001600	0.001750	28.0827	99.0527	0.001674	59174.8	4.920933	170.189	439.54	1.227171	0.105461	0.105260	442.391	59174.8	0.099854	0.306325	1444.19	97682.9
1161	2.000000	1.230211	7.37641e+06	-57539.1	1105.82	-29736.6	0.000000	0.000000	7.249420	462.204	NaN	0.000000	0.001624	0.001742	28.0827	102.904	0.001785	57659.1	8.069154	167.018	452.427	1.229999	0.108299	0.108088	462.204	57659.1	0.102287	0.319720	1445.65	93165.8