File: remote_trans/data/nanoindenter/0828-1/data/Data_2025-08-06,11h17m57s/2025-07-22_16-23-58_1_1030.txt
2025-07-22, 16:23:58, 1
Index	Phase	Displacement	Time	Pos X	Pos Y	Pos Z	Rot A	Rot B	Piezo Z	Force A	Force B	Gripper	Voltage A	Voltage B	Temperature	Amplitude force	Amplitude pos	Stiffness	Phase shift	Phase excitation	Force A raw	Displacement raw	HMax	HMax raw	Real Force	Real Stiffness	Contact Depth	Area	Hardness	Reduced Mod.
[#]	[#]	[um]	[s]	[um]	[um]	[um]	[m°]	[m°]	[um]	[uN]	[uN]	[V]	[V]	[V]	[°C]	[uN]	[um]	[N/m]	[°]	[°]	[uN]	[um]	[um]	[um]	[uN]	[N/m]	[um]	[um^2]	[MPa]	[MPa]
1030	1.000000	0.002738	7.37512e+06	-51639.1	1055.82	-29751.5	0.000000	0.000000	6.002764	0.021180	NaN	0.000000	0.001563	0.001601	28.0839	0.014899	0.000834	17.8588	127.33	-167.388	-0.019478	0.001546	-1.097058	-1.098250	0.021180	17.8588	-1.097947	-4.704500E+14	-4.502004E-17	NaN
1030	1.000000	0.044703	7.37512e+06	-51639.1	1055.82	-29751.5	0.000000	0.000000	6.044728	0.006381	NaN	0.000000	0.001594	0.001611	28.0838	0.146318	0.002017	72.5274	24.3085	9.332997	0.033840	0.043388	-1.055093	-1.056409	0.006381	72.5274	-1.055159	-1.252447E+14	-5.094710E-17	NaN
1030	1.000000	0.086737	7.37512e+06	-51639.1	1055.82	-29751.5	0.000000	0.000000	6.086760	-0.047840	NaN	0.000000	0.001643	0.001611	28.0834	0.085059	0.002082	40.8604	-39.1122	-167.665	-0.011753	0.085464	-1.013059	-1.014332	-0.047840	40.8604	-1.012181	-3.309278E+13	1.445628E-15	NaN
1030	1.000000	0.128747	7.37512e+06	-51639.1	1055.82	-29751.5	0.000000	0.000000	6.128771	-0.027037	NaN	0.000000	0.001595	0.001606	28.0847	0.053732	0.001939	27.7142	170.992	11.447	0.001677	0.127393	-0.971049	-0.972403	-0.027037	27.7142	-0.970317	-9.035208E+12	2.992361E-15	NaN
1030	1.000000	0.170769	7.37512e+06	-51639.1	1055.82	-29751.5	0.000000	0.000000	6.170790	-0.081546	NaN	0.000000	0.001610	0.001652	28.085	0.144323	0.001965	73.4639	-138.496	-164.123	-0.111093	0.169447	-0.929028	-0.930349	-0.081546	73.4639	-0.928195	-2.442511E+12	3.338599E-14	NaN
1030	1.000000	0.212791	7.37512e+06	-51639.1	1055.82	-29751.5	0.000000	0.000000	6.212816	-0.009196	NaN	0.000000	0.001522	0.001645	28.0849	0.007967	0.002046	3.893634	-111.711	14.1968	-0.071391	0.211434	-0.887005	-0.888362	-0.009196	3.893634	-0.885234	-6.419131E+11	1.432652E-14	NaN
1030	1.000000	0.254776	7.37512e+06	-51639.1	1055.82	-29751.5	0.000000	0.000000	6.254797	-0.100425	NaN	0.000000	0.001528	0.001591	28.0846	0.013250	0.001953	6.783731	33.9418	-165.876	-0.054311	0.253483	-0.845020	-0.846313	-0.100425	6.783731	-0.833917	-1.296786E+11	7.744177E-13	NaN
1030	1.000000	0.296826	7.37512e+06	-51639.1	1055.82	-29751.5	0.000000	0.000000	6.296852	0.026789	NaN	0.000000	0.001578	0.001653	28.0839	0.077370	0.001926	40.169	54.9737	12.2032	0.046671	0.295484	-0.802970	-0.804312	0.026789	40.169	-0.803470	-5.011481E+10	-5.345556E-13	NaN
1030	1.000000	0.338858	7.37512e+06	-51639.1	1055.82	-29751.5	0.000000	0.000000	6.338883	-0.002321	NaN	0.000000	0.001533	0.001654	28.0834	0.097947	0.002014	48.6382	-151.436	-165.152	0.002769	0.337523	-0.760938	-0.762274	-0.002321	48.6382	-0.760902	-1.323059E+10	1.754391E-13	NaN
1030	1.000000	0.380844	7.37512e+06	-51639.1	1055.82	-29751.5	0.000000	0.000000	6.380866	-0.055429	NaN	0.000000	0.001535	0.001665	28.0834	0.030424	0.002056	14.7962	45.1061	9.433534	-0.061907	0.379515	-0.718952	-0.720281	-0.055429	14.7962	-0.716143	-3.249840E+9	1.705578E-11	NaN
1030	1.000000	0.422852	7.37512e+06	-51639.1	1055.82	-29751.5	0.000000	0.000000	6.422875	-0.040803	NaN	0.000000	0.001594	0.001670	28.0848	0.038077	0.002019	18.8637	127.876	-168.692	-0.001169	0.421553	-0.676944	-0.678243	-0.040803	18.8637	-0.675322	-8.999505E+8	4.533954E-11	NaN
1030	1.000000	0.464872	7.37512e+06	-51639.1	1055.82	-29751.5	0.000000	0.000000	6.464896	-0.036029	NaN	0.000000	0.001642	0.001734	28.085	0.085630	0.001980	43.2487	107.679	14.0465	-0.065107	0.463495	-0.634924	-0.636301	-0.036029	43.2487	-0.634299	-2.466325E+8	1.460828E-10	NaN
1030	1.000000	0.506933	7.37513e+06	-51639.1	1055.82	-29751.5	0.000000	0.000000	6.506953	-0.122387	NaN	0.000000	0.001638	0.001689	28.0852	0.037197	0.001997	18.6219	-85.4872	-166.627	-0.156006	0.505618	-0.592863	-0.594178	-0.122387	18.6219	-0.587934	-5.677789E+7	2.155542E-9	NaN
1030	1.000000	0.548940	7.37513e+06	-51639.1	1055.82	-29751.5	0.000000	0.000000	6.548964	-0.006285	NaN	0.000000	0.001606	0.001697	28.0838	0.085123	0.002054	41.4402	63.452	12.5062	-0.028926	0.547569	-0.550856	-0.552227	-0.006285	41.4402	-0.550742	-1.738759E+7	3.614450E-10	NaN
1030	1.000000	0.590953	7.37513e+06	-51639.1	1055.82	-29751.5	0.000000	0.000000	6.590979	0.019334	NaN	0.000000	0.001550	0.001740	28.0836	0.023382	0.001759	13.2942	-154.398	-167.852	-0.025456	0.589598	-0.508843	-0.510199	0.019334	13.2942	-0.509934	-4.71512e+06	-4.100396E-9	NaN
1030	1.000000	0.632973	7.37513e+06	-51639.1	1055.82	-29751.5	0.000000	0.000000	6.632995	-0.058841	NaN	0.000000	0.001567	0.001742	28.0837	0.021262	0.002020	10.5265	133.321	11.2935	-0.071174	0.631629	-0.466823	-0.468168	-0.058841	10.5265	-0.462631	-1.02797e+06	5.724009E-8	NaN
1030	1.000000	0.674987	7.37513e+06	-51639.1	1055.82	-29751.5	0.000000	0.000000	6.675009	-0.062253	NaN	0.000000	0.001515	0.001729	28.0852	0.045117	0.001990	22.6744	-108.45	-166.041	-0.133515	0.673704	-0.424809	-0.426093	-0.062253	22.6744	-0.422750	-281450	2.211884E-7	NaN
1030	1.000000	0.717010	7.37513e+06	-51639.1	1055.82	-29751.5	0.000000	0.000000	6.717034	-0.023370	NaN	0.000000	0.001579	0.001707	28.0848	0.065718	0.001872	35.1135	-133.321	16.8903	-0.130032	0.715639	-0.382786	-0.384158	-0.023370	35.1135	-0.382287	-74592.6	3.133024E-7	NaN
1030	1.000000	0.759042	7.37513e+06	-51639.1	1055.82	-29751.6	0.000000	0.000000	6.759066	-0.001419	NaN	0.000000	0.001513	0.001694	28.0849	0.035027	0.001922	18.2274	-105.955	-164.949	-0.061202	0.757652	-0.340755	-0.342144	-0.001419	18.2274	-0.340696	-18693.9	7.592423E-8	NaN
1030	1.000000	0.801010	7.37513e+06	-51639.1	1055.82	-29751.6	0.000000	0.000000	6.801034	-0.029231	NaN	0.000000	0.001553	0.001696	28.084	0.050183	0.002105	23.8414	-130.981	14.7437	-0.074134	0.799672	-0.298786	-0.300124	-0.029231	23.8414	-0.297867	-4373.78	6.683275E-6	NaN
1030	1.000000	0.843058	7.37513e+06	-51639.1	1055.82	-29751.6	0.000000	0.000000	6.843080	-0.067225	NaN	0.000000	0.001554	0.001722	28.083	0.002625	0.002146	1.223659	-66.8828	-164.745	-0.057088	0.841803	-0.256739	-0.257993	-0.067225	1.223659	-0.215536	-235.573	0.000285	NaN
1030	1.000000	0.885073	7.37513e+06	-51639.1	1055.82	-29751.6	0.000000	0.000000	6.885093	-0.098638	NaN	0.000000	0.001579	0.001668	28.0828	0.091846	0.001840	49.9161	-92.6999	12.7411	-0.153612	0.883711	-0.214723	-0.216085	-0.098638	49.9161	-0.213241	-216.369	0.000456	NaN
1030	1.000000	0.927054	7.37513e+06	-51639.1	1055.82	-29751.6	0.000000	0.000000	6.927078	-0.024701	NaN	0.000000	0.001653	0.001674	28.083	0.043917	0.001925	22.814	-100.684	-168.578	-0.068654	0.925797	-0.172742	-0.173999	-0.024701	22.814	-0.171930	-44.3673	0.000557	NaN
1030	1.000000	0.969118	7.37513e+06	-51639.1	1055.82	-29751.6	0.000000	0.000000	6.969141	-0.057708	NaN	0.000000	0.001575	0.001639	28.0848	0.034886	0.001996	17.4781	163.602	13.1469	-0.109033	0.967787	-0.130678	-0.132009	-0.057708	17.4781	-0.128202	-7.030172	0.008209	NaN
1030	1.000000	1.011119	7.37513e+06	-51639.1	1055.82	-29751.6	0.000000	0.000000	7.011144	0.003003	NaN	0.000000	0.001533	0.001698	28.0847	0.048433	0.001933	25.0527	61.4928	-163.63	-0.033025	1.009807	-0.088677	-0.089989	0.003003	25.0527	-0.088767	-1.011084	-0.002970	NaN
1030	1.000000	1.053112	7.37513e+06	-51639.1	1055.82	-29751.6	0.000000	0.000000	7.053133	-0.092610	NaN	0.000000	0.001575	0.001703	28.085	0.102462	0.002024	50.6231	-132.883	11.4575	-0.059402	1.051775	-0.046685	-0.048021	-0.092610	50.6231	-0.045313	-0.065698	1.409634	NaN
1030	1.000000	1.095144	7.37513e+06	-51639.1	1055.82	-29751.6	0.000000	0.000000	7.095183	0.343784	NaN	0.000000	0.001559	0.001715	28.0836	0.501489	0.001902	263.635	14.4178	-165.73	-0.023740	1.093797	-0.004652	-0.005999	0.343784	263.635	-0.005630	-0.003809	-90.249	NaN
1030	2.000000	1.112109	7.37513e+06	-51639.1	1055.82	-29751.6	0.000000	0.000000	7.113176	25.3436	NaN	0.000000	0.001565	0.001764	28.0837	20.3732	0.001775	11475.5	7.650052	0.124366	23.3184	1.111795	0.012313	0.011999	25.3436	11475.5	0.010657	0.009920	2554.68	105264
1030	2.000000	1.122589	7.37513e+06	-51639.1	1055.82	-29751.6	0.000000	0.000000	7.124746	51.8536	NaN	0.000000	0.001619	0.001687	28.0832	30.3788	0.001831	16594	4.453078	-179.339	50.6007	1.122272	0.022793	0.022475	51.8536	16594	0.020449	0.023253	2229.97	99422.3
1030	2.000000	1.133080	7.37513e+06	-51639.1	1055.82	-29751.6	0.000000	0.000000	7.136612	85.2744	NaN	0.000000	0.001572	0.001681	28.0845	39.5555	0.001653	23926.7	3.058059	-1.333986	83.882	1.132830	0.033284	0.033033	85.2744	23926.7	0.030611	0.042019	2029.42	106643
1030	2.000000	1.143602	7.37513e+06	-51639.1	1055.82	-29751.6	0.000000	0.000000	7.149075	132.469	NaN	0.000000	0.001631	0.001688	28.0849	51.8106	0.001883	27507.7	5.325175	176.328	133.335	1.143254	0.043806	0.043458	132.469	27507.7	0.040194	0.064531	2052.8	98933.8
1030	2.000000	1.154065	7.37513e+06	-51639.1	1055.82	-29751.6	0.000000	0.000000	7.161880	189.432	NaN	0.000000	0.001617	0.001694	28.085	62.5518	0.001809	34574.4	8.535524	-10.1604	188.412	1.153750	0.054269	0.053954	189.432	34574.4	0.050159	0.092907	2038.96	103635
1030	2.000000	1.164620	7.37513e+06	-51639.1	1055.82	-29751.6	0.000000	0.000000	7.174502	239.701	NaN	0.000000	0.001604	0.001657	28.0849	73.0804	0.001841	39697.1	8.954620	168.956	245.375	1.164202	0.064824	0.064406	239.701	39697.1	0.060295	0.126868	1889.37	101825
1030	2.000000	1.174997	7.37513e+06	-51639.1	1055.82	-29751.6	0.000000	0.000000	7.187895	313.019	NaN	0.000000	0.001566	0.001645	28.0838	80.6778	0.001764	45748.5	0.846380	-3.677791	309.042	1.174670	0.075201	0.074874	313.019	45748.5	0.070069	0.164370	1904.36	103095
1030	2.000000	1.185581	7.37513e+06	-51639.1	1055.82	-29751.6	0.000000	0.000000	7.201386	383.706	NaN	0.000000	0.001573	0.001649	28.0835	93.2373	0.001820	51235.5	5.265358	170.912	385.696	1.185153	0.085785	0.085356	383.706	51235.5	0.080168	0.207891	1845.71	102666
1030	2.000000	1.195975	7.37513e+06	-51639.1	1055.82	-29751.6	0.000000	0.000000	7.215334	470.124	NaN	0.000000	0.001575	0.001680	28.0833	101.809	0.001858	54789	2.048199	-6.161299	463.823	1.195629	0.096179	0.095833	470.124	54789	0.089743	0.253547	1854.19	99411.6
1030	2.000000	1.202451	7.37513e+06	-51639.1	1055.82	-29751.6	0.000000	0.000000	7.223976	522.799	NaN	0.000000	0.001601	0.001678	28.0846	108.609	0.001821	59656.5	4.642705	171.069	520.045	1.202035	0.102655	0.102239	522.799	59656.5	0.096083	0.286092	1827.38	101901