File: remote_trans/data/nanoindenter/0828-1/data/Data_2025-08-06,11h17m57s/2025-07-22_16-23-58_1_67.txt
2025-07-22, 16:23:58, 1
Index	Phase	Displacement	Time	Pos X	Pos Y	Pos Z	Rot A	Rot B	Piezo Z	Force A	Force B	Gripper	Voltage A	Voltage B	Temperature	Amplitude force	Amplitude pos	Stiffness	Phase shift	Phase excitation	Force A raw	Displacement raw	HMax	HMax raw	Real Force	Real Stiffness	Contact Depth	Area	Hardness	Reduced Mod.
[#]	[#]	[um]	[s]	[um]	[um]	[um]	[m°]	[m°]	[um]	[uN]	[uN]	[V]	[V]	[V]	[°C]	[uN]	[um]	[N/m]	[°]	[°]	[uN]	[um]	[um]	[um]	[uN]	[N/m]	[um]	[um^2]	[MPa]	[MPa]
67	1.000000	0.002702	7.3657e+06	-41989.1	955.819	-29784.9	0.000000	0.000000	6.002805	0.007107	NaN	0.000000	0.001601	0.001649	28.0825	0.059852	0.001015	58.9456	-137.717	-166.167	0.051984	0.001495	-1.090393	-1.091600	0.007107	58.9456	-1.090484	-3.735152E+14	-1.902719E-17	NaN
67	1.000000	0.042648	7.3657e+06	-41989.1	955.818	-29784.9	0.000000	0.000000	6.042751	0.006229	NaN	0.000000	0.001603	0.001657	28.0822	0.071913	0.001927	37.3188	105.395	-165.544	0.039765	0.041327	-1.050447	-1.051768	0.006229	37.3188	-1.050572	-1.086682E+14	-5.732037E-17	NaN
67	1.000000	0.082681	7.3657e+06	-41989.1	955.818	-29784.9	0.000000	0.000000	6.082785	0.037019	NaN	0.000000	0.001578	0.001646	28.0817	0.108043	0.001972	54.7825	173.752	-170.238	0.011802	0.081387	-1.010414	-1.011708	0.037019	54.7825	-1.010921	-3.182555E+13	-1.163187E-15	NaN
67	1.000000	0.122678	7.3657e+06	-41989.1	955.819	-29784.9	0.000000	0.000000	6.122782	0.017822	NaN	0.000000	0.001580	0.001667	28.0818	0.069903	0.001953	35.801	159.504	-164.794	0.045615	0.121386	-0.970417	-0.971709	0.017822	35.801	-0.970790	-9.168841E+12	-1.943750E-15	NaN
67	1.000000	0.162690	7.3657e+06	-41989.1	955.819	-29784.8	0.000000	0.000000	6.162792	-0.017127	NaN	0.000000	0.001589	0.001657	28.083	0.179107	0.001962	91.2911	-137.88	-165.345	0.032322	0.161414	-0.930405	-0.931681	-0.017127	91.2911	-0.930264	-2.604721E+12	6.575477E-15	NaN
67	1.000000	0.202724	7.3657e+06	-41989.1	955.82	-29784.8	0.000000	0.000000	6.202825	-0.041392	NaN	0.000000	0.001625	0.001639	28.0812	0.010886	0.002034	5.351096	89.1083	-168.929	0.043082	0.201339	-0.890371	-0.891756	-0.041392	5.351096	-0.884570	-6.287813E+11	6.582829E-14	NaN
67	1.000000	0.242763	7.3657e+06	-41989.1	955.818	-29784.8	0.000000	0.000000	6.242866	-0.015208	NaN	0.000000	0.001647	0.001632	28.0819	0.134211	0.002014	66.6523	-114.346	-166.233	-0.005207	0.241457	-0.850332	-0.851638	-0.015208	66.6523	-0.850160	-2.152339E+11	7.065803E-14	NaN
67	1.000000	0.282759	7.3657e+06	-41989.1	955.819	-29784.8	0.000000	0.000000	6.282862	0.018937	NaN	0.000000	0.001547	0.001650	28.0816	0.047511	0.002073	22.9226	28.8731	-167.201	0.046679	0.281476	-0.810337	-0.811620	0.018937	22.9226	-0.810956	-6.332040E+10	-2.990651E-13	NaN
67	1.000000	0.322753	7.3657e+06	-41989.1	955.818	-29784.8	0.000000	0.000000	6.322856	-0.002067	NaN	0.000000	0.001635	0.001686	28.0829	0.083782	0.002066	40.5439	162.158	-165.523	-0.044017	0.321468	-0.770342	-0.771627	-0.002067	40.5439	-0.770304	-1.775975E+10	1.163654E-13	NaN
67	1.000000	0.362783	7.3657e+06	-41989.1	955.818	-29784.8	0.000000	0.000000	6.362886	-0.005649	NaN	0.000000	0.001586	0.001639	28.0821	0.011776	0.001975	5.962624	-1.283111	-165.98	0.004016	0.361487	-0.730312	-0.731608	-0.005649	5.962624	-0.729602	-4.958811E+9	1.139210E-12	NaN
67	1.000000	0.402781	7.3657e+06	-41989.1	955.818	-29784.8	0.000000	0.000000	6.402881	-0.067150	NaN	0.000000	0.001553	0.001670	28.0832	0.075979	0.001790	42.4542	-133.758	-166.503	0.079929	0.401511	-0.690314	-0.691584	-0.067150	42.4542	-0.689128	-1.389943E+9	4.831164E-11	NaN
67	1.000000	0.442828	7.3657e+06	-41989.1	955.818	-29784.8	0.000000	0.000000	6.442927	-0.079408	NaN	0.000000	0.001626	0.001651	28.0823	0.125529	0.002028	61.9129	-36.9754	-166.251	0.004398	0.441497	-0.650267	-0.651598	-0.079408	61.9129	-0.649305	-3.961988E+8	2.004249E-10	NaN
67	1.000000	0.482828	7.3657e+06	-41989.1	955.819	-29784.8	0.000000	0.000000	6.482930	-0.036648	NaN	0.000000	0.001561	0.001735	28.0841	0.082820	0.001998	41.4486	38.2302	-170.163	-0.056139	0.481549	-0.610267	-0.611546	-0.036648	41.4486	-0.609604	-1.128917E+8	3.246339E-10	NaN
67	1.000000	0.522881	7.3657e+06	-41989.1	955.819	-29784.8	0.000000	0.000000	6.522986	0.055648	NaN	0.000000	0.001540	0.001729	28.0817	0.090209	0.002108	42.8012	24.416	-165.406	0.085462	0.521507	-0.570214	-0.571589	0.055648	42.8012	-0.571190	-3.334781E+7	-1.668713E-9	NaN
67	1.000000	0.562884	7.3657e+06	-41989.1	955.819	-29784.8	0.000000	0.000000	6.562985	-0.053940	NaN	0.000000	0.001636	0.001738	28.0828	0.144287	0.002129	67.7753	-49.0425	-167.365	-0.074542	0.561601	-0.530211	-0.531494	-0.053940	67.7753	-0.529614	-8.85549e+06	6.091129E-9	NaN
67	1.000000	0.602867	7.3657e+06	-41989.1	955.818	-29784.8	0.000000	0.000000	6.602974	0.101187	NaN	0.000000	0.001659	0.001707	28.0822	0.132376	0.001933	68.4847	-65.003	-168.545	0.111090	0.601627	-0.490228	-0.491468	0.101187	68.4847	-0.491336	-2.59452e+06	-3.900035E-8	NaN
67	1.000000	0.642921	7.3657e+06	-41989.1	955.818	-29784.8	0.000000	0.000000	6.643024	0.007602	NaN	0.000000	0.001624	0.001657	28.0859	0.076821	0.002065	37.2036	151.616	-166.885	0.027947	0.641614	-0.450174	-0.451481	0.007602	37.2036	-0.450327	-690165	-1.101468E-8	NaN
67	1.000000	0.682911	7.3657e+06	-41989.1	955.818	-29784.8	0.000000	0.000000	6.683013	0.000468	NaN	0.000000	0.001610	0.001701	28.083	0.093165	0.002009	46.3691	-171.171	-164.993	-0.044391	0.681612	-0.410184	-0.411483	0.000468	46.3691	-0.410192	-186695	-2.505056E-9	NaN
67	1.000000	0.722916	7.3657e+06	-41989.1	955.818	-29784.8	0.000000	0.000000	6.723020	0.042644	NaN	0.000000	0.001587	0.001724	28.0853	0.121332	0.002084	58.2167	-2.718321	-168.895	0.057387	0.721646	-0.370179	-0.371449	0.042644	58.2167	-0.370729	-50888.3	-8.379932E-7	NaN
67	1.000000	0.762955	7.3657e+06	-41989.1	955.818	-29784.8	0.000000	0.000000	6.763057	-0.021801	NaN	0.000000	0.001550	0.001717	28.0835	0.060155	0.002018	29.8057	-116.203	-164.734	-0.034321	0.761657	-0.330140	-0.331438	-0.021801	29.8057	-0.329591	-12866.6	1.694365E-6	NaN
67	1.000000	0.802966	7.3657e+06	-41989.1	955.819	-29784.8	0.000000	0.000000	6.803069	0.019709	NaN	0.000000	0.001585	0.001751	28.0837	0.005459	0.001893	2.884213	-168.736	-164.563	-0.031285	0.801769	-0.290130	-0.291327	0.019709	2.884213	-0.295255	-3998.44	-4.929170E-6	NaN
67	1.000000	0.842976	7.3657e+06	-41989.1	955.818	-29784.8	0.000000	0.000000	6.843078	-0.018117	NaN	0.000000	0.001576	0.001727	28.0821	0.044095	0.002025	21.7759	91.1539	-168.954	0.093313	0.841668	-0.250119	-0.251427	-0.018117	21.7759	-0.249495	-807.528	2.243531E-5	NaN
67	1.000000	0.883011	7.3657e+06	-41989.1	955.818	-29784.8	0.000000	0.000000	6.883116	0.044263	NaN	0.000000	0.001573	0.001723	28.0839	0.004163	0.002047	2.033766	-165.471	-170.75	0.040930	0.881729	-0.210084	-0.211366	0.044263	2.033766	-0.226407	-351.288	-0.000126	NaN
67	1.000000	0.923011	7.3657e+06	-41989.1	955.818	-29784.8	0.000000	0.000000	6.923114	0.012312	NaN	0.000000	0.001579	0.001738	28.0846	0.117954	0.001995	59.128	-50.6937	-165.367	0.060280	0.921716	-0.170084	-0.171379	0.012312	59.128	-0.170240	-41.4747	-0.000297	NaN
67	1.000000	0.963062	7.3657e+06	-41989.1	955.819	-29784.8	0.000000	0.000000	6.963166	0.028756	NaN	0.000000	0.001589	0.001754	28.0845	0.037441	0.001909	19.6129	-136.296	-168.569	-0.002343	0.961736	-0.130033	-0.131359	0.028756	19.6129	-0.131133	-8.016361	-0.003587	NaN
67	1.000000	1.003071	7.3657e+06	-41989.1	955.819	-29784.8	0.000000	0.000000	7.003174	-0.007485	NaN	0.000000	0.001589	0.001759	28.0841	0.062234	0.001967	31.6342	-118.958	-167.431	-0.020314	1.001701	-0.090024	-0.091395	-0.007485	31.6342	-0.089846	-1.072037	0.006982	NaN
67	1.000000	1.043047	7.3657e+06	-41989.1	955.819	-29784.8	0.000000	0.000000	7.043148	-0.029001	NaN	0.000000	0.001589	0.001781	28.0832	0.080857	0.002016	40.1031	-159.222	-169.644	-0.047016	1.041743	-0.050048	-0.051352	-0.029001	40.1031	-0.049506	-0.088162	0.328955	NaN
67	1.000000	1.083061	7.3657e+06	-41989.1	955.819	-29784.8	0.000000	0.000000	7.083164	0.008029	NaN	0.000000	0.001562	0.001697	28.0829	0.057045	0.002086	27.3425	70.6868	-170.909	-0.064213	1.081763	-0.010034	-0.011332	0.008029	27.3425	-0.010255	-0.006533	-1.228977	NaN
67	2.000000	1.106640	7.3657e+06	-41989.1	955.819	-29784.8	0.000000	0.000000	7.107439	16.9507	NaN	0.000000	0.001560	0.001701	28.083	14.515	0.001875	7739.81	6.099519	-172.426	16.5515	1.106297	0.013545	0.013202	16.9507	7739.81	0.011902	0.011373	1490.44	66308.3
67	2.000000	1.116586	7.3657e+06	-41989.1	955.82	-29784.8	0.000000	0.000000	7.118263	38.2956	NaN	0.000000	0.001524	0.001720	28.0841	25.1093	0.001775	14148.2	7.941170	178.962	37.9157	1.116220	0.023491	0.023124	38.2956	14148.2	0.021461	0.024891	1538.54	81932.2
67	2.000000	1.126526	7.36571e+06	-41989.1	955.819	-29784.8	0.000000	0.000000	7.129482	69.4219	NaN	0.000000	0.001553	0.001714	28.0863	35.7618	0.001847	19365.7	3.662209	179.445	67.2251	1.126280	0.033431	0.033185	69.4219	19365.7	0.030743	0.042297	1641.29	86030.3
67	2.000000	1.136525	7.36571e+06	-41989.1	955.819	-29784.8	0.000000	0.000000	7.141025	106.984	NaN	0.000000	0.001648	0.001659	28.0845	44.6527	0.001728	25837.9	2.637630	177.446	104.759	1.136332	0.043430	0.043237	106.984	25837.9	0.040325	0.064871	1649.18	92684.1
67	2.000000	1.146514	7.36571e+06	-41989.1	955.819	-29784.8	0.000000	0.000000	7.153099	157.739	NaN	0.000000	0.001535	0.001674	28.0865	54.6256	0.001851	29504.7	6.057496	174.145	155.766	1.146188	0.053419	0.053093	157.739	29504.7	0.049409	0.090595	1741.13	89559.6
67	2.000000	1.156505	7.36571e+06	-41989.1	955.819	-29784.8	0.000000	0.000000	7.164934	202.571	NaN	0.000000	0.001568	0.001695	28.0833	63.9015	0.001697	37655.8	1.627003	176.525	201.008	1.156325	0.063410	0.063230	202.571	37655.8	0.059376	0.123579	1639.21	97866.3
67	2.000000	1.166505	7.36571e+06	-41989.1	955.82	-29784.8	0.000000	0.000000	7.177764	271.443	NaN	0.000000	0.001572	0.001726	28.0845	73.5357	0.001686	43626.7	5.009238	171.595	271.306	1.166146	0.073410	0.073051	271.443	43626.7	0.068744	0.159014	1707.04	99955.6
67	2.000000	1.176495	7.36571e+06	-41989.1	955.82	-29784.8	0.000000	0.000000	7.190492	338.069	NaN	0.000000	0.001548	0.001711	28.0846	82.0791	0.001813	45280.5	4.472921	172.236	336.682	1.176223	0.083400	0.083128	338.069	45280.5	0.077801	0.197260	1713.82	93146
67	2.000000	1.186524	7.36571e+06	-41989.1	955.819	-29784.8	0.000000	0.000000	7.203493	410.393	NaN	0.000000	0.001558	0.001648	28.0848	91.7552	0.001856	49441.3	6.254408	169.981	411.731	1.186343	0.093429	0.093248	410.393	49441.3	0.087203	0.241025	1702.7	92009.4
67	2.000000	1.196504	7.36571e+06	-41989.1	955.82	-29784.8	0.000000	0.000000	7.216986	495.864	NaN	0.000000	0.001550	0.001734	28.0854	100.161	0.001816	55162.8	5.307494	170.657	495.684	1.196058	0.103409	0.102963	495.864	55162.8	0.096667	0.289185	1714.69	93719.9
67	2.000000	1.199464	7.36571e+06	-41989.1	955.819	-29784.8	0.000000	0.000000	7.220979	520.979	NaN	0.000000	0.001513	0.001740	28.1154	103.015	0.001784	57756.9	2.593118	173.072	519.243	1.199168	0.106369	0.106073	520.979	57756.9	0.099604	0.304963	1708.34	95555.1