File: remote_trans/data/nanoindenter/0828-1/data/Data_2025-08-06,11h17m57s/2025-07-22_16-23-58_1_441.txt
2025-07-22, 16:23:58, 1
Index	Phase	Displacement	Time	Pos X	Pos Y	Pos Z	Rot A	Rot B	Piezo Z	Force A	Force B	Gripper	Voltage A	Voltage B	Temperature	Amplitude force	Amplitude pos	Stiffness	Phase shift	Phase excitation	Force A raw	Displacement raw	HMax	HMax raw	Real Force	Real Stiffness	Contact Depth	Area	Hardness	Reduced Mod.
[#]	[#]	[um]	[s]	[um]	[um]	[um]	[m°]	[m°]	[um]	[uN]	[uN]	[V]	[V]	[V]	[°C]	[uN]	[um]	[N/m]	[°]	[°]	[uN]	[um]	[um]	[um]	[uN]	[N/m]	[um]	[um^2]	[MPa]	[MPa]
441	1.000000	0.003207	7.36937e+06	-55039.1	1005.82	-29742.3	0.000000	0.000000	6.002819	0.009631	NaN	0.000000	0.001607	0.001741	28.0811	0.066050	0.001066	61.944	-111.004	-167.187	-0.019222	0.001941	-1.234792	-1.236058	0.009631	61.944	-1.234909	-3.221266E+16	-2.989678E-19	NaN
441	1.000000	0.049134	7.36937e+06	-55039.1	1005.82	-29742.3	0.000000	0.000000	6.048746	-0.016272	NaN	0.000000	0.001597	0.001689	28.0807	0.052793	0.001989	26.5432	-121.768	16.5915	-0.007243	0.047748	-1.188865	-1.190251	-0.016272	26.5432	-1.188405	-7.681796E+15	2.118311E-18	NaN
441	1.000000	0.095130	7.36937e+06	-55039.1	1005.82	-29742.3	0.000000	0.000000	6.094744	0.024463	NaN	0.000000	0.001611	0.001711	28.0807	0.042871	0.001994	21.4962	49.5445	-166.31	-0.019930	0.093818	-1.142869	-1.144181	0.024463	21.4962	-1.143722	-1.934876E+15	-1.264338E-17	NaN
441	1.000000	0.141195	7.36937e+06	-55039.1	1005.82	-29742.3	0.000000	0.000000	6.140808	0.037282	NaN	0.000000	0.001653	0.001727	28.0797	0.035274	0.002025	17.4198	32.4652	9.253119	0.046129	0.139809	-1.096805	-1.098190	0.037282	17.4198	-1.098410	-4.772222E+14	-7.812362E-17	NaN
441	1.000000	0.187228	7.36937e+06	-55039.1	1005.82	-29742.3	0.000000	0.000000	6.186839	-0.026027	NaN	0.000000	0.001609	0.001707	28.0793	0.042431	0.002057	20.6264	13.3339	-167.721	0.011791	0.185818	-1.050772	-1.052181	-0.026027	20.6264	-1.049825	-1.061857E+14	2.451079E-16	NaN
441	1.000000	0.233194	7.36937e+06	-55039.1	1005.82	-29742.3	0.000000	0.000000	6.232807	0.017465	NaN	0.000000	0.001635	0.001703	28.0799	0.054409	0.001981	27.4657	177.396	15.007	0.008299	0.231821	-1.004806	-1.006179	0.017465	27.4657	-1.005282	-2.672289E+13	-6.535678E-16	NaN
441	1.000000	0.279234	7.36937e+06	-55039.1	1005.82	-29742.3	0.000000	0.000000	6.278845	-0.030394	NaN	0.000000	0.001641	0.001694	28.0809	0.095245	0.002081	45.7608	123.984	-165.601	0.016275	0.277960	-0.958765	-0.960039	-0.030394	45.7608	-0.958267	-6.215934E+12	4.889644E-15	NaN
441	1.000000	0.325252	7.36937e+06	-55039.1	1005.82	-29742.3	0.000000	0.000000	6.324863	-0.008365	NaN	0.000000	0.001639	0.001706	28.081	0.048936	0.001988	24.6116	165.149	13.6779	0.034942	0.323854	-0.912748	-0.914146	-0.008365	24.6116	-0.912493	-1.499110E+12	5.579809E-15	NaN
441	1.000000	0.371258	7.36937e+06	-55039.1	1005.82	-29742.3	0.000000	0.000000	6.370870	-0.002788	NaN	0.000000	0.001643	0.001704	28.08	0.115603	0.002109	54.824	19.8526	-166.852	-0.013887	0.369931	-0.866742	-0.868068	-0.002788	54.824	-0.866704	-3.604483E+11	7.734968E-15	NaN
441	1.000000	0.417296	7.36937e+06	-55039.1	1005.82	-29742.3	0.000000	0.000000	6.416911	0.069635	NaN	0.000000	0.001610	0.001744	28.0797	0.035378	0.001930	18.332	-122.932	15.4166	0.019802	0.415930	-0.820704	-0.822070	0.069635	18.332	-0.823553	-9.383918E+10	-7.420694E-13	NaN
441	1.000000	0.463288	7.36937e+06	-55039.1	1005.82	-29742.3	0.000000	0.000000	6.462901	0.021444	NaN	0.000000	0.001662	0.001724	28.0799	0.121564	0.002012	60.4186	151.733	-162.064	0.028472	0.462000	-0.774711	-0.775999	0.021444	60.4186	-0.774978	-2.055762E+10	-1.043119E-12	NaN
441	1.000000	0.509313	7.36937e+06	-55039.1	1005.82	-29742.3	0.000000	0.000000	6.508925	0.000814	NaN	0.000000	0.001635	0.001720	28.0809	0.150823	0.001857	81.2005	28.5844	12.2786	0.009683	0.507980	-0.728687	-0.730019	0.000814	81.2005	-0.728694	-4.819571E+9	-1.688220E-13	NaN
441	1.000000	0.555331	7.36937e+06	-55039.1	1005.82	-29742.3	0.000000	0.000000	6.554942	-0.036845	NaN	0.000000	0.001628	0.001724	28.0811	0.071188	0.001888	37.6962	143.235	-166.365	-0.022504	0.554034	-0.682668	-0.683966	-0.036845	37.6962	-0.681935	-1.108334E+9	3.324320E-11	NaN
441	1.000000	0.601379	7.36937e+06	-55039.1	1005.82	-29742.3	0.000000	0.000000	6.600992	0.027711	NaN	0.000000	0.001670	0.001704	28.0812	0.068516	0.002122	32.2818	-27.817	12.5364	0.049598	0.600006	-0.636621	-0.637993	0.027711	32.2818	-0.637264	-2.708640E+8	-1.023062E-10	NaN
441	1.000000	0.647384	7.36937e+06	-55039.1	1005.82	-29742.3	0.000000	0.000000	6.646995	-0.015077	NaN	0.000000	0.001606	0.001737	28.0799	0.054179	0.001987	27.2707	90.715	-163.066	0.029921	0.646067	-0.590616	-0.591932	-0.015077	27.2707	-0.590201	-6.101539E+7	2.471026E-10	NaN
441	1.000000	0.693387	7.36937e+06	-55039.1	1005.82	-29742.3	0.000000	0.000000	6.693001	0.043432	NaN	0.000000	0.001640	0.001721	28.0797	0.126556	0.001974	64.1272	155.419	13.8118	0.028190	0.692043	-0.544613	-0.545957	0.043432	64.1272	-0.545121	-1.453286E+7	-2.988531E-9	NaN
441	1.000000	0.739444	7.36937e+06	-55039.1	1005.82	-29742.3	0.000000	0.000000	6.739056	-0.001881	NaN	0.000000	0.001649	0.001748	28.0799	0.044779	0.001969	22.7473	-150.911	-165.917	0.001186	0.738130	-0.498555	-0.499869	-0.001881	22.7473	-0.498493	-3.26582e+06	5.758575E-10	NaN
441	1.000000	0.785414	7.36938e+06	-55039.1	1005.82	-29742.3	0.000000	0.000000	6.785027	0.014010	NaN	0.000000	0.001592	0.001716	28.0811	0.169411	0.001941	87.2695	-34.1249	16.2866	-0.016820	0.784065	-0.452585	-0.453934	0.014010	87.2695	-0.452706	-745480	-1.879285E-8	NaN
441	1.000000	0.831437	7.36938e+06	-55039.1	1005.82	-29742.3	0.000000	0.000000	6.831047	-0.030793	NaN	0.000000	0.001615	0.001689	28.0812	0.048191	0.002029	23.7454	-142.07	-166.458	-0.006489	0.830153	-0.406563	-0.407847	-0.030793	23.7454	-0.405590	-160565	1.917799E-7	NaN
441	1.000000	0.877498	7.36938e+06	-55039.1	1005.82	-29742.3	0.000000	0.000000	6.877113	0.068377	NaN	0.000000	0.001615	0.001715	28.081	0.104579	0.002036	51.3535	18.7814	9.946584	0.074022	0.876151	-0.360502	-0.361849	0.068377	51.3535	-0.361500	-37456.5	-1.825507E-6	NaN
441	1.000000	0.923506	7.36938e+06	-55039.1	1005.82	-29742.3	0.000000	0.000000	6.923117	-0.027690	NaN	0.000000	0.001618	0.001686	28.0798	0.074101	0.002035	36.41	170.475	-164.937	-0.051899	0.922203	-0.314493	-0.315796	-0.027690	36.41	-0.313922	-7569.04	3.658375E-6	NaN
441	1.000000	0.969518	7.36938e+06	-55039.1	1005.82	-29742.3	0.000000	0.000000	6.969128	-0.028871	NaN	0.000000	0.001759	0.001686	28.0799	0.070328	0.001943	36.1923	-78.0214	16.1843	-0.009079	0.968182	-0.268482	-0.269817	-0.028871	36.1923	-0.267884	-1546.49	1.866856E-5	NaN
441	1.000000	1.015519	7.36938e+06	-55039.1	1005.82	-29742.3	0.000000	0.000000	7.015131	0.002410	NaN	0.000000	0.001754	0.001691	28.0798	0.023767	0.002024	11.7441	121.805	-166.026	0.017147	1.014281	-0.222481	-0.223719	0.002410	11.7441	-0.222635	-305.994	-7.876216E-6	NaN
441	1.000000	1.061554	7.36938e+06	-55039.1	1005.82	-29742.3	0.000000	0.000000	7.061165	-0.033963	NaN	0.000000	0.001735	0.001721	28.0813	0.017894	0.002079	8.605429	179.641	17.6575	-0.049579	1.060223	-0.176445	-0.177776	-0.033963	8.605429	-0.173485	-47.1967	0.000720	NaN
441	1.000000	1.107566	7.36938e+06	-55039.1	1005.82	-29742.3	0.000000	0.000000	7.107179	0.022827	NaN	0.000000	0.001753	0.001705	28.0812	0.177570	0.002006	88.5337	130.892	-165.031	-0.014017	1.106270	-0.130434	-0.131730	0.022827	88.5337	-0.130627	-7.837497	-0.002913	NaN
441	1.000000	1.153625	7.36938e+06	-55039.1	1005.82	-29742.3	0.000000	0.000000	7.153238	0.014432	NaN	0.000000	0.001777	0.001689	28.0811	0.025383	0.001920	13.2167	-89.5764	14.288	-0.020121	1.152285	-0.084374	-0.085714	0.014432	13.2167	-0.085193	-0.830520	-0.017377	NaN
441	1.000000	1.199625	7.36938e+06	-55039.1	1005.82	-29742.3	0.000000	0.000000	7.199237	0.006366	NaN	0.000000	0.001810	0.001693	28.0798	0.075686	0.002030	37.2749	-178.528	-162.814	0.012703	1.198306	-0.038375	-0.039694	0.006366	37.2749	-0.038503	-0.040739	-0.156260	NaN
441	1.000000	1.245641	7.36938e+06	-55039.1	1005.82	-29742.3	0.000000	0.000000	7.245339	2.091183	NaN	0.000000	0.001776	0.001695	28.0799	2.047450	0.001810	1131.43	5.191945	12.6368	1.165710	1.244255	0.007642	0.006256	2.091183	1131.43	0.006256	0.005309	393.916	14187.5
441	2.000000	1.262212	7.36938e+06	-55039.1	1005.82	-29742.3	0.000000	0.000000	7.262861	25.2098	NaN	0.000000	0.001660	0.001707	28.0802	12.0176	0.001811	6636.21	7.549303	-175.662	24.5501	1.261915	0.024213	0.023916	25.2098	6636.21	0.021364	0.024731	1019.37	38554.5
441	2.000000	1.273671	7.36938e+06	-55039.1	1005.82	-29742.3	0.000000	0.000000	7.275175	46.0006	NaN	0.000000	0.001688	0.001723	28.0813	23.769	0.001905	12474.8	2.779659	5.213353	44.4296	1.273296	0.035671	0.035296	46.0006	12474.8	0.032906	0.046982	979.118	52582.5
441	2.000000	1.285124	7.36938e+06	-55039.1	1005.82	-29742.3	0.000000	0.000000	7.287781	74.027	NaN	0.000000	0.001678	0.001704	28.081	33.7322	0.001727	19536.8	4.370995	179.195	72.7578	1.284804	0.047125	0.046805	74.027	19536.8	0.044283	0.075565	979.649	64933.2
441	2.000000	1.296703	7.36938e+06	-55039.1	1005.82	-29742.3	0.000000	0.000000	7.300748	107.777	NaN	0.000000	0.001765	0.001662	28.081	44.2624	0.001782	24835.6	4.097969	-1.240664	109.695	1.296320	0.058703	0.058320	107.777	24835.6	0.055449	0.109995	979.836	68416.6
441	2.000000	1.308097	7.36938e+06	-55039.1	1005.82	-29742.3	0.000000	0.000000	7.314172	157.114	NaN	0.000000	0.001726	0.001641	28.08	53.0436	0.001724	30759.8	7.273241	174.249	157.323	1.307719	0.070098	0.069720	157.114	30759.8	0.066267	0.149234	1052.8	72748.4
441	2.000000	1.319644	7.36938e+06	-55039.1	1005.82	-29742.3	0.000000	0.000000	7.327593	202.663	NaN	0.000000	0.001707	0.001652	28.0796	64.4238	0.001934	33310.5	5.308085	-5.011377	202.318	1.319290	0.081645	0.081290	202.663	33310.5	0.077082	0.194084	1044.2	69081.1
441	2.000000	1.331007	7.36938e+06	-55039.1	1005.82	-29742.3	0.000000	0.000000	7.341469	263.772	NaN	0.000000	0.001715	0.001658	28.0798	73.8391	0.001768	41753.3	5.067699	172.974	259.308	1.330799	0.093007	0.092800	263.772	41753.3	0.088269	0.246244	1071.18	76874.3
441	2.000000	1.342576	7.36938e+06	-55039.1	1005.82	-29742.3	0.000000	0.000000	7.356155	339.516	NaN	0.000000	0.001760	0.001680	28.0811	83.9517	0.001807	46468.2	5.549702	-8.137760	335.564	1.342273	0.104577	0.104273	339.516	46468.2	0.099097	0.302211	1123.44	77227.9
441	2.000000	1.351042	7.36938e+06	-55039.1	1005.82	-29742.3	0.000000	0.000000	7.366831	393.263	NaN	0.000000	0.001750	0.001651	28.0808	93.3059	0.001901	49083.7	6.452017	170.689	391.81	1.350736	0.113042	0.112736	393.263	49083.7	0.107033	0.346621	1134.56	76169.9