File: remote_trans/data/nanoindenter/0828-1/data/Data_2025-08-06,11h17m57s/2025-07-22_16-23-58_1_385.txt
2025-07-22, 16:23:58, 1
Index	Phase	Displacement	Time	Pos X	Pos Y	Pos Z	Rot A	Rot B	Piezo Z	Force A	Force B	Gripper	Voltage A	Voltage B	Temperature	Amplitude force	Amplitude pos	Stiffness	Phase shift	Phase excitation	Force A raw	Displacement raw	HMax	HMax raw	Real Force	Real Stiffness	Contact Depth	Area	Hardness	Reduced Mod.
[#]	[#]	[um]	[s]	[um]	[um]	[um]	[m°]	[m°]	[um]	[uN]	[uN]	[V]	[V]	[V]	[°C]	[uN]	[um]	[N/m]	[°]	[°]	[uN]	[um]	[um]	[um]	[uN]	[N/m]	[um]	[um^2]	[MPa]	[MPa]
385	1.000000	0.002479	7.36883e+06	-57839.1	1005.82	-29739.9	0.000000	0.000000	6.002784	0.029146	NaN	0.000000	0.001618	0.001646	28.0786	0.030765	0.000951	32.3438	48.0251	-165.202	0.060071	0.001242	-1.293745	-1.294983	0.029146	32.3438	-1.294421	-2.012970E+17	-1.447896E-19	NaN
385	1.000000	0.050447	7.36883e+06	-57839.1	1005.82	-29739.9	0.000000	0.000000	6.050755	0.112319	NaN	0.000000	0.001625	0.001610	28.0788	0.046444	0.001779	26.103	-122.968	-166.306	0.044009	0.049130	-1.245777	-1.247094	0.112319	26.103	-1.249005	-4.972839E+16	-2.258642E-18	NaN
385	1.000000	0.098469	7.36883e+06	-57839.1	1005.82	-29739.9	0.000000	0.000000	6.098772	-0.005466	NaN	0.000000	0.001564	0.001579	28.0788	0.037140	0.002014	18.4374	109.287	-165.442	0.017793	0.097124	-1.197756	-1.199100	-0.005466	18.4374	-1.197533	-1.017921E+16	5.370074E-19	NaN
385	1.000000	0.146447	7.36883e+06	-57839.1	1005.82	-29739.9	0.000000	0.000000	6.146749	-0.039841	NaN	0.000000	0.001559	0.001637	28.0802	0.061006	0.002004	30.4375	94.4975	-163.575	0.014102	0.145190	-1.149777	-1.151034	-0.039841	30.4375	-1.148795	-2.262912E+15	1.760618E-17	NaN
385	1.000000	0.194484	7.36883e+06	-57839.1	1005.82	-29739.9	0.000000	0.000000	6.194789	0.038922	NaN	0.000000	0.001520	0.001625	28.08	0.096227	0.001961	49.0621	-137.134	-167.858	0.037111	0.193178	-1.101740	-1.103046	0.038922	49.0621	-1.102335	-5.387774E+14	-7.224147E-17	NaN
385	1.000000	0.242532	7.36883e+06	-57839.1	1005.82	-29739.9	0.000000	0.000000	6.242837	0.038537	NaN	0.000000	0.001539	0.001646	28.0789	0.069472	0.001994	34.8345	25.448	-166.309	0.086614	0.241167	-1.053692	-1.055057	0.038537	34.8345	-1.054522	-1.227993E+14	-3.138184E-16	NaN
385	1.000000	0.290555	7.36883e+06	-57839.1	1005.82	-29739.9	0.000000	0.000000	6.290858	-0.021605	NaN	0.000000	0.001576	0.001606	28.0787	0.075682	0.002066	36.6397	0.225253	-165.751	0.027116	0.289217	-1.005669	-1.007007	-0.021605	36.6397	-1.005227	-2.667705E+13	8.098907E-16	NaN
385	1.000000	0.338595	7.36883e+06	-57839.1	1005.82	-29739.9	0.000000	0.000000	6.338898	-0.007577	NaN	0.000000	0.001570	0.001622	28.0789	0.032725	0.001903	17.1939	109.464	-165.019	0.054740	0.337266	-0.957629	-0.958959	-0.007577	17.1939	-0.957299	-6.031845E+12	1.256226E-15	NaN
385	1.000000	0.386565	7.36883e+06	-57839.1	1005.82	-29739.9	0.000000	0.000000	6.386870	0.037798	NaN	0.000000	0.001606	0.001642	28.08	0.113499	0.002044	55.5245	-169.175	-165.255	0.072287	0.385211	-0.909659	-0.911013	0.037798	55.5245	-0.910170	-1.394617E+12	-2.710281E-14	NaN
385	1.000000	0.434565	7.36883e+06	-57839.1	1005.82	-29739.9	0.000000	0.000000	6.434868	0.001250	NaN	0.000000	0.001620	0.001612	28.0801	0.066117	0.001948	33.9334	166.362	-162.138	0.007358	0.433351	-0.861660	-0.862873	0.001250	33.9334	-0.861687	-3.082885E+11	-4.053882E-15	NaN
385	1.000000	0.482623	7.36883e+06	-57839.1	1005.82	-29739.9	0.000000	0.000000	6.482928	0.049278	NaN	0.000000	0.001613	0.001605	28.0799	0.092929	0.002119	43.8525	57.8066	-167.998	-0.009185	0.481311	-0.813602	-0.814914	0.049278	43.8525	-0.814444	-7.060967E+10	-6.978952E-13	NaN
385	1.000000	0.530666	7.36883e+06	-57839.1	1005.82	-29739.9	0.000000	0.000000	6.530973	0.065900	NaN	0.000000	0.001625	0.001590	28.0789	0.078289	0.001848	42.3678	18.3236	-164.496	0.005478	0.529322	-0.765558	-0.766902	0.065900	42.3678	-0.766724	-1.587687E+10	-4.150721E-12	NaN
385	1.000000	0.578669	7.36883e+06	-57839.1	1005.82	-29739.9	0.000000	0.000000	6.578975	0.050990	NaN	0.000000	0.001560	0.001601	28.0787	0.053987	0.001955	27.6159	67.5647	-163.822	-0.011501	0.577341	-0.717555	-0.718883	0.050990	27.6159	-0.718940	-3.548234E+9	-1.437039E-11	NaN
385	1.000000	0.626677	7.36883e+06	-57839.1	1005.82	-29739.9	0.000000	0.000000	6.626981	0.031934	NaN	0.000000	0.001552	0.001659	28.0788	0.064943	0.001868	34.7586	171.087	-163.508	-0.100408	0.625391	-0.669548	-0.670833	0.031934	34.7586	-0.670237	-7.667063E+8	-4.165052E-11	NaN
385	1.000000	0.674722	7.36883e+06	-57839.1	1005.82	-29739.9	0.000000	0.000000	6.675025	-0.014512	NaN	0.000000	0.001591	0.001695	28.0799	0.026557	0.002007	13.2322	-134.17	-165.379	0.000147	0.673388	-0.621502	-0.622837	-0.014512	13.2322	-0.620680	-1.603165E+8	9.052234E-11	NaN
385	1.000000	0.722742	7.36883e+06	-57839.1	1005.82	-29739.9	0.000000	0.000000	6.723047	0.039658	NaN	0.000000	0.001627	0.001684	28.0799	0.019453	0.002049	9.495806	101.518	-162.45	0.062827	0.721382	-0.573483	-0.574842	0.039658	9.495806	-0.576615	-3.962756E+7	-1.000765E-9	NaN
385	1.000000	0.770723	7.36883e+06	-57839.1	1005.82	-29739.9	0.000000	0.000000	6.771030	0.078895	NaN	0.000000	0.001598	0.001674	28.0799	0.033634	0.002063	16.3068	-179.342	-165.279	0.072181	0.769437	-0.525501	-0.526787	0.078895	16.3068	-0.529130	-8.7195e+06	-9.048061E-9	NaN
385	1.000000	0.818783	7.36883e+06	-57839.1	1005.82	-29739.9	0.000000	0.000000	6.819089	0.058526	NaN	0.000000	0.001633	0.001688	28.0789	0.069904	0.002036	34.3345	18.9663	-167.518	-0.042275	0.817477	-0.477441	-0.478747	0.058526	34.3345	-0.478720	-1.72822e+06	-3.386462E-8	NaN
385	1.000000	0.866753	7.36883e+06	-57839.1	1005.82	-29739.9	0.000000	0.000000	6.867055	-0.026285	NaN	0.000000	0.001638	0.001653	28.0786	0.152908	0.002124	71.98	170.975	-165.356	-0.084170	0.865475	-0.429471	-0.430749	-0.026285	71.98	-0.429197	-347300	7.568446E-8	NaN
385	1.000000	0.914797	7.36883e+06	-57839.1	1005.82	-29739.9	0.000000	0.000000	6.915101	0.009472	NaN	0.000000	0.001615	0.001675	28.0788	0.006853	0.001994	3.436244	-175.687	-165.221	-0.028234	0.913471	-0.381427	-0.382753	0.009472	3.436244	-0.383494	-77626.3	-1.220210E-7	NaN
385	1.000000	0.962814	7.36883e+06	-57839.1	1005.82	-29739.9	0.000000	0.000000	6.963119	0.022811	NaN	0.000000	0.001631	0.001634	28.0798	0.071227	0.002020	35.2598	160.467	-166.712	-0.022080	0.961583	-0.333410	-0.334641	0.022811	35.2598	-0.333895	-14874.4	-1.533571E-6	NaN
385	1.000000	1.010845	7.36883e+06	-57839.1	1005.82	-29739.9	0.000000	0.000000	7.011148	-0.011576	NaN	0.000000	0.001631	0.001630	28.0798	0.011937	0.001942	6.145580	-151.865	-165.496	-0.067165	1.009545	-0.285379	-0.286679	-0.011576	6.145580	-0.283967	-2708.47	4.274145E-6	NaN
385	1.000000	1.058845	7.36883e+06	-57839.1	1005.82	-29739.9	0.000000	0.000000	7.059147	-0.017624	NaN	0.000000	0.001603	0.001677	28.0796	0.085692	0.002041	41.976	-24.6036	-164.203	-0.029290	1.057590	-0.237380	-0.238635	-0.017624	41.976	-0.237065	-517.171	3.407831E-5	NaN
385	1.000000	1.106872	7.36883e+06	-57839.1	1005.82	-29739.9	0.000000	0.000000	7.107175	-0.034866	NaN	0.000000	0.001609	0.001649	28.0787	0.077342	0.001935	39.9789	-172.684	-162.948	-0.010700	1.105551	-0.189352	-0.190673	-0.034866	39.9789	-0.188698	-85.5555	0.000408	NaN
385	1.000000	1.154906	7.36883e+06	-57839.1	1005.82	-29739.9	0.000000	0.000000	7.155212	0.069285	NaN	0.000000	0.001558	0.001657	28.0782	0.081545	0.002086	39.0873	109.401	-162.737	0.101994	1.153609	-0.141318	-0.142615	0.069285	39.0873	-0.142648	-13.2586	-0.005226	NaN
385	1.000000	1.202939	7.36883e+06	-57839.1	1005.82	-29739.9	0.000000	0.000000	7.203245	0.069813	NaN	0.000000	0.001587	0.001658	28.0797	0.062788	0.001927	32.5868	27.6366	-162.592	0.057765	1.201628	-0.093286	-0.094596	0.069813	32.5868	-0.094892	-1.402696	-0.049771	NaN
385	1.000000	1.250953	7.36883e+06	-57839.1	1005.82	-29739.9	0.000000	0.000000	7.251261	0.113311	NaN	0.000000	0.001585	0.001695	28.0798	0.053274	0.001949	27.3321	36.8423	-165.583	0.150931	1.249651	-0.045271	-0.046573	0.113311	27.3321	-0.048380	-0.081493	-1.390434	NaN
385	1.000000	1.298947	7.36883e+06	-57839.1	1005.82	-29739.9	0.000000	0.000000	7.299309	1.409638	NaN	0.000000	0.001642	0.001712	28.0801	0.617340	0.001986	310.865	8.629721	-162.117	1.409685	1.297650	0.002723	0.001426	1.409638	310.865	-0.000678	-0.000500	-2819.96	NaN
385	2.000000	1.337509	7.36883e+06	-57839.1	1005.82	-29739.9	0.000000	0.000000	7.338192	9.224593	NaN	0.000000	0.001668	0.001656	28.0791	2.828707	0.001934	1462.52	13.1231	-171.2	9.344535	1.337208	0.041285	0.040984	9.224593	1462.52	0.036554	0.055427	166.427	5675.62
385	2.000000	1.349452	7.36883e+06	-57839.1	1005.82	-29739.9	0.000000	0.000000	7.350236	11.6649	NaN	0.000000	0.001697	0.001673	28.079	3.179473	0.002009	1582.23	9.283740	-167.75	11.8052	1.349140	0.053228	0.052915	11.6649	1582.23	0.047698	0.085432	136.539	4945.73
385	2.000000	1.361434	7.36883e+06	-57839.1	1005.82	-29739.9	0.000000	0.000000	7.362387	15.796	NaN	0.000000	0.001629	0.001648	28.0783	4.187261	0.002072	2020.99	12.066	-169.501	15.7012	1.361085	0.065210	0.064861	15.796	2020.99	0.059348	0.123480	127.924	5254.61
385	2.000000	1.373395	7.36883e+06	-57839.1	1005.82	-29739.9	0.000000	0.000000	7.374664	23.4491	NaN	0.000000	0.001621	0.001684	28.0799	5.614194	0.001850	3035.06	7.993965	-169.031	23.0918	1.373054	0.077171	0.076830	23.4491	3035.06	0.071377	0.169733	138.153	6730.67
385	2.000000	1.385383	7.36883e+06	-57839.1	1005.82	-29739.9	0.000000	0.000000	7.387019	32.3744	NaN	0.000000	0.001609	0.001695	28.0795	7.361713	0.002040	3608.14	10.1908	-171.225	32.1932	1.385034	0.089159	0.088810	32.3744	3608.14	0.082430	0.218293	148.307	7055.64
385	2.000000	1.397370	7.36883e+06	-57839.1	1005.82	-29739.9	0.000000	0.000000	7.399393	41.808	NaN	0.000000	0.001545	0.001641	28.0797	8.542461	0.002038	4191.27	9.772771	-170.324	41.7982	1.397102	0.101146	0.100878	41.808	4191.27	0.093664	0.273460	152.885	7322.71
385	2.000000	1.409327	7.36884e+06	-57839.1	1005.82	-29739.9	0.000000	0.000000	7.411820	53.1928	NaN	0.000000	0.001552	0.001678	28.0783	9.230721	0.001890	4884.4	5.329849	-169.088	52.9003	1.409034	0.113103	0.112810	53.1928	4884.4	0.104935	0.334603	158.973	7714.7
385	2.000000	1.421335	7.36884e+06	-57839.1	1005.82	-29739.9	0.000000	0.000000	7.424366	66.2809	NaN	0.000000	0.001565	0.001710	28.0785	10.0183	0.001942	5157.72	5.891750	-169.046	65.7873	1.421022	0.125111	0.124797	66.2809	5157.72	0.115473	0.396983	166.962	7479.03
385	2.000000	1.432830	7.36884e+06	-57839.1	1005.82	-29739.9	0.000000	0.000000	7.436397	79.316	NaN	0.000000	0.001657	0.001705	28.0782	11.5669	0.002003	5774.85	9.695385	5.577850	78.9186	1.432458	0.136606	0.136234	79.316	5774.85	0.126305	0.466357	170.076	7726