File: remote_trans/data/nanoindenter/0828-1/data/Data_2025-08-06,11h17m57s/2025-07-22_16-23-58_1_1027.txt
2025-07-22, 16:23:58, 1
Index	Phase	Displacement	Time	Pos X	Pos Y	Pos Z	Rot A	Rot B	Piezo Z	Force A	Force B	Gripper	Voltage A	Voltage B	Temperature	Amplitude force	Amplitude pos	Stiffness	Phase shift	Phase excitation	Force A raw	Displacement raw	HMax	HMax raw	Real Force	Real Stiffness	Contact Depth	Area	Hardness	Reduced Mod.
[#]	[#]	[um]	[s]	[um]	[um]	[um]	[m°]	[m°]	[um]	[uN]	[uN]	[V]	[V]	[V]	[°C]	[uN]	[um]	[N/m]	[°]	[°]	[uN]	[um]	[um]	[um]	[uN]	[N/m]	[um]	[um^2]	[MPa]	[MPa]
1027	1.000000	0.002475	7.37509e+06	-51489.1	1055.82	-29752.1	0.000000	0.000000	6.002792	0.064241	NaN	0.000000	0.001744	0.001792	28.0845	0.143934	0.001025	140.421	72.6328	-162.579	0.073546	0.001234	-1.091936	-1.093177	0.064241	140.421	-1.092279	-3.948295E+14	-1.627063E-16	NaN
1027	1.000000	0.044439	7.37509e+06	-51489.1	1055.82	-29752.1	0.000000	0.000000	6.044759	0.126094	NaN	0.000000	0.001731	0.001818	28.0843	0.074933	0.001889	39.6693	-170.534	13.6205	0.064854	0.043036	-1.049972	-1.051375	0.126094	39.6693	-1.052356	-1.148377E+14	-1.098019E-15	NaN
1027	1.000000	0.086444	7.37509e+06	-51489.1	1055.82	-29752.1	0.000000	0.000000	6.086760	0.036098	NaN	0.000000	0.001684	0.001808	28.0841	0.081623	0.001944	41.9838	47.0055	-168.674	0.114816	0.085119	-1.007967	-1.009291	0.036098	41.9838	-1.008612	-2.962781E+13	-1.218372E-15	NaN
1027	1.000000	0.128454	7.37509e+06	-51489.1	1055.82	-29752.1	0.000000	0.000000	6.128768	0.001639	NaN	0.000000	0.001694	0.001769	28.0829	0.064037	0.002254	28.4157	-163.577	12.1253	0.009740	0.127049	-0.965957	-0.967361	0.001639	28.4157	-0.966000	-7.902381E+12	-2.073836E-16	NaN
1027	1.000000	0.170478	7.37509e+06	-51489.1	1055.82	-29752.1	0.000000	0.000000	6.170794	0.042617	NaN	0.000000	0.001701	0.001744	28.0828	0.082528	0.002025	40.7575	-39.0169	-164.756	0.014050	0.169180	-0.923933	-0.925231	0.042617	40.7575	-0.924717	-2.192245E+12	-1.943973E-14	NaN
1027	1.000000	0.212518	7.37509e+06	-51489.1	1055.82	-29752.1	0.000000	0.000000	6.212837	0.100902	NaN	0.000000	0.001660	0.001774	28.0828	0.010834	0.002023	5.355452	-40.686	13.6176	0.117205	0.211131	-0.881893	-0.883280	0.100902	5.355452	-0.896024	-8.981187E+11	-1.123482E-13	NaN
1027	1.000000	0.254520	7.37509e+06	-51489.1	1055.82	-29752.1	0.000000	0.000000	6.254837	0.049195	NaN	0.000000	0.001744	0.001782	28.0841	0.044940	0.002014	22.3148	13.1194	-165.428	0.039688	0.253192	-0.839891	-0.841219	0.049195	22.3148	-0.841544	-1.645178E+11	-2.990276E-13	NaN
1027	1.000000	0.296540	7.37509e+06	-51489.1	1055.82	-29752.1	0.000000	0.000000	6.296857	0.050849	NaN	0.000000	0.001739	0.001792	28.0845	0.081585	0.002014	40.5122	170.95	14.1296	0.060942	0.295224	-0.797871	-0.799186	0.050849	40.5122	-0.798812	-4.332502E+10	-1.173664E-12	NaN
1027	1.000000	0.338577	7.37509e+06	-51489.1	1055.82	-29752.1	0.000000	0.000000	6.338894	0.053980	NaN	0.000000	0.001704	0.001740	28.0841	0.095484	0.002026	47.1269	-150.325	-167.812	0.086008	0.337238	-0.755833	-0.757173	0.053980	47.1269	-0.756692	-1.159579E+10	-4.655147E-12	NaN
1027	1.000000	0.380585	7.3751e+06	-51489.1	1055.82	-29752.1	0.000000	0.000000	6.380902	0.065713	NaN	0.000000	0.001674	0.001779	28.0831	0.094267	0.001994	47.2809	139.516	13.3498	-0.060277	0.379199	-0.713826	-0.715212	0.065713	47.2809	-0.714868	-3.122318E+9	-2.104612E-11	NaN
1027	1.000000	0.422610	7.3751e+06	-51489.1	1055.82	-29752.1	0.000000	0.000000	6.422927	0.072133	NaN	0.000000	0.001646	0.001832	28.0832	0.132210	0.002128	62.1226	164.956	-166.521	0.078749	0.421290	-0.671801	-0.673121	0.072133	62.1226	-0.672672	-8.278612E+8	-8.713230E-11	NaN
1027	1.000000	0.464619	7.3751e+06	-51489.1	1055.82	-29752.1	0.000000	0.000000	6.464935	0.033267	NaN	0.000000	0.001645	0.001813	28.0829	0.040712	0.001929	21.1035	63.4324	13.2535	0.066681	0.463228	-0.629792	-0.631183	0.033267	21.1035	-0.630974	-2.220224E+8	-1.498352E-10	NaN
1027	1.000000	0.506637	7.3751e+06	-51489.1	1055.82	-29752.1	0.000000	0.000000	6.506955	0.098115	NaN	0.000000	0.001682	0.001845	28.0831	0.084044	0.002105	39.9288	147.068	-165.999	0.081675	0.505369	-0.587774	-0.589042	0.098115	39.9288	-0.589617	-5.989456E+7	-1.638133E-9	NaN
1027	1.000000	0.548625	7.3751e+06	-51489.1	1055.82	-29752.1	0.000000	0.000000	6.548942	0.072342	NaN	0.000000	0.001679	0.001848	28.0842	0.031831	0.001898	16.7737	19.4566	15.4919	0.046426	0.547292	-0.545786	-0.547119	0.072342	16.7737	-0.549021	-1.645852E+7	-4.395403E-9	NaN
1027	1.000000	0.590676	7.3751e+06	-51489.1	1055.82	-29752.1	0.000000	0.000000	6.590993	0.070093	NaN	0.000000	0.001635	0.001821	28.0841	0.097563	0.002052	47.5443	156.232	-168.608	0.090907	0.589365	-0.503735	-0.505046	0.070093	47.5443	-0.504841	-4.00428e+06	-1.750456E-8	NaN
1027	1.000000	0.632690	7.3751e+06	-51489.1	1055.82	-29752.1	0.000000	0.000000	6.633008	0.089322	NaN	0.000000	0.001628	0.001827	28.0839	0.085255	0.001995	42.7401	-39.6467	14.4805	0.069779	0.631300	-0.461721	-0.463111	0.089322	42.7401	-0.463288	-1.05005e+06	-8.506420E-8	NaN
1027	1.000000	0.674694	7.3751e+06	-51489.1	1055.82	-29752.1	0.000000	0.000000	6.675013	0.093761	NaN	0.000000	0.001649	0.001822	28.0826	0.057178	0.002005	28.5232	76.3294	-162.153	0.089858	0.673383	-0.419716	-0.421028	0.093761	28.5232	-0.422182	-276280	-3.393676E-7	NaN
1027	1.000000	0.716694	7.3751e+06	-51489.1	1055.82	-29752.1	0.000000	0.000000	6.717013	0.121138	NaN	0.000000	0.001668	0.001835	28.0828	0.021407	0.002071	10.3357	-23.3947	11.5048	0.088336	0.715343	-0.377717	-0.379068	0.121138	10.3357	-0.386507	-85739	-1.412865E-6	NaN
1027	1.000000	0.758710	7.3751e+06	-51489.1	1055.82	-29752.1	0.000000	0.000000	6.759027	0.057607	NaN	0.000000	0.001716	0.001852	28.0828	0.102939	0.002093	49.178	-155.317	-167.587	0.050612	0.757427	-0.335700	-0.336983	0.057607	49.178	-0.336579	-16279.7	-3.538567E-6	NaN
1027	1.000000	0.800746	7.3751e+06	-51489.1	1055.82	-29752.1	0.000000	0.000000	6.801063	0.070570	NaN	0.000000	0.001700	0.001841	28.0841	0.059071	0.001872	31.5599	178.974	10.1671	0.011771	0.799428	-0.293665	-0.294982	0.070570	31.5599	-0.295342	-4010.49	-1.759631E-5	NaN
1027	1.000000	0.842758	7.3751e+06	-51489.1	1055.82	-29752.1	0.000000	0.000000	6.843077	0.110957	NaN	0.000000	0.001736	0.001872	28.0842	0.063073	0.001892	33.3339	-69.1091	-165.544	0.121538	0.841435	-0.251653	-0.252976	0.110957	33.3339	-0.254150	-952.839	-0.000116	NaN
1027	1.000000	0.884784	7.3751e+06	-51489.1	1055.82	-29752.1	0.000000	0.000000	6.885103	0.108376	NaN	0.000000	0.001709	0.001895	28.0844	0.066983	0.002034	32.9344	38.9072	12.7188	0.167247	0.883380	-0.209627	-0.211031	0.108376	32.9344	-0.212095	-207.349	-0.000523	NaN
1027	1.000000	0.926810	7.3751e+06	-51489.1	1055.82	-29752.1	0.000000	0.000000	6.927127	0.061086	NaN	0.000000	0.001652	0.001847	28.0828	0.058006	0.002070	28.0267	148.249	-167.359	0.107038	0.925513	-0.167601	-0.168897	0.061086	28.0267	-0.169235	-39.8405	-0.001533	NaN
1027	1.000000	0.968817	7.3751e+06	-51489.1	1055.82	-29752.1	0.000000	0.000000	6.969130	-0.041879	NaN	0.000000	0.001627	0.001810	28.0827	0.128176	0.002040	62.8324	-178.147	16.1106	0.040370	0.967479	-0.125594	-0.126932	-0.041879	62.8324	-0.125094	-6.107349	0.006857	NaN
1027	1.000000	1.010847	7.3751e+06	-51489.1	1055.82	-29752.1	0.000000	0.000000	7.011162	0.027329	NaN	0.000000	0.001600	0.001867	28.0825	0.123433	0.002056	60.0452	-24.7806	-165.231	0.069452	1.009585	-0.083564	-0.084825	0.027329	60.0452	-0.083906	-0.772855	-0.035362	NaN
1027	1.000000	1.052879	7.3751e+06	-51489.1	1055.82	-29752.1	0.000000	0.000000	7.053196	0.045733	NaN	0.000000	0.001626	0.001838	28.0824	0.096747	0.001978	48.9091	7.608449	15.5582	0.020205	1.051466	-0.041531	-0.042945	0.045733	48.9091	-0.042233	-0.052890	-0.864680	NaN
1027	1.000000	1.094842	7.3751e+06	-51489.1	1055.82	-29752.1	0.000000	0.000000	7.095193	0.864814	NaN	0.000000	0.001642	0.001801	28.084	1.260935	0.001915	658.594	12.5445	-171.24	0.223747	1.093522	0.000432	-0.000889	0.864814	658.594	-0.000553	-0.000409	-2113.73	NaN
1027	2.000000	1.110884	7.3751e+06	-51489.1	1055.82	-29752.1	0.000000	0.000000	7.112165	23.5149	NaN	0.000000	0.001670	0.001827	28.0844	17.2893	0.001756	9847.12	3.665495	5.323877	22.3776	1.110606	0.016473	0.016195	23.5149	9847.12	0.014682	0.014864	1582.04	73793.8
1027	2.000000	1.121316	7.3751e+06	-51489.1	1055.82	-29752.1	0.000000	0.000000	7.123684	49.9106	NaN	0.000000	0.001634	0.001850	28.0837	27.8597	0.001797	15507.1	4.067528	-179.162	47.1099	1.121031	0.026906	0.026620	49.9106	15507.1	0.024492	0.030097	1658.3	81665.8
1027	2.000000	1.131785	7.3751e+06	-51489.1	1055.82	-29752.1	0.000000	0.000000	7.135660	86.5673	NaN	0.000000	0.001626	0.001824	28.0831	38.4004	0.001937	19825.7	6.357519	-3.978099	81.5172	1.131360	0.037374	0.036949	86.5673	19825.7	0.034100	0.049670	1742.84	81274.1
1027	2.000000	1.142271	7.3751e+06	-51489.1	1055.82	-29752.1	0.000000	0.000000	7.147783	126.364	NaN	0.000000	0.001641	0.001851	28.0828	46.672	0.001747	26710.6	3.013434	176.966	124.009	1.142088	0.047861	0.047677	126.364	26710.6	0.044313	0.075648	1670.43	88727.5
1027	2.000000	1.152782	7.3751e+06	-51489.1	1055.82	-29752.1	0.000000	0.000000	7.160704	184.999	NaN	0.000000	0.001634	0.001842	28.083	56.5469	0.001815	31148.6	8.707513	-9.027303	182.671	1.152405	0.058371	0.057994	184.999	31148.6	0.053916	0.104902	1763.55	87865.9
1027	2.000000	1.163277	7.3751e+06	-51489.1	1055.82	-29752.1	0.000000	0.000000	7.173711	246.065	NaN	0.000000	0.001612	0.001841	28.0842	66.5924	0.001682	39595	5.361059	172.081	243.187	1.163007	0.068867	0.068596	246.065	39595	0.064206	0.141320	1741.19	96230.2
1027	2.000000	1.173822	7.3751e+06	-51489.1	1055.82	-29752.1	0.000000	0.000000	7.186776	307.334	NaN	0.000000	0.001589	0.001757	28.0841	77.0842	0.001732	44512.2	2.495979	-5.933470	306.363	1.173535	0.079412	0.079124	307.334	44512.2	0.074233	0.181734	1691.12	95396.8
1027	2.000000	1.184291	7.3751e+06	-51489.1	1055.82	-29752.1	0.000000	0.000000	7.200235	380.045	NaN	0.000000	0.001612	0.001816	28.0843	86.4924	0.001709	50597.3	3.350972	172.632	380.188	1.183905	0.089880	0.089494	380.045	50597.3	0.084247	0.226823	1675.52	97063.8
1027	2.000000	1.194677	7.3751e+06	-51489.1	1055.82	-29752.1	0.000000	0.000000	7.214096	464.547	NaN	0.000000	0.001587	0.001787	28.0832	95.468	0.001765	54097.6	6.066186	-11.095	458.234	1.194410	0.100266	0.100000	464.547	54097.6	0.093826	0.274296	1693.6	94371.7
1027	2.000000	1.200732	7.3751e+06	-51489.1	1055.82	-29752.1	0.000000	0.000000	7.222302	516.839	NaN	0.000000	0.001594	0.001848	28.0828	101.983	0.001792	56899.3	8.247890	-12.6255	514.494	1.200351	0.106322	0.105940	516.839	56899.3	0.099509	0.304446	1697.64	94216