File: remote_trans/data/nanoindenter/0828-1/data/Data_2025-08-06,11h17m57s/2025-07-22_16-23-58_1_485.txt
2025-07-22, 16:23:58, 1
Index	Phase	Displacement	Time	Pos X	Pos Y	Pos Z	Rot A	Rot B	Piezo Z	Force A	Force B	Gripper	Voltage A	Voltage B	Temperature	Amplitude force	Amplitude pos	Stiffness	Phase shift	Phase excitation	Force A raw	Displacement raw	HMax	HMax raw	Real Force	Real Stiffness	Contact Depth	Area	Hardness	Reduced Mod.
[#]	[#]	[um]	[s]	[um]	[um]	[um]	[m°]	[m°]	[um]	[uN]	[uN]	[V]	[V]	[V]	[°C]	[uN]	[um]	[N/m]	[°]	[°]	[uN]	[um]	[um]	[um]	[uN]	[N/m]	[um]	[um^2]	[MPa]	[MPa]
485	1.000000	0.002567	7.3698e+06	-52839.1	1005.82	-29748.1	0.000000	0.000000	6.002782	0.026586	NaN	0.000000	0.001530	0.001688	28.0806	0.067530	0.000916	73.6969	113.617	-163.351	-0.013470	0.001291	-1.157943	-1.159219	0.026586	73.6969	-1.158214	-3.026417E+15	-8.784734E-18	NaN
485	1.000000	0.044571	7.3698e+06	-52839.1	1005.82	-29748.1	0.000000	0.000000	6.044785	-0.017159	NaN	0.000000	0.001559	0.001602	28.0801	0.079461	0.001906	41.7003	-23.6821	12.577	-0.044778	0.043234	-1.115939	-1.117276	-0.017159	41.7003	-1.115630	-8.125303E+14	2.111761E-17	NaN
485	1.000000	0.086530	7.3698e+06	-52839.1	1005.82	-29748.1	0.000000	0.000000	6.086742	-0.046106	NaN	0.000000	0.001549	0.001621	28.0804	0.105420	0.002026	52.0264	34.6452	-163.385	-0.057770	0.085219	-1.073980	-1.075291	-0.046106	52.0264	-1.073316	-2.196511E+14	2.099060E-16	NaN
485	1.000000	0.128573	7.3698e+06	-52839.1	1005.82	-29748.1	0.000000	0.000000	6.128785	-0.039312	NaN	0.000000	0.001497	0.001624	28.0803	0.045533	0.001951	23.3409	-91.9491	16.9515	-0.034541	0.127202	-1.031937	-1.033308	-0.039312	23.3409	-1.030674	-5.868738E+13	6.698576E-16	NaN
485	1.000000	0.170597	7.3698e+06	-52839.1	1005.82	-29748.1	0.000000	0.000000	6.170811	-0.008924	NaN	0.000000	0.001539	0.001659	28.0814	0.075582	0.001997	37.8509	176.396	-168.074	-0.008424	0.169278	-0.989913	-0.991232	-0.008924	37.8509	-0.989736	-1.650301E+13	5.407564E-16	NaN
485	1.000000	0.212618	7.3698e+06	-52839.1	1005.82	-29748.1	0.000000	0.000000	6.212836	0.090517	NaN	0.000000	0.001535	0.001618	28.0815	0.104748	0.002061	50.821	154.497	10.0793	0.106217	0.211194	-0.947892	-0.949316	0.090517	50.821	-0.949227	-4.694699E+12	-1.928064E-14	NaN
485	1.000000	0.254621	7.3698e+06	-52839.1	1005.82	-29748.1	0.000000	0.000000	6.254835	0.008392	NaN	0.000000	0.001548	0.001615	28.0816	0.071881	0.001999	35.9592	0.945343	-165.198	-0.008865	0.253325	-0.905889	-0.907185	0.008392	35.9592	-0.906064	-1.227440E+12	-6.837133E-15	NaN
485	1.000000	0.296627	7.3698e+06	-52839.1	1005.82	-29748.1	0.000000	0.000000	6.296842	0.021316	NaN	0.000000	0.001555	0.001599	28.0806	0.074619	0.002044	36.5013	97.1074	14.2625	0.124457	0.295309	-0.863883	-0.865201	0.021316	36.5013	-0.864321	-3.346534E+11	-6.369609E-14	NaN
485	1.000000	0.338684	7.3698e+06	-52839.1	1005.82	-29748.1	0.000000	0.000000	6.338897	-0.024625	NaN	0.000000	0.001528	0.001668	28.0805	0.074692	0.001986	37.6083	-9.493200	-166.874	-0.036578	0.337338	-0.821826	-0.823172	-0.024625	37.6083	-0.821335	-8.756212E+10	2.812324E-13	NaN
485	1.000000	0.380664	7.3698e+06	-52839.1	1005.82	-29748.1	0.000000	0.000000	6.380877	-0.034925	NaN	0.000000	0.001577	0.001690	28.0805	0.021351	0.002015	10.5968	-173.405	13.6424	-0.080237	0.379314	-0.779845	-0.781196	-0.034925	10.5968	-0.777374	-2.215846E+10	1.576125E-12	NaN
485	1.000000	0.422699	7.3698e+06	-52839.1	1005.82	-29748.1	0.000000	0.000000	6.422914	0.034945	NaN	0.000000	0.001543	0.001684	28.0819	0.078379	0.001871	41.894	-17.5023	-167.756	-0.014113	0.421433	-0.737811	-0.739077	0.034945	41.894	-0.738437	-6.542798E+9	-5.341013E-12	NaN
485	1.000000	0.464736	7.3698e+06	-52839.1	1005.82	-29748.1	0.000000	0.000000	6.464950	-0.000212	NaN	0.000000	0.001569	0.001696	28.0816	0.078726	0.002104	37.4183	-9.245561	13.7813	-0.006659	0.463313	-0.695774	-0.697197	-0.000212	37.4183	-0.695770	-1.712972E+9	1.238873E-13	NaN
485	1.000000	0.506737	7.3698e+06	-52839.1	1005.82	-29748.1	0.000000	0.000000	6.506949	-0.063447	NaN	0.000000	0.001558	0.001711	28.0815	0.008888	0.002092	4.248745	18.0402	-167.854	-0.029860	0.505411	-0.653773	-0.655099	-0.063447	4.248745	-0.642573	-3.203247E+8	1.980697E-10	NaN
485	1.000000	0.548755	7.3698e+06	-52839.1	1005.82	-29748.1	0.000000	0.000000	6.548969	-0.018701	NaN	0.000000	0.001499	0.001719	28.0804	0.051520	0.001998	25.791	89.9412	12.6769	-0.022815	0.547403	-0.611755	-0.613107	-0.018701	25.791	-0.611211	-1.187887E+8	1.574346E-10	NaN
485	1.000000	0.590732	7.3698e+06	-52839.1	1005.82	-29748.1	0.000000	0.000000	6.590946	0.000864	NaN	0.000000	0.001533	0.001755	28.0802	0.041974	0.002050	20.476	143.943	-168.442	-0.043308	0.589414	-0.569778	-0.571095	0.000864	20.476	-0.569810	-3.191571E+7	-2.707711E-11	NaN
485	1.000000	0.632793	7.3698e+06	-52839.1	1005.82	-29748.1	0.000000	0.000000	6.633008	0.015037	NaN	0.000000	0.001568	0.001707	28.0802	0.009458	0.002065	4.579031	-129.442	14.1684	0.083500	0.631390	-0.527717	-0.529120	0.015037	4.579031	-0.530180	-9.01718e+06	-1.667549E-9	NaN
485	1.000000	0.674799	7.3698e+06	-52839.1	1005.82	-29748.1	0.000000	0.000000	6.675012	-0.038097	NaN	0.000000	0.001556	0.001713	28.0802	0.160457	0.002095	76.5822	81.7037	-164.473	0.033161	0.673508	-0.485711	-0.487002	-0.038097	76.5822	-0.485338	-2.13902e+06	1.781068E-8	NaN
485	1.000000	0.716817	7.3698e+06	-52839.1	1005.82	-29748.1	0.000000	0.000000	6.717032	0.006480	NaN	0.000000	0.001611	0.001706	28.0815	0.017015	0.001982	8.584012	19.0344	12.1861	-0.012871	0.715450	-0.443692	-0.445060	0.006480	8.584012	-0.444259	-566812	-1.143198E-8	NaN
485	1.000000	0.758830	7.3698e+06	-52839.1	1005.82	-29748.1	0.000000	0.000000	6.759046	0.026914	NaN	0.000000	0.001548	0.001701	28.0817	0.073477	0.001973	37.2503	131.348	-165.963	0.056056	0.757520	-0.401679	-0.402990	0.026914	37.2503	-0.402221	-143768	-1.872009E-7	NaN
485	1.000000	0.800852	7.3698e+06	-52839.1	1005.82	-29748.1	0.000000	0.000000	6.801065	-0.024785	NaN	0.000000	0.001583	0.001739	28.0818	0.074302	0.001946	38.1738	91.7856	14.6945	-0.044579	0.799438	-0.359658	-0.361072	-0.024785	38.1738	-0.359171	-34662.9	7.150339E-7	NaN
485	1.000000	0.842886	7.3698e+06	-52839.1	1005.82	-29748.1	0.000000	0.000000	6.843097	-0.081160	NaN	0.000000	0.001601	0.001714	28.0805	0.081455	0.002011	40.5009	-161.891	-166.758	-0.085513	0.841584	-0.317624	-0.318926	-0.081160	40.5009	-0.316121	-8156.11	9.950821E-6	NaN
485	1.000000	0.884898	7.3698e+06	-52839.1	1005.82	-29748.1	0.000000	0.000000	6.885110	-0.071160	NaN	0.000000	0.001632	0.001734	28.0803	0.086826	0.001955	44.4021	77.7007	13.3816	-0.106211	0.883535	-0.275612	-0.276975	-0.071160	44.4021	-0.274410	-1942.94	3.662471E-5	NaN
485	1.000000	0.926900	7.3698e+06	-52839.1	1005.82	-29748.1	0.000000	0.000000	6.927113	-0.019584	NaN	0.000000	0.001528	0.001768	28.0806	0.064154	0.001868	34.3357	-172.37	-164.064	0.021621	0.925554	-0.233610	-0.234956	-0.019584	34.3357	-0.233182	-449.445	4.357309E-5	NaN
485	1.000000	0.968909	7.3698e+06	-52839.1	1005.82	-29748.1	0.000000	0.000000	6.969120	-0.077638	NaN	0.000000	0.001595	0.001728	28.0819	0.035719	0.002059	17.3521	84.7379	13.0442	-0.110164	0.967575	-0.191601	-0.192935	-0.077638	17.3521	-0.188245	-84.0747	0.000923	NaN
485	1.000000	1.010965	7.3698e+06	-52839.1	1005.82	-29748.1	0.000000	0.000000	7.011181	0.027500	NaN	0.000000	0.001595	0.001644	28.082	0.038498	0.001998	19.2678	16.5769	-164.978	0.028529	1.009601	-0.149545	-0.150909	0.027500	19.2678	-0.150615	-18.5871	-0.001480	NaN
485	1.000000	1.052944	7.3698e+06	-52839.1	1005.82	-29748.1	0.000000	0.000000	7.053159	0.020081	NaN	0.000000	0.001559	0.001686	28.082	0.066998	0.002168	30.9088	-28.3382	9.587789	0.040675	1.051587	-0.107566	-0.108923	0.020081	30.9088	-0.108054	-2.733021	-0.007348	NaN
485	1.000000	1.094957	7.3698e+06	-52839.1	1005.82	-29748.1	0.000000	0.000000	7.095170	-0.025783	NaN	0.000000	0.001546	0.001705	28.0807	0.043959	0.002016	21.8063	157.531	-167.284	0.003969	1.093603	-0.065553	-0.066906	-0.025783	21.8063	-0.064666	-0.243953	0.105688	NaN
485	1.000000	1.136952	7.3698e+06	-52839.1	1005.82	-29748.1	0.000000	0.000000	7.137167	0.018540	NaN	0.000000	0.001575	0.001683	28.0806	0.094698	0.001935	48.9456	-145.479	12.4181	0.024387	1.135629	-0.023557	-0.024881	0.018540	48.9456	-0.023842	-0.015742	-1.177794	NaN
485	2.000000	1.168485	7.3698e+06	-52839.1	1005.82	-29748.1	0.000000	0.000000	7.169199	12.1491	NaN	0.000000	0.001563	0.001685	28.0804	12.2381	0.001818	6730.25	7.484121	-175.926	11.0188	1.168216	0.007975	0.007706	12.1491	6730.25	0.006621	0.005662	2145.61	81715.9
485	2.000000	1.179021	7.3698e+06	-52839.1	1005.82	-29748.1	0.000000	0.000000	7.180597	33.1156	NaN	0.000000	0.001545	0.001675	28.0805	21.8204	0.001737	12561.7	3.316234	6.032499	35.1487	1.178667	0.018511	0.018157	33.1156	12561.7	0.016534	0.017385	1904.82	87042.4
485	2.000000	1.189438	7.3698e+06	-52839.1	1005.82	-29748.1	0.000000	0.000000	7.192355	65.7112	NaN	0.000000	0.001563	0.001715	28.0817	31.0464	0.001816	17095.3	6.009137	178.954	64.4711	1.189099	0.028928	0.028589	65.7112	17095.3	0.026045	0.032945	1994.59	86051.3
485	2.000000	1.199860	7.3698e+06	-52839.1	1005.82	-29748.1	0.000000	0.000000	7.204530	108.343	NaN	0.000000	0.001574	0.001677	28.0818	39.7552	0.001734	22929.3	3.510709	-1.209640	103.649	1.199505	0.039350	0.038995	108.343	22929.3	0.035806	0.053640	2019.84	90452.7
485	2.000000	1.210395	7.3698e+06	-52839.1	1005.82	-29748.1	0.000000	0.000000	7.217344	163.731	NaN	0.000000	0.001559	0.001694	28.082	50.6252	0.001740	29091.5	4.753548	175.409	161.83	1.210115	0.049885	0.049605	163.731	29091.5	0.045664	0.079484	2059.93	94275.5
485	2.000000	1.220850	7.3698e+06	-52839.1	1005.82	-29748.1	0.000000	0.000000	7.230496	229.317	NaN	0.000000	0.001565	0.001715	28.0807	60.6886	0.001795	33810.7	5.872005	-7.280631	226.355	1.220641	0.060340	0.060131	229.317	33810.7	0.055254	0.109341	2097.27	93419.3
485	2.000000	1.231337	7.3698e+06	-52839.1	1005.82	-29748.1	0.000000	0.000000	7.244433	313.216	NaN	0.000000	0.001582	0.001736	28.0805	69.6576	0.001707	40802.1	5.890625	172.227	311.357	1.230950	0.070827	0.070440	313.216	40802.1	0.065069	0.144612	2165.91	98028.8
485	2.000000	1.241850	7.3698e+06	-52839.1	1005.82	-29748.1	0.000000	0.000000	7.258168	391.555	NaN	0.000000	0.001594	0.001725	28.0805	79.1158	0.001815	43593.7	5.789514	-8.977888	388.677	1.241564	0.081340	0.081054	391.555	43593.7	0.074603	0.183316	2135.96	93024.3
485	2.000000	1.252238	7.3698e+06	-52839.1	1005.82	-29748.1	0.000000	0.000000	7.272729	493.003	NaN	0.000000	0.001587	0.001725	28.0817	87.3517	0.001702	51320.8	3.068378	173.169	487.341	1.252001	0.091728	0.091491	493.003	51320.8	0.084524	0.228134	2161.02	98168.4
485	2.000000	1.262755	7.3698e+06	-52839.1	1005.82	-29748.1	0.000000	0.000000	7.287775	603.12	NaN	0.000000	0.001590	0.001700	28.0817	96.5552	0.001738	55552.7	2.198712	-5.829815	595.425	1.262414	0.102245	0.101904	603.12	55552.7	0.094102	0.275728	2187.37	96658
485	2.000000	1.263321	7.3698e+06	-52839.1	1005.82	-29748.1	0.000000	0.000000	7.288572	608.743	NaN	0.000000	0.001601	0.001691	28.0819	98.0721	0.001837	53380.9	3.906613	172.585	606.926	1.262949	0.102811	0.102439	608.743	53380.9	0.094258	0.276538	2201.3	92743.3