File: remote_trans/data/nanoindenter/0828-1/data/Data_2025-08-06,11h17m57s/2025-07-22_16-23-58_1_531.txt
2025-07-22, 16:23:58, 1
Index	Phase	Displacement	Time	Pos X	Pos Y	Pos Z	Rot A	Rot B	Piezo Z	Force A	Force B	Gripper	Voltage A	Voltage B	Temperature	Amplitude force	Amplitude pos	Stiffness	Phase shift	Phase excitation	Force A raw	Displacement raw	HMax	HMax raw	Real Force	Real Stiffness	Contact Depth	Area	Hardness	Reduced Mod.
[#]	[#]	[um]	[s]	[um]	[um]	[um]	[m°]	[m°]	[um]	[uN]	[uN]	[V]	[V]	[V]	[°C]	[uN]	[um]	[N/m]	[°]	[°]	[uN]	[um]	[um]	[um]	[uN]	[N/m]	[um]	[um^2]	[MPa]	[MPa]
531	1.000000	0.002425	7.37024e+06	-50539.1	1005.82	-29755.3	0.000000	0.000000	6.002796	0.014415	NaN	0.000000	0.001605	0.001675	28.08	0.151608	0.001062	142.769	128.357	-167.785	0.012353	0.001162	-1.144015	-1.145278	0.014415	142.769	-1.144091	-1.956998E+15	-7.365889E-18	NaN
531	1.000000	0.044358	7.37024e+06	-50539.1	1005.82	-29755.3	0.000000	0.000000	6.044729	0.015684	NaN	0.000000	0.001651	0.001684	28.0797	0.084029	0.002062	40.7414	-111.124	14.2012	0.066353	0.043001	-1.102082	-1.103439	0.015684	40.7414	-1.102371	-5.393718E+14	-2.907744E-17	NaN
531	1.000000	0.086368	7.37024e+06	-50539.1	1005.82	-29755.3	0.000000	0.000000	6.086740	0.031746	NaN	0.000000	0.001658	0.001715	28.0799	0.040945	0.002066	19.8174	7.230996	-165.093	-0.055393	0.085094	-1.060071	-1.061346	0.031746	19.8174	-1.061273	-1.513302E+14	-2.097792E-16	NaN
531	1.000000	0.128402	7.37024e+06	-50539.1	1005.82	-29755.3	0.000000	0.000000	6.128771	-0.029934	NaN	0.000000	0.001651	0.001733	28.0827	0.105519	0.001905	55.3874	86.7771	14.866	0.101500	0.127060	-1.018038	-1.019380	-0.029934	55.3874	-1.017632	-3.918278E+13	7.639580E-16	NaN
531	1.000000	0.170439	7.37024e+06	-50539.1	1005.82	-29755.3	0.000000	0.000000	6.170807	-0.052796	NaN	0.000000	0.001613	0.001702	28.0809	0.096009	0.001929	49.7835	124.374	-171.92	-0.035940	0.169122	-0.976001	-0.977318	-0.052796	49.7835	-0.975206	-1.051510E+13	5.020989E-15	NaN
531	1.000000	0.212417	7.37024e+06	-50539.1	1005.82	-29755.3	0.000000	0.000000	6.212785	-0.058009	NaN	0.000000	0.001598	0.001707	28.0805	0.057462	0.001959	29.33	102.801	15.7677	-0.005559	0.211023	-0.934023	-0.935417	-0.058009	29.33	-0.932540	-2.795589E+12	2.075023E-14	NaN
531	1.000000	0.254437	7.37024e+06	-50539.1	1005.82	-29755.3	0.000000	0.000000	6.254809	0.037192	NaN	0.000000	0.001620	0.001702	28.0806	0.011722	0.001998	5.865435	149.468	-167.26	-0.008504	0.253133	-0.892003	-0.893306	0.037192	5.865435	-0.896759	-9.189004E+11	-4.047491E-14	NaN
531	1.000000	0.296482	7.37024e+06	-50539.1	1005.82	-29755.3	0.000000	0.000000	6.296854	0.028442	NaN	0.000000	0.001604	0.001688	28.0794	0.073578	0.001984	37.0897	-73.8546	15.737	0.077864	0.295140	-0.849958	-0.851300	0.028442	37.0897	-0.850533	-2.177475E+11	-1.306174E-13	NaN
531	1.000000	0.338483	7.37024e+06	-50539.1	1005.82	-29755.3	0.000000	0.000000	6.338854	0.025524	NaN	0.000000	0.001623	0.001665	28.0793	0.022428	0.002046	10.9594	79.6747	-164.938	-0.054963	0.337208	-0.807957	-0.809232	0.025524	10.9594	-0.809704	-6.089057E+10	-4.191713E-13	NaN
531	1.000000	0.380512	7.37024e+06	-50539.1	1005.82	-29755.3	0.000000	0.000000	6.380883	0.028779	NaN	0.000000	0.001578	0.001684	28.0796	0.008158	0.001922	4.245278	-74.8192	10.996	-0.008843	0.379172	-0.765928	-0.767268	0.028779	4.245278	-0.771012	-1.815799E+10	-1.584911E-12	NaN
531	1.000000	0.422535	7.37024e+06	-50539.1	1005.82	-29755.3	0.000000	0.000000	6.422907	0.033925	NaN	0.000000	0.001615	0.001628	28.0807	0.139281	0.001939	71.8211	160.272	-164.757	0.034528	0.421240	-0.723904	-0.725199	0.033925	71.8211	-0.724259	-4.193181E+9	-8.090559E-12	NaN
531	1.000000	0.464563	7.37025e+06	-50539.1	1005.82	-29755.3	0.000000	0.000000	6.464934	0.012628	NaN	0.000000	0.001636	0.001690	28.0805	0.041556	0.002124	19.5676	-77.5626	14.1334	-0.020588	0.463201	-0.681877	-0.683239	0.012628	19.5676	-0.682361	-1.123292E+9	-1.124169E-11	NaN
531	1.000000	0.506539	7.37025e+06	-50539.1	1005.82	-29755.3	0.000000	0.000000	6.506909	-0.030637	NaN	0.000000	0.001603	0.001679	28.0807	0.068141	0.002087	32.6487	55.9321	-168.578	0.007064	0.505301	-0.639900	-0.641139	-0.030637	32.6487	-0.639197	-2.879156E+8	1.064099E-10	NaN
531	1.000000	0.548594	7.37025e+06	-50539.1	1005.82	-29755.3	0.000000	0.000000	6.548962	-0.062454	NaN	0.000000	0.001622	0.001631	28.0803	0.062873	0.002016	31.1869	-132.648	15.9093	0.051598	0.547242	-0.597846	-0.599198	-0.062454	31.1869	-0.596344	-7.414702E+7	8.423013E-10	NaN
531	1.000000	0.590605	7.37025e+06	-50539.1	1005.82	-29755.3	0.000000	0.000000	6.590970	-0.136492	NaN	0.000000	0.001584	0.001674	28.0795	0.025038	0.001908	13.1198	-35.458	-168.544	-0.018186	0.589327	-0.555835	-0.557113	-0.136492	13.1198	-0.548032	-1.594774E+7	8.558686E-9	NaN
531	1.000000	0.632622	7.37025e+06	-50539.1	1005.82	-29755.3	0.000000	0.000000	6.632993	0.013993	NaN	0.000000	0.001560	0.001668	28.0796	0.052917	0.001936	27.3327	-174.933	12.3237	0.011148	0.631258	-0.513817	-0.515181	0.013993	27.3327	-0.514201	-5.40649e+06	-2.588140E-9	NaN
531	1.000000	0.674662	7.37025e+06	-50539.1	1005.82	-29755.3	0.000000	0.000000	6.675032	-0.019193	NaN	0.000000	0.001573	0.001651	28.0809	0.015058	0.002161	6.967833	-163.815	-165.224	-0.009611	0.673346	-0.471778	-0.473094	-0.019193	6.967833	-0.469712	-1.29231e+06	1.485205E-8	NaN
531	1.000000	0.716680	7.37025e+06	-50539.1	1005.82	-29755.3	0.000000	0.000000	6.717049	-0.026034	NaN	0.000000	0.001560	0.001669	28.0809	0.048106	0.002098	22.9303	-69.8483	17.7819	-0.009762	0.715347	-0.429760	-0.431093	-0.026034	22.9303	-0.428908	-344045	7.567112E-8	NaN
531	1.000000	0.758689	7.37025e+06	-50539.1	1005.82	-29755.3	0.000000	0.000000	6.759058	-0.039697	NaN	0.000000	0.001510	0.001647	28.0809	0.087224	0.001954	44.6368	-39.9542	-167.034	-0.003686	0.757373	-0.387750	-0.389067	-0.039697	44.6368	-0.387083	-87383.1	4.542818E-7	NaN
531	1.000000	0.800732	7.37025e+06	-50539.1	1005.82	-29755.3	0.000000	0.000000	6.801101	-0.025826	NaN	0.000000	0.001570	0.001652	28.0807	0.131923	0.002094	63.0041	-155.363	14.7253	0.002944	0.799368	-0.345708	-0.347072	-0.025826	63.0041	-0.345400	-21886.6	1.179979E-6	NaN
531	1.000000	0.842712	7.37025e+06	-50539.1	1005.82	-29755.3	0.000000	0.000000	6.843084	0.040966	NaN	0.000000	0.001580	0.001648	28.0795	0.118918	0.001957	60.7684	157.962	-167.23	0.117466	0.841404	-0.303728	-0.305036	0.040966	60.7684	-0.304233	-5439.68	-7.530971E-6	NaN
531	1.000000	0.884733	7.37025e+06	-50539.1	1005.82	-29755.3	0.000000	0.000000	6.885106	0.059231	NaN	0.000000	0.001625	0.001749	28.0797	0.044876	0.001968	22.7972	139.542	12.4428	0.022993	0.883321	-0.261707	-0.263119	0.059231	22.7972	-0.263655	-1333.07	-4.443182E-5	NaN
531	1.000000	0.926741	7.37025e+06	-50539.1	1005.82	-29755.3	0.000000	0.000000	6.927110	-0.023647	NaN	0.000000	0.001612	0.001716	28.0796	0.076413	0.001928	39.639	-95.6155	-165.261	-0.008475	0.925436	-0.219699	-0.221004	-0.023647	39.639	-0.219252	-270.216	8.751075E-5	NaN
531	1.000000	0.968745	7.37025e+06	-50539.1	1005.82	-29755.3	0.000000	0.000000	6.969117	0.034802	NaN	0.000000	0.001661	0.001759	28.0809	0.042752	0.001966	21.7426	-2.429005	15.0053	0.127310	0.967403	-0.177695	-0.179036	0.034802	21.7426	-0.178896	-58.4329	-0.000596	NaN
531	1.000000	1.010775	7.37025e+06	-50539.1	1005.82	-29755.3	0.000000	0.000000	7.011146	0.016215	NaN	0.000000	0.001597	0.001773	28.081	0.096775	0.002037	47.4973	179.284	-164.803	0.044773	1.009460	-0.135665	-0.136980	0.016215	47.4973	-0.135921	-9.904652	-0.001637	NaN
531	1.000000	1.052798	7.37025e+06	-50539.1	1005.82	-29755.3	0.000000	0.000000	7.053169	0.034830	NaN	0.000000	0.001621	0.001800	28.0808	0.048533	0.001998	24.2956	-78.8369	13.3242	0.036734	1.051458	-0.093642	-0.094981	0.034830	24.2956	-0.094717	-1.389862	-0.025060	NaN
531	1.000000	1.094806	7.37025e+06	-50539.1	1005.82	-29755.3	0.000000	0.000000	7.095176	-0.018809	NaN	0.000000	0.001663	0.001787	28.0794	0.107485	0.002035	52.8079	17.5954	-164.413	-0.012206	1.093538	-0.051634	-0.052902	-0.018809	52.8079	-0.051367	-0.100336	0.187458	NaN
531	1.000000	1.136823	7.37025e+06	-50539.1	1005.82	-29755.3	0.000000	0.000000	7.137194	0.011955	NaN	0.000000	0.001594	0.001789	28.0793	0.025342	0.001954	12.9684	-163.516	14.2737	-0.084870	1.135482	-0.009617	-0.010958	0.011955	12.9684	-0.010308	-0.006563	-1.821363	NaN
531	2.000000	1.158397	7.37025e+06	-50539.1	1005.82	-29755.3	0.000000	0.000000	7.159423	15.9387	NaN	0.000000	0.001576	0.001801	28.0792	15.8537	0.001888	8397.89	7.772756	-175.332	14.5903	1.158070	0.011957	0.011630	15.9387	8397.89	0.010534	0.009781	1629.6	77581.5
531	2.000000	1.168828	7.37025e+06	-50539.1	1005.82	-29755.3	0.000000	0.000000	7.170694	36.3756	NaN	0.000000	0.001611	0.001805	28.0805	26.2514	0.001765	14874.3	5.597310	1.731472	33.5012	1.168528	0.022388	0.022089	36.3756	14874.3	0.020554	0.023420	1553.19	88800.7
531	2.000000	1.179330	7.37025e+06	-50539.1	1005.82	-29755.3	0.000000	0.000000	7.182264	62.3269	NaN	0.000000	0.001600	0.001781	28.0809	35.962	0.001979	18169.7	8.663194	176.695	60.9863	1.179044	0.032891	0.032604	62.3269	18169.7	0.030318	0.041405	1505.29	81581.8
531	2.000000	1.189797	7.37025e+06	-50539.1	1005.82	-29755.3	0.000000	0.000000	7.194298	100.453	NaN	0.000000	0.001622	0.001782	28.081	44.3793	0.001679	26433.6	5.705595	-4.213414	96.6312	1.189441	0.043357	0.043001	100.453	26433.6	0.040507	0.065346	1537.25	94475.7
531	2.000000	1.200326	7.37025e+06	-50539.1	1005.82	-29755.3	0.000000	0.000000	7.206780	147.946	NaN	0.000000	0.001623	0.001750	28.0807	57.1641	0.001904	30029.9	7.156635	174.541	147.057	1.199931	0.053886	0.053491	147.946	30029.9	0.050191	0.093005	1590.72	89965
531	2.000000	1.210798	7.37025e+06	-50539.1	1005.82	-29755.3	0.000000	0.000000	7.219674	206.83	NaN	0.000000	0.001661	0.001748	28.0804	67.5477	0.001845	36620.9	6.341904	-6.807835	205.476	1.210514	0.064358	0.064074	206.83	36620.9	0.060123	0.126248	1638.29	94165
531	2.000000	1.221309	7.37025e+06	-50539.1	1005.82	-29755.3	0.000000	0.000000	7.232829	271.133	NaN	0.000000	0.001686	0.001758	28.0798	76.6363	0.001879	40778.2	3.769849	174.224	270.05	1.221041	0.074870	0.074601	271.133	40778.2	0.069883	0.163611	1657.18	92107.4
531	2.000000	1.231830	7.37025e+06	-50539.1	1005.82	-29755.3	0.000000	0.000000	7.247044	360.97	NaN	0.000000	0.001606	0.001776	28.0806	86.7151	0.001788	48496.8	3.258453	-5.945821	359.164	1.231467	0.085390	0.085028	360.97	48496.8	0.079808	0.206258	1750.09	97561.9
531	2.000000	1.242258	7.37025e+06	-50539.1	1005.82	-29755.3	0.000000	0.000000	7.261751	465.018	NaN	0.000000	0.001617	0.001754	28.0808	97.1482	0.001779	54593.7	6.790210	170.475	461.182	1.241732	0.095818	0.095292	465.018	54593.7	0.089430	0.251985	1845.42	99363.8
531	2.000000	1.250247	7.37025e+06	-50539.1	1005.82	-29755.3	0.000000	0.000000	7.272743	538.05	NaN	0.000000	0.001658	0.001739	28.0808	104.821	0.001946	53867.6	5.340290	171.509	536.305	1.249971	0.103807	0.103532	538.05	53867.6	0.096316	0.287324	1872.62	91815.2