File: remote_trans/data/nanoindenter/0828-1/data/Data_2025-08-06,11h17m57s/2025-07-22_16-23-58_1_583.txt
2025-07-22, 16:23:58, 1
Index	Phase	Displacement	Time	Pos X	Pos Y	Pos Z	Rot A	Rot B	Piezo Z	Force A	Force B	Gripper	Voltage A	Voltage B	Temperature	Amplitude force	Amplitude pos	Stiffness	Phase shift	Phase excitation	Force A raw	Displacement raw	HMax	HMax raw	Real Force	Real Stiffness	Contact Depth	Area	Hardness	Reduced Mod.
[#]	[#]	[um]	[s]	[um]	[um]	[um]	[m°]	[m°]	[um]	[uN]	[uN]	[V]	[V]	[V]	[°C]	[uN]	[um]	[N/m]	[°]	[°]	[uN]	[um]	[um]	[um]	[uN]	[N/m]	[um]	[um^2]	[MPa]	[MPa]
583	1.000000	0.002204	7.37075e+06	-47939.1	1005.82	-29764.2	0.000000	0.000000	6.002802	0.100124	NaN	0.000000	0.001547	0.001725	28.08	0.100304	0.001050	95.5577	133.814	-160.43	-0.001515	0.000916	-1.127635	-1.128923	0.100124	95.5577	-1.128421	-1.206257E+15	-8.300350E-17	NaN
583	1.000000	0.044160	7.37075e+06	-47939.1	1005.82	-29764.2	0.000000	0.000000	6.044755	0.027961	NaN	0.000000	0.001589	0.001667	28.0809	0.036683	0.002084	17.6059	-162.341	14.289	0.065711	0.042798	-1.085679	-1.087041	0.027961	17.6059	-1.086870	-3.340269E+14	-8.370739E-17	NaN
583	1.000000	0.086148	7.37075e+06	-47939.1	1005.82	-29764.2	0.000000	0.000000	6.086744	0.057787	NaN	0.000000	0.001572	0.001681	28.0808	0.114227	0.002003	57.0291	-37.451	-165.341	0.125922	0.084894	-1.043691	-1.044945	0.057787	57.0291	-1.044451	-8.991153E+13	-6.427068E-16	NaN
583	1.000000	0.128181	7.37075e+06	-47939.1	1005.82	-29764.2	0.000000	0.000000	6.128780	0.122690	NaN	0.000000	0.001572	0.001718	28.0806	0.028907	0.001948	14.8388	2.971921	16.4422	0.099108	0.126790	-1.001658	-1.003049	0.122690	14.8388	-1.007859	-2.894449E+13	-4.238800E-15	NaN
583	1.000000	0.170186	7.37075e+06	-47939.1	1005.82	-29764.2	0.000000	0.000000	6.170785	0.116820	NaN	0.000000	0.001626	0.001693	28.0791	0.053788	0.001975	27.2313	-55.5154	-165.52	0.132725	0.168918	-0.959653	-0.960921	0.116820	27.2313	-0.962870	-7.170767E+12	-1.629110E-14	NaN
583	1.000000	0.212218	7.37075e+06	-47939.1	1005.82	-29764.2	0.000000	0.000000	6.212814	0.057277	NaN	0.000000	0.001629	0.001682	28.0791	0.101281	0.001913	52.9522	153.328	14.7013	0.096643	0.210867	-0.917621	-0.918972	0.057277	52.9522	-0.918432	-1.803188E+12	-3.176414E-14	NaN
583	1.000000	0.254248	7.37075e+06	-47939.1	1005.82	-29764.2	0.000000	0.000000	6.254846	0.097040	NaN	0.000000	0.001625	0.001652	28.0794	0.089395	0.001870	47.8071	156.996	-165.135	0.067530	0.252925	-0.875591	-0.876915	0.097040	47.8071	-0.877113	-4.985020E+11	-1.946628E-13	NaN
583	1.000000	0.296247	7.37075e+06	-47939.1	1005.82	-29764.2	0.000000	0.000000	6.296845	0.104751	NaN	0.000000	0.001606	0.001678	28.0795	0.079815	0.002061	38.7216	67.9432	14.5906	0.095548	0.294920	-0.833592	-0.834920	0.104751	38.7216	-0.835621	-1.367603E+11	-7.659451E-13	NaN
583	1.000000	0.338288	7.37075e+06	-47939.1	1005.82	-29764.2	0.000000	0.000000	6.338885	0.085089	NaN	0.000000	0.001506	0.001689	28.0807	0.079257	0.002036	38.928	92.3269	-166.232	0.116612	0.336965	-0.791551	-0.792874	0.085089	38.928	-0.793190	-3.634209E+10	-2.341345E-12	NaN
583	1.000000	0.380241	7.37075e+06	-47939.1	1005.82	-29764.2	0.000000	0.000000	6.380840	0.130697	NaN	0.000000	0.001548	0.001747	28.0805	0.069763	0.001928	36.1905	-113.666	12.251	0.070276	0.378994	-0.749598	-0.750845	0.130697	36.1905	-0.752307	-1.010686E+10	-1.293152E-11	NaN
583	1.000000	0.422301	7.37075e+06	-47939.1	1005.82	-29764.2	0.000000	0.000000	6.422895	0.020405	NaN	0.000000	0.001561	0.001695	28.0805	0.098254	0.001936	50.7394	81.1395	-160.512	0.047788	0.421044	-0.707538	-0.708796	0.020405	50.7394	-0.707840	-2.503614E+9	-8.150168E-12	NaN
583	1.000000	0.464312	7.37075e+06	-47939.1	1005.82	-29764.2	0.000000	0.000000	6.464906	0.012446	NaN	0.000000	0.001541	0.001765	28.0793	0.066654	0.002029	32.8483	131.324	13.7439	0.074535	0.462950	-0.665528	-0.666889	0.012446	32.8483	-0.665812	-6.668943E+8	-1.866198E-11	NaN
583	1.000000	0.506330	7.37075e+06	-47939.1	1005.82	-29764.2	0.000000	0.000000	6.506927	0.089728	NaN	0.000000	0.001537	0.001725	28.0795	0.106834	0.002023	52.8147	139.261	-163.57	0.076834	0.505028	-0.623510	-0.624812	0.089728	52.8147	-0.624784	-1.825473E+8	-4.915321E-10	NaN
583	1.000000	0.548368	7.37075e+06	-47939.1	1005.82	-29764.2	0.000000	0.000000	6.548964	0.072517	NaN	0.000000	0.001609	0.001727	28.0801	0.041802	0.001937	21.5758	-33.1914	14.598	0.025656	0.546980	-0.581472	-0.582860	0.072517	21.5758	-0.583992	-5.009737E+7	-1.447531E-9	NaN
583	1.000000	0.590396	7.37075e+06	-47939.1	1005.82	-29764.2	0.000000	0.000000	6.590992	0.046271	NaN	0.000000	0.001637	0.001676	28.0805	0.017143	0.001861	9.211556	-174.788	-166.993	0.027967	0.589098	-0.539443	-0.540741	0.046271	9.211556	-0.543210	-1.367334E+7	-3.384000E-9	NaN
583	1.000000	0.632400	7.37075e+06	-47939.1	1005.82	-29764.2	0.000000	0.000000	6.632998	0.102112	NaN	0.000000	0.001597	0.001740	28.0807	0.033624	0.001988	16.9113	-21.0442	12.8644	0.047839	0.631021	-0.497439	-0.498818	0.102112	16.9113	-0.501968	-3.65147e+06	-2.796451E-8	NaN
583	1.000000	0.674400	7.37075e+06	-47939.1	1005.82	-29764.2	0.000000	0.000000	6.674996	0.045449	NaN	0.000000	0.001537	0.001726	28.0806	0.037188	0.001927	19.3001	142.083	-166.684	0.032484	0.673126	-0.455439	-0.456713	0.045449	19.3001	-0.457205	-862445	-5.269799E-8	NaN
583	1.000000	0.716423	7.37075e+06	-47939.1	1005.82	-29764.2	0.000000	0.000000	6.717019	0.061221	NaN	0.000000	0.001566	0.001745	28.0797	0.037697	0.001978	19.0597	-55.1098	12.4922	0.075520	0.715065	-0.413416	-0.414774	0.061221	19.0597	-0.415825	-224476	-2.727304E-7	NaN
583	1.000000	0.758483	7.37075e+06	-47939.1	1005.82	-29764.2	0.000000	0.000000	6.759080	0.069830	NaN	0.000000	0.001607	0.001756	28.0798	0.109755	0.001924	57.0383	119.593	-171.274	0.039616	0.757141	-0.371356	-0.372698	0.069830	57.0383	-0.372274	-53563.3	-1.303689E-6	NaN
583	1.000000	0.800452	7.37075e+06	-47939.1	1005.82	-29764.2	0.000000	0.000000	6.801048	0.060493	NaN	0.000000	0.001590	0.001749	28.0795	0.052483	0.001887	27.8084	-135.471	11.9024	0.024245	0.799114	-0.329388	-0.330726	0.060493	27.8084	-0.331019	-13501.2	-4.480575E-6	NaN
583	1.000000	0.842506	7.37075e+06	-47939.1	1005.82	-29764.2	0.000000	0.000000	6.843100	-0.008092	NaN	0.000000	0.001622	0.001763	28.0795	0.089052	0.002017	44.1544	42.7998	-166.998	0.077157	0.841123	-0.287333	-0.288717	-0.008092	44.1544	-0.287195	-3028.62	2.671974E-6	NaN
583	1.000000	0.884503	7.37075e+06	-47939.1	1005.82	-29764.2	0.000000	0.000000	6.885099	0.052669	NaN	0.000000	0.001591	0.001755	28.0809	0.067126	0.001927	34.8379	-18.7071	13.2836	0.127183	0.883126	-0.245336	-0.246713	0.052669	34.8379	-0.246470	-724.902	-7.265734E-5	NaN
583	1.000000	0.926544	7.37075e+06	-47939.1	1005.82	-29764.2	0.000000	0.000000	6.927141	0.097635	NaN	0.000000	0.001583	0.001768	28.0808	0.068282	0.001975	34.5722	137.034	-167.459	0.071212	0.925221	-0.203296	-0.204618	0.097635	34.5722	-0.205414	-161.549	-0.000604	NaN
583	1.000000	0.968570	7.37075e+06	-47939.1	1005.82	-29764.2	0.000000	0.000000	6.969166	0.065623	NaN	0.000000	0.001605	0.001766	28.0809	0.004232	0.001941	2.180633	-12.8425	18.3332	0.055468	0.967181	-0.161269	-0.162659	0.065623	2.180633	-0.183839	-70.8846	-0.000926	NaN
583	1.000000	1.010533	7.37075e+06	-47939.1	1005.82	-29764.2	0.000000	0.000000	7.011129	0.063932	NaN	0.000000	0.001573	0.001774	28.0796	0.081287	0.002062	39.4183	175.819	-166.037	0.062977	1.009218	-0.119306	-0.120621	0.063932	39.4183	-0.120523	-4.950149	-0.012915	NaN
583	1.000000	1.052550	7.37076e+06	-47939.1	1005.82	-29764.2	0.000000	0.000000	7.053146	0.076429	NaN	0.000000	0.001583	0.001767	28.0796	0.100950	0.002090	48.2968	-179.387	13.3543	0.153435	1.051219	-0.077290	-0.078620	0.076429	48.2968	-0.078476	-0.566751	-0.134854	NaN
583	1.000000	1.094567	7.37076e+06	-47939.1	1005.82	-29764.2	0.000000	0.000000	7.095165	0.108569	NaN	0.000000	0.001591	0.001762	28.0792	0.028694	0.001957	14.6657	-84.1698	-166.502	0.030995	1.093267	-0.035272	-0.036572	0.108569	14.6657	-0.040825	-0.047910	-2.266100	NaN
583	2.000000	1.133790	7.37076e+06	-47939.1	1005.82	-29764.2	0.000000	0.000000	7.134800	10.1237	NaN	0.000000	0.001616	0.001733	28.081	8.962241	0.001450	6181.24	2.983167	8.180715	8.729213	1.133425	0.003951	0.003586	10.1237	6181.24	0.002723	0.002148	4713.72	121860
583	2.000000	1.144206	7.37076e+06	-47939.1	1005.82	-29764.2	0.000000	0.000000	7.146017	29.6052	NaN	0.000000	0.001577	0.001747	28.0806	20.6452	0.001839	11224.7	4.806399	-175.915	29.1119	1.143845	0.014367	0.014005	29.6052	11224.7	0.012389	0.011959	2475.59	93778.6
583	2.000000	1.154643	7.37076e+06	-47939.1	1005.82	-29764.2	0.000000	0.000000	7.157815	62.7112	NaN	0.000000	0.001661	0.001783	28.0807	30.5862	0.001824	16771	4.760499	-0.578326	60.0659	1.154309	0.024804	0.024469	62.7112	16771	0.022000	0.025782	2432.32	95426.5
583	2.000000	1.165191	7.37076e+06	-47939.1	1005.82	-29764.2	0.000000	0.000000	7.169977	101.977	NaN	0.000000	0.001624	0.001759	28.0801	43.0358	0.001796	23961.2	9.573047	171.623	101.442	1.164755	0.035351	0.034915	101.977	23961.2	0.032159	0.045338	2249.26	102814
583	2.000000	1.175619	7.37076e+06	-47939.1	1005.82	-29764.2	0.000000	0.000000	7.182456	151.836	NaN	0.000000	0.001618	0.001712	28.0797	51.0373	0.001706	29914.7	2.016564	-2.388851	147.157	1.175195	0.045780	0.045356	151.836	29914.7	0.041973	0.069228	2193.28	103876
583	2.000000	1.186135	7.37076e+06	-47939.1	1005.82	-29764.2	0.000000	0.000000	7.195068	202.848	NaN	0.000000	0.001595	0.001735	28.0797	61.4016	0.001712	35855.7	0.768405	177.393	198.46	1.185788	0.056295	0.055949	202.848	35855.7	0.052052	0.098862	2051.84	104188
583	2.000000	1.196624	7.37076e+06	-47939.1	1005.82	-29764.2	0.000000	0.000000	7.208032	263.034	NaN	0.000000	0.001601	0.001729	28.0796	72.4319	0.001774	40827.8	-0.046040	-3.083120	261.02	1.196354	0.066785	0.066515	263.034	40827.8	0.061953	0.132905	1979.11	102319
583	2.000000	1.207071	7.37076e+06	-47939.1	1005.82	-29764.2	0.000000	0.000000	7.221631	339.702	NaN	0.000000	0.001629	0.001721	28.081	82.376	0.001658	49678.8	2.864973	172.996	337.236	1.206663	0.077232	0.076824	339.702	49678.8	0.072103	0.172749	1966.44	109204
583	2.000000	1.217454	7.37076e+06	-47939.1	1005.82	-29764.2	0.000000	0.000000	7.234662	404.117	NaN	0.000000	0.001672	0.001710	28.0806	93.9579	0.001907	49257.1	4.751192	-9.342621	394.157	1.217150	0.087614	0.087311	404.117	49257.1	0.081461	0.213810	1890.07	97325.8
583	2.000000	1.228060	7.37076e+06	-47939.1	1005.82	-29764.2	0.000000	0.000000	7.248915	492.819	NaN	0.000000	0.001639	0.001692	28.0808	100.535	0.001786	56293.4	2.386916	172.827	491.586	1.227742	0.098221	0.097903	492.819	56293.4	0.091655	0.263168	1872.64	100257
583	2.000000	1.231002	7.37076e+06	-47939.1	1005.82	-29764.2	0.000000	0.000000	7.253077	522.472	NaN	0.000000	0.001646	0.001728	28.0806	105.256	0.001828	57568.1	5.677099	169.371	518.406	1.230671	0.101163	0.100831	522.472	57568.1	0.094356	0.277046	1885.86	99926