File: remote_trans/data/nanoindenter/0828-1/data/Data_2025-08-06,11h17m57s/2025-07-22_16-23-58_1_656.txt
2025-07-22, 16:23:58, 1
Index	Phase	Displacement	Time	Pos X	Pos Y	Pos Z	Rot A	Rot B	Piezo Z	Force A	Force B	Gripper	Voltage A	Voltage B	Temperature	Amplitude force	Amplitude pos	Stiffness	Phase shift	Phase excitation	Force A raw	Displacement raw	HMax	HMax raw	Real Force	Real Stiffness	Contact Depth	Area	Hardness	Reduced Mod.
[#]	[#]	[um]	[s]	[um]	[um]	[um]	[m°]	[m°]	[um]	[uN]	[uN]	[V]	[V]	[V]	[°C]	[uN]	[um]	[N/m]	[°]	[°]	[uN]	[um]	[um]	[um]	[uN]	[N/m]	[um]	[um^2]	[MPa]	[MPa]
656	1.000000	0.003319	7.37147e+06	-44289.1	1005.82	-29776.2	0.000000	0.000000	6.002831	0.002310	NaN	0.000000	0.001606	0.001769	28.0839	0.061703	0.000865	71.3002	-48.7455	-168.79	0.034282	0.002042	-1.131284	-1.132562	0.002310	71.3002	-1.131309	-1.318791E+15	-1.751822E-18	NaN
656	1.000000	0.045267	7.37147e+06	-44289.1	1005.82	-29776.2	0.000000	0.000000	6.044779	-0.000945	NaN	0.000000	0.001591	0.001688	28.0838	0.091104	0.001955	46.6123	-131.239	20.632	-0.027352	0.043842	-1.089336	-1.090761	-0.000945	46.6123	-1.089321	-3.603222E+14	2.623524E-18	NaN
656	1.000000	0.087244	7.37147e+06	-44289.1	1005.82	-29776.2	0.000000	0.000000	6.086755	-0.009347	NaN	0.000000	0.001589	0.001711	28.0835	0.065477	0.001904	34.3838	28.738	-163.577	-0.068505	0.085913	-1.047360	-1.048690	-0.009347	34.3838	-1.047156	-9.776385E+13	9.561158E-17	NaN
656	1.000000	0.129276	7.37147e+06	-44289.1	1005.82	-29776.2	0.000000	0.000000	6.128789	0.044539	NaN	0.000000	0.001606	0.001679	28.0822	0.093591	0.001892	49.4692	-39.3006	16.1728	-0.005921	0.127922	-1.005328	-1.006681	0.044539	49.4692	-1.006003	-2.732622E+13	-1.629891E-15	NaN
656	1.000000	0.171284	7.37147e+06	-44289.1	1005.82	-29776.2	0.000000	0.000000	6.170793	-0.047193	NaN	0.000000	0.001554	0.001702	28.0823	0.099039	0.002071	47.8178	44.7248	-167.231	-0.066383	0.169961	-0.963320	-0.964642	-0.047193	47.8178	-0.962580	-7.106336E+12	6.640918E-15	NaN
656	1.000000	0.213276	7.37147e+06	-44289.1	1005.82	-29776.2	0.000000	0.000000	6.212784	-0.095755	NaN	0.000000	0.001576	0.001673	28.082	0.068817	0.002018	34.1079	-144.391	17.2779	-0.069244	0.211940	-0.921327	-0.922664	-0.095755	34.1079	-0.919222	-1.847970E+12	5.181633E-14	NaN
656	1.000000	0.255328	7.37147e+06	-44289.1	1005.82	-29776.2	0.000000	0.000000	6.254842	0.034408	NaN	0.000000	0.001546	0.001674	28.082	0.130372	0.001889	69.0187	144.069	-164.599	0.074063	0.254005	-0.879275	-0.880598	0.034408	69.0187	-0.879649	-5.394605E+11	-6.378248E-14	NaN
656	1.000000	0.297344	7.37147e+06	-44289.1	1005.82	-29776.2	0.000000	0.000000	6.296858	0.066615	NaN	0.000000	0.001653	0.001680	28.0835	0.086948	0.001924	45.1876	83.1048	13.8754	-0.009443	0.296011	-0.837260	-0.838592	0.066615	45.1876	-0.838365	-1.489866E+11	-4.471241E-13	NaN
656	1.000000	0.339343	7.37147e+06	-44289.1	1005.82	-29776.2	0.000000	0.000000	6.338855	0.013546	NaN	0.000000	0.001633	0.001717	28.0835	0.052546	0.002141	24.5416	13.5589	-164.437	0.018147	0.338035	-0.795261	-0.796568	0.013546	24.5416	-0.795675	-3.927758E+10	-3.448913E-13	NaN
656	1.000000	0.381348	7.37147e+06	-44289.1	1005.82	-29776.2	0.000000	0.000000	6.380861	0.051141	NaN	0.000000	0.001648	0.001681	28.0834	0.045975	0.001964	23.4126	-43.567	16.0708	0.017144	0.379995	-0.753256	-0.754608	0.051141	23.4126	-0.754894	-1.096047E+10	-4.665906E-12	NaN
656	1.000000	0.423380	7.37147e+06	-44289.1	1005.82	-29776.2	0.000000	0.000000	6.422891	-0.024083	NaN	0.000000	0.001608	0.001672	28.0821	0.013423	0.002044	6.568205	-126.366	-164.492	-0.052721	0.422099	-0.711223	-0.712504	-0.024083	6.568205	-0.708473	-2.553963E+9	9.429593E-12	NaN
656	1.000000	0.465417	7.37147e+06	-44289.1	1005.82	-29776.2	0.000000	0.000000	6.464930	0.024026	NaN	0.000000	0.001556	0.001664	28.0823	0.070260	0.002019	34.7949	-170.05	15.0205	-0.005480	0.464121	-0.669186	-0.670482	0.024026	34.7949	-0.669704	-7.539530E+8	-3.186726E-11	NaN
656	1.000000	0.507430	7.37147e+06	-44289.1	1005.82	-29776.2	0.000000	0.000000	6.506939	-0.061336	NaN	0.000000	0.001572	0.001690	28.0827	0.070885	0.001934	36.6458	172.08	-163.246	-0.000954	0.506127	-0.627173	-0.628476	-0.061336	36.6458	-0.625918	-1.892147E+8	3.241585E-10	NaN
656	1.000000	0.549451	7.37147e+06	-44289.1	1005.82	-29776.2	0.000000	0.000000	6.548963	0.001727	NaN	0.000000	0.001576	0.001709	28.0836	0.036409	0.001953	18.6425	-52.9602	13.4424	0.103449	0.548153	-0.585153	-0.586450	0.001727	18.6425	-0.585222	-5.209304E+7	-3.314891E-11	NaN
656	1.000000	0.591458	7.37147e+06	-44289.1	1005.82	-29776.2	0.000000	0.000000	6.590970	0.003313	NaN	0.000000	0.001612	0.001693	28.0836	0.091187	0.002003	45.5263	-151.468	-163.778	0.007826	0.590100	-0.543145	-0.544503	0.003313	45.5263	-0.543200	-1.366856E+7	-2.423919E-10	NaN
656	1.000000	0.633474	7.37147e+06	-44289.1	1005.82	-29776.2	0.000000	0.000000	6.632985	-0.029167	NaN	0.000000	0.001581	0.001689	28.0836	0.145600	0.002113	68.9067	14.563	16.7802	0.056552	0.632142	-0.501129	-0.502462	-0.029167	68.9067	-0.500812	-3.51835e+06	8.290077E-9	NaN
656	1.000000	0.675486	7.37147e+06	-44289.1	1005.82	-29776.2	0.000000	0.000000	6.674998	0.001273	NaN	0.000000	0.001547	0.001699	28.0824	0.120345	0.001922	62.5983	69.5192	-161.816	0.005530	0.674151	-0.459117	-0.460452	0.001273	62.5983	-0.459132	-917964	-1.386336E-9	NaN
656	1.000000	0.717527	7.37147e+06	-44289.1	1005.82	-29776.2	0.000000	0.000000	6.717038	-0.029267	NaN	0.000000	0.001599	0.001699	28.0825	0.074879	0.001984	37.7323	-107.681	13.6799	-0.029432	0.716181	-0.417076	-0.418422	-0.029267	37.7323	-0.416495	-229444	1.275561E-7	NaN
656	1.000000	0.759552	7.37147e+06	-44289.1	1005.82	-29776.2	0.000000	0.000000	6.759063	-0.006466	NaN	0.000000	0.001616	0.001719	28.0825	0.133537	0.002003	66.6803	72.0673	-162.612	-0.049884	0.758256	-0.375052	-0.376348	-0.006466	66.6803	-0.374979	-58582.3	1.103751E-7	NaN
656	1.000000	0.801548	7.37147e+06	-44289.1	1005.82	-29776.2	0.000000	0.000000	6.801058	-0.029028	NaN	0.000000	0.001547	0.001730	28.0822	0.075144	0.002016	37.2718	90.3943	15.2908	-0.005466	0.800174	-0.333056	-0.334430	-0.029028	37.2718	-0.332472	-14178.4	2.047319E-6	NaN
656	1.000000	0.843588	7.37147e+06	-44289.1	1005.82	-29776.2	0.000000	0.000000	6.843102	0.035038	NaN	0.000000	0.001615	0.001691	28.0837	0.018734	0.002077	9.018613	-153.056	-164.429	0.082475	0.842229	-0.291015	-0.292374	0.035038	9.018613	-0.293929	-3820.2	-9.171721E-6	NaN
656	1.000000	0.885568	7.37147e+06	-44289.1	1005.82	-29776.2	0.000000	0.000000	6.885080	0.009407	NaN	0.000000	0.001579	0.001719	28.0837	0.063726	0.001987	32.0718	121.082	15.3241	-0.040532	0.884223	-0.249036	-0.250380	0.009407	32.0718	-0.249256	-800.663	-1.174921E-5	NaN
656	1.000000	0.927574	7.37147e+06	-44289.1	1005.82	-29776.2	0.000000	0.000000	6.927084	-0.050342	NaN	0.000000	0.001549	0.001714	28.0838	0.035231	0.002031	17.3464	-131.446	-164.65	-0.134470	0.926275	-0.207029	-0.208329	-0.050342	17.3464	-0.204853	-158.181	0.000318	NaN
656	1.000000	0.969605	7.37147e+06	-44289.1	1005.82	-29776.2	0.000000	0.000000	6.969117	-0.005615	NaN	0.000000	0.001595	0.001714	28.0832	0.034556	0.001964	17.5944	76.0074	15.8156	-0.110697	0.968283	-0.164998	-0.166321	-0.005615	17.5944	-0.164759	-33.2715	0.000169	NaN
656	1.000000	1.011650	7.37147e+06	-44289.1	1005.82	-29776.2	0.000000	0.000000	7.011159	-0.052161	NaN	0.000000	0.001604	0.001669	28.0828	0.092168	0.002004	45.9914	65.7874	-167.508	-0.025473	1.010310	-0.122954	-0.124293	-0.052161	45.9914	-0.122103	-5.325389	0.009795	NaN
656	1.000000	1.053647	7.37147e+06	-44289.1	1005.82	-29776.2	0.000000	0.000000	7.053158	-0.008660	NaN	0.000000	0.001564	0.001662	28.0827	0.025938	0.002060	12.5906	63.3442	16.1952	0.048640	1.052297	-0.080957	-0.082306	-0.008660	12.5906	-0.080441	-0.634877	0.013640	NaN
656	1.000000	1.095695	7.37147e+06	-44289.1	1005.82	-29776.2	0.000000	0.000000	7.095211	0.098923	NaN	0.000000	0.001577	0.001715	28.0837	0.089588	0.002003	44.7378	67.8674	-163.513	0.043012	1.094337	-0.038908	-0.040266	0.098923	44.7378	-0.040567	-0.047052	-2.102419	NaN
656	1.000000	1.137623	7.37147e+06	-44289.1	1005.82	-29776.2	0.000000	0.000000	7.137364	5.578473	NaN	0.000000	0.001571	0.001688	28.0839	5.736525	0.001793	3199.58	1.554990	14.8905	2.737090	1.136318	0.003020	0.001715	5.578473	3199.58	0.001712	0.001323	4215.9	80362.6
656	2.000000	1.150075	7.37147e+06	-44289.1	1005.82	-29776.2	0.000000	0.000000	7.150781	29.062	NaN	0.000000	0.001603	0.001716	28.0842	19.51	0.001832	10647.7	6.788230	-177.32	29.2799	1.149791	0.015472	0.015188	29.062	10647.7	0.013425	0.013242	2194.76	84539.1
656	2.000000	1.160539	7.37147e+06	-44289.1	1005.82	-29776.2	0.000000	0.000000	7.162407	57.322	NaN	0.000000	0.001608	0.001660	28.0834	30.1534	0.001914	15755.1	7.922553	-1.387727	56.1109	1.160131	0.025935	0.025527	57.322	15755.1	0.023207	0.027834	2059.43	86279.5
656	2.000000	1.171037	7.37147e+06	-44289.1	1005.82	-29776.2	0.000000	0.000000	7.174172	88.1457	NaN	0.000000	0.001542	0.001688	28.0829	38.7406	0.001721	22506.5	6.819476	176.175	89.0007	1.170686	0.036434	0.036082	88.1457	22506.5	0.033496	0.048303	1824.85	93560.8
656	2.000000	1.181490	7.37147e+06	-44289.1	1005.82	-29776.2	0.000000	0.000000	7.186472	133.085	NaN	0.000000	0.001579	0.001669	28.0827	48.4055	0.001849	26182.8	4.940430	-3.533149	130.561	1.181090	0.046887	0.046486	133.085	26182.8	0.043075	0.072216	1842.89	89017.1
656	2.000000	1.191988	7.37147e+06	-44289.1	1005.82	-29776.2	0.000000	0.000000	7.199112	185.195	NaN	0.000000	0.001590	0.001684	28.0824	57.4933	0.001878	30620.2	4.743037	177.062	183.371	1.191539	0.057384	0.056936	185.195	30620.2	0.052848	0.101420	1826.02	87845.4
656	2.000000	1.202431	7.37147e+06	-44289.1	1005.82	-29776.2	0.000000	0.000000	7.212097	247.038	NaN	0.000000	0.001528	0.001668	28.0836	69.9122	0.001929	36237.9	4.961255	-5.889382	243.832	1.202144	0.067827	0.067541	247.038	36237.9	0.062715	0.135722	1820.18	89869.3
656	2.000000	1.212947	7.37147e+06	-44289.1	1005.82	-29776.2	0.000000	0.000000	7.225279	311.903	NaN	0.000000	0.001602	0.001681	28.0838	80.2086	0.001879	42686.4	1.454145	176.26	309.794	1.212625	0.078344	0.078022	311.903	42686.4	0.072863	0.175931	1772.87	92980.6
656	2.000000	1.223403	7.37147e+06	-44289.1	1005.82	-29776.2	0.000000	0.000000	7.239193	396.025	NaN	0.000000	0.001597	0.001732	28.0837	90.6117	0.001919	47230.2	6.344451	-9.235213	393.108	1.223128	0.088799	0.088524	396.025	47230.2	0.082511	0.218670	1811.07	92278.1
656	2.000000	1.233877	7.37147e+06	-44289.1	1005.82	-29776.2	0.000000	0.000000	7.253311	484.678	NaN	0.000000	0.001583	0.001720	28.0828	98.0073	0.001767	55478.2	3.036261	172.777	481.647	1.233592	0.099274	0.098989	484.678	55478.2	0.092721	0.268606	1804.42	97799.6
656	2.000000	1.239012	7.37147e+06	-44289.1	1005.82	-29776.2	0.000000	0.000000	7.260100	524.914	NaN	0.000000	0.001592	0.001725	28.0826	103.965	0.001870	55590.2	5.648688	170.638	526.762	1.238530	0.104409	0.103927	524.914	55590.2	0.097327	0.292696	1793.37	93877.9