File: remote_trans/data/nanoindenter/0828-1/data/Data_2025-08-06,11h17m57s/2025-07-22_16-23-58_1_366.txt
2025-07-22, 16:23:58, 1
Index	Phase	Displacement	Time	Pos X	Pos Y	Pos Z	Rot A	Rot B	Piezo Z	Force A	Force B	Gripper	Voltage A	Voltage B	Temperature	Amplitude force	Amplitude pos	Stiffness	Phase shift	Phase excitation	Force A raw	Displacement raw	HMax	HMax raw	Real Force	Real Stiffness	Contact Depth	Area	Hardness	Reduced Mod.
[#]	[#]	[um]	[s]	[um]	[um]	[um]	[m°]	[m°]	[um]	[uN]	[uN]	[V]	[V]	[V]	[°C]	[uN]	[um]	[N/m]	[°]	[°]	[uN]	[um]	[um]	[um]	[uN]	[N/m]	[um]	[um^2]	[MPa]	[MPa]
366	1.000000	0.002105	7.36864e+06	-56939.1	955.819	-29738	0.000000	0.000000	6.002809	-0.018703	NaN	0.000000	0.001680	0.001691	28.0824	0.081977	0.000890	92.0601	-84.5616	-160.078	0.014362	0.000783	-1.082331	-1.083653	-0.018703	92.0601	-1.082178	-2.889190E+14	6.473583E-17	NaN
366	1.000000	0.044053	7.36864e+06	-56939.1	955.818	-29738	0.000000	0.000000	6.044756	-0.047046	NaN	0.000000	0.001695	0.001728	28.0827	0.109500	0.001930	56.7459	52.8329	12.0712	0.001388	0.042735	-1.040383	-1.041700	-0.047046	56.7459	-1.039761	-7.775998E+13	6.050201E-16	NaN
366	1.000000	0.086075	7.36864e+06	-56939.1	955.818	-29738	0.000000	0.000000	6.086777	-0.062197	NaN	0.000000	0.001683	0.001750	28.0812	0.092061	0.001966	46.822	-7.146751	-166.459	-0.061524	0.084705	-0.998361	-0.999731	-0.062197	46.822	-0.997365	-2.090677E+13	2.974981E-15	NaN
366	1.000000	0.128070	7.36864e+06	-56939.1	955.819	-29738	0.000000	0.000000	6.128775	0.001513	NaN	0.000000	0.001761	0.001723	28.0813	0.095997	0.002007	47.8248	-22.4697	13.6264	-0.035444	0.126712	-0.956366	-0.957723	0.001513	47.8248	-0.956390	-5.863968E+12	-2.579967E-16	NaN
366	1.000000	0.170084	7.36864e+06	-56939.1	955.818	-29738	0.000000	0.000000	6.170787	-0.054220	NaN	0.000000	0.001749	0.001728	28.0813	0.050360	0.002106	23.9127	133.418	-164.653	-0.033055	0.168765	-0.914351	-0.915671	-0.054220	23.9127	-0.912651	-1.506489E+12	3.599123E-14	NaN
366	1.000000	0.212113	7.36864e+06	-56939.1	955.818	-29738	0.000000	0.000000	6.212817	-0.015260	NaN	0.000000	0.001750	0.001748	28.0823	0.078785	0.002006	39.2796	-55.2575	13.3961	-0.041405	0.210720	-0.872323	-0.873716	-0.015260	39.2796	-0.872031	-4.255246E+11	3.586264E-14	NaN
366	1.000000	0.254118	7.36864e+06	-56939.1	955.818	-29738.1	0.000000	0.000000	6.254821	-0.050447	NaN	0.000000	0.001734	0.001743	28.0821	0.078565	0.001989	39.4984	-109.392	-165.505	-0.066209	0.252877	-0.830318	-0.831559	-0.050447	39.4984	-0.829360	-1.124886E+11	4.484611E-13	NaN
366	1.000000	0.296119	7.36864e+06	-56939.1	955.819	-29738.1	0.000000	0.000000	6.296825	0.036337	NaN	0.000000	0.001668	0.001759	28.0818	0.040800	0.001910	21.3607	176.789	12.3254	0.007135	0.294761	-0.788317	-0.789674	0.036337	21.3607	-0.789593	-3.247529E+10	-1.118920E-12	NaN
366	1.000000	0.338147	7.36864e+06	-56939.1	955.818	-29738.1	0.000000	0.000000	6.338856	0.098322	NaN	0.000000	0.001636	0.001707	28.0808	0.068642	0.001924	35.6744	129.03	-162.354	0.083000	0.336858	-0.746288	-0.747578	0.098322	35.6744	-0.748356	-8.929646E+9	-1.101073E-11	NaN
366	1.000000	0.380183	7.36864e+06	-56939.1	955.818	-29738.1	0.000000	0.000000	6.380888	0.009054	NaN	0.000000	0.001656	0.001741	28.081	0.086570	0.001960	44.1785	129.354	15.6557	-0.047842	0.378841	-0.704253	-0.705595	0.009054	44.1785	-0.704407	-2.247500E+9	-4.028405E-12	NaN
366	1.000000	0.422219	7.36864e+06	-56939.1	955.819	-29738.1	0.000000	0.000000	6.422923	-0.032136	NaN	0.000000	0.001691	0.001718	28.0809	0.011553	0.002047	5.643013	-63.8869	-163.537	-0.053115	0.420860	-0.662217	-0.663576	-0.032136	5.643013	-0.657945	-5.203828E+8	6.175489E-11	NaN
366	1.000000	0.464234	7.36864e+06	-56939.1	955.818	-29738.1	0.000000	0.000000	6.464937	-0.058939	NaN	0.000000	0.001661	0.001730	28.0812	0.033406	0.002030	16.4533	-92.121	14.8313	-0.074225	0.462853	-0.620201	-0.621582	-0.058939	16.4533	-0.617515	-1.450330E+8	4.063809E-10	NaN
366	1.000000	0.506250	7.36864e+06	-56939.1	955.818	-29738.1	0.000000	0.000000	6.506952	-0.069185	NaN	0.000000	0.001658	0.001754	28.0822	0.081142	0.001902	42.6635	113.401	-165.367	0.032845	0.504944	-0.578186	-0.579492	-0.069185	42.6635	-0.576969	-4.007659E+7	1.726309E-9	NaN
366	1.000000	0.548245	7.36864e+06	-56939.1	955.818	-29738.1	0.000000	0.000000	6.548952	0.028948	NaN	0.000000	0.001649	0.001769	28.0821	0.075771	0.001927	39.3162	3.200171	14.5942	-0.004200	0.546919	-0.536190	-0.537517	0.028948	39.3162	-0.536742	-1.112161E+7	-2.602875E-9	NaN
366	1.000000	0.590265	7.36864e+06	-56939.1	955.819	-29738.1	0.000000	0.000000	6.590970	-0.010866	NaN	0.000000	0.001681	0.001735	28.0822	0.024398	0.002037	11.9763	-79.1406	-163.008	0.029312	0.588990	-0.494170	-0.495445	-0.010866	11.9763	-0.493490	-2.78064e+06	3.907774E-9	NaN
366	1.000000	0.632288	7.36864e+06	-56939.1	955.818	-29738.1	0.000000	0.000000	6.632993	0.013118	NaN	0.000000	0.001686	0.001824	28.081	0.071885	0.002034	35.3471	103.041	16.8368	0.008007	0.630940	-0.452148	-0.453496	0.013118	35.3471	-0.452426	-738756	-1.775677E-8	NaN
366	1.000000	0.674318	7.36864e+06	-56939.1	955.819	-29738.1	0.000000	0.000000	6.675020	-0.079734	NaN	0.000000	0.001762	0.001742	28.0809	0.130558	0.002114	61.7538	-3.448189	-165.484	-0.053643	0.672997	-0.410118	-0.411439	-0.079734	61.7538	-0.409149	-180427	4.419212E-7	NaN
366	1.000000	0.716345	7.36864e+06	-56939.1	955.819	-29738.1	0.000000	0.000000	6.717050	0.007828	NaN	0.000000	0.001784	0.001801	28.0809	0.072427	0.001982	36.5366	-37.3638	14.9348	-0.058974	0.714971	-0.368091	-0.369464	0.007828	36.5366	-0.368252	-46875	-1.669899E-7	NaN
366	1.000000	0.758366	7.36864e+06	-56939.1	955.819	-29738.1	0.000000	0.000000	6.759070	-0.014740	NaN	0.000000	0.001770	0.001737	28.0822	0.070587	0.002029	34.7941	-84.5686	-162.44	-0.035013	0.757047	-0.326070	-0.327388	-0.014740	34.7941	-0.325752	-11302.6	1.304096E-6	NaN
366	1.000000	0.800352	7.36864e+06	-56939.1	955.819	-29738.1	0.000000	0.000000	6.801056	-0.026907	NaN	0.000000	0.001755	0.001772	28.0822	0.005773	0.001956	2.950615	-112.809	15.3717	-0.055896	0.798998	-0.284083	-0.285438	-0.026907	2.950615	-0.277244	-2144.6	1.254658E-5	NaN
366	1.000000	0.842368	7.36865e+06	-56939.1	955.817	-29738.1	0.000000	0.000000	6.843070	-0.072171	NaN	0.000000	0.001731	0.001826	28.0823	0.049770	0.001927	25.8234	-109.315	-165.729	-0.005105	0.841132	-0.242068	-0.243303	-0.072171	25.8234	-0.239972	-574.262	0.000126	NaN
366	1.000000	0.884410	7.36865e+06	-56939.1	955.817	-29738.1	0.000000	0.000000	6.885113	-0.056031	NaN	0.000000	0.001720	0.001814	28.0811	0.152035	0.002006	75.7779	-99.3352	16.2587	-0.013515	0.883040	-0.200026	-0.201395	-0.056031	75.7779	-0.199471	-129.123	0.000434	NaN
366	1.000000	0.926421	7.36865e+06	-56939.1	955.818	-29738.1	0.000000	0.000000	6.927127	0.014773	NaN	0.000000	0.001751	0.001801	28.0809	0.069888	0.002081	33.5768	24.6025	-162.027	0.061887	0.925130	-0.158015	-0.159306	0.014773	33.5768	-0.158345	-25.6159	-0.000577	NaN
366	1.000000	0.968409	7.36865e+06	-56939.1	955.818	-29738.1	0.000000	0.000000	6.969114	-0.008938	NaN	0.000000	0.001698	0.001781	28.0807	0.030565	0.002033	15.0366	-134.426	15.6753	-0.035370	0.967097	-0.116026	-0.117339	-0.008938	15.0366	-0.115580	-3.926943	0.002276	NaN
366	1.000000	1.010427	7.36865e+06	-56939.1	955.818	-29738.1	0.000000	0.000000	7.011131	-0.020863	NaN	0.000000	0.001704	0.001809	28.0811	0.103020	0.001954	52.723	-104.422	-167.472	-0.070565	1.009146	-0.074008	-0.075290	-0.020863	52.723	-0.073712	-0.427603	0.048791	NaN
366	1.000000	1.052441	7.36865e+06	-56939.1	955.819	-29738.1	0.000000	0.000000	7.053143	-0.053640	NaN	0.000000	0.001701	0.001800	28.0822	0.038959	0.001960	19.8719	158.158	15.1815	-0.072162	1.051090	-0.031995	-0.033346	-0.053640	19.8719	-0.029970	-0.022969	2.335311	NaN
366	1.000000	1.094453	7.36865e+06	-56939.1	955.82	-29738.1	0.000000	0.000000	7.095453	7.168929	NaN	0.000000	0.001766	0.001801	28.0823	7.813106	0.001681	4647.58	12.0567	-170.429	5.833141	1.093119	0.010018	0.008683	7.168929	4647.58	0.008861	0.007943	902.582	47644.9
366	2.000000	1.106427	7.36865e+06	-56939.1	955.82	-29738.1	0.000000	0.000000	7.108085	23.1663	NaN	0.000000	0.001641	0.001794	28.0826	21.2715	0.001934	10996.7	8.191503	3.940463	23.3761	1.106072	0.021991	0.021636	23.1663	10996.7	0.020411	0.023193	998.856	65972
366	2.000000	1.116876	7.36865e+06	-56939.1	955.82	-29738.1	0.000000	0.000000	7.119493	46.4831	NaN	0.000000	0.001706	0.001782	28.0811	30.1308	0.001680	17934.8	5.712596	-179.889	45.843	1.116561	0.032440	0.032126	46.4831	17934.8	0.030496	0.041779	1112.6	80166.2
366	2.000000	1.127271	7.36865e+06	-56939.1	955.819	-29738.1	0.000000	0.000000	7.131338	81.7136	NaN	0.000000	0.001656	0.001784	28.0812	41.8468	0.001709	24486.6	3.416981	-0.451613	77.5136	1.126971	0.042836	0.042535	81.7136	24486.6	0.040333	0.064891	1259.24	87822.9
366	2.000000	1.137870	7.36865e+06	-56939.1	955.819	-29738.1	0.000000	0.000000	7.143892	129.227	NaN	0.000000	0.001681	0.001828	28.0809	53.6072	0.001757	30509.6	7.471351	173.478	130.168	1.137501	0.053435	0.053065	129.227	30509.6	0.050258	0.093212	1386.37	91300.7
366	2.000000	1.148333	7.36865e+06	-56939.1	955.82	-29738.1	0.000000	0.000000	7.156481	180.904	NaN	0.000000	0.001682	0.001748	28.0824	64.3638	0.001806	35637	8.013494	-8.032322	180.587	1.147974	0.063898	0.063538	180.904	35637	0.060090	0.126133	1434.23	91677.1
366	2.000000	1.158760	7.36865e+06	-56939.1	955.821	-29738.1	0.000000	0.000000	7.169695	248.648	NaN	0.000000	0.001770	0.001765	28.0825	74.6102	0.001824	40899.2	6.842322	172.357	244.563	1.158416	0.074324	0.073981	248.648	40899.2	0.069765	0.163132	1524.22	92516.4
366	2.000000	1.169318	7.36865e+06	-56939.1	955.82	-29738.1	0.000000	0.000000	7.183233	321.079	NaN	0.000000	0.001770	0.001850	28.0828	86.2081	0.001791	48132.6	5.452170	-7.557255	320.586	1.168991	0.084883	0.084556	321.079	48132.6	0.079880	0.206583	1554.24	96753.3
366	2.000000	1.179983	7.36865e+06	-56939.1	955.821	-29738.1	0.000000	0.000000	7.196858	393.01	NaN	0.000000	0.001684	0.001797	28.0815	96.7234	0.001775	54490.4	9.093508	168.149	405.873	1.179479	0.095548	0.095044	393.01	54490.4	0.090138	0.255522	1538.07	98487
366	2.000000	1.190269	7.36865e+06	-56939.1	955.821	-29738.1	0.000000	0.000000	7.211028	487.434	NaN	0.000000	0.001704	0.001787	28.0813	106.128	0.001898	55920.9	6.166285	-9.151930	483.635	1.189830	0.105833	0.105395	487.434	55920.9	0.099296	0.303287	1607.17	92772.8
366	2.000000	1.194692	7.36865e+06	-56939.1	955.821	-29738.1	0.000000	0.000000	7.217322	532.895	NaN	0.000000	0.001736	0.001792	28.0816	108.24	0.001779	60850.6	5.620268	170.749	527.165	1.194257	0.110256	0.109822	532.895	60850.6	0.103688	0.327554	1626.89	97139.6