File: remote_trans/data/nanoindenter/0828-1/data/Data_2025-08-06,11h17m57s/2025-07-22_16-23-58_1_502.txt
2025-07-22, 16:23:58, 1
Index	Phase	Displacement	Time	Pos X	Pos Y	Pos Z	Rot A	Rot B	Piezo Z	Force A	Force B	Gripper	Voltage A	Voltage B	Temperature	Amplitude force	Amplitude pos	Stiffness	Phase shift	Phase excitation	Force A raw	Displacement raw	HMax	HMax raw	Real Force	Real Stiffness	Contact Depth	Area	Hardness	Reduced Mod.
[#]	[#]	[um]	[s]	[um]	[um]	[um]	[m°]	[m°]	[um]	[uN]	[uN]	[V]	[V]	[V]	[°C]	[uN]	[um]	[N/m]	[°]	[°]	[uN]	[um]	[um]	[um]	[uN]	[N/m]	[um]	[um^2]	[MPa]	[MPa]
502	1.000000	0.002633	7.36996e+06	-51989.1	1005.82	-29750.7	0.000000	0.000000	6.002765	-0.107494	NaN	0.000000	0.001551	0.001761	28.0823	0.038155	0.001048	36.3917	-36.1658	-166.378	-0.125115	0.001417	-0.960687	-0.961904	-0.107494	36.3917	-0.958472	-6.255604E+12	1.718365E-14	NaN
502	1.000000	0.040629	7.36996e+06	-51989.1	1005.82	-29750.7	0.000000	0.000000	6.040763	-0.073567	NaN	0.000000	0.001559	0.001752	28.0823	0.071719	0.001999	35.873	-73.4663	12.529	-0.086727	0.039274	-0.922691	-0.924047	-0.073567	35.873	-0.921153	-1.962341E+12	3.748959E-14	NaN
502	1.000000	0.078638	7.36996e+06	-51989.1	1005.82	-29750.7	0.000000	0.000000	6.078770	-0.094557	NaN	0.000000	0.001552	0.001791	28.0823	0.053213	0.002071	25.6967	-139.219	-165.879	-0.173097	0.077349	-0.884683	-0.885971	-0.094557	25.6967	-0.881923	-5.790479E+11	1.632975E-13	NaN
502	1.000000	0.116659	7.36996e+06	-51989.1	1005.82	-29750.7	0.000000	0.000000	6.116792	-0.065702	NaN	0.000000	0.001533	0.001762	28.0821	0.092245	0.002121	43.4959	-147.858	15.7706	-0.075813	0.115251	-0.846662	-0.848070	-0.065702	43.4959	-0.845529	-1.862876E+11	3.526899E-13	NaN
502	1.000000	0.154671	7.36996e+06	-51989.1	1005.82	-29750.7	0.000000	0.000000	6.154804	-0.064196	NaN	0.000000	0.001549	0.001739	28.081	0.110609	0.002083	53.1078	166.208	-167.651	-0.084073	0.153341	-0.808650	-0.809979	-0.064196	53.1078	-0.807743	-5.727308E+10	1.120872E-12	NaN
502	1.000000	0.192680	7.36996e+06	-51989.1	1005.82	-29750.7	0.000000	0.000000	6.192813	-0.096004	NaN	0.000000	0.001566	0.001727	28.0813	0.033035	0.002013	16.4124	-73.6473	10.5065	-0.137471	0.191315	-0.770640	-0.772005	-0.096004	16.4124	-0.766253	-1.564421E+10	6.136709E-12	NaN
502	1.000000	0.230705	7.36996e+06	-51989.1	1005.82	-29750.7	0.000000	0.000000	6.230838	-0.074055	NaN	0.000000	0.001600	0.001726	28.0809	0.021424	0.002019	10.6108	35.0637	-167.108	-0.065393	0.229374	-0.732615	-0.733947	-0.074055	10.6108	-0.727381	-4.624996E+9	1.601199E-11	NaN
502	1.000000	0.268705	7.36996e+06	-51989.1	1005.82	-29750.7	0.000000	0.000000	6.268840	-0.035653	NaN	0.000000	0.001596	0.001744	28.0823	0.081966	0.002039	40.1955	-160.856	15.1763	0.008483	0.267353	-0.694615	-0.695968	-0.035653	40.1955	-0.693950	-1.617680E+9	2.203933E-11	NaN
502	1.000000	0.306692	7.36996e+06	-51989.1	1005.82	-29750.7	0.000000	0.000000	6.306823	-0.108265	NaN	0.000000	0.001593	0.001781	28.0822	0.071549	0.002113	33.869	-37.7999	-164.239	-0.027332	0.305436	-0.656629	-0.657884	-0.108265	33.869	-0.654231	-4.628439E+8	2.339116E-10	NaN
502	1.000000	0.344738	7.36996e+06	-51989.1	1005.82	-29750.7	0.000000	0.000000	6.344870	-0.091032	NaN	0.000000	0.001649	0.001709	28.0824	0.056819	0.001958	29.0125	-110.939	11.5521	-0.068213	0.343407	-0.618583	-0.619913	-0.091032	29.0125	-0.616229	-1.392503E+8	6.537296E-10	NaN
502	1.000000	0.382744	7.36996e+06	-51989.1	1005.82	-29750.7	0.000000	0.000000	6.382876	-0.122984	NaN	0.000000	0.001580	0.001764	28.0822	0.080415	0.001952	41.1977	102.174	-163.553	-0.164479	0.381466	-0.580576	-0.581854	-0.122984	41.1977	-0.578337	-4.185764E+7	2.938150E-9	NaN
502	1.000000	0.420773	7.36996e+06	-51989.1	1005.82	-29750.7	0.000000	0.000000	6.420907	-0.064722	NaN	0.000000	0.001579	0.001738	28.081	0.078978	0.001921	41.1221	72.9086	14.133	-0.038233	0.419450	-0.542547	-0.543871	-0.064722	41.1221	-0.541367	-1.289182E+7	5.020367E-9	NaN
502	1.000000	0.458786	7.36996e+06	-51989.1	1005.82	-29750.7	0.000000	0.000000	6.458917	-0.130097	NaN	0.000000	0.001555	0.001700	28.0811	0.021572	0.001870	11.5333	-4.166246	-168.206	-0.075795	0.457515	-0.504534	-0.505806	-0.130097	11.5333	-0.496074	-3.02157e+06	4.305609E-8	NaN
502	1.000000	0.496802	7.36996e+06	-51989.1	1005.82	-29750.7	0.000000	0.000000	6.496935	-0.082208	NaN	0.000000	0.001572	0.001742	28.0813	0.105228	0.001968	53.4562	-20.2861	13.3948	-0.139230	0.495451	-0.466518	-0.467869	-0.082208	53.4562	-0.465365	-1.12298e+06	7.320529E-8	NaN
502	1.000000	0.534808	7.36996e+06	-51989.1	1005.82	-29750.7	0.000000	0.000000	6.534940	-0.104831	NaN	0.000000	0.001594	0.001779	28.0818	0.040872	0.002034	20.0916	-150.112	-169.129	-0.099104	0.533505	-0.428513	-0.429815	-0.104831	20.0916	-0.424600	-298959	3.506527E-7	NaN
502	1.000000	0.572853	7.36997e+06	-51989.1	1005.82	-29750.7	0.000000	0.000000	6.572985	-0.097020	NaN	0.000000	0.001627	0.001749	28.0824	0.053669	0.002011	26.6899	-105.48	15.1904	-0.106821	0.571472	-0.390467	-0.391849	-0.097020	26.6899	-0.387741	-89298.3	1.086474E-6	NaN
502	1.000000	0.610824	7.36997e+06	-51989.1	1005.82	-29750.7	0.000000	0.000000	6.610956	-0.105033	NaN	0.000000	0.001585	0.001738	28.0825	0.071631	0.002055	34.8529	-110.396	-167.328	-0.068338	0.609563	-0.352496	-0.353758	-0.105033	34.8529	-0.350236	-25729.1	4.082254E-6	NaN
502	1.000000	0.648859	7.36997e+06	-51989.1	1005.82	-29750.7	0.000000	0.000000	6.648995	-0.014677	NaN	0.000000	0.001573	0.001746	28.0823	0.046968	0.002055	22.8533	150.168	11.7725	-0.056676	0.647510	-0.314461	-0.315811	-0.014677	22.8533	-0.313979	-7583.71	1.935284E-6	NaN
502	1.000000	0.686904	7.36997e+06	-51989.1	1005.82	-29750.7	0.000000	0.000000	6.687036	-0.084022	NaN	0.000000	0.001565	0.001727	28.0812	0.150977	0.002111	71.5182	179.532	-165.5	-0.097686	0.685532	-0.276417	-0.277788	-0.084022	71.5182	-0.275536	-2020.74	4.157989E-5	NaN
502	1.000000	0.724909	7.36997e+06	-51989.1	1005.82	-29750.7	0.000000	0.000000	6.725041	-0.123509	NaN	0.000000	0.001544	0.001757	28.0809	0.095073	0.002043	46.5362	-113.759	11.5998	-0.126712	0.723516	-0.238411	-0.239805	-0.123509	46.5362	-0.236421	-505.286	0.000244	NaN
502	1.000000	0.762937	7.36997e+06	-51989.1	1005.82	-29750.7	0.000000	0.000000	6.763072	-0.027011	NaN	0.000000	0.001608	0.001734	28.0811	0.111404	0.002125	52.4268	174.219	-166.236	-0.045837	0.761583	-0.200384	-0.201737	-0.027011	52.4268	-0.199997	-131.721	0.000205	NaN
502	1.000000	0.800921	7.36997e+06	-51989.1	1005.82	-29750.7	0.000000	0.000000	6.801053	-0.110035	NaN	0.000000	0.001566	0.001735	28.0811	0.067132	0.002009	33.4104	157.421	10.0613	-0.153789	0.799537	-0.162399	-0.163784	-0.110035	33.4104	-0.159929	-27.3356	0.004025	NaN
502	1.000000	0.838955	7.36997e+06	-51989.1	1005.82	-29750.7	0.000000	0.000000	6.839089	-0.053692	NaN	0.000000	0.001589	0.001760	28.0824	0.120662	0.001880	64.1797	-107.02	-166.873	0.017783	0.837614	-0.124366	-0.125707	-0.053692	64.1797	-0.123738	-5.740692	0.009353	NaN
502	1.000000	0.876963	7.36997e+06	-51989.1	1005.82	-29750.7	0.000000	0.000000	6.877098	-0.014186	NaN	0.000000	0.001553	0.001707	28.0822	0.051347	0.001902	27.0031	-113.628	14.7024	0.010643	0.875640	-0.086358	-0.087681	-0.014186	27.0031	-0.085964	-0.866835	0.016366	NaN
502	1.000000	0.915005	7.36997e+06	-51989.1	1005.82	-29750.7	0.000000	0.000000	6.915139	-0.039933	NaN	0.000000	0.001535	0.001768	28.0823	0.094352	0.002119	44.5262	-51.6506	-166.541	-0.007329	0.913704	-0.048316	-0.049617	-0.039933	44.5262	-0.047643	-0.077392	0.515992	NaN
502	1.000000	0.952975	7.36997e+06	-51989.1	1005.82	-29750.7	0.000000	0.000000	6.953108	-0.083834	NaN	0.000000	0.001571	0.001734	28.081	0.071738	0.002186	32.8223	123.24	11.7319	-0.122437	0.951625	-0.010345	-0.011695	-0.083834	32.8223	-0.008430	-0.005482	15.2913	NaN
502	2.000000	0.973494	7.36997e+06	-51989.1	1005.82	-29750.7	0.000000	0.000000	6.974342	17.3019	NaN	0.000000	0.001557	0.001766	28.0812	16.215	0.001677	9667.33	9.788356	179.589	16.9475	0.973176	0.010173	0.009855	17.3019	9667.33	0.008831	0.007911	2187.04	99302.7
502	2.000000	0.982940	7.36997e+06	-51989.1	1005.82	-29750.7	0.000000	0.000000	6.984629	37.7448	NaN	0.000000	0.001603	0.001804	28.0811	25.0961	0.001700	14759.5	2.739362	3.073711	36.1877	0.982662	0.019620	0.019341	37.7448	14759.5	0.017702	0.019059	1980.41	97677.4
502	2.000000	0.992481	7.36997e+06	-51989.1	1005.82	-29750.7	0.000000	0.000000	6.995281	64.7727	NaN	0.000000	0.001577	0.001770	28.0818	34.6771	0.001811	19152.6	8.704237	176.535	65.234	0.992129	0.029161	0.028809	64.7727	19152.6	0.026624	0.034037	1902.99	94847
502	2.000000	1.001919	7.36997e+06	-51989.1	1005.82	-29750.7	0.000000	0.000000	7.006083	97.9194	NaN	0.000000	0.001660	0.001754	28.083	41.6877	0.001646	25324.1	5.228172	-2.876357	97.1524	1.001543	0.038599	0.038222	97.9194	25324.1	0.035699	0.053386	1834.19	100137
502	2.000000	1.011358	7.36997e+06	-51989.1	1005.82	-29750.7	0.000000	0.000000	7.017083	135.896	NaN	0.000000	0.001578	0.001747	28.0823	51.0941	0.001825	27991.2	7.304309	173.249	133.07	1.011064	0.048037	0.047744	135.896	27991.2	0.044396	0.075881	1790.9	92838.3
502	2.000000	1.020856	7.36997e+06	-51989.1	1005.82	-29750.7	0.000000	0.000000	7.028469	181.798	NaN	0.000000	0.001590	0.001722	28.0821	59.5324	0.001867	31879.7	7.453901	-6.783701	179.501	1.020449	0.057535	0.057128	181.798	31879.7	0.053258	0.102750	1769.33	90865.2
502	2.000000	1.030331	7.36997e+06	-51989.1	1005.82	-29750.7	0.000000	0.000000	7.039942	230.395	NaN	0.000000	0.001547	0.001745	28.0807	67.7809	0.001821	37220.9	5.044874	173.936	227.545	1.030002	0.067010	0.066682	230.395	37220.9	0.062368	0.134435	1713.8	92747.7
502	2.000000	1.039767	7.36997e+06	-51989.1	1005.82	-29750.7	0.000000	0.000000	7.051725	287.448	NaN	0.000000	0.001524	0.001714	28.0809	76.1432	0.001783	42694.7	3.419076	-5.279030	280.005	1.039480	0.076446	0.076159	287.448	42694.7	0.071397	0.169816	1692.7	94658
502	2.000000	1.049388	7.36997e+06	-51989.1	1005.82	-29750.7	0.000000	0.000000	7.063881	349.079	NaN	0.000000	0.001560	0.001714	28.0806	86.0354	0.001794	47948.8	4.142177	172.851	350.577	1.049167	0.086068	0.085847	349.079	47948.8	0.080608	0.209896	1663.11	95620
502	2.000000	1.058750	7.36997e+06	-51989.1	1005.82	-29750.7	0.000000	0.000000	7.076178	420.466	NaN	0.000000	0.001492	0.001712	28.0811	93.9086	0.002029	46283.5	3.669558	-5.597350	412.493	1.058442	0.095429	0.095122	420.466	46283.5	0.088616	0.247952	1695.76	84921.1
502	2.000000	1.066358	7.36997e+06	-51989.1	1005.82	-29750.7	0.000000	0.000000	7.086132	477.487	NaN	0.000000	0.001540	0.001733	28.0823	102.016	0.001858	54913.7	3.303723	173.411	476.867	1.066098	0.103038	0.102778	477.487	54913.7	0.096516	0.288386	1655.72	93425.8