File: remote_trans/data/nanoindenter/0828-1/data/Data_2025-08-06,11h17m57s/2025-07-22_16-23-58_1_471.txt
2025-07-22, 16:23:58, 1
Index	Phase	Displacement	Time	Pos X	Pos Y	Pos Z	Rot A	Rot B	Piezo Z	Force A	Force B	Gripper	Voltage A	Voltage B	Temperature	Amplitude force	Amplitude pos	Stiffness	Phase shift	Phase excitation	Force A raw	Displacement raw	HMax	HMax raw	Real Force	Real Stiffness	Contact Depth	Area	Hardness	Reduced Mod.
[#]	[#]	[um]	[s]	[um]	[um]	[um]	[m°]	[m°]	[um]	[uN]	[uN]	[V]	[V]	[V]	[°C]	[uN]	[um]	[N/m]	[°]	[°]	[uN]	[um]	[um]	[um]	[uN]	[N/m]	[um]	[um^2]	[MPa]	[MPa]
471	1.000000	0.002414	7.36966e+06	-53539.1	1005.82	-29746.1	0.000000	0.000000	6.002799	0.064793	NaN	0.000000	0.001598	0.001713	28.0819	0.051649	0.000819	63.0647	-130.089	-163.324	0.102523	0.001128	-1.062951	-1.064238	0.064793	63.0647	-1.063722	-1.632437E+14	-3.969093E-16	NaN
471	1.000000	0.042388	7.36966e+06	-53539.1	1005.82	-29746.1	0.000000	0.000000	6.042770	-0.001008	NaN	0.000000	0.001535	0.001698	28.0818	0.008713	0.001846	4.719441	160.035	-169.056	0.044745	0.041060	-1.022978	-1.024306	-0.001008	4.719441	-1.022817	-4.601080E+13	2.190699E-17	NaN
471	1.000000	0.082395	7.36966e+06	-53539.1	1005.82	-29746.1	0.000000	0.000000	6.082775	-0.029196	NaN	0.000000	0.001552	0.001682	28.0825	0.064369	0.001981	32.4958	-125.959	-161.875	0.043728	0.081011	-0.982971	-0.984355	-0.029196	32.4958	-0.982297	-1.310272E+13	2.228276E-15	NaN
471	1.000000	0.122407	7.36966e+06	-53539.1	1005.82	-29746.1	0.000000	0.000000	6.122790	0.041395	NaN	0.000000	0.001550	0.001680	28.0807	0.105712	0.001959	53.9696	-44.6518	-164.904	0.066683	0.121118	-0.942959	-0.944248	0.041395	53.9696	-0.943534	-3.933813E+12	-1.052297E-14	NaN
471	1.000000	0.162416	7.36966e+06	-53539.1	1005.82	-29746.1	0.000000	0.000000	6.162800	0.063937	NaN	0.000000	0.001599	0.001683	28.0804	0.126398	0.001832	69.0041	-33.6799	-167.849	0.065862	0.161045	-0.902950	-0.904321	0.063937	69.0041	-0.903645	-1.138458E+12	-5.616087E-14	NaN
471	1.000000	0.202426	7.36966e+06	-53539.1	1005.82	-29746.1	0.000000	0.000000	6.202811	0.065649	NaN	0.000000	0.001591	0.001698	28.0805	0.159700	0.001997	79.9568	152.117	-164.329	0.038423	0.201117	-0.862939	-0.864248	0.065649	79.9568	-0.863555	-3.267670E+11	-2.009047E-13	NaN
471	1.000000	0.242470	7.36966e+06	-53539.1	1005.82	-29746.1	0.000000	0.000000	6.242854	0.054320	NaN	0.000000	0.001536	0.001728	28.0819	0.020336	0.002038	9.979148	74.4601	-165.989	0.112752	0.241152	-0.822896	-0.824214	0.054320	9.979148	-0.826979	-1.044310E+11	-5.201477E-13	NaN
471	1.000000	0.282472	7.36966e+06	-53539.1	1005.82	-29746.1	0.000000	0.000000	6.282855	0.036373	NaN	0.000000	0.001579	0.001745	28.082	0.047218	0.002019	23.3892	105.921	-168.214	0.007550	0.281114	-0.782893	-0.784252	0.036373	23.3892	-0.784060	-2.731452E+10	-1.331636E-12	NaN
471	1.000000	0.322503	7.36966e+06	-53539.1	1005.82	-29746.1	0.000000	0.000000	6.322887	0.072522	NaN	0.000000	0.001567	0.001714	28.082	0.060843	0.001898	32.0636	-73.7826	-165.907	0.005168	0.321154	-0.742863	-0.744212	0.072522	32.0636	-0.744559	-7.927733E+9	-9.147914E-12	NaN
471	1.000000	0.362488	7.36966e+06	-53539.1	1005.82	-29746.1	0.000000	0.000000	6.362872	0.050310	NaN	0.000000	0.001572	0.001709	28.0821	0.060880	0.002035	29.9135	161.243	-164.061	0.036423	0.361153	-0.702877	-0.704213	0.050310	29.9135	-0.704139	-2.228660E+9	-2.257395E-11	NaN
471	1.000000	0.402530	7.36966e+06	-53539.1	1005.82	-29746.1	0.000000	0.000000	6.402909	-0.047341	NaN	0.000000	0.001584	0.001715	28.0809	0.090334	0.002014	44.8424	122.723	-165.434	-0.021188	0.401235	-0.662836	-0.664131	-0.047341	44.8424	-0.662045	-5.922043E+8	7.994023E-11	NaN
471	1.000000	0.442534	7.36966e+06	-53539.1	1005.82	-29746.1	0.000000	0.000000	6.442917	0.038996	NaN	0.000000	0.001505	0.001737	28.0809	0.078555	0.002122	37.0265	-22.5771	-164.061	0.050251	0.441185	-0.622832	-0.624181	0.038996	37.0265	-0.623622	-1.759594E+8	-2.216205E-10	NaN
471	1.000000	0.482528	7.36966e+06	-53539.1	1005.82	-29746.1	0.000000	0.000000	6.482910	0.020263	NaN	0.000000	0.001556	0.001704	28.0809	0.035905	0.002061	17.4173	-28.3572	-163.265	0.073043	0.481200	-0.582838	-0.584166	0.020263	17.4173	-0.583711	-4.965132E+7	-4.080973E-10	NaN
471	1.000000	0.522563	7.36966e+06	-53539.1	1005.82	-29746.1	0.000000	0.000000	6.522942	-0.057655	NaN	0.000000	0.001531	0.001725	28.0822	0.068258	0.002052	33.2638	-174.703	-167.45	-0.038049	0.521264	-0.542803	-0.544102	-0.057655	33.2638	-0.541503	-1.294803E+7	4.452813E-9	NaN
471	1.000000	0.562584	7.36966e+06	-53539.1	1005.82	-29746.1	0.000000	0.000000	6.562968	0.053576	NaN	0.000000	0.001552	0.001650	28.0819	0.052571	0.001899	27.6825	-13.6098	-168.14	0.010955	0.561320	-0.502782	-0.504046	0.053576	27.6825	-0.504233	-3.92697e+06	-1.364307E-8	NaN
471	1.000000	0.602603	7.36966e+06	-53539.1	1005.82	-29746.1	0.000000	0.000000	6.602984	-0.004289	NaN	0.000000	0.001516	0.001709	28.0821	0.049722	0.002049	24.2701	53.0909	-166.362	-0.011685	0.601344	-0.462763	-0.464021	-0.004289	24.2701	-0.462630	-1.02796e+06	4.171999E-9	NaN
471	1.000000	0.642631	7.36967e+06	-53539.1	1005.82	-29746.1	0.000000	0.000000	6.643014	0.035655	NaN	0.000000	0.001477	0.001723	28.0821	0.043911	0.002056	21.3616	-83.7648	-165.843	0.022223	0.641272	-0.422735	-0.424094	0.035655	21.3616	-0.423986	-293037	-1.216752E-7	NaN
471	1.000000	0.682648	7.36967e+06	-53539.1	1005.82	-29746.1	0.000000	0.000000	6.683030	0.000690	NaN	0.000000	0.001550	0.001768	28.0808	0.099106	0.001907	51.9683	99.7528	-167.508	0.004572	0.681330	-0.382718	-0.384036	0.000690	51.9683	-0.382728	-75686	-9.122029E-9	NaN
471	1.000000	0.722649	7.36967e+06	-53539.1	1005.82	-29746.1	0.000000	0.000000	6.723031	0.022073	NaN	0.000000	0.001611	0.001745	28.0809	0.023472	0.001855	12.6562	-174.668	-166.219	0.096981	0.721338	-0.342717	-0.344028	0.022073	12.6562	-0.344025	-20901.2	-1.056051E-6	NaN
471	1.000000	0.762678	7.36967e+06	-53539.1	1005.82	-29746.1	0.000000	0.000000	6.763062	0.053718	NaN	0.000000	0.001507	0.001738	28.0808	0.056927	0.002075	27.4359	5.651279	-167.065	0.084454	0.761383	-0.302688	-0.303983	0.053718	27.4359	-0.304157	-5425.42	-9.901221E-6	NaN
471	1.000000	0.802644	7.36967e+06	-53539.1	1005.82	-29746.1	0.000000	0.000000	6.803027	0.028096	NaN	0.000000	0.001588	0.001745	28.0821	0.123777	0.002018	61.3285	-90.2896	-169.467	0.029723	0.801369	-0.262722	-0.263997	0.028096	61.3285	-0.263065	-1305.69	-2.151799E-5	NaN
471	1.000000	0.842688	7.36967e+06	-53539.1	1005.82	-29746.1	0.000000	0.000000	6.843070	0.001346	NaN	0.000000	0.001584	0.001726	28.0824	0.143977	0.001946	73.9828	-5.183396	-170.203	0.054891	0.841377	-0.222678	-0.223989	0.001346	73.9828	-0.222691	-306.628	-4.389283E-6	NaN
471	1.000000	0.882730	7.36967e+06	-53539.1	1005.82	-29746.1	0.000000	0.000000	6.883114	0.044574	NaN	0.000000	0.001588	0.001775	28.0821	0.109095	0.001997	54.6256	-121.007	-167.098	0.123991	0.881412	-0.182635	-0.183954	0.044574	54.6256	-0.183247	-69.2699	-0.000643	NaN
471	1.000000	0.922726	7.36967e+06	-53539.1	1005.82	-29746.1	0.000000	0.000000	6.923110	0.038294	NaN	0.000000	0.001583	0.001745	28.0808	0.058887	0.001888	31.1844	-105.177	-163.861	0.041269	0.921442	-0.142639	-0.143924	0.038294	31.1844	-0.143560	-13.7873	-0.002778	NaN
471	1.000000	0.962735	7.36967e+06	-53539.1	1005.82	-29746.1	0.000000	0.000000	6.963117	0.010485	NaN	0.000000	0.001669	0.001785	28.0807	0.088132	0.002117	41.6373	168.043	-169.72	0.021702	0.961484	-0.102631	-0.103882	0.010485	41.6373	-0.102819	-2.107707	-0.004975	NaN
471	1.000000	1.002760	7.36967e+06	-53539.1	1005.82	-29746.1	0.000000	0.000000	7.003143	0.031376	NaN	0.000000	0.001557	0.001752	28.0807	0.092705	0.001967	47.122	33.3178	-164.284	0.032043	1.001425	-0.062606	-0.063941	0.031376	47.122	-0.063105	-0.220630	-0.142213	NaN
471	1.000000	1.042786	7.36967e+06	-53539.1	1005.82	-29746.1	0.000000	0.000000	7.043165	-0.052488	NaN	0.000000	0.001549	0.001767	28.0807	0.054507	0.002104	25.9103	17.8572	-165.328	-0.054942	1.041507	-0.022580	-0.023859	-0.052488	25.9103	-0.021061	-0.013365	3.927170	NaN
471	2.000000	1.074284	7.36967e+06	-53539.1	1005.82	-29746.1	0.000000	0.000000	7.075163	12.0815	NaN	0.000000	0.001586	0.001792	28.0819	12.4838	0.001879	6643.15	8.192624	-175.566	11.6173	1.073993	0.008918	0.008627	12.0815	6643.15	0.007554	0.006588	1833.89	74778
471	2.000000	1.084266	7.36967e+06	-53539.1	1005.82	-29746.1	0.000000	0.000000	7.085992	32.6906	NaN	0.000000	0.001593	0.001781	28.082	23.0244	0.001781	12929.1	9.066450	178.416	33.2658	1.083921	0.018900	0.018555	32.6906	12929.1	0.017004	0.018051	1811	87920
471	2.000000	1.094200	7.36967e+06	-53539.1	1005.82	-29746.1	0.000000	0.000000	7.097197	63.5896	NaN	0.000000	0.001567	0.001748	28.0818	32.8786	0.001768	18600.2	-0.173845	-176.57	62.3748	1.093931	0.028834	0.028566	63.5896	18600.2	0.026270	0.033366	1905.81	93033
471	2.000000	1.104241	7.36967e+06	-53539.1	1005.82	-29746.1	0.000000	0.000000	7.108837	102.485	NaN	0.000000	0.001600	0.001783	28.0809	43.7024	0.001793	24379.9	5.745234	175.464	102.848	1.103948	0.038875	0.038583	102.485	24379.9	0.035722	0.053440	1917.75	96353.9
471	2.000000	1.114211	7.36967e+06	-53539.1	1005.82	-29746.1	0.000000	0.000000	7.120586	145.696	NaN	0.000000	0.001580	0.001764	28.0809	53.362	0.001766	30212.9	6.050238	173.173	146.889	1.113905	0.048846	0.048539	145.696	30212.9	0.045229	0.078238	1862.21	98686
471	2.000000	1.124153	7.36967e+06	-53539.1	1005.82	-29746.1	0.000000	0.000000	7.133248	211.831	NaN	0.000000	0.001595	0.001783	28.081	63.5161	0.001831	34682.8	6.261097	172.173	208.82	1.123822	0.058788	0.058456	211.831	34682.8	0.054207	0.105858	2001.08	97392.4
471	2.000000	1.134197	7.36967e+06	-53539.1	1005.82	-29746.1	0.000000	0.000000	7.145894	275.112	NaN	0.000000	0.001582	0.001691	28.0806	73.6038	0.001821	40426	5.999102	171.046	275.442	1.133814	0.068831	0.068448	275.112	40426	0.063727	0.139510	1971.98	98885
471	2.000000	1.144158	7.36967e+06	-53539.1	1005.82	-29746.1	0.000000	0.000000	7.158478	338.873	NaN	0.000000	0.001639	0.001696	28.082	83.7389	0.001789	46818.4	3.489898	172.165	337.553	1.143949	0.078792	0.078583	338.873	46818.4	0.073363	0.178038	1903.38	101376
471	2.000000	1.154100	7.36967e+06	-53539.1	1005.82	-29746.1	0.000000	0.000000	7.171811	421.325	NaN	0.000000	0.001540	0.001716	28.0816	92.323	0.001758	52516.2	4.589778	169.87	417.305	1.153835	0.088734	0.088469	421.325	52516.2	0.082717	0.219630	1918.34	102381
471	2.000000	1.164112	7.36967e+06	-53539.1	1005.82	-29746.1	0.000000	0.000000	7.185387	507.973	NaN	0.000000	0.001584	0.001734	28.0821	101.458	0.001751	57951.6	1.395687	173.12	506.123	1.163812	0.098746	0.098446	507.973	57951.6	0.092172	0.265797	1911.13	102698
471	2.000000	1.170084	7.36967e+06	-53539.1	1005.82	-29746.1	0.000000	0.000000	7.194002	572.206	NaN	0.000000	0.001602	0.001735	28.0805	107.908	0.001753	61567.1	4.716879	170.078	567.694	1.169619	0.104719	0.104253	572.206	61567.1	0.097748	0.294946	1940.04	103574