File: remote_trans/data/nanoindenter/0828-1/data/Data_2025-08-06,11h17m57s/2025-07-22_16-23-58_1_609.txt
2025-07-22, 16:23:58, 1
Index	Phase	Displacement	Time	Pos X	Pos Y	Pos Z	Rot A	Rot B	Piezo Z	Force A	Force B	Gripper	Voltage A	Voltage B	Temperature	Amplitude force	Amplitude pos	Stiffness	Phase shift	Phase excitation	Force A raw	Displacement raw	HMax	HMax raw	Real Force	Real Stiffness	Contact Depth	Area	Hardness	Reduced Mod.
[#]	[#]	[um]	[s]	[um]	[um]	[um]	[m°]	[m°]	[um]	[uN]	[uN]	[V]	[V]	[V]	[°C]	[uN]	[um]	[N/m]	[°]	[°]	[uN]	[um]	[um]	[um]	[uN]	[N/m]	[um]	[um^2]	[MPa]	[MPa]
609	1.000000	0.002306	7.37101e+06	-46639.1	1005.82	-29768.5	0.000000	0.000000	6.002808	-0.052586	NaN	0.000000	0.001611	0.001767	28.0819	0.158757	0.000882	180.057	-76.3137	-159.069	-0.063058	0.001023	-1.164803	-1.166086	-0.052586	180.057	-1.164584	-3.683838E+15	1.427480E-17	NaN
609	1.000000	0.046246	7.37101e+06	-46639.1	1005.82	-29768.5	0.000000	0.000000	6.046749	-0.034886	NaN	0.000000	0.001568	0.001778	28.0818	0.104818	0.001934	54.1983	-10.1628	-163.495	0.009177	0.044927	-1.120862	-1.122181	-0.034886	54.1983	-1.120379	-9.409415E+14	3.707548E-17	NaN
609	1.000000	0.090260	7.37101e+06	-46639.1	1005.82	-29768.5	0.000000	0.000000	6.090764	0.008830	NaN	0.000000	0.001615	0.001759	28.0814	0.047104	0.002118	22.2421	99.9985	-166.657	0.064702	0.088944	-1.076849	-1.078165	0.008830	22.2421	-1.077147	-2.472842E+14	-3.570852E-17	NaN
609	1.000000	0.134259	7.37101e+06	-46639.1	1005.82	-29768.5	0.000000	0.000000	6.134760	-0.096314	NaN	0.000000	0.001603	0.001796	28.0824	0.040962	0.002019	20.2905	-89.2331	-165.731	-0.052524	0.133042	-1.032849	-1.034066	-0.096314	20.2905	-1.029289	-5.622373E+13	1.713048E-15	NaN
609	1.000000	0.178324	7.37101e+06	-46639.1	1005.82	-29768.5	0.000000	0.000000	6.178827	-0.042849	NaN	0.000000	0.001569	0.001841	28.0827	0.077847	0.002183	35.6666	122.957	-165.945	0.016920	0.176945	-0.988784	-0.990164	-0.042849	35.6666	-0.987883	-1.558124E+13	2.750069E-15	NaN
609	1.000000	0.222325	7.37101e+06	-46639.1	1005.82	-29768.5	0.000000	0.000000	6.222829	0.004776	NaN	0.000000	0.001553	0.001811	28.0826	0.186332	0.001945	95.8168	92.9988	-165.547	-0.001897	0.221014	-0.944784	-0.946095	0.004776	95.8168	-0.944821	-4.094309E+12	-1.166614E-15	NaN
609	1.000000	0.266344	7.37101e+06	-46639.1	1005.82	-29768.5	0.000000	0.000000	6.266847	-0.015308	NaN	0.000000	0.001553	0.001825	28.0829	0.022785	0.001923	11.8512	59.9819	-167.58	-0.005304	0.265014	-0.900765	-0.902094	-0.015308	11.8512	-0.899796	-1.009979E+12	1.515685E-14	NaN
609	1.000000	0.310360	7.37101e+06	-46639.1	1005.82	-29768.5	0.000000	0.000000	6.310864	0.004352	NaN	0.000000	0.001581	0.001843	28.0816	0.126939	0.002062	61.5504	-66.6115	-166.233	0.027490	0.308998	-0.856749	-0.858111	0.004352	61.5504	-0.856802	-2.647448E+11	-1.643683E-14	NaN
609	1.000000	0.354373	7.37101e+06	-46639.1	1005.82	-29768.5	0.000000	0.000000	6.354878	-0.001889	NaN	0.000000	0.001593	0.001770	28.0813	0.037408	0.001906	19.6235	5.366081	-164.435	0.037047	0.353100	-0.812735	-0.814009	-0.001889	19.6235	-0.812663	-6.678814E+10	2.828684E-14	NaN
609	1.000000	0.398381	7.37101e+06	-46639.1	1005.82	-29768.5	0.000000	0.000000	6.398883	-0.058229	NaN	0.000000	0.001568	0.001835	28.0816	0.089613	0.001947	46.0379	-177.318	-165.984	-0.135507	0.397063	-0.768727	-0.770045	-0.058229	46.0379	-0.767779	-1.640974E+10	3.548444E-12	NaN
609	1.000000	0.442416	7.37101e+06	-46639.1	1005.82	-29768.5	0.000000	0.000000	6.442919	-0.033489	NaN	0.000000	0.001607	0.001801	28.083	0.140183	0.002036	68.8459	-132.925	-164.811	0.014137	0.441135	-0.724692	-0.725974	-0.033489	68.8459	-0.724328	-4.202268E+9	7.969291E-12	NaN
609	1.000000	0.486430	7.37101e+06	-46639.1	1005.82	-29768.5	0.000000	0.000000	6.486933	-0.027825	NaN	0.000000	0.001527	0.001799	28.0835	0.089099	0.001910	46.6522	101.472	-162.563	0.008704	0.485122	-0.680678	-0.681987	-0.027825	46.6522	-0.680231	-1.050428E+9	2.648888E-11	NaN
609	1.000000	0.530452	7.37101e+06	-46639.1	1005.82	-29768.5	0.000000	0.000000	6.530956	0.002192	NaN	0.000000	0.001619	0.001834	28.083	0.118023	0.002082	56.6826	-174.515	-165.296	0.003928	0.529142	-0.636657	-0.637966	0.002192	56.6826	-0.636686	-2.659559E+8	-8.241537E-12	NaN
609	1.000000	0.574471	7.37101e+06	-46639.1	1005.82	-29768.5	0.000000	0.000000	6.574974	-0.018854	NaN	0.000000	0.001618	0.001812	28.0817	0.048632	0.002050	23.7183	143.891	-162.353	-0.026589	0.573181	-0.592638	-0.593928	-0.018854	23.7183	-0.592042	-6.468651E+7	2.914722E-10	NaN
609	1.000000	0.618489	7.37101e+06	-46639.1	1005.82	-29768.5	0.000000	0.000000	6.618990	-0.080545	NaN	0.000000	0.001664	0.001782	28.0819	0.074162	0.001990	37.2652	-171.644	-164.663	0.010756	0.617198	-0.548620	-0.549910	-0.080545	37.2652	-0.546999	-1.543036E+7	5.219913E-9	NaN
609	1.000000	0.662505	7.37101e+06	-46639.1	1005.82	-29768.5	0.000000	0.000000	6.663010	0.011895	NaN	0.000000	0.001628	0.001817	28.0818	0.077940	0.001941	40.1444	-89.5855	-165.893	-0.009131	0.661187	-0.504604	-0.505922	0.011895	40.1444	-0.504826	-4.00236e+06	-2.971946E-9	NaN
609	1.000000	0.706506	7.37101e+06	-46639.1	1005.82	-29768.5	0.000000	0.000000	6.707012	0.032494	NaN	0.000000	0.001563	0.001752	28.0832	0.058060	0.001920	30.2368	-142.587	-167.379	-0.000299	0.705198	-0.460602	-0.461911	0.032494	30.2368	-0.461408	-988107	-3.288474E-8	NaN
609	1.000000	0.750558	7.37101e+06	-46639.1	1005.82	-29768.5	0.000000	0.000000	6.751061	-0.037206	NaN	0.000000	0.001565	0.001768	28.0833	0.219671	0.001858	118.256	-64.9697	-163.169	-0.002971	0.749242	-0.416551	-0.417867	-0.037206	118.256	-0.416315	-228098	1.631123E-7	NaN
609	1.000000	0.794571	7.37101e+06	-46639.1	1005.82	-29768.5	0.000000	0.000000	6.795075	-0.000828	NaN	0.000000	0.001580	0.001798	28.0835	0.090342	0.001904	47.4412	-158.384	-166.565	-0.036369	0.793246	-0.372537	-0.373862	-0.000828	47.4412	-0.372524	-54009	1.532651E-8	NaN
609	1.000000	0.838578	7.37101e+06	-46639.1	1005.82	-29768.5	0.000000	0.000000	6.839081	-0.043780	NaN	0.000000	0.001545	0.001796	28.082	0.036911	0.002026	18.2161	-42.965	-166.273	-0.052493	0.837265	-0.328530	-0.329844	-0.043780	18.2161	-0.326728	-11681.3	3.747850E-6	NaN
609	1.000000	0.882583	7.37101e+06	-46639.1	1005.82	-29768.5	0.000000	0.000000	6.883086	-0.034786	NaN	0.000000	0.001556	0.001797	28.0818	0.060648	0.002095	28.9461	-70.0986	-166.758	-0.092320	0.881294	-0.284525	-0.285815	-0.034786	28.9461	-0.283624	-2676.52	1.299657E-5	NaN
609	1.000000	0.926614	7.37101e+06	-46639.1	1005.82	-29768.5	0.000000	0.000000	6.927115	-0.079977	NaN	0.000000	0.001546	0.001760	28.0818	0.078002	0.002028	38.4671	43.3326	-162.6	-0.092595	0.925270	-0.240495	-0.241838	-0.079977	38.4671	-0.238935	-553.24	0.000145	NaN
609	1.000000	0.970622	7.37101e+06	-46639.1	1005.82	-29768.5	0.000000	0.000000	6.971125	-0.042401	NaN	0.000000	0.001634	0.001761	28.0835	0.112128	0.001959	57.2352	167.521	-163.999	-0.041430	0.969312	-0.196486	-0.197797	-0.042401	57.2352	-0.195931	-112.878	0.000376	NaN
609	1.000000	1.014662	7.37101e+06	-46639.1	1005.82	-29768.5	0.000000	0.000000	7.015164	-0.058813	NaN	0.000000	0.001627	0.001750	28.0835	0.018590	0.001995	9.316100	-124.798	-167.639	-0.104747	1.013306	-0.152447	-0.153802	-0.058813	9.316100	-0.147712	-16.449	0.003575	NaN
609	1.000000	1.058647	7.37101e+06	-46639.1	1005.82	-29768.5	0.000000	0.000000	7.059149	-0.043764	NaN	0.000000	0.001574	0.001758	28.0832	0.119860	0.001974	60.7051	30.2535	-166.688	-0.011608	1.057348	-0.108462	-0.109760	-0.043764	60.7051	-0.107921	-2.715349	0.016117	NaN
609	1.000000	1.102682	7.37101e+06	-46639.1	1005.82	-29768.5	0.000000	0.000000	7.103184	-0.073740	NaN	0.000000	0.001625	0.001757	28.0821	0.063926	0.002056	31.0953	166.656	-163.259	-0.051132	1.101432	-0.064426	-0.065676	-0.073740	31.0953	-0.062648	-0.214187	0.344280	NaN
609	1.000000	1.146717	7.37101e+06	-46639.1	1005.82	-29768.5	0.000000	0.000000	7.147218	-0.070575	NaN	0.000000	0.001553	0.001734	28.0821	0.096558	0.001933	49.9627	3.997072	-163.328	-0.007101	1.145345	-0.020392	-0.021764	-0.070575	49.9627	-0.019333	-0.012079	5.842957	NaN
609	2.000000	1.176243	7.37101e+06	-46639.1	1005.82	-29768.5	0.000000	0.000000	7.177376	15.2932	NaN	0.000000	0.001511	0.001726	28.0824	14.1832	0.001874	7567.78	6.010101	-172.19	14.6932	1.175943	0.009134	0.008834	15.2932	7567.78	0.007618	0.006653	2298.76	84769.4
609	2.000000	1.187204	7.37101e+06	-46639.1	1005.82	-29768.5	0.000000	0.000000	7.189271	38.0175	NaN	0.000000	0.001511	0.001734	28.0835	24.616	0.001755	14023.9	3.004096	-174.939	37.9824	1.186854	0.020095	0.019745	38.0175	14023.9	0.018062	0.019588	1940.83	91546.9
609	2.000000	1.198185	7.37101e+06	-46639.1	1005.82	-29768.5	0.000000	0.000000	7.201571	70.1064	NaN	0.000000	0.001510	0.001789	28.0843	35.9359	0.001781	20173.5	9.854789	174.713	68.9071	1.197824	0.031076	0.030715	70.1064	20173.5	0.028470	0.037632	1862.96	95011.8
609	2.000000	1.209102	7.37101e+06	-46639.1	1005.82	-29768.5	0.000000	0.000000	7.214253	113.028	NaN	0.000000	0.001516	0.001754	28.0834	46.7364	0.001833	25501.1	5.765394	176.692	108.925	1.208826	0.041994	0.041718	113.028	25501.1	0.038669	0.060635	1864.07	94617.3
609	2.000000	1.220154	7.37101e+06	-46639.1	1005.82	-29768.5	0.000000	0.000000	7.227385	163.631	NaN	0.000000	0.001478	0.001743	28.0819	56.7689	0.001757	32302.6	7.933397	172.152	165.143	1.219882	0.053045	0.052774	163.631	32302.6	0.049246	0.090096	1816.18	98323.6
609	2.000000	1.231075	7.37101e+06	-46639.1	1005.82	-29768.5	0.000000	0.000000	7.240988	228.88	NaN	0.000000	0.001562	0.001718	28.082	65.2927	0.001796	36350.7	0.559425	179.618	225.243	1.230835	0.063966	0.063727	228.88	36350.7	0.059244	0.123111	1859.14	94653.8
609	2.000000	1.242109	7.37101e+06	-46639.1	1005.82	-29768.5	0.000000	0.000000	7.254874	298.243	NaN	0.000000	0.001534	0.001755	28.0823	78.883	0.001823	43268.8	4.232509	174.411	297.368	1.241733	0.075000	0.074624	298.243	43268.8	0.069831	0.163400	1825.23	97796.2
609	2.000000	1.253130	7.37101e+06	-46639.1	1005.82	-29768.5	0.000000	0.000000	7.269059	375.192	NaN	0.000000	0.001529	0.001736	28.0829	87.1058	0.001744	49944.6	2.296906	174.836	373.567	1.252796	0.086022	0.085687	375.192	49944.6	0.080387	0.208891	1796.12	99839.4
609	2.000000	1.264044	7.37102e+06	-46639.1	1005.82	-29768.5	0.000000	0.000000	7.283855	469.619	NaN	0.000000	0.001519	0.001730	28.0832	98.2766	0.001838	53463.3	6.268055	170.643	465.333	1.263799	0.096936	0.096691	469.619	53463.3	0.090348	0.256571	1830.36	96432.8
609	2.000000	1.270038	7.37102e+06	-46639.1	1005.82	-29768.5	0.000000	0.000000	7.291534	510.619	NaN	0.000000	0.001530	0.001697	28.0832	103.821	0.001844	56300.5	2.391620	173.733	506.28	1.269918	0.102929	0.102809	510.619	56300.5	0.096127	0.286325	1783.35	96129.2