File: remote_trans/data/nanoindenter/0828-1/data/Data_2025-08-06,11h17m57s/2025-07-22_16-23-58_1_581.txt
2025-07-22, 16:23:58, 1
Index	Phase	Displacement	Time	Pos X	Pos Y	Pos Z	Rot A	Rot B	Piezo Z	Force A	Force B	Gripper	Voltage A	Voltage B	Temperature	Amplitude force	Amplitude pos	Stiffness	Phase shift	Phase excitation	Force A raw	Displacement raw	HMax	HMax raw	Real Force	Real Stiffness	Contact Depth	Area	Hardness	Reduced Mod.
[#]	[#]	[um]	[s]	[um]	[um]	[um]	[m°]	[m°]	[um]	[uN]	[uN]	[V]	[V]	[V]	[°C]	[uN]	[um]	[N/m]	[°]	[°]	[uN]	[um]	[um]	[um]	[uN]	[N/m]	[um]	[um^2]	[MPa]	[MPa]
581	1.000000	0.002254	7.37073e+06	-48039.1	1005.82	-29763.9	0.000000	0.000000	6.002805	0.037771	NaN	0.000000	0.001556	0.001788	28.0787	0.049999	0.000944	52.9841	75.8286	-162.955	0.063004	0.000997	-1.046759	-1.048016	0.037771	52.9841	-1.047294	-9.818336E+13	-3.847032E-16	NaN
581	1.000000	0.042224	7.37073e+06	-48039.1	1005.82	-29763.9	0.000000	0.000000	6.042773	0.002871	NaN	0.000000	0.001571	0.001800	28.0803	0.072980	0.002010	36.3172	-39.5371	-167.358	-0.040711	0.040870	-1.006790	-1.008144	0.002871	36.3172	-1.006849	-2.805253E+13	-1.023553E-16	NaN
581	1.000000	0.082194	7.37073e+06	-48039.1	1005.82	-29763.9	0.000000	0.000000	6.082744	0.019938	NaN	0.000000	0.001546	0.001771	28.0804	0.037491	0.002008	18.6737	173.19	-166.656	0.116621	0.080932	-0.966820	-0.968082	0.019938	18.6737	-0.967621	-8.309870E+12	-2.399363E-15	NaN
581	1.000000	0.122260	7.37073e+06	-48039.1	1005.82	-29763.9	0.000000	0.000000	6.122810	0.027766	NaN	0.000000	0.001559	0.001744	28.0801	0.053170	0.001859	28.6024	64.385	-168.603	-0.108848	0.120978	-0.926753	-0.928036	0.027766	28.6024	-0.927482	-2.388939E+12	-1.162279E-14	NaN
581	1.000000	0.162236	7.37073e+06	-48039.1	1005.82	-29763.9	0.000000	0.000000	6.162786	0.027290	NaN	0.000000	0.001610	0.001755	28.0788	0.134448	0.002128	63.1863	-153.209	-167.839	0.044989	0.160916	-0.886778	-0.888098	0.027290	63.1863	-0.887102	-6.803591E+11	-4.011171E-14	NaN
581	1.000000	0.202273	7.37073e+06	-48039.1	1005.82	-29763.9	0.000000	0.000000	6.202819	-0.063803	NaN	0.000000	0.001588	0.001776	28.0789	0.011584	0.001956	5.922593	93.4965	-164.033	-0.069508	0.200960	-0.846741	-0.848054	-0.063803	5.922593	-0.838661	-1.503688E+11	4.243088E-13	NaN
581	1.000000	0.242247	7.37073e+06	-48039.1	1005.82	-29763.9	0.000000	0.000000	6.242795	-0.014322	NaN	0.000000	0.001556	0.001781	28.0788	0.138407	0.001947	71.079	-28.8033	-164.454	-0.076111	0.240990	-0.806767	-0.808024	-0.014322	71.079	-0.806616	-5.529037E+10	2.590246E-13	NaN
581	1.000000	0.282294	7.37073e+06	-48039.1	1005.82	-29763.9	0.000000	0.000000	6.282844	0.037941	NaN	0.000000	0.001568	0.001772	28.0788	0.123367	0.002009	61.3968	-77.7736	-163.984	-0.004188	0.281050	-0.766720	-0.767963	0.037941	61.3968	-0.767183	-1.610667E+10	-2.355623E-12	NaN
581	1.000000	0.322309	7.37073e+06	-48039.1	1005.82	-29763.9	0.000000	0.000000	6.322856	-0.058114	NaN	0.000000	0.001576	0.001785	28.0805	0.032056	0.002019	15.8741	130.495	-164.662	-0.000725	0.321009	-0.726705	-0.728004	-0.058114	15.8741	-0.723959	-4.153907E+9	1.399017E-11	NaN
581	1.000000	0.362344	7.37073e+06	-48039.1	1005.82	-29763.9	0.000000	0.000000	6.362893	-0.001689	NaN	0.000000	0.001596	0.001819	28.0803	0.059748	0.001962	30.4493	-16.655	-165.024	0.029998	0.361039	-0.686670	-0.687975	-0.001689	30.4493	-0.686628	-1.284796E+9	1.314360E-12	NaN
581	1.000000	0.402343	7.37073e+06	-48039.1	1005.82	-29763.9	0.000000	0.000000	6.402895	0.070512	NaN	0.000000	0.001586	0.001788	28.0803	0.038332	0.002062	18.5861	-108.851	-163.293	0.032456	0.401038	-0.646671	-0.647976	0.070512	18.5861	-0.649516	-3.988472E+8	-1.767885E-10	NaN
581	1.000000	0.442356	7.37073e+06	-48039.1	1005.82	-29763.9	0.000000	0.000000	6.442907	0.031087	NaN	0.000000	0.001557	0.001789	28.0791	0.153344	0.002028	75.5957	-141.477	-165.681	0.072668	0.441066	-0.606657	-0.607948	0.031087	75.5957	-0.606966	-1.038392E+8	-2.993782E-10	NaN
581	1.000000	0.482362	7.37073e+06	-48039.1	1005.82	-29763.9	0.000000	0.000000	6.482912	0.031068	NaN	0.000000	0.001571	0.001741	28.079	0.082697	0.001963	42.1256	-12.0255	-164.242	-0.057427	0.481045	-0.566652	-0.567969	0.031068	42.1256	-0.567205	-2.937714E+7	-1.057570E-9	NaN
581	1.000000	0.522395	7.37073e+06	-48039.1	1005.82	-29763.9	0.000000	0.000000	6.522943	-0.030723	NaN	0.000000	0.001626	0.001749	28.0787	0.106339	0.002005	53.0344	59.5218	-162.662	-0.029269	0.521098	-0.526618	-0.527916	-0.030723	53.0344	-0.526184	-7.9353e+06	3.871643E-9	NaN
581	1.000000	0.562411	7.37073e+06	-48039.1	1005.82	-29763.9	0.000000	0.000000	6.562956	-0.080036	NaN	0.000000	0.001677	0.001805	28.0802	0.028801	0.001912	15.065	156.506	-168.045	-0.013475	0.561084	-0.486603	-0.487930	-0.080036	15.065	-0.482619	-1.95964e+06	4.084200E-8	NaN
581	1.000000	0.602403	7.37073e+06	-48039.1	1005.82	-29763.9	0.000000	0.000000	6.602949	-0.070584	NaN	0.000000	0.001686	0.001763	28.0798	0.013583	0.002019	6.728859	134.318	-165.158	-0.101170	0.601101	-0.446611	-0.447912	-0.070584	6.728859	-0.438744	-473838	1.489620E-7	NaN
581	1.000000	0.642445	7.37073e+06	-48039.1	1005.82	-29763.9	0.000000	0.000000	6.642991	-0.070450	NaN	0.000000	0.001598	0.001776	28.0802	0.060639	0.001916	31.6503	-67.9437	-164.336	0.009537	0.641136	-0.406569	-0.407878	-0.070450	31.6503	-0.404899	-156969	4.488135E-7	NaN
581	1.000000	0.682484	7.37073e+06	-48039.1	1005.82	-29763.9	0.000000	0.000000	6.683032	-0.035130	NaN	0.000000	0.001553	0.001746	28.0802	0.047946	0.001969	24.3563	168.563	-166.001	-0.079465	0.681203	-0.366530	-0.367811	-0.035130	24.3563	-0.365448	-42708.6	8.225590E-7	NaN
581	1.000000	0.722471	7.37073e+06	-48039.1	1005.82	-29763.9	0.000000	0.000000	6.723019	-0.011131	NaN	0.000000	0.001498	0.001736	28.0789	0.057417	0.002119	27.1005	-143.863	-163.339	-0.002590	0.721175	-0.326543	-0.327839	-0.011131	27.1005	-0.326235	-11488.5	9.688815E-7	NaN
581	1.000000	0.762513	7.37073e+06	-48039.1	1005.82	-29763.9	0.000000	0.000000	6.763059	-0.063979	NaN	0.000000	0.001538	0.001760	28.0789	0.156436	0.002010	77.8448	-4.011568	-166.662	-0.058966	0.761171	-0.286501	-0.287842	-0.063979	77.8448	-0.285884	-2894.39	2.210440E-5	NaN
581	1.000000	0.802505	7.37073e+06	-48039.1	1005.82	-29763.9	0.000000	0.000000	6.803054	-0.011879	NaN	0.000000	0.001547	0.001742	28.0791	0.048623	0.002019	24.0822	99.5728	-165.204	0.068711	0.801236	-0.246509	-0.247778	-0.011879	24.0822	-0.246139	-716.368	1.658203E-5	NaN
581	1.000000	0.842537	7.37073e+06	-48039.1	1005.82	-29763.9	0.000000	0.000000	6.843087	0.028305	NaN	0.000000	0.001542	0.001752	28.0802	0.088427	0.001960	45.1059	133.402	-166.276	0.043042	0.841185	-0.206477	-0.207829	0.028305	45.1059	-0.206947	-171.111	-0.000165	NaN
581	1.000000	0.882560	7.37074e+06	-48039.1	1005.82	-29763.9	0.000000	0.000000	6.883108	-0.018813	NaN	0.000000	0.001594	0.001765	28.0803	0.151185	0.001997	75.7014	37.0633	-165.397	-0.035673	0.881226	-0.166454	-0.167787	-0.018813	75.7014	-0.166268	-35.3617	0.000532	NaN
581	1.000000	0.922552	7.37074e+06	-48039.1	1005.82	-29763.9	0.000000	0.000000	6.923100	-0.038274	NaN	0.000000	0.001575	0.001774	28.0802	0.028586	0.001948	14.6779	-41.9246	-161.875	0.037332	0.921236	-0.126462	-0.127778	-0.038274	14.6779	-0.124506	-5.945756	0.006437	NaN
581	1.000000	0.962581	7.37074e+06	-48039.1	1005.82	-29763.9	0.000000	0.000000	6.963130	0.015414	NaN	0.000000	0.001640	0.001776	28.0799	0.053719	0.002111	25.4514	-74.7541	-164.361	-0.059657	0.961317	-0.086433	-0.087697	0.015414	25.4514	-0.086887	-0.912194	-0.016897	NaN
581	1.000000	1.002592	7.37074e+06	-48039.1	1005.82	-29763.9	0.000000	0.000000	7.003141	0.020211	NaN	0.000000	0.001579	0.001767	28.0788	0.051762	0.001989	26.0179	67.3185	-162.061	-0.016015	1.001269	-0.046422	-0.047745	0.020211	26.0179	-0.047005	-0.074000	-0.273119	NaN
581	1.000000	1.042650	7.37074e+06	-48039.1	1005.82	-29763.9	0.000000	0.000000	7.043195	-0.095334	NaN	0.000000	0.001568	0.001714	28.0786	0.083320	0.002017	41.3184	123.04	-167.557	-0.054935	1.041291	-0.006364	-0.007723	-0.095334	41.3184	-0.004633	-0.003185	29.9315	NaN
581	2.000000	1.060178	7.37074e+06	-48039.1	1005.82	-29763.9	0.000000	0.000000	7.061583	20.8327	NaN	0.000000	0.001567	0.001701	28.0786	17.8383	0.001799	9914.94	7.266705	-176.41	20.6458	1.059848	0.011164	0.010834	20.8327	9914.94	0.009588	0.008727	2387.02	96965.8
581	2.000000	1.070095	7.37074e+06	-48039.1	1005.82	-29763.9	0.000000	0.000000	7.072540	46.103	NaN	0.000000	0.001608	0.001731	28.0798	28.5679	0.001805	15823.4	4.140898	-177.267	43.5675	1.069773	0.021082	0.020760	46.103	15823.4	0.018896	0.020838	2212.49	100150
581	2.000000	1.080027	7.37074e+06	-48039.1	1005.82	-29763.9	0.000000	0.000000	7.083790	78.1884	NaN	0.000000	0.001620	0.001719	28.0799	38.5262	0.001749	22033.1	5.859578	177.126	74.5156	1.079819	0.031013	0.030805	78.1884	22033.1	0.028352	0.037396	2090.81	104096
581	2.000000	1.090047	7.37074e+06	-48039.1	1005.82	-29763.9	0.000000	0.000000	7.095536	120.164	NaN	0.000000	0.001567	0.001757	28.0801	48.9202	0.001863	26251.9	5.887329	176.467	117.019	1.089771	0.041033	0.040758	120.164	26251.9	0.037600	0.057973	2072.76	99614.3
581	2.000000	1.100030	7.37074e+06	-48039.1	1005.82	-29763.9	0.000000	0.000000	7.107346	164.603	NaN	0.000000	0.001581	0.001758	28.0791	56.4668	0.001695	33319.4	4.116616	175.264	162.207	1.099844	0.051016	0.050831	164.603	33319.4	0.047311	0.084283	1952.98	104858
581	2.000000	1.110061	7.37074e+06	-48039.1	1005.82	-29763.9	0.000000	0.000000	7.119715	221.462	NaN	0.000000	0.001616	0.001734	28.0788	65.9679	0.001866	35352	6.890320	173.111	220.227	1.109731	0.061047	0.060718	221.462	35352	0.056349	0.113041	1959.13	96065.8
581	2.000000	1.120029	7.37074e+06	-48039.1	1005.82	-29763.9	0.000000	0.000000	7.132207	282.867	NaN	0.000000	0.001638	0.001704	28.0787	74.9632	0.001706	43939.8	2.401291	175.551	280.097	1.119763	0.071015	0.070749	282.867	43939.8	0.066187	0.148922	1899.43	104028
581	2.000000	1.129953	7.37074e+06	-48039.1	1005.82	-29763.9	0.000000	0.000000	7.144836	348.618	NaN	0.000000	0.001585	0.001738	28.0787	84.2319	0.001698	49597	2.090190	174.801	342.939	1.129718	0.080940	0.080704	348.618	49597	0.075668	0.187906	1855.28	104534
581	2.000000	1.140144	7.37074e+06	-48039.1	1005.82	-29763.9	0.000000	0.000000	7.157478	408.27	NaN	0.000000	0.001575	0.001685	28.0799	95.0214	0.001754	54173.9	6.750172	170.004	414.752	1.139832	0.091130	0.090818	408.27	54173.9	0.085478	0.232685	1754.6	102607
581	2.000000	1.150035	7.37074e+06	-48039.1	1005.82	-29763.9	0.000000	0.000000	7.170978	496.024	NaN	0.000000	0.001573	0.001633	28.08	105.025	0.001852	56693.7	7.217404	168.985	497.831	1.149827	0.101022	0.100813	496.024	56693.7	0.094460	0.277585	1786.93	98312.8
581	2.000000	1.150954	7.37074e+06	-48039.1	1005.82	-29763.9	0.000000	0.000000	7.172294	505.683	NaN	0.000000	0.001563	0.001606	28.08	104.615	0.001833	57080.5	4.313203	171.76	502.897	1.150730	0.101940	0.101716	505.683	57080.5	0.095296	0.281954	1793.5	98213.7