File: remote_trans/data/nanoindenter/0828-1/data/Data_2025-08-06,11h17m57s/2025-07-22_16-23-58_1_568.txt
2025-07-22, 16:23:58, 1
Index	Phase	Displacement	Time	Pos X	Pos Y	Pos Z	Rot A	Rot B	Piezo Z	Force A	Force B	Gripper	Voltage A	Voltage B	Temperature	Amplitude force	Amplitude pos	Stiffness	Phase shift	Phase excitation	Force A raw	Displacement raw	HMax	HMax raw	Real Force	Real Stiffness	Contact Depth	Area	Hardness	Reduced Mod.
[#]	[#]	[um]	[s]	[um]	[um]	[um]	[m°]	[m°]	[um]	[uN]	[uN]	[V]	[V]	[V]	[°C]	[uN]	[um]	[N/m]	[°]	[°]	[uN]	[um]	[um]	[um]	[uN]	[N/m]	[um]	[um^2]	[MPa]	[MPa]
568	1.000000	0.001811	7.3706e+06	-48689.1	1005.82	-29761.5	0.000000	0.000000	6.002806	0.013595	NaN	0.000000	0.001576	0.001693	28.0816	0.059071	0.000955	61.8297	165.913	-168.938	0.090914	0.000539	-1.132106	-1.133377	0.013595	61.8297	-1.132270	-1.358548E+15	-1.000718E-17	NaN
568	1.000000	0.043723	7.3706e+06	-48689.1	1005.82	-29761.5	0.000000	0.000000	6.044720	0.043808	NaN	0.000000	0.001559	0.001689	28.0812	0.109821	0.001918	57.253	101.874	16.7604	-0.008531	0.042344	-1.090194	-1.091573	0.043808	57.253	-1.090767	-3.768046E+14	-1.162626E-16	NaN
568	1.000000	0.085726	7.3706e+06	-48689.1	1005.82	-29761.5	0.000000	0.000000	6.086721	0.003020	NaN	0.000000	0.001545	0.001687	28.0813	0.138068	0.002033	67.9176	82.3897	-166.378	0.055808	0.084426	-1.048191	-1.049491	0.003020	67.9176	-1.048224	-1.010504E+14	-2.988425E-17	NaN
568	1.000000	0.127795	7.3706e+06	-48689.1	1005.82	-29761.5	0.000000	0.000000	6.128791	0.039979	NaN	0.000000	0.001600	0.001675	28.08	0.071099	0.002009	35.3981	162.439	12.9519	0.053641	0.126409	-1.006122	-1.007508	0.039979	35.3981	-1.006969	-2.815675E+13	-1.419861E-15	NaN
568	1.000000	0.169790	7.3706e+06	-48689.1	1005.82	-29761.5	0.000000	0.000000	6.170786	0.024507	NaN	0.000000	0.001556	0.001690	28.08	0.045154	0.001948	23.1777	-142.515	-165.217	0.023606	0.168461	-0.964127	-0.965456	0.024507	23.1777	-0.964920	-7.641729E+12	-3.206966E-15	NaN
568	1.000000	0.211802	7.3706e+06	-48689.1	1005.82	-29761.5	0.000000	0.000000	6.212797	0.001657	NaN	0.000000	0.001555	0.001707	28.0798	0.163255	0.002116	77.1643	110.432	14.1998	0.060373	0.210462	-0.922114	-0.923454	0.001657	77.1643	-0.922130	-2.022854E+12	-8.191377E-16	NaN
568	1.000000	0.253833	7.3706e+06	-48689.1	1005.82	-29761.5	0.000000	0.000000	6.254829	0.041528	NaN	0.000000	0.001579	0.001722	28.0796	0.034853	0.001859	18.7493	55.692	-166.857	0.040104	0.252525	-0.880084	-0.881391	0.041528	18.7493	-0.881745	-5.758429E+11	-7.211611E-14	NaN
568	1.000000	0.295870	7.3706e+06	-48689.1	1005.82	-29761.5	0.000000	0.000000	6.296868	0.075130	NaN	0.000000	0.001612	0.001663	28.0812	0.132301	0.001973	67.0511	-83.1764	15.9538	0.081700	0.294475	-0.838046	-0.839441	0.075130	67.0511	-0.838886	-1.514280E+11	-4.961427E-13	NaN
568	1.000000	0.337876	7.3706e+06	-48689.1	1005.82	-29761.5	0.000000	0.000000	6.338871	-0.005530	NaN	0.000000	0.001571	0.001737	28.0813	0.006139	0.002000	3.069842	-48.0824	-163.873	0.098449	0.336543	-0.796040	-0.797374	-0.005530	3.069842	-0.794689	-3.808563E+10	1.452089E-13	NaN
568	1.000000	0.379910	7.3706e+06	-48689.1	1005.82	-29761.5	0.000000	0.000000	6.380907	0.052587	NaN	0.000000	0.001578	0.001672	28.0811	0.055285	0.001844	29.9844	-161.86	14.5281	0.020531	0.378539	-0.754006	-0.755377	0.052587	29.9844	-0.755321	-1.110826E+10	-4.734082E-12	NaN
568	1.000000	0.421907	7.3706e+06	-48689.1	1005.82	-29761.5	0.000000	0.000000	6.422903	0.022438	NaN	0.000000	0.001557	0.001800	28.08	0.108329	0.001948	55.597	-43.4245	-161.816	-0.003934	0.420560	-0.712009	-0.713357	0.022438	55.597	-0.712312	-2.881356E+9	-7.787232E-12	NaN
568	1.000000	0.463934	7.3706e+06	-48689.1	1005.82	-29761.5	0.000000	0.000000	6.464928	-0.024237	NaN	0.000000	0.001590	0.001820	28.08	0.007482	0.002000	3.741355	104.713	15.7357	-0.001763	0.462556	-0.669982	-0.671360	-0.024237	3.741355	-0.665124	-6.525849E+8	3.714035E-11	NaN
568	1.000000	0.505931	7.37061e+06	-48689.1	1005.82	-29761.5	0.000000	0.000000	6.506924	-0.040057	NaN	0.000000	0.001631	0.001854	28.0799	0.033253	0.001922	17.3003	-40.2316	-163.227	0.022860	0.504620	-0.627986	-0.629297	-0.040057	17.3003	-0.626249	-1.912079E+8	2.094959E-10	NaN
568	1.000000	0.547970	7.37061e+06	-48689.1	1005.82	-29761.5	0.000000	0.000000	6.548968	0.073620	NaN	0.000000	0.001665	0.001842	28.0814	0.062339	0.002015	30.9441	-30.7825	15.5875	0.012995	0.546613	-0.585946	-0.587304	0.073620	30.9441	-0.587730	-5.641182E+7	-1.305053E-9	NaN
568	1.000000	0.589949	7.37061e+06	-48689.1	1005.82	-29761.5	0.000000	0.000000	6.590944	0.003028	NaN	0.000000	0.001617	0.001801	28.0813	0.049274	0.001983	24.8453	49.5454	-168.045	0.004447	0.588656	-0.543967	-0.545260	0.003028	24.8453	-0.544059	-1.404862E+7	-2.155061E-10	NaN
568	1.000000	0.631999	7.37061e+06	-48689.1	1005.82	-29761.5	0.000000	0.000000	6.632994	0.011203	NaN	0.000000	0.001608	0.001831	28.0813	0.111682	0.002008	55.6117	-168.057	19.6537	0.010692	0.630625	-0.501918	-0.503291	0.011203	55.6117	-0.502069	-3.66334e+06	-3.058263E-9	NaN
568	1.000000	0.674018	7.37061e+06	-48689.1	1005.82	-29761.5	0.000000	0.000000	6.675017	0.079362	NaN	0.000000	0.001588	0.001839	28.0799	0.046941	0.001899	24.7207	33.1482	-164.562	0.060660	0.672685	-0.459898	-0.461232	0.079362	24.7207	-0.462306	-1.01722e+06	-7.801872E-8	NaN
568	1.000000	0.716028	7.37061e+06	-48689.1	1005.82	-29761.5	0.000000	0.000000	6.717023	0.014413	NaN	0.000000	0.001650	0.001825	28.0801	0.062245	0.001892	32.9071	60.7055	15.9104	0.067263	0.714695	-0.417889	-0.419222	0.014413	32.9071	-0.418217	-242730	-5.938062E-8	NaN
568	1.000000	0.758014	7.37061e+06	-48689.1	1005.82	-29761.5	0.000000	0.000000	6.759010	0.038641	NaN	0.000000	0.001567	0.001777	28.0802	0.059204	0.002007	29.506	98.5985	-164.489	0.008038	0.756718	-0.375903	-0.377198	0.038641	29.506	-0.376885	-62396.4	-6.192828E-7	NaN
568	1.000000	0.800065	7.37061e+06	-48689.1	1005.82	-29761.5	0.000000	0.000000	6.801060	0.003203	NaN	0.000000	0.001582	0.001781	28.0802	0.075101	0.001961	38.2889	-177.452	17.5629	0.046896	0.798733	-0.333851	-0.335183	0.003203	38.2889	-0.333914	-14883.9	-2.151914E-7	NaN
568	1.000000	0.842084	7.37061e+06	-48689.1	1005.82	-29761.5	0.000000	0.000000	6.843079	-0.012498	NaN	0.000000	0.001574	0.001791	28.0815	0.064635	0.001944	33.2403	158.721	-164.029	0.014196	0.840752	-0.291832	-0.293165	-0.012498	33.2403	-0.291550	-3519.75	3.550912E-6	NaN
568	1.000000	0.884100	7.37061e+06	-48689.1	1005.82	-29761.5	0.000000	0.000000	6.885095	-0.011211	NaN	0.000000	0.001598	0.001775	28.0814	0.072254	0.001881	38.4132	155.232	14.3351	-0.003376	0.882745	-0.249816	-0.251171	-0.011211	38.4132	-0.249597	-810.462	1.383306E-5	NaN
568	1.000000	0.926125	7.37061e+06	-48689.1	1005.82	-29761.5	0.000000	0.000000	6.927121	0.033165	NaN	0.000000	0.001659	0.001801	28.0812	0.059361	0.002033	29.1972	86.9672	-163.49	0.010536	0.924844	-0.207792	-0.209072	0.033165	29.1972	-0.208644	-182.319	-0.000182	NaN
568	1.000000	0.968124	7.37061e+06	-48689.1	1005.82	-29761.5	0.000000	0.000000	6.969119	-0.018985	NaN	0.000000	0.001609	0.001824	28.0801	0.035243	0.002033	17.3374	149.923	16.2295	-0.002900	0.966758	-0.165792	-0.167159	-0.018985	17.3374	-0.164971	-33.5575	0.000566	NaN
568	1.000000	1.010156	7.37061e+06	-48689.1	1005.82	-29761.5	0.000000	0.000000	7.011153	0.048914	NaN	0.000000	0.001658	0.001787	28.0802	0.150805	0.001863	80.9592	-19.2011	-164.984	-0.032594	1.008831	-0.123760	-0.125085	0.048914	80.9592	-0.124214	-5.866907	-0.008337	NaN
568	1.000000	1.052175	7.37061e+06	-48689.1	1005.82	-29761.5	0.000000	0.000000	7.053168	-0.061138	NaN	0.000000	0.001615	0.001843	28.0804	0.040156	0.002089	19.2198	-96.3637	17.3935	-0.032646	1.050812	-0.081741	-0.083105	-0.061138	19.2198	-0.079356	-0.596399	0.102511	NaN
568	1.000000	1.094164	7.37061e+06	-48689.1	1005.82	-29761.5	0.000000	0.000000	7.095163	0.100659	NaN	0.000000	0.001628	0.001808	28.0815	0.110884	0.002004	55.3233	29.144	-165.186	0.179204	1.092869	-0.039752	-0.041048	0.100659	55.3233	-0.041117	-0.048903	-2.058362	NaN
568	1.000000	1.136171	7.37061e+06	-48689.1	1005.82	-29761.5	0.000000	0.000000	7.137363	4.806346	NaN	0.000000	0.001639	0.001837	28.0817	5.504534	0.001774	3103.42	16.3084	6.765967	3.068232	1.134781	0.002254	0.000865	4.806346	3103.42	0.001093	0.000834	5760.2	98157.8
568	2.000000	1.149740	7.37061e+06	-48689.1	1005.82	-29761.5	0.000000	0.000000	7.151730	24.2015	NaN	0.000000	0.001566	0.001785	28.0817	19.5115	0.001716	11373.4	4.354192	-174.659	23.3649	1.149387	0.015824	0.015471	24.2015	11373.4	0.014228	0.014270	1696	86986.9
568	2.000000	1.160146	7.37061e+06	-48689.1	1005.82	-29761.5	0.000000	0.000000	7.163159	49.0821	NaN	0.000000	0.001541	0.001865	28.0809	30.0174	0.001764	17015.1	2.332731	3.490620	47.0206	1.159864	0.026229	0.025947	49.0821	17015.1	0.024066	0.029338	1672.99	90759.4
568	2.000000	1.170718	7.37061e+06	-48689.1	1005.82	-29761.5	0.000000	0.000000	7.175016	80.3415	NaN	0.000000	0.001552	0.001769	28.0811	39.9637	0.001749	22847.8	3.561048	179.554	81.7879	1.170363	0.036801	0.036446	80.3415	22847.8	0.034164	0.049818	1612.72	93524.9
568	2.000000	1.181118	7.37061e+06	-48689.1	1005.82	-29761.5	0.000000	0.000000	7.187224	124.293	NaN	0.000000	0.001555	0.001826	28.0807	50.2633	0.001748	28756.9	3.212519	-2.099085	119.85	1.180791	0.047202	0.046875	124.293	28756.9	0.043960	0.074663	1664.73	96153.2
568	2.000000	1.191711	7.37061e+06	-48689.1	1005.82	-29761.5	0.000000	0.000000	7.199835	173.381	NaN	0.000000	0.001568	0.001855	28.0804	61.4763	0.001725	35637	5.768174	174.278	174.597	1.191339	0.057795	0.057423	173.381	35637	0.054146	0.105657	1640.97	100167
568	2.000000	1.202102	7.37061e+06	-48689.1	1005.82	-29761.5	0.000000	0.000000	7.212894	238.281	NaN	0.000000	0.001576	0.001870	28.0819	72.2904	0.001866	38749.6	3.586876	-4.151338	234.431	1.201739	0.068185	0.067822	238.281	38749.6	0.063573	0.138933	1715.07	94981.2
568	2.000000	1.212616	7.37061e+06	-48689.1	1005.82	-29761.5	0.000000	0.000000	7.226250	307.395	NaN	0.000000	0.001546	0.001847	28.0817	80.7233	0.001754	46024.1	5.281226	172.653	306.518	1.212218	0.078700	0.078302	307.395	46024.1	0.073691	0.179424	1713.23	99270.1
568	2.000000	1.223059	7.37061e+06	-48689.1	1005.82	-29761.5	0.000000	0.000000	7.239717	380.937	NaN	0.000000	0.001558	0.001828	28.0818	91.4347	0.001801	50772.8	6.010678	-9.459800	374.188	1.222744	0.089143	0.088828	380.937	50772.8	0.083515	0.223371	1705.41	98150.2
568	2.000000	1.233621	7.37061e+06	-48689.1	1005.82	-29761.5	0.000000	0.000000	7.253959	470.453	NaN	0.000000	0.001545	0.001864	28.0805	99.9715	0.001810	55247.1	6.482565	170.366	472.07	1.233196	0.099704	0.099279	470.453	55247.1	0.093318	0.271671	1731.7	96841.4
568	2.000000	1.238634	7.37061e+06	-48689.1	1005.82	-29761.5	0.000000	0.000000	7.260518	508.036	NaN	0.000000	0.001590	0.001831	28.0807	105.442	0.001847	57082.6	8.816682	169.031	509.271	1.238059	0.104718	0.104143	508.036	57082.6	0.098043	0.296526	1713.29	95773.5