File: remote_trans/data/nanoindenter/0828-1/data/Data_2025-08-06,11h17m57s/2025-07-22_16-23-58_1_487.txt
2025-07-22, 16:23:58, 1
Index	Phase	Displacement	Time	Pos X	Pos Y	Pos Z	Rot A	Rot B	Piezo Z	Force A	Force B	Gripper	Voltage A	Voltage B	Temperature	Amplitude force	Amplitude pos	Stiffness	Phase shift	Phase excitation	Force A raw	Displacement raw	HMax	HMax raw	Real Force	Real Stiffness	Contact Depth	Area	Hardness	Reduced Mod.
[#]	[#]	[um]	[s]	[um]	[um]	[um]	[m°]	[m°]	[um]	[uN]	[uN]	[V]	[V]	[V]	[°C]	[uN]	[um]	[N/m]	[°]	[°]	[uN]	[um]	[um]	[um]	[uN]	[N/m]	[um]	[um^2]	[MPa]	[MPa]
487	1.000000	0.002292	7.36982e+06	-52739.1	1005.82	-29748.4	0.000000	0.000000	6.002771	-0.057095	NaN	0.000000	0.001572	0.001729	28.0827	0.032295	0.000950	33.9782	-103.958	-164.436	-0.021370	0.001080	-1.042025	-1.043236	-0.057095	33.9782	-1.040765	-8.021368E+13	7.117897E-16	NaN
487	1.000000	0.042285	7.36982e+06	-52739.1	1005.82	-29748.4	0.000000	0.000000	6.042765	-0.054684	NaN	0.000000	0.001555	0.001698	28.0827	0.074218	0.001971	37.6564	78.0633	-164.333	-0.014872	0.040958	-1.002031	-1.003359	-0.054684	37.6564	-1.000942	-2.335896E+13	2.341008E-15	NaN
487	1.000000	0.082277	7.36982e+06	-52739.1	1005.82	-29748.4	0.000000	0.000000	6.082760	0.015977	NaN	0.000000	0.001559	0.001738	28.0812	0.043792	0.002033	21.54	130.481	-168.737	-0.077742	0.080979	-0.962039	-0.963338	0.015977	21.54	-0.962595	-7.109832E+12	-2.247132E-15	NaN
487	1.000000	0.122298	7.36982e+06	-52739.1	1005.82	-29748.4	0.000000	0.000000	6.122778	-0.032965	NaN	0.000000	0.001575	0.001754	28.0809	0.015280	0.001920	7.959698	147.2	-169.442	-0.010613	0.120972	-0.922019	-0.923344	-0.032965	7.959698	-0.918913	-1.830309E+12	1.801063E-14	NaN
487	1.000000	0.162309	7.36982e+06	-52739.1	1005.82	-29748.4	0.000000	0.000000	6.162788	-0.070121	NaN	0.000000	0.001573	0.001701	28.0812	0.041660	0.002169	19.2107	48.522	-165.496	-0.063707	0.160976	-0.882008	-0.883340	-0.070121	19.2107	-0.879270	-5.331393E+11	1.315251E-13	NaN
487	1.000000	0.202339	7.36982e+06	-52739.1	1005.82	-29748.4	0.000000	0.000000	6.202821	-0.019621	NaN	0.000000	0.001600	0.001682	28.0813	0.072383	0.002035	35.5737	-90.1676	-161.208	-0.006810	0.201046	-0.841977	-0.843270	-0.019621	35.5737	-0.841563	-1.646164E+11	1.191913E-13	NaN
487	1.000000	0.242343	7.36982e+06	-52739.1	1005.82	-29748.4	0.000000	0.000000	6.242821	-0.103621	NaN	0.000000	0.001572	0.001746	28.0829	0.017099	0.002091	8.175712	-47.1612	-167.608	-0.112229	0.241024	-0.801973	-0.803292	-0.103621	8.175712	-0.792468	-3.552992E+10	2.916453E-12	NaN
487	1.000000	0.282364	7.36982e+06	-52739.1	1005.82	-29748.4	0.000000	0.000000	6.282845	-0.027401	NaN	0.000000	0.001668	0.001721	28.0829	0.014411	0.001964	7.338002	123.775	-166.824	-0.045447	0.281093	-0.761952	-0.763224	-0.027401	7.338002	-0.759152	-1.252455E+10	2.187783E-12	NaN
487	1.000000	0.322372	7.36982e+06	-52739.1	1005.82	-29748.4	0.000000	0.000000	6.322851	-0.078893	NaN	0.000000	0.001684	0.001702	28.0831	0.041189	0.002043	20.1618	176.461	-166.782	-0.089870	0.321111	-0.721945	-0.723206	-0.078893	20.1618	-0.719010	-3.556069E+9	2.218545E-11	NaN
487	1.000000	0.362375	7.36982e+06	-52739.1	1005.82	-29748.4	0.000000	0.000000	6.362857	0.006284	NaN	0.000000	0.001670	0.001728	28.0819	0.081071	0.001916	42.3033	84.9026	-167.738	0.024108	0.361119	-0.681941	-0.683197	0.006284	42.3033	-0.682053	-1.112444E+9	-5.648989E-12	NaN
487	1.000000	0.402414	7.36982e+06	-52739.1	1005.82	-29748.4	0.000000	0.000000	6.402894	-0.049524	NaN	0.000000	0.001572	0.001733	28.0813	0.061259	0.002044	29.9689	92.1736	-167.67	-0.038474	0.401107	-0.641903	-0.643209	-0.049524	29.9689	-0.640663	-3.015726E+8	1.642202E-10	NaN
487	1.000000	0.442434	7.36982e+06	-52739.1	1005.82	-29748.4	0.000000	0.000000	6.442912	-0.101093	NaN	0.000000	0.001588	0.001719	28.0816	0.098153	0.002071	47.383	6.527774	-166.638	-0.117036	0.441099	-0.601882	-0.603218	-0.101093	47.383	-0.600282	-8.401278E+7	1.203302E-9	NaN
487	1.000000	0.482438	7.36982e+06	-52739.1	1005.82	-29748.4	0.000000	0.000000	6.482915	-0.114271	NaN	0.000000	0.001612	0.001718	28.083	0.090283	0.002091	43.1694	-52.9832	-166.054	-0.059807	0.481137	-0.561879	-0.563180	-0.114271	43.1694	-0.559894	-2.327584E+7	4.909415E-9	NaN
487	1.000000	0.522495	7.36982e+06	-52739.1	1005.82	-29748.4	0.000000	0.000000	6.522975	-0.028105	NaN	0.000000	0.001560	0.001734	28.0831	0.049360	0.002163	22.8151	-137.638	-162.958	-0.021154	0.521165	-0.521822	-0.523152	-0.028105	22.8151	-0.520898	-6.70017e+06	4.194741E-9	NaN
487	1.000000	0.562489	7.36982e+06	-52739.1	1005.82	-29748.4	0.000000	0.000000	6.562968	-0.074660	NaN	0.000000	0.001623	0.001681	28.0831	0.015097	0.002020	7.473364	88.7324	-166.837	-0.018327	0.561256	-0.481828	-0.483060	-0.074660	7.473364	-0.474335	-1.50032e+06	4.976267E-8	NaN
487	1.000000	0.602473	7.36982e+06	-52739.1	1005.82	-29748.4	0.000000	0.000000	6.602951	-0.082635	NaN	0.000000	0.001614	0.001692	28.0824	0.015143	0.002098	7.217396	134.121	-169.002	-0.087548	0.601212	-0.441844	-0.443104	-0.082635	7.217396	-0.433257	-396386	2.084710E-7	NaN
487	1.000000	0.642510	7.36982e+06	-52739.1	1005.82	-29748.4	0.000000	0.000000	6.642989	-0.054832	NaN	0.000000	0.001560	0.001714	28.0816	0.100740	0.002112	47.6878	-89.237	-163.58	-0.036175	0.641155	-0.401807	-0.403161	-0.054832	47.6878	-0.400945	-137868	3.977123E-7	NaN
487	1.000000	0.682570	7.36982e+06	-52739.1	1005.82	-29748.5	0.000000	0.000000	6.683050	-0.044404	NaN	0.000000	0.001568	0.001704	28.0815	0.041875	0.002092	20.016	-24.6428	-167.802	-0.071270	0.681275	-0.361746	-0.363041	-0.044404	20.016	-0.360083	-35730.6	1.242735E-6	NaN
487	1.000000	0.722542	7.36982e+06	-52739.1	1005.82	-29748.5	0.000000	0.000000	6.723022	-0.052883	NaN	0.000000	0.001556	0.001691	28.0813	0.111767	0.002054	54.4152	-25.6244	-167.418	-0.026398	0.721211	-0.321774	-0.323106	-0.052883	54.4152	-0.321045	-9638.76	5.486452E-6	NaN
487	1.000000	0.762586	7.36982e+06	-52739.1	1005.82	-29748.5	0.000000	0.000000	6.763067	-0.016170	NaN	0.000000	0.001572	0.001707	28.0826	0.056338	0.001845	30.5364	76.0976	-164.025	-0.034353	0.761234	-0.281731	-0.283082	-0.016170	30.5364	-0.281334	-2472.2	6.540822E-6	NaN
487	1.000000	0.802577	7.36982e+06	-52739.1	1005.82	-29748.5	0.000000	0.000000	6.803056	-0.066027	NaN	0.000000	0.001605	0.001679	28.0826	0.065508	0.002060	31.8027	-174.221	-169.238	-0.083522	0.801270	-0.241739	-0.243047	-0.066027	31.8027	-0.240182	-578.628	0.000114	NaN
487	1.000000	0.842597	7.36982e+06	-52739.1	1005.82	-29748.5	0.000000	0.000000	6.843076	-0.064193	NaN	0.000000	0.001593	0.001747	28.0828	0.112781	0.002075	54.3553	-14.1136	-167.384	-0.005842	0.841320	-0.201720	-0.202997	-0.064193	54.3553	-0.200834	-135.957	0.000472	NaN
487	1.000000	0.882623	7.36982e+06	-52739.1	1005.82	-29748.5	0.000000	0.000000	6.883103	-0.056533	NaN	0.000000	0.001543	0.001691	28.0829	0.128746	0.001938	66.4194	158.974	-166.344	-0.016178	0.881321	-0.161693	-0.162996	-0.056533	66.4194	-0.161055	-28.6224	0.001975	NaN
487	1.000000	0.922618	7.36982e+06	-52739.1	1005.82	-29748.5	0.000000	0.000000	6.923095	-0.121399	NaN	0.000000	0.001540	0.001699	28.0819	0.051617	0.002032	25.4001	15.742	-167.847	-0.159385	0.921340	-0.121699	-0.122977	-0.121399	25.4001	-0.118114	-4.424573	0.027438	NaN
487	1.000000	0.962652	7.36982e+06	-52739.1	1005.82	-29748.5	0.000000	0.000000	6.963133	-0.030382	NaN	0.000000	0.001599	0.001705	28.0819	0.133075	0.002040	65.2407	-15.7927	-167.126	-0.046776	0.961402	-0.081664	-0.082914	-0.030382	65.2407	-0.081315	-0.667466	0.045519	NaN
487	1.000000	1.002642	7.36982e+06	-52739.1	1005.82	-29748.5	0.000000	0.000000	7.003121	-0.078973	NaN	0.000000	0.001594	0.001714	28.0819	0.058306	0.001897	30.7287	-174.672	-170.442	-0.041175	1.001339	-0.041674	-0.042977	-0.078973	30.7287	-0.039747	-0.044429	1.777502	NaN
487	1.000000	1.042694	7.36982e+06	-52739.1	1005.82	-29748.5	0.000000	0.000000	7.043172	-0.096074	NaN	0.000000	0.001603	0.001705	28.0826	0.145675	0.001936	75.2534	7.892448	-167.36	-0.082647	1.041379	-0.001622	-0.002938	-0.096074	75.2534	-0.000665	-0.000491	195.861	NaN
487	2.000000	1.059329	7.36982e+06	-52739.1	1005.82	-29748.5	0.000000	0.000000	7.060508	16.9654	NaN	0.000000	0.001535	0.001694	28.0827	16.8513	0.001765	9547.44	7.526755	-175.149	19.3042	1.058988	0.015012	0.014671	16.9654	9547.44	0.013679	0.013564	1250.74	74896.4
487	2.000000	1.069215	7.36982e+06	-52739.1	1005.82	-29748.5	0.000000	0.000000	7.071166	35.7316	NaN	0.000000	0.001544	0.001739	28.0827	27.1816	0.001875	14496.8	5.253745	-179.215	33.6656	1.068924	0.024898	0.024608	35.7316	14496.8	0.023049	0.027562	1296.39	79778.4
487	2.000000	1.079227	7.36982e+06	-52739.1	1005.82	-29748.5	0.000000	0.000000	7.082265	62.1498	NaN	0.000000	0.001596	0.001706	28.0822	36.5823	0.001820	20096.7	4.984077	178.589	62.0559	1.078898	0.034910	0.034582	62.1498	20096.7	0.032591	0.046285	1342.77	85345.2
487	2.000000	1.089188	7.36982e+06	-52739.1	1005.82	-29748.5	0.000000	0.000000	7.093494	92.9709	NaN	0.000000	0.001566	0.001733	28.0813	47.4443	0.001864	25446.6	4.570703	176.634	92.3395	1.088895	0.044872	0.044579	92.9709	25446.6	0.042132	0.069653	1334.77	88091.2
487	2.000000	1.099146	7.36982e+06	-52739.1	1005.82	-29748.5	0.000000	0.000000	7.104994	130.476	NaN	0.000000	0.001582	0.001685	28.0814	56.4819	0.001779	31749.2	4.485397	174.694	128.384	1.098888	0.054829	0.054572	130.476	31749.2	0.051747	0.097889	1332.9	92712.7
487	2.000000	1.109067	7.36982e+06	-52739.1	1005.82	-29748.5	0.000000	0.000000	7.116914	179.074	NaN	0.000000	0.001598	0.001745	28.0815	65.6618	0.001757	37372.9	1.510557	176.957	173.643	1.108820	0.064751	0.064503	179.074	37372.9	0.061157	0.129991	1377.59	94705.3
487	2.000000	1.119147	7.36982e+06	-52739.1	1005.82	-29748.5	0.000000	0.000000	7.129059	229.294	NaN	0.000000	0.001562	0.001717	28.0826	76.9356	0.001771	43450	6.541626	170.697	228.904	1.118891	0.074830	0.074574	229.294	43450	0.070872	0.167655	1367.66	96951.6
487	2.000000	1.129225	7.36982e+06	-52739.1	1005.82	-29748.5	0.000000	0.000000	7.141323	282.447	NaN	0.000000	0.001558	0.001706	28.0828	87.1232	0.001812	48085.1	6.411739	169.766	287.923	1.128914	0.084908	0.084597	282.447	48085.1	0.080503	0.209416	1348.74	96001.7
487	2.000000	1.139109	7.36982e+06	-52739.1	1005.82	-29748.5	0.000000	0.000000	7.153917	348.315	NaN	0.000000	0.001590	0.001701	28.0826	96.2572	0.001894	50818.8	4.654257	170.936	346.368	1.139004	0.094792	0.094687	348.315	50818.8	0.089652	0.253092	1376.24	92290.8
487	2.000000	1.149068	7.36982e+06	-52739.1	1005.82	-29748.5	0.000000	0.000000	7.167155	428.064	NaN	0.000000	0.001591	0.001698	28.0815	104.684	0.001789	58520.1	4.839884	169.798	422.368	1.148811	0.104751	0.104495	428.064	58520.1	0.099265	0.303120	1412.19	97111.5
487	2.000000	1.150218	7.36982e+06	-52739.1	1005.82	-29748.5	0.000000	0.000000	7.168514	433.137	NaN	0.000000	0.001592	0.001670	28.0818	104.765	0.001757	59624.7	3.942745	171.011	438.43	1.149823	0.105902	0.105506	433.137	59624.7	0.100453	0.309597	1399.03	97904.2