File: remote_trans/data/nanoindenter/0828-1/data/Data_2025-08-06,11h17m57s/2025-07-22_16-23-58_1_1087.txt
2025-07-22, 16:23:58, 1
Index	Phase	Displacement	Time	Pos X	Pos Y	Pos Z	Rot A	Rot B	Piezo Z	Force A	Force B	Gripper	Voltage A	Voltage B	Temperature	Amplitude force	Amplitude pos	Stiffness	Phase shift	Phase excitation	Force A raw	Displacement raw	HMax	HMax raw	Real Force	Real Stiffness	Contact Depth	Area	Hardness	Reduced Mod.
[#]	[#]	[um]	[s]	[um]	[um]	[um]	[m°]	[m°]	[um]	[uN]	[uN]	[V]	[V]	[V]	[°C]	[uN]	[um]	[N/m]	[°]	[°]	[uN]	[um]	[um]	[um]	[uN]	[N/m]	[um]	[um^2]	[MPa]	[MPa]
1087	1.000000	0.002448	7.37568e+06	-54489.1	1055.82	-29743.2	0.000000	0.000000	6.002810	0.062078	NaN	0.000000	0.001645	0.001733	28.0843	0.057994	0.001004	57.7904	-53.2459	-168.594	0.112212	0.001162	-1.213748	-1.215035	0.062078	57.7904	-1.214554	-1.720311E+16	-3.608508E-18	NaN
1087	1.000000	0.046369	7.37568e+06	-54489.1	1055.82	-29743.2	0.000000	0.000000	6.046730	0.036004	NaN	0.000000	0.001566	0.001689	28.0829	0.030992	0.001840	16.8447	161.424	-161.915	0.004991	0.045100	-1.169828	-1.171097	0.036004	16.8447	-1.171431	-4.550525E+15	-7.911960E-18	NaN
1087	1.000000	0.090409	7.37569e+06	-54489.1	1055.82	-29743.2	0.000000	0.000000	6.090769	0.009868	NaN	0.000000	0.001575	0.001658	28.0824	0.067996	0.001898	35.8293	115.009	-165.44	0.022735	0.089096	-1.125788	-1.127101	0.009868	35.8293	-1.125994	-1.119150E+15	-8.817742E-18	NaN
1087	1.000000	0.134406	7.37569e+06	-54489.1	1055.82	-29743.2	0.000000	0.000000	6.134765	-9.482185E-5	NaN	0.000000	0.001615	0.001642	28.0829	0.061211	0.002000	30.6038	-11.1218	-167.104	-0.003439	0.133124	-1.081791	-1.083072	-9.482185E-5	30.6038	-1.081789	-2.854591E+14	3.321731E-19	NaN
1087	1.000000	0.178429	7.37569e+06	-54489.1	1055.82	-29743.2	0.000000	0.000000	6.178789	0.008638	NaN	0.000000	0.001570	0.001710	28.0842	0.103492	0.002090	49.5219	92.4769	-167.297	-0.007314	0.177128	-1.037768	-1.039069	0.008638	49.5219	-1.037898	-7.340197E+13	-1.176787E-16	NaN
1087	1.000000	0.222471	7.37569e+06	-54489.1	1055.82	-29743.2	0.000000	0.000000	6.222831	0.013855	NaN	0.000000	0.001564	0.001673	28.0844	0.049172	0.001995	24.6484	73.714	-166.684	-0.022399	0.221159	-0.993726	-0.995038	0.013855	24.6484	-0.994148	-1.892204E+13	-7.322280E-16	NaN
1087	1.000000	0.266476	7.37569e+06	-54489.1	1055.82	-29743.2	0.000000	0.000000	6.266836	0.026684	NaN	0.000000	0.001603	0.001667	28.0839	0.030411	0.002033	14.9567	-76.0235	-167.034	0.024240	0.265120	-0.949721	-0.951077	0.026684	14.9567	-0.951059	-4.969532E+12	-5.369508E-15	NaN
1087	1.000000	0.310474	7.37569e+06	-54489.1	1055.82	-29743.2	0.000000	0.000000	6.310832	-0.015588	NaN	0.000000	0.001579	0.001660	28.0839	0.067836	0.002120	32.0039	-102.031	-169.966	-0.006545	0.309157	-0.905723	-0.907040	-0.015588	32.0039	-0.905358	-1.200762E+12	1.298169E-14	NaN
1087	1.000000	0.354510	7.37569e+06	-54489.1	1055.82	-29743.2	0.000000	0.000000	6.354871	0.037435	NaN	0.000000	0.001608	0.001668	28.0832	0.010198	0.002060	4.949733	60.0003	-168.95	0.025114	0.353216	-0.861687	-0.862981	0.037435	4.949733	-0.867359	-3.678867E+11	-1.017562E-13	NaN
1087	1.000000	0.398556	7.37569e+06	-54489.1	1055.82	-29743.2	0.000000	0.000000	6.398914	-0.048151	NaN	0.000000	0.001573	0.001633	28.0833	0.040620	0.002020	20.1089	-177.993	-164.748	-0.073036	0.397250	-0.817640	-0.818946	-0.048151	20.1089	-0.815845	-7.376582E+10	6.527572E-13	NaN
1087	1.000000	0.442557	7.37569e+06	-54489.1	1055.82	-29743.2	0.000000	0.000000	6.442916	0.009046	NaN	0.000000	0.001586	0.001630	28.0829	0.073655	0.001973	37.3302	98.3811	-161.524	0.086816	0.441261	-0.773640	-0.774936	0.009046	37.3302	-0.773822	-1.982741E+10	-4.562611E-13	NaN
1087	1.000000	0.486570	7.37569e+06	-54489.1	1055.82	-29743.2	0.000000	0.000000	6.486933	0.078120	NaN	0.000000	0.001583	0.001693	28.0842	0.096531	0.002125	45.4287	139.976	-166.361	0.151378	0.485245	-0.729627	-0.730952	0.078120	45.4287	-0.730916	-5.167698E+9	-1.511702E-11	NaN
1087	1.000000	0.530560	7.37569e+06	-54489.1	1055.82	-29743.2	0.000000	0.000000	6.530918	-0.035124	NaN	0.000000	0.001558	0.001744	28.0843	0.087190	0.002162	40.3264	43.6288	-168.249	-0.051696	0.529319	-0.685637	-0.686878	-0.035124	40.3264	-0.684984	-1.219986E+9	2.879086E-11	NaN
1087	1.000000	0.574587	7.37569e+06	-54489.1	1055.82	-29743.2	0.000000	0.000000	6.574947	-0.004319	NaN	0.000000	0.001591	0.001755	28.0843	0.028474	0.002005	14.2041	-133.488	-167.047	-0.018327	0.573251	-0.641609	-0.642946	-0.004319	14.2041	-0.641381	-3.084908E+8	1.400184E-11	NaN
1087	1.000000	0.618597	7.37569e+06	-54489.1	1055.82	-29743.2	0.000000	0.000000	6.618959	0.066449	NaN	0.000000	0.001550	0.001743	28.0831	0.091139	0.002080	43.8246	97.2855	-165.603	0.034516	0.617333	-0.597600	-0.598864	0.066449	43.8246	-0.598737	-7.999584E+7	-8.306583E-10	NaN
1087	1.000000	0.662658	7.37569e+06	-54489.1	1055.82	-29743.2	0.000000	0.000000	6.663017	-0.014210	NaN	0.000000	0.001565	0.001745	28.0829	0.059821	0.002014	29.7003	-178.717	-162.815	-0.027029	0.661314	-0.553539	-0.554883	-0.014210	29.7003	-0.553180	-1.879303E+7	7.561396E-10	NaN
1087	1.000000	0.706659	7.37569e+06	-54489.1	1055.82	-29743.2	0.000000	0.000000	6.707019	0.009874	NaN	0.000000	0.001583	0.001740	28.0831	0.085212	0.002190	38.914	-131.718	-165.733	-0.029606	0.705318	-0.509538	-0.510879	0.009874	38.914	-0.509728	-4.68412e+06	-2.107984E-9	NaN
1087	1.000000	0.750712	7.37569e+06	-54489.1	1055.82	-29743.2	0.000000	0.000000	6.751073	0.032743	NaN	0.000000	0.001636	0.001710	28.0842	0.043293	0.002032	21.3014	108.589	-164.637	-0.043068	0.749357	-0.465485	-0.466840	0.032743	21.3014	-0.466638	-1.17013e+06	-2.798223E-8	NaN
1087	1.000000	0.794712	7.37569e+06	-54489.1	1055.82	-29743.2	0.000000	0.000000	6.795076	0.127361	NaN	0.000000	0.001607	0.001723	28.0842	0.049923	0.001941	25.7151	-143.261	-170.391	0.035158	0.793411	-0.421485	-0.422786	0.127361	25.7151	-0.425200	-304866	-4.177590E-7	NaN
1087	1.000000	0.838735	7.37569e+06	-54489.1	1055.82	-29743.2	0.000000	0.000000	6.839094	-0.021824	NaN	0.000000	0.001648	0.001706	28.084	0.108827	0.001885	57.7373	-45.7124	-168.986	0.033918	0.837421	-0.377462	-0.378775	-0.021824	57.7373	-0.377178	-63004.6	3.463850E-7	NaN
1087	1.000000	0.882721	7.37569e+06	-54489.1	1055.82	-29743.2	0.000000	0.000000	6.883079	-0.032641	NaN	0.000000	0.001656	0.001730	28.083	0.085562	0.001916	44.6673	-47.5282	-170.183	-0.031046	0.881404	-0.333476	-0.334793	-0.032641	44.6673	-0.332928	-14398	2.267068E-6	NaN
1087	1.000000	0.926751	7.37569e+06	-54489.1	1055.82	-29743.2	0.000000	0.000000	6.927114	0.071803	NaN	0.000000	0.001592	0.001742	28.0831	0.093698	0.001935	48.4166	-145.74	-163.743	0.125774	0.925458	-0.289446	-0.290739	0.071803	48.4166	-0.290558	-3401.4	-2.110977E-5	NaN
1087	1.000000	0.970790	7.37569e+06	-54489.1	1055.82	-29743.2	0.000000	0.000000	6.971151	0.043465	NaN	0.000000	0.001552	0.001745	28.083	0.085828	0.002023	42.4216	41.4141	-165.492	0.030537	0.969457	-0.245407	-0.246739	0.043465	42.4216	-0.246176	-717.315	-6.059420E-5	NaN
1087	1.000000	1.014784	7.37569e+06	-54489.1	1055.82	-29743.2	0.000000	0.000000	7.015146	0.070892	NaN	0.000000	0.001575	0.001756	28.0839	0.042243	0.001982	21.3157	-20.4099	-162.192	0.057595	1.013459	-0.201413	-0.202738	0.070892	21.3157	-0.203908	-152.661	-0.000464	NaN
1087	1.000000	1.058812	7.37569e+06	-54489.1	1055.82	-29743.2	0.000000	0.000000	7.059171	-0.013675	NaN	0.000000	0.001578	0.001716	28.0843	0.036113	0.002079	17.3665	-1.980527	-162.258	-0.049063	1.057459	-0.157385	-0.158738	-0.013675	17.3665	-0.156794	-24.032	0.000569	NaN
1087	1.000000	1.102822	7.37569e+06	-54489.1	1055.82	-29743.3	0.000000	0.000000	7.103183	0.053495	NaN	0.000000	0.001664	0.001723	28.0837	0.101191	0.002047	49.4311	-57.9278	-164.93	0.080482	1.101509	-0.113375	-0.114688	0.053495	49.4311	-0.114187	-3.675488	-0.014554	NaN
1087	1.000000	1.146836	7.37569e+06	-54489.1	1055.82	-29743.3	0.000000	0.000000	7.147197	0.053072	NaN	0.000000	0.001615	0.001733	28.0825	0.098049	0.001981	49.4898	127.46	-164.914	0.027121	1.145529	-0.069361	-0.070668	0.053072	49.4898	-0.070166	-0.344608	-0.154006	NaN
1087	1.000000	1.190862	7.37569e+06	-54489.1	1055.82	-29743.3	0.000000	0.000000	7.191221	-0.015128	NaN	0.000000	0.001573	0.001749	28.0828	0.044546	0.002049	21.7353	-94.2302	-166.474	0.025849	1.189570	-0.025334	-0.026627	-0.015128	21.7353	-0.024812	-0.016681	0.906902	NaN
1087	2.000000	1.233406	7.37569e+06	-54489.1	1055.82	-29743.3	0.000000	0.000000	7.234184	10.1792	NaN	0.000000	0.001567	0.001749	28.0831	7.331170	0.001774	4133.68	10.2117	-170.19	9.935291	1.233070	0.017210	0.016873	10.1792	4133.68	0.015363	0.015772	645.397	30072.3
1087	2.000000	1.244366	7.37569e+06	-54489.1	1055.82	-29743.3	0.000000	0.000000	7.246088	33.1097	NaN	0.000000	0.001630	0.001728	28.0844	15.3613	0.001783	8613.54	4.157921	-170.849	32.3306	1.244000	0.028169	0.027803	33.1097	8613.54	0.025287	0.031539	1049.8	44313
1087	2.000000	1.255290	7.37569e+06	-54489.1	1055.82	-29743.3	0.000000	0.000000	7.258605	71.8504	NaN	0.000000	0.001582	0.001748	28.0841	25.5828	0.001975	12950.9	5.404429	-177.211	70.6655	1.255044	0.039093	0.038847	71.8504	12950.9	0.034932	0.051589	1392.75	52094.8
1087	2.000000	1.266275	7.37569e+06	-54489.1	1055.82	-29743.3	0.000000	0.000000	7.272019	130.903	NaN	0.000000	0.001565	0.001751	28.0843	35.4003	0.001871	18918.6	5.901854	177.835	128.624	1.265903	0.050078	0.049706	130.903	18918.6	0.044888	0.077270	1694.09	62180.9
1087	2.000000	1.277239	7.37569e+06	-54489.1	1055.82	-29743.3	0.000000	0.000000	7.285712	197.258	NaN	0.000000	0.001640	0.001776	28.083	42.909	0.001945	22066.6	4.472757	179.403	195.144	1.276921	0.061042	0.060724	197.258	22066.6	0.054338	0.106290	1855.84	61839
1087	2.000000	1.288238	7.37569e+06	-54489.1	1055.82	-29743.3	0.000000	0.000000	7.299157	256.699	NaN	0.000000	0.001650	0.001747	28.083	52.248	0.001842	28370.3	4.486084	176.414	255.119	1.288013	0.072041	0.071816	256.699	28370.3	0.065255	0.145324	1766.4	67993.9
1087	2.000000	1.299177	7.37569e+06	-54489.1	1055.82	-29743.3	0.000000	0.000000	7.313041	328.312	NaN	0.000000	0.001585	0.001795	28.0828	58.6614	0.001809	32428.2	1.545573	179.061	323.35	1.298920	0.082980	0.082723	328.312	32428.2	0.075387	0.186690	1758.6	68570.2
1087	2.000000	1.310218	7.37569e+06	-54489.1	1055.82	-29743.3	0.000000	0.000000	7.327066	400.836	NaN	0.000000	0.001538	0.001749	28.0842	67.5836	0.001779	37985	5.403162	173.689	398.827	1.309895	0.094021	0.093698	400.836	37985	0.086107	0.235711	1700.54	71481.8
1087	2.000000	1.321136	7.37569e+06	-54489.1	1055.82	-29743.3	0.000000	0.000000	7.339065	427.108	NaN	0.000000	0.001581	0.001762	28.084	77.7122	0.001788	43458.4	1.315356	176.32	419.708	1.320978	0.104940	0.104781	427.108	43458.4	0.097569	0.293986	1452.82	73229.1
1087	2.000000	1.331277	7.37569e+06	-54489.1	1055.82	-29743.3	0.000000	0.000000	7.353146	522.911	NaN	0.000000	0.001610	0.001717	28.0843	87.3462	0.001900	45974.2	4.993363	173.815	524.258	1.330908	0.115081	0.114711	522.911	45974.2	0.106550	0.343835	1520.82	71632.8