File: remote_trans/data/nanoindenter/0828-1/data/Data_2025-08-06,11h17m57s/2025-07-22_16-23-58_1_671.txt
2025-07-22, 16:23:58, 1
Index	Phase	Displacement	Time	Pos X	Pos Y	Pos Z	Rot A	Rot B	Piezo Z	Force A	Force B	Gripper	Voltage A	Voltage B	Temperature	Amplitude force	Amplitude pos	Stiffness	Phase shift	Phase excitation	Force A raw	Displacement raw	HMax	HMax raw	Real Force	Real Stiffness	Contact Depth	Area	Hardness	Reduced Mod.
[#]	[#]	[um]	[s]	[um]	[um]	[um]	[m°]	[m°]	[um]	[uN]	[uN]	[V]	[V]	[V]	[°C]	[uN]	[um]	[N/m]	[°]	[°]	[uN]	[um]	[um]	[um]	[uN]	[N/m]	[um]	[um^2]	[MPa]	[MPa]
671	1.000000	0.002372	7.37161e+06	-43539.1	1005.82	-29778.7	0.000000	0.000000	6.002786	-0.031826	NaN	0.000000	0.001644	0.001677	28.0812	0.035867	0.001041	34.4614	-54.4292	-174.501	-0.084518	0.001126	-1.155230	-1.156476	-0.031826	34.4614	-1.154537	-2.701728E+15	1.177993E-17	NaN
671	1.000000	0.044331	7.37161e+06	-43539.1	1005.82	-29778.7	0.000000	0.000000	6.044746	0.007266	NaN	0.000000	0.001675	0.001675	28.0811	0.010535	0.002045	5.150546	75.8318	13.5319	-0.038253	0.042995	-1.113271	-1.114606	0.007266	5.150546	-1.114329	-7.805125E+14	-9.308856E-18	NaN
671	1.000000	0.086323	7.37161e+06	-43539.1	1005.82	-29778.7	0.000000	0.000000	6.086739	0.023162	NaN	0.000000	0.001654	0.001639	28.0811	0.101101	0.002036	49.6621	-101.37	-165.039	-0.063519	0.085038	-1.071278	-1.072563	0.023162	49.6621	-1.071628	-2.084790E+14	-1.111020E-16	NaN
671	1.000000	0.128358	7.37161e+06	-43539.1	1005.82	-29778.7	0.000000	0.000000	6.128772	-0.024632	NaN	0.000000	0.001640	0.001709	28.0823	0.043567	0.002109	20.6529	96.995	12.7997	-0.044682	0.127041	-1.029243	-1.030561	-0.024632	20.6529	-1.028349	-5.461004E+13	4.510566E-16	NaN
671	1.000000	0.170359	7.37161e+06	-43539.1	1005.82	-29778.7	0.000000	0.000000	6.170775	0.007060	NaN	0.000000	0.001585	0.001733	28.0825	0.179390	0.001972	90.9625	110.259	-164.298	-0.053470	0.169057	-0.987242	-0.988544	0.007060	90.9625	-0.987300	-1.530216E+13	-4.613586E-16	NaN
671	1.000000	0.212401	7.37161e+06	-43539.1	1005.82	-29778.7	0.000000	0.000000	6.212815	-0.021400	NaN	0.000000	0.001587	0.001724	28.0828	0.022167	0.001934	11.4614	-5.010754	14.2238	-0.017498	0.211037	-0.945201	-0.946564	-0.021400	11.4614	-0.943800	-3.966502E+12	5.395231E-15	NaN
671	1.000000	0.254452	7.37161e+06	-43539.1	1005.82	-29778.7	0.000000	0.000000	6.254867	0.004922	NaN	0.000000	0.001578	0.001676	28.0812	0.055055	0.002012	27.3647	5.081568	-164.945	-0.027891	0.253081	-0.903150	-0.904520	0.004922	27.3647	-0.903285	-1.125764E+12	-4.371975E-15	NaN
671	1.000000	0.296430	7.37162e+06	-43539.1	1005.82	-29778.7	0.000000	0.000000	6.296843	-0.050942	NaN	0.000000	0.001596	0.001700	28.081	0.088934	0.002079	42.7849	63.837	11.5256	-0.018849	0.295049	-0.861171	-0.862553	-0.050942	42.7849	-0.860278	-2.950462E+11	1.726594E-13	NaN
671	1.000000	0.338450	7.37162e+06	-43539.1	1005.82	-29778.7	0.000000	0.000000	6.338864	-0.016037	NaN	0.000000	0.001621	0.001703	28.0812	0.054874	0.002018	27.1945	72.8962	-166.784	-0.009978	0.337169	-0.819152	-0.820433	-0.016037	27.1945	-0.818710	-8.066991E+10	1.987934E-13	NaN
671	1.000000	0.380470	7.37162e+06	-43539.1	1005.82	-29778.7	0.000000	0.000000	6.380884	-0.022696	NaN	0.000000	0.001616	0.001705	28.0826	0.080651	0.002011	40.1054	-7.429347	8.563465	-0.019005	0.379072	-0.777132	-0.778530	-0.022696	40.1054	-0.776708	-2.170135E+10	1.045820E-12	NaN
671	1.000000	0.422477	7.37162e+06	-43539.1	1005.82	-29778.7	0.000000	0.000000	6.422892	0.005542	NaN	0.000000	0.001607	0.001694	28.0825	0.054681	0.001812	30.1847	-130.658	-165.661	-0.005311	0.421191	-0.735125	-0.736411	0.005542	30.1847	-0.735262	-5.922691E+9	-9.357288E-13	NaN
671	1.000000	0.464529	7.37162e+06	-43539.1	1005.82	-29778.7	0.000000	0.000000	6.464942	-0.045338	NaN	0.000000	0.001612	0.001720	28.0825	0.043947	0.002027	21.6799	169.195	8.735433	-0.041838	0.463136	-0.693073	-0.694465	-0.045338	21.6799	-0.691505	-1.497883E+9	3.026783E-11	NaN
671	1.000000	0.506498	7.37162e+06	-43539.1	1005.82	-29778.7	0.000000	0.000000	6.506912	-0.023791	NaN	0.000000	0.001588	0.001699	28.0824	0.039853	0.002094	19.0347	101.565	-165.249	-0.040147	0.505246	-0.651104	-0.652355	-0.023791	19.0347	-0.650166	-4.071144E+8	5.843706E-11	NaN
671	1.000000	0.548542	7.37162e+06	-43539.1	1005.82	-29778.7	0.000000	0.000000	6.548958	0.019547	NaN	0.000000	0.001600	0.001697	28.0815	0.023153	0.001991	11.6297	16.5579	14.075	0.021795	0.547162	-0.609059	-0.610440	0.019547	11.6297	-0.610320	-1.154816E+8	-1.692634E-10	NaN
671	1.000000	0.590566	7.37162e+06	-43539.1	1005.82	-29778.7	0.000000	0.000000	6.590979	-0.064724	NaN	0.000000	0.001654	0.001738	28.0814	0.087537	0.002117	41.342	-149.863	-165.346	-0.015540	0.589282	-0.567035	-0.568320	-0.064724	41.342	-0.565861	-2.814664E+7	2.299539E-9	NaN
671	1.000000	0.632585	7.37162e+06	-43539.1	1005.82	-29778.7	0.000000	0.000000	6.632998	-0.040139	NaN	0.000000	0.001661	0.001721	28.0813	0.043904	0.001896	23.1618	-58.7266	15.5742	-0.045486	0.631235	-0.525017	-0.526366	-0.040139	23.1618	-0.523717	-7.33293e+06	5.473741E-9	NaN
671	1.000000	0.674590	7.37162e+06	-43539.1	1005.82	-29778.7	0.000000	0.000000	6.675002	-0.063754	NaN	0.000000	0.001653	0.001722	28.0823	0.057035	0.001910	29.8569	170.418	-168.538	-0.101182	0.673321	-0.483012	-0.484280	-0.063754	29.8569	-0.481410	-1.88481e+06	3.382507E-8	NaN
671	1.000000	0.716565	7.37162e+06	-43539.1	1005.82	-29778.7	0.000000	0.000000	6.716981	0.017732	NaN	0.000000	0.001614	0.001723	28.0822	0.034725	0.001982	17.519	-40.8475	11.0387	-0.020993	0.715244	-0.441036	-0.442358	0.017732	17.519	-0.441796	-523239	-3.388816E-8	NaN
671	1.000000	0.758643	7.37162e+06	-43539.1	1005.82	-29778.7	0.000000	0.000000	6.759059	0.026414	NaN	0.000000	0.001614	0.001694	28.0821	0.053487	0.001993	26.8365	73.6629	-165.459	0.021381	0.757324	-0.398959	-0.400277	0.026414	26.8365	-0.399697	-132334	-1.996021E-7	NaN
671	1.000000	0.800647	7.37162e+06	-43539.1	1005.82	-29778.7	0.000000	0.000000	6.801060	-0.053741	NaN	0.000000	0.001612	0.001686	28.081	0.055059	0.001974	27.8979	-95.208	13.3704	-0.065558	0.799297	-0.356954	-0.358304	-0.053741	27.8979	-0.355509	-30681.3	1.751599E-6	NaN
671	1.000000	0.842665	7.37162e+06	-43539.1	1005.82	-29778.7	0.000000	0.000000	6.843078	-0.044370	NaN	0.000000	0.001625	0.001685	28.0809	0.064845	0.001959	33.0939	24.3526	-163.305	0.013705	0.841332	-0.314936	-0.316269	-0.044370	33.0939	-0.313931	-7571.17	5.860363E-6	NaN
671	1.000000	0.884705	7.37162e+06	-43539.1	1005.82	-29778.7	0.000000	0.000000	6.885116	-0.089431	NaN	0.000000	0.001612	0.001687	28.0812	0.037183	0.002026	18.3491	-130.741	13.1188	-0.155517	0.883359	-0.272897	-0.274242	-0.089431	18.3491	-0.269242	-1621.86	5.514117E-5	NaN
671	1.000000	0.926731	7.37162e+06	-43539.1	1005.82	-29778.7	0.000000	0.000000	6.927145	-0.014438	NaN	0.000000	0.001606	0.001676	28.0822	0.049784	0.002041	24.3895	160.012	-169.519	0.058890	0.925337	-0.230871	-0.232264	-0.014438	24.3895	-0.230427	-406.682	3.550183E-5	NaN
671	1.000000	0.968697	7.37162e+06	-43539.1	1005.82	-29778.7	0.000000	0.000000	6.969109	-0.067919	NaN	0.000000	0.001591	0.001738	28.0824	0.044901	0.001842	24.3822	-73.4651	11.4725	0.043777	0.967329	-0.188905	-0.190273	-0.067919	24.3822	-0.186816	-79.5582	0.000854	NaN
671	1.000000	1.010718	7.37162e+06	-43539.1	1005.82	-29778.7	0.000000	0.000000	7.011128	-0.125122	NaN	0.000000	0.001614	0.001669	28.0823	0.085986	0.002050	41.9356	102.734	-166.875	-0.090061	1.009440	-0.146883	-0.148161	-0.125122	41.9356	-0.144645	-14.4412	0.008664	NaN
671	1.000000	1.052752	7.37162e+06	-43539.1	1005.82	-29778.7	0.000000	0.000000	7.053166	-0.016617	NaN	0.000000	0.001575	0.001687	28.0825	0.155824	0.002000	77.8955	68.2752	12.3593	0.009581	1.051381	-0.104850	-0.106221	-0.016617	77.8955	-0.104690	-2.314543	0.007179	NaN
671	1.000000	1.094780	7.37162e+06	-43539.1	1005.82	-29778.7	0.000000	0.000000	7.095193	-0.044634	NaN	0.000000	0.001662	0.001688	28.0811	0.047539	0.001958	24.2824	43.7943	-168.028	-0.086852	1.093457	-0.062822	-0.064145	-0.044634	24.2824	-0.061443	-0.198015	0.225405	NaN
671	1.000000	1.136781	7.37162e+06	-43539.1	1005.82	-29778.7	0.000000	0.000000	7.137193	-0.063496	NaN	0.000000	0.001618	0.001699	28.0813	0.050328	0.002006	25.09	127.807	14.6448	-0.092466	1.135398	-0.020821	-0.022203	-0.063496	25.09	-0.018923	-0.011790	5.385371	NaN
671	2.000000	1.165300	7.37162e+06	-43539.1	1005.82	-29778.7	0.000000	0.000000	7.166317	14.6573	NaN	0.000000	0.001602	0.001686	28.0813	13.9625	0.001724	8100.41	8.325577	-179.414	13.956	1.165028	0.007698	0.007426	14.6573	8100.41	0.006341	0.005391	2718.78	100795
671	2.000000	1.175695	7.37162e+06	-43539.1	1005.82	-29778.7	0.000000	0.000000	7.177496	33.7348	NaN	0.000000	0.001612	0.001642	28.0826	25.25	0.001952	12935.1	8.143517	-0.459546	31.5204	1.175375	0.018093	0.017773	33.7348	12935.1	0.016137	0.016832	2004.2	91090.7
671	2.000000	1.186192	7.37162e+06	-43539.1	1005.82	-29778.7	0.000000	0.000000	7.189261	64.5815	NaN	0.000000	0.001603	0.001724	28.0826	34.5061	0.001742	19811	4.650117	177.903	62.9623	1.185904	0.028590	0.028302	64.5815	19811	0.026145	0.033132	1949.2	99438.2
671	2.000000	1.196721	7.37162e+06	-43539.1	1005.82	-29778.7	0.000000	0.000000	7.201434	104.56	NaN	0.000000	0.001587	0.001683	28.0827	44.1987	0.001803	24519.3	4.431750	-2.228415	103.371	1.196302	0.039120	0.038700	104.56	24519.3	0.035922	0.053914	1939.39	96478.7
671	2.000000	1.207213	7.37162e+06	-43539.1	1005.82	-29778.7	0.000000	0.000000	7.213838	151.093	NaN	0.000000	0.001620	0.001708	28.0814	55.6306	0.001767	31480.6	8.475577	170.344	148.812	1.206854	0.049611	0.049252	151.093	31480.6	0.046012	0.080485	1877.29	101382
671	2.000000	1.217707	7.37162e+06	-43539.1	1005.82	-29778.7	0.000000	0.000000	7.226524	204.402	NaN	0.000000	0.001596	0.001731	28.0814	65.5202	0.001762	37190.7	3.435967	-5.873904	202.5	1.217392	0.060106	0.059790	204.402	37190.7	0.055984	0.111802	1828.25	101621
671	2.000000	1.228104	7.37162e+06	-43539.1	1005.82	-29778.7	0.000000	0.000000	7.239368	263.97	NaN	0.000000	0.001673	0.001747	28.081	75.3115	0.001721	43770.8	4.023328	172.345	259.567	1.227903	0.070502	0.070301	263.97	43770.8	0.065979	0.148117	1782.17	103909
671	2.000000	1.238611	7.37162e+06	-43539.1	1005.82	-29778.7	0.000000	0.000000	7.252813	335.426	NaN	0.000000	0.001720	0.001766	28.0822	85.1031	0.001734	49068.2	6.035237	-10.5248	331.54	1.238256	0.081010	0.080655	335.426	49068.2	0.075883	0.188839	1776.25	103164
671	2.000000	1.249180	7.37162e+06	-43539.1	1005.82	-29778.7	0.000000	0.000000	7.266700	416.15	NaN	0.000000	0.001690	0.001701	28.0821	95.4462	0.001849	51614.1	8.710428	166.975	416.387	1.248700	0.091579	0.091098	416.15	51614.1	0.085532	0.232944	1786.48	97704.7
671	2.000000	1.259180	7.37162e+06	-43539.1	1005.82	-29778.7	0.000000	0.000000	7.279689	488.867	NaN	0.000000	0.001692	0.001780	28.0821	104.636	0.001726	60628.9	2.562909	171.573	489.881	1.258953	0.101578	0.101351	488.867	60628.9	0.095531	0.283187	1726.31	104092