File: remote_trans/data/nanoindenter/0828-1/data/Data_2025-08-06,11h17m57s/2025-07-22_16-23-58_1_287.txt
2025-07-22, 16:23:58, 1
Index	Phase	Displacement	Time	Pos X	Pos Y	Pos Z	Rot A	Rot B	Piezo Z	Force A	Force B	Gripper	Voltage A	Voltage B	Temperature	Amplitude force	Amplitude pos	Stiffness	Phase shift	Phase excitation	Force A raw	Displacement raw	HMax	HMax raw	Real Force	Real Stiffness	Contact Depth	Area	Hardness	Reduced Mod.
[#]	[#]	[um]	[s]	[um]	[um]	[um]	[m°]	[m°]	[um]	[uN]	[uN]	[V]	[V]	[V]	[°C]	[uN]	[um]	[N/m]	[°]	[°]	[uN]	[um]	[um]	[um]	[uN]	[N/m]	[um]	[um^2]	[MPa]	[MPa]
287	1.000000	0.002606	7.36786e+06	-52989.1	955.817	-29748	0.000000	0.000000	6.002830	-0.032537	NaN	0.000000	0.001615	0.001664	28.0795	0.103563	0.000991	104.506	73.8345	-166.809	0.002038	0.001358	-1.089681	-1.090928	-0.032537	104.506	-1.089447	-3.617357E+14	8.994666E-17	NaN
287	1.000000	0.042533	7.36786e+06	-52989.1	955.818	-29748	0.000000	0.000000	6.042758	0.005884	NaN	0.000000	0.001634	0.001662	28.0797	0.091338	0.001885	48.4567	4.364244	-166.233	0.026635	0.041245	-1.049754	-1.051041	0.005884	48.4567	-1.049845	-1.062507E+14	-5.538099E-17	NaN
287	1.000000	0.082544	7.36786e+06	-52989.1	955.817	-29748	0.000000	0.000000	6.082769	0.009273	NaN	0.000000	0.001603	0.001668	28.0786	0.055496	0.001977	28.0751	175.918	-164.644	0.030988	0.081194	-1.009743	-1.011093	0.009273	28.0751	-1.009991	-3.092127E+13	-2.998948E-16	NaN
287	1.000000	0.122540	7.36786e+06	-52989.1	955.817	-29748	0.000000	0.000000	6.122768	0.046638	NaN	0.000000	0.001597	0.001699	28.0781	0.045462	0.002067	21.994	149.21	-164.537	0.062956	0.121223	-0.969746	-0.971064	0.046638	21.994	-0.971337	-9.325644E+12	-5.001051E-15	NaN
287	1.000000	0.162570	7.36786e+06	-52989.1	955.818	-29748	0.000000	0.000000	6.162798	0.060768	NaN	0.000000	0.001617	0.001674	28.0782	0.066474	0.002000	33.2372	51.2288	-163.947	0.015213	0.161214	-0.929717	-0.931072	0.060768	33.2372	-0.931088	-2.672261E+12	-2.274045E-14	NaN
287	1.000000	0.202589	7.36786e+06	-52989.1	955.819	-29748	0.000000	0.000000	6.202815	-0.004323	NaN	0.000000	0.001638	0.001682	28.0803	0.092602	0.002060	44.9539	105.748	-163.183	-0.098261	0.201287	-0.889697	-0.891000	-0.004323	44.9539	-0.889625	-7.359504E+11	5.874320E-15	NaN
287	1.000000	0.242589	7.36786e+06	-52989.1	955.818	-29748	0.000000	0.000000	6.242816	0.027905	NaN	0.000000	0.001696	0.001662	28.082	0.043256	0.001897	22.7988	-83.6662	-163.136	-0.042676	0.241280	-0.849698	-0.851007	0.027905	22.7988	-0.850616	-2.183098E+11	-1.278241E-13	NaN
287	1.000000	0.282639	7.36786e+06	-52989.1	955.818	-29748	0.000000	0.000000	6.282865	0.010061	NaN	0.000000	0.001645	0.001706	28.0797	0.014417	0.001974	7.304715	130.681	-165.364	-0.042787	0.281294	-0.809648	-0.810992	0.010061	7.304715	-0.810681	-6.277824E+10	-1.602553E-13	NaN
287	1.000000	0.322647	7.36786e+06	-52989.1	955.818	-29748	0.000000	0.000000	6.322873	0.027363	NaN	0.000000	0.001629	0.001666	28.0797	0.050385	0.001903	26.4769	65.2241	-169.097	-0.001597	0.321290	-0.769640	-0.770997	0.027363	26.4769	-0.770415	-1.782154E+10	-1.535365E-12	NaN
287	1.000000	0.362652	7.36786e+06	-52989.1	955.817	-29748	0.000000	0.000000	6.362880	0.078760	NaN	0.000000	0.001650	0.001642	28.0784	0.085899	0.002029	42.3368	100.339	-163.631	0.078109	0.361331	-0.729635	-0.730956	0.078760	42.3368	-0.731030	-5.186183E+9	-1.518659E-11	NaN
287	1.000000	0.402680	7.36786e+06	-52989.1	955.819	-29748	0.000000	0.000000	6.402909	0.083265	NaN	0.000000	0.001627	0.001675	28.0784	0.030127	0.002026	14.8681	-101.347	-165.584	0.026477	0.401358	-0.689607	-0.690929	0.083265	14.8681	-0.693807	-1.610409E+9	-5.170449E-11	NaN
287	1.000000	0.442684	7.36786e+06	-52989.1	955.819	-29748	0.000000	0.000000	6.442908	-0.025291	NaN	0.000000	0.001575	0.001653	28.078	0.040976	0.002069	19.8012	-149.009	-164.087	-0.036901	0.441409	-0.649603	-0.650878	-0.025291	19.8012	-0.648645	-3.880228E+8	6.517945E-11	NaN
287	1.000000	0.482679	7.36786e+06	-52989.1	955.818	-29748	0.000000	0.000000	6.482907	0.075660	NaN	0.000000	0.001603	0.001686	28.0794	0.024509	0.001946	12.5935	52.6992	-161.35	0.003033	0.481414	-0.609608	-0.610872	0.075660	12.5935	-0.614114	-1.302266E+8	-5.809871E-10	NaN
287	1.000000	0.522713	7.36786e+06	-52989.1	955.817	-29748	0.000000	0.000000	6.522941	0.065714	NaN	0.000000	0.001586	0.001685	28.0794	0.041854	0.001773	23.6025	67.2641	-166.335	0.128788	0.521412	-0.569574	-0.570875	0.065714	23.6025	-0.571662	-3.385298E+7	-1.941155E-9	NaN
287	1.000000	0.562727	7.36786e+06	-52989.1	955.819	-29748	0.000000	0.000000	6.562955	0.057258	NaN	0.000000	0.001638	0.001670	28.0794	0.081064	0.001957	41.4174	93.7502	-166.242	0.036362	0.561448	-0.529560	-0.530838	0.057258	41.4174	-0.530597	-9.13821e+06	-6.265788E-9	NaN
287	1.000000	0.602758	7.36786e+06	-52989.1	955.819	-29748	0.000000	0.000000	6.602988	0.109937	NaN	0.000000	0.001619	0.001677	28.0794	0.034398	0.001888	18.2166	-37.2073	-162.489	0.025495	0.601464	-0.489529	-0.490823	0.109937	18.2166	-0.494055	-2.83165e+06	-3.882423E-8	NaN
287	1.000000	0.642775	7.36786e+06	-52989.1	955.818	-29748	0.000000	0.000000	6.643001	0.002135	NaN	0.000000	0.001614	0.001670	28.0782	0.037321	0.002037	18.3259	86.6758	-165.215	0.068364	0.641448	-0.449512	-0.450839	0.002135	18.3259	-0.449599	-674053	-3.167977E-9	NaN
287	1.000000	0.682766	7.36786e+06	-52989.1	955.817	-29748	0.000000	0.000000	6.682993	0.041042	NaN	0.000000	0.001624	0.001691	28.0781	0.018070	0.002017	8.959838	-71.1398	-166.275	0.108377	0.681458	-0.409521	-0.410829	0.041042	8.959838	-0.412956	-204373	-2.008184E-7	NaN
287	1.000000	0.722810	7.36786e+06	-52989.1	955.818	-29748	0.000000	0.000000	6.723034	-0.026410	NaN	0.000000	0.001645	0.001735	28.0781	0.142892	0.002176	65.6536	77.7137	-164.734	0.013735	0.721477	-0.369477	-0.370810	-0.026410	65.6536	-0.369175	-48333.5	5.464218E-7	NaN
287	1.000000	0.762824	7.36787e+06	-52989.1	955.817	-29748	0.000000	0.000000	6.763050	-0.003836	NaN	0.000000	0.001579	0.001690	28.0793	0.066982	0.001967	34.0597	10.8115	-162.92	0.045200	0.761544	-0.329462	-0.330743	-0.003836	34.0597	-0.329378	-12774.3	3.003111E-7	NaN
287	1.000000	0.802810	7.36787e+06	-52989.1	955.818	-29748	0.000000	0.000000	6.803038	0.063573	NaN	0.000000	0.001618	0.001692	28.0793	0.104989	0.002043	51.3999	-87.4384	-163.028	-0.030743	0.801517	-0.289477	-0.290770	0.063573	51.3999	-0.290404	-3383.45	-1.878934E-5	NaN
287	1.000000	0.842853	7.36787e+06	-52989.1	955.818	-29748	0.000000	0.000000	6.843079	0.012264	NaN	0.000000	0.001633	0.001707	28.0793	0.068180	0.002018	33.788	-57.0173	-162.572	0.008220	0.841537	-0.249433	-0.250750	0.012264	33.788	-0.249705	-813.596	-1.507379E-5	NaN
287	1.000000	0.882863	7.36787e+06	-52989.1	955.819	-29748	0.000000	0.000000	6.883089	0.004909	NaN	0.000000	0.001624	0.001739	28.0794	0.097446	0.001938	50.2782	-37.3135	-165.371	0.016281	0.881553	-0.209424	-0.210734	0.004909	50.2782	-0.209497	-188.221	-2.607888E-5	NaN
287	1.000000	0.922897	7.36787e+06	-52989.1	955.819	-29748	0.000000	0.000000	6.923123	0.007839	NaN	0.000000	0.001623	0.001660	28.078	0.062573	0.002088	29.9719	-35.0538	-162.747	0.038863	0.921598	-0.169390	-0.170688	0.007839	29.9719	-0.169586	-40.4034	-0.000194	NaN
287	1.000000	0.962908	7.36787e+06	-52989.1	955.818	-29748	0.000000	0.000000	6.963134	0.023056	NaN	0.000000	0.001654	0.001691	28.078	0.081110	0.001953	41.5323	14.676	-164.604	0.104370	0.961568	-0.129379	-0.130718	0.023056	41.5323	-0.129795	-7.551398	-0.003053	NaN
287	1.000000	1.002901	7.36787e+06	-52989.1	955.819	-29748	0.000000	0.000000	7.003128	0.049337	NaN	0.000000	0.001721	0.001664	28.078	0.040437	0.002005	20.1705	-81.6034	-164.959	-0.022047	1.001597	-0.089386	-0.090690	0.049337	20.1705	-0.091220	-1.154369	-0.042740	NaN
287	1.000000	1.042970	7.36787e+06	-52989.1	955.817	-29748	0.000000	0.000000	7.043197	0.031150	NaN	0.000000	0.001710	0.001719	28.0794	0.014061	0.001965	7.155917	-172.702	-164.853	0.060898	1.041623	-0.049317	-0.050664	0.031150	7.155917	-0.052581	-0.109120	-0.285469	NaN
287	1.000000	1.082924	7.36787e+06	-52989.1	955.818	-29748	0.000000	0.000000	7.083149	-0.023209	NaN	0.000000	0.001726	0.001673	28.0796	0.076021	0.001955	38.8802	2.439934	-160.649	-0.003388	1.081662	-0.009362	-0.010624	-0.023209	38.8802	-0.008915	-0.005764	4.026768	NaN
287	2.000000	1.104531	7.36787e+06	-52989.1	955.819	-29748	0.000000	0.000000	7.105623	21.0778	NaN	0.000000	0.001644	0.001678	28.0792	17.0851	0.001800	9492.7	7.821600	-177.344	20.1295	1.104287	0.012244	0.012000	21.0778	9492.7	0.010579	0.009832	2143.8	87466.6
287	2.000000	1.114456	7.36787e+06	-52989.1	955.819	-29748	0.000000	0.000000	7.116525	44.8101	NaN	0.000000	0.001610	0.001632	28.079	27.5827	0.001897	14540.9	1.969053	-173.682	42.9605	1.114256	0.022170	0.021969	44.8101	14540.9	0.019858	0.022320	2007.59	88923.2
287	2.000000	1.124497	7.36787e+06	-52989.1	955.82	-29748	0.000000	0.000000	7.127800	74.8193	NaN	0.000000	0.001601	0.001697	28.0781	38.0077	0.001902	19983.9	3.972257	-179.833	73.9005	1.124249	0.032211	0.031962	74.8193	19983.9	0.029403	0.039515	1893.45	91849.1
287	2.000000	1.134524	7.36787e+06	-52989.1	955.818	-29748	0.000000	0.000000	7.139456	114.432	NaN	0.000000	0.001648	0.001693	28.0781	47.4041	0.001828	25929.9	4.459681	177.805	116.147	1.134227	0.042237	0.041940	114.432	25929.9	0.038927	0.061285	1867.2	95696.5
287	2.000000	1.144523	7.36787e+06	-52989.1	955.818	-29748	0.000000	0.000000	7.151526	164.794	NaN	0.000000	0.001696	0.001684	28.0781	55.7912	0.001746	31962	4.256611	176.578	167.243	1.144165	0.052236	0.051879	164.794	31962	0.048369	0.087439	1884.68	98754.3
287	2.000000	1.154371	7.36787e+06	-52989.1	955.818	-29748	0.000000	0.000000	7.163747	222.49	NaN	0.000000	0.001602	0.001695	28.0793	65.1964	0.001865	34951.5	2.282123	178.036	220.56	1.154128	0.062085	0.061842	222.49	34951.5	0.057310	0.116340	1912.4	93621.1
287	2.000000	1.164484	7.36787e+06	-52989.1	955.819	-29748	0.000000	0.000000	7.176059	275.957	NaN	0.000000	0.001656	0.001652	28.0793	75.2346	0.001706	44097	4.780102	173.179	276.993	1.164243	0.072197	0.071956	275.957	44097	0.067504	0.154081	1790.99	102638
287	2.000000	1.174382	7.36787e+06	-52989.1	955.818	-29748	0.000000	0.000000	7.189009	350.149	NaN	0.000000	0.001603	0.001658	28.0792	85.5845	0.001808	47339.7	3.140768	174.16	347.72	1.174193	0.082095	0.081907	350.149	47339.7	0.076548	0.191739	1826.18	98774.3
287	2.000000	1.184378	7.36787e+06	-52989.1	955.818	-29748	0.000000	0.000000	7.201929	421.237	NaN	0.000000	0.001597	0.001688	28.078	93.9603	0.001876	50085.2	2.833392	174.545	419.989	1.184168	0.092092	0.091881	421.237	50085.2	0.085784	0.234155	1798.96	94565
287	2.000000	1.194440	7.36787e+06	-52989.1	955.819	-29748	0.000000	0.000000	7.215363	503.235	NaN	0.000000	0.001589	0.001664	28.0782	104.486	0.001856	56290.1	6.292590	170.587	506.141	1.194065	0.102154	0.101779	503.235	56290.1	0.095449	0.282754	1779.76	96716.6
287	2.000000	1.196947	7.36787e+06	-52989.1	955.82	-29748	0.000000	0.000000	7.218742	524.425	NaN	0.000000	0.001571	0.001690	28.0781	105.617	0.001780	59344.2	6.111821	-9.733129	523.097	1.196562	0.104661	0.104276	524.425	59344.2	0.098033	0.296473	1768.88	99576.9