File: remote_trans/data/nanoindenter/0828-1/data/Data_2025-08-06,11h17m57s/2025-07-22_16-23-58_1_624.txt
2025-07-22, 16:23:58, 1
Index	Phase	Displacement	Time	Pos X	Pos Y	Pos Z	Rot A	Rot B	Piezo Z	Force A	Force B	Gripper	Voltage A	Voltage B	Temperature	Amplitude force	Amplitude pos	Stiffness	Phase shift	Phase excitation	Force A raw	Displacement raw	HMax	HMax raw	Real Force	Real Stiffness	Contact Depth	Area	Hardness	Reduced Mod.
[#]	[#]	[um]	[s]	[um]	[um]	[um]	[m°]	[m°]	[um]	[uN]	[uN]	[V]	[V]	[V]	[°C]	[uN]	[um]	[N/m]	[°]	[°]	[uN]	[um]	[um]	[um]	[uN]	[N/m]	[um]	[um^2]	[MPa]	[MPa]
624	1.000000	0.001859	7.37115e+06	-45889.1	1005.82	-29771	0.000000	0.000000	6.002810	0.005561	NaN	0.000000	0.001661	0.001722	28.0818	0.148730	0.000956	155.59	18.3045	-166.227	0.024741	0.000593	-1.084908	-1.086174	0.005561	155.59	-1.084935	-3.146241E+14	-1.767499E-17	NaN
624	1.000000	0.041793	7.37115e+06	-45889.1	1005.82	-29771	0.000000	0.000000	6.042743	-0.008402	NaN	0.000000	0.001629	0.001770	28.0806	0.084141	0.002081	40.4272	119.586	-164.952	0.020951	0.040489	-1.044974	-1.046278	-0.008402	40.4272	-1.044818	-9.093954E+13	9.239419E-17	NaN
624	1.000000	0.081818	7.37116e+06	-45889.1	1005.82	-29771	0.000000	0.000000	6.082767	-0.035268	NaN	0.000000	0.001687	0.001735	28.0808	0.049900	0.002012	24.7973	129.014	-164.671	-0.055392	0.080541	-1.004949	-1.006226	-0.035268	24.7973	-1.003883	-2.558831E+13	1.378267E-15	NaN
624	1.000000	0.121837	7.37116e+06	-45889.1	1005.82	-29771	0.000000	0.000000	6.122786	-0.036710	NaN	0.000000	0.001621	0.001707	28.0809	0.093180	0.001956	47.6263	80.8996	-167.176	-0.009700	0.120585	-0.964930	-0.966182	-0.036710	47.6263	-0.964352	-7.508186E+12	4.889393E-15	NaN
624	1.000000	0.161811	7.37116e+06	-45889.1	1005.82	-29771	0.000000	0.000000	6.162760	-0.035156	NaN	0.000000	0.001666	0.001704	28.0807	0.058760	0.001950	30.1266	-120.289	-166.058	0.000327	0.160516	-0.924957	-0.926251	-0.035156	30.1266	-0.924081	-2.149346E+12	1.635670E-14	NaN
624	1.000000	0.201848	7.37116e+06	-45889.1	1005.82	-29771	0.000000	0.000000	6.202796	-0.058540	NaN	0.000000	0.001661	0.001709	28.082	0.088926	0.002011	44.211	-71.024	-166.298	-0.022863	0.200582	-0.884919	-0.886185	-0.058540	44.211	-0.883926	-6.163144E+11	9.498433E-14	NaN
624	1.000000	0.241869	7.37116e+06	-45889.1	1005.82	-29771	0.000000	0.000000	6.242820	0.016489	NaN	0.000000	0.001685	0.001748	28.0818	0.095707	0.001925	49.7109	-63.7442	-165.659	-0.005659	0.240562	-0.844898	-0.846205	0.016489	49.7109	-0.845147	-1.840805E+11	-8.957446E-14	NaN
624	1.000000	0.281899	7.37116e+06	-45889.1	1005.82	-29771	0.000000	0.000000	6.282849	0.010538	NaN	0.000000	0.001676	0.001691	28.0821	0.052719	0.001843	28.6026	108.966	-164.639	0.063674	0.280592	-0.804869	-0.806175	0.010538	28.6026	-0.805145	-5.280722E+10	-1.995643E-13	NaN
624	1.000000	0.321927	7.37116e+06	-45889.1	1005.82	-29771	0.000000	0.000000	6.322876	-0.048873	NaN	0.000000	0.001668	0.001693	28.0804	0.111117	0.002094	53.0535	-83.9138	-163.211	0.029804	0.320547	-0.764840	-0.766220	-0.048873	53.0535	-0.764149	-1.464674E+10	3.336779E-12	NaN
624	1.000000	0.361941	7.37116e+06	-45889.1	1005.82	-29771	0.000000	0.000000	6.362891	0.002554	NaN	0.000000	0.001752	0.001684	28.0806	0.055405	0.001919	28.8658	125.474	-163.777	-0.009857	0.360595	-0.724826	-0.726172	0.002554	28.8658	-0.724893	-4.277475E+9	-5.971730E-13	NaN
624	1.000000	0.401917	7.37116e+06	-45889.1	1005.82	-29771	0.000000	0.000000	6.402863	-0.088860	NaN	0.000000	0.001721	0.001708	28.0809	0.095881	0.002120	45.226	152.433	-164.326	-0.062642	0.400631	-0.684850	-0.686136	-0.088860	45.226	-0.683377	-1.159796E+9	7.661726E-11	NaN
624	1.000000	0.441952	7.37116e+06	-45889.1	1005.82	-29771	0.000000	0.000000	6.442900	-0.068752	NaN	0.000000	0.001690	0.001673	28.0816	0.090724	0.002053	44.1935	155.71	-163.23	-0.017276	0.440657	-0.644815	-0.646110	-0.068752	44.1935	-0.643648	-3.313870E+8	2.074684E-10	NaN
624	1.000000	0.481985	7.37116e+06	-45889.1	1005.82	-29771	0.000000	0.000000	6.482935	-0.007855	NaN	0.000000	0.001635	0.001684	28.0817	0.040677	0.001933	21.0484	-62.8323	-166.474	0.008918	0.480662	-0.604783	-0.606105	-0.007855	21.0484	-0.604503	-9.604133E+7	8.178325E-11	NaN
624	1.000000	0.522023	7.37116e+06	-45889.1	1005.82	-29771	0.000000	0.000000	6.522974	0.018259	NaN	0.000000	0.001591	0.001708	28.082	0.049114	0.002007	24.473	8.794371	-164.497	-0.054536	0.520639	-0.564744	-0.566128	0.018259	24.473	-0.565303	-2.765159E+7	-6.603242E-10	NaN
624	1.000000	0.562016	7.37116e+06	-45889.1	1005.82	-29771	0.000000	0.000000	6.562967	0.013039	NaN	0.000000	0.001619	0.001715	28.0818	0.091455	0.001974	46.3204	4.500105	-163.311	0.057583	0.560676	-0.524752	-0.526091	0.013039	46.3204	-0.524963	-7.63119e+06	-1.708603E-9	NaN
624	1.000000	0.602036	7.37116e+06	-45889.1	1005.82	-29771	0.000000	0.000000	6.602986	-0.008737	NaN	0.000000	0.001529	0.001699	28.0809	0.072766	0.002032	35.8188	36.6777	-163.996	-0.023833	0.600713	-0.484731	-0.486054	-0.008737	35.8188	-0.484548	-2.0853e+06	4.189710E-9	NaN
624	1.000000	0.642034	7.37116e+06	-45889.1	1005.82	-29771	0.000000	0.000000	6.642984	-0.016667	NaN	0.000000	0.001619	0.001721	28.0807	0.029074	0.001972	14.7454	-161.653	-163.035	-0.048749	0.640762	-0.444733	-0.446005	-0.016667	14.7454	-0.443885	-559978	2.976301E-8	NaN
624	1.000000	0.682052	7.37116e+06	-45889.1	1005.82	-29771	0.000000	0.000000	6.683004	0.041465	NaN	0.000000	0.001607	0.001731	28.0811	0.096955	0.001974	49.1165	136.923	-162.404	-0.006213	0.680774	-0.404715	-0.405993	0.041465	49.1165	-0.405348	-159297	-2.603011E-7	NaN
624	1.000000	0.722076	7.37116e+06	-45889.1	1005.82	-29771	0.000000	0.000000	6.723024	-0.068759	NaN	0.000000	0.001632	0.001709	28.0821	0.124433	0.001888	65.9192	-11.1218	-166.101	-0.114638	0.720825	-0.364691	-0.365943	-0.068759	65.9192	-0.363909	-40579.1	1.694448E-6	NaN
624	1.000000	0.762085	7.37116e+06	-45889.1	1005.82	-29771	0.000000	0.000000	6.763036	0.024219	NaN	0.000000	0.001609	0.001705	28.0819	0.084727	0.002034	41.6567	78.5709	-163.819	0.014963	0.760786	-0.324682	-0.325981	0.024219	41.6567	-0.325118	-11063	-2.189205E-6	NaN
624	1.000000	0.802101	7.37116e+06	-45889.1	1005.82	-29771	0.000000	0.000000	6.803051	-0.025229	NaN	0.000000	0.001615	0.001698	28.082	0.140935	0.001878	75.064	-114.783	-166.863	-0.094900	0.800792	-0.284666	-0.285975	-0.025229	75.064	-0.284414	-2750.74	9.171771E-6	NaN
624	1.000000	0.842119	7.37116e+06	-45889.1	1005.82	-29771	0.000000	0.000000	6.843071	0.059328	NaN	0.000000	0.001669	0.001687	28.082	0.054206	0.001941	27.9274	40.1996	-168.648	-0.044140	0.840795	-0.244649	-0.245972	0.059328	27.9274	-0.246242	-719.016	-8.251290E-5	NaN
624	1.000000	0.882140	7.37116e+06	-45889.1	1005.82	-29771	0.000000	0.000000	6.883091	0.022809	NaN	0.000000	0.001670	0.001700	28.081	0.050221	0.002022	24.8405	63.9	-162.382	0.007949	0.880859	-0.204627	-0.205908	0.022809	24.8405	-0.205316	-160.958	-0.000142	NaN
624	1.000000	0.922134	7.37116e+06	-45889.1	1005.82	-29771	0.000000	0.000000	6.923088	0.066064	NaN	0.000000	0.001645	0.001732	28.0809	0.045023	0.001833	24.5599	20.6737	-163.26	0.091510	0.920790	-0.164633	-0.165977	0.066064	24.5599	-0.166650	-35.9111	-0.001840	NaN
624	1.000000	0.962156	7.37116e+06	-45889.1	1005.82	-29771	0.000000	0.000000	6.963107	0.018246	NaN	0.000000	0.001669	0.001706	28.0809	0.070109	0.001975	35.4959	-18.6288	-169.636	-0.027809	0.960905	-0.124611	-0.125862	0.018246	35.4959	-0.124997	-6.080384	-0.003001	NaN
624	1.000000	1.002184	7.37116e+06	-45889.1	1005.82	-29771	0.000000	0.000000	7.003134	-0.004016	NaN	0.000000	0.001602	0.001717	28.082	0.183141	0.002073	88.3589	-74.5646	-160.587	0.038874	1.000919	-0.084583	-0.085848	-0.004016	88.3589	-0.084549	-0.801218	0.005012	NaN
624	1.000000	1.042174	7.37116e+06	-45889.1	1005.82	-29771	0.000000	0.000000	7.043126	0.028358	NaN	0.000000	0.001669	0.001705	28.0823	0.030994	0.002178	14.23	16.8119	-165.409	-0.053167	1.040914	-0.044593	-0.045853	0.028358	14.23	-0.046087	-0.069380	-0.408730	NaN
624	1.000000	1.082244	7.37116e+06	-45889.1	1005.82	-29771	0.000000	0.000000	7.083209	0.348084	NaN	0.000000	0.001664	0.001697	28.0822	0.737216	0.001929	382.124	18.6108	-165.208	0.014426	1.080941	-0.004523	-0.005826	0.348084	382.124	-0.005206	-0.003546	-98.1642	NaN
624	2.000000	1.098776	7.37116e+06	-45889.1	1005.82	-29771	0.000000	0.000000	7.100594	21.1014	NaN	0.000000	0.001618	0.001704	28.081	17.6371	0.001770	9964.03	7.413811	-178.229	20.1047	1.098439	0.012009	0.011672	21.1014	9964.03	0.010421	0.009653	2186.07	92658.3
624	2.000000	1.108758	7.37116e+06	-45889.1	1005.82	-29771	0.000000	0.000000	7.111533	44.3841	NaN	0.000000	0.001612	0.001689	28.0809	28.241	0.001782	15847.9	5.505251	179.494	43.5366	1.108446	0.021991	0.021679	44.3841	15847.9	0.019890	0.022370	1984.08	96807.8
624	2.000000	1.118721	7.37116e+06	-45889.1	1005.82	-29771	0.000000	0.000000	7.122823	76.6715	NaN	0.000000	0.001608	0.001723	28.0807	36.2315	0.001691	21421.4	1.025023	-178.82	74.5131	1.118383	0.031954	0.031615	76.6715	21421.4	0.029269	0.039243	1953.76	98796
624	2.000000	1.128697	7.37116e+06	-45889.1	1005.82	-29771	0.000000	0.000000	7.134275	112.572	NaN	0.000000	0.001666	0.001708	28.0806	46.3508	0.001826	25387	1.575204	179.44	109.637	1.128447	0.041930	0.041680	112.572	25387	0.038604	0.060470	1861.61	94322.4
624	2.000000	1.138749	7.37116e+06	-45889.1	1005.82	-29771	0.000000	0.000000	7.146228	158.805	NaN	0.000000	0.001684	0.001739	28.0821	57.4501	0.001948	29490.4	8.884819	171.419	160.608	1.138454	0.051982	0.051687	158.805	29490.4	0.047943	0.086162	1843.1	91790
624	2.000000	1.148662	7.37116e+06	-45889.1	1005.82	-29771	0.000000	0.000000	7.158519	216.657	NaN	0.000000	0.001650	0.001733	28.0818	64.6969	0.001667	38808	3.064821	174.372	214.014	1.148398	0.061895	0.061631	216.657	38808	0.057708	0.117717	1840.5	103342
624	2.000000	1.158752	7.37116e+06	-45889.1	1005.82	-29771	0.000000	0.000000	7.170784	269.583	NaN	0.000000	0.001724	0.001693	28.0818	75.5393	0.001786	42305.7	3.995899	172.844	269.441	1.158547	0.071984	0.071780	269.583	42305.7	0.067205	0.152905	1763.07	98846.3
624	2.000000	1.168621	7.37116e+06	-45889.1	1005.82	-29771	0.000000	0.000000	7.184348	359.457	NaN	0.000000	0.001669	0.001761	28.0804	85.819	0.001800	47674.6	6.549776	169.795	355.835	1.168297	0.081853	0.081529	359.457	47674.6	0.076199	0.190213	1889.76	99871.1
624	2.000000	1.178592	7.37116e+06	-45889.1	1005.82	-29771	0.000000	0.000000	7.197223	430.101	NaN	0.000000	0.001683	0.001705	28.0804	93.5585	0.001774	52738.8	6.289800	169.294	425.276	1.178383	0.091825	0.091616	430.101	52738.8	0.085708	0.233791	1839.68	99652.8
624	2.000000	1.188745	7.37116e+06	-45889.1	1005.82	-29771	0.000000	0.000000	7.210695	510.845	NaN	0.000000	0.001684	0.001724	28.0803	101.816	0.001802	56486.8	3.998774	170.924	513.884	1.188409	0.101977	0.101642	510.845	56486.8	0.095195	0.281423	1815.22	97283.7
624	2.000000	1.189599	7.37116e+06	-45889.1	1005.82	-29771	0.000000	0.000000	7.212070	523.489	NaN	0.000000	0.001691	0.001708	28.0807	102.698	0.001775	57873.9	10.2995	165.301	519.14	1.189224	0.102832	0.102457	523.489	57873.9	0.096048	0.285910	1830.96	98887.5