File: remote_trans/data/nanoindenter/0828-1/data/Data_2025-08-06,11h17m57s/2025-07-22_16-23-58_1_162.txt
2025-07-22, 16:23:58, 1
Index	Phase	Displacement	Time	Pos X	Pos Y	Pos Z	Rot A	Rot B	Piezo Z	Force A	Force B	Gripper	Voltage A	Voltage B	Temperature	Amplitude force	Amplitude pos	Stiffness	Phase shift	Phase excitation	Force A raw	Displacement raw	HMax	HMax raw	Real Force	Real Stiffness	Contact Depth	Area	Hardness	Reduced Mod.
[#]	[#]	[um]	[s]	[um]	[um]	[um]	[m°]	[m°]	[um]	[uN]	[uN]	[V]	[V]	[V]	[°C]	[uN]	[um]	[N/m]	[°]	[°]	[uN]	[um]	[um]	[um]	[uN]	[N/m]	[um]	[um^2]	[MPa]	[MPa]
162	1.000000	0.002388	7.36662e+06	-46739.1	955.82	-29768.7	0.000000	0.000000	6.002792	-0.004666	NaN	0.000000	0.001585	0.001635	28.0833	0.021307	0.001167	18.2637	153.237	-165.903	0.042309	0.001182	-1.084631	-1.085837	-0.004666	18.2637	-1.084439	-3.098411E+14	1.505871E-17	NaN
162	1.000000	0.044376	7.36662e+06	-46739.1	955.819	-29768.7	0.000000	0.000000	6.044776	-0.084852	NaN	0.000000	0.001584	0.001630	28.0943	0.010992	0.002002	5.489751	29.5675	13.0678	-0.056979	0.042991	-1.042643	-1.044028	-0.084852	5.489751	-1.031051	-5.937660E+13	1.429044E-15	NaN
162	1.000000	0.086388	7.36662e+06	-46739.1	955.819	-29768.7	0.000000	0.000000	6.086793	0.007270	NaN	0.000000	0.001599	0.001616	28.1329	0.045660	0.001969	23.1845	-164.327	-165.019	0.104535	0.085072	-1.000630	-1.001947	0.007270	23.1845	-1.000866	-2.330355E+13	-3.119628E-16	NaN
162	1.000000	0.128359	7.36662e+06	-46739.1	955.818	-29768.7	0.000000	0.000000	6.128762	-0.027899	NaN	0.000000	0.001585	0.001657	28.1043	0.049385	0.002075	23.804	-149.29	12.4031	0.000470	0.127013	-0.958660	-0.960006	-0.027899	23.804	-0.957781	-6.122788E+12	4.556664E-15	NaN
162	1.000000	0.170391	7.36662e+06	-46739.1	955.819	-29768.7	0.000000	0.000000	6.170794	-0.010065	NaN	0.000000	0.001576	0.001601	28.0808	0.027897	0.002009	13.8843	174.801	-163.092	-0.008644	0.169066	-0.916628	-0.917953	-0.010065	13.8843	-0.916084	-1.676238E+12	6.004759E-15	NaN
162	1.000000	0.212420	7.36662e+06	-46739.1	955.818	-29768.7	0.000000	0.000000	6.212821	-0.053356	NaN	0.000000	0.001562	0.001611	28.0925	0.063607	0.001970	32.2854	-148.391	14.786	-0.045265	0.211029	-0.874599	-0.875989	-0.053356	32.2854	-0.873360	-4.435001E+11	1.203061E-13	NaN
162	1.000000	0.254423	7.36662e+06	-46739.1	955.818	-29768.7	0.000000	0.000000	6.254825	-0.041013	NaN	0.000000	0.001554	0.001592	28.1327	0.099047	0.002046	48.4044	86.4052	-167.593	0.019352	0.253135	-0.832596	-0.833884	-0.041013	48.4044	-0.831960	-1.219980E+11	3.361754E-13	NaN
162	1.000000	0.296461	7.36662e+06	-46739.1	955.819	-29768.7	0.000000	0.000000	6.296867	0.036511	NaN	0.000000	0.001600	0.001583	28.1061	0.182399	0.002098	86.9355	162.901	12.5048	0.055243	0.295082	-0.790557	-0.791936	0.036511	86.9355	-0.790872	-3.380110E+10	-1.080183E-12	NaN
162	1.000000	0.338454	7.36662e+06	-46739.1	955.818	-29768.7	0.000000	0.000000	6.338860	0.064173	NaN	0.000000	0.001595	0.001570	28.0827	0.019577	0.002138	9.157155	95.6786	-168.141	0.014448	0.337130	-0.748565	-0.749889	0.064173	9.157155	-0.753821	-1.059808E+10	-6.055183E-12	NaN
162	1.000000	0.380459	7.36662e+06	-46739.1	955.819	-29768.7	0.000000	0.000000	6.380861	-0.027773	NaN	0.000000	0.001598	0.001614	28.092	0.101511	0.001911	53.1103	113.463	12.0434	-0.136696	0.379148	-0.706560	-0.707871	-0.027773	53.1103	-0.706168	-2.375440E+9	1.169158E-11	NaN
162	1.000000	0.422497	7.36662e+06	-46739.1	955.819	-29768.7	0.000000	0.000000	6.422903	0.055281	NaN	0.000000	0.001604	0.001635	28.1315	0.149212	0.001867	79.9235	125.204	-166.912	0.034890	0.421211	-0.664522	-0.665808	0.055281	79.9235	-0.665041	-6.508775E+8	-8.493246E-11	NaN
162	1.000000	0.464516	7.36663e+06	-46739.1	955.819	-29768.7	0.000000	0.000000	6.464920	-0.003223	NaN	0.000000	0.001605	0.001596	28.1061	0.072996	0.001933	37.7728	-61.6768	16.2126	-0.020227	0.463208	-0.622503	-0.623811	-0.003223	37.7728	-0.622439	-1.694919E+8	1.901619E-11	NaN
162	1.000000	0.506537	7.36663e+06	-46739.1	955.818	-29768.7	0.000000	0.000000	6.506944	0.060878	NaN	0.000000	0.001603	0.001632	28.0826	0.118203	0.001928	61.3153	14.2405	-168.835	-0.037290	0.505240	-0.580481	-0.581779	0.060878	61.3153	-0.581226	-4.588230E+7	-1.326824E-9	NaN
162	1.000000	0.548551	7.36663e+06	-46739.1	955.818	-29768.7	0.000000	0.000000	6.548954	-0.009923	NaN	0.000000	0.001616	0.001639	28.0923	0.053159	0.001970	26.9816	-0.124096	16.08	0.005743	0.547239	-0.538468	-0.539780	-0.009923	26.9816	-0.538192	-1.164875E+7	8.518901E-10	NaN
162	1.000000	0.590575	7.36663e+06	-46739.1	955.818	-29768.7	0.000000	0.000000	6.590979	0.002957	NaN	0.000000	0.001611	0.001583	28.1319	0.025164	0.002029	12.4051	-173.834	-168.31	-0.115545	0.589260	-0.496444	-0.497759	0.002957	12.4051	-0.496623	-3.07533e+06	-9.614894E-10	NaN
162	1.000000	0.632592	7.36663e+06	-46739.1	955.818	-29768.7	0.000000	0.000000	6.632995	-0.015359	NaN	0.000000	0.001635	0.001595	28.1078	0.067525	0.002106	32.0571	103.165	12.4196	-0.028734	0.631184	-0.454427	-0.455834	-0.015359	32.0571	-0.454068	-779117	1.971389E-8	NaN
162	1.000000	0.674597	7.36663e+06	-46739.1	955.819	-29768.7	0.000000	0.000000	6.675001	-0.001318	NaN	0.000000	0.001605	0.001644	28.0832	0.056312	0.001890	29.8	174.442	-165.604	0.100490	0.673342	-0.412422	-0.413677	-0.001318	29.8	-0.412389	-200612	6.569920E-9	NaN
162	1.000000	0.716618	7.36663e+06	-46739.1	955.818	-29768.7	0.000000	0.000000	6.717023	0.032625	NaN	0.000000	0.001615	0.001667	28.0902	0.028044	0.001999	14.0289	86.2589	12.0478	0.019647	0.715291	-0.370401	-0.371727	0.032625	14.0289	-0.372145	-53333.9	-6.117077E-7	NaN
162	1.000000	0.758651	7.36663e+06	-46739.1	955.818	-29768.7	0.000000	0.000000	6.759055	-0.004441	NaN	0.000000	0.001638	0.001627	28.13	0.074249	0.001924	38.5964	-69.8928	-163.599	-0.017843	0.757304	-0.328368	-0.329714	-0.004441	38.5964	-0.328281	-12310.4	3.607782E-7	NaN
162	1.000000	0.800667	7.36663e+06	-46739.1	955.819	-29768.7	0.000000	0.000000	6.801071	-0.003143	NaN	0.000000	0.001612	0.001644	28.1089	0.081835	0.001943	42.1117	-6.707635	16.4915	0.042264	0.799307	-0.286352	-0.287712	-0.003143	42.1117	-0.286296	-2935.86	1.070725E-6	NaN
162	1.000000	0.842683	7.36663e+06	-46739.1	955.818	-29768.7	0.000000	0.000000	6.843088	0.021190	NaN	0.000000	0.001687	0.001597	28.0821	0.098797	0.001968	50.1908	100.347	-166.356	-0.046666	0.841354	-0.244335	-0.245664	0.021190	50.1908	-0.244652	-679.27	-3.119522E-5	NaN
162	1.000000	0.884690	7.36663e+06	-46739.1	955.818	-29768.7	0.000000	0.000000	6.885093	-0.016055	NaN	0.000000	0.001636	0.001655	28.0922	0.111591	0.002007	55.5928	97.687	12.1337	0.017844	0.883341	-0.202329	-0.203678	-0.016055	55.5928	-0.202113	-142.68	0.000113	NaN
162	1.000000	0.926722	7.36663e+06	-46739.1	955.818	-29768.7	0.000000	0.000000	6.927126	0.010078	NaN	0.000000	0.001615	0.001620	28.1284	0.030936	0.001966	15.7356	-75.4852	-168.223	0.068002	0.925448	-0.160297	-0.161570	0.010078	15.7356	-0.160777	-28.3001	-0.000356	NaN
162	1.000000	0.968748	7.36663e+06	-46739.1	955.819	-29768.7	0.000000	0.000000	6.969153	0.041196	NaN	0.000000	0.001693	0.001705	28.1101	0.023390	0.002041	11.4609	-1.104998	14.4918	0.066487	0.967391	-0.118271	-0.119627	0.041196	11.4609	-0.120967	-5.053067	-0.008153	NaN
162	1.000000	1.010738	7.36663e+06	-46739.1	955.818	-29768.7	0.000000	0.000000	7.011143	0.025957	NaN	0.000000	0.001680	0.001680	28.0798	0.042895	0.001953	21.9661	172.716	-162.454	0.052890	1.009426	-0.076280	-0.077593	0.025957	21.9661	-0.077166	-0.524992	-0.049442	NaN
162	1.000000	1.052756	7.36663e+06	-46739.1	955.818	-29768.7	0.000000	0.000000	7.053161	0.037887	NaN	0.000000	0.001703	0.001742	28.0907	0.069160	0.001884	36.7105	61.7148	13.0756	-0.027331	1.051412	-0.034263	-0.035607	0.037887	36.7105	-0.035037	-0.032105	-1.180087	NaN
162	2.000000	1.094219	7.36663e+06	-46739.1	955.818	-29768.7	0.000000	0.000000	7.094977	8.613613	NaN	0.000000	0.001627	0.001717	28.1294	8.173598	0.001717	4759.02	6.253460	-168.42	7.626300	1.093331	0.007201	0.006312	8.613613	4759.02	0.005843	0.004916	1752.16	62013.4
162	2.000000	1.104845	7.36663e+06	-46739.1	955.818	-29768.7	0.000000	0.000000	7.106345	26.6472	NaN	0.000000	0.001596	0.001703	28.1114	19.793	0.001867	10602	5.456447	3.308929	25.6349	1.104524	0.017827	0.017506	26.6472	10602	0.015942	0.016561	1608.99	75268.6
162	2.000000	1.115255	7.36663e+06	-46739.1	955.818	-29768.7	0.000000	0.000000	7.118022	57.4773	NaN	0.000000	0.001648	0.001703	28.0832	30.1037	0.001802	16710.3	6.339356	177.856	55.4519	1.114949	0.028236	0.027930	57.4773	16710.3	0.025657	0.032221	1783.83	85052.3
162	2.000000	1.125828	7.36663e+06	-46739.1	955.817	-29768.7	0.000000	0.000000	7.130284	98.5619	NaN	0.000000	0.001633	0.001718	28.0892	39.9984	0.001778	22494.4	9.101041	-6.934299	99.0958	1.125342	0.038810	0.038323	98.5619	22494.4	0.035523	0.052971	1860.66	89294.9
162	2.000000	1.136332	7.36663e+06	-46739.1	955.818	-29768.7	0.000000	0.000000	7.142928	150.638	NaN	0.000000	0.001609	0.001756	28.1278	50.4901	0.001788	28244.3	5.581131	175.276	151.46	1.135858	0.049313	0.048840	150.638	28244.3	0.045313	0.078478	1919.49	92114.8
162	2.000000	1.146748	7.36663e+06	-46739.1	955.818	-29768.7	0.000000	0.000000	7.155636	206.377	NaN	0.000000	0.001611	0.001724	28.1117	59.8798	0.001720	34822.3	3.898816	-5.482499	203.136	1.146366	0.059729	0.059348	206.377	34822.3	0.055285	0.109444	1885.68	96168.6
162	2.000000	1.157311	7.36663e+06	-46739.1	955.819	-29768.7	0.000000	0.000000	7.169058	275.904	NaN	0.000000	0.001607	0.001751	28.0826	72.4385	0.001928	37567.8	2.655311	175.64	276.788	1.156991	0.070292	0.069972	275.904	37567.8	0.064784	0.143520	1922.4	90600.9
162	2.000000	1.167782	7.36663e+06	-46739.1	955.817	-29768.7	0.000000	0.000000	7.182210	341.136	NaN	0.000000	0.001645	0.001737	28.0912	82.7905	0.001822	45443.7	4.720470	-8.792994	340.475	1.167541	0.080763	0.080522	341.136	45443.7	0.075133	0.185594	1838.07	96375.1
162	2.000000	1.178265	7.36663e+06	-46739.1	955.819	-29768.7	0.000000	0.000000	7.196471	433.047	NaN	0.000000	0.001667	0.001743	28.1279	90.57	0.001714	52853.4	2.967177	172.642	436.12	1.177862	0.091246	0.090843	433.047	52853.4	0.085101	0.230883	1875.61	100496
162	2.000000	1.188817	7.36663e+06	-46739.1	955.818	-29768.7	0.000000	0.000000	7.210337	513.654	NaN	0.000000	0.001675	0.001716	28.1128	100.205	0.001625	61659	7.592981	-13.5947	516.64	1.188585	0.101798	0.101566	513.654	61659	0.095550	0.283287	1813.19	105842
162	2.000000	1.192717	7.36663e+06	-46739.1	955.818	-29768.7	0.000000	0.000000	7.216126	559.574	NaN	0.000000	0.001603	0.001757	28.1117	104.771	0.001888	55491.1	5.562802	-10.6049	556.106	1.192286	0.105699	0.105267	559.574	55491.1	0.098136	0.297025	1883.93	93025.2