File: remote_trans/data/nanoindenter/0828-1/data/Data_2025-08-06,11h17m57s/2025-07-22_16-23-58_1_439.txt
2025-07-22, 16:23:58, 1
Index	Phase	Displacement	Time	Pos X	Pos Y	Pos Z	Rot A	Rot B	Piezo Z	Force A	Force B	Gripper	Voltage A	Voltage B	Temperature	Amplitude force	Amplitude pos	Stiffness	Phase shift	Phase excitation	Force A raw	Displacement raw	HMax	HMax raw	Real Force	Real Stiffness	Contact Depth	Area	Hardness	Reduced Mod.
[#]	[#]	[um]	[s]	[um]	[um]	[um]	[m°]	[m°]	[um]	[uN]	[uN]	[V]	[V]	[V]	[°C]	[uN]	[um]	[N/m]	[°]	[°]	[uN]	[um]	[um]	[um]	[uN]	[N/m]	[um]	[um^2]	[MPa]	[MPa]
439	1.000000	0.002477	7.36935e+06	-55139.1	1005.82	-29742.3	0.000000	0.000000	6.002793	0.053436	NaN	0.000000	0.001594	0.001779	28.081	0.103169	0.001058	97.5185	-124.353	-160.886	0.066487	0.001212	-1.056161	-1.057425	0.053436	97.5185	-1.056572	-1.308420E+14	-4.083996E-16	NaN
439	1.000000	0.042432	7.36935e+06	-55139.1	1005.82	-29742.3	0.000000	0.000000	6.042747	0.000273	NaN	0.000000	0.001591	0.001794	28.0806	0.064256	0.002003	32.0752	94.0154	-164.663	-0.025789	0.041114	-1.016205	-1.017523	0.000273	32.0752	-1.016211	-3.749503E+13	-7.280880E-18	NaN
439	1.000000	0.082441	7.36935e+06	-55139.1	1005.82	-29742.3	0.000000	0.000000	6.082756	0.018560	NaN	0.000000	0.001587	0.001750	28.0809	0.103978	0.002135	48.7078	104.032	-158.054	0.055885	0.081139	-0.976197	-0.977499	0.018560	48.7078	-0.976483	-1.094006E+13	-1.696517E-15	NaN
439	1.000000	0.122440	7.36935e+06	-55139.1	1005.82	-29742.3	0.000000	0.000000	6.122756	0.022651	NaN	0.000000	0.001590	0.001760	28.0808	0.086962	0.002027	42.8969	-83.1469	-166.346	-0.014009	0.121132	-0.936197	-0.937506	0.022651	42.8969	-0.936593	-3.170787E+12	-7.143585E-15	NaN
439	1.000000	0.162478	7.36935e+06	-55139.1	1005.82	-29742.3	0.000000	0.000000	6.162790	-0.055237	NaN	0.000000	0.001600	0.001740	28.0797	0.029785	0.001952	15.2614	-102.354	-163	-0.047292	0.161212	-0.896159	-0.897425	-0.055237	15.2614	-0.893445	-8.288537E+11	6.664307E-14	NaN
439	1.000000	0.202486	7.36935e+06	-55139.1	1005.82	-29742.3	0.000000	0.000000	6.202803	0.052495	NaN	0.000000	0.001621	0.001745	28.0793	0.024459	0.002105	11.6187	46.3511	-164.886	-0.015344	0.201221	-0.856151	-0.857417	0.052495	11.6187	-0.859540	-2.883322E+11	-1.820652E-13	NaN
439	1.000000	0.242497	7.36935e+06	-55139.1	1005.82	-29742.3	0.000000	0.000000	6.242809	-0.051190	NaN	0.000000	0.001643	0.001747	28.0794	0.027067	0.001930	14.0237	-1.484063	-162.87	-0.055900	0.241205	-0.816141	-0.817432	-0.051190	14.0237	-0.813403	-6.834998E+10	7.489378E-13	NaN
439	1.000000	0.282532	7.36935e+06	-55139.1	1005.82	-29742.3	0.000000	0.000000	6.282849	0.053188	NaN	0.000000	0.001628	0.001733	28.081	0.074149	0.002011	36.8685	79.9535	-168.986	0.046215	0.281223	-0.776105	-0.777414	0.053188	36.8685	-0.777187	-2.202942E+10	-2.414391E-12	NaN
439	1.000000	0.322543	7.36935e+06	-55139.1	1005.82	-29742.3	0.000000	0.000000	6.322854	-0.083441	NaN	0.000000	0.001636	0.001748	28.081	0.082174	0.002087	39.3706	10.8072	-165.692	-0.006185	0.321216	-0.736095	-0.737422	-0.083441	39.3706	-0.734505	-5.783652E+9	1.442708E-11	NaN
439	1.000000	0.362561	7.36935e+06	-55139.1	1005.82	-29742.3	0.000000	0.000000	6.362877	0.021801	NaN	0.000000	0.001630	0.001753	28.0811	0.116500	0.001996	58.3644	58.3368	-165.367	0.005059	0.361223	-0.696076	-0.697415	0.021801	58.3644	-0.696356	-1.744868E+9	-1.249419E-11	NaN
439	1.000000	0.402573	7.36935e+06	-55139.1	1005.82	-29742.3	0.000000	0.000000	6.402888	0.015017	NaN	0.000000	0.001666	0.001720	28.081	0.080910	0.002008	40.3004	87.2309	-168.665	0.112382	0.401230	-0.656065	-0.657407	0.015017	40.3004	-0.656344	-4.947481E+8	-3.035242E-11	NaN
439	1.000000	0.442615	7.36935e+06	-55139.1	1005.82	-29742.3	0.000000	0.000000	6.442928	-0.044638	NaN	0.000000	0.001631	0.001722	28.0799	0.046406	0.002039	22.759	-174.04	-166.675	-0.060637	0.441253	-0.616022	-0.617384	-0.044638	22.759	-0.614551	-1.320423E+8	3.380596E-10	NaN
439	1.000000	0.482590	7.36935e+06	-55139.1	1005.82	-29742.3	0.000000	0.000000	6.482904	-0.000891	NaN	0.000000	0.001601	0.001722	28.0802	0.054734	0.001922	28.4751	136.23	-167.089	-0.015517	0.481292	-0.576048	-0.577345	-0.000891	28.4751	-0.576024	-3.889039E+7	2.290882E-11	NaN
439	1.000000	0.522632	7.36935e+06	-55139.1	1005.82	-29742.3	0.000000	0.000000	6.522947	-0.008588	NaN	0.000000	0.001622	0.001686	28.0797	0.011336	0.001991	5.694812	-142.147	-162.097	-0.013297	0.521293	-0.536005	-0.537344	-0.008588	5.694812	-0.534874	-1.047706E+7	8.197061E-10	NaN
439	1.000000	0.562640	7.36935e+06	-55139.1	1005.82	-29742.3	0.000000	0.000000	6.562958	0.086220	NaN	0.000000	0.001618	0.001768	28.0807	0.016031	0.001971	8.134256	169.12	-167.188	0.081580	0.561344	-0.495997	-0.497294	0.086220	8.134256	-0.503947	-3.89101e+06	-2.215873E-8	NaN
439	1.000000	0.602668	7.36935e+06	-55139.1	1005.82	-29742.3	0.000000	0.000000	6.602984	0.046029	NaN	0.000000	0.001571	0.001718	28.0806	0.111600	0.001999	55.8162	144.107	-163.229	0.008683	0.601306	-0.455969	-0.457332	0.046029	55.8162	-0.456588	-845381	-5.444783E-8	NaN
439	1.000000	0.642691	7.36936e+06	-55139.1	1005.82	-29742.3	0.000000	0.000000	6.643005	-0.034438	NaN	0.000000	0.001570	0.001768	28.0806	0.032033	0.002128	15.0508	48.8568	-166.331	-0.019040	0.641413	-0.415946	-0.417224	-0.034438	15.0508	-0.414230	-213068	1.616272E-7	NaN
439	1.000000	0.682671	7.36936e+06	-55139.1	1005.82	-29742.3	0.000000	0.000000	6.682986	-0.009707	NaN	0.000000	0.001572	0.001749	28.0804	0.068772	0.001945	35.351	-164.138	-164.185	0.035756	0.681370	-0.375966	-0.377267	-0.009707	35.351	-0.375760	-60117	1.614629E-7	NaN
439	1.000000	0.722721	7.36936e+06	-55139.1	1005.82	-29742.3	0.000000	0.000000	6.723036	0.007734	NaN	0.000000	0.001597	0.001723	28.0794	0.069857	0.002090	33.4315	-147.576	-165.411	-0.034904	0.721418	-0.335916	-0.337219	0.007734	33.4315	-0.336089	-16014	-4.829446E-7	NaN
439	1.000000	0.762752	7.36936e+06	-55139.1	1005.82	-29742.3	0.000000	0.000000	6.763068	0.015431	NaN	0.000000	0.001591	0.001716	28.0798	0.100300	0.002017	49.7227	-153.617	-168.402	-0.006433	0.761381	-0.295885	-0.297257	0.015431	49.7227	-0.296118	-4118.81	-3.746582E-6	NaN
439	1.000000	0.802746	7.36936e+06	-55139.1	1005.82	-29742.3	0.000000	0.000000	6.803062	0.024004	NaN	0.000000	0.001607	0.001746	28.0796	0.041227	0.002103	19.6031	-6.098014	-165.284	0.071247	0.801420	-0.255891	-0.257218	0.024004	19.6031	-0.256810	-1047.01	-2.292647E-5	NaN
439	1.000000	0.842755	7.36936e+06	-55139.1	1005.82	-29742.3	0.000000	0.000000	6.843071	0.027710	NaN	0.000000	0.001653	0.001749	28.0811	0.090625	0.001968	46.0545	4.517382	-163.234	0.058249	0.841425	-0.215882	-0.217212	0.027710	46.0545	-0.216333	-242.627	-0.000114	NaN
439	1.000000	0.882778	7.36936e+06	-55139.1	1005.82	-29742.3	0.000000	0.000000	6.883092	-0.015982	NaN	0.000000	0.001629	0.001750	28.0809	0.035467	0.001958	18.1111	155.994	-169.212	-0.054073	0.881455	-0.175859	-0.177182	-0.015982	18.1111	-0.175197	-50.5093	0.000316	NaN
439	1.000000	0.922792	7.36936e+06	-55139.1	1005.82	-29742.3	0.000000	0.000000	6.923106	-0.009070	NaN	0.000000	0.001619	0.001763	28.0807	0.147168	0.002085	70.5684	109.867	-164.842	-0.030790	0.921494	-0.135846	-0.137144	-0.009070	70.5684	-0.135749	-9.830508	0.000923	NaN
439	1.000000	0.962824	7.36936e+06	-55139.1	1005.82	-29742.3	0.000000	0.000000	6.963138	-0.012893	NaN	0.000000	0.001646	0.001835	28.0793	0.085024	0.002017	42.1544	96.0115	-169.708	-0.049228	0.961520	-0.095813	-0.097117	-0.012893	42.1544	-0.095584	-1.454457	0.008865	NaN
439	1.000000	1.002820	7.36936e+06	-55139.1	1005.82	-29742.3	0.000000	0.000000	7.003133	-0.039446	NaN	0.000000	0.001648	0.001766	28.0794	0.043771	0.002103	20.8134	-122.389	-166.905	0.030903	1.001460	-0.055817	-0.057177	-0.039446	20.8134	-0.054396	-0.123581	0.319191	NaN
439	1.000000	1.042815	7.36936e+06	-55139.1	1005.82	-29742.3	0.000000	0.000000	7.043129	-0.019974	NaN	0.000000	0.001628	0.001770	28.0794	0.029803	0.002066	14.426	-11.6666	-166.647	-0.041059	1.041581	-0.015823	-0.017056	-0.019974	14.426	-0.014784	-0.009147	2.183790	NaN
439	2.000000	1.071437	7.36936e+06	-55139.1	1005.82	-29742.3	0.000000	0.000000	7.072257	12.2738	NaN	0.000000	0.001631	0.001763	28.0794	13.1829	0.001709	7714.45	10.9693	178.644	11.5252	1.071143	0.012800	0.012506	12.2738	7714.45	0.011607	0.011022	1113.54	67133.7
439	2.000000	1.081392	7.36936e+06	-55139.1	1005.82	-29742.3	0.000000	0.000000	7.082884	28.6171	NaN	0.000000	0.001649	0.001733	28.0807	24.182	0.001736	13930.5	7.071754	178.887	29.6806	1.081128	0.022755	0.022491	28.6171	13930.5	0.021214	0.024486	1168.72	81336.2
439	2.000000	1.091329	7.36936e+06	-55139.1	1005.82	-29742.3	0.000000	0.000000	7.093928	55.5342	NaN	0.000000	0.001683	0.001741	28.081	35.1653	0.001789	19656.2	8.864152	174.816	54.6286	1.091011	0.032691	0.032373	55.5342	19656.2	0.030572	0.041938	1324.19	87693.7
439	2.000000	1.101349	7.36936e+06	-55139.1	1005.82	-29742.3	0.000000	0.000000	7.105365	89.9751	NaN	0.000000	0.001645	0.001758	28.081	44.2623	0.001885	23484.4	10.6125	170.369	90.343	1.100986	0.042712	0.042348	89.9751	23484.4	0.039838	0.063611	1414.46	85072.2
439	2.000000	1.111365	7.36936e+06	-55139.1	1005.82	-29742.3	0.000000	0.000000	7.117051	130.572	NaN	0.000000	0.001626	0.001749	28.0797	53.8957	0.001718	31368.5	6.233239	174.283	132.438	1.110983	0.052728	0.052346	130.572	31368.5	0.049606	0.091200	1431.71	94900.7
439	2.000000	1.121307	7.36936e+06	-55139.1	1005.82	-29742.3	0.000000	0.000000	7.128937	177.829	NaN	0.000000	0.001657	0.001747	28.0797	64.5663	0.001824	35406	7.447655	170.669	178.61	1.121013	0.062670	0.062376	177.829	35406	0.058903	0.121905	1458.76	92648.9
439	2.000000	1.131244	7.36936e+06	-55139.1	1005.82	-29742.3	0.000000	0.000000	7.141306	236.951	NaN	0.000000	0.001652	0.001749	28.0795	73.0881	0.001721	42463	3.035049	173.916	233.795	1.130943	0.072607	0.072306	236.951	42463	0.068421	0.157726	1502.29	97686
439	2.000000	1.141190	7.36936e+06	-55139.1	1005.82	-29742.3	0.000000	0.000000	7.153909	301.536	NaN	0.000000	0.001649	0.001748	28.0795	84.9576	0.001813	46863.3	5.102863	170.744	296.556	1.140982	0.082553	0.082345	301.536	46863.3	0.077727	0.196932	1531.17	96482.4
439	2.000000	1.151210	7.36936e+06	-55139.1	1005.82	-29742.3	0.000000	0.000000	7.166487	363.717	NaN	0.000000	0.001607	0.001763	28.0809	95.0072	0.001790	53091.4	2.677053	172.184	360.201	1.151093	0.092572	0.092456	363.717	53091.4	0.087434	0.242151	1502.02	98572.1
439	2.000000	1.161246	7.36936e+06	-55139.1	1005.82	-29742.3	0.000000	0.000000	7.180422	458.512	NaN	0.000000	0.001682	0.001767	28.0809	104.692	0.001770	59161.2	9.872232	164.826	456.774	1.160774	0.102609	0.102136	458.512	59161.2	0.096796	0.289870	1581.79	100394
439	2.000000	1.166268	7.36936e+06	-55139.1	1005.82	-29742.3	0.000000	0.000000	7.187240	502.176	NaN	0.000000	0.001612	0.001761	28.0814	109.372	0.001730	63238.1	8.697831	165.881	501.631	1.165764	0.107630	0.107127	502.176	63238.1	0.101675	0.316320	1587.56	102728