File: remote_trans/data/nanoindenter/0828-1/data/Data_2025-08-06,11h17m57s/2025-07-22_16-23-58_1_19.txt
2025-07-22, 16:23:58, 1
Index	Phase	Displacement	Time	Pos X	Pos Y	Pos Z	Rot A	Rot B	Piezo Z	Force A	Force B	Gripper	Voltage A	Voltage B	Temperature	Amplitude force	Amplitude pos	Stiffness	Phase shift	Phase excitation	Force A raw	Displacement raw	HMax	HMax raw	Real Force	Real Stiffness	Contact Depth	Area	Hardness	Reduced Mod.
[#]	[#]	[um]	[s]	[um]	[um]	[um]	[m°]	[m°]	[um]	[uN]	[uN]	[V]	[V]	[V]	[°C]	[uN]	[um]	[N/m]	[°]	[°]	[uN]	[um]	[um]	[um]	[uN]	[N/m]	[um]	[um^2]	[MPa]	[MPa]
19	1.000000	0.003147	7.36523e+06	-39589.1	955.818	-29794	0.000000	0.000000	6.002815	0.005402	NaN	0.000000	0.001595	0.001643	28.127	0.104001	0.000961	108.208	19.1401	-164.375	0.039066	0.001825	-1.056577	-1.057898	0.005402	108.208	-1.056614	-1.310134E+14	-4.123422E-17	NaN
19	1.000000	0.043076	7.36523e+06	-39589.1	955.818	-29794	0.000000	0.000000	6.042743	-0.000647	NaN	0.000000	0.001655	0.001658	28.1284	0.027930	0.001995	14.0024	100.266	-168.811	-0.024660	0.041709	-1.016648	-1.018015	-0.000647	14.0024	-1.016613	-3.796481E+13	1.703980E-17	NaN
19	1.000000	0.083085	7.36523e+06	-39589.1	955.818	-29794	0.000000	0.000000	6.082756	0.078526	NaN	0.000000	0.001670	0.001652	28.1282	0.012683	0.002015	6.293558	32.4493	-166.193	0.073993	0.081774	-0.976639	-0.977950	0.078526	6.293558	-0.985997	-1.469582E+13	-5.343402E-15	NaN
19	1.000000	0.123112	7.36523e+06	-39589.1	955.819	-29794	0.000000	0.000000	6.122780	-0.013037	NaN	0.000000	0.001589	0.001663	28.129	0.170107	0.001956	86.9696	176.573	-166.95	0.020678	0.121831	-0.936611	-0.937893	-0.013037	86.9696	-0.936499	-3.161513E+12	4.123658E-15	NaN
19	1.000000	0.163128	7.36523e+06	-39589.1	955.819	-29794	0.000000	0.000000	6.162798	0.042840	NaN	0.000000	0.001555	0.001678	28.1276	0.103791	0.002111	49.1699	-87.8777	-166.478	0.000224	0.161822	-0.896595	-0.897902	0.042840	49.1699	-0.897249	-9.330171E+11	-4.591602E-14	NaN
19	1.000000	0.203121	7.36523e+06	-39589.1	955.818	-29794	0.000000	0.000000	6.202792	0.090661	NaN	0.000000	0.001599	0.001677	28.1269	0.118514	0.002031	58.3558	11.1965	-164.73	0.067253	0.201871	-0.856603	-0.857853	0.090661	58.3558	-0.857768	-2.728399E+11	-3.322868E-13	NaN
19	1.000000	0.243173	7.36523e+06	-39589.1	955.819	-29794	0.000000	0.000000	6.242842	0.027216	NaN	0.000000	0.001536	0.001674	28.1258	0.069225	0.002026	34.1734	-172.281	-165.198	0.053603	0.241891	-0.816551	-0.817833	0.027216	34.1734	-0.817148	-7.683054E+10	-3.542394E-13	NaN
19	1.000000	0.283204	7.36523e+06	-39589.1	955.818	-29794	0.000000	0.000000	6.282872	-0.000551	NaN	0.000000	0.001559	0.001639	28.1268	0.121033	0.001944	62.2715	150.078	-164.117	0.070955	0.281819	-0.776519	-0.777904	-0.000551	62.2715	-0.776513	-2.156942E+10	2.555355E-14	NaN
19	1.000000	0.323207	7.36523e+06	-39589.1	955.819	-29794	0.000000	0.000000	6.322875	-0.003740	NaN	0.000000	0.001606	0.001640	28.1257	0.036540	0.001972	18.5268	142.899	-165.326	-0.028536	0.321893	-0.736516	-0.737831	-0.003740	18.5268	-0.736365	-6.131077E+9	6.100239E-13	NaN
19	1.000000	0.363195	7.36523e+06	-39589.1	955.818	-29794	0.000000	0.000000	6.362864	0.027871	NaN	0.000000	0.001611	0.001675	28.1284	0.051603	0.001939	26.6141	7.586275	-166.411	0.012700	0.361910	-0.696529	-0.697814	0.027871	26.6141	-0.697314	-1.798249E+9	-1.549883E-11	NaN
19	1.000000	0.403248	7.36523e+06	-39589.1	955.819	-29794	0.000000	0.000000	6.402917	0.031214	NaN	0.000000	0.001596	0.001666	28.1266	0.083138	0.002086	39.8586	26.789	-165.624	0.040580	0.401942	-0.656476	-0.657782	0.031214	39.8586	-0.657063	-5.060977E+8	-6.167509E-11	NaN
19	1.000000	0.443246	7.36523e+06	-39589.1	955.819	-29794	0.000000	0.000000	6.442914	0.021867	NaN	0.000000	0.001542	0.001647	28.1276	0.037465	0.001987	18.854	18.1621	-167.028	0.073269	0.441943	-0.616478	-0.617781	0.021867	18.854	-0.617348	-1.442692E+8	-1.515723E-10	NaN
19	1.000000	0.483269	7.36523e+06	-39589.1	955.818	-29794	0.000000	0.000000	6.482940	0.072326	NaN	0.000000	0.001546	0.001599	28.1249	0.036402	0.002105	17.2943	-97.2025	-165.323	-0.020533	0.481972	-0.576454	-0.577751	0.072326	17.2943	-0.579591	-4.355895E+7	-1.660428E-9	NaN
19	1.000000	0.523294	7.36523e+06	-39589.1	955.817	-29794	0.000000	0.000000	6.522962	-0.012070	NaN	0.000000	0.001606	0.001691	28.1256	0.131263	0.001912	68.6614	173.207	-167.052	0.074832	0.521958	-0.536429	-0.537766	-0.012070	68.6614	-0.536297	-1.096459E+7	1.100776E-9	NaN
19	1.000000	0.563298	7.36523e+06	-39589.1	955.819	-29794	0.000000	0.000000	6.562968	0.039336	NaN	0.000000	0.001640	0.001675	28.1246	0.024298	0.001910	12.7245	154.202	-168.705	0.095449	0.561964	-0.496425	-0.497760	0.039336	12.7245	-0.498744	-3.29221e+06	-1.194817E-8	NaN
19	1.000000	0.603304	7.36523e+06	-39589.1	955.819	-29794	0.000000	0.000000	6.602972	0.000272	NaN	0.000000	0.001594	0.001698	28.1259	0.136392	0.002035	67.0095	140.972	-167.158	-0.011656	0.602011	-0.456419	-0.457712	0.000272	67.0095	-0.456422	-840862	-3.235313E-10	NaN
19	1.000000	0.643355	7.36523e+06	-39589.1	955.818	-29794	0.000000	0.000000	6.643021	-0.045369	NaN	0.000000	0.001607	0.001643	28.1261	0.104288	0.002096	49.7626	123.874	-166.889	0.038648	0.642034	-0.416369	-0.417690	-0.045369	49.7626	-0.415685	-223451	2.030396E-7	NaN
19	1.000000	0.683343	7.36523e+06	-39589.1	955.819	-29794	0.000000	0.000000	6.683012	0.033876	NaN	0.000000	0.001581	0.001662	28.1266	0.122415	0.001946	62.9155	65.4526	-164.307	-0.035991	0.682036	-0.376381	-0.377688	0.033876	62.9155	-0.376784	-62189.3	-5.447223E-7	NaN
19	1.000000	0.723353	7.36523e+06	-39589.1	955.819	-29794	0.000000	0.000000	6.723019	-0.043127	NaN	0.000000	0.001590	0.001656	28.1254	0.069803	0.002048	34.0788	-43.8059	-166.551	-0.106702	0.722080	-0.336370	-0.337643	-0.043127	34.0788	-0.335421	-15658.1	2.754295E-6	NaN
19	1.000000	0.763410	7.36523e+06	-39589.1	955.819	-29794	0.000000	0.000000	6.763079	0.022874	NaN	0.000000	0.001572	0.001641	28.1256	0.103441	0.002094	49.4087	-56.5461	-165.94	0.030829	0.762084	-0.296313	-0.297639	0.022874	49.4087	-0.296661	-4196.37	-5.450902E-6	NaN
19	1.000000	0.803397	7.36523e+06	-39589.1	955.819	-29794	0.000000	0.000000	6.803066	0.027212	NaN	0.000000	0.001598	0.001698	28.1238	0.072421	0.001889	38.3353	73.471	-167.045	-0.028081	0.802098	-0.256326	-0.257626	0.027212	38.3353	-0.256859	-1048.82	-2.594538E-5	NaN
19	1.000000	0.843422	7.36523e+06	-39589.1	955.818	-29794	0.000000	0.000000	6.843091	0.020597	NaN	0.000000	0.001582	0.001674	28.1241	0.116660	0.002039	57.2198	71.3547	-164.719	0.042003	0.842080	-0.216301	-0.217644	0.020597	57.2198	-0.216571	-244.771	-8.414911E-5	NaN
19	1.000000	0.883433	7.36523e+06	-39589.1	955.818	-29794	0.000000	0.000000	6.883104	0.071826	NaN	0.000000	0.001562	0.001677	28.125	0.038941	0.002030	19.1805	163.802	-168.921	0.059914	0.882114	-0.176290	-0.177610	0.071826	19.1805	-0.179099	-58.9005	-0.001219	NaN
19	1.000000	0.923437	7.36523e+06	-39589.1	955.819	-29794	0.000000	0.000000	6.923108	0.062064	NaN	0.000000	0.001535	0.001695	28.1259	0.100863	0.002037	49.524	-2.227355	-169.783	0.085075	0.922193	-0.136286	-0.137530	0.062064	49.524	-0.137226	-10.4865	-0.005918	NaN
19	1.000000	0.963458	7.36523e+06	-39589.1	955.818	-29794	0.000000	0.000000	6.963126	0.001939	NaN	0.000000	0.001506	0.001679	28.1245	0.042835	0.002014	21.2685	57.7677	-167.305	-0.002985	0.962165	-0.096265	-0.097559	0.001939	21.2685	-0.096334	-1.512476	-0.001282	NaN
19	1.000000	1.003487	7.36523e+06	-39589.1	955.817	-29794	0.000000	0.000000	7.003158	0.080512	NaN	0.000000	0.001544	0.001639	28.1256	0.053199	0.001981	26.8569	-65.0355	-161.802	0.084691	1.002149	-0.056237	-0.057574	0.080512	26.8569	-0.058485	-0.162865	-0.494352	NaN
19	1.000000	1.043473	7.36523e+06	-39589.1	955.819	-29794	0.000000	0.000000	7.043141	0.004966	NaN	0.000000	0.001555	0.001593	28.1231	0.127375	0.002050	62.1214	-150.588	-168.632	0.002073	1.042212	-0.016251	-0.017512	0.004966	62.1214	-0.016311	-0.010076	-0.492896	NaN
19	2.000000	1.080130	7.36523e+06	-39589.1	955.819	-29794	0.000000	0.000000	7.080175	9.181550	NaN	0.000000	0.001588	0.001649	28.124	7.355251	0.001761	4175.78	9.993702	-175.238	9.427895	1.079784	0.020407	0.020060	9.181550	4175.78	0.018758	0.020627	445.113	26563.7
19	2.000000	1.090047	7.36523e+06	-39589.1	955.818	-29794	0.000000	0.000000	7.090473	18.4547	NaN	0.000000	0.001529	0.001637	28.1227	15.2189	0.001960	7765.12	7.447241	-175.762	18.9555	1.089742	0.030323	0.030019	18.4547	7765.12	0.028541	0.037774	488.556	36502.7
19	2.000000	1.100046	7.36523e+06	-39589.1	955.82	-29794	0.000000	0.000000	7.101196	36.0499	NaN	0.000000	0.001565	0.001634	28.1249	25.5936	0.001770	14460.4	7.514074	178.426	39.1914	1.099688	0.040323	0.039965	36.0499	14460.4	0.038453	0.060092	599.91	53894.6
19	2.000000	1.109995	7.36523e+06	-39589.1	955.82	-29794	0.000000	0.000000	7.112106	59.453	NaN	0.000000	0.001622	0.001647	28.1235	35.1551	0.001845	19052.1	4.476977	177.599	58.7585	1.109619	0.050271	0.049896	59.453	19052.1	0.047931	0.086125	690.311	59313.1
19	2.000000	1.119960	7.36523e+06	-39589.1	955.819	-29794	0.000000	0.000000	7.123661	98.1335	NaN	0.000000	0.001607	0.001636	28.1244	44.3756	0.001780	24923.7	5.758393	175.103	97.5018	1.119698	0.060237	0.059975	98.1335	24923.7	0.057284	0.116248	844.172	66787
19	2.000000	1.130034	7.36523e+06	-39589.1	955.819	-29794	0.000000	0.000000	7.135620	144.031	NaN	0.000000	0.001645	0.001657	28.1231	53.7138	0.001829	29362.3	6.474285	173.214	147.765	1.129604	0.070310	0.069881	144.031	29362.3	0.066631	0.150654	956.034	69115.1
19	2.000000	1.139958	7.36523e+06	-39589.1	955.818	-29794	0.000000	0.000000	7.147678	195.95	NaN	0.000000	0.001535	0.001646	28.1227	62.2119	0.001750	35558.5	4.895749	172.5	196.344	1.139631	0.080235	0.079907	195.95	35558.5	0.076102	0.189791	1032.45	74572.5
19	2.000000	1.149947	7.36523e+06	-39589.1	955.819	-29794	0.000000	0.000000	7.160330	260.76	NaN	0.000000	0.001537	0.001634	28.1212	72.7901	0.001893	38443.7	7.574741	170	259.564	1.149695	0.090224	0.089971	260.76	38443.7	0.085136	0.231053	1128.57	73070.6
19	2.000000	1.159971	7.36523e+06	-39589.1	955.819	-29794	0.000000	0.000000	7.173100	327.557	NaN	0.000000	0.001585	0.001664	28.1221	82.4403	0.001864	44216.9	3.593533	172.621	328.285	1.159681	0.100248	0.099957	327.557	44216.9	0.094692	0.278794	1174.91	76510.2
19	2.000000	1.169949	7.36523e+06	-39589.1	955.819	-29794	0.000000	0.000000	7.185951	397.483	NaN	0.000000	0.001560	0.001654	28.1225	90.4775	0.001825	49564	1.850874	173.384	397.925	1.169845	0.110226	0.110121	397.483	49564	0.104211	0.330500	1202.67	78768.8
19	2.000000	1.177386	7.36523e+06	-39589.1	955.819	-29794	0.000000	0.000000	7.196623	476.221	NaN	0.000000	0.001535	0.001656	28.0849	95.7645	0.001697	56437.8	2.129820	-7.429826	474.152	1.177065	0.117662	0.117342	476.221	56437.8	0.111334	0.371880	1280.57	84555.5