File: remote_trans/data/nanoindenter/0828-1/data/Data_2025-08-06,11h17m57s/2025-07-22_16-23-58_1_1206.txt
2025-07-22, 16:23:58, 1
Index	Phase	Displacement	Time	Pos X	Pos Y	Pos Z	Rot A	Rot B	Piezo Z	Force A	Force B	Gripper	Voltage A	Voltage B	Temperature	Amplitude force	Amplitude pos	Stiffness	Phase shift	Phase excitation	Force A raw	Displacement raw	HMax	HMax raw	Real Force	Real Stiffness	Contact Depth	Area	Hardness	Reduced Mod.
[#]	[#]	[um]	[s]	[um]	[um]	[um]	[m°]	[m°]	[um]	[uN]	[uN]	[V]	[V]	[V]	[°C]	[uN]	[um]	[N/m]	[°]	[°]	[uN]	[um]	[um]	[um]	[uN]	[N/m]	[um]	[um^2]	[MPa]	[MPa]
1206	1.000000	0.002863	7.37683e+06	-55289.1	1105.82	-29737.6	0.000000	0.000000	6.002765	-0.014865	NaN	0.000000	0.001551	0.001671	28.0811	0.023201	0.000846	27.4273	38.2308	-160.465	0.025391	0.001624	-1.293326	-1.294566	-0.014865	27.4273	-1.292920	-1.922112E+17	7.733768E-20	NaN
1206	1.000000	0.052851	7.37683e+06	-55289.1	1105.82	-29737.6	0.000000	0.000000	6.052755	0.030622	NaN	0.000000	0.001529	0.001673	28.081	0.087531	0.001966	44.5173	4.355885	13.5564	0.114084	0.051459	-1.243338	-1.244731	0.030622	44.5173	-1.243854	-4.243325E+16	-7.216487E-19	NaN
1206	1.000000	0.102857	7.37683e+06	-55289.1	1105.82	-29737.6	0.000000	0.000000	6.102761	0.043871	NaN	0.000000	0.001584	0.001679	28.0821	0.096820	0.002078	46.5937	-31.8022	-164.242	-0.015083	0.101570	-1.193332	-1.194619	0.043871	46.5937	-1.194038	-9.139281E+15	-4.800258E-18	NaN
1206	1.000000	0.152889	7.37683e+06	-55289.1	1105.82	-29737.6	0.000000	0.000000	6.152791	-0.006741	NaN	0.000000	0.001580	0.001671	28.0826	0.065352	0.001975	33.0881	-75.1056	14.5101	-0.042165	0.151521	-1.143300	-1.144669	-0.006741	33.0881	-1.143148	-1.900840E+15	3.546098E-18	NaN
1206	1.000000	0.202904	7.37683e+06	-55289.1	1105.82	-29737.6	0.000000	0.000000	6.202806	0.017200	NaN	0.000000	0.001595	0.001684	28.0827	0.049725	0.001979	25.1205	170.045	-165.521	0.045051	0.201640	-1.093286	-1.094549	0.017200	25.1205	-1.093799	-4.138327E+14	-4.156334E-17	NaN
1206	1.000000	0.252933	7.37683e+06	-55289.1	1105.82	-29737.6	0.000000	0.000000	6.252834	-0.041530	NaN	0.000000	0.001613	0.001694	28.0809	0.071334	0.002092	34.1032	-75.6439	15.2068	0.015429	0.251563	-1.043256	-1.044626	-0.041530	34.1032	-1.042343	-8.423092E+13	4.930487E-16	NaN
1206	1.000000	0.302946	7.37683e+06	-55289.1	1105.82	-29737.6	0.000000	0.000000	6.302848	-0.000862	NaN	0.000000	0.001567	0.001697	28.0814	0.079454	0.001987	39.9867	106.018	-164.846	0.067760	0.301659	-0.993244	-0.994531	-0.000862	39.9867	-0.993228	-1.838993E+13	4.686661E-17	NaN
1206	1.000000	0.352973	7.37684e+06	-55289.1	1105.82	-29737.6	0.000000	0.000000	6.352876	0.024987	NaN	0.000000	0.001563	0.001629	28.0814	0.080883	0.001878	43.0768	-50.9785	13.9853	-0.044469	0.351590	-0.943216	-0.944600	0.024987	43.0768	-0.943651	-3.948186E+12	-6.328657E-15	NaN
1206	1.000000	0.402985	7.37684e+06	-55289.1	1105.82	-29737.6	0.000000	0.000000	6.402888	0.030311	NaN	0.000000	0.001547	0.001618	28.0828	0.052117	0.002047	25.4617	-159.343	-166.013	-0.014576	0.401737	-0.893205	-0.894453	0.030311	25.4617	-0.894097	-8.458599E+11	-3.583404E-14	NaN
1206	1.000000	0.453009	7.37684e+06	-55289.1	1105.82	-29737.6	0.000000	0.000000	6.452913	0.047549	NaN	0.000000	0.001578	0.001653	28.0832	0.042418	0.002090	20.2929	81.1493	12.7373	-0.010573	0.451635	-0.843181	-0.844554	0.047549	20.2929	-0.844938	-1.828865E+11	-2.599920E-13	NaN
1206	1.000000	0.503054	7.37684e+06	-55289.1	1105.82	-29737.6	0.000000	0.000000	6.502954	-0.048495	NaN	0.000000	0.001558	0.001665	28.0815	0.010318	0.001930	5.346485	-95.0882	-164.102	-0.026312	0.501721	-0.793136	-0.794468	-0.048495	5.346485	-0.786333	-2.932755E+10	1.653581E-12	NaN
1206	1.000000	0.553049	7.37684e+06	-55289.1	1105.82	-29737.6	0.000000	0.000000	6.552951	0.009435	NaN	0.000000	0.001539	0.001658	28.0817	0.043644	0.001891	23.0747	-102.314	11.4474	0.057858	0.551711	-0.743141	-0.744478	0.009435	23.0747	-0.743447	-7.656080E+9	-1.232348E-12	NaN
1206	1.000000	0.603050	7.37684e+06	-55289.1	1105.82	-29737.6	0.000000	0.000000	6.602952	0.019528	NaN	0.000000	0.001551	0.001674	28.0819	0.048044	0.002107	22.7983	173.612	-168.25	0.001271	0.601752	-0.693140	-0.694437	0.019528	22.7983	-0.693782	-1.609168E+9	-1.213539E-11	NaN
1206	1.000000	0.653074	7.37684e+06	-55289.1	1105.82	-29737.6	0.000000	0.000000	6.652976	0.002102	NaN	0.000000	0.001564	0.001655	28.0832	0.018428	0.002070	8.903446	-130.708	12.1861	0.018594	0.651761	-0.643116	-0.644428	0.002102	8.903446	-0.643293	-3.276881E+8	-6.413466E-12	NaN
1206	1.000000	0.703114	7.37684e+06	-55289.1	1105.82	-29737.6	0.000000	0.000000	6.703014	-0.046265	NaN	0.000000	0.001477	0.001655	28.0828	0.095186	0.001973	48.2478	38.9647	-166.141	-0.077573	0.701768	-0.593076	-0.594421	-0.046265	48.2478	-0.592356	-6.533566E+7	7.081156E-10	NaN
1206	1.000000	0.753110	7.37684e+06	-55289.1	1105.82	-29737.6	0.000000	0.000000	6.753013	0.020531	NaN	0.000000	0.001567	0.001638	28.0827	0.097114	0.002092	46.4156	-135.305	13.3129	0.035824	0.751784	-0.543080	-0.544406	0.020531	46.4156	-0.543412	-1.376137E+7	-1.491904E-9	NaN
1206	1.000000	0.803146	7.37684e+06	-55289.1	1105.82	-29737.6	0.000000	0.000000	6.803049	0.007997	NaN	0.000000	0.001576	0.001668	28.0812	0.055638	0.002041	27.2597	83.5799	-164.827	0.035009	0.801853	-0.493043	-0.494337	0.007997	27.2597	-0.493263	-2.76045e+06	-2.896834E-9	NaN
1206	1.000000	0.853159	7.37684e+06	-55289.1	1105.82	-29737.6	0.000000	0.000000	6.853063	0.031228	NaN	0.000000	0.001576	0.001694	28.0812	0.130577	0.002020	64.6521	-46.108	12.0027	-0.071301	0.851821	-0.443030	-0.444368	0.031228	64.6521	-0.443393	-551095	-5.666450E-8	NaN
1206	1.000000	0.903199	7.37684e+06	-55289.1	1105.82	-29737.6	0.000000	0.000000	6.903101	0.003874	NaN	0.000000	0.001570	0.001704	28.0815	0.057359	0.002006	28.6006	133.77	-160.979	-0.067394	0.901865	-0.392991	-0.394324	0.003874	28.6006	-0.393092	-106507	-3.637734E-8	NaN
1206	1.000000	0.953217	7.37684e+06	-55289.1	1105.82	-29737.6	0.000000	0.000000	6.953120	0.015779	NaN	0.000000	0.001535	0.001675	28.0826	0.128011	0.002121	60.3542	-155.023	15.3582	0.053159	0.951850	-0.342972	-0.344340	0.015779	60.3542	-0.343168	-20309.8	-7.769338E-7	NaN
1206	1.000000	1.003204	7.37684e+06	-55289.1	1105.82	-29737.6	0.000000	0.000000	7.003109	0.078957	NaN	0.000000	0.001527	0.001653	28.0825	0.050094	0.001986	25.2226	-36.1396	-162.184	0.051991	1.001925	-0.292986	-0.294264	0.078957	25.2226	-0.295333	-4009.27	-1.969357E-5	NaN
1206	1.000000	1.053240	7.37684e+06	-55289.1	1105.82	-29737.6	0.000000	0.000000	7.053145	0.062982	NaN	0.000000	0.001539	0.001727	28.0813	0.133077	0.002017	65.9793	25.5832	15.4831	0.013723	1.051926	-0.242949	-0.244264	0.062982	65.9793	-0.243665	-655.68	-9.605631E-5	NaN
1206	1.000000	1.103262	7.37684e+06	-55289.1	1105.82	-29737.6	0.000000	0.000000	7.103165	0.032254	NaN	0.000000	0.001554	0.001749	28.0817	0.061244	0.002005	30.5519	47.6038	-165.753	0.145257	1.101927	-0.192927	-0.194263	0.032254	30.5519	-0.193719	-103.744	-0.000311	NaN
1206	1.000000	1.153307	7.37684e+06	-55289.1	1105.82	-29737.6	0.000000	0.000000	7.153211	0.060712	NaN	0.000000	0.001553	0.001770	28.0815	0.089030	0.002143	41.5461	-6.770544	16.8999	0.107877	1.151910	-0.142883	-0.144279	0.060712	41.5461	-0.143979	-14.0362	-0.004325	NaN
1206	1.000000	1.203341	7.37684e+06	-55289.1	1105.82	-29737.6	0.000000	0.000000	7.203262	0.457727	NaN	0.000000	0.001524	0.001773	28.0827	0.332349	0.002045	162.548	27.0059	-165.779	0.443262	1.201993	-0.092848	-0.094196	0.457727	162.548	-0.094960	-1.407695	-0.325161	NaN
1206	1.000000	1.253348	7.37684e+06	-55289.1	1105.82	-29737.6	0.000000	0.000000	7.253313	1.518072	NaN	0.000000	0.001466	0.001765	28.083	0.829816	0.001932	429.412	27.9636	11.6906	1.480358	1.252008	-0.042841	-0.044181	1.518072	429.412	-0.045493	-0.066537	-22.8154	NaN
1206	1.000000	1.303359	7.37684e+06	-55289.1	1105.82	-29737.6	0.000000	0.000000	7.303392	3.191376	NaN	0.000000	0.001558	0.001779	28.0827	1.220843	0.002003	609.357	22.3052	-165.451	3.090036	1.302084	0.007169	0.005895	3.191376	609.357	0.003241	0.002584	1235.11	10952.4
1206	1.000000	1.353381	7.37684e+06	-55289.1	1105.82	-29737.6	0.000000	0.000000	7.353547	6.430064	NaN	0.000000	0.001565	0.001736	28.081	1.718359	0.001999	859.712	18.6639	10.9291	6.219494	1.352050	0.057191	0.055860	6.430064	859.712	0.051582	0.097365	66.0407	2517.24
1206	2.000000	1.388951	7.37684e+06	-55289.1	1105.82	-29737.6	0.000000	0.000000	7.389186	8.101634	NaN	0.000000	0.001571	0.001729	28.0816	2.527284	0.001948	1297.5	13.149	-164.476	8.091732	1.388605	0.092761	0.092416	8.101634	1297.5	0.088078	0.245306	33.0267	2393.46
1206	2.000000	1.401397	7.37684e+06	-55289.1	1105.82	-29737.6	0.000000	0.000000	7.401691	9.531623	NaN	0.000000	0.001543	0.001752	28.0825	3.055073	0.002035	1501.13	17.1973	9.407015	9.481744	1.401035	0.105207	0.104846	9.531623	1501.13	0.100445	0.309553	30.7916	2465.04
1206	2.000000	1.413874	7.37684e+06	-55289.1	1105.82	-29737.6	0.000000	0.000000	7.414234	11.1174	NaN	0.000000	0.001590	0.001757	28.0831	3.536962	0.002019	1752.16	14.91	-166.882	11.2367	1.413610	0.117685	0.117421	11.1174	1752.16	0.112926	0.381447	29.1454	2591.97
1206	2.000000	1.426380	7.37684e+06	-55289.1	1105.82	-29737.6	0.000000	0.000000	7.426829	13.2868	NaN	0.000000	0.001552	0.001700	28.083	4.185874	0.002072	2019.91	17.3553	10.2137	13.3207	1.426036	0.130191	0.129847	13.2868	2019.91	0.125257	0.459417	28.921	2722.71
1206	2.000000	1.438874	7.37684e+06	-55289.1	1105.82	-29737.6	0.000000	0.000000	7.439410	15.4083	NaN	0.000000	0.001585	0.001738	28.0816	4.875208	0.002011	2423.76	13.1746	-167.954	15.4416	1.438543	0.142685	0.142353	15.4083	2423.76	0.137917	0.546671	28.1857	2995.02
1206	2.000000	1.451323	7.37684e+06	-55289.1	1105.82	-29737.6	0.000000	0.000000	7.451971	18.1421	NaN	0.000000	0.001542	0.001726	28.0816	5.484436	0.001897	2890.53	14.8038	9.643557	17.9577	1.450971	0.155133	0.154781	18.1421	2890.53	0.150426	0.640135	28.341	3300.77
1206	2.000000	1.463828	7.37684e+06	-55289.1	1105.82	-29737.6	0.000000	0.000000	7.464578	20.6124	NaN	0.000000	0.001533	0.001763	28.0821	6.148888	0.002066	2976.01	12.6829	-170.107	20.8482	1.463527	0.167638	0.167338	20.6124	2976.01	0.162444	0.736794	27.9759	3167.62
1206	2.000000	1.476297	7.37684e+06	-55289.1	1105.82	-29737.6	0.000000	0.000000	7.477164	23.4444	NaN	0.000000	0.001520	0.001725	28.0832	6.582002	0.001997	3295.59	10.187	12.102	23.2338	1.475973	0.180108	0.179784	23.4444	3295.59	0.174772	0.843049	27.8091	3279.29
1206	2.000000	1.482318	7.37684e+06	-55289.1	1105.82	-29737.6	0.000000	0.000000	7.483206	23.9706	NaN	0.000000	0.001573	0.001736	28.0829	6.774798	0.002079	3258.06	11.4547	11.7432	23.9307	1.481978	0.186129	0.185788	23.9706	3258.06	0.180611	0.895904	26.7558	3144.86