File: remote_trans/data/nanoindenter/0828-1/data/Data_2025-08-06,11h17m57s/2025-07-22_16-23-58_1_176.txt
2025-07-22, 16:23:58, 1
Index	Phase	Displacement	Time	Pos X	Pos Y	Pos Z	Rot A	Rot B	Piezo Z	Force A	Force B	Gripper	Voltage A	Voltage B	Temperature	Amplitude force	Amplitude pos	Stiffness	Phase shift	Phase excitation	Force A raw	Displacement raw	HMax	HMax raw	Real Force	Real Stiffness	Contact Depth	Area	Hardness	Reduced Mod.
[#]	[#]	[um]	[s]	[um]	[um]	[um]	[m°]	[m°]	[um]	[uN]	[uN]	[V]	[V]	[V]	[°C]	[uN]	[um]	[N/m]	[°]	[°]	[uN]	[um]	[um]	[um]	[uN]	[N/m]	[um]	[um^2]	[MPa]	[MPa]
176	1.000000	0.002763	7.36676e+06	-47439.1	955.818	-29766.4	0.000000	0.000000	6.002766	0.009108	NaN	0.000000	0.001615	0.001700	28.0837	0.039000	0.000983	39.6867	-124.852	-164.768	0.009393	0.001554	-1.094408	-1.095618	0.009108	39.6867	-1.094580	-4.239409E+14	-2.148509E-17	NaN
176	1.000000	0.044787	7.36676e+06	-47439.1	955.819	-29766.4	0.000000	0.000000	6.044789	-0.004463	NaN	0.000000	0.001570	0.001679	28.0875	0.045748	0.001985	23.051	118.435	13.1461	-0.017659	0.043390	-1.052384	-1.053781	-0.004463	23.051	-1.052239	-1.144220E+14	3.900275E-17	NaN
176	1.000000	0.086765	7.36676e+06	-47439.1	955.819	-29766.4	0.000000	0.000000	6.086767	-0.023554	NaN	0.000000	0.001575	0.001670	28.1269	0.105906	0.001956	54.1445	38.4177	-164.446	0.005544	0.085481	-1.010406	-1.011690	-0.023554	54.1445	-1.010079	-3.100639E+13	7.596615E-16	NaN
176	1.000000	0.128769	7.36676e+06	-47439.1	955.819	-29766.4	0.000000	0.000000	6.128774	0.063491	NaN	0.000000	0.001600	0.001662	28.1095	0.037217	0.002136	17.4216	-128.834	15.5092	0.036350	0.127395	-0.968402	-0.969776	0.063491	17.4216	-0.971136	-9.267641E+12	-6.850851E-15	NaN
176	1.000000	0.170780	7.36676e+06	-47439.1	955.819	-29766.4	0.000000	0.000000	6.170780	-0.060399	NaN	0.000000	0.001627	0.001710	28.082	0.089398	0.001981	45.1166	-141.246	-163.63	-0.035983	0.169438	-0.926392	-0.927734	-0.060399	45.1166	-0.925388	-2.238409E+12	2.698319E-14	NaN
176	1.000000	0.212810	7.36676e+06	-47439.1	955.819	-29766.4	0.000000	0.000000	6.212810	-0.051641	NaN	0.000000	0.001580	0.001671	28.0885	0.052748	0.002046	25.7785	36.7239	12.33	0.029731	0.211439	-0.884361	-0.885732	-0.051641	25.7785	-0.882859	-5.961641E+11	8.662209E-14	NaN
176	1.000000	0.254825	7.36676e+06	-47439.1	955.819	-29766.4	0.000000	0.000000	6.254828	0.020908	NaN	0.000000	0.001586	0.001717	28.1279	0.044333	0.002005	22.1168	-64.8357	-169.022	0.012830	0.253522	-0.842346	-0.843649	0.020908	22.1168	-0.843055	-1.724580E+11	-1.212328E-13	NaN
176	1.000000	0.296868	7.36676e+06	-47439.1	955.819	-29766.4	0.000000	0.000000	6.296868	-0.047875	NaN	0.000000	0.001594	0.001721	28.1108	0.075922	0.001966	38.6266	127.709	15.878	-0.063554	0.295500	-0.800303	-0.801671	-0.047875	38.6266	-0.799374	-4.409218E+10	1.085801E-12	NaN
176	1.000000	0.338861	7.36676e+06	-47439.1	955.819	-29766.4	0.000000	0.000000	6.338862	-0.034475	NaN	0.000000	0.001581	0.001705	28.0787	0.023835	0.001973	12.0799	170.504	-166.531	-0.036580	0.337572	-0.758310	-0.759599	-0.034475	12.0799	-0.756170	-1.140738E+10	3.022166E-12	NaN
176	1.000000	0.380869	7.36676e+06	-47439.1	955.819	-29766.4	0.000000	0.000000	6.380873	0.024991	NaN	0.000000	0.001559	0.001712	28.0878	0.100520	0.001980	50.7796	-95.263	15.6851	0.024529	0.379516	-0.716302	-0.717655	0.024991	50.7796	-0.716671	-3.304222E+9	-7.563443E-12	NaN
176	1.000000	0.422900	7.36676e+06	-47439.1	955.819	-29766.4	0.000000	0.000000	6.422902	-0.025884	NaN	0.000000	0.001582	0.001682	28.1259	0.011403	0.001983	5.749346	104.885	-166.025	-0.041392	0.421519	-0.674271	-0.675652	-0.025884	5.749346	-0.670894	-7.827662E+8	3.306782E-11	NaN
176	1.000000	0.464915	7.36676e+06	-47439.1	955.818	-29766.4	0.000000	0.000000	6.464919	0.020450	NaN	0.000000	0.001615	0.001695	28.1132	0.031326	0.001887	16.5988	-71.1742	13.4391	-0.008383	0.463559	-0.632256	-0.633612	0.020450	16.5988	-0.633180	-2.380598E+8	-8.590138E-11	NaN
176	1.000000	0.506915	7.36676e+06	-47439.1	955.819	-29766.4	0.000000	0.000000	6.506917	-0.012807	NaN	0.000000	0.001614	0.001688	28.0806	0.097770	0.001992	49.0697	8.555055	-163.221	-0.044005	0.505617	-0.590256	-0.591554	-0.012807	49.0697	-0.590060	-6.074306E+7	2.108359E-10	NaN
176	1.000000	0.548964	7.36676e+06	-47439.1	955.818	-29766.4	0.000000	0.000000	6.548967	-0.000735	NaN	0.000000	0.001547	0.001703	28.0874	0.039809	0.001991	19.9959	-177.78	13.9766	-0.036767	0.547576	-0.548207	-0.549595	-0.000735	19.9959	-0.548179	-1.602268E+7	4.589852E-11	NaN
176	1.000000	0.590981	7.36676e+06	-47439.1	955.819	-29766.4	0.000000	0.000000	6.590985	0.043289	NaN	0.000000	0.001549	0.001696	28.1256	0.050828	0.002022	25.1396	-156.277	-163.586	0.036308	0.589676	-0.506190	-0.507495	0.043289	25.1396	-0.507482	-4.35845e+06	-9.932231E-9	NaN
176	1.000000	0.632991	7.36676e+06	-47439.1	955.818	-29766.4	0.000000	0.000000	6.632993	-0.021729	NaN	0.000000	0.001578	0.001645	28.1129	0.114031	0.001918	59.4564	50.8846	14.2445	0.018710	0.631663	-0.464180	-0.465509	-0.021729	59.4564	-0.463906	-1.07123e+06	2.028459E-8	NaN
176	1.000000	0.675008	7.36676e+06	-47439.1	955.818	-29766.4	0.000000	0.000000	6.675008	-0.070596	NaN	0.000000	0.001607	0.001658	28.0796	0.119367	0.002000	59.6732	101.605	-163.952	-0.015863	0.673719	-0.422163	-0.423452	-0.070596	59.6732	-0.421276	-268228	2.631950E-7	NaN
176	1.000000	0.717014	7.36676e+06	-47439.1	955.819	-29766.4	0.000000	0.000000	6.717016	-0.013947	NaN	0.000000	0.001611	0.001694	28.0863	0.045825	0.001963	23.3464	-71.731	15.2801	-0.022091	0.715683	-0.380157	-0.381488	-0.013947	23.3464	-0.379709	-68503.7	2.035945E-7	NaN
176	1.000000	0.759022	7.36676e+06	-47439.1	955.819	-29766.4	0.000000	0.000000	6.759024	0.002320	NaN	0.000000	0.001654	0.001711	28.1265	0.102879	0.002015	51.061	-170.626	-163.729	-0.019003	0.757725	-0.338149	-0.339446	0.002320	51.061	-0.338183	-17181.6	-1.350448E-7	NaN
176	1.000000	0.801051	7.36676e+06	-47439.1	955.819	-29766.4	0.000000	0.000000	6.801049	-0.115654	NaN	0.000000	0.001619	0.001783	28.1147	0.096530	0.001885	51.2001	90.5988	14.7103	-0.062704	0.799718	-0.296120	-0.297454	-0.115654	51.2001	-0.294426	-3886.08	2.976121E-5	NaN
176	1.000000	0.843072	7.36676e+06	-47439.1	955.818	-29766.4	0.000000	0.000000	6.843073	-0.027040	NaN	0.000000	0.001614	0.001705	28.0801	0.039634	0.001794	22.0959	-143.399	-164.495	0.016473	0.841788	-0.254100	-0.255383	-0.027040	22.0959	-0.253182	-920.664	2.936970E-5	NaN
176	1.000000	0.885102	7.36676e+06	-47439.1	955.819	-29766.4	0.000000	0.000000	6.885104	-0.030008	NaN	0.000000	0.001630	0.001680	28.0852	0.022718	0.002017	11.2612	-87.2256	14.3434	-0.035437	0.883742	-0.212069	-0.213429	-0.030008	11.2612	-0.210070	-192.29	0.000156	NaN
176	1.000000	0.927084	7.36676e+06	-47439.1	955.819	-29766.4	0.000000	0.000000	6.927084	-0.064362	NaN	0.000000	0.001569	0.001703	28.125	0.054316	0.002067	26.2718	-55.1691	-163.454	-0.053335	0.925801	-0.170087	-0.171370	-0.064362	26.2718	-0.168250	-38.2972	0.001681	NaN
176	1.000000	0.969141	7.36676e+06	-47439.1	955.819	-29766.4	0.000000	0.000000	6.969145	0.025576	NaN	0.000000	0.001615	0.001677	28.1136	0.124306	0.002093	59.3953	153.652	15.033	-0.009602	0.967762	-0.128030	-0.129409	0.025576	59.3953	-0.128353	-7.078117	-0.003613	NaN
176	1.000000	1.011155	7.36676e+06	-47439.1	955.82	-29766.4	0.000000	0.000000	7.011159	0.059124	NaN	0.000000	0.001640	0.001706	28.0834	0.065921	0.002115	31.1713	-73.1982	-164.455	0.082936	1.009836	-0.086017	-0.087336	0.059124	31.1713	-0.087439	-0.940289	-0.062879	NaN
176	1.000000	1.053154	7.36676e+06	-47439.1	955.82	-29766.4	0.000000	0.000000	7.053154	-0.049870	NaN	0.000000	0.001636	0.001717	28.085	0.061179	0.002023	30.2347	112.557	16.4173	-0.005884	1.051783	-0.044017	-0.045388	-0.049870	30.2347	-0.042780	-0.054968	0.907259	NaN
176	1.000000	1.095201	7.36676e+06	-47439.1	955.819	-29766.4	0.000000	0.000000	7.095202	-0.028926	NaN	0.000000	0.001567	0.001648	28.1257	0.057233	0.002070	27.6459	-90.4052	-164.19	-0.078379	1.093874	-0.001970	-0.003298	-0.028926	27.6459	-0.001186	-0.000866	33.3937	NaN
176	2.000000	1.116163	7.36676e+06	-47439.1	955.819	-29766.4	0.000000	0.000000	7.117008	20.5076	NaN	0.000000	0.001613	0.001726	28.1141	16.9306	0.001805	9378.4	3.922540	7.414206	18.9319	1.115822	0.018992	0.018651	20.5076	9378.4	0.017352	0.018550	1105.51	62910.9
176	2.000000	1.126634	7.36676e+06	-47439.1	955.819	-29766.4	0.000000	0.000000	7.128627	48.4221	NaN	0.000000	0.001592	0.001690	28.0827	28.3744	0.001861	15245	7.791084	179.007	47.3914	1.126285	0.029463	0.029114	48.4221	15245	0.027081	0.034910	1387.06	74546.4
176	2.000000	1.137084	7.36676e+06	-47439.1	955.821	-29766.4	0.000000	0.000000	7.140512	83.3268	NaN	0.000000	0.001582	0.001676	28.0858	38.329	0.001763	21742.4	5.332927	-2.339059	81.5515	1.136683	0.039913	0.039512	83.3268	21742.4	0.037038	0.056599	1472.24	83498.3
176	2.000000	1.147549	7.36676e+06	-47439.1	955.82	-29766.4	0.000000	0.000000	7.152921	130.593	NaN	0.000000	0.001621	0.001715	28.125	49.1529	0.001773	27723.4	4.843312	176.118	128.046	1.147270	0.050378	0.050099	130.593	27723.4	0.046845	0.082912	1575.08	87965.1
176	2.000000	1.158029	7.36676e+06	-47439.1	955.82	-29766.4	0.000000	0.000000	7.165434	180.072	NaN	0.000000	0.001587	0.001736	28.1161	57.5487	0.001682	34211.4	2.755788	-3.351634	175.859	1.157794	0.060857	0.060622	180.072	34211.4	0.056910	0.114961	1566.38	92186.8
176	2.000000	1.168722	7.36676e+06	-47439.1	955.82	-29766.4	0.000000	0.000000	7.178673	241.984	NaN	0.000000	0.001574	0.001690	28.0831	69.9247	0.001947	35917.8	6.341875	174.139	246.769	1.168149	0.071550	0.070978	241.984	35917.8	0.066498	0.150133	1611.8	84692.6
176	2.000000	1.178991	7.36676e+06	-47439.1	955.82	-29766.4	0.000000	0.000000	7.191300	299.353	NaN	0.000000	0.001578	0.001688	28.0836	79.923	0.001778	44959.8	5.078292	-7.730741	295.108	1.178772	0.081820	0.081601	299.353	44959.8	0.076826	0.192958	1551.39	93511.7
176	2.000000	1.189489	7.36676e+06	-47439.1	955.821	-29766.4	0.000000	0.000000	7.204897	374.721	NaN	0.000000	0.001632	0.001745	28.1229	87.9573	0.001851	47517.3	5.377235	172.237	371.033	1.189182	0.092318	0.092010	374.721	47517.3	0.086404	0.237143	1580.15	89149.7
176	2.000000	1.199957	7.36676e+06	-47439.1	955.82	-29766.4	0.000000	0.000000	7.218740	456.808	NaN	0.000000	0.001611	0.001738	28.1157	96.6573	0.001793	53900.7	1.891949	-5.551854	449.165	1.199632	0.102786	0.102461	456.808	53900.7	0.096430	0.287928	1586.54	91775.3
176	2.000000	1.207484	7.36676e+06	-47439.1	955.82	-29766.4	0.000000	0.000000	7.228779	517.901	NaN	0.000000	0.001621	0.001718	28.1227	103.644	0.001778	58296	3.697335	172.132	514.148	1.207114	0.110313	0.109942	517.901	58296	0.103650	0.327337	1582.16	93092.4