File: remote_trans/data/nanoindenter/0828-1/data/Data_2025-08-06,11h17m57s/2025-07-22_16-23-58_1_1103.txt
2025-07-22, 16:23:58, 1
Index	Phase	Displacement	Time	Pos X	Pos Y	Pos Z	Rot A	Rot B	Piezo Z	Force A	Force B	Gripper	Voltage A	Voltage B	Temperature	Amplitude force	Amplitude pos	Stiffness	Phase shift	Phase excitation	Force A raw	Displacement raw	HMax	HMax raw	Real Force	Real Stiffness	Contact Depth	Area	Hardness	Reduced Mod.
[#]	[#]	[um]	[s]	[um]	[um]	[um]	[m°]	[m°]	[um]	[uN]	[uN]	[V]	[V]	[V]	[°C]	[uN]	[um]	[N/m]	[°]	[°]	[uN]	[um]	[um]	[um]	[uN]	[N/m]	[um]	[um^2]	[MPa]	[MPa]
1103	1.000000	0.002637	7.37584e+06	-55289.1	1055.82	-29742	0.000000	0.000000	6.004069	8.469081	NaN	0.000000	0.001654	0.001676	28.0834	2.704147	0.000840	3220.68	16.0518	-169.541	5.402946	0.001446	2.117845	2.116654	8.469081	3220.68	2.115872	115.167	0.073537	274.193
1103	2.000000	0.007029	7.37584e+06	-55289.1	1055.82	-29742	0.000000	0.000000	6.008408	7.164355	NaN	0.000000	0.001623	0.001642	28.0847	5.340308	0.001425	3748.79	6.916841	-172.974	7.195143	0.006858	2.122237	2.122066	7.164355	3748.79	2.120804	115.705	0.061919	318.412
1103	2.000000	0.009997	7.37584e+06	-55289.1	1055.82	-29742	0.000000	0.000000	6.011441	8.744174	NaN	0.000000	0.001650	0.001676	28.0821	5.617908	0.001560	3600.69	0.351707	-167.883	8.339131	0.009631	2.125205	2.124838	8.744174	3600.69	2.123384	115.986	0.075390	305.461
1103	2.000000	0.012942	7.37584e+06	-55289.1	1055.82	-29742	0.000000	0.000000	6.014377	8.523184	NaN	0.000000	0.001649	0.001655	28.0815	7.225680	0.001755	4116.86	11.2219	-171.244	8.359450	0.012626	2.128150	2.127834	8.523184	4116.86	2.126597	116.338	0.073263	348.722
1103	2.000000	0.015936	7.37584e+06	-55289.1	1055.82	-29742	0.000000	0.000000	6.017339	7.743191	NaN	0.000000	0.001612	0.001693	28.0814	6.596524	0.001913	3448.75	15.5547	-170.978	7.916451	0.015620	2.131144	2.130828	7.743191	3448.75	2.129460	116.651	0.066379	291.737
1103	2.000000	0.018921	7.37584e+06	-55289.1	1055.82	-29742	0.000000	0.000000	6.020304	7.264832	NaN	0.000000	0.001661	0.001641	28.0815	6.650328	0.002103	3162.15	7.875885	-172.492	7.283247	0.018632	2.134129	2.133840	7.264832	3162.15	2.132406	116.974	0.062106	267.123
1103	2.000000	0.021888	7.37584e+06	-55289.1	1055.82	-29742	0.000000	0.000000	6.023348	9.128607	NaN	0.000000	0.001648	0.001652	28.0826	7.036048	0.002004	3511.31	1.241264	-167.427	8.779585	0.021562	2.137096	2.136770	9.128607	3511.31	2.135146	117.275	0.077840	296.238
1103	2.000000	0.024886	7.37584e+06	-55289.1	1055.82	-29742	0.000000	0.000000	6.026272	7.338263	NaN	0.000000	0.001626	0.001682	28.0827	7.547264	0.001926	3919.36	13.7672	-173.713	7.690272	0.024594	2.140093	2.139802	7.338263	3919.36	2.138689	117.664	0.062366	330.115
1103	2.000000	0.027871	7.37584e+06	-55289.1	1055.82	-29742	0.000000	0.000000	6.029313	8.681991	NaN	0.000000	0.001660	0.001692	28.0826	6.887436	0.001994	3454.39	12.7185	-171.059	8.754087	0.027562	2.143079	2.142770	8.681991	3454.39	2.141194	117.94	0.073614	290.612
1103	2.000000	0.030862	7.37584e+06	-55289.1	1055.82	-29742	0.000000	0.000000	6.032313	8.916979	NaN	0.000000	0.001662	0.001693	28.0827	7.425589	0.002067	3592.73	8.635744	-174.211	8.641365	0.030562	2.146070	2.145770	8.916979	3592.73	2.144208	118.272	0.075394	301.826
1103	2.000000	0.033881	7.37584e+06	-55289.1	1055.82	-29742	0.000000	0.000000	6.035289	7.880806	NaN	0.000000	0.001663	0.001726	28.0825	7.095721	0.002017	3518.28	0.845001	-167.752	7.514504	0.033598	2.149089	2.148805	7.880806	3518.28	2.147409	118.626	0.066434	295.13
1103	2.000000	0.036869	7.37584e+06	-55289.1	1055.82	-29742	0.000000	0.000000	6.038284	8.053384	NaN	0.000000	0.001687	0.001688	28.0823	6.606614	0.001945	3397.2	13.1985	-174.137	7.609449	0.036577	2.152076	2.151784	8.053384	3397.2	2.150298	118.945	0.067707	284.591
1103	2.000000	0.039888	7.37584e+06	-55289.1	1055.82	-29742	0.000000	0.000000	6.041336	8.866927	NaN	0.000000	0.001728	0.001672	28.0825	6.697925	0.001973	3394.52	9.320214	-171.87	8.825025	0.039580	2.155095	2.154788	8.866927	3394.52	2.153136	119.259	0.074350	283.992
1103	2.000000	0.042895	7.37584e+06	-55289.1	1055.82	-29742	0.000000	0.000000	6.044302	7.850336	NaN	0.000000	0.001703	0.001656	28.0827	7.172096	0.002067	3469.74	9.601044	-171.231	9.244302	0.042563	2.158103	2.157771	7.850336	3469.74	2.156406	119.622	0.065626	289.844
1103	2.000000	0.045886	7.37584e+06	-55289.1	1055.82	-29742	0.000000	0.000000	6.047247	6.733323	NaN	0.000000	0.001642	0.001699	28.0823	6.551613	0.002123	3086.5	9.060772	-169.644	7.710884	0.045676	2.161093	2.160884	6.733323	3086.5	2.159457	119.961	0.056129	257.466
1103	2.000000	0.048860	7.37584e+06	-55289.1	1055.82	-29742	0.000000	0.000000	6.050211	6.486765	NaN	0.000000	0.001651	0.001683	28.0825	7.325104	0.002054	3566.24	5.962928	-171.542	6.185273	0.048519	2.164067	2.163726	6.486765	3566.24	2.162703	120.321	0.053912	297.039
1103	2.000000	0.051857	7.37584e+06	-55289.1	1055.82	-29742	0.000000	0.000000	6.053227	6.947936	NaN	0.000000	0.001657	0.001678	28.0825	7.289752	0.002117	3443.3	9.626229	-169.294	7.137439	0.051501	2.167065	2.166709	6.947936	3443.3	2.165551	120.639	0.057593	286.421
1103	2.000000	0.054842	7.37584e+06	-55289.1	1055.82	-29742	0.000000	0.000000	6.056196	6.574258	NaN	0.000000	0.001682	0.001674	28.0827	7.047442	0.002046	3445.12	14.0074	-170.575	6.679114	0.054524	2.170049	2.169732	6.574258	3445.12	2.168618	120.981	0.054341	286.167
1103	2.000000	0.057874	7.37584e+06	-55289.1	1055.82	-29742	0.000000	0.000000	6.059219	6.330037	NaN	0.000000	0.001633	0.001681	28.0816	6.973534	0.001915	3641.52	10.1145	-172.119	6.404961	0.057588	2.173082	2.172795	6.330037	3641.52	2.171778	121.333	0.052171	302.041
1103	2.000000	0.060850	7.37584e+06	-55289.1	1055.82	-29742	0.000000	0.000000	6.062228	7.135863	NaN	0.000000	0.001638	0.001683	28.0816	6.671796	0.002076	3213.77	3.117170	-172.531	7.552498	0.060578	2.176058	2.175786	7.135863	3213.77	2.174392	121.626	0.058671	266.242
1103	2.000000	0.063833	7.37584e+06	-55289.1	1055.82	-29742	0.000000	0.000000	6.065213	7.201268	NaN	0.000000	0.001621	0.001648	28.0813	7.032218	0.001860	3780.5	6.418931	-165.912	7.121432	0.063517	2.179041	2.178725	7.201268	3780.5	2.177612	121.986	0.059034	312.728
1103	2.000000	0.066838	7.37584e+06	-55289.1	1055.82	-29742	0.000000	0.000000	6.068237	7.653509	NaN	0.000000	0.001655	0.001643	28.0815	6.615783	0.002164	3057.84	18.3701	-171.964	7.940392	0.066524	2.182046	2.181732	7.653509	3057.84	2.180168	122.273	0.062594	252.652
1103	2.000000	0.069818	7.37584e+06	-55289.1	1055.82	-29742	0.000000	0.000000	6.071225	7.840104	NaN	0.000000	0.001632	0.001664	28.0813	7.176559	0.001883	3811.82	9.845552	-172.681	7.993330	0.069552	2.185026	2.184759	7.840104	3811.82	2.183483	122.645	0.063925	314.472
1103	2.000000	0.072841	7.37584e+06	-55289.1	1055.82	-29742	0.000000	0.000000	6.074200	6.682325	NaN	0.000000	0.001652	0.001677	28.0811	6.762544	0.001941	3483.29	7.559983	-172.251	7.071449	0.072523	2.188049	2.187731	6.682325	3483.29	2.186610	122.996	0.054329	286.957
1103	2.000000	0.075826	7.37584e+06	-55289.1	1055.82	-29742	0.000000	0.000000	6.077221	7.564415	NaN	0.000000	0.001660	0.001681	28.0811	6.974338	0.001894	3682.53	8.705652	-169.738	6.861943	0.075508	2.191034	2.190715	7.564415	3682.53	2.189493	123.321	0.061339	302.971
1103	2.000000	0.078817	7.37584e+06	-55289.1	1055.82	-29742	0.000000	0.000000	6.080209	7.499440	NaN	0.000000	0.001636	0.001700	28.0815	6.808556	0.001999	3406.35	14.0785	-173.222	7.609720	0.078502	2.194024	2.193710	7.499440	3406.35	2.192373	123.645	0.060653	279.881
1103	2.000000	0.081816	7.37584e+06	-55289.1	1055.82	-29742	0.000000	0.000000	6.083213	7.583228	NaN	0.000000	0.001634	0.001629	28.0817	6.485514	0.001989	3260.28	8.571303	-168.937	8.140141	0.081508	2.197024	2.196715	7.583228	3260.28	2.195280	123.974	0.061168	267.525
1103	2.000000	0.084799	7.37584e+06	-55289.1	1055.82	-29742	0.000000	0.000000	6.086144	6.328877	NaN	0.000000	0.001677	0.001660	28.0815	6.705833	0.001950	3439.42	10.4292	-172.92	6.677103	0.084498	2.200007	2.199706	6.328877	3439.42	2.198627	124.352	0.050895	281.794
1103	2.000000	0.087822	7.37584e+06	-55289.1	1055.82	-29742	0.000000	0.000000	6.089177	6.576502	NaN	0.000000	0.001671	0.001678	28.0811	6.739602	0.001980	3404.34	6.699972	-170.526	7.079640	0.087519	2.203030	2.202727	6.576502	3404.34	2.201581	124.686	0.052744	278.546
1103	2.000000	0.090808	7.37584e+06	-55289.1	1055.82	-29742	0.000000	0.000000	6.092175	6.890920	NaN	0.000000	0.001650	0.001661	28.0826	7.401714	0.001961	3773.88	9.941362	-172.078	7.352209	0.090530	2.206015	2.205738	6.890920	3773.88	2.204646	125.034	0.055113	308.353
1103	2.000000	0.093800	7.37584e+06	-55289.1	1055.82	-29742	0.000000	0.000000	6.095139	6.202520	NaN	0.000000	0.001631	0.001644	28.0822	7.157639	0.001969	3635.14	10.5176	-170.964	5.733762	0.093459	2.209007	2.208667	6.202520	3635.14	2.207728	125.383	0.049468	296.602
1103	2.000000	0.096846	7.37584e+06	-55289.1	1055.82	-29742	0.000000	0.000000	6.098235	7.407189	NaN	0.000000	0.001638	0.001632	28.0825	6.495574	0.001952	3327.61	4.948566	-169.731	7.179132	0.096454	2.212054	2.211662	7.407189	3327.61	2.210384	125.685	0.058934	271.184
1103	2.000000	0.099801	7.37584e+06	-55289.1	1055.82	-29742	0.000000	0.000000	6.101183	7.248952	NaN	0.000000	0.001594	0.001637	28.0824	6.772976	0.001956	3463.06	-0.101888	-168.01	7.451435	0.099524	2.215009	2.214731	7.248952	3463.06	2.213439	126.033	0.057516	281.832
1103	2.000000	0.102332	7.37584e+06	-55289.1	1055.82	-29742	0.000000	0.000000	6.103682	6.455585	NaN	0.000000	0.001646	0.001653	28.0825	6.880432	0.001885	3650.36	11.0374	9.207807	6.541072	0.101909	2.217540	2.217116	6.455585	3650.36	2.216213	126.349	0.051093	296.703