File: remote_trans/data/nanoindenter/0828-1/data/Data_2025-08-06,11h17m57s/2025-07-22_16-23-58_1_1044.txt
2025-07-22, 16:23:58, 1
Index	Phase	Displacement	Time	Pos X	Pos Y	Pos Z	Rot A	Rot B	Piezo Z	Force A	Force B	Gripper	Voltage A	Voltage B	Temperature	Amplitude force	Amplitude pos	Stiffness	Phase shift	Phase excitation	Force A raw	Displacement raw	HMax	HMax raw	Real Force	Real Stiffness	Contact Depth	Area	Hardness	Reduced Mod.
[#]	[#]	[um]	[s]	[um]	[um]	[um]	[m°]	[m°]	[um]	[uN]	[uN]	[V]	[V]	[V]	[°C]	[uN]	[um]	[N/m]	[°]	[°]	[uN]	[um]	[um]	[um]	[uN]	[N/m]	[um]	[um^2]	[MPa]	[MPa]
1044	1.000000	0.002784	7.37526e+06	-52339.1	1055.82	-29749.4	0.000000	0.000000	6.002776	0.018554	NaN	0.000000	0.001591	0.001778	28.0823	0.017905	0.000947	18.9086	-47.906	-161.181	0.030978	0.001561	-0.944702	-0.945925	0.018554	18.9086	-0.945438	-4.173477E+12	-4.445670E-15	NaN
1044	1.000000	0.040760	7.37526e+06	-52339.1	1055.82	-29749.4	0.000000	0.000000	6.040749	-0.078146	NaN	0.000000	0.001577	0.001749	28.0821	0.108044	0.001934	55.8643	-150.002	14.075	-0.043424	0.039432	-0.906726	-0.908055	-0.078146	55.8643	-0.905677	-1.212723E+12	6.443810E-14	NaN
1044	1.000000	0.078789	7.37526e+06	-52339.1	1055.82	-29749.4	0.000000	0.000000	6.078780	-0.006033	NaN	0.000000	0.001541	0.001754	28.0819	0.066127	0.002039	32.4269	100.977	-165.858	-0.043961	0.077475	-0.868697	-0.870011	-0.006033	32.4269	-0.868557	-3.818781E+11	1.579943E-14	NaN
1044	1.000000	0.116803	7.37526e+06	-52339.1	1055.82	-29749.4	0.000000	0.000000	6.116794	-0.010879	NaN	0.000000	0.001548	0.001771	28.0831	0.066499	0.002129	31.2375	87.606	14.5423	-0.028023	0.115351	-0.830683	-0.832135	-0.010879	31.2375	-0.830422	-1.162795E+11	9.356284E-14	NaN
1044	1.000000	0.154804	7.37526e+06	-52339.1	1055.82	-29749.4	0.000000	0.000000	6.154796	0.016990	NaN	0.000000	0.001579	0.001757	28.0831	0.066783	0.002050	32.5756	-161.25	-166.663	0.002101	0.153475	-0.792682	-0.794011	0.016990	32.5756	-0.793074	-3.620962E+10	-4.692113E-13	NaN
1044	1.000000	0.192809	7.37526e+06	-52339.1	1055.82	-29749.4	0.000000	0.000000	6.192800	-0.027854	NaN	0.000000	0.001554	0.001790	28.0832	0.091950	0.002146	42.8397	-86.3824	8.584509	0.002617	0.191459	-0.754677	-0.756027	-0.027854	42.8397	-0.754189	-1.072100E+10	2.598102E-12	NaN
1044	1.000000	0.230832	7.37526e+06	-52339.1	1055.82	-29749.4	0.000000	0.000000	6.230819	-0.092130	NaN	0.000000	0.001551	0.001750	28.0828	0.057244	0.001772	32.2967	96.0373	-165.446	-0.131463	0.229550	-0.716654	-0.717937	-0.092130	32.2967	-0.714515	-3.087817E+9	2.983670E-11	NaN
1044	1.000000	0.268870	7.37526e+06	-52339.1	1055.82	-29749.4	0.000000	0.000000	6.268862	0.017431	NaN	0.000000	0.001608	0.001728	28.0824	0.113407	0.001999	56.7368	-136.117	9.498459	0.066619	0.267489	-0.678617	-0.679997	0.017431	56.7368	-0.678847	-1.005625E+9	-1.733365E-11	NaN
1044	1.000000	0.306924	7.37526e+06	-52339.1	1055.82	-29749.4	0.000000	0.000000	6.306916	0.027503	NaN	0.000000	0.001542	0.001752	28.0821	0.048158	0.001957	24.6054	93.9591	-167.213	0.053805	0.305571	-0.640563	-0.641915	0.027503	24.6054	-0.641401	-3.086816E+8	-8.909854E-11	NaN
1044	1.000000	0.344877	7.37526e+06	-52339.1	1055.82	-29749.4	0.000000	0.000000	6.344866	-0.051246	NaN	0.000000	0.001518	0.001802	28.0819	0.036689	0.001976	18.5685	96.3848	13.8963	-0.026474	0.343507	-0.602609	-0.603979	-0.051246	18.5685	-0.600539	-8.470004E+7	6.050281E-10	NaN
1044	1.000000	0.382903	7.37526e+06	-52339.1	1055.82	-29749.4	0.000000	0.000000	6.382895	0.008332	NaN	0.000000	0.001599	0.001802	28.083	0.017090	0.002108	8.107538	139.811	-165.333	-0.038238	0.381602	-0.564583	-0.565884	0.008332	8.107538	-0.565354	-2.769617E+7	-3.008499E-10	NaN
1044	1.000000	0.420935	7.37526e+06	-52339.1	1055.82	-29749.4	0.000000	0.000000	6.420924	-0.052962	NaN	0.000000	0.001566	0.001798	28.0831	0.008353	0.002061	4.052913	-117.626	14.789	0.048048	0.419526	-0.526551	-0.527960	-0.052962	4.052913	-0.516750	-5.86662e+06	9.027761E-9	NaN
1044	1.000000	0.458936	7.37526e+06	-52339.1	1055.82	-29749.4	0.000000	0.000000	6.458929	0.040829	NaN	0.000000	0.001543	0.001755	28.0834	0.066754	0.001990	33.5423	-48.3659	-167.185	-0.065895	0.457589	-0.488550	-0.489897	0.040829	33.5423	-0.489463	-2.44283e+06	-1.671379E-8	NaN
1044	1.000000	0.496933	7.37526e+06	-52339.1	1055.82	-29749.4	0.000000	0.000000	6.496923	-0.044256	NaN	0.000000	0.001540	0.001747	28.0832	0.115853	0.001884	61.4977	-169.874	11.815	-0.033459	0.495608	-0.450553	-0.451878	-0.044256	61.4977	-0.450013	-683171	6.478089E-8	NaN
1044	1.000000	0.534959	7.37526e+06	-52339.1	1055.82	-29749.4	0.000000	0.000000	6.534946	-0.087841	NaN	0.000000	0.001529	0.001776	28.0819	0.050303	0.002016	24.9494	-67.6976	-166.907	-0.048764	0.533595	-0.412528	-0.413892	-0.087841	24.9494	-0.409887	-184839	4.752274E-7	NaN
1044	1.000000	0.572998	7.37526e+06	-52339.1	1055.82	-29749.4	0.000000	0.000000	6.572990	-0.001827	NaN	0.000000	0.001531	0.001799	28.082	0.037731	0.002005	18.8211	66.1333	13.9567	-0.032241	0.571672	-0.374488	-0.375814	-0.001827	18.8211	-0.374415	-57499	3.177499E-8	NaN
1044	1.000000	0.611018	7.37526e+06	-52339.1	1055.82	-29749.4	0.000000	0.000000	6.611009	-0.013054	NaN	0.000000	0.001515	0.001786	28.0821	0.084315	0.001913	44.0765	-73.4103	-164.609	-0.055409	0.609688	-0.336468	-0.337798	-0.013054	44.0765	-0.336246	-16098.6	8.108761E-7	NaN
1044	1.000000	0.649005	7.37526e+06	-52339.1	1055.82	-29749.4	0.000000	0.000000	6.648995	-0.024163	NaN	0.000000	0.001525	0.001743	28.0825	0.077657	0.002032	38.2159	57.0973	11.7062	-0.053180	0.647710	-0.298481	-0.299776	-0.024163	38.2159	-0.298007	-4394.93	5.497946E-6	NaN
1044	1.000000	0.687046	7.37526e+06	-52339.1	1055.82	-29749.4	0.000000	0.000000	6.687033	-0.108186	NaN	0.000000	0.001519	0.001754	28.0833	0.041363	0.002017	20.5113	61.7235	-170.169	-0.026230	0.685750	-0.260440	-0.261736	-0.108186	20.5113	-0.256484	-1035.03	0.000105	NaN
1044	1.000000	0.725030	7.37526e+06	-52339.1	1055.82	-29749.4	0.000000	0.000000	6.725019	-0.046991	NaN	0.000000	0.001537	0.001770	28.0833	0.052994	0.002034	26.0581	101.457	14.9144	-0.084062	0.723636	-0.222456	-0.223850	-0.046991	26.0581	-0.221104	-289.269	0.000162	NaN
1044	1.000000	0.763055	7.37526e+06	-52339.1	1055.82	-29749.4	0.000000	0.000000	6.763044	-0.046894	NaN	0.000000	0.001545	0.001770	28.0831	0.057698	0.001997	28.8878	32.1368	-167.986	-0.042906	0.761691	-0.184431	-0.185796	-0.046894	28.8878	-0.183214	-69.1795	0.000678	NaN
1044	1.000000	0.801071	7.37526e+06	-52339.1	1055.82	-29749.4	0.000000	0.000000	6.801059	-0.070357	NaN	0.000000	0.001559	0.001768	28.0818	0.133943	0.001948	68.7558	-33.5975	11.3892	-0.039102	0.799721	-0.146416	-0.147765	-0.070357	68.7558	-0.145648	-15.0711	0.004668	NaN
1044	1.000000	0.839086	7.37526e+06	-52339.1	1055.82	-29749.4	0.000000	0.000000	6.839079	0.036762	NaN	0.000000	0.001533	0.001779	28.0817	0.082821	0.002007	41.2666	-28.0387	-165.563	-0.044129	0.837810	-0.108400	-0.109676	0.036762	41.2666	-0.109068	-2.871976	-0.012800	NaN
1044	1.000000	0.877124	7.37526e+06	-52339.1	1055.82	-29749.4	0.000000	0.000000	6.877117	0.057629	NaN	0.000000	0.001544	0.001776	28.0817	0.158871	0.002048	77.5774	56.9113	12.3538	0.070358	0.875756	-0.070363	-0.071730	0.057629	77.5774	-0.070920	-0.360951	-0.159660	NaN
1044	1.000000	0.915123	7.37526e+06	-52339.1	1055.82	-29749.4	0.000000	0.000000	6.915159	1.080456	NaN	0.000000	0.001542	0.001808	28.082	0.501984	0.001910	262.795	22.6047	-164.881	0.992201	0.913810	-0.032363	-0.033677	1.080456	262.795	-0.035447	-0.033012	-32.7296	NaN
1044	1.000000	0.953119	7.37526e+06	-52339.1	1055.82	-29749.4	0.000000	0.000000	6.953209	2.395361	NaN	0.000000	0.001555	0.001799	28.0838	1.364010	0.001948	700.1	19.0325	13.4283	2.273519	0.951780	0.005633	0.004293	2.395361	700.1	0.003067	0.002437	983.087	12958.2
1044	1.000000	0.991125	7.37526e+06	-52339.1	1055.82	-29749.4	0.000000	0.000000	6.991333	5.256200	NaN	0.000000	0.001539	0.001808	28.0828	3.229514	0.001955	1651.93	25.0946	-172.253	5.061846	0.989851	0.043639	0.042365	5.256200	1651.93	0.041253	0.067305	78.0948	5817.54
1044	2.000000	1.011278	7.37526e+06	-52339.1	1055.82	-29749.4	0.000000	0.000000	7.011599	8.030317	NaN	0.000000	0.001607	0.001777	28.0826	5.772025	0.002026	2849.27	16.5085	7.577041	7.945390	1.010959	0.063792	0.063472	8.030317	2849.27	0.061678	0.131894	60.8847	7167.94
1044	2.000000	1.020720	7.37526e+06	-52339.1	1055.82	-29749.4	0.000000	0.000000	7.021144	10.5152	NaN	0.000000	0.001592	0.001785	28.0818	7.203965	0.001947	3699.22	17.5276	-174.761	10.3183	1.020421	0.073234	0.072935	10.5152	3699.22	0.071102	0.168600	62.3674	8231.03
1044	2.000000	1.030193	7.37526e+06	-52339.1	1055.82	-29749.4	0.000000	0.000000	7.030693	12.3643	NaN	0.000000	0.001546	0.001812	28.0822	8.917030	0.002045	4360.16	16.29	6.584997	12.1018	1.029834	0.082707	0.082348	12.3643	4360.16	0.080580	0.209770	58.9422	8697.69
1044	2.000000	1.039708	7.37526e+06	-52339.1	1055.82	-29749.4	0.000000	0.000000	7.040313	14.9286	NaN	0.000000	0.001545	0.001759	28.082	10.4975	0.001921	5464.37	14.5444	-172.578	15.1207	1.039353	0.092222	0.091867	14.9286	5464.37	0.090173	0.255695	58.3843	9873.08
1044	2.000000	1.049155	7.37526e+06	-52339.1	1055.82	-29749.4	0.000000	0.000000	7.049945	19.4287	NaN	0.000000	0.001551	0.001771	28.082	13.4176	0.001833	7320.16	15.0752	3.272122	18.7538	1.048820	0.101669	0.101334	19.4287	7320.16	0.099678	0.305365	63.6244	12102.7
1044	2.000000	1.058660	7.37526e+06	-52339.1	1055.82	-29749.4	0.000000	0.000000	7.059677	24.9324	NaN	0.000000	0.001564	0.001822	28.0831	17.6905	0.001954	9052.6	14.4634	-178.863	24.7409	1.058395	0.111174	0.110909	24.9324	9052.6	0.109108	0.358703	69.5071	13809.5
1044	2.000000	1.068152	7.37526e+06	-52339.1	1055.82	-29749.4	0.000000	0.000000	7.069530	33.7274	NaN	0.000000	0.001574	0.001821	28.0832	22.5112	0.001887	11930.7	10.9944	2.388621	33.735	1.067780	0.120666	0.120294	33.7274	11930.7	0.118545	0.416120	81.0521	16897.8
1044	2.000000	1.077655	7.37526e+06	-52339.1	1055.82	-29749.4	0.000000	0.000000	7.079469	44.321	NaN	0.000000	0.001623	0.001834	28.083	29.0096	0.001963	14775.7	12.3787	177.683	44.6882	1.077323	0.130169	0.129837	44.321	14775.7	0.127919	0.477152	92.8865	19543.1
1044	2.000000	1.087126	7.37526e+06	-52339.1	1055.82	-29749.4	0.000000	0.000000	7.089653	61.6436	NaN	0.000000	0.001559	0.001852	28.0821	35.4013	0.001815	19505.1	5.874784	0.573349	59.9691	1.086762	0.139640	0.139276	61.6436	19505.1	0.137270	0.542032	113.727	24205.2
1044	2.000000	1.096572	7.37526e+06	-52339.1	1055.82	-29749.4	0.000000	0.000000	7.100641	99.1434	NaN	0.000000	0.001574	0.001808	28.0819	43.6079	0.001837	23737.9	6.405676	176.938	98.3175	1.096304	0.149086	0.148818	99.1434	23737.9	0.145954	0.605887	163.634	27862.5
1044	2.000000	1.103593	7.37526e+06	-52339.1	1055.82	-29749.4	0.000000	0.000000	7.109290	138.73	NaN	0.000000	0.001563	0.001802	28.0817	50.5269	0.001706	29609.4	10.4195	169.899	138.462	1.103296	0.156107	0.155810	138.73	29609.4	0.152593	0.657064	211.136	33373.3