File: remote_trans/data/nanoindenter/0828-1/data/Data_2025-08-06,11h17m57s/2025-07-22_16-23-58_1_197.txt
2025-07-22, 16:23:58, 1
Index	Phase	Displacement	Time	Pos X	Pos Y	Pos Z	Rot A	Rot B	Piezo Z	Force A	Force B	Gripper	Voltage A	Voltage B	Temperature	Amplitude force	Amplitude pos	Stiffness	Phase shift	Phase excitation	Force A raw	Displacement raw	HMax	HMax raw	Real Force	Real Stiffness	Contact Depth	Area	Hardness	Reduced Mod.
[#]	[#]	[um]	[s]	[um]	[um]	[um]	[m°]	[m°]	[um]	[uN]	[uN]	[V]	[V]	[V]	[°C]	[uN]	[um]	[N/m]	[°]	[°]	[uN]	[um]	[um]	[um]	[uN]	[N/m]	[um]	[um^2]	[MPa]	[MPa]
197	1.000000	0.002832	7.36697e+06	-48489.1	955.817	-29762.1	0.000000	0.000000	6.002804	0.055477	NaN	0.000000	0.001545	0.001747	28.0777	0.098082	0.000921	106.473	-22.5824	-164.872	0.060006	0.001533	-1.721358	-1.722658	0.055477	106.473	-1.721749	-9.892866E+22	-5.607751E-25	NaN
197	1.000000	0.060769	7.36697e+06	-48489.1	955.819	-29762.1	0.000000	0.000000	6.060736	-0.043332	NaN	0.000000	0.001569	0.001734	28.0779	0.025354	0.002005	12.6445	-110.62	15.4943	-0.077021	0.059476	-1.663422	-1.664715	-0.043332	12.6445	-1.660851	-1.535537E+22	2.821926E-24	NaN
197	1.000000	0.118825	7.36697e+06	-48489.1	955.818	-29762.1	0.000000	0.000000	6.118796	0.031124	NaN	0.000000	0.001594	0.001786	28.0769	0.165886	0.002153	77.0425	131.387	-162.099	0.069339	0.117476	-1.605365	-1.606714	0.031124	77.0425	-1.605668	-2.835381E+21	-1.097710E-23	NaN
197	1.000000	0.176816	7.36697e+06	-48489.1	955.819	-29762.1	0.000000	0.000000	6.176786	0.043142	NaN	0.000000	0.001608	0.001717	28.0768	0.045925	0.001999	22.9782	-174.222	8.030466	0.047024	0.175448	-1.547375	-1.548743	0.043142	22.9782	-1.548783	-4.963617E+20	-8.691587E-23	NaN
197	1.000000	0.234880	7.36697e+06	-48489.1	955.817	-29762.1	0.000000	0.000000	6.234850	0.022269	NaN	0.000000	0.001654	0.001721	28.0778	0.058239	0.002033	28.6468	-73.135	-164.41	0.082633	0.233519	-1.489310	-1.490672	0.022269	28.6468	-1.489893	-8.160112E+19	-2.729036E-22	NaN
197	1.000000	0.292876	7.36697e+06	-48489.1	955.818	-29762.1	0.000000	0.000000	6.292845	-0.000365	NaN	0.000000	0.001686	0.001757	28.0779	0.027453	0.002088	13.151	-103.142	12.9491	0.064472	0.291507	-1.431315	-1.432683	-0.000365	13.151	-1.431294	-1.351419E+19	2.697885E-23	NaN
197	1.000000	0.350902	7.36697e+06	-48489.1	955.818	-29762.1	0.000000	0.000000	6.350872	0.025628	NaN	0.000000	0.001608	0.001790	28.0768	0.078302	0.002087	37.5231	169.901	-165.45	-0.004632	0.349594	-1.373288	-1.374596	0.025628	37.5231	-1.373801	-2.311615E+18	-1.108651E-20	NaN
197	1.000000	0.408925	7.36697e+06	-48489.1	955.818	-29762.1	0.000000	0.000000	6.408893	-0.027995	NaN	0.000000	0.001566	0.001765	28.0768	0.028581	0.001958	14.5945	-58.5599	14.5096	0.035427	0.407582	-1.315265	-1.316609	-0.027995	14.5945	-1.313826	-3.657078E+17	7.654940E-20	NaN
197	1.000000	0.466963	7.36697e+06	-48489.1	955.817	-29762.1	0.000000	0.000000	6.466933	0.023344	NaN	0.000000	0.001604	0.001753	28.0768	0.058488	0.001884	31.0426	-69.3803	-165.888	-0.019932	0.465632	-1.257227	-1.258558	0.023344	31.0426	-1.257791	-6.518255E+16	-3.581265E-19	NaN
197	1.000000	0.524995	7.36697e+06	-48489.1	955.818	-29762.1	0.000000	0.000000	6.524964	-0.018450	NaN	0.000000	0.001613	0.001765	28.0777	0.035533	0.002016	17.6259	142.303	16.2672	0.048183	0.523560	-1.199195	-1.200631	-0.018450	17.6259	-1.198410	-1.045823E+16	1.764197E-18	NaN
197	1.000000	0.583015	7.36697e+06	-48489.1	955.818	-29762.1	0.000000	0.000000	6.582984	-0.012876	NaN	0.000000	0.001618	0.001763	28.0777	0.053121	0.002042	26.0137	51.6915	-163.185	0.026101	0.581730	-1.141175	-1.142460	-0.012876	26.0137	-1.140804	-1.768160E+15	7.281902E-18	NaN
197	1.000000	0.641039	7.36697e+06	-48489.1	955.818	-29762.1	0.000000	0.000000	6.641011	0.063306	NaN	0.000000	0.001657	0.001747	28.0767	0.117826	0.002109	55.877	-76.1114	17.5023	0.021761	0.639663	-1.083151	-1.084528	0.063306	55.877	-1.084001	-3.056711E+14	-2.071061E-16	NaN
197	1.000000	0.699047	7.36697e+06	-48489.1	955.819	-29762.1	0.000000	0.000000	6.699015	-0.027888	NaN	0.000000	0.001623	0.001742	28.0769	0.057811	0.002080	27.7875	62.9921	-164.745	0.031265	0.697732	-1.025144	-1.026459	-0.027888	27.7875	-1.024391	-4.830924E+13	5.772859E-16	NaN
197	1.000000	0.757113	7.36697e+06	-48489.1	955.818	-29762.1	0.000000	0.000000	6.757085	0.055739	NaN	0.000000	0.001571	0.001758	28.078	0.025708	0.002014	12.7677	-130.206	15.2279	-0.022270	0.755683	-0.967077	-0.968507	0.055739	12.7677	-0.970351	-9.044818E+12	-6.162543E-15	NaN
197	1.000000	0.815117	7.36697e+06	-48489.1	955.818	-29762.1	0.000000	0.000000	6.815083	-0.061554	NaN	0.000000	0.001591	0.001780	28.0781	0.050220	0.002004	25.0621	-111.705	-165.802	-0.055905	0.813787	-0.909074	-0.910404	-0.061554	25.0621	-0.907232	-1.272832E+12	4.835973E-14	NaN
197	1.000000	0.873109	7.36697e+06	-48489.1	955.819	-29762.1	0.000000	0.000000	6.873080	0.053577	NaN	0.000000	0.001608	0.001740	28.078	0.101459	0.002113	48.0203	84.3605	15.9664	0.141920	0.871726	-0.851082	-0.852464	0.053577	48.0203	-0.851918	-2.273604E+11	-2.356469E-13	NaN
197	1.000000	0.931155	7.36697e+06	-48489.1	955.819	-29762.1	0.000000	0.000000	6.931126	0.046528	NaN	0.000000	0.001575	0.001757	28.0769	0.072186	0.001911	37.7806	133.646	-165.415	0.053038	0.929859	-0.793036	-0.794331	0.046528	37.7806	-0.793959	-3.722663E+10	-1.249868E-12	NaN
197	1.000000	0.989170	7.36697e+06	-48489.1	955.817	-29762.1	0.000000	0.000000	6.989138	-0.018299	NaN	0.000000	0.001601	0.001800	28.0768	0.124699	0.001940	64.2715	143.047	13.7924	0.024531	0.987782	-0.735021	-0.736409	-0.018299	64.2715	-0.734807	-5.838698E+9	3.134085E-12	NaN
197	1.000000	1.047194	7.36697e+06	-48489.1	955.818	-29762.1	0.000000	0.000000	7.047162	-0.016717	NaN	0.000000	0.001620	0.001804	28.0778	0.084877	0.002119	40.0472	-7.478497	-165.862	0.048377	1.045837	-0.676997	-0.678354	-0.016717	40.0472	-0.676684	-9.393846E+8	1.779593E-11	NaN
197	1.000000	1.105242	7.36698e+06	-48489.1	955.82	-29762.1	0.000000	0.000000	7.105211	-0.001063	NaN	0.000000	0.001559	0.001739	28.0778	0.097237	0.002042	47.6175	-106.324	13.4052	0.017401	1.103815	-0.618948	-0.620375	-0.001063	47.6175	-0.618931	-1.516852E+8	7.009507E-12	NaN
197	1.000000	1.163241	7.36698e+06	-48489.1	955.819	-29762.1	0.000000	0.000000	7.163207	-0.072166	NaN	0.000000	0.001552	0.001739	28.0766	0.062807	0.002086	30.1045	-23.0531	-163.937	-0.054843	1.161939	-0.560949	-0.562251	-0.072166	30.1045	-0.559152	-2.273212E+7	3.174612E-9	NaN
197	1.000000	1.221272	7.36698e+06	-48489.1	955.818	-29762.1	0.000000	0.000000	7.221240	-0.030978	NaN	0.000000	0.001535	0.001718	28.0766	0.125309	0.001955	64.0913	157.661	14.15	-0.048999	1.219968	-0.502918	-0.504222	-0.030978	64.0913	-0.502556	-3.72107e+06	8.325090E-9	NaN
197	1.000000	1.279309	7.36698e+06	-48489.1	955.819	-29762.1	0.000000	0.000000	7.279278	0.015215	NaN	0.000000	0.001565	0.001788	28.0767	0.034063	0.002023	16.8418	158.587	-167.395	0.042483	1.277946	-0.444882	-0.446245	0.015215	16.8418	-0.445559	-591260	-2.573267E-8	NaN
197	1.000000	1.337288	7.36698e+06	-48489.1	955.818	-29762	0.000000	0.000000	7.337257	0.015584	NaN	0.000000	0.001555	0.001776	28.0781	0.043081	0.002086	20.6545	-127.697	16.3936	-0.015669	1.336016	-0.386903	-0.388175	0.015584	20.6545	-0.387469	-88500.4	-1.760930E-7	NaN
197	1.000000	1.395366	7.36698e+06	-48489.1	955.819	-29762	0.000000	0.000000	7.395331	-0.087710	NaN	0.000000	0.001513	0.001807	28.0782	0.028494	0.001940	14.6912	57.0948	-162.298	-0.073549	1.394063	-0.328824	-0.330128	-0.087710	14.6912	-0.324347	-10778.2	8.137752E-6	NaN
197	1.000000	1.453360	7.36698e+06	-48489.1	955.82	-29762	0.000000	0.000000	7.453328	-0.025784	NaN	0.000000	0.001562	0.001770	28.077	0.135481	0.001918	70.6543	-16.6837	17.5927	-0.054210	1.452015	-0.270830	-0.272176	-0.025784	70.6543	-0.270557	-1698.27	1.518231E-5	NaN
197	1.000000	1.511420	7.36698e+06	-48489.1	955.819	-29762	0.000000	0.000000	7.511390	0.019223	NaN	0.000000	0.001558	0.001795	28.0768	0.112680	0.001989	56.6474	-48.2976	-165.986	0.040450	1.510111	-0.212771	-0.214079	0.019223	56.6474	-0.213025	-214.639	-8.956002E-5	NaN
197	1.000000	1.569460	7.36698e+06	-48489.1	955.819	-29762	0.000000	0.000000	7.569427	-0.049680	NaN	0.000000	0.001597	0.001783	28.0775	0.072635	0.002117	34.3165	105.188	14.7947	-0.007653	1.568052	-0.154731	-0.156139	-0.049680	34.3165	-0.153645	-21.0937	0.002355	NaN
197	1.000000	1.627479	7.36698e+06	-48489.1	955.82	-29762	0.000000	0.000000	7.627450	0.038762	NaN	0.000000	0.001576	0.001752	28.0784	0.052817	0.001798	29.3762	42.3337	-168.931	0.034872	1.626187	-0.096711	-0.098003	0.038762	29.3762	-0.097701	-1.623657	-0.023873	NaN
197	1.000000	1.685479	7.36698e+06	-48489.1	955.82	-29762	0.000000	0.000000	7.685449	0.021498	NaN	0.000000	0.001579	0.001795	28.0782	0.086505	0.002105	41.0896	-113.237	14.8128	0.011976	1.684128	-0.038711	-0.040063	0.021498	41.0896	-0.039104	-0.042479	-0.506085	NaN
197	2.000000	1.735171	7.36698e+06	-48489.1	955.82	-29762	0.000000	0.000000	7.735642	12.2121	NaN	0.000000	0.001538	0.001756	28.0768	10.3027	0.001757	5865.23	4.596701	-170.602	11.8584	1.734858	0.010980	0.010667	12.2121	5865.23	0.009419	0.008543	1429.52	57977.5
197	2.000000	1.749643	7.36698e+06	-48489.1	955.821	-29762	0.000000	0.000000	7.751187	38.3128	NaN	0.000000	0.001593	0.001765	28.0769	25.6132	0.001942	13190.6	4.418837	4.991632	39.5336	1.749248	0.025452	0.025057	38.3128	13190.6	0.023274	0.027950	1370.76	72085.5
197	2.000000	1.764067	7.36698e+06	-48489.1	955.82	-29762	0.000000	0.000000	7.767422	82.3391	NaN	0.000000	0.001547	0.001761	28.0782	38.3091	0.001742	21991.5	1.616860	-178.262	80.9719	1.763706	0.039877	0.039515	82.3391	21991.5	0.037069	0.056673	1452.89	84399.9
197	2.000000	1.778499	7.36698e+06	-48489.1	955.821	-29762	0.000000	0.000000	7.783998	134.488	NaN	0.000000	0.001555	0.001791	28.0787	50.6271	0.001957	25865.4	5.130739	-2.000917	132.628	1.778101	0.054309	0.053910	134.488	25865.4	0.050409	0.093681	1435.59	77208.6
197	2.000000	1.793035	7.36698e+06	-48489.1	955.821	-29762	0.000000	0.000000	7.801480	206.163	NaN	0.000000	0.001575	0.001793	28.078	65.595	0.001779	36863.5	4.369389	175.384	206.673	1.792707	0.068844	0.068517	206.163	36863.5	0.064650	0.143008	1441.61	89061.3
197	2.000000	1.807550	7.36698e+06	-48489.1	955.821	-29762	0.000000	0.000000	7.819575	293.231	NaN	0.000000	0.001600	0.001817	28.0768	76.6737	0.001794	42740.5	2.226035	-3.483753	293.91	1.807180	0.083360	0.082990	293.231	42740.5	0.078214	0.199097	1472.8	87514.5
197	2.000000	1.821970	7.36698e+06	-48489.1	955.822	-29762	0.000000	0.000000	7.837888	387.901	NaN	0.000000	0.001568	0.001826	28.0767	88.7129	0.001754	50570.8	2.428687	174.865	387.088	1.821701	0.097780	0.097511	387.901	50570.8	0.092027	0.265060	1463.45	89743
197	2.000000	1.831002	7.36698e+06	-48489.1	955.822	-29762	0.000000	0.000000	7.849156	442.28	NaN	0.000000	0.001671	0.001819	28.0779	96.8565	0.001901	50955.3	2.316939	175.485	442.359	1.830617	0.106812	0.106426	442.28	50955.3	0.100302	0.308769	1432.4	83781.1