File: remote_trans/data/nanoindenter/0828-1/data/Data_2025-08-06,11h17m57s/2025-07-22_16-23-58_1_596.txt
2025-07-22, 16:23:58, 1
Index	Phase	Displacement	Time	Pos X	Pos Y	Pos Z	Rot A	Rot B	Piezo Z	Force A	Force B	Gripper	Voltage A	Voltage B	Temperature	Amplitude force	Amplitude pos	Stiffness	Phase shift	Phase excitation	Force A raw	Displacement raw	HMax	HMax raw	Real Force	Real Stiffness	Contact Depth	Area	Hardness	Reduced Mod.
[#]	[#]	[um]	[s]	[um]	[um]	[um]	[m°]	[m°]	[um]	[uN]	[uN]	[V]	[V]	[V]	[°C]	[uN]	[um]	[N/m]	[°]	[°]	[uN]	[um]	[um]	[um]	[uN]	[N/m]	[um]	[um^2]	[MPa]	[MPa]
596	1.000000	0.002778	7.37088e+06	-47289.1	1005.82	-29766.5	0.000000	0.000000	6.002794	0.049173	NaN	0.000000	0.001557	0.001672	28.0821	0.031540	0.000989	31.8834	-116.84	-164.548	0.017923	0.001524	-1.075779	-1.077033	0.049173	31.8834	-1.076936	-2.456768E+14	-2.001536E-16	NaN
596	1.000000	0.042763	7.37088e+06	-47289.1	1005.82	-29766.5	0.000000	0.000000	6.042775	-0.054436	NaN	0.000000	0.001520	0.001699	28.0808	0.134269	0.001844	72.8214	159.414	-167.049	-0.036167	0.041438	-1.035794	-1.037119	-0.054436	72.8214	-1.035234	-6.758805E+13	8.054059E-16	NaN
596	1.000000	0.082764	7.37088e+06	-47289.1	1005.82	-29766.5	0.000000	0.000000	6.082776	-0.036722	NaN	0.000000	0.001549	0.001730	28.0804	0.019279	0.001959	9.840727	-61.2999	-166.068	-0.084098	0.081482	-0.995793	-0.997076	-0.036722	9.840727	-0.992994	-1.825736E+13	2.011329E-15	NaN
596	1.000000	0.122773	7.37088e+06	-47289.1	1005.82	-29766.5	0.000000	0.000000	6.122783	-0.089808	NaN	0.000000	0.001563	0.001745	28.0807	0.069822	0.001978	35.2943	160.998	-167.115	-0.053718	0.121455	-0.955784	-0.957102	-0.089808	35.2943	-0.953876	-5.423703E+12	1.655840E-14	NaN
596	1.000000	0.162784	7.37088e+06	-47289.1	1005.82	-29766.5	0.000000	0.000000	6.162796	-0.028832	NaN	0.000000	0.001535	0.001700	28.0823	0.123480	0.001945	63.48	-47.4186	-165.143	-0.007608	0.161450	-0.915773	-0.917108	-0.028832	63.48	-0.915433	-1.642608E+12	1.755259E-14	NaN
596	1.000000	0.202820	7.37088e+06	-47289.1	1005.82	-29766.5	0.000000	0.000000	6.202835	0.035062	NaN	0.000000	0.001522	0.001702	28.0822	0.045478	0.002151	21.1439	-9.962634	-167.463	-0.015772	0.201515	-0.875737	-0.877042	0.035062	21.1439	-0.876981	-4.964530E+11	-7.062529E-14	NaN
596	1.000000	0.242817	7.37088e+06	-47289.1	1005.82	-29766.5	0.000000	0.000000	6.242828	-0.050315	NaN	0.000000	0.001523	0.001715	28.0822	0.084598	0.001926	43.9143	-125.316	-165.237	-0.089787	0.241529	-0.835741	-0.837028	-0.050315	43.9143	-0.834881	-1.336406E+11	3.764985E-13	NaN
596	1.000000	0.282820	7.37088e+06	-47289.1	1005.82	-29766.5	0.000000	0.000000	6.282831	-0.053896	NaN	0.000000	0.001520	0.001756	28.0822	0.077989	0.001992	39.1513	14.6526	-164.951	-0.067069	0.281516	-0.795738	-0.797041	-0.053896	39.1513	-0.794705	-3.810463E+10	1.414418E-12	NaN
596	1.000000	0.322869	7.37088e+06	-47289.1	1005.82	-29766.5	0.000000	0.000000	6.322881	-0.047068	NaN	0.000000	0.001496	0.001714	28.0809	0.042546	0.001986	21.4248	33.7631	-163.789	-0.025280	0.321538	-0.755688	-0.757019	-0.047068	21.4248	-0.754041	-1.067131E+10	4.410694E-12	NaN
596	1.000000	0.362848	7.37088e+06	-47289.1	1005.82	-29766.5	0.000000	0.000000	6.362861	-0.014037	NaN	0.000000	0.001547	0.001698	28.0806	0.098383	0.001964	50.086	-10.6213	-166.109	0.062130	0.361589	-0.715710	-0.716968	-0.014037	50.086	-0.715499	-3.184831E+9	4.407411E-12	NaN
596	1.000000	0.402909	7.37088e+06	-47289.1	1005.82	-29766.5	0.000000	0.000000	6.402922	-0.013989	NaN	0.000000	0.001566	0.001774	28.0808	0.102463	0.002104	48.7036	-65.3188	-161.807	-0.026472	0.401598	-0.675648	-0.676959	-0.013989	48.7036	-0.675433	-9.030884E+8	1.549071E-11	NaN
596	1.000000	0.442882	7.37088e+06	-47289.1	1005.82	-29766.5	0.000000	0.000000	6.442893	-0.055291	NaN	0.000000	0.001550	0.001754	28.0821	0.020876	0.001799	11.6069	-97.1512	-168.106	-0.087803	0.441643	-0.635675	-0.636914	-0.055291	11.6069	-0.632102	-2.300878E+8	2.403039E-10	NaN
596	1.000000	0.482928	7.37088e+06	-47289.1	1005.82	-29766.5	0.000000	0.000000	6.482940	-0.025810	NaN	0.000000	0.001618	0.001787	28.0821	0.078961	0.001836	43.0009	-48.5697	-168.398	-0.052798	0.481612	-0.595630	-0.596946	-0.025810	43.0009	-0.595179	-7.145860E+7	3.611878E-10	NaN
596	1.000000	0.522904	7.37088e+06	-47289.1	1005.82	-29766.5	0.000000	0.000000	6.522918	0.010745	NaN	0.000000	0.001522	0.001791	28.0819	0.012455	0.002028	6.141386	127.488	-165.664	-0.017907	0.521653	-0.555654	-0.556905	0.010745	6.141386	-0.556966	-2.120314E+7	-5.067786E-10	NaN
596	1.000000	0.562929	7.37088e+06	-47289.1	1005.82	-29766.5	0.000000	0.000000	6.562944	0.018995	NaN	0.000000	0.001518	0.001777	28.0809	0.059053	0.002155	27.4036	-172.87	-167.335	-0.021637	0.561646	-0.515628	-0.516911	0.018995	27.4036	-0.516148	-5.75454e+06	-3.300883E-9	NaN
596	1.000000	0.602974	7.37088e+06	-47289.1	1005.82	-29766.5	0.000000	0.000000	6.602987	-0.014571	NaN	0.000000	0.001542	0.001802	28.0808	0.027988	0.001964	14.2491	13.5212	-165.299	0.023190	0.601637	-0.475583	-0.476920	-0.014571	14.2491	-0.474816	-1.5238e+06	9.562259E-9	NaN
596	1.000000	0.642966	7.37088e+06	-47289.1	1005.82	-29766.5	0.000000	0.000000	6.642978	-0.034822	NaN	0.000000	0.001554	0.001798	28.0809	0.092306	0.001971	46.8354	26.7528	-168.336	-0.031659	0.641733	-0.435592	-0.436824	-0.034822	46.8354	-0.435034	-419988	8.291180E-8	NaN
596	1.000000	0.682989	7.37088e+06	-47289.1	1005.82	-29766.5	0.000000	0.000000	6.683000	-0.050604	NaN	0.000000	0.001544	0.001723	28.0807	0.038418	0.001938	19.8215	-54.6041	-166.708	-0.114814	0.681719	-0.395569	-0.396839	-0.050604	19.8215	-0.393654	-108495	4.664163E-7	NaN
596	1.000000	0.723037	7.37088e+06	-47289.1	1005.82	-29766.5	0.000000	0.000000	6.723050	-0.016616	NaN	0.000000	0.001533	0.001764	28.0822	0.028108	0.001930	14.5673	-15.0864	-166.544	-0.048200	0.721717	-0.355521	-0.356841	-0.016616	14.5673	-0.354665	-29829.5	5.570422E-7	NaN
596	1.000000	0.763045	7.37088e+06	-47289.1	1005.82	-29766.5	0.000000	0.000000	6.763059	0.015671	NaN	0.000000	0.001555	0.001812	28.0822	0.114015	0.002079	54.8535	141.275	-167.174	0.044765	0.761766	-0.315512	-0.316792	0.015671	54.8535	-0.315726	-8047.59	-1.947259E-6	NaN
596	1.000000	0.803080	7.37088e+06	-47289.1	1005.82	-29766.5	0.000000	0.000000	6.803091	-0.061158	NaN	0.000000	0.001539	0.001796	28.0819	0.063088	0.001951	32.3364	136.393	-164.408	-0.041271	0.801759	-0.275478	-0.276798	-0.061158	32.3364	-0.274059	-1919.34	3.186404E-5	NaN
596	1.000000	0.843034	7.37088e+06	-47289.1	1005.82	-29766.5	0.000000	0.000000	6.843046	-0.029574	NaN	0.000000	0.001524	0.001809	28.0806	0.066952	0.001935	34.5955	-166.883	-169.263	-0.017497	0.841800	-0.235524	-0.236757	-0.029574	34.5955	-0.234883	-477.977	6.187237E-5	NaN
596	1.000000	0.883093	7.37088e+06	-47289.1	1005.82	-29766.5	0.000000	0.000000	6.883105	-0.040290	NaN	0.000000	0.001571	0.001791	28.0807	0.005824	0.001944	2.995310	-28.2651	-167.226	-0.056858	0.881741	-0.195464	-0.196816	-0.040290	2.995310	-0.185376	-75.2432	0.000535	NaN
596	1.000000	0.923133	7.37088e+06	-47289.1	1005.82	-29766.5	0.000000	0.000000	6.923146	-0.008772	NaN	0.000000	0.001588	0.001769	28.081	0.115515	0.001912	60.4281	-165.676	-167.937	0.000653	0.921776	-0.155424	-0.156781	-0.008772	60.4281	-0.155315	-22.6076	0.000388	NaN
596	1.000000	0.963140	7.37089e+06	-47289.1	1005.82	-29766.5	0.000000	0.000000	6.963151	-0.059316	NaN	0.000000	0.001598	0.001743	28.0808	0.079639	0.002024	39.3514	-56.2044	-164.777	-0.049555	0.961830	-0.115418	-0.116727	-0.059316	39.3514	-0.114287	-3.693110	0.016061	NaN
596	1.000000	1.003109	7.37089e+06	-47289.1	1005.82	-29766.5	0.000000	0.000000	7.003121	-0.039953	NaN	0.000000	0.001592	0.001777	28.0821	0.079185	0.001942	40.7683	-47.7094	-164.091	-0.077295	1.001847	-0.075449	-0.076711	-0.039953	40.7683	-0.074714	-0.454049	0.087993	NaN
596	1.000000	1.043178	7.37089e+06	-47289.1	1005.82	-29766.5	0.000000	0.000000	7.043191	-0.035207	NaN	0.000000	0.001563	0.001763	28.0821	0.163490	0.002027	80.6739	-173.896	-164.703	-0.043544	1.041833	-0.035379	-0.036725	-0.035207	80.6739	-0.035052	-0.032137	1.095546	NaN
596	1.000000	1.083029	7.37089e+06	-47289.1	1005.82	-29766.5	0.000000	0.000000	7.083392	8.508103	NaN	0.000000	0.001532	0.001784	28.0823	8.329999	0.001541	5404.7	10.0192	-172.074	6.910918	1.081840	0.004472	0.003283	8.508103	5404.7	0.003291	0.002626	3239.46	96352.8
596	2.000000	1.093640	7.37089e+06	-47289.1	1005.82	-29766.5	0.000000	0.000000	7.094692	25.2556	NaN	0.000000	0.001545	0.001810	28.0815	20.4609	0.001756	11653.2	7.193819	-177.608	24.9536	1.093287	0.015083	0.014730	25.2556	11653.2	0.013457	0.013283	1901.4	92379.5
596	2.000000	1.103615	7.37089e+06	-47289.1	1005.82	-29766.5	0.000000	0.000000	7.105745	51.4794	NaN	0.000000	0.001526	0.001781	28.0816	31.4697	0.001681	18720.6	4.763058	179.812	51.6826	1.103310	0.025058	0.024752	51.4794	18720.6	0.022995	0.027469	1874.08	103198
596	2.000000	1.113610	7.37089e+06	-47289.1	1005.82	-29766.5	0.000000	0.000000	7.116960	81.1522	NaN	0.000000	0.001563	0.001755	28.0817	41.6385	0.001867	22306.7	3.675433	179.356	80.4316	1.113321	0.035053	0.034763	81.1522	22306.7	0.032324	0.045699	1775.79	95335.3
596	2.000000	1.123569	7.37089e+06	-47289.1	1005.82	-29766.5	0.000000	0.000000	7.128506	119.764	NaN	0.000000	0.001559	0.001786	28.0818	52.7466	0.001908	27649.9	5.712389	176.317	119.175	1.123255	0.045012	0.044698	119.764	27649.9	0.041763	0.068664	1744.2	96405.3
596	2.000000	1.133596	7.37089e+06	-47289.1	1005.82	-29766.5	0.000000	0.000000	7.140668	171.687	NaN	0.000000	0.001531	0.001794	28.0827	61.3714	0.001831	33512.1	2.732738	177.531	171.75	1.133296	0.055039	0.054738	171.687	33512.1	0.051196	0.096146	1785.68	98743.3
596	2.000000	1.143605	7.37089e+06	-47289.1	1005.82	-29766.5	0.000000	0.000000	7.153242	234.079	NaN	0.000000	0.001527	0.001805	28.0827	71.198	0.001868	38111.5	6.067544	172.848	235.475	1.143294	0.065048	0.064737	234.079	38111.5	0.060442	0.127396	1837.41	97555.3
596	2.000000	1.153523	7.37089e+06	-47289.1	1005.82	-29766.5	0.000000	0.000000	7.165800	298.28	NaN	0.000000	0.001557	0.001826	28.0824	79.1901	0.001776	44583.4	1.636655	175.834	296.295	1.153316	0.074966	0.074758	298.28	44583.4	0.069948	0.163876	1820.16	100621
596	2.000000	1.163469	7.37089e+06	-47289.1	1005.82	-29766.5	0.000000	0.000000	7.178889	374.747	NaN	0.000000	0.001589	0.001842	28.0813	90.278	0.001810	49864.5	4.322886	172.784	371.181	1.163210	0.084911	0.084653	374.747	49864.5	0.079275	0.203850	1838.35	100904
596	2.000000	1.173466	7.37089e+06	-47289.1	1005.82	-29766.5	0.000000	0.000000	7.192326	458.413	NaN	0.000000	0.001565	0.001794	28.0814	101.11	0.001848	54702.3	7.382680	169.574	455.102	1.173139	0.094909	0.094581	458.413	54702.3	0.088624	0.247991	1848.5	100360
596	2.000000	1.182471	7.37089e+06	-47289.1	1005.82	-29766.5	0.000000	0.000000	7.204118	526.204	NaN	0.000000	0.001482	0.001795	28.0816	105.732	0.001747	60526.5	2.166042	173.7	524.008	1.182280	0.103913	0.103722	526.204	60526.5	0.097393	0.293048	1795.62	102153