File: remote_trans/data/nanoindenter/0828-1/data/Data_2025-08-06,11h17m57s/2025-07-22_16-23-58_1_212.txt
2025-07-22, 16:23:58, 1
Index	Phase	Displacement	Time	Pos X	Pos Y	Pos Z	Rot A	Rot B	Piezo Z	Force A	Force B	Gripper	Voltage A	Voltage B	Temperature	Amplitude force	Amplitude pos	Stiffness	Phase shift	Phase excitation	Force A raw	Displacement raw	HMax	HMax raw	Real Force	Real Stiffness	Contact Depth	Area	Hardness	Reduced Mod.
[#]	[#]	[um]	[s]	[um]	[um]	[um]	[m°]	[m°]	[um]	[uN]	[uN]	[V]	[V]	[V]	[°C]	[uN]	[um]	[N/m]	[°]	[°]	[uN]	[um]	[um]	[um]	[uN]	[N/m]	[um]	[um^2]	[MPa]	[MPa]
212	1.000000	0.002707	7.36712e+06	-49239.1	955.818	-29760	0.000000	0.000000	6.002820	-0.035946	NaN	0.000000	0.001624	0.001722	28.0785	0.120014	0.001043	115.025	-103.306	-162.714	-0.064921	0.001451	-1.099646	-1.100902	-0.035946	115.025	-1.099412	-4.922302E+14	7.302666E-17	NaN
212	1.000000	0.044651	7.36712e+06	-49239.1	955.818	-29760	0.000000	0.000000	6.044764	-0.031818	NaN	0.000000	0.001644	0.001735	28.0785	0.107626	0.001935	55.6345	-2.042718	16.1781	-0.063969	0.043298	-1.057702	-1.059055	-0.031818	55.6345	-1.057273	-1.337118E+14	2.379588E-16	NaN
212	1.000000	0.086684	7.36712e+06	-49239.1	955.818	-29760	0.000000	0.000000	6.086799	0.028598	NaN	0.000000	0.001646	0.001698	28.0784	0.132008	0.001935	68.2308	-66.6607	-164.873	0.039646	0.085317	-1.015669	-1.017036	0.028598	68.2308	-1.015983	-3.723095E+13	-7.681232E-16	NaN
212	1.000000	0.128687	7.36712e+06	-49239.1	955.818	-29760	0.000000	0.000000	6.128800	-0.039347	NaN	0.000000	0.001689	0.001747	28.0783	0.032856	0.001974	16.6431	-69.5768	17.894	-0.121014	0.127342	-0.973666	-0.975011	-0.039347	16.6431	-0.971893	-9.487874E+12	4.147124E-15	NaN
212	1.000000	0.170662	7.36712e+06	-49239.1	955.819	-29760	0.000000	0.000000	6.170774	-0.047783	NaN	0.000000	0.001588	0.001719	28.0774	0.091167	0.002054	44.3882	100.531	-162.363	-0.021385	0.169398	-0.931691	-0.932955	-0.047783	44.3882	-0.930884	-2.655371E+12	1.799487E-14	NaN
212	1.000000	0.212691	7.36712e+06	-49239.1	955.819	-29760	0.000000	0.000000	6.212803	-0.043319	NaN	0.000000	0.001606	0.001732	28.0777	0.053202	0.002070	25.7057	-160.619	14.3059	-0.040291	0.211309	-0.889662	-0.891044	-0.043319	25.7057	-0.888398	-7.083782E+11	6.115215E-14	NaN
212	1.000000	0.254725	7.36712e+06	-49239.1	955.817	-29760	0.000000	0.000000	6.254836	-0.067644	NaN	0.000000	0.001647	0.001739	28.0775	0.029092	0.002036	14.2914	-10.0495	-165.741	-0.050860	0.253425	-0.847628	-0.848928	-0.067644	14.2914	-0.844078	-1.780463E+11	3.799211E-13	NaN
212	1.000000	0.296769	7.36712e+06	-49239.1	955.819	-29760	0.000000	0.000000	6.296881	-0.037792	NaN	0.000000	0.001556	0.001730	28.0786	0.106831	0.002020	52.8863	-62.3798	15.9133	-0.062492	0.295357	-0.805584	-0.806996	-0.037792	52.8863	-0.805048	-5.264774E+10	7.178367E-13	NaN
212	1.000000	0.338765	7.36712e+06	-49239.1	955.818	-29760	0.000000	0.000000	6.338878	-0.022088	NaN	0.000000	0.001605	0.001718	28.0787	0.134647	0.002059	65.3973	90.2431	-166.301	0.040439	0.337395	-0.763588	-0.764958	-0.022088	65.3973	-0.763335	-1.427806E+10	1.547003E-12	NaN
212	1.000000	0.380753	7.36712e+06	-49239.1	955.818	-29760	0.000000	0.000000	6.380864	-0.075322	NaN	0.000000	0.001590	0.001744	28.0786	0.095135	0.002049	46.4204	106.545	14.9922	-0.030574	0.379382	-0.721600	-0.722971	-0.075322	46.4204	-0.720383	-3.712787E+9	2.028724E-11	NaN
212	1.000000	0.422812	7.36712e+06	-49239.1	955.819	-29760	0.000000	0.000000	6.422923	-0.075778	NaN	0.000000	0.001622	0.001718	28.0774	0.090374	0.002049	44.0962	30.7296	-165.325	-0.024265	0.421518	-0.679541	-0.680835	-0.075778	44.0962	-0.678252	-9.869616E+8	7.677956E-11	NaN
212	1.000000	0.464787	7.36712e+06	-49239.1	955.819	-29760	0.000000	0.000000	6.464900	-0.030335	NaN	0.000000	0.001613	0.001725	28.0775	0.102118	0.001956	52.2091	51.204	14.596	-0.080428	0.463416	-0.637566	-0.638937	-0.030335	52.2091	-0.637130	-2.697170E+8	1.124711E-10	NaN
212	1.000000	0.506821	7.36712e+06	-49239.1	955.819	-29760	0.000000	0.000000	6.506929	-0.141872	NaN	0.000000	0.001598	0.001692	28.0776	0.161196	0.002062	78.1766	132.488	-168.143	-0.123145	0.505549	-0.595532	-0.596804	-0.141872	78.1766	-0.594171	-6.920841E+7	2.049931E-9	NaN
212	1.000000	0.548838	7.36712e+06	-49239.1	955.819	-29760	0.000000	0.000000	6.548948	-0.099881	NaN	0.000000	0.001652	0.001732	28.0786	0.143387	0.001968	72.8427	-121.185	17.4481	-0.137397	0.547515	-0.553515	-0.554838	-0.099881	72.8427	-0.552486	-1.838183E+7	5.433653E-9	NaN
212	1.000000	0.590837	7.36712e+06	-49239.1	955.819	-29760	0.000000	0.000000	6.590947	-0.082913	NaN	0.000000	0.001654	0.001720	28.0786	0.071084	0.001931	36.8102	58.8555	-165.813	-0.055703	0.589542	-0.511516	-0.512811	-0.082913	36.8102	-0.509827	-4.69898e+06	1.764487E-8	NaN
212	1.000000	0.632880	7.36712e+06	-49239.1	955.819	-29760	0.000000	0.000000	6.632992	-0.053002	NaN	0.000000	0.001670	0.001736	28.079	0.004644	0.001912	2.428614	-89.4788	13.6541	-0.008232	0.631503	-0.469472	-0.470850	-0.053002	2.428614	-0.453105	-755175	7.018498E-8	NaN
212	1.000000	0.674902	7.36712e+06	-49239.1	955.818	-29760	0.000000	0.000000	6.675014	-0.046542	NaN	0.000000	0.001637	0.001701	28.0787	0.156282	0.001984	78.7637	-167.838	-163.987	-0.022466	0.673577	-0.427451	-0.428776	-0.046542	78.7637	-0.427008	-323382	1.439217E-7	NaN
212	1.000000	0.716927	7.36712e+06	-49239.1	955.819	-29760	0.000000	0.000000	6.717039	-0.061325	NaN	0.000000	0.001661	0.001746	28.0775	0.072095	0.002058	35.0315	153.122	14.2944	-0.000168	0.715581	-0.385426	-0.386772	-0.061325	35.0315	-0.384113	-79226.5	7.740412E-7	NaN
212	1.000000	0.758937	7.36712e+06	-49239.1	955.817	-29760	0.000000	0.000000	6.759048	-0.071455	NaN	0.000000	0.001621	0.001723	28.0778	0.069054	0.001894	36.466	-4.785232	-168.764	-0.097267	0.757622	-0.343416	-0.344731	-0.071455	36.466	-0.341946	-19494.6	3.665370E-6	NaN
212	1.000000	0.800989	7.36712e+06	-49239.1	955.818	-29760	0.000000	0.000000	6.801101	-0.046952	NaN	0.000000	0.001602	0.001705	28.0778	0.076034	0.002108	36.062	-108.641	14.3082	-0.067418	0.799644	-0.301364	-0.302709	-0.046952	36.062	-0.300388	-4768.75	9.845722E-6	NaN
212	1.000000	0.842954	7.36712e+06	-49239.1	955.819	-29760	0.000000	0.000000	6.843068	0.006155	NaN	0.000000	0.001616	0.001699	28.0792	0.064907	0.002008	32.3227	-95.7487	-165.245	0.009373	0.841622	-0.259399	-0.260731	0.006155	32.3227	-0.259542	-1153.19	-5.337139E-6	NaN
212	1.000000	0.884984	7.36712e+06	-49239.1	955.818	-29760	0.000000	0.000000	6.885096	-0.057512	NaN	0.000000	0.001616	0.001721	28.0788	0.107064	0.001832	58.4302	143.028	15.6324	-0.024637	0.883631	-0.217369	-0.218722	-0.057512	58.4302	-0.216630	-245.308	0.000234	NaN
212	1.000000	0.926998	7.36712e+06	-49239.1	955.818	-29760	0.000000	0.000000	6.927111	-0.032304	NaN	0.000000	0.001620	0.001731	28.0788	0.014459	0.001909	7.574013	-79.2727	-167.898	0.093287	0.925689	-0.175355	-0.176664	-0.032304	7.574013	-0.172156	-44.7674	0.000722	NaN
212	1.000000	0.969000	7.36712e+06	-49239.1	955.82	-29760	0.000000	0.000000	6.969115	0.020494	NaN	0.000000	0.001602	0.001743	28.0778	0.027470	0.001984	13.846	27.0241	14.9173	0.023686	0.967678	-0.133353	-0.134675	0.020494	13.846	-0.134463	-9.290365	-0.002206	NaN
212	1.000000	1.011011	7.36712e+06	-49239.1	955.821	-29760	0.000000	0.000000	7.011122	-0.072023	NaN	0.000000	0.001582	0.001690	28.0777	0.041175	0.002073	19.8651	33.7278	-165.691	-0.023701	1.009686	-0.091342	-0.092667	-0.072023	19.8651	-0.088622	-1.003130	0.071798	NaN
212	1.000000	1.053053	7.36712e+06	-49239.1	955.821	-29760	0.000000	0.000000	7.053166	-0.023389	NaN	0.000000	0.001684	0.001751	28.0777	0.034993	0.002008	17.4239	-29.2624	13.6005	-0.036238	1.051712	-0.049300	-0.050641	-0.023389	17.4239	-0.048293	-0.080997	0.288762	NaN
212	1.000000	1.095082	7.36712e+06	-49239.1	955.821	-29760	0.000000	0.000000	7.095206	0.250486	NaN	0.000000	0.001642	0.001724	28.0793	0.397630	0.002002	198.605	21.268	-165.869	0.199574	1.093782	-0.007271	-0.008571	0.250486	198.605	-0.008217	-0.005359	-46.7446	NaN
212	2.000000	1.123155	7.36712e+06	-49239.1	955.82	-29760	0.000000	0.000000	7.123920	15.8449	NaN	0.000000	0.001601	0.001754	28.0796	14.6785	0.001778	8256.55	5.169467	9.346863	14.1553	1.122812	0.020802	0.020459	15.8449	8256.55	0.019363	0.021551	735.243	51385.7
212	2.000000	1.133595	7.36712e+06	-49239.1	955.821	-29760	0.000000	0.000000	7.136884	77.2326	NaN	0.000000	0.001610	0.001731	28.079	29.6845	0.001650	17991.5	3.823268	-178.52	74.4271	1.133313	0.031242	0.030960	77.2326	17991.5	0.028022	0.036744	2101.89	85752.3
212	2.000000	1.144078	7.36712e+06	-49239.1	955.82	-29760	0.000000	0.000000	7.151242	171.451	NaN	0.000000	0.001508	0.001729	28.0791	41.2087	0.001733	23772.9	4.001491	-1.445392	166.871	1.143724	0.041725	0.041371	171.451	23772.9	0.036316	0.054856	3125.49	92735.4
212	2.000000	1.154554	7.36712e+06	-49239.1	955.82	-29760	0.000000	0.000000	7.166675	292.013	NaN	0.000000	0.001531	0.001692	28.0776	51.1269	0.001861	27477.5	-0.129976	-178.364	289.16	1.154255	0.052201	0.051902	292.013	27477.5	0.044231	0.075419	3871.89	91413.5
212	2.000000	1.164928	7.36712e+06	-49239.1	955.821	-29760	0.000000	0.000000	7.180931	386.426	NaN	0.000000	0.001563	0.001722	28.0776	58.1037	0.001811	32086	1.754111	-1.837731	376.358	1.164597	0.062575	0.062245	386.426	32086	0.053542	0.103676	3727.24	91043.5
212	2.000000	1.175477	7.36712e+06	-49239.1	955.821	-29760	0.000000	0.000000	7.196654	512.271	NaN	0.000000	0.001563	0.001711	28.0775	66.6629	0.001955	34104.2	4.271964	175.385	504.583	1.175196	0.073124	0.072843	512.271	34104.2	0.061858	0.132556	3864.58	85582
212	2.000000	1.186072	7.36713e+06	-49239.1	955.822	-29760	0.000000	0.000000	7.211225	608.961	NaN	0.000000	0.001567	0.001756	28.0786	73.5897	0.001926	38202.1	3.984432	-5.199414	607.832	1.185728	0.083719	0.083375	608.961	38202.1	0.071764	0.171337	3554.17	84321
212	2.000000	1.196657	7.36713e+06	-49239.1	955.821	-29760	0.000000	0.000000	7.225040	687.523	NaN	0.000000	0.001594	0.001722	28.0788	81.1434	0.001916	42358.1	9.618339	171.014	693.477	1.196067	0.094304	0.093714	687.523	42358.1	0.082130	0.216902	3169.74	83095.6
212	2.000000	1.206988	7.36713e+06	-49239.1	955.821	-29760	0.000000	0.000000	7.237456	738.211	NaN	0.000000	0.001646	0.001740	28.0789	85.5397	0.001998	42805	4.911449	-6.339533	733.919	1.206533	0.104635	0.104180	738.211	42805	0.091701	0.263400	2802.63	76200.9
212	2.000000	1.217113	7.36713e+06	-49239.1	955.822	-29760	0.000000	0.000000	7.250123	800.035	NaN	0.000000	0.001659	0.001714	28.0774	89.3869	0.001954	45744.7	7.623400	-8.728693	802.993	1.216502	0.114760	0.114149	800.035	45744.7	0.101643	0.316148	2530.58	74330.9