File: remote_trans/data/nanoindenter/0828-1/data/Data_2025-08-06,11h17m57s/2025-07-22_16-23-58_1_612.txt
2025-07-22, 16:23:58, 1
Index	Phase	Displacement	Time	Pos X	Pos Y	Pos Z	Rot A	Rot B	Piezo Z	Force A	Force B	Gripper	Voltage A	Voltage B	Temperature	Amplitude force	Amplitude pos	Stiffness	Phase shift	Phase excitation	Force A raw	Displacement raw	HMax	HMax raw	Real Force	Real Stiffness	Contact Depth	Area	Hardness	Reduced Mod.
[#]	[#]	[um]	[s]	[um]	[um]	[um]	[m°]	[m°]	[um]	[uN]	[uN]	[V]	[V]	[V]	[°C]	[uN]	[um]	[N/m]	[°]	[°]	[uN]	[um]	[um]	[um]	[uN]	[N/m]	[um]	[um^2]	[MPa]	[MPa]
612	1.000000	0.001963	7.37104e+06	-46489.1	1005.82	-29768.9	0.000000	0.000000	6.002789	-0.041827	NaN	0.000000	0.001711	0.001622	28.0799	0.043053	0.000953	45.1769	66.5866	-166.403	-0.054772	0.000712	-1.143039	-1.144290	-0.041827	45.1769	-1.142344	-1.854273E+15	2.255718E-17	NaN
612	1.000000	0.043902	7.37104e+06	-46489.1	1005.82	-29768.9	0.000000	0.000000	6.044726	-0.095004	NaN	0.000000	0.001641	0.001684	28.08	0.014813	0.002021	7.330905	-138.133	14.149	-0.079228	0.042521	-1.101100	-1.102481	-0.095004	7.330905	-1.091380	-3.840143E+14	2.473967E-16	NaN
612	1.000000	0.085947	7.37104e+06	-46489.1	1005.82	-29768.9	0.000000	0.000000	6.086777	0.062010	NaN	0.000000	0.001614	0.001659	28.08	0.042097	0.001963	21.4486	-104.204	-168.986	0.022382	0.084634	-1.059055	-1.060368	0.062010	21.4486	-1.061223	-1.510987E+14	-4.103964E-16	NaN
612	1.000000	0.127979	7.37104e+06	-46489.1	1005.82	-29768.9	0.000000	0.000000	6.128809	0.043897	NaN	0.000000	0.001593	0.001680	28.0797	0.023186	0.001902	12.1901	-162.06	9.516480	-0.006613	0.126629	-1.017023	-1.018373	0.043897	12.1901	-1.019724	-4.180576E+13	-1.050016E-15	NaN
612	1.000000	0.169957	7.37104e+06	-46489.1	1005.82	-29768.9	0.000000	0.000000	6.170783	-0.043333	NaN	0.000000	0.001626	0.001605	28.0811	0.046509	0.001977	23.5261	-167.449	-166.654	-0.010718	0.168603	-0.975045	-0.976399	-0.043333	23.5261	-0.973664	-1.002388E+13	4.323005E-15	NaN
612	1.000000	0.211991	7.37104e+06	-46489.1	1005.82	-29768.9	0.000000	0.000000	6.212817	-0.032436	NaN	0.000000	0.001651	0.001596	28.0809	0.069318	0.002056	33.7084	43.5957	15.4975	-0.008809	0.210581	-0.933011	-0.934421	-0.032436	33.7084	-0.932290	-2.773940E+12	1.169327E-14	NaN
612	1.000000	0.254007	7.37104e+06	-46489.1	1005.82	-29768.9	0.000000	0.000000	6.254835	-0.005759	NaN	0.000000	0.001657	0.001592	28.0807	0.020476	0.001986	10.3115	-113.277	-163.483	0.032915	0.252751	-0.890995	-0.892252	-0.005759	10.3115	-0.890576	-7.580580E+11	7.596963E-15	NaN
612	1.000000	0.296030	7.37104e+06	-46489.1	1005.82	-29768.9	0.000000	0.000000	6.296859	0.010342	NaN	0.000000	0.001662	0.001631	28.0797	0.022994	0.002075	11.0831	116.285	10.34	0.033239	0.294659	-0.848972	-0.850343	0.010342	11.0831	-0.849672	-2.119779E+11	-4.878666E-14	NaN
612	1.000000	0.338027	7.37104e+06	-46489.1	1005.82	-29768.9	0.000000	0.000000	6.338851	-0.101667	NaN	0.000000	0.001656	0.001686	28.0796	0.094089	0.002083	45.1753	-129.459	-165.86	-0.060589	0.336739	-0.806975	-0.808264	-0.101667	45.1753	-0.805287	-5.304249E+10	1.916707E-12	NaN
612	1.000000	0.380070	7.37104e+06	-46489.1	1005.82	-29768.9	0.000000	0.000000	6.380898	-0.002089	NaN	0.000000	0.001636	0.001644	28.0795	0.023706	0.002108	11.2474	43.3259	16.2759	-0.069929	0.378701	-0.764932	-0.766301	-0.002089	11.2474	-0.764793	-1.494499E+10	1.397522E-13	NaN
612	1.000000	0.422095	7.37104e+06	-46489.1	1005.82	-29768.9	0.000000	0.000000	6.422920	-0.070880	NaN	0.000000	0.001590	0.001645	28.0808	0.070065	0.001875	37.3743	-79.0695	-165.941	0.000988	0.420771	-0.722907	-0.724231	-0.070880	37.3743	-0.721485	-3.843449E+9	1.844180E-11	NaN
612	1.000000	0.464086	7.37104e+06	-46489.1	1005.82	-29768.9	0.000000	0.000000	6.464912	-0.045950	NaN	0.000000	0.001550	0.001659	28.0808	0.024386	0.001852	13.1698	34.3173	14.9682	0.048156	0.462759	-0.680916	-0.682243	-0.045950	13.1698	-0.678299	-9.884209E+8	4.648843E-11	NaN
612	1.000000	0.506098	7.37104e+06	-46489.1	1005.82	-29768.9	0.000000	0.000000	6.506925	0.003705	NaN	0.000000	0.001550	0.001632	28.081	0.052742	0.001972	26.7514	-115.021	-165.052	-0.038846	0.504764	-0.638905	-0.640238	0.003705	26.7514	-0.639008	-2.862100E+8	-1.294601E-11	NaN
612	1.000000	0.548124	7.37104e+06	-46489.1	1005.82	-29768.9	0.000000	0.000000	6.548951	-0.014697	NaN	0.000000	0.001514	0.001645	28.0794	0.077101	0.002029	38.0033	170.905	12.1443	0.028576	0.546739	-0.596878	-0.598263	-0.014697	38.0033	-0.596588	-7.472510E+7	1.966801E-10	NaN
612	1.000000	0.590179	7.37104e+06	-46489.1	1005.82	-29768.9	0.000000	0.000000	6.591006	-0.016845	NaN	0.000000	0.001617	0.001663	28.0797	0.013891	0.001941	7.156574	-49.0057	-165.715	-0.007400	0.588853	-0.554823	-0.556149	-0.016845	7.156574	-0.553058	-1.871971E+7	8.998797E-10	NaN
612	1.000000	0.632184	7.37104e+06	-46489.1	1005.82	-29768.9	0.000000	0.000000	6.633012	0.015280	NaN	0.000000	0.001524	0.001694	28.0795	0.066957	0.002051	32.64	81.3582	13.8095	0.014576	0.630821	-0.512818	-0.514182	0.015280	32.64	-0.513169	-5.23056e+06	-2.921330E-9	NaN
612	1.000000	0.674181	7.37104e+06	-46489.1	1005.82	-29768.9	0.000000	0.000000	6.675009	0.021422	NaN	0.000000	0.001586	0.001618	28.0799	0.055001	0.001929	28.517	-94.19	-168.724	0.037978	0.672953	-0.470821	-0.472049	0.021422	28.517	-0.471385	-1.36404e+06	-1.570503E-8	NaN
612	1.000000	0.716194	7.37104e+06	-46489.1	1005.82	-29768.9	0.000000	0.000000	6.717023	0.042130	NaN	0.000000	0.001585	0.001637	28.081	0.104491	0.001964	53.1986	-25.973	12.7428	0.025076	0.714804	-0.428809	-0.430198	0.042130	53.1986	-0.429403	-349631	-1.204995E-7	NaN
612	1.000000	0.758222	7.37104e+06	-46489.1	1005.82	-29768.9	0.000000	0.000000	6.759049	-0.039568	NaN	0.000000	0.001570	0.001658	28.081	0.061704	0.002035	30.3236	-170.689	-169.103	-0.030607	0.756873	-0.386780	-0.388130	-0.039568	30.3236	-0.385801	-83765	4.723737E-7	NaN
612	1.000000	0.800240	7.37104e+06	-46489.1	1005.82	-29768.9	0.000000	0.000000	6.801068	0.016010	NaN	0.000000	0.001545	0.001698	28.0809	0.121702	0.002024	60.1241	146.017	14.4251	-0.003049	0.798920	-0.344762	-0.346082	0.016010	60.1241	-0.344962	-21567.6	-7.423037E-7	NaN
612	1.000000	0.842256	7.37104e+06	-46489.1	1005.82	-29768.9	0.000000	0.000000	6.843084	-0.005741	NaN	0.000000	0.001531	0.001740	28.0798	0.038549	0.001933	19.9476	-111.913	-168.759	-0.042450	0.840916	-0.302746	-0.304086	-0.005741	19.9476	-0.302530	-5131.81	1.118781E-6	NaN
612	1.000000	0.884304	7.37104e+06	-46489.1	1005.82	-29768.9	0.000000	0.000000	6.885132	0.001379	NaN	0.000000	0.001499	0.001721	28.0798	0.066171	0.002042	32.4109	36.2536	11.7208	0.050461	0.882923	-0.260698	-0.262079	0.001379	32.4109	-0.260730	-1202.55	-1.146551E-6	NaN
612	1.000000	0.926296	7.37104e+06	-46489.1	1005.82	-29768.9	0.000000	0.000000	6.927124	0.005478	NaN	0.000000	0.001495	0.001695	28.0798	0.085311	0.001995	42.7651	52.7484	-166.62	-0.015775	0.924994	-0.218706	-0.220008	0.005478	42.7651	-0.218802	-265.779	-2.061192E-5	NaN
612	1.000000	0.968321	7.37104e+06	-46489.1	1005.82	-29768.9	0.000000	0.000000	6.969152	0.066138	NaN	0.000000	0.001552	0.001711	28.0811	0.065161	0.002126	30.6497	58.6679	10.2574	0.051992	0.966947	-0.176681	-0.178055	0.066138	30.6497	-0.178299	-57.0799	-0.001159	NaN
612	1.000000	1.010331	7.37104e+06	-46489.1	1005.82	-29768.9	0.000000	0.000000	7.011157	-0.025995	NaN	0.000000	0.001580	0.001748	28.0808	0.040710	0.002186	18.6216	143.136	-164.536	0.018841	1.008998	-0.134672	-0.136005	-0.025995	18.6216	-0.133625	-8.953049	0.002903	NaN
612	1.000000	1.052350	7.37104e+06	-46489.1	1005.82	-29768.9	0.000000	0.000000	7.053177	-0.025620	NaN	0.000000	0.001588	0.001711	28.0809	0.092557	0.002134	43.3637	-93.6692	15.4963	-0.054997	1.051008	-0.092652	-0.093994	-0.025620	43.3637	-0.092209	-1.217031	0.021051	NaN
612	1.000000	1.094367	7.37104e+06	-46489.1	1005.82	-29768.9	0.000000	0.000000	7.095193	-0.040071	NaN	0.000000	0.001560	0.001766	28.0799	0.048400	0.002038	23.7442	157.1	-167.564	-0.062984	1.093026	-0.050635	-0.051976	-0.040071	23.7442	-0.049369	-0.087326	0.458866	NaN
612	1.000000	1.136358	7.37104e+06	-46489.1	1005.82	-29768.9	0.000000	0.000000	7.137184	-0.042992	NaN	0.000000	0.001535	0.001708	28.0797	0.089558	0.001979	45.2449	164.253	11.7611	-0.041961	1.135063	-0.008644	-0.009939	-0.042992	45.2449	-0.007931	-0.005191	8.281361	NaN
612	2.000000	1.158902	7.37104e+06	-46489.1	1005.82	-29768.9	0.000000	0.000000	7.160410	16.5456	NaN	0.000000	0.001542	0.001699	28.0797	14.8979	0.001757	8479.37	7.421084	-176.375	15.8305	1.158603	0.013900	0.013600	16.5456	8479.37	0.012437	0.012017	1376.81	70669.7
612	2.000000	1.169387	7.37104e+06	-46489.1	1005.82	-29768.9	0.000000	0.000000	7.171679	35.6076	NaN	0.000000	0.001513	0.001698	28.08	26.098	0.001803	14472.3	10.0284	-3.812467	35.2937	1.169055	0.024385	0.024053	35.6076	14472.3	0.022540	0.026692	1334.04	80932.6
612	2.000000	1.179847	7.37104e+06	-46489.1	1005.82	-29768.9	0.000000	0.000000	7.183463	67.8243	NaN	0.000000	0.001569	0.001724	28.0809	34.4291	0.001722	19990.7	1.808803	-178.607	66.2237	1.179525	0.034845	0.034523	67.8243	19990.7	0.032300	0.045646	1485.87	85486.7
612	2.000000	1.190367	7.37104e+06	-46489.1	1005.82	-29768.9	0.000000	0.000000	7.195444	103.361	NaN	0.000000	0.001585	0.001671	28.0809	45.2152	0.001798	25141.1	7.895710	-6.439306	102.262	1.190055	0.045365	0.045053	103.361	25141.1	0.042281	0.070057	1475.39	86782.7
612	2.000000	1.200880	7.37104e+06	-46489.1	1005.82	-29768.9	0.000000	0.000000	7.207722	146.289	NaN	0.000000	0.001569	0.001669	28.0808	56.9099	0.001789	31813.1	6.112731	174.164	147.309	1.200488	0.055878	0.055486	146.289	31813.1	0.052429	0.100069	1461.89	91881.9
612	2.000000	1.211273	7.37104e+06	-46489.1	1005.82	-29768.9	0.000000	0.000000	7.220101	194.614	NaN	0.000000	0.001587	0.001655	28.0799	67.0303	0.001822	36795.2	-0.243808	-2.084023	189.372	1.211026	0.066271	0.066024	194.614	36795.2	0.062304	0.134199	1450.19	91767.7
612	2.000000	1.221729	7.37104e+06	-46489.1	1005.82	-29768.9	0.000000	0.000000	7.233172	258.214	NaN	0.000000	0.001550	0.001674	28.0792	78.3228	0.001767	44330.6	7.062770	169.591	255.336	1.221484	0.076727	0.076482	258.214	44330.6	0.072358	0.173812	1485.59	97148.6
612	2.000000	1.232272	7.37104e+06	-46489.1	1005.82	-29768.9	0.000000	0.000000	7.246732	331.616	NaN	0.000000	0.001573	0.001685	28.0796	87.3494	0.001834	47620.7	4.150193	-8.014301	329.705	1.231932	0.087270	0.086930	331.616	47620.7	0.082047	0.216515	1531.6	93502.7
612	2.000000	1.242736	7.37104e+06	-46489.1	1005.82	-29768.9	0.000000	0.000000	7.260415	409.893	NaN	0.000000	0.001532	0.001672	28.081	95.9507	0.001786	53730.7	6.927028	168.735	407.791	1.242387	0.097734	0.097385	409.893	53730.7	0.092013	0.264987	1546.84	95363.8
612	2.000000	1.250749	7.37105e+06	-46489.1	1005.82	-29768.9	0.000000	0.000000	7.270962	471.544	NaN	0.000000	0.001543	0.001669	28.0813	103.049	0.001742	59150.9	7.722879	167.583	468.765	1.250315	0.105747	0.105313	471.544	59150.9	0.099768	0.305853	1541.73	97718.7