File: remote_trans/data/nanoindenter/0828-1/data/Data_2025-08-06,11h17m57s/2025-07-22_16-23-58_1_1093.txt
2025-07-22, 16:23:58, 1
Index	Phase	Displacement	Time	Pos X	Pos Y	Pos Z	Rot A	Rot B	Piezo Z	Force A	Force B	Gripper	Voltage A	Voltage B	Temperature	Amplitude force	Amplitude pos	Stiffness	Phase shift	Phase excitation	Force A raw	Displacement raw	HMax	HMax raw	Real Force	Real Stiffness	Contact Depth	Area	Hardness	Reduced Mod.
[#]	[#]	[um]	[s]	[um]	[um]	[um]	[m°]	[m°]	[um]	[uN]	[uN]	[V]	[V]	[V]	[°C]	[uN]	[um]	[N/m]	[°]	[°]	[uN]	[um]	[um]	[um]	[uN]	[N/m]	[um]	[um^2]	[MPa]	[MPa]
1093	1.000000	0.002203	7.37574e+06	-54789.1	1055.82	-29742.8	0.000000	0.000000	6.002772	-0.041382	NaN	0.000000	0.001628	0.001695	28.085	0.045018	0.000918	49.0321	82.0493	-156.739	0.001377	0.001005	-1.158968	-1.160167	-0.041382	49.0321	-1.158335	-3.037791E+15	1.362232E-17	NaN
1093	1.000000	0.044181	7.37574e+06	-54789.1	1055.82	-29742.7	0.000000	0.000000	6.044750	-0.053182	NaN	0.000000	0.001650	0.001676	28.0849	0.051943	0.001956	26.5508	121.551	14.4423	-0.029054	0.042847	-1.116990	-1.118325	-0.053182	26.5508	-1.115488	-8.089651E+14	6.574133E-17	NaN
1093	1.000000	0.086205	7.37574e+06	-54789.1	1055.82	-29742.7	0.000000	0.000000	6.086778	0.044660	NaN	0.000000	0.001587	0.001734	28.0846	0.124686	0.002022	61.6687	173.274	-169.379	0.012631	0.084933	-1.074966	-1.076238	0.044660	61.6687	-1.075509	-2.350709E+14	-1.899833E-16	NaN
1093	1.000000	0.128220	7.37574e+06	-54789.1	1055.82	-29742.7	0.000000	0.000000	6.128789	-0.034044	NaN	0.000000	0.001637	0.001720	28.0838	0.027468	0.001898	14.4758	-148.342	12.752	0.052430	0.126844	-1.032952	-1.034327	-0.034044	14.4758	-1.031188	-5.962918E+13	5.709240E-16	NaN
1093	1.000000	0.170217	7.37574e+06	-54789.1	1055.82	-29742.7	0.000000	0.000000	6.170785	-0.078550	NaN	0.000000	0.001632	0.001687	28.0838	0.066878	0.002062	32.4391	178.008	-166.491	-0.052186	0.168917	-0.990954	-0.992254	-0.078550	32.4391	-0.989138	-1.619955E+13	4.848878E-15	NaN
1093	1.000000	0.212268	7.37574e+06	-54789.1	1055.82	-29742.7	0.000000	0.000000	6.212840	0.025689	NaN	0.000000	0.001662	0.001664	28.084	0.107441	0.002062	52.113	0.231346	16.1913	0.062874	0.210880	-0.948903	-0.950291	0.025689	52.113	-0.949273	-4.701347E+12	-5.464240E-15	NaN
1093	1.000000	0.254246	7.37574e+06	-54789.1	1055.82	-29742.7	0.000000	0.000000	6.254817	-0.014339	NaN	0.000000	0.001629	0.001779	28.0847	0.084668	0.002090	40.5154	75.4686	-166.666	-0.052171	0.253003	-0.906925	-0.908168	-0.014339	40.5154	-0.906660	-1.250377E+12	1.146773E-14	NaN
1093	1.000000	0.296317	7.37574e+06	-54789.1	1055.82	-29742.7	0.000000	0.000000	6.296889	0.001974	NaN	0.000000	0.001678	0.001728	28.0853	0.065757	0.001960	33.5455	-130.095	12.7929	0.039687	0.294935	-0.864854	-0.866237	0.001974	33.5455	-0.864898	-3.407301E+11	-5.793516E-15	NaN
1093	1.000000	0.338302	7.37574e+06	-54789.1	1055.82	-29742.7	0.000000	0.000000	6.338875	0.043833	NaN	0.000000	0.001747	0.001726	28.0854	0.044207	0.002149	20.5722	-59.0375	-168.031	-0.031001	0.336985	-0.822869	-0.824187	0.043833	20.5722	-0.824467	-9.655643E+10	-4.539618E-13	NaN
1093	1.000000	0.380307	7.37575e+06	-54789.1	1055.82	-29742.7	0.000000	0.000000	6.380878	-4.753400E-5	NaN	0.000000	0.001712	0.001675	28.0842	0.102980	0.002053	50.1639	-143.099	13.6406	0.049713	0.378894	-0.780865	-0.782277	-4.753400E-5	50.1639	-0.780864	-2.471552E+10	1.923245E-15	NaN
1093	1.000000	0.422325	7.37575e+06	-54789.1	1055.82	-29742.7	0.000000	0.000000	6.422897	0.020675	NaN	0.000000	0.001713	0.001727	28.0835	0.038993	0.001980	19.6912	133.486	-166.182	0.076349	0.421024	-0.738846	-0.740147	0.020675	19.6912	-0.739633	-6.793036E+9	-3.043541E-12	NaN
1093	1.000000	0.464335	7.37575e+06	-54789.1	1055.82	-29742.7	0.000000	0.000000	6.464906	0.009417	NaN	0.000000	0.001660	0.001737	28.0835	0.046316	0.002000	23.1614	-158.606	11.1311	0.041883	0.463015	-0.696837	-0.698157	0.009417	23.1614	-0.697142	-1.788518E+9	-5.265530E-12	NaN
1093	1.000000	0.506362	7.37575e+06	-54789.1	1055.82	-29742.7	0.000000	0.000000	6.506934	0.021334	NaN	0.000000	0.001731	0.001750	28.0847	0.085523	0.001957	43.7098	10.6784	-166.463	0.024873	0.505060	-0.654810	-0.656111	0.021334	43.7098	-0.655176	-4.768408E+8	-4.473978E-11	NaN
1093	1.000000	0.548386	7.37575e+06	-54789.1	1055.82	-29742.7	0.000000	0.000000	6.548960	0.058281	NaN	0.000000	0.001738	0.001745	28.0847	0.008774	0.001983	4.423693	-164.531	13.7588	0.001322	0.546937	-0.612785	-0.614234	0.058281	4.423693	-0.622666	-1.707177E+8	-3.413882E-10	NaN
1093	1.000000	0.590421	7.37575e+06	-54789.1	1055.82	-29742.7	0.000000	0.000000	6.590992	-0.024342	NaN	0.000000	0.001676	0.001747	28.0848	0.123677	0.001964	62.9598	-173.856	-165.019	0.005691	0.589107	-0.570750	-0.572064	-0.024342	62.9598	-0.570460	-3.258278E+7	7.470839E-10	NaN
1093	1.000000	0.632423	7.37575e+06	-54789.1	1055.82	-29742.7	0.000000	0.000000	6.632994	-0.006005	NaN	0.000000	0.001622	0.001714	28.0848	0.188808	0.001940	97.3347	13.7746	17.3557	-0.026372	0.631033	-0.528748	-0.530138	-0.006005	97.3347	-0.528702	-8.601e+06	6.981505E-10	NaN
1093	1.000000	0.674411	7.37575e+06	-54789.1	1055.82	-29742.7	0.000000	0.000000	6.674983	0.023857	NaN	0.000000	0.001678	0.001696	28.0833	0.115052	0.002006	57.3648	-134.808	-165.305	-0.002928	0.673120	-0.486760	-0.488051	0.023857	57.3648	-0.487072	-2.26186e+06	-1.054742E-8	NaN
1093	1.000000	0.716438	7.37575e+06	-54789.1	1055.82	-29742.7	0.000000	0.000000	6.717009	0.002373	NaN	0.000000	0.001677	0.001722	28.0835	0.085525	0.002043	41.8661	110.523	15.6752	-0.004241	0.715124	-0.444734	-0.446047	0.002373	41.8661	-0.444776	-576416	-4.116768E-9	NaN
1093	1.000000	0.758473	7.37575e+06	-54789.1	1055.82	-29742.7	0.000000	0.000000	6.759045	0.019102	NaN	0.000000	0.001714	0.001746	28.0836	0.094108	0.001915	49.1341	112.055	-166.13	0.035736	0.757185	-0.402698	-0.403986	0.019102	49.1341	-0.402990	-147439	-1.295573E-7	NaN
1093	1.000000	0.800466	7.37575e+06	-54789.1	1055.82	-29742.7	0.000000	0.000000	6.801039	0.046022	NaN	0.000000	0.001629	0.001737	28.0848	0.086529	0.001885	45.8934	-178.514	13.9352	0.014300	0.799144	-0.360706	-0.362028	0.046022	45.8934	-0.361458	-37403.5	-1.230427E-6	NaN
1093	1.000000	0.842504	7.37575e+06	-54789.1	1055.82	-29742.7	0.000000	0.000000	6.843078	0.080173	NaN	0.000000	0.001697	0.001750	28.0847	0.038135	0.001921	19.8512	-43.9739	-165.935	0.077895	0.841191	-0.318667	-0.319980	0.080173	19.8512	-0.321696	-9853.65	-8.136417E-6	NaN
1093	1.000000	0.884526	7.37575e+06	-54789.1	1055.82	-29742.7	0.000000	0.000000	6.885096	-0.029813	NaN	0.000000	0.001662	0.001742	28.0848	0.059189	0.002066	28.6471	-128.906	12.641	0.025232	0.883206	-0.276645	-0.277966	-0.029813	28.6471	-0.275865	-2044.03	1.458527E-5	NaN
1093	1.000000	0.926561	7.37575e+06	-54789.1	1055.82	-29742.7	0.000000	0.000000	6.927131	-0.019895	NaN	0.000000	0.001638	0.001750	28.0837	0.043496	0.001967	22.1173	93.7401	-163.535	0.007186	0.925205	-0.234610	-0.235966	-0.019895	22.1173	-0.233936	-461.878	4.307307E-5	NaN
1093	1.000000	0.968575	7.37575e+06	-54789.1	1055.82	-29742.7	0.000000	0.000000	6.969147	0.033628	NaN	0.000000	0.001654	0.001729	28.0838	0.053356	0.002016	26.4605	-111.003	9.284983	0.039769	0.967219	-0.192597	-0.193953	0.033628	26.4605	-0.193550	-103.074	-0.000326	NaN
1093	1.000000	1.010602	7.37575e+06	-54789.1	1055.82	-29742.7	0.000000	0.000000	7.011176	0.059144	NaN	0.000000	0.001629	0.001777	28.0838	0.038381	0.001930	19.8866	-1.178627	-165.129	0.023358	1.009264	-0.150569	-0.151908	0.059144	19.8866	-0.152800	-20.3645	-0.002904	NaN
1093	1.000000	1.052592	7.37575e+06	-54789.1	1055.82	-29742.7	0.000000	0.000000	7.053166	0.060970	NaN	0.000000	0.001631	0.001756	28.0853	0.058099	0.002040	28.4747	149.073	14.655	-0.001057	1.051245	-0.108579	-0.109927	0.060970	28.4747	-0.110185	-3.032322	-0.020107	NaN
1093	1.000000	1.094605	7.37575e+06	-54789.1	1055.82	-29742.7	0.000000	0.000000	7.095176	-0.016941	NaN	0.000000	0.001642	0.001743	28.085	0.059162	0.002010	29.4411	-111.492	-164.288	0.043026	1.093317	-0.066566	-0.067854	-0.016941	29.4411	-0.066135	-0.267873	0.063244	NaN
1093	1.000000	1.136582	7.37575e+06	-54789.1	1055.82	-29742.7	0.000000	0.000000	7.137412	6.275093	NaN	0.000000	0.001706	0.001769	28.0848	1.982671	0.001989	997.037	9.710233	13.4009	5.578064	1.135229	-0.024589	-0.025942	6.275093	997.037	-0.029309	-0.022020	-284.978	NaN
1093	2.000000	1.152124	7.37575e+06	-54789.1	1055.82	-29742.7	0.000000	0.000000	7.153171	11.5827	NaN	0.000000	0.001713	0.001743	28.0845	3.200393	0.002023	1581.69	5.426572	-167.162	11.5607	1.151783	-0.009048	-0.009388	11.5827	1581.69	-0.014540	-0.009001	-1286.77	NaN
1093	2.000000	1.162607	7.37575e+06	-54789.1	1055.82	-29742.7	0.000000	0.000000	7.163909	17.7769	NaN	0.000000	0.001686	0.001727	28.0837	5.104922	0.001836	2780.57	7.167248	8.741594	17.3322	1.162202	0.001435	0.001030	17.7769	2780.57	-0.003360	-0.002360	-7533.26	NaN
1093	2.000000	1.173057	7.37575e+06	-54789.1	1055.82	-29742.7	0.000000	0.000000	7.174034	9.871537	NaN	0.000000	0.001657	0.001740	28.0835	11.5654	0.001818	6362.16	11.4116	-173.84	9.272847	1.172731	0.011885	0.011559	9.871537	6362.16	0.010721	0.009994	987.711	58143.4
1093	2.000000	1.183484	7.37575e+06	-54789.1	1055.82	-29742.7	0.000000	0.000000	7.186727	64.9528	NaN	0.000000	0.001641	0.001692	28.0841	27.5155	0.001728	15920.7	6.278557	-0.949320	62.5183	1.183197	0.022313	0.022025	64.9528	15920.7	0.019253	0.021382	3037.76	99474.6
1093	2.000000	1.193983	7.37575e+06	-54789.1	1055.82	-29742.7	0.000000	0.000000	7.201339	164.939	NaN	0.000000	0.001630	0.001700	28.0852	41.1834	0.001630	25272.2	2.520392	179.587	159.923	1.193616	0.032811	0.032445	164.939	25272.2	0.027917	0.036536	4514.43	120797
1093	2.000000	1.204440	7.37575e+06	-54789.1	1055.82	-29742.7	0.000000	0.000000	7.216743	285.194	NaN	0.000000	0.001688	0.001704	28.0848	54.2857	0.001809	30012.8	2.937602	-2.725109	279.433	1.204161	0.043269	0.042990	285.194	30012.8	0.036142	0.054439	5238.79	117524
1093	2.000000	1.214931	7.37575e+06	-54789.1	1055.82	-29742.7	0.000000	0.000000	7.233541	438.52	NaN	0.000000	0.001696	0.001683	28.0844	63.7641	0.001784	35732.8	1.553710	177.306	433.735	1.214611	0.053760	0.053440	438.52	35732.8	0.044556	0.076331	5744.97	118165
1093	2.000000	1.225352	7.37575e+06	-54789.1	1055.82	-29742.7	0.000000	0.000000	7.248509	549.065	NaN	0.000000	0.001691	0.001715	28.0833	71.7001	0.001782	40231.4	-0.126354	-2.151545	539.941	1.225019	0.064180	0.063848	549.065	40231.4	0.053945	0.104995	5229.46	113437
1093	2.000000	1.235860	7.37575e+06	-54789.1	1055.82	-29742.7	0.000000	0.000000	7.263999	670.168	NaN	0.000000	0.001588	0.001744	28.0834	80.7249	0.001858	43458.4	1.064497	176.569	662.655	1.235567	0.074689	0.074396	670.168	43458.4	0.063123	0.137246	4882.98	107176
1093	2.000000	1.241882	7.37575e+06	-54789.1	1055.82	-29742.7	0.000000	0.000000	7.272269	724.817	NaN	0.000000	0.001637	0.001710	28.0835	85.4444	0.001762	48484.5	2.252925	174.367	718.107	1.241580	0.080711	0.080409	724.817	48484.5	0.069499	0.162055	4472.65	110038