File: remote_trans/data/nanoindenter/0828-1/data/Data_2025-08-06,11h17m57s/2025-07-22_16-23-58_1_633.txt
2025-07-22, 16:23:58, 1
Index	Phase	Displacement	Time	Pos X	Pos Y	Pos Z	Rot A	Rot B	Piezo Z	Force A	Force B	Gripper	Voltage A	Voltage B	Temperature	Amplitude force	Amplitude pos	Stiffness	Phase shift	Phase excitation	Force A raw	Displacement raw	HMax	HMax raw	Real Force	Real Stiffness	Contact Depth	Area	Hardness	Reduced Mod.
[#]	[#]	[um]	[s]	[um]	[um]	[um]	[m°]	[m°]	[um]	[uN]	[uN]	[V]	[V]	[V]	[°C]	[uN]	[um]	[N/m]	[°]	[°]	[uN]	[um]	[um]	[um]	[uN]	[N/m]	[um]	[um^2]	[MPa]	[MPa]
633	1.000000	0.002685	7.37124e+06	-45439.1	1005.82	-29772.4	0.000000	0.000000	6.002821	0.010115	NaN	0.000000	0.001568	0.001734	28.0828	0.126526	0.000892	141.8	-172.352	-164.839	-0.063483	0.001425	-1.157191	-1.158451	0.010115	141.8	-1.157244	-2.937194E+15	-3.443801E-18	NaN
633	1.000000	0.046616	7.37124e+06	-45439.1	1005.82	-29772.4	0.000000	0.000000	6.046753	0.026422	NaN	0.000000	0.001574	0.001731	28.0822	0.075255	0.002056	36.6002	-79.5172	-165.717	-0.030400	0.045330	-1.113260	-1.114546	0.026422	36.6002	-1.113801	-7.678885E+14	-3.440892E-17	NaN
633	1.000000	0.090635	7.37124e+06	-45439.1	1005.82	-29772.4	0.000000	0.000000	6.090771	-0.009035	NaN	0.000000	0.001519	0.001726	28.0819	0.111020	0.001987	55.8655	-115.271	-164.097	0.011742	0.089286	-1.069240	-1.070590	-0.009035	55.8655	-1.069119	-1.929088E+14	4.683365E-17	NaN
633	1.000000	0.134635	7.37124e+06	-45439.1	1005.82	-29772.4	0.000000	0.000000	6.134773	0.034529	NaN	0.000000	0.001622	0.001714	28.0831	0.083949	0.002067	40.6075	-23.6764	-165.009	0.069130	0.133399	-1.025241	-1.026477	0.034529	40.6075	-1.025878	-5.058689E+13	-6.825624E-16	NaN
633	1.000000	0.178636	7.37124e+06	-45439.1	1005.82	-29772.4	0.000000	0.000000	6.178771	-0.018392	NaN	0.000000	0.001624	0.001699	28.0832	0.093764	0.001870	50.1501	-101.629	-163.342	0.071725	0.177362	-0.981240	-0.982513	-0.018392	50.1501	-0.980965	-1.257214E+13	1.462923E-15	NaN
633	1.000000	0.222681	7.37124e+06	-45439.1	1005.82	-29772.4	0.000000	0.000000	6.222814	-0.062908	NaN	0.000000	0.001599	0.001738	28.0835	0.123240	0.002034	60.5909	15.2922	-165.354	0.014222	0.221377	-0.937195	-0.938498	-0.062908	60.5909	-0.936416	-3.153426E+12	1.994897E-14	NaN
633	1.000000	0.266682	7.37124e+06	-45439.1	1005.82	-29772.4	0.000000	0.000000	6.266816	-0.038015	NaN	0.000000	0.001604	0.001728	28.082	0.096037	0.002020	47.5466	-146.523	-165.148	-0.037449	0.265415	-0.893194	-0.894460	-0.038015	47.5466	-0.892594	-8.072022E+11	4.709418E-14	NaN
633	1.000000	0.310740	7.37124e+06	-45439.1	1005.82	-29772.4	0.000000	0.000000	6.310876	-0.008756	NaN	0.000000	0.001658	0.001733	28.0819	0.025413	0.001923	13.216	-124.34	-162.74	0.038168	0.309438	-0.849136	-0.850438	-0.008756	13.216	-0.848639	-2.052605E+11	4.265645E-14	NaN
633	1.000000	0.354739	7.37124e+06	-45439.1	1005.82	-29772.4	0.000000	0.000000	6.354874	-0.028510	NaN	0.000000	0.001618	0.001712	28.0818	0.034447	0.002205	15.6195	-48.5295	-165.227	-0.001625	0.353452	-0.805137	-0.806423	-0.028510	15.6195	-0.803768	-5.058263E+10	5.636225E-13	NaN
633	1.000000	0.398738	7.37124e+06	-45439.1	1005.82	-29772.4	0.000000	0.000000	6.398872	-0.037183	NaN	0.000000	0.001640	0.001707	28.0833	0.107472	0.002130	50.4567	107.518	-163.995	-0.079135	0.397496	-0.761138	-0.762380	-0.037183	50.4567	-0.760585	-1.309983E+10	2.838421E-12	NaN
633	1.000000	0.442768	7.37124e+06	-45439.1	1005.82	-29772.4	0.000000	0.000000	6.442903	-0.029630	NaN	0.000000	0.001627	0.001709	28.0835	0.061982	0.002108	29.4046	165.459	-164.828	0.005818	0.441469	-0.717108	-0.718407	-0.029630	29.4046	-0.716352	-3.271277E+9	9.057679E-12	NaN
633	1.000000	0.486804	7.37124e+06	-45439.1	1005.82	-29772.4	0.000000	0.000000	6.486939	-0.032345	NaN	0.000000	0.001727	0.001747	28.0835	0.055486	0.001977	28.0694	-50.9647	-164.91	-0.002605	0.485527	-0.673072	-0.674349	-0.032345	28.0694	-0.672207	-8.158281E+8	3.964729E-11	NaN
633	1.000000	0.530843	7.37124e+06	-45439.1	1005.82	-29772.4	0.000000	0.000000	6.530980	0.001111	NaN	0.000000	0.001730	0.001737	28.082	0.125172	0.001970	63.5511	-105.15	-167.704	-0.027530	0.529492	-0.629032	-0.630384	0.001111	63.5511	-0.629045	-2.088870E+8	-5.318641E-12	NaN
633	1.000000	0.574826	7.37125e+06	-45439.1	1005.82	-29772.4	0.000000	0.000000	6.574966	0.075043	NaN	0.000000	0.001639	0.001726	28.0823	0.074215	0.001868	39.7297	133.983	-167.976	0.070894	0.573550	-0.585049	-0.586325	0.075043	39.7297	-0.586466	-5.419162E+7	-1.384766E-9	NaN
633	1.000000	0.618878	7.37125e+06	-45439.1	1005.82	-29772.4	0.000000	0.000000	6.619014	-0.016798	NaN	0.000000	0.001630	0.001736	28.0824	0.020822	0.002084	9.989876	-149.061	-166.802	-0.030637	0.617591	-0.540997	-0.542284	-0.016798	9.989876	-0.539736	-1.223767E+7	1.372664E-9	NaN
633	1.000000	0.662870	7.37125e+06	-45439.1	1005.82	-29772.4	0.000000	0.000000	6.663003	-0.084445	NaN	0.000000	0.001741	0.001696	28.0835	0.067569	0.001971	34.2771	-48.7918	-164.356	-0.012200	0.661591	-0.497005	-0.498285	-0.084445	34.2771	-0.495158	-2.93384e+06	2.878316E-8	NaN
633	1.000000	0.706872	7.37125e+06	-45439.1	1005.82	-29772.4	0.000000	0.000000	6.707009	0.011170	NaN	0.000000	0.001730	0.001712	28.0835	0.054704	0.001865	29.3371	172.417	-168.033	0.062789	0.705616	-0.453004	-0.454260	0.011170	29.3371	-0.453289	-759704	-1.470374E-8	NaN
633	1.000000	0.750892	7.37125e+06	-45439.1	1005.82	-29772.4	0.000000	0.000000	6.751026	-0.055550	NaN	0.000000	0.001649	0.001781	28.0831	0.088135	0.002029	43.4466	-125.405	-165.284	-0.000802	0.749582	-0.408983	-0.410294	-0.055550	43.4466	-0.408025	-173901	3.194344E-7	NaN
633	1.000000	0.794926	7.37125e+06	-45439.1	1005.82	-29772.4	0.000000	0.000000	6.795063	0.011800	NaN	0.000000	0.001646	0.001750	28.0822	0.056367	0.001994	28.263	116.37	-165.067	-0.014272	0.793651	-0.364949	-0.366224	0.011800	28.263	-0.365263	-42446.5	-2.780017E-7	NaN
633	1.000000	0.838909	7.37125e+06	-45439.1	1005.82	-29772.4	0.000000	0.000000	6.839046	0.017578	NaN	0.000000	0.001623	0.001767	28.083	0.036583	0.001989	18.389	110.822	-164.673	-0.015546	0.837629	-0.320966	-0.322246	0.017578	18.389	-0.321683	-9849.27	-1.784685E-6	NaN
633	1.000000	0.882945	7.37125e+06	-45439.1	1005.82	-29772.4	0.000000	0.000000	6.883080	-0.045742	NaN	0.000000	0.001620	0.001751	28.0823	0.090870	0.002027	44.8333	164.519	-167.587	-0.116972	0.881648	-0.276930	-0.278228	-0.045742	44.8333	-0.276165	-2065.54	2.214537E-5	NaN
633	1.000000	0.926962	7.37125e+06	-45439.1	1005.82	-29772.4	0.000000	0.000000	6.927097	-0.037588	NaN	0.000000	0.001578	0.001802	28.0838	0.055535	0.001978	28.0821	129.385	-169.005	0.001141	0.925646	-0.232913	-0.234230	-0.037588	28.0821	-0.231910	-429.178	8.758049E-5	NaN
633	1.000000	0.970994	7.37125e+06	-45439.1	1005.82	-29772.4	0.000000	0.000000	6.971130	-0.013478	NaN	0.000000	0.001591	0.001752	28.0832	0.146621	0.002103	69.7153	89.7267	-168.905	-0.005216	0.969712	-0.188882	-0.190163	-0.013478	69.7153	-0.188737	-85.6845	0.000157	NaN
633	1.000000	1.015002	7.37125e+06	-45439.1	1005.82	-29772.4	0.000000	0.000000	7.015138	-0.004296	NaN	0.000000	0.001605	0.001754	28.0834	0.066036	0.001961	33.6768	-78.8058	-164.834	0.023836	1.013718	-0.144873	-0.146158	-0.004296	33.6768	-0.144778	-14.523	0.000296	NaN
633	1.000000	1.059016	7.37125e+06	-45439.1	1005.82	-29772.4	0.000000	0.000000	7.059152	0.002618	NaN	0.000000	0.001680	0.001767	28.0834	0.037583	0.001907	19.7078	-55.6278	-164.275	0.062755	1.057751	-0.100860	-0.102124	0.002618	19.7078	-0.100959	-1.918597	-0.001365	NaN
633	1.000000	1.103036	7.37125e+06	-45439.1	1005.82	-29772.4	0.000000	0.000000	7.103170	-0.045795	NaN	0.000000	0.001691	0.001737	28.0825	0.042120	0.002058	20.4632	106.777	-164.713	0.039831	1.101749	-0.056840	-0.058126	-0.045795	20.4632	-0.055161	-0.130199	0.351730	NaN
633	1.000000	1.147050	7.37125e+06	-45439.1	1005.82	-29772.4	0.000000	0.000000	7.147185	-0.021867	NaN	0.000000	0.001687	0.001717	28.0826	0.096303	0.001886	51.0711	-90.1367	-164.103	0.047403	1.145727	-0.012826	-0.014149	-0.021867	51.0711	-0.012505	-0.007818	2.797212	NaN
633	2.000000	1.171555	7.37125e+06	-45439.1	1005.82	-29772.4	0.000000	0.000000	7.173010	32.0816	NaN	0.000000	0.001691	0.001768	28.0823	17.823	0.001748	10194.3	6.374816	-178.103	30.9757	1.171219	0.011679	0.011344	32.0816	10194.3	0.009319	0.008434	3803.82	101417
633	2.000000	1.182471	7.37125e+06	-45439.1	1005.82	-29772.4	0.000000	0.000000	7.186911	104.698	NaN	0.000000	0.001689	0.001743	28.0837	29.4245	0.001781	16520.2	3.539211	-179.54	102.538	1.182192	0.022596	0.022317	104.698	16520.2	0.017843	0.019265	5434.66	108744
633	2.000000	1.193529	7.37125e+06	-45439.1	1005.82	-29772.4	0.000000	0.000000	7.201729	196.176	NaN	0.000000	0.001579	0.001718	28.085	40.3955	0.001859	21723.9	6.117869	175.672	196.494	1.193135	0.033653	0.033260	196.176	21723.9	0.026880	0.034526	5682.03	106817
633	2.000000	1.204508	7.37125e+06	-45439.1	1005.82	-29772.4	0.000000	0.000000	7.216053	277.523	NaN	0.000000	0.001593	0.001743	28.0837	50.2442	0.001840	27308.2	1.856144	178.531	277.948	1.204185	0.044633	0.044309	277.523	27308.2	0.037011	0.056532	4909.14	104935
633	2.000000	1.215366	7.37125e+06	-45439.1	1005.82	-29772.4	0.000000	0.000000	7.230582	366.853	NaN	0.000000	0.001592	0.001731	28.0823	58.9859	0.001732	34055.4	1.443562	176.541	360.797	1.215044	0.055490	0.055169	366.853	34055.4	0.047411	0.084579	4337.39	106986
633	2.000000	1.226466	7.37125e+06	-45439.1	1005.82	-29772.4	0.000000	0.000000	7.245831	467.786	NaN	0.000000	0.001618	0.001772	28.0822	68.5978	0.001807	37965.4	4.955901	172.946	468.407	1.226214	0.066590	0.066338	467.786	37965.4	0.057349	0.116475	4016.2	101636
633	2.000000	1.237521	7.37125e+06	-45439.1	1005.82	-29772.4	0.000000	0.000000	7.260669	559.803	NaN	0.000000	0.001632	0.001797	28.083	77.8755	0.001811	42996.5	-0.041730	177.291	561.738	1.237167	0.077645	0.077291	559.803	42996.5	0.067881	0.155573	3598.33	99595.3
633	2.000000	1.248418	7.37125e+06	-45439.1	1005.82	-29772.4	0.000000	0.000000	7.275814	663.131	NaN	0.000000	0.001615	0.001797	28.0836	89.3164	0.001805	49491.6	6.652521	169.552	662.137	1.247982	0.088542	0.088107	663.131	49491.6	0.078493	0.200343	3309.98	101022
633	2.000000	1.259456	7.37125e+06	-45439.1	1005.82	-29772.4	0.000000	0.000000	7.291126	767.094	NaN	0.000000	0.001622	0.001787	28.0836	97.5867	0.001746	55902.2	3.905669	171.535	769.901	1.259202	0.099581	0.099326	767.094	55902.2	0.089289	0.251286	3052.67	101887
633	2.000000	1.263922	7.37125e+06	-45439.1	1005.82	-29772.4	0.000000	0.000000	7.297705	818.519	NaN	0.000000	0.001627	0.001773	28.0837	102.741	0.001919	53543.7	4.237453	-8.413297	815.455	1.263472	0.104046	0.103597	818.519	53543.7	0.092581	0.267888	3055.45	94515.9