File: remote_trans/data/nanoindenter/0828-1/data/Data_2025-08-06,11h17m57s/2025-07-22_16-23-58_1_1185.txt
2025-07-22, 16:23:58, 1
Index	Phase	Displacement	Time	Pos X	Pos Y	Pos Z	Rot A	Rot B	Piezo Z	Force A	Force B	Gripper	Voltage A	Voltage B	Temperature	Amplitude force	Amplitude pos	Stiffness	Phase shift	Phase excitation	Force A raw	Displacement raw	HMax	HMax raw	Real Force	Real Stiffness	Contact Depth	Area	Hardness	Reduced Mod.
[#]	[#]	[um]	[s]	[um]	[um]	[um]	[m°]	[m°]	[um]	[uN]	[uN]	[V]	[V]	[V]	[°C]	[uN]	[um]	[N/m]	[°]	[°]	[uN]	[um]	[um]	[um]	[uN]	[N/m]	[um]	[um^2]	[MPa]	[MPa]
1185	1.000000	0.003095	7.37664e+06	-56339.1	1105.82	-29739.1	0.000000	0.000000	6.002828	-0.033775	NaN	0.000000	0.001646	0.001695	28.0824	0.054049	0.000946	57.148	-67.6165	-163.091	-0.079167	0.001812	-0.378229	-0.379511	-0.033775	57.148	-0.377785	-64282.7	5.254123E-7	NaN
1185	1.000000	0.025022	7.37664e+06	-56339.1	1105.82	-29739.1	0.000000	0.000000	6.024757	0.005185	NaN	0.000000	0.001589	0.001731	28.0825	0.015687	0.001764	8.894631	151.757	11.5376	0.027861	0.023618	-0.356301	-0.357705	0.005185	8.894631	-0.356738	-31964.2	-1.622094E-7	NaN
1185	1.000000	0.047021	7.37664e+06	-56339.1	1105.82	-29739.1	0.000000	0.000000	6.046756	0.001415	NaN	0.000000	0.001593	0.001730	28.0827	0.032707	0.001889	17.3154	134.988	-165.308	-0.020369	0.045690	-0.334302	-0.335633	0.001415	17.3154	-0.334364	-15110.9	-9.365957E-8	NaN
1185	1.000000	0.069001	7.37664e+06	-56339.1	1105.82	-29739.1	0.000000	0.000000	6.068738	0.035701	NaN	0.000000	0.001593	0.001675	28.084	0.085485	0.002048	41.7461	141.485	11.669	0.011907	0.067648	-0.312322	-0.313675	0.035701	41.7461	-0.312963	-7326.09	-4.873184E-6	NaN
1185	1.000000	0.091027	7.37664e+06	-56339.1	1105.82	-29739.1	0.000000	0.000000	6.090758	-0.079911	NaN	0.000000	0.001597	0.001699	28.0838	0.036564	0.002015	18.142	-114.897	-167.453	-0.015104	0.089706	-0.290297	-0.291617	-0.079911	18.142	-0.286993	-3007.51	2.657063E-5	NaN
1185	1.000000	0.113044	7.37664e+06	-56339.1	1105.82	-29739.1	0.000000	0.000000	6.112778	-0.003609	NaN	0.000000	0.001617	0.001704	28.0839	0.073039	0.002001	36.507	-119.419	16.6132	0.015215	0.111607	-0.268280	-0.269716	-0.003609	36.507	-0.268206	-1564.04	2.307438E-6	NaN
1185	1.000000	0.135044	7.37664e+06	-56339.1	1105.82	-29739.1	0.000000	0.000000	6.134780	0.019895	NaN	0.000000	0.001606	0.001691	28.0843	0.051868	0.002057	25.2152	-96.8617	-163.348	-0.008333	0.133748	-0.246279	-0.247575	0.019895	25.2152	-0.246870	-735.35	-2.705582E-5	NaN
1185	1.000000	0.157089	7.37664e+06	-56339.1	1105.82	-29739.1	0.000000	0.000000	6.156826	0.061769	NaN	0.000000	0.001601	0.001717	28.0842	0.045058	0.002036	22.1263	129.256	16.7023	0.072891	0.155743	-0.224234	-0.225580	0.061769	22.1263	-0.226328	-350.279	-0.000176	NaN
1185	1.000000	0.179044	7.37664e+06	-56339.1	1105.82	-29739.1	0.000000	0.000000	6.178779	-0.009800	NaN	0.000000	0.001585	0.001705	28.0843	0.076264	0.002009	37.9685	25.8412	-165.295	0.007258	0.177739	-0.202279	-0.203585	-0.009800	37.9685	-0.202085	-142.533	6.875312E-5	NaN
1185	1.000000	0.201099	7.37664e+06	-56339.1	1105.82	-29739.1	0.000000	0.000000	6.200835	0.019159	NaN	0.000000	0.001575	0.001741	28.084	0.044593	0.001897	23.5086	81.4433	12.6043	-0.044802	0.199721	-0.180224	-0.181602	0.019159	23.5086	-0.180835	-63.0476	-0.000304	NaN
1185	1.000000	0.223092	7.37664e+06	-56339.1	1105.82	-29739.1	0.000000	0.000000	6.222828	0.029469	NaN	0.000000	0.001598	0.001720	28.0832	0.006256	0.001990	3.143885	-64.2258	-165.228	-0.025707	0.221821	-0.158231	-0.159502	0.029469	3.143885	-0.165261	-33.9537	-0.000868	NaN
1185	1.000000	0.245108	7.37664e+06	-56339.1	1105.82	-29739.1	0.000000	0.000000	6.244844	0.023883	NaN	0.000000	0.001641	0.001709	28.0829	0.099280	0.002062	48.1522	134.54	15.6095	0.065291	0.243738	-0.136215	-0.137585	0.023883	48.1522	-0.136587	-10.1979	-0.002342	NaN
1185	1.000000	0.267112	7.37664e+06	-56339.1	1105.82	-29739.1	0.000000	0.000000	6.266847	-0.003675	NaN	0.000000	0.001652	0.001741	28.0826	0.040595	0.001843	22.0251	102.758	-168.064	-0.025672	0.265828	-0.114211	-0.115496	-0.003675	22.0251	-0.114086	-3.657833	0.001005	NaN
1185	1.000000	0.289093	7.37664e+06	-56339.1	1105.82	-29739.1	0.000000	0.000000	6.288830	0.071359	NaN	0.000000	0.001614	0.001716	28.0829	0.098677	0.002050	48.1429	-98.317	15.8316	-0.017616	0.287759	-0.092230	-0.093564	0.071359	48.1429	-0.093342	-1.292586	-0.055207	NaN
1185	1.000000	0.311112	7.37664e+06	-56339.1	1105.82	-29739.1	0.000000	0.000000	6.310848	0.026187	NaN	0.000000	0.001631	0.001727	28.0827	0.025760	0.001934	13.3212	47.6108	-166.511	-0.054637	0.309840	-0.070211	-0.071483	0.026187	13.3212	-0.071686	-0.378257	-0.069231	NaN
1185	1.000000	0.333098	7.37664e+06	-56339.1	1105.82	-29739.1	0.000000	0.000000	6.332834	0.043103	NaN	0.000000	0.001598	0.001728	28.0828	0.247183	0.001999	123.642	13.1105	14.8139	0.024855	0.331760	-0.048225	-0.049564	0.043103	123.642	-0.048487	-0.082103	-0.524983	NaN
1185	1.000000	0.355119	7.37664e+06	-56339.1	1105.82	-29739.1	0.000000	0.000000	6.354932	1.910580	NaN	0.000000	0.001570	0.001723	28.0842	1.202765	0.002019	595.731	14.1649	-166.134	1.777299	0.353865	-0.026204	-0.027458	1.910580	595.731	-0.028610	-0.021066	-90.6956	NaN
1185	1.000000	0.377119	7.37664e+06	-56339.1	1105.82	-29739.1	0.000000	0.000000	6.377117	6.381022	NaN	0.000000	0.001547	0.001721	28.0839	2.391245	0.001813	1318.59	14.2171	14.6076	6.088035	0.375802	-0.004204	-0.005522	6.381022	1318.59	-0.007833	-0.005134	-1242.92	NaN
1185	2.000000	0.388705	7.37664e+06	-56339.1	1105.82	-29739.1	0.000000	0.000000	6.388817	9.175958	NaN	0.000000	0.001581	0.001702	28.0842	3.891385	0.002046	1902.36	14.4185	-169.292	9.046616	0.388378	0.007382	0.007055	9.175958	1902.36	0.003764	0.003033	3025.19	31558.5
1185	2.000000	0.394187	7.37664e+06	-56339.1	1105.82	-29739.1	0.000000	0.000000	6.394418	12.0649	NaN	0.000000	0.001564	0.001656	28.0839	4.378328	0.002021	2166.05	10.7459	13.3847	11.9755	0.393846	0.012864	0.012523	12.0649	2166.05	0.008686	0.007758	1555.24	22468.8
1185	2.000000	0.399665	7.37664e+06	-56339.1	1105.82	-29739.1	0.000000	0.000000	6.400044	15.6682	NaN	0.000000	0.001571	0.001681	28.0837	5.164029	0.002093	2467.67	14.4307	-170.096	15.462	0.399315	0.018341	0.017992	15.6682	2467.67	0.013579	0.013437	1166	19449.2
1185	2.000000	0.405143	7.37664e+06	-56339.1	1105.82	-29739.1	0.000000	0.000000	6.405675	19.3818	NaN	0.000000	0.001531	0.001671	28.084	5.865936	0.001999	2934.38	8.829783	10.9727	19.0242	0.404791	0.023819	0.023468	19.3818	2934.38	0.018866	0.020791	932.219	18593.1
1185	2.000000	0.410655	7.37664e+06	-56339.1	1105.82	-29739.1	0.000000	0.000000	6.411373	23.9149	NaN	0.000000	0.001529	0.001653	28.0829	5.942379	0.001858	3198.26	10.4349	-170.114	23.7738	0.410292	0.029331	0.028969	23.9149	3198.26	0.023723	0.028734	832.29	17238.1
1185	2.000000	0.416131	7.37664e+06	-56339.1	1105.82	-29739.1	0.000000	0.000000	6.417023	28.1303	NaN	0.000000	0.001613	0.001669	28.0841	6.372109	0.001919	3319.73	9.800381	11.1933	27.9632	0.415767	0.034808	0.034444	28.1303	3319.73	0.028453	0.037598	748.185	15642
1185	2.000000	0.421632	7.37664e+06	-56339.1	1105.82	-29739.1	0.000000	0.000000	6.422642	31.0078	NaN	0.000000	0.001665	0.001661	28.0836	6.920994	0.002093	3307.44	12.4405	-170.39	31.6828	0.421337	0.040309	0.040014	31.0078	3307.44	0.033277	0.047810	648.557	13819.9
1185	2.000000	0.427131	7.37664e+06	-56339.1	1105.82	-29739.1	0.000000	0.000000	6.428247	33.5906	NaN	0.000000	0.001657	0.001677	28.0827	7.230040	0.001889	3828.19	10.6684	6.427567	33.5501	0.426802	0.045807	0.045479	33.5906	3828.19	0.039226	0.062044	541.396	14041.6
1185	2.000000	0.432603	7.37664e+06	-56339.1	1105.82	-29739.1	0.000000	0.000000	6.433782	35.1065	NaN	0.000000	0.001581	0.001674	28.0829	7.361384	0.001969	3737.81	11.0168	-172.631	35.43	0.432335	0.051280	0.051012	35.1065	3737.81	0.044236	0.075432	465.403	12434
1185	2.000000	0.438118	7.37664e+06	-56339.1	1105.82	-29739.1	0.000000	0.000000	6.439343	36.2215	NaN	0.000000	0.001508	0.001654	28.0828	7.449595	0.001912	3896.19	7.334137	9.857381	36.4011	0.437753	0.056795	0.056429	36.2215	3896.19	0.049822	0.091865	394.292	11744.6
1185	2.000000	0.443581	7.37664e+06	-56339.1	1105.82	-29739.1	0.000000	0.000000	6.444907	38.6903	NaN	0.000000	0.001488	0.001655	28.084	7.877704	0.001945	4050.11	13.0477	-173.316	38.6875	0.443297	0.062258	0.061974	38.6903	4050.11	0.055093	0.108803	355.601	11218.1
1185	2.000000	0.449054	7.37664e+06	-56339.1	1105.82	-29739.1	0.000000	0.000000	6.450399	39.149	NaN	0.000000	0.001505	0.001655	28.084	8.009278	0.002049	3909.42	8.935493	10.8067	38.4704	0.448728	0.067731	0.067405	39.149	3909.42	0.060220	0.126600	309.234	10038.5
1185	2.000000	0.454599	7.37664e+06	-56339.1	1105.82	-29739.1	0.000000	0.000000	6.456029	41.2041	NaN	0.000000	0.001543	0.001678	28.0842	8.333792	0.001927	4325.11	9.109319	-172.516	41.1178	0.454299	0.073275	0.072976	41.2041	4325.11	0.066130	0.148704	277.088	10247.3
1185	2.000000	0.460120	7.37664e+06	-56339.1	1105.82	-29739.1	0.000000	0.000000	6.461465	39.1403	NaN	0.000000	0.001524	0.001691	28.0842	8.582225	0.002091	4105.34	10.9579	9.174922	39.4357	0.459686	0.078797	0.078363	39.1403	4105.34	0.071647	0.170850	229.091	9074.32
1185	2.000000	0.465594	7.37664e+06	-56339.1	1105.82	-29739.1	0.000000	0.000000	6.466975	40.0016	NaN	0.000000	0.001577	0.001691	28.0846	8.361568	0.002048	4082.83	8.598555	-168.846	40.0705	0.465272	0.084271	0.083949	40.0016	4082.83	0.076923	0.193384	206.851	8482.52
1185	2.000000	0.471084	7.37664e+06	-56339.1	1105.82	-29739.1	0.000000	0.000000	6.472503	40.9561	NaN	0.000000	0.001578	0.001680	28.0844	8.741149	0.002004	4362.94	8.319315	9.376301	40.8243	0.470723	0.089760	0.089399	40.9561	4362.94	0.082720	0.219645	186.465	8505.33
1185	2.000000	0.476545	7.37664e+06	-56339.1	1105.82	-29739.1	0.000000	0.000000	6.477981	41.3324	NaN	0.000000	0.001588	0.001676	28.083	8.702400	0.001990	4372.15	9.690249	-170.984	41.0966	0.476288	0.095222	0.094965	41.3324	4372.15	0.088132	0.245569	168.313	8060.87
1185	2.000000	0.482107	7.37664e+06	-56339.1	1105.82	-29739.1	0.000000	0.000000	6.483579	42.2278	NaN	0.000000	0.001601	0.001684	28.0829	8.805793	0.001935	4550.32	6.169807	11.6614	42.0992	0.481708	0.100784	0.100385	42.2278	4550.32	0.093824	0.274286	153.955	7938.05
1185	2.000000	0.483534	7.37664e+06	-56339.1	1105.82	-29739.1	0.000000	0.000000	6.485028	42.7809	NaN	0.000000	0.001556	0.001661	28.0828	9.177502	0.001935	4742.1	7.696590	-169.063	42.3712	0.483245	0.102210	0.101922	42.7809	4742.1	0.095444	0.282732	151.313	8148.1