File: remote_trans/data/nanoindenter/0828-1/data/Data_2025-08-06,11h17m57s/2025-07-22_16-23-58_1_690.txt
2025-07-22, 16:23:58, 1
Index	Phase	Displacement	Time	Pos X	Pos Y	Pos Z	Rot A	Rot B	Piezo Z	Force A	Force B	Gripper	Voltage A	Voltage B	Temperature	Amplitude force	Amplitude pos	Stiffness	Phase shift	Phase excitation	Force A raw	Displacement raw	HMax	HMax raw	Real Force	Real Stiffness	Contact Depth	Area	Hardness	Reduced Mod.
[#]	[#]	[um]	[s]	[um]	[um]	[um]	[m°]	[m°]	[um]	[uN]	[uN]	[V]	[V]	[V]	[°C]	[uN]	[um]	[N/m]	[°]	[°]	[uN]	[um]	[um]	[um]	[uN]	[N/m]	[um]	[um^2]	[MPa]	[MPa]
690	1.000000	0.002919	7.3718e+06	-42589.1	1005.82	-29782.1	0.000000	0.000000	6.002808	-0.028273	NaN	0.000000	0.001677	0.001769	28.0821	0.034849	0.000989	35.236	-104.506	-164.952	-0.023964	0.001614	-1.170779	-1.172083	-0.028273	35.236	-1.170177	-4.377785E+15	6.458369E-18	NaN
690	1.000000	0.046798	7.3718e+06	-42589.1	1005.82	-29782.1	0.000000	0.000000	6.046687	-0.047061	NaN	0.000000	0.001721	0.001772	28.082	0.172893	0.001983	87.1968	130.682	-169.051	-0.029443	0.045538	-1.126899	-1.128159	-0.047061	87.1968	-1.126495	-1.136580E+15	4.140538E-17	NaN
690	1.000000	0.090891	7.3718e+06	-42589.1	1005.82	-29782.1	0.000000	0.000000	6.090780	-0.036678	NaN	0.000000	0.001695	0.001821	28.082	0.002931	0.002008	1.459954	-73.2115	-168.109	-0.003389	0.089617	-1.082806	-1.084080	-0.036678	1.459954	-1.063964	-1.644717E+14	2.230058E-16	NaN
690	1.000000	0.134851	7.3718e+06	-42589.1	1005.82	-29782.1	0.000000	0.000000	6.134743	0.015137	NaN	0.000000	0.001686	0.001792	28.0807	0.086115	0.002051	41.9823	-133.593	-172.136	0.015512	0.133635	-1.038846	-1.040062	0.015137	41.9823	-1.039117	-7.622325E+13	-1.985932E-16	NaN
690	1.000000	0.178922	7.3718e+06	-42589.1	1005.82	-29782.1	0.000000	0.000000	6.178815	0.052045	NaN	0.000000	0.001666	0.001800	28.0807	0.101570	0.002091	48.5819	-75.7257	-163.02	0.028476	0.177593	-0.994775	-0.996104	0.052045	48.5819	-0.995578	-1.978043E+13	-2.631159E-15	NaN
690	1.000000	0.222903	7.3718e+06	-42589.1	1005.82	-29782.1	0.000000	0.000000	6.222791	-0.056242	NaN	0.000000	0.001717	0.001767	28.081	0.075103	0.002082	36.0788	36.4521	-165.08	0.006955	0.221618	-0.950795	-0.952079	-0.056242	36.0788	-0.949625	-4.753090E+12	1.183263E-14	NaN
690	1.000000	0.266920	7.3718e+06	-42589.1	1005.82	-29782.1	0.000000	0.000000	6.266809	-0.053051	NaN	0.000000	0.001694	0.001801	28.0818	0.060716	0.002022	30.0308	110.319	-165.508	0.009711	0.265665	-0.906777	-0.908032	-0.053051	30.0308	-0.905452	-1.204291E+12	4.405165E-14	NaN
690	1.000000	0.310985	7.3718e+06	-42589.1	1005.82	-29782.1	0.000000	0.000000	6.310880	0.096189	NaN	0.000000	0.001710	0.001785	28.082	0.068080	0.002060	33.0536	125.964	-165.797	0.120531	0.309669	-0.862712	-0.864029	0.096189	33.0536	-0.864894	-3.406919E+11	-2.823340E-13	NaN
690	1.000000	0.354972	7.3718e+06	-42589.1	1005.82	-29782.1	0.000000	0.000000	6.354860	-0.070783	NaN	0.000000	0.001738	0.001811	28.0818	0.011779	0.001944	6.059718	-139.471	-166.972	0.026659	0.353640	-0.818725	-0.820058	-0.070783	6.059718	-0.809965	-6.138924E+10	1.153023E-12	NaN
690	1.000000	0.398993	7.3718e+06	-42589.1	1005.82	-29782.1	0.000000	0.000000	6.398886	0.051678	NaN	0.000000	0.001755	0.001816	28.0803	0.117042	0.001978	59.1752	9.500871	-167.908	0.105880	0.397660	-0.774704	-0.776037	0.051678	59.1752	-0.775359	-2.080466E+10	-2.483949E-12	NaN
690	1.000000	0.443032	7.3718e+06	-42589.1	1005.82	-29782.1	0.000000	0.000000	6.442924	0.025636	NaN	0.000000	0.001774	0.001767	28.0804	0.046288	0.002041	22.6772	27.9573	-163.522	0.015728	0.441689	-0.730665	-0.732008	0.025636	22.6772	-0.731513	-5.265349E+9	-4.868755E-12	NaN
690	1.000000	0.487049	7.3718e+06	-42589.1	1005.82	-29782.1	0.000000	0.000000	6.486938	-0.064794	NaN	0.000000	0.001719	0.001796	28.0807	0.043148	0.001978	21.8106	104.992	-168.996	0.025521	0.485730	-0.686648	-0.687968	-0.064794	21.8106	-0.684420	-1.198512E+9	5.406220E-11	NaN
690	1.000000	0.531067	7.3718e+06	-42589.1	1005.82	-29782.1	0.000000	0.000000	6.530959	0.023723	NaN	0.000000	0.001787	0.001769	28.0817	0.137566	0.002050	67.1149	-103.386	-165.865	0.013728	0.529802	-0.642630	-0.643895	0.023723	67.1149	-0.642895	-3.235965E+8	-7.330958E-11	NaN
690	1.000000	0.575070	7.3718e+06	-42589.1	1005.82	-29782.1	0.000000	0.000000	6.574962	0.010375	NaN	0.000000	0.001733	0.001805	28.0817	0.081110	0.002169	37.3897	149.407	-165.732	0.025463	0.573742	-0.598627	-0.599955	0.010375	37.3897	-0.598835	-8.024443E+7	-1.292912E-10	NaN
690	1.000000	0.619095	7.3718e+06	-42589.1	1005.82	-29782.1	0.000000	0.000000	6.618990	0.097110	NaN	0.000000	0.001688	0.001747	28.082	0.035043	0.002089	16.7732	159.762	-167.288	0.094506	0.617809	-0.554602	-0.555888	0.097110	16.7732	-0.558944	-2.258227E+7	-4.300281E-9	NaN
690	1.000000	0.663126	7.3718e+06	-42589.1	1005.82	-29782.1	0.000000	0.000000	6.663017	0.005247	NaN	0.000000	0.001672	0.001789	28.0806	0.043687	0.002018	21.6483	153.259	-169.862	-0.038174	0.661819	-0.510571	-0.511878	0.005247	21.6483	-0.510753	-4.84062e+06	-1.083885E-9	NaN
690	1.000000	0.707116	7.3718e+06	-42589.1	1005.82	-29782.1	0.000000	0.000000	6.707009	0.041015	NaN	0.000000	0.001681	0.001778	28.0808	0.080715	0.001977	40.8359	9.002192	-168.797	0.052098	0.705829	-0.466581	-0.467868	0.041015	40.8359	-0.467334	-1.19676e+06	-3.427130E-8	NaN
690	1.000000	0.751123	7.3718e+06	-42589.1	1005.82	-29782.1	0.000000	0.000000	6.751013	-0.026747	NaN	0.000000	0.001686	0.001809	28.0807	0.055052	0.001972	27.9164	-94.081	-163.011	0.041341	0.749812	-0.422574	-0.423885	-0.026747	27.9164	-0.421856	-273357	9.784557E-8	NaN
690	1.000000	0.795201	7.3718e+06	-42589.1	1005.82	-29782.1	0.000000	0.000000	6.795092	-0.014401	NaN	0.000000	0.001696	0.001773	28.0821	0.050237	0.002025	24.8117	-163.766	-161.584	0.042252	0.793809	-0.378496	-0.379888	-0.014401	24.8117	-0.378061	-64870.5	2.219949E-7	NaN
690	1.000000	0.839175	7.3718e+06	-42589.1	1005.82	-29782.1	0.000000	0.000000	6.839066	0.008321	NaN	0.000000	0.001681	0.001751	28.082	0.054909	0.001992	27.5639	1.771224	-168.464	0.009250	0.837842	-0.334522	-0.335855	0.008321	27.5639	-0.334749	-15308	-5.436023E-7	NaN
690	1.000000	0.883194	7.3718e+06	-42589.1	1005.82	-29782.1	0.000000	0.000000	6.883089	0.094824	NaN	0.000000	0.001711	0.001782	28.0822	0.044752	0.001986	22.5342	-140.726	-167.192	0.124323	0.881891	-0.290503	-0.291807	0.094824	22.5342	-0.293659	-3784.88	-2.505324E-5	NaN
690	1.000000	0.927207	7.3718e+06	-42589.1	1005.82	-29782.1	0.000000	0.000000	6.927100	0.049179	NaN	0.000000	0.001698	0.001787	28.0811	0.028470	0.001966	14.4841	-149.645	-167.685	0.040964	0.925924	-0.246490	-0.247773	0.049179	14.4841	-0.249037	-794.438	-6.190465E-5	NaN
690	1.000000	0.971231	7.3718e+06	-42589.1	1005.82	-29782.1	0.000000	0.000000	6.971123	0.016142	NaN	0.000000	0.001696	0.001768	28.081	0.030794	0.001854	16.6088	169.144	-167.261	0.038257	0.969945	-0.202466	-0.203752	0.016142	16.6088	-0.203195	-148.62	-0.000109	NaN
690	1.000000	1.015272	7.3718e+06	-42589.1	1005.82	-29782.1	0.000000	0.000000	7.015164	0.008980	NaN	0.000000	0.001671	0.001772	28.0808	0.079349	0.001915	41.4298	-95.5675	-166.535	0.021948	1.013916	-0.158425	-0.159781	0.008980	41.4298	-0.158587	-25.8726	-0.000347	NaN
690	1.000000	1.059251	7.3718e+06	-42589.1	1005.82	-29782.1	0.000000	0.000000	7.059142	0.004394	NaN	0.000000	0.001561	0.001790	28.0808	0.044596	0.002079	21.4483	-74.3356	-167.405	-0.077404	1.057979	-0.114446	-0.115718	0.004394	21.4483	-0.114600	-3.748482	-0.001172	NaN
690	1.000000	1.103279	7.3718e+06	-42589.1	1005.82	-29782.1	0.000000	0.000000	7.103172	0.059738	NaN	0.000000	0.001614	0.001762	28.0822	0.173987	0.002107	82.5766	17.051	-167.874	0.074133	1.101978	-0.070418	-0.071719	0.059738	82.5766	-0.070961	-0.361861	-0.165085	NaN
690	1.000000	1.147312	7.3718e+06	-42589.1	1005.82	-29782.1	0.000000	0.000000	7.147223	0.481979	NaN	0.000000	0.001616	0.001817	28.0821	0.318241	0.002104	151.28	34.9642	-163.907	0.548294	1.145996	-0.026385	-0.027701	0.481979	151.28	-0.028774	-0.021286	-22.6433	NaN
690	2.000000	1.181849	7.3718e+06	-42589.1	1005.82	-29782.1	0.000000	0.000000	7.182250	12.4129	NaN	0.000000	0.001634	0.001813	28.0821	11.6919	0.001727	6768.89	4.847232	-171.744	12.0704	1.181559	0.008152	0.007862	12.4129	6768.89	0.006777	0.005814	2135	81105.8
690	2.000000	1.192819	7.3718e+06	-42589.1	1005.82	-29782.1	0.000000	0.000000	7.194033	32.2063	NaN	0.000000	0.001636	0.001829	28.0811	22.3946	0.001764	12693.6	7.541624	-179.362	33.3163	1.192436	0.019122	0.018738	32.2063	12693.6	0.017219	0.018359	1754.27	85592.3
690	2.000000	1.203722	7.37181e+06	-42589.1	1005.82	-29782.1	0.000000	0.000000	7.206261	64.4164	NaN	0.000000	0.001598	0.001813	28.081	32.2189	0.001723	18696.6	5.572791	179.308	62.303	1.203371	0.030025	0.029674	64.4164	18696.6	0.027441	0.035606	1809.12	90525.9
690	2.000000	1.214703	7.37181e+06	-42589.1	1005.82	-29782.1	0.000000	0.000000	7.218743	100.934	NaN	0.000000	0.001599	0.001774	28.0807	44.1331	0.001851	23845.9	4.568738	177.864	97.7775	1.214425	0.041006	0.040728	100.934	23845.9	0.037832	0.058544	1724.05	90041.6
690	2.000000	1.225733	7.37181e+06	-42589.1	1005.82	-29782.1	0.000000	0.000000	7.231803	150.331	NaN	0.000000	0.001695	0.001789	28.0819	54.939	0.001820	30187.3	5.354804	174.498	150.358	1.225367	0.052036	0.051670	150.331	30187.3	0.048301	0.087234	1723.32	93380.4
690	2.000000	1.236679	7.37181e+06	-42589.1	1005.82	-29782.1	0.000000	0.000000	7.244895	202.543	NaN	0.000000	0.001716	0.001775	28.0822	63.411	0.001709	37103.1	4.191259	174.57	200.602	1.236303	0.062982	0.062606	202.543	37103.1	0.058888	0.121850	1662.23	97111.5
690	2.000000	1.247693	7.37181e+06	-42589.1	1005.82	-29782.1	0.000000	0.000000	7.258657	269.42	NaN	0.000000	0.001677	0.001755	28.0822	75.1619	0.001773	42384.5	4.509437	173.194	270.034	1.247431	0.073996	0.073733	269.42	42384.5	0.069228	0.160964	1673.8	96519.9
690	2.000000	1.258596	7.37181e+06	-42589.1	1005.82	-29782.1	0.000000	0.000000	7.272349	337.28	NaN	0.000000	0.001729	0.001731	28.0806	86.4438	0.001820	47504.1	5.149913	171.562	333.744	1.258270	0.084899	0.084573	337.28	47504.1	0.079574	0.205198	1643.68	95811.5
690	2.000000	1.269615	7.37181e+06	-42589.1	1005.82	-29782.1	0.000000	0.000000	7.286682	417.894	NaN	0.000000	0.001775	0.001794	28.0802	96.0504	0.001701	56469.8	6.004702	168.715	413.193	1.269310	0.095918	0.095613	417.894	56469.8	0.090368	0.256671	1628.13	101836
690	2.000000	1.277084	7.37181e+06	-42589.1	1005.82	-29782.1	0.000000	0.000000	7.296199	467.737	NaN	0.000000	0.001754	0.001747	28.0803	103.535	0.001897	54588	3.936490	-8.231479	461.903	1.276877	0.103386	0.103179	467.737	54588	0.096960	0.290740	1608.78	92494.9