File: remote_trans/data/nanoindenter/0828-1/data/Data_2025-08-06,11h17m57s/2025-07-22_16-23-58_1_259.txt
2025-07-22, 16:23:58, 1
Index	Phase	Displacement	Time	Pos X	Pos Y	Pos Z	Rot A	Rot B	Piezo Z	Force A	Force B	Gripper	Voltage A	Voltage B	Temperature	Amplitude force	Amplitude pos	Stiffness	Phase shift	Phase excitation	Force A raw	Displacement raw	HMax	HMax raw	Real Force	Real Stiffness	Contact Depth	Area	Hardness	Reduced Mod.
[#]	[#]	[um]	[s]	[um]	[um]	[um]	[m°]	[m°]	[um]	[uN]	[uN]	[V]	[V]	[V]	[°C]	[uN]	[um]	[N/m]	[°]	[°]	[uN]	[um]	[um]	[um]	[uN]	[N/m]	[um]	[um^2]	[MPa]	[MPa]
259	1.000000	0.002406	7.36759e+06	-51589.1	955.818	-29752	0.000000	0.000000	6.002800	0.020205	NaN	0.000000	0.001619	0.001661	28.0789	0.082932	0.000906	91.5836	42.8183	-174.94	0.014942	0.001172	-1.154486	-1.155720	0.020205	91.5836	-1.154652	-2.711301E+15	-7.452132E-18	NaN
259	1.000000	0.044360	7.36759e+06	-51589.1	955.819	-29752	0.000000	0.000000	6.044755	0.067337	NaN	0.000000	0.001547	0.001669	28.0776	0.022822	0.002085	10.9455	28.333	13.6722	0.073266	0.042985	-1.112533	-1.113907	0.067337	10.9455	-1.117147	-8.515109E+14	-7.907892E-17	NaN
259	1.000000	0.086342	7.36759e+06	-51589.1	955.819	-29752	0.000000	0.000000	6.086737	0.063130	NaN	0.000000	0.001580	0.001640	28.0775	0.047738	0.002019	23.6422	140.318	-166.681	0.057904	0.085066	-1.070551	-1.071826	0.063130	23.6422	-1.072553	-2.145309E+14	-2.942700E-16	NaN
259	1.000000	0.128383	7.36759e+06	-51589.1	955.818	-29752	0.000000	0.000000	6.128780	0.107004	NaN	0.000000	0.001583	0.001638	28.0774	0.048280	0.001869	25.8364	-66.9304	12.3828	0.089053	0.127044	-1.028510	-1.029848	0.107004	25.8364	-1.031616	-6.042529E+13	-1.770848E-15	NaN
259	1.000000	0.170422	7.36759e+06	-51589.1	955.818	-29752	0.000000	0.000000	6.170815	0.012836	NaN	0.000000	0.001598	0.001678	28.0786	0.060232	0.001995	30.194	-20.7209	-165.828	0.013145	0.169065	-0.986471	-0.987827	0.012836	30.194	-0.986790	-1.506165E+13	-8.522285E-16	NaN
259	1.000000	0.212422	7.36759e+06	-51589.1	955.819	-29752	0.000000	0.000000	6.212816	0.030698	NaN	0.000000	0.001602	0.001670	28.0782	0.012175	0.002047	5.947815	2.532040	14.169	0.048396	0.211066	-0.944470	-0.945827	0.030698	5.947815	-0.948341	-4.567247E+12	-6.721333E-15	NaN
259	1.000000	0.254435	7.36759e+06	-51589.1	955.819	-29752	0.000000	0.000000	6.254827	-0.010469	NaN	0.000000	0.001641	0.001708	28.0784	0.044519	0.001991	22.3561	-140.248	-164.439	0.037053	0.253129	-0.902457	-0.903764	-0.010469	22.3561	-0.902106	-1.085239E+12	9.646401E-15	NaN
259	1.000000	0.296466	7.36759e+06	-51589.1	955.818	-29752	0.000000	0.000000	6.296860	0.031225	NaN	0.000000	0.001601	0.001649	28.077	0.069979	0.002013	34.7689	-86.4324	14.3601	-0.021602	0.295121	-0.860426	-0.861771	0.031225	34.7689	-0.861100	-3.026965E+11	-1.031565E-13	NaN
259	1.000000	0.338462	7.36759e+06	-51589.1	955.818	-29752	0.000000	0.000000	6.338857	0.040457	NaN	0.000000	0.001582	0.001664	28.0772	0.025227	0.002021	12.4845	46.9693	-164.449	0.130410	0.337221	-0.818430	-0.819672	0.040457	12.4845	-0.820860	-8.627400E+10	-4.689358E-13	NaN
259	1.000000	0.380493	7.36759e+06	-51589.1	955.818	-29752	0.000000	0.000000	6.380888	0.051798	NaN	0.000000	0.001590	0.001677	28.077	0.060419	0.002009	30.0733	174.585	13.4079	-0.025123	0.379157	-0.776399	-0.777735	0.051798	30.0733	-0.777691	-2.237956E+10	-2.314524E-12	NaN
259	1.000000	0.422488	7.36759e+06	-51589.1	955.818	-29752	0.000000	0.000000	6.422883	0.057036	NaN	0.000000	0.001590	0.001643	28.0774	0.038773	0.002017	19.2226	126.605	-164.462	0.121255	0.421188	-0.734404	-0.735705	0.057036	19.2226	-0.736630	-6.182210E+9	-9.225828E-12	NaN
259	1.000000	0.464539	7.36759e+06	-51589.1	955.818	-29752	0.000000	0.000000	6.464934	0.049343	NaN	0.000000	0.001585	0.001668	28.0786	0.148685	0.001902	78.1768	138.102	14.2219	0.043078	0.463135	-0.692353	-0.693757	0.049343	78.1768	-0.692826	-1.561498E+9	-3.159988E-11	NaN
259	1.000000	0.506558	7.36759e+06	-51589.1	955.819	-29752	0.000000	0.000000	6.506953	0.064982	NaN	0.000000	0.001593	0.001639	28.0781	0.098812	0.001953	50.583	43.9899	-168.567	0.011923	0.505256	-0.650335	-0.651636	0.064982	50.583	-0.651298	-4.219221E+8	-1.540138E-10	NaN
259	1.000000	0.548579	7.36759e+06	-51589.1	955.818	-29752	0.000000	0.000000	6.548972	0.005531	NaN	0.000000	0.001616	0.001640	28.0781	0.057087	0.002123	26.8928	-27.6573	13.4778	-0.034369	0.547189	-0.608314	-0.609704	0.005531	26.8928	-0.608468	-1.089010E+8	-5.079199E-11	NaN
259	1.000000	0.590580	7.36759e+06	-51589.1	955.817	-29752	0.000000	0.000000	6.590974	0.026500	NaN	0.000000	0.001582	0.001649	28.077	0.057600	0.002046	28.1545	142.685	-169.036	-0.002067	0.589285	-0.566313	-0.567608	0.026500	28.1545	-0.567019	-2.920318E+7	-9.074233E-10	NaN
259	1.000000	0.632597	7.36759e+06	-51589.1	955.818	-29752	0.000000	0.000000	6.632992	0.074156	NaN	0.000000	0.001589	0.001614	28.0774	0.079650	0.001986	40.0979	-68.487	14.0862	0.020578	0.631269	-0.524296	-0.525624	0.074156	40.0979	-0.525683	-7.80913e+06	-9.496122E-9	NaN
259	1.000000	0.674622	7.36759e+06	-51589.1	955.818	-29752	0.000000	0.000000	6.675014	-0.008053	NaN	0.000000	0.001567	0.001637	28.0771	0.105160	0.001956	53.7606	-147.309	-168.228	-0.013030	0.673310	-0.482271	-0.483583	-0.008053	53.7606	-0.482158	-1.9308e+06	4.170793E-9	NaN
259	1.000000	0.716649	7.36759e+06	-51589.1	955.819	-29752	0.000000	0.000000	6.717041	0.004221	NaN	0.000000	0.001568	0.001666	28.0783	0.054207	0.002085	25.9963	1.719146	13.4483	0.027038	0.715244	-0.440244	-0.441649	0.004221	25.9963	-0.440366	-499489	-8.451105E-9	NaN
259	1.000000	0.758618	7.36759e+06	-51589.1	955.819	-29752	0.000000	0.000000	6.759011	0.015178	NaN	0.000000	0.001634	0.001659	28.0782	0.039796	0.002081	19.1267	156.969	-164.867	0.002618	0.757355	-0.398274	-0.399538	0.015178	19.1267	-0.398870	-128787	-1.178571E-7	NaN
259	1.000000	0.800672	7.36759e+06	-51589.1	955.819	-29752	0.000000	0.000000	6.801069	0.110032	NaN	0.000000	0.001649	0.001615	28.0782	0.050537	0.002048	24.6715	-90.7247	13.4935	0.128619	0.799315	-0.356221	-0.357577	0.110032	24.6715	-0.359566	-35120.8	-3.132960E-6	NaN
259	1.000000	0.842679	7.36759e+06	-51589.1	955.819	-29752	0.000000	0.000000	6.843076	0.096674	NaN	0.000000	0.001614	0.001654	28.0771	0.018762	0.002022	9.279691	29.7717	-163.443	0.058994	0.841409	-0.314214	-0.315484	0.096674	9.279691	-0.322027	-9964.52	-9.701813E-6	NaN
259	1.000000	0.884726	7.36759e+06	-51589.1	955.818	-29752	0.000000	0.000000	6.885121	0.050664	NaN	0.000000	0.001578	0.001645	28.0773	0.059946	0.001877	31.9419	-59.8299	12.8679	0.028851	0.883321	-0.272166	-0.273572	0.050664	31.9419	-0.273356	-1872.8	-2.705253E-5	NaN
259	1.000000	0.926747	7.36759e+06	-51589.1	955.819	-29752	0.000000	0.000000	6.927143	0.080232	NaN	0.000000	0.001615	0.001655	28.0774	0.130224	0.002068	62.9638	-80.5129	-167.245	0.088705	0.925390	-0.230146	-0.231502	0.080232	62.9638	-0.231101	-416.77	-0.000193	NaN
259	1.000000	0.968744	7.36759e+06	-51589.1	955.818	-29752	0.000000	0.000000	6.969138	0.020191	NaN	0.000000	0.001665	0.001667	28.0775	0.046448	0.001893	24.5416	-47.4526	12.6624	0.079808	0.967379	-0.188148	-0.189514	0.020191	24.5416	-0.188765	-85.7788	-0.000235	NaN
259	1.000000	1.010759	7.36759e+06	-51589.1	955.819	-29752	0.000000	0.000000	7.011157	0.129201	NaN	0.000000	0.001604	0.001643	28.0787	0.100637	0.002053	49.0172	47.0764	-163.634	0.110074	1.009409	-0.146134	-0.147483	0.129201	49.0172	-0.148111	-16.7286	-0.007723	NaN
259	1.000000	1.052754	7.36759e+06	-51589.1	955.819	-29752	0.000000	0.000000	7.053151	0.097304	NaN	0.000000	0.001584	0.001668	28.0786	0.055342	0.001971	28.0727	24.8558	14.412	0.056452	1.051424	-0.104138	-0.105468	0.097304	28.0727	-0.106738	-2.561872	-0.037981	NaN
259	1.000000	1.094780	7.36759e+06	-51589.1	955.819	-29752	0.000000	0.000000	7.095173	0.006818	NaN	0.000000	0.001596	0.001634	28.0786	0.029335	0.002108	13.9148	63.5749	-166.771	0.012222	1.093506	-0.062112	-0.063386	0.006818	13.9148	-0.062480	-0.211863	-0.032183	NaN
259	1.000000	1.136805	7.36759e+06	-51589.1	955.819	-29752	0.000000	0.000000	7.137199	0.029142	NaN	0.000000	0.001557	0.001628	28.0771	0.057845	0.001952	29.6325	-51.3916	14.0359	0.109201	1.135410	-0.020088	-0.021482	0.029142	29.6325	-0.020825	-0.013183	-2.210651	NaN
259	2.000000	1.169329	7.36759e+06	-51589.1	955.82	-29752	0.000000	0.000000	7.170226	12.2505	NaN	0.000000	0.001579	0.001649	28.0773	12.4141	0.001753	7081.53	10.9527	-179.803	11.4948	1.169031	0.012437	0.012138	12.2505	7081.53	0.011139	0.010476	1169.44	63213.8
259	2.000000	1.179771	7.36759e+06	-51589.1	955.819	-29752	0.000000	0.000000	7.181476	31.9182	NaN	0.000000	0.001563	0.001614	28.0775	22.3856	0.001739	12875.6	4.144398	2.605541	31.073	1.179498	0.022878	0.022606	31.9182	12875.6	0.021019	0.024169	1320.63	75667.8
259	2.000000	1.190250	7.36759e+06	-51589.1	955.82	-29752	0.000000	0.000000	7.193218	62.6344	NaN	0.000000	0.001525	0.001642	28.0788	32.5588	0.001842	17676	3.317279	-179.394	61.7342	1.189915	0.033357	0.033022	62.6344	17676	0.030700	0.042206	1484.01	78608.4
259	2.000000	1.200674	7.36759e+06	-51589.1	955.82	-29752	0.000000	0.000000	7.205032	96.4306	NaN	0.000000	0.001554	0.001656	28.0785	39.9893	0.001759	22740	2.835422	-0.813682	93.706	1.200394	0.043781	0.043501	96.4306	22740	0.040601	0.065590	1470.2	81123.1
259	2.000000	1.211240	7.36759e+06	-51589.1	955.82	-29752	0.000000	0.000000	7.217312	138.097	NaN	0.000000	0.001580	0.001655	28.0787	50.9637	0.001683	30290.3	7.067597	172.047	136.985	1.210888	0.054348	0.053996	138.097	30290.3	0.050928	0.095304	1449.01	89644.2
259	2.000000	1.221706	7.36759e+06	-51589.1	955.82	-29752	0.000000	0.000000	7.229471	179.258	NaN	0.000000	0.001535	0.001649	28.0778	60.551	0.001796	33720.6	5.294440	-6.968676	176.872	1.221374	0.064813	0.064481	179.258	33720.6	0.060826	0.128789	1391.88	85848
259	2.000000	1.232177	7.36759e+06	-51589.1	955.821	-29752	0.000000	0.000000	7.242119	232.198	NaN	0.000000	0.001521	0.001691	28.0773	69.0382	0.001851	37295.1	6.118572	172.631	230.121	1.231804	0.075285	0.074911	232.198	37295.1	0.070615	0.166600	1393.75	83481
259	2.000000	1.242694	7.36759e+06	-51589.1	955.82	-29752	0.000000	0.000000	7.254785	284.439	NaN	0.000000	0.001587	0.001632	28.0773	78.0618	0.001872	41696.8	5.554251	-8.767401	282.748	1.242345	0.085802	0.085452	284.439	41696.8	0.080686	0.210252	1352.85	83081.9
259	2.000000	1.253133	7.36759e+06	-51589.1	955.82	-29752	0.000000	0.000000	7.267628	342.912	NaN	0.000000	0.001548	0.001628	28.0775	86.156	0.001785	48258.1	5.294276	171.002	339.421	1.252835	0.096240	0.095942	342.912	48258.1	0.090911	0.259402	1321.93	86567.7
259	2.000000	1.263695	7.36759e+06	-51589.1	955.82	-29752	0.000000	0.000000	7.280379	396.141	NaN	0.000000	0.001633	0.001661	28.0786	94.7765	0.001790	52956	5.026931	-9.754856	394.829	1.263364	0.106803	0.106472	396.141	52956	0.101192	0.313657	1262.97	86389.5
259	2.000000	1.264536	7.36759e+06	-51589.1	955.82	-29752	0.000000	0.000000	7.281901	412.699	NaN	0.000000	0.001659	0.001643	28.0785	96.4902	0.001777	54298.8	6.541777	-10.8115	403.269	1.264177	0.107643	0.107285	412.699	54298.8	0.101943	0.317807	1298.58	87999.9