File: remote_trans/data/nanoindenter/0828-1/data/Data_2025-08-06,11h17m57s/2025-07-22_16-23-58_1_544.txt
2025-07-22, 16:23:58, 1
Index	Phase	Displacement	Time	Pos X	Pos Y	Pos Z	Rot A	Rot B	Piezo Z	Force A	Force B	Gripper	Voltage A	Voltage B	Temperature	Amplitude force	Amplitude pos	Stiffness	Phase shift	Phase excitation	Force A raw	Displacement raw	HMax	HMax raw	Real Force	Real Stiffness	Contact Depth	Area	Hardness	Reduced Mod.
[#]	[#]	[um]	[s]	[um]	[um]	[um]	[m°]	[m°]	[um]	[uN]	[uN]	[V]	[V]	[V]	[°C]	[uN]	[um]	[N/m]	[°]	[°]	[uN]	[um]	[um]	[um]	[uN]	[N/m]	[um]	[um^2]	[MPa]	[MPa]
544	1.000000	0.002429	7.37037e+06	-49889.1	1005.82	-29757.5	0.000000	0.000000	6.002779	0.034027	NaN	0.000000	0.001687	0.001688	28.0813	0.068851	0.001012	68.0128	-17.1551	-172.864	-0.025264	0.001213	-1.133625	-1.134841	0.034027	68.0128	-1.134000	-1.433091E+15	-2.374367E-17	NaN
544	1.000000	0.044405	7.37037e+06	-49889.1	1005.82	-29757.5	0.000000	0.000000	6.044754	0.026491	NaN	0.000000	0.001694	0.001649	28.0804	0.000689	0.001937	0.355579	-49.7764	14.2642	0.051819	0.043016	-1.091649	-1.093038	0.026491	0.355579	-1.147525	-2.175900E+15	-1.217472E-17	NaN
544	1.000000	0.086416	7.37037e+06	-49889.1	1005.82	-29757.5	0.000000	0.000000	6.086767	0.068972	NaN	0.000000	0.001723	0.001680	28.0803	0.070233	0.002001	35.0936	7.458879	-163.469	0.019834	0.085068	-1.049638	-1.050986	0.068972	35.0936	-1.051112	-1.104989E+14	-6.241879E-16	NaN
544	1.000000	0.128410	7.37037e+06	-49889.1	1005.82	-29757.5	0.000000	0.000000	6.128760	0.039591	NaN	0.000000	0.001638	0.001661	28.0801	0.081939	0.002011	40.7382	96.0989	17.5992	0.053410	0.127096	-1.007644	-1.008958	0.039591	40.7382	-1.008373	-2.940915E+13	-1.346204E-15	NaN
544	1.000000	0.170426	7.37037e+06	-49889.1	1005.82	-29757.5	0.000000	0.000000	6.170775	0.028063	NaN	0.000000	0.001713	0.001658	28.0805	0.048707	0.002069	23.5389	53.7548	-162.43	0.035815	0.169167	-0.965628	-0.966887	0.028063	23.5389	-0.966523	-8.031470E+12	-3.494155E-15	NaN
544	1.000000	0.212477	7.37037e+06	-49889.1	1005.82	-29757.5	0.000000	0.000000	6.212826	0.033312	NaN	0.000000	0.001695	0.001617	28.0813	0.034374	0.001917	17.9279	137.579	17.9184	-0.045644	0.211116	-0.923577	-0.924938	0.033312	17.9279	-0.924971	-2.209617E+12	-1.507575E-14	NaN
544	1.000000	0.254490	7.37037e+06	-49889.1	1005.82	-29757.5	0.000000	0.000000	6.254840	0.054503	NaN	0.000000	0.001650	0.001644	28.0814	0.106607	0.001844	57.8276	-65.1479	-167.18	0.107584	0.253170	-0.881564	-0.882884	0.054503	57.8276	-0.882271	-5.853574E+11	-9.311016E-14	NaN
544	1.000000	0.296511	7.37037e+06	-49889.1	1005.82	-29757.5	0.000000	0.000000	6.296860	0.018778	NaN	0.000000	0.001633	0.001662	28.0816	0.039554	0.001972	20.0601	-37.9737	14.8528	0.112227	0.295111	-0.839543	-0.840943	0.018778	20.0601	-0.840245	-1.579833E+11	-1.188619E-13	NaN
544	1.000000	0.338507	7.37037e+06	-49889.1	1005.82	-29757.5	0.000000	0.000000	6.338856	0.024073	NaN	0.000000	0.001645	0.001661	28.0806	0.069514	0.002050	33.9113	130.745	-166.235	0.071427	0.337191	-0.797547	-0.798863	0.024073	33.9113	-0.798079	-4.234388E+10	-5.685156E-13	NaN
544	1.000000	0.380542	7.37037e+06	-49889.1	1005.82	-29757.5	0.000000	0.000000	6.380893	0.077030	NaN	0.000000	0.001547	0.001715	28.0804	0.078268	0.001945	40.2323	-33.2167	14.9445	0.090626	0.379175	-0.755512	-0.756879	0.077030	40.2323	-0.756948	-1.168916E+10	-6.589847E-12	NaN
544	1.000000	0.422569	7.37037e+06	-49889.1	1005.82	-29757.5	0.000000	0.000000	6.422920	0.068900	NaN	0.000000	0.001604	0.001677	28.0804	0.029504	0.001855	15.9055	100.839	-159.816	0.091495	0.421221	-0.713485	-0.714833	0.068900	15.9055	-0.716734	-3.310789E+9	-2.081068E-11	NaN
544	1.000000	0.464568	7.37037e+06	-49889.1	1005.82	-29757.5	0.000000	0.000000	6.464918	0.044754	NaN	0.000000	0.001601	0.001686	28.0814	0.057733	0.001903	30.3337	-93.2433	14.3702	0.045302	0.463186	-0.671486	-0.672868	0.044754	30.3337	-0.672593	-8.257948E+8	-5.419481E-11	NaN
544	1.000000	0.506612	7.37037e+06	-49889.1	1005.82	-29757.5	0.000000	0.000000	6.506964	0.115104	NaN	0.000000	0.001623	0.001684	28.0813	0.069451	0.002032	34.1806	-38.4697	-163.293	0.127334	0.505238	-0.629443	-0.630816	0.115104	34.1806	-0.631968	-2.291131E+8	-5.023887E-10	NaN
544	1.000000	0.548632	7.37037e+06	-49889.1	1005.82	-29757.5	0.000000	0.000000	6.548979	-0.036115	NaN	0.000000	0.001636	0.001639	28.0815	0.046518	0.001984	23.4476	44.3388	11.3724	0.100496	0.547258	-0.587422	-0.588796	-0.036115	23.4476	-0.586267	-5.384993E+7	6.706598E-10	NaN
544	1.000000	0.590624	7.37037e+06	-49889.1	1005.82	-29757.5	0.000000	0.000000	6.590972	0.003439	NaN	0.000000	0.001690	0.001643	28.08	0.056893	0.002033	27.9784	139.036	-166.674	-0.025936	0.589312	-0.545430	-0.546742	0.003439	27.9784	-0.545522	-1.472040E+7	-2.336235E-10	NaN
544	1.000000	0.632636	7.37037e+06	-49889.1	1005.82	-29757.5	0.000000	0.000000	6.632985	0.017906	NaN	0.000000	0.001666	0.001668	28.08	0.060047	0.001938	30.9797	-98.0923	17.9924	-0.045368	0.631230	-0.503418	-0.504824	0.017906	30.9797	-0.503852	-3.87918e+06	-4.615930E-9	NaN
544	1.000000	0.674670	7.37037e+06	-49889.1	1005.82	-29757.5	0.000000	0.000000	6.675021	0.063949	NaN	0.000000	0.001627	0.001673	28.0799	0.035514	0.001987	17.8732	35.3757	-165.441	0.147464	0.673363	-0.461384	-0.462691	0.063949	17.8732	-0.464067	-1.07684e+06	-5.938585E-8	NaN
544	1.000000	0.716671	7.37037e+06	-49889.1	1005.82	-29757.5	0.000000	0.000000	6.717019	-0.008619	NaN	0.000000	0.001666	0.001656	28.0804	0.079465	0.002066	38.462	-105.018	18.932	-0.015992	0.715342	-0.419383	-0.420712	-0.008619	38.462	-0.419215	-250769	3.436937E-8	NaN
544	1.000000	0.758703	7.37037e+06	-49889.1	1005.82	-29757.5	0.000000	0.000000	6.759049	-0.056374	NaN	0.000000	0.001613	0.001719	28.0814	0.093669	0.002152	43.5251	-138.852	-162.023	-0.006386	0.757419	-0.377351	-0.378636	-0.056374	43.5251	-0.376380	-61361.9	9.187126E-7	NaN
544	1.000000	0.800728	7.37037e+06	-49889.1	1005.82	-29757.5	0.000000	0.000000	6.801075	-0.032540	NaN	0.000000	0.001613	0.001680	28.0815	0.071829	0.002109	34.0515	-76.2845	14.2223	0.041931	0.799360	-0.335326	-0.336694	-0.032540	34.0515	-0.334609	-15236.1	2.135738E-6	NaN
544	1.000000	0.842753	7.37037e+06	-49889.1	1005.82	-29757.5	0.000000	0.000000	6.843103	0.050880	NaN	0.000000	0.001664	0.001693	28.0812	0.060211	0.002066	29.1451	-25.5265	-164.047	0.065519	0.841384	-0.293301	-0.294670	0.050880	29.1451	-0.294611	-3910.87	-1.300992E-5	NaN
544	1.000000	0.884696	7.37037e+06	-49889.1	1005.82	-29757.5	0.000000	0.000000	6.885045	0.019507	NaN	0.000000	0.001604	0.001661	28.0802	0.108575	0.002002	54.2236	-35.4018	13.2338	0.055219	0.883377	-0.251358	-0.252677	0.019507	54.2236	-0.251627	-871.199	-2.239106E-5	NaN
544	1.000000	0.926755	7.37037e+06	-49889.1	1005.82	-29757.5	0.000000	0.000000	6.927103	-0.017851	NaN	0.000000	0.001620	0.001664	28.0802	0.055736	0.001918	29.0529	8.405935	-165.945	0.002930	0.925441	-0.209299	-0.210613	-0.017851	29.0529	-0.208838	-183.647	9.720114E-5	NaN
544	1.000000	0.968783	7.37037e+06	-49889.1	1005.82	-29757.5	0.000000	0.000000	6.969133	0.031323	NaN	0.000000	0.001626	0.001694	28.0802	0.020921	0.002059	10.1593	5.013777	15.6915	0.008243	0.967416	-0.167271	-0.168638	0.031323	10.1593	-0.169583	-40.3991	-0.000775	NaN
544	1.000000	1.010814	7.37037e+06	-49889.1	1005.82	-29757.5	0.000000	0.000000	7.011164	0.032972	NaN	0.000000	0.001634	0.001650	28.0816	0.018844	0.002005	9.397571	72.8454	-164.719	0.061870	1.009539	-0.125240	-0.126515	0.032972	9.397571	-0.127871	-6.926306	-0.004760	NaN
544	1.000000	1.052821	7.37037e+06	-49889.1	1005.82	-29757.5	0.000000	0.000000	7.053170	0.033355	NaN	0.000000	0.001654	0.001640	28.0819	0.065633	0.001977	33.1997	-15.0457	14.8701	-0.071301	1.051480	-0.083233	-0.084574	0.033355	33.1997	-0.083987	-0.776380	-0.042962	NaN
544	1.000000	1.094820	7.37038e+06	-49889.1	1005.82	-29757.5	0.000000	0.000000	7.095170	0.050494	NaN	0.000000	0.001631	0.001674	28.0816	0.117927	0.002046	57.6457	81.754	-161.906	-0.019060	1.093527	-0.041234	-0.042527	0.050494	57.6457	-0.041891	-0.051634	-0.977912	NaN
544	1.000000	1.136833	7.37038e+06	-49889.1	1005.82	-29757.5	0.000000	0.000000	7.137411	5.589228	NaN	0.000000	0.001588	0.001667	28.0801	5.615415	0.001840	3051.77	16.2761	9.921431	4.836195	1.135490	0.000779	-0.000564	5.589228	3051.77	-0.000595	-0.000439	-12721.8	NaN
544	2.000000	1.150263	7.37038e+06	-49889.1	1005.82	-29757.5	0.000000	0.000000	7.151584	23.6627	NaN	0.000000	0.001635	0.001681	28.0803	19.4327	0.001719	11305.1	5.541514	-175.428	23.8392	1.149961	0.014209	0.013907	23.6627	11305.1	0.012639	0.012264	1929.4	93267
544	2.000000	1.160781	7.37038e+06	-49889.1	1005.82	-29757.5	0.000000	0.000000	7.162967	44.6931	NaN	0.000000	0.001593	0.001713	28.0802	29.7236	0.001864	15943.5	4.716505	2.922873	45.0597	1.160461	0.024727	0.024407	44.6931	15943.5	0.022625	0.026836	1665.44	88920.3
544	2.000000	1.171231	7.37038e+06	-49889.1	1005.82	-29757.5	0.000000	0.000000	7.174688	75.5927	NaN	0.000000	0.001553	0.001679	28.0804	38.5607	0.001765	21842.8	4.169941	179.707	73.6488	1.170882	0.035177	0.034828	75.5927	21842.8	0.032582	0.046265	1633.92	92780.4
544	2.000000	1.181710	7.37038e+06	-49889.1	1005.82	-29757.5	0.000000	0.000000	7.186772	114.634	NaN	0.000000	0.001616	0.001701	28.0813	48.3266	0.001808	26734.5	4.495162	-1.677950	112.949	1.181299	0.045656	0.045245	114.634	26734.5	0.042440	0.070487	1626.3	92000.6
544	2.000000	1.192254	7.37038e+06	-49889.1	1005.82	-29757.5	0.000000	0.000000	7.199095	157.903	NaN	0.000000	0.001619	0.001723	28.0816	59.5364	0.001812	32859.6	8.446509	173.344	159.639	1.191793	0.056200	0.055739	157.903	32859.6	0.052596	0.100606	1569.52	94650.8
544	2.000000	1.202679	7.37038e+06	-49889.1	1005.82	-29757.5	0.000000	0.000000	7.211171	198.05	NaN	0.000000	0.001655	0.001647	28.0814	69.5073	0.001761	39478	4.532755	-5.925117	197.084	1.202452	0.066625	0.066398	198.05	39478	0.062862	0.136271	1453.35	97707.1
544	2.000000	1.213178	7.37038e+06	-49889.1	1005.82	-29757.5	0.000000	0.000000	7.223851	251.093	NaN	0.000000	0.001664	0.001694	28.0803	78.221	0.001862	42013	3.927626	174.744	251.97	1.212872	0.077124	0.076818	251.093	42013	0.072642	0.174999	1434.83	91756.9
544	2.000000	1.223640	7.37038e+06	-49889.1	1005.82	-29757.5	0.000000	0.000000	7.237108	319.073	NaN	0.000000	0.001696	0.001695	28.0801	86.7882	0.001930	44962.7	2.535616	-4.559478	315.689	1.223313	0.087586	0.087259	319.073	44962.7	0.082264	0.217521	1466.86	88079.5
544	2.000000	1.234119	7.37038e+06	-49889.1	1005.82	-29757.5	0.000000	0.000000	7.250347	386.189	NaN	0.000000	0.001595	0.001709	28.0801	95.4164	0.001865	51163.4	4.514594	173.054	383.929	1.233758	0.098065	0.097704	386.189	51163.4	0.092404	0.266982	1446.5	90467.3
544	2.000000	1.239262	7.37038e+06	-49889.1	1005.82	-29757.5	0.000000	0.000000	7.256940	421.467	NaN	0.000000	0.001644	0.001667	28.0805	99.4577	0.001782	55813.9	5.753170	172.02	426.707	1.238779	0.103207	0.102725	421.467	55813.9	0.097544	0.293854	1434.27	94069.8