File: remote_trans/data/nanoindenter/0828-1/data/Data_2025-08-06,11h17m57s/2025-07-22_16-23-58_1_734.txt
2025-07-22, 16:23:58, 1
Index	Phase	Displacement	Time	Pos X	Pos Y	Pos Z	Rot A	Rot B	Piezo Z	Force A	Force B	Gripper	Voltage A	Voltage B	Temperature	Amplitude force	Amplitude pos	Stiffness	Phase shift	Phase excitation	Force A raw	Displacement raw	HMax	HMax raw	Real Force	Real Stiffness	Contact Depth	Area	Hardness	Reduced Mod.
[#]	[#]	[um]	[s]	[um]	[um]	[um]	[m°]	[m°]	[um]	[uN]	[uN]	[V]	[V]	[V]	[°C]	[uN]	[um]	[N/m]	[°]	[°]	[uN]	[um]	[um]	[um]	[uN]	[N/m]	[um]	[um^2]	[MPa]	[MPa]
734	1.000000	0.002080	7.37223e+06	-40389.1	1005.82	-29790.1	0.000000	0.000000	6.002784	-0.027018	NaN	0.000000	0.001779	0.001768	28.0818	0.095771	0.000925	103.559	-153.523	-168.416	0.043609	0.000827	-1.047607	-1.048860	-0.027018	103.559	-1.047412	-9.854149E+13	2.741771E-16	NaN
734	1.000000	0.042044	7.37223e+06	-40389.1	1005.82	-29790.1	0.000000	0.000000	6.042747	-0.057412	NaN	0.000000	0.001713	0.001764	28.0828	0.041163	0.002057	20.0125	155.133	-163.86	0.016912	0.040691	-1.007643	-1.008996	-0.057412	20.0125	-1.005491	-2.689635E+13	2.134582E-15	NaN
734	1.000000	0.082040	7.37223e+06	-40389.1	1005.82	-29790.1	0.000000	0.000000	6.082746	0.032611	NaN	0.000000	0.001716	0.001776	28.0841	0.034044	0.002160	15.7608	157.109	-165.066	0.019403	0.080744	-0.967647	-0.968943	0.032611	15.7608	-0.969199	-8.727121E+12	-3.736692E-15	NaN
734	1.000000	0.122095	7.37223e+06	-40389.1	1005.82	-29790.1	0.000000	0.000000	6.122798	-0.031801	NaN	0.000000	0.001729	0.001779	28.0829	0.069226	0.002054	33.71	161.843	-166.759	-0.084544	0.120758	-0.927592	-0.928929	-0.031801	33.71	-0.926885	-2.345049E+12	1.356094E-14	NaN
734	1.000000	0.162082	7.37223e+06	-40389.1	1005.82	-29790.1	0.000000	0.000000	6.162787	0.002174	NaN	0.000000	0.001762	0.001747	28.0826	0.125036	0.002021	61.8825	150.605	-161.332	0.034051	0.160763	-0.887605	-0.888924	0.002174	61.8825	-0.887632	-6.916688E+11	-3.142419E-15	NaN
734	1.000000	0.202105	7.37223e+06	-40389.1	1005.82	-29790.1	0.000000	0.000000	6.202810	-0.020854	NaN	0.000000	0.001695	0.001746	28.0813	0.104721	0.002005	52.2201	170.86	-164.156	-0.034876	0.200802	-0.847582	-0.848885	-0.020854	52.2201	-0.847282	-1.967571E+11	1.059880E-13	NaN
734	1.000000	0.242099	7.37224e+06	-40389.1	1005.82	-29790.1	0.000000	0.000000	6.242803	-0.020608	NaN	0.000000	0.001780	0.001741	28.0812	0.027868	0.001972	14.1344	22.5953	-162.916	-0.056588	0.240842	-0.807588	-0.808845	-0.020608	14.1344	-0.806495	-5.508196E+10	3.741281E-13	NaN
734	1.000000	0.282163	7.37224e+06	-40389.1	1005.82	-29790.1	0.000000	0.000000	6.282865	-0.073718	NaN	0.000000	0.001747	0.001733	28.0815	0.080122	0.001956	40.9651	-179.001	-167.627	-0.061723	0.280823	-0.767524	-0.768864	-0.073718	40.9651	-0.766174	-1.560553E+10	4.723848E-12	NaN
734	1.000000	0.322132	7.37224e+06	-40389.1	1005.82	-29790.1	0.000000	0.000000	6.322836	-0.032075	NaN	0.000000	0.001766	0.001718	28.0827	0.148516	0.001974	75.2174	19.4036	-167.983	-0.018145	0.320832	-0.727555	-0.728855	-0.032075	75.2174	-0.727235	-4.603815E+9	6.967071E-12	NaN
734	1.000000	0.362165	7.37224e+06	-40389.1	1005.82	-29790.1	0.000000	0.000000	6.362872	0.057735	NaN	0.000000	0.001759	0.001727	28.0828	0.091291	0.002035	44.8621	166.599	-166.409	0.067847	0.360865	-0.687522	-0.688822	0.057735	44.8621	-0.688487	-1.362205E+9	-4.238359E-11	NaN
734	1.000000	0.402193	7.37224e+06	-40389.1	1005.82	-29790.1	0.000000	0.000000	6.402896	-0.038630	NaN	0.000000	0.001748	0.001716	28.0826	0.062089	0.001960	31.6775	-95.8198	-167.018	0.022986	0.400864	-0.647494	-0.648823	-0.038630	31.6775	-0.646580	-3.635300E+8	1.062636E-10	NaN
734	1.000000	0.442200	7.37224e+06	-40389.1	1005.82	-29790.1	0.000000	0.000000	6.442902	-0.052297	NaN	0.000000	0.001751	0.001714	28.0826	0.103451	0.002081	49.7071	119.111	-168.157	-0.024134	0.440889	-0.607487	-0.608798	-0.052297	49.7071	-0.606698	-1.029629E+8	5.079250E-10	NaN
734	1.000000	0.482196	7.37224e+06	-40389.1	1005.82	-29790.1	0.000000	0.000000	6.482898	-0.064459	NaN	0.000000	0.001763	0.001729	28.0814	0.037675	0.001903	19.7959	-141.077	-167.149	-0.170172	0.480955	-0.567491	-0.568732	-0.064459	19.7959	-0.565049	-2.742877E+7	2.350035E-9	NaN
734	1.000000	0.522240	7.37224e+06	-40389.1	1005.82	-29790.1	0.000000	0.000000	6.522942	-0.066506	NaN	0.000000	0.001774	0.001773	28.0816	0.050142	0.001958	25.6093	68.7105	-167.021	-0.028230	0.520941	-0.527447	-0.528746	-0.066506	25.6093	-0.525499	-7.76333e+06	8.566699E-9	NaN
734	1.000000	0.562268	7.37224e+06	-40389.1	1005.82	-29790.1	0.000000	0.000000	6.562972	-0.024489	NaN	0.000000	0.001707	0.001745	28.0817	0.103966	0.002009	51.7603	-79.0694	-164.411	-0.018913	0.560940	-0.487419	-0.488747	-0.024489	51.7603	-0.487064	-2.2613e+06	1.082971E-8	NaN
734	1.000000	0.602274	7.37224e+06	-40389.1	1005.82	-29790.1	0.000000	0.000000	6.602979	0.001829	NaN	0.000000	0.001705	0.001712	28.083	0.104372	0.002092	49.8826	146.019	-164.234	0.015105	0.600997	-0.447413	-0.448690	0.001829	49.8826	-0.447441	-628482	-2.909643E-9	NaN
734	1.000000	0.642302	7.37224e+06	-40389.1	1005.82	-29790.1	0.000000	0.000000	6.643005	-0.053685	NaN	0.000000	0.001709	0.001745	28.0832	0.066375	0.001975	33.605	-118.374	-167.064	-0.037302	0.640992	-0.407385	-0.408695	-0.053685	33.605	-0.406187	-163736	3.278729E-7	NaN
734	1.000000	0.682343	7.37224e+06	-40389.1	1005.82	-29790.1	0.000000	0.000000	6.683045	-0.052220	NaN	0.000000	0.001674	0.001748	28.083	0.035864	0.001908	18.7954	-118.207	-168.108	-0.124629	0.680999	-0.367344	-0.368688	-0.052220	18.7954	-0.365261	-42443.9	1.230327E-6	NaN
734	1.000000	0.722288	7.37224e+06	-40389.1	1005.82	-29790.1	0.000000	0.000000	6.722989	-0.096005	NaN	0.000000	0.001663	0.001701	28.0817	0.048199	0.001955	24.6493	-19.8412	-161.651	-0.062078	0.721049	-0.327399	-0.328638	-0.096005	24.6493	-0.324478	-10825.9	8.868047E-6	NaN
734	1.000000	0.762378	7.37224e+06	-40389.1	1005.82	-29790.1	0.000000	0.000000	6.763083	-0.001810	NaN	0.000000	0.001685	0.001738	28.0814	0.093579	0.001993	46.9462	-71.8481	-161.212	0.022671	0.761035	-0.287309	-0.288652	-0.001810	46.9462	-0.287280	-3037.52	5.959660E-7	NaN
734	1.000000	0.802356	7.37224e+06	-40389.1	1005.82	-29790.1	0.000000	0.000000	6.803061	-0.014858	NaN	0.000000	0.001648	0.001722	28.0814	0.018151	0.002146	8.456351	-133.525	-165.891	0.014497	0.800991	-0.247331	-0.248696	-0.014858	8.456351	-0.246013	-713.153	2.083482E-5	NaN
734	1.000000	0.842342	7.37224e+06	-40389.1	1005.82	-29790.1	0.000000	0.000000	6.843047	0.015075	NaN	0.000000	0.001657	0.001727	28.0817	0.058385	0.001911	30.552	141.599	-164.414	0.013904	0.841048	-0.207345	-0.208639	0.015075	30.552	-0.207715	-176.1	-8.560464E-5	NaN
734	1.000000	0.882399	7.37224e+06	-40389.1	1005.82	-29790.1	0.000000	0.000000	6.883103	-0.014922	NaN	0.000000	0.001726	0.001715	28.0826	0.046454	0.001994	23.2995	44.9224	-164.893	-0.014270	0.881028	-0.167288	-0.168659	-0.014922	23.2995	-0.166808	-36.1402	0.000413	NaN
734	1.000000	0.922381	7.37224e+06	-40389.1	1005.82	-29790.1	0.000000	0.000000	6.923086	-0.003603	NaN	0.000000	0.001676	0.001705	28.0828	0.064219	0.001907	33.6796	21.71	-165.936	0.049243	0.921090	-0.127306	-0.128597	-0.003603	33.6796	-0.127226	-6.727446	0.000536	NaN
734	1.000000	0.962431	7.37224e+06	-40389.1	1005.82	-29790.1	0.000000	0.000000	6.963137	0.004119	NaN	0.000000	0.001693	0.001710	28.0829	0.034722	0.001958	17.7352	166.906	-163.21	0.010770	0.961105	-0.087256	-0.088582	0.004119	17.7352	-0.087430	-0.939806	-0.004383	NaN
734	1.000000	1.002437	7.37224e+06	-40389.1	1005.82	-29790.1	0.000000	0.000000	7.003144	0.039964	NaN	0.000000	0.001669	0.001773	28.0818	0.121197	0.002141	56.6115	-8.695202	-165.506	0.024725	1.001107	-0.047250	-0.048580	0.039964	56.6115	-0.047780	-0.078134	-0.511480	NaN
734	1.000000	1.042465	7.37224e+06	-40389.1	1005.82	-29790.1	0.000000	0.000000	7.043218	1.164496	NaN	0.000000	0.001720	0.001703	28.0819	1.005670	0.001972	509.951	10.6644	-163.838	1.088681	1.041140	-0.007222	-0.008547	1.164496	509.951	-0.008935	-0.005775	-201.638	NaN
734	2.000000	1.078073	7.37224e+06	-40389.1	1005.82	-29790.1	0.000000	0.000000	7.079155	9.188674	NaN	0.000000	0.001738	0.001768	28.0818	4.879728	0.002002	2437.71	10.3155	-168.551	8.994559	1.077771	0.028385	0.028084	9.188674	2437.71	0.025558	0.032039	286.793	12442.6
734	2.000000	1.087974	7.37224e+06	-40389.1	1005.82	-29790.1	0.000000	0.000000	7.089247	13.8194	NaN	0.000000	0.001764	0.001727	28.0818	7.813396	0.001968	3970.91	7.126652	-168.97	13.688	1.087677	0.038287	0.037990	13.8194	3970.91	0.035677	0.053333	259.114	15709.6
734	2.000000	1.097949	7.37224e+06	-40389.1	1005.82	-29790.1	0.000000	0.000000	7.099347	16.8635	NaN	0.000000	0.001780	0.001736	28.0829	11.2064	0.001785	6278.73	7.452373	-172.567	16.2495	1.097655	0.048262	0.047968	16.8635	6278.73	0.046248	0.081169	207.757	20134.9
734	2.000000	1.107922	7.37224e+06	-40389.1	1005.82	-29790.1	0.000000	0.000000	7.109793	28.3731	NaN	0.000000	0.001769	0.001736	28.0829	17.5804	0.001876	9372.63	9.277966	-177.26	27.5754	1.107682	0.058235	0.057995	28.3731	9372.63	0.055964	0.111736	253.93	25617.6
734	2.000000	1.117973	7.37224e+06	-40389.1	1005.82	-29790.1	0.000000	0.000000	7.120488	44.0589	NaN	0.000000	0.001693	0.001737	28.0832	26.5911	0.001912	13907.4	8.520615	-179.889	44.9178	1.117693	0.068286	0.068006	44.0589	13907.4	0.065910	0.147849	298	33045.3
734	2.000000	1.127936	7.37224e+06	-40389.1	1005.82	-29790.1	0.000000	0.000000	7.131699	74.4105	NaN	0.000000	0.001664	0.001720	28.0818	35.4668	0.001823	19450	3.922839	-178.991	74.918	1.127687	0.078249	0.078000	74.4105	19450	0.075380	0.186659	398.643	41130.8
734	2.000000	1.137851	7.37224e+06	-40389.1	1005.82	-29790.1	0.000000	0.000000	7.143217	113.428	NaN	0.000000	0.001669	0.001782	28.0815	45.1601	0.001758	25693.2	5.003222	178.261	111.565	1.137514	0.088164	0.087827	113.428	25693.2	0.084853	0.229700	493.81	48979.1
734	2.000000	1.147862	7.37224e+06	-40389.1	1005.82	-29790.1	0.000000	0.000000	7.154833	152.472	NaN	0.000000	0.001643	0.001738	28.0816	54.741	0.001815	30161.2	7.966951	173.562	149.3	1.147568	0.098175	0.097881	152.472	30161.2	0.094383	0.277189	550.064	52340
734	2.000000	1.157909	7.37224e+06	-40389.1	1005.82	-29790.1	0.000000	0.000000	7.167054	205.387	NaN	0.000000	0.001701	0.001687	28.0815	65.5486	0.001886	34747.1	5.818756	174.416	207.221	1.157606	0.108222	0.107919	205.387	34747.1	0.103789	0.328120	625.95	55421.1
734	2.000000	1.167957	7.37224e+06	-40389.1	1005.82	-29790.1	0.000000	0.000000	7.179492	263.518	NaN	0.000000	0.001679	0.001817	28.0825	73.8488	0.001786	41345.8	3.541159	175.418	266.742	1.167609	0.118270	0.117922	263.518	41345.8	0.113490	0.384861	684.71	60890.9
734	2.000000	1.174841	7.37224e+06	-40389.1	1005.82	-29790.1	0.000000	0.000000	7.188086	305.157	NaN	0.000000	0.001697	0.001769	28.0827	80.2506	0.001809	44352.7	1.686169	176.531	303.644	1.174620	0.125154	0.124933	305.157	44352.7	0.119994	0.425290	717.527	62137.1