File: remote_trans/data/nanoindenter/0828-1/data/Data_2025-08-06,11h17m57s/2025-07-22_16-23-58_1_483.txt
2025-07-22, 16:23:58, 1
Index	Phase	Displacement	Time	Pos X	Pos Y	Pos Z	Rot A	Rot B	Piezo Z	Force A	Force B	Gripper	Voltage A	Voltage B	Temperature	Amplitude force	Amplitude pos	Stiffness	Phase shift	Phase excitation	Force A raw	Displacement raw	HMax	HMax raw	Real Force	Real Stiffness	Contact Depth	Area	Hardness	Reduced Mod.
[#]	[#]	[um]	[s]	[um]	[um]	[um]	[m°]	[m°]	[um]	[uN]	[uN]	[V]	[V]	[V]	[°C]	[uN]	[um]	[N/m]	[°]	[°]	[uN]	[um]	[um]	[um]	[uN]	[N/m]	[um]	[um^2]	[MPa]	[MPa]
483	1.000000	0.002682	7.36978e+06	-52939.1	1005.82	-29747.8	0.000000	0.000000	6.002808	0.020855	NaN	0.000000	0.001574	0.001794	28.0819	0.044169	0.000967	45.6823	52.4294	-167.751	0.015605	0.001415	-1.148712	-1.149979	0.020855	45.6823	-1.149055	-2.281102E+15	-9.142678E-18	NaN
483	1.000000	0.044596	7.36978e+06	-52939.1	1005.82	-29747.8	0.000000	0.000000	6.044723	0.047154	NaN	0.000000	0.001575	0.001786	28.0813	0.078270	0.001988	39.3731	-83.9533	13.5398	0.047732	0.043226	-1.106798	-1.108168	0.047154	39.3731	-1.107696	-6.358726E+14	-7.415671E-17	NaN
483	1.000000	0.086653	7.36978e+06	-52939.1	1005.82	-29747.8	0.000000	0.000000	6.086782	0.088799	NaN	0.000000	0.001621	0.001790	28.0801	0.032257	0.001946	16.5774	3.933302	-163.132	0.083409	0.085349	-1.064741	-1.066045	0.088799	16.5774	-1.068758	-1.907697E+14	-4.654767E-16	NaN
483	1.000000	0.128666	7.36978e+06	-52939.1	1005.82	-29747.8	0.000000	0.000000	6.128792	0.004936	NaN	0.000000	0.001619	0.001711	28.0802	0.084903	0.002019	42.0448	170.84	13.0022	0.057144	0.127259	-1.022728	-1.024135	0.004936	42.0448	-1.022816	-4.600820E+13	-1.072852E-16	NaN
483	1.000000	0.170658	7.36978e+06	-52939.1	1005.82	-29747.8	0.000000	0.000000	6.170783	0.007408	NaN	0.000000	0.001609	0.001739	28.0803	0.115046	0.002067	55.6706	-152.664	-167.593	0.057250	0.169347	-0.980736	-0.982047	0.007408	55.6706	-0.980836	-1.252187E+13	-5.916174E-16	NaN
483	1.000000	0.212700	7.36978e+06	-52939.1	1005.82	-29747.8	0.000000	0.000000	6.212825	-0.015632	NaN	0.000000	0.001622	0.001768	28.0812	0.038455	0.002039	18.8574	-157.998	14.236	-0.034854	0.211304	-0.938694	-0.940090	-0.015632	18.8574	-0.938072	-3.319880E+12	4.708490E-15	NaN
483	1.000000	0.254717	7.36978e+06	-52939.1	1005.82	-29747.8	0.000000	0.000000	6.254844	0.038518	NaN	0.000000	0.001641	0.001721	28.0813	0.035808	0.002032	17.6241	-169.107	-162.607	0.073393	0.253374	-0.896677	-0.898020	0.038518	17.6241	-0.898316	-9.645193E+11	-3.993508E-14	NaN
483	1.000000	0.296720	7.36978e+06	-52939.1	1005.82	-29747.8	0.000000	0.000000	6.296845	-0.006235	NaN	0.000000	0.001573	0.001766	28.0814	0.040190	0.001993	20.1664	-122.062	16.4884	0.022736	0.295390	-0.854674	-0.856004	-0.006235	20.1664	-0.854442	-2.459727E+11	2.534819E-14	NaN
483	1.000000	0.338710	7.36978e+06	-52939.1	1005.82	-29747.8	0.000000	0.000000	6.338834	-0.017619	NaN	0.000000	0.001571	0.001825	28.0802	0.054926	0.002002	27.4339	-54.0562	-168.471	-0.019332	0.337401	-0.812684	-0.813993	-0.017619	27.4339	-0.812202	-6.583408E+10	2.676309E-13	NaN
483	1.000000	0.380753	7.36978e+06	-52939.1	1005.82	-29747.8	0.000000	0.000000	6.380880	0.034263	NaN	0.000000	0.001602	0.001770	28.0804	0.022832	0.001918	11.907	161.593	12.7551	0.098877	0.379398	-0.770641	-0.771996	0.034263	11.907	-0.772799	-1.920242E+10	-1.784319E-12	NaN
483	1.000000	0.422776	7.36978e+06	-52939.1	1005.82	-29747.8	0.000000	0.000000	6.422902	0.043673	NaN	0.000000	0.001589	0.001771	28.0802	0.048482	0.001994	24.3198	-118.399	-163.263	0.013755	0.421460	-0.728618	-0.729934	0.043673	24.3198	-0.729965	-5.015729E+9	-8.707250E-12	NaN
483	1.000000	0.464827	7.36978e+06	-52939.1	1005.82	-29747.8	0.000000	0.000000	6.464954	0.053595	NaN	0.000000	0.001589	0.001765	28.0802	0.044932	0.001970	22.8104	165.62	16.578	0.073165	0.463416	-0.686567	-0.687978	0.053595	22.8104	-0.688330	-1.355463E+9	-3.954030E-11	NaN
483	1.000000	0.506782	7.36978e+06	-52939.1	1005.82	-29747.8	0.000000	0.000000	6.506908	0.025142	NaN	0.000000	0.001565	0.001734	28.0814	0.062496	0.002085	29.9676	96.0687	-161.907	0.018607	0.505493	-0.644612	-0.645901	0.025142	29.9676	-0.645241	-3.484860E+8	-7.214510E-11	NaN
483	1.000000	0.548823	7.36978e+06	-52939.1	1005.82	-29747.8	0.000000	0.000000	6.548949	0.015513	NaN	0.000000	0.001606	0.001758	28.0814	0.040938	0.001986	20.613	-120.563	13.7136	0.036835	0.547442	-0.602571	-0.603952	0.015513	20.613	-0.603136	-9.196817E+7	-1.686742E-10	NaN
483	1.000000	0.590852	7.36978e+06	-52939.1	1005.82	-29747.8	0.000000	0.000000	6.590978	0.004330	NaN	0.000000	0.001610	0.001773	28.0815	0.021368	0.001942	11.0043	-155.029	-164.393	0.049704	0.589498	-0.560542	-0.561896	0.004330	11.0043	-0.560837	-2.398576E+7	-1.805407E-10	NaN
483	1.000000	0.632847	7.36978e+06	-52939.1	1005.82	-29747.8	0.000000	0.000000	6.632976	0.095502	NaN	0.000000	0.001562	0.001791	28.0803	0.123237	0.001936	63.6665	82.0742	15.7486	0.078426	0.631541	-0.518547	-0.519853	0.095502	63.6665	-0.519672	-6.4422e+06	-1.482448E-8	NaN
483	1.000000	0.674884	7.36978e+06	-52939.1	1005.82	-29747.8	0.000000	0.000000	6.675008	-0.031918	NaN	0.000000	0.001654	0.001794	28.08	0.036104	0.002085	17.3129	140.98	-165.983	-0.096752	0.673541	-0.476510	-0.477853	-0.031918	17.3129	-0.475127	-1.53915e+06	2.073726E-8	NaN
483	1.000000	0.716906	7.36978e+06	-52939.1	1005.82	-29747.8	0.000000	0.000000	6.717031	-0.000132	NaN	0.000000	0.001622	0.001746	28.0801	0.103185	0.001998	51.6471	91.5524	14.0452	-0.008338	0.715533	-0.434488	-0.435861	-0.000132	51.6471	-0.434486	-412560	3.211168E-10	NaN
483	1.000000	0.758930	7.36978e+06	-52939.1	1005.82	-29747.8	0.000000	0.000000	6.759055	-0.000544	NaN	0.000000	0.001586	0.001792	28.0815	0.038377	0.002013	19.0668	-166.872	-160.148	-0.055508	0.757567	-0.392464	-0.393827	-0.000544	19.0668	-0.392442	-104254	5.216531E-9	NaN
483	1.000000	0.800957	7.36978e+06	-52939.1	1005.82	-29747.8	0.000000	0.000000	6.801084	0.049961	NaN	0.000000	0.001674	0.001742	28.0815	0.026491	0.002048	12.9325	4.858322	17.1203	0.030748	0.799605	-0.350437	-0.351789	0.049961	12.9325	-0.353334	-28534	-1.750932E-6	NaN
483	1.000000	0.842954	7.36978e+06	-52939.1	1005.82	-29747.8	0.000000	0.000000	6.843080	0.008029	NaN	0.000000	0.001727	0.001732	28.0815	0.067303	0.002004	33.5785	112.045	-163.62	0.003525	0.841671	-0.308440	-0.309723	0.008029	33.5785	-0.308619	-6318.49	-1.270746E-6	NaN
483	1.000000	0.884978	7.36978e+06	-52939.1	1005.82	-29747.8	0.000000	0.000000	6.885105	0.051058	NaN	0.000000	0.001634	0.001784	28.08	0.028043	0.002019	13.8879	-109.75	17.2039	-0.061945	0.883638	-0.266416	-0.267756	0.051058	13.8879	-0.269173	-1617.98	-3.155681E-5	NaN
483	1.000000	0.926997	7.36978e+06	-52939.1	1005.82	-29747.8	0.000000	0.000000	6.927124	0.045648	NaN	0.000000	0.001653	0.001802	28.0799	0.042055	0.001958	21.4746	25.3533	-163.615	0.007099	0.925701	-0.224397	-0.225693	0.045648	21.4746	-0.225991	-345.993	-0.000132	NaN
483	1.000000	0.968971	7.36978e+06	-52939.1	1005.82	-29747.8	0.000000	0.000000	6.969096	-0.005226	NaN	0.000000	0.001590	0.001836	28.0801	0.084154	0.001940	43.3807	-118.214	18.2638	0.013409	0.967662	-0.182423	-0.183732	-0.005226	43.3807	-0.182332	-66.844	7.817889E-5	NaN
483	1.000000	1.011001	7.36978e+06	-52939.1	1005.82	-29747.8	0.000000	0.000000	7.011128	0.028559	NaN	0.000000	0.001671	0.001813	28.0802	0.038275	0.002030	18.85	70.4837	-165.594	-0.006800	1.009692	-0.140393	-0.141702	0.028559	18.85	-0.141529	-12.6362	-0.002260	NaN
483	1.000000	1.053048	7.36978e+06	-52939.1	1005.82	-29747.8	0.000000	0.000000	7.053172	-0.040532	NaN	0.000000	0.001618	0.001842	28.082	0.090013	0.002054	43.8278	-144.327	13.6166	-0.000654	1.051662	-0.098346	-0.099732	-0.040532	43.8278	-0.097652	-1.619546	0.025027	NaN
483	1.000000	1.095031	7.36978e+06	-52939.1	1005.82	-29747.8	0.000000	0.000000	7.095155	-0.022969	NaN	0.000000	0.001611	0.001778	28.0835	0.127627	0.002071	61.6267	-169.461	-166.683	-0.011557	1.093661	-0.056363	-0.057733	-0.022969	61.6267	-0.056083	-0.138602	0.165719	NaN
483	1.000000	1.137077	7.36978e+06	-52939.1	1005.82	-29747.8	0.000000	0.000000	7.137203	0.026621	NaN	0.000000	0.001669	0.001747	28.081	0.072129	0.001989	36.2664	-41.2693	12.4942	-0.002580	1.135676	-0.014317	-0.015718	0.026621	36.2664	-0.014867	-0.009196	-2.894799	NaN
483	2.000000	1.161567	7.36978e+06	-52939.1	1005.82	-29747.9	0.000000	0.000000	7.162271	14.0805	NaN	0.000000	0.001649	0.001776	28.0797	14.3274	0.001736	8254.9	13.7511	-179.845	14.2235	1.161280	0.010173	0.009886	14.0805	8254.9	0.008894	0.007978	1765	84440.2
483	2.000000	1.172022	7.36978e+06	-52939.1	1005.82	-29747.9	0.000000	0.000000	7.173799	40.1642	NaN	0.000000	0.001669	0.001774	28.0798	25.6137	0.001760	14556.4	7.505190	-0.364315	39.7171	1.171629	0.020628	0.020235	40.1642	14556.4	0.018559	0.020328	1975.81	93278.1
483	2.000000	1.182484	7.36978e+06	-52939.1	1005.82	-29747.9	0.000000	0.000000	7.185361	66.9244	NaN	0.000000	0.001691	0.001762	28.08	35.1881	0.001689	20838.6	2.305505	-178.555	64.2861	1.182156	0.031090	0.030762	66.9244	20838.6	0.028681	0.038054	1758.66	97598
483	2.000000	1.193015	7.36978e+06	-52939.1	1005.82	-29747.9	0.000000	0.000000	7.197521	106.519	NaN	0.000000	0.001665	0.001766	28.0815	45.4884	0.001846	24646.1	8.257815	-4.136324	107.417	1.192577	0.041621	0.041183	106.519	24646.1	0.038379	0.059907	1778.06	91998.5
483	2.000000	1.203532	7.36978e+06	-52939.1	1005.82	-29747.9	0.000000	0.000000	7.209686	146.601	NaN	0.000000	0.001735	0.001740	28.0812	55.2166	0.001748	31583.1	4.850044	175.722	147.219	1.203184	0.052138	0.051790	146.601	31583.1	0.048656	0.088305	1660.15	97103.5
483	2.000000	1.213950	7.36978e+06	-52939.1	1005.82	-29747.9	0.000000	0.000000	7.222320	200.468	NaN	0.000000	0.001677	0.001785	28.0814	64.3209	0.001771	36314.7	1.423672	-2.003811	198.889	1.213822	0.062556	0.062428	200.468	36314.7	0.058416	0.120189	1667.95	95702.6
483	2.000000	1.224405	7.36978e+06	-52939.1	1005.82	-29747.9	0.000000	0.000000	7.235069	256.227	NaN	0.000000	0.001653	0.001807	28.0799	74.8494	0.001818	41167	5.884272	172.532	252.027	1.224203	0.073011	0.072809	256.227	41167	0.068343	0.157413	1627.73	94798.4
483	2.000000	1.234982	7.36978e+06	-52939.1	1005.82	-29747.9	0.000000	0.000000	7.248696	330.39	NaN	0.000000	0.001574	0.001798	28.0799	84.4944	0.001837	45989.1	3.941348	-5.592178	331.295	1.234576	0.083588	0.083182	330.39	45989.1	0.078200	0.199035	1659.96	94181.1
483	2.000000	1.245408	7.36978e+06	-52939.1	1005.82	-29747.9	0.000000	0.000000	7.262195	405.112	NaN	0.000000	0.001609	0.001790	28.0801	93.9706	0.001812	51864.3	7.705616	169.189	403.264	1.245083	0.094014	0.093689	405.112	51864.3	0.088156	0.245686	1648.9	95598.6
483	2.000000	1.254382	7.36978e+06	-52939.1	1005.82	-29747.9	0.000000	0.000000	7.274213	479.137	NaN	0.000000	0.001606	0.001755	28.0801	101.049	0.001697	59559	5.373000	171.036	476.607	1.254078	0.102988	0.102684	479.137	59559	0.096954	0.290709	1648.17	100923