File: remote_trans/data/nanoindenter/0828-1/data/Data_2025-08-06,11h17m57s/2025-07-22_16-23-58_1_253.txt
2025-07-22, 16:23:58, 1
Index	Phase	Displacement	Time	Pos X	Pos Y	Pos Z	Rot A	Rot B	Piezo Z	Force A	Force B	Gripper	Voltage A	Voltage B	Temperature	Amplitude force	Amplitude pos	Stiffness	Phase shift	Phase excitation	Force A raw	Displacement raw	HMax	HMax raw	Real Force	Real Stiffness	Contact Depth	Area	Hardness	Reduced Mod.
[#]	[#]	[um]	[s]	[um]	[um]	[um]	[m°]	[m°]	[um]	[uN]	[uN]	[V]	[V]	[V]	[°C]	[uN]	[um]	[N/m]	[°]	[°]	[uN]	[um]	[um]	[um]	[uN]	[N/m]	[um]	[um^2]	[MPa]	[MPa]
253	1.000000	0.002066	7.36752e+06	-51289.1	955.819	-29752.6	0.000000	0.000000	6.002794	0.027956	NaN	0.000000	0.001588	0.001681	28.0767	0.131071	0.001037	126.371	2.226273	-162.968	-0.047494	0.000846	-1.685360	-1.686580	0.027956	126.371	-1.685526	-3.266962E+22	-8.557276E-25	NaN
253	1.000000	0.060010	7.36752e+06	-51289.1	955.818	-29752.6	0.000000	0.000000	6.060737	-0.011215	NaN	0.000000	0.001600	0.001688	28.078	0.068994	0.001909	36.1346	113.348	13.0223	0.050250	0.058708	-1.627416	-1.628718	-0.011215	36.1346	-1.627183	-5.479076E+21	2.046816E-24	NaN
253	1.000000	0.118040	7.36752e+06	-51289.1	955.817	-29752.6	0.000000	0.000000	6.118768	0.021650	NaN	0.000000	0.001583	0.001699	28.0777	0.079624	0.001904	41.8143	18.8452	-165.55	0.140376	0.116764	-1.569386	-1.570662	0.021650	41.8143	-1.569774	-9.443559E+20	-2.292546E-23	NaN
253	1.000000	0.176061	7.36752e+06	-51289.1	955.818	-29752.6	0.000000	0.000000	6.176785	-0.082756	NaN	0.000000	0.001571	0.001699	28.0766	0.106536	0.002047	52.0359	51.9821	11.1689	-0.038530	0.174706	-1.511365	-1.512720	-0.082756	52.0359	-1.510172	-1.519757E+20	5.445314E-22	NaN
253	1.000000	0.234086	7.36752e+06	-51289.1	955.818	-29752.6	0.000000	0.000000	6.234813	-0.029183	NaN	0.000000	0.001575	0.001713	28.0769	0.041620	0.002044	20.3657	-65.8697	-162.999	-0.048074	0.232808	-1.453339	-1.454618	-0.029183	20.3657	-1.452265	-2.572363E+19	1.134478E-21	NaN
253	1.000000	0.292101	7.36753e+06	-51289.1	955.819	-29752.5	0.000000	0.000000	6.292829	0.023057	NaN	0.000000	0.001596	0.001702	28.0771	0.062310	0.001870	33.3145	-16.9456	14.2688	-0.012069	0.290805	-1.395325	-1.396621	0.023057	33.3145	-1.395844	-4.550185E+18	-5.067279E-21	NaN
253	1.000000	0.350124	7.36753e+06	-51289.1	955.817	-29752.5	0.000000	0.000000	6.350852	-0.004311	NaN	0.000000	0.001614	0.001666	28.0781	0.056939	0.001941	29.3401	52.1089	-163.438	-0.001822	0.348849	-1.337301	-1.338577	-0.004311	29.3401	-1.337191	-7.502495E+17	5.745992E-21	NaN
253	1.000000	0.408184	7.36753e+06	-51289.1	955.819	-29752.5	0.000000	0.000000	6.408912	0.018983	NaN	0.000000	0.001651	0.001735	28.0782	0.028275	0.002079	13.6013	96.9613	18.67	0.041073	0.406830	-1.279242	-1.280595	0.018983	13.6013	-1.280288	-1.302991E+17	-1.456917E-19	NaN
253	1.000000	0.466210	7.36753e+06	-51289.1	955.818	-29752.5	0.000000	0.000000	6.466940	0.071095	NaN	0.000000	0.001552	0.001696	28.0769	0.106573	0.002039	52.2607	-11.4419	-165.834	0.014369	0.464906	-1.221216	-1.222520	0.071095	52.2607	-1.222236	-2.179881E+16	-3.261412E-18	NaN
253	1.000000	0.524219	7.36753e+06	-51289.1	955.819	-29752.5	0.000000	0.000000	6.524949	0.063950	NaN	0.000000	0.001568	0.001692	28.0767	0.134672	0.002041	65.9729	-139.32	17.2024	0.013574	0.522865	-1.163207	-1.164560	0.063950	65.9729	-1.163934	-3.610747E+15	-1.771109E-17	NaN
253	1.000000	0.582260	7.36753e+06	-51289.1	955.817	-29752.5	0.000000	0.000000	6.582985	-0.045224	NaN	0.000000	0.001566	0.001654	28.0779	0.094607	0.002072	45.6612	114.803	-167.063	-0.032562	0.580954	-1.105166	-1.106472	-0.045224	45.6612	-1.104423	-5.746971E+14	7.869190E-17	NaN
253	1.000000	0.640261	7.36753e+06	-51289.1	955.818	-29752.5	0.000000	0.000000	6.640989	0.035579	NaN	0.000000	0.001563	0.001724	28.0779	0.098194	0.001851	53.0486	26.2944	14.3712	0.003207	0.638918	-1.047165	-1.048508	0.035579	53.0486	-1.047668	-9.932701E+13	-3.581991E-16	NaN
253	1.000000	0.698293	7.36753e+06	-51289.1	955.818	-29752.5	0.000000	0.000000	6.699019	-0.040171	NaN	0.000000	0.001558	0.001701	28.078	0.071111	0.002061	34.4979	44.1739	-166.691	-0.035994	0.697027	-0.989133	-0.990399	-0.040171	34.4979	-0.988259	-1.576413E+13	2.548275E-15	NaN
253	1.000000	0.756278	7.36753e+06	-51289.1	955.818	-29752.5	0.000000	0.000000	6.757006	-0.002888	NaN	0.000000	0.001593	0.001698	28.0764	0.016879	0.001950	8.657128	-93.1527	16.002	0.005933	0.754968	-0.931148	-0.932458	-0.002888	8.657128	-0.930897	-2.656485E+12	1.087286E-15	NaN
253	1.000000	0.814351	7.36753e+06	-51289.1	955.819	-29752.5	0.000000	0.000000	6.815079	0.017716	NaN	0.000000	0.001583	0.001708	28.0765	0.108313	0.001912	56.6353	-104.901	-165.196	0.012329	0.813025	-0.873075	-0.874400	0.017716	56.6353	-0.873310	-4.428121E+11	-4.000691E-14	NaN
253	1.000000	0.872342	7.36753e+06	-51289.1	955.818	-29752.5	0.000000	0.000000	6.873070	0.006684	NaN	0.000000	0.001550	0.001690	28.0775	0.047411	0.002014	23.537	-153.347	13.3014	0.034086	0.871045	-0.815084	-0.816381	0.006684	23.537	-0.815297	-7.251446E+10	-9.218090E-14	NaN
253	1.000000	0.930391	7.36753e+06	-51289.1	955.82	-29752.5	0.000000	0.000000	6.931117	-0.024612	NaN	0.000000	0.001548	0.001724	28.0779	0.091270	0.002132	42.8156	124.416	-164.538	0.067337	0.929070	-0.757035	-0.758356	-0.024612	42.8156	-0.756604	-1.156364E+10	2.128435E-12	NaN
253	1.000000	0.988408	7.36753e+06	-51289.1	955.819	-29752.5	0.000000	0.000000	6.989135	-0.001360	NaN	0.000000	0.001550	0.001645	28.0765	0.046740	0.001920	24.3434	4.394265	12.9676	-0.015045	0.987018	-0.699018	-0.700408	-0.001360	24.3434	-0.698976	-1.894726E+9	7.176045E-13	NaN
253	1.000000	1.046441	7.36753e+06	-51289.1	955.818	-29752.5	0.000000	0.000000	7.047170	0.024821	NaN	0.000000	0.001569	0.001653	28.0765	0.025851	0.002050	12.61	-63.1158	-164.238	0.052605	1.045120	-0.640985	-0.642306	0.024821	12.61	-0.642461	-3.191908E+8	-7.776285E-11	NaN
253	1.000000	1.104469	7.36753e+06	-51289.1	955.819	-29752.5	0.000000	0.000000	7.105196	-0.012196	NaN	0.000000	0.001621	0.001645	28.0767	0.098071	0.002022	48.5079	-55.0916	13.0805	0.001316	1.103126	-0.582957	-0.584300	-0.012196	48.5079	-0.582768	-4.818684E+7	2.530950E-10	NaN
253	1.000000	1.162470	7.36753e+06	-51289.1	955.82	-29752.5	0.000000	0.000000	7.163197	-0.012438	NaN	0.000000	0.001609	0.001664	28.0779	0.075635	0.001878	40.2812	-17.916	-162.408	-0.068412	1.161161	-0.524956	-0.526265	-0.012438	40.2812	-0.524724	-7.57318e+06	1.642402E-9	NaN
253	1.000000	1.220489	7.36753e+06	-51289.1	955.818	-29752.5	0.000000	0.000000	7.221216	-0.000844	NaN	0.000000	0.001512	0.001690	28.078	0.137540	0.001960	70.1813	105.574	15.4623	0.032414	1.219170	-0.466937	-0.468256	-0.000844	70.1813	-0.466928	-1.18115e+06	7.149626E-10	NaN
253	1.000000	1.278529	7.36753e+06	-51289.1	955.819	-29752.5	0.000000	0.000000	7.279255	-0.028827	NaN	0.000000	0.001510	0.001706	28.0765	0.165028	0.001942	84.9721	21.7796	-167.744	-0.066900	1.277239	-0.408897	-0.410187	-0.028827	84.9721	-0.408643	-177457	1.624458E-7	NaN
253	1.000000	1.336564	7.36753e+06	-51289.1	955.82	-29752.5	0.000000	0.000000	7.337292	0.011965	NaN	0.000000	0.001606	0.001707	28.0769	0.034917	0.001920	18.1868	166.566	12.5909	-0.043769	1.335176	-0.350862	-0.352250	0.011965	18.1868	-0.351355	-26709.3	-4.479578E-7	NaN
253	1.000000	1.394581	7.36753e+06	-51289.1	955.82	-29752.5	0.000000	0.000000	7.395306	-0.062254	NaN	0.000000	0.001628	0.001686	28.0782	0.056906	0.002082	27.3386	-22.9374	-165.789	-0.002179	1.393284	-0.292844	-0.294141	-0.062254	27.3386	-0.291137	-3469.95	1.794085E-5	NaN
253	1.000000	1.452626	7.36753e+06	-51289.1	955.821	-29752.5	0.000000	0.000000	7.453353	-0.008610	NaN	0.000000	0.001579	0.001720	28.078	0.072307	0.002090	34.6031	107.339	17.2304	0.027126	1.451238	-0.234800	-0.236187	-0.008610	34.6031	-0.234613	-473.339	1.819054E-5	NaN
253	1.000000	1.510625	7.36753e+06	-51289.1	955.82	-29752.5	0.000000	0.000000	7.511349	-0.073273	NaN	0.000000	0.001595	0.001684	28.0784	0.065544	0.001907	34.3694	-162.071	-163.916	-0.042759	1.509341	-0.176801	-0.178085	-0.073273	34.3694	-0.175202	-50.5188	0.001450	NaN
253	1.000000	1.568678	7.36753e+06	-51289.1	955.82	-29752.5	0.000000	0.000000	7.569402	-0.069726	NaN	0.000000	0.001626	0.001708	28.0769	0.102959	0.001938	53.1318	-23.9925	12.7965	-0.184847	1.567339	-0.118748	-0.120087	-0.069726	53.1318	-0.117764	-4.352499	0.016020	NaN
253	1.000000	1.626683	7.36753e+06	-51289.1	955.821	-29752.5	0.000000	0.000000	7.627409	-0.039515	NaN	0.000000	0.001567	0.001730	28.0768	0.172561	0.001985	86.9455	173.543	-165.528	-0.005866	1.625341	-0.060743	-0.062085	-0.039515	86.9455	-0.060402	-0.184932	0.213674	NaN
253	1.000000	1.684709	7.36753e+06	-51289.1	955.822	-29752.5	0.000000	0.000000	7.685438	0.054598	NaN	0.000000	0.001572	0.001696	28.0781	0.028948	0.001992	14.5306	84.5147	12.7678	-0.032294	1.683372	-0.002717	-0.004054	0.054598	14.5306	-0.005535	-0.003750	-14.5575	NaN
253	2.000000	1.708159	7.36753e+06	-51289.1	955.822	-29752.5	0.000000	0.000000	7.710174	31.3234	NaN	0.000000	0.001600	0.001649	28.0781	20.5473	0.001776	11571.9	1.439195	-172.552	31.546	1.707761	0.020733	0.020335	31.3234	11571.9	0.018703	0.020545	1524.62	73760.5
253	2.000000	1.722590	7.36753e+06	-51289.1	955.822	-29752.5	0.000000	0.000000	7.726160	69.1387	NaN	0.000000	0.001532	0.001672	28.0768	33.0287	0.001699	19441.8	2.241285	1.712094	66.3434	1.722296	0.035164	0.034870	69.1387	19441.8	0.032497	0.046077	1500.49	82749.8
253	2.000000	1.737127	7.36753e+06	-51289.1	955.822	-29752.5	0.000000	0.000000	7.742850	121.468	NaN	0.000000	0.001551	0.001652	28.0769	44.8268	0.001685	26608.9	4.159838	178.565	123.951	1.736716	0.049702	0.049291	121.468	26608.9	0.046278	0.081257	1494.86	85284.5
253	2.000000	1.751600	7.36753e+06	-51289.1	955.822	-29752.5	0.000000	0.000000	7.759807	181.892	NaN	0.000000	0.001477	0.001669	28.0774	58.6595	0.001755	33418.8	4.882584	-5.442959	182.145	1.751321	0.064174	0.063896	181.892	33418.8	0.060092	0.126139	1442	85968.7
253	2.000000	1.766088	7.36753e+06	-51289.1	955.822	-29752.5	0.000000	0.000000	7.777809	267.351	NaN	0.000000	0.001626	0.001648	28.0783	71.8159	0.001834	39153.6	2.223361	176.905	269.761	1.765715	0.078662	0.078289	267.351	39153.6	0.073541	0.178788	1495.35	84601.1
253	2.000000	1.780523	7.36753e+06	-51289.1	955.821	-29752.5	0.000000	0.000000	7.796285	365.587	NaN	0.000000	0.001593	0.001649	28.0785	84.9364	0.001849	45933.8	5.297934	-7.393234	365.375	1.780208	0.093098	0.092782	365.587	45933.8	0.087128	0.240659	1519.11	85547
253	2.000000	1.794949	7.36753e+06	-51289.1	955.822	-29752.5	0.000000	0.000000	7.814963	468.98	NaN	0.000000	0.001533	0.001688	28.0773	96.0681	0.001846	52046.1	2.293418	174.386	464.079	1.794591	0.107524	0.107166	468.98	52046.1	0.100765	0.311309	1506.48	85224.7