File: remote_trans/data/nanoindenter/0828-1/data/Data_2025-08-06,11h17m57s/2025-07-22_16-23-58_1_413.txt
2025-07-22, 16:23:58, 1
Index	Phase	Displacement	Time	Pos X	Pos Y	Pos Z	Rot A	Rot B	Piezo Z	Force A	Force B	Gripper	Voltage A	Voltage B	Temperature	Amplitude force	Amplitude pos	Stiffness	Phase shift	Phase excitation	Force A raw	Displacement raw	HMax	HMax raw	Real Force	Real Stiffness	Contact Depth	Area	Hardness	Reduced Mod.
[#]	[#]	[um]	[s]	[um]	[um]	[um]	[m°]	[m°]	[um]	[uN]	[uN]	[V]	[V]	[V]	[°C]	[uN]	[um]	[N/m]	[°]	[°]	[uN]	[um]	[um]	[um]	[uN]	[N/m]	[um]	[um^2]	[MPa]	[MPa]
413	1.000000	0.002601	7.3691e+06	-56439.1	1005.82	-29739.1	0.000000	0.000000	6.002825	-0.027403	NaN	0.000000	0.001735	0.001631	28.0821	0.040949	0.000912	44.8947	-132.129	-161.995	-3.544889E-5	0.001340	-1.023431	-1.024692	-0.027403	44.8947	-1.022974	-4.623391E+13	5.926961E-16	NaN
413	1.000000	0.042532	7.3691e+06	-56439.1	1005.82	-29739.1	0.000000	0.000000	6.042756	-0.038301	NaN	0.000000	0.001739	0.001676	28.0816	0.118139	0.002064	57.2492	166.035	-166.335	-0.120666	0.041204	-0.983500	-0.984828	-0.038301	57.2492	-0.982999	-1.339086E+13	2.860245E-15	NaN
413	1.000000	0.082549	7.3691e+06	-56439.1	1005.82	-29739.1	0.000000	0.000000	6.082772	-0.058523	NaN	0.000000	0.001688	0.001657	28.0813	0.047327	0.002055	23.0349	-168.211	-163.77	-0.051355	0.081209	-0.943483	-0.944823	-0.058523	23.0349	-0.941578	-3.701884E+12	1.580896E-14	NaN
413	1.000000	0.122547	7.3691e+06	-56439.1	1005.82	-29739.1	0.000000	0.000000	6.122771	-0.036051	NaN	0.000000	0.001683	0.001647	28.0807	0.057937	0.001954	29.6502	-22.2202	-168.608	-0.019843	0.121258	-0.903485	-0.904774	-0.036051	29.6502	-0.902573	-1.101121E+12	3.274039E-14	NaN
413	1.000000	0.162574	7.3691e+06	-56439.1	1005.82	-29739.1	0.000000	0.000000	6.162797	-0.043152	NaN	0.000000	0.001752	0.001649	28.0807	0.040303	0.001968	20.4821	-39.7718	-167.694	-0.104437	0.161238	-0.863459	-0.864794	-0.043152	20.4821	-0.861879	-3.101316E+11	1.391412E-13	NaN
413	1.000000	0.202568	7.3691e+06	-56439.1	1005.82	-29739.1	0.000000	0.000000	6.202789	-0.114232	NaN	0.000000	0.001768	0.001661	28.0809	0.076079	0.001989	38.2519	-155.901	-162.531	-0.058281	0.201296	-0.823464	-0.824736	-0.114232	38.2519	-0.821224	-8.725877E+10	1.309119E-12	NaN
413	1.000000	0.242591	7.3691e+06	-56439.1	1005.82	-29739.1	0.000000	0.000000	6.242812	-0.099606	NaN	0.000000	0.001777	0.001645	28.082	0.056422	0.002001	28.1921	157.455	-165.262	-0.097511	0.241287	-0.783441	-0.784745	-0.099606	28.1921	-0.780791	-2.465958E+10	4.039225E-12	NaN
413	1.000000	0.282637	7.3691e+06	-56439.1	1005.82	-29739.1	0.000000	0.000000	6.282861	-0.043946	NaN	0.000000	0.001831	0.001663	28.0821	0.036195	0.002109	17.1652	-91.7119	-168.716	0.018777	0.281313	-0.743395	-0.744719	-0.043946	17.1652	-0.741475	-7.196919E+9	6.106223E-12	NaN
413	1.000000	0.322646	7.3691e+06	-56439.1	1005.82	-29739.1	0.000000	0.000000	6.322869	-0.057418	NaN	0.000000	0.001803	0.001655	28.0823	0.080173	0.001927	41.5945	-81.0446	-163.888	-0.081758	0.321327	-0.703386	-0.704705	-0.057418	41.5945	-0.702351	-2.106849E+9	2.725283E-11	NaN
413	1.000000	0.362632	7.3691e+06	-56439.1	1005.82	-29739.1	0.000000	0.000000	6.362854	-0.082264	NaN	0.000000	0.001800	0.001651	28.0808	0.031430	0.002073	15.1587	162.14	-165.726	-0.131208	0.361384	-0.663400	-0.664648	-0.082264	15.1587	-0.659330	-5.436092E+8	1.513288E-10	NaN
413	1.000000	0.402672	7.3691e+06	-56439.1	1005.82	-29739.1	0.000000	0.000000	6.402896	-0.025152	NaN	0.000000	0.001648	0.001684	28.0807	0.120539	0.001939	62.176	62.3519	-166.947	-0.100561	0.401374	-0.623360	-0.624658	-0.025152	62.176	-0.623057	-1.728411E+8	1.455197E-10	NaN
413	1.000000	0.442680	7.3691e+06	-56439.1	1005.82	-29739.1	0.000000	0.000000	6.442903	-0.041725	NaN	0.000000	0.001732	0.001673	28.0808	0.022503	0.001915	11.7489	-167.173	-165.652	-0.065228	0.441415	-0.583352	-0.584617	-0.041725	11.7489	-0.580689	-4.510582E+7	9.250498E-10	NaN
413	1.000000	0.482681	7.3691e+06	-56439.1	1005.82	-29739.1	0.000000	0.000000	6.482906	0.006345	NaN	0.000000	0.001699	0.001639	28.0809	0.090601	0.001899	47.6999	-74.1444	-166.643	-0.013037	0.481374	-0.543352	-0.544658	0.006345	47.6999	-0.543451	-1.377883E+7	-4.604557E-10	NaN
413	1.000000	0.522728	7.3691e+06	-56439.1	1005.82	-29739.1	0.000000	0.000000	6.522950	-0.081975	NaN	0.000000	0.001772	0.001681	28.0826	0.005167	0.001988	2.598511	9.810450	-163.044	-0.066473	0.521371	-0.503305	-0.504661	-0.081975	2.598511	-0.479644	-1.78052e+06	4.604008E-8	NaN
413	1.000000	0.562729	7.3691e+06	-56439.1	1005.82	-29739.1	0.000000	0.000000	6.562953	-0.041611	NaN	0.000000	0.001739	0.001640	28.0824	0.016565	0.001914	8.653123	82.0936	-163.968	-0.012156	0.561376	-0.463303	-0.464656	-0.041611	8.653123	-0.459697	-934877	4.450923E-8	NaN
413	1.000000	0.602780	7.3691e+06	-56439.1	1005.82	-29739.1	0.000000	0.000000	6.603006	0.010131	NaN	0.000000	0.001723	0.001629	28.0821	0.078881	0.002067	38.1686	45.2497	-166.65	0.020981	0.601415	-0.423252	-0.424617	0.010131	38.1686	-0.423451	-287968	-3.517955E-8	NaN
413	1.000000	0.642778	7.3691e+06	-56439.1	1005.82	-29739.1	0.000000	0.000000	6.643005	0.025502	NaN	0.000000	0.001693	0.001605	28.0809	0.073224	0.002084	35.1281	135.885	-164.771	0.062174	0.641468	-0.383254	-0.384564	0.025502	35.1281	-0.383798	-78409.1	-3.252391E-7	NaN
413	1.000000	0.682796	7.3691e+06	-56439.1	1005.82	-29739.1	0.000000	0.000000	6.683022	0.009980	NaN	0.000000	0.001666	0.001627	28.0809	0.054604	0.001928	28.325	-29.666	-161.997	0.043154	0.681503	-0.343236	-0.344529	0.009980	28.325	-0.343501	-20537.2	-4.859617E-7	NaN
413	1.000000	0.722812	7.3691e+06	-56439.1	1005.82	-29739.1	0.000000	0.000000	6.723035	-0.055081	NaN	0.000000	0.001674	0.001603	28.0808	0.019256	0.001909	10.0864	126.406	-166.652	-0.038433	0.721490	-0.303220	-0.304542	-0.055081	10.0864	-0.299125	-4566.69	1.206138E-5	NaN
413	1.000000	0.762823	7.3691e+06	-56439.1	1005.82	-29739.1	0.000000	0.000000	6.763046	-0.064300	NaN	0.000000	0.001719	0.001620	28.0807	0.097739	0.001948	50.1652	26.4239	-163.331	-0.033915	0.761487	-0.263209	-0.264545	-0.064300	50.1652	-0.262248	-1268.64	5.068440E-5	NaN
413	1.000000	0.802850	7.3691e+06	-56439.1	1005.82	-29739.1	0.000000	0.000000	6.803074	-0.036154	NaN	0.000000	0.001728	0.001626	28.0818	0.068598	0.002050	33.4577	8.769703	-165.719	-0.058052	0.801568	-0.223183	-0.224464	-0.036154	33.4577	-0.222372	-303.06	0.000119	NaN
413	1.000000	0.842858	7.3691e+06	-56439.1	1005.82	-29739.1	0.000000	0.000000	6.843081	-0.064189	NaN	0.000000	0.001660	0.001657	28.082	0.027737	0.001964	14.1246	145.355	-166.473	-0.061668	0.841494	-0.183174	-0.184539	-0.064189	14.1246	-0.179766	-60.4622	0.001062	NaN
413	1.000000	0.882863	7.3691e+06	-56439.1	1005.82	-29739.1	0.000000	0.000000	6.883089	0.029084	NaN	0.000000	0.001696	0.001679	28.0822	0.044312	0.002006	22.0865	-5.013928	-167.673	-0.030208	0.881572	-0.143169	-0.144460	0.029084	22.0865	-0.144157	-14.1433	-0.002056	NaN
413	1.000000	0.922892	7.3691e+06	-56439.1	1005.82	-29739.1	0.000000	0.000000	6.923118	0.003294	NaN	0.000000	0.001684	0.001622	28.0811	0.147961	0.001940	76.279	72.7583	-164.378	-0.033581	0.921552	-0.103140	-0.104480	0.003294	76.279	-0.103172	-2.145392	-0.001535	NaN
413	1.000000	0.962945	7.3691e+06	-56439.1	1005.82	-29739.1	0.000000	0.000000	6.963167	-0.084872	NaN	0.000000	0.001745	0.001646	28.081	0.063961	0.001875	34.1208	44.2771	-172.027	-0.054110	0.961634	-0.063087	-0.064398	-0.084872	34.1208	-0.061221	-0.195164	0.434877	NaN
413	1.000000	1.002932	7.3691e+06	-56439.1	1005.82	-29739.1	0.000000	0.000000	7.003155	-0.057922	NaN	0.000000	0.001769	0.001606	28.081	0.086063	0.002036	42.2621	4.833559	-162.757	-0.035433	1.001614	-0.023100	-0.024418	-0.057922	42.2621	-0.022072	-0.014181	4.084498	NaN
413	2.000000	1.036498	7.3691e+06	-56439.1	1005.82	-29739.1	0.000000	0.000000	7.037244	12.6487	NaN	0.000000	0.001725	0.001656	28.0822	12.4388	0.001654	7519.05	7.069521	-176.548	11.3118	1.036203	0.010466	0.010171	12.6487	7519.05	0.009204	0.008310	1522.01	75356.9
413	2.000000	1.046473	7.3691e+06	-56439.1	1005.82	-29739.1	0.000000	0.000000	7.047893	29.0371	NaN	0.000000	0.001741	0.001649	28.083	22.0553	0.001902	11595.7	6.656875	-175.563	30.6074	1.046218	0.020440	0.020186	29.0371	11595.7	0.018562	0.020333	1428.06	74295.8
413	2.000000	1.056412	7.36911e+06	-56439.1	1005.82	-29739.1	0.000000	0.000000	7.058783	52.1469	NaN	0.000000	0.001758	0.001606	28.0823	31.7613	0.001699	18697.2	4.162167	-178.714	50.9862	1.056037	0.030380	0.030005	52.1469	18697.2	0.028288	0.037271	1399.13	88483.8
413	2.000000	1.066414	7.36911e+06	-56439.1	1005.82	-29739.1	0.000000	0.000000	7.070096	83.9979	NaN	0.000000	0.001706	0.001668	28.0821	41.5646	0.001739	23901.7	8.129717	173.713	84.3096	1.066228	0.040382	0.040195	83.9979	23901.7	0.037747	0.058335	1439.93	90414.8
413	2.000000	1.076357	7.36911e+06	-56439.1	1005.82	-29739.1	0.000000	0.000000	7.081865	128.415	NaN	0.000000	0.001686	0.001616	28.0811	51.1668	0.001725	29655.3	0.810026	-179.811	126.8	1.076130	0.050324	0.050098	128.415	29655.3	0.047077	0.083592	1536.21	93711.5
413	2.000000	1.086365	7.36911e+06	-56439.1	1005.82	-29739.1	0.000000	0.000000	7.093976	179.512	NaN	0.000000	0.001647	0.001621	28.0809	61.6819	0.001794	34379.4	4.792563	175.272	177.997	1.086065	0.060333	0.060033	179.512	34379.4	0.056417	0.113274	1584.76	93326.7
413	2.000000	1.096355	7.36911e+06	-56439.1	1005.82	-29739.1	0.000000	0.000000	7.106505	241.224	NaN	0.000000	0.001683	0.001623	28.081	70.6718	0.001806	39140.5	4.931370	175.051	240.47	1.096055	0.070323	0.070022	241.224	39140.5	0.065700	0.147039	1640.54	93257.3
413	2.000000	1.106325	7.36911e+06	-56439.1	1005.82	-29739.1	0.000000	0.000000	7.119091	304.8	NaN	0.000000	0.001712	0.001639	28.0822	82.1628	0.001816	45248.9	5.015053	172.906	301.494	1.105983	0.080293	0.079951	304.8	45248.9	0.075241	0.186059	1638.19	95842.1
413	2.000000	1.116331	7.36911e+06	-56439.1	1005.82	-29739.1	0.000000	0.000000	7.131769	369.751	NaN	0.000000	0.001672	0.001626	28.0823	91.13	0.001829	49831.7	5.282668	171.607	368.252	1.116119	0.090299	0.090086	369.751	49831.7	0.084734	0.229135	1613.68	95111.6
413	2.000000	1.126283	7.36911e+06	-56439.1	1005.82	-29739.1	0.000000	0.000000	7.145014	449.801	NaN	0.000000	0.001700	0.001614	28.0824	99.9791	0.001777	56249.8	5.186729	171.228	446.918	1.126017	0.100251	0.099985	449.801	56249.8	0.094253	0.276513	1626.69	97732
413	2.000000	1.132801	7.36911e+06	-56439.1	1005.82	-29739.1	0.000000	0.000000	7.153860	506.389	NaN	0.000000	0.001626	0.001615	28.0824	105.161	0.001866	56358.2	2.209917	-5.695586	502.367	1.132509	0.106769	0.106476	506.389	56358.2	0.100030	0.307285	1647.95	92888