File: remote_trans/data/nanoindenter/0828-1/data/Data_2025-08-06,11h17m57s/2025-07-22_16-23-58_1_1171.txt
2025-07-22, 16:23:58, 1
Index	Phase	Displacement	Time	Pos X	Pos Y	Pos Z	Rot A	Rot B	Piezo Z	Force A	Force B	Gripper	Voltage A	Voltage B	Temperature	Amplitude force	Amplitude pos	Stiffness	Phase shift	Phase excitation	Force A raw	Displacement raw	HMax	HMax raw	Real Force	Real Stiffness	Contact Depth	Area	Hardness	Reduced Mod.
[#]	[#]	[um]	[s]	[um]	[um]	[um]	[m°]	[m°]	[um]	[uN]	[uN]	[V]	[V]	[V]	[°C]	[uN]	[um]	[N/m]	[°]	[°]	[uN]	[um]	[um]	[um]	[uN]	[N/m]	[um]	[um^2]	[MPa]	[MPa]
1171	1.000000	0.003036	7.3765e+06	-57039.1	1105.82	-29737.4	0.000000	0.000000	6.002816	0.021931	NaN	0.000000	0.001616	0.001764	28.0838	0.096026	0.001013	94.7785	1.950122	-170.886	-0.065514	0.001777	-1.106158	-1.107417	0.021931	94.7785	-1.106331	-6.096115E+14	-3.597580E-17	NaN
1171	1.000000	0.044975	7.3765e+06	-57039.1	1105.82	-29737.4	0.000000	0.000000	6.044754	-0.005169	NaN	0.000000	0.001577	0.001782	28.0823	0.056494	0.002047	27.5941	-124.968	14.4341	0.003234	0.043660	-1.064219	-1.065534	-0.005169	27.5941	-1.064079	-1.650550E+14	3.131851E-17	NaN
1171	1.000000	0.086979	7.3765e+06	-57039.1	1105.82	-29737.4	0.000000	0.000000	6.086761	0.061270	NaN	0.000000	0.001570	0.001739	28.0827	0.047047	0.001871	25.1488	171.094	-164.736	0.039557	0.085675	-1.022215	-1.023519	0.061270	25.1488	-1.024042	-4.779006E+13	-1.282057E-15	NaN
1171	1.000000	0.129009	7.3765e+06	-57039.1	1105.82	-29737.4	0.000000	0.000000	6.128789	0.015853	NaN	0.000000	0.001605	0.001775	28.0825	0.020833	0.001849	11.2661	-89.8831	15.1287	0.015202	0.127697	-0.980185	-0.981497	0.015853	11.2661	-0.981240	-1.267997E+13	-1.250230E-15	NaN
1171	1.000000	0.171031	7.3765e+06	-57039.1	1105.82	-29737.4	0.000000	0.000000	6.170810	-0.013846	NaN	0.000000	0.001607	0.001750	28.0835	0.067963	0.001942	34.9938	-94.818	-166.321	0.067878	0.169660	-0.938163	-0.939534	-0.013846	34.9938	-0.937866	-3.298707E+12	4.197272E-15	NaN
1171	1.000000	0.213023	7.3765e+06	-57039.1	1105.82	-29737.4	0.000000	0.000000	6.212803	-0.007408	NaN	0.000000	0.001614	0.001731	28.0835	0.032050	0.001994	16.0739	-149.37	15.5982	0.047486	0.211688	-0.896171	-0.897506	-0.007408	16.0739	-0.895825	-8.925787E+11	8.299276E-15	NaN
1171	1.000000	0.255073	7.3765e+06	-57039.1	1105.82	-29737.4	0.000000	0.000000	6.254853	0.012646	NaN	0.000000	0.001636	0.001796	28.0838	0.100025	0.001965	50.8972	-45.0197	-164.144	-0.047885	0.253718	-0.854121	-0.855476	0.012646	50.8972	-0.854307	-2.449397E+11	-5.163001E-14	NaN
1171	1.000000	0.297077	7.3765e+06	-57039.1	1105.82	-29737.4	0.000000	0.000000	6.296854	-0.039126	NaN	0.000000	0.001592	0.001746	28.0824	0.037438	0.002030	18.4382	158.31	15.6098	-0.048995	0.295726	-0.812117	-0.813468	-0.039126	18.4382	-0.810526	-6.247499E+10	6.262599E-13	NaN
1171	1.000000	0.339099	7.3765e+06	-57039.1	1105.82	-29737.4	0.000000	0.000000	6.338882	0.086617	NaN	0.000000	0.001604	0.001819	28.0817	0.101426	0.001959	51.7753	64.9776	-170.014	0.123012	0.337812	-0.770095	-0.771382	0.086617	51.7753	-0.771349	-1.835061E+10	-4.720098E-12	NaN
1171	1.000000	0.381091	7.3765e+06	-57039.1	1105.82	-29737.4	0.000000	0.000000	6.380867	-0.061024	NaN	0.000000	0.001602	0.001766	28.0819	0.113688	0.002028	56.0529	110.834	14.9788	0.029135	0.379685	-0.728104	-0.729509	-0.061024	56.0529	-0.727287	-4.611366E+9	1.323349E-11	NaN
1171	1.000000	0.423136	7.3765e+06	-57039.1	1105.82	-29737.4	0.000000	0.000000	6.422917	0.033397	NaN	0.000000	0.001648	0.001778	28.082	0.184551	0.002011	91.7543	-147.426	-166.759	-0.014399	0.421840	-0.686058	-0.687354	0.033397	91.7543	-0.686331	-1.272815E+9	-2.623854E-11	NaN
1171	1.000000	0.465134	7.3765e+06	-57039.1	1105.82	-29737.4	0.000000	0.000000	6.464914	0.016777	NaN	0.000000	0.001646	0.001715	28.0831	0.058351	0.002108	27.6763	-166.767	13.1549	0.026231	0.463729	-0.644060	-0.645465	0.016777	27.6763	-0.644515	-3.405844E+8	-4.925849E-11	NaN
1171	1.000000	0.507196	7.37651e+06	-57039.1	1105.82	-29737.4	0.000000	0.000000	6.506979	0.069784	NaN	0.000000	0.001656	0.001762	28.0832	0.047329	0.001986	23.8289	-97.5998	-167.863	0.016460	0.505836	-0.601998	-0.603358	0.069784	23.8289	-0.604194	-9.510690E+7	-7.337430E-10	NaN
1171	1.000000	0.549203	7.37651e+06	-57039.1	1105.82	-29737.4	0.000000	0.000000	6.548984	0.045034	NaN	0.000000	0.001627	0.001777	28.0833	0.113078	0.002159	52.3826	-115.17	17.313	0.019570	0.547820	-0.559991	-0.561374	0.045034	52.3826	-0.560636	-2.383268E+7	-1.889590E-9	NaN
1171	1.000000	0.591213	7.37651e+06	-57039.1	1105.82	-29737.4	0.000000	0.000000	6.590992	0.006307	NaN	0.000000	0.001660	0.001792	28.0819	0.095333	0.001960	48.6288	-166.167	-164.032	-0.096269	0.589909	-0.517981	-0.519285	0.006307	48.6288	-0.518079	-6.1217e+06	-1.030209E-9	NaN
1171	1.000000	0.633208	7.37651e+06	-57039.1	1105.82	-29737.4	0.000000	0.000000	6.632987	0.007532	NaN	0.000000	0.001670	0.001795	28.082	0.039016	0.002107	18.519	158.933	17.1245	0.052349	0.631859	-0.475986	-0.477335	0.007532	18.519	-0.476291	-1.59806e+06	-4.713241E-9	NaN
1171	1.000000	0.675217	7.37651e+06	-57039.1	1105.82	-29737.4	0.000000	0.000000	6.674991	-0.121511	NaN	0.000000	0.001675	0.001743	28.082	0.040760	0.001910	21.3389	-22.872	-168.792	-0.082336	0.673881	-0.433977	-0.435313	-0.121511	21.3389	-0.429707	-353111	3.441160E-7	NaN
1171	1.000000	0.717248	7.37651e+06	-57039.1	1105.82	-29737.4	0.000000	0.000000	6.717029	0.030764	NaN	0.000000	0.001647	0.001782	28.083	0.064262	0.002035	31.586	110.23	13.415	0.044912	0.715958	-0.391946	-0.393236	0.030764	31.586	-0.392676	-105059	-2.928215E-7	NaN
1171	1.000000	0.759280	7.37651e+06	-57039.1	1105.82	-29737.4	0.000000	0.000000	6.759064	0.104911	NaN	0.000000	0.001612	0.001798	28.083	0.064425	0.001933	33.3367	134.032	-165.788	-0.040027	0.757925	-0.349914	-0.351269	0.104911	33.3367	-0.352274	-27542	-3.809131E-6	NaN
1171	1.000000	0.801292	7.37651e+06	-57039.1	1105.82	-29737.4	0.000000	0.000000	6.801073	0.033557	NaN	0.000000	0.001653	0.001765	28.0832	0.028393	0.001960	14.4839	-154.038	15.0766	-0.004507	0.799943	-0.307902	-0.309251	0.033557	14.4839	-0.309639	-6542.13	-5.129406E-6	NaN
1171	1.000000	0.843304	7.37651e+06	-57039.1	1105.82	-29737.4	0.000000	0.000000	6.843083	-0.025047	NaN	0.000000	0.001641	0.001750	28.082	0.031179	0.002065	15.0998	176.405	-164.117	-0.036948	0.842002	-0.265890	-0.267192	-0.025047	15.0998	-0.264646	-1380.31	1.814612E-5	NaN
1171	1.000000	0.885301	7.37651e+06	-57039.1	1105.82	-29737.4	0.000000	0.000000	6.885081	-0.003182	NaN	0.000000	0.001638	0.001750	28.082	0.054688	0.002030	26.9427	-159.378	13.4634	0.017112	0.883982	-0.223893	-0.225212	-0.003182	26.9427	-0.223804	-319.395	9.963060E-6	NaN
1171	1.000000	0.927338	7.37651e+06	-57039.1	1105.82	-29737.4	0.000000	0.000000	6.927119	0.056384	NaN	0.000000	0.001640	0.001730	28.082	0.059863	0.002094	28.5827	-49.0816	-165.246	0.074677	0.925994	-0.181856	-0.183200	0.056384	28.5827	-0.183336	-69.5091	-0.000811	NaN
1171	1.000000	0.969356	7.37651e+06	-57039.1	1105.82	-29737.4	0.000000	0.000000	6.969134	-0.050461	NaN	0.000000	0.001669	0.001811	28.0819	0.072601	0.002195	33.0785	31.3294	11.3247	0.025669	0.968003	-0.139838	-0.141191	-0.050461	33.0785	-0.138694	-11.1783	0.004514	NaN
1171	1.000000	1.011377	7.37651e+06	-57039.1	1105.82	-29737.4	0.000000	0.000000	7.011157	0.029588	NaN	0.000000	0.001751	0.001824	28.0832	0.032048	0.001795	17.8582	-114.523	-169.399	-0.005894	1.010051	-0.097817	-0.099143	0.029588	17.8582	-0.099060	-1.741343	-0.016991	NaN
1171	1.000000	1.053392	7.37651e+06	-57039.1	1105.82	-29737.4	0.000000	0.000000	7.053173	0.032554	NaN	0.000000	0.001630	0.001759	28.0833	0.105790	0.001871	56.5505	160.253	11.8442	-0.013310	1.052001	-0.055802	-0.057193	0.032554	56.5505	-0.056234	-0.140019	-0.232496	NaN
1171	1.000000	1.095387	7.37651e+06	-57039.1	1105.82	-29737.4	0.000000	0.000000	7.095167	0.024284	NaN	0.000000	0.001654	0.001738	28.0834	0.176637	0.002161	81.7448	-101.489	-169.657	-0.011270	1.094097	-0.013808	-0.015097	0.024284	81.7448	-0.014030	-0.008701	-2.790952	NaN
1171	2.000000	1.120471	7.37651e+06	-57039.1	1105.82	-29737.4	0.000000	0.000000	7.121002	18.2665	NaN	0.000000	0.001641	0.001774	28.0824	15.808	0.001889	8366.65	7.353276	5.315465	17.8858	1.120096	0.011277	0.010902	18.2665	8366.65	0.009639	0.008783	2079.65	81563
1171	2.000000	1.130922	7.37651e+06	-57039.1	1105.82	-29737.4	0.000000	0.000000	7.132216	36.8124	NaN	0.000000	0.001668	0.001728	28.082	26.4777	0.001909	13872.1	9.613830	177.584	38.0834	1.130604	0.021728	0.021410	36.8124	13872.1	0.019738	0.022132	1663.3	85192.7
1171	2.000000	1.141385	7.37651e+06	-57039.1	1105.82	-29737.4	0.000000	0.000000	7.143889	66.235	NaN	0.000000	0.001638	0.001739	28.0821	37.33	0.001891	19738.8	6.724836	-3.327452	64.7359	1.141109	0.032191	0.031915	66.235	19738.8	0.029674	0.040071	1652.93	90090.3
1171	2.000000	1.151778	7.37651e+06	-57039.1	1105.82	-29737.4	0.000000	0.000000	7.155907	105.718	NaN	0.000000	0.001626	0.001768	28.0833	46.974	0.001803	26055.6	4.687930	176.492	101.322	1.151465	0.042584	0.042271	105.718	26055.6	0.039541	0.062846	1682.16	94958.6
1171	2.000000	1.162349	7.37651e+06	-57039.1	1105.82	-29737.4	0.000000	0.000000	7.168499	154.821	NaN	0.000000	0.001615	0.001823	28.0833	57.3147	0.001809	31682.2	7.388864	-8.340379	153.02	1.162081	0.053155	0.052887	154.821	31682.2	0.049490	0.090844	1704.25	96037.1
1171	2.000000	1.172778	7.37651e+06	-57039.1	1105.82	-29737.4	0.000000	0.000000	7.181474	216.7	NaN	0.000000	0.001602	0.001786	28.0834	66.2474	0.001772	37384.4	0.400498	178.391	210.838	1.172413	0.063584	0.063219	216.7	37384.4	0.059237	0.123086	1760.56	97355
1171	2.000000	1.183338	7.37651e+06	-57039.1	1105.82	-29737.4	0.000000	0.000000	7.194420	274.708	NaN	0.000000	0.001641	0.001769	28.0827	77.2815	0.001848	41811	4.058868	-6.834218	273.482	1.183067	0.074144	0.073873	274.708	41811	0.069216	0.160914	1707.17	95228.4
1171	2.000000	1.193801	7.37651e+06	-57039.1	1105.82	-29737.4	0.000000	0.000000	7.207749	344.367	NaN	0.000000	0.001592	0.001777	28.0822	86.7954	0.001922	45167.2	3.970279	173.174	342.689	1.193465	0.084607	0.084271	344.367	45167.2	0.078889	0.202116	1703.81	91790.1
1171	2.000000	1.204360	7.37651e+06	-57039.1	1105.82	-29737.4	0.000000	0.000000	7.221609	424.593	NaN	0.000000	0.001586	0.001768	28.0821	96.7289	0.001830	52854.7	6.754870	-10.4675	425.942	1.203838	0.095166	0.094644	424.593	52854.7	0.089141	0.250552	1694.63	96473.4
1171	2.000000	1.213299	7.37651e+06	-57039.1	1105.82	-29737.4	0.000000	0.000000	7.233810	503.887	NaN	0.000000	0.001696	0.001748	28.083	105.756	0.001825	57941.6	6.670902	-10.969	502.296	1.212851	0.104105	0.103657	503.887	57941.6	0.097582	0.294059	1713.56	97621.8