File: remote_trans/data/nanoindenter/0828-1/data/Data_2025-08-06,11h17m57s/2025-07-22_16-23-58_1_572.txt
2025-07-22, 16:23:58, 1
Index	Phase	Displacement	Time	Pos X	Pos Y	Pos Z	Rot A	Rot B	Piezo Z	Force A	Force B	Gripper	Voltage A	Voltage B	Temperature	Amplitude force	Amplitude pos	Stiffness	Phase shift	Phase excitation	Force A raw	Displacement raw	HMax	HMax raw	Real Force	Real Stiffness	Contact Depth	Area	Hardness	Reduced Mod.
[#]	[#]	[um]	[s]	[um]	[um]	[um]	[m°]	[m°]	[um]	[uN]	[uN]	[V]	[V]	[V]	[°C]	[uN]	[um]	[N/m]	[°]	[°]	[uN]	[um]	[um]	[um]	[uN]	[N/m]	[um]	[um^2]	[MPa]	[MPa]
572	1.000000	0.002735	7.37064e+06	-48489.1	1005.82	-29762.2	0.000000	0.000000	6.002811	-0.106772	NaN	0.000000	0.001530	0.001763	28.0803	0.097937	0.000947	103.408	-98.4271	-164.034	-0.045702	0.001474	-1.166394	-1.167655	-0.106772	103.408	-1.165620	-3.803556E+15	2.807175E-17	NaN
572	1.000000	0.046685	7.37064e+06	-48489.1	1005.82	-29762.2	0.000000	0.000000	6.046766	0.001982	NaN	0.000000	0.001561	0.001757	28.0813	0.001563	0.001946	0.803512	-109.426	-164.364	0.001775	0.045347	-1.122444	-1.123782	0.001982	0.803512	-1.124294	-1.061876E+15	-1.866081E-18	NaN
572	1.000000	0.090658	7.37064e+06	-48489.1	1005.82	-29762.2	0.000000	0.000000	6.090739	0.027977	NaN	0.000000	0.001580	0.001762	28.0811	0.054866	0.002082	26.3468	46.0531	-163.888	0.067019	0.089352	-1.078472	-1.079777	0.027977	26.3468	-1.079268	-2.640527E+14	-1.059518E-16	NaN
572	1.000000	0.134687	7.37064e+06	-48489.1	1005.82	-29762.2	0.000000	0.000000	6.134766	-0.049852	NaN	0.000000	0.001544	0.001767	28.081	0.029719	0.002025	14.6769	-25.0955	-163.754	-0.052465	0.133374	-1.034442	-1.035755	-0.049852	14.6769	-1.031895	-6.094898E+13	8.179284E-16	NaN
572	1.000000	0.178725	7.37064e+06	-48489.1	1005.82	-29762.2	0.000000	0.000000	6.178807	0.018092	NaN	0.000000	0.001574	0.001731	28.0799	0.019790	0.001953	10.1344	50.9405	-163.648	-0.015654	0.177404	-0.990404	-0.991726	0.018092	10.1344	-0.991743	-1.756247E+13	-1.030161E-15	NaN
572	1.000000	0.222749	7.37064e+06	-48489.1	1005.82	-29762.2	0.000000	0.000000	6.222828	-0.045499	NaN	0.000000	0.001579	0.001777	28.0801	0.010073	0.002092	4.814596	74.3701	-163.122	-0.009633	0.221412	-0.946380	-0.947717	-0.045499	4.814596	-0.939293	-3.448227E+12	1.319492E-14	NaN
572	1.000000	0.266780	7.37064e+06	-48489.1	1005.82	-29762.2	0.000000	0.000000	6.266857	-0.081218	NaN	0.000000	0.001593	0.001771	28.0802	0.079137	0.001960	40.3764	76.4313	-167.145	-0.078384	0.265430	-0.902349	-0.903700	-0.081218	40.3764	-0.900841	-1.043338E+12	7.784429E-14	NaN
572	1.000000	0.310766	7.37064e+06	-48489.1	1005.82	-29762.2	0.000000	0.000000	6.310845	-0.048068	NaN	0.000000	0.001531	0.001764	28.0812	0.104401	0.001988	52.5107	39.1724	-165.565	-0.057911	0.309458	-0.858363	-0.859671	-0.048068	52.5107	-0.857676	-2.720621E+11	1.766804E-13	NaN
572	1.000000	0.354803	7.37064e+06	-48489.1	1005.82	-29762.2	0.000000	0.000000	6.354882	-0.036490	NaN	0.000000	0.001571	0.001741	28.0811	0.034548	0.002056	16.8025	-119.893	-164.531	-0.005829	0.353463	-0.814327	-0.815667	-0.036490	16.8025	-0.812698	-6.686091E+10	5.457589E-13	NaN
572	1.000000	0.398811	7.37064e+06	-48489.1	1005.82	-29762.2	0.000000	0.000000	6.398890	-0.047623	NaN	0.000000	0.001607	0.001747	28.0812	0.124929	0.002026	61.6719	51.3558	-164.929	-0.052084	0.397517	-0.770318	-0.771613	-0.047623	61.6719	-0.769739	-1.744852E+10	2.729339E-12	NaN
572	1.000000	0.442849	7.37064e+06	-48489.1	1005.82	-29762.2	0.000000	0.000000	6.442929	-0.032629	NaN	0.000000	0.001608	0.001735	28.0803	0.158743	0.001934	82.0883	-162.021	-162.777	-0.029372	0.441507	-0.726280	-0.727623	-0.032629	82.0883	-0.725982	-4.426253E+9	7.371691E-12	NaN
572	1.000000	0.486835	7.37064e+06	-48489.1	1005.82	-29762.2	0.000000	0.000000	6.486914	-0.036473	NaN	0.000000	0.001603	0.001732	28.0803	0.125713	0.002038	61.6806	-123.759	-164.058	-0.020926	0.485566	-0.682294	-0.683563	-0.036473	61.6806	-0.681850	-1.105379E+9	3.299622E-11	NaN
572	1.000000	0.530883	7.37064e+06	-48489.1	1005.82	-29762.2	0.000000	0.000000	6.530962	-0.045790	NaN	0.000000	0.001535	0.001768	28.0802	0.054322	0.001999	27.1699	-171.922	-163.424	-0.081943	0.529535	-0.638246	-0.639595	-0.045790	27.1699	-0.636982	-2.684615E+8	1.705660E-10	NaN
572	1.000000	0.574884	7.37064e+06	-48489.1	1005.82	-29762.2	0.000000	0.000000	6.574963	-0.041406	NaN	0.000000	0.001610	0.001778	28.0812	0.081502	0.001892	43.0774	11.7613	-166.362	0.009590	0.573629	-0.594245	-0.595501	-0.041406	43.0774	-0.593525	-6.780299E+7	6.106741E-10	NaN
572	1.000000	0.618901	7.37065e+06	-48489.1	1005.82	-29762.2	0.000000	0.000000	6.618982	0.009332	NaN	0.000000	0.001627	0.001773	28.0811	0.085708	0.001987	43.1405	-162.387	-163.506	-0.029100	0.617633	-0.550228	-0.551496	0.009332	43.1405	-0.550391	-1.719353E+7	-5.427527E-10	NaN
572	1.000000	0.662943	7.37065e+06	-48489.1	1005.82	-29762.2	0.000000	0.000000	6.663021	-0.063127	NaN	0.000000	0.001645	0.001722	28.0812	0.056460	0.002144	26.3285	-154.559	-164.369	-0.071936	0.661622	-0.506187	-0.507507	-0.063127	26.3285	-0.504388	-3.94657e+06	1.599530E-8	NaN
572	1.000000	0.706934	7.37065e+06	-48489.1	1005.82	-29762.2	0.000000	0.000000	6.707012	-0.064828	NaN	0.000000	0.001501	0.001795	28.0813	0.033104	0.001947	17.0011	32.7563	-164.254	-0.036852	0.705665	-0.462195	-0.463464	-0.064828	17.0011	-0.459335	-924012	7.015969E-8	NaN
572	1.000000	0.750928	7.37065e+06	-48489.1	1005.82	-29762.2	0.000000	0.000000	6.751008	-0.014866	NaN	0.000000	0.001541	0.001783	28.08	0.022090	0.001974	11.1918	-81.5107	-167.525	-0.038400	0.749629	-0.418201	-0.419500	-0.014866	11.1918	-0.417205	-234832	6.330561E-8	NaN
572	1.000000	0.794954	7.37065e+06	-48489.1	1005.82	-29762.2	0.000000	0.000000	6.795032	-0.051799	NaN	0.000000	0.001559	0.001751	28.0801	0.014834	0.002132	6.958620	119.917	-162.95	-0.076031	0.793693	-0.374175	-0.375436	-0.051799	6.958620	-0.368593	-47408.1	1.092610E-6	NaN
572	1.000000	0.838999	7.37065e+06	-48489.1	1005.82	-29762.2	0.000000	0.000000	6.839075	-0.103516	NaN	0.000000	0.001520	0.001772	28.08	0.062297	0.002065	30.1723	-116.701	-165.71	-0.112797	0.837693	-0.330131	-0.331437	-0.103516	30.1723	-0.327557	-12013.2	8.616888E-6	NaN
572	1.000000	0.883002	7.37065e+06	-48489.1	1005.82	-29762.2	0.000000	0.000000	6.883081	-0.036075	NaN	0.000000	0.001503	0.001764	28.0814	0.144832	0.002153	67.2584	-100.992	-167.965	-0.050031	0.881729	-0.286127	-0.287401	-0.036075	67.2584	-0.285725	-2878.46	1.253265E-5	NaN
572	1.000000	0.927024	7.37065e+06	-48489.1	1005.82	-29762.2	0.000000	0.000000	6.927103	-0.044780	NaN	0.000000	0.001527	0.001791	28.0816	0.119827	0.001965	60.9664	-112.588	-164.21	-0.046438	0.925769	-0.242105	-0.243360	-0.044780	60.9664	-0.241555	-607.875	7.366568E-5	NaN
572	1.000000	0.971075	7.37065e+06	-48489.1	1005.82	-29762.2	0.000000	0.000000	6.971153	-0.044340	NaN	0.000000	0.001616	0.001756	28.0815	0.134882	0.002001	67.4219	164.878	-162.76	0.069947	0.969735	-0.198055	-0.199394	-0.044340	67.4219	-0.197562	-120.102	0.000369	NaN
572	1.000000	1.015099	7.37065e+06	-48489.1	1005.82	-29762.2	0.000000	0.000000	7.015174	-0.139220	NaN	0.000000	0.001486	0.001730	28.0804	0.102457	0.001974	51.9002	30.6642	-163.319	-0.153727	1.013788	-0.154030	-0.155341	-0.139220	51.9002	-0.152018	-19.7114	0.007063	NaN
572	1.000000	1.059091	7.37065e+06	-48489.1	1005.82	-29762.2	0.000000	0.000000	7.059167	-0.102317	NaN	0.000000	0.001513	0.001764	28.08	0.103478	0.001940	53.3429	-116.795	-165.539	-0.078780	1.057793	-0.110038	-0.111336	-0.102317	53.3429	-0.108600	-2.807039	0.036450	NaN
572	1.000000	1.103138	7.37065e+06	-48489.1	1005.82	-29762.2	0.000000	0.000000	7.103216	-0.060916	NaN	0.000000	0.001520	0.001805	28.0802	0.029125	0.002001	14.5552	-88.3794	-166.313	-0.038960	1.101769	-0.065991	-0.067360	-0.060916	14.5552	-0.062852	-0.217048	0.280656	NaN
572	1.000000	1.147126	7.37065e+06	-48489.1	1005.82	-29762.2	0.000000	0.000000	7.147202	-0.105147	NaN	0.000000	0.001617	0.001711	28.0813	0.005913	0.001906	3.102198	98.0847	-163.982	-0.029057	1.145780	-0.022003	-0.023350	-0.105147	3.102198	0.003417	0.002734	-38.4555	54.2031
572	2.000000	1.178676	7.37065e+06	-48489.1	1005.82	-29762.2	0.000000	0.000000	7.179307	13.4025	NaN	0.000000	0.001602	0.001739	28.0813	13.1721	0.001662	7923.23	6.054020	-172.652	12.6644	1.178398	0.009546	0.009268	13.4025	7923.23	0.008278	0.007329	1828.62	84555.8
572	2.000000	1.189601	7.37065e+06	-48489.1	1005.82	-29762.2	0.000000	0.000000	7.191145	35.6031	NaN	0.000000	0.001644	0.001750	28.0813	23.6575	0.001817	13023.6	0.537333	-172.69	34.6857	1.189318	0.020471	0.020189	35.6031	13023.6	0.018421	0.020121	1769.42	83883
572	2.000000	1.200670	7.37065e+06	-48489.1	1005.82	-29762.2	0.000000	0.000000	7.203454	65.7454	NaN	0.000000	0.001593	0.001799	28.0804	35.0651	0.001850	18958.4	7.437968	177.661	66.2804	1.200359	0.031541	0.031229	65.7454	18958.4	0.028940	0.038575	1704.35	88190.5
572	2.000000	1.211621	7.37065e+06	-48489.1	1005.82	-29762.2	0.000000	0.000000	7.216017	104.969	NaN	0.000000	0.001587	0.001782	28.0808	46.5892	0.001899	24534.3	2.253066	-179.765	104.005	1.211297	0.042492	0.042168	104.969	24534.3	0.039283	0.062188	1687.92	89886.3
572	2.000000	1.222624	7.37065e+06	-48489.1	1005.82	-29762.2	0.000000	0.000000	7.229145	156.655	NaN	0.000000	0.001612	0.001817	28.0801	57.02	0.001857	30703.8	8.465686	173.922	157.462	1.222129	0.053494	0.053000	156.655	30703.8	0.049668	0.091388	1714.16	92793.9
572	2.000000	1.233530	7.37065e+06	-48489.1	1005.82	-29762.2	0.000000	0.000000	7.242574	218.004	NaN	0.000000	0.001574	0.001805	28.0813	65.5771	0.001690	38804.6	4.416483	174.645	216.476	1.233242	0.064401	0.064112	218.004	38804.6	0.060187	0.126481	1723.61	99688.5
572	2.000000	1.244612	7.37065e+06	-48489.1	1005.82	-29762.2	0.000000	0.000000	7.256398	284.714	NaN	0.000000	0.001564	0.001763	28.0814	76.8764	0.001802	42664.2	2.991353	175.819	286.399	1.244198	0.075482	0.075069	284.714	42664.2	0.070477	0.166035	1714.78	95661.5
572	2.000000	1.255539	7.37065e+06	-48489.1	1005.82	-29762.2	0.000000	0.000000	7.270458	360.905	NaN	0.000000	0.001560	0.001736	28.0818	86.2266	0.001840	46860	1.830231	176.638	359.79	1.255173	0.086409	0.086044	360.905	46860	0.080633	0.210011	1718.5	93423.1
572	2.000000	1.266422	7.37065e+06	-48489.1	1005.82	-29762.2	0.000000	0.000000	7.285065	451.465	NaN	0.000000	0.001559	0.001761	28.0803	96.2038	0.001771	54316.7	2.804123	174.437	445.834	1.266105	0.097293	0.096976	451.465	54316.7	0.091059	0.260151	1735.39	97295.7
572	2.000000	1.272965	7.37065e+06	-48489.1	1005.82	-29762.2	0.000000	0.000000	7.294102	512.137	NaN	0.000000	0.001649	0.001776	28.0803	103.911	0.001813	57327	4.101739	-7.818165	505.966	1.272593	0.103835	0.103464	512.137	57327	0.097135	0.291673	1755.86	96980.5