File: remote_trans/data/nanoindenter/0828-1/data/Data_2025-08-06,11h17m57s/2025-07-22_16-23-58_1_469.txt
2025-07-22, 16:23:58, 1
Index	Phase	Displacement	Time	Pos X	Pos Y	Pos Z	Rot A	Rot B	Piezo Z	Force A	Force B	Gripper	Voltage A	Voltage B	Temperature	Amplitude force	Amplitude pos	Stiffness	Phase shift	Phase excitation	Force A raw	Displacement raw	HMax	HMax raw	Real Force	Real Stiffness	Contact Depth	Area	Hardness	Reduced Mod.
[#]	[#]	[um]	[s]	[um]	[um]	[um]	[m°]	[m°]	[um]	[uN]	[uN]	[V]	[V]	[V]	[°C]	[uN]	[um]	[N/m]	[°]	[°]	[uN]	[um]	[um]	[um]	[uN]	[N/m]	[um]	[um^2]	[MPa]	[MPa]
469	1.000000	0.002159	7.36964e+06	-53639.1	1005.82	-29745.9	0.000000	0.000000	6.002806	-0.038464	NaN	0.000000	0.001590	0.001810	28.0795	0.062103	0.000907	68.4726	108.792	-166.486	-0.030169	0.000888	-1.004083	-1.005354	-0.038464	68.4726	-1.003662	-2.541359E+13	1.513507E-15	NaN
469	1.000000	0.040086	7.36964e+06	-53639.1	1005.82	-29745.9	0.000000	0.000000	6.040735	-0.006503	NaN	0.000000	0.001622	0.001801	28.0796	0.069891	0.002038	34.2981	-30.9743	14.8802	0.031073	0.038817	-0.966155	-0.967425	-0.006503	34.2981	-0.966013	-7.905492E+12	8.226498E-16	NaN
469	1.000000	0.078075	7.36964e+06	-53639.1	1005.82	-29745.9	0.000000	0.000000	6.078726	0.044141	NaN	0.000000	0.001641	0.001772	28.0797	0.034073	0.001910	17.8397	-157.173	-163.344	0.003663	0.076778	-0.928167	-0.929464	0.044141	17.8397	-0.930023	-2.585269E+12	-1.707422E-14	NaN
469	1.000000	0.116128	7.36964e+06	-53639.1	1005.82	-29745.9	0.000000	0.000000	6.116775	-0.041843	NaN	0.000000	0.001618	0.001781	28.0797	0.116595	0.002021	57.7018	-105.666	16.3931	-0.098381	0.114733	-0.890114	-0.891509	-0.041843	57.7018	-0.889570	-7.346929E+11	5.695344E-14	NaN
469	1.000000	0.154173	7.36964e+06	-53639.1	1005.82	-29745.9	0.000000	0.000000	6.154825	0.053795	NaN	0.000000	0.001662	0.001710	28.081	0.120802	0.002028	59.5617	-83.2368	-163.152	0.036282	0.152895	-0.852068	-0.853347	0.053795	59.5617	-0.852746	-2.333015E+11	-2.305801E-13	NaN
469	1.000000	0.192148	7.36964e+06	-53639.1	1005.82	-29745.9	0.000000	0.000000	6.192798	0.037764	NaN	0.000000	0.001665	0.001731	28.081	0.111322	0.001911	58.257	21.1817	15.2149	0.011360	0.190737	-0.814094	-0.815504	0.037764	58.257	-0.814580	-7.090984E+10	-5.325637E-13	NaN
469	1.000000	0.230196	7.36964e+06	-53639.1	1005.82	-29745.9	0.000000	0.000000	6.230844	-0.033453	NaN	0.000000	0.001558	0.001760	28.0808	0.045037	0.001906	23.6312	-169.024	-165.794	0.004760	0.228843	-0.776046	-0.777399	-0.033453	23.6312	-0.774984	-2.056197E+10	1.626933E-12	NaN
469	1.000000	0.268190	7.36964e+06	-53639.1	1005.82	-29745.9	0.000000	0.000000	6.268840	0.017032	NaN	0.000000	0.001583	0.001727	28.0799	0.099693	0.002035	48.9925	169.398	14.6763	-0.024214	0.266817	-0.738052	-0.739425	0.017032	48.9925	-0.738313	-6.517342E+9	-2.613282E-12	NaN
469	1.000000	0.306217	7.36964e+06	-53639.1	1005.82	-29745.9	0.000000	0.000000	6.306865	-0.027968	NaN	0.000000	0.001583	0.001728	28.0797	0.040673	0.002113	19.2443	67.7458	-166.606	0.033106	0.304914	-0.700025	-0.701328	-0.027968	19.2443	-0.698935	-1.892299E+9	1.478012E-11	NaN
469	1.000000	0.344204	7.36965e+06	-53639.1	1005.82	-29745.9	0.000000	0.000000	6.344854	0.026587	NaN	0.000000	0.001619	0.001723	28.08	0.114032	0.001980	57.58	-13.8531	13.9114	0.041557	0.342862	-0.662038	-0.663380	0.026587	57.58	-0.662385	-5.985876E+8	-4.441680E-11	NaN
469	1.000000	0.382240	7.36965e+06	-53639.1	1005.82	-29745.9	0.000000	0.000000	6.382886	-0.073589	NaN	0.000000	0.001557	0.001741	28.0796	0.060910	0.001869	32.5874	-130.251	-164.617	0.005667	0.380941	-0.624002	-0.625300	-0.073589	32.5874	-0.622308	-1.687936E+8	4.359697E-10	NaN
469	1.000000	0.420257	7.36965e+06	-53639.1	1005.82	-29745.9	0.000000	0.000000	6.420906	-0.009602	NaN	0.000000	0.001575	0.001747	28.0807	0.114893	0.002095	54.8295	92.5605	12.9693	0.000694	0.418882	-0.585985	-0.587359	-0.009602	54.8295	-0.585853	-5.314774E+7	1.806710E-10	NaN
469	1.000000	0.458257	7.36965e+06	-53639.1	1005.82	-29745.9	0.000000	0.000000	6.458910	0.073682	NaN	0.000000	0.001598	0.001744	28.0806	0.039043	0.002033	19.2034	-91.3247	-165.977	0.083820	0.456908	-0.547984	-0.549333	0.073682	19.2034	-0.550862	-1.745405E+7	-4.221469E-9	NaN
469	1.000000	0.496287	7.36965e+06	-53639.1	1005.82	-29745.9	0.000000	0.000000	6.496940	0.084988	NaN	0.000000	0.001634	0.001734	28.0811	0.114193	0.002069	55.1868	-57.9809	15.3695	0.086061	0.494899	-0.509954	-0.511343	0.084988	55.1868	-0.511109	-4.89628e+06	-1.735775E-8	NaN
469	1.000000	0.534305	7.36965e+06	-53639.1	1005.82	-29745.9	0.000000	0.000000	6.534953	-0.028579	NaN	0.000000	0.001600	0.001743	28.0807	0.117279	0.001959	59.8754	146.699	-165.722	-0.024259	0.533000	-0.471937	-0.473242	-0.028579	59.8754	-0.471579	-1.37263e+06	2.082052E-8	NaN
469	1.000000	0.572280	7.36965e+06	-53639.1	1005.82	-29745.9	0.000000	0.000000	6.572928	-0.023401	NaN	0.000000	0.001618	0.001715	28.0798	0.100926	0.001998	50.5052	69.4677	14.0747	-0.046127	0.570960	-0.433962	-0.435282	-0.023401	50.5052	-0.433614	-401023	5.835329E-8	NaN
469	1.000000	0.610334	7.36965e+06	-53639.1	1005.82	-29745.9	0.000000	0.000000	6.610985	0.043153	NaN	0.000000	0.001598	0.001733	28.0799	0.098475	0.001915	51.4244	54.4602	-164.451	0.103714	0.609050	-0.395907	-0.397192	0.043153	51.4244	-0.396537	-119283	-3.617676E-7	NaN
469	1.000000	0.648331	7.36965e+06	-53639.1	1005.82	-29745.9	0.000000	0.000000	6.648983	0.060794	NaN	0.000000	0.001611	0.001720	28.0799	0.094611	0.002222	42.5746	25.8167	14.9631	0.050784	0.646985	-0.357910	-0.359257	0.060794	42.5746	-0.358981	-34444.2	-1.764989E-6	NaN
469	1.000000	0.686360	7.36965e+06	-53639.1	1005.82	-29745.9	0.000000	0.000000	6.687012	0.057351	NaN	0.000000	0.001602	0.001755	28.081	0.096683	0.002084	46.3983	-102.028	-164.54	0.018823	0.685057	-0.319882	-0.321185	0.057351	46.3983	-0.320809	-9561.78	-5.997983E-6	NaN
469	1.000000	0.724403	7.36965e+06	-53639.1	1005.82	-29745.9	0.000000	0.000000	6.725052	-0.001371	NaN	0.000000	0.001600	0.001745	28.0811	0.084199	0.002006	41.9735	73.834	14.5965	0.031270	0.723024	-0.281839	-0.283218	-0.001371	41.9735	-0.281814	-2513.73	5.453903E-7	NaN
469	1.000000	0.762415	7.36965e+06	-53639.1	1005.82	-29745.9	0.000000	0.000000	6.763066	0.028214	NaN	0.000000	0.001613	0.001748	28.0813	0.054280	0.002007	27.0479	31.099	-168.387	0.082132	0.761095	-0.243827	-0.245147	0.028214	27.0479	-0.244609	-678.225	-4.159946E-5	NaN
469	1.000000	0.800421	7.36965e+06	-53639.1	1005.82	-29745.9	0.000000	0.000000	6.801070	-0.003966	NaN	0.000000	0.001602	0.001766	28.0811	0.074282	0.002087	35.5917	-34.3879	15.3141	0.007396	0.799072	-0.205821	-0.207170	-0.003966	35.5917	-0.205737	-163.524	2.425244E-5	NaN
469	1.000000	0.838463	7.36965e+06	-53639.1	1005.82	-29745.9	0.000000	0.000000	6.839113	0.006951	NaN	0.000000	0.001608	0.001766	28.0799	0.068369	0.002048	33.3882	150.708	-164.902	0.007666	0.837145	-0.167778	-0.169096	0.006951	33.3882	-0.167935	-37.8153	-0.000184	NaN
469	1.000000	0.876409	7.36965e+06	-53639.1	1005.82	-29745.9	0.000000	0.000000	6.877058	-0.021084	NaN	0.000000	0.001603	0.001767	28.08	0.036832	0.002038	18.0692	-86.6261	15.2654	0.000758	0.875035	-0.129832	-0.131207	-0.021084	18.0692	-0.128957	-7.273099	0.002899	NaN
469	1.000000	0.914467	7.36965e+06	-53639.1	1005.82	-29745.9	0.000000	0.000000	6.915115	-0.019427	NaN	0.000000	0.001668	0.001756	28.0799	0.087947	0.002003	43.9124	-139.328	-167.708	-0.005354	0.913173	-0.091775	-0.093069	-0.019427	43.9124	-0.091443	-1.168233	0.016629	NaN
469	1.000000	0.952457	7.36965e+06	-53639.1	1005.82	-29745.9	0.000000	0.000000	6.953106	-0.008927	NaN	0.000000	0.001672	0.001745	28.0812	0.041729	0.002117	19.7094	-46.9161	10.1733	0.010012	0.951107	-0.053785	-0.055135	-0.008927	19.7094	-0.053445	-0.115797	0.077091	NaN
469	1.000000	0.990495	7.36965e+06	-53639.1	1005.82	-29745.9	0.000000	0.000000	6.991141	-0.065429	NaN	0.000000	0.001553	0.001757	28.0811	0.127758	0.001903	67.1451	137.647	-167.197	-0.040417	0.989147	-0.015747	-0.017095	-0.065429	67.1451	-0.015016	-0.009285	7.046613	NaN
469	2.000000	1.014525	7.36965e+06	-53639.1	1005.82	-29745.9	0.000000	0.000000	7.015774	14.5836	NaN	0.000000	0.001594	0.001761	28.0811	14.4219	0.001660	8687.72	3.758117	6.181647	14.2351	1.014241	0.008283	0.007999	14.5836	8687.72	0.007024	0.006058	2407.39	101981
469	2.000000	1.023974	7.36965e+06	-53639.1	1005.82	-29745.9	0.000000	0.000000	7.025951	32.2684	NaN	0.000000	0.001596	0.001776	28.081	24.2796	0.001825	13306.3	5.352809	-177.928	31.5258	1.023672	0.017732	0.017431	32.2684	13306.3	0.015914	0.016523	1952.92	94576.9
469	2.000000	1.033405	7.36965e+06	-53639.1	1005.82	-29745.9	0.000000	0.000000	7.036401	57.0664	NaN	0.000000	0.001542	0.001741	28.0795	31.7743	0.001676	18958	-1.030899	5.169207	54.2556	1.033020	0.027163	0.026778	57.0664	18958	0.024906	0.030844	1850.16	98623.5
469	2.000000	1.042888	7.36965e+06	-53639.1	1005.82	-29745.9	0.000000	0.000000	7.047100	86.6102	NaN	0.000000	0.001588	0.001724	28.0798	41.9257	0.001843	22753	5.061898	177.752	85.1093	1.042532	0.036646	0.036291	86.6102	22753	0.033792	0.048970	1768.65	93939.5
469	2.000000	1.052404	7.36965e+06	-53639.1	1005.82	-29745.9	0.000000	0.000000	7.058158	124.115	NaN	0.000000	0.001578	0.001691	28.0799	49.646	0.001624	30573	6.409145	-6.483599	122.004	1.051952	0.046162	0.045710	124.115	30573	0.043117	0.072333	1715.88	103859
469	2.000000	1.061876	7.36965e+06	-53639.1	1005.82	-29745.9	0.000000	0.000000	7.069110	160.071	NaN	0.000000	0.001615	0.001745	28.08	61.38	0.001823	33670.5	7.097033	172.305	156.737	1.061423	0.055634	0.055182	160.071	33670.5	0.052069	0.098915	1618.26	97811.8
469	2.000000	1.071446	7.36965e+06	-53639.1	1005.82	-29745.9	0.000000	0.000000	7.080790	211.373	NaN	0.000000	0.001580	0.001724	28.0811	69.5289	0.001765	39390.1	1.584762	-3.624583	213.056	1.071112	0.065204	0.064871	211.373	39390.1	0.061180	0.130073	1625.03	99785.2
469	2.000000	1.080894	7.36965e+06	-53639.1	1005.82	-29745.9	0.000000	0.000000	7.092535	267.234	NaN	0.000000	0.001550	0.001740	28.0811	79.044	0.001670	47339.1	6.459609	172.017	270.227	1.080394	0.074652	0.074152	267.234	47339.1	0.070418	0.165793	1611.85	106221
469	2.000000	1.090288	7.36965e+06	-53639.1	1005.82	-29745.9	0.000000	0.000000	7.104403	327.393	NaN	0.000000	0.001596	0.001750	28.081	87.4231	0.001842	47471.6	8.925358	-11.6569	323.357	1.089982	0.084046	0.083740	327.393	47471.6	0.078874	0.202046	1620.39	96490
469	2.000000	1.099874	7.36965e+06	-53639.1	1005.82	-29745.9	0.000000	0.000000	7.116090	378.466	NaN	0.000000	0.001553	0.001751	28.0802	95.8696	0.001740	55103.9	3.674835	171.404	379.37	1.099847	0.093632	0.093605	378.466	55103.9	0.088481	0.247287	1530.47	101241
469	2.000000	1.108298	7.36965e+06	-53639.1	1005.82	-29745.9	0.000000	0.000000	7.127895	460.653	NaN	0.000000	0.001561	0.001755	28.0798	105.66	0.001841	57400.3	7.157612	-11.6346	456.678	1.107938	0.102057	0.101697	460.653	57400.3	0.096038	0.285855	1611.49	98087.7