File: remote_trans/data/nanoindenter/0828-1/data/Data_2025-08-06,11h17m57s/2025-07-22_16-23-58_1_1173.txt
2025-07-22, 16:23:58, 1
Index	Phase	Displacement	Time	Pos X	Pos Y	Pos Z	Rot A	Rot B	Piezo Z	Force A	Force B	Gripper	Voltage A	Voltage B	Temperature	Amplitude force	Amplitude pos	Stiffness	Phase shift	Phase excitation	Force A raw	Displacement raw	HMax	HMax raw	Real Force	Real Stiffness	Contact Depth	Area	Hardness	Reduced Mod.
[#]	[#]	[um]	[s]	[um]	[um]	[um]	[m°]	[m°]	[um]	[uN]	[uN]	[V]	[V]	[V]	[°C]	[uN]	[um]	[N/m]	[°]	[°]	[uN]	[um]	[um]	[um]	[uN]	[N/m]	[um]	[um^2]	[MPa]	[MPa]
1173	1.000000	0.002863	7.37652e+06	-56939.1	1105.82	-29737.7	0.000000	0.000000	6.002807	-0.056728	NaN	0.000000	0.001600	0.001762	28.0808	0.112811	0.001009	111.764	-165.472	-167.122	-0.018291	0.001586	-1.042381	-1.043657	-0.056728	111.764	-1.042000	-8.334086E+13	6.806779E-16	NaN
1173	1.000000	0.042786	7.37652e+06	-56939.1	1105.82	-29737.7	0.000000	0.000000	6.042735	0.052235	NaN	0.000000	0.001603	0.001702	28.0814	0.057704	0.002039	28.2944	-94.0682	-160.611	-0.049961	0.041465	-1.002457	-1.003778	0.052235	28.2944	-1.003841	-2.555538E+13	-2.044008E-15	NaN
1173	1.000000	0.082807	7.37652e+06	-56939.1	1105.82	-29737.7	0.000000	0.000000	6.082753	-0.011011	NaN	0.000000	0.001565	0.001783	28.0813	0.031953	0.002048	15.6019	-146.156	-162.412	0.080610	0.081525	-0.962436	-0.963718	-0.011011	15.6019	-0.961907	-6.959496E+12	1.582131E-15	NaN
1173	1.000000	0.122840	7.37652e+06	-56939.1	1105.82	-29737.7	0.000000	0.000000	6.122791	0.089241	NaN	0.000000	0.001549	0.001749	28.0822	0.091756	0.001866	49.1685	-143.799	-165.718	0.026503	0.121530	-0.922403	-0.923713	0.089241	49.1685	-0.923764	-2.128259E+12	-4.193131E-14	NaN
1173	1.000000	0.162841	7.37652e+06	-56939.1	1105.82	-29737.7	0.000000	0.000000	6.162790	0.077789	NaN	0.000000	0.001558	0.001717	28.0822	0.074693	0.001940	38.4928	-60.22	-166.569	0.064906	0.161550	-0.882403	-0.883694	0.077789	38.4928	-0.883918	-6.161571E+11	-1.262478E-13	NaN
1173	1.000000	0.202858	7.37652e+06	-56939.1	1105.82	-29737.7	0.000000	0.000000	6.202802	-0.048718	NaN	0.000000	0.001535	0.001762	28.0819	0.105637	0.002057	51.3426	9.715193	-168.207	-0.005836	0.201583	-0.842386	-0.843660	-0.048718	51.3426	-0.841674	-1.651843E+11	2.949326E-13	NaN
1173	1.000000	0.242877	7.37652e+06	-56939.1	1105.82	-29737.7	0.000000	0.000000	6.242822	-0.038589	NaN	0.000000	0.001580	0.001772	28.0805	0.056116	0.002037	27.5465	119.524	-161.157	-0.028474	0.241564	-0.802366	-0.803679	-0.038589	27.5465	-0.801316	-4.685122E+10	8.236428E-13	NaN
1173	1.000000	0.282886	7.37652e+06	-56939.1	1105.82	-29737.7	0.000000	0.000000	6.282835	0.040128	NaN	0.000000	0.001546	0.001730	28.081	0.074754	0.002070	36.1215	-21.6575	-166.388	-0.038242	0.281591	-0.762357	-0.763653	0.040128	36.1215	-0.763190	-1.421329E+10	-2.823254E-12	NaN
1173	1.000000	0.322890	7.37652e+06	-56939.1	1105.82	-29737.7	0.000000	0.000000	6.322836	-0.002254	NaN	0.000000	0.001558	0.001765	28.0808	0.126492	0.001905	66.396	85.8889	-162.537	-0.006306	0.321586	-0.722353	-0.723657	-0.002254	66.396	-0.722328	-3.946562E+9	5.710820E-13	NaN
1173	1.000000	0.362947	7.37652e+06	-56939.1	1105.82	-29737.7	0.000000	0.000000	6.362895	0.043658	NaN	0.000000	0.001556	0.001712	28.0805	0.018426	0.001880	9.799079	-158.185	-162.61	0.119013	0.361628	-0.682296	-0.683615	0.043658	9.799079	-0.685638	-1.245353E+9	-3.505696E-11	NaN
1173	1.000000	0.402946	7.37652e+06	-56939.1	1105.82	-29737.7	0.000000	0.000000	6.402893	-0.007888	NaN	0.000000	0.001596	0.001745	28.0816	0.055941	0.001905	29.3576	-111.607	-164.308	-0.098194	0.401624	-0.642297	-0.643619	-0.007888	29.3576	-0.642095	-3.155276E+8	2.499937E-11	NaN
1173	1.000000	0.442969	7.37652e+06	-56939.1	1105.82	-29737.7	0.000000	0.000000	6.442914	-0.036867	NaN	0.000000	0.001599	0.001750	28.0818	0.024314	0.001837	13.2332	-31.8281	-166.054	-0.058946	0.441675	-0.602274	-0.603568	-0.036867	13.2332	-0.600184	-8.375295E+7	4.401921E-10	NaN
1173	1.000000	0.482986	7.37652e+06	-56939.1	1105.82	-29737.7	0.000000	0.000000	6.482933	0.011193	NaN	0.000000	0.001607	0.001827	28.0816	0.023387	0.001864	12.5463	-89.6855	-162.61	0.065187	0.481679	-0.562257	-0.563564	0.011193	12.5463	-0.562926	-2.563622E+7	-4.366071E-10	NaN
1173	1.000000	0.523007	7.37652e+06	-56939.1	1105.82	-29737.7	0.000000	0.000000	6.522954	0.011165	NaN	0.000000	0.001584	0.001848	28.0805	0.063954	0.002035	31.4346	53.4243	-165.626	0.095638	0.521711	-0.522236	-0.523532	0.011165	31.4346	-0.522502	-7.0533e+06	-1.582899E-9	NaN
1173	1.000000	0.562995	7.37652e+06	-56939.1	1105.82	-29737.7	0.000000	0.000000	6.562942	0.017419	NaN	0.000000	0.001595	0.001806	28.0806	0.025695	0.001978	12.988	20.8034	-161.375	0.004078	0.561698	-0.482248	-0.483546	0.017419	12.988	-0.483254	-2.00019e+06	-8.708670E-9	NaN
1173	1.000000	0.603059	7.37653e+06	-56939.1	1105.82	-29737.7	0.000000	0.000000	6.603003	-0.080247	NaN	0.000000	0.001555	0.001779	28.0807	0.015299	0.001988	7.696283	170.106	-163.456	-0.039322	0.601784	-0.442184	-0.443460	-0.080247	7.696283	-0.434364	-410926	1.952830E-7	NaN
1173	1.000000	0.643065	7.37653e+06	-56939.1	1105.82	-29737.7	0.000000	0.000000	6.643010	-0.041186	NaN	0.000000	0.001575	0.001753	28.0812	0.104753	0.002002	52.3328	-1.116270	-164.186	-0.036305	0.641733	-0.402178	-0.403510	-0.041186	52.3328	-0.401587	-140808	2.924973E-7	NaN
1173	1.000000	0.683059	7.37653e+06	-56939.1	1105.82	-29737.7	0.000000	0.000000	6.683005	-0.009525	NaN	0.000000	0.001557	0.001775	28.0821	0.015896	0.001945	8.174144	-173.937	-166.49	0.132377	0.681741	-0.362185	-0.363502	-0.009525	8.174144	-0.361311	-37220.8	2.559104E-7	NaN
1173	1.000000	0.723097	7.37653e+06	-56939.1	1105.82	-29737.7	0.000000	0.000000	6.723044	0.019129	NaN	0.000000	0.001585	0.001777	28.0822	0.077368	0.001922	40.2522	-140.651	-165.714	0.041402	0.721791	-0.322146	-0.323452	0.019129	40.2522	-0.322503	-10126.3	-1.889000E-6	NaN
1173	1.000000	0.763116	7.37653e+06	-56939.1	1105.82	-29737.7	0.000000	0.000000	6.763062	-8.212550E-5	NaN	0.000000	0.001613	0.001772	28.082	0.039284	0.001963	20.0086	-164.459	-163.128	-0.054140	0.761772	-0.282128	-0.283471	-8.212550E-5	20.0086	-0.282124	-2540.95	3.232082E-8	NaN
1173	1.000000	0.803102	7.37653e+06	-56939.1	1105.82	-29737.7	0.000000	0.000000	6.803048	-0.007724	NaN	0.000000	0.001601	0.001721	28.0806	0.128536	0.001865	68.9368	-61.5011	-166.992	-0.085648	0.801838	-0.242141	-0.243406	-0.007724	68.9368	-0.242057	-618.944	1.248007E-5	NaN
1173	1.000000	0.843127	7.37653e+06	-56939.1	1105.82	-29737.7	0.000000	0.000000	6.843076	0.045417	NaN	0.000000	0.001621	0.001727	28.0808	0.013670	0.001983	6.894990	167.624	-165.541	0.060671	0.841840	-0.202116	-0.203403	0.045417	6.894990	-0.207056	-171.808	-0.000264	NaN
1173	1.000000	0.883163	7.37653e+06	-56939.1	1105.82	-29737.7	0.000000	0.000000	6.883109	-0.030056	NaN	0.000000	0.001655	0.001730	28.0809	0.014986	0.001861	8.053464	88.0364	-164.826	0.004791	0.881870	-0.162080	-0.163373	-0.030056	8.053464	-0.159281	-26.6191	0.001129	NaN
1173	1.000000	0.923150	7.37653e+06	-56939.1	1105.82	-29737.7	0.000000	0.000000	6.923094	-0.061613	NaN	0.000000	0.001603	0.001760	28.0823	0.073737	0.002007	36.7432	-32.9644	-168.241	-0.083607	0.921888	-0.122093	-0.123355	-0.061613	36.7432	-0.120835	-5.022427	0.012268	NaN
1173	1.000000	0.963165	7.37653e+06	-56939.1	1105.82	-29737.7	0.000000	0.000000	6.963113	0.039328	NaN	0.000000	0.001615	0.001806	28.0823	0.093421	0.002034	45.9327	-37.7254	-168.006	0.064118	0.961813	-0.082078	-0.083430	0.039328	45.9327	-0.082720	-0.722938	-0.054400	NaN
1173	1.000000	1.003197	7.37653e+06	-56939.1	1105.82	-29737.7	0.000000	0.000000	7.003143	-0.030579	NaN	0.000000	0.001590	0.001735	28.0823	0.077730	0.002006	38.7417	-83.2495	-168.271	-0.100835	1.001853	-0.042046	-0.043390	-0.030579	38.7417	-0.041454	-0.050073	0.610690	NaN
1173	1.000000	1.043202	7.37653e+06	-56939.1	1105.82	-29737.7	0.000000	0.000000	7.043157	0.199762	NaN	0.000000	0.001599	0.001711	28.0824	0.376151	0.002010	187.11	3.547305	-164.566	-0.010280	1.041888	-0.002041	-0.003356	0.199762	187.11	-0.002842	-0.002014	-99.1796	NaN
1173	2.000000	1.061646	7.37653e+06	-56939.1	1105.82	-29737.7	0.000000	0.000000	7.062312	17.4846	NaN	0.000000	0.001592	0.001744	28.0809	16.7417	0.001757	9530.05	8.571092	-175.634	17.3197	1.061302	0.016403	0.016059	17.4846	9530.05	0.015027	0.015321	1141.21	70343.4
1173	2.000000	1.071595	7.37653e+06	-56939.1	1105.82	-29737.7	0.000000	0.000000	7.073034	36.26	NaN	0.000000	0.001656	0.001741	28.081	26.9659	0.001805	14938.7	5.729289	-178.008	35.4129	1.071318	0.026352	0.026075	36.26	14938.7	0.024532	0.030169	1201.88	78578.4
1173	2.000000	1.081705	7.37653e+06	-56939.1	1105.82	-29737.7	0.000000	0.000000	7.083923	55.2241	NaN	0.000000	0.001559	0.001727	28.081	35.6636	0.001728	20643.5	3.174854	-178.904	59.9888	1.081423	0.036462	0.036180	55.2241	20643.5	0.034455	0.050485	1093.87	83941.4
1173	2.000000	1.091585	7.37653e+06	-56939.1	1105.82	-29737.7	0.000000	0.000000	7.095293	91.4173	NaN	0.000000	0.001600	0.001748	28.0822	46.1974	0.001695	27260.9	8.320312	173.007	93.4248	1.091308	0.046342	0.046065	91.4173	27260.9	0.043827	0.074292	1230.51	91378
1173	2.000000	1.101572	7.37653e+06	-56939.1	1105.82	-29737.7	0.000000	0.000000	7.106782	127.92	NaN	0.000000	0.001594	0.001739	28.0823	55.4851	0.001844	30089.6	4.608297	175.975	125.904	1.101139	0.056329	0.055896	127.92	30089.6	0.053140	0.102366	1249.64	85923.5
1173	2.000000	1.111562	7.37653e+06	-56939.1	1105.82	-29737.7	0.000000	0.000000	7.118868	178.855	NaN	0.000000	0.001548	0.001768	28.0827	64.6989	0.001786	36219.2	4.575297	174.046	178.264	1.111306	0.066319	0.066063	178.855	36219.2	0.062616	0.135355	1321.38	89944.6
1173	2.000000	1.121413	7.37653e+06	-56939.1	1105.82	-29737.7	0.000000	0.000000	7.131091	236.524	NaN	0.000000	0.001537	0.001753	28.0826	74.498	0.001889	39441	4.692948	173.118	229.567	1.121146	0.076170	0.075903	236.524	39441	0.071673	0.170958	1383.52	87151.6
1173	2.000000	1.131475	7.37653e+06	-56939.1	1105.82	-29737.7	0.000000	0.000000	7.143899	303.272	NaN	0.000000	0.001636	0.001706	28.0811	84.8729	0.001886	45003.3	6.764395	170.119	301.361	1.131275	0.086232	0.086032	303.272	45003.3	0.081178	0.212506	1427.12	89193.4
1173	2.000000	1.141503	7.37653e+06	-56939.1	1105.82	-29737.7	0.000000	0.000000	7.156556	367.16	NaN	0.000000	0.001630	0.001740	28.0809	93.1349	0.001794	51915.1	4.356517	172.342	364.06	1.141120	0.096260	0.095877	367.16	51915.1	0.090956	0.259629	1414.17	93087.3
1173	2.000000	1.151522	7.37653e+06	-56939.1	1105.82	-29737.7	0.000000	0.000000	7.170566	464.175	NaN	0.000000	0.001655	0.001701	28.0812	103.603	0.001906	54345.3	8.170700	169.26	464.99	1.151152	0.106279	0.105909	464.175	54345.3	0.099873	0.306426	1514.8	89695.9
1173	2.000000	1.152838	7.37653e+06	-56939.1	1105.82	-29737.7	0.000000	0.000000	7.172033	467.835	NaN	0.000000	0.001620	0.001749	28.0809	103.142	0.001817	56768.9	2.192507	-6.609523	456.949	1.152665	0.107595	0.107422	467.835	56768.9	0.101414	0.314883	1485.74	92429.1