File: remote_trans/data/nanoindenter/0828-1/data/Data_2025-08-06,11h17m57s/2025-07-22_16-23-58_1_730.txt
2025-07-22, 16:23:58, 1
Index	Phase	Displacement	Time	Pos X	Pos Y	Pos Z	Rot A	Rot B	Piezo Z	Force A	Force B	Gripper	Voltage A	Voltage B	Temperature	Amplitude force	Amplitude pos	Stiffness	Phase shift	Phase excitation	Force A raw	Displacement raw	HMax	HMax raw	Real Force	Real Stiffness	Contact Depth	Area	Hardness	Reduced Mod.
[#]	[#]	[um]	[s]	[um]	[um]	[um]	[m°]	[m°]	[um]	[uN]	[uN]	[V]	[V]	[V]	[°C]	[uN]	[um]	[N/m]	[°]	[°]	[uN]	[um]	[um]	[um]	[uN]	[N/m]	[um]	[um^2]	[MPa]	[MPa]
730	1.000000	0.002399	7.3722e+06	-40589.1	1005.82	-29789.5	0.000000	0.000000	6.002802	-0.015536	NaN	0.000000	0.001615	0.001706	28.0812	0.040865	0.000984	41.5223	125.19	-164.244	0.031866	0.001164	-1.022031	-1.023266	-0.015536	41.5223	-1.021750	-4.451466E+13	3.490171E-16	NaN
730	1.000000	0.042331	7.3722e+06	-40589.1	1005.82	-29789.5	0.000000	0.000000	6.042734	-0.042046	NaN	0.000000	0.001651	0.001695	28.081	0.083851	0.001791	46.8263	83.6813	-161.119	0.044147	0.041038	-0.982098	-0.983391	-0.042046	46.8263	-0.981425	-1.275289E+13	3.296939E-15	NaN
730	1.000000	0.082372	7.3722e+06	-40589.1	1005.82	-29789.5	0.000000	0.000000	6.082775	-0.034236	NaN	0.000000	0.001647	0.001706	28.0809	0.028831	0.002005	14.3762	-97.0479	-167.048	0.024332	0.081085	-0.942057	-0.943345	-0.034236	14.3762	-0.940271	-3.554661E+12	9.631330E-15	NaN
730	1.000000	0.122379	7.3722e+06	-40589.1	1005.82	-29789.5	0.000000	0.000000	6.122780	-0.070238	NaN	0.000000	0.001606	0.001696	28.0822	0.055813	0.001974	28.2701	-165.398	-166.296	0.000394	0.121062	-0.902050	-0.903368	-0.070238	28.2701	-0.900187	-1.022333E+12	6.870347E-14	NaN
730	1.000000	0.162378	7.3722e+06	-40589.1	1005.82	-29789.5	0.000000	0.000000	6.162780	-0.033284	NaN	0.000000	0.001601	0.001730	28.0822	0.083741	0.002006	41.7431	-109.993	-166.254	-0.008865	0.161106	-0.862052	-0.863324	-0.033284	41.7431	-0.861454	-3.060557E+11	1.087530E-13	NaN
730	1.000000	0.202392	7.3722e+06	-40589.1	1005.82	-29789.5	0.000000	0.000000	6.202796	0.008876	NaN	0.000000	0.001598	0.001706	28.0821	0.147060	0.001966	74.7865	-95.7863	-167.77	0.041217	0.201100	-0.822038	-0.823330	0.008876	74.7865	-0.822127	-8.975280E+10	-9.889508E-14	NaN
730	1.000000	0.242458	7.3722e+06	-40589.1	1005.82	-29789.5	0.000000	0.000000	6.242860	-0.049411	NaN	0.000000	0.001617	0.001711	28.0811	0.019547	0.002079	9.401328	-145.376	-162.511	0.005380	0.241132	-0.781972	-0.783298	-0.049411	9.401328	-0.778030	-2.261848E+10	2.184534E-12	NaN
730	1.000000	0.282451	7.3722e+06	-40589.1	1005.82	-29789.5	0.000000	0.000000	6.282851	-0.096667	NaN	0.000000	0.001646	0.001700	28.0808	0.107391	0.001983	54.1512	140.033	-163.697	-0.062187	0.281117	-0.741979	-0.743313	-0.096667	54.1512	-0.740640	-7.010922E+9	1.378799E-11	NaN
730	1.000000	0.322479	7.3722e+06	-40589.1	1005.82	-29789.5	0.000000	0.000000	6.322883	-0.015325	NaN	0.000000	0.001611	0.001668	28.081	0.029683	0.001990	14.9141	143.201	-164.342	-0.040209	0.321154	-0.701950	-0.703276	-0.015325	14.9141	-0.701180	-2.030683E+9	7.546881E-12	NaN
730	1.000000	0.362489	7.3722e+06	-40589.1	1005.82	-29789.5	0.000000	0.000000	6.362894	0.010656	NaN	0.000000	0.001594	0.001714	28.0811	0.191755	0.001989	96.4032	-115.9	-164.174	0.013873	0.361195	-0.661940	-0.663235	0.010656	96.4032	-0.662023	-5.918071E+8	-1.800540E-11	NaN
730	1.000000	0.402500	7.3722e+06	-40589.1	1005.82	-29789.5	0.000000	0.000000	6.402904	-0.017650	NaN	0.000000	0.001616	0.001679	28.0823	0.032233	0.002143	15.0424	75.3449	-162.255	-0.058083	0.401160	-0.621929	-0.623270	-0.017650	15.0424	-0.621049	-1.622021E+8	1.088129E-10	NaN
730	1.000000	0.442532	7.3722e+06	-40589.1	1005.82	-29789.5	0.000000	0.000000	6.442935	-0.018989	NaN	0.000000	0.001604	0.001653	28.0822	0.062157	0.001949	31.8835	132.687	-164.153	-0.062916	0.441199	-0.581898	-0.583231	-0.018989	31.8835	-0.581451	-4.621153E+7	4.109043E-10	NaN
730	1.000000	0.482540	7.3722e+06	-40589.1	1005.82	-29789.5	0.000000	0.000000	6.482942	-0.051652	NaN	0.000000	0.001651	0.001606	28.0821	0.041479	0.001934	21.4474	-151.684	-165.309	0.047825	0.481163	-0.541890	-0.543267	-0.051652	21.4474	-0.540084	-1.237419E+7	4.174139E-9	NaN
730	1.000000	0.522556	7.3722e+06	-40589.1	1005.82	-29789.5	0.000000	0.000000	6.522959	-0.027156	NaN	0.000000	0.001602	0.001697	28.0812	0.088520	0.001945	45.5221	-45.1567	-162.445	-0.001675	0.521222	-0.501874	-0.503208	-0.027156	45.5221	-0.501427	-3.58855e+06	7.567311E-9	NaN
730	1.000000	0.562567	7.3722e+06	-40589.1	1005.82	-29789.5	0.000000	0.000000	6.562969	-0.046426	NaN	0.000000	0.001613	0.001713	28.0814	0.027582	0.002042	13.5093	-72.7868	-163.771	-0.022027	0.561218	-0.461863	-0.463212	-0.046426	13.5093	-0.459286	-922528	5.032532E-8	NaN
730	1.000000	0.602556	7.3722e+06	-40589.1	1005.82	-29789.5	0.000000	0.000000	6.602959	-0.027331	NaN	0.000000	0.001660	0.001696	28.0811	0.009741	0.002146	4.539641	-168.199	-164.093	0.030263	0.601295	-0.421873	-0.423135	-0.027331	4.539641	-0.417358	-236012	1.158016E-7	NaN
730	1.000000	0.642611	7.3722e+06	-40589.1	1005.82	-29789.5	0.000000	0.000000	6.643016	0.015325	NaN	0.000000	0.001628	0.001669	28.0824	0.028617	0.001857	15.4114	-93.8718	-163.83	-0.015794	0.641310	-0.381818	-0.383120	0.015325	15.4114	-0.382564	-75279	-2.035707E-7	NaN
730	1.000000	0.682625	7.3722e+06	-40589.1	1005.82	-29789.5	0.000000	0.000000	6.683029	0.013641	NaN	0.000000	0.001627	0.001767	28.0825	0.156598	0.002082	75.228	-162.289	-165.076	0.040621	0.681311	-0.341805	-0.343119	0.013641	75.228	-0.341941	-19491.1	-6.998631E-7	NaN
730	1.000000	0.722605	7.3722e+06	-40589.1	1005.82	-29789.5	0.000000	0.000000	6.723009	-0.018276	NaN	0.000000	0.001594	0.001768	28.0824	0.053292	0.001941	27.4575	81.6514	-162.705	-0.008215	0.721288	-0.301824	-0.303142	-0.018276	27.4575	-0.301325	-4924.41	3.711339E-6	NaN
730	1.000000	0.762654	7.3722e+06	-40589.1	1005.82	-29789.5	0.000000	0.000000	6.763056	-0.043756	NaN	0.000000	0.001583	0.001736	28.0824	0.065177	0.002081	31.3133	-5.676736	-166.968	-0.043640	0.761307	-0.261776	-0.263123	-0.043756	31.3133	-0.260728	-1202.45	3.638876E-5	NaN
730	1.000000	0.802685	7.3722e+06	-40589.1	1005.82	-29789.5	0.000000	0.000000	6.803089	0.006374	NaN	0.000000	0.001669	0.001738	28.0812	0.034290	0.002125	16.1403	-168.053	-168.58	0.001893	0.801320	-0.221745	-0.223110	0.006374	16.1403	-0.222041	-299.401	-2.129080E-5	NaN
730	1.000000	0.842687	7.3722e+06	-40589.1	1005.82	-29789.5	0.000000	0.000000	6.843090	-0.027481	NaN	0.000000	0.001629	0.001723	28.0812	0.086929	0.001936	44.9109	42.0424	-165.052	-0.082672	0.841321	-0.181743	-0.183109	-0.027481	44.9109	-0.181284	-64.1623	0.000428	NaN
730	1.000000	0.882690	7.3722e+06	-40589.1	1005.82	-29789.5	0.000000	0.000000	6.883091	-0.064692	NaN	0.000000	0.001606	0.001738	28.0809	0.146234	0.002016	72.5254	5.369901	-167.45	-0.045003	0.881386	-0.141740	-0.143044	-0.064692	72.5254	-0.141071	-12.3895	0.005222	NaN
730	1.000000	0.922707	7.3722e+06	-40589.1	1005.82	-29789.5	0.000000	0.000000	6.923109	-0.051784	NaN	0.000000	0.001638	0.001762	28.0822	0.118681	0.001918	61.8745	54.7498	-164.657	-0.121875	0.921365	-0.101723	-0.103065	-0.051784	61.8745	-0.101095	-1.931884	0.026805	NaN
730	1.000000	0.962740	7.3722e+06	-40589.1	1005.82	-29789.5	0.000000	0.000000	6.963143	-0.029098	NaN	0.000000	0.001618	0.001732	28.0822	0.106148	0.001895	56.0273	-12.9886	-167.477	-0.085146	0.961416	-0.061690	-0.063014	-0.029098	56.0273	-0.061300	-0.196172	0.148330	NaN
730	1.000000	1.002746	7.3722e+06	-40589.1	1005.82	-29789.5	0.000000	0.000000	7.003147	-0.070232	NaN	0.000000	0.001594	0.001750	28.0822	0.032898	0.001975	16.6588	85.6753	-164.364	0.016917	1.001420	-0.021684	-0.023010	-0.070232	16.6588	-0.018522	-0.011515	6.099416	NaN
730	2.000000	1.040378	7.3722e+06	-40589.1	1005.82	-29789.5	0.000000	0.000000	7.041190	9.951138	NaN	0.000000	0.001573	0.001736	28.0823	8.081246	0.001844	4383.41	11.1804	-173.783	10.4992	1.039978	0.015948	0.015548	9.951138	4383.41	0.014245	0.014292	696.277	33499.7
730	2.000000	1.050273	7.3722e+06	-40589.1	1005.82	-29789.5	0.000000	0.000000	7.051562	21.5397	NaN	0.000000	0.001654	0.001754	28.0808	17.3109	0.001711	10120.1	7.055804	-175.738	22.6754	1.049938	0.025843	0.025508	21.5397	10120.1	0.024247	0.029660	726.228	53687.8
730	2.000000	1.060178	7.3722e+06	-40589.1	1005.82	-29789.5	0.000000	0.000000	7.062440	45.2264	NaN	0.000000	0.001661	0.001778	28.0809	28.8519	0.001758	16407.6	6.634875	178.996	44.4104	1.059884	0.035748	0.035454	45.2264	16407.6	0.033681	0.048719	928.315	67915.8
730	2.000000	1.070215	7.3722e+06	-40589.1	1005.82	-29789.5	0.000000	0.000000	7.073984	81.8863	NaN	0.000000	0.001669	0.001727	28.0811	37.6521	0.001836	20509	7.429877	176.858	84.4713	1.069920	0.045785	0.045490	81.8863	20509	0.042790	0.071439	1146.25	70105.5
730	2.000000	1.080183	7.3722e+06	-40589.1	1005.82	-29789.5	0.000000	0.000000	7.085730	125.139	NaN	0.000000	0.001595	0.001759	28.0825	46.7367	0.001796	26029.2	5.101925	177.173	126.641	1.079854	0.055753	0.055424	125.139	26029.2	0.052148	0.099167	1261.91	75518.1
730	2.000000	1.090147	7.3722e+06	-40589.1	1005.82	-29789.5	0.000000	0.000000	7.097713	174.282	NaN	0.000000	0.001643	0.001773	28.0825	56.7689	0.001739	32643.3	3.633834	175.94	171.962	1.089872	0.065717	0.065442	174.282	32643.3	0.061713	0.132023	1320.09	82080.9
730	2.000000	1.100164	7.3722e+06	-40589.1	1005.82	-29789.5	0.000000	0.000000	7.110105	232.072	NaN	0.000000	0.001647	0.001783	28.0822	66.5524	0.001905	34942.3	8.432261	171.434	233.281	1.099823	0.075734	0.075393	232.072	34942.3	0.070753	0.167163	1388.3	78082.7
730	2.000000	1.110145	7.3722e+06	-40589.1	1005.82	-29789.5	0.000000	0.000000	7.122862	299.626	NaN	0.000000	0.001638	0.001726	28.0809	75.7287	0.001907	39713	2.459052	176.206	300.564	1.109842	0.085715	0.085412	299.626	39713	0.080056	0.207384	1444.79	79674.4
730	2.000000	1.120019	7.3722e+06	-40589.1	1005.82	-29789.5	0.000000	0.000000	7.136125	382.076	NaN	0.000000	0.001678	0.001756	28.0809	84.226	0.001844	45668	0.674589	177.239	376.393	1.119798	0.095590	0.095369	382.076	45668	0.089315	0.251413	1519.71	83213
730	2.000000	1.130030	7.3722e+06	-40589.1	1005.82	-29789.5	0.000000	0.000000	7.149179	456.129	NaN	0.000000	0.001628	0.001721	28.0811	92.1565	0.001859	49585.8	6.603345	170.299	451.525	1.129763	0.105600	0.105334	456.129	49585.8	0.098701	0.300070	1520.08	82702.6
730	2.000000	1.138139	7.3722e+06	-40589.1	1005.82	-29789.5	0.000000	0.000000	7.160200	526.992	NaN	0.000000	0.001638	0.001764	28.0814	98.2661	0.001802	54518.6	6.736856	169.824	527.467	1.137635	0.113709	0.113205	526.992	54518.6	0.106460	0.343316	1535	85010.2