File: remote_trans/data/nanoindenter/0828-1/data/Data_2025-08-06,11h17m57s/2025-07-22_16-23-58_1_1113.txt
2025-07-22, 16:23:58, 1
Index	Phase	Displacement	Time	Pos X	Pos Y	Pos Z	Rot A	Rot B	Piezo Z	Force A	Force B	Gripper	Voltage A	Voltage B	Temperature	Amplitude force	Amplitude pos	Stiffness	Phase shift	Phase excitation	Force A raw	Displacement raw	HMax	HMax raw	Real Force	Real Stiffness	Contact Depth	Area	Hardness	Reduced Mod.
[#]	[#]	[um]	[s]	[um]	[um]	[um]	[m°]	[m°]	[um]	[uN]	[uN]	[V]	[V]	[V]	[°C]	[uN]	[um]	[N/m]	[°]	[°]	[uN]	[um]	[um]	[um]	[uN]	[N/m]	[um]	[um^2]	[MPa]	[MPa]
1113	1.000000	0.002493	7.37594e+06	-55789.1	1055.82	-29740.7	0.000000	0.000000	6.002811	0.071668	NaN	0.000000	0.001539	0.001707	28.0826	0.050739	0.000869	58.3811	162.581	-161.74	0.073372	0.001231	-1.080375	-1.081637	0.071668	58.3811	-1.081295	-2.811363E+14	-2.549215E-16	NaN
1113	1.000000	0.044422	7.37594e+06	-55789.1	1055.82	-29740.7	0.000000	0.000000	6.044739	0.057858	NaN	0.000000	0.001589	0.001779	28.081	0.066094	0.002064	32.0274	-169.736	18.7667	0.016205	0.043050	-1.038446	-1.039818	0.057858	32.0274	-1.039801	-7.785647E+13	-7.431308E-16	NaN
1113	1.000000	0.086454	7.37594e+06	-55789.1	1055.82	-29740.7	0.000000	0.000000	6.086774	0.115153	NaN	0.000000	0.001562	0.001731	28.0811	0.095217	0.001990	47.859	94.4236	-166.37	0.127516	0.085118	-0.996414	-0.997750	0.115153	47.859	-0.998218	-2.146748E+13	-5.364044E-15	NaN
1113	1.000000	0.128447	7.37594e+06	-55789.1	1055.82	-29740.7	0.000000	0.000000	6.128763	0.039205	NaN	0.000000	0.001551	0.001740	28.0811	0.038919	0.002035	19.1226	154.825	20.9194	-0.008261	0.127086	-0.954421	-0.955782	0.039205	19.1226	-0.955959	-5.786019E+12	-6.775744E-15	NaN
1113	1.000000	0.170508	7.37594e+06	-55789.1	1055.82	-29740.7	0.000000	0.000000	6.170824	0.048833	NaN	0.000000	0.001582	0.001704	28.0821	0.019490	0.001912	10.1947	23.5605	-166.289	0.034119	0.169119	-0.912361	-0.913749	0.048833	10.1947	-0.915953	-1.669404E+12	-2.925146E-14	NaN
1113	1.000000	0.212521	7.37594e+06	-55789.1	1055.82	-29740.7	0.000000	0.000000	6.212837	0.010370	NaN	0.000000	0.001511	0.001750	28.0827	0.039549	0.001984	19.939	-136.098	16.5555	-0.046352	0.211133	-0.870347	-0.871735	0.010370	19.939	-0.870737	-4.087068E+11	-2.537239E-14	NaN
1113	1.000000	0.254532	7.37594e+06	-55789.1	1055.82	-29740.7	0.000000	0.000000	6.254848	0.024911	NaN	0.000000	0.001518	0.001746	28.0826	0.029931	0.002035	14.7047	-0.066114	-165.944	0.051956	0.253214	-0.828336	-0.829654	0.024911	14.7047	-0.829606	-1.133574E+11	-2.197563E-13	NaN
1113	1.000000	0.296517	7.37594e+06	-55789.1	1055.82	-29740.7	0.000000	0.000000	6.296833	0.022764	NaN	0.000000	0.001561	0.001753	28.0825	0.085606	0.001959	43.6884	55.6076	7.958311	-0.024809	0.295125	-0.786351	-0.787743	0.022764	43.6884	-0.786742	-2.970492E+10	-7.663398E-13	NaN
1113	1.000000	0.338544	7.37594e+06	-55789.1	1055.82	-29740.7	0.000000	0.000000	6.338857	-0.045626	NaN	0.000000	0.001549	0.001725	28.0812	0.035947	0.001942	18.5084	169.583	-164.783	0.026657	0.337233	-0.744324	-0.745635	-0.045626	18.5084	-0.742475	-7.426174E+9	6.144001E-12	NaN
1113	1.000000	0.380576	7.37594e+06	-55789.1	1055.82	-29740.7	0.000000	0.000000	6.380892	0.037632	NaN	0.000000	0.001518	0.001726	28.0812	0.023999	0.002089	11.4893	-104.839	18.0782	0.050860	0.379219	-0.702293	-0.703649	0.037632	11.4893	-0.704749	-2.271834E+9	-1.656474E-11	NaN
1113	1.000000	0.422611	7.37594e+06	-55789.1	1055.82	-29740.7	0.000000	0.000000	6.422927	0.024263	NaN	0.000000	0.001604	0.001717	28.081	0.068060	0.002144	31.7437	167.626	-164.601	0.031791	0.421299	-0.660257	-0.661569	0.024263	31.7437	-0.660831	-5.699600E+8	-4.256920E-11	NaN
1113	1.000000	0.464618	7.37594e+06	-55789.1	1055.82	-29740.7	0.000000	0.000000	6.464930	-0.069182	NaN	0.000000	0.001481	0.001730	28.0823	0.083630	0.002089	40.0303	152.764	16.1485	-0.064435	0.463253	-0.618250	-0.619615	-0.069182	40.0303	-0.616953	-1.424794E+8	4.855574E-10	NaN
1113	1.000000	0.506624	7.37594e+06	-55789.1	1055.82	-29740.7	0.000000	0.000000	6.506941	0.061256	NaN	0.000000	0.001536	0.001701	28.0823	0.081483	0.002009	40.5577	74.2841	-166.19	-0.005215	0.505307	-0.576244	-0.577561	0.061256	40.5577	-0.577377	-4.059939E+7	-1.508780E-9	NaN
1113	1.000000	0.548656	7.37594e+06	-55789.1	1055.82	-29740.7	0.000000	0.000000	6.548969	-0.027534	NaN	0.000000	0.001533	0.001715	28.0822	0.128022	0.002075	61.6927	-117.49	15.9695	-0.057463	0.547313	-0.534213	-0.535555	-0.027534	61.6927	-0.533878	-1.014879E+7	2.713068E-9	NaN
1113	1.000000	0.590651	7.37594e+06	-55789.1	1055.82	-29740.7	0.000000	0.000000	6.590965	-0.021230	NaN	0.000000	0.001592	0.001735	28.081	0.057638	0.001967	29.309	-16.1575	-162.433	-0.019311	0.589354	-0.492217	-0.493514	-0.021230	29.309	-0.491674	-2.6229e+06	8.094187E-9	NaN
1113	1.000000	0.632675	7.37594e+06	-55789.1	1055.82	-29740.7	0.000000	0.000000	6.632989	-0.003145	NaN	0.000000	0.001616	0.001733	28.0813	0.042882	0.001899	22.5846	-104.928	13.9997	-0.054485	0.631306	-0.450193	-0.451562	-0.003145	22.5846	-0.450089	-684847	4.592445E-9	NaN
1113	1.000000	0.674702	7.37594e+06	-55789.1	1055.82	-29740.7	0.000000	0.000000	6.675015	-0.024425	NaN	0.000000	0.001537	0.001749	28.0811	0.044207	0.001987	22.2486	80.4056	-164.211	0.042851	0.673405	-0.408166	-0.409463	-0.024425	22.2486	-0.407343	-170060	1.436237E-7	NaN
1113	1.000000	0.716724	7.37594e+06	-55789.1	1055.82	-29740.7	0.000000	0.000000	6.717036	-0.066036	NaN	0.000000	0.001518	0.001737	28.0815	0.047838	0.001965	24.3487	43.2277	15.1066	-0.060250	0.715378	-0.366144	-0.367490	-0.066036	24.3487	-0.364110	-40851.6	1.616478E-6	NaN
1113	1.000000	0.758719	7.37594e+06	-55789.1	1055.82	-29740.7	0.000000	0.000000	6.759035	0.042507	NaN	0.000000	0.001523	0.001742	28.0824	0.034805	0.002107	16.5181	-2.226223	-164.059	0.041636	0.757407	-0.324149	-0.325461	0.042507	16.5181	-0.326079	-11428.3	-3.719431E-6	NaN
1113	1.000000	0.800742	7.37594e+06	-55789.1	1055.82	-29740.7	0.000000	0.000000	6.801053	-0.073463	NaN	0.000000	0.001489	0.001684	28.0824	0.040077	0.002085	19.2227	106.917	19.7268	-0.085979	0.799371	-0.282126	-0.283497	-0.073463	19.2227	-0.279260	-2300.41	3.193483E-5	NaN
1113	1.000000	0.842797	7.37594e+06	-55789.1	1055.82	-29740.7	0.000000	0.000000	6.843113	0.034128	NaN	0.000000	0.001520	0.001704	28.0827	0.065688	0.001909	34.4068	-168.349	-164.376	0.046369	0.841419	-0.240071	-0.241449	0.034128	34.4068	-0.240815	-591.943	-5.765437E-5	NaN
1113	1.000000	0.884777	7.37594e+06	-55789.1	1055.82	-29740.7	0.000000	0.000000	6.885093	0.014199	NaN	0.000000	0.001557	0.001737	28.0818	0.066931	0.001963	34.0977	-119.197	15.023	0.005040	0.883405	-0.198091	-0.199463	0.014199	34.0977	-0.198403	-124	-0.000115	NaN
1113	1.000000	0.926827	7.37594e+06	-55789.1	1055.82	-29740.7	0.000000	0.000000	6.927143	0.035548	NaN	0.000000	0.001574	0.001721	28.0816	0.046167	0.001918	24.0687	-43.0045	-167.209	0.060364	0.925481	-0.156041	-0.157387	0.035548	24.0687	-0.157149	-24.3863	-0.001458	NaN
1113	1.000000	0.968822	7.37594e+06	-55789.1	1055.82	-29740.7	0.000000	0.000000	6.969138	0.031395	NaN	0.000000	0.001579	0.001722	28.0812	0.059239	0.002016	29.379	-101.168	14.9775	0.031995	0.967399	-0.114046	-0.115469	0.031395	29.379	-0.114848	-3.792872	-0.008277	NaN
1113	1.000000	1.010839	7.37594e+06	-55789.1	1055.82	-29740.7	0.000000	0.000000	7.011154	0.016579	NaN	0.000000	0.001595	0.001736	28.0823	0.063322	0.001962	32.2817	-97.4712	-169.25	0.001319	1.009511	-0.072029	-0.073357	0.016579	32.2817	-0.072415	-0.395396	-0.041930	NaN
1113	1.000000	1.052851	7.37594e+06	-55789.1	1055.82	-29740.7	0.000000	0.000000	7.053166	0.005390	NaN	0.000000	0.001499	0.001721	28.0823	0.086969	0.002026	42.9162	142.846	12.3657	-0.080344	1.051524	-0.030017	-0.031344	0.005390	42.9162	-0.030111	-0.023177	-0.232547	NaN
1113	1.000000	1.094760	7.37594e+06	-55789.1	1055.82	-29740.7	0.000000	0.000000	7.095379	7.416718	NaN	0.000000	0.001528	0.001715	28.0826	7.698740	0.001716	4486.51	7.196200	-169.837	6.131851	1.093565	0.011891	0.010697	7.416718	4486.51	0.010652	0.009915	748.055	41166.4
1113	2.000000	1.105927	7.37594e+06	-55789.1	1055.82	-29740.7	0.000000	0.000000	7.107055	19.7589	NaN	0.000000	0.001582	0.001748	28.0817	18.4291	0.001720	10716.6	4.221431	7.026725	18.2831	1.105555	0.023059	0.022686	19.7589	10716.6	0.021676	0.025245	782.692	61623.1
1113	2.000000	1.116395	7.37594e+06	-55789.1	1055.82	-29740.7	0.000000	0.000000	7.118365	40.2314	NaN	0.000000	0.001583	0.001763	28.0811	30.3104	0.001839	16478.4	5.055661	-178.983	38.272	1.116064	0.033527	0.033196	40.2314	16478.4	0.031696	0.044333	907.488	71503.1
1113	2.000000	1.126860	7.37594e+06	-55789.1	1055.82	-29740.7	0.000000	0.000000	7.130266	75.1545	NaN	0.000000	0.001562	0.001728	28.0811	40.6289	0.001745	23278.5	2.461305	0.464415	71.6692	1.126534	0.043992	0.043666	75.1545	23278.5	0.041570	0.068149	1102.79	81470.1
1113	2.000000	1.137330	7.37594e+06	-55789.1	1055.82	-29740.7	0.000000	0.000000	7.142569	119.699	NaN	0.000000	0.001605	0.001738	28.0816	51.2052	0.001823	28091.7	7.837718	174.427	116.398	1.136985	0.054462	0.054117	119.699	28091.7	0.051266	0.096366	1242.13	82677.6
1113	2.000000	1.147799	7.37594e+06	-55789.1	1055.82	-29740.7	0.000000	0.000000	7.155488	179.244	NaN	0.000000	0.001570	0.001691	28.0825	60.2085	0.001783	33773.5	6.275096	-5.387194	175.89	1.147401	0.064931	0.064533	179.244	33773.5	0.060951	0.129240	1386.9	85832.2
1113	2.000000	1.158294	7.37594e+06	-55789.1	1055.82	-29740.7	0.000000	0.000000	7.168877	249.606	NaN	0.000000	0.001575	0.001711	28.0826	71.1214	0.001701	41818.6	1.048255	177.374	245.913	1.158077	0.075426	0.075209	249.606	41818.6	0.070949	0.167971	1486.01	93223.6
1113	2.000000	1.168841	7.37594e+06	-55789.1	1055.82	-29740.7	0.000000	0.000000	7.183000	336.547	NaN	0.000000	0.001602	0.001694	28.0824	83.2972	0.001772	47016.8	6.051392	-8.109121	334.021	1.168511	0.085972	0.085643	336.547	47016.8	0.080604	0.209878	1603.54	93765.5
1113	2.000000	1.179378	7.37594e+06	-55789.1	1055.82	-29740.7	0.000000	0.000000	7.197043	421.751	NaN	0.000000	0.001562	0.001696	28.0811	91.6545	0.001699	53950.8	8.801339	168.715	425.093	1.178967	0.096510	0.096098	421.751	53950.8	0.090647	0.258074	1634.23	97028.4
1113	2.000000	1.189747	7.37594e+06	-55789.1	1055.82	-29740.7	0.000000	0.000000	7.209654	476.248	NaN	0.000000	0.001556	0.001734	28.0814	100.319	0.001836	54651.3	2.548041	-6.173464	470.289	1.189538	0.106879	0.106670	476.248	54651.3	0.100343	0.308994	1541.29	89825.3
1113	2.000000	1.194237	7.37594e+06	-55789.1	1055.82	-29740.7	0.000000	0.000000	7.217320	553.47	NaN	0.000000	0.001560	0.001700	28.0812	103.299	0.001777	58127.2	3.911350	172.763	547.745	1.193932	0.111368	0.111064	553.47	58127.2	0.104227	0.330592	1674.18	92364.8