File: remote_trans/data/nanoindenter/0828-1/data/Data_2025-08-06,11h17m57s/2025-07-22_16-23-58_1_698.txt
2025-07-22, 16:23:58, 1
Index	Phase	Displacement	Time	Pos X	Pos Y	Pos Z	Rot A	Rot B	Piezo Z	Force A	Force B	Gripper	Voltage A	Voltage B	Temperature	Amplitude force	Amplitude pos	Stiffness	Phase shift	Phase excitation	Force A raw	Displacement raw	HMax	HMax raw	Real Force	Real Stiffness	Contact Depth	Area	Hardness	Reduced Mod.
[#]	[#]	[um]	[s]	[um]	[um]	[um]	[m°]	[m°]	[um]	[uN]	[uN]	[V]	[V]	[V]	[°C]	[uN]	[um]	[N/m]	[°]	[°]	[uN]	[um]	[um]	[um]	[uN]	[N/m]	[um]	[um^2]	[MPa]	[MPa]
698	1.000000	0.002230	7.37188e+06	-42189.1	1005.82	-29783.6	0.000000	0.000000	6.002793	0.061621	NaN	0.000000	0.001609	0.001830	28.0821	0.094697	0.000842	112.505	61.8783	-166.728	0.061410	0.000945	-1.087948	-1.089233	0.061621	112.505	-1.088359	-3.497656E+14	-1.761783E-16	NaN
698	1.000000	0.042164	7.37188e+06	-42189.1	1005.82	-29783.6	0.000000	0.000000	6.042728	0.092408	NaN	0.000000	0.001723	0.001813	28.082	0.046450	0.002009	23.1192	35.047	-166.26	0.088340	0.040891	-1.048014	-1.049287	0.092408	23.1192	-1.051012	-1.101589E+14	-8.388635E-16	NaN
698	1.000000	0.082182	7.37188e+06	-42189.1	1005.82	-29783.6	0.000000	0.000000	6.082744	0.038876	NaN	0.000000	0.001672	0.001843	28.0807	0.113243	0.001918	59.0563	-120.768	-165.71	0.071170	0.080923	-1.007996	-1.009256	0.038876	59.0563	-1.008490	-2.951588E+13	-1.317119E-15	NaN
698	1.000000	0.122224	7.37188e+06	-42189.1	1005.82	-29783.6	0.000000	0.000000	6.122783	-0.026132	NaN	0.000000	0.001658	0.001776	28.0805	0.046961	0.001933	24.2962	151.514	-161.897	-0.013761	0.120871	-0.967954	-0.969307	-0.026132	24.2962	-0.967148	-8.188803E+12	3.191187E-15	NaN
698	1.000000	0.162223	7.37188e+06	-42189.1	1005.82	-29783.6	0.000000	0.000000	6.162787	0.086804	NaN	0.000000	0.001635	0.001830	28.0806	0.149059	0.001907	78.1521	-84.7829	-165.301	0.059027	0.160873	-0.927955	-0.929306	0.086804	78.1521	-0.928788	-2.487948E+12	-3.488962E-14	NaN
698	1.000000	0.202265	7.37188e+06	-42189.1	1005.82	-29783.6	0.000000	0.000000	6.202823	-0.049771	NaN	0.000000	0.001631	0.001799	28.0819	0.057866	0.001974	29.3088	-175.759	-167.675	0.002609	0.200924	-0.887914	-0.889254	-0.049771	29.3088	-0.886640	-6.706445E+11	7.421385E-14	NaN
698	1.000000	0.242246	7.37188e+06	-42189.1	1005.82	-29783.6	0.000000	0.000000	6.242808	0.057835	NaN	0.000000	0.001675	0.001817	28.0819	0.061852	0.002133	28.9959	-76.6283	-165.711	-0.043110	0.240945	-0.847933	-0.849233	0.057835	28.9959	-0.849429	-2.103779E+11	-2.749099E-13	NaN
698	1.000000	0.282259	7.37188e+06	-42189.1	1005.82	-29783.6	0.000000	0.000000	6.282821	0.035905	NaN	0.000000	0.001573	0.001810	28.0818	0.087257	0.001993	43.7844	-139.367	-167.841	0.000370	0.280950	-0.807919	-0.809228	0.035905	43.7844	-0.808534	-5.870533E+10	-6.116137E-13	NaN
698	1.000000	0.322304	7.37188e+06	-42189.1	1005.82	-29783.6	0.000000	0.000000	6.322864	0.020697	NaN	0.000000	0.001565	0.001789	28.0819	0.054980	0.002007	27.3887	64.3204	-162.412	0.050740	0.320975	-0.767875	-0.769203	0.020697	27.3887	-0.768441	-1.675377E+10	-1.235354E-12	NaN
698	1.000000	0.362325	7.37188e+06	-42189.1	1005.82	-29783.6	0.000000	0.000000	6.362888	0.067234	NaN	0.000000	0.001559	0.001742	28.081	0.121380	0.001863	65.1671	46.5566	-164.657	0.050488	0.360996	-0.727853	-0.729183	0.067234	65.1671	-0.728627	-4.809369E+9	-1.397985E-11	NaN
698	1.000000	0.402317	7.37188e+06	-42189.1	1005.82	-29783.6	0.000000	0.000000	6.402879	0.057681	NaN	0.000000	0.001558	0.001783	28.0806	0.093249	0.002018	46.1982	173.764	-164.375	0.039720	0.401069	-0.687861	-0.689109	0.057681	46.1982	-0.688798	-1.375591E+9	-4.193151E-11	NaN
698	1.000000	0.442353	7.37188e+06	-42189.1	1005.82	-29783.6	0.000000	0.000000	6.442915	0.042197	NaN	0.000000	0.001610	0.001755	28.0808	0.054783	0.001969	27.828	-146.98	-163.48	0.091460	0.440982	-0.647825	-0.649197	0.042197	27.828	-0.648962	-3.919305E+8	-1.076640E-10	NaN
698	1.000000	0.482335	7.37188e+06	-42189.1	1005.82	-29783.6	0.000000	0.000000	6.482895	0.022144	NaN	0.000000	0.001606	0.001784	28.0817	0.116663	0.002011	58.0051	57.2935	-163.558	0.036093	0.481097	-0.607844	-0.609081	0.022144	58.0051	-0.608130	-1.077415E+8	-2.055264E-10	NaN
698	1.000000	0.522388	7.37188e+06	-42189.1	1005.82	-29783.6	0.000000	0.000000	6.522952	0.096691	NaN	0.000000	0.001612	0.001776	28.0816	0.090949	0.001998	45.5224	53.1359	-165.325	0.144830	0.521091	-0.567790	-0.569087	0.096691	45.5224	-0.569383	-3.148561E+7	-3.070964E-9	NaN
698	1.000000	0.562382	7.37188e+06	-42189.1	1005.82	-29783.6	0.000000	0.000000	6.562943	0.000556	NaN	0.000000	0.001579	0.001773	28.0818	0.086014	0.002060	41.762	64.1476	-163.348	0.019274	0.561132	-0.527796	-0.529046	0.000556	41.762	-0.527806	-8.35788e+06	-6.651119E-11	NaN
698	1.000000	0.602420	7.37188e+06	-42189.1	1005.82	-29783.6	0.000000	0.000000	6.602982	0.038826	NaN	0.000000	0.001579	0.001790	28.0819	0.066124	0.001859	35.568	145.918	-169.498	0.039511	0.601137	-0.487758	-0.489041	0.038826	35.568	-0.488577	-2.37411e+06	-1.635392E-8	NaN
698	1.000000	0.642438	7.37188e+06	-42189.1	1005.82	-29783.6	0.000000	0.000000	6.643000	0.036836	NaN	0.000000	0.001564	0.001744	28.0808	0.083613	0.002001	41.7897	169.81	-167.357	-0.041310	0.641111	-0.447740	-0.449067	0.036836	41.7897	-0.448401	-648368	-5.681350E-8	NaN
698	1.000000	0.682434	7.37188e+06	-42189.1	1005.82	-29783.6	0.000000	0.000000	6.682994	-0.006222	NaN	0.000000	0.001589	0.001759	28.0808	0.047639	0.002125	22.4225	143.853	-166.903	-0.030570	0.681115	-0.407744	-0.409063	-0.006222	22.4225	-0.407536	-171139	3.635783E-8	NaN
698	1.000000	0.722452	7.37188e+06	-42189.1	1005.82	-29783.6	0.000000	0.000000	6.723015	0.067982	NaN	0.000000	0.001618	0.001801	28.0805	0.061994	0.002159	28.7167	-107.065	-164.018	0.096046	0.721208	-0.367726	-0.368971	0.067982	28.7167	-0.369501	-48859.1	-1.391382E-6	NaN
698	1.000000	0.762476	7.37188e+06	-42189.1	1005.82	-29783.6	0.000000	0.000000	6.763040	0.075444	NaN	0.000000	0.001602	0.001796	28.082	0.028815	0.001933	14.9084	-121.109	-163.167	0.055802	0.761179	-0.327702	-0.328999	0.075444	14.9084	-0.331497	-13720.5	-5.498683E-6	NaN
698	1.000000	0.802472	7.37188e+06	-42189.1	1005.82	-29783.6	0.000000	0.000000	6.803031	-0.018315	NaN	0.000000	0.001632	0.001823	28.0818	0.074442	0.001992	37.3673	99.4481	-165.921	0.011234	0.801117	-0.287706	-0.289061	-0.018315	37.3673	-0.287338	-3043.63	6.017574E-6	NaN
698	1.000000	0.842531	7.37188e+06	-42189.1	1005.82	-29783.6	0.000000	0.000000	6.843090	-0.033214	NaN	0.000000	0.001620	0.001807	28.0821	0.031093	0.001921	16.1836	-87.3674	-164.747	0.025114	0.841203	-0.247647	-0.248975	-0.033214	16.1836	-0.246108	-715.587	4.641438E-5	NaN
698	1.000000	0.882522	7.37188e+06	-42189.1	1005.82	-29783.6	0.000000	0.000000	6.883084	0.048151	NaN	0.000000	0.001648	0.001787	28.0807	0.100833	0.002039	49.46	-111.891	-168.281	0.021899	0.881242	-0.207656	-0.208936	0.048151	49.46	-0.208386	-180.575	-0.000267	NaN
698	1.000000	0.922552	7.37188e+06	-42189.1	1005.82	-29783.6	0.000000	0.000000	6.923114	0.058394	NaN	0.000000	0.001600	0.001775	28.0806	0.033173	0.002069	16.0308	106.532	-166.604	0.049769	0.921231	-0.167627	-0.168947	0.058394	16.0308	-0.170358	-41.6712	-0.001401	NaN
698	1.000000	0.962573	7.37188e+06	-42189.1	1005.82	-29783.6	0.000000	0.000000	6.963134	0.042026	NaN	0.000000	0.001592	0.001808	28.0808	0.110555	0.001990	55.5528	-30.7955	-167.162	0.046615	0.961296	-0.127606	-0.128882	0.042026	55.5528	-0.128173	-7.021104	-0.005986	NaN
698	1.000000	1.002600	7.37188e+06	-42189.1	1005.82	-29783.6	0.000000	0.000000	7.003162	0.027000	NaN	0.000000	0.001606	0.001802	28.0807	0.119498	0.001906	62.6994	-134.279	-163.549	0.002688	1.001243	-0.087578	-0.088935	0.027000	62.6994	-0.087901	-0.964378	-0.027997	NaN
698	1.000000	1.042597	7.37188e+06	-42189.1	1005.82	-29783.6	0.000000	0.000000	7.043158	0.042701	NaN	0.000000	0.001623	0.001807	28.082	0.060317	0.002039	29.5766	-34.6564	-162.55	0.057563	1.041316	-0.047582	-0.048863	0.042701	29.5766	-0.048664	-0.083129	-0.513666	NaN
698	1.000000	1.082606	7.37188e+06	-42189.1	1005.82	-29783.6	0.000000	0.000000	7.083168	0.035293	NaN	0.000000	0.001606	0.001800	28.0818	0.117590	0.002091	56.2356	85.0348	-163.313	0.094181	1.081308	-0.007572	-0.008870	0.035293	56.2356	-0.008043	-0.005257	-6.713995	NaN
698	2.000000	1.101201	7.37188e+06	-42189.1	1005.82	-29783.6	0.000000	0.000000	7.102535	18.8401	NaN	0.000000	0.001592	0.001817	28.0848	16.1042	0.001784	9027.48	8.303123	-176.811	18.3503	1.100907	0.011023	0.010729	18.8401	9027.48	0.009457	0.008585	2194.63	89018.2
698	2.000000	1.111123	7.37188e+06	-42189.1	1005.82	-29783.6	0.000000	0.000000	7.113306	39.4776	NaN	0.000000	0.001616	0.001776	28.081	24.2141	0.001709	14169.5	3.419777	-177.687	37.5051	1.110953	0.020945	0.020775	39.4776	14169.5	0.018856	0.020776	1900.17	89814.9
698	2.000000	1.121177	7.37188e+06	-42189.1	1005.82	-29783.6	0.000000	0.000000	7.124308	62.5643	NaN	0.000000	0.001592	0.001822	28.0806	33.9478	0.001683	20176.1	7.711787	175.542	62.9933	1.120814	0.030999	0.030636	62.5643	20176.1	0.028673	0.038038	1644.78	94515.2
698	2.000000	1.131152	7.37188e+06	-42189.1	1005.82	-29783.6	0.000000	0.000000	7.135691	96.8263	NaN	0.000000	0.001633	0.001809	28.0807	43.5468	0.001792	24296.3	2.014585	-179.572	98.6701	1.130899	0.040974	0.040720	96.8263	24296.3	0.037985	0.058924	1643.24	91446.5
698	2.000000	1.141090	7.37188e+06	-42189.1	1005.82	-29783.6	0.000000	0.000000	7.147433	140.704	NaN	0.000000	0.001561	0.001779	28.0806	52.6974	0.001808	29139.9	2.705474	177.595	137.684	1.140784	0.050912	0.050606	140.704	29139.9	0.047291	0.084223	1670.61	91737.2
698	2.000000	1.151129	7.37188e+06	-42189.1	1005.82	-29783.6	0.000000	0.000000	7.159542	191.088	NaN	0.000000	0.001637	0.001749	28.0819	62.9534	0.001906	33023.5	4.124021	176.013	190.668	1.150745	0.060951	0.060567	191.088	33023.5	0.056611	0.113937	1677.14	89385.1
698	2.000000	1.161033	7.37188e+06	-42189.1	1005.82	-29783.6	0.000000	0.000000	7.171801	248.368	NaN	0.000000	0.001620	0.001800	28.0819	72.6323	0.001754	41417.6	6.098472	171.946	243.537	1.160686	0.070855	0.070507	248.368	41417.6	0.066357	0.149586	1660.37	97839.3
698	2.000000	1.170982	7.37188e+06	-42189.1	1005.82	-29783.6	0.000000	0.000000	7.184566	316.888	NaN	0.000000	0.001542	0.001795	28.0818	81.5762	0.001712	47637.9	4.158502	172.64	313.071	1.170765	0.080804	0.080587	316.888	47637.9	0.075815	0.188543	1680.72	100235
698	2.000000	1.181002	7.37188e+06	-42189.1	1005.82	-29783.6	0.000000	0.000000	7.197180	380.014	NaN	0.000000	0.001562	0.001801	28.0806	89.8979	0.001759	51097.1	1.719677	174.77	374.841	1.180854	0.090823	0.090676	380.014	51097.1	0.085246	0.231574	1641	97011.6
698	2.000000	1.191016	7.37188e+06	-42189.1	1005.82	-29783.6	0.000000	0.000000	7.210426	458.621	NaN	0.000000	0.001614	0.001802	28.0807	98.3245	0.001732	56759.2	3.528064	172.667	454.901	1.190831	0.100838	0.100653	458.621	56759.2	0.094778	0.279245	1642.36	98133.4
698	2.000000	1.192550	7.37188e+06	-42189.1	1005.82	-29783.6	0.000000	0.000000	7.212717	477.054	NaN	0.000000	0.001614	0.001777	28.0808	99.0447	0.001762	56199.8	3.525709	-7.120645	475.06	1.192186	0.102372	0.102007	477.054	56199.8	0.096006	0.285686	1669.86	96064.7