File: remote_trans/data/nanoindenter/0828-1/data/Data_2025-08-06,11h17m57s/2025-07-22_16-23-58_1_752.txt
2025-07-22, 16:23:58, 1
Index	Phase	Displacement	Time	Pos X	Pos Y	Pos Z	Rot A	Rot B	Piezo Z	Force A	Force B	Gripper	Voltage A	Voltage B	Temperature	Amplitude force	Amplitude pos	Stiffness	Phase shift	Phase excitation	Force A raw	Displacement raw	HMax	HMax raw	Real Force	Real Stiffness	Contact Depth	Area	Hardness	Reduced Mod.
[#]	[#]	[um]	[s]	[um]	[um]	[um]	[m°]	[m°]	[um]	[uN]	[uN]	[V]	[V]	[V]	[°C]	[uN]	[um]	[N/m]	[°]	[°]	[uN]	[um]	[um]	[um]	[uN]	[N/m]	[um]	[um^2]	[MPa]	[MPa]
752	1.000000	0.002204	7.37241e+06	-39489.1	1005.82	-29793.5	0.000000	0.000000	6.002775	-0.011481	NaN	0.000000	0.001630	0.001710	28.0847	0.061522	0.000994	61.8987	-100.379	-158.613	-0.092331	0.000940	-1.114481	-1.115745	-0.011481	61.8987	-1.114342	-7.808250E+14	1.470415E-17	NaN
752	1.000000	0.044190	7.37241e+06	-39489.1	1005.82	-29793.5	0.000000	0.000000	6.044758	-0.068328	NaN	0.000000	0.001573	0.001716	28.0841	0.078555	0.002058	38.1764	-88.0816	12.2487	0.017934	0.042755	-1.072495	-1.073930	-0.068328	38.1764	-1.071153	-2.054354E+14	3.325997E-16	NaN
752	1.000000	0.086191	7.37241e+06	-39489.1	1005.82	-29793.5	0.000000	0.000000	6.086764	0.037397	NaN	0.000000	0.001668	0.001689	28.0825	0.067824	0.002091	32.4329	-143.738	-165.722	-0.009641	0.084885	-1.030494	-1.031800	0.037397	32.4329	-1.031359	-5.994525E+13	-6.238585E-16	NaN
752	1.000000	0.128199	7.37241e+06	-39489.1	1005.82	-29793.5	0.000000	0.000000	6.128769	-0.019769	NaN	0.000000	0.001606	0.001702	28.0825	0.031358	0.001969	15.9226	133.334	15.1327	0.044154	0.126801	-0.988486	-0.989884	-0.019769	15.9226	-0.987555	-1.542358E+13	1.281736E-15	NaN
752	1.000000	0.170232	7.37241e+06	-39489.1	1005.82	-29793.6	0.000000	0.000000	6.170802	-0.011569	NaN	0.000000	0.001604	0.001721	28.0828	0.022584	0.001946	11.6055	-129.507	-167.853	0.005067	0.168911	-0.946453	-0.947773	-0.011569	11.6055	-0.945706	-4.208304E+12	2.749152E-15	NaN
752	1.000000	0.212217	7.37241e+06	-39489.1	1005.82	-29793.6	0.000000	0.000000	6.212787	-0.020343	NaN	0.000000	0.001591	0.001718	28.0843	0.071473	0.001925	37.1269	126.436	15.7721	-0.005913	0.210887	-0.904468	-0.905798	-0.020343	37.1269	-0.904057	-1.153153E+12	1.764086E-14	NaN
752	1.000000	0.254276	7.37241e+06	-39489.1	1005.82	-29793.6	0.000000	0.000000	6.254846	-0.034434	NaN	0.000000	0.001614	0.001690	28.0845	0.074895	0.002088	35.863	-160.293	-165.474	-0.032871	0.252891	-0.862409	-0.863794	-0.034434	35.863	-0.861689	-3.083056E+11	1.116891E-13	NaN
752	1.000000	0.296293	7.37241e+06	-39489.1	1005.82	-29793.6	0.000000	0.000000	6.296862	-0.051858	NaN	0.000000	0.001591	0.001671	28.084	0.114930	0.002028	56.6729	-119.023	14.4632	-0.107754	0.294899	-0.820392	-0.821786	-0.051858	56.6729	-0.819705	-8.321737E+10	6.231681E-13	NaN
752	1.000000	0.338271	7.37241e+06	-39489.1	1005.82	-29793.6	0.000000	0.000000	6.338840	-0.050580	NaN	0.000000	0.001591	0.001732	28.0827	0.067124	0.001987	33.7822	-62.9668	-165.77	-0.008993	0.337040	-0.778414	-0.779645	-0.050580	33.7822	-0.777291	-2.210108E+10	2.288588E-12	NaN
752	1.000000	0.380324	7.37241e+06	-39489.1	1005.82	-29793.6	0.000000	0.000000	6.380893	-0.040970	NaN	0.000000	0.001575	0.001717	28.0832	0.097332	0.001982	49.1107	152.059	11.017	0.014096	0.378994	-0.736361	-0.737691	-0.040970	49.1107	-0.735735	-6.011189E+9	6.815670E-12	NaN
752	1.000000	0.422333	7.37241e+06	-39489.1	1005.82	-29793.6	0.000000	0.000000	6.422903	-0.018447	NaN	0.000000	0.001546	0.001709	28.0834	0.086805	0.001919	45.2271	168.851	-165.416	0.045984	0.421047	-0.694352	-0.695638	-0.018447	45.2271	-0.694046	-1.622578E+9	1.136898E-11	NaN
752	1.000000	0.464363	7.37241e+06	-39489.1	1005.82	-29793.6	0.000000	0.000000	6.464931	-0.067018	NaN	0.000000	0.001592	0.001721	28.0833	0.064154	0.002001	32.0687	72.6932	16.9596	-0.047388	0.462951	-0.652322	-0.653734	-0.067018	32.0687	-0.650755	-4.147499E+8	1.615858E-10	NaN
752	1.000000	0.506394	7.37241e+06	-39489.1	1005.82	-29793.6	0.000000	0.000000	6.506963	-0.050408	NaN	0.000000	0.001617	0.001680	28.0846	0.069448	0.001924	36.0962	13.0512	-164.981	0.018360	0.504997	-0.610291	-0.611688	-0.050408	36.0962	-0.609244	-1.116117E+8	4.516388E-10	NaN
752	1.000000	0.548386	7.37241e+06	-39489.1	1005.82	-29793.6	0.000000	0.000000	6.548958	0.023793	NaN	0.000000	0.001577	0.001685	28.0847	0.013332	0.001937	6.881528	147.615	13.8247	-0.011049	0.547008	-0.568299	-0.569677	0.023793	6.881528	-0.570892	-3.303376E+7	-7.202575E-10	NaN
752	1.000000	0.590419	7.37241e+06	-39489.1	1005.82	-29793.6	0.000000	0.000000	6.590987	-0.080175	NaN	0.000000	0.001615	0.001720	28.0847	0.046265	0.001985	23.3126	126.12	-169.362	-0.007449	0.589133	-0.526266	-0.527552	-0.080175	23.3126	-0.523686	-7.32573e+06	1.094436E-8	NaN
752	1.000000	0.632447	7.37241e+06	-39489.1	1005.82	-29793.6	0.000000	0.000000	6.633017	-0.030788	NaN	0.000000	0.001594	0.001712	28.0834	0.078380	0.001911	41.0201	-165.61	12.7178	-0.039248	0.631115	-0.484238	-0.485570	-0.030788	41.0201	-0.483675	-2.02747e+06	1.518546E-8	NaN
752	1.000000	0.674459	7.37241e+06	-39489.1	1005.82	-29793.6	0.000000	0.000000	6.675029	-0.019800	NaN	0.000000	0.001538	0.001703	28.0832	0.035207	0.001934	18.207	135.275	-164.647	-0.009246	0.673203	-0.442226	-0.443482	-0.019800	18.207	-0.441411	-516736	3.831661E-8	NaN
752	1.000000	0.716501	7.37241e+06	-39489.1	1005.82	-29793.6	0.000000	0.000000	6.717068	-0.106225	NaN	0.000000	0.001532	0.001684	28.0829	0.020215	0.001988	10.1675	82.0934	17.2247	-0.082716	0.715097	-0.400184	-0.401588	-0.106225	10.1675	-0.392348	-103931	1.022074E-6	NaN
752	1.000000	0.758469	7.37241e+06	-39489.1	1005.82	-29793.6	0.000000	0.000000	6.759039	-0.048749	NaN	0.000000	0.001592	0.001709	28.0841	0.097654	0.002119	46.0891	57.4336	-167.975	-0.035529	0.757164	-0.358215	-0.359521	-0.048749	46.0891	-0.357422	-32701.1	1.490737E-6	NaN
752	1.000000	0.800481	7.37241e+06	-39489.1	1005.82	-29793.6	0.000000	0.000000	6.801050	-0.055390	NaN	0.000000	0.001625	0.001692	28.0841	0.042430	0.002104	20.1694	-20.4451	12.5944	-0.062710	0.799135	-0.316204	-0.317550	-0.055390	20.1694	-0.314144	-7626.36	7.262971E-6	NaN
752	1.000000	0.842495	7.37241e+06	-39489.1	1005.82	-29793.6	0.000000	0.000000	6.843067	0.019373	NaN	0.000000	0.001590	0.001704	28.0843	0.097971	0.001999	49.0062	155.141	-166.729	-0.081387	0.841208	-0.274190	-0.275477	0.019373	49.0062	-0.274486	-1948.14	-9.944512E-6	NaN
752	1.000000	0.884520	7.37241e+06	-39489.1	1005.82	-29793.6	0.000000	0.000000	6.885089	-0.057764	NaN	0.000000	0.001614	0.001695	28.0831	0.046063	0.001988	23.1653	14.9176	15.9286	-0.063590	0.883199	-0.232165	-0.233486	-0.057764	23.1653	-0.230294	-404.731	0.000143	NaN
752	1.000000	0.926532	7.37241e+06	-39489.1	1005.82	-29793.6	0.000000	0.000000	6.927105	0.036585	NaN	0.000000	0.001604	0.001683	28.0829	0.091791	0.002035	45.1079	122.883	-166.824	0.003366	0.925225	-0.190153	-0.191460	0.036585	45.1079	-0.190761	-92.6258	-0.000395	NaN
752	1.000000	0.968565	7.37241e+06	-39489.1	1005.82	-29793.6	0.000000	0.000000	6.969132	-0.118581	NaN	0.000000	0.001617	0.001708	28.0831	0.058142	0.001963	29.6215	38.5562	13.0474	-0.030495	0.967197	-0.148120	-0.149488	-0.118581	29.6215	-0.145117	-14.7344	0.008048	NaN
752	1.000000	1.010553	7.37241e+06	-39489.1	1005.82	-29793.6	0.000000	0.000000	7.011123	-0.027381	NaN	0.000000	0.001663	0.001690	28.083	0.160224	0.001935	82.8174	-82.2919	-164.312	-0.047484	1.009284	-0.106132	-0.107401	-0.027381	82.8174	-0.105884	-2.455998	0.011149	NaN
752	1.000000	1.052597	7.37241e+06	-39489.1	1005.82	-29793.6	0.000000	0.000000	7.053167	-0.047435	NaN	0.000000	0.001686	0.001669	28.084	0.023134	0.002144	10.7907	96.5622	15.8445	-0.083084	1.051208	-0.064088	-0.065477	-0.047435	10.7907	-0.060791	-0.189723	0.250021	NaN
752	1.000000	1.094574	7.37241e+06	-39489.1	1005.82	-29793.6	0.000000	0.000000	7.095143	-0.033222	NaN	0.000000	0.001694	0.001672	28.0839	0.024645	0.001986	12.4094	-174.493	-165.005	-0.072530	1.093291	-0.022111	-0.023394	-0.033222	12.4094	-0.020103	-0.012637	2.628918	NaN
752	2.000000	1.126754	7.37241e+06	-39489.1	1005.82	-29793.6	0.000000	0.000000	7.127856	12.9047	NaN	0.000000	0.001684	0.001675	28.0841	12.4188	0.001855	6696.02	7.075461	4.356103	12.3472	1.126405	0.010069	0.009720	12.9047	6696.02	0.008624	0.007692	1677.7	69754.8
752	2.000000	1.137171	7.37242e+06	-39489.1	1005.82	-29793.6	0.000000	0.000000	7.139195	35.3548	NaN	0.000000	0.001675	0.001724	28.0829	23.5173	0.001793	13116.8	5.907671	-179.893	34.8991	1.136870	0.020486	0.020185	35.3548	13116.8	0.018464	0.020186	1751.42	84347.7
752	2.000000	1.147738	7.37242e+06	-39489.1	1005.82	-29793.6	0.000000	0.000000	7.151245	71.4468	NaN	0.000000	0.001690	0.001640	28.0829	35.1553	0.001805	19476.9	5.465991	-1.428591	74.5311	1.147301	0.031053	0.030616	71.4468	19476.9	0.028301	0.037297	1915.64	92142.3
752	2.000000	1.158177	7.37242e+06	-39489.1	1005.82	-29793.6	0.000000	0.000000	7.163728	121.189	NaN	0.000000	0.001683	0.001691	28.0828	44.7819	0.001814	24683.3	6.730713	175.435	122.961	1.157760	0.041492	0.041075	121.189	24683.3	0.037810	0.058491	2071.94	93246.6
752	2.000000	1.168638	7.37242e+06	-39489.1	1005.82	-29793.6	0.000000	0.000000	7.176527	178.081	NaN	0.000000	0.001568	0.001665	28.0843	53.994	0.001651	32710.1	7.158366	-7.627480	179.107	1.168161	0.051953	0.051476	178.081	32710.1	0.047870	0.085943	2072.08	101941
752	2.000000	1.179124	7.37242e+06	-39489.1	1005.82	-29793.6	0.000000	0.000000	7.189511	238.868	NaN	0.000000	0.001633	0.001671	28.0842	65.3435	0.001823	35834.9	5.652548	172.469	237.59	1.178859	0.062439	0.062174	238.868	35834.9	0.057440	0.116788	2045.31	95803.2
752	2.000000	1.189613	7.37242e+06	-39489.1	1005.82	-29793.6	0.000000	0.000000	7.202841	308.011	NaN	0.000000	0.001612	0.001687	28.0848	76.3964	0.001830	41742.3	7.589376	-11.0567	306.91	1.189321	0.072928	0.072636	308.011	41742.3	0.067394	0.153649	2004.64	97293.8
752	2.000000	1.200052	7.37242e+06	-39489.1	1005.82	-29793.6	0.000000	0.000000	7.216876	395.518	NaN	0.000000	0.001626	0.001733	28.0829	86.3203	0.001817	47502	7.382115	168.89	394.92	1.199655	0.083367	0.082970	395.518	47502	0.077122	0.194260	2036.03	98467.7
752	2.000000	1.210563	7.37242e+06	-39489.1	1005.82	-29793.6	0.000000	0.000000	7.230709	476.353	NaN	0.000000	0.001636	0.001684	28.0829	96.9865	0.001785	54337.6	5.349552	-10.306	473.853	1.210225	0.093878	0.093540	476.353	54337.6	0.087303	0.241510	1972.4	101020
752	2.000000	1.220934	7.37242e+06	-39489.1	1005.82	-29793.6	0.000000	0.000000	7.245434	582.294	NaN	0.000000	0.001612	0.001707	28.0827	105.73	0.001728	61192.1	3.549049	171.008	575.234	1.220664	0.104249	0.103979	582.294	61192.1	0.097113	0.291553	1997.22	103540
752	2.000000	1.222056	7.37242e+06	-39489.1	1005.82	-29793.6	0.000000	0.000000	7.246862	589.758	NaN	0.000000	0.001586	0.001717	28.0826	105.804	0.001762	60058.9	0.801211	173.964	589.18	1.221768	0.105371	0.105083	589.758	60058.9	0.098006	0.296328	1990.22	100801