File: remote_trans/data/nanoindenter/0828-1/data/Data_2025-08-06,11h17m57s/2025-07-22_16-23-58_1_514.txt
2025-07-22, 16:23:58, 1
Index	Phase	Displacement	Time	Pos X	Pos Y	Pos Z	Rot A	Rot B	Piezo Z	Force A	Force B	Gripper	Voltage A	Voltage B	Temperature	Amplitude force	Amplitude pos	Stiffness	Phase shift	Phase excitation	Force A raw	Displacement raw	HMax	HMax raw	Real Force	Real Stiffness	Contact Depth	Area	Hardness	Reduced Mod.
[#]	[#]	[um]	[s]	[um]	[um]	[um]	[m°]	[m°]	[um]	[uN]	[uN]	[V]	[V]	[V]	[°C]	[uN]	[um]	[N/m]	[°]	[°]	[uN]	[um]	[um]	[um]	[uN]	[N/m]	[um]	[um^2]	[MPa]	[MPa]
514	1.000000	0.001949	7.37008e+06	-51389.1	1005.82	-29752.6	0.000000	0.000000	6.002827	0.147297	NaN	0.000000	0.001542	0.001736	28.081	0.078459	0.001005	78.0819	54.7552	-170.344	0.005849	0.000651	-1.007786	-1.009084	0.147297	78.0819	-1.009201	-3.017397E+13	-4.881596E-15	NaN
514	1.000000	0.039859	7.37008e+06	-51389.1	1005.82	-29752.6	0.000000	0.000000	6.040734	0.056246	NaN	0.000000	0.001630	0.001713	28.0806	0.075884	0.001940	39.1177	23.7635	16.4392	0.047273	0.038505	-0.969876	-0.971230	0.056246	39.1177	-0.970954	-9.215625E+12	-6.103382E-15	NaN
514	1.000000	0.077872	7.37008e+06	-51389.1	1005.82	-29752.6	0.000000	0.000000	6.078747	0.050271	NaN	0.000000	0.001641	0.001763	28.0797	0.127017	0.001911	66.4754	-158.897	-163.741	0.064384	0.076520	-0.931863	-0.933215	0.050271	66.4754	-0.932430	-2.786069E+12	-1.804374E-14	NaN
514	1.000000	0.115906	7.37008e+06	-51389.1	1005.82	-29752.6	0.000000	0.000000	6.116780	0.038145	NaN	0.000000	0.001575	0.001787	28.0794	0.036650	0.001959	18.7088	-37.4318	15.772	0.072315	0.114536	-0.893829	-0.895200	0.038145	18.7088	-0.895358	-8.797103E+11	-4.336075E-14	NaN
514	1.000000	0.153911	7.37008e+06	-51389.1	1005.82	-29752.6	0.000000	0.000000	6.154786	0.053780	NaN	0.000000	0.001537	0.001787	28.0794	0.041122	0.002045	20.109	-1.058577	-164.769	0.068218	0.152554	-0.855824	-0.857181	0.053780	20.109	-0.857830	-2.733653E+11	-1.967321E-13	NaN
514	1.000000	0.191913	7.37008e+06	-51389.1	1005.82	-29752.6	0.000000	0.000000	6.192789	0.106547	NaN	0.000000	0.001594	0.001803	28.0794	0.147767	0.001948	75.8366	-136.879	13.7284	0.073969	0.190581	-0.817822	-0.819154	0.106547	75.8366	-0.818876	-8.109003E+10	-1.313929E-12	NaN
514	1.000000	0.229943	7.37008e+06	-51389.1	1005.82	-29752.6	0.000000	0.000000	6.230818	0.048803	NaN	0.000000	0.001558	0.001781	28.0808	0.053990	0.001964	27.4894	-59.8047	-167.518	0.035006	0.228651	-0.779792	-0.781084	0.048803	27.4894	-0.781123	-2.491683E+10	-1.958655E-12	NaN
514	1.000000	0.267974	7.37008e+06	-51389.1	1005.82	-29752.6	0.000000	0.000000	6.268847	0.012305	NaN	0.000000	0.001569	0.001798	28.0806	0.083513	0.002062	40.5084	48.0353	12.8614	-0.054564	0.266592	-0.741761	-0.743143	0.012305	40.5084	-0.741989	-7.313777E+9	-1.682466E-12	NaN
514	1.000000	0.305958	7.37008e+06	-51389.1	1005.82	-29752.6	0.000000	0.000000	6.306834	0.093497	NaN	0.000000	0.001540	0.001804	28.0806	0.044390	0.002013	22.0502	173.025	-163.012	0.089127	0.304646	-0.703777	-0.705089	0.093497	22.0502	-0.706957	-2.435111E+9	-3.839548E-11	NaN
514	1.000000	0.344015	7.37008e+06	-51389.1	1005.82	-29752.6	0.000000	0.000000	6.344891	0.088889	NaN	0.000000	0.001561	0.001800	28.0805	0.097999	0.002006	48.8643	144.039	11.0028	0.122872	0.342587	-0.665720	-0.667148	0.088889	48.8643	-0.667084	-6.941890E+8	-1.280470E-10	NaN
514	1.000000	0.382005	7.37008e+06	-51389.1	1005.82	-29752.6	0.000000	0.000000	6.382880	0.067573	NaN	0.000000	0.001537	0.001749	28.0794	0.106916	0.002017	53.0057	161.654	-163.229	0.126042	0.380695	-0.627730	-0.629040	0.067573	53.0057	-0.628686	-2.065286E+8	-3.271852E-10	NaN
514	1.000000	0.420035	7.37008e+06	-51389.1	1005.82	-29752.6	0.000000	0.000000	6.420912	0.107639	NaN	0.000000	0.001576	0.001759	28.0795	0.143164	0.001971	72.6452	-44.6462	19.5617	0.063918	0.418683	-0.589700	-0.591052	0.107639	72.6452	-0.590811	-6.220839E+7	-1.730299E-9	NaN
514	1.000000	0.458069	7.37008e+06	-51389.1	1005.82	-29752.6	0.000000	0.000000	6.458943	0.061143	NaN	0.000000	0.001550	0.001744	28.0792	0.003720	0.002002	1.858648	-149.229	-162.822	0.020502	0.456725	-0.551666	-0.553010	0.061143	1.858648	-0.576339	-3.928099E+7	-1.556544E-9	NaN
514	1.000000	0.496053	7.37008e+06	-51389.1	1005.82	-29752.6	0.000000	0.000000	6.496928	0.057442	NaN	0.000000	0.001576	0.001744	28.0808	0.068816	0.001922	35.8108	-156.5	16.4253	0.041685	0.494722	-0.513682	-0.515013	0.057442	35.8108	-0.514885	-5.52622e+06	-1.039449E-8	NaN
514	1.000000	0.534097	7.37008e+06	-51389.1	1005.82	-29752.6	0.000000	0.000000	6.534971	0.051563	NaN	0.000000	0.001603	0.001735	28.0803	0.116637	0.001919	60.7806	126.213	-163.975	-0.058360	0.532784	-0.475638	-0.476951	0.051563	60.7806	-0.476275	-1.59719e+06	-3.228333E-8	NaN
514	1.000000	0.572098	7.37008e+06	-51389.1	1005.82	-29752.6	0.000000	0.000000	6.572973	0.082683	NaN	0.000000	0.001628	0.001796	28.0805	0.087145	0.001996	43.6658	133.547	16.7366	0.054643	0.570725	-0.437637	-0.439010	0.082683	43.6658	-0.439057	-478695	-1.727253E-7	NaN
514	1.000000	0.610100	7.37008e+06	-51389.1	1005.82	-29752.6	0.000000	0.000000	6.610975	0.075520	NaN	0.000000	0.001619	0.001733	28.0805	0.102597	0.001989	51.5784	-101.712	-163.131	0.089549	0.608784	-0.399635	-0.400951	0.075520	51.5784	-0.400733	-136915	-5.515827E-7	NaN
514	1.000000	0.648103	7.37008e+06	-51389.1	1005.82	-29752.6	0.000000	0.000000	6.648976	0.011907	NaN	0.000000	0.001581	0.001732	28.0797	0.091627	0.002081	44.0317	19.6146	18.0512	0.029810	0.646814	-0.361632	-0.362921	0.011907	44.0317	-0.361835	-37875.3	-3.143750E-7	NaN
514	1.000000	0.686137	7.37008e+06	-51389.1	1005.82	-29752.6	0.000000	0.000000	6.687009	-0.025894	NaN	0.000000	0.001598	0.001735	28.0798	0.044629	0.002139	20.8604	-141.393	-165.801	-0.043907	0.684832	-0.323598	-0.324903	-0.025894	20.8604	-0.322667	-10182.7	2.542923E-6	NaN
514	1.000000	0.724154	7.37008e+06	-51389.1	1005.82	-29752.6	0.000000	0.000000	6.725027	0.007169	NaN	0.000000	0.001576	0.001742	28.0793	0.106327	0.001906	55.7932	170.689	14.1528	-0.060242	0.722888	-0.285581	-0.286847	0.007169	55.7932	-0.285677	-2873.72	-2.494654E-6	NaN
514	1.000000	0.762203	7.37008e+06	-51389.1	1005.82	-29752.6	0.000000	0.000000	6.763075	-0.007872	NaN	0.000000	0.001588	0.001759	28.0842	0.138432	0.001931	71.7023	-61.2594	-167.638	0.078479	0.760817	-0.247532	-0.248918	-0.007872	71.7023	-0.247450	-750.715	1.048593E-5	NaN
514	1.000000	0.800184	7.37008e+06	-51389.1	1005.82	-29752.6	0.000000	0.000000	6.801057	0.034777	NaN	0.000000	0.001602	0.001736	28.0804	0.057825	0.001878	30.7976	128.827	18.0198	0.000964	0.798819	-0.209551	-0.210916	0.034777	30.7976	-0.210398	-194.655	-0.000179	NaN
514	1.000000	0.838198	7.37008e+06	-51389.1	1005.82	-29752.6	0.000000	0.000000	6.839073	0.057708	NaN	0.000000	0.001570	0.001744	28.0808	0.085205	0.002124	40.1134	-166.358	-164.059	0.133846	0.836903	-0.171537	-0.172832	0.057708	40.1134	-0.172616	-45.5938	-0.001266	NaN
514	1.000000	0.876205	7.37008e+06	-51389.1	1005.82	-29752.6	0.000000	0.000000	6.877081	0.079405	NaN	0.000000	0.001529	0.001689	28.0808	0.065484	0.001983	33.0304	57.7004	15.1554	0.111373	0.874814	-0.133530	-0.134921	0.079405	33.0304	-0.135333	-9.652437	-0.008226	NaN
514	1.000000	0.914218	7.37008e+06	-51389.1	1005.82	-29752.6	0.000000	0.000000	6.915089	-0.029610	NaN	0.000000	0.001544	0.001678	28.0796	0.057897	0.002050	28.2369	121.248	-162.649	-0.051501	0.912945	-0.095517	-0.096790	-0.029610	28.2369	-0.094730	-1.390811	0.021290	NaN
514	1.000000	0.952217	7.37008e+06	-51389.1	1005.82	-29752.6	0.000000	0.000000	6.953090	0.018257	NaN	0.000000	0.001573	0.001698	28.0796	0.013523	0.002014	6.715812	-51.7637	14.3275	0.028493	0.950872	-0.057518	-0.058863	0.018257	6.715812	-0.059557	-0.174894	-0.104390	NaN
514	1.000000	0.990231	7.37008e+06	-51389.1	1005.82	-29752.6	0.000000	0.000000	6.991108	0.125393	NaN	0.000000	0.001572	0.001689	28.0795	0.051933	0.001916	27.1016	-14.873	-165.275	0.036930	0.988937	-0.019504	-0.020798	0.125393	27.1016	-0.022974	-0.014954	-8.385322	NaN
514	2.000000	1.018289	7.37008e+06	-51389.1	1005.82	-29752.6	0.000000	0.000000	7.019713	13.4149	NaN	0.000000	0.001651	0.001690	28.0793	11.9828	0.001598	7497.05	6.388622	6.642928	13.3234	1.017986	0.008554	0.008251	13.4149	7497.05	0.007212	0.006245	2148.22	86678
514	2.000000	1.027804	7.37008e+06	-51389.1	1005.82	-29752.6	0.000000	0.000000	7.029941	30.7425	NaN	0.000000	0.001612	0.001681	28.0804	21.5261	0.001829	11767	10.8073	179.791	31.1386	1.027393	0.018069	0.017658	30.7425	11767	0.016110	0.016794	1830.57	82958.9
514	2.000000	1.037207	7.37008e+06	-51389.1	1005.82	-29752.6	0.000000	0.000000	7.040459	57.8686	NaN	0.000000	0.001597	0.001670	28.0806	29.65	0.001785	16608.1	6.050625	1.070075	55.3983	1.036839	0.027472	0.027104	57.8686	16608.1	0.024859	0.030760	1881.31	86517
514	2.000000	1.046715	7.37008e+06	-51389.1	1005.82	-29752.6	0.000000	0.000000	7.051253	89.1281	NaN	0.000000	0.001587	0.001669	28.0809	39.9185	0.001851	21569.3	3.644026	179.352	88.8845	1.046445	0.036980	0.036710	89.1281	21569.3	0.033881	0.049173	1812.55	88868.4
514	2.000000	1.056229	7.37008e+06	-51389.1	1005.82	-29752.6	0.000000	0.000000	7.062298	126.376	NaN	0.000000	0.001635	0.001674	28.0798	48.9931	0.001657	29564.4	6.573485	-5.716579	126.938	1.055789	0.046494	0.046054	126.376	29564.4	0.043288	0.072801	1735.91	100109
514	2.000000	1.065653	7.37008e+06	-51389.1	1005.82	-29752.6	0.000000	0.000000	7.073885	178.962	NaN	0.000000	0.001699	0.001695	28.0795	58.9181	0.001884	31267.4	7.547253	172.916	177.733	1.065248	0.055918	0.055513	178.962	31267.4	0.051626	0.097505	1835.42	91485.6
514	2.000000	1.075118	7.37008e+06	-51389.1	1005.82	-29752.6	0.000000	0.000000	7.085511	231.52	NaN	0.000000	0.001685	0.001670	28.0794	65.2136	0.001714	38040.6	2.507511	-3.832583	227.158	1.074771	0.065383	0.065036	231.52	38040.6	0.060818	0.128760	1798.08	96857
514	2.000000	1.084682	7.37008e+06	-51389.1	1005.82	-29752.6	0.000000	0.000000	7.097563	291.989	NaN	0.000000	0.001668	0.001716	28.0796	75.3089	0.001838	40976.7	5.045219	173.27	294.392	1.084307	0.074947	0.074572	291.989	40976.7	0.069603	0.162477	1797.11	92878.4
514	2.000000	1.094157	7.37009e+06	-51389.1	1005.82	-29752.6	0.000000	0.000000	7.109898	361.545	NaN	0.000000	0.001591	0.001730	28.0809	81.8041	0.001739	47043.1	6.497388	-9.020112	358.371	1.093768	0.084422	0.084033	361.545	47043.1	0.078658	0.201080	1798.02	95848.3
514	2.000000	1.103558	7.37009e+06	-51389.1	1005.82	-29752.6	0.000000	0.000000	7.122041	428.241	NaN	0.000000	0.001589	0.001711	28.0818	89.9324	0.001747	51490	1.992326	174.703	424.877	1.103314	0.093823	0.093579	428.241	51490	0.087585	0.242886	1763.13	95454.1
514	2.000000	1.113119	7.37009e+06	-51389.1	1005.82	-29752.6	0.000000	0.000000	7.134612	501.408	NaN	0.000000	0.001603	0.001691	28.081	99.156	0.001835	54041.4	1.366740	-5.386481	498.727	1.112807	0.103384	0.103072	501.408	54041.4	0.096426	0.287904	1741.58	92018.6
514	2.000000	1.113520	7.37009e+06	-51389.1	1005.82	-29752.6	0.000000	0.000000	7.135327	509.049	NaN	0.000000	0.001592	0.001686	28.0808	98.0312	0.001743	56238.1	-1.160597	176.991	503.566	1.113317	0.103785	0.103582	509.049	56238.1	0.096996	0.290934	1749.71	95259.1