File: remote_trans/data/nanoindenter/0828-1/data/Data_2025-08-06,11h17m57s/2025-07-22_16-23-58_1_1012.txt
2025-07-22, 16:23:58, 1
Index	Phase	Displacement	Time	Pos X	Pos Y	Pos Z	Rot A	Rot B	Piezo Z	Force A	Force B	Gripper	Voltage A	Voltage B	Temperature	Amplitude force	Amplitude pos	Stiffness	Phase shift	Phase excitation	Force A raw	Displacement raw	HMax	HMax raw	Real Force	Real Stiffness	Contact Depth	Area	Hardness	Reduced Mod.
[#]	[#]	[um]	[s]	[um]	[um]	[um]	[m°]	[m°]	[um]	[uN]	[uN]	[V]	[V]	[V]	[°C]	[uN]	[um]	[N/m]	[°]	[°]	[uN]	[um]	[um]	[um]	[uN]	[N/m]	[um]	[um^2]	[MPa]	[MPa]
1012	1.000000	0.002382	7.37495e+06	-50739.1	1055.82	-29754.7	0.000000	0.000000	6.002806	-0.048441	NaN	0.000000	0.001576	0.001693	28.0843	0.010719	0.001088	9.848146	-77.9941	-164.893	0.010245	0.001108	-1.045955	-1.047228	-0.048441	9.848146	-1.042266	-8.403037E+13	5.764645E-16	NaN
1012	1.000000	0.042336	7.37495e+06	-50739.1	1055.82	-29754.7	0.000000	0.000000	6.042763	0.015336	NaN	0.000000	0.001559	0.001696	28.085	0.033392	0.002002	16.6803	10.3445	-166.242	-0.024333	0.041040	-1.006000	-1.007297	0.015336	16.6803	-1.006690	-2.791435E+13	-5.493849E-16	NaN
1012	1.000000	0.082300	7.37495e+06	-50739.1	1055.82	-29754.7	0.000000	0.000000	6.082723	-0.084586	NaN	0.000000	0.001559	0.001640	28.083	0.059787	0.002086	28.663	150.253	-167.785	-0.121795	0.081069	-0.966037	-0.967268	-0.084586	28.663	-0.963823	-7.386014E+12	1.145222E-14	NaN
1012	1.000000	0.122342	7.37495e+06	-50739.1	1055.82	-29754.7	0.000000	0.000000	6.122768	-0.005781	NaN	0.000000	0.001555	0.001666	28.0829	0.043556	0.002040	21.3515	-90.383	-166.508	0.036717	0.121060	-0.925995	-0.927277	-0.005781	21.3515	-0.925792	-2.266704E+12	2.550200E-15	NaN
1012	1.000000	0.162384	7.37495e+06	-50739.1	1055.82	-29754.7	0.000000	0.000000	6.162809	-0.028685	NaN	0.000000	0.001617	0.001663	28.083	0.014483	0.002037	7.110435	30.6489	-165.533	-0.006070	0.161057	-0.885953	-0.887280	-0.028685	7.110435	-0.882927	-5.974311E+11	4.801415E-14	NaN
1012	1.000000	0.202354	7.37495e+06	-50739.1	1055.82	-29754.7	0.000000	0.000000	6.202780	-0.007389	NaN	0.000000	0.001584	0.001687	28.0839	0.052136	0.002010	25.9318	-127.392	-167.508	-0.097059	0.201080	-0.845982	-0.847257	-0.007389	25.9318	-0.845769	-1.876873E+11	3.936625E-14	NaN
1012	1.000000	0.242398	7.37495e+06	-50739.1	1055.82	-29754.7	0.000000	0.000000	6.242820	-0.101627	NaN	0.000000	0.001544	0.001681	28.0841	0.121729	0.001949	62.4448	-85.5452	-166.179	-0.072280	0.241084	-0.805939	-0.807252	-0.101627	62.4448	-0.804718	-5.210781E+10	1.950318E-12	NaN
1012	1.000000	0.282438	7.37495e+06	-50739.1	1055.82	-29754.7	0.000000	0.000000	6.282862	-0.056107	NaN	0.000000	0.001525	0.001682	28.0839	0.048060	0.002126	22.6108	22.4196	-162.487	-0.012770	0.281125	-0.765899	-0.767212	-0.056107	22.6108	-0.764037	-1.459562E+10	3.844092E-12	NaN
1012	1.000000	0.322428	7.37495e+06	-50739.1	1055.82	-29754.7	0.000000	0.000000	6.322853	-0.012993	NaN	0.000000	0.001607	0.001667	28.0838	0.076590	0.002032	37.6874	161.104	-164.672	-0.065007	0.321095	-0.725909	-0.727241	-0.012993	37.6874	-0.725650	-4.380443E+9	2.966101E-12	NaN
1012	1.000000	0.362457	7.37495e+06	-50739.1	1055.82	-29754.7	0.000000	0.000000	6.362881	-0.047367	NaN	0.000000	0.001617	0.001718	28.0829	0.115956	0.001956	59.2705	48.1895	-164.484	-0.088263	0.361168	-0.685880	-0.687169	-0.047367	59.2705	-0.685280	-1.231415E+9	3.846574E-11	NaN
1012	1.000000	0.402479	7.37495e+06	-50739.1	1055.82	-29754.7	0.000000	0.000000	6.402900	-0.131569	NaN	0.000000	0.001632	0.001718	28.083	0.011977	0.001898	6.310492	-106.723	-162.597	-0.191040	0.401153	-0.645858	-0.647184	-0.131569	6.310492	-0.630221	-2.167991E+8	6.068729E-10	NaN
1012	1.000000	0.442470	7.37495e+06	-50739.1	1055.82	-29754.7	0.000000	0.000000	6.442893	-0.089962	NaN	0.000000	0.001620	0.001692	28.0831	0.123785	0.002007	61.6741	-149.592	-165.649	-0.146373	0.441180	-0.605866	-0.607156	-0.089962	61.6741	-0.604772	-9.686583E+7	9.287261E-10	NaN
1012	1.000000	0.482508	7.37495e+06	-50739.1	1055.82	-29754.7	0.000000	0.000000	6.482931	-0.091240	NaN	0.000000	0.001609	0.001716	28.0843	0.081802	0.001980	41.3122	-41.9213	-166.52	-0.079704	0.481199	-0.565828	-0.567137	-0.091240	41.3122	-0.564172	-2.667328E+7	3.420634E-9	NaN
1012	1.000000	0.522533	7.37495e+06	-50739.1	1055.82	-29754.7	0.000000	0.000000	6.522958	-0.024129	NaN	0.000000	0.001634	0.001741	28.0839	0.018308	0.002100	8.719603	-40.4007	-164.789	-0.094425	0.521199	-0.525804	-0.527138	-0.024129	8.719603	-0.523729	-7.33568e+06	3.289326E-9	NaN
1012	1.000000	0.562560	7.37495e+06	-50739.1	1055.82	-29754.7	0.000000	0.000000	6.562981	-0.122805	NaN	0.000000	0.001603	0.001721	28.0842	0.014920	0.002187	6.821437	120.378	-163.577	-0.095256	0.561244	-0.485777	-0.487093	-0.122805	6.821437	-0.472275	-1.4038e+06	8.748033E-8	NaN
1012	1.000000	0.602539	7.37495e+06	-50739.1	1055.82	-29754.7	0.000000	0.000000	6.602961	-0.091583	NaN	0.000000	0.001554	0.001706	28.0833	0.011637	0.001935	6.014216	26.1018	-166.448	-0.109010	0.601235	-0.445798	-0.447102	-0.091583	6.014216	-0.434377	-411101	2.227754E-7	NaN
1012	1.000000	0.642566	7.37495e+06	-50739.1	1055.82	-29754.7	0.000000	0.000000	6.642987	-0.127590	NaN	0.000000	0.001536	0.001711	28.0833	0.018489	0.002046	9.036017	11.4263	-166.015	-0.004817	0.641239	-0.405771	-0.407098	-0.127590	9.036017	-0.395181	-114082	1.118405E-6	NaN
1012	1.000000	0.682591	7.37495e+06	-50739.1	1055.82	-29754.7	0.000000	0.000000	6.683015	-0.064157	NaN	0.000000	0.001531	0.001745	28.083	0.054839	0.001959	27.9945	-21.7891	-166.328	-0.025155	0.681272	-0.365746	-0.367064	-0.064157	27.9945	-0.364027	-40739.1	1.574833E-6	NaN
1012	1.000000	0.722614	7.37495e+06	-50739.1	1055.82	-29754.7	0.000000	0.000000	6.723040	0.002891	NaN	0.000000	0.001555	0.001707	28.0829	0.039762	0.002093	18.9961	-121.651	-168.559	0.002625	0.721369	-0.325723	-0.326967	0.002891	18.9961	-0.325837	-11335.1	-2.550231E-7	NaN
1012	1.000000	0.762618	7.37495e+06	-50739.1	1055.82	-29754.7	0.000000	0.000000	6.763043	-0.044346	NaN	0.000000	0.001555	0.001682	28.0844	0.011526	0.002005	5.747813	81.2312	-163.664	-0.056436	0.761322	-0.285718	-0.287015	-0.044346	5.747813	-0.279932	-2354.73	1.883265E-5	NaN
1012	1.000000	0.802636	7.37495e+06	-50739.1	1055.82	-29754.7	0.000000	0.000000	6.803062	-0.022709	NaN	0.000000	0.001592	0.001720	28.0842	0.067211	0.001974	34.0519	-171.245	-165.279	0.002977	0.801285	-0.245700	-0.247051	-0.022709	34.0519	-0.245200	-692.726	3.278237E-5	NaN
1012	1.000000	0.842660	7.37495e+06	-50739.1	1055.82	-29754.7	0.000000	0.000000	6.843085	-0.029410	NaN	0.000000	0.001582	0.001715	28.0843	0.055616	0.001952	28.4895	168.105	-166.574	-0.056604	0.841360	-0.205676	-0.206977	-0.029410	28.4895	-0.204902	-158.474	0.000186	NaN
1012	1.000000	0.882668	7.37495e+06	-50739.1	1055.82	-29754.7	0.000000	0.000000	6.883088	-0.135770	NaN	0.000000	0.001586	0.001705	28.0827	0.050514	0.001956	25.8276	77.4941	-164.993	-0.099748	0.881336	-0.165669	-0.167001	-0.135770	25.8276	-0.161727	-29.4173	0.004615	NaN
1012	1.000000	0.922680	7.37495e+06	-50739.1	1055.82	-29754.7	0.000000	0.000000	6.923103	-0.075595	NaN	0.000000	0.001582	0.001748	28.0828	0.104529	0.002102	49.7377	-144.134	-166.81	-0.002397	0.921359	-0.125657	-0.126978	-0.075595	49.7377	-0.124517	-5.948798	0.012708	NaN
1012	1.000000	0.962724	7.37495e+06	-50739.1	1055.82	-29754.7	0.000000	0.000000	6.963149	-0.037555	NaN	0.000000	0.001551	0.001698	28.0827	0.089336	0.001969	45.3603	122.994	-165.521	-0.017390	0.961382	-0.085613	-0.086955	-0.037555	45.3603	-0.084992	-0.821258	0.045729	NaN
1012	1.000000	1.002702	7.37495e+06	-50739.1	1055.82	-29754.7	0.000000	0.000000	7.003124	-0.109976	NaN	0.000000	0.001541	0.001687	28.0827	0.049987	0.001998	25.0172	61.9624	-166.578	-0.142496	1.001446	-0.045635	-0.046891	-0.109976	25.0172	-0.042338	-0.053282	2.064031	NaN
1012	1.000000	1.042751	7.37495e+06	-50739.1	1055.82	-29754.7	0.000000	0.000000	7.043174	-0.080264	NaN	0.000000	0.001543	0.001702	28.0838	0.058664	0.001923	30.5084	-46.836	-167.399	-0.034930	1.041464	-0.005586	-0.006873	-0.080264	30.5084	-0.003613	-0.002526	31.7704	NaN
1012	2.000000	1.060293	7.37495e+06	-50739.1	1055.82	-29754.7	0.000000	0.000000	7.061507	19.1517	NaN	0.000000	0.001550	0.001687	28.084	16.35	0.001707	9575.74	3.078529	-172.564	18.0754	1.059879	0.011956	0.011542	19.1517	9575.74	0.010456	0.009693	1975.8	88861.5
1012	2.000000	1.070257	7.37495e+06	-50739.1	1055.82	-29754.7	0.000000	0.000000	7.072363	40.8412	NaN	0.000000	0.001561	0.001666	28.0841	27.1806	0.001789	15190.5	5.685566	-178.067	41.198	1.069979	0.021920	0.021642	40.8412	15190.5	0.019904	0.022391	1823.97	92748
1012	2.000000	1.080197	7.37495e+06	-50739.1	1055.82	-29754.7	0.000000	0.000000	7.083604	72.487	NaN	0.000000	0.001583	0.001686	28.0828	38.1321	0.001817	20981.8	4.984683	178.542	71.5041	1.079989	0.031860	0.031652	72.487	20981.8	0.029269	0.039243	1847.14	96768.7
1012	2.000000	1.090141	7.37495e+06	-50739.1	1055.82	-29754.7	0.000000	0.000000	7.095275	114.491	NaN	0.000000	0.001573	0.001739	28.0829	47.7236	0.001814	26309.2	3.111794	179.411	112.582	1.089891	0.041804	0.041555	114.491	26309.2	0.038540	0.060310	1898.38	97878.3
1012	2.000000	1.100186	7.37495e+06	-50739.1	1055.82	-29754.7	0.000000	0.000000	7.107083	157.339	NaN	0.000000	0.001575	0.001746	28.083	56.1837	0.001833	30648.5	4.533404	176.916	155.699	1.099888	0.051850	0.051552	157.339	30648.5	0.048000	0.086330	1822.52	95301.7
1012	2.000000	1.110226	7.37495e+06	-50739.1	1055.82	-29754.7	0.000000	0.000000	7.119226	208.503	NaN	0.000000	0.001589	0.001710	28.0844	64.6794	0.001806	35814	3.364909	176.509	208.807	1.109887	0.061889	0.061551	208.503	35814	0.057523	0.117075	1780.94	95630.1
1012	2.000000	1.120196	7.37495e+06	-50739.1	1055.82	-29754.7	0.000000	0.000000	7.131650	268.183	NaN	0.000000	0.001577	0.001715	28.0842	74.1861	0.001698	43701.9	2.118411	176.518	270.733	1.119852	0.071859	0.071515	268.183	43701.9	0.067257	0.153107	1751.6	102041
1012	2.000000	1.130088	7.37495e+06	-50739.1	1055.82	-29754.7	0.000000	0.000000	7.144235	333.648	NaN	0.000000	0.001594	0.001740	28.0843	83.2591	0.001843	45184.6	3.069898	174.724	327.959	1.129802	0.081752	0.081466	333.648	45184.6	0.076214	0.190278	1753.47	94638.8
1012	2.000000	1.140283	7.37495e+06	-50739.1	1055.82	-29754.7	0.000000	0.000000	7.157310	403.68	NaN	0.000000	0.001548	0.001745	28.084	92.5577	0.001777	52095.9	4.460199	173.394	407.514	1.139832	0.091947	0.091495	403.68	52095.9	0.086135	0.235846	1711.63	98008.3
1012	2.000000	1.150218	7.37495e+06	-50739.1	1055.82	-29754.7	0.000000	0.000000	7.170467	482.025	NaN	0.000000	0.001535	0.001745	28.0829	103.401	0.001937	53390.4	3.808431	173.324	485.23	1.149831	0.101882	0.101494	482.025	53390.4	0.095111	0.280982	1715.5	92023.1
1012	2.000000	1.151038	7.37495e+06	-50739.1	1055.82	-29754.7	0.000000	0.000000	7.171820	494.996	NaN	0.000000	0.001564	0.001742	28.083	103.428	0.001828	56568.9	4.751672	172.198	489.165	1.150672	0.102701	0.102335	494.996	56568.9	0.096139	0.286388	1728.41	96577.1