File: remote_trans/data/nanoindenter/0828-1/data/Data_2025-08-06,11h17m57s/2025-07-22_16-23-58_1_368.txt
2025-07-22, 16:23:58, 1
Index	Phase	Displacement	Time	Pos X	Pos Y	Pos Z	Rot A	Rot B	Piezo Z	Force A	Force B	Gripper	Voltage A	Voltage B	Temperature	Amplitude force	Amplitude pos	Stiffness	Phase shift	Phase excitation	Force A raw	Displacement raw	HMax	HMax raw	Real Force	Real Stiffness	Contact Depth	Area	Hardness	Reduced Mod.
[#]	[#]	[um]	[s]	[um]	[um]	[um]	[m°]	[m°]	[um]	[uN]	[uN]	[V]	[V]	[V]	[°C]	[uN]	[um]	[N/m]	[°]	[°]	[uN]	[um]	[um]	[um]	[uN]	[N/m]	[um]	[um^2]	[MPa]	[MPa]
368	1.000000	0.002616	7.36866e+06	-57039.1	955.818	-29737.8	0.000000	0.000000	6.002836	0.127522	NaN	0.000000	0.001642	0.001712	28.0804	0.028653	0.000946	30.3012	-20.7217	-172.479	0.129175	0.001406	-1.107669	-1.108879	0.127522	30.3012	-1.110825	-7.004278E+14	-1.820627E-16	NaN
368	1.000000	0.044567	7.36866e+06	-57039.1	955.819	-29737.8	0.000000	0.000000	6.044783	0.041412	NaN	0.000000	0.001629	0.001778	28.0805	0.045742	0.001995	22.9314	109.482	14.1338	-0.010522	0.043190	-1.065718	-1.067095	0.041412	22.9314	-1.067073	-1.810745E+14	-2.287008E-16	NaN
368	1.000000	0.086553	7.36866e+06	-57039.1	955.818	-29737.8	0.000000	0.000000	6.086770	0.058925	NaN	0.000000	0.001665	0.001716	28.0816	0.098371	0.001959	50.2061	92.1903	-162.805	0.071195	0.085243	-1.023732	-1.025042	0.058925	50.2061	-1.024612	-4.864062E+13	-1.211435E-15	NaN
368	1.000000	0.128599	7.36866e+06	-57039.1	955.819	-29737.8	0.000000	0.000000	6.128812	-0.014051	NaN	0.000000	0.001652	0.001741	28.0815	0.107886	0.001935	55.7416	131.027	14.6505	-0.017575	0.127244	-0.981687	-0.983041	-0.014051	55.7416	-0.981497	-1.278157E+13	1.099291E-15	NaN
368	1.000000	0.170602	7.36866e+06	-57039.1	955.818	-29737.8	0.000000	0.000000	6.170817	0.020604	NaN	0.000000	0.001676	0.001800	28.082	0.056857	0.002180	26.0816	151.716	-168.157	0.034805	0.169297	-0.939684	-0.940988	0.020604	26.0816	-0.940276	-3.555173E+12	-5.795476E-15	NaN
368	1.000000	0.212615	7.36866e+06	-57039.1	955.819	-29737.8	0.000000	0.000000	6.212827	-0.049937	NaN	0.000000	0.001602	0.001737	28.0819	0.059837	0.001999	29.927	107.694	15.4154	-0.048083	0.211242	-0.897670	-0.899043	-0.049937	29.927	-0.896419	-9.092276E+11	5.492278E-14	NaN
368	1.000000	0.254611	7.36866e+06	-57039.1	955.818	-29737.8	0.000000	0.000000	6.254826	0.039130	NaN	0.000000	0.001592	0.001764	28.0803	0.066526	0.002104	31.6124	-140.219	-165.768	0.066336	0.253300	-0.855675	-0.856985	0.039130	31.6124	-0.856603	-2.631095E+11	-1.487208E-13	NaN
368	1.000000	0.296658	7.36866e+06	-57039.1	955.818	-29737.8	0.000000	0.000000	6.296874	0.037414	NaN	0.000000	0.001625	0.001742	28.0803	0.049337	0.001977	24.9604	-46.4475	14.6271	0.114125	0.295278	-0.813627	-0.815007	0.037414	24.9604	-0.814751	-7.128901E+10	-5.248173E-13	NaN
368	1.000000	0.338682	7.36866e+06	-57039.1	955.818	-29737.8	0.000000	0.000000	6.338897	0.034630	NaN	0.000000	0.001630	0.001753	28.0803	0.074422	0.001968	37.811	167.544	-163.752	-0.084569	0.337348	-0.771603	-0.772937	0.034630	37.811	-0.772290	-1.889923E+10	-1.832348E-12	NaN
368	1.000000	0.380672	7.36866e+06	-57039.1	955.818	-29737.8	0.000000	0.000000	6.380887	0.009065	NaN	0.000000	0.001591	0.001739	28.0816	0.027547	0.001920	14.3455	179.29	17.3847	-0.030046	0.379334	-0.729613	-0.730951	0.009065	14.3455	-0.730087	-5.034951E+9	-1.800481E-12	NaN
368	1.000000	0.422716	7.36866e+06	-57039.1	955.818	-29737.8	0.000000	0.000000	6.422931	-0.000255	NaN	0.000000	0.001608	0.001733	28.0816	0.137321	0.001990	68.9889	-62.4589	-164.851	0.044039	0.421363	-0.687569	-0.688922	-0.000255	68.9889	-0.687566	-1.323280E+9	1.925541E-13	NaN
368	1.000000	0.464701	7.36866e+06	-57039.1	955.818	-29737.8	0.000000	0.000000	6.464916	0.024826	NaN	0.000000	0.001620	0.001753	28.0819	0.041378	0.002001	20.6804	25.9232	12.2594	0.087948	0.463318	-0.645584	-0.646967	0.024826	20.6804	-0.646484	-3.624393E+8	-6.849773E-11	NaN
368	1.000000	0.506729	7.36866e+06	-57039.1	955.819	-29737.8	0.000000	0.000000	6.506946	0.055070	NaN	0.000000	0.001630	0.001749	28.08	0.072199	0.001987	36.3439	125.626	-164.56	-0.065488	0.505412	-0.603556	-0.604873	0.055070	36.3439	-0.604692	-9.662065E+7	-5.699659E-10	NaN
368	1.000000	0.548733	7.36866e+06	-57039.1	955.819	-29737.8	0.000000	0.000000	6.548948	0.015228	NaN	0.000000	0.001639	0.001717	28.0801	0.072919	0.001967	37.0739	-19.4684	13.1269	0.008890	0.547377	-0.561552	-0.562908	0.015228	37.0739	-0.561860	-2.478011E+7	-6.145251E-10	NaN
368	1.000000	0.590767	7.36866e+06	-57039.1	955.818	-29737.8	0.000000	0.000000	6.590983	0.031532	NaN	0.000000	0.001672	0.001772	28.0799	0.084095	0.001911	43.9977	113.894	-163.536	0.106489	0.589467	-0.519518	-0.520818	0.031532	43.9977	-0.520055	-6.52182e+06	-4.834915E-9	NaN
368	1.000000	0.632769	7.36866e+06	-57039.1	955.818	-29737.8	0.000000	0.000000	6.632982	-0.031264	NaN	0.000000	0.001656	0.001725	28.0817	0.043945	0.002089	21.0331	29.9379	13.231	-0.097049	0.631463	-0.477516	-0.478822	-0.031264	21.0331	-0.476402	-1.60375e+06	1.949409E-8	NaN
368	1.000000	0.674784	7.36866e+06	-57039.1	955.819	-29737.8	0.000000	0.000000	6.674996	-0.045192	NaN	0.000000	0.001639	0.001761	28.0819	0.122366	0.002067	59.2089	-0.351958	-163.987	-0.088293	0.673501	-0.435502	-0.436784	-0.045192	59.2089	-0.434929	-418555	1.079709E-7	NaN
368	1.000000	0.716820	7.36866e+06	-57039.1	955.819	-29737.8	0.000000	0.000000	6.717033	-0.029075	NaN	0.000000	0.001635	0.001783	28.0817	0.130160	0.001967	66.1615	41.1551	13.5139	0.014626	0.715446	-0.393465	-0.394839	-0.029075	66.1615	-0.393135	-106659	2.725996E-7	NaN
368	1.000000	0.758833	7.36866e+06	-57039.1	955.819	-29737.8	0.000000	0.000000	6.759049	0.056872	NaN	0.000000	0.001673	0.001705	28.0817	0.015047	0.001961	7.674400	-170.83	-164.106	0.070265	0.757445	-0.351452	-0.352840	0.056872	7.674400	-0.357010	-32255.4	-1.763166E-6	NaN
368	1.000000	0.800865	7.36866e+06	-57039.1	955.818	-29737.8	0.000000	0.000000	6.801080	0.021029	NaN	0.000000	0.001601	0.001791	28.0804	0.182776	0.001963	93.1131	4.970845	13.5844	-0.031408	0.799486	-0.309420	-0.310799	0.021029	93.1131	-0.309590	-6531.07	-3.219867E-6	NaN
368	1.000000	0.842859	7.36866e+06	-57039.1	955.819	-29737.8	0.000000	0.000000	6.843071	-0.053938	NaN	0.000000	0.001632	0.001768	28.0807	0.066238	0.001869	35.4326	27.5351	-168.553	-0.058548	0.841634	-0.267426	-0.268651	-0.053938	35.4326	-0.266284	-1462.11	3.689024E-5	NaN
368	1.000000	0.884911	7.36867e+06	-57039.1	955.819	-29737.8	0.000000	0.000000	6.885124	-0.023741	NaN	0.000000	0.001607	0.001754	28.0802	0.051579	0.002015	25.5939	72.3342	12.6835	0.027594	0.883536	-0.225374	-0.226749	-0.023741	25.5939	-0.224679	-329.785	7.198924E-5	NaN
368	1.000000	0.926898	7.36867e+06	-57039.1	955.82	-29737.8	0.000000	0.000000	6.927109	-0.082335	NaN	0.000000	0.001615	0.001760	28.0814	0.153806	0.002114	72.7445	83.7364	-166.063	-0.113776	0.925599	-0.183387	-0.184686	-0.082335	72.7445	-0.182538	-67.383	0.001222	NaN
368	1.000000	0.968919	7.36867e+06	-57039.1	955.819	-29737.8	0.000000	0.000000	6.969133	-0.017706	NaN	0.000000	0.001663	0.001747	28.0814	0.095377	0.002192	43.5121	69.9882	16.0639	0.014218	0.967563	-0.141366	-0.142722	-0.017706	43.5121	-0.141061	-12.3839	0.001430	NaN
368	1.000000	1.010946	7.36867e+06	-57039.1	955.819	-29737.8	0.000000	0.000000	7.011159	-0.047724	NaN	0.000000	0.001629	0.001742	28.0812	0.028038	0.002064	13.5841	-109.047	-165.836	-0.012277	1.009633	-0.099339	-0.100652	-0.047724	13.5841	-0.096704	-1.541894	0.030951	NaN
368	1.000000	1.052951	7.36867e+06	-57039.1	955.819	-29737.8	0.000000	0.000000	7.053166	0.020170	NaN	0.000000	0.001646	0.001742	28.0801	0.028220	0.001878	15.0248	-34.3971	12.3662	0.005577	1.051605	-0.057334	-0.058680	0.020170	15.0248	-0.058341	-0.161311	-0.125038	NaN
368	1.000000	1.094960	7.36867e+06	-57039.1	955.818	-29737.8	0.000000	0.000000	7.095173	-0.021779	NaN	0.000000	0.001653	0.001775	28.0804	0.092298	0.001985	46.4908	-109.023	-163.742	-0.120370	1.093649	-0.015325	-0.016636	-0.021779	46.4908	-0.014974	-0.009260	2.352027	NaN
368	2.000000	1.123048	7.36867e+06	-57039.1	955.819	-29737.8	0.000000	0.000000	7.123786	12.7122	NaN	0.000000	0.001606	0.001792	28.0803	13.6279	0.001869	7290.59	7.224503	5.940653	11.7551	1.122680	0.012763	0.012395	12.7122	7290.59	0.011456	0.010845	1172.22	63963.2
368	2.000000	1.133459	7.36867e+06	-57039.1	955.819	-29737.8	0.000000	0.000000	7.135025	32.8386	NaN	0.000000	0.001637	0.001776	28.0815	24.5723	0.001778	13819.4	7.362457	-179.794	31.7345	1.133121	0.023174	0.022836	32.8386	13819.4	0.021392	0.024777	1325.36	80211.6
368	2.000000	1.143974	7.36867e+06	-57039.1	955.82	-29737.8	0.000000	0.000000	7.146660	60.0846	NaN	0.000000	0.001596	0.001730	28.0813	34.611	0.001848	18725.3	6.191192	-0.384361	60.9148	1.143530	0.033689	0.033244	60.0846	18725.3	0.031282	0.043443	1383.06	82080.5
368	2.000000	1.154490	7.36867e+06	-57039.1	955.82	-29737.8	0.000000	0.000000	7.158403	89.8918	NaN	0.000000	0.001603	0.001735	28.0815	42.6579	0.001750	24369	4.720509	178.299	93.2412	1.154122	0.044205	0.043837	89.8918	24369	0.041439	0.067799	1325.85	85506.4
368	2.000000	1.164917	7.36867e+06	-57039.1	955.82	-29737.8	0.000000	0.000000	7.170362	127.135	NaN	0.000000	0.001631	0.001759	28.0815	53.4376	0.001886	28336.1	5.747999	-4.643221	124.625	1.164539	0.054632	0.054254	127.135	28336.1	0.051267	0.096369	1319.26	83396
368	2.000000	1.175418	7.36867e+06	-57039.1	955.82	-29737.8	0.000000	0.000000	7.182889	176.388	NaN	0.000000	0.001621	0.001753	28.0803	62.5852	0.001761	35533.1	6.391795	173.18	174.878	1.175063	0.065133	0.064778	176.388	35533.1	0.061410	0.130911	1347.38	89725.8
368	2.000000	1.186056	7.36867e+06	-57039.1	955.82	-29737.8	0.000000	0.000000	7.195807	231.798	NaN	0.000000	0.001694	0.001732	28.0803	75.2526	0.001907	39458.8	6.064224	-6.965068	237.411	1.185543	0.075771	0.075258	231.798	39458.8	0.071365	0.169684	1366.05	87517.8
368	2.000000	1.196410	7.36867e+06	-57039.1	955.82	-29737.8	0.000000	0.000000	7.209016	301.169	NaN	0.000000	0.001630	0.001757	28.0803	83.5615	0.001821	45895.3	6.420334	171.062	303.031	1.196099	0.086125	0.085814	301.169	45895.3	0.081204	0.212626	1416.43	90935.6
368	2.000000	1.206860	7.36867e+06	-57039.1	955.819	-29737.8	0.000000	0.000000	7.222525	375.528	NaN	0.000000	0.001638	0.001742	28.0814	91.3557	0.001728	52878.1	2.268234	-5.562871	371.131	1.206529	0.096575	0.096243	375.528	52878.1	0.091249	0.261109	1438.2	94545
368	2.000000	1.216851	7.36867e+06	-57039.1	955.82	-29737.8	0.000000	0.000000	7.236315	467.853	NaN	0.000000	0.001713	0.001708	28.0812	101.497	0.001781	56999.6	5.110663	-8.555222	462.99	1.216254	0.106566	0.105969	467.853	56999.6	0.100410	0.309362	1512.31	93629.2