File: remote_trans/data/nanoindenter/0828-1/data/Data_2025-08-06,11h17m57s/2025-07-22_16-23-58_1_1154.txt
2025-07-22, 16:23:58, 1
Index	Phase	Displacement	Time	Pos X	Pos Y	Pos Z	Rot A	Rot B	Piezo Z	Force A	Force B	Gripper	Voltage A	Voltage B	Temperature	Amplitude force	Amplitude pos	Stiffness	Phase shift	Phase excitation	Force A raw	Displacement raw	HMax	HMax raw	Real Force	Real Stiffness	Contact Depth	Area	Hardness	Reduced Mod.
[#]	[#]	[um]	[s]	[um]	[um]	[um]	[m°]	[m°]	[um]	[uN]	[uN]	[V]	[V]	[V]	[°C]	[uN]	[um]	[N/m]	[°]	[°]	[uN]	[um]	[um]	[um]	[uN]	[N/m]	[um]	[um^2]	[MPa]	[MPa]
1154	1.000000	0.002066	7.37634e+06	-57839.1	1055.82	-29740.1	0.000000	0.000000	6.002790	-0.086566	NaN	0.000000	0.001643	0.001706	28.0829	0.055943	0.001010	55.3983	60.0387	-165.16	-0.131854	0.000838	-0.906437	-0.907665	-0.086566	55.3983	-0.905265	-1.197293E+12	7.230119E-14	NaN
1154	1.000000	0.040049	7.37634e+06	-57839.1	1055.82	-29740.1	0.000000	0.000000	6.040778	0.038136	NaN	0.000000	0.001589	0.001734	28.0828	0.078316	0.001978	39.5999	-30.2798	12.8638	-0.034707	0.038691	-0.868454	-0.869813	0.038136	39.5999	-0.869176	-3.893158E+11	-9.795678E-14	NaN
1154	1.000000	0.078056	7.37634e+06	-57839.1	1055.82	-29740.1	0.000000	0.000000	6.078789	0.118474	NaN	0.000000	0.001604	0.001696	28.0828	0.110951	0.001970	56.3111	17.281	-166.623	0.084674	0.076723	-0.830447	-0.831781	0.118474	56.3111	-0.832025	-1.222440E+11	-9.691569E-13	NaN
1154	1.000000	0.116059	7.37634e+06	-57839.1	1055.82	-29740.1	0.000000	0.000000	6.116788	0.033776	NaN	0.000000	0.001653	0.001698	28.083	0.069085	0.001916	36.0478	-17.4076	15.1096	0.049662	0.114707	-0.792444	-0.793797	0.033776	36.0478	-0.793147	-3.629298E+10	-9.306619E-13	NaN
1154	1.000000	0.154044	7.37634e+06	-57839.1	1055.82	-29740.1	0.000000	0.000000	6.154772	0.005574	NaN	0.000000	0.001624	0.001698	28.0816	0.082552	0.001935	42.6715	40.4473	-163.773	0.011309	0.152772	-0.754459	-0.755731	0.005574	42.6715	-0.754557	-1.084542E+10	-5.139375E-13	NaN
1154	1.000000	0.192114	7.37634e+06	-57839.1	1055.82	-29740.1	0.000000	0.000000	6.192845	0.068951	NaN	0.000000	0.001649	0.001716	28.0813	0.149361	0.001991	75.0145	88.6901	12.6693	-0.020154	0.190748	-0.716389	-0.717756	0.068951	75.0145	-0.717078	-3.346746E+9	-2.060254E-11	NaN
1154	1.000000	0.230110	7.37634e+06	-57839.1	1055.82	-29740.1	0.000000	0.000000	6.230838	0.003939	NaN	0.000000	0.001597	0.001689	28.0813	0.022689	0.002017	11.2507	-11.5083	-166.16	0.050665	0.228797	-0.678393	-0.679706	0.003939	11.2507	-0.678656	-9.995857E+8	-3.941115E-12	NaN
1154	1.000000	0.268140	7.37635e+06	-57839.1	1055.82	-29740.1	0.000000	0.000000	6.268869	0.033882	NaN	0.000000	0.001671	0.001783	28.0826	0.022035	0.001842	11.9596	-53.5374	14.8593	0.012777	0.266768	-0.640363	-0.641735	0.033882	11.9596	-0.642488	-3.194623E+8	-1.060597E-10	NaN
1154	1.000000	0.306156	7.37635e+06	-57839.1	1055.82	-29740.1	0.000000	0.000000	6.306889	0.123175	NaN	0.000000	0.001640	0.001693	28.0828	0.030623	0.002001	15.3006	169.254	-163.499	0.111468	0.304844	-0.602347	-0.603659	0.123175	15.3006	-0.608385	-1.086155E+8	-1.134050E-9	NaN
1154	1.000000	0.344159	7.37635e+06	-57839.1	1055.82	-29740.1	0.000000	0.000000	6.344887	0.026363	NaN	0.000000	0.001679	0.001689	28.0825	0.066150	0.002068	31.9913	-107.578	11.9218	0.040179	0.342772	-0.564344	-0.565731	0.026363	31.9913	-0.564962	-2.735300E+7	-9.638077E-10	NaN
1154	1.000000	0.382179	7.37635e+06	-57839.1	1055.82	-29740.1	0.000000	0.000000	6.382908	0.034402	NaN	0.000000	0.001596	0.001720	28.0825	0.110684	0.002056	53.8312	167.423	-162.465	0.034482	0.380865	-0.526324	-0.527638	0.034402	53.8312	-0.526804	-8.09419e+06	-4.250160E-9	NaN
1154	1.000000	0.420185	7.37635e+06	-57839.1	1055.82	-29740.1	0.000000	0.000000	6.420916	0.104509	NaN	0.000000	0.001661	0.001758	28.0812	0.118038	0.002084	56.6382	-70.4389	15.8157	0.130816	0.418865	-0.488319	-0.489638	0.104509	56.6382	-0.489703	-2.46172e+06	-4.245390E-8	NaN
1154	1.000000	0.458215	7.37635e+06	-57839.1	1055.82	-29740.1	0.000000	0.000000	6.458948	0.142577	NaN	0.000000	0.001612	0.001734	28.0813	0.049329	0.001966	25.0905	45.5878	-161.036	0.212076	0.456867	-0.450288	-0.451636	0.142577	25.0905	-0.454550	-791381	-1.801619E-7	NaN
1154	1.000000	0.496197	7.37635e+06	-57839.1	1055.82	-29740.1	0.000000	0.000000	6.496929	0.103943	NaN	0.000000	0.001570	0.001717	28.081	0.027947	0.001912	14.6205	10.3419	20.1867	0.036254	0.494856	-0.412306	-0.413647	0.103943	14.6205	-0.417638	-238183	-4.364000E-7	NaN
1154	1.000000	0.534234	7.37635e+06	-57839.1	1055.82	-29740.1	0.000000	0.000000	6.534962	0.024908	NaN	0.000000	0.001591	0.001722	28.0811	0.090450	0.001901	47.573	77.4281	-164.709	0.026509	0.532946	-0.374270	-0.375558	0.024908	47.573	-0.374662	-57971.7	-4.296565E-7	NaN
1154	1.000000	0.572256	7.37635e+06	-57839.1	1055.82	-29740.1	0.000000	0.000000	6.572988	0.113571	NaN	0.000000	0.001615	0.001726	28.0822	0.135737	0.002031	66.8427	-146.555	18.4346	0.098033	0.570831	-0.336248	-0.337673	0.113571	66.8427	-0.337522	-16803.9	-6.758637E-6	NaN
1154	1.000000	0.610259	7.37635e+06	-57839.1	1055.82	-29740.1	0.000000	0.000000	6.610992	0.144307	NaN	0.000000	0.001613	0.001708	28.0824	0.046131	0.001861	24.7892	17.796	-164.567	0.124914	0.608955	-0.298245	-0.299549	0.144307	24.7892	-0.302611	-5145.99	-2.804263E-5	NaN
1154	1.000000	0.648255	7.37635e+06	-57839.1	1055.82	-29740.1	0.000000	0.000000	6.648985	0.058760	NaN	0.000000	0.001607	0.001734	28.0826	0.083906	0.002010	41.7378	91.2084	15.7791	0.082705	0.646964	-0.260248	-0.261539	0.058760	41.7378	-0.261304	-1227.13	-4.788420E-5	NaN
1154	1.000000	0.686309	7.37635e+06	-57839.1	1055.82	-29740.1	0.000000	0.000000	6.687039	0.082512	NaN	0.000000	0.001631	0.001687	28.0809	0.047918	0.001861	25.7528	144.901	-165.367	0.039436	0.685077	-0.222195	-0.223427	0.082512	25.7528	-0.224598	-328.807	-0.000251	NaN
1154	1.000000	0.724305	7.37635e+06	-57839.1	1055.82	-29740.1	0.000000	0.000000	6.725032	0.005710	NaN	0.000000	0.001626	0.001709	28.0813	0.178621	0.001924	92.8151	38.705	14.3127	0.012603	0.722936	-0.184199	-0.185567	0.005710	92.8151	-0.184245	-72.0105	-7.929963E-5	NaN
1154	1.000000	0.762319	7.37635e+06	-57839.1	1055.82	-29740.1	0.000000	0.000000	6.763051	0.105022	NaN	0.000000	0.001693	0.001719	28.081	0.107641	0.002160	49.8247	27.417	-164.487	0.081725	0.760999	-0.146184	-0.147504	0.105022	49.8247	-0.147765	-16.4859	-0.006370	NaN
1154	1.000000	0.800365	7.37635e+06	-57839.1	1055.82	-29740.1	0.000000	0.000000	6.801129	0.886944	NaN	0.000000	0.001701	0.001750	28.0813	0.200513	0.002046	98.0141	21.4137	13.2275	0.849842	0.798960	-0.108138	-0.109543	0.886944	98.0141	-0.114925	-3.806822	-0.232988	NaN
1154	1.000000	0.838363	7.37635e+06	-57839.1	1055.82	-29740.1	0.000000	0.000000	6.839144	1.302196	NaN	0.000000	0.001573	0.001714	28.0822	0.303670	0.002167	140.152	-6.275028	-165.618	1.318083	0.837021	-0.070140	-0.071482	1.302196	140.152	-0.077109	-0.523221	-2.488806	NaN
1154	1.000000	0.876390	7.37635e+06	-57839.1	1055.82	-29740.1	0.000000	0.000000	6.877192	1.802860	NaN	0.000000	0.001706	0.001719	28.0823	0.484542	0.002029	238.753	17.0524	17.0814	1.769014	0.875032	-0.032113	-0.033471	1.802860	238.753	-0.037776	-0.038738	-46.5395	NaN
1154	1.000000	0.914393	7.37635e+06	-57839.1	1055.82	-29740.1	0.000000	0.000000	6.915278	3.844755	NaN	0.000000	0.001694	0.001671	28.0826	1.068490	0.001868	572.009	12.0877	-161.806	3.656645	0.913094	0.005889	0.004591	3.844755	572.009	0.000848	0.000645	5965.47	20585.6
1154	1.000000	0.952396	7.37635e+06	-57839.1	1055.82	-29740.1	0.000000	0.000000	6.953432	7.488661	NaN	0.000000	0.001676	0.001687	28.0814	1.961730	0.002014	974.205	18.3775	15.1482	7.359992	0.951066	0.043893	0.042563	7.488661	974.205	0.038128	0.059280	126.327	3655.69
1154	2.000000	0.971975	7.37635e+06	-57839.1	1055.82	-29740.1	0.000000	0.000000	6.973065	8.811929	NaN	0.000000	0.001601	0.001716	28.0813	3.022049	0.002008	1505.33	14.8936	-167.876	8.882968	0.971640	0.063472	0.063137	8.811929	1505.33	0.059082	0.122536	71.9132	3928.92
1154	2.000000	0.981391	7.37635e+06	-57839.1	1055.82	-29740.1	0.000000	0.000000	6.982560	10.7396	NaN	0.000000	0.001631	0.001723	28.0812	3.588187	0.001972	1819.85	12.9867	12.2655	10.4786	0.981069	0.072887	0.072566	10.7396	1819.85	0.068461	0.157885	68.0217	4184.46
1154	2.000000	0.990915	7.37635e+06	-57839.1	1055.82	-29740.1	0.000000	0.000000	6.992207	13.7085	NaN	0.000000	0.001633	0.001653	28.081	4.526976	0.001953	2317.81	9.946097	-165.938	13.7346	0.990562	0.082412	0.082058	13.7085	2317.81	0.077976	0.198039	69.2211	4758.55
1154	2.000000	1.000421	7.37635e+06	-57839.1	1055.82	-29740.1	0.000000	0.000000	7.001863	17.3879	NaN	0.000000	0.001655	0.001719	28.0826	5.939994	0.002022	2938.22	12.4415	10.1171	17.3717	0.999958	0.091917	0.091455	17.3879	2938.22	0.087479	0.242369	71.7413	5452.79
1154	2.000000	1.009887	7.37635e+06	-57839.1	1055.82	-29740.1	0.000000	0.000000	7.011503	21.5814	NaN	0.000000	0.001625	0.001664	28.0823	6.940277	0.001966	3530.15	12.0691	-170.136	21.8547	1.009572	0.101384	0.101069	21.5814	3530.15	0.096799	0.289884	74.4485	5990.38
1154	2.000000	1.019386	7.37635e+06	-57839.1	1055.82	-29740.1	0.000000	0.000000	7.021229	27.1107	NaN	0.000000	0.001632	0.001655	28.0824	7.739172	0.001902	4068.03	8.117683	12.7754	27.0495	1.019030	0.110883	0.110527	27.1107	4068.03	0.105885	0.340016	79.7335	6373.93
1154	2.000000	1.028855	7.37635e+06	-57839.1	1055.82	-29740.1	0.000000	0.000000	7.031024	35.0335	NaN	0.000000	0.001622	0.001672	28.0821	9.884098	0.002092	4724.8	10.2376	-170.596	34.7211	1.028505	0.120352	0.120002	35.0335	4724.8	0.114791	0.392793	89.1908	6887.71
1154	2.000000	1.038345	7.37635e+06	-57839.1	1055.82	-29740.1	0.000000	0.000000	7.040912	44.7204	NaN	0.000000	0.001694	0.001658	28.0817	11.1316	0.001861	5980.18	10.1238	7.040049	44.2393	1.037975	0.129842	0.129472	44.7204	5980.18	0.124233	0.452675	98.7914	8120.71
1154	2.000000	1.047823	7.37635e+06	-57839.1	1055.82	-29740.1	0.000000	0.000000	7.050759	53.6803	NaN	0.000000	0.001685	0.001688	28.0813	12.7084	0.002044	6216.61	8.783589	-171.678	53.6505	1.047528	0.139319	0.139024	53.6803	6216.61	0.132843	0.510820	105.087	7946.82
1154	2.000000	1.057346	7.37635e+06	-57839.1	1055.82	-29740.1	0.000000	0.000000	7.060723	64.3988	NaN	0.000000	0.001713	0.001660	28.081	13.9771	0.002038	6857.73	8.677445	8.208763	63.816	1.056992	0.148842	0.148489	64.3988	6857.73	0.141799	0.574905	112.016	8263.34
1154	2.000000	1.064329	7.37635e+06	-57839.1	1055.82	-29740.1	0.000000	0.000000	7.068073	73.3166	NaN	0.000000	0.001649	0.001706	28.0827	14.9826	0.001968	7613.67	6.939266	7.886281	72.387	1.063967	0.155826	0.155463	73.3166	7613.67	0.148604	0.626066	117.107	8791.38