File: remote_trans/data/nanoindenter/0828-1/data/Data_2025-08-06,11h17m57s/2025-07-22_16-23-58_1_55.txt
2025-07-22, 16:23:58, 1
Index	Phase	Displacement	Time	Pos X	Pos Y	Pos Z	Rot A	Rot B	Piezo Z	Force A	Force B	Gripper	Voltage A	Voltage B	Temperature	Amplitude force	Amplitude pos	Stiffness	Phase shift	Phase excitation	Force A raw	Displacement raw	HMax	HMax raw	Real Force	Real Stiffness	Contact Depth	Area	Hardness	Reduced Mod.
[#]	[#]	[um]	[s]	[um]	[um]	[um]	[m°]	[m°]	[um]	[uN]	[uN]	[V]	[V]	[V]	[°C]	[uN]	[um]	[N/m]	[°]	[°]	[uN]	[um]	[um]	[um]	[uN]	[N/m]	[um]	[um^2]	[MPa]	[MPa]
55	1.000000	0.002474	7.36558e+06	-41389.1	955.817	-29787	0.000000	0.000000	6.002836	0.057738	NaN	0.000000	0.001595	0.001685	28.0821	0.109049	0.000947	115.136	-98.284	-163.96	0.029534	0.001186	-1.109337	-1.110625	0.057738	115.136	-1.109713	-6.767674E+14	-8.531382E-17	NaN
55	1.000000	0.044396	7.36558e+06	-41389.1	955.817	-29787	0.000000	0.000000	6.044756	0.022551	NaN	0.000000	0.001555	0.001695	28.1165	0.074622	0.001896	39.3654	83.3563	16.6836	0.059898	0.043034	-1.067415	-1.068777	0.022551	39.3654	-1.067845	-1.854545E+14	-1.215964E-16	NaN
55	1.000000	0.086430	7.36558e+06	-41389.1	955.819	-29787	0.000000	0.000000	6.086793	0.087306	NaN	0.000000	0.001592	0.001715	28.1252	0.106593	0.001956	54.5056	105.43	-162.303	0.054972	0.085069	-1.025381	-1.026742	0.087306	54.5056	-1.026582	-5.170191E+13	-1.688649E-15	NaN
55	1.000000	0.128435	7.36558e+06	-41389.1	955.819	-29787	0.000000	0.000000	6.128795	0.016707	NaN	0.000000	0.001599	0.001735	28.0864	0.126210	0.002005	62.9439	-28.0366	15.5629	0.002098	0.127088	-0.983376	-0.984723	0.016707	62.9439	-0.983575	-1.363232E+13	-1.225570E-15	NaN
55	1.000000	0.170451	7.36558e+06	-41389.1	955.818	-29787	0.000000	0.000000	6.170808	-0.036398	NaN	0.000000	0.001544	0.001745	28.0799	0.009380	0.001951	4.808878	-113.879	-165.04	-0.133565	0.169195	-0.941360	-0.942616	-0.036398	4.808878	-0.935684	-3.082474E+12	1.180813E-14	NaN
55	1.000000	0.212488	7.36558e+06	-41389.1	955.818	-29787	0.000000	0.000000	6.212846	-0.034805	NaN	0.000000	0.001571	0.001756	28.114	0.054693	0.002023	27.0318	97.1441	14.0157	-0.030052	0.211031	-0.899323	-0.900780	-0.034805	27.0318	-0.898357	-9.657607E+11	3.603886E-14	NaN
55	1.000000	0.254470	7.36558e+06	-41389.1	955.818	-29787	0.000000	0.000000	6.254824	-0.120913	NaN	0.000000	0.001662	0.001744	28.1269	0.064434	0.002038	31.6237	53.9534	-168.265	-0.064596	0.253108	-0.857341	-0.858703	-0.120913	31.6237	-0.854474	-2.462148E+11	4.910856E-13	NaN
55	1.000000	0.296511	7.36558e+06	-41389.1	955.818	-29787	0.000000	0.000000	6.296870	-0.017034	NaN	0.000000	0.001546	0.001727	28.0891	0.028982	0.001954	14.8342	76.7861	18.2059	-0.069330	0.295133	-0.815300	-0.816678	-0.017034	14.8342	-0.814439	-7.059701E+10	2.412880E-13	NaN
55	1.000000	0.338510	7.36558e+06	-41389.1	955.818	-29787	0.000000	0.000000	6.338867	-0.064446	NaN	0.000000	0.001550	0.001727	28.0826	0.115677	0.001925	60.1065	119.757	-163.091	-0.086790	0.337227	-0.773301	-0.774584	-0.064446	60.1065	-0.772497	-1.902181E+10	3.388011E-12	NaN
55	1.000000	0.380499	7.36558e+06	-41389.1	955.818	-29787	0.000000	0.000000	6.380856	-0.048990	NaN	0.000000	0.001623	0.001759	28.1132	0.059733	0.002053	29.1023	64.4838	16.2908	-0.058982	0.379185	-0.731312	-0.732626	-0.048990	29.1023	-0.730050	-5.029067E+9	9.741292E-12	NaN
55	1.000000	0.422556	7.36558e+06	-41389.1	955.818	-29787	0.000000	0.000000	6.422916	0.029169	NaN	0.000000	0.001590	0.001724	28.1252	0.096067	0.002079	46.2125	-10.7618	-165.761	0.072057	0.421294	-0.689255	-0.690517	0.029169	46.2125	-0.689729	-1.416478E+9	-2.059269E-11	NaN
55	1.000000	0.464580	7.36558e+06	-41389.1	955.818	-29787	0.000000	0.000000	6.464938	-0.024805	NaN	0.000000	0.001591	0.001713	28.0888	0.110112	0.001994	55.2132	-171.771	18.1795	0.007852	0.463233	-0.647231	-0.648578	-0.024805	55.2132	-0.646894	-3.671560E+8	6.755942E-11	NaN
55	1.000000	0.506582	7.36558e+06	-41389.1	955.819	-29787	0.000000	0.000000	6.506942	0.003847	NaN	0.000000	0.001591	0.001725	28.0815	0.121942	0.002056	59.3246	-23.63	-164.987	-0.013924	0.505189	-0.605229	-0.606622	0.003847	59.3246	-0.605277	-9.842880E+7	-3.907966E-11	NaN
55	1.000000	0.548595	7.36558e+06	-41389.1	955.818	-29787	0.000000	0.000000	6.548953	-0.047215	NaN	0.000000	0.001572	0.001754	28.1129	0.097367	0.002053	47.4155	-51.2553	12.3193	-0.078618	0.547233	-0.563216	-0.564578	-0.047215	47.4155	-0.562469	-2.526556E+7	1.868761E-9	NaN
55	1.000000	0.590636	7.36558e+06	-41389.1	955.818	-29787	0.000000	0.000000	6.590994	-0.031450	NaN	0.000000	0.001588	0.001679	28.1267	0.084665	0.002022	41.8623	-172.702	-162.654	-0.073551	0.589309	-0.521175	-0.522502	-0.031450	41.8623	-0.520612	-6.63908e+06	4.737033E-9	NaN
55	1.000000	0.632653	7.36558e+06	-41389.1	955.818	-29787	0.000000	0.000000	6.633011	-0.027987	NaN	0.000000	0.001532	0.001741	28.0891	0.061376	0.002115	29.0155	44.0102	17.9117	-0.089701	0.631308	-0.479158	-0.480503	-0.027987	29.0155	-0.478435	-1.71244e+06	1.634366E-8	NaN
55	1.000000	0.674683	7.36558e+06	-41389.1	955.819	-29787	0.000000	0.000000	6.675043	0.026821	NaN	0.000000	0.001535	0.001730	28.0798	0.107187	0.001988	53.9074	-97.1457	-166.139	-0.009037	0.673364	-0.437128	-0.438447	0.026821	53.9074	-0.437502	-455084	-5.893677E-8	NaN
55	1.000000	0.716684	7.36558e+06	-41389.1	955.819	-29787	0.000000	0.000000	6.717041	-0.068357	NaN	0.000000	0.001543	0.001723	28.1104	0.039607	0.002106	18.8091	128.208	16.5075	0.006063	0.715321	-0.395127	-0.396490	-0.068357	18.8091	-0.392401	-104113	6.565657E-7	NaN
55	1.000000	0.758689	7.36558e+06	-41389.1	955.819	-29787	0.000000	0.000000	6.759052	0.079017	NaN	0.000000	0.001578	0.001730	28.1257	0.020741	0.002087	9.935813	-95.3184	-164.691	0.035473	0.757358	-0.353122	-0.354453	0.079017	9.935813	-0.359086	-34564.8	-2.286059E-6	NaN
55	1.000000	0.800725	7.36558e+06	-41389.1	955.818	-29787	0.000000	0.000000	6.801082	-0.046300	NaN	0.000000	0.001603	0.001730	28.0887	0.096371	0.001956	49.2589	105.058	13.3496	-0.021304	0.799428	-0.311086	-0.312383	-0.046300	49.2589	-0.310381	-6709.65	6.900513E-6	NaN
55	1.000000	0.842717	7.36559e+06	-41389.1	955.819	-29787	0.000000	0.000000	6.843077	0.029913	NaN	0.000000	0.001569	0.001700	28.0812	0.057306	0.002007	28.5545	108.371	-161.871	0.001821	0.841434	-0.269095	-0.270377	0.029913	28.5545	-0.269880	-1658.53	-1.803553E-5	NaN
55	1.000000	0.884736	7.36559e+06	-41389.1	955.818	-29787	0.000000	0.000000	6.885094	-0.033129	NaN	0.000000	0.001581	0.001706	28.1101	0.090615	0.001971	45.9842	82.3423	18.7798	-0.042503	0.883441	-0.227075	-0.228370	-0.033129	45.9842	-0.226535	-352.932	9.386740E-5	NaN
55	1.000000	0.926749	7.36559e+06	-41389.1	955.818	-29787	0.000000	0.000000	6.927105	-0.079263	NaN	0.000000	0.001580	0.001736	28.128	0.087192	0.002021	43.1436	122.033	-162.75	-0.034206	0.925413	-0.185062	-0.186398	-0.079263	43.1436	-0.183685	-70.4586	0.001125	NaN
55	1.000000	0.968800	7.36559e+06	-41389.1	955.818	-29787	0.000000	0.000000	6.969158	-0.037965	NaN	0.000000	0.001523	0.001738	28.0869	0.034117	0.001970	17.3212	-76.2218	14.3666	-0.039565	0.967452	-0.143011	-0.144359	-0.037965	17.3212	-0.141367	-12.5483	0.003026	NaN
55	1.000000	1.010807	7.36559e+06	-41389.1	955.82	-29787	0.000000	0.000000	7.011165	-0.029445	NaN	0.000000	0.001555	0.001727	28.0806	0.054804	0.002038	26.8912	129.678	-166.217	-0.002258	1.009499	-0.101004	-0.102313	-0.029445	26.8912	-0.100183	-1.844272	0.015966	NaN
55	1.000000	1.052802	7.36559e+06	-41389.1	955.818	-29787	0.000000	0.000000	7.053161	0.008723	NaN	0.000000	0.001572	0.001775	28.108	0.121582	0.001947	62.4482	-101.635	11.9957	0.075966	1.051473	-0.059009	-0.060339	0.008723	62.4482	-0.059114	-0.169831	-0.051365	NaN
55	1.000000	1.094806	7.36559e+06	-41389.1	955.819	-29787	0.000000	0.000000	7.095163	-0.055307	NaN	0.000000	0.001578	0.001767	28.1291	0.086015	0.001992	43.1891	1.165592	-163.192	-0.014608	1.093512	-0.017005	-0.018299	-0.055307	43.1891	-0.016044	-0.009910	5.580780	NaN
55	2.000000	1.126936	7.36559e+06	-41389.1	955.819	-29787	0.000000	0.000000	7.127767	11.4697	NaN	0.000000	0.001529	0.001722	28.0885	11.751	0.001917	6128.8	7.952216	7.412097	10.0336	1.126613	0.015125	0.014802	11.4697	6128.8	0.013722	0.013618	842.217	47982.7
55	2.000000	1.137384	7.36559e+06	-41389.1	955.819	-29787	0.000000	0.000000	7.139074	32.3715	NaN	0.000000	0.001617	0.001745	28.0821	22.3217	0.001721	12972.6	6.207505	-176.651	31.8813	1.137059	0.025573	0.025248	32.3715	12972.6	0.023702	0.028696	1128.08	69966
55	2.000000	1.147849	7.36559e+06	-41389.1	955.819	-29787	0.000000	0.000000	7.150552	57.0317	NaN	0.000000	0.001587	0.001695	28.1068	33.1078	0.001730	19133.4	7.212578	-2.508823	54.8	1.147597	0.036038	0.035786	57.0317	19133.4	0.033802	0.048993	1164.07	78976.3
55	2.000000	1.158334	7.36559e+06	-41389.1	955.819	-29787	0.000000	0.000000	7.162734	98.3328	NaN	0.000000	0.001539	0.001731	28.1279	40.9558	0.001770	23141.1	4.100524	-179.651	96.9463	1.157967	0.046523	0.046156	98.3328	23141.1	0.043336	0.072933	1348.26	78287.9
55	2.000000	1.168804	7.36559e+06	-41389.1	955.819	-29787	0.000000	0.000000	7.174986	141.673	NaN	0.000000	0.001546	0.001705	28.0882	51.1617	0.001741	29384.4	0.113286	1.321999	137.952	1.168542	0.056993	0.056731	141.673	29384.4	0.053377	0.103137	1373.64	83595.5
55	2.000000	1.179278	7.36559e+06	-41389.1	955.819	-29787	0.000000	0.000000	7.187743	197.229	NaN	0.000000	0.001568	0.001719	28.082	61.6964	0.001815	33989.9	6.154613	174.49	192.648	1.178932	0.067467	0.067121	197.229	33989.9	0.063115	0.137215	1437.37	83834.5
55	2.000000	1.189817	7.36559e+06	-41389.1	955.819	-29787	0.000000	0.000000	7.201088	265.51	NaN	0.000000	0.001590	0.001718	28.1073	73.2306	0.001936	37828.3	6.153260	-6.307083	261.976	1.189392	0.078006	0.077581	265.51	37828.3	0.072742	0.175421	1513.56	82518.1
55	2.000000	1.200202	7.36559e+06	-41389.1	955.819	-29787	0.000000	0.000000	7.214780	345.985	NaN	0.000000	0.001585	0.001745	28.13	82.0259	0.001750	46860.4	-0.413236	178.238	339.136	1.199952	0.088390	0.088141	345.985	46860.4	0.082853	0.220266	1570.76	91223.2
55	2.000000	1.210760	7.36559e+06	-41389.1	955.819	-29787	0.000000	0.000000	7.228578	424.803	NaN	0.000000	0.001613	0.001727	28.0897	92.3655	0.001768	52232.8	6.757205	-9.459750	422.008	1.210423	0.098949	0.098612	424.803	52232.8	0.092850	0.269265	1577.64	91965.8
55	2.000000	1.221210	7.36559e+06	-41389.1	955.821	-29787	0.000000	0.000000	7.242612	512.032	NaN	0.000000	0.001579	0.001733	28.0805	101.518	0.001800	56390.2	5.755713	171.215	507.173	1.220873	0.109399	0.109062	512.032	56390.2	0.102588	0.321396	1593.15	90877.5
55	2.000000	1.222279	7.36559e+06	-41389.1	955.82	-29787	0.000000	0.000000	7.244135	523.069	NaN	0.000000	0.001562	0.001777	28.1289	102.202	0.001995	51240.1	6.666930	170.703	521.432	1.221924	0.110468	0.110113	523.069	51240.1	0.102812	0.322643	1621.2	82418