File: remote_trans/data/nanoindenter/0828-1/data/Data_2025-08-06,11h17m57s/2025-07-22_16-23-58_1_131.txt
2025-07-22, 16:23:58, 1
Index	Phase	Displacement	Time	Pos X	Pos Y	Pos Z	Rot A	Rot B	Piezo Z	Force A	Force B	Gripper	Voltage A	Voltage B	Temperature	Amplitude force	Amplitude pos	Stiffness	Phase shift	Phase excitation	Force A raw	Displacement raw	HMax	HMax raw	Real Force	Real Stiffness	Contact Depth	Area	Hardness	Reduced Mod.
[#]	[#]	[um]	[s]	[um]	[um]	[um]	[m°]	[m°]	[um]	[uN]	[uN]	[V]	[V]	[V]	[°C]	[uN]	[um]	[N/m]	[°]	[°]	[uN]	[um]	[um]	[um]	[uN]	[N/m]	[um]	[um^2]	[MPa]	[MPa]
131	1.000000	0.002219	7.36632e+06	-45189.1	955.82	-29773.8	0.000000	0.000000	6.002803	0.033475	NaN	0.000000	0.001588	0.001684	28.1314	0.058734	0.000935	62.8136	83.8137	-159.794	-0.006936	0.000915	-1.083250	-1.084553	0.033475	62.8136	-1.083649	-3.023648E+14	-1.107115E-16	NaN
131	1.000000	0.044153	7.36632e+06	-45189.1	955.819	-29773.8	0.000000	0.000000	6.044734	-0.037288	NaN	0.000000	0.001560	0.001691	28.0983	0.081181	0.001946	41.7089	-162.718	15.7976	-0.032982	0.042831	-1.041315	-1.042638	-0.037288	41.7089	-1.040645	-7.991638E+13	4.665931E-16	NaN
131	1.000000	0.086170	7.36632e+06	-45189.1	955.818	-29773.8	0.000000	0.000000	6.086754	0.058279	NaN	0.000000	0.001558	0.001680	28.0791	0.030126	0.002048	14.7102	-22.5462	-165.451	-0.000173	0.084855	-0.999299	-1.000613	0.058279	14.7102	-1.002270	-2.434071E+13	-2.394288E-15	NaN
131	1.000000	0.128200	7.36632e+06	-45189.1	955.818	-29773.8	0.000000	0.000000	6.128782	-0.003239	NaN	0.000000	0.001545	0.001665	28.0966	0.029139	0.001916	15.2081	28.6963	19.2629	0.038441	0.126858	-0.957268	-0.958610	-0.003239	15.2081	-0.957109	-5.996366E+12	5.401810E-16	NaN
131	1.000000	0.170207	7.36632e+06	-45189.1	955.818	-29773.8	0.000000	0.000000	6.170791	0.045900	NaN	0.000000	0.001620	0.001693	28.1298	0.039253	0.001810	21.6918	110.659	-166.562	-0.038852	0.168875	-0.915262	-0.916594	0.045900	21.6918	-0.916849	-1.716545E+12	-2.673988E-14	NaN
131	1.000000	0.212222	7.36632e+06	-45189.1	955.819	-29773.8	0.000000	0.000000	6.212807	0.053259	NaN	0.000000	0.001632	0.001670	28.1006	0.046202	0.001914	24.1414	-15.5871	14.9841	0.088739	0.210864	-0.873246	-0.874604	0.053259	24.1414	-0.874901	-4.653055E+11	-1.144603E-13	NaN
131	1.000000	0.254267	7.36632e+06	-45189.1	955.818	-29773.8	0.000000	0.000000	6.254848	-0.047585	NaN	0.000000	0.001611	0.001672	28.081	0.122231	0.001919	63.6823	10.1328	-166.37	0.015299	0.252948	-0.831201	-0.832520	-0.047585	63.6823	-0.830641	-1.170760E+11	4.064481E-13	NaN
131	1.000000	0.296256	7.36632e+06	-45189.1	955.818	-29773.8	0.000000	0.000000	6.296837	-0.024625	NaN	0.000000	0.001626	0.001669	28.0977	0.172777	0.002000	86.4086	-110.399	16.2093	-0.039968	0.294914	-0.789212	-0.790554	-0.024625	86.4086	-0.788999	-3.187738E+10	7.724918E-13	NaN
131	1.000000	0.338285	7.36632e+06	-45189.1	955.818	-29773.8	0.000000	0.000000	6.338865	-0.049004	NaN	0.000000	0.001544	0.001708	28.1299	0.040363	0.002129	18.9564	11.6257	-166.425	0.000191	0.336945	-0.747184	-0.748523	-0.049004	18.9564	-0.745245	-8.100013E+9	6.049819E-12	NaN
131	1.000000	0.380340	7.36632e+06	-45189.1	955.819	-29773.8	0.000000	0.000000	6.380922	-0.010198	NaN	0.000000	0.001601	0.001702	28.0996	0.056852	0.002024	28.0871	102.612	10.4527	0.051983	0.378992	-0.705128	-0.706476	-0.010198	28.0871	-0.704856	-2.279455E+9	4.474036E-12	NaN
131	1.000000	0.422339	7.36632e+06	-45189.1	955.818	-29773.8	0.000000	0.000000	6.422920	-0.032324	NaN	0.000000	0.001540	0.001688	28.0787	0.073093	0.002118	34.506	-1.740565	-163.412	-0.065721	0.420999	-0.663130	-0.664469	-0.032324	34.506	-0.662427	-5.993964E+8	5.392703E-11	NaN
131	1.000000	0.464340	7.36632e+06	-45189.1	955.818	-29773.8	0.000000	0.000000	6.464924	0.056858	NaN	0.000000	0.001557	0.001643	28.0945	0.070321	0.001919	36.6533	120.003	13.414	0.113279	0.462992	-0.621129	-0.622477	0.056858	36.6533	-0.622292	-1.687081E+8	-3.370224E-10	NaN
131	1.000000	0.506387	7.36632e+06	-45189.1	955.818	-29773.8	0.000000	0.000000	6.506971	0.059723	NaN	0.000000	0.001554	0.001667	28.1309	0.074112	0.002107	35.176	-15.2223	-168.213	0.044154	0.505054	-0.579082	-0.580414	0.059723	35.176	-0.580355	-4.463012E+7	-1.338184E-9	NaN
131	1.000000	0.548384	7.36632e+06	-45189.1	955.817	-29773.8	0.000000	0.000000	6.548966	-0.004477	NaN	0.000000	0.001566	0.001627	28.1009	0.089493	0.002060	43.4467	25.4812	12.6162	-0.033185	0.547027	-0.537084	-0.538441	-0.004477	43.4467	-0.537007	-1.121611E+7	3.992006E-10	NaN
131	1.000000	0.590420	7.36632e+06	-45189.1	955.818	-29773.8	0.000000	0.000000	6.591004	0.051882	NaN	0.000000	0.001568	0.001675	28.0822	0.121938	0.001959	62.2445	152.423	-166.223	-0.009869	0.589078	-0.495048	-0.496391	0.051882	62.2445	-0.495674	-2.9829e+06	-1.739315E-8	NaN
131	1.000000	0.632412	7.36632e+06	-45189.1	955.819	-29773.8	0.000000	0.000000	6.632992	-0.057204	NaN	0.000000	0.001568	0.001698	28.0937	0.046761	0.001923	24.3175	21.1346	14.1279	0.015457	0.631061	-0.453056	-0.454407	-0.057204	24.3175	-0.451292	-712086	8.033257E-8	NaN
131	1.000000	0.674440	7.36632e+06	-45189.1	955.819	-29773.8	0.000000	0.000000	6.675022	-0.014343	NaN	0.000000	0.001543	0.001662	28.1307	0.130275	0.002103	61.9499	-171.437	-165.19	-0.023482	0.673102	-0.411029	-0.412366	-0.014343	61.9499	-0.410855	-190791	7.517585E-8	NaN
131	1.000000	0.716442	7.36632e+06	-45189.1	955.818	-29773.8	0.000000	0.000000	6.717025	0.017026	NaN	0.000000	0.001589	0.001685	28.1	0.118773	0.002059	57.6978	-68.1987	12.1596	0.003135	0.715036	-0.369027	-0.370432	0.017026	57.6978	-0.369248	-48450.7	-3.514120E-7	NaN
131	1.000000	0.758467	7.36632e+06	-45189.1	955.818	-29773.8	0.000000	0.000000	6.759051	0.021420	NaN	0.000000	0.001540	0.001667	28.081	0.023515	0.002125	11.0679	-24.2457	-166.505	-0.008177	0.757171	-0.327001	-0.328297	0.021420	11.0679	-0.328453	-12381.7	-1.729932E-6	NaN
131	1.000000	0.800509	7.36632e+06	-45189.1	955.819	-29773.8	0.000000	0.000000	6.801090	-0.045395	NaN	0.000000	0.001552	0.001676	28.0932	0.055421	0.002153	25.7382	115.914	13.0611	-0.033033	0.799075	-0.284959	-0.286394	-0.045395	25.7382	-0.283636	-2677.68	1.695329E-5	NaN
131	1.000000	0.842525	7.36632e+06	-45189.1	955.818	-29773.8	0.000000	0.000000	6.843107	-0.020766	NaN	0.000000	0.001599	0.001708	28.1317	0.063045	0.001927	32.7183	-43.704	-165.412	0.080020	0.841168	-0.242943	-0.244301	-0.020766	32.7183	-0.242467	-628.121	3.306052E-5	NaN
131	1.000000	0.884518	7.36632e+06	-45189.1	955.819	-29773.8	0.000000	0.000000	6.885100	-0.011653	NaN	0.000000	0.001597	0.001669	28.101	0.095628	0.001969	48.5751	-116.645	13.9926	-0.031415	0.883155	-0.200950	-0.202314	-0.011653	48.5751	-0.200770	-135.627	8.592077E-5	NaN
131	1.000000	0.926532	7.36632e+06	-45189.1	955.818	-29773.8	0.000000	0.000000	6.927115	-0.005910	NaN	0.000000	0.001561	0.001697	28.0792	0.082456	0.002073	39.7753	-111.769	-167.049	0.049043	0.925270	-0.158936	-0.160199	-0.005910	39.7753	-0.158825	-26.1258	0.000226	NaN
131	1.000000	0.968539	7.36632e+06	-45189.1	955.819	-29773.8	0.000000	0.000000	6.969121	-0.015626	NaN	0.000000	0.001549	0.001677	28.0912	0.079007	0.002005	39.4081	-10.806	12.5223	-0.030690	0.967199	-0.116929	-0.118270	-0.015626	39.4081	-0.116632	-4.126922	0.003786	NaN
131	1.000000	1.010578	7.36632e+06	-45189.1	955.82	-29773.8	0.000000	0.000000	7.011161	0.007715	NaN	0.000000	0.001534	0.001695	28.1301	0.034802	0.001929	18.038	-110.724	-162.071	0.000308	1.009249	-0.074890	-0.076219	0.007715	18.038	-0.075211	-0.467701	-0.016495	NaN
131	1.000000	1.052569	7.36633e+06	-45189.1	955.819	-29773.8	0.000000	0.000000	7.053153	0.039846	NaN	0.000000	0.001521	0.001727	28.1033	0.025499	0.002097	12.1569	-77.6647	16.8312	0.099428	1.051255	-0.032899	-0.034213	0.039846	12.1569	-0.035357	-0.032811	-1.214407	NaN
131	1.000000	1.094497	7.36633e+06	-45189.1	955.819	-29773.8	0.000000	0.000000	7.095375	7.192937	NaN	0.000000	0.001550	0.001706	28.0813	7.582536	0.001890	4011.69	14.3272	-171.939	5.958895	1.093203	0.009028	0.007734	7.192937	4011.69	0.007683	0.006719	1070.58	44715.4
131	2.000000	1.105666	7.36633e+06	-45189.1	955.82	-29773.8	0.000000	0.000000	7.107237	24.0507	NaN	0.000000	0.001564	0.001696	28.0923	19.8733	0.001807	10998.1	5.097765	3.623578	22.6499	1.105364	0.020197	0.019896	24.0507	10998.1	0.018557	0.020325	1183.28	70480.8
131	2.000000	1.116177	7.36633e+06	-45189.1	955.819	-29773.8	0.000000	0.000000	7.118989	54.2392	NaN	0.000000	0.001585	0.001715	28.1295	29.6309	0.001722	17208.1	6.454442	179.23	54.4349	1.115810	0.030708	0.030342	54.2392	17208.1	0.028344	0.037382	1450.95	81316
131	2.000000	1.126598	7.36633e+06	-45189.1	955.82	-29773.8	0.000000	0.000000	7.131003	92.9972	NaN	0.000000	0.001650	0.001691	28.1036	39.8419	0.001700	23440.4	1.813399	0.628499	89.7875	1.126251	0.041130	0.040783	92.9972	23440.4	0.038154	0.059345	1567.06	87911.5
131	2.000000	1.137128	7.36633e+06	-45189.1	955.818	-29773.8	0.000000	0.000000	7.143312	136.263	NaN	0.000000	0.001605	0.001721	28.0795	49.8102	0.001743	28573.2	3.621051	178.016	136.936	1.136878	0.051660	0.051410	136.263	28573.2	0.048083	0.086580	1573.84	88720.3
131	2.000000	1.147597	7.36633e+06	-45189.1	955.819	-29773.8	0.000000	0.000000	7.156043	191.304	NaN	0.000000	0.001627	0.001718	28.0912	59.3755	0.001775	33443.2	5.240127	-4.990624	190.204	1.147261	0.062128	0.061793	191.304	33443.2	0.057838	0.118170	1618.88	88884.6
131	2.000000	1.158020	7.36633e+06	-45189.1	955.819	-29773.8	0.000000	0.000000	7.169019	253.408	NaN	0.000000	0.001625	0.001682	28.1312	69.3022	0.001757	39448.1	5.783460	172.962	249.039	1.157712	0.072552	0.072243	253.408	39448.1	0.067734	0.154991	1634.98	91547.3
131	2.000000	1.168636	7.36633e+06	-45189.1	955.819	-29773.8	0.000000	0.000000	7.182474	322.473	NaN	0.000000	0.001596	0.001659	28.1056	78.7663	0.001849	42596.4	5.134982	-6.292840	323.164	1.168213	0.083167	0.082744	322.473	42596.4	0.077490	0.195882	1646.26	87932.4
131	2.000000	1.179061	7.36633e+06	-45189.1	955.819	-29773.8	0.000000	0.000000	7.195965	397.059	NaN	0.000000	0.001634	0.001739	28.0787	88.722	0.001810	49013.6	5.821941	171.225	394.843	1.178710	0.093593	0.093242	397.059	49013.6	0.087517	0.242554	1636.99	90925.6
131	2.000000	1.189483	7.36633e+06	-45189.1	955.821	-29773.8	0.000000	0.000000	7.210421	495.186	NaN	0.000000	0.001590	0.001712	28.0907	96.6128	0.001702	56756.5	3.014033	-6.826682	489.03	1.189194	0.104014	0.103725	495.186	56756.5	0.097471	0.293463	1687.39	95722.1
131	2.000000	1.194019	7.36633e+06	-45189.1	955.82	-29773.8	0.000000	0.000000	7.216556	534.09	NaN	0.000000	0.001556	0.001711	28.1292	100.987	0.001651	61167.6	3.739375	172.059	531.523	1.193622	0.108551	0.108154	534.09	61167.6	0.102002	0.318136	1678.81	99080.4