File: remote_trans/data/nanoindenter/0828-1/data/Data_2025-08-06,11h17m57s/2025-07-22_16-23-58_1_1074.txt
2025-07-22, 16:23:58, 1
Index	Phase	Displacement	Time	Pos X	Pos Y	Pos Z	Rot A	Rot B	Piezo Z	Force A	Force B	Gripper	Voltage A	Voltage B	Temperature	Amplitude force	Amplitude pos	Stiffness	Phase shift	Phase excitation	Force A raw	Displacement raw	HMax	HMax raw	Real Force	Real Stiffness	Contact Depth	Area	Hardness	Reduced Mod.
[#]	[#]	[um]	[s]	[um]	[um]	[um]	[m°]	[m°]	[um]	[uN]	[uN]	[V]	[V]	[V]	[°C]	[uN]	[um]	[N/m]	[°]	[°]	[uN]	[um]	[um]	[um]	[uN]	[N/m]	[um]	[um^2]	[MPa]	[MPa]
1074	1.000000	0.002437	7.37555e+06	-53839.1	1055.82	-29745.1	0.000000	0.000000	6.002784	-0.027809	NaN	0.000000	0.001603	0.001656	28.0835	0.058636	0.000917	63.9614	134.262	-168.111	0.032006	0.001196	-1.107695	-1.108937	-0.027809	63.9614	-1.107369	-6.294750E+14	4.417736E-17	NaN
1074	1.000000	0.044380	7.37555e+06	-53839.1	1055.82	-29745.1	0.000000	0.000000	6.044731	0.062246	NaN	0.000000	0.001593	0.001626	28.0831	0.084886	0.001970	43.0786	-36.5008	17.4942	0.037360	0.043061	-1.065752	-1.067072	0.062246	43.0786	-1.066836	-1.797549E+14	-3.462853E-16	NaN
1074	1.000000	0.086388	7.37556e+06	-53839.1	1055.82	-29745.1	0.000000	0.000000	6.086741	0.120532	NaN	0.000000	0.001630	0.001603	28.0834	0.025439	0.001845	13.7908	178.989	-164.367	0.079867	0.085139	-1.023744	-1.024993	0.120532	13.7908	-1.030299	-5.801007E+13	-2.077772E-15	NaN
1074	1.000000	0.128441	7.37556e+06	-53839.1	1055.82	-29745.1	0.000000	0.000000	6.128788	-0.011134	NaN	0.000000	0.001566	0.001635	28.0821	0.106729	0.001945	54.8816	-88.4727	16.3823	0.061233	0.127036	-0.981692	-0.983096	-0.011134	54.8816	-0.981540	-1.279828E+13	8.699500E-16	NaN
1074	1.000000	0.170463	7.37556e+06	-53839.1	1055.82	-29745.1	0.000000	0.000000	6.170810	-0.020660	NaN	0.000000	0.001612	0.001606	28.082	0.060930	0.001917	31.786	-32.0834	-163.737	-0.048292	0.169056	-0.939669	-0.941076	-0.020660	31.786	-0.939182	-3.436353E+12	6.012138E-15	NaN
1074	1.000000	0.212478	7.37556e+06	-53839.1	1055.82	-29745.1	0.000000	0.000000	6.212827	0.017315	NaN	0.000000	0.001566	0.001639	28.0819	0.132003	0.001860	70.9529	-80.1127	14.3446	0.022847	0.211080	-0.897654	-0.899052	0.017315	70.9529	-0.897837	-9.502487E+11	-1.822185E-14	NaN
1074	1.000000	0.254541	7.37556e+06	-53839.1	1055.82	-29745.1	0.000000	0.000000	6.254890	0.014705	NaN	0.000000	0.001557	0.001604	28.0818	0.104931	0.001871	56.0703	-102.757	-167.922	0.013697	0.253231	-0.855591	-0.856901	0.014705	56.0703	-0.855788	-2.565083E+11	-5.732637E-14	NaN
1074	1.000000	0.296512	7.37556e+06	-53839.1	1055.82	-29745.1	0.000000	0.000000	6.296859	-0.029061	NaN	0.000000	0.001616	0.001631	28.0835	0.023690	0.002027	11.6893	141.062	14.7647	-0.031201	0.295130	-0.813620	-0.815002	-0.029061	11.6893	-0.811755	-6.492138E+10	4.476289E-13	NaN
1074	1.000000	0.338516	7.37556e+06	-53839.1	1055.82	-29745.1	0.000000	0.000000	6.338862	-0.056608	NaN	0.000000	0.001634	0.001606	28.0835	0.029043	0.002046	14.1972	-12.5242	-165.061	0.044716	0.337200	-0.771617	-0.772933	-0.056608	14.1972	-0.768626	-1.685100E+10	3.359346E-12	NaN
1074	1.000000	0.380568	7.37556e+06	-53839.1	1055.82	-29745.1	0.000000	0.000000	6.380919	0.060173	NaN	0.000000	0.001617	0.001635	28.0834	0.056937	0.001960	29.0563	-108.045	16.4427	0.020776	0.379161	-0.729564	-0.730971	0.060173	29.0563	-0.731117	-5.200402E+9	-1.157091E-11	NaN
1074	1.000000	0.422548	7.37556e+06	-53839.1	1055.82	-29745.1	0.000000	0.000000	6.422894	-0.044138	NaN	0.000000	0.001615	0.001661	28.0821	0.040095	0.002069	19.3743	58.9353	-162.539	-0.002244	0.421214	-0.687584	-0.688919	-0.044138	19.3743	-0.685876	-1.254711E+9	3.517810E-11	NaN
1074	1.000000	0.464567	7.37556e+06	-53839.1	1055.82	-29745.1	0.000000	0.000000	6.464915	-0.006508	NaN	0.000000	0.001617	0.001629	28.0819	0.048796	0.002003	24.3638	151.005	14.8616	-0.017881	0.463182	-0.645565	-0.646950	-0.006508	24.3638	-0.645365	-3.498502E+8	1.860101E-11	NaN
1074	1.000000	0.506597	7.37556e+06	-53839.1	1055.82	-29745.1	0.000000	0.000000	6.506942	-0.093134	NaN	0.000000	0.001646	0.001599	28.0822	0.181455	0.001977	91.781	105.05	-163.789	-0.032512	0.505246	-0.603535	-0.604887	-0.093134	91.781	-0.602774	-9.092026E+7	1.024351E-9	NaN
1074	1.000000	0.548616	7.37556e+06	-53839.1	1055.82	-29745.1	0.000000	0.000000	6.548964	-0.005563	NaN	0.000000	0.001579	0.001642	28.0838	0.128375	0.001835	69.9601	176.492	14.9302	-0.041251	0.547302	-0.561516	-0.562831	-0.005563	69.9601	-0.561456	-2.446384E+7	2.273827E-10	NaN
1074	1.000000	0.590622	7.37556e+06	-53839.1	1055.82	-29745.1	0.000000	0.000000	6.590968	-0.056759	NaN	0.000000	0.001596	0.001666	28.0839	0.071638	0.002096	34.1823	162.706	-164.197	0.012066	0.589314	-0.519510	-0.520818	-0.056759	34.1823	-0.518265	-6.15826e+06	9.216768E-9	NaN
1074	1.000000	0.632641	7.37556e+06	-53839.1	1055.82	-29745.1	0.000000	0.000000	6.632991	0.040373	NaN	0.000000	0.001572	0.001686	28.0839	0.070741	0.002050	34.51	18.5295	14.8407	0.128086	0.631280	-0.477491	-0.478852	0.040373	34.51	-0.478368	-1.70877e+06	-2.362681E-8	NaN
1074	1.000000	0.674673	7.37556e+06	-53839.1	1055.82	-29745.1	0.000000	0.000000	6.675018	-0.068091	NaN	0.000000	0.001556	0.001668	28.0828	0.054962	0.002008	27.3651	-75.2422	-165.524	-0.074627	0.673368	-0.435460	-0.436765	-0.068091	27.3651	-0.433593	-400753	1.699083E-7	NaN
1074	1.000000	0.716689	7.37556e+06	-53839.1	1055.82	-29745.1	0.000000	0.000000	6.717037	-0.004037	NaN	0.000000	0.001583	0.001690	28.0825	0.043555	0.002072	21.0173	84.2006	16.9932	-0.002138	0.715306	-0.393443	-0.394826	-0.004037	21.0173	-0.393299	-107234	3.764425E-8	NaN
1074	1.000000	0.758703	7.37556e+06	-53839.1	1055.82	-29745.1	0.000000	0.000000	6.759050	-0.009222	NaN	0.000000	0.001573	0.001691	28.0826	0.068330	0.001928	35.44	113.049	-164.88	-0.051464	0.757408	-0.351430	-0.352724	-0.009222	35.44	-0.351234	-26602	3.466662E-7	NaN
1074	1.000000	0.800702	7.37556e+06	-53839.1	1055.82	-29745.1	0.000000	0.000000	6.801046	-0.082149	NaN	0.000000	0.001571	0.001672	28.0823	0.044340	0.001962	22.5967	-14.391	12.0113	-0.003695	0.799342	-0.309431	-0.310791	-0.082149	22.5967	-0.306704	-5918.84	1.387929E-5	NaN
1074	1.000000	0.842741	7.37556e+06	-53839.1	1055.82	-29745.1	0.000000	0.000000	6.843085	-0.098028	NaN	0.000000	0.001573	0.001651	28.0837	0.081824	0.002012	40.6758	166.478	-163.973	0.001507	0.841470	-0.267391	-0.268663	-0.098028	40.6758	-0.265584	-1426.59	6.871528E-5	NaN
1074	1.000000	0.884773	7.37556e+06	-53839.1	1055.82	-29745.1	0.000000	0.000000	6.885120	-0.016207	NaN	0.000000	0.001556	0.001703	28.0836	0.095522	0.002009	47.5449	-170.731	15.221	-0.045980	0.883410	-0.225359	-0.226722	-0.016207	47.5449	-0.225104	-334.953	4.838729E-5	NaN
1074	1.000000	0.926762	7.37556e+06	-53839.1	1055.82	-29745.1	0.000000	0.000000	6.927106	-0.093834	NaN	0.000000	0.001584	0.001668	28.0837	0.058912	0.002130	27.6554	76.0194	-166.153	-0.005995	0.925468	-0.183371	-0.184665	-0.093834	27.6554	-0.180826	-63.0242	0.001489	NaN
1074	1.000000	0.968776	7.37556e+06	-53839.1	1055.82	-29745.1	0.000000	0.000000	6.969122	-0.037352	NaN	0.000000	0.001568	0.001755	28.0822	0.066205	0.002080	31.8328	-158.809	16.7805	-0.091643	0.967455	-0.141357	-0.142677	-0.037352	31.8328	-0.140476	-12.0756	0.003093	NaN
1074	1.000000	1.010816	7.37556e+06	-53839.1	1055.82	-29745.1	0.000000	0.000000	7.011164	-0.010438	NaN	0.000000	0.001592	0.001678	28.0824	0.163387	0.001993	81.9865	-119.501	-164.499	-0.051635	1.009507	-0.099316	-0.100625	-0.010438	81.9865	-0.099221	-1.755740	0.005945	NaN
1074	1.000000	1.052816	7.37556e+06	-53839.1	1055.82	-29745.1	0.000000	0.000000	7.053160	-0.097847	NaN	0.000000	0.001516	0.001717	28.0822	0.060972	0.001954	31.2055	123.371	13.2518	-0.040345	1.051455	-0.057317	-0.058677	-0.097847	31.2055	-0.054965	-0.128470	0.761632	NaN
1074	1.000000	1.094808	7.37556e+06	-53839.1	1055.82	-29745.1	0.000000	0.000000	7.095154	-0.045191	NaN	0.000000	0.001575	0.001673	28.0832	0.044853	0.002048	21.9022	13.1008	-167.925	-0.038993	1.093493	-0.015324	-0.016639	-0.045191	21.9022	-0.013777	-0.008553	5.283677	NaN
1074	2.000000	1.122886	7.37556e+06	-53839.1	1055.82	-29745.1	0.000000	0.000000	7.123738	12.2501	NaN	0.000000	0.001551	0.001656	28.0834	12.3538	0.001679	7358.25	8.720184	4.049209	12.0868	1.122551	0.012754	0.012419	12.2501	7358.25	0.011505	0.010903	1123.58	64384.3
1074	2.000000	1.133332	7.37556e+06	-53839.1	1055.82	-29745.1	0.000000	0.000000	7.134759	26.2506	NaN	0.000000	0.001567	0.001743	28.0837	21.5149	0.001841	11688.1	9.465156	179.749	25.6171	1.133045	0.023199	0.022912	26.2506	11688.1	0.021515	0.024979	1050.92	67566.5
1074	2.000000	1.143797	7.37556e+06	-53839.1	1055.82	-29745.1	0.000000	0.000000	7.146218	50.3981	NaN	0.000000	0.001566	0.001723	28.0825	31.1233	0.001805	17238.2	7.698065	-3.085135	48.2129	1.143461	0.033664	0.033329	50.3981	17238.2	0.031472	0.043849	1149.35	75211.5
1074	2.000000	1.154241	7.37556e+06	-53839.1	1055.82	-29745.1	0.000000	0.000000	7.157807	78.2356	NaN	0.000000	0.001552	0.001699	28.0822	40.963	0.001926	21263.6	4.355359	178.413	75.3381	1.154043	0.044109	0.043910	78.2356	21263.6	0.041349	0.067562	1157.99	74741.1
1074	2.000000	1.164772	7.37556e+06	-53839.1	1055.82	-29745.1	0.000000	0.000000	7.170214	123.841	NaN	0.000000	0.001587	0.001665	28.082	49.9111	0.001740	28677.6	3.908070	-3.543127	120.84	1.164374	0.054640	0.054241	123.841	28677.6	0.051401	0.096794	1279.43	84215.4
1074	2.000000	1.175322	7.37556e+06	-53839.1	1055.82	-29745.1	0.000000	0.000000	7.182613	168.79	NaN	0.000000	0.001588	0.001708	28.0826	60.7442	0.001791	33925.6	7.167599	172.233	169.998	1.174988	0.065190	0.064855	168.79	33925.6	0.061458	0.131090	1287.59	85608.4
1074	2.000000	1.185866	7.37556e+06	-53839.1	1055.82	-29745.1	0.000000	0.000000	7.195103	216.085	NaN	0.000000	0.001554	0.001703	28.0837	72.0535	0.001943	37090.9	11.445	-13.1784	220.969	1.185306	0.075734	0.075174	216.085	37090.9	0.071365	0.169684	1273.46	82266.1
1074	2.000000	1.196236	7.37556e+06	-53839.1	1055.82	-29745.1	0.000000	0.000000	7.208301	284.859	NaN	0.000000	0.001555	0.001686	28.0837	81.0875	0.001870	43351.4	6.559201	170.387	282.671	1.195875	0.086104	0.085743	284.859	43351.4	0.081175	0.212495	1340.54	85921.3
1074	2.000000	1.206732	7.37556e+06	-53839.1	1055.82	-29745.1	0.000000	0.000000	7.221779	357.362	NaN	0.000000	0.001575	0.001744	28.0835	90.3977	0.001812	49901	0.512553	-5.232701	352.848	1.206407	0.096600	0.096275	357.362	49901	0.091229	0.261007	1369.17	89239.3
1074	2.000000	1.216628	7.37556e+06	-53839.1	1055.82	-29745.1	0.000000	0.000000	7.235103	440.704	NaN	0.000000	0.001517	0.001705	28.0818	100.853	0.001845	54657.4	6.730853	-11.635	434.173	1.216338	0.106495	0.106205	440.704	54657.4	0.100448	0.309569	1423.61	89751.9