File: remote_trans/data/nanoindenter/0828-1/data/Data_2025-08-06,11h17m57s/2025-07-22_16-23-58_1_155.txt
2025-07-22, 16:23:58, 1
Index	Phase	Displacement	Time	Pos X	Pos Y	Pos Z	Rot A	Rot B	Piezo Z	Force A	Force B	Gripper	Voltage A	Voltage B	Temperature	Amplitude force	Amplitude pos	Stiffness	Phase shift	Phase excitation	Force A raw	Displacement raw	HMax	HMax raw	Real Force	Real Stiffness	Contact Depth	Area	Hardness	Reduced Mod.
[#]	[#]	[um]	[s]	[um]	[um]	[um]	[m°]	[m°]	[um]	[uN]	[uN]	[V]	[V]	[V]	[°C]	[uN]	[um]	[N/m]	[°]	[°]	[uN]	[um]	[um]	[um]	[uN]	[N/m]	[um]	[um^2]	[MPa]	[MPa]
155	1.000000	0.002308	7.36656e+06	-46389.1	955.818	-29769.8	0.000000	0.000000	6.002811	-0.026888	NaN	0.000000	0.001648	0.001681	28.1192	0.044298	0.000863	51.3223	137.877	-162.305	-0.031026	0.001020	-1.093739	-1.095028	-0.026888	51.3223	-1.093346	-4.080767E+14	6.589005E-17	NaN
155	1.000000	0.044218	7.36656e+06	-46389.1	955.818	-29769.8	0.000000	0.000000	6.044723	0.015978	NaN	0.000000	0.001673	0.001632	28.1245	0.050734	0.001983	25.5848	19.47	14.2435	0.042062	0.042965	-1.051830	-1.053083	0.015978	25.5848	-1.052298	-1.146322E+14	-1.393831E-16	NaN
155	1.000000	0.086267	7.36656e+06	-46389.1	955.817	-29769.8	0.000000	0.000000	6.086769	-0.045015	NaN	0.000000	0.001649	0.001650	28.085	0.081032	0.001899	42.6793	-60.7449	-165.57	-0.078306	0.084985	-1.009781	-1.011063	-0.045015	42.6793	-1.008990	-2.997687E+13	1.501644E-15	NaN
155	1.000000	0.128274	7.36656e+06	-46389.1	955.817	-29769.8	0.000000	0.000000	6.128779	0.018951	NaN	0.000000	0.001642	0.001659	28.0834	0.039274	0.001951	20.1332	-145.745	15.4565	0.050873	0.126891	-0.967773	-0.969156	0.018951	20.1332	-0.968479	-8.534313E+12	-2.220526E-15	NaN
155	1.000000	0.170281	7.36656e+06	-46389.1	955.818	-29769.8	0.000000	0.000000	6.170786	0.011786	NaN	0.000000	0.001632	0.001672	28.1179	0.026732	0.001961	13.6324	-39.2803	-163.306	0.086792	0.168967	-0.925766	-0.927081	0.011786	13.6324	-0.926415	-2.311027E+12	-5.099867E-15	NaN
155	1.000000	0.212311	7.36656e+06	-46389.1	955.818	-29769.8	0.000000	0.000000	6.212814	-0.034242	NaN	0.000000	0.001653	0.001636	28.124	0.016337	0.001947	8.391649	23.2825	11.8149	-0.051246	0.210952	-0.883737	-0.885095	-0.034242	8.391649	-0.880676	-5.570004E+11	6.147659E-14	NaN
155	1.000000	0.254353	7.36656e+06	-46389.1	955.819	-29769.8	0.000000	0.000000	6.254857	0.004712	NaN	0.000000	0.001599	0.001658	28.0857	0.080508	0.002162	37.2382	104.486	-166.292	0.071944	0.253083	-0.841695	-0.842964	0.004712	37.2382	-0.841790	-1.657819E+11	-2.842500E-14	NaN
155	1.000000	0.296373	7.36656e+06	-46389.1	955.818	-29769.8	0.000000	0.000000	6.296876	-0.025691	NaN	0.000000	0.001596	0.001649	28.0845	0.019257	0.002011	9.573851	39.8752	14.0334	-0.003558	0.295013	-0.799675	-0.801035	-0.025691	9.573851	-0.797662	-4.179522E+10	6.146927E-13	NaN
155	1.000000	0.338377	7.36656e+06	-46389.1	955.819	-29769.8	0.000000	0.000000	6.338881	-0.016662	NaN	0.000000	0.001683	0.001648	28.1174	0.075806	0.001969	38.5023	75.8852	-165.113	-0.074136	0.337034	-0.757670	-0.759014	-0.016662	38.5023	-0.757346	-1.183565E+10	1.407780E-12	NaN
155	1.000000	0.380380	7.36656e+06	-46389.1	955.818	-29769.8	0.000000	0.000000	6.380885	0.028331	NaN	0.000000	0.001672	0.001637	28.1263	0.018183	0.001964	9.255761	133.854	14.2037	0.054751	0.379006	-0.715668	-0.717041	0.028331	9.255761	-0.717963	-3.441070E+9	-8.233241E-12	NaN
155	1.000000	0.422395	7.36656e+06	-46389.1	955.818	-29769.8	0.000000	0.000000	6.422900	0.021074	NaN	0.000000	0.001608	0.001668	28.0846	0.029377	0.001940	15.1444	-41.0795	-164.479	0.011371	0.421119	-0.673652	-0.674928	0.021074	15.1444	-0.674696	-8.823752E+8	-2.388377E-11	NaN
155	1.000000	0.464412	7.36656e+06	-46389.1	955.819	-29769.8	0.000000	0.000000	6.464916	-0.012420	NaN	0.000000	0.001629	0.001657	28.0833	0.039432	0.002001	19.71	153.181	13.3985	-0.037699	0.463046	-0.631635	-0.633002	-0.012420	19.71	-0.631163	-2.233516E+8	5.560773E-11	NaN
155	1.000000	0.506443	7.36656e+06	-46389.1	955.819	-29769.8	0.000000	0.000000	6.506945	-0.048679	NaN	0.000000	0.001600	0.001652	28.1156	0.033597	0.001965	17.0992	-2.119592	-165.866	-0.023212	0.505097	-0.589605	-0.590950	-0.048679	17.0992	-0.587470	-5.594673E+7	8.700986E-10	NaN
155	1.000000	0.548462	7.36656e+06	-46389.1	955.818	-29769.8	0.000000	0.000000	6.548966	0.011407	NaN	0.000000	0.001602	0.001716	28.1266	0.095435	0.001995	47.8408	-87.3522	14.1329	0.031813	0.547064	-0.547586	-0.548984	0.011407	47.8408	-0.547765	-1.581217E+7	-7.214233E-10	NaN
155	1.000000	0.590466	7.36656e+06	-46389.1	955.817	-29769.8	0.000000	0.000000	6.590971	0.016103	NaN	0.000000	0.001642	0.001661	28.0859	0.090094	0.001968	45.7751	-38.8631	-165.538	-0.017646	0.589174	-0.505581	-0.506874	0.016103	45.7751	-0.505845	-4.13549e+06	-3.893780E-9	NaN
155	1.000000	0.632514	7.36656e+06	-46389.1	955.819	-29769.8	0.000000	0.000000	6.633016	-0.054755	NaN	0.000000	0.001653	0.001666	28.0829	0.062740	0.001994	31.463	65.231	12.3532	-0.045187	0.631157	-0.463533	-0.464890	-0.054755	31.463	-0.462228	-1.01466e+06	5.396400E-8	NaN
155	1.000000	0.674492	7.36656e+06	-46389.1	955.819	-29769.8	0.000000	0.000000	6.674998	0.048971	NaN	0.000000	0.001617	0.001676	28.1146	0.042310	0.002122	19.9433	142.371	-165.968	0.026815	0.673160	-0.421556	-0.422888	0.048971	19.9433	-0.423397	-287458	-1.703596E-7	NaN
155	1.000000	0.716567	7.36656e+06	-46389.1	955.819	-29769.8	0.000000	0.000000	6.717070	-0.032440	NaN	0.000000	0.001718	0.001719	28.1251	0.120425	0.002135	56.4173	19.2067	13.5325	0.011152	0.715146	-0.379480	-0.380901	-0.032440	56.4173	-0.379049	-67025.1	4.840010E-7	NaN
155	1.000000	0.758583	7.36656e+06	-46389.1	955.818	-29769.8	0.000000	0.000000	6.759085	-0.052710	NaN	0.000000	0.001739	0.001682	28.0865	0.163546	0.001980	82.5846	-59.4476	-168.754	-0.161604	0.757225	-0.337464	-0.338823	-0.052710	82.5846	-0.336986	-16503.9	3.193810E-6	NaN
155	1.000000	0.800570	7.36656e+06	-46389.1	955.818	-29769.8	0.000000	0.000000	6.801075	0.026435	NaN	0.000000	0.001676	0.001662	28.0831	0.076105	0.001918	39.6854	101.488	14.9028	0.006120	0.799237	-0.295477	-0.296811	0.026435	39.6854	-0.295977	-4098.97	-6.449114E-6	NaN
155	1.000000	0.842604	7.36656e+06	-46389.1	955.817	-29769.8	0.000000	0.000000	6.843107	-0.021492	NaN	0.000000	0.001646	0.001658	28.1158	0.100568	0.002046	49.1478	168.143	-168.04	-0.035805	0.841277	-0.253444	-0.254771	-0.021492	49.1478	-0.253116	-918.509	2.339855E-5	NaN
155	1.000000	0.884588	7.36656e+06	-46389.1	955.819	-29769.8	0.000000	0.000000	6.885090	-0.061719	NaN	0.000000	0.001618	0.001663	28.1269	0.072412	0.001978	36.616	169.138	9.067684	-0.026259	0.883200	-0.211459	-0.212847	-0.061719	36.616	-0.210195	-193.188	0.000319	NaN
155	1.000000	0.926621	7.36656e+06	-46389.1	955.819	-29769.8	0.000000	0.000000	6.927121	-0.101285	NaN	0.000000	0.001614	0.001655	28.0877	0.057736	0.002101	27.486	-118.094	-167.041	-0.078532	0.925308	-0.169427	-0.170739	-0.101285	27.486	-0.166663	-35.9295	0.002819	NaN
155	1.000000	0.968614	7.36656e+06	-46389.1	955.818	-29769.8	0.000000	0.000000	6.969119	0.029356	NaN	0.000000	0.001599	0.001641	28.0814	0.095072	0.001971	48.2398	115.96	13.7579	-0.053238	0.967267	-0.127434	-0.128780	0.029356	48.2398	-0.127890	-6.932261	-0.004235	NaN
155	1.000000	1.010636	7.36656e+06	-46389.1	955.818	-29769.8	0.000000	0.000000	7.011135	-0.109987	NaN	0.000000	0.001638	0.001636	28.1133	0.095291	0.002242	42.5022	92.1149	-169.618	-0.102867	1.009351	-0.085412	-0.086696	-0.109987	42.5022	-0.083471	-0.754209	0.145832	NaN
155	1.000000	1.052657	7.36656e+06	-46389.1	955.817	-29769.8	0.000000	0.000000	7.053158	-0.091003	NaN	0.000000	0.001628	0.001613	28.1257	0.158612	0.002026	78.301	-129.817	13.5392	-0.104288	1.051272	-0.043390	-0.044775	-0.091003	78.301	-0.042518	-0.053964	1.686354	NaN
155	1.000000	1.094687	7.36656e+06	-46389.1	955.818	-29769.8	0.000000	0.000000	7.095188	-0.085672	NaN	0.000000	0.001652	0.001623	28.0878	0.057241	0.002045	27.9886	-89.9922	-166.288	-0.072672	1.093369	-0.001360	-0.002678	-0.085672	27.9886	0.000935	0.000712	-120.356	958.452
155	2.000000	1.113633	7.36656e+06	-46389.1	955.818	-29769.8	0.000000	0.000000	7.115104	23.5234	NaN	0.000000	0.001694	0.001633	28.0821	16.9857	0.001765	9622.39	4.711292	3.576131	21.3326	1.113278	0.017585	0.017231	23.5234	9622.39	0.015752	0.016301	1443.05	68856.8
155	2.000000	1.124129	7.36656e+06	-46389.1	955.818	-29769.8	0.000000	0.000000	7.126612	48.1362	NaN	0.000000	0.001671	0.001670	28.1137	27.0738	0.001866	14506.7	3.878806	-177.031	47.8799	1.123819	0.028081	0.027772	48.1362	14506.7	0.025593	0.032103	1499.45	73972.6
155	2.000000	1.134596	7.36656e+06	-46389.1	955.817	-29769.8	0.000000	0.000000	7.138522	83.2446	NaN	0.000000	0.001676	0.001623	28.1267	35.3972	0.001806	19598.9	1.500737	2.321626	81.6753	1.134270	0.038548	0.038222	83.2446	19598.9	0.035363	0.052594	1582.77	78079.3
155	2.000000	1.145055	7.36656e+06	-46389.1	955.818	-29769.8	0.000000	0.000000	7.150465	119.335	NaN	0.000000	0.001712	0.001631	28.0877	46.5089	0.001788	26011.3	5.363669	175.828	118.61	1.144788	0.049008	0.048740	119.335	26011.3	0.045567	0.079204	1506.67	84442.6
155	2.000000	1.155612	7.36656e+06	-46389.1	955.818	-29769.8	0.000000	0.000000	7.163006	167.602	NaN	0.000000	0.001719	0.001631	28.0805	55.3433	0.001718	32205.3	3.753686	-4.416607	166.628	1.155236	0.059565	0.059189	167.602	32205.3	0.055661	0.110712	1513.85	88430.8
155	2.000000	1.166121	7.36656e+06	-46389.1	955.82	-29769.8	0.000000	0.000000	7.175963	227.13	NaN	0.000000	0.001669	0.001646	28.1124	66.5517	0.001781	37367.9	5.251490	173.575	227.052	1.165758	0.070074	0.069711	227.13	37367.9	0.065515	0.146324	1552.24	89251.2
155	2.000000	1.176508	7.36656e+06	-46389.1	955.818	-29769.8	0.000000	0.000000	7.188758	285.718	NaN	0.000000	0.001635	0.001665	28.1278	74.9549	0.001733	43261.5	3.783006	-6.310083	281.706	1.176188	0.080461	0.080140	285.718	43261.5	0.075507	0.187209	1526.19	91350.5
155	2.000000	1.187030	7.36656e+06	-46389.1	955.818	-29769.8	0.000000	0.000000	7.202367	360.808	NaN	0.000000	0.001615	0.001589	28.0905	86.0059	0.001772	48523.7	5.165709	170.615	360.101	1.186794	0.090982	0.090747	360.808	48523.7	0.085405	0.232339	1552.94	91974.2
155	2.000000	1.197439	7.36656e+06	-46389.1	955.818	-29769.8	0.000000	0.000000	7.215882	436.371	NaN	0.000000	0.001626	0.001626	28.0819	94.0115	0.001808	51998.3	3.583748	-7.373691	430.674	1.197175	0.101391	0.101128	436.371	51998.3	0.095097	0.280913	1553.4	89634.7
155	2.000000	1.204485	7.36656e+06	-46389.1	955.819	-29769.8	0.000000	0.000000	7.225073	488.533	NaN	0.000000	0.001659	0.001684	28.1285	100.64	0.001862	54046.9	2.604221	-7.482268	482.14	1.204210	0.108438	0.108163	488.533	54046.9	0.101658	0.316231	1544.86	87809.4