File: remote_trans/data/nanoindenter/0828-1/data/Data_2025-08-06,11h17m57s/2025-07-22_16-23-58_1_1022.txt
2025-07-22, 16:23:58, 1
Index	Phase	Displacement	Time	Pos X	Pos Y	Pos Z	Rot A	Rot B	Piezo Z	Force A	Force B	Gripper	Voltage A	Voltage B	Temperature	Amplitude force	Amplitude pos	Stiffness	Phase shift	Phase excitation	Force A raw	Displacement raw	HMax	HMax raw	Real Force	Real Stiffness	Contact Depth	Area	Hardness	Reduced Mod.
[#]	[#]	[um]	[s]	[um]	[um]	[um]	[m°]	[m°]	[um]	[uN]	[uN]	[V]	[V]	[V]	[°C]	[uN]	[um]	[N/m]	[°]	[°]	[uN]	[um]	[um]	[um]	[uN]	[N/m]	[um]	[um^2]	[MPa]	[MPa]
1022	1.000000	0.002251	7.37504e+06	-51239.1	1055.82	-29752.8	0.000000	0.000000	6.002742	-0.034115	NaN	0.000000	0.001655	0.001746	28.0855	0.088740	0.001063	83.4644	-143.749	177.259	-0.107577	0.000912	-1.110114	-1.111453	-0.034115	83.4644	-1.109808	-6.787486E+14	5.026142E-17	NaN
1022	1.000000	0.044194	7.37504e+06	-51239.1	1055.82	-29752.8	0.000000	0.000000	6.044689	0.047857	NaN	0.000000	0.001636	0.001739	28.0843	0.053985	0.001909	28.2832	-124.492	-0.960678	0.037390	0.042841	-1.068171	-1.069524	0.047857	28.2832	-1.069440	-1.948352E+14	-2.456290E-16	NaN
1022	1.000000	0.086229	7.37504e+06	-51239.1	1055.82	-29752.8	0.000000	0.000000	6.086725	0.056408	NaN	0.000000	0.001603	0.001739	28.0839	0.073582	0.001927	38.1894	172.042	177.863	0.026421	0.084883	-1.026136	-1.027482	0.056408	38.1894	-1.027243	-5.277153E+13	-1.068903E-15	NaN
1022	1.000000	0.128220	7.37505e+06	-51239.1	1055.82	-29752.8	0.000000	0.000000	6.128714	0.030861	NaN	0.000000	0.001674	0.001743	28.0841	0.034935	0.002015	17.3379	-90.0822	-5.863065	0.045304	0.126840	-0.984145	-0.985525	0.030861	17.3379	-0.985480	-1.446215E+13	-2.133881E-15	NaN
1022	1.000000	0.170246	7.37505e+06	-51239.1	1055.82	-29752.9	0.000000	0.000000	6.170737	-0.057168	NaN	0.000000	0.001668	0.001727	28.0852	0.135635	0.002002	67.7537	85.0316	177.394	-0.054554	0.168902	-0.942118	-0.943463	-0.057168	67.7537	-0.941486	-3.691308E+12	1.548731E-14	NaN
1022	1.000000	0.212248	7.37505e+06	-51239.1	1055.82	-29752.9	0.000000	0.000000	6.212739	-0.040521	NaN	0.000000	0.001624	0.001735	28.0851	0.053811	0.001990	27.0392	-101.059	-4.544305	-0.016643	0.210938	-0.900117	-0.901427	-0.040521	27.0392	-0.898993	-9.850672E+11	4.113485E-14	NaN
1022	1.000000	0.254262	7.37505e+06	-51239.1	1055.82	-29752.9	0.000000	0.000000	6.254752	-0.068785	NaN	0.000000	0.001694	0.001748	28.0851	0.049437	0.001929	25.6308	70.315	-176.078	-0.075816	0.252932	-0.858103	-0.859433	-0.068785	25.6308	-0.856090	-2.589374E+11	2.656445E-13	NaN
1022	1.000000	0.296258	7.37505e+06	-51239.1	1055.82	-29752.9	0.000000	0.000000	6.296748	-0.084891	NaN	0.000000	0.001658	0.001725	28.0852	0.109004	0.002152	50.6458	-158.584	-2.898648	-0.080922	0.294911	-0.816107	-0.817454	-0.084891	50.6458	-0.814850	-7.150933E+10	1.187129E-12	NaN
1022	1.000000	0.338342	7.37505e+06	-51239.1	1055.82	-29752.9	0.000000	0.000000	6.338834	-0.018848	NaN	0.000000	0.001614	0.001732	28.084	0.065867	0.001973	33.3786	-117.97	179.815	-0.051790	0.336997	-0.774023	-0.775368	-0.018848	33.3786	-0.773599	-1.968974E+10	9.572290E-13	NaN
1022	1.000000	0.380328	7.37505e+06	-51239.1	1055.82	-29752.9	0.000000	0.000000	6.380820	-0.033060	NaN	0.000000	0.001630	0.001715	28.0841	0.007769	0.002091	3.714781	74.0296	-4.440283	0.003058	0.378986	-0.732037	-0.733379	-0.033060	3.714781	-0.725362	-4.341010E+9	7.615797E-12	NaN
1022	1.000000	0.422349	7.37505e+06	-51239.1	1055.82	-29752.9	0.000000	0.000000	6.422839	-0.067910	NaN	0.000000	0.001589	0.001734	28.084	0.034203	0.002015	16.9767	-75.2969	177.894	-0.005944	0.421025	-0.690016	-0.691340	-0.067910	16.9767	-0.687016	-1.300565E+9	5.221558E-11	NaN
1022	1.000000	0.464380	7.37505e+06	-51239.1	1055.82	-29752.9	0.000000	0.000000	6.464875	0.053867	NaN	0.000000	0.001595	0.001741	28.0853	0.071516	0.002070	34.5457	-111.759	-1.322779	0.035605	0.463037	-0.647985	-0.649328	0.053867	34.5457	-0.649155	-3.943179E+8	-1.366092E-10	NaN
1022	1.000000	0.506381	7.37505e+06	-51239.1	1055.82	-29752.9	0.000000	0.000000	6.506875	0.033817	NaN	0.000000	0.001649	0.001709	28.0853	0.104604	0.002123	49.2701	73.5827	174.906	0.054235	0.505113	-0.605984	-0.607252	0.033817	49.2701	-0.606499	-1.023143E+8	-3.305245E-10	NaN
1022	1.000000	0.548408	7.37505e+06	-51239.1	1055.82	-29752.9	0.000000	0.000000	6.548902	0.023801	NaN	0.000000	0.001625	0.001696	28.0848	0.055741	0.001888	29.5283	139.107	0.011589	-0.023639	0.547026	-0.563957	-0.565339	0.023801	29.5283	-0.564562	-2.700639E+7	-8.813276E-10	NaN
1022	1.000000	0.590439	7.37505e+06	-51239.1	1055.82	-29752.9	0.000000	0.000000	6.590934	0.035844	NaN	0.000000	0.001626	0.001719	28.0836	0.016647	0.002071	8.037036	-37.7505	176.382	0.030365	0.589101	-0.521926	-0.523264	0.035844	8.037036	-0.525270	-7.70671e+06	-4.650988E-9	NaN
1022	1.000000	0.632416	7.37505e+06	-51239.1	1055.82	-29752.9	0.000000	0.000000	6.632908	-0.011821	NaN	0.000000	0.001667	0.001680	28.0842	0.176659	0.001965	89.909	-83.3776	-2.342768	0.049446	0.631082	-0.479949	-0.481283	-0.011821	89.909	-0.479851	-1.79242e+06	6.594912E-9	NaN
1022	1.000000	0.674451	7.37505e+06	-51239.1	1055.82	-29752.9	0.000000	0.000000	6.674942	-0.043191	NaN	0.000000	0.001636	0.001635	28.0842	0.063688	0.002059	30.932	-118.893	171.682	-0.037993	0.673169	-0.437914	-0.439196	-0.043191	30.932	-0.436867	-445787	9.688666E-8	NaN
1022	1.000000	0.716480	7.37505e+06	-51239.1	1055.82	-29752.9	0.000000	0.000000	6.716972	-0.027279	NaN	0.000000	0.001618	0.001693	28.0852	0.058275	0.001954	29.8222	85.4539	-7.234487	-0.072198	0.715060	-0.395885	-0.397305	-0.027279	29.8222	-0.395199	-114152	2.389750E-7	NaN
1022	1.000000	0.758491	7.37505e+06	-51239.1	1055.82	-29752.9	0.000000	0.000000	6.758987	0.055254	NaN	0.000000	0.001605	0.001681	28.0852	0.015376	0.002017	7.621538	48.7867	175.862	0.079598	0.757170	-0.353874	-0.355195	0.055254	7.621538	-0.359311	-34824.2	-1.586643E-6	NaN
1022	1.000000	0.800524	7.37505e+06	-51239.1	1055.82	-29752.9	0.000000	0.000000	6.801018	0.019298	NaN	0.000000	0.001627	0.001694	28.0852	0.079565	0.001995	39.8752	-66.5908	-5.508602	0.016991	0.799162	-0.311841	-0.313203	0.019298	39.8752	-0.312204	-7139.13	-2.703138E-6	NaN
1022	1.000000	0.842526	7.37505e+06	-51239.1	1055.82	-29752.9	0.000000	0.000000	6.843021	0.042886	NaN	0.000000	0.001648	0.001658	28.0849	0.065969	0.001984	33.2586	159.979	176.603	-0.071194	0.841205	-0.269839	-0.271160	0.042886	33.2586	-0.270806	-1713.12	-2.503399E-5	NaN
1022	1.000000	0.884543	7.37505e+06	-51239.1	1055.82	-29752.9	0.000000	0.000000	6.885037	0.012734	NaN	0.000000	0.001651	0.001719	28.0843	0.034165	0.002057	16.6066	-139.938	-1.773947	0.075307	0.883187	-0.227821	-0.229178	0.012734	16.6066	-0.228397	-377.724	-3.371225E-5	NaN
1022	1.000000	0.926568	7.37505e+06	-51239.1	1055.82	-29752.9	0.000000	0.000000	6.927061	0.003795	NaN	0.000000	0.001669	0.001709	28.0841	0.101178	0.002025	49.971	-117.575	175.394	0.046383	0.925222	-0.185797	-0.187143	0.003795	49.971	-0.185854	-76.6511	-4.951578E-5	NaN
1022	1.000000	0.968558	7.37505e+06	-51239.1	1055.82	-29752.9	0.000000	0.000000	6.969050	-0.011383	NaN	0.000000	0.001667	0.001691	28.0843	0.054806	0.001989	27.556	85.7869	-4.261172	-0.007560	0.967220	-0.143807	-0.145145	-0.011383	27.556	-0.143497	-13.7501	0.000828	NaN
1022	1.000000	1.010594	7.37505e+06	-51239.1	1055.82	-29752.9	0.000000	0.000000	7.011085	-0.036251	NaN	0.000000	0.001678	0.001724	28.0856	0.037265	0.002018	18.4666	-32.3603	175.104	-0.024249	1.009288	-0.101771	-0.103077	-0.036251	18.4666	-0.100299	-1.855216	0.019540	NaN
1022	1.000000	1.052582	7.37505e+06	-51239.1	1055.82	-29752.9	0.000000	0.000000	7.053074	-0.030779	NaN	0.000000	0.001745	0.001685	28.0858	0.110595	0.001968	56.1973	-72.4627	-3.184225	-0.018455	1.051236	-0.059783	-0.061129	-0.030779	56.1973	-0.059372	-0.172759	0.178163	NaN
1022	1.000000	1.094627	7.37505e+06	-51239.1	1055.82	-29752.9	0.000000	0.000000	7.095118	-0.038579	NaN	0.000000	0.001643	0.001704	28.0856	0.106520	0.002019	52.7717	69.0784	172.834	-0.138776	1.093324	-0.017738	-0.019041	-0.038579	52.7717	-0.017190	-0.010632	3.628515	NaN
1022	2.000000	1.122693	7.37505e+06	-51239.1	1055.82	-29752.9	0.000000	0.000000	7.123799	14.9034	NaN	0.000000	0.001658	0.001741	28.0843	13.6658	0.001715	7970.05	6.463325	-15.6009	13.2946	1.122368	0.010328	0.010003	14.9034	7970.05	0.008925	0.008012	1860.23	81353.2
1022	2.000000	1.133150	7.37505e+06	-51239.1	1055.82	-29752.9	0.000000	0.000000	7.135266	39.4595	NaN	0.000000	0.001645	0.001766	28.0843	24.011	0.001711	14035.9	6.017480	160.867	37.6073	1.132864	0.020785	0.020499	39.4595	14035.9	0.018677	0.020505	1924.34	89552.5
1022	2.000000	1.143646	7.37505e+06	-51239.1	1055.82	-29752.9	0.000000	0.000000	7.146850	65.9228	NaN	0.000000	0.001631	0.001723	28.0841	34.5625	0.001783	19385	2.991683	-17.9762	63.7932	1.143335	0.031281	0.030970	65.9228	19385	0.028731	0.038154	1727.82	90671.4
1022	2.000000	1.154107	7.37505e+06	-51239.1	1055.82	-29752.9	0.000000	0.000000	7.158896	104.469	NaN	0.000000	0.001643	0.001676	28.0855	45.3129	0.001845	24560.3	6.476737	156.608	102.411	1.153772	0.041742	0.041407	104.469	24560.3	0.038552	0.060340	1731.34	91349.2
1022	2.000000	1.164590	7.37505e+06	-51239.1	1055.82	-29752.9	0.000000	0.000000	7.171323	151.739	NaN	0.000000	0.001646	0.001707	28.0854	54.1327	0.001817	29785.1	4.009809	-23.0201	148.495	1.164321	0.052225	0.051956	151.739	29785.1	0.048404	0.087544	1733.28	91972.6
1022	2.000000	1.175118	7.37505e+06	-51239.1	1055.82	-29752.9	0.000000	0.000000	7.184247	210.009	NaN	0.000000	0.001738	0.001626	28.0853	65.4099	0.001886	34688	8.584745	152.43	206.139	1.174704	0.062753	0.062339	210.009	34688	0.058212	0.119476	1757.75	91688
1022	2.000000	1.185593	7.37505e+06	-51239.1	1055.82	-29752.9	0.000000	0.000000	7.197103	267.893	NaN	0.000000	0.001663	0.001689	28.0855	75.5555	0.001745	43304.3	7.304583	-29.0018	264.852	1.185304	0.073228	0.072939	267.893	43304.3	0.068589	0.158394	1691.31	99411.2
1022	2.000000	1.196094	7.37505e+06	-51239.1	1055.82	-29752.9	0.000000	0.000000	7.210741	344.195	NaN	0.000000	0.001641	0.001738	28.0844	84.9501	0.001753	48450.6	5.257885	152.347	344.273	1.195709	0.083729	0.083344	344.195	48450.6	0.078401	0.199930	1721.58	98999.7
1022	2.000000	1.206550	7.37505e+06	-51239.1	1055.82	-29752.9	0.000000	0.000000	7.224339	420.565	NaN	0.000000	0.001650	0.001697	28.084	94.1489	0.001820	51727.7	3.026888	-25.3562	415.727	1.206122	0.094185	0.093757	420.565	51727.7	0.088088	0.245350	1714.14	95412
1022	2.000000	1.216583	7.37505e+06	-51239.1	1055.82	-29752.9	0.000000	0.000000	7.237896	506.256	NaN	0.000000	0.001649	0.001698	28.0843	103.387	0.001726	59913	4.226385	-27.8813	503.789	1.216244	0.104218	0.103879	506.256	59913	0.097881	0.295658	1712.3	100670