File: remote_trans/data/nanoindenter/0828-1/data/Data_2025-08-06,11h17m57s/2025-07-22_16-23-58_1_300.txt
2025-07-22, 16:23:58, 1
Index	Phase	Displacement	Time	Pos X	Pos Y	Pos Z	Rot A	Rot B	Piezo Z	Force A	Force B	Gripper	Voltage A	Voltage B	Temperature	Amplitude force	Amplitude pos	Stiffness	Phase shift	Phase excitation	Force A raw	Displacement raw	HMax	HMax raw	Real Force	Real Stiffness	Contact Depth	Area	Hardness	Reduced Mod.
[#]	[#]	[um]	[s]	[um]	[um]	[um]	[m°]	[m°]	[um]	[uN]	[uN]	[V]	[V]	[V]	[°C]	[uN]	[um]	[N/m]	[°]	[°]	[uN]	[um]	[um]	[um]	[uN]	[N/m]	[um]	[um^2]	[MPa]	[MPa]
300	1.000000	0.002199	7.368e+06	-53639.1	955.818	-29746	0.000000	0.000000	6.002814	-0.020017	NaN	0.000000	0.001686	0.001664	28.0814	0.026789	0.000990	27.046	-3.394179	-169.983	-0.043216	0.000915	-1.105333	-1.106617	-0.020017	27.046	-1.104778	-5.810349E+14	3.444995E-17	NaN
300	1.000000	0.044146	7.368e+06	-53639.1	955.817	-29746	0.000000	0.000000	6.044765	0.084590	NaN	0.000000	0.001626	0.001646	28.0799	0.086295	0.002082	41.4446	86.7858	12.9267	0.042904	0.042785	-1.063387	-1.064747	0.084590	41.4446	-1.064917	-1.693942E+14	-4.993668E-16	NaN
300	1.000000	0.086179	7.368e+06	-53639.1	955.818	-29746	0.000000	0.000000	6.086793	-0.054407	NaN	0.000000	0.001638	0.001635	28.0802	0.060126	0.002270	26.4837	26.4809	-167.792	-0.051701	0.084869	-1.021353	-1.022663	-0.054407	26.4837	-1.019812	-4.192073E+13	1.297862E-15	NaN
300	1.000000	0.128180	7.368e+06	-53639.1	955.818	-29746	0.000000	0.000000	6.128798	0.054995	NaN	0.000000	0.001668	0.001670	28.0802	0.050011	0.001952	25.6248	-131.016	11.7695	0.016993	0.126762	-0.979353	-0.980771	0.054995	25.6248	-0.980962	-1.257114E+13	-4.374707E-15	NaN
300	1.000000	0.170197	7.368e+06	-53639.1	955.819	-29746	0.000000	0.000000	6.170813	-0.006459	NaN	0.000000	0.001613	0.001695	28.0811	0.122066	0.002056	59.3614	133.199	-165.508	-0.000920	0.168881	-0.937335	-0.938651	-0.006459	59.3614	-0.937253	-3.236528E+12	1.995548E-15	NaN
300	1.000000	0.212213	7.368e+06	-53639.1	955.818	-29746	0.000000	0.000000	6.212828	-0.016839	NaN	0.000000	0.001649	0.001657	28.0808	0.043767	0.001912	22.8887	153.492	15.7319	0.034781	0.210834	-0.895320	-0.896698	-0.016839	22.8887	-0.894768	-8.636990E+11	1.949651E-14	NaN
300	1.000000	0.254223	7.368e+06	-53639.1	955.818	-29746	0.000000	0.000000	6.254839	0.006786	NaN	0.000000	0.001604	0.001662	28.0808	0.076281	0.002064	36.9561	-87.8252	-163.831	0.010820	0.252917	-0.853309	-0.854616	0.006786	36.9561	-0.853447	-2.384557E+11	-2.845949E-14	NaN
300	1.000000	0.296260	7.368e+06	-53639.1	955.818	-29746	0.000000	0.000000	6.296875	-0.027839	NaN	0.000000	0.001640	0.001691	28.0798	0.005313	0.002096	2.535180	150.295	14.5277	-0.024453	0.294909	-0.811273	-0.812623	-0.027839	2.535180	-0.803037	-4.944042E+10	5.630759E-13	NaN
300	1.000000	0.338267	7.368e+06	-53639.1	955.818	-29746	0.000000	0.000000	6.338884	0.021560	NaN	0.000000	0.001642	0.001663	28.0799	0.071060	0.001957	36.3099	7.994082	-165.052	0.048913	0.336956	-0.769265	-0.770576	0.021560	36.3099	-0.769711	-1.743303E+10	-1.236734E-12	NaN
300	1.000000	0.380296	7.368e+06	-53639.1	955.819	-29746	0.000000	0.000000	6.380911	-0.013742	NaN	0.000000	0.001658	0.001653	28.0801	0.105380	0.001912	55.1219	99.5311	11.1976	0.056897	0.378959	-0.727237	-0.728573	-0.013742	55.1219	-0.727050	-4.577129E+9	3.002281E-12	NaN
300	1.000000	0.422261	7.368e+06	-53639.1	955.818	-29746	0.000000	0.000000	6.422876	-0.025949	NaN	0.000000	0.001728	0.001676	28.0811	0.044983	0.002037	22.0875	154.139	-164.432	-0.058256	0.421023	-0.685271	-0.686510	-0.025949	22.0875	-0.684390	-1.197396E+9	2.167086E-11	NaN
300	1.000000	0.464303	7.368e+06	-53639.1	955.818	-29746	0.000000	0.000000	6.464920	0.031223	NaN	0.000000	0.001687	0.001685	28.081	0.079385	0.002037	38.9625	65.1752	18.598	0.008165	0.462927	-0.643230	-0.644605	0.031223	38.9625	-0.643831	-3.333043E+8	-9.367801E-11	NaN
300	1.000000	0.506318	7.368e+06	-53639.1	955.817	-29746	0.000000	0.000000	6.506937	0.061703	NaN	0.000000	0.001640	0.001634	28.081	0.059461	0.001976	30.087	132.085	-162.041	0.042992	0.505012	-0.601214	-0.602520	0.061703	30.087	-0.602752	-9.085730E+7	-6.791172E-10	NaN
300	1.000000	0.548352	7.368e+06	-53639.1	955.818	-29746	0.000000	0.000000	6.548968	0.012907	NaN	0.000000	0.001681	0.001625	28.081	0.020910	0.002009	10.4089	169.832	16.0983	0.049288	0.546939	-0.559180	-0.560593	0.012907	10.4089	-0.560110	-2.343708E+7	-5.507294E-10	NaN
300	1.000000	0.590356	7.368e+06	-53639.1	955.818	-29746	0.000000	0.000000	6.590973	0.028068	NaN	0.000000	0.001732	0.001654	28.0799	0.218179	0.001967	110.936	-7.797561	-162.762	0.033990	0.589033	-0.517176	-0.518499	0.028068	110.936	-0.517366	-5.98346e+06	-4.690893E-9	NaN
300	1.000000	0.632410	7.368e+06	-53639.1	955.818	-29746	0.000000	0.000000	6.633025	-0.018666	NaN	0.000000	0.001649	0.001633	28.0797	0.037852	0.002041	18.5478	-132.045	12.4354	0.029791	0.631065	-0.475122	-0.476467	-0.018666	18.5478	-0.474367	-1.50188e+06	1.242878E-8	NaN
300	1.000000	0.674408	7.368e+06	-53639.1	955.818	-29746	0.000000	0.000000	6.675023	-0.010694	NaN	0.000000	0.001737	0.001652	28.0797	0.071340	0.001952	36.54	-66.3228	-168.8	-0.059382	0.673115	-0.433124	-0.434417	-0.010694	36.54	-0.432905	-391869	2.728999E-8	NaN
300	1.000000	0.716402	7.368e+06	-53639.1	955.818	-29746	0.000000	0.000000	6.717017	-0.019170	NaN	0.000000	0.001742	0.001647	28.0809	0.099538	0.001923	51.7491	14.9631	16.92	-0.083006	0.715079	-0.391131	-0.392453	-0.019170	51.7491	-0.390853	-98938	1.937554E-7	NaN
300	1.000000	0.758439	7.368e+06	-53639.1	955.818	-29746	0.000000	0.000000	6.759057	0.053677	NaN	0.000000	0.001635	0.001692	28.0808	0.047721	0.001966	24.2785	68.9943	-167.488	-0.015287	0.757078	-0.349093	-0.350454	0.053677	24.2785	-0.350751	-26176.1	-2.050604E-6	NaN
300	1.000000	0.800451	7.368e+06	-53639.1	955.818	-29746	0.000000	0.000000	6.801070	0.091880	NaN	0.000000	0.001612	0.001658	28.0809	0.089991	0.002083	43.1999	-39.7371	15.0256	0.021231	0.799043	-0.307082	-0.308490	0.091880	43.1999	-0.308677	-6330.94	-1.451288E-5	NaN
300	1.000000	0.842474	7.368e+06	-53639.1	955.818	-29746	0.000000	0.000000	6.843089	-0.020092	NaN	0.000000	0.001677	0.001659	28.0794	0.048817	0.001990	24.536	-9.550648	-161.021	0.128776	0.841154	-0.265058	-0.266378	-0.020092	24.536	-0.264444	-1370.56	1.465957E-5	NaN
300	1.000000	0.884481	7.368e+06	-53639.1	955.818	-29746	0.000000	0.000000	6.885093	-0.076862	NaN	0.000000	0.001568	0.001594	28.0795	0.077291	0.001866	41.4291	48.1481	13.6346	-0.083950	0.883135	-0.223052	-0.224397	-0.076862	41.4291	-0.221660	-295.243	0.000260	NaN
300	1.000000	0.926474	7.368e+06	-53639.1	955.818	-29746	0.000000	0.000000	6.927089	-0.025731	NaN	0.000000	0.001604	0.001604	28.0796	0.021365	0.001879	11.3699	-73.4989	-164.69	-0.058677	0.925224	-0.181059	-0.182308	-0.025731	11.3699	-0.179361	-59.5106	0.000432	NaN
300	1.000000	0.968496	7.368e+06	-53639.1	955.817	-29746	0.000000	0.000000	6.969109	-0.063114	NaN	0.000000	0.001635	0.001632	28.081	0.006837	0.001987	3.441454	153.436	14.9775	-0.051302	0.967138	-0.139036	-0.140395	-0.063114	3.441454	-0.125282	-6.159816	0.010246	NaN
300	1.000000	1.010554	7.368e+06	-53639.1	955.817	-29746	0.000000	0.000000	7.011173	0.085143	NaN	0.000000	0.001619	0.001622	28.0808	0.082080	0.001919	42.7809	-68.5677	-165.255	0.045247	1.009193	-0.096979	-0.098339	0.085143	42.7809	-0.098471	-1.689468	-0.050396	NaN
300	1.000000	1.052545	7.368e+06	-53639.1	955.816	-29746	0.000000	0.000000	7.053162	0.033585	NaN	0.000000	0.001653	0.001642	28.0811	0.061183	0.002110	28.9898	-154.635	14.4591	-0.043800	1.051192	-0.054988	-0.056341	0.033585	28.9898	-0.055857	-0.136489	-0.246066	NaN
300	1.000000	1.094564	7.368e+06	-53639.1	955.815	-29746	0.000000	0.000000	7.095181	0.031215	NaN	0.000000	0.001646	0.001652	28.0811	0.025843	0.001944	13.2913	145.975	-164.246	0.068979	1.093206	-0.012969	-0.014326	0.031215	13.2913	-0.014730	-0.009114	-3.424887	NaN
300	2.000000	1.125613	7.368e+06	-53639.1	955.816	-29746	0.000000	0.000000	7.126781	13.4394	NaN	0.000000	0.001644	0.001683	28.0801	12.8678	0.001843	6983.24	5.699869	8.106335	12.3629	1.125326	0.018080	0.017794	13.4394	6983.24	0.016637	0.017531	766.622	48187.1
300	2.000000	1.136072	7.368e+06	-53639.1	955.817	-29746	0.000000	0.000000	7.137945	30.5643	NaN	0.000000	0.001657	0.001671	28.0801	22.1678	0.001738	12754.3	4.648300	-177.027	29.6355	1.135745	0.028540	0.028212	30.5643	12754.3	0.026743	0.034263	892.059	62953.3
300	2.000000	1.146533	7.368e+06	-53639.1	955.815	-29746	0.000000	0.000000	7.149546	58.2984	NaN	0.000000	0.001748	0.001677	28.0801	31.8267	0.001704	18673.4	3.371448	1.539325	55.6879	1.146197	0.039000	0.038664	58.2984	18673.4	0.036659	0.055679	1047.05	72302.5
300	2.000000	1.156969	7.368e+06	-53639.1	955.815	-29746	0.000000	0.000000	7.161413	93.0693	NaN	0.000000	0.001710	0.001639	28.0814	42.7819	0.001735	24659.3	5.655837	175.53	88.6832	1.156729	0.049437	0.049197	93.0693	24659.3	0.046606	0.082212	1132.07	78575.6
300	2.000000	1.167594	7.368e+06	-53639.1	955.817	-29746	0.000000	0.000000	7.174071	142.494	NaN	0.000000	0.001760	0.001688	28.0817	52.2049	0.001819	28703.4	2.665210	-1.850893	142.802	1.167289	0.060062	0.059757	142.494	28703.4	0.056339	0.113007	1260.93	78010.7
300	2.000000	1.178070	7.368e+06	-53639.1	955.815	-29746	0.000000	0.000000	7.187006	202.277	NaN	0.000000	0.001762	0.001637	28.0812	62.8927	0.001790	35143.6	6.974120	172.648	202.042	1.177688	0.070538	0.070156	202.277	35143.6	0.066221	0.149057	1357.05	83165.7
300	2.000000	1.188585	7.368e+06	-53639.1	955.816	-29746	0.000000	0.000000	7.199857	259.07	NaN	0.000000	0.001723	0.001670	28.0802	72.7097	0.001876	38756.9	3.356647	-4.478300	260.618	1.188321	0.081052	0.080788	259.07	38756.9	0.076039	0.189518	1367	81338.7
300	2.000000	1.199033	7.368e+06	-53639.1	955.815	-29746	0.000000	0.000000	7.213231	330.214	NaN	0.000000	0.001595	0.001663	28.0799	82.817	0.001833	45188.8	3.057528	174.325	331.101	1.198693	0.091501	0.091161	330.214	45188.8	0.086020	0.235293	1403.42	85113.6
300	2.000000	1.209455	7.368e+06	-53639.1	955.815	-29746	0.000000	0.000000	7.227107	414.183	NaN	0.000000	0.001576	0.001735	28.08	92.2668	0.001693	54501.3	5.289198	-8.908882	408.977	1.208954	0.101923	0.101422	414.183	54501.3	0.096223	0.286833	1443.99	92974.8
300	2.000000	1.219935	7.368e+06	-53639.1	955.814	-29746	0.000000	0.000000	7.241155	500.933	NaN	0.000000	0.001641	0.001723	28.081	101.081	0.001785	56627.3	3.447961	173.145	499.176	1.219522	0.112403	0.111990	500.933	56627.3	0.105768	0.339352	1476.15	88812.4
300	2.000000	1.220468	7.368e+06	-53639.1	955.815	-29746	0.000000	0.000000	7.241779	503.146	NaN	0.000000	0.001691	0.001732	28.0811	101.098	0.001777	56877.7	1.991168	-5.918044	500.563	1.220104	0.112935	0.112571	503.146	56877.7	0.106301	0.342402	1469.46	88807.1