File: remote_trans/data/nanoindenter/0828-1/data/Data_2025-08-06,11h17m57s/2025-07-22_16-23-58_1_701.txt
2025-07-22, 16:23:58, 1
Index	Phase	Displacement	Time	Pos X	Pos Y	Pos Z	Rot A	Rot B	Piezo Z	Force A	Force B	Gripper	Voltage A	Voltage B	Temperature	Amplitude force	Amplitude pos	Stiffness	Phase shift	Phase excitation	Force A raw	Displacement raw	HMax	HMax raw	Real Force	Real Stiffness	Contact Depth	Area	Hardness	Reduced Mod.
[#]	[#]	[um]	[s]	[um]	[um]	[um]	[m°]	[m°]	[um]	[uN]	[uN]	[V]	[V]	[V]	[°C]	[uN]	[um]	[N/m]	[°]	[°]	[uN]	[um]	[um]	[um]	[uN]	[N/m]	[um]	[um^2]	[MPa]	[MPa]
701	1.000000	0.002369	7.37191e+06	-42039.1	1005.82	-29784	0.000000	0.000000	6.002819	0.058667	NaN	0.000000	0.001573	0.001746	28.0825	0.173492	0.001079	160.825	129.141	-163.75	0.045489	0.001055	-1.124514	-1.125828	0.058667	160.825	-1.124788	-1.078222E+15	-5.441095E-17	NaN
701	1.000000	0.044268	7.37191e+06	-42039.1	1005.82	-29784	0.000000	0.000000	6.044716	0.000739	NaN	0.000000	0.001597	0.001716	28.081	0.135135	0.002012	67.18	150.135	12.8085	-0.035088	0.042935	-1.082615	-1.083948	0.000739	67.18	-1.082624	-2.929252E+14	-2.521264E-18	NaN
701	1.000000	0.086314	7.37191e+06	-42039.1	1005.82	-29784	0.000000	0.000000	6.086761	-0.021653	NaN	0.000000	0.001623	0.001754	28.0812	0.151999	0.002011	75.5734	-4.929508	-166.813	-0.001522	0.085009	-1.040569	-1.041874	-0.021653	75.5734	-1.040354	-7.920132E+13	2.733922E-16	NaN
701	1.000000	0.128332	7.37191e+06	-42039.1	1005.82	-29784	0.000000	0.000000	6.128781	0.003942	NaN	0.000000	0.001622	0.001712	28.0812	0.043682	0.002155	20.2707	-98.3891	14.2862	-0.048870	0.126936	-0.998551	-0.999947	0.003942	20.2707	-0.998697	-2.178829E+13	-1.809312E-16	NaN
701	1.000000	0.170331	7.37191e+06	-42039.1	1005.82	-29784	0.000000	0.000000	6.170780	0.010287	NaN	0.000000	0.001617	0.001702	28.0826	0.064421	0.002041	31.5704	-2.607180	-163.823	0.043960	0.169091	-0.956552	-0.957792	0.010287	31.5704	-0.956796	-5.938481E+12	-1.732325E-15	NaN
701	1.000000	0.212394	7.37191e+06	-42039.1	1005.82	-29784	0.000000	0.000000	6.212844	0.032902	NaN	0.000000	0.001624	0.001686	28.0822	0.073851	0.002020	36.5576	-52.1926	13.11	-0.002425	0.211056	-0.914489	-0.915827	0.032902	36.5576	-0.915164	-1.628920E+12	-2.019843E-14	NaN
701	1.000000	0.254381	7.37191e+06	-42039.1	1005.82	-29784	0.000000	0.000000	6.254830	-0.007043	NaN	0.000000	0.001639	0.001717	28.0825	0.027139	0.001952	13.901	-10.7099	-163.207	-0.056535	0.253053	-0.872501	-0.873830	-0.007043	13.901	-0.872121	-4.267215E+11	1.650608E-14	NaN
701	1.000000	0.296401	7.37191e+06	-42039.1	1005.82	-29784	0.000000	0.000000	6.296847	-0.057852	NaN	0.000000	0.001577	0.001737	28.0813	0.048842	0.002088	23.3899	0.242986	14.7748	-0.118657	0.295046	-0.830482	-0.831837	-0.057852	23.3899	-0.828627	-1.099436E+11	5.261987E-13	NaN
701	1.000000	0.338426	7.37191e+06	-42039.1	1005.82	-29784	0.000000	0.000000	6.338874	-0.015809	NaN	0.000000	0.001585	0.001737	28.0813	0.074068	0.002077	35.6527	-64.1096	-164.336	0.010465	0.337086	-0.788457	-0.789797	-0.015809	35.6527	-0.788124	-3.101720E+10	5.096916E-13	NaN
701	1.000000	0.380424	7.37191e+06	-42039.1	1005.82	-29784	0.000000	0.000000	6.380873	0.011272	NaN	0.000000	0.001612	0.001776	28.0813	0.148224	0.002045	72.4963	105.174	14.3434	-0.008897	0.379124	-0.746459	-0.747759	0.011272	72.4963	-0.746575	-8.444935E+9	-1.334807E-12	NaN
701	1.000000	0.422481	7.37191e+06	-42039.1	1005.82	-29784	0.000000	0.000000	6.422930	0.001450	NaN	0.000000	0.001626	0.001761	28.0825	0.035931	0.001911	18.8061	-112.256	-165.593	-0.013940	0.421182	-0.704402	-0.705701	0.001450	18.8061	-0.704460	-2.251257E+9	-6.440036E-13	NaN
701	1.000000	0.464445	7.37191e+06	-42039.1	1005.82	-29784	0.000000	0.000000	6.464895	0.039887	NaN	0.000000	0.001590	0.001731	28.0826	0.019330	0.002038	9.483614	-154.996	16.2616	0.022404	0.463082	-0.662438	-0.663801	0.039887	9.483614	-0.665593	-6.623025E+8	-6.022451E-11	NaN
701	1.000000	0.506496	7.37191e+06	-42039.1	1005.82	-29784	0.000000	0.000000	6.506944	-0.032372	NaN	0.000000	0.001565	0.001762	28.0827	0.068222	0.002037	33.4962	41.5921	-167.509	0.046043	0.505154	-0.620387	-0.621729	-0.032372	33.4962	-0.619662	-1.552328E+8	2.085382E-10	NaN
701	1.000000	0.548509	7.37191e+06	-42039.1	1005.82	-29784	0.000000	0.000000	6.548959	0.014801	NaN	0.000000	0.001625	0.001727	28.0827	0.047890	0.002022	23.6832	-167.742	15.2787	0.001287	0.547144	-0.578373	-0.579739	0.014801	23.6832	-0.578842	-4.253491E+7	-3.479809E-10	NaN
701	1.000000	0.590519	7.37191e+06	-42039.1	1005.82	-29784	0.000000	0.000000	6.590968	0.016872	NaN	0.000000	0.001702	0.001732	28.0815	0.035652	0.002013	17.7114	43.1582	-166.334	-0.004138	0.589213	-0.536364	-0.537670	0.016872	17.7114	-0.537079	-1.124182E+7	-1.500789E-9	NaN
701	1.000000	0.632559	7.37191e+06	-42039.1	1005.82	-29784	0.000000	0.000000	6.633010	0.054790	NaN	0.000000	0.001649	0.001737	28.0811	0.072136	0.001972	36.5723	-58.5742	15.9303	0.100240	0.631252	-0.494324	-0.495631	0.054790	36.5723	-0.495448	-2.96132e+06	-1.850203E-8	NaN
701	1.000000	0.674578	7.37191e+06	-42039.1	1005.82	-29784	0.000000	0.000000	6.675028	0.023827	NaN	0.000000	0.001651	0.001688	28.0811	0.020282	0.001919	10.5666	133.08	-168.902	0.095001	0.673234	-0.452305	-0.453649	0.023827	10.5666	-0.453996	-777300	-3.065357E-8	NaN
701	1.000000	0.716564	7.37191e+06	-42039.1	1005.82	-29784	0.000000	0.000000	6.717014	0.033061	NaN	0.000000	0.001567	0.001673	28.0825	0.073068	0.002123	34.41	95.8996	13.6108	-0.005787	0.715268	-0.410319	-0.411615	0.033061	34.41	-0.411040	-191947	-1.722380E-7	NaN
701	1.000000	0.758583	7.37191e+06	-42039.1	1005.82	-29784	0.000000	0.000000	6.759032	0.014451	NaN	0.000000	0.001573	0.001724	28.0825	0.072712	0.001905	38.1688	137.76	-163.591	-0.025209	0.757300	-0.368300	-0.369583	0.014451	38.1688	-0.368584	-47394	-3.049135E-7	NaN
701	1.000000	0.800610	7.37191e+06	-42039.1	1005.82	-29784	0.000000	0.000000	6.801060	0.042680	NaN	0.000000	0.001542	0.001753	28.0828	0.086888	0.002057	42.2344	-40.6167	15.2142	0.019762	0.799242	-0.326273	-0.327641	0.042680	42.2344	-0.327031	-11801.6	-3.616469E-6	NaN
701	1.000000	0.842624	7.37191e+06	-42039.1	1005.82	-29784	0.000000	0.000000	6.843075	0.065012	NaN	0.000000	0.001626	0.001750	28.0813	0.096420	0.002148	44.8885	-39.0555	-164.66	0.029078	0.841367	-0.284259	-0.285516	0.065012	44.8885	-0.285345	-2840.91	-2.288432E-5	NaN
701	1.000000	0.884662	7.37191e+06	-42039.1	1005.82	-29784	0.000000	0.000000	6.885109	-0.028302	NaN	0.000000	0.001630	0.001720	28.0813	0.077480	0.001985	39.0303	-57.2695	14.9754	0.018928	0.883312	-0.242221	-0.243571	-0.028302	39.0303	-0.241677	-610.561	4.635481E-5	NaN
701	1.000000	0.926683	7.37191e+06	-42039.1	1005.82	-29784	0.000000	0.000000	6.927134	0.041736	NaN	0.000000	0.001726	0.001760	28.0809	0.127674	0.002063	61.8792	-49.5769	-162.878	0.050064	0.925341	-0.200200	-0.201542	0.041736	61.8792	-0.200705	-135.296	-0.000308	NaN
701	1.000000	0.968645	7.37191e+06	-42039.1	1005.82	-29784	0.000000	0.000000	6.969094	0.008955	NaN	0.000000	0.001732	0.001724	28.0824	0.110728	0.002028	54.5887	174.642	14.9523	-0.044644	0.967366	-0.158238	-0.159517	0.008955	54.5887	-0.158361	-25.633	-0.000349	NaN
701	1.000000	1.010691	7.37191e+06	-42039.1	1005.82	-29784	0.000000	0.000000	7.011138	-0.026256	NaN	0.000000	0.001688	0.001746	28.0821	0.019617	0.002023	9.697382	-167.87	-162.905	0.036240	1.009383	-0.116192	-0.117500	-0.026256	9.697382	-0.114162	-3.671050	0.007152	NaN
701	1.000000	1.052693	7.37191e+06	-42039.1	1005.82	-29784	0.000000	0.000000	7.053143	0.030206	NaN	0.000000	0.001671	0.001736	28.0823	0.043496	0.001990	21.8517	47.3693	18.3086	-0.064987	1.051361	-0.074190	-0.075522	0.030206	21.8517	-0.075227	-0.468151	-0.064523	NaN
701	1.000000	1.094717	7.37191e+06	-42039.1	1005.82	-29784	0.000000	0.000000	7.095169	0.081145	NaN	0.000000	0.001684	0.001730	28.0822	0.057269	0.002060	27.7946	42.6497	-167.263	0.061560	1.093446	-0.032166	-0.033437	0.081145	27.7946	-0.034355	-0.030658	-2.646757	NaN
701	1.000000	1.136674	7.37191e+06	-42039.1	1005.82	-29784	0.000000	0.000000	7.137420	7.247596	NaN	0.000000	0.001676	0.001737	28.081	7.057044	0.001838	3838.71	12.7953	7.785061	5.667869	1.135342	0.009791	0.008459	7.247596	3838.71	0.008375	0.007431	975.333	40685.4
701	2.000000	1.148270	7.37191e+06	-42039.1	1005.82	-29784	0.000000	0.000000	7.149778	25.7706	NaN	0.000000	0.001681	0.001702	28.081	18.04	0.001841	9800.22	5.923244	-176.634	24.8381	1.147966	0.021387	0.021083	25.7706	9800.22	0.019415	0.021631	1191.36	60879.1
701	2.000000	1.158779	7.37191e+06	-42039.1	1005.82	-29784	0.000000	0.000000	7.161314	50.776	NaN	0.000000	0.001708	0.001704	28.0811	28.0693	0.001824	15390.2	3.279831	2.281647	50.8968	1.158383	0.031896	0.031500	50.776	15390.2	0.029422	0.039554	1283.73	70700.7
701	2.000000	1.169169	7.37191e+06	-42039.1	1005.82	-29784	0.000000	0.000000	7.173506	94.6137	NaN	0.000000	0.001696	0.001722	28.0824	38.2778	0.001771	21618.5	3.369887	179.27	91.4555	1.168837	0.042286	0.041954	94.6137	21618.5	0.039004	0.061480	1538.94	79658.6
701	2.000000	1.179697	7.37191e+06	-42039.1	1005.82	-29784	0.000000	0.000000	7.185998	142.401	NaN	0.000000	0.001720	0.001679	28.0827	47.8204	0.001716	27873	5.387723	-4.568404	141.515	1.179338	0.052814	0.052455	142.401	27873	0.048982	0.089293	1594.76	85221
701	2.000000	1.190227	7.37191e+06	-42039.1	1005.82	-29784	0.000000	0.000000	7.198610	193.066	NaN	0.000000	0.001701	0.001676	28.0825	58.9621	0.001679	35109.9	0.491505	177.495	192.96	1.189959	0.063344	0.063077	193.066	35109.9	0.059220	0.123025	1569.32	91454.6
701	2.000000	1.200659	7.37191e+06	-42039.1	1005.82	-29784	0.000000	0.000000	7.211677	257.175	NaN	0.000000	0.001614	0.001729	28.0814	70.3972	0.001848	38088.3	2.374170	-5.137880	255.21	1.200414	0.073776	0.073531	257.175	38088.3	0.068712	0.158888	1618.59	87301.1
701	2.000000	1.211154	7.37191e+06	-42039.1	1005.82	-29784	0.000000	0.000000	7.225035	326.84	NaN	0.000000	0.001555	0.001687	28.0814	81.1025	0.001848	43890.5	9.446527	168.008	324.312	1.210795	0.084271	0.083912	326.84	43890.5	0.078686	0.201205	1624.41	89397.3
701	2.000000	1.221624	7.37191e+06	-42039.1	1005.82	-29784	0.000000	0.000000	7.238741	405.556	NaN	0.000000	0.001536	0.001680	28.0814	89.7539	0.001763	50914.2	6.781521	-11.3782	402.596	1.221297	0.094741	0.094414	405.556	50914.2	0.088767	0.248699	1630.71	93277.1
701	2.000000	1.232247	7.37191e+06	-42039.1	1005.82	-29784	0.000000	0.000000	7.252831	489.929	NaN	0.000000	0.001620	0.001727	28.0826	99.1717	0.001831	54160.8	1.429314	174.329	494.751	1.231847	0.105364	0.104964	489.929	54160.8	0.098580	0.299416	1636.28	90431.7
701	2.000000	1.236630	7.37191e+06	-42039.1	1005.82	-29784	0.000000	0.000000	7.258828	529.192	NaN	0.000000	0.001603	0.001713	28.0825	102.324	0.001743	58697.6	1.965857	-7.135132	525.701	1.236347	0.109747	0.109464	529.192	58697.6	0.102986	0.323613	1635.26	94271.4