File: remote_trans/data/nanoindenter/0828-1/data/Data_2025-08-06,11h17m57s/2025-07-22_16-23-58_1_1172.txt
2025-07-22, 16:23:58, 1
Index	Phase	Displacement	Time	Pos X	Pos Y	Pos Z	Rot A	Rot B	Piezo Z	Force A	Force B	Gripper	Voltage A	Voltage B	Temperature	Amplitude force	Amplitude pos	Stiffness	Phase shift	Phase excitation	Force A raw	Displacement raw	HMax	HMax raw	Real Force	Real Stiffness	Contact Depth	Area	Hardness	Reduced Mod.
[#]	[#]	[um]	[s]	[um]	[um]	[um]	[m°]	[m°]	[um]	[uN]	[uN]	[V]	[V]	[V]	[°C]	[uN]	[um]	[N/m]	[°]	[°]	[uN]	[um]	[um]	[um]	[uN]	[N/m]	[um]	[um^2]	[MPa]	[MPa]
1172	1.000000	0.002762	7.37651e+06	-56989.1	1105.82	-29737.5	0.000000	0.000000	6.002775	-0.019646	NaN	0.000000	0.001627	0.001758	28.0807	0.068150	0.000842	80.9686	-134.458	-161.511	0.073707	0.001558	-1.075512	-1.076716	-0.019646	80.9686	-1.075330	-2.337712E+14	8.403964E-17	NaN
1172	1.000000	0.042737	7.37651e+06	-56989.1	1105.82	-29737.5	0.000000	0.000000	6.042753	0.052340	NaN	0.000000	0.001634	0.001731	28.0804	0.117625	0.002020	58.225	92.6883	-168.548	0.102921	0.041435	-1.035537	-1.036839	0.052340	58.225	-1.036211	-6.966529E+13	-7.513077E-16	NaN
1172	1.000000	0.082734	7.37651e+06	-56989.1	1105.82	-29737.5	0.000000	0.000000	6.082751	0.063668	NaN	0.000000	0.001599	0.001713	28.0805	0.090198	0.002033	44.3698	65.3403	-165.521	0.010828	0.081435	-0.995540	-0.996839	0.063668	44.3698	-0.996616	-2.042695E+13	-3.116860E-15	NaN
1172	1.000000	0.122729	7.37651e+06	-56989.1	1105.82	-29737.5	0.000000	0.000000	6.122743	-0.000896	NaN	0.000000	0.001633	0.001716	28.0815	0.086358	0.001943	44.4524	-8.115297	-169.003	-0.023798	0.121487	-0.955545	-0.956787	-0.000896	44.4524	-0.955529	-5.709434E+12	1.569765E-16	NaN
1172	1.000000	0.162771	7.37651e+06	-56989.1	1105.82	-29737.5	0.000000	0.000000	6.162782	-0.061141	NaN	0.000000	0.001656	0.001747	28.0813	0.020734	0.001950	10.6304	-137.352	-167.237	-0.103305	0.161446	-0.915503	-0.916827	-0.061141	10.6304	-0.911189	-1.439545E+12	4.247269E-14	NaN
1172	1.000000	0.202784	7.37651e+06	-56989.1	1105.82	-29737.5	0.000000	0.000000	6.202798	0.015019	NaN	0.000000	0.001645	0.001743	28.0813	0.088597	0.002174	40.7512	-147.5	-162.962	-0.038006	0.201513	-0.875490	-0.876761	0.015019	40.7512	-0.875766	-4.780250E+11	-3.141956E-14	NaN
1172	1.000000	0.242789	7.37651e+06	-56989.1	1105.82	-29737.5	0.000000	0.000000	6.242805	0.045168	NaN	0.000000	0.001632	0.001730	28.0802	0.053864	0.001936	27.8173	-150.48	-166.998	0.065761	0.241453	-0.835485	-0.836821	0.045168	27.8173	-0.836702	-1.414534E+11	-3.193105E-13	NaN
1172	1.000000	0.282819	7.37651e+06	-56989.1	1105.82	-29737.5	0.000000	0.000000	6.282834	0.027637	NaN	0.000000	0.001675	0.001735	28.0807	0.032857	0.001953	16.8207	-20.366	-163.791	-0.022566	0.281520	-0.795455	-0.796754	0.027637	16.8207	-0.796687	-4.054061E+10	-6.817107E-13	NaN
1172	1.000000	0.322871	7.37651e+06	-56989.1	1105.82	-29737.5	0.000000	0.000000	6.322883	-0.036287	NaN	0.000000	0.001653	0.001757	28.0801	0.093388	0.002151	43.4192	-73.5518	-165.441	0.030743	0.321600	-0.755403	-0.756674	-0.036287	43.4192	-0.754776	-1.091998E+10	3.322980E-12	NaN
1172	1.000000	0.362868	7.37651e+06	-56989.1	1105.82	-29737.5	0.000000	0.000000	6.362884	0.056770	NaN	0.000000	0.001677	0.001732	28.0804	0.109400	0.001903	57.499	-137.719	-165.031	-0.006567	0.361548	-0.715406	-0.716726	0.056770	57.499	-0.716147	-3.250236E+9	-1.746652E-11	NaN
1172	1.000000	0.402908	7.37651e+06	-56989.1	1105.82	-29737.5	0.000000	0.000000	6.402920	-0.027093	NaN	0.000000	0.001630	0.001730	28.0816	0.058006	0.002162	26.8309	3.075382	-161.57	-0.045279	0.401518	-0.675366	-0.676756	-0.027093	26.8309	-0.674609	-8.799609E+8	3.078855E-11	NaN
1172	1.000000	0.442921	7.37651e+06	-56989.1	1105.82	-29737.5	0.000000	0.000000	6.442938	0.077970	NaN	0.000000	0.001710	0.001725	28.0818	0.035520	0.001932	18.3893	-177.902	-163.897	0.068798	0.441576	-0.635353	-0.636698	0.077970	18.3893	-0.638533	-2.819425E+8	-2.765456E-10	NaN
1172	1.000000	0.482903	7.37651e+06	-56989.1	1105.82	-29737.5	0.000000	0.000000	6.482919	0.069088	NaN	0.000000	0.001733	0.001776	28.0823	0.075666	0.001857	40.7523	74.1713	-168.545	0.015920	0.481578	-0.595371	-0.596696	0.069088	40.7523	-0.596643	-7.485438E+7	-9.229629E-10	NaN
1172	1.000000	0.522946	7.37652e+06	-56989.1	1105.82	-29737.5	0.000000	0.000000	6.522959	-0.009430	NaN	0.000000	0.001663	0.001682	28.0806	0.068586	0.001872	36.6465	-39.8099	-164.512	-0.055286	0.521615	-0.555328	-0.556659	-0.009430	36.6465	-0.555135	-2.000131E+7	4.714459E-10	NaN
1172	1.000000	0.562907	7.37652e+06	-56989.1	1105.82	-29737.5	0.000000	0.000000	6.562920	-0.023931	NaN	0.000000	0.001613	0.001738	28.0807	0.090445	0.001960	46.1402	81.5626	-162.903	-0.016217	0.561667	-0.515367	-0.516607	-0.023931	46.1402	-0.514978	-5.5427e+06	4.317610E-9	NaN
1172	1.000000	0.602999	7.37652e+06	-56989.1	1105.82	-29737.5	0.000000	0.000000	6.603014	0.021090	NaN	0.000000	0.001629	0.001710	28.0805	0.064875	0.002248	28.8587	-60.7964	-164.498	0.067593	0.601697	-0.475275	-0.476577	0.021090	28.8587	-0.475823	-1.57409e+06	-1.339824E-8	NaN
1172	1.000000	0.642987	7.37652e+06	-56989.1	1105.82	-29737.5	0.000000	0.000000	6.642999	-0.031933	NaN	0.000000	0.001630	0.001697	28.0815	0.099692	0.001995	49.9709	178.542	-161.564	-0.034951	0.641727	-0.435287	-0.436547	-0.031933	49.9709	-0.434808	-416906	7.659614E-8	NaN
1172	1.000000	0.683020	7.37652e+06	-56989.1	1105.82	-29737.5	0.000000	0.000000	6.683035	0.021950	NaN	0.000000	0.001646	0.001699	28.0821	0.064140	0.001999	32.0802	-97.4212	-167.726	0.009208	0.681761	-0.395254	-0.396512	0.021950	32.0802	-0.395767	-116302	-1.887338E-7	NaN
1172	1.000000	0.723010	7.37652e+06	-56989.1	1105.82	-29737.5	0.000000	0.000000	6.723022	-0.035489	NaN	0.000000	0.001597	0.001727	28.0816	0.117238	0.001887	62.1361	-19.9589	-164.736	-0.060469	0.721696	-0.355264	-0.356578	-0.035489	62.1361	-0.354836	-29999.8	1.182961E-6	NaN
1172	1.000000	0.763027	7.37652e+06	-56989.1	1105.82	-29737.5	0.000000	0.000000	6.763038	-0.067721	NaN	0.000000	0.001593	0.001754	28.0818	0.109480	0.001904	57.4873	-139.38	-165.262	-0.016670	0.761674	-0.315247	-0.316600	-0.067721	57.4873	-0.314363	-7683.29	8.814028E-6	NaN
1172	1.000000	0.803079	7.37652e+06	-56989.1	1105.82	-29737.5	0.000000	0.000000	6.803090	-0.073517	NaN	0.000000	0.001626	0.001712	28.0807	0.064577	0.002116	30.5142	-45.5053	-160.382	-0.026830	0.801758	-0.275195	-0.276516	-0.073517	30.5142	-0.273388	-1874.89	3.921113E-5	NaN
1172	1.000000	0.843061	7.37652e+06	-56989.1	1105.82	-29737.5	0.000000	0.000000	6.843078	0.069338	NaN	0.000000	0.001576	0.001727	28.0808	0.073796	0.001943	37.9844	148.351	-166.139	0.002551	0.841820	-0.235213	-0.236454	0.069338	37.9844	-0.236582	-508.239	-0.000136	NaN
1172	1.000000	0.883072	7.37652e+06	-56989.1	1105.82	-29737.5	0.000000	0.000000	6.883089	0.077077	NaN	0.000000	0.001600	0.001801	28.0809	0.047189	0.002052	22.9966	-144.867	-164.153	0.033072	0.881773	-0.195202	-0.196501	0.077077	22.9966	-0.197716	-120.807	-0.000638	NaN
1172	1.000000	0.923088	7.37652e+06	-56989.1	1105.82	-29737.5	0.000000	0.000000	6.923102	-0.000138	NaN	0.000000	0.001606	0.001728	28.082	0.032252	0.002082	15.4919	174.359	-166.3	-0.015702	0.921819	-0.155186	-0.156455	-0.000138	15.4919	-0.155179	-22.4805	6.151335E-6	NaN
1172	1.000000	0.963118	7.37652e+06	-56989.1	1105.82	-29737.5	0.000000	0.000000	6.963130	-0.036236	NaN	0.000000	0.001599	0.001769	28.0821	0.022193	0.001965	11.296	165.823	-167.252	0.007709	0.961788	-0.115156	-0.116486	-0.036236	11.296	-0.112750	-3.431536	0.010560	NaN
1172	1.000000	1.003149	7.37652e+06	-56989.1	1105.82	-29737.5	0.000000	0.000000	7.003160	-0.045970	NaN	0.000000	0.001674	0.001733	28.0821	0.106456	0.001959	54.3371	34.9034	-166.243	-0.077320	1.001742	-0.075125	-0.076532	-0.045970	54.3371	-0.074491	-0.448044	0.102603	NaN
1172	1.000000	1.043134	7.37652e+06	-56989.1	1105.82	-29737.5	0.000000	0.000000	7.043147	-0.025953	NaN	0.000000	0.001510	0.001742	28.082	0.043724	0.002130	20.5321	126.002	-167.836	0.027288	1.041772	-0.035140	-0.036502	-0.025953	20.5321	-0.034192	-0.030322	0.855903	NaN
1172	2.000000	1.081697	7.37652e+06	-56989.1	1105.82	-29737.5	0.000000	0.000000	7.082091	9.263654	NaN	0.000000	0.001527	0.001745	28.081	9.393383	0.001691	5554.23	9.241009	-173.145	9.337258	1.081283	0.003423	0.003009	9.263654	5554.23	0.002172	0.001694	5467.84	123286
1172	2.000000	1.091595	7.37652e+06	-56989.1	1105.82	-29737.5	0.000000	0.000000	7.092757	27.9083	NaN	0.000000	0.001571	0.001746	28.0809	20.4831	0.001728	11855.6	5.689923	-176.568	26.3082	1.091297	0.013321	0.013023	27.9083	11855.6	0.011555	0.010962	2545.96	103456
1172	2.000000	1.101575	7.37652e+06	-56989.1	1105.82	-29737.5	0.000000	0.000000	7.103505	46.5972	NaN	0.000000	0.001533	0.001690	28.0807	29.1695	0.001816	16058.8	3.689119	-177.934	43.9331	1.101312	0.023301	0.023038	46.5972	16058.8	0.021125	0.024340	1914.41	94042.7
1172	2.000000	1.111598	7.37652e+06	-56989.1	1105.82	-29737.5	0.000000	0.000000	7.114831	78.2659	NaN	0.000000	0.001576	0.001720	28.0822	38.5035	0.001837	20956.9	3.542647	-179.445	77.9185	1.111286	0.033324	0.033012	78.2659	20956.9	0.030523	0.041834	1870.88	93613.1
1172	2.000000	1.121552	7.37652e+06	-56989.1	1105.82	-29737.5	0.000000	0.000000	7.126496	119.851	NaN	0.000000	0.001542	0.001777	28.082	47.0522	0.001744	26980.8	3.091571	178.926	116.962	1.121235	0.043278	0.042961	119.851	26980.8	0.039946	0.063889	1875.93	97524.6
1172	2.000000	1.131540	7.37652e+06	-56989.1	1105.82	-29737.5	0.000000	0.000000	7.138308	164.162	NaN	0.000000	0.001570	0.001799	28.0822	58.2873	0.001899	30696.5	5.111164	175.565	162.307	1.131266	0.053266	0.052992	164.162	30696.5	0.049255	0.090125	1821.51	93420
1172	2.000000	1.141472	7.37652e+06	-56989.1	1105.82	-29737.5	0.000000	0.000000	7.150650	222.738	NaN	0.000000	0.001575	0.001730	28.0819	65.7421	0.001723	38144.6	2.538701	176.291	218.475	1.141217	0.063198	0.062943	222.738	38144.6	0.058819	0.121606	1831.64	99937.7
1172	2.000000	1.151500	7.37652e+06	-56989.1	1105.82	-29737.5	0.000000	0.000000	7.163036	280.073	NaN	0.000000	0.001566	0.001710	28.0804	76.2817	0.001782	42813.5	5.987312	172.739	277.092	1.151231	0.073226	0.072957	280.073	42813.5	0.068319	0.157318	1780.29	98619.9
1172	2.000000	1.161475	7.37652e+06	-56989.1	1105.82	-29737.5	0.000000	0.000000	7.176054	354.012	NaN	0.000000	0.001614	0.001794	28.0808	86.2397	0.001840	46881.6	2.841817	174.996	350.866	1.161144	0.083201	0.082870	354.012	46881.6	0.077538	0.196095	1805.3	96725.7
1172	2.000000	1.171543	7.37652e+06	-56989.1	1105.82	-29737.5	0.000000	0.000000	7.189075	425.799	NaN	0.000000	0.001592	0.001699	28.0806	93.2747	0.001752	53234	0.020836	177.309	427.361	1.171194	0.093269	0.092920	425.799	53234	0.087270	0.241348	1764.26	99001.2
1172	2.000000	1.179525	7.37652e+06	-56989.1	1105.82	-29737.5	0.000000	0.000000	7.200005	497.441	NaN	0.000000	0.001573	0.001747	28.0817	101.691	0.001781	57082.7	4.517851	172.418	499.026	1.179211	0.101251	0.100937	497.441	57082.7	0.094715	0.278916	1783.48	98750.9