File: remote_trans/data/nanoindenter/0828-1/data/Data_2025-08-06,11h17m57s/2025-07-22_16-23-58_1_492.txt
2025-07-22, 16:23:58, 1
Index	Phase	Displacement	Time	Pos X	Pos Y	Pos Z	Rot A	Rot B	Piezo Z	Force A	Force B	Gripper	Voltage A	Voltage B	Temperature	Amplitude force	Amplitude pos	Stiffness	Phase shift	Phase excitation	Force A raw	Displacement raw	HMax	HMax raw	Real Force	Real Stiffness	Contact Depth	Area	Hardness	Reduced Mod.
[#]	[#]	[um]	[s]	[um]	[um]	[um]	[m°]	[m°]	[um]	[uN]	[uN]	[V]	[V]	[V]	[°C]	[uN]	[um]	[N/m]	[°]	[°]	[uN]	[um]	[um]	[um]	[uN]	[N/m]	[um]	[um^2]	[MPa]	[MPa]
492	1.000000	0.002422	7.36987e+06	-52489.1	1005.82	-29749.1	0.000000	0.000000	6.002782	0.019071	NaN	0.000000	0.001712	0.001754	28.0814	0.100493	0.000903	111.227	148.085	-158.896	-0.006142	0.001196	-1.110379	-1.111604	0.019071	111.227	-1.110508	-6.935857E+14	-2.749627E-17	NaN
492	1.000000	0.044400	7.36987e+06	-52489.1	1005.82	-29749.1	0.000000	0.000000	6.044760	0.027461	NaN	0.000000	0.001679	0.001771	28.081	0.036028	0.001987	18.1338	-10.5316	14.5833	0.077758	0.043036	-1.068401	-1.069764	0.027461	18.1338	-1.069536	-1.954162E+14	-1.405243E-16	NaN
492	1.000000	0.086411	7.36987e+06	-52489.1	1005.82	-29749.1	0.000000	0.000000	6.086769	-0.026672	NaN	0.000000	0.001657	0.001772	28.0813	0.103411	0.002198	47.0432	175.514	-164.591	-0.020753	0.085128	-1.026390	-1.027673	-0.026672	47.0432	-1.025965	-5.072212E+13	5.258420E-16	NaN
492	1.000000	0.128440	7.36987e+06	-52489.1	1005.82	-29749.1	0.000000	0.000000	6.128801	0.053726	NaN	0.000000	0.001658	0.001806	28.0801	0.108075	0.001979	54.6077	-173.138	12.9681	0.060693	0.127034	-0.984361	-0.985767	0.053726	54.6077	-0.985099	-1.429224E+13	-3.759070E-15	NaN
492	1.000000	0.170446	7.36987e+06	-52489.1	1005.82	-29749.1	0.000000	0.000000	6.170806	0.003863	NaN	0.000000	0.001684	0.001762	28.0799	0.074018	0.001843	40.1629	77.1883	-171.57	0.004994	0.169165	-0.942354	-0.943636	0.003863	40.1629	-0.942427	-3.800787E+12	-1.016329E-15	NaN
492	1.000000	0.212473	7.36987e+06	-52489.1	1005.82	-29749.1	0.000000	0.000000	6.212831	-0.027547	NaN	0.000000	0.001704	0.001763	28.08	0.137668	0.001875	73.4199	-51.1748	10.1307	-0.017249	0.211069	-0.900328	-0.901732	-0.027547	73.4199	-0.900046	-1.017865E+12	2.706370E-14	NaN
492	1.000000	0.254488	7.36987e+06	-52489.1	1005.82	-29749.1	0.000000	0.000000	6.254848	0.004590	NaN	0.000000	0.001664	0.001770	28.0813	0.087429	0.001915	45.6458	74.3859	-168.373	-0.025971	0.253167	-0.858312	-0.859634	0.004590	45.6458	-0.858388	-2.781606E+11	-1.650004E-14	NaN
492	1.000000	0.296501	7.36987e+06	-52489.1	1005.82	-29749.1	0.000000	0.000000	6.296860	-0.017748	NaN	0.000000	0.001567	0.001773	28.0812	0.022619	0.002058	10.9928	34.2417	14.8037	-0.016909	0.295125	-0.816300	-0.817675	-0.017748	10.9928	-0.815089	-7.204503E+10	2.463511E-13	NaN
492	1.000000	0.338511	7.36987e+06	-52489.1	1005.82	-29749.1	0.000000	0.000000	6.338868	-0.062682	NaN	0.000000	0.001621	0.001770	28.0813	0.048323	0.001967	24.5639	-35.5893	-164.645	-0.016523	0.337159	-0.774289	-0.775642	-0.062682	24.5639	-0.772375	-1.894967E+10	3.307812E-12	NaN
492	1.000000	0.380540	7.36987e+06	-52489.1	1005.82	-29749.1	0.000000	0.000000	6.380901	0.052159	NaN	0.000000	0.001596	0.001756	28.0799	0.061815	0.001898	32.5678	1.585223	12.5009	0.023682	0.379193	-0.732261	-0.733608	0.052159	32.5678	-0.733462	-5.597427E+9	-9.318322E-12	NaN
492	1.000000	0.422532	7.36987e+06	-52489.1	1005.82	-29749.1	0.000000	0.000000	6.422892	0.016300	NaN	0.000000	0.001581	0.001756	28.0799	0.030902	0.002080	14.8547	151.103	-167.738	-0.027994	0.421257	-0.690269	-0.691544	0.016300	14.8547	-0.691092	-1.478562E+9	-1.102446E-11	NaN
492	1.000000	0.464566	7.36987e+06	-52489.1	1005.82	-29749.1	0.000000	0.000000	6.464924	-0.014782	NaN	0.000000	0.001576	0.001759	28.0797	0.090794	0.001986	45.7242	75.3391	14.1347	-0.067205	0.463168	-0.648235	-0.649632	-0.014782	45.7242	-0.647993	-3.801152E+8	3.888752E-11	NaN
492	1.000000	0.506583	7.36987e+06	-52489.1	1005.82	-29749.1	0.000000	0.000000	6.506941	-0.014876	NaN	0.000000	0.001584	0.001839	28.0809	0.112409	0.002038	55.1479	-171.693	-166.764	-0.026064	0.505266	-0.606218	-0.607534	-0.014876	55.1479	-0.606016	-1.007590E+8	1.476394E-10	NaN
492	1.000000	0.548608	7.36987e+06	-52489.1	1005.82	-29749.1	0.000000	0.000000	6.548966	-0.028588	NaN	0.000000	0.001635	0.001761	28.0811	0.125703	0.002061	61.0027	165.06	9.766944	-0.011782	0.547220	-0.564192	-0.565581	-0.028588	61.0027	-0.563841	-2.639374E+7	1.083140E-9	NaN
492	1.000000	0.590610	7.36987e+06	-52489.1	1005.82	-29749.1	0.000000	0.000000	6.590966	-0.073974	NaN	0.000000	0.001597	0.001768	28.0809	0.012548	0.001864	6.732446	-79.827	-164.4	0.046414	0.589292	-0.522191	-0.523509	-0.073974	6.732446	-0.513950	-5.36311e+06	1.379314E-8	NaN
492	1.000000	0.632657	7.36987e+06	-52489.1	1005.82	-29749.1	0.000000	0.000000	6.633019	0.065556	NaN	0.000000	0.001615	0.001738	28.0811	0.094770	0.001919	49.3747	42.1227	16.1812	0.065623	0.631331	-0.480144	-0.481470	0.065556	49.3747	-0.481139	-1.86843e+06	-3.508641E-8	NaN
492	1.000000	0.674669	7.36987e+06	-52489.1	1005.82	-29749.1	0.000000	0.000000	6.675029	0.014365	NaN	0.000000	0.001553	0.001749	28.0798	0.045103	0.002043	22.0757	-8.687205	-166.468	0.007398	0.673313	-0.438132	-0.439487	0.014365	22.0757	-0.438620	-471933	-3.043904E-8	NaN
492	1.000000	0.716693	7.36987e+06	-52489.1	1005.82	-29749.1	0.000000	0.000000	6.717054	0.051058	NaN	0.000000	0.001603	0.001695	28.08	0.020952	0.002061	10.1644	34.1677	13.0345	0.033099	0.715282	-0.396108	-0.397519	0.051058	10.1644	-0.399875	-133112	-3.835744E-7	NaN
492	1.000000	0.758697	7.36987e+06	-52489.1	1005.82	-29749.1	0.000000	0.000000	6.759056	-0.024153	NaN	0.000000	0.001635	0.001744	28.0803	0.062860	0.001965	31.9821	-24.2943	-166.333	-0.000837	0.757405	-0.354103	-0.355396	-0.024153	31.9821	-0.353537	-28727.5	8.407775E-7	NaN
492	1.000000	0.800711	7.36987e+06	-52489.1	1005.82	-29749.1	0.000000	0.000000	6.801069	-0.041036	NaN	0.000000	0.001615	0.001769	28.0812	0.092288	0.001827	50.5138	67.0954	11.2947	-0.054570	0.799254	-0.312090	-0.313547	-0.041036	50.5138	-0.311480	-6965.51	5.891295E-6	NaN
492	1.000000	0.842722	7.36987e+06	-52489.1	1005.82	-29749.1	0.000000	0.000000	6.843080	-0.023911	NaN	0.000000	0.001617	0.001792	28.0812	0.034949	0.002007	17.4096	28.7854	-167.111	-0.060824	0.841337	-0.270079	-0.271463	-0.023911	17.4096	-0.269049	-1610.94	1.484260E-5	NaN
492	1.000000	0.884722	7.36987e+06	-52489.1	1005.82	-29749.1	0.000000	0.000000	6.885083	0.034902	NaN	0.000000	0.001619	0.001746	28.0811	0.089643	0.001955	45.8566	146.863	14.2774	0.067022	0.883398	-0.228079	-0.229402	0.034902	45.8566	-0.228650	-381.22	-9.155410E-5	NaN
492	1.000000	0.926734	7.36987e+06	-52489.1	1005.82	-29749.1	0.000000	0.000000	6.927093	-0.013240	NaN	0.000000	0.001610	0.001738	28.0799	0.008962	0.001946	4.605768	152.136	-163.682	0.013846	0.925443	-0.186067	-0.187357	-0.013240	4.605768	-0.183911	-71.0817	0.000186	NaN
492	1.000000	0.968763	7.36987e+06	-52489.1	1005.82	-29749.1	0.000000	0.000000	6.969120	-0.060807	NaN	0.000000	0.001643	0.001706	28.08	0.034999	0.002067	16.9345	-174.38	13.1016	-0.126154	0.967468	-0.144037	-0.145333	-0.060807	16.9345	-0.141344	-12.5361	0.004851	NaN
492	1.000000	1.010794	7.36987e+06	-52489.1	1005.82	-29749.1	0.000000	0.000000	7.011153	-0.000623	NaN	0.000000	0.001627	0.001730	28.0798	0.020248	0.002095	9.666554	160.679	-167.875	-0.043639	1.009418	-0.102007	-0.103382	-0.000623	9.666554	-0.101959	-2.018199	0.000309	NaN
492	1.000000	1.052804	7.36987e+06	-52489.1	1005.82	-29749.1	0.000000	0.000000	7.053164	0.018637	NaN	0.000000	0.001657	0.001743	28.0812	0.075381	0.002045	36.8696	-75.5196	14.1974	-0.003232	1.051475	-0.059997	-0.061325	0.018637	36.8696	-0.060376	-0.184618	-0.100951	NaN
492	1.000000	1.094810	7.36987e+06	-52489.1	1005.82	-29749.1	0.000000	0.000000	7.095170	0.010659	NaN	0.000000	0.001635	0.001757	28.081	0.060239	0.001966	30.634	-91.7083	-164.448	-0.052942	1.093494	-0.017991	-0.019307	0.010659	30.634	-0.018252	-0.011331	-0.940666	NaN
492	2.000000	1.127913	7.36987e+06	-52489.1	1005.82	-29749.1	0.000000	0.000000	7.128749	11.5738	NaN	0.000000	0.001671	0.001717	28.0813	12.4667	0.001789	6969.92	8.866144	4.890550	11.479	1.127499	0.015113	0.014699	11.5738	6969.92	0.013867	0.013804	838.417	54199.3
492	2.000000	1.138349	7.36987e+06	-52489.1	1005.82	-29749.1	0.000000	0.000000	7.139756	25.4783	NaN	0.000000	0.001664	0.001751	28.0811	21.8651	0.001891	11564.1	8.225371	-177.86	26.5354	1.138056	0.025548	0.025255	25.4783	11564.1	0.023896	0.029038	877.414	62001.5
492	2.000000	1.148847	7.36987e+06	-52489.1	1005.82	-29749.1	0.000000	0.000000	7.151380	52.8467	NaN	0.000000	0.001581	0.001770	28.0802	32.6057	0.001771	18407.4	4.310701	0.425695	51.9423	1.148462	0.036047	0.035661	52.8467	18407.4	0.033893	0.049200	1074.11	75819.6
492	2.000000	1.159281	7.36987e+06	-52489.1	1005.82	-29749.1	0.000000	0.000000	7.163725	99.3187	NaN	0.000000	0.001598	0.001728	28.0801	41.4096	0.001814	22825	3.692130	178.976	99.8768	1.158925	0.046481	0.046124	99.3187	22825	0.043217	0.072607	1367.9	77392
492	2.000000	1.169764	7.36987e+06	-52489.1	1005.82	-29749.1	0.000000	0.000000	7.175970	142.144	NaN	0.000000	0.001588	0.001710	28.0802	52.6561	0.001790	29412.8	3.226943	-2.672377	138.096	1.169396	0.056964	0.056595	142.144	29412.8	0.053339	0.103013	1379.87	83726.8
492	2.000000	1.180348	7.36987e+06	-52489.1	1005.82	-29749.1	0.000000	0.000000	7.188697	194.265	NaN	0.000000	0.001586	0.001734	28.082	63.9658	0.001926	33215.5	7.060439	172.978	195.496	1.179965	0.067547	0.067165	194.265	33215.5	0.063161	0.137387	1414	81873.1
492	2.000000	1.190799	7.36987e+06	-52489.1	1005.82	-29749.1	0.000000	0.000000	7.201984	263.217	NaN	0.000000	0.001675	0.001711	28.0815	74.5768	0.001911	39016.3	6.430360	-8.321891	263.652	1.190384	0.077998	0.077584	263.217	39016.3	0.072938	0.176246	1493.47	84910.2
492	2.000000	1.201195	7.36987e+06	-52489.1	1005.82	-29749.1	0.000000	0.000000	7.215342	335.226	NaN	0.000000	0.001648	0.001719	28.0814	83.9897	0.001815	46273	7.330089	170.283	330.095	1.200836	0.088394	0.088035	335.226	46273	0.082961	0.220771	1518.43	89976.6
492	2.000000	1.211723	7.36987e+06	-52489.1	1005.82	-29749.1	0.000000	0.000000	7.229042	412.367	NaN	0.000000	0.001602	0.001679	28.0801	93.6928	0.001820	51489.2	6.911564	-10.8143	407.09	1.211314	0.098923	0.098513	412.367	51489.2	0.092916	0.269606	1529.52	90599.3
492	2.000000	1.222229	7.36987e+06	-52489.1	1005.82	-29749.1	0.000000	0.000000	7.242655	487.915	NaN	0.000000	0.001593	0.001710	28.08	101.43	0.001794	56536.9	5.011765	171.007	487.262	1.221848	0.109428	0.109048	487.915	56536.9	0.102955	0.323445	1508.49	90824.8
492	2.000000	1.223166	7.36987e+06	-52489.1	1005.82	-29749.1	0.000000	0.000000	7.244077	499.702	NaN	0.000000	0.001628	0.001682	28.0802	102.604	0.001820	56370.4	8.082703	167.388	495.188	1.222853	0.110366	0.110053	499.702	56370.4	0.103717	0.327717	1524.8	89965.4