File: remote_trans/data/nanoindenter/0828-1/data/Data_2025-08-06,11h17m57s/2025-07-22_16-23-58_1_759.txt
2025-07-22, 16:23:58, 1
Index	Phase	Displacement	Time	Pos X	Pos Y	Pos Z	Rot A	Rot B	Piezo Z	Force A	Force B	Gripper	Voltage A	Voltage B	Temperature	Amplitude force	Amplitude pos	Stiffness	Phase shift	Phase excitation	Force A raw	Displacement raw	HMax	HMax raw	Real Force	Real Stiffness	Contact Depth	Area	Hardness	Reduced Mod.
[#]	[#]	[um]	[s]	[um]	[um]	[um]	[m°]	[m°]	[um]	[uN]	[uN]	[V]	[V]	[V]	[°C]	[uN]	[um]	[N/m]	[°]	[°]	[uN]	[um]	[um]	[um]	[uN]	[N/m]	[um]	[um^2]	[MPa]	[MPa]
759	1.000000	0.002732	7.37248e+06	-39139.1	1005.82	-29794.9	0.000000	0.000000	6.002836	0.035003	NaN	0.000000	0.001627	0.001692	28.0848	0.029906	0.000988	30.2627	-175.199	-166.9	0.021056	0.001479	-1.104182	-1.105435	0.035003	30.2627	-1.105050	-5.859339E+14	-5.973937E-17	NaN
759	1.000000	0.044666	7.37248e+06	-39139.1	1005.82	-29794.9	0.000000	0.000000	6.044766	-0.067571	NaN	0.000000	0.001587	0.001757	28.0849	0.020665	0.002037	10.1464	33.0512	9.314830	-0.059323	0.043320	-1.062248	-1.063594	-0.067571	10.1464	-1.057254	-1.336325E+14	5.056470E-16	NaN
759	1.000000	0.086669	7.37248e+06	-39139.1	1005.82	-29794.9	0.000000	0.000000	6.086768	-0.093295	NaN	0.000000	0.001689	0.001745	28.084	0.034224	0.002056	16.645	-34.6851	-167.233	-0.072816	0.085368	-1.020245	-1.021546	-0.093295	16.645	-1.016041	-3.729818E+13	2.501316E-15	NaN
759	1.000000	0.128662	7.37248e+06	-39139.1	1005.82	-29794.9	0.000000	0.000000	6.128766	0.008508	NaN	0.000000	0.001587	0.001770	28.0837	0.119731	0.002054	58.2877	-159.962	13.2944	-0.024243	0.127271	-0.978252	-0.979643	0.008508	58.2877	-0.978361	-1.159655E+13	-7.336946E-16	NaN
759	1.000000	0.170663	7.37248e+06	-39139.1	1005.82	-29794.9	0.000000	0.000000	6.170764	-0.032402	NaN	0.000000	0.001608	0.001792	28.0835	0.146686	0.002015	72.7848	80.8965	-164.477	-0.038732	0.169336	-0.936251	-0.937578	-0.032402	72.7848	-0.935917	-3.104942E+12	1.043552E-14	NaN
759	1.000000	0.212672	7.37248e+06	-39139.1	1005.82	-29794.9	0.000000	0.000000	6.212773	-0.044821	NaN	0.000000	0.001586	0.001751	28.085	0.040803	0.002106	19.3754	-130.987	13.4627	-0.142458	0.211381	-0.894242	-0.895533	-0.044821	19.3754	-0.892507	-8.050037E+11	5.567824E-14	NaN
759	1.000000	0.254719	7.37248e+06	-39139.1	1005.82	-29794.9	0.000000	0.000000	6.254823	0.043950	NaN	0.000000	0.001607	0.001758	28.0845	0.036945	0.001968	18.7741	23.435	-165.478	0.017207	0.253452	-0.852195	-0.853462	0.043950	18.7741	-0.853951	-2.422332E+11	-1.814356E-13	NaN
759	1.000000	0.296762	7.37248e+06	-39139.1	1005.82	-29794.9	0.000000	0.000000	6.296863	-0.045357	NaN	0.000000	0.001650	0.001829	28.0846	0.060030	0.001981	30.2985	-118.989	14.1959	-0.121594	0.295402	-0.810152	-0.811512	-0.045357	30.2985	-0.809029	-5.962049E+10	7.607562E-13	NaN
759	1.000000	0.338784	7.37248e+06	-39139.1	1005.82	-29794.9	0.000000	0.000000	6.338885	-0.059900	NaN	0.000000	0.001643	0.001785	28.0834	0.043093	0.001960	21.9883	-91.3676	-167.202	-0.107261	0.337483	-0.768129	-0.769431	-0.059900	21.9883	-0.766086	-1.556279E+10	3.848942E-12	NaN
759	1.000000	0.380828	7.37248e+06	-39139.1	1005.82	-29794.9	0.000000	0.000000	6.380928	-0.065571	NaN	0.000000	0.001592	0.001717	28.0833	0.047900	0.002060	23.2553	110.459	14.0452	-0.057256	0.379455	-0.726086	-0.727459	-0.065571	23.2553	-0.723971	-4.155511E+9	1.577930E-11	NaN
759	1.000000	0.422816	7.37248e+06	-39139.1	1005.82	-29794.9	0.000000	0.000000	6.422915	-0.101636	NaN	0.000000	0.001644	0.001728	28.0834	0.083509	0.002016	41.4215	161.81	-166.109	-0.013082	0.421479	-0.684098	-0.685435	-0.101636	41.4215	-0.682257	-1.119635E+9	9.077586E-11	NaN
759	1.000000	0.464806	7.37248e+06	-39139.1	1005.82	-29794.9	0.000000	0.000000	6.464907	-0.043773	NaN	0.000000	0.001583	0.001720	28.0837	0.038186	0.001958	19.5024	162.062	16.9943	0.012375	0.463427	-0.642108	-0.643487	-0.043773	19.5024	-0.640425	-2.993067E+8	1.462481E-10	NaN
759	1.000000	0.506811	7.37248e+06	-39139.1	1005.82	-29794.9	0.000000	0.000000	6.506912	-0.058013	NaN	0.000000	0.001591	0.001703	28.0847	0.094733	0.001947	48.6572	-17.0367	-162.578	-0.050772	0.505574	-0.600103	-0.601340	-0.058013	48.6572	-0.599209	-8.120083E+7	7.144384E-10	NaN
759	1.000000	0.548863	7.37248e+06	-39139.1	1005.82	-29794.9	0.000000	0.000000	6.548966	0.004610	NaN	0.000000	0.001580	0.001699	28.0845	0.041321	0.001907	21.6698	-28.3881	12.4059	-0.038966	0.547449	-0.558051	-0.559465	0.004610	21.6698	-0.558210	-2.206067E+7	-2.089613E-10	NaN
759	1.000000	0.590913	7.37248e+06	-39139.1	1005.82	-29794.9	0.000000	0.000000	6.591013	-0.057586	NaN	0.000000	0.001618	0.001726	28.0844	0.080317	0.002014	39.8768	39.0614	-167.594	-0.073394	0.589545	-0.516001	-0.517369	-0.057586	39.8768	-0.514918	-5.53211e+06	1.040938E-8	NaN
759	1.000000	0.632881	7.37248e+06	-39139.1	1005.82	-29794.9	0.000000	0.000000	6.632982	-0.040576	NaN	0.000000	0.001538	0.001681	28.083	0.033306	0.002155	15.4562	61.0361	15.3634	-0.027268	0.631493	-0.474033	-0.475421	-0.040576	15.4562	-0.472064	-1.39428e+06	2.910142E-8	NaN
759	1.000000	0.674904	7.37248e+06	-39139.1	1005.82	-29794.9	0.000000	0.000000	6.675006	-0.025059	NaN	0.000000	0.001547	0.001660	28.0833	0.069421	0.001985	34.9805	-50.2651	-168.082	-0.016181	0.673627	-0.432010	-0.433287	-0.025059	34.9805	-0.431472	-374014	6.699953E-8	NaN
759	1.000000	0.716927	7.37248e+06	-39139.1	1005.82	-29794.9	0.000000	0.000000	6.717030	0.007725	NaN	0.000000	0.001616	0.001626	28.0833	0.072956	0.001893	38.5438	31.047	13.6024	0.018066	0.715564	-0.389987	-0.391350	0.007725	38.5438	-0.390138	-96635.3	-7.993790E-8	NaN
759	1.000000	0.758915	7.37248e+06	-39139.1	1005.82	-29794.9	0.000000	0.000000	6.759019	0.041496	NaN	0.000000	0.001622	0.001672	28.085	0.076310	0.002078	36.7141	-66.1485	-164.577	0.010127	0.757634	-0.347999	-0.349280	0.041496	36.7141	-0.348847	-24561.7	-1.689454E-6	NaN
759	1.000000	0.801002	7.37248e+06	-39139.1	1005.82	-29794.9	0.000000	0.000000	6.801102	-0.070063	NaN	0.000000	0.001569	0.001692	28.0849	0.034802	0.001947	17.8765	-25.2436	14.1306	-0.062290	0.799627	-0.305911	-0.307287	-0.070063	17.8765	-0.302972	-5210	1.344784E-5	NaN
759	1.000000	0.842979	7.37248e+06	-39139.1	1005.82	-29794.9	0.000000	0.000000	6.843083	0.022549	NaN	0.000000	0.001556	0.001762	28.0847	0.141381	0.001956	72.2779	126.28	-165.386	0.057416	0.841616	-0.263934	-0.265298	0.022549	72.2779	-0.264168	-1357.35	-1.661232E-5	NaN
759	1.000000	0.885028	7.37248e+06	-39139.1	1005.82	-29794.9	0.000000	0.000000	6.885129	-0.042953	NaN	0.000000	0.001599	0.001741	28.0835	0.111996	0.002100	53.3381	162.897	10.5462	-0.002693	0.883640	-0.221886	-0.223274	-0.042953	53.3381	-0.221282	-291.168	0.000148	NaN
759	1.000000	0.927009	7.37248e+06	-39139.1	1005.82	-29794.9	0.000000	0.000000	6.927112	0.011996	NaN	0.000000	0.001571	0.001726	28.0832	0.043746	0.001880	23.2638	40.0662	-168.233	-0.024368	0.925711	-0.179905	-0.181203	0.011996	23.2638	-0.180292	-61.7207	-0.000194	NaN
759	1.000000	0.969041	7.37248e+06	-39139.1	1005.82	-29794.9	0.000000	0.000000	6.969142	-0.042025	NaN	0.000000	0.001542	0.001736	28.084	0.105352	0.001912	55.0998	-35.6814	12.9348	0.011265	0.967651	-0.137873	-0.139262	-0.042025	55.0998	-0.137301	-10.5208	0.003994	NaN
759	1.000000	1.011063	7.37248e+06	-39139.1	1005.82	-29794.9	0.000000	0.000000	7.011166	-0.005947	NaN	0.000000	0.001583	0.001721	28.0843	0.030012	0.002003	14.9812	19.02	-163.727	-0.051945	1.009776	-0.095851	-0.097138	-0.005947	14.9812	-0.095553	-1.452105	0.004095	NaN
759	1.000000	1.053060	7.37248e+06	-39139.1	1005.82	-29794.9	0.000000	0.000000	7.053161	-0.051113	NaN	0.000000	0.001610	0.001717	28.0846	0.056185	0.002065	27.2097	-71.6133	10.3004	-0.090512	1.051692	-0.053854	-0.055222	-0.051113	27.2097	-0.052445	-0.108099	0.472836	NaN
759	1.000000	1.095065	7.37248e+06	-39139.1	1005.82	-29794.9	0.000000	0.000000	7.095167	-0.023244	NaN	0.000000	0.001632	0.001710	28.0849	0.074748	0.001901	39.3224	-88.6923	-163.077	0.007123	1.093740	-0.011849	-0.013173	-0.023244	39.3224	-0.011405	-0.007189	3.233212	NaN
759	2.000000	1.120167	7.37248e+06	-39139.1	1005.82	-29794.9	0.000000	0.000000	7.120946	16.4599	NaN	0.000000	0.001645	0.001748	28.0844	14.2295	0.001769	8044.58	6.632426	5.220064	16.7713	1.119782	0.013253	0.012868	16.4599	8044.58	0.011719	0.011155	1475.59	69589.9
759	2.000000	1.130611	7.37248e+06	-39139.1	1005.82	-29794.9	0.000000	0.000000	7.132413	41.3454	NaN	0.000000	0.001689	0.001719	28.0831	25.4214	0.001796	14156.6	4.778343	-177.908	40.5421	1.130271	0.023697	0.023357	41.3454	14156.6	0.021506	0.024965	1656.14	81858.9
759	2.000000	1.141062	7.37248e+06	-39139.1	1005.82	-29794.9	0.000000	0.000000	7.144010	69.2521	NaN	0.000000	0.001722	0.001693	28.0832	34.7768	0.001781	19530.9	4.725312	-1.726460	65.8858	1.140727	0.034148	0.033814	69.2521	19530.9	0.031488	0.043885	1578.03	85179.5
759	2.000000	1.151589	7.37248e+06	-39139.1	1005.82	-29794.9	0.000000	0.000000	7.156146	108.391	NaN	0.000000	0.001695	0.001696	28.0835	45.0915	0.001724	26158.7	7.045231	174.102	110.009	1.151215	0.044675	0.044301	108.391	26158.7	0.041568	0.068142	1590.66	91554.7
759	2.000000	1.162021	7.37248e+06	-39139.1	1005.82	-29794.9	0.000000	0.000000	7.168717	160.448	NaN	0.000000	0.001771	0.001734	28.0848	54.6026	0.001722	31716.8	1.826194	-2.309752	158.206	1.161719	0.055107	0.054805	160.448	31716.8	0.051313	0.096515	1662.41	93275
759	2.000000	1.172495	7.37248e+06	-39139.1	1005.82	-29794.9	0.000000	0.000000	7.181456	215.565	NaN	0.000000	0.001666	0.001757	28.0846	67.3238	0.001816	37064.4	7.692704	171.365	211.728	1.172189	0.065581	0.065275	215.565	37064.4	0.061219	0.130217	1655.43	93841.8
759	2.000000	1.183113	7.37248e+06	-39139.1	1005.82	-29794.9	0.000000	0.000000	7.194726	280.105	NaN	0.000000	0.001587	0.001758	28.0846	77.0722	0.001741	44279.4	4.019268	-7.087584	283.723	1.182766	0.076199	0.075852	280.105	44279.4	0.071455	0.170055	1647.14	98102.4
759	2.000000	1.193421	7.37248e+06	-39139.1	1005.82	-29794.9	0.000000	0.000000	7.208068	353.925	NaN	0.000000	0.001612	0.001737	28.0833	86.4878	0.001763	49044.7	2.740432	173.597	349.07	1.193172	0.086507	0.086258	353.925	49044.7	0.081095	0.212126	1668.46	97290
759	2.000000	1.203871	7.37248e+06	-39139.1	1005.82	-29794.9	0.000000	0.000000	7.222097	441.015	NaN	0.000000	0.001594	0.001716	28.0835	97.5768	0.001763	55348.8	4.075764	-8.427103	432.177	1.203521	0.096957	0.096607	441.015	55348.8	0.090981	0.259759	1697.79	99219.3
759	2.000000	1.213075	7.37249e+06	-39139.1	1005.82	-29794.9	0.000000	0.000000	7.233941	505.28	NaN	0.000000	0.001638	0.001699	28.0836	108.524	0.001806	60096.5	4.619439	-9.722043	508.06	1.212779	0.106161	0.105866	505.28	60096.5	0.099855	0.306331	1649.46	99203.4