File: remote_trans/data/nanoindenter/0828-1/data/Data_2025-08-06,11h17m57s/2025-07-22_16-23-58_1_21.txt
2025-07-22, 16:23:58, 1
Index	Phase	Displacement	Time	Pos X	Pos Y	Pos Z	Rot A	Rot B	Piezo Z	Force A	Force B	Gripper	Voltage A	Voltage B	Temperature	Amplitude force	Amplitude pos	Stiffness	Phase shift	Phase excitation	Force A raw	Displacement raw	HMax	HMax raw	Real Force	Real Stiffness	Contact Depth	Area	Hardness	Reduced Mod.
[#]	[#]	[um]	[s]	[um]	[um]	[um]	[m°]	[m°]	[um]	[uN]	[uN]	[V]	[V]	[V]	[°C]	[uN]	[um]	[N/m]	[°]	[°]	[uN]	[um]	[um]	[um]	[uN]	[N/m]	[um]	[um^2]	[MPa]	[MPa]
21	1.000000	0.002330	7.36524e+06	-39689.1	955.819	-29793.7	0.000000	0.000000	6.002737	0.057122	NaN	0.000000	0.001572	0.001643	28.1095	0.079675	0.001040	76.6363	8.368649	176.533	0.037577	0.001082	-0.978929	-0.980177	0.057122	76.6363	-0.979488	-1.200913E+13	-4.756514E-15	NaN
21	1.000000	0.040298	7.36525e+06	-39689.1	955.818	-29793.7	0.000000	0.000000	6.040698	-0.085857	NaN	0.000000	0.001621	0.001722	28.0818	0.038210	0.002002	19.0893	118.198	-4.068244	-0.092028	0.039015	-0.940962	-0.942244	-0.085857	19.0893	-0.937588	-3.270390E+12	2.625288E-14	NaN
21	1.000000	0.078313	7.36525e+06	-39689.1	955.818	-29793.7	0.000000	0.000000	6.078718	0.021448	NaN	0.000000	0.001590	0.001610	28.0907	0.052942	0.002023	26.1675	-49.2721	178.386	0.025134	0.077033	-0.902946	-0.904227	0.021448	26.1675	-0.903561	-1.135487E+12	-1.888857E-14	NaN
21	1.000000	0.116311	7.36525e+06	-39689.1	955.818	-29793.7	0.000000	0.000000	6.116715	0.024899	NaN	0.000000	0.001564	0.001640	28.1293	0.045248	0.002167	20.8793	-32.4231	-3.755228	-0.020159	0.115000	-0.864949	-0.866259	0.024899	20.8793	-0.865843	-3.509137E+11	-7.095454E-14	NaN
21	1.000000	0.154308	7.36525e+06	-39689.1	955.819	-29793.7	0.000000	0.000000	6.154711	-0.010892	NaN	0.000000	0.001610	0.001664	28.1082	0.022205	0.002088	10.6349	145.297	179.163	0.015273	0.153025	-0.826951	-0.828234	-0.010892	10.6349	-0.826183	-1.018706E+11	1.069239E-13	NaN
21	1.000000	0.192336	7.36525e+06	-39689.1	955.818	-29793.7	0.000000	0.000000	6.192739	-0.011381	NaN	0.000000	0.001577	0.001623	28.0798	0.033368	0.002018	16.5345	-163.226	0.662439	0.035060	0.191043	-0.788923	-0.790216	-0.011381	16.5345	-0.788407	-3.129317E+10	3.636973E-13	NaN
21	1.000000	0.230345	7.36525e+06	-39689.1	955.819	-29793.7	0.000000	0.000000	6.230751	0.049864	NaN	0.000000	0.001557	0.001635	28.09	0.077535	0.001860	41.6749	13.2796	176.37	-0.011724	0.229039	-0.750914	-0.752220	0.049864	41.6749	-0.751811	-9.951171E+9	-5.010863E-12	NaN
21	1.000000	0.268365	7.36525e+06	-39689.1	955.818	-29793.7	0.000000	0.000000	6.268771	0.068482	NaN	0.000000	0.001587	0.001674	28.1287	0.138206	0.001917	72.08	52.8609	-3.100956	0.053424	0.267031	-0.712895	-0.714229	0.068482	72.08	-0.713607	-3.001031E+9	-2.281945E-11	NaN
21	1.000000	0.306375	7.36525e+06	-39689.1	955.818	-29793.7	0.000000	0.000000	6.306780	0.018115	NaN	0.000000	0.001571	0.001612	28.1079	0.066363	0.002010	33.0099	47.0293	176.408	-0.059483	0.305050	-0.674884	-0.676209	0.018115	33.0099	-0.675296	-8.991957E+8	-2.014570E-11	NaN
21	1.000000	0.344392	7.36525e+06	-39689.1	955.819	-29793.7	0.000000	0.000000	6.344796	0.000204	NaN	0.000000	0.001614	0.001591	28.0804	0.035269	0.001939	18.1854	117.105	-2.602291	0.074432	0.343051	-0.636867	-0.638209	0.000204	18.1854	-0.636876	-2.675556E+8	-7.631367E-13	NaN
21	1.000000	0.382418	7.36525e+06	-39689.1	955.819	-29793.7	0.000000	0.000000	6.382820	-0.056655	NaN	0.000000	0.001599	0.001582	28.0913	0.022626	0.001984	11.4022	-38.9495	178.412	0.007809	0.381111	-0.598841	-0.600149	-0.056655	11.4022	-0.595114	-7.131119E+7	7.944753E-10	NaN
21	1.000000	0.420435	7.36525e+06	-39689.1	955.818	-29793.7	0.000000	0.000000	6.420835	-0.092468	NaN	0.000000	0.001579	0.001637	28.1295	0.186191	0.002046	91.0113	70.8698	-2.277476	-0.107588	0.419116	-0.560824	-0.562144	-0.092468	91.0113	-0.560062	-2.340106E+7	3.951429E-9	NaN
21	1.000000	0.458465	7.36525e+06	-39689.1	955.818	-29793.7	0.000000	0.000000	6.458870	0.019191	NaN	0.000000	0.001596	0.001631	28.1057	0.090789	0.002040	44.5124	-128.434	177.606	0.049718	0.457135	-0.522794	-0.524124	0.019191	44.5124	-0.523117	-7.19357e+06	-2.667763E-9	NaN
21	1.000000	0.496469	7.36525e+06	-39689.1	955.818	-29793.7	0.000000	0.000000	6.496872	-0.001493	NaN	0.000000	0.001620	0.001602	28.08	0.044081	0.002067	21.3298	-100.384	-2.044779	-0.048820	0.495089	-0.484791	-0.486171	-0.001493	21.3298	-0.484738	-2.09812e+06	7.116764E-10	NaN
21	1.000000	0.534483	7.36525e+06	-39689.1	955.819	-29793.7	0.000000	0.000000	6.534886	-0.027630	NaN	0.000000	0.001587	0.001607	28.0899	0.061149	0.001934	31.6159	160.271	178.102	-0.016314	0.533196	-0.446776	-0.448063	-0.027630	31.6159	-0.446121	-602130	4.588745E-8	NaN
21	1.000000	0.572523	7.36525e+06	-39689.1	955.818	-29793.7	0.000000	0.000000	6.572925	-0.046353	NaN	0.000000	0.001567	0.001600	28.1311	0.045268	0.002005	22.5748	-15.0985	-0.446285	-0.018989	0.571193	-0.408737	-0.410067	-0.046353	22.5748	-0.407197	-169248	2.738755E-7	NaN
21	1.000000	0.610538	7.36525e+06	-39689.1	955.818	-29793.7	0.000000	0.000000	6.610939	-0.075801	NaN	0.000000	0.001574	0.001603	28.1056	0.057477	0.002011	28.5753	-1.134264	175.615	-0.101038	0.609186	-0.370721	-0.372074	-0.075801	28.5753	-0.368732	-47627.2	1.591557E-6	NaN
21	1.000000	0.648545	7.36525e+06	-39689.1	955.819	-29793.7	0.000000	0.000000	6.648949	0.011545	NaN	0.000000	0.001647	0.001582	28.0811	0.131297	0.002082	63.0556	-144.177	-2.431664	0.042399	0.647187	-0.332714	-0.334073	0.011545	63.0556	-0.332852	-14361	-8.039150E-7	NaN
21	1.000000	0.686531	7.36525e+06	-39689.1	955.818	-29793.7	0.000000	0.000000	6.686934	-0.004689	NaN	0.000000	0.001691	0.001599	28.0911	0.089612	0.002031	44.1166	-19.1242	177.469	-0.049521	0.685256	-0.294729	-0.296003	-0.004689	44.1166	-0.294649	-3916.05	1.197375E-6	NaN
21	1.000000	0.724558	7.36525e+06	-39689.1	955.818	-29793.7	0.000000	0.000000	6.724960	-0.062090	NaN	0.000000	0.001640	0.001583	28.1308	0.064329	0.002027	31.7333	-159.62	-0.135372	-0.071110	0.723130	-0.256701	-0.258129	-0.062090	31.7333	-0.255233	-990.168	6.270685E-5	NaN
21	1.000000	0.762569	7.36525e+06	-39689.1	955.818	-29793.7	0.000000	0.000000	6.762974	0.019525	NaN	0.000000	0.001585	0.001637	28.103	0.069175	0.001840	37.5893	-156.899	-178.907	0.045097	0.761278	-0.218690	-0.219981	0.019525	37.5893	-0.219080	-268.509	-7.271627E-5	NaN
21	1.000000	0.800584	7.36525e+06	-39689.1	955.818	-29793.7	0.000000	0.000000	6.800988	0.019454	NaN	0.000000	0.001577	0.001594	28.0793	0.076181	0.001902	40.0611	-119.79	-0.295682	-0.010004	0.799224	-0.180676	-0.182035	0.019454	40.0611	-0.181040	-63.5536	-0.000306	NaN
21	1.000000	0.838619	7.36525e+06	-39689.1	955.817	-29793.7	0.000000	0.000000	6.839019	-0.086643	NaN	0.000000	0.001578	0.001646	28.092	0.081023	0.001924	42.1219	80.0284	-179.187	-0.114486	0.837302	-0.142641	-0.143957	-0.086643	42.1219	-0.141098	-12.4038	0.006985	NaN
21	1.000000	0.876659	7.36525e+06	-39689.1	955.817	-29793.7	0.000000	0.000000	6.877064	0.009669	NaN	0.000000	0.001565	0.001621	28.1318	0.012575	0.001951	6.446383	-160.176	-2.872907	0.015992	0.875304	-0.104600	-0.105956	0.009669	6.446383	-0.105725	-2.436719	-0.003968	NaN
21	1.000000	0.914646	7.36525e+06	-39689.1	955.818	-29793.7	0.000000	0.000000	6.915049	-0.037626	NaN	0.000000	0.001588	0.001643	28.1038	0.081683	0.001946	41.9729	-24.2769	176.398	-0.055570	0.913345	-0.066613	-0.067915	-0.037626	41.9729	-0.065941	-0.264596	0.142203	NaN
21	1.000000	0.952630	7.36525e+06	-39689.1	955.818	-29793.7	0.000000	0.000000	6.953034	0.000770	NaN	0.000000	0.001577	0.001706	28.0808	0.057006	0.001965	29.0055	-24.2528	-3.693363	-0.085744	0.951324	-0.028630	-0.029935	0.000770	29.0055	-0.028650	-0.021119	-0.036477	NaN
21	2.000000	0.989315	7.36525e+06	-39689.1	955.818	-29793.7	0.000000	0.000000	6.990030	7.567486	NaN	0.000000	0.001626	0.001682	28.09	7.558841	0.001687	4481.15	8.904895	170.651	8.212090	0.988933	0.008055	0.007673	7.567486	4481.15	0.006789	0.005826	1298.94	53639
21	2.000000	0.998774	7.36525e+06	-39689.1	955.82	-29793.7	0.000000	0.000000	7.000041	20.9981	NaN	0.000000	0.001560	0.001682	28.1308	17.601	0.001878	9370.44	7.331804	-14.548	21.5466	0.998486	0.017515	0.017227	20.9981	9370.44	0.015834	0.016414	1279.31	66823.8
21	2.000000	1.008233	7.36525e+06	-39689.1	955.819	-29793.7	0.000000	0.000000	7.010335	41.3317	NaN	0.000000	0.001587	0.001653	28.1021	25.5783	0.001724	14832.3	7.963790	162.982	41.2981	1.007906	0.026974	0.026647	41.3317	14832.3	0.024884	0.030804	1341.74	77210.3
21	2.000000	1.017749	7.36525e+06	-39689.1	955.818	-29793.7	0.000000	0.000000	7.020879	66.3321	NaN	0.000000	0.001647	0.001668	28.0801	34.5332	0.001800	19181.3	6.095882	-19.391	67.7458	1.017386	0.036490	0.036127	66.3321	19181.3	0.033896	0.049207	1348.04	79002.3
21	2.000000	1.027155	7.36525e+06	-39689.1	955.818	-29793.7	0.000000	0.000000	7.031683	100.365	NaN	0.000000	0.001621	0.001662	28.0931	42.4866	0.001724	24638.9	3.503368	160.189	97.6553	1.026856	0.045896	0.045597	100.365	24638.9	0.042841	0.071575	1402.23	84141.9
21	2.000000	1.036701	7.36525e+06	-39689.1	955.818	-29793.7	0.000000	0.000000	7.042758	137.565	NaN	0.000000	0.001596	0.001660	28.1326	52.7907	0.001843	28650	4.110768	-20.8146	137.296	1.036407	0.055442	0.055148	137.565	28650	0.051841	0.098188	1401.04	83535.3
21	2.000000	1.046221	7.36525e+06	-39689.1	955.819	-29793.7	0.000000	0.000000	7.054030	180.197	NaN	0.000000	0.001577	0.001712	28.1015	60.5421	0.001859	32571	6.151793	155.499	181.512	1.045795	0.064962	0.064536	180.197	32571	0.060812	0.128737	1399.73	82937.9
21	2.000000	1.055690	7.36525e+06	-39689.1	955.819	-29793.7	0.000000	0.000000	7.065553	230.167	NaN	0.000000	0.001594	0.001614	28.0799	68.7392	0.001763	38988.5	5.328095	-24.7174	228.499	1.055195	0.074431	0.073936	230.167	38988.5	0.070003	0.164102	1402.59	87933.4
21	2.000000	1.065090	7.36525e+06	-39689.1	955.819	-29793.7	0.000000	0.000000	7.077290	287.046	NaN	0.000000	0.001591	0.001652	28.0932	77.589	0.001838	42216.6	4.340335	155.316	282.286	1.064827	0.083830	0.083568	287.046	42216.6	0.078731	0.201406	1425.21	85944.9
21	2.000000	1.074599	7.36525e+06	-39689.1	955.818	-29793.7	0.000000	0.000000	7.089643	356.262	NaN	0.000000	0.001577	0.001604	28.1308	84.2682	0.001783	47255.4	2.478637	-22.7156	354.107	1.074230	0.093339	0.092971	356.262	47255.4	0.087685	0.243377	1463.83	87515.5
21	2.000000	1.084116	7.36525e+06	-39689.1	955.818	-29793.7	0.000000	0.000000	7.102067	427.015	NaN	0.000000	0.001601	0.001625	28.1015	95.9446	0.001734	55334.6	7.658589	150.504	425.196	1.083731	0.102856	0.102472	427.015	55334.6	0.097069	0.291318	1465.8	93666.8
21	2.000000	1.087071	7.36525e+06	-39689.1	955.818	-29793.7	0.000000	0.000000	7.105914	448.709	NaN	0.000000	0.001601	0.001659	28.0948	98.872	0.001767	55945.2	3.769170	154.541	445.503	1.086770	0.105812	0.105510	448.709	55945.2	0.099796	0.306008	1466.33	92399.5