File: remote_trans/data/nanoindenter/0828-1/data/Data_2025-08-06,11h17m57s/2025-07-22_16-23-58_1_438.txt
2025-07-22, 16:23:58, 1
Index	Phase	Displacement	Time	Pos X	Pos Y	Pos Z	Rot A	Rot B	Piezo Z	Force A	Force B	Gripper	Voltage A	Voltage B	Temperature	Amplitude force	Amplitude pos	Stiffness	Phase shift	Phase excitation	Force A raw	Displacement raw	HMax	HMax raw	Real Force	Real Stiffness	Contact Depth	Area	Hardness	Reduced Mod.
[#]	[#]	[um]	[s]	[um]	[um]	[um]	[m°]	[m°]	[um]	[uN]	[uN]	[V]	[V]	[V]	[°C]	[uN]	[um]	[N/m]	[°]	[°]	[uN]	[um]	[um]	[um]	[uN]	[N/m]	[um]	[um^2]	[MPa]	[MPa]
438	1.000000	0.002646	7.36934e+06	-55189.1	1005.82	-29742.2	0.000000	0.000000	6.002815	-0.008752	NaN	0.000000	0.001684	0.001679	28.0817	0.084317	0.001043	80.8056	80.9815	-162.905	-0.075315	0.001394	-1.054440	-1.055692	-0.008752	80.8056	-1.054359	-1.221805E+14	7.163544E-17	NaN
438	1.000000	0.042572	7.36934e+06	-55189.1	1005.82	-29742.2	0.000000	0.000000	6.042740	-0.056251	NaN	0.000000	0.001666	0.001698	28.0822	0.099571	0.001975	50.4234	-178.467	-166.217	-0.108491	0.041287	-1.014514	-1.015799	-0.056251	50.4234	-1.013677	-3.466340E+13	1.622792E-15	NaN
438	1.000000	0.082575	7.36934e+06	-55189.1	1005.82	-29742.2	0.000000	0.000000	6.082741	-0.110217	NaN	0.000000	0.001691	0.001678	28.082	0.107621	0.002042	52.7032	8.532462	-164.688	-0.161946	0.081237	-0.974511	-0.975849	-0.110217	52.7032	-0.972942	-9.801941E+12	1.124444E-14	NaN
438	1.000000	0.122625	7.36934e+06	-55189.1	1005.82	-29742.2	0.000000	0.000000	6.122793	-0.046166	NaN	0.000000	0.001654	0.001641	28.0802	0.087694	0.001891	46.3639	132.425	-166.752	-0.134414	0.121312	-0.934461	-0.935774	-0.046166	46.3639	-0.933714	-2.899517E+12	1.592208E-14	NaN
438	1.000000	0.162652	7.36934e+06	-55189.1	1005.82	-29742.2	0.000000	0.000000	6.162823	0.032096	NaN	0.000000	0.001607	0.001695	28.0815	0.093253	0.001952	47.7836	-74.6986	-162.418	0.106746	0.161331	-0.894434	-0.895755	0.032096	47.7836	-0.894938	-8.682684E+11	-3.696597E-14	NaN
438	1.000000	0.202624	7.36934e+06	-55189.1	1005.82	-29742.2	0.000000	0.000000	6.202793	-0.001050	NaN	0.000000	0.001610	0.001669	28.0803	0.056597	0.002068	27.364	-149.184	-164.625	-0.010982	0.201334	-0.854462	-0.855752	-0.001050	27.364	-0.854433	-2.459044E+11	4.269598E-15	NaN
438	1.000000	0.242688	7.36934e+06	-55189.1	1005.82	-29742.2	0.000000	0.000000	6.242855	-0.072292	NaN	0.000000	0.001633	0.001658	28.0809	0.130307	0.001900	68.5928	13.625	-163.765	-0.066876	0.241355	-0.814398	-0.815731	-0.072292	68.5928	-0.813607	-6.878687E+10	1.050960E-12	NaN
438	1.000000	0.282659	7.36934e+06	-55189.1	1005.82	-29742.2	0.000000	0.000000	6.282826	-0.068836	NaN	0.000000	0.001598	0.001657	28.0816	0.065055	0.002007	32.4068	154.166	-165.078	-0.038455	0.281376	-0.774427	-0.775710	-0.068836	32.4068	-0.772834	-1.922337E+10	3.580870E-12	NaN
438	1.000000	0.322664	7.36934e+06	-55189.1	1005.82	-29742.2	0.000000	0.000000	6.322833	-0.002560	NaN	0.000000	0.001615	0.001630	28.0817	0.104118	0.001907	54.5923	-18.8587	-164.077	0.035964	0.321426	-0.734422	-0.735660	-0.002560	54.5923	-0.734387	-5.762283E+9	4.442932E-13	NaN
438	1.000000	0.362714	7.36934e+06	-55189.1	1005.82	-29742.2	0.000000	0.000000	6.362884	0.001946	NaN	0.000000	0.001675	0.001627	28.0818	0.015590	0.001980	7.872285	91.0682	-163.005	0.028566	0.361418	-0.694372	-0.695668	0.001946	7.872285	-0.694557	-1.648876E+9	-1.179947E-12	NaN
438	1.000000	0.402737	7.36934e+06	-55189.1	1005.82	-29742.2	0.000000	0.000000	6.402905	-0.038921	NaN	0.000000	0.001616	0.001665	28.0802	0.073908	0.001929	38.3123	-148.115	-160.933	-0.054276	0.401368	-0.654349	-0.655718	-0.038921	38.3123	-0.653587	-4.535248E+8	8.581816E-11	NaN
438	1.000000	0.442779	7.36934e+06	-55189.1	1005.82	-29742.2	0.000000	0.000000	6.442946	-0.063070	NaN	0.000000	0.001589	0.001666	28.0802	0.032488	0.002006	16.1932	129.555	-166.582	0.006737	0.441467	-0.614307	-0.615619	-0.063070	16.1932	-0.611386	-1.194488E+8	5.280057E-10	NaN
438	1.000000	0.482760	7.36934e+06	-55189.1	1005.82	-29742.2	0.000000	0.000000	6.482930	-0.001549	NaN	0.000000	0.001592	0.001678	28.0805	0.063144	0.001943	32.4937	106.142	-165.174	-0.000685	0.481509	-0.574326	-0.575577	-0.001549	32.4937	-0.574290	-3.680359E+7	4.209428E-11	NaN
438	1.000000	0.522773	7.36935e+06	-55189.1	1005.82	-29742.2	0.000000	0.000000	6.522942	0.005156	NaN	0.000000	0.001594	0.001730	28.0819	0.045472	0.002066	22.0149	108.555	-160.545	0.000819	0.521484	-0.534313	-0.535602	0.005156	22.0149	-0.534489	-1.034903E+7	-4.982325E-10	NaN
438	1.000000	0.562785	7.36935e+06	-55189.1	1005.82	-29742.2	0.000000	0.000000	6.562954	-0.009460	NaN	0.000000	0.001613	0.001728	28.0815	0.041805	0.002008	20.8158	80.8881	-164.872	0.013045	0.561481	-0.494301	-0.495605	-0.009460	20.8158	-0.493960	-2.82304e+06	3.351113E-9	NaN
438	1.000000	0.602816	7.36935e+06	-55189.1	1005.82	-29742.2	0.000000	0.000000	6.602986	-0.000522	NaN	0.000000	0.001635	0.001679	28.0816	0.066383	0.001982	33.4899	2.747372	-163.457	-0.019297	0.601544	-0.454270	-0.455542	-0.000522	33.4899	-0.454258	-783932	6.653784E-10	NaN
438	1.000000	0.642828	7.36935e+06	-55189.1	1005.82	-29742.2	0.000000	0.000000	6.642996	-0.055895	NaN	0.000000	0.001636	0.001652	28.0815	0.034675	0.002056	16.8616	7.508272	-166.09	-0.067830	0.641579	-0.414258	-0.415507	-0.055895	16.8616	-0.411771	-196601	2.843054E-7	NaN
438	1.000000	0.682852	7.36935e+06	-55189.1	1005.82	-29742.2	0.000000	0.000000	6.683020	-0.034382	NaN	0.000000	0.001614	0.001700	28.0799	0.106714	0.001977	53.9669	84.2784	-164.353	-0.036692	0.681474	-0.374234	-0.375612	-0.034382	53.9669	-0.373756	-56258.3	6.111392E-7	NaN
438	1.000000	0.722877	7.36935e+06	-55189.1	1005.82	-29742.2	0.000000	0.000000	6.723046	-0.029619	NaN	0.000000	0.001598	0.001698	28.0803	0.062496	0.001956	31.9442	-22.058	-169.115	-0.067619	0.721479	-0.334209	-0.335607	-0.029619	31.9442	-0.333513	-14684.6	2.017018E-6	NaN
438	1.000000	0.762877	7.36935e+06	-55189.1	1005.82	-29742.2	0.000000	0.000000	6.763043	-0.092737	NaN	0.000000	0.001595	0.001667	28.08	0.077828	0.001954	39.8213	-56.0225	-165.991	-0.009416	0.761577	-0.294209	-0.295509	-0.092737	39.8213	-0.292462	-3632.16	2.553232E-5	NaN
438	1.000000	0.802882	7.36935e+06	-55189.1	1005.82	-29742.2	0.000000	0.000000	6.803051	-0.021315	NaN	0.000000	0.001587	0.001659	28.0817	0.069185	0.001960	35.3041	-18.1249	-164.27	-0.094429	0.801597	-0.254204	-0.255489	-0.021315	35.3041	-0.253751	-939.472	2.268877E-5	NaN
438	1.000000	0.842936	7.36935e+06	-55189.1	1005.82	-29742.2	0.000000	0.000000	6.843104	-0.041476	NaN	0.000000	0.001544	0.001694	28.0811	0.088740	0.002101	42.247	53.8844	-165.631	-0.055684	0.841598	-0.214150	-0.215488	-0.041476	42.247	-0.213414	-217.757	0.000190	NaN
438	1.000000	0.882911	7.36935e+06	-55189.1	1005.82	-29742.2	0.000000	0.000000	6.883079	-0.052260	NaN	0.000000	0.001612	0.001664	28.0815	0.055934	0.002035	27.4919	84.4795	-169.33	-0.036773	0.881638	-0.174175	-0.175448	-0.052260	27.4919	-0.172749	-45.8368	0.001140	NaN
438	1.000000	0.922958	7.36935e+06	-55189.1	1005.82	-29742.2	0.000000	0.000000	6.923125	-0.063803	NaN	0.000000	0.001596	0.001668	28.0815	0.133341	0.002045	65.1922	-26.0325	-166.549	-0.106106	0.921665	-0.134128	-0.135421	-0.063803	65.1922	-0.133394	-8.862272	0.007199	NaN
438	1.000000	0.962968	7.36935e+06	-55189.1	1005.82	-29742.2	0.000000	0.000000	6.963136	-0.041399	NaN	0.000000	0.001601	0.001645	28.0802	0.074304	0.002042	36.3817	144.074	-164.004	-0.010266	0.961670	-0.094118	-0.095416	-0.041399	36.3817	-0.093265	-1.287314	0.032159	NaN
438	1.000000	1.002981	7.36935e+06	-55189.1	1005.82	-29742.2	0.000000	0.000000	7.003148	-0.055705	NaN	0.000000	0.001584	0.001666	28.0804	0.124042	0.002014	61.5937	179.861	-166.51	-0.031865	1.001665	-0.054105	-0.055421	-0.055705	61.5937	-0.053427	-0.115653	0.481652	NaN
438	1.000000	1.042986	7.36935e+06	-55189.1	1005.82	-29742.2	0.000000	0.000000	7.043155	-0.027120	NaN	0.000000	0.001581	0.001682	28.0802	0.046085	0.001976	23.3233	47.8186	-165.545	-0.032967	1.041639	-0.014100	-0.015447	-0.027120	23.3233	-0.013228	-0.008234	3.293702	NaN
438	2.000000	1.073578	7.36935e+06	-55189.1	1005.82	-29742.2	0.000000	0.000000	7.074253	12.2652	NaN	0.000000	0.001547	0.001653	28.0817	11.7748	0.001721	6842.22	7.185226	-173.221	12.1549	1.073322	0.016492	0.016236	12.2652	6842.22	0.015148	0.015483	792.161	50238.9
438	2.000000	1.083565	7.36935e+06	-55189.1	1005.82	-29742.2	0.000000	0.000000	7.085040	31.7301	NaN	0.000000	0.001561	0.001613	28.0814	22.0632	0.001749	12616	6.600330	-177.665	32.55	1.083158	0.026479	0.026072	31.7301	12616	0.024593	0.030278	1047.94	66241.3
438	2.000000	1.093506	7.36935e+06	-55189.1	1005.82	-29742.2	0.000000	0.000000	7.096058	57.9234	NaN	0.000000	0.001616	0.001664	28.0812	33.0178	0.001841	17934.6	3.957046	-178.923	57.2418	1.093175	0.036420	0.036089	57.9234	17934.6	0.033997	0.049437	1171.65	73694.9
438	2.000000	1.103455	7.36935e+06	-55189.1	1005.82	-29742.2	0.000000	0.000000	7.107441	92.7647	NaN	0.000000	0.001587	0.001654	28.0801	41.9736	0.001871	22433.9	4.983932	178.789	91.3252	1.103171	0.046369	0.046085	92.7647	22433.9	0.043268	0.072746	1275.19	75993
438	2.000000	1.113459	7.36935e+06	-55189.1	1005.82	-29742.2	0.000000	0.000000	7.119105	133.118	NaN	0.000000	0.001615	0.001681	28.0802	51.2366	0.001845	27768.2	2.529948	178.993	131.424	1.113192	0.056373	0.056106	133.118	27768.2	0.052777	0.101191	1315.51	79753.6
438	2.000000	1.123402	7.36935e+06	-55189.1	1005.82	-29742.2	0.000000	0.000000	7.131357	189.257	NaN	0.000000	0.001613	0.001686	28.0803	61.0516	0.001776	34377.1	5.293280	174.337	186.099	1.123118	0.066316	0.066032	189.257	34377.1	0.062187	0.133768	1414.81	85874.9
438	2.000000	1.133404	7.36935e+06	-55189.1	1005.82	-29742.2	0.000000	0.000000	7.143821	249.091	NaN	0.000000	0.001588	0.001711	28.0804	70.0508	0.001837	38124.5	-0.956344	-179.063	248.48	1.133125	0.076318	0.076039	249.091	38124.5	0.071418	0.169903	1466.08	84503.9
438	2.000000	1.143331	7.36935e+06	-55189.1	1005.82	-29742.2	0.000000	0.000000	7.156349	312.33	NaN	0.000000	0.001608	0.001671	28.0815	79.4808	0.001782	44597.2	4.567545	173.332	307.558	1.143087	0.086245	0.086001	312.33	44597.2	0.080993	0.211657	1475.64	88565.5
438	2.000000	1.153377	7.36935e+06	-55189.1	1005.82	-29742.2	0.000000	0.000000	7.169407	385.535	NaN	0.000000	0.001539	0.001639	28.0816	88.1968	0.001806	48825.6	2.375826	174.994	384.15	1.153149	0.096291	0.096063	385.535	48825.6	0.090369	0.256679	1502.01	88049.2
438	2.000000	1.163372	7.36935e+06	-55189.1	1005.82	-29742.2	0.000000	0.000000	7.182553	462.143	NaN	0.000000	0.001583	0.001684	28.0816	97.5533	0.001767	55202.5	4.598864	172.2	458.577	1.163069	0.106286	0.105983	462.143	55202.5	0.100008	0.307161	1504.57	91001.6
438	2.000000	1.168943	7.36935e+06	-55189.1	1005.82	-29742.2	0.000000	0.000000	7.189326	491.369	NaN	0.000000	0.001574	0.001662	28.0814	100.246	0.001802	55624	-1.049623	-2.661893	491.254	1.168777	0.111857	0.111691	491.369	55624	0.105232	0.336290	1461.15	87635.1