File: remote_trans/data/nanoindenter/0828-1/data/Data_2025-08-06,11h17m57s/2025-07-22_16-23-58_1_687.txt
2025-07-22, 16:23:58, 1
Index	Phase	Displacement	Time	Pos X	Pos Y	Pos Z	Rot A	Rot B	Piezo Z	Force A	Force B	Gripper	Voltage A	Voltage B	Temperature	Amplitude force	Amplitude pos	Stiffness	Phase shift	Phase excitation	Force A raw	Displacement raw	HMax	HMax raw	Real Force	Real Stiffness	Contact Depth	Area	Hardness	Reduced Mod.
[#]	[#]	[um]	[s]	[um]	[um]	[um]	[m°]	[m°]	[um]	[uN]	[uN]	[V]	[V]	[V]	[°C]	[uN]	[um]	[N/m]	[°]	[°]	[uN]	[um]	[um]	[um]	[uN]	[N/m]	[um]	[um^2]	[MPa]	[MPa]
687	1.000000	0.002553	7.37177e+06	-42739.1	1005.82	-29781.5	0.000000	0.000000	6.002802	0.033185	NaN	0.000000	0.001679	0.001793	28.0833	0.031174	0.000935	33.328	-6.903111	-165.744	-0.006668	0.001303	-1.116616	-1.117866	0.033185	33.328	-1.117363	-8.572139E+14	-3.871311E-17	NaN
687	1.000000	0.044528	7.37177e+06	-42739.1	1005.82	-29781.6	0.000000	0.000000	6.044774	-0.048248	NaN	0.000000	0.001714	0.001784	28.0816	0.058574	0.002070	28.2965	85.3154	17.1296	0.011838	0.043170	-1.074641	-1.076000	-0.048248	28.2965	-1.073363	-2.199694E+14	2.193409E-16	NaN
687	1.000000	0.086522	7.37177e+06	-42739.1	1005.82	-29781.6	0.000000	0.000000	6.086770	0.006970	NaN	0.000000	0.001694	0.001771	28.0815	0.085475	0.001893	45.1571	-66.9174	-163.435	0.108382	0.085194	-1.032647	-1.033976	0.006970	45.1571	-1.032763	-6.260924E+13	-1.113187E-16	NaN
687	1.000000	0.128556	7.37177e+06	-42739.1	1005.82	-29781.6	0.000000	0.000000	6.128803	-0.022094	NaN	0.000000	0.001699	0.001777	28.0816	0.161070	0.002147	75.0159	174.996	12.1216	-0.022178	0.127142	-0.990613	-0.992027	-0.022094	75.0159	-0.990392	-1.684215E+13	1.311848E-15	NaN
687	1.000000	0.170558	7.37177e+06	-42739.1	1005.82	-29781.6	0.000000	0.000000	6.170810	0.089446	NaN	0.000000	0.001699	0.001729	28.0831	0.077394	0.001986	38.9751	102.497	-167.313	0.084318	0.169223	-0.948611	-0.949946	0.089446	38.9751	-0.950332	-4.858595E+12	-1.840985E-14	NaN
687	1.000000	0.212545	7.37177e+06	-42739.1	1005.82	-29781.6	0.000000	0.000000	6.212795	0.039383	NaN	0.000000	0.001695	0.001772	28.0833	0.080180	0.002000	40.0853	12.6117	16.1526	-0.042571	0.211218	-0.906624	-0.907951	0.039383	40.0853	-0.907361	-1.277943E+12	-3.081713E-14	NaN
687	1.000000	0.254581	7.37177e+06	-42739.1	1005.82	-29781.6	0.000000	0.000000	6.254825	-0.085923	NaN	0.000000	0.001702	0.001782	28.0832	0.098392	0.001944	50.6049	172.265	-162.998	-0.016456	0.253298	-0.864589	-0.865872	-0.085923	50.6049	-0.863315	-3.243319E+11	2.649220E-13	NaN
687	1.000000	0.296602	7.37177e+06	-42739.1	1005.82	-29781.6	0.000000	0.000000	6.296848	-0.050888	NaN	0.000000	0.001731	0.001783	28.0835	0.091632	0.001916	47.8123	-56.819	13.1407	-0.057630	0.295256	-0.822567	-0.823913	-0.050888	47.8123	-0.821769	-8.875540E+10	5.733535E-13	NaN
687	1.000000	0.338642	7.37177e+06	-42739.1	1005.82	-29781.6	0.000000	0.000000	6.338892	0.059454	NaN	0.000000	0.001712	0.001756	28.0822	0.025944	0.002077	12.4928	137.073	-166.938	-0.021339	0.337269	-0.780527	-0.781900	0.059454	12.4928	-0.784097	-2.734601E+10	-2.174133E-12	NaN
687	1.000000	0.380622	7.37177e+06	-42739.1	1005.82	-29781.6	0.000000	0.000000	6.380871	0.039780	NaN	0.000000	0.001749	0.001820	28.0821	0.140995	0.001898	74.2786	112.358	13.2813	0.026159	0.379284	-0.738547	-0.739885	0.039780	74.2786	-0.738949	-6.648791E+9	-5.983103E-12	NaN
687	1.000000	0.422629	7.37177e+06	-42739.1	1005.82	-29781.6	0.000000	0.000000	6.422876	-0.028695	NaN	0.000000	0.001747	0.001759	28.0822	0.005029	0.002057	2.444689	-155.85	-167.789	-0.085088	0.421347	-0.696540	-0.697823	-0.028695	2.444689	-0.687737	-1.330414E+9	2.156833E-11	NaN
687	1.000000	0.464676	7.37177e+06	-42739.1	1005.82	-29781.6	0.000000	0.000000	6.464923	-0.016176	NaN	0.000000	0.001749	0.001747	28.0832	0.089052	0.001964	45.3462	165.1	15.9782	0.042547	0.463289	-0.654493	-0.655881	-0.016176	45.3462	-0.654226	-4.627582E+8	3.495541E-11	NaN
687	1.000000	0.506671	7.37177e+06	-42739.1	1005.82	-29781.6	0.000000	0.000000	6.506921	0.057316	NaN	0.000000	0.001733	0.001762	28.0829	0.086149	0.002140	40.2482	139.264	-163.711	0.012091	0.505419	-0.612498	-0.613750	0.057316	40.2482	-0.613566	-1.279880E+8	-4.478231E-10	NaN
687	1.000000	0.548683	7.37177e+06	-42739.1	1005.82	-29781.6	0.000000	0.000000	6.548931	0.011820	NaN	0.000000	0.001741	0.001766	28.083	0.096341	0.001890	50.9855	60.5252	10.8433	-0.032877	0.547361	-0.570486	-0.571808	0.011820	50.9855	-0.570660	-3.279078E+7	-3.604697E-10	NaN
687	1.000000	0.590724	7.37177e+06	-42739.1	1005.82	-29781.6	0.000000	0.000000	6.590971	-0.022009	NaN	0.000000	0.001718	0.001763	28.0819	0.038766	0.001980	19.5769	47.3499	-166.38	0.118519	0.589393	-0.528446	-0.529777	-0.022009	19.5769	-0.527602	-8.3037e+06	2.650480E-9	NaN
687	1.000000	0.632717	7.37177e+06	-42739.1	1005.82	-29781.6	0.000000	0.000000	6.632967	0.060474	NaN	0.000000	0.001722	0.001745	28.0823	0.064183	0.002129	30.149	-160.17	17.4252	0.014920	0.631412	-0.486452	-0.487757	0.060474	30.149	-0.487956	-2.32718e+06	-2.598611E-8	NaN
687	1.000000	0.674784	7.37177e+06	-42739.1	1005.82	-29781.6	0.000000	0.000000	6.675032	-0.003163	NaN	0.000000	0.001685	0.001760	28.0818	0.028013	0.002127	13.1717	82.2402	-166.669	-0.076717	0.673433	-0.444385	-0.445736	-0.003163	13.1717	-0.444205	-565830	5.589931E-9	NaN
687	1.000000	0.716782	7.37177e+06	-42739.1	1005.82	-29781.6	0.000000	0.000000	6.717029	-0.010275	NaN	0.000000	0.001712	0.001749	28.0832	0.046845	0.001967	23.8108	-174.845	13.0733	0.028354	0.715380	-0.402387	-0.403789	-0.010275	23.8108	-0.402064	-143026	7.184208E-8	NaN
687	1.000000	0.758778	7.37177e+06	-42739.1	1005.82	-29781.6	0.000000	0.000000	6.759027	0.032652	NaN	0.000000	0.001705	0.001740	28.0833	0.047540	0.002152	22.0883	-160.428	-164.601	0.079374	0.757478	-0.360391	-0.361692	0.032652	22.0883	-0.361500	-37455.9	-8.717509E-7	NaN
687	1.000000	0.800811	7.37177e+06	-42739.1	1005.82	-29781.6	0.000000	0.000000	6.801059	0.012245	NaN	0.000000	0.001665	0.001754	28.0833	0.046225	0.002017	22.9212	-136.294	16.4182	-0.024573	0.799482	-0.318358	-0.319688	0.012245	22.9212	-0.318759	-8919.97	-1.372743E-6	NaN
687	1.000000	0.842846	7.37177e+06	-42739.1	1005.82	-29781.6	0.000000	0.000000	6.843093	-0.027611	NaN	0.000000	0.001631	0.001775	28.0836	0.104239	0.002094	49.7754	96.4154	-163.81	-0.109934	0.841552	-0.276323	-0.277617	-0.027611	49.7754	-0.275907	-2047.04	1.348803E-5	NaN
687	1.000000	0.884854	7.37177e+06	-42739.1	1005.82	-29781.6	0.000000	0.000000	6.885104	0.054144	NaN	0.000000	0.001689	0.001744	28.0822	0.105535	0.001927	54.7573	-11.4165	15.8264	0.005086	0.883499	-0.234315	-0.235670	0.054144	54.7573	-0.235057	-480.99	-0.000113	NaN
687	1.000000	0.926861	7.37177e+06	-42739.1	1005.82	-29781.6	0.000000	0.000000	6.927109	-0.008887	NaN	0.000000	0.001651	0.001746	28.0822	0.079922	0.001928	41.4527	69.8074	-166.706	0.031077	0.925527	-0.192308	-0.193642	-0.008887	41.4527	-0.192147	-97.6859	9.097877E-5	NaN
687	1.000000	0.968878	7.37177e+06	-42739.1	1005.82	-29781.6	0.000000	0.000000	6.969125	-0.031313	NaN	0.000000	0.001679	0.001793	28.0824	0.127973	0.002067	61.9064	-67.0046	17.3582	-0.053595	0.967523	-0.150291	-0.151646	-0.031313	61.9064	-0.149912	-18.0466	0.001735	NaN
687	1.000000	1.010913	7.37177e+06	-42739.1	1005.82	-29781.6	0.000000	0.000000	7.011160	-0.003490	NaN	0.000000	0.001690	0.001742	28.0833	0.046768	0.001876	24.9345	83.1009	-164.422	-0.063791	1.009573	-0.108257	-0.109596	-0.003490	24.9345	-0.108152	-2.746181	0.001271	NaN
687	1.000000	1.052909	7.37177e+06	-42739.1	1005.82	-29781.6	0.000000	0.000000	7.053155	-0.031303	NaN	0.000000	0.001649	0.001794	28.0833	0.017565	0.002112	8.314725	175.477	13.8891	0.006361	1.051534	-0.066260	-0.067636	-0.031303	8.314725	-0.063437	-0.225415	0.138867	NaN
687	1.000000	1.094912	7.37177e+06	-42739.1	1005.82	-29781.6	0.000000	0.000000	7.095161	0.037935	NaN	0.000000	0.001678	0.001761	28.0833	0.040996	0.002223	18.4415	116.854	-166.839	-0.017789	1.093669	-0.024258	-0.025500	0.037935	18.4415	-0.025800	-0.017707	-2.142436	NaN
687	2.000000	1.126936	7.37177e+06	-42739.1	1005.82	-29781.6	0.000000	0.000000	7.127706	12.6967	NaN	0.000000	0.001681	0.001768	28.0825	13.1362	0.001804	7283.63	10.8344	3.123606	13.0391	1.126557	0.007767	0.007388	12.6967	7283.63	0.006459	0.005505	2306.35	89688.7
687	2.000000	1.137340	7.37177e+06	-42739.1	1005.82	-29781.6	0.000000	0.000000	7.139106	36.9391	NaN	0.000000	0.001701	0.001809	28.0822	23.9204	0.001723	13883.6	7.048158	-179.184	36.2477	1.137050	0.018171	0.017880	36.9391	13883.6	0.016176	0.016885	2187.69	97616.5
687	2.000000	1.147852	7.37178e+06	-42739.1	1005.82	-29781.6	0.000000	0.000000	7.150799	65.6744	NaN	0.000000	0.001692	0.001722	28.0819	33.7263	0.001829	18444.7	5.317872	0.030158	65.193	1.147509	0.028683	0.028340	65.6744	18444.7	0.026012	0.032883	1997.2	92930.3
687	2.000000	1.158234	7.37178e+06	-42739.1	1005.82	-29781.6	0.000000	0.000000	7.163106	112.524	NaN	0.000000	0.001661	0.001715	28.0831	44.0066	0.001879	23420	5.800171	177.83	108.929	1.157948	0.039064	0.038779	112.524	23420	0.035461	0.052824	2130.14	93098.4
687	2.000000	1.168814	7.37178e+06	-42739.1	1005.82	-29781.6	0.000000	0.000000	7.176223	174.218	NaN	0.000000	0.001726	0.001741	28.0832	53.827	0.001747	30809.1	5.998897	-4.576116	172.877	1.168425	0.049645	0.049256	174.218	30809.1	0.045404	0.078739	2212.61	100313
687	2.000000	1.179311	7.37178e+06	-42739.1	1005.82	-29781.6	0.000000	0.000000	7.189643	245.35	NaN	0.000000	0.001731	0.001771	28.0832	65.2749	0.001801	36240.7	4.979850	175.263	246.046	1.178980	0.060141	0.059811	245.35	36240.7	0.055064	0.108706	2257.01	100425
687	2.000000	1.189782	7.37178e+06	-42739.1	1005.82	-29781.6	0.000000	0.000000	7.203344	323.936	NaN	0.000000	0.001716	0.001744	28.0834	76.3535	0.001717	44463.2	5.736700	-7.962436	321.536	1.189400	0.070613	0.070231	323.936	44463.2	0.065149	0.144915	2235.35	106713
687	2.000000	1.200258	7.37178e+06	-42739.1	1005.82	-29781.6	0.000000	0.000000	7.217428	411.729	NaN	0.000000	0.001723	0.001771	28.0823	87.2958	0.001763	49508.5	7.643002	170.186	410.896	1.199915	0.081089	0.080746	411.729	49508.5	0.074852	0.184382	2233.02	105340
687	2.000000	1.210697	7.37178e+06	-42739.1	1005.82	-29781.6	0.000000	0.000000	7.231708	505.19	NaN	0.000000	0.001710	0.001829	28.0823	96.194	0.001669	57621.3	1.850875	-5.181653	498.441	1.210251	0.091528	0.091082	505.19	57621.3	0.084952	0.230173	2194.83	109731
687	2.000000	1.221178	7.37178e+06	-42739.1	1005.82	-29781.6	0.000000	0.000000	7.246232	603.553	NaN	0.000000	0.001734	0.001790	28.0822	108.056	0.001886	57286.8	4.452324	171.999	599.386	1.220953	0.102009	0.101784	603.553	57286.8	0.094107	0.275752	2188.75	99670.8
687	2.000000	1.222201	7.37178e+06	-42739.1	1005.82	-29781.6	0.000000	0.000000	7.247987	621.351	NaN	0.000000	0.001704	0.001793	28.0817	108.146	0.001745	61973.8	6.718975	169.434	618.835	1.221809	0.103032	0.102640	621.351	61973.8	0.095513	0.283090	2194.89	106419