File: remote_trans/data/nanoindenter/0828-1/data/Data_2025-08-06,11h17m57s/2025-07-22_16-23-58_1_184.txt
2025-07-22, 16:23:58, 1
Index	Phase	Displacement	Time	Pos X	Pos Y	Pos Z	Rot A	Rot B	Piezo Z	Force A	Force B	Gripper	Voltage A	Voltage B	Temperature	Amplitude force	Amplitude pos	Stiffness	Phase shift	Phase excitation	Force A raw	Displacement raw	HMax	HMax raw	Real Force	Real Stiffness	Contact Depth	Area	Hardness	Reduced Mod.
[#]	[#]	[um]	[s]	[um]	[um]	[um]	[m°]	[m°]	[um]	[uN]	[uN]	[V]	[V]	[V]	[°C]	[uN]	[um]	[N/m]	[°]	[°]	[uN]	[um]	[um]	[um]	[uN]	[N/m]	[um]	[um^2]	[MPa]	[MPa]
184	1.000000	0.002205	7.36684e+06	-47839.1	955.819	-29764.9	0.000000	0.000000	6.002789	0.045453	NaN	0.000000	0.001687	0.001699	28.0795	0.039346	0.001006	39.1138	114.877	-165.367	0.026495	0.000915	-1.096192	-1.097482	0.045453	39.1138	-1.097064	-4.577736E+14	-9.929138E-17	NaN
184	1.000000	0.044148	7.36684e+06	-47839.1	955.818	-29764.9	0.000000	0.000000	6.044732	0.039776	NaN	0.000000	0.001667	0.001713	28.0796	0.151323	0.002011	75.2347	-131.605	15.7144	0.018135	0.042802	-1.054249	-1.055595	0.039776	75.2347	-1.054645	-1.232700E+14	-3.226762E-16	NaN
184	1.000000	0.086187	7.36684e+06	-47839.1	955.818	-29764.9	0.000000	0.000000	6.086768	-0.038193	NaN	0.000000	0.001681	0.001696	28.0798	0.051341	0.002005	25.6115	6.223433	-164.237	0.017574	0.084843	-1.012210	-1.013554	-0.038193	25.6115	-1.011091	-3.199394E+13	1.193754E-15	NaN
184	1.000000	0.128208	7.36684e+06	-47839.1	955.819	-29764.9	0.000000	0.000000	6.128792	0.054513	NaN	0.000000	0.001673	0.001699	28.0785	0.056080	0.001959	28.6214	-46.4505	13.8512	0.111957	0.126856	-0.970189	-0.971541	0.054513	28.6214	-0.971617	-9.407176E+12	-5.794814E-15	NaN
184	1.000000	0.170221	7.36684e+06	-47839.1	955.819	-29764.9	0.000000	0.000000	6.170806	0.082082	NaN	0.000000	0.001671	0.001670	28.0786	0.044207	0.001853	23.8539	88.5188	-169.158	-0.007446	0.168905	-0.928176	-0.929492	0.082082	23.8539	-0.930757	-2.644912E+12	-3.103398E-14	NaN
184	1.000000	0.212214	7.36684e+06	-47839.1	955.818	-29764.9	0.000000	0.000000	6.212796	-0.010581	NaN	0.000000	0.001691	0.001666	28.0785	0.072559	0.001969	36.842	94.9008	12.913	0.016596	0.210816	-0.886183	-0.887581	-0.010581	36.842	-0.885967	-6.567438E+11	1.611159E-14	NaN
184	1.000000	0.254252	7.36684e+06	-47839.1	955.818	-29764.9	0.000000	0.000000	6.254836	0.046463	NaN	0.000000	0.001701	0.001753	28.0797	0.074404	0.001980	37.5713	-121.311	-164.393	0.000493	0.252942	-0.844145	-0.845455	0.046463	37.5713	-0.845072	-1.836558E+11	-2.529905E-13	NaN
184	1.000000	0.296296	7.36684e+06	-47839.1	955.818	-29764.9	0.000000	0.000000	6.296877	-0.030286	NaN	0.000000	0.001689	0.001648	28.0798	0.015014	0.001974	7.607217	73.6788	11.2525	-0.099033	0.294890	-0.802101	-0.803507	-0.030286	7.607217	-0.799115	-4.373654E+10	6.924622E-13	NaN
184	1.000000	0.338285	7.36684e+06	-47839.1	955.818	-29764.9	0.000000	0.000000	6.338867	0.011804	NaN	0.000000	0.001657	0.001640	28.0798	0.080605	0.002079	38.7652	-95.0612	-165.544	0.000664	0.336955	-0.760112	-0.761442	0.011804	38.7652	-0.760341	-1.299975E+10	-9.080144E-13	NaN
184	1.000000	0.380288	7.36684e+06	-47839.1	955.818	-29764.9	0.000000	0.000000	6.380871	0.023813	NaN	0.000000	0.001721	0.001681	28.0796	0.042338	0.002076	20.3939	70.6874	13.8065	-0.065471	0.378963	-0.718109	-0.719434	0.023813	20.3939	-0.718985	-3.553247E+9	-6.701710E-12	NaN
184	1.000000	0.422337	7.36684e+06	-47839.1	955.818	-29764.9	0.000000	0.000000	6.422918	-0.041681	NaN	0.000000	0.001710	0.001629	28.0784	0.091953	0.001998	46.0261	-92.6531	-165.709	-0.135251	0.421046	-0.676060	-0.677351	-0.041681	46.0261	-0.675381	-9.016061E+8	4.623020E-11	NaN
184	1.000000	0.464358	7.36684e+06	-47839.1	955.817	-29764.9	0.000000	0.000000	6.464942	0.038330	NaN	0.000000	0.001712	0.001652	28.0784	0.046239	0.001864	24.8058	-58.7886	12.0315	-0.004365	0.462985	-0.634038	-0.635411	0.038330	24.8058	-0.635197	-2.537348E+8	-1.510622E-10	NaN
184	1.000000	0.506344	7.36684e+06	-47839.1	955.818	-29764.9	0.000000	0.000000	6.506927	0.005338	NaN	0.000000	0.001729	0.001631	28.0783	0.051122	0.001953	26.1817	81.3595	-168.403	-0.092166	0.505022	-0.592052	-0.593374	0.005338	26.1817	-0.592205	-6.502300E+7	-8.210103E-11	NaN
184	1.000000	0.548370	7.36684e+06	-47839.1	955.819	-29764.9	0.000000	0.000000	6.548951	-0.019559	NaN	0.000000	0.001692	0.001632	28.0794	0.085227	0.001995	42.7236	-70.9717	14.0603	-0.030322	0.546998	-0.550027	-0.551399	-0.019559	42.7236	-0.549684	-1.681027E+7	1.163532E-9	NaN
184	1.000000	0.590385	7.36684e+06	-47839.1	955.819	-29764.9	0.000000	0.000000	6.590967	-0.011372	NaN	0.000000	0.001703	0.001622	28.0795	0.096763	0.001990	48.6336	-88.6398	-163.898	0.018261	0.589120	-0.508011	-0.509276	-0.011372	48.6336	-0.507836	-4.40827e+06	2.579602E-9	NaN
184	1.000000	0.632417	7.36684e+06	-47839.1	955.819	-29764.9	0.000000	0.000000	6.632998	-0.034848	NaN	0.000000	0.001700	0.001644	28.0795	0.108871	0.002046	53.2201	52.3711	17.4022	-0.023688	0.631054	-0.465979	-0.467343	-0.034848	53.2201	-0.465488	-1.12746e+06	3.090821E-8	NaN
184	1.000000	0.674452	7.36684e+06	-47839.1	955.818	-29764.9	0.000000	0.000000	6.675035	0.012260	NaN	0.000000	0.001714	0.001641	28.0784	0.086006	0.002107	40.8132	13.0869	-166.622	0.038580	0.673122	-0.423945	-0.425275	0.012260	40.8132	-0.424170	-294801	-4.158596E-8	NaN
184	1.000000	0.716450	7.36684e+06	-47839.1	955.818	-29764.9	0.000000	0.000000	6.717034	0.041991	NaN	0.000000	0.001704	0.001665	28.0783	0.045514	0.001897	23.9934	123.369	17.2666	0.046949	0.715125	-0.381947	-0.383271	0.041991	23.9934	-0.383259	-77026.6	-5.451492E-7	NaN
184	1.000000	0.758444	7.36684e+06	-47839.1	955.818	-29764.9	0.000000	0.000000	6.759027	0.006359	NaN	0.000000	0.001779	0.001632	28.0783	0.200334	0.002069	96.8143	-171.54	-164.267	0.018583	0.757168	-0.339952	-0.341228	0.006359	96.8143	-0.340002	-18263.3	-3.482100E-7	NaN
184	1.000000	0.800487	7.36685e+06	-47839.1	955.819	-29764.9	0.000000	0.000000	6.801068	-0.033327	NaN	0.000000	0.001718	0.001609	28.0793	0.032979	0.001983	16.6335	14.9674	14.6872	0.055592	0.799185	-0.297909	-0.299212	-0.033327	16.6335	-0.296407	-4159.93	8.011376E-6	NaN
184	1.000000	0.842510	7.36685e+06	-47839.1	955.818	-29764.9	0.000000	0.000000	6.843094	0.040209	NaN	0.000000	0.001681	0.001644	28.0794	0.096444	0.002000	48.2129	-40.6323	-166.385	0.014646	0.841188	-0.255887	-0.257208	0.040209	48.2129	-0.256512	-1036.06	-3.881003E-5	NaN
184	1.000000	0.884524	7.36685e+06	-47839.1	955.819	-29764.9	0.000000	0.000000	6.885106	-0.015374	NaN	0.000000	0.001681	0.001631	28.0795	0.063115	0.001982	31.8429	38.8943	12.9886	-0.010718	0.883166	-0.213873	-0.215231	-0.015374	31.8429	-0.213511	-218.543	7.034966E-5	NaN
184	1.000000	0.926538	7.36685e+06	-47839.1	955.819	-29764.9	0.000000	0.000000	6.927120	-0.016211	NaN	0.000000	0.001700	0.001599	28.0797	0.026587	0.002036	13.0615	50.5773	-165.143	-0.016491	0.925261	-0.171859	-0.173136	-0.016211	13.0615	-0.170928	-42.6295	0.000380	NaN
184	1.000000	0.968553	7.36685e+06	-47839.1	955.819	-29764.9	0.000000	0.000000	6.969134	-0.039804	NaN	0.000000	0.001706	0.001638	28.0787	0.024993	0.001856	13.4641	-131.735	15.5905	0.037219	0.967188	-0.129843	-0.131209	-0.039804	13.4641	-0.127626	-6.850188	0.005811	NaN
184	1.000000	1.010556	7.36685e+06	-47839.1	955.82	-29764.9	0.000000	0.000000	7.011137	-0.014673	NaN	0.000000	0.001680	0.001612	28.0796	0.082184	0.001827	44.9763	-163.807	-164.184	-0.118386	1.009256	-0.087841	-0.089141	-0.014673	44.9763	-0.087596	-0.948434	0.015471	NaN
184	1.000000	1.052610	7.36685e+06	-47839.1	955.819	-29764.9	0.000000	0.000000	7.053188	-0.102434	NaN	0.000000	0.001713	0.001680	28.0784	0.039381	0.001892	20.8129	80.309	17.7473	-0.007221	1.051243	-0.045787	-0.047154	-0.102434	20.8129	-0.042096	-0.052383	1.955482	NaN
184	1.000000	1.094567	7.36685e+06	-47839.1	955.819	-29764.9	0.000000	0.000000	7.095150	0.011507	NaN	0.000000	0.001651	0.001692	28.0795	0.118434	0.001967	60.1979	-165.951	-165.172	0.078932	1.093300	-0.003830	-0.005097	0.011507	60.1979	-0.003973	-0.002761	-4.167052	NaN
184	2.000000	1.115639	7.36685e+06	-47839.1	955.82	-29764.9	0.000000	0.000000	7.116958	17.9215	NaN	0.000000	0.001699	0.001665	28.0798	16.6777	0.001799	9272.8	9.062970	1.716661	17.3403	1.115387	0.017242	0.016990	17.9215	9272.8	0.015793	0.016357	1095.63	66241.3
184	2.000000	1.126112	7.36685e+06	-47839.1	955.82	-29764.9	0.000000	0.000000	7.128382	41.0679	NaN	0.000000	0.001653	0.001695	28.0794	27.4918	0.001851	14849.7	4.369132	-176.674	39.7262	1.125840	0.027715	0.027444	41.0679	14849.7	0.025641	0.032192	1275.73	75617.2
184	2.000000	1.136533	7.36685e+06	-47839.1	955.82	-29764.9	0.000000	0.000000	7.139959	69.16	NaN	0.000000	0.001700	0.001680	28.0782	36.4381	0.001678	21717.7	4.773850	-0.267801	65.6572	1.136204	0.038136	0.037807	69.16	21717.7	0.035748	0.053502	1292.66	85783.3
184	2.000000	1.147072	7.36685e+06	-47839.1	955.821	-29764.9	0.000000	0.000000	7.152076	107.536	NaN	0.000000	0.001677	0.001656	28.0784	47.5061	0.001830	25955.3	5.761423	176.268	106.529	1.146788	0.048675	0.048392	107.536	25955.3	0.045568	0.079208	1357.63	84258.7
184	2.000000	1.157616	7.36685e+06	-47839.1	955.82	-29764.9	0.000000	0.000000	7.164657	157.093	NaN	0.000000	0.001687	0.001693	28.0792	55.7515	0.001727	32290.9	2.386531	-1.691764	157.262	1.157308	0.059220	0.058911	157.093	32290.9	0.055571	0.110407	1422.86	88788.1
184	2.000000	1.168061	7.36685e+06	-47839.1	955.82	-29764.9	0.000000	0.000000	7.177913	225.444	NaN	0.000000	0.001687	0.001701	28.0797	69.4294	0.001825	38037.9	7.457601	173.25	223.757	1.167702	0.069665	0.069305	225.444	38037.9	0.065220	0.145187	1552.78	91206.3
184	2.000000	1.178633	7.36685e+06	-47839.1	955.819	-29764.9	0.000000	0.000000	7.191467	298.001	NaN	0.000000	0.001742	0.001667	28.0797	79.6922	0.001783	44686.3	6.460802	-8.719202	300.45	1.178263	0.080236	0.079866	298.001	44686.3	0.075235	0.186031	1601.89	94657.4
184	2.000000	1.189005	7.36685e+06	-47839.1	955.82	-29764.9	0.000000	0.000000	7.206104	401.712	NaN	0.000000	0.001640	0.001648	28.0797	88.7858	0.001733	51228.3	7.528594	169.966	402.009	1.188607	0.090609	0.090210	401.712	51228.3	0.084727	0.229103	1753.41	97784
184	2.000000	1.199568	7.36685e+06	-47839.1	955.82	-29764.9	0.000000	0.000000	7.220518	495.384	NaN	0.000000	0.001601	0.001566	28.0795	97.4378	0.001881	51799.2	4.642645	-7.418898	496.604	1.199293	0.101171	0.100896	495.384	51799.2	0.093999	0.275191	1800.14	90214.9
184	2.000000	1.206982	7.36685e+06	-47839.1	955.82	-29764.9	0.000000	0.000000	7.231026	570.641	NaN	0.000000	0.001583	0.001605	28.0782	102.753	0.001781	57695.3	6.082555	170.598	569.51	1.206607	0.108585	0.108210	570.641	57695.3	0.101167	0.313521	1820.11	94141.5