File: remote_trans/data/nanoindenter/0828-1/data/Data_2025-08-06,11h17m57s/2025-07-22_16-23-58_1_316.txt
2025-07-22, 16:23:58, 1
Index	Phase	Displacement	Time	Pos X	Pos Y	Pos Z	Rot A	Rot B	Piezo Z	Force A	Force B	Gripper	Voltage A	Voltage B	Temperature	Amplitude force	Amplitude pos	Stiffness	Phase shift	Phase excitation	Force A raw	Displacement raw	HMax	HMax raw	Real Force	Real Stiffness	Contact Depth	Area	Hardness	Reduced Mod.
[#]	[#]	[um]	[s]	[um]	[um]	[um]	[m°]	[m°]	[um]	[uN]	[uN]	[V]	[V]	[V]	[°C]	[uN]	[um]	[N/m]	[°]	[°]	[uN]	[um]	[um]	[um]	[uN]	[N/m]	[um]	[um^2]	[MPa]	[MPa]
316	1.000000	0.002720	7.36815e+06	-54439.1	955.818	-29743.9	0.000000	0.000000	6.002811	-0.014236	NaN	0.000000	0.001635	0.001661	28.0783	0.089083	0.000994	89.6352	55.7943	-163.466	-0.012709	0.001454	-1.069276	-1.070543	-0.014236	89.6352	-1.069157	-1.931373E+14	7.370969E-17	NaN
316	1.000000	0.042660	7.36815e+06	-54439.1	955.818	-29743.9	0.000000	0.000000	6.042755	0.066400	NaN	0.000000	0.001582	0.001663	28.0794	0.094011	0.002026	46.4075	-148.981	-168.924	0.030758	0.041370	-1.029337	-1.030627	0.066400	46.4075	-1.030410	-5.820905E+13	-1.140714E-15	NaN
316	1.000000	0.082659	7.36815e+06	-54439.1	955.818	-29743.9	0.000000	0.000000	6.082753	0.075287	NaN	0.000000	0.001574	0.001681	28.0794	0.087592	0.001969	44.481	-114.403	-166.277	0.018394	0.081317	-0.989338	-0.990680	0.075287	44.481	-0.990608	-1.695484E+13	-4.440458E-15	NaN
316	1.000000	0.122691	7.36815e+06	-54439.1	955.817	-29743.9	0.000000	0.000000	6.122780	-0.065146	NaN	0.000000	0.001626	0.001650	28.0794	0.063300	0.002187	28.9399	-154.126	-164.971	0.034243	0.121372	-0.949306	-0.950624	-0.065146	28.9399	-0.947617	-4.465725E+12	1.458803E-14	NaN
316	1.000000	0.162711	7.36816e+06	-54439.1	955.818	-29743.9	0.000000	0.000000	6.162803	0.008119	NaN	0.000000	0.001620	0.001698	28.0783	0.052512	0.002054	25.5664	137.39	-162.048	0.010711	0.161369	-0.909286	-0.910627	0.008119	25.5664	-0.909524	-1.366897E+12	-5.939560E-15	NaN
316	1.000000	0.202718	7.36816e+06	-54439.1	955.819	-29743.9	0.000000	0.000000	6.202810	0.013936	NaN	0.000000	0.001619	0.001659	28.0783	0.023983	0.002010	11.9333	-7.907271	-163.851	-0.042804	0.201401	-0.869279	-0.870596	0.013936	11.9333	-0.870155	-4.013658E+11	-3.472061E-14	NaN
316	1.000000	0.242723	7.36816e+06	-54439.1	955.819	-29743.9	0.000000	0.000000	6.242815	0.021975	NaN	0.000000	0.001582	0.001691	28.0782	0.069195	0.002091	33.0966	143.279	-166.847	-0.008474	0.241393	-0.829274	-0.830603	0.021975	33.0966	-0.829772	-1.139438E+11	-1.928609E-13	NaN
316	1.000000	0.282757	7.36816e+06	-54439.1	955.818	-29743.9	0.000000	0.000000	6.282849	0.003680	NaN	0.000000	0.001664	0.001728	28.0784	0.035449	0.002079	17.0508	-64.2051	-162.062	-0.070303	0.281413	-0.789240	-0.790584	0.003680	17.0508	-0.789402	-3.228165E+10	-1.140045E-13	NaN
316	1.000000	0.322774	7.36816e+06	-54439.1	955.819	-29743.9	0.000000	0.000000	6.322866	0.019005	NaN	0.000000	0.001589	0.001659	28.0793	0.073136	0.001992	36.709	-42.5502	-166.351	0.047384	0.321515	-0.749223	-0.750482	0.019005	36.709	-0.749611	-9.288060E+9	-2.046202E-12	NaN
316	1.000000	0.362778	7.36816e+06	-54439.1	955.818	-29743.9	0.000000	0.000000	6.362871	0.026718	NaN	0.000000	0.001667	0.001674	28.0795	0.050147	0.001937	25.8831	-64.3041	-163.818	0.007597	0.361479	-0.709219	-0.710518	0.026718	25.8831	-0.709993	-2.678880E+9	-9.973467E-12	NaN
316	1.000000	0.402813	7.36816e+06	-54439.1	955.819	-29743.9	0.000000	0.000000	6.402904	-0.021916	NaN	0.000000	0.001636	0.001685	28.0797	0.011462	0.001945	5.891912	-35.2029	-167.413	0.082475	0.401533	-0.669184	-0.670463	-0.021916	5.891912	-0.666394	-6.792487E+8	3.226546E-11	NaN
316	1.000000	0.442855	7.36816e+06	-54439.1	955.818	-29743.9	0.000000	0.000000	6.442949	0.047725	NaN	0.000000	0.001658	0.001712	28.0785	0.069710	0.001947	35.8055	-160.577	-163.177	-0.000949	0.441432	-0.629142	-0.630564	0.047725	35.8055	-0.630141	-2.162531E+8	-2.206904E-10	NaN
316	1.000000	0.482815	7.36816e+06	-54439.1	955.818	-29743.9	0.000000	0.000000	6.482907	0.022825	NaN	0.000000	0.001651	0.001709	28.0782	0.076289	0.002078	36.7066	61.9396	-162.342	-0.057625	0.481526	-0.589182	-0.590470	0.022825	36.7066	-0.589648	-5.995394E+7	-3.807063E-10	NaN
316	1.000000	0.522843	7.36816e+06	-54439.1	955.818	-29743.9	0.000000	0.000000	6.522935	0.024458	NaN	0.000000	0.001595	0.001691	28.0786	0.014299	0.002032	7.037303	30.5551	-168.117	-0.014065	0.521557	-0.549154	-0.550439	0.024458	7.037303	-0.551761	-1.796148E+7	-1.361710E-9	NaN
316	1.000000	0.562856	7.36816e+06	-54439.1	955.818	-29743.9	0.000000	0.000000	6.562950	0.037567	NaN	0.000000	0.001592	0.001703	28.0787	0.019725	0.001930	10.2212	-30.8657	-168.652	-0.022609	0.561558	-0.509140	-0.510438	0.037567	10.2212	-0.511897	-5.0215e+06	-7.481330E-9	NaN
316	1.000000	0.602874	7.36816e+06	-54439.1	955.818	-29743.9	0.000000	0.000000	6.602965	-0.004822	NaN	0.000000	0.001617	0.001712	28.0804	0.127260	0.002098	60.647	-68.9477	-160.859	-0.007655	0.601576	-0.469123	-0.470421	-0.004822	60.647	-0.469063	-1.26551e+06	3.810573E-9	NaN
316	1.000000	0.642892	7.36816e+06	-54439.1	955.819	-29743.9	0.000000	0.000000	6.642984	0.012533	NaN	0.000000	0.001610	0.001702	28.0797	0.056824	0.002149	26.4404	22.9298	-164.409	0.025680	0.641630	-0.429105	-0.430366	0.012533	26.4404	-0.429460	-350290	-3.577865E-8	NaN
316	1.000000	0.682925	7.36816e+06	-54439.1	955.818	-29743.9	0.000000	0.000000	6.683015	-0.022226	NaN	0.000000	0.001589	0.001701	28.0797	0.110937	0.001899	58.4108	-173.691	-164.856	0.008395	0.681603	-0.389072	-0.390394	-0.022226	58.4108	-0.388787	-92429.1	2.404628E-7	NaN
316	1.000000	0.722938	7.36816e+06	-54439.1	955.818	-29743.9	0.000000	0.000000	6.723029	0.001371	NaN	0.000000	0.001601	0.001662	28.0785	0.033397	0.001975	16.9055	-163.432	-167.158	0.007065	0.721659	-0.349059	-0.350337	0.001371	16.9055	-0.349120	-24787.2	-5.529194E-8	NaN
316	1.000000	0.762962	7.36816e+06	-54439.1	955.818	-29743.9	0.000000	0.000000	6.763051	-0.059151	NaN	0.000000	0.001600	0.001740	28.0786	0.041144	0.001786	23.0316	-101.137	-163.091	-0.037577	0.761647	-0.309034	-0.310349	-0.059151	23.0316	-0.307108	-6001.02	9.856828E-6	NaN
316	1.000000	0.802952	7.36816e+06	-54439.1	955.819	-29743.9	0.000000	0.000000	6.803045	0.025746	NaN	0.000000	0.001609	0.001703	28.0788	0.024895	0.002000	12.4494	-36.1707	-167.777	-0.011066	0.801690	-0.269045	-0.270306	0.025746	12.4494	-0.270596	-1700.59	-1.513942E-5	NaN
316	1.000000	0.842999	7.36816e+06	-54439.1	955.819	-29743.9	0.000000	0.000000	6.843093	0.059931	NaN	0.000000	0.001556	0.001749	28.079	0.115459	0.001924	59.9958	-122.946	-165.018	0.012739	0.841687	-0.228998	-0.230310	0.059931	59.9958	-0.229747	-396.758	-0.000151	NaN
316	1.000000	0.883036	7.36816e+06	-54439.1	955.818	-29743.9	0.000000	0.000000	6.883129	0.035198	NaN	0.000000	0.001583	0.001743	28.0795	0.061406	0.001988	30.8807	156.812	-167.135	-0.032564	0.881643	-0.188961	-0.190354	0.035198	30.8807	-0.189816	-89.3203	-0.000394	NaN
316	1.000000	0.923052	7.36816e+06	-54439.1	955.819	-29743.9	0.000000	0.000000	6.923145	0.048533	NaN	0.000000	0.001589	0.001738	28.0795	0.076202	0.002036	37.4264	97.2191	-166.324	-0.004729	0.921739	-0.148945	-0.150258	0.048533	37.4264	-0.149918	-18.051	-0.002689	NaN
316	1.000000	0.963040	7.36816e+06	-54439.1	955.819	-29743.9	0.000000	0.000000	6.963132	0.015660	NaN	0.000000	0.001573	0.001735	28.0797	0.116883	0.001852	63.1027	-171.484	-169.608	0.031839	0.961731	-0.108957	-0.110266	0.015660	63.1027	-0.109143	-2.882459	-0.005433	NaN
316	1.000000	1.003018	7.36816e+06	-54439.1	955.818	-29743.9	0.000000	0.000000	7.003108	-0.045156	NaN	0.000000	0.001588	0.001725	28.0787	0.053879	0.002135	25.2383	102.724	-163.81	0.020109	1.001743	-0.068979	-0.070254	-0.045156	25.2383	-0.067637	-0.294481	0.153342	NaN
316	1.000000	1.043041	7.36816e+06	-54439.1	955.817	-29743.9	0.000000	0.000000	7.043132	-0.026652	NaN	0.000000	0.001558	0.001744	28.0786	0.090951	0.002012	45.2106	-25.1671	-162.36	-0.002205	1.041807	-0.028955	-0.030189	-0.026652	45.2106	-0.028513	-0.020938	1.272870	NaN
316	2.000000	1.081643	7.36816e+06	-54439.1	955.818	-29743.9	0.000000	0.000000	7.082100	8.891553	NaN	0.000000	0.001525	0.001733	28.0789	9.014129	0.001756	5133.57	10.9008	-172.942	10.4115	1.081290	0.009646	0.009294	8.891553	5133.57	0.008347	0.007402	1201.26	54515.9
316	2.000000	1.091516	7.36816e+06	-54439.1	955.818	-29743.9	0.000000	0.000000	7.092528	22.3784	NaN	0.000000	0.001577	0.001696	28.0801	18.0959	0.001846	9803.81	3.211395	-171.169	21.5771	1.091280	0.019519	0.019284	22.3784	9803.81	0.017807	0.019213	1164.75	64620.6
316	2.000000	1.101538	7.36816e+06	-54439.1	955.818	-29743.9	0.000000	0.000000	7.103457	44.4383	NaN	0.000000	0.001607	0.001747	28.0801	29.5584	0.001728	17105.3	7.807716	179.182	43.14	1.101167	0.029541	0.029170	44.4383	17105.3	0.027592	0.035901	1237.79	82479.9
316	2.000000	1.111506	7.36816e+06	-54439.1	955.817	-29743.9	0.000000	0.000000	7.114321	66.2162	NaN	0.000000	0.001555	0.001747	28.0802	39.2048	0.001711	22916.9	3.642636	-179.899	64.729	1.111273	0.039509	0.039276	66.2162	22916.9	0.037342	0.057340	1154.79	87437.6
316	2.000000	1.121397	7.36816e+06	-54439.1	955.818	-29743.9	0.000000	0.000000	7.126310	117.227	NaN	0.000000	0.001585	0.001718	28.0801	51.0464	0.001928	26471.5	3.820977	178.873	112.575	1.121150	0.049400	0.049154	117.227	26471.5	0.046079	0.080679	1453.01	85147.6
316	2.000000	1.131460	7.36816e+06	-54439.1	955.818	-29743.9	0.000000	0.000000	7.139150	184.703	NaN	0.000000	0.001625	0.001739	28.0788	61.3236	0.001744	35164.8	2.577941	176.899	182.281	1.131200	0.059464	0.059204	184.703	35164.8	0.055524	0.110250	1675.31	96759.1
316	2.000000	1.141437	7.36816e+06	-54439.1	955.818	-29743.9	0.000000	0.000000	7.152508	266.919	NaN	0.000000	0.001577	0.001768	28.0786	71.774	0.001873	38321.8	2.555561	176.586	265.595	1.141204	0.069440	0.069208	266.919	38321.8	0.064216	0.141359	1888.24	93123.3
316	2.000000	1.151523	7.36816e+06	-54439.1	955.818	-29743.9	0.000000	0.000000	7.166653	365.601	NaN	0.000000	0.001586	0.001744	28.0786	81.2045	0.001958	41478.9	10.9169	168.678	367.995	1.150950	0.079526	0.078953	365.601	41478.9	0.072915	0.176148	2075.53	90294.4
316	2.000000	1.161310	7.36816e+06	-54439.1	955.818	-29743.9	0.000000	0.000000	7.180412	462.148	NaN	0.000000	0.001594	0.001757	28.0802	88.1661	0.001709	51576.1	0.273940	176.556	454.577	1.161004	0.089314	0.089007	462.148	51576.1	0.082593	0.219055	2109.73	100680
316	2.000000	1.171518	7.36816e+06	-54439.1	955.819	-29743.9	0.000000	0.000000	7.194020	544.813	NaN	0.000000	0.001582	0.001759	28.0802	98.7179	0.001853	53264.7	8.613911	168.136	548.818	1.171132	0.099521	0.099135	544.813	53264.7	0.091850	0.264159	2062.45	94684.8
316	2.000000	1.179331	7.36816e+06	-54439.1	955.819	-29743.9	0.000000	0.000000	7.205113	624.554	NaN	0.000000	0.001607	0.001722	28.0799	104.331	0.001746	59761.3	3.877715	172.229	619.159	1.179042	0.107334	0.107045	624.554	59761.3	0.099496	0.304374	2051.93	98966.7