File: remote_trans/data/nanoindenter/0828-1/data/Data_2025-08-06,11h17m57s/2025-07-22_16-23-58_1_304.txt
2025-07-22, 16:23:58, 1
Index	Phase	Displacement	Time	Pos X	Pos Y	Pos Z	Rot A	Rot B	Piezo Z	Force A	Force B	Gripper	Voltage A	Voltage B	Temperature	Amplitude force	Amplitude pos	Stiffness	Phase shift	Phase excitation	Force A raw	Displacement raw	HMax	HMax raw	Real Force	Real Stiffness	Contact Depth	Area	Hardness	Reduced Mod.
[#]	[#]	[um]	[s]	[um]	[um]	[um]	[m°]	[m°]	[um]	[uN]	[uN]	[V]	[V]	[V]	[°C]	[uN]	[um]	[N/m]	[°]	[°]	[uN]	[um]	[um]	[um]	[uN]	[N/m]	[um]	[um^2]	[MPa]	[MPa]
304	1.000000	0.002370	7.36804e+06	-53839.1	955.818	-29745.4	0.000000	0.000000	6.002805	-0.054271	NaN	0.000000	0.001632	0.001682	28.0792	0.083774	0.000944	88.7533	161.451	-158.881	-0.056246	0.001102	-1.089159	-1.090427	-0.054271	88.7533	-1.088700	-3.534730E+14	1.535368E-16	NaN
304	1.000000	0.044306	7.36804e+06	-53839.1	955.818	-29745.4	0.000000	0.000000	6.044742	-0.029450	NaN	0.000000	0.001635	0.001678	28.0787	0.031359	0.001994	15.729	-129.539	16.2323	0.014526	0.042983	-1.047223	-1.048546	-0.029450	15.729	-1.045819	-9.380066E+13	3.139664E-16	NaN
304	1.000000	0.086334	7.36804e+06	-53839.1	955.819	-29745.4	0.000000	0.000000	6.086772	0.016707	NaN	0.000000	0.001618	0.001657	28.0775	0.028466	0.001972	14.4344	-176.124	-165.907	0.056366	0.084993	-1.005195	-1.006536	0.016707	14.4344	-1.006063	-2.737751E+13	-6.102479E-16	NaN
304	1.000000	0.128326	7.36804e+06	-53839.1	955.818	-29745.4	0.000000	0.000000	6.128764	0.013267	NaN	0.000000	0.001623	0.001674	28.0777	0.084232	0.002031	41.4772	81.3159	14.6986	0.024323	0.126920	-0.963203	-0.964609	0.013267	41.4772	-0.963443	-7.299320E+12	-1.817610E-15	NaN
304	1.000000	0.170356	7.36804e+06	-53839.1	955.818	-29745.4	0.000000	0.000000	6.170793	-0.014081	NaN	0.000000	0.001601	0.001686	28.0776	0.067215	0.001972	34.0824	61.2531	-166.45	-0.067073	0.169069	-0.921172	-0.922460	-0.014081	34.0824	-0.920863	-1.944696E+12	7.240910E-15	NaN
304	1.000000	0.212396	7.36804e+06	-53839.1	955.819	-29745.4	0.000000	0.000000	6.212835	0.025789	NaN	0.000000	0.001623	0.001684	28.0785	0.085133	0.001960	43.4427	-70.9567	11.2174	-0.004970	0.210998	-0.879133	-0.880531	0.025789	43.4427	-0.879578	-5.382685E+11	-4.791034E-14	NaN
304	1.000000	0.254375	7.36804e+06	-53839.1	955.818	-29745.4	0.000000	0.000000	6.254816	0.077722	NaN	0.000000	0.001646	0.001685	28.0793	0.120610	0.002019	59.7439	-27.6068	-168.273	0.009451	0.253137	-0.837154	-0.838392	0.077722	59.7439	-0.838129	-1.478939E+11	-5.255277E-13	NaN
304	1.000000	0.296419	7.36804e+06	-53839.1	955.819	-29745.4	0.000000	0.000000	6.296855	-0.034425	NaN	0.000000	0.001623	0.001656	28.0791	0.079365	0.001884	42.1261	-132.011	15.7467	-0.057577	0.295067	-0.795110	-0.796462	-0.034425	42.1261	-0.794497	-3.785730E+10	9.093410E-13	NaN
304	1.000000	0.338433	7.36804e+06	-53839.1	955.819	-29745.4	0.000000	0.000000	6.338869	-0.026715	NaN	0.000000	0.001647	0.001643	28.079	0.043782	0.001998	21.9076	136.894	-166.372	0.004974	0.337115	-0.753096	-0.754414	-0.026715	21.9076	-0.752181	-1.006728E+10	2.653670E-12	NaN
304	1.000000	0.380439	7.36804e+06	-53839.1	955.818	-29745.4	0.000000	0.000000	6.380878	0.031808	NaN	0.000000	0.001715	0.001695	28.0778	0.099171	0.001975	50.2076	-46.5817	13.2082	-0.002478	0.379054	-0.711090	-0.712475	0.031808	50.2076	-0.711565	-2.814532E+9	-1.130122E-11	NaN
304	1.000000	0.422465	7.36804e+06	-53839.1	955.818	-29745.4	0.000000	0.000000	6.422902	0.009232	NaN	0.000000	0.001670	0.001679	28.078	0.040517	0.001913	21.175	-16.3754	-172.91	0.001507	0.421177	-0.669064	-0.670352	0.009232	21.175	-0.669391	-7.465463E+8	-1.236564E-11	NaN
304	1.000000	0.464496	7.36804e+06	-53839.1	955.82	-29745.4	0.000000	0.000000	6.464932	-0.021940	NaN	0.000000	0.001584	0.001683	28.0782	0.101879	0.002008	50.7472	149.857	13.9352	0.040610	0.463114	-0.627033	-0.628414	-0.021940	50.7472	-0.626709	-1.940094E+8	1.130881E-10	NaN
304	1.000000	0.506522	7.36804e+06	-53839.1	955.817	-29745.4	0.000000	0.000000	6.506958	-0.026016	NaN	0.000000	0.001652	0.001656	28.0793	0.061624	0.002013	30.6119	55.1094	-165.525	0.060712	0.505225	-0.585007	-0.586304	-0.026016	30.6119	-0.584370	-5.070131E+7	5.131157E-10	NaN
304	1.000000	0.548502	7.36804e+06	-53839.1	955.819	-29745.4	0.000000	0.000000	6.548939	0.000667	NaN	0.000000	0.001605	0.001684	28.0796	0.036411	0.002063	17.6535	81.1529	15.0897	0.046504	0.547225	-0.543027	-0.544304	0.000667	17.6535	-0.543055	-1.360574E+7	-4.901417E-11	NaN
304	1.000000	0.590532	7.36804e+06	-53839.1	955.819	-29745.4	0.000000	0.000000	6.590971	0.038791	NaN	0.000000	0.001683	0.001739	28.0792	0.036074	0.002019	17.8669	165.022	-164.829	-0.065499	0.589233	-0.500997	-0.502296	0.038791	17.8669	-0.502625	-3.72935e+06	-1.040149E-8	NaN
304	1.000000	0.632566	7.36804e+06	-53839.1	955.819	-29745.4	0.000000	0.000000	6.633002	-0.050040	NaN	0.000000	0.001610	0.001701	28.0778	0.056312	0.001967	28.6282	-42.2675	12.638	-0.126275	0.631152	-0.458963	-0.460376	-0.050040	28.6282	-0.457652	-875001	5.718881E-8	NaN
304	1.000000	0.674561	7.36804e+06	-53839.1	955.818	-29745.4	0.000000	0.000000	6.674997	-0.025337	NaN	0.000000	0.001679	0.001712	28.0779	0.063150	0.002053	30.7538	-136.994	-167.863	-0.013277	0.673212	-0.416968	-0.418317	-0.025337	30.7538	-0.416350	-228362	1.109533E-7	NaN
304	1.000000	0.716622	7.36804e+06	-53839.1	955.818	-29745.4	0.000000	0.000000	6.717060	0.003238	NaN	0.000000	0.001733	0.001672	28.0819	0.126455	0.002058	61.4492	-67.4911	12.7312	0.045853	0.715209	-0.374907	-0.376320	0.003238	61.4492	-0.374946	-58519	-5.532724E-8	NaN
304	1.000000	0.758631	7.36804e+06	-53839.1	955.818	-29745.4	0.000000	0.000000	6.759070	0.037381	NaN	0.000000	0.001721	0.001659	28.0787	0.050964	0.002046	24.907	-99.1066	-167.768	-0.000162	0.757342	-0.332898	-0.334187	0.037381	24.907	-0.334023	-14938.8	-2.502281E-6	NaN
304	1.000000	0.800638	7.36804e+06	-53839.1	955.818	-29745.4	0.000000	0.000000	6.801074	-0.028146	NaN	0.000000	0.001733	0.001682	28.0791	0.084331	0.002011	41.9306	15.414	15.6806	0.032219	0.799253	-0.290891	-0.292276	-0.028146	41.9306	-0.290388	-3381.53	8.323562E-6	NaN
304	1.000000	0.842628	7.36804e+06	-53839.1	955.819	-29745.4	0.000000	0.000000	6.843067	0.029559	NaN	0.000000	0.001720	0.001693	28.0792	0.030765	0.002029	15.1632	10.3322	-163.808	-0.081911	0.841308	-0.248901	-0.250220	0.029559	15.1632	-0.250363	-832.866	-3.549103E-5	NaN
304	1.000000	0.884673	7.36804e+06	-53839.1	955.817	-29745.4	0.000000	0.000000	6.885110	-0.009379	NaN	0.000000	0.001682	0.001737	28.0794	0.084326	0.001955	43.1354	-158.785	15.922	0.003674	0.883325	-0.206856	-0.208204	-0.009379	43.1354	-0.206693	-169.487	5.533651E-5	NaN
304	1.000000	0.926667	7.36804e+06	-53839.1	955.819	-29745.4	0.000000	0.000000	6.927106	0.022776	NaN	0.000000	0.001660	0.001686	28.0778	0.084566	0.001998	42.3271	-25.7191	-164.249	-0.005155	0.925442	-0.164861	-0.166086	0.022776	42.3271	-0.165265	-33.9592	-0.000671	NaN
304	1.000000	0.968654	7.36804e+06	-53839.1	955.819	-29745.4	0.000000	0.000000	6.969088	-0.067790	NaN	0.000000	0.001649	0.001670	28.0779	0.042562	0.001790	23.7845	-111.294	11.585	-0.125053	0.967383	-0.122875	-0.124146	-0.067790	23.7845	-0.120738	-4.999748	0.013559	NaN
304	1.000000	1.010733	7.36804e+06	-53839.1	955.819	-29745.4	0.000000	0.000000	7.011170	-0.001315	NaN	0.000000	0.001619	0.001715	28.0779	0.068424	0.002105	32.4987	-141.843	-164.779	-0.040585	1.009406	-0.080796	-0.082122	-0.001315	32.4987	-0.080765	-0.646811	0.002033	NaN
304	1.000000	1.052729	7.36804e+06	-53839.1	955.819	-29745.4	0.000000	0.000000	7.053165	-0.045504	NaN	0.000000	0.001639	0.001702	28.079	0.062538	0.001922	32.5307	75.7773	14.2349	0.033735	1.051366	-0.038800	-0.040163	-0.045504	32.5307	-0.037751	-0.038669	1.176738	NaN
304	1.000000	1.094722	7.36804e+06	-53839.1	955.82	-29745.4	0.000000	0.000000	7.095234	1.810879	NaN	0.000000	0.001612	0.001688	28.0792	2.640048	0.001878	1406.09	9.275970	-167.59	0.714933	1.093460	0.003193	0.001931	1.810879	1406.09	0.002227	0.001739	1041.05	30801.8
304	2.000000	1.109771	7.36804e+06	-53839.1	955.82	-29745.4	0.000000	0.000000	7.111105	21.8146	NaN	0.000000	0.001656	0.001710	28.0791	18.9793	0.001817	10445.8	5.340367	2.935055	20.7036	1.109447	0.018242	0.017918	21.8146	10445.8	0.016676	0.017585	1240.52	71968.3
304	2.000000	1.120254	7.36804e+06	-53839.1	955.82	-29745.4	0.000000	0.000000	7.122712	49.138	NaN	0.000000	0.001654	0.001690	28.0779	29.4476	0.001873	15723.2	7.831321	178.924	48.8552	1.119844	0.028725	0.028315	49.138	15723.2	0.026381	0.033576	1463.48	78396.9
304	2.000000	1.130690	7.36804e+06	-53839.1	955.82	-29745.4	0.000000	0.000000	7.134358	78.5442	NaN	0.000000	0.001641	0.001680	28.0782	38.3174	0.001693	22638.1	3.441427	-2.753536	75.7619	1.130425	0.039161	0.038896	78.5442	22638.1	0.036559	0.055438	1416.79	87843.3
304	2.000000	1.141177	7.36805e+06	-53839.1	955.82	-29745.4	0.000000	0.000000	7.146592	121.007	NaN	0.000000	0.001611	0.001671	28.0778	47.3813	0.001648	28756.6	0.739443	178.499	118.137	1.140853	0.049648	0.049324	121.007	28756.6	0.046492	0.081880	1477.87	91816.9
304	2.000000	1.151693	7.36805e+06	-53839.1	955.821	-29745.4	0.000000	0.000000	7.159268	173.535	NaN	0.000000	0.001602	0.001676	28.0787	58.2405	0.001755	33180.1	4.001456	-5.007825	172.063	1.151303	0.060164	0.059774	173.535	33180.1	0.056242	0.112677	1540.1	90309.4
304	2.000000	1.162188	7.36805e+06	-53839.1	955.82	-29745.4	0.000000	0.000000	7.172211	233.033	NaN	0.000000	0.001611	0.001696	28.0792	69.5377	0.001800	38638.6	6.604023	171.126	230.548	1.161833	0.070659	0.070304	233.033	38638.6	0.066136	0.148725	1566.87	91538.1
304	2.000000	1.172564	7.36805e+06	-53839.1	955.82	-29745.4	0.000000	0.000000	7.185134	294.967	NaN	0.000000	0.001637	0.001691	28.0792	77.8665	0.001782	43699.9	0.711783	-3.821070	287.485	1.172259	0.081035	0.080730	294.967	43699.9	0.075973	0.189230	1558.78	91782.3
304	2.000000	1.183120	7.36805e+06	-53839.1	955.821	-29745.4	0.000000	0.000000	7.198754	369.46	NaN	0.000000	0.001647	0.001645	28.0791	87.639	0.001793	48877.7	3.384919	172.107	366.21	1.182810	0.091591	0.091281	369.46	48877.7	0.085922	0.234821	1573.37	92154.2
304	2.000000	1.193626	7.36805e+06	-53839.1	955.821	-29745.4	0.000000	0.000000	7.212543	449.268	NaN	0.000000	0.001698	0.001672	28.078	99.0025	0.001786	55437.4	4.261840	-9.382893	445.147	1.193317	0.102098	0.101789	449.268	55437.4	0.096019	0.285759	1572.19	94749.4
304	2.000000	1.199086	7.36805e+06	-53839.1	955.821	-29745.4	0.000000	0.000000	7.219973	497.145	NaN	0.000000	0.001681	0.001693	28.0779	103.586	0.001670	62036.4	3.528444	170.713	493.339	1.198739	0.107558	0.107210	497.145	62036.4	0.101547	0.315617	1575.15	100888