File: remote_trans/data/nanoindenter/0828-1/data/Data_2025-08-06,11h17m57s/2025-07-22_16-23-58_1_430.txt
2025-07-22, 16:23:58, 1
Index	Phase	Displacement	Time	Pos X	Pos Y	Pos Z	Rot A	Rot B	Piezo Z	Force A	Force B	Gripper	Voltage A	Voltage B	Temperature	Amplitude force	Amplitude pos	Stiffness	Phase shift	Phase excitation	Force A raw	Displacement raw	HMax	HMax raw	Real Force	Real Stiffness	Contact Depth	Area	Hardness	Reduced Mod.
[#]	[#]	[um]	[s]	[um]	[um]	[um]	[m°]	[m°]	[um]	[uN]	[uN]	[V]	[V]	[V]	[°C]	[uN]	[um]	[N/m]	[°]	[°]	[uN]	[um]	[um]	[um]	[uN]	[N/m]	[um]	[um^2]	[MPa]	[MPa]
430	1.000000	0.002650	7.36926e+06	-55589.1	1005.82	-29741.2	0.000000	0.000000	6.002829	-0.044002	NaN	0.000000	0.001724	0.001731	28.082	0.109968	0.000970	113.412	-65.7426	-169.31	0.023183	0.001341	-1.177522	-1.178831	-0.044002	113.412	-1.177231	-5.442114E+15	8.085446E-18	NaN
430	1.000000	0.046573	7.36926e+06	-55589.1	1005.82	-29741.2	0.000000	0.000000	6.046755	0.008297	NaN	0.000000	0.001705	0.001746	28.0816	0.034550	0.002036	16.9716	-78.4144	-165.184	0.034601	0.045227	-1.133599	-1.134945	0.008297	16.9716	-1.133965	-1.431546E+15	-5.795809E-18	NaN
430	1.000000	0.090573	7.36926e+06	-55589.1	1005.82	-29741.2	0.000000	0.000000	6.090754	0.002371	NaN	0.000000	0.001813	0.001732	28.0818	0.031349	0.002065	15.1791	-109.812	-158.008	-0.019020	0.089201	-1.089599	-1.090971	0.002371	15.1791	-1.089716	-3.647503E+14	-6.499834E-18	NaN
430	1.000000	0.134584	7.36926e+06	-55589.1	1005.82	-29741.2	0.000000	0.000000	6.134766	0.042318	NaN	0.000000	0.001772	0.001705	28.0803	0.084413	0.001864	45.2741	90.2546	-164.873	0.052663	0.133304	-1.045588	-1.046868	0.042318	45.2741	-1.046289	-9.517650E+13	-4.446314E-16	NaN
430	1.000000	0.178618	7.36926e+06	-55589.1	1005.82	-29741.2	0.000000	0.000000	6.178797	-0.044449	NaN	0.000000	0.001717	0.001736	28.0805	0.047685	0.002065	23.0934	26.2872	-167.153	-0.061480	0.177341	-1.001554	-1.002830	-0.044449	23.0934	-1.000110	-2.276418E+13	1.952600E-15	NaN
430	1.000000	0.222615	7.36926e+06	-55589.1	1005.82	-29741.2	0.000000	0.000000	6.222799	0.066508	NaN	0.000000	0.001768	0.001707	28.0805	0.069124	0.002018	34.2487	82.3587	-164.137	0.080025	0.221400	-0.957557	-0.958772	0.066508	34.2487	-0.959013	-6.361583E+12	-1.045464E-14	NaN
430	1.000000	0.266649	7.36926e+06	-55589.1	1005.82	-29741.2	0.000000	0.000000	6.266830	-0.011193	NaN	0.000000	0.001735	0.001691	28.0809	0.012468	0.001987	6.275992	79.7426	-165.583	0.054335	0.265282	-0.913523	-0.914890	-0.011193	6.275992	-0.912185	-1.484825E+12	7.538426E-15	NaN
430	1.000000	0.310672	7.36926e+06	-55589.1	1005.82	-29741.2	0.000000	0.000000	6.310852	0.002324	NaN	0.000000	0.001765	0.001757	28.0817	0.074302	0.001963	37.8604	143.22	-165.022	-0.029152	0.309349	-0.869500	-0.870822	0.002324	37.8604	-0.869546	-3.938283E+11	-5.901981E-15	NaN
430	1.000000	0.354706	7.36926e+06	-55589.1	1005.82	-29741.2	0.000000	0.000000	6.354887	0.008744	NaN	0.000000	0.001618	0.001754	28.0818	0.022958	0.001945	11.8043	98.4802	-165.779	-0.030688	0.353375	-0.825466	-0.826797	0.008744	11.8043	-0.826022	-1.013581E+11	-8.627065E-14	NaN
430	1.000000	0.398706	7.36927e+06	-55589.1	1005.82	-29741.2	0.000000	0.000000	6.398889	0.034485	NaN	0.000000	0.001670	0.001742	28.0818	0.064738	0.001850	34.9915	160.657	-165.925	0.080424	0.397354	-0.781466	-0.782818	0.034485	34.9915	-0.782205	-2.577451E+10	-1.337935E-12	NaN
430	1.000000	0.442740	7.36927e+06	-55589.1	1005.82	-29741.2	0.000000	0.000000	6.442924	0.062899	NaN	0.000000	0.001668	0.001700	28.0804	0.014928	0.002042	7.310475	158.736	-162.73	0.063743	0.441396	-0.737432	-0.738776	0.062899	7.310475	-0.743885	-7.761744E+9	-8.103701E-12	NaN
430	1.000000	0.486745	7.36927e+06	-55589.1	1005.82	-29741.2	0.000000	0.000000	6.486927	0.034253	NaN	0.000000	0.001671	0.001727	28.0804	0.048444	0.002117	22.8789	-38.1971	-165.678	0.058350	0.485456	-0.693427	-0.694716	0.034253	22.8789	-0.694550	-1.648493E+9	-2.077848E-11	NaN
430	1.000000	0.530774	7.36927e+06	-55589.1	1005.82	-29741.2	0.000000	0.000000	6.530959	0.081955	NaN	0.000000	0.001642	0.001715	28.0805	0.099131	0.001878	52.779	-110.348	-163.1	0.048468	0.529440	-0.649398	-0.650732	0.081955	52.779	-0.650562	-4.122333E+8	-1.988068E-10	NaN
430	1.000000	0.574756	7.36927e+06	-55589.1	1005.82	-29741.2	0.000000	0.000000	6.574937	-0.007106	NaN	0.000000	0.001635	0.001738	28.0815	0.004147	0.002089	1.985259	30.2798	-164.542	0.002494	0.573492	-0.605416	-0.606680	-0.007106	1.985259	-0.602731	-9.079666E+7	7.826630E-11	NaN
430	1.000000	0.618788	7.36927e+06	-55589.1	1005.82	-29741.2	0.000000	0.000000	6.618968	-0.009825	NaN	0.000000	0.001663	0.001708	28.0818	0.057896	0.002007	28.8506	165.52	-163.938	0.017681	0.617452	-0.561384	-0.562720	-0.009825	28.8506	-0.561129	-2.420982E+7	4.058233E-10	NaN
430	1.000000	0.662831	7.36927e+06	-55589.1	1005.82	-29741.2	0.000000	0.000000	6.663013	0.017840	NaN	0.000000	0.001670	0.001674	28.0815	0.106505	0.001867	57.0604	-63.7122	-164.226	0.128879	0.661523	-0.517341	-0.518649	0.017840	57.0604	-0.517575	-6.0238e+06	-2.961527E-9	NaN
430	1.000000	0.706837	7.36927e+06	-55589.1	1005.82	-29741.2	0.000000	0.000000	6.707019	0.026054	NaN	0.000000	0.001639	0.001664	28.0805	0.055155	0.001942	28.4041	-151.674	-165.669	0.016987	0.705538	-0.473334	-0.474634	0.026054	28.4041	-0.474022	-1.48525e+06	-1.754152E-8	NaN
430	1.000000	0.750868	7.36927e+06	-55589.1	1005.82	-29741.2	0.000000	0.000000	6.751048	-0.013754	NaN	0.000000	0.001622	0.001689	28.0804	0.062028	0.002032	30.5316	-51.239	-166.642	0.036061	0.749517	-0.429304	-0.430655	-0.013754	30.5316	-0.428966	-344697	3.990195E-8	NaN
430	1.000000	0.794881	7.36927e+06	-55589.1	1005.82	-29741.2	0.000000	0.000000	6.795058	-0.081399	NaN	0.000000	0.001643	0.001666	28.0803	0.060078	0.002061	29.1554	28.3685	-163.901	0.028193	0.793561	-0.385291	-0.386611	-0.081399	29.1554	-0.383197	-76868.8	1.058940E-6	NaN
430	1.000000	0.838913	7.36927e+06	-55589.1	1005.82	-29741.2	0.000000	0.000000	6.839097	0.087303	NaN	0.000000	0.001660	0.001683	28.082	0.027533	0.001943	14.1671	135.276	-165.167	0.037672	0.837554	-0.341259	-0.342618	0.087303	14.1671	-0.345881	-22241.6	-3.925221E-6	NaN
430	1.000000	0.882941	7.36927e+06	-55589.1	1005.82	-29741.2	0.000000	0.000000	6.883122	-0.004213	NaN	0.000000	0.001619	0.001656	28.0816	0.054220	0.001901	28.5163	30.5105	-168.647	-0.043678	0.881625	-0.297231	-0.298547	-0.004213	28.5163	-0.297120	-4263.1	9.882640E-7	NaN
430	1.000000	0.926941	7.36927e+06	-55589.1	1005.82	-29741.2	0.000000	0.000000	6.927122	-0.001029	NaN	0.000000	0.001663	0.001641	28.0814	0.133725	0.001924	69.5149	-111.612	-165.092	0.037216	0.925661	-0.253231	-0.254511	-0.001029	69.5149	-0.253220	-921.917	1.115851E-6	NaN
430	1.000000	0.970946	7.36927e+06	-55589.1	1005.82	-29741.2	0.000000	0.000000	6.971128	0.032769	NaN	0.000000	0.001665	0.001709	28.0804	0.117762	0.002020	58.295	101.909	-167.975	-0.015198	0.969624	-0.209226	-0.210548	0.032769	58.295	-0.209648	-189.284	-0.000173	NaN
430	1.000000	1.014975	7.36927e+06	-55589.1	1005.82	-29741.2	0.000000	0.000000	7.015157	0.028039	NaN	0.000000	0.001576	0.001712	28.0803	0.075009	0.002141	35.0296	-107.077	-165.19	-0.048183	1.013705	-0.165197	-0.166467	0.028039	35.0296	-0.165797	-34.6973	-0.000808	NaN
430	1.000000	1.058960	7.36927e+06	-55589.1	1005.82	-29741.2	0.000000	0.000000	7.059141	0.007173	NaN	0.000000	0.001621	0.001711	28.0803	0.034939	0.001917	18.226	-133.941	-167.826	-0.008649	1.057704	-0.121212	-0.122468	0.007173	18.226	-0.121507	-5.181010	-0.001384	NaN
430	1.000000	1.102993	7.36927e+06	-55589.1	1005.82	-29741.2	0.000000	0.000000	7.103176	0.038965	NaN	0.000000	0.001627	0.001703	28.0815	0.006217	0.002059	3.019158	-171.789	-165.47	-0.024594	1.101672	-0.077179	-0.078500	0.038965	3.019158	-0.086858	-0.910724	-0.042785	NaN
430	1.000000	1.147034	7.36927e+06	-55589.1	1005.82	-29741.2	0.000000	0.000000	7.147214	-0.016240	NaN	0.000000	0.001697	0.001676	28.0818	0.100094	0.001955	51.206	-99.3079	-164.871	-0.037832	1.145615	-0.033138	-0.034557	-0.016240	51.206	-0.032900	-0.027814	0.583897	NaN
430	1.000000	1.190898	7.36927e+06	-55589.1	1005.82	-29741.2	0.000000	0.000000	7.191436	8.688759	NaN	0.000000	0.001658	0.001691	28.0816	8.643429	0.001679	5149.45	10.4122	-172.096	7.030466	1.189703	0.010726	0.009531	8.688759	5149.45	0.009461	0.008588	1011.69	50766.8
430	2.000000	1.202430	7.36927e+06	-55589.1	1005.82	-29741.2	0.000000	0.000000	7.203631	24.7816	NaN	0.000000	0.001630	0.001685	28.0805	20.9792	0.001700	12343.8	7.657716	179.404	23.3172	1.202140	0.022258	0.021968	24.7816	12343.8	0.020753	0.023739	1043.93	73197
430	2.000000	1.213387	7.36927e+06	-55589.1	1005.82	-29741.2	0.000000	0.000000	7.215761	53.3248	NaN	0.000000	0.001623	0.001661	28.0806	32.6126	0.001798	18137.2	9.825015	174.975	51.4645	1.213111	0.033215	0.032940	53.3248	18137.2	0.031010	0.042862	1244.09	80039.4
430	2.000000	1.224418	7.36927e+06	-55589.1	1005.82	-29741.2	0.000000	0.000000	7.228776	101.548	NaN	0.000000	0.001650	0.001672	28.0812	43.6706	0.001817	24031.5	6.786112	175.272	102.141	1.224072	0.044246	0.043900	101.548	24031.5	0.041076	0.066840	1519.28	84925
430	2.000000	1.235315	7.36927e+06	-55589.1	1005.82	-29741.2	0.000000	0.000000	7.242332	166.158	NaN	0.000000	0.001601	0.001680	28.0818	54.4319	0.001796	30311.1	6.431615	173.442	163.389	1.235007	0.055143	0.054835	166.158	30311.1	0.051032	0.095630	1737.51	89552.6
430	2.000000	1.246331	7.36927e+06	-55589.1	1005.82	-29741.2	0.000000	0.000000	7.256528	243.476	NaN	0.000000	0.001637	0.001660	28.0817	63.6119	0.001724	36892.4	4.327706	173.846	240.171	1.246032	0.066159	0.065860	243.476	36892.4	0.061210	0.130182	1870.28	93419
430	2.000000	1.257449	7.36927e+06	-55589.1	1005.82	-29741.2	0.000000	0.000000	7.270922	323.114	NaN	0.000000	0.001661	0.001635	28.0816	75.7241	0.001850	40932.8	4.746941	172.79	325.683	1.257136	0.077277	0.076965	323.114	40932.8	0.071357	0.169651	1904.58	90796
430	2.000000	1.268242	7.36927e+06	-55589.1	1005.82	-29741.2	0.000000	0.000000	7.284833	398.925	NaN	0.000000	0.001640	0.001644	28.0806	82.2545	0.001650	49855.5	1.146611	174.386	391.955	1.268107	0.088070	0.087935	398.925	49855.5	0.082068	0.216616	1841.63	97868.1
430	2.000000	1.279424	7.36927e+06	-55589.1	1005.82	-29741.2	0.000000	0.000000	7.300435	506.354	NaN	0.000000	0.001690	0.001650	28.0804	95.067	0.001862	51065.2	7.568894	169.758	509.096	1.278818	0.099252	0.098646	506.354	51065.2	0.091815	0.263982	1918.14	90805.2
430	2.000000	1.290386	7.36927e+06	-55589.1	1005.82	-29741.2	0.000000	0.000000	7.315315	601.587	NaN	0.000000	0.001723	0.001613	28.0801	105.575	0.001895	55704.2	5.707328	169.802	602.581	1.290028	0.110214	0.109856	601.587	55704.2	0.102114	0.318759	1887.28	90142.6