File: remote_trans/data/nanoindenter/0828-1/data/Data_2025-08-06,11h17m57s/2025-07-22_16-23-58_1_534.txt
2025-07-22, 16:23:58, 1
Index	Phase	Displacement	Time	Pos X	Pos Y	Pos Z	Rot A	Rot B	Piezo Z	Force A	Force B	Gripper	Voltage A	Voltage B	Temperature	Amplitude force	Amplitude pos	Stiffness	Phase shift	Phase excitation	Force A raw	Displacement raw	HMax	HMax raw	Real Force	Real Stiffness	Contact Depth	Area	Hardness	Reduced Mod.
[#]	[#]	[um]	[s]	[um]	[um]	[um]	[m°]	[m°]	[um]	[uN]	[uN]	[V]	[V]	[V]	[°C]	[uN]	[um]	[N/m]	[°]	[°]	[uN]	[um]	[um]	[um]	[uN]	[N/m]	[um]	[um^2]	[MPa]	[MPa]
534	1.000000	0.002033	7.37027e+06	-50389.1	1005.82	-29755.8	0.000000	0.000000	6.002806	0.009849	NaN	0.000000	0.001638	0.001808	28.0824	0.031053	0.001007	30.8442	47.6374	-171.381	0.007676	0.000761	-1.146484	-1.147756	0.009849	30.8442	-1.146724	-2.122728E+15	-4.639661E-18	NaN
534	1.000000	0.043986	7.37027e+06	-50389.1	1005.82	-29755.8	0.000000	0.000000	6.044760	0.063351	NaN	0.000000	0.001674	0.001786	28.0826	0.069675	0.001908	36.5187	178.965	15.0891	0.041114	0.042642	-1.104532	-1.105876	0.063351	36.5187	-1.105833	-6.002929E+14	-1.055339E-16	NaN
534	1.000000	0.085974	7.37027e+06	-50389.1	1005.82	-29755.8	0.000000	0.000000	6.086745	-0.009254	NaN	0.000000	0.001667	0.001810	28.082	0.018938	0.002054	9.219340	-173.938	-163.627	-0.014617	0.084655	-1.062544	-1.063863	-0.009254	9.219340	-1.061791	-1.537772E+14	6.017673E-17	NaN
534	1.000000	0.128036	7.37027e+06	-50389.1	1005.82	-29755.8	0.000000	0.000000	6.128809	0.028061	NaN	0.000000	0.001660	0.001815	28.0808	0.054590	0.002103	25.9606	-9.035618	11.854	0.028494	0.126631	-1.020481	-1.021886	0.028061	25.9606	-1.021292	-4.388682E+13	-6.393885E-16	NaN
534	1.000000	0.170025	7.37027e+06	-50389.1	1005.82	-29755.8	0.000000	0.000000	6.170797	0.007345	NaN	0.000000	0.001630	0.001803	28.0809	0.054794	0.002068	26.5012	97.6511	-165.972	0.003786	0.168639	-0.978493	-0.979878	0.007345	26.5012	-0.978701	-1.171944E+13	-6.267023E-16	NaN
534	1.000000	0.212017	7.37027e+06	-50389.1	1005.82	-29755.8	0.000000	0.000000	6.212791	0.039304	NaN	0.000000	0.001634	0.001805	28.0804	0.092059	0.001895	48.59	-41.0734	11.7718	0.035852	0.210699	-0.936500	-0.937819	0.039304	48.59	-0.937107	-3.221848E+12	-1.219937E-14	NaN
534	1.000000	0.254055	7.37027e+06	-50389.1	1005.82	-29755.8	0.000000	0.000000	6.254826	-0.019588	NaN	0.000000	0.001629	0.001784	28.0808	0.066076	0.001869	35.3546	-71.98	-167.088	0.035128	0.252724	-0.894462	-0.895794	-0.019588	35.3546	-0.894047	-8.445326E+11	2.319351E-14	NaN
534	1.000000	0.296054	7.37027e+06	-50389.1	1005.82	-29755.8	0.000000	0.000000	6.296825	-0.019329	NaN	0.000000	0.001659	0.001809	28.0821	0.014608	0.002050	7.125449	10.5518	15.0705	-0.056542	0.294726	-0.852464	-0.853791	-0.019329	7.125449	-0.850429	-2.170465E+11	8.905407E-14	NaN
534	1.000000	0.338100	7.37027e+06	-50389.1	1005.82	-29755.8	0.000000	0.000000	6.338871	-0.016023	NaN	0.000000	0.001616	0.001814	28.082	0.076772	0.002019	38.0298	6.971132	-166.788	-0.026577	0.336753	-0.810418	-0.811765	-0.016023	38.0298	-0.810102	-6.165281E+10	2.598849E-13	NaN
534	1.000000	0.380122	7.37027e+06	-50389.1	1005.82	-29755.8	0.000000	0.000000	6.380893	-0.039316	NaN	0.000000	0.001661	0.001778	28.0822	0.066371	0.001959	33.878	-140.421	9.893364	-0.028305	0.378813	-0.768395	-0.769705	-0.039316	33.878	-0.767525	-1.627985E+10	2.415023E-12	NaN
534	1.000000	0.422146	7.37027e+06	-50389.1	1005.82	-29755.8	0.000000	0.000000	6.422919	0.032264	NaN	0.000000	0.001629	0.001774	28.0813	0.028473	0.001970	14.4521	51.8901	-164.648	0.070664	0.420879	-0.726372	-0.727639	0.032264	14.4521	-0.728046	-4.722528E+9	-6.831885E-12	NaN
534	1.000000	0.464159	7.37027e+06	-50389.1	1005.82	-29755.8	0.000000	0.000000	6.464929	-0.038234	NaN	0.000000	0.001619	0.001747	28.0809	0.094500	0.002050	46.0938	-164.883	15.083	-0.045126	0.462795	-0.684359	-0.685723	-0.038234	46.0938	-0.683736	-1.173003E+9	3.259504E-11	NaN
534	1.000000	0.506175	7.37027e+06	-50389.1	1005.82	-29755.8	0.000000	0.000000	6.506949	0.061979	NaN	0.000000	0.001662	0.001700	28.0809	0.122135	0.001897	64.3841	-51.7958	-166.142	0.018380	0.504892	-0.642343	-0.643625	0.061979	64.3841	-0.643065	-3.253411E+8	-1.905036E-10	NaN
534	1.000000	0.548197	7.37027e+06	-50389.1	1005.82	-29755.8	0.000000	0.000000	6.548966	-0.058740	NaN	0.000000	0.001631	0.001757	28.082	0.079640	0.002063	38.61	155.056	10.0384	-0.115888	0.546810	-0.600321	-0.601708	-0.058740	38.61	-0.599180	-8.112667E+7	7.240574E-10	NaN
534	1.000000	0.590177	7.37028e+06	-50389.1	1005.82	-29755.8	0.000000	0.000000	6.590950	0.035255	NaN	0.000000	0.001637	0.001751	28.0821	0.097893	0.001812	54.011	-139.22	-162.954	-0.015821	0.588872	-0.558341	-0.559646	0.035255	54.011	-0.558830	-2.250077E+7	-1.566826E-9	NaN
534	1.000000	0.632243	7.37028e+06	-50389.1	1005.82	-29755.8	0.000000	0.000000	6.633013	-0.050321	NaN	0.000000	0.001629	0.001767	28.0822	0.066095	0.002016	32.7814	-5.478940	12.504	-0.040128	0.630851	-0.516274	-0.517667	-0.050321	32.7814	-0.515123	-5.56862e+06	9.036465E-9	NaN
534	1.000000	0.674244	7.37028e+06	-50389.1	1005.82	-29755.8	0.000000	0.000000	6.675018	0.052183	NaN	0.000000	0.001617	0.001762	28.0811	0.076788	0.002011	38.1855	-84.3629	-167.236	-0.020778	0.672941	-0.474273	-0.475576	0.052183	38.1855	-0.475298	-1.54768e+06	-3.371688E-8	NaN
534	1.000000	0.716252	7.37028e+06	-50389.1	1005.82	-29755.8	0.000000	0.000000	6.717024	0.009370	NaN	0.000000	0.001610	0.001762	28.0811	0.056846	0.002031	27.9867	-19.3835	12.1254	-0.008186	0.714905	-0.432266	-0.433613	0.009370	27.9867	-0.432517	-386951	-2.421374E-8	NaN
534	1.000000	0.758287	7.37028e+06	-50389.1	1005.82	-29755.8	0.000000	0.000000	6.759060	0.005260	NaN	0.000000	0.001680	0.001773	28.0813	0.035030	0.001898	18.4608	117.807	-167.408	0.001871	0.756946	-0.390230	-0.391572	0.005260	18.4608	-0.390444	-97615	-5.388756E-8	NaN
534	1.000000	0.800282	7.37028e+06	-50389.1	1005.82	-29755.8	0.000000	0.000000	6.801055	0.010630	NaN	0.000000	0.001671	0.001776	28.081	0.127640	0.002035	62.7341	-16.7699	16.6677	0.036549	0.798874	-0.348235	-0.349643	0.010630	62.7341	-0.348363	-24167.3	-4.398464E-7	NaN
534	1.000000	0.842316	7.37028e+06	-50389.1	1005.82	-29755.8	0.000000	0.000000	6.843087	-0.045271	NaN	0.000000	0.001633	0.001737	28.0823	0.071192	0.001946	36.5917	22.8478	-163.065	-0.060334	0.840984	-0.306201	-0.307534	-0.045271	36.5917	-0.305273	-5636.51	8.031713E-6	NaN
534	1.000000	0.884350	7.37028e+06	-50389.1	1005.82	-29755.8	0.000000	0.000000	6.885119	-0.055938	NaN	0.000000	0.001644	0.001740	28.0824	0.140734	0.002018	69.749	-109.068	16.689	-0.054491	0.882978	-0.264168	-0.265539	-0.055938	69.749	-0.263566	-1328.91	4.209323E-5	NaN
534	1.000000	0.926339	7.37028e+06	-50389.1	1005.82	-29755.8	0.000000	0.000000	6.927111	-0.005475	NaN	0.000000	0.001696	0.001756	28.0822	0.054574	0.001989	27.4365	90.5097	-163.151	0.015672	0.925040	-0.222179	-0.223478	-0.005475	27.4365	-0.222029	-299.269	1.829538E-5	NaN
534	1.000000	0.968361	7.37028e+06	-50389.1	1005.82	-29755.8	0.000000	0.000000	6.969134	0.031715	NaN	0.000000	0.001614	0.001741	28.0809	0.041579	0.001995	20.8377	-92.137	16.7563	0.028153	0.967029	-0.180156	-0.181489	0.031715	20.8377	-0.181298	-64.1979	-0.000494	NaN
534	1.000000	1.010367	7.37028e+06	-50389.1	1005.82	-29755.8	0.000000	0.000000	7.011137	-0.042412	NaN	0.000000	0.001613	0.001709	28.0806	0.019328	0.002084	9.276581	164.419	-162.818	-0.094719	1.009021	-0.138151	-0.139497	-0.042412	9.276581	-0.134722	-9.396812	0.004513	NaN
534	1.000000	1.052405	7.37028e+06	-50389.1	1005.82	-29755.8	0.000000	0.000000	7.053177	-0.001533	NaN	0.000000	0.001628	0.001749	28.0808	0.145992	0.002089	69.8742	37.2104	15.1327	-0.010000	1.051041	-0.096113	-0.097477	-0.001533	69.8742	-0.096096	-1.493893	0.001026	NaN
534	1.000000	1.094425	7.37028e+06	-50389.1	1005.82	-29755.8	0.000000	0.000000	7.095196	-0.013788	NaN	0.000000	0.001612	0.001751	28.0821	0.104672	0.001897	55.1765	-48.6554	-167.888	0.013775	1.093074	-0.054093	-0.055444	-0.013788	55.1765	-0.053905	-0.119505	0.115375	NaN
534	1.000000	1.136428	7.37028e+06	-50389.1	1005.82	-29755.8	0.000000	0.000000	7.137250	1.207426	NaN	0.000000	0.001669	0.001691	28.0819	1.341335	0.002057	652.068	31.91	11.9134	1.163536	1.135129	-0.012090	-0.013388	1.207426	652.068	-0.013478	-0.008379	-144.1	NaN
534	2.000000	1.158011	7.37028e+06	-50389.1	1005.82	-29755.8	0.000000	0.000000	7.159548	18.6046	NaN	0.000000	0.001685	0.001748	28.0818	16.087	0.001895	8488.36	10.7149	-176.355	17.5507	1.157707	0.009494	0.009190	18.6046	8488.36	0.007850	0.006888	2700.84	93440.7
534	2.000000	1.168463	7.37028e+06	-50389.1	1005.82	-29755.8	0.000000	0.000000	7.172114	69.9947	NaN	0.000000	0.001651	0.001732	28.0807	27.3164	0.001920	14223.6	4.915739	3.872505	68.5262	1.168116	0.019946	0.019598	69.9947	14223.6	0.016255	0.016996	4118.42	99681.9
534	2.000000	1.178915	7.37028e+06	-50389.1	1005.82	-29755.8	0.000000	0.000000	7.186089	155.686	NaN	0.000000	0.001681	0.001748	28.0805	38.6141	0.001896	20363.5	8.997628	175.191	151.592	1.178569	0.030398	0.030051	155.686	20363.5	0.024664	0.030406	5120.17	106695
534	2.000000	1.189361	7.37028e+06	-50389.1	1005.82	-29755.8	0.000000	0.000000	7.200783	258.996	NaN	0.000000	0.001681	0.001771	28.0809	47.4863	0.001693	28048	2.501599	-1.035619	253.402	1.188976	0.040843	0.040458	258.996	28048	0.033918	0.049256	5258.16	115464
534	2.000000	1.199920	7.37028e+06	-50389.1	1005.82	-29755.8	0.000000	0.000000	7.216086	374.353	NaN	0.000000	0.001676	0.001722	28.0809	58.3732	0.001658	35198.1	3.266545	176.117	371.164	1.199591	0.051403	0.051074	374.353	35198.1	0.043426	0.073182	5115.38	118875
534	2.000000	1.210560	7.37028e+06	-50389.1	1005.82	-29755.8	0.000000	0.000000	7.232031	503.345	NaN	0.000000	0.001659	0.001730	28.083	70.3099	0.001837	38282.3	4.197211	-5.097166	506.353	1.210186	0.062043	0.061669	503.345	38282.3	0.052182	0.099276	5070.18	111007
534	2.000000	1.220953	7.37028e+06	-50389.1	1005.82	-29755.8	0.000000	0.000000	7.247771	633.4	NaN	0.000000	0.001591	0.001721	28.0824	79.5147	0.001662	47847	3.550361	173.718	634.317	1.220647	0.072435	0.072129	633.4	47847	0.062507	0.134951	4693.56	118998
534	2.000000	1.231228	7.37028e+06	-50389.1	1005.82	-29755.8	0.000000	0.000000	7.265209	807.6	NaN	0.000000	0.001618	0.001699	28.0824	88.7144	0.001711	51836.4	3.220515	-6.135298	797.144	1.230922	0.082710	0.082405	807.6	51836.4	0.071025	0.168284	4799.02	115448
534	2.000000	1.241744	7.37028e+06	-50389.1	1005.82	-29755.8	0.000000	0.000000	7.282481	971.892	NaN	0.000000	0.001647	0.001701	28.0808	99.3868	0.001825	54453.2	1.702564	175.184	962.65	1.241386	0.093226	0.092868	971.892	54453.2	0.079840	0.206402	4708.73	109506
534	2.000000	1.250103	7.37028e+06	-50389.1	1005.82	-29755.8	0.000000	0.000000	7.294886	1070.27	NaN	0.000000	0.001607	0.001752	28.0814	109.374	0.001822	60023.5	9.537072	168.609	1078.93	1.249409	0.101585	0.100891	1070.27	60023.5	0.088212	0.245963	4351.35	110576