File: remote_trans/data/nanoindenter/0828-1/data/Data_2025-08-06,11h17m57s/2025-07-22_16-23-58_1_23.txt
2025-07-22, 16:23:58, 1
Index	Phase	Displacement	Time	Pos X	Pos Y	Pos Z	Rot A	Rot B	Piezo Z	Force A	Force B	Gripper	Voltage A	Voltage B	Temperature	Amplitude force	Amplitude pos	Stiffness	Phase shift	Phase excitation	Force A raw	Displacement raw	HMax	HMax raw	Real Force	Real Stiffness	Contact Depth	Area	Hardness	Reduced Mod.
[#]	[#]	[um]	[s]	[um]	[um]	[um]	[m°]	[m°]	[um]	[uN]	[uN]	[V]	[V]	[V]	[°C]	[uN]	[um]	[N/m]	[°]	[°]	[uN]	[um]	[um]	[um]	[uN]	[N/m]	[um]	[um^2]	[MPa]	[MPa]
23	1.000000	0.002697	7.36526e+06	-39789.1	955.818	-29793.2	0.000000	0.000000	6.002826	0.073370	NaN	0.000000	0.001540	0.001695	28.0828	0.038879	0.000981	39.6321	80.6534	-162.971	0.014946	0.001404	-1.098859	-1.100152	0.073370	39.6321	-1.100247	-5.051075E+14	-1.452570E-16	NaN
23	1.000000	0.044624	7.36526e+06	-39789.1	955.818	-29793.2	0.000000	0.000000	6.044749	-0.007228	NaN	0.000000	0.001567	0.001651	28.0897	0.151494	0.001949	77.7363	-121.377	17.7649	-0.022913	0.043282	-1.056932	-1.058274	-0.007228	77.7363	-1.056862	-1.320234E+14	5.474998E-17	NaN
23	1.000000	0.086634	7.36526e+06	-39789.1	955.819	-29793.2	0.000000	0.000000	6.086759	-0.016003	NaN	0.000000	0.001498	0.001652	28.1319	0.026977	0.001862	14.4919	113.492	-170.233	0.016274	0.085339	-1.014922	-1.016217	-0.016003	14.4919	-1.014093	-3.511344E+13	4.557610E-16	NaN
23	1.000000	0.128652	7.36526e+06	-39789.1	955.819	-29793.2	0.000000	0.000000	6.128778	0.022445	NaN	0.000000	0.001541	0.001652	28.108	0.073628	0.001964	37.4841	-50.5604	15.4084	-0.051394	0.127294	-0.972904	-0.974262	0.022445	37.4841	-0.973353	-9.927593E+12	-2.260887E-15	NaN
23	1.000000	0.170694	7.36526e+06	-39789.1	955.818	-29793.2	0.000000	0.000000	6.170818	-0.011043	NaN	0.000000	0.001564	0.001712	28.0832	0.040073	0.002197	18.2419	-62.9151	-167.847	-0.034314	0.169368	-0.930862	-0.932188	-0.011043	18.2419	-0.930408	-2.616418E+12	4.220572E-15	NaN
23	1.000000	0.212663	7.36526e+06	-39789.1	955.818	-29793.2	0.000000	0.000000	6.212787	-0.033361	NaN	0.000000	0.001562	0.001664	28.0913	0.113323	0.001986	57.0736	107.747	11.4869	-0.083340	0.211317	-0.888893	-0.890239	-0.033361	57.0736	-0.888454	-7.096080E+11	4.701263E-14	NaN
23	1.000000	0.254684	7.36526e+06	-39789.1	955.818	-29793.2	0.000000	0.000000	6.254811	0.033727	NaN	0.000000	0.001542	0.001686	28.1303	0.031623	0.002042	15.4844	113.607	-164.629	0.079464	0.253453	-0.846871	-0.848103	0.033727	15.4844	-0.848505	-2.044060E+11	-1.650015E-13	NaN
23	1.000000	0.296703	7.36527e+06	-39789.1	955.819	-29793.2	0.000000	0.000000	6.296825	-0.070580	NaN	0.000000	0.001585	0.001630	28.1079	0.010373	0.002026	5.119685	-40.9122	13.4697	-0.052515	0.295384	-0.804853	-0.806172	-0.070580	5.119685	-0.794514	-3.787720E+10	1.863390E-12	NaN
23	1.000000	0.338724	7.36527e+06	-39789.1	955.818	-29793.2	0.000000	0.000000	6.338847	-0.041301	NaN	0.000000	0.001545	0.001678	28.0823	0.057055	0.001935	29.4912	21.6042	-169.656	-0.024012	0.337463	-0.762832	-0.764093	-0.041301	29.4912	-0.761782	-1.360003E+10	3.036850E-12	NaN
23	1.000000	0.380768	7.36527e+06	-39789.1	955.82	-29793.2	0.000000	0.000000	6.380894	0.021894	NaN	0.000000	0.001497	0.001714	28.0897	0.052727	0.001897	27.7962	-153.77	14.4965	-0.030041	0.379429	-0.720788	-0.722127	0.021894	27.7962	-0.721379	-3.830650E+9	-5.715404E-12	NaN
23	1.000000	0.422816	7.36527e+06	-39789.1	955.819	-29793.2	0.000000	0.000000	6.422942	0.010930	NaN	0.000000	0.001530	0.001712	28.1312	0.033314	0.002060	16.171	108.898	-162.906	0.062813	0.421458	-0.678739	-0.680098	0.010930	16.171	-0.679246	-1.018354E+9	-1.073301E-11	NaN
23	1.000000	0.464794	7.36527e+06	-39789.1	955.818	-29793.2	0.000000	0.000000	6.464918	-0.004799	NaN	0.000000	0.001487	0.001667	28.1111	0.096521	0.002100	45.9631	-46.1282	13.7046	0.026971	0.463481	-0.636762	-0.638075	-0.004799	45.9631	-0.636684	-2.659418E+8	1.804590E-11	NaN
23	1.000000	0.506846	7.36527e+06	-39789.1	955.818	-29793.2	0.000000	0.000000	6.506969	-0.035849	NaN	0.000000	0.001515	0.001654	28.0805	0.089224	0.001980	45.0602	-128.974	-165.71	-0.028886	0.505537	-0.594710	-0.596019	-0.035849	45.0602	-0.594113	-6.908195E+7	5.189287E-10	NaN
23	1.000000	0.548854	7.36527e+06	-39789.1	955.818	-29793.2	0.000000	0.000000	6.548979	-0.000263	NaN	0.000000	0.001523	0.001679	28.0893	0.131436	0.001896	69.3056	145.052	14.0792	0.022365	0.547477	-0.552702	-0.554079	-0.000263	69.3056	-0.552699	-1.850673E+7	1.418635E-11	NaN
23	1.000000	0.590860	7.36527e+06	-39789.1	955.818	-29793.2	0.000000	0.000000	6.590986	0.025748	NaN	0.000000	0.001525	0.001690	28.1281	0.068143	0.001974	34.517	-178.932	-166.47	0.040966	0.589517	-0.510696	-0.512039	0.025748	34.517	-0.511256	-4.91931e+06	-5.234043E-9	NaN
23	1.000000	0.632901	7.36527e+06	-39789.1	955.819	-29793.2	0.000000	0.000000	6.633027	0.020941	NaN	0.000000	0.001557	0.001666	28.112	0.057531	0.001953	29.4545	110.091	14.8432	0.059515	0.631459	-0.468655	-0.470096	0.020941	29.4545	-0.469188	-1.27064e+06	-1.648060E-8	NaN
23	1.000000	0.674890	7.36527e+06	-39789.1	955.818	-29793.2	0.000000	0.000000	6.675014	-0.009790	NaN	0.000000	0.001532	0.001679	28.0815	0.025215	0.002000	12.6096	118.632	-167.293	-0.033076	0.673553	-0.426666	-0.428003	-0.009790	12.6096	-0.426084	-313787	3.119892E-8	NaN
23	1.000000	0.716914	7.36527e+06	-39789.1	955.818	-29793.2	0.000000	0.000000	6.717038	-0.020076	NaN	0.000000	0.001561	0.001690	28.0899	0.035561	0.002157	16.4877	-122.422	12.837	0.002974	0.715564	-0.384642	-0.385992	-0.020076	16.4877	-0.383729	-78230.4	2.566233E-7	NaN
23	1.000000	0.758928	7.36527e+06	-39789.1	955.818	-29793.2	0.000000	0.000000	6.759054	0.028845	NaN	0.000000	0.001543	0.001661	28.1287	0.065347	0.001864	35.0614	31.3816	-166.549	0.067038	0.757682	-0.342628	-0.343874	0.028845	35.0614	-0.343245	-20362	-1.416596E-6	NaN
23	1.000000	0.800966	7.36527e+06	-39789.1	955.819	-29793.2	0.000000	0.000000	6.801092	0.017452	NaN	0.000000	0.001570	0.001725	28.1121	0.104445	0.002044	51.0997	90.6705	13.7631	-0.018460	0.799607	-0.300590	-0.301949	0.017452	51.0997	-0.300846	-4844.31	-3.602516E-6	NaN
23	1.000000	0.842975	7.36527e+06	-39789.1	955.819	-29793.2	0.000000	0.000000	6.843102	0.030281	NaN	0.000000	0.001531	0.001684	28.0812	0.059968	0.001929	31.0846	-179.413	-167.449	0.036540	0.841657	-0.258581	-0.259899	0.030281	31.0846	-0.259311	-1143.82	-2.647334E-5	NaN
23	1.000000	0.884956	7.36527e+06	-39789.1	955.819	-29793.2	0.000000	0.000000	6.885080	-0.021280	NaN	0.000000	0.001505	0.001711	28.0872	0.061356	0.001949	31.4775	55.5328	17.3931	-0.020105	0.883556	-0.216600	-0.218000	-0.021280	31.4775	-0.216093	-240.485	8.848966E-5	NaN
23	1.000000	0.927004	7.36527e+06	-39789.1	955.818	-29793.2	0.000000	0.000000	6.927127	-0.066902	NaN	0.000000	0.001521	0.001715	28.1288	0.132084	0.001930	68.4377	94.3395	-163.3	-0.039089	0.925736	-0.174552	-0.175820	-0.066902	68.4377	-0.173818	-47.8245	0.001399	NaN
23	1.000000	0.969026	7.36527e+06	-39789.1	955.817	-29793.2	0.000000	0.000000	6.969149	-0.051281	NaN	0.000000	0.001533	0.001722	28.1139	0.037462	0.001984	18.8793	-16.2486	13.3697	-0.013489	0.967628	-0.132530	-0.133928	-0.051281	18.8793	-0.130493	-7.790740	0.006582	NaN
23	1.000000	1.011001	7.36527e+06	-39789.1	955.816	-29793.2	0.000000	0.000000	7.011127	0.022119	NaN	0.000000	0.001528	0.001728	28.0831	0.057221	0.001996	28.6616	-9.005542	-167.051	0.016095	1.009739	-0.090555	-0.091817	0.022119	28.6616	-0.091134	-1.149025	-0.019250	NaN
23	1.000000	1.053040	7.36527e+06	-39789.1	955.817	-29793.2	0.000000	0.000000	7.053169	0.095753	NaN	0.000000	0.001509	0.001708	28.0887	0.076558	0.002132	35.9149	166.048	15.1791	0.053918	1.051734	-0.048516	-0.049822	0.095753	35.9149	-0.050515	-0.094580	-1.012401	NaN
23	1.000000	1.095078	7.36527e+06	-39789.1	955.817	-29793.2	0.000000	0.000000	7.095205	0.033997	NaN	0.000000	0.001577	0.001727	28.1269	0.053228	0.002047	26.0066	59.1884	-163.979	0.041721	1.093709	-0.006477	-0.007847	0.033997	26.0066	-0.007458	-0.004913	-6.920322	NaN
23	2.000000	1.118159	7.36527e+06	-39789.1	955.817	-29793.2	0.000000	0.000000	7.118980	16.9283	NaN	0.000000	0.001559	0.001659	28.1139	14.7049	0.001759	8359.41	7.012114	3.433744	15.5816	1.117758	0.016604	0.016202	16.9283	8359.41	0.015085	0.015399	1099.34	61547.3
23	2.000000	1.128625	7.36527e+06	-39789.1	955.817	-29793.2	0.000000	0.000000	7.130369	39.381	NaN	0.000000	0.001550	0.001744	28.0826	25.1908	0.001734	14526.5	3.150986	-177.136	39.5448	1.128320	0.027069	0.026764	39.381	14526.5	0.025036	0.031081	1267.04	75281.3
23	2.000000	1.139024	7.36527e+06	-39789.1	955.816	-29793.2	0.000000	0.000000	7.142138	72.7259	NaN	0.000000	0.001547	0.001765	28.088	35.3439	0.001729	20439.8	0.546927	1.661921	69.6056	1.138726	0.037468	0.037170	72.7259	20439.8	0.034800	0.051281	1418.19	82465.6
23	2.000000	1.149551	7.36527e+06	-39789.1	955.817	-29793.2	0.000000	0.000000	7.154422	115.49	NaN	0.000000	0.001584	0.001769	28.1275	46.3324	0.001765	26254.5	6.002428	175.357	113.25	1.149287	0.047995	0.047731	115.49	26254.5	0.044696	0.076727	1505.21	86597.3
23	2.000000	1.160061	7.36527e+06	-39789.1	955.817	-29793.2	0.000000	0.000000	7.166707	158.676	NaN	0.000000	0.001558	0.001733	28.1156	54.8097	0.001692	32399	3.421711	-3.555464	155.395	1.159742	0.058505	0.058186	158.676	32399	0.054832	0.107932	1470.15	90100.9
23	2.000000	1.170554	7.36527e+06	-39789.1	955.816	-29793.2	0.000000	0.000000	7.180110	229.479	NaN	0.000000	0.001546	0.001780	28.0822	67.902	0.001875	36207	9.125011	169.918	229.372	1.170160	0.068998	0.068604	229.479	36207	0.064245	0.141469	1622.12	87949.9
23	2.000000	1.181036	7.36527e+06	-39789.1	955.816	-29793.2	0.000000	0.000000	7.193290	295.155	NaN	0.000000	0.001541	0.001788	28.0848	75.2163	0.001778	42292.9	2.788759	-6.884253	291.82	1.180739	0.079480	0.079183	295.155	42292.9	0.074246	0.181788	1623.62	90627.2
23	2.000000	1.191500	7.36527e+06	-39789.1	955.816	-29793.2	0.000000	0.000000	7.207198	378.94	NaN	0.000000	0.001540	0.001717	28.1267	84.0814	0.001730	48597.9	3.566232	172.859	375.556	1.191151	0.089944	0.089596	378.94	48597.9	0.084096	0.226110	1675.91	93375.1
23	2.000000	1.201956	7.36527e+06	-39789.1	955.818	-29793.2	0.000000	0.000000	7.220812	455.815	NaN	0.000000	0.001556	0.001737	28.1167	95.301	0.001826	52197.4	1.268980	-6.067538	449.633	1.201662	0.100400	0.100106	455.815	52197.4	0.093850	0.274421	1661	91036
23	2.000000	1.210569	7.36527e+06	-39789.1	955.817	-29793.2	0.000000	0.000000	7.232704	535.582	NaN	0.000000	0.001569	0.001742	28.0838	104.17	0.001826	57050.7	1.004937	174.338	535.593	1.210316	0.109013	0.108760	535.582	57050.7	0.101973	0.317972	1684.37	92435.8