File: remote_trans/data/nanoindenter/0828-1/data/Data_2025-08-06,11h17m57s/2025-07-22_16-19-15_0_0.txt
2025-07-22, 16:19:15, 0
Index	Phase	Displacement	Time	Pos X	Pos Y	Pos Z	Rot A	Rot B	Piezo Z	Force A	Force B	Gripper	Voltage A	Voltage B	Temperature	Amplitude force	Amplitude pos	Stiffness	Phase shift	Phase excitation	Force A raw	Displacement raw	HMax	HMax raw	Real Force	Real Stiffness	Contact Depth	Area	Hardness	Reduced Mod.
[#]	[#]	[um]	[s]	[um]	[um]	[um]	[m°]	[m°]	[um]	[uN]	[uN]	[V]	[V]	[V]	[°C]	[uN]	[um]	[N/m]	[°]	[°]	[uN]	[um]	[um]	[um]	[uN]	[N/m]	[um]	[um^2]	[MPa]	[MPa]
0.000000	1.000000	0.002483	7.36476e+06	-39509.6	587.333	-29794.3	0.000000	0.000000	6.002622	0.074291	NaN	0.000000	0.001591	0.001591	28.0837	0.150121	0.000861	174.326	-135.356	-163.178	-0.012680	0.001200	-1.147693	-1.148976	0.074291	174.326	-1.148012	-2.208868E+15	-3.363301E-17	NaN
0.000000	1.000000	0.046498	7.36476e+06	-39509.6	587.333	-29794.3	0.000000	0.000000	6.046632	-0.051521	NaN	0.000000	0.001646	0.001648	28.1271	0.161947	0.002023	80.0375	57.9691	-169.208	-0.052548	0.045175	-1.103678	-1.105000	-0.051521	80.0375	-1.103195	-5.532985E+14	9.311589E-17	NaN
0.000000	1.000000	0.090584	7.36476e+06	-39509.6	587.333	-29794.3	0.000000	0.000000	6.090721	0.011398	NaN	0.000000	0.001577	0.001679	28.0818	0.061555	0.002030	30.3192	-176.22	-165.312	-0.041844	0.089267	-1.059592	-1.060909	0.011398	30.3192	-1.059874	-1.449176E+14	-7.864893E-17	NaN
0.000000	1.000000	0.134641	7.36476e+06	-39509.6	587.332	-29794.3	0.000000	0.000000	6.134775	-0.059775	NaN	0.000000	0.001661	0.001695	28.125	0.106869	0.002045	52.2463	36.7991	-166.513	-0.014294	0.133284	-1.015535	-1.016892	-0.059775	52.2463	-1.014677	-3.575388E+13	1.671837E-15	NaN
0.000000	1.000000	0.178677	7.36476e+06	-39509.6	587.333	-29794.3	0.000000	0.000000	6.178812	-0.019991	NaN	0.000000	0.001667	0.001666	28.0804	0.082036	0.002084	39.3561	-8.096763	-165.033	-0.021976	0.177363	-0.971499	-0.972813	-0.019991	39.3561	-0.971118	-9.262622E+12	2.158277E-15	NaN
0.000000	1.000000	0.222693	7.36476e+06	-39509.6	587.333	-29794.3	0.000000	0.000000	6.222831	0.054321	NaN	0.000000	0.001634	0.001681	28.1268	0.144513	0.001980	72.9932	-85.3751	-166.236	-0.032737	0.221400	-0.927483	-0.928776	0.054321	72.9932	-0.928041	-2.430838E+12	-2.234665E-14	NaN
0.000000	1.000000	0.266719	7.36476e+06	-39509.6	587.333	-29794.3	0.000000	0.000000	6.266854	-0.034829	NaN	0.000000	0.001634	0.001696	28.0844	0.124203	0.001996	62.2294	-102.015	-165.814	-0.071174	0.265424	-0.883457	-0.884752	-0.034829	62.2294	-0.883037	-5.994789E+11	5.809943E-14	NaN
0.000000	1.000000	0.310735	7.36476e+06	-39509.6	587.333	-29794.3	0.000000	0.000000	6.310872	0.036112	NaN	0.000000	0.001581	0.001680	28.1261	0.075124	0.002052	36.6058	-73.2819	-166.018	0.001742	0.309453	-0.839441	-0.840723	0.036112	36.6058	-0.840181	-1.576679E+11	-2.290386E-13	NaN
0.000000	1.000000	0.354748	7.36476e+06	-39509.6	587.332	-29794.3	0.000000	0.000000	6.354883	-0.019381	NaN	0.000000	0.001553	0.001689	28.0832	0.068073	0.001972	34.5122	167.951	-163.38	-0.000446	0.353455	-0.795428	-0.796721	-0.019381	34.5122	-0.795007	-3.846551E+10	5.038582E-13	NaN
0.000000	1.000000	0.398755	7.36476e+06	-39509.6	587.33	-29794.3	0.000000	0.000000	6.398893	0.055459	NaN	0.000000	0.001628	0.001665	28.1258	0.091423	0.001926	47.4681	142.754	-168.648	0.100322	0.397445	-0.751421	-0.752731	0.055459	47.4681	-0.752297	-1.010394E+10	-5.488817E-12	NaN
0.000000	1.000000	0.442774	7.36476e+06	-39509.6	587.331	-29794.3	0.000000	0.000000	6.442908	-0.051505	NaN	0.000000	0.001693	0.001675	28.0791	0.114811	0.001980	57.9896	-118.951	-165.49	0.036117	0.441516	-0.707402	-0.708660	-0.051505	57.9896	-0.706736	-2.418242E+9	2.129862E-11	NaN
0.000000	1.000000	0.486815	7.36476e+06	-39509.6	587.331	-29794.3	0.000000	0.000000	6.486954	0.068381	NaN	0.000000	0.001688	0.001714	28.1248	0.057062	0.001887	30.2362	27.4091	-164.524	0.069579	0.485536	-0.663361	-0.664640	0.068381	30.2362	-0.665057	-6.512099E+8	-1.050067E-10	NaN
0.000000	1.000000	0.530827	7.36476e+06	-39509.6	587.331	-29794.3	0.000000	0.000000	6.530966	0.058515	NaN	0.000000	0.001714	0.001720	28.0805	0.093611	0.001972	47.4683	-88.5789	-163.388	0.111492	0.529467	-0.619349	-0.620709	0.058515	47.4683	-0.620273	-1.582661E+8	-3.697268E-10	NaN
0.000000	1.000000	0.574863	7.36476e+06	-39509.6	587.332	-29794.3	0.000000	0.000000	6.574997	-0.053404	NaN	0.000000	0.001686	0.001683	28.1257	0.043374	0.001872	23.1753	-13.7464	-165.386	-0.004495	0.573509	-0.575313	-0.576667	-0.053404	23.1753	-0.573585	-3.598789E+7	1.483947E-9	NaN
0.000000	1.000000	0.618887	7.36476e+06	-39509.6	587.331	-29794.3	0.000000	0.000000	6.619023	-0.012754	NaN	0.000000	0.001709	0.001719	28.0811	0.143788	0.002048	70.2126	-157.781	-164.446	0.076555	0.617566	-0.531288	-0.532610	-0.012754	70.2126	-0.531152	-9.30198e+06	1.371136E-9	NaN
0.000000	1.000000	0.662889	7.36476e+06	-39509.6	587.332	-29794.3	0.000000	0.000000	6.663028	0.074247	NaN	0.000000	0.001642	0.001695	28.1257	0.067183	0.001957	34.3285	-91.248	-166.574	0.036833	0.661602	-0.487287	-0.488573	0.074247	34.3285	-0.488909	-2.39962e+06	-3.094104E-8	NaN
0.000000	1.000000	0.706903	7.36476e+06	-39509.6	587.331	-29794.3	0.000000	0.000000	6.707038	-0.026730	NaN	0.000000	0.001658	0.001744	28.0796	0.056877	0.001899	29.9447	21.1429	-165.453	0.062561	0.705638	-0.443273	-0.444538	-0.026730	29.9447	-0.442603	-537148	4.976193E-8	NaN
0.000000	1.000000	0.750906	7.36476e+06	-39509.6	587.332	-29794.3	0.000000	0.000000	6.751045	0.075000	NaN	0.000000	0.001653	0.001669	28.124	0.084604	0.001834	46.137	-116.576	-168.126	0.004062	0.749588	-0.399270	-0.400587	0.075000	46.137	-0.400489	-135823	-5.521884E-7	NaN
0.000000	1.000000	0.794945	7.36476e+06	-39509.6	587.331	-29794.3	0.000000	0.000000	6.795083	0.042655	NaN	0.000000	0.001579	0.001708	28.0807	0.055858	0.001979	28.2307	-88.9677	-166.883	0.108957	0.793632	-0.355231	-0.356544	0.042655	28.2307	-0.356364	-31568	-1.351193E-6	NaN
0.000000	1.000000	0.838953	7.36476e+06	-39509.6	587.331	-29794.3	0.000000	0.000000	6.839092	0.080581	NaN	0.000000	0.001618	0.001669	28.1238	0.104311	0.002081	50.1178	-170.366	-165.816	0.015476	0.837636	-0.311223	-0.312540	0.080581	50.1178	-0.312429	-7194.07	-1.120102E-5	NaN
0.000000	1.000000	0.883003	7.36476e+06	-39509.6	587.331	-29794.3	0.000000	0.000000	6.883145	0.137179	NaN	0.000000	0.001570	0.001704	28.0824	0.033183	0.002095	15.8354	48.8365	-164.486	0.055779	0.881682	-0.267172	-0.268494	0.137179	15.8354	-0.273669	-1893.4	-7.245125E-5	NaN
0.000000	1.000000	0.927007	7.36476e+06	-39509.6	587.331	-29794.3	0.000000	0.000000	6.927146	0.073976	NaN	0.000000	0.001567	0.001659	28.1235	0.047764	0.002056	23.2362	163.459	-162.503	0.084149	0.925718	-0.223169	-0.224458	0.073976	23.2362	-0.225557	-340.548	-0.000217	NaN
0.000000	1.000000	0.971016	7.36476e+06	-39509.6	587.332	-29794.3	0.000000	0.000000	6.971157	0.111869	NaN	0.000000	0.001571	0.001629	28.0807	0.086741	0.001975	43.9227	93.7285	-167.103	0.142669	0.969721	-0.179160	-0.180455	0.111869	43.9227	-0.181070	-63.6285	-0.001758	NaN
0.000000	1.000000	1.015036	7.36476e+06	-39509.6	587.332	-29794.3	0.000000	0.000000	7.015174	0.042612	NaN	0.000000	0.001568	0.001644	28.1216	0.070136	0.002024	34.6495	-103.327	-163.653	0.003120	1.013715	-0.135139	-0.136461	0.042612	34.6495	-0.136062	-9.966103	-0.004276	NaN
0.000000	1.000000	1.059047	7.36476e+06	-39509.6	587.332	-29794.3	0.000000	0.000000	7.059189	0.128916	NaN	0.000000	0.001586	0.001633	28.0811	0.075085	0.002063	36.4039	-77.486	-163.817	0.112180	1.057741	-0.091128	-0.092435	0.128916	36.4039	-0.093784	-1.323184	-0.097429	NaN
0.000000	1.000000	1.103056	7.36476e+06	-39509.6	587.332	-29794.3	0.000000	0.000000	7.103196	0.078733	NaN	0.000000	0.001629	0.001631	28.1224	0.015879	0.002095	7.580071	112.816	-165.123	0.033977	1.101761	-0.047119	-0.048415	0.078733	7.580071	-0.054909	-0.127986	-0.615168	NaN
0.000000	1.000000	1.147109	7.36476e+06	-39509.6	587.332	-29794.3	0.000000	0.000000	7.147248	0.062885	NaN	0.000000	0.001643	0.001634	28.0831	0.155169	0.002043	75.9477	170.961	-164.391	0.096584	1.145746	-0.003067	-0.004430	0.062885	75.9477	-0.003688	-0.002576	-24.4155	NaN
0.000000	2.000000	1.166630	7.36476e+06	-39509.6	587.332	-29794.3	0.000000	0.000000	7.167777	24.5944	NaN	0.000000	0.001671	0.001673	28.1226	17.6435	0.001678	10514	4.504869	-176.097	24.4281	1.166358	0.016455	0.016182	24.5944	10514	0.014700	0.014888	1651.98	78727.4
0.000000	2.000000	1.177537	7.36476e+06	-39509.6	587.332	-29794.3	0.000000	0.000000	7.180042	57.637	NaN	0.000000	0.001657	0.001654	28.0832	27.5313	0.001972	13960.8	3.001997	-175.015	55.4523	1.177230	0.027361	0.027054	57.637	13960.8	0.024265	0.029692	1941.18	74022.8
0.000000	2.000000	1.188550	7.36476e+06	-39509.6	587.332	-29794.3	0.000000	0.000000	7.192594	95.0892	NaN	0.000000	0.001655	0.001687	28.1214	38.1235	0.001694	22498.6	5.442399	177.059	94.1863	1.188291	0.038375	0.038116	95.0892	22498.6	0.035205	0.052224	1820.8	89948.6
0.000000	2.000000	1.199551	7.36476e+06	-39509.6	587.332	-29794.3	0.000000	0.000000	7.205552	142.727	NaN	0.000000	0.001665	0.001701	28.0815	49.7075	0.001787	27809.1	5.358644	174.836	140.95	1.199224	0.049375	0.049048	142.727	27809.1	0.045526	0.079087	1804.7	90345.8
0.000000	2.000000	1.210481	7.36476e+06	-39509.6	587.332	-29794.3	0.000000	0.000000	7.218778	198.589	NaN	0.000000	0.001667	0.001694	28.1224	58.2311	0.001832	31780	0.482024	179.28	195.852	1.210190	0.060305	0.060015	198.589	31780	0.055618	0.110566	1796.11	87320.4
0.000000	2.000000	1.221480	7.36476e+06	-39509.6	587.333	-29794.3	0.000000	0.000000	7.232382	261.995	NaN	0.000000	0.001642	0.001673	28.083	68.9633	0.001786	38605.5	6.847847	171.913	261	1.221179	0.071304	0.071003	261.995	38605.5	0.066214	0.149030	1758.01	91366.3
0.000000	2.000000	1.232509	7.36476e+06	-39509.6	587.332	-29794.3	0.000000	0.000000	7.246524	337.742	NaN	0.000000	0.001624	0.001695	28.1224	80.8651	0.001785	45293.8	3.301429	174.05	337.11	1.232283	0.082333	0.082108	337.742	45293.8	0.076741	0.192583	1753.74	94298
0.000000	2.000000	1.243434	7.36477e+06	-39509.6	587.332	-29794.3	0.000000	0.000000	7.260612	414.701	NaN	0.000000	0.001590	0.001679	28.0826	91.8906	0.001944	47270	8.463150	169.403	410.437	1.243132	0.093258	0.092957	414.701	47270	0.086678	0.238472	1738.99	88438.2
0.000000	2.000000	1.254437	7.36477e+06	-39509.6	587.331	-29794.3	0.000000	0.000000	7.275227	502.594	NaN	0.000000	0.001659	0.001682	28.1207	99.3635	0.001774	55996.3	7.558254	168.928	500.88	1.254070	0.104261	0.103894	502.594	55996.3	0.097529	0.293777	1710.81	94389.6
0.000000	2.000000	1.256930	7.36477e+06	-39509.6	587.331	-29794.3	0.000000	0.000000	7.278556	522.956	NaN	0.000000	0.001632	0.001700	28.1193	99.3131	0.001678	59187.3	5.910622	-9.659606	518.177	1.256656	0.106754	0.106480	522.956	59187.3	0.100127	0.307815	1698.93	97467