File: remote_trans/data/nanoindenter/0828-1/data/Data_2025-08-06,11h17m57s/2025-07-22_16-23-58_1_650.txt
2025-07-22, 16:23:58, 1
Index	Phase	Displacement	Time	Pos X	Pos Y	Pos Z	Rot A	Rot B	Piezo Z	Force A	Force B	Gripper	Voltage A	Voltage B	Temperature	Amplitude force	Amplitude pos	Stiffness	Phase shift	Phase excitation	Force A raw	Displacement raw	HMax	HMax raw	Real Force	Real Stiffness	Contact Depth	Area	Hardness	Reduced Mod.
[#]	[#]	[um]	[s]	[um]	[um]	[um]	[m°]	[m°]	[um]	[uN]	[uN]	[V]	[V]	[V]	[°C]	[uN]	[um]	[N/m]	[°]	[°]	[uN]	[um]	[um]	[um]	[uN]	[N/m]	[um]	[um^2]	[MPa]	[MPa]
650	1.000000	0.002576	7.37141e+06	-44589.1	1005.82	-29775.2	0.000000	0.000000	6.002822	-0.056144	NaN	0.000000	0.001639	0.001727	28.0846	0.092955	0.000983	94.5979	-82.9682	-168.623	0.045739	0.001274	-1.131818	-1.133120	-0.056144	94.5979	-1.131373	-1.321427E+15	4.248779E-17	NaN
650	1.000000	0.044491	7.37141e+06	-44589.1	1005.82	-29775.3	0.000000	0.000000	6.044737	-0.043918	NaN	0.000000	0.001685	0.001686	28.0837	0.102869	0.002158	47.6694	11.6557	15.8861	-0.029106	0.043127	-1.089903	-1.091268	-0.043918	47.6694	-1.089212	-3.591183E+14	1.222940E-16	NaN
650	1.000000	0.086526	7.37141e+06	-44589.1	1005.82	-29775.3	0.000000	0.000000	6.086773	-0.035547	NaN	0.000000	0.001670	0.001782	28.0837	0.051751	0.002024	25.5743	-61.5199	-164.273	-0.063830	0.085174	-1.047868	-1.049221	-0.035547	25.5743	-1.046826	-9.677068E+13	3.673310E-16	NaN
650	1.000000	0.128509	7.37141e+06	-44589.1	1005.82	-29775.3	0.000000	0.000000	6.128757	0.009546	NaN	0.000000	0.001586	0.001705	28.0852	0.124024	0.001901	65.238	-147.093	15.0044	-0.009366	0.127210	-1.005886	-1.007184	0.009546	65.238	-1.005995	-2.731988E+13	-3.494022E-16	NaN
650	1.000000	0.170523	7.37141e+06	-44589.1	1005.82	-29775.3	0.000000	0.000000	6.170773	0.040930	NaN	0.000000	0.001629	0.001736	28.0852	0.044517	0.002103	21.1705	-155.591	-166.141	-0.014018	0.169267	-0.963871	-0.965128	0.040930	21.1705	-0.965321	-7.737556E+12	-5.289768E-15	NaN
650	1.000000	0.212557	7.37141e+06	-44589.1	1005.82	-29775.3	0.000000	0.000000	6.212804	-0.011047	NaN	0.000000	0.001587	0.001695	28.0847	0.040814	0.002059	19.8201	-56.4683	14.4794	0.064269	0.211210	-0.921838	-0.923185	-0.011047	19.8201	-0.921420	-1.978697E+12	5.582794E-15	NaN
650	1.000000	0.254591	7.37141e+06	-44589.1	1005.82	-29775.3	0.000000	0.000000	6.254840	0.034306	NaN	0.000000	0.001604	0.001751	28.0849	0.020444	0.002003	10.2052	48.15	-167.612	-0.124060	0.253282	-0.879804	-0.881112	0.034306	10.2052	-0.882325	-5.863381E+11	-5.850945E-14	NaN
650	1.000000	0.296625	7.37141e+06	-44589.1	1005.82	-29775.3	0.000000	0.000000	6.296876	0.061091	NaN	0.000000	0.001619	0.001748	28.0836	0.094824	0.001988	47.7028	40.3025	16.5699	0.046405	0.295230	-0.837769	-0.839165	0.061091	47.7028	-0.838730	-1.506901E+11	-4.054102E-13	NaN
650	1.000000	0.338625	7.37141e+06	-44589.1	1005.82	-29775.3	0.000000	0.000000	6.338870	-0.052807	NaN	0.000000	0.001574	0.001744	28.0837	0.093542	0.001919	48.739	-109.836	-165.052	-0.062817	0.337304	-0.795770	-0.797091	-0.052807	48.739	-0.794958	-3.840664E+10	1.374941E-12	NaN
650	1.000000	0.380637	7.37141e+06	-44589.1	1005.82	-29775.3	0.000000	0.000000	6.380886	0.022000	NaN	0.000000	0.001648	0.001738	28.0833	0.080779	0.001982	40.7649	173.571	14.1922	-0.013168	0.379248	-0.753757	-0.755146	0.022000	40.7649	-0.754162	-1.071200E+10	-2.053798E-12	NaN
650	1.000000	0.422668	7.37141e+06	-44589.1	1005.82	-29775.3	0.000000	0.000000	6.422916	0.023523	NaN	0.000000	0.001619	0.001770	28.0846	0.032015	0.001808	17.7063	-115.748	-167.286	0.098503	0.421323	-0.711727	-0.713071	0.023523	17.7063	-0.712724	-2.918866E+9	-8.058950E-12	NaN
650	1.000000	0.464668	7.37141e+06	-44589.1	1005.82	-29775.3	0.000000	0.000000	6.464915	-0.017981	NaN	0.000000	0.001733	0.001743	28.0849	0.081760	0.001875	43.5961	-132.439	13.2015	-0.065681	0.463347	-0.669727	-0.671048	-0.017981	43.5961	-0.669418	-7.471728E+8	2.406533E-11	NaN
650	1.000000	0.506663	7.37141e+06	-44589.1	1005.82	-29775.3	0.000000	0.000000	6.506912	0.035485	NaN	0.000000	0.001587	0.001769	28.0851	0.028569	0.001870	15.276	-102.153	-168.591	-0.009956	0.505431	-0.627732	-0.628964	0.035485	15.276	-0.629474	-2.117384E+8	-1.675890E-10	NaN
650	1.000000	0.548707	7.37141e+06	-44589.1	1005.82	-29775.3	0.000000	0.000000	6.548956	0.023038	NaN	0.000000	0.001578	0.001750	28.0836	0.136537	0.002013	67.8266	60.5184	15.7333	0.049563	0.547356	-0.585687	-0.587039	0.023038	67.8266	-0.585942	-5.329783E+7	-4.322472E-10	NaN
650	1.000000	0.590735	7.37141e+06	-44589.1	1005.82	-29775.3	0.000000	0.000000	6.590981	-0.043106	NaN	0.000000	0.001548	0.001697	28.0839	0.045346	0.001977	22.9406	-14.265	-166.698	-0.015473	0.589411	-0.543660	-0.544984	-0.043106	22.9406	-0.542251	-1.326083E+7	3.250630E-9	NaN
650	1.000000	0.632765	7.37141e+06	-44589.1	1005.82	-29775.3	0.000000	0.000000	6.633011	-0.066270	NaN	0.000000	0.001599	0.001746	28.0837	0.036050	0.002054	17.551	-161.504	14.1677	-0.013679	0.631443	-0.501629	-0.502951	-0.066270	17.551	-0.498797	-3.29791e+06	2.009445E-8	NaN
650	1.000000	0.674755	7.37141e+06	-44589.1	1005.82	-29775.3	0.000000	0.000000	6.675001	-0.030040	NaN	0.000000	0.001689	0.001722	28.085	0.117646	0.002042	57.6262	-120.912	-165.464	0.068090	0.673505	-0.459640	-0.460890	-0.030040	57.6262	-0.459249	-921436	3.260082E-8	NaN
650	1.000000	0.716755	7.37141e+06	-44589.1	1005.82	-29775.3	0.000000	0.000000	6.717003	-0.002072	NaN	0.000000	0.001670	0.001779	28.085	0.043858	0.001878	23.3555	-91.913	15.1937	0.035239	0.715431	-0.417639	-0.418964	-0.002072	23.3555	-0.417573	-237674	8.717588E-9	NaN
650	1.000000	0.758766	7.37141e+06	-44589.1	1005.82	-29775.3	0.000000	0.000000	6.759016	0.051453	NaN	0.000000	0.001608	0.001780	28.0851	0.123234	0.002175	56.6529	117.841	-168.986	-0.057240	0.757495	-0.375629	-0.376900	0.051453	56.6529	-0.376310	-61221.2	-8.404486E-7	NaN
650	1.000000	0.800811	7.37141e+06	-44589.1	1005.82	-29775.3	0.000000	0.000000	6.801057	-0.039960	NaN	0.000000	0.001628	0.001761	28.0854	0.095552	0.002050	46.6155	146.675	15.7591	-0.012238	0.799467	-0.333584	-0.334928	-0.039960	46.6155	-0.332941	-14404.1	2.774212E-6	NaN
650	1.000000	0.842814	7.37141e+06	-44589.1	1005.82	-29775.3	0.000000	0.000000	6.843062	0.019247	NaN	0.000000	0.001612	0.001751	28.0839	0.087504	0.001997	43.8086	81.2154	-166.916	-0.075574	0.841491	-0.291581	-0.292904	0.019247	43.8086	-0.291911	-3563.78	-5.400774E-6	NaN
650	1.000000	0.884866	7.37141e+06	-44589.1	1005.82	-29775.3	0.000000	0.000000	6.885111	-0.053686	NaN	0.000000	0.001635	0.001755	28.0839	0.035163	0.001972	17.8307	111.063	13.4261	-0.022018	0.883516	-0.249529	-0.250879	-0.053686	17.8307	-0.247271	-745.936	7.197189E-5	NaN
650	1.000000	0.926861	7.37141e+06	-44589.1	1005.82	-29775.3	0.000000	0.000000	6.927110	0.028180	NaN	0.000000	0.001596	0.001702	28.0838	0.075941	0.002050	37.053	-115.352	-164.257	-0.019823	0.925535	-0.207534	-0.208860	0.028180	37.053	-0.208104	-178.68	-0.000158	NaN
650	1.000000	0.968902	7.37141e+06	-44589.1	1005.82	-29775.3	0.000000	0.000000	6.969151	0.027776	NaN	0.000000	0.001553	0.001776	28.0851	0.103144	0.002010	51.3273	-89.1624	15.6063	0.039736	0.967481	-0.165493	-0.166914	0.027776	51.3273	-0.165899	-34.8398	-0.000797	NaN
650	1.000000	1.010911	7.37141e+06	-44589.1	1005.82	-29775.3	0.000000	0.000000	7.011160	0.034376	NaN	0.000000	0.001624	0.001750	28.0852	0.048883	0.002013	24.2868	-84.3597	-166.203	0.060319	1.009617	-0.123484	-0.124777	0.034376	24.2868	-0.124545	-5.956472	-0.005771	NaN
650	1.000000	1.052861	7.37141e+06	-44589.1	1005.82	-29775.3	0.000000	0.000000	7.053107	-0.056244	NaN	0.000000	0.001603	0.001718	28.0853	0.116598	0.002086	55.8942	150.149	13.0577	-0.058014	1.051559	-0.081534	-0.082836	-0.056244	55.8942	-0.080779	-0.647312	0.086888	NaN
650	1.000000	1.094930	7.37141e+06	-44589.1	1005.82	-29775.3	0.000000	0.000000	7.095177	-0.009392	NaN	0.000000	0.001573	0.001720	28.084	0.088440	0.001941	45.5654	145.637	-161.678	-0.071308	1.093605	-0.039465	-0.040789	-0.009392	45.5654	-0.039310	-0.043095	0.217925	NaN
650	1.000000	1.136916	7.37141e+06	-44589.1	1005.82	-29775.3	0.000000	0.000000	7.137277	2.749119	NaN	0.000000	0.001597	0.001715	28.084	3.584466	0.001743	2056.88	9.704559	12.6493	1.247687	1.135601	0.002521	0.001207	2.749119	2056.88	0.001519	0.001169	2350.98	54955.4
650	2.000000	1.150452	7.37141e+06	-44589.1	1005.82	-29775.3	0.000000	0.000000	7.151746	25.435	NaN	0.000000	0.001618	0.001746	28.0841	18.1379	0.001765	10277.5	5.623989	-176.544	25.0576	1.150181	0.016058	0.015786	25.435	10277.5	0.014202	0.014235	1786.74	78700
650	2.000000	1.160957	7.37141e+06	-44589.1	1005.82	-29775.3	0.000000	0.000000	7.163358	52.3801	NaN	0.000000	0.001594	0.001721	28.0852	29.1162	0.001778	16377.1	6.796166	-0.571181	51.6619	1.160548	0.026562	0.026153	52.3801	16377.1	0.024163	0.029511	1774.91	87099.2
650	2.000000	1.171443	7.37141e+06	-44589.1	1005.82	-29775.3	0.000000	0.000000	7.175018	80.942	NaN	0.000000	0.001662	0.001738	28.0851	37.6372	0.001710	22015.5	6.127083	176.803	82.5783	1.171163	0.037048	0.036768	80.942	22015.5	0.034290	0.050107	1615.4	89857.6
650	2.000000	1.181902	7.37141e+06	-44589.1	1005.82	-29775.3	0.000000	0.000000	7.187196	122.758	NaN	0.000000	0.001580	0.001708	28.0856	46.1453	0.001808	25526.5	3.191525	-1.396866	121.228	1.181622	0.047508	0.047227	122.758	25526.5	0.043901	0.074498	1647.81	85446.2
650	2.000000	1.192419	7.37141e+06	-44589.1	1005.82	-29775.3	0.000000	0.000000	7.199699	171.081	NaN	0.000000	0.001540	0.001698	28.0857	57.3683	0.001698	33790.7	3.661203	175.424	169.839	1.192161	0.058025	0.057766	171.081	33790.7	0.054227	0.105926	1615.09	94856.8
650	2.000000	1.202829	7.37141e+06	-44589.1	1005.82	-29775.3	0.000000	0.000000	7.212766	235.713	NaN	0.000000	0.001547	0.001717	28.0839	68.4979	0.001731	39577.1	4.460267	-5.760100	228.36	1.202474	0.068434	0.068079	235.713	39577.1	0.063968	0.140419	1678.64	96494.9
650	2.000000	1.213317	7.37141e+06	-44589.1	1005.82	-29775.3	0.000000	0.000000	7.225725	295.831	NaN	0.000000	0.001533	0.001714	28.0841	77.4627	0.001727	44843.7	3.395067	174.575	292.433	1.213040	0.078922	0.078645	295.831	44843.7	0.073975	0.180631	1637.77	96400.4
650	2.000000	1.223766	7.37141e+06	-44589.1	1005.82	-29775.3	0.000000	0.000000	7.239353	373.17	NaN	0.000000	0.001599	0.001775	28.0842	87.821	0.001805	48650.4	2.813320	-6.047789	367.008	1.223540	0.089371	0.089145	373.17	48650.4	0.083619	0.223856	1667.01	93945.5
650	2.000000	1.234298	7.37142e+06	-44589.1	1005.82	-29775.3	0.000000	0.000000	7.253074	450.745	NaN	0.000000	0.001590	0.001759	28.0853	98.3534	0.001805	54486	6.139689	170.235	447.05	1.233973	0.099903	0.099579	450.745	54486	0.093699	0.273638	1647.23	95163.3
650	2.000000	1.239396	7.37142e+06	-44589.1	1005.82	-29775.3	0.000000	0.000000	7.259685	487.553	NaN	0.000000	0.001608	0.001783	28.0852	103.425	0.001827	56612.2	4.701663	171.546	489.923	1.239021	0.105002	0.104627	487.553	56612.2	0.098543	0.299215	1629.44	94556.7