File: remote_trans/data/nanoindenter/0828-1/data/Data_2025-08-06,11h17m57s/2025-07-22_16-23-58_1_696.txt
2025-07-22, 16:23:58, 1
Index	Phase	Displacement	Time	Pos X	Pos Y	Pos Z	Rot A	Rot B	Piezo Z	Force A	Force B	Gripper	Voltage A	Voltage B	Temperature	Amplitude force	Amplitude pos	Stiffness	Phase shift	Phase excitation	Force A raw	Displacement raw	HMax	HMax raw	Real Force	Real Stiffness	Contact Depth	Area	Hardness	Reduced Mod.
[#]	[#]	[um]	[s]	[um]	[um]	[um]	[m°]	[m°]	[um]	[uN]	[uN]	[V]	[V]	[V]	[°C]	[uN]	[um]	[N/m]	[°]	[°]	[uN]	[um]	[um]	[um]	[uN]	[N/m]	[um]	[um^2]	[MPa]	[MPa]
696	1.000000	0.002466	7.37186e+06	-42289.1	1005.82	-29783.1	0.000000	0.000000	6.002781	0.007376	NaN	0.000000	0.001650	0.001656	28.0816	0.046603	0.001000	46.5985	12.8911	-169.8	0.014578	0.001220	-1.186464	-1.187710	0.007376	46.5985	-1.186583	-7.261943E+15	-1.015677E-18	NaN
696	1.000000	0.046436	7.37186e+06	-42289.1	1005.82	-29783.1	0.000000	0.000000	6.046749	-0.036815	NaN	0.000000	0.001602	0.001662	28.0829	0.069650	0.001911	36.4501	-147.016	-166.566	0.010762	0.045111	-1.142494	-1.143819	-0.036815	36.4501	-1.141737	-1.819801E+15	2.023034E-17	NaN
696	1.000000	0.090463	7.37186e+06	-42289.1	1005.82	-29783.1	0.000000	0.000000	6.090777	-0.025078	NaN	0.000000	0.001593	0.001681	28.083	0.046790	0.001928	24.2731	-153.825	-167.761	0.107128	0.089145	-1.098467	-1.099785	-0.025078	24.2731	-1.097692	-4.667539E+14	5.372874E-17	NaN
696	1.000000	0.134471	7.37186e+06	-42289.1	1005.82	-29783.1	0.000000	0.000000	6.134785	-0.002271	NaN	0.000000	0.001627	0.001653	28.0832	0.078943	0.001957	40.3296	127.896	-164.115	-0.024112	0.133116	-1.054459	-1.055815	-0.002271	40.3296	-1.054417	-1.224015E+14	1.855526E-17	NaN
696	1.000000	0.178475	7.37186e+06	-42289.1	1005.82	-29783.1	0.000000	0.000000	6.178790	0.001020	NaN	0.000000	0.001626	0.001672	28.0816	0.086677	0.002069	41.8881	67.5137	-165.888	-0.018745	0.177150	-1.010455	-1.011780	0.001020	41.8881	-1.010473	-3.138725E+13	-3.249411E-17	NaN
696	1.000000	0.222527	7.37186e+06	-42289.1	1005.82	-29783.1	0.000000	0.000000	6.222841	-0.014288	NaN	0.000000	0.001618	0.001701	28.0821	0.099918	0.002067	48.3448	-158.269	-167.97	-0.030475	0.221240	-0.966403	-0.967690	-0.014288	48.3448	-0.966182	-7.946929E+12	1.797971E-15	NaN
696	1.000000	0.266553	7.37186e+06	-42289.1	1005.82	-29783.1	0.000000	0.000000	6.266869	0.010151	NaN	0.000000	0.001647	0.001606	28.0818	0.048813	0.001923	25.3799	-65.7946	-166.875	0.004652	0.265173	-0.922377	-0.923757	0.010151	25.3799	-0.922677	-2.057512E+12	-4.933630E-15	NaN
696	1.000000	0.310539	7.37186e+06	-42289.1	1005.82	-29783.1	0.000000	0.000000	6.310854	-0.011213	NaN	0.000000	0.001718	0.001686	28.0821	0.113564	0.001929	58.8587	-161.076	-165.463	0.055451	0.309249	-0.878391	-0.879681	-0.011213	58.8587	-0.878248	-5.164312E+11	2.171236E-14	NaN
696	1.000000	0.354557	7.37186e+06	-42289.1	1005.82	-29783.1	0.000000	0.000000	6.354870	-0.033799	NaN	0.000000	0.001688	0.001706	28.083	0.086250	0.001849	46.6584	6.602235	-163.496	-0.014915	0.353242	-0.834373	-0.835688	-0.033799	46.6584	-0.833830	-1.293263E+11	2.613483E-13	NaN
696	1.000000	0.398553	7.37186e+06	-42289.1	1005.82	-29783.1	0.000000	0.000000	6.398871	0.069950	NaN	0.000000	0.001649	0.001764	28.0832	0.044456	0.001963	22.6488	-85.1617	-165.881	0.049552	0.397245	-0.790377	-0.791685	0.069950	22.6488	-0.792693	-3.578158E+10	-1.954909E-12	NaN
696	1.000000	0.442578	7.37186e+06	-42289.1	1005.82	-29783.1	0.000000	0.000000	6.442892	-0.004460	NaN	0.000000	0.001637	0.001688	28.083	0.042729	0.002071	20.628	-110.999	-168.749	0.010757	0.441295	-0.746352	-0.747635	-0.004460	20.628	-0.746190	-8.343598E+9	5.345236E-13	NaN
696	1.000000	0.486597	7.37186e+06	-42289.1	1005.82	-29783.1	0.000000	0.000000	6.486914	0.062972	NaN	0.000000	0.001627	0.001689	28.0817	0.030219	0.001985	15.2247	26.8159	-166.547	0.104674	0.485308	-0.702333	-0.703622	0.062972	15.2247	-0.705435	-2.321378E+9	-2.712710E-11	NaN
696	1.000000	0.530613	7.37186e+06	-42289.1	1005.82	-29783.1	0.000000	0.000000	6.530930	0.047286	NaN	0.000000	0.001633	0.001753	28.0817	0.017546	0.001892	9.273894	-130.247	-166.521	0.000502	0.529311	-0.658317	-0.659619	0.047286	9.273894	-0.662141	-5.940131E+8	-7.960362E-11	NaN
696	1.000000	0.574628	7.37186e+06	-42289.1	1005.82	-29783.1	0.000000	0.000000	6.574939	-0.093412	NaN	0.000000	0.001670	0.001738	28.0819	0.052286	0.002043	25.5928	-47.2125	-162.881	-0.053692	0.573332	-0.614302	-0.615598	-0.093412	25.5928	-0.611565	-1.201271E+8	7.776097E-10	NaN
696	1.000000	0.618662	7.37186e+06	-42289.1	1005.82	-29783.1	0.000000	0.000000	6.618975	-0.036333	NaN	0.000000	0.001628	0.001674	28.0832	0.070293	0.001955	35.9487	124.861	-167.852	0.028330	0.617387	-0.570268	-0.571543	-0.036333	35.9487	-0.569510	-3.161249E+7	1.149329E-9	NaN
696	1.000000	0.662680	7.37186e+06	-42289.1	1005.82	-29783.1	0.000000	0.000000	6.662993	-0.046029	NaN	0.000000	0.001621	0.001676	28.0829	0.046556	0.001961	23.7431	9.971467	-166.865	0.009990	0.661358	-0.526250	-0.527572	-0.046029	23.7431	-0.524796	-7.59062e+06	6.063925E-9	NaN
696	1.000000	0.706711	7.37186e+06	-42289.1	1005.82	-29783.1	0.000000	0.000000	6.707024	-0.044509	NaN	0.000000	0.001640	0.001679	28.0828	0.034071	0.002111	16.1372	-52.4386	-164.081	0.019703	0.705439	-0.482219	-0.483491	-0.044509	16.1372	-0.480150	-1.80981e+06	2.459303E-8	NaN
696	1.000000	0.750709	7.37186e+06	-42289.1	1005.82	-29783.1	0.000000	0.000000	6.751024	0.010280	NaN	0.000000	0.001661	0.001703	28.0817	0.065342	0.002006	32.5757	-3.508176	-164.823	0.018462	0.749409	-0.438221	-0.439521	0.010280	32.5757	-0.438458	-469455	-2.189687E-8	NaN
696	1.000000	0.794743	7.37186e+06	-42289.1	1005.82	-29783.1	0.000000	0.000000	6.795060	0.052387	NaN	0.000000	0.001633	0.001727	28.0817	0.045188	0.002045	22.0977	-72.5665	-168.812	0.075015	0.793404	-0.394187	-0.395526	0.052387	22.0977	-0.395965	-117062	-4.475148E-7	NaN
696	1.000000	0.838802	7.37186e+06	-42289.1	1005.82	-29783.1	0.000000	0.000000	6.839116	-0.005753	NaN	0.000000	0.001668	0.001692	28.0817	0.060202	0.001916	31.4257	-47.9325	-166.939	0.020978	0.837502	-0.350129	-0.351428	-0.005753	31.4257	-0.349991	-25519.7	2.254366E-7	NaN
696	1.000000	0.882792	7.37186e+06	-42289.1	1005.82	-29783.1	0.000000	0.000000	6.883108	0.037289	NaN	0.000000	0.001641	0.001703	28.0827	0.100473	0.002137	47.0086	173.392	-167.473	0.027210	0.881517	-0.306138	-0.307413	0.037289	47.0086	-0.306733	-5924.67	-6.293833E-6	NaN
696	1.000000	0.926792	7.37186e+06	-42289.1	1005.82	-29783.1	0.000000	0.000000	6.927108	0.019950	NaN	0.000000	0.001595	0.001662	28.0827	0.057363	0.002026	28.3082	-92.1564	-163.512	-0.033855	0.925481	-0.262138	-0.263449	0.019950	28.3082	-0.262666	-1287.47	-1.549531E-5	NaN
696	1.000000	0.970813	7.37186e+06	-42289.1	1005.82	-29783.1	0.000000	0.000000	6.971128	-0.011588	NaN	0.000000	0.001623	0.001653	28.0826	0.078567	0.002080	37.769	-47.3265	-165.571	-0.013671	0.969484	-0.218117	-0.219446	-0.011588	37.769	-0.217887	-256.955	4.509856E-5	NaN
696	1.000000	1.014803	7.37186e+06	-42289.1	1005.82	-29783.1	0.000000	0.000000	7.015119	0.043070	NaN	0.000000	0.001641	0.001659	28.0817	0.019014	0.002112	9.002345	149.716	-164.396	-0.009744	1.013535	-0.174127	-0.175396	0.043070	9.002345	-0.177715	-55.7845	-0.000772	NaN
696	1.000000	1.058855	7.37186e+06	-42289.1	1005.82	-29783.1	0.000000	0.000000	7.059168	-0.036700	NaN	0.000000	0.001614	0.001660	28.082	0.060707	0.001964	30.9039	174.435	-167.144	-0.020708	1.057566	-0.130075	-0.131364	-0.036700	30.9039	-0.129184	-7.347525	0.004995	NaN
696	1.000000	1.102863	7.37186e+06	-42289.1	1005.82	-29783.1	0.000000	0.000000	7.103176	-0.039755	NaN	0.000000	0.001562	0.001662	28.0816	0.101893	0.002021	50.4277	157.446	-164.1	-0.082911	1.101533	-0.086067	-0.087397	-0.039755	50.4277	-0.085476	-0.843667	0.047122	NaN
696	1.000000	1.146885	7.37186e+06	-42289.1	1005.82	-29783.1	0.000000	0.000000	7.147200	0.015992	NaN	0.000000	0.001613	0.001701	28.0831	0.052154	0.002043	25.5254	8.447814	-166.326	-0.032887	1.145527	-0.042045	-0.043404	0.015992	25.5254	-0.042515	-0.053952	-0.296405	NaN
696	1.000000	1.190858	7.37186e+06	-42289.1	1005.82	-29783.1	0.000000	0.000000	7.191383	5.124606	NaN	0.000000	0.001536	0.001667	28.0832	5.451476	0.001894	2877.64	8.777631	-170.133	2.879684	1.189553	0.001928	0.000623	5.124606	2877.64	0.000592	0.000448	11445.3	124249
696	2.000000	1.203579	7.37186e+06	-42289.1	1005.82	-29783.1	0.000000	0.000000	7.204799	22.0273	NaN	0.000000	0.001560	0.001710	28.084	17.3268	0.001747	9917.89	3.955872	-174.593	22.0755	1.203131	0.014649	0.014201	22.0273	9917.89	0.012984	0.012690	1735.85	80439.1
696	2.000000	1.214483	7.37186e+06	-42289.1	1005.82	-29783.1	0.000000	0.000000	7.216468	40.6282	NaN	0.000000	0.001548	0.001673	28.0825	26.4426	0.001690	15646.8	0.964994	-175.27	39.051	1.214198	0.025553	0.025268	40.6282	15646.8	0.023606	0.028528	1424.14	84637.5
696	2.000000	1.225509	7.37186e+06	-42289.1	1005.82	-29783.1	0.000000	0.000000	7.228931	75.5941	NaN	0.000000	0.001595	0.001730	28.0821	38.6218	0.001809	21354.2	5.643248	177.37	75.9696	1.225151	0.036579	0.036221	75.5941	21354.2	0.033924	0.049271	1534.25	87894.6
696	2.000000	1.236514	7.37186e+06	-42289.1	1005.82	-29783.1	0.000000	0.000000	7.241365	110.386	NaN	0.000000	0.001576	0.001682	28.0817	48.6176	0.001802	26975.7	7.231327	174.458	113.383	1.236132	0.047584	0.047202	110.386	26975.7	0.044514	0.076215	1448.35	89274.3
696	2.000000	1.247451	7.37186e+06	-42289.1	1005.82	-29783.1	0.000000	0.000000	7.254347	160.148	NaN	0.000000	0.001560	0.001718	28.0829	58.2493	0.001840	31658.6	3.189142	176.589	160.807	1.247155	0.058521	0.058224	160.148	31658.6	0.054727	0.107581	1488.64	88185.6
696	2.000000	1.258401	7.37186e+06	-42289.1	1005.82	-29783.1	0.000000	0.000000	7.268072	227.66	NaN	0.000000	0.001574	0.001663	28.083	70.3111	0.001728	40684.2	4.017047	173.664	226.27	1.258152	0.069471	0.069222	227.66	40684.2	0.065274	0.145397	1565.78	97481.4
696	2.000000	1.269401	7.37186e+06	-42289.1	1005.82	-29783.1	0.000000	0.000000	7.281898	296.396	NaN	0.000000	0.001545	0.001641	28.0829	82.4135	0.001966	41923.3	9.259237	169.413	294.013	1.268939	0.080471	0.080009	296.396	41923.3	0.075169	0.185747	1595.69	88872.5
696	2.000000	1.280317	7.37186e+06	-42289.1	1005.82	-29783.1	0.000000	0.000000	7.295996	373.829	NaN	0.000000	0.001612	0.001661	28.0819	92.0881	0.001889	48751.7	6.523499	169.31	369.015	1.280027	0.091387	0.091097	373.829	48751.7	0.085636	0.233444	1601.36	92187.4
696	2.000000	1.291346	7.37186e+06	-42289.1	1005.82	-29783.1	0.000000	0.000000	7.310863	467.215	NaN	0.000000	0.001676	0.001655	28.0818	101.952	0.001875	54382.7	3.451311	172.508	462.886	1.290981	0.102416	0.102051	467.215	54382.7	0.095972	0.285510	1636.42	92987.2