File: remote_trans/data/nanoindenter/0828-1/data/Data_2025-08-06,11h17m57s/2025-07-22_16-23-58_1_665.txt
2025-07-22, 16:23:58, 1
Index	Phase	Displacement	Time	Pos X	Pos Y	Pos Z	Rot A	Rot B	Piezo Z	Force A	Force B	Gripper	Voltage A	Voltage B	Temperature	Amplitude force	Amplitude pos	Stiffness	Phase shift	Phase excitation	Force A raw	Displacement raw	HMax	HMax raw	Real Force	Real Stiffness	Contact Depth	Area	Hardness	Reduced Mod.
[#]	[#]	[um]	[s]	[um]	[um]	[um]	[m°]	[m°]	[um]	[uN]	[uN]	[V]	[V]	[V]	[°C]	[uN]	[um]	[N/m]	[°]	[°]	[uN]	[um]	[um]	[um]	[uN]	[N/m]	[um]	[um^2]	[MPa]	[MPa]
665	1.000000	0.003039	7.37156e+06	-43839.1	1005.82	-29777.7	0.000000	0.000000	6.002795	-0.026897	NaN	0.000000	0.001651	0.001794	28.0827	0.111133	0.001100	101.069	-36.2449	-164.468	-0.018652	0.001755	-1.084959	-1.086243	-0.026897	101.069	-1.084759	-3.129200E+14	8.595475E-17	NaN
665	1.000000	0.042987	7.37156e+06	-43839.1	1005.82	-29777.7	0.000000	0.000000	6.042743	-0.015380	NaN	0.000000	0.001702	0.001711	28.0827	0.036308	0.002017	18.0052	-28.5023	-167.475	0.009870	0.041677	-1.045011	-1.046321	-0.015380	18.0052	-1.044370	-8.968653E+13	1.714859E-16	NaN
665	1.000000	0.083006	7.37156e+06	-43839.1	1005.82	-29777.7	0.000000	0.000000	6.082761	-0.054235	NaN	0.000000	0.001632	0.001670	28.0833	0.117250	0.001956	59.9573	121.622	-164.188	-0.047580	0.081729	-1.004991	-1.006269	-0.054235	59.9573	-1.004313	-2.593162E+13	2.091446E-15	NaN
665	1.000000	0.123032	7.37156e+06	-43839.1	1005.82	-29777.7	0.000000	0.000000	6.122790	0.021201	NaN	0.000000	0.001673	0.001680	28.0842	0.073341	0.002163	33.9034	143.792	-166.202	-0.021725	0.121705	-0.964966	-0.966293	0.021201	33.9034	-0.965435	-7.764826E+12	-2.730347E-15	NaN
665	1.000000	0.163057	7.37156e+06	-43839.1	1005.82	-29777.7	0.000000	0.000000	6.162813	-0.007876	NaN	0.000000	0.001686	0.001705	28.0836	0.089638	0.002039	43.9521	20.5319	-166.61	0.030940	0.161690	-0.924941	-0.926307	-0.007876	43.9521	-0.924807	-2.198355E+12	3.582536E-15	NaN
665	1.000000	0.203054	7.37156e+06	-43839.1	1005.82	-29777.7	0.000000	0.000000	6.202811	-0.008567	NaN	0.000000	0.001658	0.001669	28.0822	0.083253	0.002078	40.0597	-53.4437	-162.011	-0.034781	0.201737	-0.884943	-0.886261	-0.008567	40.0597	-0.884783	-6.329679E+11	1.353477E-14	NaN
665	1.000000	0.243085	7.37156e+06	-43839.1	1005.82	-29777.7	0.000000	0.000000	6.242843	0.028729	NaN	0.000000	0.001655	0.001721	28.0823	0.106712	0.001957	54.5423	168.518	-165.624	0.036404	0.241753	-0.844913	-0.846245	0.028729	54.5423	-0.845308	-1.850080E+11	-1.552870E-13	NaN
665	1.000000	0.283097	7.37156e+06	-43839.1	1005.82	-29777.7	0.000000	0.000000	6.282855	0.021695	NaN	0.000000	0.001642	0.001729	28.0819	0.009473	0.001983	4.778397	-30.9647	-163.957	0.048180	0.281823	-0.804901	-0.806175	0.021695	4.778397	-0.808306	-5.828905E+10	-3.721903E-13	NaN
665	1.000000	0.323112	7.37156e+06	-43839.1	1005.82	-29777.7	0.000000	0.000000	6.322872	0.051297	NaN	0.000000	0.001641	0.001690	28.0822	0.040170	0.002076	19.3545	51.2245	-161.617	0.026917	0.321844	-0.764885	-0.766154	0.051297	19.3545	-0.766873	-1.595095E+10	-3.215910E-12	NaN
665	1.000000	0.363122	7.37156e+06	-43839.1	1005.82	-29777.7	0.000000	0.000000	6.362880	0.018056	NaN	0.000000	0.001663	0.001707	28.084	0.096537	0.001828	52.8145	-26.0321	-160.652	-0.029875	0.361784	-0.724875	-0.726214	0.018056	52.8145	-0.725132	-4.309710E+9	-4.189563E-12	NaN
665	1.000000	0.403148	7.37156e+06	-43839.1	1005.82	-29777.7	0.000000	0.000000	6.402905	0.015841	NaN	0.000000	0.001626	0.001705	28.0838	0.060044	0.002057	29.1914	154.208	-165.442	0.029833	0.401851	-0.684850	-0.686147	0.015841	29.1914	-0.685257	-1.230519E+9	-1.287333E-11	NaN
665	1.000000	0.443161	7.37156e+06	-43839.1	1005.82	-29777.7	0.000000	0.000000	6.442919	0.014686	NaN	0.000000	0.001663	0.001667	28.0838	0.049656	0.002013	24.6679	-145.396	-165.308	0.043382	0.441850	-0.644836	-0.646148	0.014686	24.6679	-0.645283	-3.489431E+8	-4.208573E-11	NaN
665	1.000000	0.483154	7.37156e+06	-43839.1	1005.82	-29777.7	0.000000	0.000000	6.482916	0.115289	NaN	0.000000	0.001690	0.001711	28.0822	0.084037	0.001913	43.9201	-15.468	-165.923	0.133165	0.481812	-0.604843	-0.606186	0.115289	43.9201	-0.606812	-1.033352E+8	-1.115676E-9	NaN
665	1.000000	0.523190	7.37156e+06	-43839.1	1005.82	-29777.7	0.000000	0.000000	6.522949	0.049854	NaN	0.000000	0.001656	0.001683	28.0823	0.011766	0.002034	5.785093	-19.2397	-164.361	-0.002286	0.521878	-0.564807	-0.566119	0.049854	5.785093	-0.571271	-3.343382E+7	-1.491127E-9	NaN
665	1.000000	0.563189	7.37156e+06	-43839.1	1005.82	-29777.7	0.000000	0.000000	6.562949	0.073100	NaN	0.000000	0.001631	0.001673	28.0824	0.061921	0.001882	32.9038	81.6125	-166.473	0.015871	0.561877	-0.524809	-0.526120	0.073100	32.9038	-0.526475	-8.00956e+06	-9.126625E-9	NaN
665	1.000000	0.603252	7.37156e+06	-43839.1	1005.82	-29777.7	0.000000	0.000000	6.603011	0.026760	NaN	0.000000	0.001663	0.001717	28.0825	0.113714	0.001935	58.7573	-73.6057	-168.269	0.022448	0.601919	-0.484745	-0.486079	0.026760	58.7573	-0.485087	-2.1218e+06	-1.261191E-8	NaN
665	1.000000	0.643229	7.37156e+06	-43839.1	1005.82	-29777.7	0.000000	0.000000	6.642988	0.049072	NaN	0.000000	0.001678	0.001672	28.0836	0.059710	0.001906	31.3232	-172.03	-166.451	0.036900	0.641925	-0.444769	-0.446073	0.049072	31.3232	-0.445944	-598683	-8.196716E-8	NaN
665	1.000000	0.683289	7.37156e+06	-43839.1	1005.82	-29777.7	0.000000	0.000000	6.683046	-0.018617	NaN	0.000000	0.001677	0.001681	28.0835	0.062412	0.002004	31.138	-37.9858	-161.929	0.005668	0.681972	-0.404708	-0.406025	-0.018617	31.138	-0.404260	-153713	1.211178E-7	NaN
665	1.000000	0.723272	7.37156e+06	-43839.1	1005.82	-29777.7	0.000000	0.000000	6.723032	0.073310	NaN	0.000000	0.001728	0.001727	28.0838	0.042905	0.002027	21.1672	-83.866	-164.754	-0.011555	0.721955	-0.364726	-0.366043	0.073310	21.1672	-0.367324	-45453.2	-1.612872E-6	NaN
665	1.000000	0.763273	7.37156e+06	-43839.1	1005.82	-29777.7	0.000000	0.000000	6.763030	-0.024092	NaN	0.000000	0.001761	0.001721	28.082	0.055953	0.002048	27.3222	-85.5689	-162.891	0.066997	0.761959	-0.324724	-0.326039	-0.024092	27.3222	-0.324063	-10675.2	2.256780E-6	NaN
665	1.000000	0.803343	7.37156e+06	-43839.1	1005.82	-29777.7	0.000000	0.000000	6.803100	0.000732	NaN	0.000000	0.001757	0.001742	28.0821	0.070739	0.001938	36.5019	-94.963	-164.222	0.013566	0.801989	-0.284654	-0.286009	0.000732	36.5019	-0.284669	-2775.22	-2.638574E-7	NaN
665	1.000000	0.843296	7.37156e+06	-43839.1	1005.82	-29777.7	0.000000	0.000000	6.843050	-0.073054	NaN	0.000000	0.001766	0.001670	28.0819	0.028943	0.002132	13.5753	-76.6942	-162.598	-0.055247	0.842015	-0.244702	-0.245983	-0.073054	13.5753	-0.240666	-588.77	0.000124	NaN
665	1.000000	0.883349	7.37156e+06	-43839.1	1005.82	-29777.7	0.000000	0.000000	6.883110	0.080089	NaN	0.000000	0.001711	0.001682	28.0829	0.058643	0.001839	31.8844	96.7743	-166.274	0.119681	0.882031	-0.204648	-0.205967	0.080089	31.8844	-0.206532	-168.469	-0.000475	NaN
665	1.000000	0.923343	7.37156e+06	-43839.1	1005.82	-29777.7	0.000000	0.000000	6.923098	-0.049064	NaN	0.000000	0.001690	0.001685	28.0844	0.059838	0.001972	30.3414	119.653	-168.287	0.020557	0.922060	-0.164655	-0.165938	-0.049064	30.3414	-0.163442	-31.5423	0.001555	NaN
665	1.000000	0.963388	7.37156e+06	-43839.1	1005.82	-29777.7	0.000000	0.000000	6.963144	-0.040111	NaN	0.000000	0.001717	0.001724	28.0835	0.065486	0.001968	33.2792	-6.981924	-165.967	-0.050095	0.962079	-0.124610	-0.125919	-0.040111	33.2792	-0.123706	-5.732138	0.006998	NaN
665	1.000000	1.003391	7.37156e+06	-43839.1	1005.82	-29777.7	0.000000	0.000000	7.003149	0.025616	NaN	0.000000	0.001687	0.001717	28.0831	0.015991	0.001975	8.094996	140.478	-165.538	-0.039847	1.002115	-0.084607	-0.085883	0.025616	8.094996	-0.086980	-0.916873	-0.027939	NaN
665	1.000000	1.043370	7.37156e+06	-43839.1	1005.82	-29777.7	0.000000	0.000000	7.043125	-0.050998	NaN	0.000000	0.001659	0.001691	28.0818	0.068914	0.002040	33.7805	39.9255	-165.335	0.031820	1.042104	-0.044627	-0.045894	-0.050998	33.7805	-0.043495	-0.057804	0.882251	NaN
665	1.000000	1.083428	7.37156e+06	-43839.1	1005.82	-29777.7	0.000000	0.000000	7.083188	0.089119	NaN	0.000000	0.001692	0.001731	28.0818	0.277215	0.001900	145.903	13.1209	-167.273	-0.022950	1.082149	-0.004570	-0.005849	0.089119	145.903	-0.005028	-0.003434	-25.9492	NaN
665	2.000000	1.100884	7.37156e+06	-43839.1	1005.82	-29777.7	0.000000	0.000000	7.101534	21.7277	NaN	0.000000	0.001699	0.001689	28.0818	17.4134	0.001796	9694.29	6.245174	-175.496	20.2191	1.100579	0.012886	0.012581	21.7277	9694.29	0.011205	0.010552	2059.07	86222
665	2.000000	1.110867	7.37156e+06	-43839.1	1005.82	-29777.7	0.000000	0.000000	7.112445	44.2977	NaN	0.000000	0.001686	0.001731	28.083	27.4289	0.001632	16809.2	3.069151	-177.412	43.4845	1.110517	0.022869	0.022519	44.2977	16809.2	0.020893	0.023964	1848.48	99206.1
665	2.000000	1.120858	7.37156e+06	-43839.1	1005.82	-29777.7	0.000000	0.000000	7.123754	76.3754	NaN	0.000000	0.001656	0.001750	28.0831	38.2765	0.001863	20548.2	2.553606	-177.431	77.2846	1.120575	0.032860	0.032577	76.3754	20548.2	0.030073	0.040894	1867.63	92835.9
665	2.000000	1.130825	7.37156e+06	-43839.1	1005.82	-29777.7	0.000000	0.000000	7.135397	117.163	NaN	0.000000	0.001676	0.001722	28.0829	48.1777	0.001892	25469.4	5.041676	177.143	116.086	1.130552	0.042827	0.042554	117.163	25469.4	0.039377	0.062428	1876.78	93133
665	2.000000	1.140850	7.37156e+06	-43839.1	1005.82	-29777.7	0.000000	0.000000	7.147355	164.171	NaN	0.000000	0.001654	0.001708	28.0828	56.5275	0.001766	32012	6.822866	174.379	164.976	1.140502	0.052853	0.052505	164.171	32012	0.049006	0.089366	1837.06	97836
665	2.000000	1.150791	7.37156e+06	-43839.1	1005.82	-29777.7	0.000000	0.000000	7.159606	220.388	NaN	0.000000	0.001653	0.001683	28.0816	65.2641	0.001847	35327	2.378518	177.843	217.771	1.150503	0.062793	0.062505	220.388	35327	0.058114	0.119132	1849.95	93511.7
665	2.000000	1.160788	7.37156e+06	-43839.1	1005.82	-29777.7	0.000000	0.000000	7.172176	282.967	NaN	0.000000	0.001662	0.001696	28.0818	75.0463	0.001948	38532.3	5.451886	174.316	282.25	1.160467	0.072790	0.072470	282.967	38532.3	0.067282	0.153209	1846.94	89940.8
665	2.000000	1.170760	7.37156e+06	-43839.1	1005.82	-29777.7	0.000000	0.000000	7.184769	346.734	NaN	0.000000	0.001677	0.001714	28.0815	84.2058	0.001880	44784.8	4.478926	174.187	344.201	1.170464	0.082763	0.082466	346.734	44784.8	0.076956	0.193530	1791.63	93009.9
665	2.000000	1.180760	7.37156e+06	-43839.1	1005.82	-29777.7	0.000000	0.000000	7.197214	406.221	NaN	0.000000	0.001686	0.001690	28.0832	92.7896	0.001818	51037.3	3.380783	173.537	405.449	1.180679	0.092762	0.092681	406.221	51037.3	0.086793	0.239027	1699.47	95375.6
665	2.000000	1.190755	7.37156e+06	-43839.1	1005.82	-29777.7	0.000000	0.000000	7.210946	497.143	NaN	0.000000	0.001703	0.001708	28.0831	100.886	0.001740	57996.2	2.536294	173.863	494.577	1.190385	0.102757	0.102388	497.143	57996.2	0.096328	0.287390	1729.86	98841
665	2.000000	1.191739	7.37156e+06	-43839.1	1005.82	-29777.7	0.000000	0.000000	7.212587	513.129	NaN	0.000000	0.001705	0.001728	28.083	101.896	0.001751	58208.4	7.952247	169.089	512.62	1.191327	0.103741	0.103329	513.129	58208.4	0.097130	0.291645	1759.43	98476.3