File: remote_trans/data/nanoindenter/0828-1/data/Data_2025-08-06,11h17m57s/2025-07-22_16-23-58_1_1107.txt
2025-07-22, 16:23:58, 1
Index	Phase	Displacement	Time	Pos X	Pos Y	Pos Z	Rot A	Rot B	Piezo Z	Force A	Force B	Gripper	Voltage A	Voltage B	Temperature	Amplitude force	Amplitude pos	Stiffness	Phase shift	Phase excitation	Force A raw	Displacement raw	HMax	HMax raw	Real Force	Real Stiffness	Contact Depth	Area	Hardness	Reduced Mod.
[#]	[#]	[um]	[s]	[um]	[um]	[um]	[m°]	[m°]	[um]	[uN]	[uN]	[V]	[V]	[V]	[°C]	[uN]	[um]	[N/m]	[°]	[°]	[uN]	[um]	[um]	[um]	[uN]	[N/m]	[um]	[um^2]	[MPa]	[MPa]
1107	1.000000	0.002491	7.37587e+06	-55489.1	1055.82	-29741.2	0.000000	0.000000	6.002795	0.018674	NaN	0.000000	0.001646	0.001704	28.083	0.087041	0.000979	88.8934	80.8456	-163.77	0.034985	0.001265	-1.183795	-1.185021	0.018674	88.8934	-1.183953	-6.696120E+15	-2.788830E-18	NaN
1107	1.000000	0.046428	7.37588e+06	-55489.1	1055.82	-29741.2	0.000000	0.000000	6.046731	-0.019114	NaN	0.000000	0.001739	0.001698	28.0834	0.075746	0.001907	39.7237	-70.1157	-164.337	-0.000385	0.045168	-1.139858	-1.141118	-0.019114	39.7237	-1.139497	-1.698228E+15	1.125517E-17	NaN
1107	1.000000	0.090463	7.37588e+06	-55489.1	1055.82	-29741.3	0.000000	0.000000	6.090766	-0.005201	NaN	0.000000	0.001710	0.001707	28.0844	0.083673	0.001968	42.5186	142.39	-165.331	0.016852	0.089162	-1.095823	-1.097124	-0.005201	42.5186	-1.095732	-4.393050E+14	1.183981E-17	NaN
1107	1.000000	0.134466	7.37588e+06	-55489.1	1055.82	-29741.3	0.000000	0.000000	6.134768	-0.023351	NaN	0.000000	0.001639	0.001688	28.0844	0.127787	0.002018	63.3287	80.2749	-165.37	-0.012499	0.133169	-1.051821	-1.053117	-0.023351	63.3287	-1.051544	-1.119873E+14	2.085183E-16	NaN
1107	1.000000	0.178467	7.37588e+06	-55489.1	1055.82	-29741.3	0.000000	0.000000	6.178773	0.043473	NaN	0.000000	0.001625	0.001707	28.0844	0.070767	0.001992	35.5241	-22.6852	-166.543	-0.040294	0.177162	-1.007819	-1.009124	0.043473	35.5241	-1.008737	-2.974245E+13	-1.461639E-15	NaN
1107	1.000000	0.222550	7.37588e+06	-55489.1	1055.82	-29741.3	0.000000	0.000000	6.222852	-0.048624	NaN	0.000000	0.001611	0.001710	28.0842	0.124373	0.002088	59.5667	-100.697	-165.011	-0.031102	0.221228	-0.963736	-0.965059	-0.048624	59.5667	-0.963124	-7.227412E+12	6.727663E-15	NaN
1107	1.000000	0.266553	7.37588e+06	-55489.1	1055.82	-29741.3	0.000000	0.000000	6.266856	-0.015890	NaN	0.000000	0.001607	0.001711	28.0831	0.036839	0.002073	17.7698	86.9812	-165.794	0.034823	0.265145	-0.919733	-0.921142	-0.015890	17.7698	-0.919063	-1.838873E+12	8.641336E-15	NaN
1107	1.000000	0.310555	7.37588e+06	-55489.1	1055.82	-29741.3	0.000000	0.000000	6.310859	0.003918	NaN	0.000000	0.001723	0.001707	28.0831	0.084563	0.002056	41.1296	169.934	-167.477	-0.024443	0.309209	-0.875731	-0.877077	0.003918	41.1296	-0.875803	-4.785643E+11	-8.186150E-15	NaN
1107	1.000000	0.354559	7.37588e+06	-55489.1	1055.82	-29741.3	0.000000	0.000000	6.354862	-0.014685	NaN	0.000000	0.001732	0.001686	28.0831	0.039239	0.001998	19.6432	97.9156	-163.444	-0.152305	0.353267	-0.831727	-0.833019	-0.014685	19.6432	-0.831166	-1.190112E+11	1.233948E-13	NaN
1107	1.000000	0.398599	7.37588e+06	-55489.1	1055.82	-29741.3	0.000000	0.000000	6.398904	0.029181	NaN	0.000000	0.001736	0.001709	28.0841	0.118720	0.001899	62.531	132.953	-164.767	0.049814	0.397249	-0.787687	-0.789037	0.029181	62.531	-0.788037	-3.093316E+10	-9.433463E-13	NaN
1107	1.000000	0.442616	7.37588e+06	-55489.1	1055.82	-29741.3	0.000000	0.000000	6.442921	0.023905	NaN	0.000000	0.001572	0.001688	28.0841	0.118008	0.001981	59.581	-81.2544	-166.74	0.168742	0.441280	-0.743670	-0.745006	0.023905	59.581	-0.743971	-7.782783E+9	-3.071565E-12	NaN
1107	1.000000	0.486633	7.37588e+06	-55489.1	1055.82	-29741.3	0.000000	0.000000	6.486937	0.014771	NaN	0.000000	0.001597	0.001719	28.0843	0.103193	0.002057	50.1682	12.9345	-165.126	0.012960	0.485292	-0.699653	-0.700994	0.014771	50.1682	-0.699874	-1.948997E+9	-7.578824E-12	NaN
1107	1.000000	0.530678	7.37588e+06	-55489.1	1055.82	-29741.3	0.000000	0.000000	6.530985	0.078283	NaN	0.000000	0.001607	0.001674	28.0829	0.018538	0.001954	9.484925	26.4739	-165.774	0.031896	0.529321	-0.655608	-0.656966	0.078283	9.484925	-0.661798	-5.876152E+8	-1.332213E-10	NaN
1107	1.000000	0.574641	7.37588e+06	-55489.1	1055.82	-29741.3	0.000000	0.000000	6.574944	-0.020552	NaN	0.000000	0.001575	0.001689	28.0829	0.094637	0.001918	49.3304	101.995	-167.643	-0.039225	0.573338	-0.611645	-0.612948	-0.020552	49.3304	-0.611332	-1.192460E+8	1.723508E-10	NaN
1107	1.000000	0.618708	7.37588e+06	-55489.1	1055.82	-29741.3	0.000000	0.000000	6.619013	0.027510	NaN	0.000000	0.001581	0.001738	28.083	0.046132	0.001918	24.0494	-150.056	-164.234	0.059204	0.617390	-0.567578	-0.568896	0.027510	24.0494	-0.568436	-3.055018E+7	-9.004851E-10	NaN
1107	1.000000	0.662709	7.37588e+06	-55489.1	1055.82	-29741.3	0.000000	0.000000	6.663012	-0.006664	NaN	0.000000	0.001586	0.001719	28.0838	0.114938	0.002086	55.1061	-168.484	-162.793	0.051358	0.661356	-0.523577	-0.524930	-0.006664	55.1061	-0.523486	-7.27902e+06	9.155112E-10	NaN
1107	1.000000	0.706723	7.37588e+06	-55489.1	1055.82	-29741.3	0.000000	0.000000	6.707026	0.002036	NaN	0.000000	0.001590	0.001673	28.0837	0.077111	0.002057	37.4869	7.217442	-166.908	0.098744	0.705391	-0.479564	-0.480895	0.002036	37.4869	-0.479604	-1.77823e+06	-1.144756E-9	NaN
1107	1.000000	0.750744	7.37588e+06	-55489.1	1055.82	-29741.3	0.000000	0.000000	6.751047	-0.023572	NaN	0.000000	0.001588	0.001697	28.0841	0.125699	0.001898	66.2171	136.166	-166.794	-0.033514	0.749392	-0.435542	-0.436894	-0.023572	66.2171	-0.435275	-423293	5.568689E-8	NaN
1107	1.000000	0.794762	7.37588e+06	-55489.1	1055.82	-29741.3	0.000000	0.000000	6.795066	0.014766	NaN	0.000000	0.001550	0.001697	28.0828	0.109308	0.001916	57.0496	-111.699	-168.977	0.014811	0.793464	-0.391524	-0.392822	0.014766	57.0496	-0.391718	-101797	-1.450550E-7	NaN
1107	1.000000	0.838766	7.37588e+06	-55489.1	1055.82	-29741.3	0.000000	0.000000	6.839069	-0.032792	NaN	0.000000	0.001581	0.001693	28.0827	0.025905	0.001947	13.3051	31.2383	-165.269	-0.065862	0.837435	-0.347520	-0.348851	-0.032792	13.3051	-0.345671	-22086	1.484737E-6	NaN
1107	1.000000	0.882760	7.37588e+06	-55489.1	1055.82	-29741.3	0.000000	0.000000	6.883067	0.076459	NaN	0.000000	0.001558	0.001699	28.0823	0.108679	0.001919	56.6424	-55.5164	-163.016	-0.008292	0.881443	-0.303526	-0.304843	0.076459	56.6424	-0.304538	-5496.7	-1.390991E-5	NaN
1107	1.000000	0.926827	7.37588e+06	-55489.1	1055.82	-29741.3	0.000000	0.000000	6.927130	-0.010823	NaN	0.000000	0.001585	0.001735	28.0843	0.074019	0.001944	38.0769	131.77	-167.869	0.004295	0.925477	-0.259459	-0.260809	-0.010823	38.0769	-0.259246	-1141.18	9.484393E-6	NaN
1107	1.000000	0.970809	7.37588e+06	-55489.1	1055.82	-29741.3	0.000000	0.000000	6.971112	-0.000576	NaN	0.000000	0.001585	0.001685	28.0842	0.042551	0.002096	20.297	43.2561	-169.351	-0.060284	0.969491	-0.215478	-0.216796	-0.000576	20.297	-0.215456	-234.883	2.453917E-6	NaN
1107	1.000000	1.014833	7.37588e+06	-55489.1	1055.82	-29741.3	0.000000	0.000000	7.015136	-0.021816	NaN	0.000000	0.001592	0.001696	28.0842	0.036076	0.001999	18.0479	-125.34	-166.305	-0.004123	1.013567	-0.171453	-0.172719	-0.021816	18.0479	-0.170546	-41.9849	0.000520	NaN
1107	1.000000	1.058875	7.37588e+06	-55489.1	1055.82	-29741.3	0.000000	0.000000	7.059178	-0.028407	NaN	0.000000	0.001542	0.001702	28.083	0.097330	0.001888	51.5431	105.112	-166.851	-0.088643	1.057555	-0.127411	-0.128731	-0.028407	51.5431	-0.126998	-6.658406	0.004266	NaN
1107	1.000000	1.102857	7.37588e+06	-55489.1	1055.82	-29741.3	0.000000	0.000000	7.103161	-0.004089	NaN	0.000000	0.001569	0.001712	28.0831	0.039335	0.001984	19.8294	133.367	-168.678	-0.022403	1.101580	-0.083429	-0.084706	-0.004089	19.8294	-0.083274	-0.745887	0.005482	NaN
1107	1.000000	1.146894	7.37588e+06	-55489.1	1055.82	-29741.3	0.000000	0.000000	7.147195	-0.051433	NaN	0.000000	0.001590	0.001703	28.0831	0.074411	0.001997	37.2531	-24.9902	-165.78	-0.060790	1.145616	-0.039392	-0.040670	-0.051433	37.2531	-0.038357	-0.040329	1.275358	NaN
1107	1.000000	1.190877	7.37588e+06	-55489.1	1055.82	-29741.3	0.000000	0.000000	7.191443	6.386204	NaN	0.000000	0.001543	0.001660	28.0845	6.690090	0.001691	3956.83	9.630296	-172.743	4.606227	1.189537	0.004591	0.003251	6.386204	3956.83	0.003380	0.002702	2363.13	69541.2
1107	2.000000	1.203428	7.37588e+06	-55489.1	1055.82	-29741.3	0.000000	0.000000	7.204752	24.8012	NaN	0.000000	0.001560	0.001688	28.0845	20.1535	0.001735	11616.9	4.880942	-176.823	25.1332	1.203109	0.017142	0.016822	24.8012	11616.9	0.015541	0.016014	1548.77	83872.8
1107	2.000000	1.214395	7.37588e+06	-55489.1	1055.82	-29741.3	0.000000	0.000000	7.217037	56.8379	NaN	0.000000	0.001634	0.001690	28.085	31.9386	0.001801	17734.9	5.521421	178.477	55.757	1.214121	0.028109	0.027835	56.8379	17734.9	0.025705	0.032311	1759.08	90141.8
1107	2.000000	1.225415	7.37588e+06	-55489.1	1055.82	-29741.3	0.000000	0.000000	7.229871	100.946	NaN	0.000000	0.001592	0.001685	28.0828	44.0154	0.001775	24800.7	7.184416	174.089	102.104	1.225112	0.039129	0.038826	100.946	24800.7	0.036076	0.054281	1859.68	97255.2
1107	2.000000	1.236332	7.37588e+06	-55489.1	1055.82	-29741.3	0.000000	0.000000	7.243122	157.658	NaN	0.000000	0.001584	0.001729	28.0832	53.5708	0.001760	30441.2	6.008394	174.561	155.641	1.235934	0.050046	0.049648	157.658	30441.2	0.046162	0.080920	1948.31	97770.3
1107	2.000000	1.247376	7.37588e+06	-55489.1	1055.82	-29741.3	0.000000	0.000000	7.256853	222.995	NaN	0.000000	0.001582	0.001717	28.0829	64.2172	0.001742	36859.7	6.843949	171.224	223.69	1.246974	0.061090	0.060688	222.995	36859.7	0.056552	0.113737	1960.62	99856.2
1107	2.000000	1.258341	7.37588e+06	-55489.1	1055.82	-29741.3	0.000000	0.000000	7.271079	302.275	NaN	0.000000	0.001597	0.001703	28.0842	75.7528	0.001684	44989.3	3.761047	172.902	301.021	1.258025	0.072055	0.071739	302.275	44989.3	0.067016	0.152160	1986.56	105374
1107	2.000000	1.269318	7.37588e+06	-55489.1	1055.82	-29741.3	0.000000	0.000000	7.285274	380.465	NaN	0.000000	0.001657	0.001727	28.0842	87.8459	0.001850	47486.3	5.280195	171.414	380.41	1.268915	0.083032	0.082629	380.465	47486.3	0.077023	0.193825	1962.93	98545.4
1107	2.000000	1.280260	7.37588e+06	-55489.1	1055.82	-29741.3	0.000000	0.000000	7.299821	468.131	NaN	0.000000	0.001581	0.001746	28.0845	96.576	0.001800	53653.2	3.341645	171.937	464.262	1.279940	0.093974	0.093654	468.131	53653.2	0.087430	0.242129	1933.39	99619.8
1107	2.000000	1.291309	7.37588e+06	-55489.1	1055.82	-29741.3	0.000000	0.000000	7.315315	576.183	NaN	0.000000	0.001590	0.001732	28.0844	107.972	0.001801	59939.9	5.545534	169.96	574.003	1.290906	0.105023	0.104620	576.183	59939.9	0.097813	0.295295	1951.21	100777