File: remote_trans/data/nanoindenter/0828-1/data/Data_2025-08-06,11h17m57s/2025-07-22_16-23-58_1_1117.txt
2025-07-22, 16:23:58, 1
Index	Phase	Displacement	Time	Pos X	Pos Y	Pos Z	Rot A	Rot B	Piezo Z	Force A	Force B	Gripper	Voltage A	Voltage B	Temperature	Amplitude force	Amplitude pos	Stiffness	Phase shift	Phase excitation	Force A raw	Displacement raw	HMax	HMax raw	Real Force	Real Stiffness	Contact Depth	Area	Hardness	Reduced Mod.
[#]	[#]	[um]	[s]	[um]	[um]	[um]	[m°]	[m°]	[um]	[uN]	[uN]	[V]	[V]	[V]	[°C]	[uN]	[um]	[N/m]	[°]	[°]	[uN]	[um]	[um]	[um]	[uN]	[N/m]	[um]	[um^2]	[MPa]	[MPa]
1117	1.000000	0.002797	7.37598e+06	-55989.1	1055.82	-29740.1	0.000000	0.000000	6.002799	-0.003192	NaN	0.000000	0.001575	0.001810	28.082	0.011963	0.000967	12.376	-169.715	-163.428	0.042506	0.001556	-1.129036	-1.130277	-0.003192	12.376	-1.128843	-1.222076E+15	2.611632E-18	NaN
1117	1.000000	0.044744	7.37598e+06	-55989.1	1055.82	-29740.1	0.000000	0.000000	6.044745	-0.036567	NaN	0.000000	0.001535	0.001727	28.082	0.078870	0.002089	37.7636	119.459	17.7494	-0.043648	0.043387	-1.087089	-1.088446	-0.036567	37.7636	-1.086363	-3.288271E+14	1.112055E-16	NaN
1117	1.000000	0.086803	7.37598e+06	-55989.1	1055.82	-29740.1	0.000000	0.000000	6.086808	0.059056	NaN	0.000000	0.001531	0.001812	28.083	0.098959	0.002027	48.8296	-50.3372	-162.953	-0.002711	0.085492	-1.045030	-1.046341	0.059056	48.8296	-1.045937	-9.414460E+13	-6.272935E-16	NaN
1117	1.000000	0.128770	7.37598e+06	-55989.1	1055.82	-29740.1	0.000000	0.000000	6.128774	0.037813	NaN	0.000000	0.001541	0.001770	28.083	0.059169	0.002089	28.3232	-142.405	17.3311	0.021754	0.127442	-1.003062	-1.004390	0.037813	28.3232	-1.004064	-2.573211E+13	-1.469476E-15	NaN
1117	1.000000	0.170787	7.37598e+06	-55989.1	1055.82	-29740.1	0.000000	0.000000	6.170790	0.005111	NaN	0.000000	0.001580	0.001724	28.0829	0.157295	0.001974	79.6677	108.834	-163.598	-0.014737	0.169469	-0.961046	-0.962364	0.005111	79.6677	-0.961094	-6.786066E+12	-7.531644E-16	NaN
1117	1.000000	0.212805	7.37598e+06	-55989.1	1055.82	-29740.1	0.000000	0.000000	6.212809	0.032871	NaN	0.000000	0.001557	0.001770	28.0814	0.011975	0.002037	5.878062	5.110692	13.7808	0.069714	0.211465	-0.919028	-0.920368	0.032871	5.878062	-0.923222	-2.092674E+12	-1.570760E-14	NaN
1117	1.000000	0.254808	7.37598e+06	-55989.1	1055.82	-29740.1	0.000000	0.000000	6.254811	0.017464	NaN	0.000000	0.001658	0.001716	28.0815	0.055189	0.001902	29.012	-72.5374	-163.797	-0.015416	0.253543	-0.877025	-0.878290	0.017464	29.012	-0.877477	-5.041759E+11	-3.463857E-14	NaN
1117	1.000000	0.296858	7.37598e+06	-55989.1	1055.82	-29740.1	0.000000	0.000000	6.296863	0.060864	NaN	0.000000	0.001565	0.001676	28.0814	0.095848	0.002062	46.4719	17.5759	17.4448	0.041909	0.295520	-0.834975	-0.836312	0.060864	46.4719	-0.835957	-1.382014E+11	-4.403990E-13	NaN
1117	1.000000	0.338865	7.37598e+06	-55989.1	1055.82	-29740.1	0.000000	0.000000	6.338868	0.008272	NaN	0.000000	0.001632	0.001660	28.0826	0.106219	0.002109	50.3736	-30.7394	-162.283	0.024527	0.337581	-0.792968	-0.794252	0.008272	50.3736	-0.793091	-3.622933E+10	-2.283136E-13	NaN
1117	1.000000	0.380884	7.37598e+06	-55989.1	1055.82	-29740.1	0.000000	0.000000	6.380886	0.000181	NaN	0.000000	0.001621	0.001725	28.0827	0.056587	0.001964	28.8108	102.522	16.6402	0.104981	0.379517	-0.750949	-0.752316	0.000181	28.8108	-0.750953	-9.687203E+9	-1.871923E-14	NaN
1117	1.000000	0.422916	7.37598e+06	-55989.1	1055.82	-29740.1	0.000000	0.000000	6.422922	0.066917	NaN	0.000000	0.001598	0.001703	28.0826	0.023765	0.001977	12.0198	141.143	-163.25	0.043082	0.421599	-0.708916	-0.710234	0.066917	12.0198	-0.713092	-2.952831E+9	-2.266196E-11	NaN
1117	1.000000	0.464923	7.37598e+06	-55989.1	1055.82	-29740.1	0.000000	0.000000	6.464925	-0.006508	NaN	0.000000	0.001513	0.001660	28.0818	0.022481	0.002017	11.1479	-124.541	14.7095	0.055209	0.463522	-0.666910	-0.668311	-0.006508	11.1479	-0.666472	-6.809240E+8	9.557646E-12	NaN
1117	1.000000	0.506914	7.37598e+06	-55989.1	1055.82	-29740.1	0.000000	0.000000	6.506918	0.037696	NaN	0.000000	0.001527	0.001688	28.0815	0.059950	0.002090	28.6871	17.423	-165.029	0.074198	0.505641	-0.624918	-0.626191	0.037696	28.6871	-0.625904	-1.891316E+8	-1.993112E-10	NaN
1117	1.000000	0.548928	7.37598e+06	-55989.1	1055.82	-29740.1	0.000000	0.000000	6.548930	0.000360	NaN	0.000000	0.001552	0.001687	28.0816	0.072004	0.002007	35.8841	-128.881	16.1014	0.031324	0.547586	-0.582905	-0.584246	0.000360	35.8841	-0.582913	-4.840841E+7	-7.440253E-12	NaN
1117	1.000000	0.590946	7.37598e+06	-55989.1	1055.82	-29740.1	0.000000	0.000000	6.590949	0.012070	NaN	0.000000	0.001538	0.001712	28.0813	0.049793	0.002066	24.0989	-119.096	-163.138	0.127783	0.589642	-0.540887	-0.542191	0.012070	24.0989	-0.541262	-1.284879E+7	-9.393591E-10	NaN
1117	1.000000	0.633009	7.37598e+06	-55989.1	1055.82	-29740.1	0.000000	0.000000	6.633011	-0.004272	NaN	0.000000	0.001506	0.001726	28.0826	0.083679	0.001951	42.8869	-125.099	14.6738	-0.044764	0.631626	-0.498824	-0.500206	-0.004272	42.8869	-0.498750	-3.29285e+06	1.297370E-9	NaN
1117	1.000000	0.674983	7.37598e+06	-55989.1	1055.82	-29740.1	0.000000	0.000000	6.674989	0.090497	NaN	0.000000	0.001498	0.001667	28.0826	0.029059	0.002112	13.7604	38.289	-167.321	0.010999	0.673673	-0.456850	-0.458160	0.090497	13.7604	-0.461782	-1.00014e+06	-9.048472E-8	NaN
1117	1.000000	0.716998	7.37598e+06	-55989.1	1055.82	-29740.1	0.000000	0.000000	6.717000	-0.024312	NaN	0.000000	0.001598	0.001688	28.0825	0.076225	0.001837	41.498	-96.7872	17.983	0.026173	0.715653	-0.414834	-0.416180	-0.024312	41.498	-0.414395	-214221	1.134918E-7	NaN
1117	1.000000	0.759057	7.37598e+06	-55989.1	1055.82	-29740.1	0.000000	0.000000	6.759061	0.048129	NaN	0.000000	0.001561	0.001690	28.0814	0.026949	0.001923	14.0124	124.887	-166.214	0.011381	0.757719	-0.372776	-0.374114	0.048129	14.0124	-0.375352	-59310.2	-8.114722E-7	NaN
1117	1.000000	0.801048	7.37598e+06	-55989.1	1055.82	-29740.1	0.000000	0.000000	6.801049	-0.015913	NaN	0.000000	0.001623	0.001676	28.0811	0.127293	0.002006	63.4526	50.699	12.2764	0.012309	0.799655	-0.330785	-0.332178	-0.015913	63.4526	-0.330597	-13310.4	1.195535E-6	NaN
1117	1.000000	0.843084	7.37598e+06	-55989.1	1055.82	-29740.1	0.000000	0.000000	6.843089	0.068046	NaN	0.000000	0.001604	0.001718	28.0814	0.087369	0.001985	44.0074	-15.2338	-164.403	0.032590	0.841722	-0.288749	-0.290111	0.068046	44.0074	-0.289909	-3326.09	-2.045835E-5	NaN
1117	1.000000	0.885089	7.37598e+06	-55989.1	1055.82	-29740.1	0.000000	0.000000	6.885094	0.068431	NaN	0.000000	0.001575	0.001687	28.0828	0.045844	0.001941	23.6231	-19.0642	15.5292	0.053587	0.883765	-0.246744	-0.248067	0.068431	23.6231	-0.248916	-791.034	-8.650815E-5	NaN
1117	1.000000	0.927107	7.37598e+06	-55989.1	1055.82	-29740.1	0.000000	0.000000	6.927113	0.073358	NaN	0.000000	0.001597	0.001707	28.0828	0.034768	0.001950	17.8255	110.99	-168.603	0.066599	0.925797	-0.204726	-0.206035	0.073358	17.8255	-0.207812	-176.739	-0.000415	NaN
1117	1.000000	0.969104	7.37598e+06	-55989.1	1055.82	-29740.1	0.000000	0.000000	6.969109	0.054875	NaN	0.000000	0.001546	0.001680	28.083	0.090076	0.001813	49.6845	-4.912073	11.8692	0.129633	0.967716	-0.162728	-0.164117	0.054875	49.6845	-0.163557	-31.6898	-0.001732	NaN
1117	1.000000	1.011128	7.37598e+06	-55989.1	1055.82	-29740.1	0.000000	0.000000	7.011132	0.037524	NaN	0.000000	0.001596	0.001638	28.0822	0.101578	0.001912	53.1216	119.166	-164.48	-0.001896	1.009797	-0.120704	-0.122036	0.037524	53.1216	-0.121234	-5.115989	-0.007335	NaN
1117	1.000000	1.053138	7.37598e+06	-55989.1	1055.82	-29740.1	0.000000	0.000000	7.053141	0.018240	NaN	0.000000	0.001593	0.001680	28.0816	0.010229	0.002060	4.965224	-117.279	9.466652	0.027732	1.051750	-0.078695	-0.080083	0.018240	4.965224	-0.081450	-0.672618	-0.027118	NaN
1117	1.000000	1.095155	7.37598e+06	-55989.1	1055.82	-29740.1	0.000000	0.000000	7.095159	0.027232	NaN	0.000000	0.001651	0.001681	28.0817	0.146887	0.002051	71.6114	-120.28	-166.395	0.042208	1.093839	-0.036677	-0.037993	0.027232	71.6114	-0.036963	-0.036622	-0.743591	NaN
1117	1.000000	1.137137	7.37598e+06	-55989.1	1055.82	-29740.1	0.000000	0.000000	7.137453	7.621458	NaN	0.000000	0.001713	0.001715	28.0817	7.546369	0.001683	4484.05	11.2809	7.749100	5.309641	1.135832	0.005304	0.003999	7.621458	4484.05	0.004030	0.003265	2334.29	71697.2
1117	2.000000	1.148693	7.37598e+06	-55989.1	1055.82	-29740.1	0.000000	0.000000	7.149792	26.6743	NaN	0.000000	0.001623	0.001688	28.083	19.7062	0.001779	11076.8	7.785591	-179.514	26.1082	1.148319	0.016860	0.016486	26.6743	11076.8	0.015054	0.015357	1736.93	81664.2
1117	2.000000	1.159078	7.37598e+06	-55989.1	1055.82	-29740.1	0.000000	0.000000	7.161346	55.0663	NaN	0.000000	0.001637	0.001675	28.0828	30.4078	0.001754	17335.8	2.693315	1.456256	52.0835	1.158704	0.027246	0.026872	55.0663	17335.8	0.024863	0.030767	1789.77	90296.8
1117	2.000000	1.169640	7.37598e+06	-55989.1	1055.82	-29740.1	0.000000	0.000000	7.173317	89.3316	NaN	0.000000	0.001659	0.001682	28.0825	40.072	0.001812	22112.6	4.256964	178.137	90.0308	1.169294	0.037807	0.037461	89.3316	22112.6	0.034777	0.051228	1743.79	89260
1117	2.000000	1.180126	7.37598e+06	-55989.1	1055.82	-29740.1	0.000000	0.000000	7.185382	127.7	NaN	0.000000	0.001675	0.001744	28.0814	50.1398	0.001872	26786.1	6.583110	-6.771441	126.676	1.179864	0.048293	0.048031	127.7	26786.1	0.044717	0.076787	1663.04	88315.6
1117	2.000000	1.190613	7.37598e+06	-55989.1	1055.82	-29740.1	0.000000	0.000000	7.197758	173.603	NaN	0.000000	0.001618	0.001771	28.0815	59.612	0.001824	32685.8	3.778525	174.782	172.879	1.190281	0.058781	0.058448	173.603	32685.8	0.054797	0.107815	1610.19	90947.7
1117	2.000000	1.201036	7.37598e+06	-55989.1	1055.82	-29740.1	0.000000	0.000000	7.210681	234.373	NaN	0.000000	0.001656	0.001769	28.0814	68.8124	0.001786	38522.8	2.168006	-4.978954	230.698	1.200704	0.069203	0.068871	234.373	38522.8	0.064640	0.142972	1639.29	93082
1117	2.000000	1.211506	7.37598e+06	-55989.1	1055.82	-29740.1	0.000000	0.000000	7.223654	295.228	NaN	0.000000	0.001717	0.001788	28.0826	79.3217	0.001797	44138.1	5.067207	171.485	290.684	1.211119	0.079673	0.079286	295.228	44138.1	0.074657	0.183545	1608.48	94127.3
1117	2.000000	1.222086	7.37598e+06	-55989.1	1055.82	-29740.1	0.000000	0.000000	7.236921	360.564	NaN	0.000000	0.001626	0.001745	28.0828	88.0147	0.001813	48546.3	1.923892	-5.988797	359.618	1.221745	0.090253	0.089912	360.564	48546.3	0.084682	0.228889	1575.28	92708.1
1117	2.000000	1.232598	7.37598e+06	-55989.1	1055.82	-29740.1	0.000000	0.000000	7.250482	434.644	NaN	0.000000	0.001620	0.001742	28.0826	99.0456	0.001824	54288.5	11.2244	163.61	439.092	1.232238	0.100765	0.100405	434.644	54288.5	0.094761	0.279154	1557	93877
1117	2.000000	1.236959	7.37598e+06	-55989.1	1055.82	-29740.1	0.000000	0.000000	7.256292	469.867	NaN	0.000000	0.001638	0.001744	28.0828	100.501	0.001831	54894.5	1.997503	-7.160219	460.857	1.236638	0.105126	0.104805	469.867	54894.5	0.098707	0.300100	1565.7	91552.1