File: remote_trans/data/nanoindenter/0828-1/data/Data_2025-08-06,11h17m57s/2025-07-22_16-23-58_1_1004.txt
2025-07-22, 16:23:58, 1
Index	Phase	Displacement	Time	Pos X	Pos Y	Pos Z	Rot A	Rot B	Piezo Z	Force A	Force B	Gripper	Voltage A	Voltage B	Temperature	Amplitude force	Amplitude pos	Stiffness	Phase shift	Phase excitation	Force A raw	Displacement raw	HMax	HMax raw	Real Force	Real Stiffness	Contact Depth	Area	Hardness	Reduced Mod.
[#]	[#]	[um]	[s]	[um]	[um]	[um]	[m°]	[m°]	[um]	[uN]	[uN]	[V]	[V]	[V]	[°C]	[uN]	[um]	[N/m]	[°]	[°]	[uN]	[um]	[um]	[um]	[uN]	[N/m]	[um]	[um^2]	[MPa]	[MPa]
1004	1.000000	0.002487	7.37487e+06	-50339.1	1055.82	-29756	0.000000	0.000000	6.002810	-0.060480	NaN	0.000000	0.001509	0.001741	28.0845	0.104148	0.001124	92.6338	151.649	-164.702	-0.102786	0.001237	-1.055522	-1.056772	-0.060480	92.6338	-1.055032	-1.247547E+14	4.847892E-16	NaN
1004	1.000000	0.042413	7.37487e+06	-50339.1	1055.82	-29756	0.000000	0.000000	6.042735	-0.084892	NaN	0.000000	0.001609	0.001749	28.0849	0.054932	0.002060	26.6648	15.8996	-167.643	-0.074179	0.041137	-1.015596	-1.016872	-0.084892	26.6648	-1.013209	-3.416370E+13	2.484854E-15	NaN
1004	1.000000	0.082414	7.37487e+06	-50339.1	1055.82	-29756	0.000000	0.000000	6.082738	-0.045360	NaN	0.000000	0.001551	0.001777	28.0845	0.064019	0.001989	32.1913	162.341	-164.988	-0.047598	0.081154	-0.975595	-0.976855	-0.045360	32.1913	-0.974538	-1.029968E+13	4.404010E-15	NaN
1004	1.000000	0.122436	7.37487e+06	-50339.1	1055.82	-29756	0.000000	0.000000	6.122762	0.003091	NaN	0.000000	0.001538	0.001756	28.0836	0.057707	0.002001	28.8435	-54.5427	-163.453	0.059359	0.121138	-0.935573	-0.936871	0.003091	28.8435	-0.935654	-3.079600E+12	-1.003647E-15	NaN
1004	1.000000	0.162477	7.37487e+06	-50339.1	1055.82	-29756	0.000000	0.000000	6.162801	-0.035617	NaN	0.000000	0.001587	0.001792	28.083	0.046849	0.002039	22.9754	-41.9702	-166.444	-0.024087	0.161126	-0.895532	-0.896883	-0.035617	22.9754	-0.894369	-8.530509E+11	4.175205E-14	NaN
1004	1.000000	0.202496	7.37487e+06	-50339.1	1055.82	-29756	0.000000	0.000000	6.202820	-0.058678	NaN	0.000000	0.001551	0.001803	28.083	0.157720	0.001920	82.1577	-81.6024	-167.302	-0.010418	0.201199	-0.855513	-0.856810	-0.058678	82.1577	-0.854977	-2.501065E+11	2.346110E-13	NaN
1004	1.000000	0.242488	7.37487e+06	-50339.1	1055.82	-29756	0.000000	0.000000	6.242811	-0.064951	NaN	0.000000	0.001534	0.001841	28.0832	0.066465	0.001993	33.3491	160.63	-161.171	-0.020478	0.241183	-0.815522	-0.816827	-0.064951	33.3491	-0.814061	-6.976868E+10	9.309420E-13	NaN
1004	1.000000	0.282525	7.37487e+06	-50339.1	1055.82	-29756	0.000000	0.000000	6.282847	-0.079746	NaN	0.000000	0.001582	0.001756	28.0847	0.009694	0.002081	4.658352	-172.345	-168.655	-0.020124	0.281177	-0.775484	-0.776832	-0.079746	4.658352	-0.762645	-1.397280E+10	5.707210E-12	NaN
1004	1.000000	0.322553	7.37487e+06	-50339.1	1055.82	-29756	0.000000	0.000000	6.322878	-0.016523	NaN	0.000000	0.001609	0.001746	28.0848	0.028864	0.002037	14.1682	-39.6907	-166.86	-0.103404	0.321238	-0.735456	-0.736771	-0.016523	14.1682	-0.734581	-5.797484E+9	2.850058E-12	NaN
1004	1.000000	0.362537	7.37487e+06	-50339.1	1055.82	-29756	0.000000	0.000000	6.362861	-0.021339	NaN	0.000000	0.001573	0.001754	28.085	0.036942	0.001894	19.5054	-154.61	-164.158	-0.035670	0.361238	-0.695473	-0.696771	-0.021339	19.5054	-0.694652	-1.653801E+9	1.290311E-11	NaN
1004	1.000000	0.402551	7.37487e+06	-50339.1	1055.82	-29756	0.000000	0.000000	6.402876	-0.010589	NaN	0.000000	0.001579	0.001782	28.0838	0.034341	0.001878	18.2894	-8.946274	-167.838	-0.007720	0.401259	-0.655458	-0.656750	-0.010589	18.2894	-0.655024	-4.745686E+8	2.231314E-11	NaN
1004	1.000000	0.442607	7.37487e+06	-50339.1	1055.82	-29756	0.000000	0.000000	6.442928	-0.121016	NaN	0.000000	0.001674	0.001749	28.0835	0.033813	0.001958	17.2733	119.692	-168.985	-0.125632	0.441286	-0.615402	-0.616723	-0.121016	17.2733	-0.610148	-1.148542E+8	1.053645E-9	NaN
1004	1.000000	0.482575	7.37487e+06	-50339.1	1055.82	-29756	0.000000	0.000000	6.482899	-0.042781	NaN	0.000000	0.001657	0.001769	28.0834	0.085327	0.002029	42.0497	-29.8143	-169.981	0.042197	0.481299	-0.575434	-0.576710	-0.042781	42.0497	-0.574671	-3.725262E+7	1.148394E-9	NaN
1004	1.000000	0.522666	7.37487e+06	-50339.1	1055.82	-29756	0.000000	0.000000	6.522989	-0.053274	NaN	0.000000	0.001618	0.001790	28.0836	0.029881	0.001972	15.1502	-0.191968	-165.392	-0.032530	0.521325	-0.535343	-0.536684	-0.053274	15.1502	-0.532706	-9.77575e+06	5.449555E-9	NaN
1004	1.000000	0.562644	7.37487e+06	-50339.1	1055.82	-29756	0.000000	0.000000	6.562969	-0.005327	NaN	0.000000	0.001631	0.001758	28.0847	0.040830	0.002014	20.2714	174.286	-164.453	-0.034265	0.561322	-0.495365	-0.496687	-0.005327	20.2714	-0.495168	-2.93485e+06	1.815006E-9	NaN
1004	1.000000	0.602646	7.37487e+06	-50339.1	1055.82	-29756	0.000000	0.000000	6.602971	-0.011303	NaN	0.000000	0.001632	0.001734	28.0846	0.084661	0.001997	42.3945	69.7051	-163.903	-0.011710	0.601314	-0.455363	-0.456695	-0.011303	42.3945	-0.455163	-807266	1.400108E-8	NaN
1004	1.000000	0.642665	7.37487e+06	-50339.1	1055.82	-29756	0.000000	0.000000	6.642989	-0.062687	NaN	0.000000	0.001666	0.001703	28.0848	0.080488	0.001962	41.0174	-72.3802	-166.437	-0.010713	0.641362	-0.415344	-0.416647	-0.062687	41.0174	-0.414197	-212842	2.945255E-7	NaN
1004	1.000000	0.682696	7.37487e+06	-50339.1	1055.82	-29756	0.000000	0.000000	6.683021	-0.019036	NaN	0.000000	0.001677	0.001783	28.0838	0.092439	0.002023	45.6855	5.142860	-165.731	0.051416	0.681293	-0.375313	-0.376716	-0.019036	45.6855	-0.375000	-58624.3	3.247147E-7	NaN
1004	1.000000	0.722718	7.37487e+06	-50339.1	1055.82	-29756	0.000000	0.000000	6.723041	-0.055672	NaN	0.000000	0.001707	0.001786	28.0837	0.087197	0.002032	42.9221	-49.8799	-164.97	-0.095288	0.721442	-0.335291	-0.336567	-0.055672	42.9221	-0.334318	-15087.9	3.689883E-6	NaN
1004	1.000000	0.762735	7.37487e+06	-50339.1	1055.82	-29756	0.000000	0.000000	6.763059	-0.028586	NaN	0.000000	0.001632	0.001782	28.0836	0.069201	0.001900	36.4169	-92.2875	-165.962	-0.121237	0.761408	-0.295274	-0.296601	-0.028586	36.4169	-0.294686	-3920.98	7.290625E-6	NaN
1004	1.000000	0.802762	7.37487e+06	-50339.1	1055.82	-29756	0.000000	0.000000	6.803085	-0.082497	NaN	0.000000	0.001580	0.001759	28.0834	0.026135	0.001918	13.6291	15.4004	-168.577	-0.037625	0.801444	-0.255247	-0.256565	-0.082497	13.6291	-0.250707	-843.135	9.784516E-5	NaN
1004	1.000000	0.842747	7.37487e+06	-50339.1	1055.82	-29756	0.000000	0.000000	6.843071	-0.047212	NaN	0.000000	0.001599	0.001789	28.0844	0.126266	0.001937	65.1929	55.3416	-163.172	-0.096684	0.841482	-0.215262	-0.216527	-0.047212	65.1929	-0.214719	-228.553	0.000207	NaN
1004	1.000000	0.882778	7.37487e+06	-50339.1	1055.82	-29756	0.000000	0.000000	6.883100	-0.082261	NaN	0.000000	0.001541	0.001701	28.0846	0.078948	0.002017	39.1401	78.1955	-166.784	-0.078073	0.881510	-0.175231	-0.176499	-0.082261	39.1401	-0.173655	-47.5154	0.001731	NaN
1004	1.000000	0.922784	7.37487e+06	-50339.1	1055.82	-29756	0.000000	0.000000	6.923108	-0.049448	NaN	0.000000	0.001578	0.001741	28.0847	0.063445	0.001994	31.8199	122.399	-166.053	-0.120486	0.921491	-0.135225	-0.136518	-0.049448	31.8199	-0.134059	-9.126503	0.005418	NaN
1004	1.000000	0.962810	7.37487e+06	-50339.1	1055.82	-29756	0.000000	0.000000	6.963136	-0.008230	NaN	0.000000	0.001596	0.001747	28.0835	0.088276	0.001974	44.7244	65.1365	-164.83	0.003503	0.961490	-0.095199	-0.096519	-0.008230	44.7244	-0.095061	-1.415151	0.005816	NaN
1004	1.000000	1.002821	7.37487e+06	-50339.1	1055.82	-29756	0.000000	0.000000	7.003144	-0.083354	NaN	0.000000	0.001593	0.001746	28.0834	0.097704	0.002014	48.5164	178.842	-163.692	-0.047332	1.001530	-0.055188	-0.056480	-0.083354	48.5164	-0.053899	-0.119456	0.697781	NaN
1004	1.000000	1.042845	7.37487e+06	-50339.1	1055.82	-29756	0.000000	0.000000	7.043168	-0.071078	NaN	0.000000	0.001518	0.001733	28.0837	0.115131	0.001977	58.2348	121.357	-160.672	-0.042310	1.041522	-0.015164	-0.016487	-0.071078	58.2348	-0.014249	-0.008829	8.050258	NaN
1004	2.000000	1.068309	7.37487e+06	-50339.1	1055.82	-29756	0.000000	0.000000	7.069281	15.7046	NaN	0.000000	0.001525	0.001742	28.0848	14.7187	0.001857	7926.57	8.701208	-175.281	14.1314	1.068027	0.010300	0.010018	15.7046	7926.57	0.008814	0.007893	1989.61	81513.3
1004	2.000000	1.078322	7.37487e+06	-50339.1	1055.82	-29756	0.000000	0.000000	7.080140	36.2855	NaN	0.000000	0.001508	0.001723	28.0857	25.2243	0.001699	14842.5	2.010326	-174.928	36.656	1.078021	0.020313	0.020012	36.2855	14842.5	0.018479	0.020209	1795.52	95391.7
1004	2.000000	1.088257	7.37488e+06	-50339.1	1055.82	-29756	0.000000	0.000000	7.091369	67.7566	NaN	0.000000	0.001545	0.001738	28.0844	36.0656	0.001837	19631.4	7.064543	178.063	66.6438	1.087983	0.030248	0.029974	67.7566	19631.4	0.027659	0.036032	1880.47	94489
1004	2.000000	1.098270	7.37488e+06	-50339.1	1055.82	-29756	0.000000	0.000000	7.102839	103.189	NaN	0.000000	0.001618	0.001736	28.0853	45.017	0.001812	24850.1	4.003751	177.883	100.973	1.097957	0.040261	0.039948	103.189	24850.1	0.037146	0.056862	1814.74	95212
1004	2.000000	1.108223	7.37488e+06	-50339.1	1055.82	-29756	0.000000	0.000000	7.114606	147.304	NaN	0.000000	0.001590	0.001751	28.0835	55.3723	0.001808	30632.3	1.777173	179.739	144.405	1.107934	0.050214	0.049925	147.304	30632.3	0.046607	0.082216	1791.66	97605.4
1004	2.000000	1.118240	7.37488e+06	-50339.1	1055.82	-29756	0.000000	0.000000	7.126893	202.524	NaN	0.000000	0.001528	0.001764	28.0832	65.4731	0.001797	36431.7	3.213149	176.224	202.13	1.117962	0.060231	0.059953	202.524	36431.7	0.056061	0.112065	1807.2	99430.1
1004	2.000000	1.128171	7.37488e+06	-50339.1	1055.82	-29756	0.000000	0.000000	7.139093	257.678	NaN	0.000000	0.001570	0.001736	28.0832	75.2112	0.001891	39773.3	4.498587	174.842	257.023	1.127931	0.070162	0.069922	257.678	39773.3	0.065303	0.145508	1770.89	95262.2
1004	2.000000	1.138177	7.37488e+06	-50339.1	1055.82	-29756	0.000000	0.000000	7.151664	320.056	NaN	0.000000	0.001586	0.001708	28.0843	85.743	0.001857	46167	5.387142	171.908	316.78	1.137980	0.080168	0.079971	320.056	46167	0.074969	0.184886	1731.1	98096.5
1004	2.000000	1.148193	7.37488e+06	-50339.1	1055.82	-29756	0.000000	0.000000	7.164519	389.087	NaN	0.000000	0.001641	0.001772	28.0843	95.0876	0.001786	53228.4	6.040097	170.285	388.128	1.147972	0.090184	0.089963	389.087	53228.4	0.084702	0.228982	1699.21	101629
1004	2.000000	1.158095	7.37488e+06	-50339.1	1055.82	-29756	0.000000	0.000000	7.178028	476.824	NaN	0.000000	0.001639	0.001721	28.0845	102.392	0.001931	53035.1	7.275112	169.93	470.375	1.157832	0.100085	0.099823	476.824	53035.1	0.093342	0.271799	1754.33	92942.2
1004	2.000000	1.162138	7.37488e+06	-50339.1	1055.82	-29756	0.000000	0.000000	7.183556	512.931	NaN	0.000000	0.001666	0.001736	28.0845	104.26	0.001736	60050	2.851103	173.36	510.223	1.161781	0.104128	0.103772	512.931	60050	0.097722	0.294808	1739.89	101046