File: remote_trans/data/nanoindenter/0828-1/data/Data_2025-08-06,11h17m57s/2025-07-22_16-23-58_1_474.txt
2025-07-22, 16:23:58, 1
Index	Phase	Displacement	Time	Pos X	Pos Y	Pos Z	Rot A	Rot B	Piezo Z	Force A	Force B	Gripper	Voltage A	Voltage B	Temperature	Amplitude force	Amplitude pos	Stiffness	Phase shift	Phase excitation	Force A raw	Displacement raw	HMax	HMax raw	Real Force	Real Stiffness	Contact Depth	Area	Hardness	Reduced Mod.
[#]	[#]	[um]	[s]	[um]	[um]	[um]	[m°]	[m°]	[um]	[uN]	[uN]	[V]	[V]	[V]	[°C]	[uN]	[um]	[N/m]	[°]	[°]	[uN]	[um]	[um]	[um]	[uN]	[N/m]	[um]	[um^2]	[MPa]	[MPa]
474	1.000000	0.002372	7.36969e+06	-53389.1	1005.82	-29746.6	0.000000	0.000000	6.002819	-0.052579	NaN	0.000000	0.001543	0.001710	28.082	0.147068	0.000948	155.065	-115.907	-167.41	0.003813	0.001125	-0.950962	-0.952209	-0.052579	155.065	-0.950707	-4.915489E+12	1.069666E-14	NaN
474	1.000000	0.040298	7.36969e+06	-53389.1	1005.82	-29746.6	0.000000	0.000000	6.040745	-0.020151	NaN	0.000000	0.001522	0.001688	28.0822	0.034831	0.001957	17.7978	12.2494	16.8121	-0.090545	0.038937	-0.913036	-0.914396	-0.020151	17.7978	-0.912187	-1.484907E+12	1.357021E-14	NaN
474	1.000000	0.078324	7.36969e+06	-53389.1	1005.82	-29746.6	0.000000	0.000000	6.078773	0.008666	NaN	0.000000	0.001488	0.001711	28.0807	0.062516	0.001968	31.7672	52.9105	-162.392	-0.044353	0.077019	-0.875010	-0.876315	0.008666	31.7672	-0.875214	-4.698724E+11	-1.844319E-14	NaN
474	1.000000	0.116330	7.36969e+06	-53389.1	1005.82	-29746.6	0.000000	0.000000	6.116780	0.027871	NaN	0.000000	0.001488	0.001693	28.0806	0.059310	0.002028	29.2502	26.6338	14.5886	-0.010635	0.114946	-0.837003	-0.838388	0.027871	29.2502	-0.837718	-1.460078E+11	-1.908840E-13	NaN
474	1.000000	0.154331	7.36969e+06	-53389.1	1005.82	-29746.6	0.000000	0.000000	6.154780	0.005899	NaN	0.000000	0.001541	0.001748	28.0806	0.043648	0.001957	22.3075	-69.0031	-164.154	0.026963	0.153041	-0.799003	-0.800293	0.005899	22.3075	-0.799201	-4.385484E+10	-1.345185E-13	NaN
474	1.000000	0.192369	7.36969e+06	-53389.1	1005.82	-29746.6	0.000000	0.000000	6.192817	-0.014532	NaN	0.000000	0.001533	0.001713	28.0805	0.109923	0.001942	56.5934	-123.125	14.5282	-0.087825	0.190988	-0.760965	-0.762346	-0.014532	56.5934	-0.760772	-1.317664E+10	1.102866E-12	NaN
474	1.000000	0.230365	7.36969e+06	-53389.1	1005.82	-29746.6	0.000000	0.000000	6.230810	-0.074159	NaN	0.000000	0.001532	0.001740	28.0816	0.093940	0.002088	44.9799	6.142681	-162.651	-0.032727	0.229092	-0.722969	-0.724241	-0.074159	44.9799	-0.721732	-3.873440E+9	1.914540E-11	NaN
474	1.000000	0.268377	7.36969e+06	-53389.1	1005.82	-29746.6	0.000000	0.000000	6.268827	0.017278	NaN	0.000000	0.001578	0.001701	28.0817	0.095126	0.002004	47.4734	-124.674	18.1481	-0.058672	0.267040	-0.684956	-0.686293	0.017278	47.4734	-0.685229	-1.229446E+9	-1.405324E-11	NaN
474	1.000000	0.306395	7.36969e+06	-53389.1	1005.82	-29746.6	0.000000	0.000000	6.306840	-0.066290	NaN	0.000000	0.001589	0.001698	28.0819	0.036408	0.001967	18.5122	72.133	-168.901	-0.137810	0.305117	-0.646939	-0.648216	-0.066290	18.5122	-0.644254	-3.377845E+8	1.962480E-10	NaN
474	1.000000	0.344431	7.36969e+06	-53389.1	1005.82	-29746.6	0.000000	0.000000	6.344880	0.005054	NaN	0.000000	0.001513	0.001713	28.0805	0.084587	0.002141	39.5021	-152.345	12.2835	0.037894	0.343008	-0.608903	-0.610326	0.005054	39.5021	-0.608999	-1.107491E+8	-4.563242E-11	NaN
474	1.000000	0.382421	7.36969e+06	-53389.1	1005.82	-29746.6	0.000000	0.000000	6.382864	-0.118110	NaN	0.000000	0.001543	0.001754	28.0805	0.032311	0.001935	16.7023	-1.898245	-164.766	-0.057608	0.381114	-0.570913	-0.572220	-0.118110	16.7023	-0.565609	-2.792232E+7	4.229952E-9	NaN
474	1.000000	0.420482	7.36969e+06	-53389.1	1005.82	-29746.6	0.000000	0.000000	6.420926	-0.103909	NaN	0.000000	0.001518	0.001733	28.0804	0.033504	0.002125	15.7659	-71.6141	16.7647	-0.053078	0.419120	-0.532852	-0.534214	-0.103909	15.7659	-0.527909	-8.38553e+06	1.239147E-8	NaN
474	1.000000	0.458465	7.36969e+06	-53389.1	1005.82	-29746.6	0.000000	0.000000	6.458913	-0.013567	NaN	0.000000	0.001558	0.001720	28.0808	0.149464	0.001948	76.7123	-79.7744	-163.827	0.019920	0.457201	-0.494869	-0.496133	-0.013567	76.7123	-0.494736	-2.89435e+06	4.687260E-9	NaN
474	1.000000	0.496475	7.36969e+06	-53389.1	1005.82	-29746.6	0.000000	0.000000	6.496924	0.015513	NaN	0.000000	0.001589	0.001735	28.082	0.066634	0.001918	34.7378	-153.825	15.3827	0.067752	0.495148	-0.456859	-0.458186	0.015513	34.7378	-0.457194	-862127	-1.799415E-8	NaN
474	1.000000	0.534534	7.36969e+06	-53389.1	1005.82	-29746.6	0.000000	0.000000	6.534978	-0.115309	NaN	0.000000	0.001559	0.001762	28.0817	0.070236	0.002078	33.7991	179.445	-160.272	-0.097210	0.533193	-0.418800	-0.420141	-0.115309	33.7991	-0.416241	-227551	5.067403E-7	NaN
474	1.000000	0.572529	7.36969e+06	-53389.1	1005.82	-29746.6	0.000000	0.000000	6.572975	-0.064537	NaN	0.000000	0.001594	0.001796	28.0819	0.010446	0.001979	5.279477	-22.785	13.6729	-0.092915	0.571217	-0.380805	-0.382117	-0.064537	5.279477	-0.371637	-52444	1.230586E-6	NaN
474	1.000000	0.610539	7.36969e+06	-53389.1	1005.82	-29746.6	0.000000	0.000000	6.610985	-0.050375	NaN	0.000000	0.001631	0.001779	28.0808	0.076905	0.002082	36.9461	-144.444	-166.163	-0.040295	0.609214	-0.342795	-0.344120	-0.050375	36.9461	-0.341772	-19381.1	2.599195E-6	NaN
474	1.000000	0.648540	7.36969e+06	-53389.1	1005.82	-29746.6	0.000000	0.000000	6.648988	-0.034008	NaN	0.000000	0.001620	0.001807	28.0805	0.041223	0.001944	21.2066	-40.5878	13.3259	-0.055657	0.647219	-0.304793	-0.306115	-0.034008	21.2066	-0.303591	-5321.44	6.390784E-6	NaN
474	1.000000	0.686557	7.36969e+06	-53389.1	1005.82	-29746.6	0.000000	0.000000	6.687005	0.001690	NaN	0.000000	0.001624	0.001790	28.0803	0.086083	0.002075	41.4767	-168.05	-163.853	-0.023179	0.685270	-0.266777	-0.268064	0.001690	41.4767	-0.266808	-1489.21	-1.134902E-6	NaN
474	1.000000	0.724579	7.36969e+06	-53389.1	1005.82	-29746.6	0.000000	0.000000	6.725028	-1.569715E-5	NaN	0.000000	0.001526	0.001753	28.0805	0.043536	0.002101	20.7222	-64.2212	17.2566	-0.002697	0.723184	-0.228754	-0.230150	-1.569715E-5	20.7222	-0.228754	-382.672	4.101987E-8	NaN
474	1.000000	0.762616	7.36969e+06	-53389.1	1005.82	-29746.6	0.000000	0.000000	6.763063	-0.018455	NaN	0.000000	0.001549	0.001744	28.082	0.040900	0.001867	21.9038	-78.3855	-169.859	-0.073029	0.761299	-0.190718	-0.192035	-0.018455	21.9038	-0.190086	-90.2545	0.000204	NaN
474	1.000000	0.800612	7.36969e+06	-53389.1	1005.82	-29746.6	0.000000	0.000000	6.801058	-0.057372	NaN	0.000000	0.001519	0.001734	28.0819	0.070841	0.002113	33.5312	151.062	14.7215	0.001619	0.799260	-0.152722	-0.154074	-0.057372	33.5312	-0.151439	-19.2393	0.002982	NaN
474	1.000000	0.838649	7.3697e+06	-53389.1	1005.82	-29746.6	0.000000	0.000000	6.839097	-0.013132	NaN	0.000000	0.001550	0.001744	28.0816	0.075429	0.002060	36.607	149.482	-164.102	0.035407	0.837367	-0.114685	-0.115967	-0.013132	36.607	-0.114416	-3.715761	0.003534	NaN
474	1.000000	0.876648	7.3697e+06	-53389.1	1005.82	-29746.6	0.000000	0.000000	6.877097	0.012910	NaN	0.000000	0.001640	0.001810	28.0817	0.059339	0.002001	29.6578	-173.799	10.1368	-0.008487	0.875241	-0.076686	-0.078093	0.012910	29.6578	-0.077012	-0.520255	-0.024814	NaN
474	1.000000	0.914696	7.3697e+06	-53389.1	1005.82	-29746.6	0.000000	0.000000	6.915141	-0.091571	NaN	0.000000	0.001615	0.001768	28.0806	0.109597	0.002010	54.5391	171.769	-166.457	-0.038824	0.913341	-0.038638	-0.039992	-0.091571	54.5391	-0.037378	-0.037687	2.429752	NaN
474	1.000000	0.952615	7.3697e+06	-53389.1	1005.82	-29746.6	0.000000	0.000000	6.953204	3.436647	NaN	0.000000	0.001552	0.001792	28.0804	4.572899	0.001782	2565.94	8.069163	11.9625	1.983288	0.951291	-0.000719	-0.002043	3.436647	2565.94	-0.001724	-0.001247	-2756.3	NaN
474	2.000000	0.966216	7.3697e+06	-53389.1	1005.82	-29746.6	0.000000	0.000000	6.967619	23.2066	NaN	0.000000	0.001583	0.001795	28.0807	20.1445	0.001768	11391.2	6.291892	-178.498	22.1814	0.965911	0.012882	0.012577	23.2066	11391.2	0.011354	0.010726	2163.67	100492
474	2.000000	0.975693	7.3697e+06	-53389.1	1005.82	-29746.6	0.000000	0.000000	6.978002	45.2332	NaN	0.000000	0.001602	0.001807	28.0817	30.1278	0.001836	16406.5	2.426676	2.905946	44.2563	0.975315	0.022359	0.021981	45.2332	16406.5	0.020292	0.023002	1966.45	98833.2
474	2.000000	0.985206	7.3697e+06	-53389.1	1005.82	-29746.6	0.000000	0.000000	6.988222	62.4168	NaN	0.000000	0.001595	0.001764	28.0819	37.459	0.001764	21235.4	8.695864	175.07	62.7714	0.984879	0.031872	0.031545	62.4168	21235.4	0.029668	0.040058	1558.17	96937.1
474	2.000000	0.994618	7.3697e+06	-53389.1	1005.82	-29746.6	0.000000	0.000000	6.998920	93.692	NaN	0.000000	0.001573	0.001800	28.0817	44.0471	0.001677	26268.8	6.788523	-5.434654	90.1419	0.994289	0.041284	0.040955	93.692	26268.8	0.038609	0.060483	1549.07	97588.4
474	2.000000	1.004166	7.3697e+06	-53389.1	1005.82	-29746.6	0.000000	0.000000	7.009412	116.625	NaN	0.000000	0.001593	0.001754	28.0817	52.624	0.001782	29536	3.988189	176.778	117.188	1.003811	0.050833	0.050478	116.625	29536	0.047871	0.085947	1356.94	92047.3
474	2.000000	1.013552	7.3697e+06	-53389.1	1005.82	-29746.6	0.000000	0.000000	7.020346	154.286	NaN	0.000000	0.001547	0.001805	28.0802	61.6956	0.001699	36319	4.972320	-5.954637	150.357	1.013272	0.060218	0.059939	154.286	36319	0.057032	0.115382	1337.18	97687.3
474	2.000000	1.023065	7.3697e+06	-53389.1	1005.82	-29746.6	0.000000	0.000000	7.031831	202.234	NaN	0.000000	0.001558	0.001807	28.0805	70.9862	0.001692	41944.7	5.778275	172.743	201.057	1.022724	0.069731	0.069390	202.234	41944.7	0.066115	0.148644	1360.53	99397.9
474	2.000000	1.032749	7.3697e+06	-53389.1	1005.82	-29746.6	0.000000	0.000000	7.043135	241.618	NaN	0.000000	0.001536	0.001771	28.0805	81.085	0.001701	47658.8	7.172491	-9.259706	249.045	1.032169	0.079415	0.078835	241.618	47658.8	0.075613	0.187665	1287.49	100513
474	2.000000	1.042089	7.3697e+06	-53389.1	1005.82	-29746.6	0.000000	0.000000	7.055030	303.734	NaN	0.000000	0.001566	0.001798	28.0819	89.6018	0.001653	54203.5	3.257656	172.755	303.796	1.041789	0.088755	0.088455	303.734	54203.5	0.084552	0.228271	1330.58	103651
474	2.000000	1.051558	7.3697e+06	-53389.1	1005.82	-29746.6	0.000000	0.000000	7.067351	373.05	NaN	0.000000	0.001571	0.001809	28.0819	97.5129	0.001831	53266.2	1.809164	-5.672350	366.893	1.051305	0.098224	0.097971	373.05	53266.2	0.092972	0.269892	1382.22	93676.4
474	2.000000	1.056521	7.3697e+06	-53389.1	1005.82	-29746.6	0.000000	0.000000	7.073881	411.162	NaN	0.000000	0.001557	0.001794	28.0819	104.857	0.001727	60733.5	4.871884	-10.0374	407.027	1.056364	0.103187	0.103030	411.162	60733.5	0.098110	0.296886	1384.92	101837