File: remote_trans/data/nanoindenter/0828-1/data/Data_2025-08-06,11h17m57s/2025-07-22_16-23-58_1_512.txt
2025-07-22, 16:23:58, 1
Index	Phase	Displacement	Time	Pos X	Pos Y	Pos Z	Rot A	Rot B	Piezo Z	Force A	Force B	Gripper	Voltage A	Voltage B	Temperature	Amplitude force	Amplitude pos	Stiffness	Phase shift	Phase excitation	Force A raw	Displacement raw	HMax	HMax raw	Real Force	Real Stiffness	Contact Depth	Area	Hardness	Reduced Mod.
[#]	[#]	[um]	[s]	[um]	[um]	[um]	[m°]	[m°]	[um]	[uN]	[uN]	[V]	[V]	[V]	[°C]	[uN]	[um]	[N/m]	[°]	[°]	[uN]	[um]	[um]	[um]	[uN]	[N/m]	[um]	[um^2]	[MPa]	[MPa]
512	1.000000	0.002640	7.37006e+06	-51489.1	1005.82	-29752.2	0.000000	0.000000	6.002810	0.012563	NaN	0.000000	0.001581	0.001727	28.0818	0.118474	0.001030	115.015	-47.1482	-164.712	0.008059	0.001394	-1.100429	-1.101674	0.012563	115.015	-1.100511	-5.092432E+14	-2.466902E-17	NaN
512	1.000000	0.044578	7.37006e+06	-51489.1	1005.82	-29752.2	0.000000	0.000000	6.044747	-0.013011	NaN	0.000000	0.001569	0.001704	28.0817	0.083894	0.002023	41.4765	155.709	12.6074	0.061966	0.043246	-1.058490	-1.059822	-0.013011	41.4765	-1.058255	-1.378390E+14	9.438980E-17	NaN
512	1.000000	0.086577	7.37006e+06	-51489.1	1005.82	-29752.2	0.000000	0.000000	6.086748	0.013443	NaN	0.000000	0.001568	0.001765	28.0807	0.035145	0.002065	17.0182	42.7989	-168.911	-0.009824	0.085317	-1.016491	-1.017752	0.013443	17.0182	-1.017084	-3.852248E+13	-3.489613E-16	NaN
512	1.000000	0.128609	7.37006e+06	-51489.1	1005.82	-29752.2	0.000000	0.000000	6.128778	-0.012931	NaN	0.000000	0.001602	0.001765	28.0803	0.012839	0.001900	6.757212	58.6564	13.4361	0.036899	0.127263	-0.974459	-0.975806	-0.012931	6.757212	-0.973024	-9.826962E+12	1.315825E-15	NaN
512	1.000000	0.170625	7.37006e+06	-51489.1	1005.82	-29752.2	0.000000	0.000000	6.170795	0.017023	NaN	0.000000	0.001587	0.001763	28.0806	0.067803	0.001950	34.7753	28.2158	-164.906	0.039557	0.169288	-0.932444	-0.933780	0.017023	34.7753	-0.932811	-2.819274E+12	-6.038145E-15	NaN
512	1.000000	0.212632	7.37006e+06	-51489.1	1005.82	-29752.2	0.000000	0.000000	6.212803	0.043104	NaN	0.000000	0.001616	0.001764	28.0812	0.053698	0.001871	28.6971	85.1421	15.9122	0.054750	0.211304	-0.890437	-0.891765	0.043104	28.6971	-0.891563	-7.817140E+11	-5.514038E-14	NaN
512	1.000000	0.254676	7.37006e+06	-51489.1	1005.82	-29752.2	0.000000	0.000000	6.254847	0.014986	NaN	0.000000	0.001593	0.001749	28.0821	0.104077	0.002071	50.2468	96.1348	-164.001	0.001627	0.253322	-0.848392	-0.849747	0.014986	50.2468	-0.848616	-2.051143E+11	-7.306303E-14	NaN
512	1.000000	0.296693	7.37006e+06	-51489.1	1005.82	-29752.2	0.000000	0.000000	6.296866	0.073502	NaN	0.000000	0.001541	0.001804	28.0816	0.052497	0.001885	27.8526	38.6973	12.6707	0.109180	0.295298	-0.806376	-0.807771	0.073502	27.8526	-0.808355	-5.837813E+10	-1.259070E-12	NaN
512	1.000000	0.338702	7.37006e+06	-51489.1	1005.82	-29752.2	0.000000	0.000000	6.338869	-0.067483	NaN	0.000000	0.001619	0.001770	28.0815	0.041457	0.001968	21.0625	-34.9126	-166.976	-0.046453	0.337418	-0.764367	-0.765650	-0.067483	21.0625	-0.761964	-1.367784E+10	4.933772E-12	NaN
512	1.000000	0.380707	7.37006e+06	-51489.1	1005.82	-29752.2	0.000000	0.000000	6.380876	-0.011856	NaN	0.000000	0.001579	0.001747	28.0805	0.099023	0.001949	50.819	-79.209	14.8279	-0.006788	0.379344	-0.722362	-0.723724	-0.011856	50.819	-0.722187	-3.929138E+9	3.017494E-12	NaN
512	1.000000	0.422735	7.37006e+06	-51489.1	1005.82	-29752.2	0.000000	0.000000	6.422907	0.074688	NaN	0.000000	0.001570	0.001724	28.0807	0.032895	0.001934	17.0046	21.0311	-163.273	0.068521	0.421394	-0.680334	-0.681674	0.074688	17.0046	-0.683628	-1.169017E+9	-6.388939E-11	NaN
512	1.000000	0.464754	7.37006e+06	-51489.1	1005.82	-29752.2	0.000000	0.000000	6.464926	0.055359	NaN	0.000000	0.001561	0.001765	28.0808	0.100656	0.002053	49.0243	-98.8243	16.3566	-0.065141	0.463452	-0.638315	-0.639617	0.055359	49.0243	-0.639162	-2.876013E+8	-1.924856E-10	NaN
512	1.000000	0.506807	7.37006e+06	-51489.1	1005.82	-29752.2	0.000000	0.000000	6.506980	0.070906	NaN	0.000000	0.001563	0.001749	28.0821	0.046013	0.002014	22.8503	-175.675	-168.574	0.097692	0.505497	-0.596262	-0.597572	0.070906	22.8503	-0.598589	-7.962061E+7	-8.905421E-10	NaN
512	1.000000	0.548817	7.37006e+06	-51489.1	1005.82	-29752.2	0.000000	0.000000	6.548986	-0.019137	NaN	0.000000	0.001527	0.001745	28.0818	0.045231	0.001974	22.9149	60.1335	14.8568	0.043267	0.547378	-0.554251	-0.555691	-0.019137	22.9149	-0.553625	-1.906140E+7	1.003984E-9	NaN
512	1.000000	0.590791	7.37006e+06	-51489.1	1005.82	-29752.2	0.000000	0.000000	6.590959	-0.027413	NaN	0.000000	0.001560	0.001741	28.0816	0.072936	0.001962	37.1785	46.6741	-164.078	-0.006584	0.589493	-0.512278	-0.513575	-0.027413	37.1785	-0.511725	-4.99391e+06	5.489213E-9	NaN
512	1.000000	0.632807	7.37006e+06	-51489.1	1005.82	-29752.2	0.000000	0.000000	6.632978	0.031322	NaN	0.000000	0.001531	0.001677	28.0803	0.094510	0.001976	47.8293	82.4611	16.7794	0.036578	0.631488	-0.470262	-0.471581	0.031322	47.8293	-0.470753	-1.3365e+06	-2.343586E-8	NaN
512	1.000000	0.674846	7.37006e+06	-51489.1	1005.82	-29752.2	0.000000	0.000000	6.675015	-0.025845	NaN	0.000000	0.001531	0.001717	28.0805	0.093150	0.001946	47.8678	170.997	-167.892	-0.042382	0.673509	-0.428223	-0.429559	-0.025845	47.8678	-0.427818	-332032	7.784041E-8	NaN
512	1.000000	0.716831	7.37006e+06	-51489.1	1005.82	-29752.2	0.000000	0.000000	6.717006	0.122529	NaN	0.000000	0.001570	0.001744	28.0807	0.092516	0.001910	48.4488	-159.646	12.7287	0.079506	0.715489	-0.386237	-0.387580	0.122529	48.4488	-0.388134	-90462.1	-1.354477E-6	NaN
512	1.000000	0.758902	7.37006e+06	-51489.1	1005.82	-29752.2	0.000000	0.000000	6.759072	0.012369	NaN	0.000000	0.001537	0.001751	28.0811	0.014691	0.002011	7.304994	5.508499	-169.973	0.089705	0.757601	-0.344167	-0.345468	0.012369	7.304994	-0.345437	-21913.2	-5.644660E-7	NaN
512	1.000000	0.800887	7.37006e+06	-51489.1	1005.82	-29752.2	0.000000	0.000000	6.801054	-0.063464	NaN	0.000000	0.001511	0.001703	28.082	0.081716	0.002104	38.8371	-79.1099	9.689430	0.002499	0.799490	-0.302182	-0.303579	-0.063464	38.8371	-0.300956	-4862.6	1.305141E-5	NaN
512	1.000000	0.842915	7.37006e+06	-51489.1	1005.82	-29752.2	0.000000	0.000000	6.843084	-0.019786	NaN	0.000000	0.001586	0.001739	28.0818	0.137269	0.001888	72.7115	144.642	-165.66	-0.046714	0.841573	-0.260154	-0.261495	-0.019786	72.7115	-0.259950	-1169.89	1.691283E-5	NaN
512	1.000000	0.884924	7.37006e+06	-51489.1	1005.82	-29752.2	0.000000	0.000000	6.885093	-0.013817	NaN	0.000000	0.001532	0.001748	28.0819	0.172424	0.002068	83.3722	-107.109	15.0048	-0.022530	0.883442	-0.218145	-0.219627	-0.013817	83.3722	-0.218021	-258.228	5.350745E-5	NaN
512	1.000000	0.926955	7.37006e+06	-51489.1	1005.82	-29752.2	0.000000	0.000000	6.927122	-0.057804	NaN	0.000000	0.001553	0.001737	28.0807	0.053026	0.002059	25.7544	84.6331	-166.188	-0.025999	0.925670	-0.176114	-0.177399	-0.057804	25.7544	-0.174431	-48.9995	0.001180	NaN
512	1.000000	0.968984	7.37006e+06	-51489.1	1005.82	-29752.2	0.000000	0.000000	6.969156	0.042937	NaN	0.000000	0.001512	0.001741	28.0805	0.057356	0.002091	27.4324	28.4833	13.5361	0.043907	0.967576	-0.134084	-0.135493	0.042937	27.4324	-0.135258	-9.620957	-0.004463	NaN
512	1.000000	1.010995	7.37006e+06	-51489.1	1005.82	-29752.2	0.000000	0.000000	7.011164	-0.015236	NaN	0.000000	0.001561	0.001758	28.0807	0.032684	0.002032	16.0867	84.9667	-165.602	0.021502	1.009667	-0.092074	-0.093402	-0.015236	16.0867	-0.091363	-1.163257	0.013098	NaN
512	1.000000	1.052981	7.37006e+06	-51489.1	1005.82	-29752.2	0.000000	0.000000	7.053152	0.027256	NaN	0.000000	0.001508	0.001716	28.082	0.042845	0.001941	22.0726	176.882	11.9245	0.019145	1.051694	-0.050088	-0.051375	0.027256	22.0726	-0.051014	-0.097913	-0.278366	NaN
512	1.000000	1.095028	7.37006e+06	-51489.1	1005.82	-29752.2	0.000000	0.000000	7.095195	-0.065220	NaN	0.000000	0.001560	0.001706	28.0816	0.120233	0.001908	63.0082	59.8833	-161.283	-0.006016	1.093757	-0.008041	-0.009312	-0.065220	63.0082	-0.007265	-0.004798	13.593	NaN
512	2.000000	1.114095	7.37007e+06	-51489.1	1005.82	-29752.2	0.000000	0.000000	7.115108	20.497	NaN	0.000000	0.001618	0.001676	28.0817	17.2019	0.001686	10202	2.904867	5.331331	19.533	1.113759	0.011027	0.010691	20.497	10202	0.009520	0.008653	2368.87	100204
512	2.000000	1.124511	7.37007e+06	-51489.1	1005.82	-29752.2	0.000000	0.000000	7.126388	41.5113	NaN	0.000000	0.001542	0.001741	28.0806	27.1332	0.001829	14832	2.727728	-176.608	39.1677	1.124201	0.021443	0.021132	41.5113	14832	0.019344	0.021521	1928.85	92371.9
512	2.000000	1.134983	7.37007e+06	-51489.1	1005.82	-29752.2	0.000000	0.000000	7.138189	73.8271	NaN	0.000000	0.001583	0.001668	28.0804	36.5613	0.001889	19353.1	3.977949	0.595533	70.2062	1.134634	0.031914	0.031566	73.8271	19353.1	0.029053	0.038804	1902.56	89760.6
512	2.000000	1.145555	7.37007e+06	-51489.1	1005.82	-29752.2	0.000000	0.000000	7.150515	116.49	NaN	0.000000	0.001522	0.001737	28.0807	45.7085	0.001721	26564.8	8.538541	172.313	116.659	1.145258	0.042486	0.042189	116.49	26564.8	0.039197	0.061970	1879.78	97496.1
512	2.000000	1.155990	7.37007e+06	-51489.1	1005.82	-29752.2	0.000000	0.000000	7.162774	160.837	NaN	0.000000	0.001544	0.001766	28.0811	55.5367	0.001733	32051	6.852656	-6.867799	158.665	1.155572	0.052922	0.052503	160.837	32051	0.049158	0.089828	1790.5	97703.2
512	2.000000	1.166548	7.37007e+06	-51489.1	1005.82	-29752.2	0.000000	0.000000	7.175541	214.556	NaN	0.000000	0.001517	0.001670	28.0817	67.6231	0.001841	36738.3	7.415448	171.116	215.828	1.166109	0.063479	0.063040	214.556	36738.3	0.059099	0.122597	1750.09	95863.4
512	2.000000	1.176951	7.37007e+06	-51489.1	1005.82	-29752.2	0.000000	0.000000	7.188680	281.071	NaN	0.000000	0.001580	0.001668	28.0819	76.5826	0.001839	41643.6	5.262958	-7.926862	276.069	1.176627	0.073883	0.073558	281.071	41643.6	0.068820	0.159323	1764.16	95319.7
512	2.000000	1.187450	7.37007e+06	-51489.1	1005.82	-29752.2	0.000000	0.000000	7.202362	358.481	NaN	0.000000	0.001578	0.001661	28.0818	85.6907	0.001814	47232.8	2.688133	173.821	356.594	1.187188	0.084382	0.084119	358.481	47232.8	0.078689	0.201221	1781.53	96201.3
512	2.000000	1.197903	7.37007e+06	-51489.1	1005.82	-29752.2	0.000000	0.000000	7.216938	458.744	NaN	0.000000	0.001613	0.001681	28.0807	96.3427	0.001795	53668.1	6.082820	-10.7272	452.057	1.197559	0.094834	0.094490	458.744	53668.1	0.088423	0.247002	1857.25	98659.7
512	2.000000	1.204861	7.37007e+06	-51489.1	1005.82	-29752.2	0.000000	0.000000	7.226653	525.762	NaN	0.000000	0.001618	0.001645	28.0809	102.629	0.001846	55593.8	4.948978	-9.566436	518.615	1.204505	0.101792	0.101437	525.762	55593.8	0.094699	0.278834	1885.57	96189.2