File: remote_trans/data/nanoindenter/0828-1/data/Data_2025-08-06,11h17m57s/2025-07-22_16-23-58_1_258.txt
2025-07-22, 16:23:58, 1
Index	Phase	Displacement	Time	Pos X	Pos Y	Pos Z	Rot A	Rot B	Piezo Z	Force A	Force B	Gripper	Voltage A	Voltage B	Temperature	Amplitude force	Amplitude pos	Stiffness	Phase shift	Phase excitation	Force A raw	Displacement raw	HMax	HMax raw	Real Force	Real Stiffness	Contact Depth	Area	Hardness	Reduced Mod.
[#]	[#]	[um]	[s]	[um]	[um]	[um]	[m°]	[m°]	[um]	[uN]	[uN]	[V]	[V]	[V]	[°C]	[uN]	[um]	[N/m]	[°]	[°]	[uN]	[um]	[um]	[um]	[uN]	[N/m]	[um]	[um^2]	[MPa]	[MPa]
258	1.000000	0.002502	7.36758e+06	-51539.1	955.819	-29752.2	0.000000	0.000000	6.002837	-0.062095	NaN	0.000000	0.001619	0.001625	28.0808	0.026615	0.000956	27.8543	76.8775	-165.676	-0.089404	0.001219	-1.109304	-1.110587	-0.062095	27.8543	-1.107632	-6.346086E+14	9.784800E-17	NaN
258	1.000000	0.044423	7.36758e+06	-51539.1	955.819	-29752.2	0.000000	0.000000	6.044761	0.029745	NaN	0.000000	0.001600	0.001677	28.0811	0.032897	0.001948	16.8872	166.989	13.6286	-0.009019	0.043084	-1.067383	-1.068722	0.029745	16.8872	-1.068704	-1.904480E+14	-1.561855E-16	NaN
258	1.000000	0.086417	7.36758e+06	-51539.1	955.819	-29752.2	0.000000	0.000000	6.086754	0.005180	NaN	0.000000	0.001576	0.001644	28.0797	0.050449	0.002057	24.5294	172.882	-167.506	0.023798	0.085137	-1.025389	-1.026669	0.005180	24.5294	-1.025547	-5.007108E+13	-1.034597E-16	NaN
258	1.000000	0.128456	7.36758e+06	-51539.1	955.819	-29752.2	0.000000	0.000000	6.128791	-0.030575	NaN	0.000000	0.001547	0.001621	28.0799	0.070225	0.001837	38.2222	-95.997	12.9848	-0.077719	0.127069	-0.983350	-0.984737	-0.030575	38.2222	-0.982750	-1.328813E+13	2.300949E-15	NaN
258	1.000000	0.170485	7.36758e+06	-51539.1	955.818	-29752.2	0.000000	0.000000	6.170821	-0.018950	NaN	0.000000	0.001562	0.001645	28.0796	0.088121	0.002021	43.5973	172.799	-168.531	-0.028242	0.169154	-0.941321	-0.942652	-0.018950	43.5973	-0.940995	-3.635468E+12	5.212582E-15	NaN
258	1.000000	0.212433	7.36758e+06	-51539.1	955.818	-29752.2	0.000000	0.000000	6.212767	-0.067746	NaN	0.000000	0.001557	0.001638	28.0808	0.050897	0.002064	24.6638	-42.7026	15.2138	-0.060307	0.211103	-0.899373	-0.900703	-0.067746	24.6638	-0.897313	-9.348778E+11	7.246492E-14	NaN
258	1.000000	0.254493	7.36758e+06	-51539.1	955.819	-29752.2	0.000000	0.000000	6.254830	-0.015688	NaN	0.000000	0.001575	0.001609	28.0807	0.048131	0.001896	25.3895	-25.2531	-169.834	-0.019634	0.253243	-0.857313	-0.858563	-0.015688	25.3895	-0.856850	-2.651399E+11	5.916713E-14	NaN
258	1.000000	0.296508	7.36758e+06	-51539.1	955.819	-29752.2	0.000000	0.000000	6.296845	0.016387	NaN	0.000000	0.001609	0.001596	28.0809	0.117135	0.002128	55.041	83.5308	14.3862	0.036548	0.295157	-0.815298	-0.816649	0.016387	55.041	-0.815522	-7.302558E+10	-2.243985E-13	NaN
258	1.000000	0.338512	7.36758e+06	-51539.1	955.818	-29752.2	0.000000	0.000000	6.338850	0.013788	NaN	0.000000	0.001599	0.001626	28.0794	0.075443	0.002019	37.3741	-156.759	-164.375	-0.041174	0.337236	-0.773294	-0.774570	0.013788	37.3741	-0.773571	-1.967193E+10	-7.008777E-13	NaN
258	1.000000	0.380566	7.36758e+06	-51539.1	955.818	-29752.2	0.000000	0.000000	6.380899	-0.074896	NaN	0.000000	0.001589	0.001633	28.0795	0.081838	0.002093	39.0974	-176.062	14.3661	-0.041840	0.379172	-0.731241	-0.732634	-0.074896	39.0974	-0.729804	-4.990400E+9	1.500805E-11	NaN
258	1.000000	0.422526	7.36758e+06	-51539.1	955.818	-29752.2	0.000000	0.000000	6.422866	0.060601	NaN	0.000000	0.001560	0.001635	28.0794	0.093543	0.001974	47.3762	43.8601	-165.944	-0.010129	0.421273	-0.689280	-0.690533	0.060601	47.3762	-0.690239	-1.439422E+9	-4.210082E-11	NaN
258	1.000000	0.464573	7.36758e+06	-51539.1	955.818	-29752.2	0.000000	0.000000	6.464909	-0.026258	NaN	0.000000	0.001612	0.001644	28.0807	0.032954	0.001962	16.7919	48.5063	12.4725	-0.046461	0.463217	-0.647233	-0.648589	-0.026258	16.7919	-0.646061	-3.576211E+8	7.342542E-11	NaN
258	1.000000	0.506608	7.36758e+06	-51539.1	955.819	-29752.2	0.000000	0.000000	6.506945	0.003659	NaN	0.000000	0.001600	0.001644	28.0809	0.075665	0.001916	39.4869	160.575	-165.377	-0.049471	0.505317	-0.605198	-0.606489	0.003659	39.4869	-0.605268	-9.839952E+7	-3.718771E-11	NaN
258	1.000000	0.548627	7.36758e+06	-51539.1	955.82	-29752.2	0.000000	0.000000	6.548963	-0.007941	NaN	0.000000	0.001585	0.001646	28.0813	0.066378	0.002049	32.3988	99.4009	12.3735	0.035521	0.547262	-0.563180	-0.564544	-0.007941	32.3988	-0.562996	-2.569288E+7	3.090626E-10	NaN
258	1.000000	0.590645	7.36758e+06	-51539.1	955.818	-29752.2	0.000000	0.000000	6.590983	0.015363	NaN	0.000000	0.001616	0.001623	28.081	0.084940	0.002099	40.475	0.626834	-166.551	-0.018004	0.589340	-0.521161	-0.522466	0.015363	40.475	-0.521446	-6.81869e+06	-2.253047E-9	NaN
258	1.000000	0.632686	7.36758e+06	-51539.1	955.819	-29752.2	0.000000	0.000000	6.633022	-0.024742	NaN	0.000000	0.001548	0.001666	28.0799	0.085279	0.002032	41.9621	-21.8181	13.7964	-0.004555	0.631267	-0.479120	-0.480539	-0.024742	41.9621	-0.478677	-1.72588e+06	1.433570E-8	NaN
258	1.000000	0.674673	7.36758e+06	-51539.1	955.819	-29752.2	0.000000	0.000000	6.675010	0.003112	NaN	0.000000	0.001670	0.001618	28.0798	0.045244	0.002031	22.2717	136.202	-165.334	0.060384	0.673369	-0.437133	-0.438437	0.003112	22.2717	-0.437238	-451198	-6.897161E-9	NaN
258	1.000000	0.716690	7.36758e+06	-51539.1	955.818	-29752.2	0.000000	0.000000	6.717027	0.000331	NaN	0.000000	0.001550	0.001607	28.0795	0.043236	0.001915	22.5788	-147.333	14.9188	-0.087702	0.715324	-0.395116	-0.396482	0.000331	22.5788	-0.395127	-113879	-2.906033E-9	NaN
258	1.000000	0.758734	7.36758e+06	-51539.1	955.819	-29752.2	0.000000	0.000000	6.759071	0.006777	NaN	0.000000	0.001613	0.001646	28.0809	0.079269	0.002101	37.7367	149.535	-169.45	0.016896	0.757337	-0.353073	-0.354469	0.006777	37.7367	-0.353207	-28413.3	-2.385208E-7	NaN
258	1.000000	0.800721	7.36758e+06	-51539.1	955.818	-29752.2	0.000000	0.000000	6.801060	0.053418	NaN	0.000000	0.001648	0.001648	28.0807	0.069434	0.002100	33.0606	-12.9478	13.5688	-0.012960	0.799368	-0.311085	-0.312438	0.053418	33.0606	-0.312297	-7161.95	-7.458556E-6	NaN
258	1.000000	0.842734	7.36758e+06	-51539.1	955.817	-29752.2	0.000000	0.000000	6.843072	0.024983	NaN	0.000000	0.001654	0.001640	28.0807	0.084164	0.001967	42.7967	165.244	-171.064	0.015671	0.841425	-0.269072	-0.270381	0.024983	42.7967	-0.269510	-1637.15	-1.526026E-5	NaN
258	1.000000	0.884742	7.36758e+06	-51539.1	955.818	-29752.2	0.000000	0.000000	6.885077	-0.040899	NaN	0.000000	0.001607	0.001645	28.0798	0.036291	0.002059	17.6297	44.1808	13.6316	-0.059578	0.883390	-0.227064	-0.228417	-0.040899	17.6297	-0.225324	-337.665	0.000121	NaN
258	1.000000	0.926790	7.36758e+06	-51539.1	955.819	-29752.2	0.000000	0.000000	6.927125	-0.042501	NaN	0.000000	0.001575	0.001639	28.0797	0.063706	0.001960	32.5064	-0.990043	-169.787	0.015780	0.925489	-0.185016	-0.186317	-0.042501	32.5064	-0.184035	-71.4267	0.000595	NaN
258	1.000000	0.968783	7.36758e+06	-51539.1	955.819	-29752.2	0.000000	0.000000	6.969117	-0.062012	NaN	0.000000	0.001551	0.001682	28.0797	0.101527	0.001916	52.9768	83.8368	10.2974	-0.092920	0.967408	-0.143023	-0.144399	-0.062012	52.9768	-0.142145	-12.9757	0.004779	NaN
258	1.000000	1.010841	7.36758e+06	-51539.1	955.818	-29752.2	0.000000	0.000000	7.011177	-0.029756	NaN	0.000000	0.001567	0.001678	28.0806	0.041795	0.002003	20.8671	123.196	-167.253	0.023183	1.009524	-0.100965	-0.102282	-0.029756	20.8671	-0.099895	-1.817422	0.016373	NaN
258	1.000000	1.052811	7.36758e+06	-51539.1	955.819	-29752.2	0.000000	0.000000	7.053148	-0.013607	NaN	0.000000	0.001597	0.001666	28.0805	0.088023	0.001938	45.4082	-117.279	15.5703	0.010445	1.051474	-0.058995	-0.060332	-0.013607	45.4082	-0.058770	-0.165990	0.081975	NaN
258	1.000000	1.094845	7.36758e+06	-51539.1	955.819	-29752.2	0.000000	0.000000	7.095182	0.005012	NaN	0.000000	0.001568	0.001712	28.0808	0.019120	0.001995	9.586337	-157.235	-166.117	-0.074002	1.093523	-0.016962	-0.018283	0.005012	9.586337	-0.017354	-0.010738	-0.466751	NaN
258	2.000000	1.126920	7.36758e+06	-51539.1	955.818	-29752.2	0.000000	0.000000	7.127874	15.0018	NaN	0.000000	0.001598	0.001636	28.0812	13.0193	0.001687	7716.03	7.033810	2.594270	13.4145	1.126609	0.015114	0.014803	15.0018	7716.03	0.013656	0.013535	1108.41	60596.2
258	2.000000	1.137356	7.36758e+06	-51539.1	955.819	-29752.2	0.000000	0.000000	7.139297	39.0144	NaN	0.000000	0.001680	0.001622	28.0796	23.6221	0.001800	13123.4	8.926966	178.132	38.5454	1.137054	0.025550	0.025248	39.0144	13123.4	0.023320	0.028030	1391.86	71615.3
258	2.000000	1.147831	7.36758e+06	-51539.1	955.82	-29752.2	0.000000	0.000000	7.150946	67.5512	NaN	0.000000	0.001682	0.001639	28.0795	32.9499	0.001693	19466.4	1.519031	0.756848	65.1476	1.147521	0.036024	0.035714	67.5512	19466.4	0.033422	0.048135	1403.37	81064
258	2.000000	1.158297	7.36758e+06	-51539.1	955.819	-29752.2	0.000000	0.000000	7.162823	101.861	NaN	0.000000	0.001683	0.001613	28.0798	42.6134	0.001750	24347.9	2.943915	177.682	99.5598	1.158030	0.046491	0.046224	101.861	24347.9	0.043353	0.072982	1395.71	82343.3
258	2.000000	1.168853	7.36758e+06	-51539.1	955.819	-29752.2	0.000000	0.000000	7.175421	151.517	NaN	0.000000	0.001666	0.001610	28.0815	52.913	0.001798	29435.7	2.312997	-2.720188	152.495	1.168541	0.057047	0.056735	151.517	29435.7	0.053187	0.102517	1477.97	83994.3
258	2.000000	1.179291	7.36758e+06	-51539.1	955.818	-29752.2	0.000000	0.000000	7.188169	207.677	NaN	0.000000	0.001631	0.001659	28.0811	63.1745	0.001849	34173	5.037073	173.734	205.883	1.178891	0.067485	0.067085	207.677	34173	0.062927	0.136512	1521.31	84502.7
258	2.000000	1.189763	7.36758e+06	-51539.1	955.819	-29752.2	0.000000	0.000000	7.201342	273.37	NaN	0.000000	0.001601	0.001647	28.0808	73.4447	0.001823	40297.4	4.994522	-8.100984	271.509	1.189518	0.077957	0.077712	273.37	40297.4	0.072869	0.175953	1553.65	87771.2
258	2.000000	1.200230	7.36758e+06	-51539.1	955.818	-29752.2	0.000000	0.000000	7.215013	351.267	NaN	0.000000	0.001661	0.001644	28.0796	84.2171	0.001700	49548.5	4.660549	170.65	347.609	1.199813	0.088424	0.088007	351.267	49548.5	0.083107	0.221454	1586.19	96197.1
258	2.000000	1.210641	7.36758e+06	-51539.1	955.82	-29752.2	0.000000	0.000000	7.228917	436.209	NaN	0.000000	0.001587	0.001636	28.0797	94.3932	0.001670	56508.3	4.652460	-9.758787	427.236	1.210308	0.098835	0.098502	436.209	56508.3	0.093046	0.270272	1613.96	99308.3
258	2.000000	1.221253	7.36758e+06	-51539.1	955.821	-29752.2	0.000000	0.000000	7.242821	516.247	NaN	0.000000	0.001588	0.001651	28.0796	104.314	0.001782	58546.7	4.932421	169.913	515.693	1.220872	0.109447	0.109066	516.247	58546.7	0.102833	0.322763	1599.46	94152.8
258	2.000000	1.222189	7.36758e+06	-51539.1	955.82	-29752.2	0.000000	0.000000	7.244190	526.789	NaN	0.000000	0.001596	0.001665	28.0798	104.597	0.001738	60180.5	4.305177	170.286	523.292	1.221924	0.110382	0.110118	526.789	60180.5	0.103817	0.328281	1604.69	95963.6