File: remote_trans/data/nanoindenter/0828-1/data/Data_2025-08-06,11h17m57s/2025-07-22_16-23-58_1_676.txt
2025-07-22, 16:23:58, 1
Index	Phase	Displacement	Time	Pos X	Pos Y	Pos Z	Rot A	Rot B	Piezo Z	Force A	Force B	Gripper	Voltage A	Voltage B	Temperature	Amplitude force	Amplitude pos	Stiffness	Phase shift	Phase excitation	Force A raw	Displacement raw	HMax	HMax raw	Real Force	Real Stiffness	Contact Depth	Area	Hardness	Reduced Mod.
[#]	[#]	[um]	[s]	[um]	[um]	[um]	[m°]	[m°]	[um]	[uN]	[uN]	[V]	[V]	[V]	[°C]	[uN]	[um]	[N/m]	[°]	[°]	[uN]	[um]	[um]	[um]	[uN]	[N/m]	[um]	[um^2]	[MPa]	[MPa]
676	1.000000	0.002244	7.37166e+06	-43289.1	1005.82	-29779.6	0.000000	0.000000	6.002792	-0.018921	NaN	0.000000	0.001659	0.001683	28.0823	0.079968	0.000992	80.5735	-25.1365	-166.459	0.053087	0.000987	-1.080288	-1.081545	-0.018921	80.5735	-1.080112	-2.710337E+14	6.981101E-17	NaN
676	1.000000	0.042201	7.37166e+06	-43289.1	1005.82	-29779.6	0.000000	0.000000	6.042749	-0.037661	NaN	0.000000	0.001597	0.001682	28.0822	0.066050	0.001947	33.9292	125.634	-162.93	-0.024922	0.040875	-1.040331	-1.041657	-0.037661	33.9292	-1.039498	-7.712919E+13	4.882892E-16	NaN
676	1.000000	0.082214	7.37166e+06	-43289.1	1005.82	-29779.6	0.000000	0.000000	6.082764	0.032076	NaN	0.000000	0.001617	0.001724	28.0834	0.025790	0.002112	12.2114	-175.05	-166.287	-0.007417	0.080875	-1.000318	-1.001657	0.032076	12.2114	-1.002288	-2.435420E+13	-1.317072E-15	NaN
676	1.000000	0.122204	7.37166e+06	-43289.1	1005.82	-29779.6	0.000000	0.000000	6.122755	0.044403	NaN	0.000000	0.001631	0.001742	28.0833	0.086061	0.001948	44.182	-1.284142	-165.967	0.016702	0.120941	-0.960327	-0.961591	0.044403	44.182	-0.961081	-6.783372E+12	-6.545871E-15	NaN
676	1.000000	0.162228	7.37166e+06	-43289.1	1005.82	-29779.6	0.000000	0.000000	6.162777	-0.007183	NaN	0.000000	0.001640	0.001702	28.0832	0.027109	0.001924	14.0879	-19.7545	-167.4	0.068487	0.160920	-0.920304	-0.921612	-0.007183	14.0879	-0.919921	-1.888613E+12	3.803562E-15	NaN
676	1.000000	0.202254	7.37166e+06	-43289.1	1005.82	-29779.6	0.000000	0.000000	6.202805	0.050597	NaN	0.000000	0.001642	0.001730	28.0826	0.047181	0.001860	25.3637	-143.214	-165.576	0.088112	0.200956	-0.880278	-0.881576	0.050597	25.3637	-0.881774	-5.763701E+11	-8.778511E-14	NaN
676	1.000000	0.242265	7.37166e+06	-43289.1	1005.82	-29779.6	0.000000	0.000000	6.242813	-0.040461	NaN	0.000000	0.001662	0.001664	28.0818	0.082115	0.002080	39.4771	-168.705	-166.053	-0.003239	0.240994	-0.840266	-0.841538	-0.040461	39.4771	-0.839498	-1.543437E+11	2.621490E-13	NaN
676	1.000000	0.282309	7.37166e+06	-43289.1	1005.82	-29779.6	0.000000	0.000000	6.282858	0.004634	NaN	0.000000	0.001708	0.001680	28.082	0.135317	0.002223	60.8712	51.579	-168.074	0.060545	0.280998	-0.800223	-0.801534	0.004634	60.8712	-0.800280	-4.535935E+10	-1.021698E-13	NaN
676	1.000000	0.322315	7.37166e+06	-43289.1	1005.82	-29779.6	0.000000	0.000000	6.322863	-0.013998	NaN	0.000000	0.001668	0.001664	28.0819	0.121600	0.001928	63.0758	101.745	-168.537	-0.015022	0.320965	-0.760217	-0.761567	-0.013998	63.0758	-0.760050	-1.288215E+10	1.086622E-12	NaN
676	1.000000	0.362330	7.37166e+06	-43289.1	1005.82	-29779.6	0.000000	0.000000	6.362876	-0.068735	NaN	0.000000	0.001618	0.001621	28.0834	0.123994	0.001920	64.579	23.6106	-164.443	-0.041361	0.361052	-0.720202	-0.721480	-0.068735	64.579	-0.719404	-3.600324E+9	1.909125E-11	NaN
676	1.000000	0.402313	7.37166e+06	-43289.1	1005.82	-29779.6	0.000000	0.000000	6.402861	-0.026696	NaN	0.000000	0.001631	0.001683	28.0837	0.017336	0.002032	8.531642	41.6343	-167.244	-0.036948	0.401038	-0.680219	-0.681494	-0.026696	8.531642	-0.677872	-9.752215E+8	2.737390E-11	NaN
676	1.000000	0.442348	7.37166e+06	-43289.1	1005.82	-29779.6	0.000000	0.000000	6.442897	-0.016411	NaN	0.000000	0.001654	0.001696	28.0837	0.031598	0.001961	16.1134	177.241	-166.369	0.085750	0.441060	-0.640184	-0.641472	-0.016411	16.1134	-0.639420	-2.899530E+8	5.659979E-11	NaN
676	1.000000	0.482400	7.37166e+06	-43289.1	1005.82	-29779.6	0.000000	0.000000	6.482952	0.073722	NaN	0.000000	0.001716	0.001734	28.0823	0.121478	0.002040	59.5343	99.5253	-172.348	0.053509	0.481116	-0.600132	-0.601416	0.073722	59.5343	-0.601061	-8.611284E+7	-8.561069E-10	NaN
676	1.000000	0.522392	7.37166e+06	-43289.1	1005.82	-29779.6	0.000000	0.000000	6.522938	-0.056134	NaN	0.000000	0.001673	0.001670	28.0823	0.075228	0.001960	38.3737	154.534	-163.986	0.013210	0.521031	-0.560140	-0.561501	-0.056134	38.3737	-0.559043	-2.265361E+7	2.477942E-9	NaN
676	1.000000	0.562412	7.37166e+06	-43289.1	1005.82	-29779.6	0.000000	0.000000	6.562959	-0.027808	NaN	0.000000	0.001705	0.001664	28.0821	0.047360	0.002045	23.1605	8.717143	-166.848	-0.110425	0.561152	-0.520120	-0.521380	-0.027808	23.1605	-0.519220	-6.34958e+06	4.379478E-9	NaN
676	1.000000	0.602452	7.37166e+06	-43289.1	1005.82	-29779.6	0.000000	0.000000	6.603001	0.001299	NaN	0.000000	0.001689	0.001716	28.0822	0.040012	0.001938	20.644	-64.0525	-163.745	0.088279	0.601119	-0.480080	-0.481413	0.001299	20.644	-0.480128	-1.80848e+06	-7.180345E-10	NaN
676	1.000000	0.642433	7.37166e+06	-43289.1	1005.82	-29779.6	0.000000	0.000000	6.642980	-0.047129	NaN	0.000000	0.001713	0.001715	28.0834	0.051909	0.001965	26.4161	1.029046	-168.419	-0.041479	0.641070	-0.440099	-0.441461	-0.047129	26.4161	-0.438761	-474097	9.940803E-8	NaN
676	1.000000	0.682424	7.37167e+06	-43289.1	1005.82	-29779.6	0.000000	0.000000	6.682974	0.021212	NaN	0.000000	0.001617	0.001659	28.0835	0.039514	0.001992	19.8394	55.1056	-165.962	0.086224	0.681136	-0.400108	-0.401396	0.021212	19.8394	-0.400910	-137712	-1.540308E-7	NaN
676	1.000000	0.722478	7.37167e+06	-43289.1	1005.82	-29779.6	0.000000	0.000000	6.723031	0.077949	NaN	0.000000	0.001632	0.001728	28.0836	0.072660	0.001855	39.1633	-174.189	-167.893	0.117629	0.721170	-0.360053	-0.361362	0.077949	39.1633	-0.361546	-37513.8	-2.077866E-6	NaN
676	1.000000	0.762531	7.37167e+06	-43289.1	1005.82	-29779.6	0.000000	0.000000	6.763080	-0.004481	NaN	0.000000	0.001635	0.001700	28.0823	0.050706	0.002018	25.1232	-150.512	-167.339	-0.082898	0.761194	-0.320001	-0.321338	-0.004481	25.1232	-0.319867	-9261.44	4.838032E-7	NaN
676	1.000000	0.802499	7.37167e+06	-43289.1	1005.82	-29779.6	0.000000	0.000000	6.803048	0.009368	NaN	0.000000	0.001627	0.001707	28.0825	0.035307	0.001835	19.2411	-48.5113	-164.368	0.065354	0.801204	-0.280033	-0.281328	0.009368	19.2411	-0.280398	-2393.18	-3.914581E-6	NaN
676	1.000000	0.842535	7.37167e+06	-43289.1	1005.82	-29779.6	0.000000	0.000000	6.843084	-0.017742	NaN	0.000000	0.001594	0.001711	28.0823	0.091994	0.002072	44.3989	174.092	-163.749	-0.010281	0.841262	-0.239997	-0.241270	-0.017742	44.3989	-0.239697	-568.614	3.120137E-5	NaN
676	1.000000	0.882553	7.37167e+06	-43289.1	1005.82	-29779.6	0.000000	0.000000	6.883099	-0.062381	NaN	0.000000	0.001625	0.001698	28.0822	0.111130	0.002009	55.3084	-136.812	-166.152	-0.074788	0.881241	-0.199979	-0.201291	-0.062381	55.3084	-0.199133	-127.481	0.000489	NaN
676	1.000000	0.922563	7.37167e+06	-43289.1	1005.82	-29779.6	0.000000	0.000000	6.923112	0.001830	NaN	0.000000	0.001602	0.001726	28.0833	0.102687	0.001990	51.6122	0.574994	-167.536	0.027467	0.921216	-0.159969	-0.161316	0.001830	51.6122	-0.159996	-27.4099	-6.677684E-5	NaN
676	1.000000	0.962583	7.37167e+06	-43289.1	1005.82	-29779.6	0.000000	0.000000	6.963132	0.012480	NaN	0.000000	0.001627	0.001750	28.0834	0.076664	0.001936	39.5926	105.57	-166.001	-0.049686	0.961239	-0.119949	-0.121293	0.012480	39.5926	-0.120185	-4.873313	-0.002561	NaN
676	1.000000	1.002595	7.37167e+06	-43289.1	1005.82	-29779.6	0.000000	0.000000	7.003143	-0.021542	NaN	0.000000	0.001623	0.001703	28.0835	0.050229	0.001957	25.6655	78.6497	-169.167	-0.040098	1.001304	-0.079937	-0.081228	-0.021542	25.6655	-0.079307	-0.594741	0.036221	NaN
676	1.000000	1.042604	7.37167e+06	-43289.1	1005.82	-29779.6	0.000000	0.000000	7.043153	0.000710	NaN	0.000000	0.001603	0.001727	28.0821	0.086673	0.001995	43.4475	53.5458	-165.595	0.048210	1.041300	-0.039927	-0.041232	0.000710	43.4475	-0.039940	-0.045032	-0.015773	NaN
676	1.000000	1.082586	7.37167e+06	-43289.1	1005.82	-29779.6	0.000000	0.000000	7.083204	1.675987	NaN	0.000000	0.001631	0.001723	28.0821	2.343153	0.001709	1370.69	11.3502	-169.294	0.615707	1.081348	5.415160E-5	-0.001184	1.675987	1370.69	-0.000863	-0.000634	-2642.32	NaN
676	2.000000	1.097146	7.37167e+06	-43289.1	1005.82	-29779.6	0.000000	0.000000	7.098624	22.6008	NaN	0.000000	0.001660	0.001750	28.0822	17.3048	0.001773	9761.55	3.040085	-173.08	21.547	1.096831	0.014614	0.014299	22.6008	9761.55	0.012878	0.012559	1799.62	79583.1
676	2.000000	1.107119	7.37167e+06	-43289.1	1005.82	-29779.6	0.000000	0.000000	7.109734	50.2639	NaN	0.000000	0.001690	0.001725	28.0831	26.7422	0.001822	14680.7	5.408801	-179.239	49.4026	1.106805	0.024587	0.024273	50.2639	14680.7	0.022019	0.025815	1947.1	83480.5
676	2.000000	1.117085	7.37167e+06	-43289.1	1005.82	-29779.6	0.000000	0.000000	7.120975	81.2937	NaN	0.000000	0.001688	0.001729	28.0832	36.8272	0.001822	20214.8	5.426147	178.69	81.1968	1.116752	0.034553	0.034220	81.2937	20214.8	0.031537	0.043989	1848.06	88058.5
676	2.000000	1.127075	7.37167e+06	-43289.1	1005.82	-29779.6	0.000000	0.000000	7.132461	117.676	NaN	0.000000	0.001693	0.001741	28.083	45.8461	0.001772	25872.6	3.898104	177.89	117.147	1.126819	0.044543	0.044287	117.676	25872.6	0.041132	0.066987	1756.7	91330.9
676	2.000000	1.136944	7.37167e+06	-43289.1	1005.82	-29779.6	0.000000	0.000000	7.144249	164.374	NaN	0.000000	0.001700	0.001742	28.083	55.6351	0.001786	31154.8	5.269391	174.635	158.128	1.136745	0.054412	0.054213	164.374	31154.8	0.050455	0.093826	1751.91	92925.9
676	2.000000	1.147006	7.37167e+06	-43289.1	1005.82	-29779.6	0.000000	0.000000	7.156952	228.619	NaN	0.000000	0.001699	0.001737	28.082	64.7881	0.001792	36150.7	2.110146	177.101	225.641	1.146730	0.064474	0.064198	228.619	36150.7	0.059731	0.124846	1831.2	93476.5
676	2.000000	1.157030	7.37167e+06	-43289.1	1005.82	-29779.6	0.000000	0.000000	7.169265	284.333	NaN	0.000000	0.001652	0.001755	28.0821	75.1801	0.001741	43173.3	2.001382	175.674	281.272	1.156820	0.074498	0.074288	284.333	43173.3	0.069558	0.162296	1751.94	97911.6
676	2.000000	1.167005	7.37167e+06	-43289.1	1005.82	-29779.6	0.000000	0.000000	7.182218	356.792	NaN	0.000000	0.001692	0.001781	28.0823	84.5124	0.001852	45627.1	2.772208	174.572	352.672	1.166736	0.084473	0.084204	356.792	45627.1	0.078608	0.200856	1776.36	93015.1
676	2.000000	1.176925	7.37167e+06	-43289.1	1005.82	-29779.6	0.000000	0.000000	7.195607	441.181	NaN	0.000000	0.001711	0.001731	28.0836	92.936	0.001915	48536.7	5.198085	172.298	434.275	1.176613	0.094393	0.094081	441.181	48536.7	0.087576	0.242843	1816.73	89987.2
676	2.000000	1.186986	7.37167e+06	-43289.1	1005.82	-29779.6	0.000000	0.000000	7.208926	520.432	NaN	0.000000	0.001712	0.001744	28.0836	101.575	0.001732	58656.2	3.629065	172.685	518.519	1.186747	0.104455	0.104215	520.432	58656.2	0.097800	0.295225	1762.84	98630.5