File: remote_trans/data/nanoindenter/0828-1/data/Data_2025-08-06,11h17m57s/2025-07-22_16-23-58_1_211.txt
2025-07-22, 16:23:58, 1
Index	Phase	Displacement	Time	Pos X	Pos Y	Pos Z	Rot A	Rot B	Piezo Z	Force A	Force B	Gripper	Voltage A	Voltage B	Temperature	Amplitude force	Amplitude pos	Stiffness	Phase shift	Phase excitation	Force A raw	Displacement raw	HMax	HMax raw	Real Force	Real Stiffness	Contact Depth	Area	Hardness	Reduced Mod.
[#]	[#]	[um]	[s]	[um]	[um]	[um]	[m°]	[m°]	[um]	[uN]	[uN]	[V]	[V]	[V]	[°C]	[uN]	[um]	[N/m]	[°]	[°]	[uN]	[um]	[um]	[um]	[uN]	[N/m]	[um]	[um^2]	[MPa]	[MPa]
211	1.000000	0.002563	7.36711e+06	-49189.1	955.818	-29760.2	0.000000	0.000000	6.002823	0.022899	NaN	0.000000	0.001639	0.001797	28.0771	0.060174	0.001012	59.4324	46.9287	-165.602	0.050514	0.001276	-1.142885	-1.144173	0.022899	59.4324	-1.143174	-1.902414E+15	-1.203678E-17	NaN
211	1.000000	0.044484	7.36711e+06	-49189.1	955.818	-29760.2	0.000000	0.000000	6.044743	0.011771	NaN	0.000000	0.001591	0.001758	28.0771	0.024816	0.001938	12.8055	-11.1754	13.6762	-0.029228	0.043174	-1.100965	-1.102275	0.011771	12.8055	-1.101655	-5.275667E+14	-2.231207E-17	NaN
211	1.000000	0.086503	7.36711e+06	-49189.1	955.819	-29760.2	0.000000	0.000000	6.086764	0.047872	NaN	0.000000	0.001613	0.001755	28.0783	0.067253	0.002022	33.2671	-166.577	-167.458	0.061522	0.085193	-1.058946	-1.060256	0.047872	33.2671	-1.060025	-1.455993E+14	-3.287925E-16	NaN
211	1.000000	0.128517	7.36711e+06	-49189.1	955.819	-29760.2	0.000000	0.000000	6.128776	0.011972	NaN	0.000000	0.001650	0.001776	28.0787	0.083676	0.002096	39.9228	151.886	11.618	0.033388	0.127104	-1.016932	-1.018345	0.011972	39.9228	-1.017157	-3.860978E+13	-3.100692E-16	NaN
211	1.000000	0.170553	7.36711e+06	-49189.1	955.817	-29760.2	0.000000	0.000000	6.170814	0.063236	NaN	0.000000	0.001620	0.001783	28.0788	0.048633	0.001969	24.6998	49.1579	-163.164	0.047866	0.169294	-0.974896	-0.976155	0.063236	24.6998	-0.976816	-1.105378E+13	-5.720752E-15	NaN
211	1.000000	0.212525	7.36711e+06	-49189.1	955.818	-29760.2	0.000000	0.000000	6.212782	-0.065502	NaN	0.000000	0.001649	0.001734	28.0777	0.114467	0.001965	58.2447	86.0615	15.8309	-0.110344	0.211203	-0.932923	-0.934246	-0.065502	58.2447	-0.932080	-2.755915E+12	2.376773E-14	NaN
211	1.000000	0.254558	7.36711e+06	-49189.1	955.819	-29760.2	0.000000	0.000000	6.254819	0.058611	NaN	0.000000	0.001645	0.001765	28.0777	0.056113	0.001909	29.3883	44.8963	-165.158	-0.008717	0.253305	-0.890891	-0.892143	0.058611	29.3883	-0.892386	-8.019943E+11	-7.308117E-14	NaN
211	1.000000	0.296582	7.36711e+06	-49189.1	955.818	-29760.2	0.000000	0.000000	6.296841	-0.000607	NaN	0.000000	0.001641	0.001752	28.0774	0.130828	0.002035	64.2798	10.3835	15.9722	-0.016488	0.295271	-0.848867	-0.850178	-0.000607	64.2798	-0.848860	-2.066779E+11	2.936135E-15	NaN
211	1.000000	0.338610	7.36711e+06	-49189.1	955.819	-29760.2	0.000000	0.000000	6.338870	0.019808	NaN	0.000000	0.001573	0.001799	28.0776	0.064846	0.002006	32.3327	-6.788307	-167.796	0.013255	0.337281	-0.806839	-0.808168	0.019808	32.3327	-0.807298	-5.648202E+10	-3.506996E-13	NaN
211	1.000000	0.380609	7.36711e+06	-49189.1	955.818	-29760.2	0.000000	0.000000	6.380868	-0.003551	NaN	0.000000	0.001625	0.001756	28.0788	0.082115	0.001794	45.772	-14.4699	12.9469	0.027095	0.379269	-0.764840	-0.766180	-0.003551	45.772	-0.764782	-1.493973E+10	2.376766E-13	NaN
211	1.000000	0.422658	7.36711e+06	-49189.1	955.82	-29760.2	0.000000	0.000000	6.422918	0.031886	NaN	0.000000	0.001678	0.001795	28.0788	0.010277	0.002153	4.772693	38.1082	-165.861	-0.033896	0.421352	-0.722790	-0.724097	0.031886	4.772693	-0.727801	-4.686371E+9	-6.803969E-12	NaN
211	1.000000	0.464626	7.36711e+06	-49189.1	955.819	-29760.2	0.000000	0.000000	6.464883	-0.046047	NaN	0.000000	0.001672	0.001776	28.0787	0.023335	0.001912	12.2026	17.5918	19.8092	-0.029054	0.463349	-0.680822	-0.682100	-0.046047	12.2026	-0.677992	-9.789139E+8	4.703905E-11	NaN
211	1.000000	0.506681	7.36711e+06	-49189.1	955.819	-29760.2	0.000000	0.000000	6.506941	0.037838	NaN	0.000000	0.001674	0.001771	28.0773	0.045841	0.001929	23.762	101.811	-164.157	0.160598	0.505382	-0.638768	-0.640067	0.037838	23.762	-0.639962	-2.949624E+8	-1.282797E-10	NaN
211	1.000000	0.548709	7.36711e+06	-49189.1	955.818	-29760.2	0.000000	0.000000	6.548964	-0.097654	NaN	0.000000	0.001612	0.001778	28.0773	0.188691	0.002006	94.0763	31.2596	15.5361	-0.115700	0.547343	-0.596740	-0.598106	-0.097654	94.0763	-0.595961	-7.325319E+7	1.333103E-9	NaN
211	1.000000	0.590747	7.36711e+06	-49189.1	955.819	-29760.2	0.000000	0.000000	6.591007	0.050097	NaN	0.000000	0.001645	0.001762	28.0775	0.025142	0.002092	12.0177	139.345	-165.455	0.000715	0.589433	-0.554702	-0.556016	0.050097	12.0177	-0.557829	-2.179389E+7	-2.298656E-9	NaN
211	1.000000	0.632746	7.36711e+06	-49189.1	955.819	-29760.2	0.000000	0.000000	6.633006	0.022132	NaN	0.000000	0.001618	0.001756	28.0784	0.109946	0.001982	55.4852	56.2147	13.0519	0.009197	0.631370	-0.512702	-0.514078	0.022132	55.4852	-0.513002	-5.20252e+06	-4.254137E-9	NaN
211	1.000000	0.674753	7.36711e+06	-49189.1	955.818	-29760.2	0.000000	0.000000	6.675013	0.025751	NaN	0.000000	0.001642	0.001746	28.0788	0.018725	0.001938	9.659687	38.5463	-166.829	-0.034500	0.673508	-0.470696	-0.471941	0.025751	9.659687	-0.472696	-1.42299e+06	-1.809666E-8	NaN
211	1.000000	0.716760	7.36711e+06	-49189.1	955.819	-29760.2	0.000000	0.000000	6.717021	0.040148	NaN	0.000000	0.001598	0.001739	28.0791	0.015391	0.002051	7.503712	88.8501	15.1986	-0.039941	0.715388	-0.428688	-0.430060	0.040148	7.503712	-0.432701	-389280	-1.031327E-7	NaN
211	1.000000	0.758780	7.36711e+06	-49189.1	955.818	-29760.2	0.000000	0.000000	6.759039	0.005928	NaN	0.000000	0.001550	0.001699	28.0781	0.166527	0.001937	85.9519	118.603	-168.753	0.000481	0.757474	-0.386668	-0.387975	0.005928	85.9519	-0.386720	-86342.6	-6.865217E-8	NaN
211	1.000000	0.800794	7.36711e+06	-49189.1	955.818	-29760.2	0.000000	0.000000	6.801055	0.053828	NaN	0.000000	0.001610	0.001722	28.0783	0.071641	0.001964	36.4852	-114.853	16.1469	0.020094	0.799496	-0.344655	-0.345953	0.053828	36.4852	-0.345761	-22152.7	-2.429857E-6	NaN
211	1.000000	0.842840	7.36711e+06	-49189.1	955.818	-29760.2	0.000000	0.000000	6.843100	0.016226	NaN	0.000000	0.001608	0.001754	28.078	0.083492	0.002110	39.5738	6.355465	-165.07	-0.007167	0.841519	-0.302609	-0.303930	0.016226	39.5738	-0.302916	-5200.07	-3.120347E-6	NaN
211	1.000000	0.884839	7.36711e+06	-49189.1	955.819	-29760.2	0.000000	0.000000	6.885099	0.039459	NaN	0.000000	0.001601	0.001700	28.0775	0.087046	0.002033	42.8131	172.221	19.1785	0.043274	0.883498	-0.260610	-0.261950	0.039459	42.8131	-0.261301	-1227.01	-3.215853E-5	NaN
211	1.000000	0.926841	7.36711e+06	-49189.1	955.818	-29760.2	0.000000	0.000000	6.927102	0.062870	NaN	0.000000	0.001593	0.001694	28.0787	0.065923	0.002047	32.205	19.8045	-163.25	-0.039724	0.925582	-0.218608	-0.219866	0.062870	32.205	-0.220072	-278.502	-0.000226	NaN
211	1.000000	0.968850	7.36711e+06	-49189.1	955.818	-29760.2	0.000000	0.000000	6.969108	-0.008007	NaN	0.000000	0.001617	0.001745	28.0788	0.103841	0.002045	50.7845	-152.758	15.3306	-0.070326	0.967527	-0.176599	-0.177921	-0.008007	50.7845	-0.176481	-53.1356	0.000151	NaN
211	1.000000	1.010909	7.36711e+06	-49189.1	955.819	-29760.2	0.000000	0.000000	7.011168	0.004736	NaN	0.000000	0.001683	0.001734	28.0788	0.041671	0.002095	19.8897	-161.258	-164.933	-0.005881	1.009582	-0.134540	-0.135866	0.004736	19.8897	-0.134718	-9.395347	-0.000504	NaN
211	1.000000	1.052892	7.36711e+06	-49189.1	955.82	-29760.2	0.000000	0.000000	7.053150	-0.030970	NaN	0.000000	0.001670	0.001713	28.0777	0.043490	0.002103	20.6841	26.4824	16.9193	-0.040333	1.051535	-0.092556	-0.093914	-0.030970	20.6841	-0.091433	-1.167625	0.026524	NaN
211	1.000000	1.094958	7.36711e+06	-49189.1	955.819	-29760.2	0.000000	0.000000	7.095216	-0.031877	NaN	0.000000	0.001565	0.001749	28.0774	0.159422	0.001987	80.2121	-50.6202	-161.577	-0.019284	1.093607	-0.050490	-0.051842	-0.031877	80.2121	-0.050192	-0.092480	0.344685	NaN
211	1.000000	1.136908	7.36711e+06	-49189.1	955.821	-29760.2	0.000000	0.000000	7.137165	-0.033632	NaN	0.000000	0.001613	0.001669	28.0773	0.127541	0.002060	61.9155	-82.8098	14.8168	-0.067738	1.135574	-0.008541	-0.009874	-0.033632	61.9155	-0.008133	-0.005310	6.334195	NaN
211	2.000000	1.162552	7.36711e+06	-49189.1	955.82	-29760.2	0.000000	0.000000	7.163415	14.699	NaN	0.000000	0.001625	0.001737	28.0787	14.0461	0.001684	8341.14	7.318968	-174.999	14.9172	1.162184	0.017104	0.016735	14.699	8341.14	0.015782	0.016342	899.449	59613.4
211	2.000000	1.172926	7.36711e+06	-49189.1	955.819	-29760.2	0.000000	0.000000	7.174700	36.8316	NaN	0.000000	0.001610	0.001763	28.0786	23.9201	0.001651	14488.9	2.594703	3.914036	34.6306	1.172622	0.027478	0.027173	36.8316	14488.9	0.025571	0.032063	1148.72	73927.7
211	2.000000	1.183397	7.36711e+06	-49189.1	955.819	-29760.2	0.000000	0.000000	7.186230	62.5906	NaN	0.000000	0.001589	0.001735	28.0786	34.4232	0.001731	19882.8	6.956161	176.097	59.8485	1.183085	0.037949	0.037636	62.5906	19882.8	0.035588	0.053123	1178.22	78815.1
211	2.000000	1.193884	7.36711e+06	-49189.1	955.82	-29760.2	0.000000	0.000000	7.198334	101.937	NaN	0.000000	0.001616	0.001699	28.0774	43.3465	0.001805	24016.4	3.483369	0.765491	100.167	1.193528	0.048435	0.048079	101.937	24016.4	0.045252	0.078303	1301.82	78413.5
211	2.000000	1.204421	7.36711e+06	-49189.1	955.82	-29760.2	0.000000	0.000000	7.210585	143.598	NaN	0.000000	0.001725	0.001759	28.0776	54.3668	0.001818	29899.4	5.951843	175.212	142.605	1.204033	0.058973	0.058584	143.598	29899.4	0.055370	0.109733	1308.62	82464.4
211	2.000000	1.214874	7.36712e+06	-49189.1	955.82	-29760.2	0.000000	0.000000	7.223215	196.575	NaN	0.000000	0.001686	0.001729	28.0775	65.4443	0.001860	35182.8	4.552426	-5.098969	194.351	1.214583	0.069425	0.069134	196.575	35182.8	0.065235	0.145245	1353.4	84343.7
211	2.000000	1.225370	7.36712e+06	-49189.1	955.819	-29760.2	0.000000	0.000000	7.236574	266.185	NaN	0.000000	0.001654	0.001704	28.0775	74.4224	0.001893	39315.6	5.114005	173.818	265.716	1.225004	0.079921	0.079555	266.185	39315.6	0.074844	0.184347	1443.93	83660.3
211	2.000000	1.235822	7.36712e+06	-49189.1	955.82	-29760.2	0.000000	0.000000	7.250259	344.813	NaN	0.000000	0.001656	0.001723	28.0786	83.5589	0.001742	47965	4.597821	-7.592451	339.725	1.235471	0.090374	0.090022	344.813	47965	0.084982	0.230316	1497.13	91313.7
211	2.000000	1.246321	7.36712e+06	-49189.1	955.819	-29760.2	0.000000	0.000000	7.264057	425.045	NaN	0.000000	0.001678	0.001733	28.0788	93.2363	0.001735	53741.1	4.432347	172.363	422.806	1.246008	0.100872	0.100559	425.045	53741.1	0.094940	0.280093	1517.52	92774.5
211	2.000000	1.255338	7.36712e+06	-49189.1	955.821	-29760.2	0.000000	0.000000	7.275367	480.808	NaN	0.000000	0.001612	0.001751	28.0792	102.72	0.001830	56142	1.659223	174.381	478.886	1.255154	0.109889	0.109706	480.808	56142	0.103466	0.326307	1473.48	89794.1