File: remote_trans/data/nanoindenter/0828-1/data/Data_2025-08-06,11h17m57s/2025-07-22_16-23-58_1_414.txt
2025-07-22, 16:23:58, 1
Index	Phase	Displacement	Time	Pos X	Pos Y	Pos Z	Rot A	Rot B	Piezo Z	Force A	Force B	Gripper	Voltage A	Voltage B	Temperature	Amplitude force	Amplitude pos	Stiffness	Phase shift	Phase excitation	Force A raw	Displacement raw	HMax	HMax raw	Real Force	Real Stiffness	Contact Depth	Area	Hardness	Reduced Mod.
[#]	[#]	[um]	[s]	[um]	[um]	[um]	[m°]	[m°]	[um]	[uN]	[uN]	[V]	[V]	[V]	[°C]	[uN]	[um]	[N/m]	[°]	[°]	[uN]	[um]	[um]	[um]	[uN]	[N/m]	[um]	[um^2]	[MPa]	[MPa]
414	1.000000	0.002609	7.36911e+06	-56389.1	1005.82	-29739.2	0.000000	0.000000	6.002794	0.109165	NaN	0.000000	0.001700	0.001634	28.0824	0.090744	0.000989	91.7083	60.571	-170.576	0.091303	0.001320	-1.146196	-1.147485	0.109165	91.7083	-1.147089	-2.146781E+15	-5.085077E-17	NaN
414	1.000000	0.044599	7.36911e+06	-56389.1	1005.82	-29739.2	0.000000	0.000000	6.044778	-0.021405	NaN	0.000000	0.001686	0.001639	28.0811	0.069508	0.001943	35.7802	141.385	19.8853	0.070399	0.043234	-1.104206	-1.105571	-0.021405	35.7802	-1.103758	-5.629982E+14	3.802023E-17	NaN
414	1.000000	0.086605	7.36911e+06	-56389.1	1005.82	-29739.2	0.000000	0.000000	6.086785	-0.009504	NaN	0.000000	0.001648	0.001611	28.0808	0.022259	0.001926	11.5551	124.893	-165.993	0.035644	0.085284	-1.062200	-1.063521	-0.009504	11.5551	-1.061583	-1.527902E+14	6.220416E-17	NaN
414	1.000000	0.128622	7.36911e+06	-56389.1	1005.82	-29739.2	0.000000	0.000000	6.128804	0.026302	NaN	0.000000	0.001651	0.001675	28.0813	0.045491	0.001882	24.1679	9.808808	15.9771	-0.059780	0.127248	-1.020183	-1.021557	0.026302	24.1679	-1.020999	-4.349058E+13	-6.047680E-16	NaN
414	1.000000	0.170633	7.36911e+06	-56389.1	1005.82	-29739.2	0.000000	0.000000	6.170814	0.007308	NaN	0.000000	0.001667	0.001665	28.0808	0.079068	0.001929	40.9873	-122.407	-165.181	0.020675	0.169348	-0.978172	-0.979457	0.007308	40.9873	-0.978306	-1.157665E+13	-6.313056E-16	NaN
414	1.000000	0.212630	7.36911e+06	-56389.1	1005.82	-29739.2	0.000000	0.000000	6.212809	-0.046915	NaN	0.000000	0.001681	0.001693	28.0822	0.031627	0.001943	16.2743	-107.582	15.0142	0.008337	0.211299	-0.936175	-0.937506	-0.046915	16.2743	-0.934013	-2.926507E+12	1.603108E-14	NaN
414	1.000000	0.254649	7.36911e+06	-56389.1	1005.82	-29739.2	0.000000	0.000000	6.254828	-0.025028	NaN	0.000000	0.001625	0.001634	28.0825	0.068045	0.002023	33.6403	62.726	-163.724	0.036153	0.253336	-0.894156	-0.895469	-0.025028	33.6403	-0.893598	-8.328234E+11	3.005186E-14	NaN
414	1.000000	0.296665	7.36911e+06	-56389.1	1005.82	-29739.2	0.000000	0.000000	6.296844	-0.040611	NaN	0.000000	0.001685	0.001645	28.0823	0.040626	0.001930	21.0529	119.677	15.054	0.018965	0.295353	-0.852140	-0.853452	-0.040611	21.0529	-0.850693	-2.188389E+11	1.855735E-13	NaN
414	1.000000	0.338689	7.36911e+06	-56389.1	1005.82	-29739.2	0.000000	0.000000	6.338872	0.067386	NaN	0.000000	0.001718	0.001623	28.0813	0.073933	0.001955	37.826	171.233	-166.917	0.001587	0.337442	-0.810116	-0.811363	0.067386	37.826	-0.811452	-6.430945E+10	-1.047843E-12	NaN
414	1.000000	0.380707	7.36911e+06	-56389.1	1005.82	-29739.2	0.000000	0.000000	6.380887	-0.032088	NaN	0.000000	0.001753	0.001648	28.0811	0.074907	0.001999	37.4691	-34.9764	13.8681	0.031262	0.379325	-0.768098	-0.769480	-0.032088	37.4691	-0.767455	-1.624449E+10	1.975329E-12	NaN
414	1.000000	0.422720	7.36911e+06	-56389.1	1005.82	-29739.2	0.000000	0.000000	6.422901	0.009404	NaN	0.000000	0.001767	0.001631	28.081	0.164954	0.002039	80.9069	83.1979	-164.12	0.021758	0.421389	-0.726085	-0.727416	0.009404	80.9069	-0.726172	-4.452742E+9	-2.111858E-12	NaN
414	1.000000	0.464768	7.36911e+06	-56389.1	1005.82	-29739.2	0.000000	0.000000	6.464950	0.035899	NaN	0.000000	0.001700	0.001607	28.0823	0.074245	0.002157	34.4232	-55.0648	13.8597	0.037658	0.463404	-0.684037	-0.685400	0.035899	34.4232	-0.684819	-1.213662E+9	-2.957888E-11	NaN
414	1.000000	0.506742	7.36911e+06	-56389.1	1005.82	-29739.2	0.000000	0.000000	6.506923	0.018040	NaN	0.000000	0.001668	0.001647	28.0822	0.063145	0.002043	30.9048	140.121	-165.796	0.013169	0.505439	-0.642063	-0.643366	0.018040	30.9048	-0.642501	-3.195969E+8	-5.644724E-11	NaN
414	1.000000	0.548790	7.36911e+06	-56389.1	1005.82	-29739.2	0.000000	0.000000	6.548970	-0.019118	NaN	0.000000	0.001737	0.001656	28.0821	0.083059	0.001992	41.6922	179.928	14.1328	0.065888	0.547405	-0.600015	-0.601400	-0.019118	41.6922	-0.599671	-8.240011E+7	2.320198E-10	NaN
414	1.000000	0.590788	7.36911e+06	-56389.1	1005.82	-29739.2	0.000000	0.000000	6.590969	-0.013997	NaN	0.000000	0.001744	0.001599	28.0811	0.054057	0.001850	29.2144	16.5536	-161.533	-0.058119	0.589448	-0.558016	-0.559357	-0.013997	29.2144	-0.557657	-2.167518E+7	6.457494E-10	NaN
414	1.000000	0.632810	7.36911e+06	-56389.1	1005.82	-29739.2	0.000000	0.000000	6.632989	-0.030811	NaN	0.000000	0.001691	0.001633	28.0807	0.020818	0.002001	10.402	-21.2512	16.5151	-0.021077	0.631492	-0.515995	-0.517313	-0.030811	10.402	-0.513774	-5.33287e+06	5.777575E-9	NaN
414	1.000000	0.674802	7.36911e+06	-56389.1	1005.82	-29739.2	0.000000	0.000000	6.674983	-0.009450	NaN	0.000000	0.001713	0.001628	28.0812	0.085232	0.002031	41.974	-53.9835	-163.816	-0.009184	0.673538	-0.474003	-0.475266	-0.009450	41.974	-0.473834	-1.47624e+06	6.401098E-9	NaN
414	1.000000	0.716859	7.36911e+06	-56389.1	1005.82	-29739.2	0.000000	0.000000	6.717039	-0.007073	NaN	0.000000	0.001735	0.001627	28.0812	0.021582	0.002016	10.7028	40.3821	12.2582	0.007496	0.715484	-0.431946	-0.433321	-0.007073	10.7028	-0.431450	-373746	1.892561E-8	NaN
414	1.000000	0.758891	7.36911e+06	-56389.1	1005.82	-29739.2	0.000000	0.000000	6.759073	0.033320	NaN	0.000000	0.001666	0.001574	28.083	0.105968	0.001949	54.3784	-171.675	-167.991	0.030550	0.757594	-0.389914	-0.391211	0.033320	54.3784	-0.390374	-97389.7	-3.421357E-7	NaN
414	1.000000	0.800882	7.36911e+06	-56389.1	1005.82	-29739.2	0.000000	0.000000	6.801064	0.023682	NaN	0.000000	0.001660	0.001627	28.0825	0.085742	0.002102	40.7897	-112.288	16.7491	-0.075491	0.799546	-0.347922	-0.349259	0.023682	40.7897	-0.348358	-24163.6	-9.800573E-7	NaN
414	1.000000	0.842884	7.36911e+06	-56389.1	1005.82	-29739.2	0.000000	0.000000	6.843065	-0.007366	NaN	0.000000	0.001728	0.001599	28.0826	0.045182	0.001850	24.4282	-109.884	-162.473	0.013681	0.841607	-0.305921	-0.307197	-0.007366	24.4282	-0.305695	-5718.23	1.288076E-6	NaN
414	1.000000	0.884933	7.36911e+06	-56389.1	1005.82	-29739.2	0.000000	0.000000	6.885116	0.054931	NaN	0.000000	0.001744	0.001576	28.0813	0.057762	0.001847	31.2802	17.3055	18.3896	0.059363	0.883543	-0.263872	-0.265262	0.054931	31.2802	-0.265189	-1406.93	-3.904305E-5	NaN
414	1.000000	0.926949	7.36911e+06	-56389.1	1005.82	-29739.2	0.000000	0.000000	6.927129	-0.013011	NaN	0.000000	0.001707	0.001615	28.0811	0.063263	0.001936	32.6809	146.619	-163.287	0.086613	0.925610	-0.221856	-0.223195	-0.013011	32.6809	-0.221557	-294.128	4.423479E-5	NaN
414	1.000000	0.968951	7.36911e+06	-56389.1	1005.82	-29739.2	0.000000	0.000000	6.969132	-0.004616	NaN	0.000000	0.001750	0.001596	28.0816	0.065564	0.001963	33.4	-149.55	14.9594	-0.030245	0.967550	-0.179853	-0.181255	-0.004616	33.4	-0.179750	-60.4241	7.638962E-5	NaN
414	1.000000	1.010974	7.36911e+06	-56389.1	1005.82	-29739.2	0.000000	0.000000	7.011156	0.013344	NaN	0.000000	0.001756	0.001723	28.0824	0.063426	0.002031	31.223	31.6852	-165.822	0.002881	1.009631	-0.137831	-0.139174	0.013344	31.223	-0.138151	-10.9178	-0.001222	NaN
414	1.000000	1.053006	7.36911e+06	-56389.1	1005.82	-29739.2	0.000000	0.000000	7.053187	-0.009775	NaN	0.000000	0.001712	0.001667	28.0825	0.098449	0.001795	54.8519	175.341	16.9386	-0.016329	1.051636	-0.095799	-0.097169	-0.009775	54.8519	-0.095665	-1.460621	0.006692	NaN
414	1.000000	1.094984	7.36911e+06	-56389.1	1005.82	-29739.2	0.000000	0.000000	7.095166	0.016195	NaN	0.000000	0.001718	0.001647	28.0823	0.125676	0.001974	63.6571	144.262	-163.277	0.032176	1.093702	-0.053821	-0.055103	0.016195	63.6571	-0.054011	-0.120377	-0.134539	NaN
414	1.000000	1.137007	7.36911e+06	-56389.1	1005.82	-29739.2	0.000000	0.000000	7.137192	0.103518	NaN	0.000000	0.001675	0.001703	28.0812	0.140481	0.001893	74.2081	-26.1294	14.6576	0.060566	1.135635	-0.011798	-0.013170	0.103518	74.2081	-0.012844	-0.008013	-12.9193	NaN
414	2.000000	1.163620	7.36912e+06	-56389.1	1005.82	-29739.2	0.000000	0.000000	7.164349	13.3394	NaN	0.000000	0.001721	0.001679	28.0814	13.0334	0.001765	7383.32	9.947293	-176.255	13.5839	1.163278	0.014815	0.014473	13.3394	7383.32	0.013460	0.013286	1004.01	58522.8
414	2.000000	1.174001	7.36912e+06	-56389.1	1005.82	-29739.2	0.000000	0.000000	7.175563	33.5594	NaN	0.000000	0.001699	0.001649	28.0813	22.5015	0.001781	12633.2	-0.051266	9.298328	31.1766	1.173649	0.025196	0.024844	33.5594	12633.2	0.023204	0.027829	1205.9	69188.6
414	2.000000	1.184515	7.36912e+06	-56389.1	1005.82	-29739.2	0.000000	0.000000	7.187228	61.5506	NaN	0.000000	0.001738	0.001630	28.0817	33.2641	0.001779	18696.3	4.568683	-178.999	60.6682	1.184134	0.035710	0.035329	61.5506	18696.3	0.033241	0.047729	1289.6	78188.1
414	2.000000	1.194983	7.36912e+06	-56389.1	1005.82	-29739.2	0.000000	0.000000	7.199360	101.99	NaN	0.000000	0.001711	0.001685	28.0826	42.7054	0.001779	24008.1	4.157148	-0.354549	101.623	1.194567	0.046178	0.045763	101.99	24008.1	0.042992	0.071989	1416.73	81751.6
414	2.000000	1.205503	7.36912e+06	-56389.1	1005.82	-29739.2	0.000000	0.000000	7.211925	151.712	NaN	0.000000	0.001657	0.001650	28.0826	52.4923	0.001736	30243	5.468205	176.164	150.658	1.205118	0.056698	0.056313	151.712	30243	0.052935	0.101702	1491.73	86643.1
414	2.000000	1.215944	7.36912e+06	-56389.1	1005.82	-29739.2	0.000000	0.000000	7.224322	199.227	NaN	0.000000	0.001683	0.001655	28.0833	62.8609	0.001994	31520.4	3.605718	-2.548041	197.161	1.215680	0.067140	0.066875	199.227	31520.4	0.062399	0.134551	1480.67	78509.3
414	2.000000	1.226485	7.36912e+06	-56389.1	1005.82	-29739.2	0.000000	0.000000	7.237429	261.617	NaN	0.000000	0.001693	0.001676	28.0814	73.2503	0.001678	43652.9	5.886614	172.319	262.753	1.226205	0.077680	0.077401	261.617	43652.9	0.073185	0.177287	1475.67	94721.3
414	2.000000	1.236943	7.36912e+06	-56389.1	1005.82	-29739.2	0.000000	0.000000	7.250929	335.552	NaN	0.000000	0.001699	0.001676	28.0815	83.181	0.001842	45164.5	7.973302	-9.807074	332.837	1.236452	0.088138	0.087647	335.552	45164.5	0.082566	0.218927	1532.71	88190.2
414	2.000000	1.247400	7.36912e+06	-56389.1	1005.82	-29739.2	0.000000	0.000000	7.264859	419.99	NaN	0.000000	0.001732	0.001668	28.0812	91.8602	0.001760	52190.7	5.660300	171.669	419.209	1.247060	0.098595	0.098255	419.99	52190.7	0.092560	0.267778	1568.43	92146.5
414	2.000000	1.256840	7.36912e+06	-56389.1	1005.82	-29739.2	0.000000	0.000000	7.277286	492.587	NaN	0.000000	0.001682	0.001688	28.0831	100.064	0.001694	59056.6	4.545235	-7.902228	484.753	1.256438	0.108035	0.107634	492.587	59056.6	0.101779	0.316901	1554.39	95847.4