File: remote_trans/data/nanoindenter/0828-1/data/Data_2025-08-06,11h17m57s/2025-07-22_16-23-58_1_424.txt
2025-07-22, 16:23:58, 1
Index	Phase	Displacement	Time	Pos X	Pos Y	Pos Z	Rot A	Rot B	Piezo Z	Force A	Force B	Gripper	Voltage A	Voltage B	Temperature	Amplitude force	Amplitude pos	Stiffness	Phase shift	Phase excitation	Force A raw	Displacement raw	HMax	HMax raw	Real Force	Real Stiffness	Contact Depth	Area	Hardness	Reduced Mod.
[#]	[#]	[um]	[s]	[um]	[um]	[um]	[m°]	[m°]	[um]	[uN]	[uN]	[V]	[V]	[V]	[°C]	[uN]	[um]	[N/m]	[°]	[°]	[uN]	[um]	[um]	[um]	[uN]	[N/m]	[um]	[um^2]	[MPa]	[MPa]
424	1.000000	0.002317	7.3692e+06	-55889.1	1005.82	-29740.6	0.000000	0.000000	6.002766	-0.009961	NaN	0.000000	0.001577	0.001738	28.0813	0.050940	0.000915	55.6986	2.746386	-167.762	0.014797	0.001114	-1.077180	-1.078384	-0.009961	55.6986	-1.077046	-2.465126E+14	4.040701E-17	NaN
424	1.000000	0.042330	7.36921e+06	-55889.1	1005.82	-29740.6	0.000000	0.000000	6.042780	0.029695	NaN	0.000000	0.001576	0.001739	28.0805	0.056471	0.001925	29.3382	61.8525	-163.394	0.059603	0.040977	-1.037168	-1.038520	0.029695	29.3382	-1.037927	-7.346608E+13	-4.041960E-16	NaN
424	1.000000	0.082271	7.36921e+06	-55889.1	1005.82	-29740.6	0.000000	0.000000	6.082718	-0.035999	NaN	0.000000	0.001582	0.001727	28.0803	0.074932	0.001981	37.8231	139.373	-161.968	-0.095907	0.081004	-0.997227	-0.998494	-0.035999	37.8231	-0.996513	-2.036183E+13	1.767944E-15	NaN
424	1.000000	0.122338	7.36921e+06	-55889.1	1005.82	-29740.6	0.000000	0.000000	6.122788	0.049975	NaN	0.000000	0.001587	0.001714	28.0801	0.061941	0.001978	31.3138	-69.3343	-165.332	0.029802	0.121001	-0.957160	-0.958496	0.049975	31.3138	-0.958357	-6.233259E+12	-8.017488E-15	NaN
424	1.000000	0.162350	7.36921e+06	-55889.1	1005.82	-29740.6	0.000000	0.000000	6.162800	0.034790	NaN	0.000000	0.001576	0.001735	28.0814	0.038124	0.001944	19.6062	-38.777	-165.277	-0.048875	0.161072	-0.917147	-0.918425	0.034790	19.6062	-0.918478	-1.805748E+12	-1.926630E-14	NaN
424	1.000000	0.202387	7.36921e+06	-55889.1	1005.82	-29740.6	0.000000	0.000000	6.202838	0.068915	NaN	0.000000	0.001587	0.001778	28.0812	0.048128	0.001907	25.2333	144.51	-166.989	0.084159	0.200973	-0.877111	-0.878524	0.068915	25.2333	-0.879159	-5.312940E+11	-1.297117E-13	NaN
424	1.000000	0.242410	7.36921e+06	-55889.1	1005.82	-29740.6	0.000000	0.000000	6.242858	-0.007554	NaN	0.000000	0.001568	0.001756	28.0814	0.020835	0.002108	9.882813	120.286	-164.47	0.058958	0.241042	-0.837088	-0.838456	-0.007554	9.882813	-0.836515	-1.406271E+11	5.371852E-14	NaN
424	1.000000	0.282403	7.36921e+06	-55889.1	1005.82	-29740.6	0.000000	0.000000	6.282851	-0.012305	NaN	0.000000	0.001589	0.001724	28.0814	0.066466	0.001980	33.5768	96.3572	-164.037	-0.051102	0.281116	-0.797094	-0.798381	-0.012305	33.5768	-0.796819	-4.070807E+10	3.022820E-13	NaN
424	1.000000	0.322416	7.36921e+06	-55889.1	1005.82	-29740.6	0.000000	0.000000	6.322864	-0.013658	NaN	0.000000	0.001623	0.001773	28.0801	0.031707	0.001956	16.212	-2.572087	-163.498	0.021237	0.321090	-0.757081	-0.758408	-0.013658	16.212	-0.756449	-1.150782E+10	1.186875E-12	NaN
424	1.000000	0.362378	7.36921e+06	-55889.1	1005.82	-29740.6	0.000000	0.000000	6.362825	-0.027614	NaN	0.000000	0.001583	0.001757	28.08	0.012351	0.002135	5.784103	134.528	-161.932	-0.039128	0.361099	-0.717119	-0.718399	-0.027614	5.784103	-0.713539	-2.994577E+9	9.221326E-12	NaN
424	1.000000	0.402447	7.36921e+06	-55889.1	1005.82	-29740.6	0.000000	0.000000	6.402896	0.012203	NaN	0.000000	0.001651	0.001733	28.08	0.071317	0.001933	36.8983	115.132	-162.337	0.004352	0.401157	-0.677050	-0.678340	0.012203	36.8983	-0.677298	-9.577445E+8	-1.274097E-11	NaN
424	1.000000	0.442465	7.36921e+06	-55889.1	1005.82	-29740.6	0.000000	0.000000	6.442912	-0.017662	NaN	0.000000	0.001666	0.001756	28.0814	0.062485	0.001988	31.4377	-167.218	-164.172	0.006903	0.441144	-0.637033	-0.638353	-0.017662	31.4377	-0.636611	-2.653318E+8	6.656602E-11	NaN
424	1.000000	0.482501	7.36921e+06	-55889.1	1005.82	-29740.6	0.000000	0.000000	6.482953	0.101996	NaN	0.000000	0.001656	0.001789	28.0815	0.082449	0.002047	40.2816	119.508	-164.068	0.098380	0.481141	-0.596997	-0.598356	0.101996	40.2816	-0.598896	-8.039909E+7	-1.268621E-9	NaN
424	1.000000	0.522485	7.36921e+06	-55889.1	1005.82	-29740.6	0.000000	0.000000	6.522932	-0.026478	NaN	0.000000	0.001568	0.001708	28.0815	0.029722	0.002061	14.4213	18.5064	-164.507	-0.027581	0.521209	-0.557012	-0.558289	-0.026478	14.4213	-0.555635	-2.032275E+7	1.302884E-9	NaN
424	1.000000	0.562523	7.36921e+06	-55889.1	1005.82	-29740.6	0.000000	0.000000	6.562971	-0.009769	NaN	0.000000	0.001636	0.001706	28.0815	0.021966	0.002066	10.6327	-167.141	-164.677	0.028742	0.561191	-0.516974	-0.518307	-0.009769	10.6327	-0.516285	-5.77986e+06	1.690121E-9	NaN
424	1.000000	0.602542	7.36921e+06	-55889.1	1005.82	-29740.6	0.000000	0.000000	6.602993	0.058050	NaN	0.000000	0.001607	0.001703	28.0804	0.067158	0.001931	34.7728	-34.0847	-162.625	0.062242	0.601215	-0.476955	-0.478282	0.058050	34.7728	-0.478207	-1.69992e+06	-3.414866E-8	NaN
424	1.000000	0.642555	7.36921e+06	-55889.1	1005.82	-29740.6	0.000000	0.000000	6.643005	0.039613	NaN	0.000000	0.001592	0.001694	28.0803	0.103110	0.002038	50.5961	137.832	-164.418	0.001179	0.641257	-0.436942	-0.438241	0.039613	50.5961	-0.437529	-455497	-8.696701E-8	NaN
424	1.000000	0.682570	7.36921e+06	-55889.1	1005.82	-29740.6	0.000000	0.000000	6.683020	0.038646	NaN	0.000000	0.001604	0.001675	28.0805	0.016961	0.002003	8.469993	102.07	-166.517	0.027708	0.681228	-0.396928	-0.398269	0.038646	8.469993	-0.400350	-135202	-2.858417E-7	NaN
424	1.000000	0.722588	7.36921e+06	-55889.1	1005.82	-29740.6	0.000000	0.000000	6.723036	-0.009372	NaN	0.000000	0.001684	0.001678	28.0816	0.013601	0.002147	6.335830	178.997	-165.022	0.017137	0.721222	-0.356909	-0.358275	-0.009372	6.335830	-0.355800	-30979.6	3.025336E-7	NaN
424	1.000000	0.762613	7.36921e+06	-55889.1	1005.82	-29740.6	0.000000	0.000000	6.763062	0.030753	NaN	0.000000	0.001724	0.001698	28.0816	0.020794	0.002100	9.902203	-100.593	-165.067	0.060648	0.761323	-0.316885	-0.318175	0.030753	9.902203	-0.319214	-9058.7	-3.394897E-6	NaN
424	1.000000	0.802604	7.36921e+06	-55889.1	1005.82	-29740.6	0.000000	0.000000	6.803055	0.057072	NaN	0.000000	0.001691	0.001686	28.0816	0.044696	0.001892	23.6254	22.0941	-162.027	0.034927	0.801291	-0.276893	-0.278206	0.057072	23.6254	-0.278705	-2256.43	-2.529311E-5	NaN
424	1.000000	0.842639	7.36921e+06	-55889.1	1005.82	-29740.6	0.000000	0.000000	6.843087	-0.028312	NaN	0.000000	0.001611	0.001637	28.0805	0.106498	0.001997	53.3371	-27.3378	-163.07	-0.101321	0.841322	-0.236858	-0.238175	-0.028312	53.3371	-0.236460	-506.003	5.595201E-5	NaN
424	1.000000	0.882669	7.36921e+06	-55889.1	1005.82	-29740.6	0.000000	0.000000	6.883119	0.026926	NaN	0.000000	0.001660	0.001680	28.0804	0.034757	0.001986	17.499	-121.807	-166.522	-0.070252	0.881368	-0.196828	-0.198130	0.026926	17.499	-0.197982	-122.034	-0.000221	NaN
424	1.000000	0.922711	7.36921e+06	-55889.1	1005.82	-29740.6	0.000000	0.000000	6.923155	-0.097081	NaN	0.000000	0.001692	0.001692	28.08	0.022443	0.002107	10.6522	-42.3921	-164.716	0.070782	0.921321	-0.156787	-0.158177	-0.097081	10.6522	-0.149952	-18.0768	0.005370	NaN
424	1.000000	0.962683	7.36921e+06	-55889.1	1005.82	-29740.6	0.000000	0.000000	6.963132	0.000397	NaN	0.000000	0.001684	0.001710	28.08	0.122204	0.001924	63.5155	108.363	-166.479	-0.027055	0.961389	-0.116814	-0.118108	0.000397	63.5155	-0.116819	-4.163448	-9.524850E-5	NaN
424	1.000000	1.002691	7.36921e+06	-55889.1	1005.82	-29740.6	0.000000	0.000000	7.003141	0.044786	NaN	0.000000	0.001647	0.001717	28.0812	0.039727	0.002095	18.9589	29.9242	-168.036	-0.019981	1.001380	-0.076806	-0.078118	0.044786	18.9589	-0.078578	-0.570107	-0.078557	NaN
424	1.000000	1.042695	7.36921e+06	-55889.1	1005.82	-29740.6	0.000000	0.000000	7.043141	-0.041504	NaN	0.000000	0.001676	0.001693	28.0813	0.078673	0.002064	38.1124	-12.733	-165.132	-0.017615	1.041441	-0.036803	-0.038056	-0.041504	38.1124	-0.035986	-0.034248	1.211864	NaN
424	1.000000	1.082690	7.36921e+06	-55889.1	1005.82	-29740.6	0.000000	0.000000	7.083246	2.602235	NaN	0.000000	0.001676	0.001676	28.0813	3.284866	0.001898	1730.74	9.678463	-169.263	1.052982	1.081399	0.003193	0.001902	2.602235	1730.74	0.002065	0.001608	1618.65	39437.4
424	2.000000	1.096342	7.36921e+06	-55889.1	1005.82	-29740.6	0.000000	0.000000	7.097661	21.1681	NaN	0.000000	0.001688	0.001677	28.08	18.3318	0.001847	9923.33	6.821947	-175.269	20.9635	1.096018	0.016844	0.016520	21.1681	9923.33	0.015244	0.015613	1355.82	72558.9
424	2.000000	1.106295	7.36921e+06	-55889.1	1005.82	-29740.6	0.000000	0.000000	7.108559	44.1462	NaN	0.000000	0.001662	0.001688	28.0803	28.9427	0.001738	16655.8	5.786569	-179.79	44.0439	1.105984	0.026797	0.026486	44.1462	16655.8	0.024810	0.030670	1439.39	86892.4
424	2.000000	1.116219	7.36921e+06	-55889.1	1005.82	-29740.6	0.000000	0.000000	7.119831	76.8917	NaN	0.000000	0.001632	0.001721	28.0804	38.0416	0.001713	22212.6	5.480686	177.818	73.9571	1.115944	0.036722	0.036447	76.8917	22212.6	0.034125	0.049729	1546.22	91005.5
424	2.000000	1.126279	7.36921e+06	-55889.1	1005.82	-29740.6	0.000000	0.000000	7.131583	118.038	NaN	0.000000	0.001620	0.001690	28.0805	47.4683	0.001641	28932.4	1.439002	179.749	118.498	1.125937	0.046781	0.046439	118.038	28932.4	0.043721	0.073999	1595.13	97172.8
424	2.000000	1.136186	7.36921e+06	-55889.1	1005.82	-29740.6	0.000000	0.000000	7.143189	159.334	NaN	0.000000	0.001617	0.001717	28.0817	58.8888	0.001902	30963.5	2.626866	177.903	157.014	1.135977	0.056689	0.056480	159.334	30963.5	0.052829	0.101359	1571.98	88857.3
424	2.000000	1.146261	7.36921e+06	-55889.1	1005.82	-29740.6	0.000000	0.000000	7.155839	221.915	NaN	0.000000	0.001633	0.001741	28.0815	67.6718	0.001755	38560.1	3.735576	174.74	222.926	1.145944	0.066764	0.066447	221.915	38560.1	0.062448	0.134731	1647.1	95979.3
424	2.000000	1.156166	7.36921e+06	-55889.1	1005.82	-29740.6	0.000000	0.000000	7.168383	286.046	NaN	0.000000	0.001658	0.001723	28.0816	75.8048	0.001763	43003.6	2.584977	175.59	283.562	1.155988	0.076669	0.076491	286.046	43003.6	0.071680	0.170990	1672.88	95014.9
424	2.000000	1.166205	7.36921e+06	-55889.1	1005.82	-29740.6	0.000000	0.000000	7.181391	358.23	NaN	0.000000	0.001647	0.001760	28.0804	85.4235	0.001865	45797.4	0.465530	177.709	359.883	1.165903	0.086708	0.086406	358.23	45797.4	0.080841	0.210962	1698.08	91098.5
424	2.000000	1.176193	7.36921e+06	-55889.1	1005.82	-29740.6	0.000000	0.000000	7.194785	441.028	NaN	0.000000	0.001610	0.001719	28.0807	97.5473	0.001825	53462.7	5.804632	171.164	438.947	1.175798	0.096695	0.096301	441.028	53462.7	0.090508	0.257378	1713.55	96280.5
424	2.000000	1.186381	7.36921e+06	-55889.1	1005.82	-29740.6	0.000000	0.000000	7.208231	520.22	NaN	0.000000	0.001644	0.001709	28.0804	109.21	0.001889	57817.2	6.602451	170.522	533.385	1.185977	0.106883	0.106480	520.22	57817.2	0.100135	0.307857	1689.81	95204