File: remote_trans/data/nanoindenter/0828-1/data/Data_2025-08-06,11h17m57s/2025-07-22_16-23-58_1_751.txt
2025-07-22, 16:23:58, 1
Index	Phase	Displacement	Time	Pos X	Pos Y	Pos Z	Rot A	Rot B	Piezo Z	Force A	Force B	Gripper	Voltage A	Voltage B	Temperature	Amplitude force	Amplitude pos	Stiffness	Phase shift	Phase excitation	Force A raw	Displacement raw	HMax	HMax raw	Real Force	Real Stiffness	Contact Depth	Area	Hardness	Reduced Mod.
[#]	[#]	[um]	[s]	[um]	[um]	[um]	[m°]	[m°]	[um]	[uN]	[uN]	[V]	[V]	[V]	[°C]	[uN]	[um]	[N/m]	[°]	[°]	[uN]	[um]	[um]	[um]	[uN]	[N/m]	[um]	[um^2]	[MPa]	[MPa]
751	1.000000	0.002731	7.3724e+06	-39539.1	1005.82	-29793.5	0.000000	0.000000	6.002792	0.078610	NaN	0.000000	0.001618	0.001705	28.0837	0.057338	0.001051	54.5657	-38.106	-166.001	0.060270	0.001468	-1.067118	-1.068380	0.078610	54.5657	-1.068198	-1.874921E+14	-4.192726E-16	NaN
751	1.000000	0.042684	7.3724e+06	-39539.1	1005.82	-29793.5	0.000000	0.000000	6.042742	-0.005195	NaN	0.000000	0.001599	0.001727	28.0835	0.091847	0.002040	45.0195	149.503	-165.948	-0.045310	0.041388	-1.027165	-1.028460	-0.005195	45.0195	-1.027078	-5.250238E+13	9.895379E-17	NaN
751	1.000000	0.082734	7.3724e+06	-39539.1	1005.82	-29793.5	0.000000	0.000000	6.082790	-0.056597	NaN	0.000000	0.001589	0.001708	28.0824	0.098082	0.002060	47.606	-81.6651	-165.885	-0.047643	0.081360	-0.987114	-0.988488	-0.056597	47.606	-0.986223	-1.479908E+13	3.824391E-15	NaN
751	1.000000	0.122704	7.3724e+06	-39539.1	1005.82	-29793.5	0.000000	0.000000	6.122764	0.033264	NaN	0.000000	0.001572	0.001689	28.0826	0.036233	0.002078	17.4363	-5.751608	-165.156	-0.044855	0.121387	-0.947144	-0.948462	0.033264	17.4363	-0.948575	-4.600566E+12	-7.230340E-15	NaN
751	1.000000	0.162714	7.3724e+06	-39539.1	1005.82	-29793.5	0.000000	0.000000	6.162770	-0.057854	NaN	0.000000	0.001582	0.001692	28.082	0.033409	0.002079	16.0671	147.955	-164.659	-0.013410	0.161450	-0.907134	-0.908399	-0.057854	16.0671	-0.904434	-1.166736E+12	4.958618E-14	NaN
751	1.000000	0.202758	7.3724e+06	-39539.1	1005.82	-29793.5	0.000000	0.000000	6.202816	0.018378	NaN	0.000000	0.001668	0.001716	28.0817	0.032607	0.001922	16.9627	111.246	-165.048	0.061632	0.201470	-0.867091	-0.868378	0.018378	16.9627	-0.867904	-3.741804E+11	-4.911527E-14	NaN
751	1.000000	0.242770	7.3724e+06	-39539.1	1005.82	-29793.5	0.000000	0.000000	6.242826	-0.041487	NaN	0.000000	0.001670	0.001677	28.0832	0.116808	0.002041	57.2353	172.891	-166.873	-0.037226	0.241400	-0.827079	-0.828449	-0.041487	57.2353	-0.826535	-1.029960E+11	4.028031E-13	NaN
751	1.000000	0.282784	7.3724e+06	-39539.1	1005.82	-29793.5	0.000000	0.000000	6.282841	-0.037425	NaN	0.000000	0.001659	0.001714	28.0835	0.068330	0.002041	33.4756	167.288	-167.429	-0.083280	0.281472	-0.787064	-0.788377	-0.037425	33.4756	-0.786226	-2.922927E+10	1.280410E-12	NaN
751	1.000000	0.322803	7.3724e+06	-39539.1	1005.82	-29793.5	0.000000	0.000000	6.322861	0.011096	NaN	0.000000	0.001663	0.001708	28.0833	0.056161	0.002131	26.3528	151.671	-168.353	-0.081927	0.321505	-0.747046	-0.748343	0.011096	26.3528	-0.747362	-8.655745E+9	-1.281893E-12	NaN
751	1.000000	0.362837	7.3724e+06	-39539.1	1005.82	-29793.5	0.000000	0.000000	6.362896	0.024637	NaN	0.000000	0.001654	0.001709	28.0823	0.020124	0.001999	10.0688	-114.197	-164.368	0.137164	0.361502	-0.707011	-0.708347	0.024637	10.0688	-0.708847	-2.584088E+9	-9.534048E-12	NaN
751	1.000000	0.402841	7.3724e+06	-39539.1	1005.82	-29793.5	0.000000	0.000000	6.402899	-0.004572	NaN	0.000000	0.001626	0.001716	28.0825	0.066727	0.001962	34.0063	78.0503	-166.723	-0.021141	0.401574	-0.667008	-0.668274	-0.004572	34.0063	-0.666907	-6.903156E+8	6.622572E-12	NaN
751	1.000000	0.442832	7.3724e+06	-39539.1	1005.82	-29793.5	0.000000	0.000000	6.442892	0.034720	NaN	0.000000	0.001663	0.001670	28.0825	0.054271	0.002000	27.1343	-155.226	-164.559	0.044626	0.441565	-0.627017	-0.628283	0.034720	27.1343	-0.627976	-2.019443E+8	-1.719308E-10	NaN
751	1.000000	0.482860	7.3724e+06	-39539.1	1005.82	-29793.5	0.000000	0.000000	6.482917	-0.022517	NaN	0.000000	0.001678	0.001702	28.0835	0.040326	0.001989	20.2774	9.695939	-171.809	0.002662	0.481539	-0.586989	-0.588310	-0.022517	20.2774	-0.586156	-5.366153E+7	4.196035E-10	NaN
751	1.000000	0.522898	7.3724e+06	-39539.1	1005.82	-29793.5	0.000000	0.000000	6.522955	-0.040299	NaN	0.000000	0.001645	0.001734	28.0835	0.060593	0.001923	31.5143	-126.204	-167.482	-0.125019	0.521524	-0.546951	-0.548324	-0.040299	31.5143	-0.545992	-1.494248E+7	2.696914E-9	NaN
751	1.000000	0.562910	7.3724e+06	-39539.1	1005.82	-29793.5	0.000000	0.000000	6.562968	-0.019085	NaN	0.000000	0.001632	0.001703	28.0832	0.040311	0.002028	19.8783	72.4638	-166.213	-0.022074	0.561578	-0.506939	-0.508271	-0.019085	19.8783	-0.506218	-4.18531e+06	4.560062E-9	NaN
751	1.000000	0.602914	7.3724e+06	-39539.1	1005.82	-29793.5	0.000000	0.000000	6.602969	-0.064596	NaN	0.000000	0.001588	0.001695	28.0836	0.050346	0.001971	25.5433	-152.962	-165.937	-0.070851	0.601691	-0.466935	-0.468158	-0.064596	25.5433	-0.465038	-1.11118e+06	5.813346E-8	NaN
751	1.000000	0.642927	7.3724e+06	-39539.1	1005.82	-29793.5	0.000000	0.000000	6.642984	-0.018275	NaN	0.000000	0.001654	0.001749	28.0822	0.076316	0.002005	38.0696	-66.7541	-165.922	0.011962	0.641662	-0.426922	-0.428187	-0.018275	38.0696	-0.426562	-318713	5.734081E-8	NaN
751	1.000000	0.682956	7.3724e+06	-39539.1	1005.82	-29793.5	0.000000	0.000000	6.683012	-0.039579	NaN	0.000000	0.001656	0.001714	28.0823	0.039653	0.002018	19.6516	13.643	-167.233	-0.025144	0.681685	-0.386893	-0.388164	-0.039579	19.6516	-0.385382	-82615.7	4.790676E-7	NaN
751	1.000000	0.722962	7.3724e+06	-39539.1	1005.82	-29793.5	0.000000	0.000000	6.723021	0.031966	NaN	0.000000	0.001612	0.001730	28.0824	0.092311	0.002039	45.2641	-155.992	-167.342	-0.083605	0.721643	-0.346887	-0.348206	0.031966	45.2641	-0.347417	-23414.6	-1.365200E-6	NaN
751	1.000000	0.762986	7.3724e+06	-39539.1	1005.82	-29793.5	0.000000	0.000000	6.763043	-0.009623	NaN	0.000000	0.001621	0.001731	28.0836	0.176487	0.001959	90.102	-96.4428	-166.689	0.011438	0.761693	-0.306863	-0.308155	-0.009623	90.102	-0.306783	-5934.77	1.621525E-6	NaN
751	1.000000	0.803001	7.3724e+06	-39539.1	1005.82	-29793.5	0.000000	0.000000	6.803061	0.041238	NaN	0.000000	0.001654	0.001725	28.0835	0.056670	0.001898	29.8539	-69.0172	-164.943	0.070732	0.801708	-0.266847	-0.268141	0.041238	29.8539	-0.267883	-1546.47	-2.666580E-5	NaN
751	1.000000	0.843001	7.3724e+06	-39539.1	1005.82	-29793.5	0.000000	0.000000	6.843061	0.025568	NaN	0.000000	0.001649	0.001698	28.0836	0.062954	0.001929	32.6332	115.13	-164.367	0.098909	0.841735	-0.226847	-0.228113	0.025568	32.6332	-0.227435	-364.714	-7.010541E-5	NaN
751	1.000000	0.883047	7.3724e+06	-39539.1	1005.82	-29793.5	0.000000	0.000000	6.883105	-0.016727	NaN	0.000000	0.001579	0.001783	28.0837	0.097789	0.002035	48.0538	14.6438	-166.316	-0.085462	0.881747	-0.186801	-0.188102	-0.016727	48.0538	-0.186540	-78.7152	0.000212	NaN
751	1.000000	0.923049	7.3724e+06	-39539.1	1005.82	-29793.5	0.000000	0.000000	6.923105	-0.059831	NaN	0.000000	0.001574	0.001716	28.0825	0.025136	0.002095	11.9978	93.6201	-166.16	-0.088924	0.921708	-0.146800	-0.148141	-0.059831	11.9978	-0.143059	-13.4947	0.004434	NaN
751	1.000000	0.963071	7.3724e+06	-39539.1	1005.82	-29793.5	0.000000	0.000000	6.963128	-0.026217	NaN	0.000000	0.001605	0.001755	28.0827	0.041112	0.001972	20.8462	-139.189	-166.938	-0.029015	0.961770	-0.106778	-0.108079	-0.026217	20.8462	-0.105835	-2.450012	0.010701	NaN
751	1.000000	1.003091	7.3724e+06	-39539.1	1005.82	-29793.5	0.000000	0.000000	7.003149	-0.012244	NaN	0.000000	0.001627	0.001720	28.0828	0.060888	0.001887	32.259	-91.81	-164.482	0.035824	1.001735	-0.066758	-0.068113	-0.012244	32.259	-0.066473	-0.273673	0.044741	NaN
751	1.000000	1.043138	7.3724e+06	-39539.1	1005.82	-29793.5	0.000000	0.000000	7.043193	-0.075823	NaN	0.000000	0.001643	0.001711	28.0837	0.044828	0.002015	22.2438	172.117	-163.562	-0.050755	1.041840	-0.026711	-0.028008	-0.075823	22.2438	-0.024155	-0.016038	4.727842	NaN
751	2.000000	1.077688	7.37241e+06	-39539.1	1005.82	-29793.5	0.000000	0.000000	7.078170	10.316	NaN	0.000000	0.001634	0.001784	28.0834	9.907726	0.001570	6312.65	3.288690	-173	9.394316	1.077388	0.007839	0.007539	10.316	6312.65	0.006614	0.005655	1824.24	76695.4
751	2.000000	1.087698	7.37241e+06	-39539.1	1005.82	-29793.5	0.000000	0.000000	7.088869	27.0833	NaN	0.000000	0.001611	0.001746	28.0835	19.8708	0.001724	11524.2	4.450531	-176.824	29.5989	1.087395	0.017849	0.017547	27.0833	11524.2	0.016086	0.016761	1615.82	81325.6
751	2.000000	1.097606	7.37241e+06	-39539.1	1005.82	-29793.5	0.000000	0.000000	7.099619	47.5598	NaN	0.000000	0.001604	0.001738	28.0829	29.3177	0.001790	16381.7	6.913549	177.352	47.1905	1.097394	0.027757	0.027546	47.5598	16381.7	0.025580	0.032079	1482.58	83564.6
751	2.000000	1.107601	7.37241e+06	-39539.1	1005.82	-29793.5	0.000000	0.000000	7.110709	74.237	NaN	0.000000	0.001630	0.001775	28.0821	37.2874	0.001881	19826.1	8.024040	175.571	75.1564	1.107247	0.037752	0.037398	74.237	19826.1	0.034944	0.051615	1438.29	79730.1
751	2.000000	1.117593	7.37241e+06	-39539.1	1005.82	-29793.5	0.000000	0.000000	7.122037	106.739	NaN	0.000000	0.001617	0.001726	28.0821	47.0039	0.001858	25296.8	4.301042	177.14	106.371	1.117300	0.047744	0.047451	106.739	25296.8	0.044580	0.076399	1397.13	83617.2
751	2.000000	1.127488	7.37241e+06	-39539.1	1005.82	-29793.5	0.000000	0.000000	7.133636	148.201	NaN	0.000000	0.001565	0.001751	28.0819	55.5284	0.001832	30304.6	1.026665	178.338	144.476	1.127267	0.057639	0.057418	148.201	30304.6	0.053971	0.105082	1410.33	85411.6
751	2.000000	1.137512	7.37241e+06	-39539.1	1005.82	-29793.5	0.000000	0.000000	7.145419	190.981	NaN	0.000000	0.001565	0.001766	28.0831	64.7932	0.001796	36078.8	0.493318	177.277	188.755	1.137422	0.067664	0.067574	190.981	36078.8	0.063694	0.139385	1370.17	88291.1
751	2.000000	1.147515	7.37241e+06	-39539.1	1005.82	-29793.5	0.000000	0.000000	7.158180	258.118	NaN	0.000000	0.001575	0.001712	28.0832	74.773	0.001693	44155.2	4.131538	172.353	255.745	1.147232	0.077666	0.077383	258.118	44155.2	0.073282	0.177694	1452.6	95701.6
751	2.000000	1.157526	7.37241e+06	-39539.1	1005.82	-29793.5	0.000000	0.000000	7.170783	321.204	NaN	0.000000	0.001613	0.001717	28.083	83.9634	0.001833	45815.7	5.879820	170.918	319.67	1.157241	0.087677	0.087393	321.204	45815.7	0.082419	0.218243	1471.77	89601.9
751	2.000000	1.167503	7.37241e+06	-39539.1	1005.82	-29793.5	0.000000	0.000000	7.183440	386.421	NaN	0.000000	0.001583	0.001718	28.0819	92.5538	0.001711	54081.9	1.833471	173.407	383.845	1.167241	0.097654	0.097393	386.421	54081.9	0.092295	0.266427	1450.38	95727.3
751	2.000000	1.174571	7.37241e+06	-39539.1	1005.82	-29793.5	0.000000	0.000000	7.192859	443.616	NaN	0.000000	0.001599	0.001698	28.082	98.868	0.001816	54449.6	2.035802	173.357	445.7	1.174127	0.104722	0.104279	443.616	54449.6	0.098612	0.299588	1480.76	90887.9