File: remote_trans/data/nanoindenter/0828-1/data/Data_2025-08-06,11h17m57s/2025-07-22_16-23-58_1_46.txt
2025-07-22, 16:23:58, 1
Index	Phase	Displacement	Time	Pos X	Pos Y	Pos Z	Rot A	Rot B	Piezo Z	Force A	Force B	Gripper	Voltage A	Voltage B	Temperature	Amplitude force	Amplitude pos	Stiffness	Phase shift	Phase excitation	Force A raw	Displacement raw	HMax	HMax raw	Real Force	Real Stiffness	Contact Depth	Area	Hardness	Reduced Mod.
[#]	[#]	[um]	[s]	[um]	[um]	[um]	[m°]	[m°]	[um]	[uN]	[uN]	[V]	[V]	[V]	[°C]	[uN]	[um]	[N/m]	[°]	[°]	[uN]	[um]	[um]	[um]	[uN]	[N/m]	[um]	[um^2]	[MPa]	[MPa]
46	1.000000	0.002734	7.36549e+06	-40939.1	955.819	-29788.7	0.000000	0.000000	6.002813	-0.038915	NaN	0.000000	0.001597	0.001710	28.12	0.159022	0.000903	176.143	-58.9884	-167.51	0.039399	0.001514	-1.069285	-1.070506	-0.038915	176.143	-1.069120	-1.929131E+14	2.017221E-16	NaN
46	1.000000	0.042688	7.36549e+06	-40939.1	955.818	-29788.7	0.000000	0.000000	6.042770	0.043804	NaN	0.000000	0.001581	0.001734	28.1193	0.040216	0.002073	19.404	68.6123	-167.304	0.022401	0.041349	-1.029332	-1.030670	0.043804	19.404	-1.031025	-5.932861E+13	-7.383314E-16	NaN
46	1.000000	0.082709	7.36549e+06	-40939.1	955.818	-29788.7	0.000000	0.000000	6.082791	0.034282	NaN	0.000000	0.001588	0.001740	28.121	0.114732	0.002063	55.6113	66.4518	-165.661	0.070216	0.081370	-0.989311	-0.990649	0.034282	55.6113	-0.989773	-1.652165E+13	-2.074962E-15	NaN
46	1.000000	0.122702	7.36549e+06	-40939.1	955.818	-29788.7	0.000000	0.000000	6.122782	0.002432	NaN	0.000000	0.001589	0.001698	28.1198	0.084128	0.002043	41.174	40.0419	-163.932	-0.013670	0.121418	-0.949318	-0.950601	0.002432	41.174	-0.949362	-4.714374E+12	-5.159036E-16	NaN
46	1.000000	0.162702	7.36549e+06	-40939.1	955.818	-29788.7	0.000000	0.000000	6.162786	0.077396	NaN	0.000000	0.001574	0.001729	28.1208	0.116214	0.002038	57.0125	66.4772	-164.584	-0.004824	0.161427	-0.909317	-0.910593	0.077396	57.0125	-0.910335	-1.401820E+12	-5.521080E-14	NaN
46	1.000000	0.202715	7.36549e+06	-40939.1	955.819	-29788.7	0.000000	0.000000	6.202797	0.040520	NaN	0.000000	0.001608	0.001714	28.1197	0.039525	0.001987	19.8913	-106.914	-166.128	-0.004261	0.201428	-0.869304	-0.870591	0.040520	19.8913	-0.870832	-4.099226E+11	-9.884803E-14	NaN
46	1.000000	0.242769	7.36549e+06	-40939.1	955.818	-29788.7	0.000000	0.000000	6.242849	0.003240	NaN	0.000000	0.001631	0.001698	28.1194	0.051844	0.001982	26.1597	-28.7354	-166.667	0.022666	0.241397	-0.829251	-0.830622	0.003240	26.1597	-0.829344	-1.124317E+11	-2.881418E-14	NaN
46	1.000000	0.282736	7.36549e+06	-40939.1	955.817	-29788.7	0.000000	0.000000	6.282815	-0.030875	NaN	0.000000	0.001603	0.001727	28.1184	0.095734	0.001737	55.1266	151.139	-163.763	-0.074342	0.281437	-0.789284	-0.790582	-0.030875	55.1266	-0.788864	-3.174344E+10	9.726482E-13	NaN
46	1.000000	0.322779	7.36549e+06	-40939.1	955.818	-29788.7	0.000000	0.000000	6.322858	-0.033889	NaN	0.000000	0.001618	0.001728	28.1195	0.099449	0.001941	51.2416	-119.417	-162.937	0.046670	0.321446	-0.749241	-0.750574	-0.033889	51.2416	-0.748745	-9.039280E+9	3.749083E-12	NaN
46	1.000000	0.362797	7.36549e+06	-40939.1	955.818	-29788.7	0.000000	0.000000	6.362881	0.074620	NaN	0.000000	0.001598	0.001739	28.1192	0.035227	0.002049	17.194	-84.1728	-167.621	0.107997	0.361522	-0.709223	-0.710498	0.074620	17.194	-0.712477	-2.896382E+9	-2.576306E-11	NaN
46	1.000000	0.402832	7.36549e+06	-40939.1	955.819	-29788.7	0.000000	0.000000	6.402914	0.037693	NaN	0.000000	0.001589	0.001719	28.1198	0.048637	0.002021	24.0717	72.9868	-167.524	0.075599	0.401497	-0.669187	-0.670523	0.037693	24.0717	-0.670362	-7.697361E+8	-4.896818E-11	NaN
46	1.000000	0.442849	7.36549e+06	-40939.1	955.818	-29788.7	0.000000	0.000000	6.442932	0.070891	NaN	0.000000	0.001607	0.001644	28.1183	0.050726	0.002003	25.3192	-123.866	-164.206	0.050712	0.441539	-0.629171	-0.630480	0.070891	25.3192	-0.631271	-2.241168E+8	-3.163141E-10	NaN
46	1.000000	0.482828	7.36549e+06	-40939.1	955.818	-29788.7	0.000000	0.000000	6.482907	-0.026245	NaN	0.000000	0.001581	0.001664	28.1182	0.049688	0.001937	25.6473	-165.128	-163.729	0.107820	0.481503	-0.589192	-0.590517	-0.026245	25.6473	-0.588424	-5.766851E+7	4.550973E-10	NaN
46	1.000000	0.522877	7.36549e+06	-40939.1	955.818	-29788.7	0.000000	0.000000	6.522955	-0.052352	NaN	0.000000	0.001650	0.001690	28.1166	0.128842	0.001939	66.4417	68.4175	-165.306	-0.002840	0.521604	-0.549143	-0.550416	-0.052352	66.4417	-0.548552	-1.621421E+7	3.228803E-9	NaN
46	1.000000	0.562869	7.36549e+06	-40939.1	955.819	-29788.7	0.000000	0.000000	6.562950	0.014377	NaN	0.000000	0.001618	0.001626	28.1174	0.012373	0.002043	6.055172	38.549	-168.921	0.026490	0.561584	-0.509150	-0.510435	0.014377	6.055172	-0.510931	-4.86835e+06	-2.953078E-9	NaN
46	1.000000	0.602877	7.36549e+06	-40939.1	955.818	-29788.7	0.000000	0.000000	6.602959	0.038793	NaN	0.000000	0.001609	0.001620	28.1167	0.041968	0.002054	20.4304	-79.4788	-164.305	0.044220	0.601564	-0.469142	-0.470455	0.038793	20.4304	-0.470566	-1.32847e+06	-2.920164E-8	NaN
46	1.000000	0.642948	7.36549e+06	-40939.1	955.819	-29788.7	0.000000	0.000000	6.643031	0.060623	NaN	0.000000	0.001541	0.001604	28.1186	0.026231	0.001974	13.2872	111.013	-166.281	-0.035021	0.641667	-0.429071	-0.430353	0.060623	13.2872	-0.432493	-386652	-1.567887E-7	NaN
46	1.000000	0.682942	7.3655e+06	-40939.1	955.819	-29788.7	0.000000	0.000000	6.683026	0.084903	NaN	0.000000	0.001549	0.001622	28.117	0.054513	0.001897	28.7301	-53.0184	-165.177	0.132003	0.681669	-0.389077	-0.390350	0.084903	28.7301	-0.391294	-100385	-8.457777E-7	NaN
46	1.000000	0.722940	7.3655e+06	-40939.1	955.819	-29788.7	0.000000	0.000000	6.723024	0.076060	NaN	0.000000	0.001612	0.001629	28.118	0.050439	0.001898	26.5704	-51.6181	-164.795	0.013318	0.721670	-0.349079	-0.350350	0.076060	26.5704	-0.351226	-26594.8	-2.859953E-6	NaN
46	1.000000	0.762962	7.3655e+06	-40939.1	955.818	-29788.7	0.000000	0.000000	6.763043	0.016490	NaN	0.000000	0.001590	0.001645	28.1153	0.035038	0.002067	16.9509	-166.79	-166.307	0.064404	0.761692	-0.309058	-0.310328	0.016490	16.9509	-0.309788	-6575.25	-2.507844E-6	NaN
46	1.000000	0.803006	7.3655e+06	-40939.1	955.818	-29788.7	0.000000	0.000000	6.803087	0.022481	NaN	0.000000	0.001564	0.001621	28.1162	0.074474	0.001995	37.3394	-12.1667	-167.219	0.025959	0.801716	-0.269014	-0.270303	0.022481	37.3394	-0.269465	-1634.62	-1.375282E-5	NaN
46	1.000000	0.842990	7.3655e+06	-40939.1	955.818	-29788.7	0.000000	0.000000	6.843071	0.017427	NaN	0.000000	0.001559	0.001570	28.1143	0.050663	0.001855	27.3116	-114.672	-164.253	0.044969	0.841653	-0.229030	-0.230366	0.017427	27.3116	-0.229509	-393.327	-4.430587E-5	NaN
46	1.000000	0.883020	7.3655e+06	-40939.1	955.817	-29788.7	0.000000	0.000000	6.883101	0.026144	NaN	0.000000	0.001579	0.001595	28.1154	0.016598	0.002070	8.018848	-147.871	-167.192	0.017244	0.881713	-0.189000	-0.190306	0.026144	8.018848	-0.191445	-95.0906	-0.000275	NaN
46	1.000000	0.923041	7.3655e+06	-40939.1	955.818	-29788.7	0.000000	0.000000	6.923122	0.008542	NaN	0.000000	0.001597	0.001592	28.115	0.043739	0.002003	21.8364	117.657	-165.044	0.037517	0.921697	-0.148979	-0.150323	0.008542	21.8364	-0.149272	-17.5676	-0.000486	NaN
46	1.000000	0.963047	7.3655e+06	-40939.1	955.818	-29788.7	0.000000	0.000000	6.963128	0.010850	NaN	0.000000	0.001617	0.001618	28.1157	0.074135	0.002017	36.7562	97.2409	-165.101	0.059463	0.961758	-0.108972	-0.110262	0.010850	36.7562	-0.109194	-2.889638	-0.003755	NaN
46	1.000000	1.003050	7.3655e+06	-40939.1	955.818	-29788.7	0.000000	0.000000	7.003132	0.051540	NaN	0.000000	0.001587	0.001613	28.1143	0.073489	0.001976	37.1917	-93.4716	-164.121	-0.035799	1.001727	-0.068970	-0.070292	0.051540	37.1917	-0.070009	-0.341305	-0.151009	NaN
46	1.000000	1.043109	7.3655e+06	-40939.1	955.818	-29788.7	0.000000	0.000000	7.043188	-0.047222	NaN	0.000000	0.001610	0.001611	28.1144	0.039067	0.002041	19.1406	72.167	-168.408	-0.013829	1.041778	-0.028910	-0.030241	-0.047222	19.1406	-0.027060	-0.019125	2.469090	NaN
46	2.000000	1.082491	7.3655e+06	-40939.1	955.817	-29788.7	0.000000	0.000000	7.082954	9.301966	NaN	0.000000	0.001662	0.001621	28.1134	9.186464	0.001758	5225.69	11.8213	-176.613	8.506295	1.081695	0.010472	0.009675	9.301966	5225.69	0.009136	0.008238	1129.21	52603.9
46	2.000000	1.092536	7.3655e+06	-40939.1	955.818	-29788.7	0.000000	0.000000	7.093520	21.9835	NaN	0.000000	0.001665	0.001619	28.1145	18.9326	0.001813	10443.8	7.535379	-177.839	21.4401	1.092262	0.020517	0.020242	21.9835	10443.8	0.018938	0.020901	1051.81	66001.3
46	2.000000	1.102511	7.3655e+06	-40939.1	955.818	-29788.7	0.000000	0.000000	7.104619	49.3332	NaN	0.000000	0.001643	0.001561	28.1139	30.0244	0.001818	16515.6	4.246649	179.754	47.806	1.102257	0.030491	0.030237	49.3332	16515.6	0.028251	0.037196	1326.29	78238.1
46	2.000000	1.112568	7.3655e+06	-40939.1	955.817	-29788.7	0.000000	0.000000	7.116218	86.8486	NaN	0.000000	0.001587	0.001605	28.1146	41.1531	0.001887	21806.1	6.831821	177.116	87.227	1.112142	0.040549	0.040123	86.8486	21806.1	0.037561	0.057878	1500.54	82811.9
46	2.000000	1.122475	7.3655e+06	-40939.1	955.817	-29788.7	0.000000	0.000000	7.128020	132.973	NaN	0.000000	0.001584	0.001638	28.1137	50.0519	0.001881	26604.6	2.320244	178.791	130.85	1.122132	0.050456	0.050113	132.973	26604.6	0.046707	0.082507	1611.66	84622.3
46	2.000000	1.132426	7.3655e+06	-40939.1	955.818	-29788.7	0.000000	0.000000	7.139928	180.596	NaN	0.000000	0.001575	0.001620	28.115	60.699	0.001844	32914.4	4.236949	174.545	176.16	1.132257	0.060406	0.060237	180.596	32914.4	0.056291	0.112846	1600.37	89519.1
46	2.000000	1.142400	7.3655e+06	-40939.1	955.819	-29788.7	0.000000	0.000000	7.152598	246.194	NaN	0.000000	0.001595	0.001622	28.1124	68.5887	0.001749	39206.6	0.709153	176.404	241.314	1.142103	0.070381	0.070084	246.194	39206.6	0.065671	0.146926	1675.63	93450.9
46	2.000000	1.152430	7.3655e+06	-40939.1	955.817	-29788.7	0.000000	0.000000	7.165010	304.135	NaN	0.000000	0.001601	0.001612	28.1131	79.9922	0.001771	45175.3	0.450819	175.071	300.191	1.152051	0.080411	0.080031	304.135	45175.3	0.075362	0.186579	1630.06	95552.6
46	2.000000	1.162398	7.3655e+06	-40939.1	955.817	-29788.7	0.000000	0.000000	7.178315	385.355	NaN	0.000000	0.001608	0.001592	28.1117	89.859	0.001745	51506.7	3.900381	171.472	383.698	1.162183	0.090379	0.090163	385.355	51506.7	0.084767	0.229294	1680.62	98274.5
46	2.000000	1.172405	7.3655e+06	-40939.1	955.817	-29788.7	0.000000	0.000000	7.191582	464.671	NaN	0.000000	0.001632	0.001601	28.1139	99.7379	0.001807	55204.4	3.256010	171.205	462.076	1.172158	0.100385	0.100138	464.671	55204.4	0.094073	0.275574	1686.2	96078.9
46	2.000000	1.180873	7.3655e+06	-40939.1	955.819	-29788.7	0.000000	0.000000	7.203112	539.18	NaN	0.000000	0.001630	0.001644	28.1282	107.429	0.001772	60636.8	7.036887	-13.0168	532.701	1.180662	0.108854	0.108642	539.18	60636.8	0.102185	0.319150	1689.43	98064.5