File: remote_trans/data/nanoindenter/0828-1/data/Data_2025-08-06,11h17m57s/2025-07-22_16-23-58_1_394.txt
2025-07-22, 16:23:58, 1
Index	Phase	Displacement	Time	Pos X	Pos Y	Pos Z	Rot A	Rot B	Piezo Z	Force A	Force B	Gripper	Voltage A	Voltage B	Temperature	Amplitude force	Amplitude pos	Stiffness	Phase shift	Phase excitation	Force A raw	Displacement raw	HMax	HMax raw	Real Force	Real Stiffness	Contact Depth	Area	Hardness	Reduced Mod.
[#]	[#]	[um]	[s]	[um]	[um]	[um]	[m°]	[m°]	[um]	[uN]	[uN]	[V]	[V]	[V]	[°C]	[uN]	[um]	[N/m]	[°]	[°]	[uN]	[um]	[um]	[um]	[uN]	[N/m]	[um]	[um^2]	[MPa]	[MPa]
394	1.000000	0.002591	7.36892e+06	-57389.1	1005.82	-29737.2	0.000000	0.000000	6.002781	-0.049345	NaN	0.000000	0.001627	0.001629	28.0806	0.025180	0.001021	24.6583	126.06	-161.65	-0.053980	0.001389	-1.021133	-1.022335	-0.049345	24.6583	-1.019632	-4.168761E+13	1.183689E-15	NaN
394	1.000000	0.042572	7.36892e+06	-57389.1	1005.82	-29737.2	0.000000	0.000000	6.042763	-0.025902	NaN	0.000000	0.001654	0.001653	28.0809	0.081498	0.001990	40.9599	138.39	-167.609	0.017694	0.041227	-0.981152	-0.982497	-0.025902	40.9599	-0.980677	-1.246050E+13	2.078725E-15	NaN
394	1.000000	0.082552	7.36892e+06	-57389.1	1005.82	-29737.2	0.000000	0.000000	6.082745	0.019266	NaN	0.000000	0.001612	0.001650	28.0806	0.079413	0.002037	38.9775	47.9289	-169.009	0.093214	0.081240	-0.941172	-0.942484	0.019266	38.9775	-0.941542	-3.697829E+12	-5.210090E-15	NaN
394	1.000000	0.122593	7.36892e+06	-57389.1	1005.82	-29737.2	0.000000	0.000000	6.122785	-0.010322	NaN	0.000000	0.001623	0.001643	28.0795	0.048896	0.001895	25.7991	-90.7582	-167.351	0.010594	0.121259	-0.901131	-0.902466	-0.010322	25.7991	-0.900831	-1.043010E+12	9.896606E-15	NaN
394	1.000000	0.162601	7.36892e+06	-57389.1	1005.82	-29737.2	0.000000	0.000000	6.162792	-0.031412	NaN	0.000000	0.001627	0.001654	28.0794	0.182436	0.001980	92.1309	149.972	-165.597	-0.052183	0.161337	-0.861123	-0.862387	-0.031412	92.1309	-0.860867	-3.005070E+11	1.045287E-13	NaN
394	1.000000	0.202609	7.36892e+06	-57389.1	1005.82	-29737.2	0.000000	0.000000	6.202801	0.009340	NaN	0.000000	0.001678	0.001650	28.0805	0.088822	0.001938	45.8257	37.4146	-165.597	0.032372	0.201320	-0.821115	-0.822404	0.009340	45.8257	-0.821268	-8.737959E+10	-1.068907E-13	NaN
394	1.000000	0.242664	7.36892e+06	-57389.1	1005.82	-29737.2	0.000000	0.000000	6.242856	0.001278	NaN	0.000000	0.001661	0.001694	28.0805	0.138941	0.001966	70.6559	177.647	-167.389	-0.012866	0.241297	-0.781060	-0.782427	0.001278	70.6559	-0.781074	-2.487840E+10	-5.138446E-14	NaN
394	1.000000	0.282623	7.36892e+06	-57389.1	1005.82	-29737.2	0.000000	0.000000	6.282810	-0.124957	NaN	0.000000	0.001663	0.001650	28.0801	0.042285	0.002022	20.9167	-41.578	-166.874	-0.119029	0.281370	-0.741101	-0.742354	-0.124957	20.9167	-0.736621	-6.180475E+9	2.021807E-11	NaN
394	1.000000	0.322668	7.36892e+06	-57389.1	1005.82	-29737.2	0.000000	0.000000	6.322858	-0.051152	NaN	0.000000	0.001665	0.001655	28.0802	0.031643	0.002057	15.3821	40.1922	-167.369	-0.025324	0.321358	-0.701056	-0.702366	-0.051152	15.3821	-0.698562	-1.870196E+9	2.735114E-11	NaN
394	1.000000	0.362675	7.36892e+06	-57389.1	1005.82	-29737.2	0.000000	0.000000	6.362868	0.013018	NaN	0.000000	0.001627	0.001659	28.0801	0.017551	0.002145	8.180909	-105.433	-165.001	-0.001448	0.361368	-0.661049	-0.662356	0.013018	8.180909	-0.662242	-5.959122E+8	-2.184584E-11	NaN
394	1.000000	0.402705	7.36892e+06	-57389.1	1005.82	-29737.2	0.000000	0.000000	6.402898	0.021077	NaN	0.000000	0.001653	0.001663	28.0791	0.027225	0.001899	14.3331	-177.963	-163.652	0.002584	0.401378	-0.621019	-0.622346	0.021077	14.3331	-0.622121	-1.677995E+8	-1.256103E-10	NaN
394	1.000000	0.442726	7.36892e+06	-57389.1	1005.82	-29737.2	0.000000	0.000000	6.442917	-0.024566	NaN	0.000000	0.001636	0.001643	28.079	0.053196	0.001913	27.8071	24.608	-161.765	-0.014454	0.441418	-0.580998	-0.582306	-0.024566	27.8071	-0.580336	-4.460274E+7	5.507625E-10	NaN
394	1.000000	0.482759	7.36892e+06	-57389.1	1005.82	-29737.2	0.000000	0.000000	6.482952	0.009484	NaN	0.000000	0.001600	0.001637	28.0792	0.069004	0.001999	34.515	68.4601	-166.582	0.033342	0.481422	-0.540965	-0.542302	0.009484	34.515	-0.541171	-1.281129E+7	-7.403057E-10	NaN
394	1.000000	0.522738	7.36892e+06	-57389.1	1005.82	-29737.2	0.000000	0.000000	6.522927	-0.087090	NaN	0.000000	0.001619	0.001639	28.0804	0.142024	0.001965	72.2921	-112.861	-163.861	-0.059153	0.521483	-0.500986	-0.502241	-0.087090	72.2921	-0.500082	-3.43686e+06	2.533992E-8	NaN
394	1.000000	0.562794	7.36892e+06	-57389.1	1005.82	-29737.2	0.000000	0.000000	6.562983	-0.063120	NaN	0.000000	0.001629	0.001674	28.0805	0.101248	0.002039	49.6523	-164.389	-165.351	-0.053433	0.561478	-0.460930	-0.462246	-0.063120	49.6523	-0.459977	-943398	6.690684E-8	NaN
394	1.000000	0.602773	7.36892e+06	-57389.1	1005.82	-29737.2	0.000000	0.000000	6.602962	-0.074719	NaN	0.000000	0.001707	0.001607	28.0804	0.102187	0.001896	53.8988	-66.3866	-160.136	0.007972	0.601472	-0.420951	-0.422252	-0.074719	53.8988	-0.419911	-256538	2.912601E-7	NaN
394	1.000000	0.642767	7.36892e+06	-57389.1	1005.82	-29737.2	0.000000	0.000000	6.642958	-0.041212	NaN	0.000000	0.001608	0.001635	28.0804	0.055032	0.002008	27.4005	-156.488	-169.412	-0.042098	0.641496	-0.380957	-0.382228	-0.041212	27.4005	-0.379829	-68775.2	5.992236E-7	NaN
394	1.000000	0.682822	7.36892e+06	-57389.1	1005.82	-29737.2	0.000000	0.000000	6.683013	-0.015718	NaN	0.000000	0.001640	0.001629	28.0792	0.059799	0.002115	28.2775	35.5788	-166.053	0.011072	0.681517	-0.340902	-0.342207	-0.015718	28.2775	-0.340485	-18562.2	8.467927E-7	NaN
394	1.000000	0.722853	7.36892e+06	-57389.1	1005.82	-29737.2	0.000000	0.000000	6.723044	-0.024757	NaN	0.000000	0.001650	0.001659	28.0793	0.007580	0.002044	3.708751	90.1289	-165.431	-0.069269	0.721526	-0.300871	-0.302198	-0.024757	3.708751	-0.295865	-4083.22	6.063060E-6	NaN
394	1.000000	0.762855	7.36892e+06	-57389.1	1005.82	-29737.2	0.000000	0.000000	6.763047	9.801481E-5	NaN	0.000000	0.001612	0.001660	28.0791	0.109048	0.001885	57.8441	-172.722	-165.721	0.047053	0.761511	-0.260869	-0.262213	9.801481E-5	57.8441	-0.260870	-1208.52	-8.110343E-8	NaN
394	1.000000	0.802888	7.36892e+06	-57389.1	1005.82	-29737.2	0.000000	0.000000	6.803079	-0.027978	NaN	0.000000	0.001645	0.001654	28.0804	0.102967	0.001970	52.2557	-86.276	-164.743	-0.037678	0.801565	-0.220836	-0.222160	-0.027978	52.2557	-0.220434	-282.236	9.912821E-5	NaN
394	1.000000	0.842848	7.36892e+06	-57389.1	1005.82	-29737.2	0.000000	0.000000	6.843039	-0.029569	NaN	0.000000	0.001605	0.001701	28.0806	0.077043	0.001898	40.5953	-7.737000	-168.98	-0.119467	0.841593	-0.180876	-0.182131	-0.029569	40.5953	-0.180329	-61.8116	0.000478	NaN
394	1.000000	0.882912	7.36892e+06	-57389.1	1005.82	-29737.2	0.000000	0.000000	6.883105	0.016161	NaN	0.000000	0.001640	0.001651	28.0804	0.093566	0.002070	45.2014	-2.281098	-167.927	-0.009199	0.881599	-0.140812	-0.142125	0.016161	45.2014	-0.141080	-12.3943	-0.001304	NaN
394	1.000000	0.922931	7.36892e+06	-57389.1	1005.82	-29737.2	0.000000	0.000000	6.923122	-0.031192	NaN	0.000000	0.001621	0.001706	28.0799	0.108429	0.002100	51.6214	-151.718	-169.2	0.019962	0.921592	-0.100793	-0.102132	-0.031192	51.6214	-0.100340	-1.859091	0.016778	NaN
394	1.000000	0.962891	7.36892e+06	-57389.1	1005.82	-29737.2	0.000000	0.000000	6.963081	-0.067807	NaN	0.000000	0.001627	0.001652	28.0788	0.025301	0.002088	12.1157	106.232	-167.368	-0.030726	0.961581	-0.060833	-0.062143	-0.067807	12.1157	-0.056635	-0.143864	0.471329	NaN
394	1.000000	1.002956	7.36892e+06	-57389.1	1005.82	-29737.2	0.000000	0.000000	7.003148	-0.009803	NaN	0.000000	0.001595	0.001641	28.079	0.070043	0.002057	34.0536	73.123	-164.251	0.071695	1.001653	-0.020768	-0.022071	-0.009803	34.0536	-0.020552	-0.012973	0.755635	NaN
394	2.000000	1.034517	7.36892e+06	-57389.1	1005.82	-29737.2	0.000000	0.000000	7.035211	12.1985	NaN	0.000000	0.001572	0.001666	28.0794	11.2151	0.001790	6265.41	3.339401	-171.508	11.4304	1.034238	0.010793	0.010514	12.1985	6265.41	0.009333	0.008450	1443.64	62273
394	2.000000	1.044459	7.36892e+06	-57389.1	1005.82	-29737.2	0.000000	0.000000	7.045865	29.5028	NaN	0.000000	0.001600	0.001677	28.0808	21.064	0.001847	11405.7	5.871721	-177.354	27.8051	1.044082	0.020735	0.020358	29.5028	11405.7	0.018795	0.020684	1426.37	72457
394	2.000000	1.054478	7.36892e+06	-57389.1	1005.82	-29737.2	0.000000	0.000000	7.056412	42.3378	NaN	0.000000	0.001591	0.001635	28.0807	29.521	0.001906	15487.1	4.376570	-178.52	43.0445	1.054204	0.030754	0.030480	42.3378	15487.1	0.028704	0.038100	1111.23	72490.7
394	2.000000	1.064433	7.36892e+06	-57389.1	1005.82	-29737.2	0.000000	0.000000	7.067342	66.0454	NaN	0.000000	0.001628	0.001732	28.0805	38.7869	0.001898	20432	6.811076	176.862	66.9634	1.064151	0.040709	0.040427	66.0454	20432	0.038284	0.059669	1106.86	76420.2
394	2.000000	1.074480	7.36892e+06	-57389.1	1005.82	-29737.2	0.000000	0.000000	7.078772	99.6472	NaN	0.000000	0.001634	0.001728	28.0791	49.3786	0.002013	24533.3	9.784928	172.791	103.068	1.074118	0.050756	0.050394	99.6472	24533.3	0.047710	0.085466	1165.93	76671.4
394	2.000000	1.084428	7.36892e+06	-57389.1	1005.82	-29737.2	0.000000	0.000000	7.090285	137.69	NaN	0.000000	0.001634	0.001648	28.0793	58.5917	0.001855	31589.8	8.556758	171.287	139.875	1.084127	0.060704	0.060403	137.69	31589.8	0.057435	0.116772	1179.13	84459.9
394	2.000000	1.094379	7.36892e+06	-57389.1	1005.82	-29737.2	0.000000	0.000000	7.102042	181.575	NaN	0.000000	0.001648	0.001675	28.0792	67.1312	0.001759	38163.2	3.472569	174.334	179.337	1.094052	0.070655	0.070328	181.575	38163.2	0.067087	0.152439	1191.13	89303.7
394	2.000000	1.104323	7.36892e+06	-57389.1	1005.82	-29737.2	0.000000	0.000000	7.113827	226.322	NaN	0.000000	0.001616	0.001684	28.0793	74.9734	0.001706	43950.4	0.459902	176.406	223.261	1.104249	0.080599	0.080525	226.322	43950.4	0.076737	0.192567	1175.29	91505.1
394	2.000000	1.114358	7.36892e+06	-57389.1	1005.82	-29737.2	0.000000	0.000000	7.126351	286.824	NaN	0.000000	0.001564	0.001629	28.0805	85.1124	0.001779	47836.7	1.871360	174.524	284.313	1.114046	0.090634	0.090322	286.824	47836.7	0.086137	0.235857	1216.1	89993.3
394	2.000000	1.124390	7.36892e+06	-57389.1	1005.82	-29737.2	0.000000	0.000000	7.138952	349.254	NaN	0.000000	0.001596	0.001724	28.0806	94.9178	0.001870	50766.5	4.955227	171.287	348.369	1.123998	0.100666	0.100274	349.254	50766.5	0.095506	0.283056	1233.87	87179.5
394	2.000000	1.130466	7.36892e+06	-57389.1	1005.82	-29737.2	0.000000	0.000000	7.146300	380.176	NaN	0.000000	0.001553	0.001646	28.0805	99.2645	0.001761	56380.5	6.183475	169.27	385.906	1.130090	0.106742	0.106366	380.176	56380.5	0.101685	0.316378	1201.65	91579.8