File: remote_trans/data/nanoindenter/0828-1/data/Data_2025-08-06,11h17m57s/2025-07-22_16-23-58_1_239.txt
2025-07-22, 16:23:58, 1
Index	Phase	Displacement	Time	Pos X	Pos Y	Pos Z	Rot A	Rot B	Piezo Z	Force A	Force B	Gripper	Voltage A	Voltage B	Temperature	Amplitude force	Amplitude pos	Stiffness	Phase shift	Phase excitation	Force A raw	Displacement raw	HMax	HMax raw	Real Force	Real Stiffness	Contact Depth	Area	Hardness	Reduced Mod.
[#]	[#]	[um]	[s]	[um]	[um]	[um]	[m°]	[m°]	[um]	[uN]	[uN]	[V]	[V]	[V]	[°C]	[uN]	[um]	[N/m]	[°]	[°]	[uN]	[um]	[um]	[um]	[uN]	[N/m]	[um]	[um^2]	[MPa]	[MPa]
239	1.000000	0.002676	7.36738e+06	-50589.1	955.819	-29755.6	0.000000	0.000000	6.002823	-0.015945	NaN	0.000000	0.001558	0.001606	28.0795	0.078060	0.000986	79.1455	-77.5971	-156.248	0.021191	0.001357	-1.039282	-1.040601	-0.015945	79.1455	-1.039131	-7.625647E+13	2.090954E-16	NaN
239	1.000000	0.042591	7.36738e+06	-50589.1	955.819	-29755.6	0.000000	0.000000	6.042736	-0.051360	NaN	0.000000	0.001575	0.001617	28.0801	0.078434	0.001842	42.5765	-74.5198	-168.447	-0.054041	0.041280	-0.999367	-1.000678	-0.051360	42.5765	-0.998462	-2.163034E+13	2.374450E-15	NaN
239	1.000000	0.082627	7.36738e+06	-50589.1	955.818	-29755.6	0.000000	0.000000	6.082773	-0.025605	NaN	0.000000	0.001541	0.001633	28.0782	0.053073	0.001985	26.7409	11.5222	-167.48	-0.060655	0.081323	-0.959331	-0.960635	-0.025605	26.7409	-0.958613	-6.283037E+12	4.075213E-15	NaN
239	1.000000	0.122629	7.36738e+06	-50589.1	955.817	-29755.6	0.000000	0.000000	6.122773	-0.067718	NaN	0.000000	0.001543	0.001648	28.0783	0.056438	0.002016	28.0014	-131.41	-162.889	-0.094963	0.121340	-0.919329	-0.920617	-0.067718	28.0014	-0.917515	-1.752503E+12	3.864053E-14	NaN
239	1.000000	0.162652	7.36738e+06	-50589.1	955.817	-29755.6	0.000000	0.000000	6.162797	-0.046316	NaN	0.000000	0.001566	0.001642	28.0779	0.048962	0.001912	25.6136	-137.567	-165.866	-0.075543	0.161329	-0.879306	-0.880629	-0.046316	25.6136	-0.877950	-5.116567E+11	9.052143E-14	NaN
239	1.000000	0.202646	7.36738e+06	-50589.1	955.817	-29755.6	0.000000	0.000000	6.202793	-0.007330	NaN	0.000000	0.001557	0.001649	28.0787	0.058933	0.002091	28.186	-174.934	-163.021	-0.017089	0.201344	-0.839312	-0.840613	-0.007330	28.186	-0.839117	-1.525206E+11	4.805809E-14	NaN
239	1.000000	0.242684	7.36738e+06	-50589.1	955.817	-29755.6	0.000000	0.000000	6.242830	-0.043434	NaN	0.000000	0.001556	0.001683	28.0791	0.081807	0.001987	41.1643	169.799	-167.746	0.026929	0.241445	-0.799274	-0.800513	-0.043434	41.1643	-0.798482	-4.288061E+10	1.012895E-12	NaN
239	1.000000	0.282700	7.36738e+06	-50589.1	955.818	-29755.6	0.000000	0.000000	6.282848	0.014970	NaN	0.000000	0.001623	0.001638	28.0792	0.050166	0.001961	25.5844	174.198	-164.357	0.011504	0.281396	-0.759258	-0.760562	0.014970	25.5844	-0.759697	-1.274033E+10	-1.175006E-12	NaN
239	1.000000	0.322755	7.36739e+06	-50589.1	955.819	-29755.6	0.000000	0.000000	6.322902	-0.006030	NaN	0.000000	0.001627	0.001644	28.0793	0.048591	0.002119	22.9258	-108.609	-163.345	-0.068233	0.321362	-0.719203	-0.720595	-0.006030	22.9258	-0.719006	-3.555581E+9	1.695950E-12	NaN
239	1.000000	0.362731	7.36739e+06	-50589.1	955.818	-29755.6	0.000000	0.000000	6.362880	0.024012	NaN	0.000000	0.001585	0.001613	28.0782	0.094779	0.002016	47.0087	5.755754	-168.814	0.053117	0.361458	-0.679227	-0.680500	0.024012	47.0087	-0.679610	-1.030072E+9	-2.331082E-11	NaN
239	1.000000	0.402747	7.36739e+06	-50589.1	955.818	-29755.6	0.000000	0.000000	6.402893	-0.026066	NaN	0.000000	0.001534	0.001617	28.078	0.081176	0.001847	43.9548	7.035923	-164.172	-0.063166	0.401443	-0.639211	-0.640515	-0.026066	43.9548	-0.638766	-2.840300E+8	9.177209E-11	NaN
239	1.000000	0.442758	7.36739e+06	-50589.1	955.818	-29755.6	0.000000	0.000000	6.442905	-0.009974	NaN	0.000000	0.001564	0.001664	28.0782	0.050498	0.001960	25.7656	-63.648	-167.004	0.043796	0.441428	-0.599200	-0.600530	-0.009974	25.7656	-0.598909	-8.043422E+7	1.240008E-10	NaN
239	1.000000	0.482777	7.36739e+06	-50589.1	955.818	-29755.6	0.000000	0.000000	6.482921	-0.075415	NaN	0.000000	0.001565	0.001649	28.0793	0.044166	0.002085	21.1874	-77.4213	-162.992	-0.044975	0.481473	-0.559181	-0.560484	-0.075415	21.1874	-0.556511	-2.089801E+7	3.608732E-9	NaN
239	1.000000	0.522790	7.36739e+06	-50589.1	955.819	-29755.6	0.000000	0.000000	6.522934	-0.069828	NaN	0.000000	0.001544	0.001625	28.0795	0.081492	0.001938	42.0467	-33.5849	-162.251	-0.032493	0.521520	-0.519168	-0.520438	-0.069828	42.0467	-0.517922	-6.09112e+06	1.146382E-8	NaN
239	1.000000	0.562794	7.36739e+06	-50589.1	955.818	-29755.6	0.000000	0.000000	6.562938	-0.066119	NaN	0.000000	0.001613	0.001652	28.0795	0.034744	0.001874	18.5395	-162.917	-168.116	-0.073081	0.561470	-0.479164	-0.480488	-0.066119	18.5395	-0.476489	-1.6083e+06	4.111116E-8	NaN
239	1.000000	0.602820	7.36739e+06	-50589.1	955.818	-29755.6	0.000000	0.000000	6.602967	-0.008733	NaN	0.000000	0.001596	0.001678	28.0787	0.031552	0.002020	15.6224	-56.6294	-162.777	0.011772	0.601482	-0.439137	-0.440475	-0.008733	15.6224	-0.438718	-473446	1.844470E-8	NaN
239	1.000000	0.642842	7.36739e+06	-50589.1	955.818	-29755.6	0.000000	0.000000	6.642988	-0.038669	NaN	0.000000	0.001585	0.001557	28.0782	0.036117	0.001974	18.301	-2.427948	-162.433	-0.050929	0.641533	-0.399116	-0.400425	-0.038669	18.301	-0.397531	-123245	3.137548E-7	NaN
239	1.000000	0.682862	7.36739e+06	-50589.1	955.819	-29755.6	0.000000	0.000000	6.683007	-0.043922	NaN	0.000000	0.001605	0.001558	28.0783	0.089578	0.002038	43.9532	72.7702	-163.476	-0.080062	0.681558	-0.359096	-0.360400	-0.043922	43.9532	-0.358347	-33724	1.302396E-6	NaN
239	1.000000	0.722867	7.36739e+06	-50589.1	955.819	-29755.6	0.000000	0.000000	6.723013	-0.017819	NaN	0.000000	0.001609	0.001603	28.0784	0.072099	0.001979	36.4269	94.6493	-164.065	-0.072294	0.721632	-0.319091	-0.320326	-0.017819	36.4269	-0.318724	-8909.51	1.999971E-6	NaN
239	1.000000	0.762898	7.36739e+06	-50589.1	955.819	-29755.6	0.000000	0.000000	6.763045	-0.019400	NaN	0.000000	0.001611	0.001566	28.0796	0.034060	0.001995	17.0769	-166.069	-165.864	-0.037808	0.761630	-0.279059	-0.280328	-0.019400	17.0769	-0.278207	-2217.73	8.747644E-6	NaN
239	1.000000	0.802911	7.36739e+06	-50589.1	955.818	-29755.6	0.000000	0.000000	6.803056	-0.045829	NaN	0.000000	0.001562	0.001554	28.0797	0.047616	0.002096	22.7137	-17.1598	-165.477	-0.022227	0.801589	-0.239047	-0.240369	-0.045829	22.7137	-0.237534	-525.998	8.712679E-5	NaN
239	1.000000	0.842940	7.36739e+06	-50589.1	955.818	-29755.6	0.000000	0.000000	6.843087	-0.018547	NaN	0.000000	0.001588	0.001615	28.0796	0.012073	0.001995	6.050675	97.4874	-165.924	-0.036869	0.841593	-0.199018	-0.200365	-0.018547	6.050675	-0.196719	-116.315	0.000159	NaN
239	1.000000	0.882947	7.36739e+06	-50589.1	955.819	-29755.6	0.000000	0.000000	6.883095	0.017201	NaN	0.000000	0.001565	0.001581	28.0785	0.063722	0.002078	30.6682	-137.437	-165.303	0.048755	0.881683	-0.159011	-0.160275	0.017201	30.6682	-0.159431	-26.784	-0.000642	NaN
239	1.000000	0.922969	7.36739e+06	-50589.1	955.818	-29755.6	0.000000	0.000000	6.923113	-0.085934	NaN	0.000000	0.001637	0.001587	28.0782	0.038605	0.001965	19.6498	117.484	-166.67	-0.074615	0.921690	-0.118989	-0.120268	-0.085934	19.6498	-0.115709	-3.950941	0.021750	NaN
239	1.000000	0.962969	7.36739e+06	-50589.1	955.818	-29755.6	0.000000	0.000000	6.963112	-0.083857	NaN	0.000000	0.001567	0.001550	28.0783	0.037386	0.002083	17.9494	-168.147	-165.388	-0.111232	0.961708	-0.078989	-0.080250	-0.083857	17.9494	-0.075485	-0.475397	0.176393	NaN
239	1.000000	1.003006	7.36739e+06	-50589.1	955.818	-29755.6	0.000000	0.000000	7.003152	-0.028769	NaN	0.000000	0.001561	0.001511	28.0784	0.036969	0.002002	18.4683	-162.454	-161.942	0.042143	1.001704	-0.038952	-0.040254	-0.028769	18.4683	-0.037783	-0.038757	0.742285	NaN
239	1.000000	1.042993	7.36739e+06	-50589.1	955.82	-29755.6	0.000000	0.000000	7.043152	0.270729	NaN	0.000000	0.001586	0.001496	28.0799	0.555464	0.002029	273.822	9.156142	-164.82	0.000305	1.041704	0.001035	-0.000254	0.270729	273.822	0.000294	0.000221	1226.7	16840.1
239	2.000000	1.060500	7.36739e+06	-50589.1	955.819	-29755.6	0.000000	0.000000	7.061401	18.3226	NaN	0.000000	0.001583	0.001528	28.0796	16.8146	0.001836	9159.79	7.090941	-173.155	19.0361	1.060209	0.018542	0.018251	18.3226	9159.79	0.017042	0.018105	1011.99	62194.9
239	2.000000	1.070445	7.36739e+06	-50589.1	955.82	-29755.6	0.000000	0.000000	7.072332	42.3164	NaN	0.000000	0.001588	0.001528	28.0796	27.4044	0.001731	15832.6	4.136898	-177.168	42.2906	1.070170	0.028487	0.028212	42.3164	15832.6	0.026483	0.033768	1253.15	78717.4
239	2.000000	1.080458	7.36739e+06	-50589.1	955.819	-29755.6	0.000000	0.000000	7.083381	67.4929	NaN	0.000000	0.001550	0.001534	28.0782	37.1558	0.001930	19247.6	5.898479	-179.65	68.0348	1.080119	0.038500	0.038162	67.4929	19247.6	0.035870	0.053792	1254.7	75821.3
239	2.000000	1.090405	7.36739e+06	-50589.1	955.819	-29755.6	0.000000	0.000000	7.094972	107.482	NaN	0.000000	0.001589	0.001543	28.078	45.7762	0.001783	25669.4	4.773632	178.107	106.092	1.090086	0.048447	0.048128	107.482	25669.4	0.045307	0.078461	1369.88	83726.3
239	2.000000	1.100482	7.36739e+06	-50589.1	955.82	-29755.6	0.000000	0.000000	7.106813	150.356	NaN	0.000000	0.001554	0.001552	28.0778	57.3051	0.001902	30136	6.934264	174.029	152.943	1.100142	0.058524	0.058184	150.356	30136	0.054783	0.107767	1395.2	83872
239	2.000000	1.110360	7.36739e+06	-50589.1	955.819	-29755.6	0.000000	0.000000	7.118736	200.092	NaN	0.000000	0.001580	0.001576	28.0795	65.5108	0.001781	36791.8	6.155188	173.113	197.345	1.110081	0.068402	0.068124	200.092	36791.8	0.064324	0.141767	1411.41	89276.4
239	2.000000	1.120483	7.36739e+06	-50589.1	955.82	-29755.6	0.000000	0.000000	7.130538	240.927	NaN	0.000000	0.001550	0.001524	28.0799	73.5263	0.001874	39235.8	0.929776	177.842	242.32	1.120265	0.078525	0.078307	240.927	39235.8	0.073920	0.180398	1335.54	84399.6
239	2.000000	1.130322	7.36739e+06	-50589.1	955.82	-29755.6	0.000000	0.000000	7.143466	316.053	NaN	0.000000	0.001563	0.001523	28.0797	82.8721	0.001785	46423.2	1.700775	176.201	313.746	1.130144	0.088365	0.088186	316.053	46423.2	0.083258	0.222164	1422.61	89985.2
239	2.000000	1.140459	7.36739e+06	-50589.1	955.82	-29755.6	0.000000	0.000000	7.156644	390.013	NaN	0.000000	0.001663	0.001541	28.0793	91.1818	0.001702	53575	3.801259	173.505	392.595	1.139990	0.098501	0.098032	390.013	53575	0.093041	0.270249	1443.16	94157.2
239	2.000000	1.150359	7.36739e+06	-50589.1	955.82	-29755.6	0.000000	0.000000	7.169828	469.867	NaN	0.000000	0.001643	0.001508	28.0781	101.235	0.001859	54461.5	4.347726	172.576	466.984	1.149954	0.108401	0.107997	469.867	54461.5	0.101930	0.317736	1478.8	88273.4
239	2.000000	1.151338	7.36739e+06	-50589.1	955.82	-29755.6	0.000000	0.000000	7.170692	467.046	NaN	0.000000	0.001600	0.001489	28.0784	102.127	0.001856	55012.6	5.267389	171.075	464.365	1.151104	0.109381	0.109146	467.046	55012.6	0.103013	0.323768	1442.53	88332