File: remote_trans/data/nanoindenter/0828-1/data/Data_2025-08-06,11h17m57s/2025-07-22_16-23-58_1_210.txt
2025-07-22, 16:23:58, 1
Index	Phase	Displacement	Time	Pos X	Pos Y	Pos Z	Rot A	Rot B	Piezo Z	Force A	Force B	Gripper	Voltage A	Voltage B	Temperature	Amplitude force	Amplitude pos	Stiffness	Phase shift	Phase excitation	Force A raw	Displacement raw	HMax	HMax raw	Real Force	Real Stiffness	Contact Depth	Area	Hardness	Reduced Mod.
[#]	[#]	[um]	[s]	[um]	[um]	[um]	[m°]	[m°]	[um]	[uN]	[uN]	[V]	[V]	[V]	[°C]	[uN]	[um]	[N/m]	[°]	[°]	[uN]	[um]	[um]	[um]	[uN]	[N/m]	[um]	[um^2]	[MPa]	[MPa]
210	1.000000	0.002148	7.3671e+06	-49139.1	955.818	-29760.4	0.000000	0.000000	6.002829	-0.044529	NaN	0.000000	0.001684	0.001726	28.0785	0.043850	0.000869	50.4543	132.321	-164.192	-0.038682	0.000838	-1.080695	-1.082005	-0.044529	50.4543	-1.080033	-2.703750E+14	1.646938E-16	NaN
210	1.000000	0.042089	7.3671e+06	-49139.1	955.819	-29760.4	0.000000	0.000000	6.042770	-0.031225	NaN	0.000000	0.001660	0.001731	28.0785	0.094623	0.002099	45.0699	42.2183	-165.818	-0.055306	0.040811	-1.040754	-1.042032	-0.031225	45.0699	-1.040235	-7.890840E+13	3.957163E-16	NaN
210	1.000000	0.082097	7.3671e+06	-49139.1	955.818	-29760.4	0.000000	0.000000	6.082782	0.054745	NaN	0.000000	0.001718	0.001664	28.0798	0.065423	0.002000	32.7089	-144.244	-161.639	-0.024363	0.080779	-1.000747	-1.002065	0.054745	32.7089	-1.002002	-2.413910E+13	-2.267910E-15	NaN
210	1.000000	0.122059	7.3671e+06	-49139.1	955.818	-29760.4	0.000000	0.000000	6.122744	0.054669	NaN	0.000000	0.001727	0.001673	28.0799	0.059442	0.002022	29.3931	168.241	-162.182	0.137015	0.120750	-0.960784	-0.962093	0.054669	29.3931	-0.962179	-7.018552E+12	-7.789252E-15	NaN
210	1.000000	0.162108	7.3671e+06	-49139.1	955.819	-29760.4	0.000000	0.000000	6.162794	0.078017	NaN	0.000000	0.001725	0.001671	28.0799	0.061461	0.002095	29.3397	12.7796	-165.936	-0.016216	0.160822	-0.920735	-0.922021	0.078017	29.3397	-0.922730	-2.060901E+12	-3.785599E-14	NaN
210	1.000000	0.202138	7.3671e+06	-49139.1	955.819	-29760.4	0.000000	0.000000	6.202820	-0.023919	NaN	0.000000	0.001718	0.001684	28.0789	0.097663	0.002022	48.299	129.474	-165.074	-0.027226	0.200835	-0.880705	-0.882008	-0.023919	48.299	-0.880333	-5.510835E+11	4.340403E-14	NaN
210	1.000000	0.242161	7.3671e+06	-49139.1	955.819	-29760.4	0.000000	0.000000	6.242844	0.015980	NaN	0.000000	0.001643	0.001684	28.0791	0.029267	0.001953	14.9829	176.576	-165.015	0.105132	0.240830	-0.840682	-0.842013	0.015980	14.9829	-0.841482	-1.641997E+11	-9.732052E-14	NaN
210	1.000000	0.282177	7.3671e+06	-49139.1	955.817	-29760.4	0.000000	0.000000	6.282861	0.012545	NaN	0.000000	0.001636	0.001685	28.0789	0.129804	0.001947	66.6735	24.9039	-165.23	0.004235	0.280849	-0.800666	-0.801994	0.012545	66.6735	-0.800807	-4.611227E+10	-2.720449E-13	NaN
210	1.000000	0.322173	7.3671e+06	-49139.1	955.818	-29760.4	0.000000	0.000000	6.322853	-0.069012	NaN	0.000000	0.001662	0.001652	28.079	0.113954	0.001989	57.2831	-85.6765	-161.193	-0.066830	0.320828	-0.760670	-0.762015	-0.069012	57.2831	-0.759766	-1.276808E+10	5.405017E-12	NaN
210	1.000000	0.362206	7.3671e+06	-49139.1	955.818	-29760.4	0.000000	0.000000	6.362888	-0.010371	NaN	0.000000	0.001705	0.001665	28.0804	0.104154	0.002031	51.2874	-33.5693	-163.866	-0.052570	0.360873	-0.720637	-0.721970	-0.010371	51.2874	-0.720485	-3.724724E+9	2.784328E-12	NaN
210	1.000000	0.402198	7.3671e+06	-49139.1	955.818	-29760.4	0.000000	0.000000	6.402886	0.123656	NaN	0.000000	0.001711	0.001659	28.0803	0.069130	0.001901	36.3738	-81.6175	-164.256	0.032819	0.400883	-0.680645	-0.681961	0.123656	36.3738	-0.683195	-1.153164E+9	-1.072315E-10	NaN
210	1.000000	0.442215	7.3671e+06	-49139.1	955.818	-29760.4	0.000000	0.000000	6.442896	-0.035496	NaN	0.000000	0.001717	0.001652	28.0797	0.102281	0.001891	54.0801	-79.235	-163.761	0.035975	0.440905	-0.640628	-0.641939	-0.035496	54.0801	-0.640136	-2.965904E+8	1.196811E-10	NaN
210	1.000000	0.482254	7.3671e+06	-49139.1	955.819	-29760.4	0.000000	0.000000	6.482936	-0.011796	NaN	0.000000	0.001739	0.001680	28.0786	0.075167	0.001981	37.9406	-148.329	-167.209	0.009960	0.480946	-0.600589	-0.601898	-0.011796	37.9406	-0.600356	-8.421079E+7	1.400722E-10	NaN
210	1.000000	0.522250	7.3671e+06	-49139.1	955.818	-29760.4	0.000000	0.000000	6.522934	0.035762	NaN	0.000000	0.001743	0.001682	28.0784	0.082058	0.001983	41.375	-15.2205	-165.881	-0.056654	0.520942	-0.560593	-0.561902	0.035762	41.375	-0.561242	-2.429709E+7	-1.471847E-9	NaN
210	1.000000	0.562277	7.3671e+06	-49139.1	955.819	-29760.4	0.000000	0.000000	6.562961	0.024479	NaN	0.000000	0.001737	0.001730	28.0784	0.092192	0.002048	45.0148	-133.495	-165.066	0.044947	0.560981	-0.520566	-0.521862	0.024479	45.0148	-0.520974	-6.71649e+06	-3.644585E-9	NaN
210	1.000000	0.602320	7.3671e+06	-49139.1	955.818	-29760.4	0.000000	0.000000	6.603003	-0.007436	NaN	0.000000	0.001667	0.001664	28.0783	0.027154	0.001911	14.2089	-45.7393	-167.246	-0.057088	0.600980	-0.480523	-0.481863	-0.007436	14.2089	-0.480130	-1.80865e+06	4.111119E-9	NaN
210	1.000000	0.642318	7.3671e+06	-49139.1	955.818	-29760.4	0.000000	0.000000	6.643002	0.047761	NaN	0.000000	0.001694	0.001641	28.0797	0.038890	0.002029	19.1692	-55.7776	-161.812	0.034822	0.641010	-0.440526	-0.441834	0.047761	19.1692	-0.442395	-533519	-8.952062E-8	NaN
210	1.000000	0.682322	7.3671e+06	-49139.1	955.818	-29760.4	0.000000	0.000000	6.683005	0.004716	NaN	0.000000	0.001666	0.001715	28.08	0.104028	0.002201	47.2557	-155.81	-163.536	0.010658	0.681040	-0.400521	-0.401803	0.004716	47.2557	-0.400596	-136299	-3.460073E-8	NaN
210	1.000000	0.722332	7.3671e+06	-49139.1	955.819	-29760.4	0.000000	0.000000	6.723014	-0.029886	NaN	0.000000	0.001633	0.001677	28.08	0.048697	0.002007	24.2639	-35.7478	-164.606	-0.079150	0.721062	-0.360511	-0.361782	-0.029886	24.2639	-0.359587	-35146	8.503490E-7	NaN
210	1.000000	0.762378	7.3671e+06	-49139.1	955.819	-29760.4	0.000000	0.000000	6.763060	-0.003270	NaN	0.000000	0.001665	0.001653	28.0788	0.047983	0.001913	25.079	112.298	-166.156	0.029142	0.761015	-0.320465	-0.321828	-0.003270	25.079	-0.320368	-9419.96	3.471472E-7	NaN
210	1.000000	0.802377	7.3671e+06	-49139.1	955.818	-29760.4	0.000000	0.000000	6.803060	0.016696	NaN	0.000000	0.001629	0.001677	28.0788	0.092388	0.001972	46.856	143.879	-162.393	-0.028934	0.801099	-0.280467	-0.281745	0.016696	46.856	-0.280734	-2421.24	-6.895747E-6	NaN
210	1.000000	0.842364	7.3671e+06	-49139.1	955.819	-29760.4	0.000000	0.000000	6.843048	0.030137	NaN	0.000000	0.001624	0.001655	28.0786	0.027313	0.002036	13.4146	22.0667	-167.167	0.068800	0.841087	-0.240479	-0.241756	0.030137	13.4146	-0.242164	-621.325	-4.850493E-5	NaN
210	1.000000	0.882477	7.3671e+06	-49139.1	955.818	-29760.4	0.000000	0.000000	6.883158	-0.043731	NaN	0.000000	0.001726	0.001709	28.0798	0.069975	0.001939	36.0838	-174.074	-165.276	0.025587	0.881118	-0.200366	-0.201725	-0.043731	36.0838	-0.199457	-129.056	0.000339	NaN
210	1.000000	0.922414	7.3671e+06	-49139.1	955.82	-29760.4	0.000000	0.000000	6.923097	0.017458	NaN	0.000000	0.001705	0.001683	28.0798	0.059657	0.002109	28.2831	127.121	-162.833	0.020567	0.921066	-0.160429	-0.161778	0.017458	28.2831	-0.160892	-28.4333	-0.000614	NaN
210	1.000000	0.962412	7.3671e+06	-49139.1	955.819	-29760.4	0.000000	0.000000	6.963096	0.019786	NaN	0.000000	0.001607	0.001699	28.0799	0.080191	0.002065	38.8352	154.071	-166.549	-0.015374	0.961173	-0.120431	-0.121670	0.019786	38.8352	-0.120813	-5.017311	-0.003944	NaN
210	1.000000	1.002478	7.3671e+06	-49139.1	955.818	-29760.4	0.000000	0.000000	7.003163	0.055474	NaN	0.000000	0.001661	0.001703	28.0801	0.081996	0.002007	40.8484	109.268	-162.887	-0.008187	1.001199	-0.080365	-0.081644	0.055474	40.8484	-0.081384	-0.670088	-0.082787	NaN
210	1.000000	1.042502	7.3671e+06	-49139.1	955.819	-29760.4	0.000000	0.000000	7.043184	-0.016862	NaN	0.000000	0.001596	0.001685	28.0783	0.071892	0.001941	37.0425	153.131	-161.805	-0.017912	1.041177	-0.040341	-0.041666	-0.016862	37.0425	-0.040000	-0.045221	0.372875	NaN
210	1.000000	1.082488	7.3671e+06	-49139.1	955.819	-29760.4	0.000000	0.000000	7.083177	0.149150	NaN	0.000000	0.001624	0.001645	28.0783	0.238052	0.002067	115.174	9.178159	-167.887	-0.032454	1.081183	-0.000355	-0.001660	0.149150	115.174	-0.001327	-0.000967	-154.288	NaN
210	2.000000	1.099955	7.3671e+06	-49139.1	955.819	-29760.4	0.000000	0.000000	7.101482	20.5501	NaN	0.000000	0.001657	0.001666	28.0784	16.2879	0.001828	8909.85	2.506106	-169.543	19.6409	1.099694	0.017111	0.016850	20.5501	8909.85	0.015381	0.015797	1300.87	64766.9
210	2.000000	1.109895	7.3671e+06	-49139.1	955.818	-29760.4	0.000000	0.000000	7.112298	41.8349	NaN	0.000000	0.001642	0.001714	28.0799	27.4823	0.001880	14619.2	5.856655	-177.725	39.9872	1.109653	0.027051	0.026809	41.8349	14619.2	0.024905	0.030843	1356.37	76053.1
210	2.000000	1.119863	7.3671e+06	-49139.1	955.818	-29760.4	0.000000	0.000000	7.123260	65.9944	NaN	0.000000	0.001658	0.001685	28.0798	36.2849	0.001774	20458.9	4.009003	-179.326	65.9859	1.119673	0.037020	0.036830	65.9944	20458.9	0.034601	0.050820	1298.58	82915.6
210	2.000000	1.129951	7.3671e+06	-49139.1	955.818	-29760.4	0.000000	0.000000	7.134757	100.271	NaN	0.000000	0.001690	0.001695	28.0799	44.875	0.001790	25071.5	0.443515	-178.156	99.9308	1.129743	0.047108	0.046900	100.271	25071.5	0.044108	0.075077	1335.59	83599.1
210	2.000000	1.139926	7.36711e+06	-49139.1	955.819	-29760.4	0.000000	0.000000	7.147123	158.434	NaN	0.000000	0.001648	0.001688	28.0801	57.7249	0.001781	32410.5	4.847530	175.907	157.354	1.139546	0.057082	0.056703	158.434	32410.5	0.053416	0.103264	1534.26	92147.8
210	2.000000	1.149888	7.36711e+06	-49139.1	955.819	-29760.4	0.000000	0.000000	7.159523	217.714	NaN	0.000000	0.001623	0.001764	28.0787	67.5087	0.001739	38827.4	2.190897	177.231	216.379	1.149475	0.067045	0.066632	217.714	38827.4	0.062840	0.136187	1598.63	96126.6
210	2.000000	1.159819	7.36711e+06	-49139.1	955.82	-29760.4	0.000000	0.000000	7.172070	281.352	NaN	0.000000	0.001604	0.001777	28.0784	76.9836	0.001798	42814.9	4.470331	173.974	278.449	1.159604	0.076976	0.076761	281.352	42814.9	0.072047	0.172516	1630.88	94178.9
210	2.000000	1.169847	7.36711e+06	-49139.1	955.82	-29760.4	0.000000	0.000000	7.185168	356.019	NaN	0.000000	0.001645	0.001783	28.0786	86.648	0.001857	46650.5	1.073036	177.099	353.766	1.169647	0.087004	0.086804	356.019	46650.5	0.081280	0.212976	1671.64	92356
210	2.000000	1.179796	7.36711e+06	-49139.1	955.819	-29760.4	0.000000	0.000000	7.198495	438.173	NaN	0.000000	0.001607	0.001747	28.0798	95.9286	0.001737	55217.2	3.419105	173.704	434.5	1.179367	0.096952	0.096524	438.173	55217.2	0.091001	0.259856	1686.22	98965
210	2.000000	1.189958	7.36711e+06	-49139.1	955.82	-29760.4	0.000000	0.000000	7.211871	516.33	NaN	0.000000	0.001630	0.001782	28.08	106.126	0.001755	60478.1	3.277136	173.274	525.145	1.189566	0.107115	0.106723	516.33	60478.1	0.100712	0.311014	1660.15	99078.8
210	2.000000	1.190727	7.36711e+06	-49139.1	955.82	-29760.4	0.000000	0.000000	7.213310	532.64	NaN	0.000000	0.001624	0.001822	28.0797	106.602	0.001836	58059.5	5.918516	170.593	525.651	1.190430	0.107883	0.107587	532.64	58059.5	0.101003	0.312613	1703.83	94873