File: remote_trans/data/nanoindenter/0828-1/data/Data_2025-08-06,11h17m57s/2025-07-22_16-23-58_1_28.txt
2025-07-22, 16:23:58, 1
Index	Phase	Displacement	Time	Pos X	Pos Y	Pos Z	Rot A	Rot B	Piezo Z	Force A	Force B	Gripper	Voltage A	Voltage B	Temperature	Amplitude force	Amplitude pos	Stiffness	Phase shift	Phase excitation	Force A raw	Displacement raw	HMax	HMax raw	Real Force	Real Stiffness	Contact Depth	Area	Hardness	Reduced Mod.
[#]	[#]	[um]	[s]	[um]	[um]	[um]	[m°]	[m°]	[um]	[uN]	[uN]	[V]	[V]	[V]	[°C]	[uN]	[um]	[N/m]	[°]	[°]	[uN]	[um]	[um]	[um]	[uN]	[N/m]	[um]	[um^2]	[MPa]	[MPa]
28	1.000000	0.002214	7.36531e+06	-40039.1	955.818	-29792.2	0.000000	0.000000	6.002830	-0.005449	NaN	0.000000	0.001546	0.001651	28.087	0.104791	0.001010	103.772	7.116522	-161.239	-0.061145	0.000879	-1.086610	-1.087946	-0.005449	103.772	-1.086571	-3.309503E+14	1.646323E-17	NaN
28	1.000000	0.042143	7.36531e+06	-40039.1	955.818	-29792.2	0.000000	0.000000	6.042755	-0.100053	NaN	0.000000	0.001625	0.001682	28.0853	0.079629	0.001799	44.2572	102.124	-165.747	-0.016677	0.040807	-1.046681	-1.048017	-0.100053	44.2572	-1.044986	-9.141170E+13	1.094533E-15	NaN
28	1.000000	0.082160	7.36531e+06	-40039.1	955.819	-29792.2	0.000000	0.000000	6.082777	0.009577	NaN	0.000000	0.001565	0.001644	28.0867	0.051533	0.002005	25.7045	15.2163	-165.601	-0.068832	0.080817	-1.006664	-1.008007	0.009577	25.7045	-1.006943	-2.813451E+13	-3.404050E-16	NaN
28	1.000000	0.122183	7.36531e+06	-40039.1	955.818	-29792.2	0.000000	0.000000	6.122798	-0.027536	NaN	0.000000	0.001522	0.001642	28.0838	0.052132	0.002093	24.9109	-136.711	-163.942	0.061633	0.120856	-0.966641	-0.967968	-0.027536	24.9109	-0.965812	-7.856291E+12	3.505019E-15	NaN
28	1.000000	0.162171	7.36531e+06	-40039.1	955.818	-29792.2	0.000000	0.000000	6.162787	-0.003604	NaN	0.000000	0.001586	0.001686	28.0865	0.043148	0.002122	20.3351	-101.894	-167.113	-0.009161	0.160874	-0.926653	-0.927950	-0.003604	20.3351	-0.926520	-2.318622E+12	1.554217E-15	NaN
28	1.000000	0.202217	7.36531e+06	-40039.1	955.818	-29792.2	0.000000	0.000000	6.202833	-0.000702	NaN	0.000000	0.001562	0.001697	28.0851	0.080403	0.002004	40.1172	11.4188	-165.183	-0.031598	0.200852	-0.886607	-0.887972	-0.000702	40.1172	-0.886594	-6.696850E+11	1.048977E-15	NaN
28	1.000000	0.242235	7.36531e+06	-40039.1	955.818	-29792.2	0.000000	0.000000	6.242852	0.009385	NaN	0.000000	0.001574	0.001670	28.0869	0.125737	0.002012	62.4951	-126.354	-166.773	0.006116	0.240908	-0.846589	-0.847916	0.009385	62.4951	-0.846701	-1.932263E+11	-4.857081E-14	NaN
28	1.000000	0.282224	7.36531e+06	-40039.1	955.819	-29792.2	0.000000	0.000000	6.282841	0.023895	NaN	0.000000	0.001574	0.001703	28.0853	0.036472	0.001835	19.8809	-93.9496	-166.999	0.040398	0.280968	-0.806600	-0.807856	0.023895	19.8809	-0.807502	-5.684269E+10	-4.203743E-13	NaN
28	1.000000	0.322253	7.36531e+06	-40039.1	955.818	-29792.2	0.000000	0.000000	6.322864	-0.119294	NaN	0.000000	0.001567	0.001645	28.0851	0.059844	0.001967	30.429	39.549	-165.846	-0.024504	0.320911	-0.766571	-0.767913	-0.119294	30.429	-0.763631	-1.441097E+10	8.278033E-12	NaN
28	1.000000	0.362253	7.36531e+06	-40039.1	955.819	-29792.2	0.000000	0.000000	6.362868	-0.035085	NaN	0.000000	0.001564	0.001655	28.0836	0.119950	0.002018	59.4482	113.404	-165.078	0.058444	0.361015	-0.726571	-0.727809	-0.035085	59.4482	-0.726128	-4.446633E+9	7.890296E-12	NaN
28	1.000000	0.402293	7.36531e+06	-40039.1	955.818	-29792.2	0.000000	0.000000	6.402906	-0.078538	NaN	0.000000	0.001570	0.001643	28.0847	0.060780	0.002003	30.35	159.788	-164.741	-0.089405	0.401048	-0.686531	-0.687777	-0.078538	30.35	-0.684590	-1.204953E+9	6.517953E-11	NaN
28	1.000000	0.442306	7.36531e+06	-40039.1	955.818	-29792.2	0.000000	0.000000	6.442921	-0.015338	NaN	0.000000	0.001551	0.001723	28.0842	0.090350	0.002104	42.9362	144.698	-167.37	-0.050074	0.441038	-0.646518	-0.647786	-0.015338	42.9362	-0.646250	-3.597680E+8	4.263224E-11	NaN
28	1.000000	0.482339	7.36531e+06	-40039.1	955.818	-29792.2	0.000000	0.000000	6.482949	-0.135916	NaN	0.000000	0.001576	0.001660	28.0852	0.023394	0.002063	11.3376	-73.6798	-165.296	-0.100460	0.480987	-0.606485	-0.607838	-0.135916	11.3376	-0.597494	-7.690388E+7	1.767353E-9	NaN
28	1.000000	0.522347	7.36532e+06	-40039.1	955.819	-29792.2	0.000000	0.000000	6.522963	0.002530	NaN	0.000000	0.001568	0.001647	28.0839	0.016968	0.002015	8.418940	-124.627	-163.767	-0.004029	0.521051	-0.566477	-0.567773	0.002530	8.418940	-0.566702	-2.891076E+7	-8.752287E-11	NaN
28	1.000000	0.562361	7.36532e+06	-40039.1	955.819	-29792.2	0.000000	0.000000	6.562974	-0.055676	NaN	0.000000	0.001577	0.001669	28.0844	0.056033	0.001895	29.5642	-21.4237	-169.266	-0.016381	0.561042	-0.526464	-0.527782	-0.055676	29.5642	-0.525051	-7.65286e+06	7.275228E-9	NaN
28	1.000000	0.602357	7.36532e+06	-40039.1	955.819	-29792.2	0.000000	0.000000	6.602974	0.022664	NaN	0.000000	0.001617	0.001641	28.0841	0.054501	0.001912	28.5021	-116.803	-161.833	-0.032401	0.601055	-0.486467	-0.487769	0.022664	28.5021	-0.487063	-2.26122e+06	-1.002283E-8	NaN
28	1.000000	0.642389	7.36532e+06	-40039.1	955.818	-29792.2	0.000000	0.000000	6.643003	-0.051946	NaN	0.000000	0.001568	0.001663	28.0835	0.037879	0.001858	20.3865	57.0471	-165.22	-0.036231	0.641076	-0.446435	-0.447748	-0.051946	20.3865	-0.444524	-571721	9.085941E-8	NaN
28	1.000000	0.682406	7.36532e+06	-40039.1	955.819	-29792.2	0.000000	0.000000	6.683022	7.564243E-5	NaN	0.000000	0.001584	0.001662	28.0831	0.037229	0.002038	18.2681	48.4248	-164.578	0.003177	0.681098	-0.406418	-0.407726	7.564243E-5	18.2681	-0.406421	-164998	-4.584458E-10	NaN
28	1.000000	0.722403	7.36532e+06	-40039.1	955.818	-29792.2	0.000000	0.000000	6.723016	-0.046416	NaN	0.000000	0.001576	0.001682	28.0856	0.031363	0.001985	15.7977	17.643	-162.809	-0.040626	0.721095	-0.366422	-0.367729	-0.046416	15.7977	-0.364218	-40998.7	1.132145E-6	NaN
28	1.000000	0.762435	7.36532e+06	-40039.1	955.819	-29792.2	0.000000	0.000000	6.763049	-0.032522	NaN	0.000000	0.001579	0.001667	28.0834	0.010212	0.002041	5.003847	155.996	-167.961	-0.063497	0.761165	-0.326389	-0.327660	-0.032522	5.003847	-0.321515	-9793.24	3.320893E-6	NaN
28	1.000000	0.802464	7.36532e+06	-40039.1	955.819	-29792.2	0.000000	0.000000	6.803078	-0.034937	NaN	0.000000	0.001543	0.001633	28.0855	0.095788	0.002064	46.3983	155.907	-162.936	-0.029728	0.801125	-0.286360	-0.287700	-0.034937	46.3983	-0.285795	-2885.5	1.210791E-5	NaN
28	1.000000	0.842474	7.36532e+06	-40039.1	955.818	-29792.2	0.000000	0.000000	6.843088	-0.042941	NaN	0.000000	0.001520	0.001651	28.0825	0.076065	0.002041	37.272	-67.676	-167.257	-0.074339	0.841201	-0.246351	-0.247623	-0.042941	37.272	-0.245486	-699.859	6.135652E-5	NaN
28	1.000000	0.882505	7.36532e+06	-40039.1	955.818	-29792.2	0.000000	0.000000	6.883118	-0.074869	NaN	0.000000	0.001551	0.001686	28.0831	0.080493	0.002102	38.286	-85.3872	-163.271	-0.040265	0.881200	-0.206319	-0.207625	-0.074869	38.286	-0.204852	-158.18	0.000473	NaN
28	1.000000	0.922505	7.36532e+06	-40039.1	955.818	-29792.2	0.000000	0.000000	6.923119	-0.053545	NaN	0.000000	0.001562	0.001678	28.0817	0.173544	0.001998	86.8668	-84.5657	-164.462	-0.043930	0.921167	-0.166319	-0.167657	-0.053545	86.8668	-0.165857	-34.7803	0.001540	NaN
28	1.000000	0.962536	7.36532e+06	-40039.1	955.819	-29792.2	0.000000	0.000000	6.963150	-0.044675	NaN	0.000000	0.001588	0.001660	28.0835	0.014627	0.002006	7.292555	-160.435	-165.748	0.028294	0.961230	-0.126288	-0.127594	-0.044675	7.292555	-0.121694	-5.225762	0.008549	NaN
28	1.000000	1.002527	7.36532e+06	-40039.1	955.819	-29792.2	0.000000	0.000000	7.003142	-0.029096	NaN	0.000000	0.001598	0.001641	28.0833	0.034685	0.001898	18.277	-118.054	-161.597	-0.056235	1.001237	-0.086297	-0.087587	-0.029096	18.277	-0.085103	-0.826373	0.035209	NaN
28	1.000000	1.042556	7.36532e+06	-40039.1	955.819	-29792.2	0.000000	0.000000	7.043169	-0.050181	NaN	0.000000	0.001524	0.001635	28.0852	0.072589	0.001996	36.3699	-123.944	-162.169	0.009140	1.041255	-0.046269	-0.047569	-0.050181	36.3699	-0.045234	-0.065335	0.768067	NaN
28	1.000000	1.082556	7.36532e+06	-40039.1	955.819	-29792.2	0.000000	0.000000	7.083172	0.007929	NaN	0.000000	0.001600	0.001634	28.0834	0.107618	0.002015	53.3995	14.9413	-166.166	-0.110448	1.081276	-0.006268	-0.007548	0.007929	53.3995	-0.006380	-0.004267	-1.858082	NaN
28	2.000000	1.102087	7.36532e+06	-40039.1	955.819	-29792.2	0.000000	0.000000	7.103507	19.5778	NaN	0.000000	0.001625	0.001702	28.0817	14.8524	0.001769	8394.78	6.805830	-174.256	18.8429	1.101750	0.013263	0.012926	19.5778	8394.78	0.011513	0.010912	1794.07	73421.1
28	2.000000	1.112075	7.36532e+06	-40039.1	955.82	-29792.2	0.000000	0.000000	7.114334	39.9834	NaN	0.000000	0.001600	0.001729	28.0816	25.2099	0.001843	13676.8	4.922828	-176.717	38.7992	1.111756	0.023250	0.022931	39.9834	13676.8	0.021058	0.024232	1650.03	80271.9
28	2.000000	1.122068	7.36532e+06	-40039.1	955.82	-29792.2	0.000000	0.000000	7.125484	68.1601	NaN	0.000000	0.001621	0.001694	28.0826	35.0945	0.001794	19563.9	4.359863	179.673	68.0509	1.121794	0.033243	0.032970	68.1601	19563.9	0.030630	0.042060	1620.53	87154.9
28	2.000000	1.131996	7.36532e+06	-40039.1	955.82	-29792.2	0.000000	0.000000	7.137011	107.052	NaN	0.000000	0.001552	0.001718	28.0821	44.5141	0.001767	25193.1	5.902825	176.161	105.201	1.131825	0.043172	0.043001	107.052	25193.1	0.039985	0.063989	1672.99	90992.2
28	2.000000	1.142010	7.36532e+06	-40039.1	955.82	-29792.2	0.000000	0.000000	7.148978	154.59	NaN	0.000000	0.001527	0.001674	28.083	54.2826	0.001884	28811.9	1.267113	-179.44	152.737	1.141725	0.053186	0.052901	154.59	28811.9	0.049161	0.089839	1720.76	87823.9
28	2.000000	1.151914	7.36532e+06	-40039.1	955.82	-29792.2	0.000000	0.000000	7.161058	207.506	NaN	0.000000	0.001553	0.001700	28.0825	62.9744	0.001903	33084.6	3.248194	177.278	202.796	1.151759	0.063090	0.062935	207.506	33084.6	0.058386	0.120085	1727.99	87227.7
28	2.000000	1.161952	7.36532e+06	-40039.1	955.82	-29792.2	0.000000	0.000000	7.173584	268.069	NaN	0.000000	0.001507	0.001686	28.0827	71.1146	0.001820	39067.5	3.010214	176.248	266.616	1.161743	0.073128	0.072919	268.069	39067.5	0.067982	0.155975	1718.67	90377.6
28	2.000000	1.171955	7.36532e+06	-40039.1	955.821	-29792.2	0.000000	0.000000	7.186228	332.352	NaN	0.000000	0.001556	0.001666	28.0804	81.0279	0.001855	43685.5	0.673554	177.737	331.509	1.171709	0.083130	0.082884	332.352	43685.5	0.077424	0.195594	1699.19	90247
28	2.000000	1.182017	7.36532e+06	-40039.1	955.821	-29792.2	0.000000	0.000000	7.199228	403.833	NaN	0.000000	0.001518	0.001658	28.0818	91.5529	0.001844	49639.8	6.756308	170.364	405.475	1.181673	0.093193	0.092849	403.833	49639.8	0.087091	0.240478	1679.29	92483.6
28	2.000000	1.191969	7.36532e+06	-40039.1	955.82	-29792.2	0.000000	0.000000	7.212641	488.063	NaN	0.000000	0.001479	0.001673	28.081	99.2482	0.001865	53224.4	5.085269	172.08	489.453	1.191584	0.103144	0.102759	488.063	53224.4	0.096267	0.287066	1700.18	90759.7
28	2.000000	1.193866	7.36532e+06	-40039.1	955.821	-29792.2	0.000000	0.000000	7.215239	505.092	NaN	0.000000	0.001521	0.001656	28.0805	99.7252	0.001822	54731.8	2.932518	174.048	500.586	1.193583	0.105042	0.104759	505.092	54731.8	0.098121	0.296945	1700.96	91764.6