File: remote_trans/data/nanoindenter/0828-1/data/Data_2025-08-06,11h17m57s/2025-07-22_16-23-58_1_1200.txt
2025-07-22, 16:23:58, 1
Index	Phase	Displacement	Time	Pos X	Pos Y	Pos Z	Rot A	Rot B	Piezo Z	Force A	Force B	Gripper	Voltage A	Voltage B	Temperature	Amplitude force	Amplitude pos	Stiffness	Phase shift	Phase excitation	Force A raw	Displacement raw	HMax	HMax raw	Real Force	Real Stiffness	Contact Depth	Area	Hardness	Reduced Mod.
[#]	[#]	[um]	[s]	[um]	[um]	[um]	[m°]	[m°]	[um]	[uN]	[uN]	[V]	[V]	[V]	[°C]	[uN]	[um]	[N/m]	[°]	[°]	[uN]	[um]	[um]	[um]	[uN]	[N/m]	[um]	[um^2]	[MPa]	[MPa]
1200	1.000000	0.002658	7.37678e+06	-55589.1	1105.82	-29741	0.000000	0.000000	6.002805	-0.010969	NaN	0.000000	0.001594	0.001692	28.0812	0.062455	0.000990	63.1077	115.876	-161.041	-0.009737	0.001448	-1.074099	-1.075310	-0.010969	63.1077	-1.073969	-2.241350E+14	4.893955E-17	NaN
1200	1.000000	0.042574	7.37678e+06	-55589.1	1105.82	-29741	0.000000	0.000000	6.042720	-0.034556	NaN	0.000000	0.001535	0.001718	28.0826	0.081985	0.001844	44.4653	-117.274	-165.851	-0.050967	0.041282	-1.034183	-1.035475	-0.034556	44.4653	-1.033601	-6.425529E+13	5.377936E-16	NaN
1200	1.000000	0.082600	7.37678e+06	-55589.1	1105.82	-29741	0.000000	0.000000	6.082750	0.051851	NaN	0.000000	0.001542	0.001706	28.0828	0.032636	0.001990	16.4	154.376	-170.023	0.033096	0.081319	-0.994157	-0.995438	0.051851	16.4	-0.996528	-2.037166E+13	-2.545258E-15	NaN
1200	1.000000	0.122660	7.37678e+06	-55589.1	1105.82	-29741	0.000000	0.000000	6.122809	0.030733	NaN	0.000000	0.001509	0.001749	28.0825	0.085132	0.002085	40.8302	-158.618	-165.29	0.081730	0.121304	-0.954097	-0.955454	0.030733	40.8302	-0.954662	-5.557639E+12	-5.529888E-15	NaN
1200	1.000000	0.162650	7.37678e+06	-55589.1	1105.82	-29741	0.000000	0.000000	6.162798	0.022348	NaN	0.000000	0.001648	0.001736	28.0813	0.113460	0.002060	55.0774	85.59	-169.333	-0.023704	0.161315	-0.914108	-0.915443	0.022348	55.0774	-0.914412	-1.591303E+12	-1.404364E-14	NaN
1200	1.000000	0.202664	7.37678e+06	-55589.1	1105.82	-29741	0.000000	0.000000	6.202810	-0.037393	NaN	0.000000	0.001576	0.001732	28.0814	0.030839	0.002015	15.3028	-179.556	-166.935	-0.019737	0.201357	-0.874093	-0.875401	-0.037393	15.3028	-0.872261	-4.285741E+11	8.724954E-14	NaN
1200	1.000000	0.242696	7.37678e+06	-55589.1	1105.82	-29741	0.000000	0.000000	6.242842	-0.036090	NaN	0.000000	0.001560	0.001780	28.0811	0.030869	0.001926	16.0263	-13.6589	-165.487	-0.012405	0.241398	-0.834062	-0.835359	-0.036090	16.0263	-0.832373	-1.235778E+11	2.920464E-13	NaN
1200	1.000000	0.282696	7.37678e+06	-55589.1	1105.82	-29741	0.000000	0.000000	6.282844	0.030461	NaN	0.000000	0.001541	0.001739	28.0813	0.060979	0.002044	29.8258	68.699	-166.652	-0.028834	0.281387	-0.794062	-0.795370	0.030461	29.8258	-0.794828	-3.825085E+10	-7.963510E-13	NaN
1200	1.000000	0.322721	7.37678e+06	-55589.1	1105.82	-29741	0.000000	0.000000	6.322871	0.054067	NaN	0.000000	0.001591	0.001699	28.0827	0.050198	0.001980	25.347	-126.451	-166.455	0.108378	0.321426	-0.754037	-0.755332	0.054067	25.347	-0.755636	-1.121839E+10	-4.819492E-12	NaN
1200	1.000000	0.362708	7.37678e+06	-55589.1	1105.82	-29741.1	0.000000	0.000000	6.362856	0.005395	NaN	0.000000	0.001585	0.001738	28.0827	0.018133	0.002047	8.857880	53.6069	-165.808	-0.082256	0.361383	-0.714049	-0.715374	0.005395	8.857880	-0.714506	-3.086998E+9	-1.747594E-12	NaN
1200	1.000000	0.402721	7.37678e+06	-55589.1	1105.82	-29741.1	0.000000	0.000000	6.402866	-0.052702	NaN	0.000000	0.001617	0.001731	28.0826	0.108997	0.002002	54.4412	163.069	-162.513	0.031484	0.401437	-0.674037	-0.675321	-0.052702	54.4412	-0.673311	-8.446927E+8	6.239182E-11	NaN
1200	1.000000	0.442756	7.37678e+06	-55589.1	1105.82	-29741.1	0.000000	0.000000	6.442902	-0.030525	NaN	0.000000	0.001577	0.001702	28.0817	0.098479	0.002011	48.9609	63.2226	-166.029	-0.074827	0.441465	-0.634001	-0.635293	-0.030525	48.9609	-0.633534	-2.407382E+8	1.267961E-10	NaN
1200	1.000000	0.482776	7.37678e+06	-55589.1	1105.82	-29741.1	0.000000	0.000000	6.482921	-0.044356	NaN	0.000000	0.001652	0.001679	28.0819	0.124049	0.001989	62.3712	18.8869	-164.758	-0.063765	0.481467	-0.593982	-0.595290	-0.044356	62.3712	-0.593448	-6.763902E+7	6.557818E-10	NaN
1200	1.000000	0.522787	7.37678e+06	-55589.1	1105.82	-29741.1	0.000000	0.000000	6.522936	0.045584	NaN	0.000000	0.001622	0.001715	28.0816	0.138084	0.002039	67.7298	8.391624	-165.666	0.002453	0.521457	-0.553970	-0.555300	0.045584	67.7298	-0.554475	-1.958495E+7	-2.327487E-9	NaN
1200	1.000000	0.562819	7.37678e+06	-55589.1	1105.82	-29741.1	0.000000	0.000000	6.562970	0.094303	NaN	0.000000	0.001621	0.001707	28.0823	0.041928	0.002119	19.7881	-75.0842	-167.894	0.047911	0.561555	-0.513938	-0.515202	0.094303	19.7881	-0.517512	-6.01167e+06	-1.568658E-8	NaN
1200	1.000000	0.602834	7.37678e+06	-55589.1	1105.82	-29741.1	0.000000	0.000000	6.602982	0.007194	NaN	0.000000	0.001600	0.001683	28.0827	0.027976	0.002116	13.2194	138.713	-164.14	0.022620	0.601560	-0.473923	-0.475197	0.007194	13.2194	-0.474331	-1.50013e+06	-4.795601E-9	NaN
1200	1.000000	0.642846	7.37678e+06	-55589.1	1105.82	-29741.1	0.000000	0.000000	6.642993	-0.007325	NaN	0.000000	0.001587	0.001676	28.0827	0.028669	0.002056	13.9428	-30.8161	-167.007	-0.004922	0.641564	-0.433911	-0.435194	-0.007325	13.9428	-0.433517	-399760	1.832238E-8	NaN
1200	1.000000	0.682891	7.37678e+06	-55589.1	1105.82	-29741.1	0.000000	0.000000	6.683040	0.036678	NaN	0.000000	0.001558	0.001651	28.0827	0.055059	0.002052	26.8381	-22.9272	-169.552	0.026724	0.681551	-0.393867	-0.395206	0.036678	26.8381	-0.394891	-113002	-3.245763E-7	NaN
1200	1.000000	0.722835	7.37678e+06	-55589.1	1105.82	-29741.1	0.000000	0.000000	6.722983	-0.003205	NaN	0.000000	0.001529	0.001683	28.0816	0.047443	0.002025	23.424	-169.639	-165.516	0.004691	0.721553	-0.353922	-0.355204	-0.003205	23.424	-0.353819	-28999.7	1.105301E-7	NaN
1200	1.000000	0.762897	7.37678e+06	-55589.1	1105.82	-29741.1	0.000000	0.000000	6.763047	0.070529	NaN	0.000000	0.001530	0.001679	28.0815	0.133437	0.001940	68.7768	-160.779	-167.747	-0.083634	0.761599	-0.313861	-0.315158	0.070529	68.7768	-0.314630	-7753.2	-9.096773E-6	NaN
1200	1.000000	0.802889	7.37678e+06	-55589.1	1105.82	-29741.1	0.000000	0.000000	6.803036	-0.008920	NaN	0.000000	0.001530	0.001677	28.0816	0.112096	0.002058	54.4812	-120.424	-166.412	-0.039376	0.801623	-0.273868	-0.275134	-0.008920	54.4812	-0.273745	-1898.43	4.698569E-6	NaN
1200	1.000000	0.842969	7.37678e+06	-55589.1	1105.82	-29741.1	0.000000	0.000000	6.843114	-0.068533	NaN	0.000000	0.001492	0.001681	28.0827	0.010298	0.001951	5.278284	134.414	-163.941	0.017497	0.841677	-0.233788	-0.235081	-0.068533	5.278284	-0.224050	-322.283	0.000213	NaN
1200	1.000000	0.882936	7.37678e+06	-55589.1	1105.82	-29741.1	0.000000	0.000000	6.883085	0.022944	NaN	0.000000	0.001493	0.001713	28.0826	0.039356	0.002098	18.7571	-18.8223	-165.105	-0.079027	0.881650	-0.193821	-0.195107	0.022944	18.7571	-0.194739	-107.863	-0.000213	NaN
1200	1.000000	0.922977	7.37678e+06	-55589.1	1105.82	-29741.1	0.000000	0.000000	6.923127	0.064231	NaN	0.000000	0.001527	0.001668	28.0828	0.050417	0.001916	26.3146	-82.1897	-163.81	0.063482	0.921628	-0.153780	-0.155129	0.064231	26.3146	-0.155611	-22.8855	-0.002807	NaN
1200	1.000000	0.963009	7.37678e+06	-55589.1	1105.82	-29741.1	0.000000	0.000000	6.963156	-0.009551	NaN	0.000000	0.001533	0.001689	28.0828	0.051828	0.001970	26.3111	-171.667	-167.412	-0.065589	0.961702	-0.113748	-0.115055	-0.009551	26.3111	-0.113476	-3.552880	0.002688	NaN
1200	1.000000	1.002986	7.37678e+06	-55589.1	1105.82	-29741.1	0.000000	0.000000	7.003134	0.006335	NaN	0.000000	0.001529	0.001647	28.0815	0.049857	0.001983	25.1475	130.049	-166.927	-0.034175	1.001669	-0.073771	-0.075088	0.006335	25.1475	-0.073960	-0.434027	-0.014596	NaN
1200	1.000000	1.043044	7.37678e+06	-55589.1	1105.82	-29741.1	0.000000	0.000000	7.043187	-0.100002	NaN	0.000000	0.001517	0.001679	28.0814	0.130341	0.002020	64.5337	178.672	-167.86	-0.081392	1.041709	-0.033714	-0.035049	-0.100002	64.5337	-0.032552	-0.027177	3.679588	NaN
1200	1.000000	1.082972	7.37678e+06	-55589.1	1105.82	-29741.1	0.000000	0.000000	7.083341	5.401461	NaN	0.000000	0.001536	0.001650	28.0815	6.382446	0.001797	3551.23	15.0035	-172.48	4.106172	1.081722	0.006214	0.004964	5.401461	3551.23	0.005074	0.004201	1285.85	50060.1
1200	2.000000	1.094617	7.37678e+06	-55589.1	1105.82	-29741.1	0.000000	0.000000	7.095734	23.5745	NaN	0.000000	0.001513	0.001630	28.0828	18.7696	0.001840	10199.4	6.547831	-176.611	23.5643	1.094256	0.017859	0.017499	23.5745	10199.4	0.016126	0.016816	1401.89	71859.4
1200	2.000000	1.104575	7.37678e+06	-55589.1	1105.82	-29741.1	0.000000	0.000000	7.106706	48.2005	NaN	0.000000	0.001492	0.001690	28.0831	29.4036	0.001878	15657.6	7.176049	178.838	48.1712	1.104322	0.027818	0.027564	48.2005	15657.6	0.025509	0.031948	1508.7	80033.9
1200	2.000000	1.114537	7.37678e+06	-55589.1	1105.82	-29741.1	0.000000	0.000000	7.118077	82.4591	NaN	0.000000	0.001495	0.001684	28.0833	38.6236	0.001684	22939	4.174394	177.944	81.6877	1.114259	0.037780	0.037501	82.4591	22939	0.035084	0.051941	1587.57	91959
1200	2.000000	1.124470	7.37678e+06	-55589.1	1105.82	-29741.1	0.000000	0.000000	7.129756	124.896	NaN	0.000000	0.001524	0.001646	28.0832	51.1678	0.001871	27351.6	5.914455	174.609	122.616	1.124224	0.047713	0.047467	124.896	27351.6	0.044288	0.075579	1652.51	90898.1
1200	2.000000	1.134523	7.37678e+06	-55589.1	1105.82	-29741.1	0.000000	0.000000	7.142032	178.958	NaN	0.000000	0.001533	0.001668	28.0821	58.6915	0.001906	30794.6	3.165390	176.78	177.236	1.134222	0.057766	0.057465	178.958	30794.6	0.053407	0.103234	1733.52	87566
1200	2.000000	1.144497	7.37678e+06	-55589.1	1105.82	-29741.1	0.000000	0.000000	7.154586	241.659	NaN	0.000000	0.001583	0.001643	28.0819	68.9223	0.001678	41079.4	4.880654	171.929	239.065	1.144192	0.067740	0.067435	241.659	41079.4	0.063328	0.138011	1751.01	101027
1200	2.000000	1.154537	7.37678e+06	-55589.1	1105.82	-29741.1	0.000000	0.000000	7.167258	305.63	NaN	0.000000	0.001620	0.001678	28.0819	79.6752	0.001856	42923.5	4.420481	172.775	305.239	1.154298	0.077780	0.077540	305.63	42923.5	0.072440	0.174154	1754.94	93972.8
1200	2.000000	1.164452	7.37678e+06	-55589.1	1105.82	-29741.1	0.000000	0.000000	7.180074	376.163	NaN	0.000000	0.001478	0.001647	28.0832	88.4519	0.001836	48165.4	-0.424810	176.984	372.899	1.164243	0.087695	0.087486	376.163	48165.4	0.081838	0.215547	1745.15	94784.4
1200	2.000000	1.174581	7.37678e+06	-55589.1	1105.82	-29741.1	0.000000	0.000000	7.193739	462.106	NaN	0.000000	0.001566	0.001663	28.0831	98.6688	0.001792	55065.6	4.940048	171.819	464.964	1.174061	0.097824	0.097304	462.106	55065.6	0.091530	0.262533	1760.18	98188.7
1200	2.000000	1.183402	7.37678e+06	-55589.1	1105.82	-29741.1	0.000000	0.000000	7.206166	549.78	NaN	0.000000	0.001515	0.001697	28.083	106.151	0.001841	57648.7	4.715277	170.911	545.162	1.183119	0.106644	0.106362	549.78	57648.7	0.099492	0.304351	1806.4	95471.8