File: remote_trans/data/nanoindenter/0828-1/data/Data_2025-08-06,11h17m57s/2025-07-22_16-23-58_1_1150.txt
2025-07-22, 16:23:58, 1
Index	Phase	Displacement	Time	Pos X	Pos Y	Pos Z	Rot A	Rot B	Piezo Z	Force A	Force B	Gripper	Voltage A	Voltage B	Temperature	Amplitude force	Amplitude pos	Stiffness	Phase shift	Phase excitation	Force A raw	Displacement raw	HMax	HMax raw	Real Force	Real Stiffness	Contact Depth	Area	Hardness	Reduced Mod.
[#]	[#]	[um]	[s]	[um]	[um]	[um]	[m°]	[m°]	[um]	[uN]	[uN]	[V]	[V]	[V]	[°C]	[uN]	[um]	[N/m]	[°]	[°]	[uN]	[um]	[um]	[um]	[uN]	[N/m]	[um]	[um^2]	[MPa]	[MPa]
1150	1.000000	0.002702	7.37631e+06	-57639.1	1055.82	-29736.6	0.000000	0.000000	6.002828	0.019048	NaN	0.000000	0.001526	0.001714	28.0828	0.037028	0.000914	40.5227	-32.7596	-163.324	0.063809	0.001419	-1.064458	-1.065741	0.019048	40.5227	-1.064810	-1.688341E+14	-1.128232E-16	NaN
1150	1.000000	0.042606	7.37631e+06	-57639.1	1055.82	-29736.6	0.000000	0.000000	6.042732	0.020022	NaN	0.000000	0.001529	0.001748	28.0811	0.112917	0.001922	58.7503	51.0701	-163.322	-0.014996	0.041347	-1.024554	-1.025812	0.020022	58.7503	-1.024809	-4.893911E+13	-4.091117E-16	NaN
1150	1.000000	0.082658	7.37631e+06	-57639.1	1055.82	-29736.6	0.000000	0.000000	6.082782	-0.037300	NaN	0.000000	0.001511	0.001707	28.081	0.056731	0.001923	29.5022	-149.505	-168.741	-0.022150	0.081317	-0.984501	-0.985842	-0.037300	29.5022	-0.983553	-1.362314E+13	2.738023E-15	NaN
1150	1.000000	0.122670	7.37631e+06	-57639.1	1055.82	-29736.6	0.000000	0.000000	6.122793	-0.050162	NaN	0.000000	0.001560	0.001755	28.081	0.054814	0.001813	30.2412	-25.2602	-166.994	0.002091	0.121387	-0.944489	-0.945772	-0.050162	30.2412	-0.943245	-3.898668E+12	1.286652E-14	NaN
1150	1.000000	0.162671	7.37631e+06	-57639.1	1055.82	-29736.6	0.000000	0.000000	6.162794	-0.039448	NaN	0.000000	0.001545	0.001761	28.0812	0.021172	0.002027	10.4461	-155.07	-163.935	0.003266	0.161358	-0.904489	-0.905801	-0.039448	10.4461	-0.901656	-1.070152E+12	3.686188E-14	NaN
1150	1.000000	0.202660	7.37631e+06	-57639.1	1055.82	-29736.6	0.000000	0.000000	6.202785	-0.006504	NaN	0.000000	0.001561	0.001735	28.0824	0.012825	0.002019	6.350973	-102.47	-166.478	-0.098528	0.201376	-0.864499	-0.865783	-0.006504	6.350973	-0.863731	-3.285629E+11	1.979622E-14	NaN
1150	1.000000	0.242706	7.37631e+06	-57639.1	1055.82	-29736.6	0.000000	0.000000	6.242831	0.005081	NaN	0.000000	0.001595	0.001773	28.0824	0.058395	0.002176	26.8364	158.867	-168.407	0.002228	0.241385	-0.824453	-0.825775	0.005081	26.8364	-0.824595	-9.694323E+10	-5.241178E-14	NaN
1150	1.000000	0.282715	7.37631e+06	-57639.1	1055.82	-29736.6	0.000000	0.000000	6.282842	0.054410	NaN	0.000000	0.001572	0.001769	28.0822	0.075657	0.001963	38.5503	158.661	-165.763	-0.027026	0.281435	-0.784445	-0.785724	0.054410	38.5503	-0.785503	-2.857596E+10	-1.904036E-12	NaN
1150	1.000000	0.322735	7.37631e+06	-57639.1	1055.82	-29736.6	0.000000	0.000000	6.322857	-0.069934	NaN	0.000000	0.001605	0.001737	28.081	0.017489	0.002065	8.467787	-80.2641	-166.34	-0.056477	0.321449	-0.744425	-0.745710	-0.069934	8.467787	-0.738230	-6.500593E+9	1.075808E-11	NaN
1150	1.000000	0.362732	7.37631e+06	-57639.1	1055.82	-29736.6	0.000000	0.000000	6.362857	-0.015852	NaN	0.000000	0.001645	0.001757	28.0807	0.135236	0.002110	64.0844	-135.562	-165.291	-0.016731	0.361438	-0.704427	-0.705721	-0.015852	64.0844	-0.704242	-2.235878E+9	7.089778E-12	NaN
1150	1.000000	0.402775	7.37631e+06	-57639.1	1055.82	-29736.6	0.000000	0.000000	6.402900	0.017828	NaN	0.000000	0.001615	0.001741	28.0807	0.089710	0.001882	47.678	34.8852	-168.698	0.016772	0.401507	-0.664385	-0.665652	0.017828	47.678	-0.664665	-6.432179E+8	-2.771715E-11	NaN
1150	1.000000	0.442788	7.37631e+06	-57639.1	1055.82	-29736.6	0.000000	0.000000	6.442911	-0.048605	NaN	0.000000	0.001532	0.001768	28.081	0.044861	0.001926	23.2983	117.333	-166.239	-0.036675	0.441453	-0.624371	-0.625706	-0.048605	23.2983	-0.622807	-1.714778E+8	2.834494E-10	NaN
1150	1.000000	0.482784	7.37631e+06	-57639.1	1055.82	-29736.6	0.000000	0.000000	6.482910	0.001985	NaN	0.000000	0.001551	0.001763	28.082	0.078610	0.001904	41.2856	82.9008	-170.228	-0.056686	0.481449	-0.584375	-0.585711	0.001985	41.2856	-0.584411	-5.076799E+7	-3.910092E-11	NaN
1150	1.000000	0.522855	7.37631e+06	-57639.1	1055.82	-29736.6	0.000000	0.000000	6.522981	0.023543	NaN	0.000000	0.001554	0.001762	28.082	0.066218	0.001906	34.7455	-38.2889	-165.086	0.036715	0.521479	-0.544304	-0.545680	0.023543	34.7455	-0.544812	-1.439054E+7	-1.636038E-9	NaN
1150	1.000000	0.562845	7.37631e+06	-57639.1	1055.82	-29736.6	0.000000	0.000000	6.562970	-0.011821	NaN	0.000000	0.001580	0.001737	28.0819	0.036220	0.001819	19.9155	59.7927	-165.842	0.006727	0.561550	-0.504314	-0.505610	-0.011821	19.9155	-0.503869	-3.88131e+06	3.045596E-9	NaN
1150	1.000000	0.602864	7.37631e+06	-57639.1	1055.82	-29736.6	0.000000	0.000000	6.602988	-0.016862	NaN	0.000000	0.001560	0.001781	28.0809	0.018661	0.001932	9.657039	133.472	-167.33	0.011021	0.601536	-0.464296	-0.465623	-0.016862	9.657039	-0.462986	-1.03985e+06	1.621543E-8	NaN
1150	1.000000	0.642885	7.37631e+06	-57639.1	1055.82	-29736.6	0.000000	0.000000	6.643007	-0.091320	NaN	0.000000	0.001580	0.001742	28.081	0.071516	0.001860	38.4392	131.616	-164.194	-0.017251	0.641614	-0.424274	-0.425545	-0.091320	38.4392	-0.422492	-279095	3.272021E-7	NaN
1150	1.000000	0.682887	7.37631e+06	-57639.1	1055.82	-29736.6	0.000000	0.000000	6.683015	0.064659	NaN	0.000000	0.001586	0.001695	28.0809	0.013337	0.001870	7.133987	-6.576445	-167.799	0.064523	0.681603	-0.384272	-0.385556	0.064659	7.133987	-0.391070	-99648.3	-6.488767E-7	NaN
1150	1.000000	0.722928	7.37631e+06	-57639.1	1055.82	-29736.6	0.000000	0.000000	6.723052	-0.048965	NaN	0.000000	0.001582	0.001725	28.0823	0.083015	0.002025	41.0015	-115.066	-165.025	0.001917	0.721577	-0.344231	-0.345582	-0.048965	41.0015	-0.343335	-20423.7	2.397463E-6	NaN
1150	1.000000	0.762932	7.37631e+06	-57639.1	1055.82	-29736.6	0.000000	0.000000	6.763058	0.002225	NaN	0.000000	0.001581	0.001755	28.0818	0.056308	0.001991	28.277	-113.173	-166.781	-0.026546	0.761630	-0.304227	-0.305529	0.002225	28.277	-0.304286	-5449.49	-4.082311E-7	NaN
1150	1.000000	0.802964	7.37631e+06	-57639.1	1055.82	-29736.6	0.000000	0.000000	6.803089	-0.007954	NaN	0.000000	0.001522	0.001770	28.0823	0.050257	0.001966	25.5623	-99.0682	-163.008	-0.000845	0.801631	-0.264195	-0.265528	-0.007954	25.5623	-0.263962	-1347.52	5.902825E-6	NaN
1150	1.000000	0.842949	7.37631e+06	-57639.1	1055.82	-29736.6	0.000000	0.000000	6.843074	-0.017025	NaN	0.000000	0.001575	0.001738	28.0822	0.078146	0.001986	39.3447	149.483	-167.081	-0.051805	0.841676	-0.224210	-0.225483	-0.017025	39.3447	-0.223886	-320.349	5.314409E-5	NaN
1150	1.000000	0.882999	7.37631e+06	-57639.1	1055.82	-29736.6	0.000000	0.000000	6.883120	-0.093725	NaN	0.000000	0.001533	0.001715	28.0809	0.038800	0.002196	17.6661	147.719	-169.619	-0.081740	0.881666	-0.184160	-0.185493	-0.093725	17.6661	-0.180181	-61.4536	0.001525	NaN
1150	1.000000	0.922975	7.37631e+06	-57639.1	1055.82	-29736.6	0.000000	0.000000	6.923098	-0.039435	NaN	0.000000	0.001527	0.001700	28.0811	0.095393	0.002063	46.2381	71.1104	-167.535	-0.033632	0.921652	-0.144185	-0.145507	-0.039435	46.2381	-0.143545	-13.7781	0.002862	NaN
1150	1.000000	0.963015	7.37631e+06	-57639.1	1055.82	-29736.6	0.000000	0.000000	6.963141	0.018514	NaN	0.000000	0.001525	0.001742	28.0813	0.025443	0.002137	11.9082	167.831	-166.12	-0.003440	0.961686	-0.104144	-0.105473	0.018514	11.9082	-0.105310	-2.387071	-0.007756	NaN
1150	1.000000	1.003014	7.37631e+06	-57639.1	1055.82	-29736.6	0.000000	0.000000	7.003141	0.055127	NaN	0.000000	0.001570	0.001750	28.0825	0.176208	0.001994	88.3616	178.681	-162.44	0.079411	1.001743	-0.064145	-0.065417	0.055127	88.3616	-0.064613	-0.243128	-0.226742	NaN
1150	1.000000	1.043006	7.37631e+06	-57639.1	1055.82	-29736.6	0.000000	0.000000	7.043129	-0.040955	NaN	0.000000	0.001516	0.001745	28.082	0.053802	0.002015	26.7056	10.3984	-163.42	0.003488	1.041757	-0.024154	-0.025402	-0.040955	26.7056	-0.023004	-0.014980	2.734036	NaN
1150	2.000000	1.074636	7.37631e+06	-57639.1	1055.82	-29736.6	0.000000	0.000000	7.075203	10.7212	NaN	0.000000	0.001558	0.001745	28.0819	11.4359	0.001753	6522.18	8.958105	-175.031	10.5066	1.074354	0.007477	0.007195	10.7212	6522.18	0.006244	0.005298	2023.71	81868.9
1150	2.000000	1.084582	7.37631e+06	-57639.1	1055.82	-29736.6	0.000000	0.000000	7.085918	29.4135	NaN	0.000000	0.001591	0.001681	28.0822	22.2839	0.001733	12858.7	4.019508	-175.236	29.8853	1.084267	0.017423	0.017107	29.4135	12858.7	0.015707	0.016240	1811.13	92187.3
1150	2.000000	1.094534	7.37631e+06	-57639.1	1055.82	-29736.6	0.000000	0.000000	7.096904	54.5609	NaN	0.000000	0.001618	0.001690	28.0809	32.8799	0.001876	17525.7	3.305943	-178.425	55.0868	1.094304	0.027374	0.027145	54.5609	17525.7	0.025040	0.031088	1755.07	90814.8
1150	2.000000	1.104492	7.37631e+06	-57639.1	1055.82	-29736.6	0.000000	0.000000	7.108364	91.0666	NaN	0.000000	0.001613	0.001728	28.0811	41.7825	0.001778	23496.9	2.983076	179.155	89.0886	1.104166	0.037333	0.037006	91.0666	23496.9	0.034426	0.050418	1806.22	95606.9
1150	2.000000	1.114454	7.37631e+06	-57639.1	1055.82	-29736.6	0.000000	0.000000	7.119833	127.703	NaN	0.000000	0.001596	0.001738	28.081	51.5273	0.001775	29031.7	7.149437	173.201	125.829	1.114149	0.047294	0.046989	127.703	29031.7	0.043995	0.074761	1708.16	97008.2
1150	2.000000	1.124496	7.37631e+06	-57639.1	1055.82	-29736.6	0.000000	0.000000	7.131540	168.159	NaN	0.000000	0.001605	0.001681	28.0824	62.8696	0.001884	33370	5.706553	173.759	166.217	1.124182	0.057337	0.057023	168.159	33370	0.053557	0.103724	1621.21	94664.9
1150	2.000000	1.134468	7.37631e+06	-57639.1	1055.82	-29736.6	0.000000	0.000000	7.143193	209.031	NaN	0.000000	0.001533	0.001736	28.0824	70.6861	0.001819	38857.4	1.383539	176.449	207.155	1.134265	0.067308	0.067106	209.031	38857.4	0.063274	0.137808	1516.82	95633.2
1150	2.000000	1.144466	7.37631e+06	-57639.1	1055.82	-29736.6	0.000000	0.000000	7.155213	258.158	NaN	0.000000	0.001571	0.001714	28.0822	79.1671	0.001795	44104	3.846151	172.979	256.494	1.144400	0.077307	0.077240	258.158	44104	0.072917	0.176155	1465.52	96007.2
1150	2.000000	1.154483	7.37631e+06	-57639.1	1055.82	-29736.6	0.000000	0.000000	7.167911	323.322	NaN	0.000000	0.001563	0.001695	28.0821	88.9722	0.001776	50091.6	3.431614	172.778	324.013	1.154318	0.087324	0.087159	323.322	50091.6	0.082483	0.218540	1479.46	97897.8
1150	2.000000	1.164452	7.37631e+06	-57639.1	1055.82	-29736.6	0.000000	0.000000	7.180943	397.755	NaN	0.000000	0.001541	0.001653	28.0807	97.8554	0.001794	54552.5	5.321101	170.838	397.925	1.164158	0.097293	0.096999	397.755	54552.5	0.091825	0.264030	1506.48	96997.8
1150	2.000000	1.170455	7.37631e+06	-57639.1	1055.82	-29736.6	0.000000	0.000000	7.188892	445.066	NaN	0.000000	0.001550	0.001663	28.0811	102.947	0.001909	53937.1	6.729342	170.032	443.41	1.170103	0.103295	0.102944	445.066	53937.1	0.097107	0.291522	1526.7	91269.5