File: remote_trans/data/nanoindenter/0828-1/data/Data_2025-08-06,11h17m57s/2025-07-22_16-23-58_1_593.txt
2025-07-22, 16:23:58, 1
Index	Phase	Displacement	Time	Pos X	Pos Y	Pos Z	Rot A	Rot B	Piezo Z	Force A	Force B	Gripper	Voltage A	Voltage B	Temperature	Amplitude force	Amplitude pos	Stiffness	Phase shift	Phase excitation	Force A raw	Displacement raw	HMax	HMax raw	Real Force	Real Stiffness	Contact Depth	Area	Hardness	Reduced Mod.
[#]	[#]	[um]	[s]	[um]	[um]	[um]	[m°]	[m°]	[um]	[uN]	[uN]	[V]	[V]	[V]	[°C]	[uN]	[um]	[N/m]	[°]	[°]	[uN]	[um]	[um]	[um]	[uN]	[N/m]	[um]	[um^2]	[MPa]	[MPa]
593	1.000000	0.002519	7.37085e+06	-47439.1	1005.82	-29765.9	0.000000	0.000000	6.002799	-0.031714	NaN	0.000000	0.001604	0.001782	28.0808	0.057911	0.000934	61.984	177.93	-169.851	0.000912	0.001245	-1.100597	-1.101872	-0.031714	61.984	-1.100214	-5.045854E+14	6.285157E-17	NaN
593	1.000000	0.044469	7.37085e+06	-47439.1	1005.82	-29765.9	0.000000	0.000000	6.044750	-0.010447	NaN	0.000000	0.001626	0.001770	28.0808	0.103177	0.001904	54.2024	177.404	14.2016	-0.023893	0.043129	-1.058647	-1.059988	-0.010447	54.2024	-1.058503	-1.388999E+14	7.521531E-17	NaN
593	1.000000	0.086459	7.37085e+06	-47439.1	1005.82	-29765.9	0.000000	0.000000	6.086739	-0.027017	NaN	0.000000	0.001632	0.001803	28.0795	0.062571	0.001966	31.8229	125.581	-161.547	0.030715	0.085187	-1.016658	-1.017929	-0.027017	31.8229	-1.016021	-3.727441E+13	7.248186E-16	NaN
593	1.000000	0.128497	7.37085e+06	-47439.1	1005.82	-29765.9	0.000000	0.000000	6.128780	0.040149	NaN	0.000000	0.001608	0.001760	28.0798	0.032863	0.001940	16.9357	120.865	16.0053	-0.007319	0.127115	-0.974620	-0.976001	0.040149	16.9357	-0.976398	-1.091123E+13	-3.679569E-15	NaN
593	1.000000	0.170496	7.37085e+06	-47439.1	1005.82	-29765.9	0.000000	0.000000	6.170779	0.042695	NaN	0.000000	0.001624	0.001728	28.0798	0.047064	0.002058	22.8721	-47.1878	-165.856	0.072771	0.169217	-0.932620	-0.933900	0.042695	22.8721	-0.934020	-2.927201E+12	-1.458566E-14	NaN
593	1.000000	0.212529	7.37085e+06	-47439.1	1005.82	-29765.9	0.000000	0.000000	6.212814	0.095225	NaN	0.000000	0.001607	0.001726	28.0808	0.068457	0.001965	34.8336	-51.9005	13.7269	0.064347	0.211186	-0.890587	-0.891930	0.095225	34.8336	-0.892637	-8.082889E+11	-1.178107E-13	NaN
593	1.000000	0.254573	7.37085e+06	-47439.1	1005.82	-29765.9	0.000000	0.000000	6.254857	0.056239	NaN	0.000000	0.001572	0.001729	28.081	0.090023	0.002024	44.4793	-156.796	-167.108	0.065243	0.253231	-0.848543	-0.849886	0.056239	44.4793	-0.849491	-2.107899E+11	-2.668014E-13	NaN
593	1.000000	0.296554	7.37085e+06	-47439.1	1005.82	-29765.9	0.000000	0.000000	6.296837	0.029744	NaN	0.000000	0.001569	0.001790	28.081	0.066985	0.001865	35.9146	125.528	16.9659	0.030242	0.295266	-0.806562	-0.807851	0.029744	35.9146	-0.807183	-5.628000E+10	-5.284989E-13	NaN
593	1.000000	0.338591	7.37085e+06	-47439.1	1005.82	-29765.9	0.000000	0.000000	6.338872	-0.015285	NaN	0.000000	0.001640	0.001804	28.0797	0.017818	0.001983	8.986764	-71.6075	-165.637	0.031104	0.337220	-0.764525	-0.765896	-0.015285	8.986764	-0.763250	-1.423991E+10	1.073363E-12	NaN
593	1.000000	0.380609	7.37085e+06	-47439.1	1005.82	-29765.9	0.000000	0.000000	6.380890	-0.011211	NaN	0.000000	0.001643	0.001770	28.0798	0.077244	0.001965	39.306	-14.3447	11.9406	-0.029757	0.379259	-0.722507	-0.723857	-0.011211	39.306	-0.722293	-3.942272E+9	2.843848E-12	NaN
593	1.000000	0.422628	7.37085e+06	-47439.1	1005.82	-29765.9	0.000000	0.000000	6.422910	0.023500	NaN	0.000000	0.001675	0.001753	28.0797	0.030436	0.002109	14.4298	146.035	-164.101	0.072729	0.421267	-0.680488	-0.681849	0.023500	14.4298	-0.681710	-1.100493E+9	-2.135367E-11	NaN
593	1.000000	0.464647	7.37085e+06	-47439.1	1005.82	-29765.9	0.000000	0.000000	6.464932	0.095053	NaN	0.000000	0.001626	0.001801	28.08	0.101295	0.001985	51.0397	-35.6378	13.8809	0.012784	0.463255	-0.638469	-0.639862	0.095053	51.0397	-0.639866	-2.940707E+8	-3.232327E-10	NaN
593	1.000000	0.506646	7.37085e+06	-47439.1	1005.82	-29765.9	0.000000	0.000000	6.506926	-0.017604	NaN	0.000000	0.001633	0.001771	28.0814	0.062428	0.001993	31.3292	-47.2407	-166.789	0.026701	0.505292	-0.596471	-0.597824	-0.017604	31.3292	-0.596049	-7.345803E+7	2.396532E-10	NaN
593	1.000000	0.548665	7.37085e+06	-47439.1	1005.82	-29765.9	0.000000	0.000000	6.548946	-0.010457	NaN	0.000000	0.001580	0.001763	28.0812	0.069844	0.001972	35.4163	-120.059	11.3486	0.088486	0.547277	-0.554451	-0.555839	-0.010457	35.4163	-0.554230	-1.943256E+7	5.381178E-10	NaN
593	1.000000	0.590702	7.37085e+06	-47439.1	1005.82	-29765.9	0.000000	0.000000	6.590983	0.003574	NaN	0.000000	0.001563	0.001771	28.0814	0.124243	0.001954	63.5797	112.782	-167.667	-0.014162	0.589352	-0.512415	-0.513765	0.003574	63.5797	-0.512457	-5.11247e+06	-6.990438E-10	NaN
593	1.000000	0.632698	7.37085e+06	-47439.1	1005.82	-29765.9	0.000000	0.000000	6.632980	0.019956	NaN	0.000000	0.001540	0.001746	28.0802	0.078671	0.002026	38.8215	-117.046	14.9916	-0.070545	0.631372	-0.470418	-0.471744	0.019956	38.8215	-0.470804	-1.33869e+06	-1.490683E-8	NaN
593	1.000000	0.674753	7.37085e+06	-47439.1	1005.82	-29765.9	0.000000	0.000000	6.675034	-0.009322	NaN	0.000000	0.001592	0.001743	28.0803	0.124441	0.002075	59.9697	124.151	-166.255	0.016212	0.673406	-0.428363	-0.429711	-0.009322	59.9697	-0.428246	-336704	2.768561E-8	NaN
593	1.000000	0.716744	7.37085e+06	-47439.1	1005.82	-29765.9	0.000000	0.000000	6.717026	0.025245	NaN	0.000000	0.001605	0.001760	28.0805	0.138841	0.002076	66.882	-49.1495	11.3513	0.022838	0.715425	-0.386373	-0.387691	0.025245	66.882	-0.386656	-86159.6	-2.930030E-7	NaN
593	1.000000	0.758763	7.37085e+06	-47439.1	1005.82	-29765.9	0.000000	0.000000	6.759047	0.052725	NaN	0.000000	0.001629	0.001781	28.0814	0.110484	0.001928	57.301	173.52	-170.214	-0.023133	0.757464	-0.344353	-0.345653	0.052725	57.301	-0.345043	-21626.7	-2.437974E-6	NaN
593	1.000000	0.800770	7.37085e+06	-47439.1	1005.82	-29765.9	0.000000	0.000000	6.801055	0.084379	NaN	0.000000	0.001576	0.001808	28.0813	0.014269	0.002111	6.757984	19.257	15.2729	0.036332	0.799400	-0.302346	-0.303716	0.084379	6.757984	-0.311711	-7020.35	-1.201925E-5	NaN
593	1.000000	0.842798	7.37085e+06	-47439.1	1005.82	-29765.9	0.000000	0.000000	6.843080	0.020341	NaN	0.000000	0.001564	0.001831	28.0816	0.095353	0.002022	47.1683	-47.5797	-161.898	-0.044307	0.841466	-0.260319	-0.261651	0.020341	47.1683	-0.260642	-1198.83	-1.696708E-5	NaN
593	1.000000	0.884808	7.37085e+06	-47439.1	1005.82	-29765.9	0.000000	0.000000	6.885090	0.026233	NaN	0.000000	0.001597	0.001817	28.08	0.059626	0.002107	28.2979	-24.7024	15.8242	0.020091	0.883511	-0.218309	-0.219605	0.026233	28.2979	-0.219004	-267.763	-9.797032E-5	NaN
593	1.000000	0.926816	7.37085e+06	-47439.1	1005.82	-29765.9	0.000000	0.000000	6.927102	0.116738	NaN	0.000000	0.001598	0.001837	28.0802	0.077740	0.001923	40.4241	-68.0529	-164.437	0.060772	0.925532	-0.176301	-0.177584	0.116738	40.4241	-0.178467	-57.4567	-0.002032	NaN
593	1.000000	0.968861	7.37085e+06	-47439.1	1005.82	-29765.9	0.000000	0.000000	6.969144	0.029423	NaN	0.000000	0.001593	0.001815	28.08	0.145316	0.002117	68.6417	-60.178	14.2971	0.064235	0.967461	-0.134255	-0.135656	0.029423	68.6417	-0.134577	-9.336978	-0.003151	NaN
593	1.000000	1.010859	7.37085e+06	-47439.1	1005.82	-29765.9	0.000000	0.000000	7.011143	0.058552	NaN	0.000000	0.001624	0.001778	28.0802	0.078670	0.001919	40.9864	-32.8526	-169.351	-0.012188	1.009571	-0.092257	-0.093546	0.058552	40.9864	-0.093329	-1.291654	-0.045331	NaN
593	1.000000	1.052873	7.37085e+06	-47439.1	1005.82	-29765.9	0.000000	0.000000	7.053154	0.003398	NaN	0.000000	0.001685	0.001759	28.0811	0.013943	0.002093	6.660663	68.0469	11.7779	-0.012662	1.051507	-0.050244	-0.051610	0.003398	6.660663	-0.050626	-0.095314	-0.035650	NaN
593	1.000000	1.094873	7.37085e+06	-47439.1	1005.82	-29765.9	0.000000	0.000000	7.095154	-0.005923	NaN	0.000000	0.001641	0.001750	28.0812	0.039225	0.002024	19.3785	-17.0382	-168.814	0.013220	1.093589	-0.008244	-0.009528	-0.005923	19.3785	-0.008015	-0.005240	1.130307	NaN
593	2.000000	1.117970	7.37085e+06	-47439.1	1005.82	-29765.9	0.000000	0.000000	7.118998	18.1593	NaN	0.000000	0.001628	0.001757	28.0811	15.5409	0.001698	9152.41	8.010128	0.987631	17.8244	1.117618	0.014853	0.014501	18.1593	9152.41	0.013365	0.013167	1379.15	72872.7
593	2.000000	1.128402	7.37085e+06	-47439.1	1005.82	-29765.9	0.000000	0.000000	7.130501	44.2097	NaN	0.000000	0.001556	0.001747	28.0799	25.8881	0.001764	14676.5	3.649018	-177.836	42.8705	1.128083	0.025286	0.024966	44.2097	14676.5	0.023026	0.027523	1606.29	80825.6
593	2.000000	1.138879	7.37085e+06	-47439.1	1005.82	-29765.9	0.000000	0.000000	7.142388	78.5012	NaN	0.000000	0.001550	0.001740	28.0799	36.0536	0.001888	19095.7	6.171645	-2.311952	77.2613	1.138476	0.035763	0.035360	78.5012	19095.7	0.032680	0.046481	1688.89	80922.9
593	2.000000	1.149360	7.37085e+06	-47439.1	1005.82	-29765.9	0.000000	0.000000	7.154579	120.107	NaN	0.000000	0.001554	0.001744	28.08	43.7587	0.001710	25594.6	4.575290	176.675	119.659	1.149052	0.046243	0.045935	120.107	25594.6	0.042724	0.071257	1685.55	87600.6
593	2.000000	1.159873	7.37085e+06	-47439.1	1005.82	-29765.9	0.000000	0.000000	7.167271	173.094	NaN	0.000000	0.001543	0.001781	28.0812	52.9086	0.001730	30581.1	2.952035	-2.820116	170.652	1.159480	0.056756	0.056364	173.094	30581.1	0.052511	0.100333	1725.19	88207.1
593	2.000000	1.170347	7.37085e+06	-47439.1	1005.82	-29765.9	0.000000	0.000000	7.180542	241.144	NaN	0.000000	0.001502	0.001752	28.0813	65.7734	0.001706	38555.8	5.698901	172.36	239.524	1.170017	0.067230	0.066901	241.144	38555.8	0.062539	0.135071	1785.31	95847.7
593	2.000000	1.180774	7.37085e+06	-47439.1	1005.82	-29765.9	0.000000	0.000000	7.193856	311.366	NaN	0.000000	0.001547	0.001799	28.0812	76.2686	0.001817	41967.3	1.945988	-4.586872	305.932	1.180590	0.077658	0.077474	311.366	41967.3	0.072093	0.172706	1802.87	92263.6
593	2.000000	1.191240	7.37085e+06	-47439.1	1005.82	-29765.9	0.000000	0.000000	7.207644	392.158	NaN	0.000000	0.001544	0.001778	28.0805	84.8085	0.001817	46679.4	3.080885	173.537	387.661	1.190949	0.088124	0.087833	392.158	46679.4	0.081823	0.215478	1819.94	91874.9
593	2.000000	1.201833	7.37085e+06	-47439.1	1005.82	-29765.9	0.000000	0.000000	7.221622	474.49	NaN	0.000000	0.001588	0.001782	28.0801	93.5484	0.001839	50881.8	0.662122	-4.544140	473.08	1.201472	0.098717	0.098355	474.49	50881.8	0.091723	0.263511	1800.64	90559.9
593	2.000000	1.210311	7.37085e+06	-47439.1	1005.82	-29765.9	0.000000	0.000000	7.233433	555.562	NaN	0.000000	0.001582	0.001788	28.0804	101.65	0.001811	56131.7	4.711514	171.068	553.504	1.209991	0.107195	0.106875	555.562	56131.7	0.099772	0.305874	1816.31	92727.8