File: remote_trans/data/nanoindenter/0828-1/data/Data_2025-08-06,11h17m57s/2025-07-22_16-23-58_1_1207.txt
2025-07-22, 16:23:58, 1
Index	Phase	Displacement	Time	Pos X	Pos Y	Pos Z	Rot A	Rot B	Piezo Z	Force A	Force B	Gripper	Voltage A	Voltage B	Temperature	Amplitude force	Amplitude pos	Stiffness	Phase shift	Phase excitation	Force A raw	Displacement raw	HMax	HMax raw	Real Force	Real Stiffness	Contact Depth	Area	Hardness	Reduced Mod.
[#]	[#]	[um]	[s]	[um]	[um]	[um]	[m°]	[m°]	[um]	[uN]	[uN]	[V]	[V]	[V]	[°C]	[uN]	[um]	[N/m]	[°]	[°]	[uN]	[um]	[um]	[um]	[uN]	[N/m]	[um]	[um^2]	[MPa]	[MPa]
1207	1.000000	0.002456	7.37684e+06	-55239.1	1105.82	-29739.4	0.000000	0.000000	6.002761	0.016482	NaN	0.000000	0.001548	0.001709	28.0812	0.033366	0.000945	35.3183	-5.478271	-160.757	0.083295	0.001230	-1.022268	-1.023494	0.016482	35.3183	-1.022618	-4.572769E+13	-3.604336E-16	NaN
1207	1.000000	0.046459	7.37684e+06	-55239.1	1105.82	-29739.4	0.000000	0.000000	6.046764	0.039516	NaN	0.000000	0.001571	0.001680	28.0817	0.024969	0.001993	12.5291	-5.593081	-163.79	-0.003241	0.045096	-0.978266	-0.979629	0.039516	12.5291	-0.980632	-1.244280E+13	-3.175845E-15	NaN
1207	1.000000	0.090458	7.37685e+06	-55239.1	1105.82	-29739.5	0.000000	0.000000	6.090764	0.044583	NaN	0.000000	0.001588	0.001707	28.0829	0.094166	0.001902	49.5141	-106.177	-163.873	0.052327	0.089121	-0.934266	-0.935604	0.044583	49.5141	-0.934942	-3.012209E+12	-1.480061E-14	NaN
1207	1.000000	0.134448	7.37685e+06	-55239.1	1105.82	-29739.5	0.000000	0.000000	6.134754	0.073499	NaN	0.000000	0.001570	0.001766	28.0823	0.068414	0.002007	34.0827	84.0055	-165.343	0.066691	0.133141	-0.890277	-0.891584	0.073499	34.0827	-0.891894	-7.898056E+11	-9.305949E-14	NaN
1207	1.000000	0.178516	7.37685e+06	-55239.1	1105.82	-29739.5	0.000000	0.000000	6.178822	0.053195	NaN	0.000000	0.001590	0.001751	28.0827	0.038948	0.002023	19.2543	-127.91	-166.001	0.002480	0.177159	-0.846209	-0.847566	0.053195	19.2543	-0.848281	-2.029803E+11	-2.620696E-13	NaN
1207	1.000000	0.222531	7.37685e+06	-55239.1	1105.82	-29739.5	0.000000	0.000000	6.222836	0.053836	NaN	0.000000	0.001576	0.001770	28.0812	0.038080	0.001937	19.6547	-156.217	-164.529	0.110913	0.221171	-0.802194	-0.803554	0.053836	19.6547	-0.804249	-5.134848E+10	-1.048437E-12	NaN
1207	1.000000	0.266558	7.37685e+06	-55239.1	1105.82	-29739.5	0.000000	0.000000	6.266865	0.093524	NaN	0.000000	0.001644	0.001749	28.0809	0.096676	0.002065	46.8059	164.917	-164.078	0.052747	0.265219	-0.758167	-0.759505	0.093524	46.8059	-0.759665	-1.272771E+10	-7.348074E-12	NaN
1207	1.000000	0.310542	7.37685e+06	-55239.1	1105.82	-29739.5	0.000000	0.000000	6.310845	0.008862	NaN	0.000000	0.001622	0.001762	28.0808	0.014709	0.001937	7.593740	11.6823	-165.126	-0.004646	0.309261	-0.714183	-0.715464	0.008862	7.593740	-0.715058	-3.141012E+9	-2.821347E-12	NaN
1207	1.000000	0.354569	7.37685e+06	-55239.1	1105.82	-29739.5	0.000000	0.000000	6.354874	0.040155	NaN	0.000000	0.001575	0.001751	28.0821	0.037881	0.002073	18.2714	-156.237	-164.302	0.020852	0.353236	-0.670156	-0.671488	0.040155	18.2714	-0.671804	-8.055258E+8	-4.984924E-11	NaN
1207	1.000000	0.398557	7.37685e+06	-55239.1	1105.82	-29739.5	0.000000	0.000000	6.398863	0.059439	NaN	0.000000	0.001594	0.001760	28.0825	0.028404	0.002070	13.7189	-59.3364	-166.449	-0.002704	0.397259	-0.626167	-0.627466	0.059439	13.7189	-0.629417	-2.113562E+8	-2.812250E-10	NaN
1207	1.000000	0.442604	7.37685e+06	-55239.1	1105.82	-29739.5	0.000000	0.000000	6.442909	0.027668	NaN	0.000000	0.001580	0.001736	28.0824	0.089775	0.001966	45.6736	142.182	-167.897	0.042000	0.441294	-0.582120	-0.583431	0.027668	45.6736	-0.582575	-4.789118E+7	-5.777230E-10	NaN
1207	1.000000	0.486622	7.37685e+06	-55239.1	1105.82	-29739.5	0.000000	0.000000	6.486930	0.099831	NaN	0.000000	0.001575	0.001722	28.0809	0.079738	0.001877	42.476	0.558373	-164.681	0.160362	0.485296	-0.538103	-0.539429	0.099831	42.476	-0.539866	-1.228836E+7	-8.124003E-9	NaN
1207	1.000000	0.530633	7.37685e+06	-55239.1	1105.82	-29739.5	0.000000	0.000000	6.530938	0.044174	NaN	0.000000	0.001580	0.001766	28.0808	0.097825	0.001872	52.265	155.599	-163.841	0.047008	0.529312	-0.494092	-0.495412	0.044174	52.265	-0.494726	-2.89341e+06	-1.526725E-8	NaN
1207	1.000000	0.574677	7.37685e+06	-55239.1	1105.82	-29739.5	0.000000	0.000000	6.574983	0.059597	NaN	0.000000	0.001569	0.001794	28.081	0.061978	0.002047	30.2846	34.119	-164.914	0.093158	0.573357	-0.450047	-0.451368	0.059597	30.2846	-0.451523	-717446	-8.306883E-8	NaN
1207	1.000000	0.618636	7.37685e+06	-55239.1	1105.82	-29739.5	0.000000	0.000000	6.618940	0.029139	NaN	0.000000	0.001561	0.001747	28.0823	0.039006	0.002084	18.7211	105.215	-165.267	0.023355	0.617352	-0.406089	-0.407373	0.029139	18.7211	-0.407257	-169579	-1.718321E-7	NaN
1207	1.000000	0.662705	7.37685e+06	-55239.1	1105.82	-29739.5	0.000000	0.000000	6.663011	0.052184	NaN	0.000000	0.001598	0.001751	28.0822	0.117915	0.001975	59.7046	72.7509	-165.029	0.058837	0.661340	-0.362020	-0.363384	0.052184	59.7046	-0.362675	-38948.8	-1.339799E-6	NaN
1207	1.000000	0.706735	7.37685e+06	-55239.1	1105.82	-29739.5	0.000000	0.000000	6.707041	0.080078	NaN	0.000000	0.001583	0.001799	28.0824	0.102024	0.002005	50.893	44.575	-164.104	0.043818	0.705406	-0.317990	-0.319319	0.080078	50.893	-0.319170	-9045.33	-8.852987E-6	NaN
1207	1.000000	0.750738	7.37685e+06	-55239.1	1105.82	-29739.5	0.000000	0.000000	6.751046	0.114833	NaN	0.000000	0.001547	0.001749	28.0811	0.090755	0.001991	45.5783	-52.1205	-164.746	0.058751	0.749410	-0.273987	-0.275314	0.114833	45.5783	-0.275877	-2044.89	-5.615639E-5	NaN
1207	1.000000	0.794741	7.37685e+06	-55239.1	1105.82	-29739.5	0.000000	0.000000	6.795045	0.014486	NaN	0.000000	0.001587	0.001770	28.0809	0.023546	0.002150	10.9539	37.4297	-165.844	0.046415	0.793455	-0.229984	-0.231269	0.014486	10.9539	-0.230975	-414.869	-3.491787E-5	NaN
1207	1.000000	0.838728	7.37685e+06	-55239.1	1105.82	-29739.5	0.000000	0.000000	6.839032	0.009635	NaN	0.000000	0.001589	0.001752	28.0809	0.029113	0.002098	13.8753	177.602	-164.771	0.071416	0.837481	-0.185997	-0.187244	0.009635	13.8753	-0.186517	-78.6452	-0.000123	NaN
1207	1.000000	0.882789	7.37685e+06	-55239.1	1105.82	-29739.5	0.000000	0.000000	6.883096	0.081290	NaN	0.000000	0.001564	0.001755	28.0822	0.098435	0.002068	47.5992	-4.883133	-162.924	-0.014032	0.881471	-0.141936	-0.143254	0.081290	47.5992	-0.143217	-13.586	-0.005983	NaN
1207	1.000000	0.926805	7.37685e+06	-55239.1	1105.82	-29739.5	0.000000	0.000000	6.927110	0.038317	NaN	0.000000	0.001542	0.001744	28.082	0.045269	0.001980	22.8675	-167.823	-164.246	0.061336	0.925505	-0.097920	-0.099220	0.038317	22.8675	-0.099176	-1.751760	-0.021873	NaN
1207	1.000000	0.970812	7.37685e+06	-55239.1	1105.82	-29739.5	0.000000	0.000000	6.971116	0.021540	NaN	0.000000	0.001561	0.001840	28.0822	0.113330	0.002007	56.4701	-60.3274	-165.254	0.033855	0.969571	-0.053913	-0.055154	0.021540	56.4701	-0.054199	-0.121933	-0.176658	NaN
1207	1.000000	1.014825	7.37685e+06	-55239.1	1105.82	-29739.5	0.000000	0.000000	7.015131	0.059991	NaN	0.000000	0.001533	0.001774	28.0812	0.017768	0.001949	9.117575	67.2412	-167.342	0.105559	1.013536	-0.009899	-0.011188	0.059991	9.117575	-0.014834	-0.009176	-6.537568	NaN
1207	1.000000	1.058871	7.37685e+06	-55239.1	1105.82	-29739.5	0.000000	0.000000	7.059180	0.139197	NaN	0.000000	0.001554	0.001762	28.0811	0.063328	0.001909	33.1665	-161.699	-163.992	0.137196	1.057586	0.034146	0.032862	0.139197	33.1665	0.030998	0.042839	3.249342	146.405
1207	1.000000	1.102848	7.37685e+06	-55239.1	1105.82	-29739.5	0.000000	0.000000	7.103155	0.095137	NaN	0.000000	0.001586	0.001765	28.081	0.080885	0.002063	39.213	-26.3653	-165.64	0.137089	1.101575	0.078123	0.076850	0.095137	39.213	0.076303	0.190671	0.498959	82.0467
1207	1.000000	1.146899	7.37685e+06	-55239.1	1105.82	-29739.5	0.000000	0.000000	7.147206	0.082032	NaN	0.000000	0.001597	0.001719	28.0822	0.033481	0.002070	16.177	14.191	-166.887	0.026640	1.145556	0.122174	0.120831	0.082032	16.177	0.118371	0.415024	0.197656	22.9422
1207	1.000000	1.190900	7.37685e+06	-55239.1	1105.82	-29739.5	0.000000	0.000000	7.191218	0.363169	NaN	0.000000	0.001603	0.001763	28.0823	0.261506	0.001979	132.154	31.8804	-164.723	0.361979	1.189665	0.166175	0.164941	0.363169	132.154	0.164114	0.750769	0.483729	139.348
1207	2.000000	1.221433	7.37685e+06	-55239.1	1105.82	-29739.5	0.000000	0.000000	7.222331	14.4337	NaN	0.000000	0.001572	0.001725	28.0823	6.724548	0.002020	3329.73	9.076698	-170.957	14.1254	1.221153	0.196709	0.196428	14.4337	3329.73	0.193457	1.018010	14.1783	3015.13
1207	2.000000	1.232378	7.37685e+06	-55239.1	1105.82	-29739.5	0.000000	0.000000	7.233788	26.8894	NaN	0.000000	0.001570	0.001749	28.0811	8.835314	0.001980	4462.78	9.201849	-174.255	26.5925	1.232080	0.207654	0.207355	26.8894	4462.78	0.203135	1.115318	24.1092	3860.81
1207	2.000000	1.243334	7.37685e+06	-55239.1	1105.82	-29739.5	0.000000	0.000000	7.245296	40.3139	NaN	0.000000	0.001619	0.001745	28.0808	10.7067	0.002075	5159.66	8.831024	-173.31	39.5857	1.243042	0.218609	0.218317	40.3139	5159.66	0.212749	1.216574	33.1372	4273.91
1207	2.000000	1.254310	7.37685e+06	-55239.1	1105.82	-29739.5	0.000000	0.000000	7.256901	55.6187	NaN	0.000000	0.001675	0.001768	28.0809	12.2121	0.001842	6628.2	6.763512	-174.444	54.5776	1.254050	0.229585	0.229325	55.6187	6628.2	0.223292	1.332900	41.7276	5245.29
1207	2.000000	1.265309	7.37685e+06	-55239.1	1105.82	-29739.5	0.000000	0.000000	7.268672	74.3731	NaN	0.000000	0.001638	0.001745	28.082	14.1278	0.001964	7191.63	7.143671	-173.92	73.722	1.265003	0.240584	0.240278	74.3731	7191.63	0.232828	1.442932	51.543	5469.88
1207	2.000000	1.276315	7.37685e+06	-55239.1	1105.82	-29739.5	0.000000	0.000000	7.280555	95.6869	NaN	0.000000	0.001559	0.001764	28.0822	16.0066	0.001796	8912.29	4.945456	-173.25	94.9739	1.276008	0.251591	0.251283	95.6869	8912.29	0.243538	1.571994	60.8697	6494.37
1207	2.000000	1.287323	7.37685e+06	-55239.1	1105.82	-29739.5	0.000000	0.000000	7.292635	121.754	NaN	0.000000	0.001562	0.001720	28.0822	20.0633	0.001920	10451.9	6.983302	-177.464	121.248	1.286952	0.262598	0.262227	121.754	10451.9	0.253861	1.701919	71.5395	7319.81
1207	2.000000	1.298274	7.37685e+06	-55239.1	1105.82	-29739.5	0.000000	0.000000	7.304782	150.83	NaN	0.000000	0.001573	0.001713	28.082	22.5161	0.001874	12018.1	6.180994	-176.818	149.313	1.297921	0.273549	0.273196	150.83	12018.1	0.264137	1.836661	82.1219	8102.04
1207	2.000000	1.309279	7.37685e+06	-55239.1	1105.82	-29739.5	0.000000	0.000000	7.317145	183.825	NaN	0.000000	0.001574	0.001750	28.0814	25.6745	0.002002	12822.4	5.329369	-175.65	182.396	1.308954	0.284555	0.284229	183.825	12822.4	0.273802	1.968367	93.3894	8350.06
1207	2.000000	1.315301	7.37685e+06	-55239.1	1105.82	-29739.5	0.000000	0.000000	7.323899	201.634	NaN	0.000000	0.001584	0.001814	28.0808	27.5059	0.001920	14324.7	9.742485	177.016	201.962	1.314943	0.290576	0.290218	201.634	14324.7	0.280019	2.055627	98.0889	9128.21