File: remote_trans/data/nanoindenter/0828-1/data/Data_2025-08-06,11h17m57s/2025-07-22_16-23-58_1_2.txt
2025-07-22, 16:23:58, 1
Index	Phase	Displacement	Time	Pos X	Pos Y	Pos Z	Rot A	Rot B	Piezo Z	Force A	Force B	Gripper	Voltage A	Voltage B	Temperature	Amplitude force	Amplitude pos	Stiffness	Phase shift	Phase excitation	Force A raw	Displacement raw	HMax	HMax raw	Real Force	Real Stiffness	Contact Depth	Area	Hardness	Reduced Mod.
[#]	[#]	[um]	[s]	[um]	[um]	[um]	[m°]	[m°]	[um]	[uN]	[uN]	[V]	[V]	[V]	[°C]	[uN]	[um]	[N/m]	[°]	[°]	[uN]	[um]	[um]	[um]	[uN]	[N/m]	[um]	[um^2]	[MPa]	[MPa]
2.000000	1.000000	0.002571	7.36506e+06	-38739.1	955.818	-29797.1	0.000000	0.000000	6.002810	0.073798	NaN	0.000000	0.001600	0.001679	28.0836	0.079880	0.000997	80.1084	-56.3197	-165.781	0.050595	0.001336	-1.062628	-1.063863	0.073798	80.1084	-1.063319	-1.612205E+14	-4.577438E-16	NaN
2.000000	1.000000	0.044511	7.36506e+06	-38739.1	955.818	-29797.1	0.000000	0.000000	6.044749	0.043328	NaN	0.000000	0.001586	0.001698	28.1228	0.068738	0.002057	33.4155	-114.113	16.6395	-0.023267	0.043145	-1.020688	-1.022054	0.043328	33.4155	-1.021660	-4.439076E+13	-9.760516E-16	NaN
2.000000	1.000000	0.086496	7.36506e+06	-38739.1	955.818	-29797.1	0.000000	0.000000	6.086732	0.002610	NaN	0.000000	0.001595	0.001660	28.1225	0.023094	0.001955	11.8117	-138.797	-162.527	0.086134	0.085194	-0.978703	-0.980004	0.002610	11.8117	-0.978869	-1.178069E+13	-2.215131E-16	NaN
2.000000	1.000000	0.128525	7.36506e+06	-38739.1	955.819	-29797.1	0.000000	0.000000	6.128766	0.092940	NaN	0.000000	0.001601	0.001615	28.0849	0.058091	0.001992	29.1637	82.4257	16.4082	0.105391	0.127175	-0.936673	-0.938023	0.092940	29.1637	-0.939064	-3.423759E+12	-2.714567E-14	NaN
2.000000	1.000000	0.170588	7.36506e+06	-38739.1	955.817	-29797.1	0.000000	0.000000	6.170828	0.076980	NaN	0.000000	0.001683	0.001604	28.0847	0.035729	0.002019	17.6991	-144.537	-160.764	0.072651	0.169307	-0.894610	-0.895892	0.076980	17.6991	-0.897872	-9.512935E+11	-8.092133E-14	NaN
2.000000	1.000000	0.212613	7.36506e+06	-38739.1	955.818	-29797.1	0.000000	0.000000	6.212850	-0.010578	NaN	0.000000	0.001714	0.001596	28.1232	0.065790	0.001917	34.3278	49.2867	16.6611	0.064454	0.211250	-0.852585	-0.853948	-0.010578	34.3278	-0.852354	-2.304704E+11	4.589559E-14	NaN
2.000000	1.000000	0.254603	7.36506e+06	-38739.1	955.818	-29797.1	0.000000	0.000000	6.254842	0.062690	NaN	0.000000	0.001605	0.001605	28.1216	0.047588	0.002110	22.5496	129.635	-163.95	0.069944	0.253284	-0.810596	-0.811915	0.062690	22.5496	-0.812681	-6.682574E+10	-9.381055E-13	NaN
2.000000	1.000000	0.296631	7.36506e+06	-38739.1	955.818	-29797.1	0.000000	0.000000	6.296870	0.059055	NaN	0.000000	0.001613	0.001632	28.084	0.050787	0.002090	24.2946	-104.484	14.6866	0.040988	0.295273	-0.768568	-0.769926	0.059055	24.2946	-0.770391	-1.780814E+10	-3.316177E-12	NaN
2.000000	1.000000	0.338669	7.36506e+06	-38739.1	955.818	-29797.1	0.000000	0.000000	6.338907	0.035396	NaN	0.000000	0.001616	0.001614	28.0854	0.034400	0.001998	17.221	88.7277	-162.593	-0.002965	0.337283	-0.726530	-0.727916	0.035396	17.221	-0.728071	-4.726273E+9	-7.489162E-12	NaN
2.000000	1.000000	0.380658	7.36506e+06	-38739.1	955.818	-29797.1	0.000000	0.000000	6.380898	0.072468	NaN	0.000000	0.001578	0.001624	28.1218	0.061394	0.001934	31.7389	156.479	18.8944	0.027758	0.379275	-0.684540	-0.685924	0.072468	31.7389	-0.686253	-1.269697E+9	-5.707533E-11	NaN
2.000000	1.000000	0.422705	7.36507e+06	-38739.1	955.818	-29797.1	0.000000	0.000000	6.422946	0.102348	NaN	0.000000	0.001632	0.001639	28.1226	0.045094	0.001966	22.9405	113.975	-162.196	0.058776	0.421409	-0.642494	-0.643789	0.102348	22.9405	-0.645840	-3.551360E+8	-2.881943E-10	NaN
2.000000	1.000000	0.464702	7.36507e+06	-38739.1	955.818	-29797.1	0.000000	0.000000	6.464940	0.051638	NaN	0.000000	0.001625	0.001631	28.0857	0.040306	0.002049	19.6698	133.586	15.3069	-0.003684	0.463263	-0.600497	-0.601935	0.051638	19.6698	-0.602466	-9.003624E+7	-5.735200E-10	NaN
2.000000	1.000000	0.506672	7.36507e+06	-38739.1	955.819	-29797.1	0.000000	0.000000	6.506909	0.005034	NaN	0.000000	0.001611	0.001654	28.0836	0.070573	0.001988	35.4929	41.9748	-168.252	-0.064311	0.505417	-0.558527	-0.559781	0.005034	35.4929	-0.558633	-2.235965E+7	-2.251209E-10	NaN
2.000000	1.000000	0.548732	7.36507e+06	-38739.1	955.819	-29797.1	0.000000	0.000000	6.548970	0.039066	NaN	0.000000	0.001643	0.001610	28.1203	0.015459	0.001998	7.738689	-2.098761	15.3407	0.014421	0.547379	-0.516467	-0.517819	0.039066	7.738689	-0.520253	-6.56328e+06	-5.952229E-9	NaN
2.000000	1.000000	0.590745	7.36507e+06	-38739.1	955.818	-29797.1	0.000000	0.000000	6.590980	-0.045919	NaN	0.000000	0.001623	0.001655	28.1229	0.049409	0.002147	23.0093	35.3168	-166.8	0.055235	0.589511	-0.474454	-0.475688	-0.045919	23.0093	-0.472957	-1.43506e+06	3.199788E-8	NaN
2.000000	1.000000	0.632764	7.36507e+06	-38739.1	955.818	-29797.1	0.000000	0.000000	6.633002	0.030063	NaN	0.000000	0.001629	0.001649	28.0887	0.085475	0.002015	42.4092	55.2845	16.5793	0.014487	0.631388	-0.432435	-0.433810	0.030063	42.4092	-0.432967	-392660	-7.656240E-8	NaN
2.000000	1.000000	0.674803	7.36507e+06	-38739.1	955.818	-29797.1	0.000000	0.000000	6.675042	0.054247	NaN	0.000000	0.001614	0.001631	28.0847	0.035469	0.002007	17.6747	113.763	-165.139	0.133796	0.673453	-0.390396	-0.391745	0.054247	17.6747	-0.392698	-105134	-5.159835E-7	NaN
2.000000	1.000000	0.716808	7.36507e+06	-38739.1	955.818	-29797.1	0.000000	0.000000	6.717046	0.034278	NaN	0.000000	0.001606	0.001677	28.1205	0.004895	0.001923	2.545443	-124.487	14.6115	0.052847	0.715487	-0.348390	-0.349711	0.034278	2.545443	-0.358490	-33885.5	-1.011592E-6	NaN
2.000000	1.000000	0.758834	7.36507e+06	-38739.1	955.818	-29797.1	0.000000	0.000000	6.759073	0.057527	NaN	0.000000	0.001645	0.001724	28.1259	0.014478	0.002034	7.117311	94.2352	-163.696	0.044540	0.757490	-0.306365	-0.307708	0.057527	7.117311	-0.312427	-7193.57	-7.997013E-6	NaN
2.000000	1.000000	0.800861	7.36507e+06	-38739.1	955.818	-29797.2	0.000000	0.000000	6.801099	0.049563	NaN	0.000000	0.001616	0.001671	28.0859	0.054772	0.002030	26.9827	138.175	20.938	-0.006463	0.799504	-0.264338	-0.265695	0.049563	26.9827	-0.265716	-1433.2	-3.458213E-5	NaN
2.000000	1.000000	0.842854	7.36507e+06	-38739.1	955.818	-29797.2	0.000000	0.000000	6.843093	0.056027	NaN	0.000000	0.001653	0.001641	28.084	0.033449	0.001997	16.7487	-43.947	-165.084	0.001260	0.841566	-0.222344	-0.223633	0.056027	16.7487	-0.224853	-331.896	-0.000169	NaN
2.000000	1.000000	0.884886	7.36507e+06	-38739.1	955.819	-29797.2	0.000000	0.000000	6.885126	0.085619	NaN	0.000000	0.001681	0.001667	28.1174	0.124919	0.001868	66.8565	-26.8234	15.8899	0.071403	0.883534	-0.180313	-0.181664	0.085619	66.8565	-0.181273	-64.1356	-0.001335	NaN
2.000000	1.000000	0.926906	7.36507e+06	-38739.1	955.818	-29797.2	0.000000	0.000000	6.927144	0.018320	NaN	0.000000	0.001712	0.001652	28.1275	0.087073	0.001934	45.0158	81.712	-166.368	-0.003210	0.925577	-0.138293	-0.139622	0.018320	45.0158	-0.138598	-11.1319	-0.001646	NaN
2.000000	1.000000	0.968906	7.36507e+06	-38739.1	955.818	-29797.2	0.000000	0.000000	6.969143	0.026497	NaN	0.000000	0.001652	0.001730	28.0868	0.081959	0.002067	39.6603	178.077	17.0068	0.039054	0.967540	-0.096293	-0.097659	0.026497	39.6603	-0.096794	-1.549138	-0.017104	NaN
2.000000	1.000000	1.010937	7.36507e+06	-38739.1	955.818	-29797.2	0.000000	0.000000	7.011175	0.038011	NaN	0.000000	0.001614	0.001661	28.0867	0.030807	0.001950	15.8023	-34.6328	-163.333	0.114853	1.009577	-0.054262	-0.055622	0.038011	15.8023	-0.056066	-0.138438	-0.274570	NaN
2.000000	1.000000	1.052954	7.36507e+06	-38739.1	955.818	-29797.2	0.000000	0.000000	7.053202	0.281314	NaN	0.000000	0.001614	0.001667	28.1161	0.183289	0.002005	91.3955	42.6941	13.8007	0.273509	1.051558	-0.012245	-0.013640	0.281314	91.3955	-0.014554	-0.009009	-31.2244	NaN
2.000000	2.000000	1.079459	7.36507e+06	-38739.1	955.817	-29797.2	0.000000	0.000000	7.080389	16.8783	NaN	0.000000	0.001673	0.001696	28.1277	13.6908	0.001735	7891.17	7.498252	-176.354	16.9575	1.079200	0.014260	0.014001	16.8783	7891.17	0.012656	0.012286	1373.81	65045
2.000000	2.000000	1.089903	7.36507e+06	-38739.1	955.818	-29797.2	0.000000	0.000000	7.091820	40.8962	NaN	0.000000	0.001712	0.001656	28.0854	23.115	0.001879	12301.2	8.182922	-0.181430	39.7733	1.089563	0.024705	0.024364	40.8962	12301.2	0.022211	0.026137	1564.71	69518
2.000000	2.000000	1.100412	7.36507e+06	-38739.1	955.818	-29797.2	0.000000	0.000000	7.103580	71.3221	NaN	0.000000	0.001664	0.001645	28.0848	31.2826	0.001828	17113	3.646573	-177.614	71.0046	1.100022	0.035214	0.034824	71.3221	17113	0.032088	0.045182	1578.54	73555.2
2.000000	2.000000	1.110787	7.36507e+06	-38739.1	955.818	-29797.2	0.000000	0.000000	7.115746	114.912	NaN	0.000000	0.001643	0.001688	28.1171	40.4692	0.001696	23855	4.875373	-2.424253	111.63	1.110445	0.045589	0.045247	114.912	23855	0.041976	0.069234	1659.75	82830.7
2.000000	2.000000	1.121358	7.36507e+06	-38739.1	955.817	-29797.2	0.000000	0.000000	7.128352	164.442	NaN	0.000000	0.001624	0.001692	28.1282	50.3251	0.001828	27537	5.466053	176.27	164.252	1.120988	0.056159	0.055790	164.442	27537	0.051681	0.097679	1683.5	80499.1
2.000000	2.000000	1.131757	7.36507e+06	-38739.1	955.818	-29797.2	0.000000	0.000000	7.141289	226.215	NaN	0.000000	0.001657	0.001671	28.0891	59.5093	0.001847	32218.4	2.400523	-1.497370	221.485	1.131504	0.066558	0.066306	226.215	32218.4	0.061292	0.130483	1733.67	81489.1
2.000000	2.000000	1.142311	7.36507e+06	-38739.1	955.817	-29797.2	0.000000	0.000000	7.154712	296.026	NaN	0.000000	0.001655	0.001665	28.0842	70.4676	0.001779	39607.7	7.363191	171.677	293.788	1.141988	0.077112	0.076790	296.026	39607.7	0.071506	0.170270	1738.57	87696.8
2.000000	2.000000	1.152769	7.36507e+06	-38739.1	955.818	-29797.2	0.000000	0.000000	7.168133	368.13	NaN	0.000000	0.001677	0.001704	28.1141	79.2932	0.001633	48556.1	1.419482	-4.554941	363.757	1.152540	0.087570	0.087341	368.13	48556.1	0.081884	0.215763	1706.17	95505.5
2.000000	2.000000	1.163149	7.36507e+06	-38739.1	955.818	-29797.2	0.000000	0.000000	7.182308	460.504	NaN	0.000000	0.001658	0.001674	28.1269	89.3542	0.001836	48674.9	5.332455	172.217	454.175	1.162978	0.097950	0.097779	460.504	48674.9	0.090854	0.259119	1777.19	87363.3
2.000000	2.000000	1.172793	7.36507e+06	-38739.1	955.819	-29797.2	0.000000	0.000000	7.195266	541.121	NaN	0.000000	0.001619	0.001692	28.115	98.0516	0.001859	52731.8	1.237081	-4.361346	539.112	1.172503	0.107595	0.107305	541.121	52731.8	0.099898	0.306565	1765.11	87013.1