File: remote_trans/data/nanoindenter/0828-1/data/Data_2025-08-06,11h17m57s/2025-07-22_16-23-58_1_790.txt
2025-07-22, 16:23:58, 1
Index	Phase	Displacement	Time	Pos X	Pos Y	Pos Z	Rot A	Rot B	Piezo Z	Force A	Force B	Gripper	Voltage A	Voltage B	Temperature	Amplitude force	Amplitude pos	Stiffness	Phase shift	Phase excitation	Force A raw	Displacement raw	HMax	HMax raw	Real Force	Real Stiffness	Contact Depth	Area	Hardness	Reduced Mod.
[#]	[#]	[um]	[s]	[um]	[um]	[um]	[m°]	[m°]	[um]	[uN]	[uN]	[V]	[V]	[V]	[°C]	[uN]	[um]	[N/m]	[°]	[°]	[uN]	[um]	[um]	[um]	[uN]	[N/m]	[um]	[um^2]	[MPa]	[MPa]
790	1.000000	0.002672	7.37278e+06	-39639.1	1055.82	-29793.2	0.000000	0.000000	6.002808	0.002305	NaN	0.000000	0.001582	0.001664	28.0814	0.102156	0.000913	111.871	-39.3754	-168.181	-0.045304	0.001429	-1.043242	-1.044485	0.002305	111.871	-1.043258	-8.665032E+13	-2.660445E-17	NaN
790	1.000000	0.042615	7.37278e+06	-39639.1	1055.82	-29793.2	0.000000	0.000000	6.042749	-0.051239	NaN	0.000000	0.001599	0.001706	28.0838	0.029304	0.001996	14.6802	-172.901	-164.834	-0.002478	0.041273	-1.003299	-1.004641	-0.051239	14.6802	-1.000681	-2.317061E+13	2.211393E-15	NaN
790	1.000000	0.082639	7.37278e+06	-39639.1	1055.82	-29793.2	0.000000	0.000000	6.082773	-0.064678	NaN	0.000000	0.001584	0.001633	28.0802	0.021320	0.002027	10.5179	169.533	-165.102	0.005134	0.081312	-0.963275	-0.964602	-0.064678	10.5179	-0.958663	-6.292788E+12	1.027812E-14	NaN
790	1.000000	0.122637	7.37278e+06	-39639.1	1055.82	-29793.2	0.000000	0.000000	6.122772	-0.024455	NaN	0.000000	0.001559	0.001657	28.0802	0.033875	0.002013	16.8285	32.5483	-165.747	0.011747	0.121351	-0.923277	-0.924563	-0.024455	16.8285	-0.922187	-2.026465E+12	1.206781E-14	NaN
790	1.000000	0.162672	7.37278e+06	-39639.1	1055.82	-29793.2	0.000000	0.000000	6.162805	-0.069651	NaN	0.000000	0.001566	0.001728	28.0812	0.140467	0.001895	74.1335	-108.426	-168.497	-0.084976	0.161302	-0.883242	-0.884612	-0.069651	74.1335	-0.882537	-5.902276E+11	1.180063E-13	NaN
790	1.000000	0.202707	7.37278e+06	-39639.1	1055.82	-29793.2	0.000000	0.000000	6.202842	-0.029236	NaN	0.000000	0.001623	0.001651	28.0815	0.013775	0.001913	7.201251	31.7217	-165.39	-0.056797	0.201380	-0.843207	-0.844534	-0.029236	7.201251	-0.840162	-1.575768E+11	1.855341E-13	NaN
790	1.000000	0.242710	7.37278e+06	-39639.1	1055.82	-29793.2	0.000000	0.000000	6.242845	-0.024879	NaN	0.000000	0.001648	0.001679	28.0814	0.056114	0.001939	28.9333	-164.62	-168.46	-0.009378	0.241395	-0.803204	-0.804519	-0.024879	28.9333	-0.802559	-4.870791E+10	5.107742E-13	NaN
790	1.000000	0.282704	7.37278e+06	-39639.1	1055.82	-29793.2	0.000000	0.000000	6.282841	0.013788	NaN	0.000000	0.001604	0.001690	28.0817	0.037863	0.001996	18.971	101.553	-168.377	-0.039847	0.281445	-0.763210	-0.764469	0.013788	18.971	-0.763755	-1.446714E+10	-9.530908E-13	NaN
790	1.000000	0.322721	7.37278e+06	-39639.1	1055.82	-29793.2	0.000000	0.000000	6.322855	-0.055263	NaN	0.000000	0.001609	0.001658	28.0804	0.054513	0.001974	27.6189	-57.0853	-164.462	-0.047865	0.321361	-0.723193	-0.724553	-0.055263	27.6189	-0.721693	-3.868619E+9	1.428500E-11	NaN
790	1.000000	0.362744	7.37278e+06	-39639.1	1055.82	-29793.2	0.000000	0.000000	6.362877	-0.062865	NaN	0.000000	0.001628	0.001679	28.0813	0.086401	0.002024	42.6965	-47.4298	-169.455	-0.073821	0.361466	-0.683170	-0.684448	-0.062865	42.6965	-0.682066	-1.112914E+9	5.648715E-11	NaN
790	1.000000	0.402740	7.37278e+06	-39639.1	1055.82	-29793.2	0.000000	0.000000	6.402870	-0.149537	NaN	0.000000	0.001648	0.001694	28.0807	0.091226	0.001919	47.542	167.664	-168.83	-0.086365	0.401452	-0.643174	-0.644462	-0.149537	47.542	-0.640815	-3.030174E+8	4.934936E-10	NaN
790	1.000000	0.442791	7.37278e+06	-39639.1	1055.82	-29793.2	0.000000	0.000000	6.442925	-0.055336	NaN	0.000000	0.001608	0.001712	28.0819	0.058031	0.002115	27.4442	84.4569	-164.889	-0.196259	0.441474	-0.603123	-0.604440	-0.055336	27.4442	-0.601611	-8.762849E+7	6.314805E-10	NaN
790	1.000000	0.482777	7.37278e+06	-39639.1	1055.82	-29793.2	0.000000	0.000000	6.482915	0.030275	NaN	0.000000	0.001613	0.001684	28.0817	0.070384	0.001923	36.6088	-120.581	-167.313	-0.009377	0.481480	-0.563137	-0.564434	0.030275	36.6088	-0.563757	-2.632303E+7	-1.150147E-9	NaN
790	1.000000	0.522807	7.37278e+06	-39639.1	1055.82	-29793.2	0.000000	0.000000	6.522941	-0.036694	NaN	0.000000	0.001583	0.001760	28.0819	0.048031	0.002099	22.8773	-114.25	-169.828	-0.075128	0.521525	-0.523107	-0.524389	-0.036694	22.8773	-0.521904	-6.91957e+06	5.302865E-9	NaN
790	1.000000	0.562834	7.37278e+06	-39639.1	1055.82	-29793.2	0.000000	0.000000	6.562966	-0.088464	NaN	0.000000	0.001584	0.001699	28.0816	0.027943	0.002026	13.7929	-8.728931	-165.777	-0.131001	0.561532	-0.483080	-0.484382	-0.088464	13.7929	-0.478270	-1.70335e+06	5.193546E-8	NaN
790	1.000000	0.602868	7.37279e+06	-39639.1	1055.82	-29793.2	0.000000	0.000000	6.603002	-0.053336	NaN	0.000000	0.001624	0.001693	28.0803	0.133609	0.002004	66.6576	126.128	-165.56	-0.076388	0.601535	-0.443046	-0.444379	-0.053336	66.6576	-0.442446	-534409	9.980357E-8	NaN
790	1.000000	0.642872	7.37279e+06	-39639.1	1055.82	-29793.2	0.000000	0.000000	6.643010	0.027519	NaN	0.000000	0.001688	0.001672	28.0804	0.084668	0.002069	40.9154	-54.5519	-166.718	-0.061753	0.641615	-0.403042	-0.404299	0.027519	40.9154	-0.403546	-150156	-1.832701E-7	NaN
790	1.000000	0.682893	7.37279e+06	-39639.1	1055.82	-29793.2	0.000000	0.000000	6.683027	-0.065410	NaN	0.000000	0.001652	0.001716	28.0801	0.061720	0.001916	32.21	52.3183	-164.559	-0.102576	0.681568	-0.363021	-0.364346	-0.065410	32.21	-0.361498	-37453.4	1.746432E-6	NaN
790	1.000000	0.722905	7.37279e+06	-39639.1	1055.82	-29793.2	0.000000	0.000000	6.723039	-0.055437	NaN	0.000000	0.001623	0.001752	28.0814	0.011789	0.002017	5.845778	-96.5623	-164.726	-0.044284	0.721554	-0.323009	-0.324360	-0.055437	5.845778	-0.315896	-8094.12	6.849013E-6	NaN
790	1.000000	0.762908	7.37279e+06	-39639.1	1055.82	-29793.2	0.000000	0.000000	6.763040	-0.120073	NaN	0.000000	0.001590	0.001739	28.0814	0.030192	0.001984	15.217	-16.2582	-165.658	-0.042267	0.761591	-0.283006	-0.284323	-0.120073	15.217	-0.277088	-2132.98	5.629335E-5	NaN
790	1.000000	0.802896	7.37279e+06	-39639.1	1055.82	-29793.2	0.000000	0.000000	6.803031	-0.019001	NaN	0.000000	0.001580	0.001732	28.0813	0.087365	0.002035	42.932	108.029	-163.347	-0.104296	0.801608	-0.243018	-0.244306	-0.019001	42.932	-0.242686	-633.078	3.001446E-5	NaN
790	1.000000	0.842975	7.37279e+06	-39639.1	1055.82	-29793.2	0.000000	0.000000	6.843115	0.094282	NaN	0.000000	0.001687	0.001701	28.0816	0.111498	0.001994	55.92	-118.981	-168.113	0.054132	0.841667	-0.202939	-0.204247	0.094282	55.92	-0.204204	-154.369	-0.000611	NaN
790	1.000000	0.882941	7.37279e+06	-39639.1	1055.82	-29793.2	0.000000	0.000000	6.883075	-0.054498	NaN	0.000000	0.001612	0.001632	28.08	0.049117	0.002054	23.9147	-64.8722	-166.195	-0.041100	0.881645	-0.162973	-0.164269	-0.054498	23.9147	-0.161264	-28.868	0.001888	NaN
790	1.000000	0.922951	7.37279e+06	-39639.1	1055.82	-29793.2	0.000000	0.000000	6.923087	0.005878	NaN	0.000000	0.001637	0.001677	28.0801	0.064529	0.002053	31.4357	-73.2721	-165.769	0.042011	0.921613	-0.122963	-0.124301	0.005878	31.4357	-0.123104	-5.576113	-0.001054	NaN
790	1.000000	0.962987	7.37279e+06	-39639.1	1055.82	-29793.2	0.000000	0.000000	6.963119	-0.088220	NaN	0.000000	0.001683	0.001672	28.0802	0.071264	0.001907	37.3678	-126.836	-165.951	-0.111294	0.961659	-0.082927	-0.084255	-0.088220	37.3678	-0.081157	-0.661446	0.133374	NaN
790	1.000000	1.003011	7.37279e+06	-39639.1	1055.82	-29793.2	0.000000	0.000000	7.003143	-0.104262	NaN	0.000000	0.001598	0.001663	28.0814	0.028077	0.001810	15.5115	61.6468	-165.176	-0.146330	1.001704	-0.042903	-0.044210	-0.104262	15.5115	-0.037862	-0.038968	2.675606	NaN
790	1.000000	1.043027	7.37279e+06	-39639.1	1055.82	-29793.2	0.000000	0.000000	7.043187	0.589197	NaN	0.000000	0.001616	0.001691	28.0821	1.100659	0.002084	528.191	8.816610	-165.47	0.057326	1.041707	-0.002887	-0.004207	0.589197	528.191	-0.003724	-0.002599	-226.692	NaN
790	2.000000	1.058483	7.37279e+06	-39639.1	1055.82	-29793.2	0.000000	0.000000	7.059561	22.8996	NaN	0.000000	0.001604	0.001691	28.0815	16.8861	0.001779	9490.01	2.116534	-172.971	21.7921	1.058225	0.012569	0.012311	22.8996	9490.01	0.010759	0.010038	2281.34	86540.7
790	2.000000	1.068471	7.37279e+06	-39639.1	1055.82	-29793.2	0.000000	0.000000	7.070637	49.395	NaN	0.000000	0.001617	0.001700	28.0803	27.0416	0.001813	14911.8	9.262768	175.674	48.2888	1.068124	0.022557	0.022210	49.395	14911.8	0.020072	0.022656	2180.19	90512.7
790	2.000000	1.078427	7.37279e+06	-39639.1	1055.82	-29793.2	0.000000	0.000000	7.081850	79.988	NaN	0.000000	0.001604	0.001688	28.0802	35.7596	0.001811	19745.7	3.739800	178.508	77.7177	1.078142	0.032513	0.032228	79.988	19745.7	0.029475	0.039662	2016.75	90585.8
790	2.000000	1.088380	7.37279e+06	-39639.1	1055.82	-29793.2	0.000000	0.000000	7.093665	125.306	NaN	0.000000	0.001602	0.001659	28.0801	43.9068	0.001718	25553.5	2.053382	179.09	122.4	1.088090	0.042466	0.042176	125.306	25553.5	0.038788	0.060933	2056.44	94579.2
790	2.000000	1.098432	7.37279e+06	-39639.1	1055.82	-29793.2	0.000000	0.000000	7.105448	167.413	NaN	0.000000	0.001644	0.001715	28.0802	54.4373	0.001832	29717.2	2.257325	176.981	165.675	1.098227	0.052518	0.052313	167.413	29717.2	0.048293	0.087211	1919.64	91938.5
790	2.000000	1.108462	7.37279e+06	-39639.1	1055.82	-29793.2	0.000000	0.000000	7.117796	223.832	NaN	0.000000	0.001617	0.001678	28.0813	63.4866	0.001761	36044.2	3.401169	174.71	227.221	1.108113	0.062548	0.062199	223.832	36044.2	0.057890	0.118353	1891.24	95723.8
790	2.000000	1.118365	7.37279e+06	-39639.1	1055.82	-29793.2	0.000000	0.000000	7.130555	293.331	NaN	0.000000	0.001601	0.001648	28.0811	73.1825	0.001803	40580	5.224861	171.921	290.681	1.118048	0.072451	0.072134	293.331	40580	0.067029	0.152213	1927.11	95029.5
790	2.000000	1.128418	7.37279e+06	-39639.1	1055.82	-29793.2	0.000000	0.000000	7.143368	360.488	NaN	0.000000	0.001650	0.001664	28.081	82.9804	0.001938	42818.8	2.814754	174.428	361.906	1.127960	0.082504	0.082046	360.488	42818.8	0.076189	0.190173	1895.58	89708.3
790	2.000000	1.138381	7.37279e+06	-39639.1	1055.82	-29793.2	0.000000	0.000000	7.156295	432.603	NaN	0.000000	0.001602	0.001678	28.0795	91.0685	0.001731	52598	4.794343	170.047	433.677	1.138187	0.092467	0.092273	432.603	52598	0.086299	0.236635	1828.14	98787.6
790	2.000000	1.148306	7.37279e+06	-39639.1	1055.82	-29793.2	0.000000	0.000000	7.169679	516.785	NaN	0.000000	0.001605	0.001684	28.0799	99.7235	0.001836	54310.2	2.315467	172.852	513.301	1.148088	0.102392	0.102174	516.785	54310.2	0.095256	0.281742	1834.25	93482.2
790	2.000000	1.148787	7.37279e+06	-39639.1	1055.82	-29793.2	0.000000	0.000000	7.170570	526.758	NaN	0.000000	0.001602	0.001656	28.0796	100.536	0.001837	54734.7	6.111758	-10.9803	518.609	1.148409	0.102873	0.102495	526.758	54734.7	0.095655	0.283840	1855.83	93864.1