File: remote_trans/data/nanoindenter/0828-1/data/Data_2025-08-06,11h17m57s/2025-07-22_16-23-58_1_1109.txt
2025-07-22, 16:23:58, 1
Index	Phase	Displacement	Time	Pos X	Pos Y	Pos Z	Rot A	Rot B	Piezo Z	Force A	Force B	Gripper	Voltage A	Voltage B	Temperature	Amplitude force	Amplitude pos	Stiffness	Phase shift	Phase excitation	Force A raw	Displacement raw	HMax	HMax raw	Real Force	Real Stiffness	Contact Depth	Area	Hardness	Reduced Mod.
[#]	[#]	[um]	[s]	[um]	[um]	[um]	[m°]	[m°]	[um]	[uN]	[uN]	[V]	[V]	[V]	[°C]	[uN]	[um]	[N/m]	[°]	[°]	[uN]	[um]	[um]	[um]	[uN]	[N/m]	[um]	[um^2]	[MPa]	[MPa]
1109	1.000000	0.002284	7.37589e+06	-55589.1	1055.82	-29741.1	0.000000	0.000000	6.002798	-0.028980	NaN	0.000000	0.001519	0.001716	28.0843	0.034008	0.000901	37.7502	-136.044	-163.384	-0.051173	0.001025	-1.111234	-1.112492	-0.028980	37.7502	-1.110658	-6.968231E+14	4.158869E-17	NaN
1109	1.000000	0.044231	7.3759e+06	-55589.1	1055.82	-29741.1	0.000000	0.000000	6.044744	-0.050908	NaN	0.000000	0.001537	0.001743	28.0841	0.106010	0.002052	51.6576	80.8608	13.2397	-0.107981	0.042833	-1.069287	-1.070685	-0.050908	51.6576	-1.068548	-1.895317E+14	2.686001E-16	NaN
1109	1.000000	0.086252	7.3759e+06	-55589.1	1055.82	-29741.1	0.000000	0.000000	6.086767	-0.017173	NaN	0.000000	0.001578	0.001769	28.083	0.084540	0.002037	41.5083	-145.881	-167.16	0.013360	0.084947	-1.027266	-1.028570	-0.017173	41.5083	-1.026955	-5.230278E+13	3.283395E-16	NaN
1109	1.000000	0.128261	7.3759e+06	-55589.1	1055.82	-29741.1	0.000000	0.000000	6.128777	0.019956	NaN	0.000000	0.001620	0.001741	28.083	0.129067	0.001983	65.1014	-165.045	13.2549	0.049439	0.126906	-0.985257	-0.986612	0.019956	65.1014	-0.985487	-1.446517E+13	-1.379588E-15	NaN
1109	1.000000	0.170290	7.3759e+06	-55589.1	1055.82	-29741.1	0.000000	0.000000	6.170802	-0.073302	NaN	0.000000	0.001593	0.001696	28.0829	0.072290	0.002071	34.9005	82.8844	-163.128	-0.013066	0.168976	-0.943228	-0.944542	-0.073302	34.9005	-0.941653	-3.710498E+12	1.975531E-14	NaN
1109	1.000000	0.212278	7.3759e+06	-55589.1	1055.82	-29741.1	0.000000	0.000000	6.212790	-0.079663	NaN	0.000000	0.001660	0.001712	28.0827	0.032972	0.002013	16.3762	101.377	11.9209	-0.060131	0.210948	-0.901239	-0.902570	-0.079663	16.3762	-0.897591	-9.430047E+11	8.447807E-14	NaN
1109	1.000000	0.254330	7.3759e+06	-55589.1	1055.82	-29741.1	0.000000	0.000000	6.254846	0.006397	NaN	0.000000	0.001653	0.001764	28.0841	0.072109	0.002003	36.0029	122.189	-163.326	-0.061955	0.252994	-0.859188	-0.860524	0.006397	36.0029	-0.859321	-2.863719E+11	-2.233674E-14	NaN
1109	1.000000	0.296339	7.3759e+06	-55589.1	1055.82	-29741.1	0.000000	0.000000	6.296853	-0.045274	NaN	0.000000	0.001649	0.001813	28.0842	0.020351	0.002058	9.890068	-90.4611	14.7722	-0.010740	0.295045	-0.817179	-0.818473	-0.045274	9.890068	-0.813745	-6.908423E+10	6.553511E-13	NaN
1109	1.000000	0.338353	7.3759e+06	-55589.1	1055.82	-29741.1	0.000000	0.000000	6.338869	0.028509	NaN	0.000000	0.001624	0.001771	28.084	0.032805	0.002012	16.3075	-73.5331	-161.963	0.038813	0.337015	-0.775165	-0.776503	0.028509	16.3075	-0.776476	-2.154495E+10	-1.323228E-12	NaN
1109	1.000000	0.380389	7.3759e+06	-55589.1	1055.82	-29741.1	0.000000	0.000000	6.380903	-0.032096	NaN	0.000000	0.001627	0.001693	28.0831	0.121153	0.002004	60.4407	-146.554	15.3756	0.033790	0.378983	-0.733129	-0.734535	-0.032096	60.4407	-0.732731	-5.470430E+9	5.867200E-12	NaN
1109	1.000000	0.422358	7.3759e+06	-55589.1	1055.82	-29741.1	0.000000	0.000000	6.422869	-0.104172	NaN	0.000000	0.001618	0.001746	28.083	0.023454	0.001978	11.855	-32.5801	-164.65	-0.057152	0.421060	-0.691159	-0.692457	-0.104172	11.855	-0.684569	-1.204159E+9	8.651037E-11	NaN
1109	1.000000	0.464408	7.3759e+06	-55589.1	1055.82	-29741.1	0.000000	0.000000	6.464924	0.001211	NaN	0.000000	0.001573	0.001774	28.0825	0.069733	0.001935	36.0415	-64.9972	20.4496	-0.086541	0.463097	-0.649109	-0.650421	0.001211	36.0415	-0.649135	-3.940688E+8	-3.072054E-12	NaN
1109	1.000000	0.506448	7.3759e+06	-55589.1	1055.82	-29741.1	0.000000	0.000000	6.506961	-0.061360	NaN	0.000000	0.001586	0.001734	28.0839	0.031100	0.002096	14.8348	37.9586	-164.279	0.003659	0.505078	-0.607070	-0.608439	-0.061360	14.8348	-0.603968	-9.442632E+7	6.498183E-10	NaN
1109	1.000000	0.548435	7.3759e+06	-55589.1	1055.82	-29741.1	0.000000	0.000000	6.548950	-0.015950	NaN	0.000000	0.001627	0.001737	28.084	0.052225	0.002056	25.4075	159.922	14.1061	0.023963	0.547082	-0.565083	-0.566436	-0.015950	25.4075	-0.564612	-2.704975E+7	5.896724E-10	NaN
1109	1.000000	0.590454	7.3759e+06	-55589.1	1055.82	-29741.1	0.000000	0.000000	6.590968	-0.011555	NaN	0.000000	0.001559	0.001696	28.0839	0.138590	0.001971	70.3087	179.202	-163.843	0.005636	0.589133	-0.523064	-0.524385	-0.011555	70.3087	-0.522941	-7.15305e+06	1.615435E-9	NaN
1109	1.000000	0.632488	7.3759e+06	-55589.1	1055.82	-29741.1	0.000000	0.000000	6.633002	-0.045787	NaN	0.000000	0.001655	0.001729	28.0827	0.141910	0.002073	68.4482	141.873	13.0555	-0.085957	0.631119	-0.481029	-0.482399	-0.045787	68.4482	-0.480528	-1.83195e+06	2.499339E-8	NaN
1109	1.000000	0.674461	7.3759e+06	-55589.1	1055.82	-29741.1	0.000000	0.000000	6.674971	-0.146858	NaN	0.000000	0.001567	0.001705	28.0827	0.050137	0.002012	24.917	43.9717	-166.965	-0.161069	0.673174	-0.439056	-0.440344	-0.146858	24.917	-0.434636	-414583	3.542301E-7	NaN
1109	1.000000	0.716504	7.3759e+06	-55589.1	1055.82	-29741.1	0.000000	0.000000	6.717020	-0.002641	NaN	0.000000	0.001538	0.001694	28.0825	0.075141	0.001834	40.9608	55.3815	13.5159	-0.094079	0.715176	-0.397014	-0.398342	-0.002641	40.9608	-0.396965	-120975	2.183401E-8	NaN
1109	1.000000	0.758563	7.3759e+06	-55589.1	1055.82	-29741.1	0.000000	0.000000	6.759073	-0.130390	NaN	0.000000	0.001625	0.001690	28.0827	0.033279	0.002036	16.3416	-31.4615	-162.818	-0.047768	0.757241	-0.354955	-0.356277	-0.130390	16.3416	-0.348970	-24663.5	5.286755E-6	NaN
1109	1.000000	0.800532	7.3759e+06	-55589.1	1055.82	-29741.1	0.000000	0.000000	6.801045	-0.063881	NaN	0.000000	0.001639	0.001639	28.0838	0.057484	0.002069	27.788	64.7162	14.3583	0.019837	0.799229	-0.312986	-0.314289	-0.063881	27.788	-0.311262	-6913.92	9.239417E-6	NaN
1109	1.000000	0.842570	7.3759e+06	-55589.1	1055.82	-29741.1	0.000000	0.000000	6.843083	-0.073286	NaN	0.000000	0.001612	0.001617	28.0841	0.075371	0.002037	36.9941	65.4875	-165.904	-0.095996	0.841257	-0.270948	-0.272261	-0.073286	36.9941	-0.269462	-1634.42	4.483915E-5	NaN
1109	1.000000	0.884551	7.3759e+06	-55589.1	1055.82	-29741.1	0.000000	0.000000	6.885065	-0.045620	NaN	0.000000	0.001647	0.001645	28.0842	0.078396	0.002056	38.1273	-127.018	15.0499	0.017199	0.883197	-0.228967	-0.230321	-0.045620	38.1273	-0.228069	-373.245	0.000122	NaN
1109	1.000000	0.926590	7.3759e+06	-55589.1	1055.82	-29741.1	0.000000	0.000000	6.927107	0.041770	NaN	0.000000	0.001527	0.001651	28.083	0.164813	0.001912	86.2085	118.489	-162.244	0.006916	0.925270	-0.186928	-0.188248	0.041770	86.2085	-0.187291	-81.0347	-0.000515	NaN
1109	1.000000	0.968627	7.3759e+06	-55589.1	1055.82	-29741.1	0.000000	0.000000	6.969142	-0.001716	NaN	0.000000	0.001563	0.001655	28.0829	0.135691	0.002102	64.5617	-146.205	15.7849	0.008132	0.967247	-0.144891	-0.146271	-0.001716	64.5617	-0.144871	-14.5808	0.000118	NaN
1109	1.000000	1.010666	7.3759e+06	-55589.1	1055.82	-29741.1	0.000000	0.000000	7.011183	0.024124	NaN	0.000000	0.001546	0.001635	28.0828	0.040673	0.002103	19.3417	-99.7981	-168.121	-0.061576	1.009315	-0.102851	-0.104203	0.024124	19.3417	-0.103787	-2.212525	-0.010903	NaN
1109	1.000000	1.052658	7.3759e+06	-55589.1	1055.82	-29741.1	0.000000	0.000000	7.053170	-0.091291	NaN	0.000000	0.001584	0.001630	28.0843	0.093316	0.002092	44.6167	129.736	13.1538	0.020343	1.051258	-0.060860	-0.062260	-0.091291	44.6167	-0.059325	-0.172224	0.530069	NaN
1109	1.000000	1.094691	7.3759e+06	-55589.1	1055.82	-29741.1	0.000000	0.000000	7.095205	-0.026673	NaN	0.000000	0.001560	0.001657	28.0841	0.073822	0.001991	37.0722	-143.556	-163.232	-0.011149	1.093369	-0.018827	-0.020148	-0.026673	37.0722	-0.018287	-0.011355	2.348980	NaN
1109	1.000000	1.136658	7.3759e+06	-55589.1	1055.82	-29741.1	0.000000	0.000000	7.137306	3.229809	NaN	0.000000	0.001568	0.001658	28.084	3.841306	0.001863	2061.9	14.8689	13.8689	2.608734	1.135308	0.023140	0.021790	3.229809	2061.9	0.021965	0.025725	125.552	11745.3
1109	2.000000	1.153201	7.3759e+06	-55589.1	1055.82	-29741.1	0.000000	0.000000	7.154369	15.8637	NaN	0.000000	0.001569	0.001676	28.0829	14.2725	0.001854	7696.62	3.162393	-169.367	15.2103	1.152936	0.039683	0.039418	15.8637	7696.62	0.038137	0.059302	267.507	28876.1
1109	2.000000	1.163626	7.3759e+06	-55589.1	1055.82	-29741.1	0.000000	0.000000	7.165421	31.0961	NaN	0.000000	0.001603	0.001685	28.0826	22.0958	0.001821	12134.4	6.486742	3.987702	29.2003	1.163374	0.050108	0.049856	31.0961	12134.4	0.048186	0.086889	357.882	37610.4
1109	2.000000	1.174206	7.3759e+06	-55589.1	1055.82	-29741.1	0.000000	0.000000	7.177409	65.3508	NaN	0.000000	0.001526	0.001737	28.0827	33.2458	0.001852	17949.7	5.925504	-179.007	67.6677	1.173910	0.060688	0.060392	65.3508	17949.7	0.057957	0.118585	551.087	47622.7
1109	2.000000	1.184668	7.3759e+06	-55589.1	1055.82	-29741.1	0.000000	0.000000	7.189488	104.635	NaN	0.000000	0.001561	0.001714	28.083	44.2238	0.001813	24389.7	6.628348	-3.552520	102.4	1.184276	0.071150	0.070758	104.635	24389.7	0.067932	0.155779	671.693	56458.1
1109	2.000000	1.195126	7.3759e+06	-55589.1	1055.82	-29741.1	0.000000	0.000000	7.201991	154.35	NaN	0.000000	0.001579	0.001703	28.0842	54.0152	0.001894	28520.6	3.473365	178.772	151.855	1.194761	0.081608	0.081243	154.35	28520.6	0.077549	0.196147	786.909	58835.8
1109	2.000000	1.205693	7.3759e+06	-55589.1	1055.82	-29741.1	0.000000	0.000000	7.214970	212.985	NaN	0.000000	0.001588	0.001730	28.0843	65.2313	0.001770	36863.2	5.704755	-6.230103	213.874	1.205339	0.092175	0.091821	212.985	36863.2	0.087842	0.244146	872.37	68162
1109	2.000000	1.216085	7.3759e+06	-55589.1	1055.82	-29741.1	0.000000	0.000000	7.228279	283.898	NaN	0.000000	0.001603	0.001695	28.0846	73.1879	0.001687	43377.4	3.121649	175.404	280.854	1.215811	0.102567	0.102293	283.898	43377.4	0.097658	0.294465	964.112	73033.2
1109	2.000000	1.226553	7.3759e+06	-55589.1	1055.82	-29741.1	0.000000	0.000000	7.241750	356.872	NaN	0.000000	0.001544	0.001713	28.0831	84.4202	0.001855	45507.6	9.462898	-11.3215	352.91	1.226206	0.113036	0.112689	356.872	45507.6	0.107154	0.347319	1027.5	70549.3
1109	2.000000	1.237070	7.3759e+06	-55589.1	1055.82	-29741.1	0.000000	0.000000	7.255673	439.687	NaN	0.000000	0.001575	0.001706	28.0858	91.5757	0.001844	49665	3.669591	173.825	436.821	1.236801	0.123552	0.123283	439.687	49665	0.116912	0.405896	1083.25	71222.3
1109	2.000000	1.243021	7.3759e+06	-55589.1	1055.82	-29741.1	0.000000	0.000000	7.263498	485.23	NaN	0.000000	0.001571	0.001715	28.0832	97.2685	0.001820	53435.8	3.176463	174.08	481.68	1.242697	0.129503	0.129179	485.23	53435.8	0.122692	0.442629	1096.25	73381.3