File: remote_trans/data/nanoindenter/0828-1/data/Data_2025-08-06,11h17m57s/2025-07-22_16-23-58_1_787.txt
2025-07-22, 16:23:58, 1
Index	Phase	Displacement	Time	Pos X	Pos Y	Pos Z	Rot A	Rot B	Piezo Z	Force A	Force B	Gripper	Voltage A	Voltage B	Temperature	Amplitude force	Amplitude pos	Stiffness	Phase shift	Phase excitation	Force A raw	Displacement raw	HMax	HMax raw	Real Force	Real Stiffness	Contact Depth	Area	Hardness	Reduced Mod.
[#]	[#]	[um]	[s]	[um]	[um]	[um]	[m°]	[m°]	[um]	[uN]	[uN]	[V]	[V]	[V]	[°C]	[uN]	[um]	[N/m]	[°]	[°]	[uN]	[um]	[um]	[um]	[uN]	[N/m]	[um]	[um^2]	[MPa]	[MPa]
787	1.000000	0.002748	7.37275e+06	-39489.1	1055.82	-29793.5	0.000000	0.000000	6.002803	-0.070265	NaN	0.000000	0.001534	0.001781	28.0838	0.118994	0.000992	119.975	125.296	-163.932	-0.095013	0.001451	-1.127825	-1.129122	-0.070265	119.975	-1.127386	-1.168311E+15	6.014242E-17	NaN
787	1.000000	0.044710	7.37275e+06	-39489.1	1055.82	-29793.6	0.000000	0.000000	6.044767	-0.025865	NaN	0.000000	0.001548	0.001748	28.0834	0.106656	0.002089	51.0611	-129.766	17.5397	-0.038671	0.043357	-1.085863	-1.087216	-0.025865	51.0611	-1.085484	-3.200104E+14	8.082449E-17	NaN
787	1.000000	0.086720	7.37275e+06	-39489.1	1055.82	-29793.6	0.000000	0.000000	6.086776	-0.055989	NaN	0.000000	0.001580	0.001828	28.0826	0.077825	0.001920	40.5247	19.5493	-164.513	-0.065949	0.085427	-1.043853	-1.045146	-0.055989	40.5247	-1.042817	-8.547653E+13	6.550241E-16	NaN
787	1.000000	0.128700	7.37275e+06	-39489.1	1055.82	-29793.6	0.000000	0.000000	6.128757	-0.032029	NaN	0.000000	0.001619	0.001778	28.0829	0.047878	0.002079	23.0349	65.6504	14.3367	-0.042694	0.127319	-1.001873	-1.003254	-0.032029	23.0349	-1.000830	-2.327813E+13	1.375912E-15	NaN
787	1.000000	0.170794	7.37275e+06	-39489.1	1055.82	-29793.6	0.000000	0.000000	6.170851	-0.030857	NaN	0.000000	0.001592	0.001754	28.0824	0.099158	0.002009	49.3682	170.688	-165.798	-0.056377	0.169445	-0.959780	-0.961128	-0.030857	49.3682	-0.959311	-6.420618E+12	4.805898E-15	NaN
787	1.000000	0.212742	7.37275e+06	-39489.1	1055.82	-29793.6	0.000000	0.000000	6.212797	-0.069095	NaN	0.000000	0.001604	0.001827	28.0835	0.066523	0.001934	34.4025	2.590874	13.7292	-0.126292	0.211382	-0.917831	-0.919192	-0.069095	34.4025	-0.916325	-1.688822E+12	4.091286E-14	NaN
787	1.000000	0.254777	7.37275e+06	-39489.1	1055.82	-29793.6	0.000000	0.000000	6.254832	-0.073203	NaN	0.000000	0.001606	0.001770	28.0837	0.044175	0.001895	23.3162	-147.38	-165.526	-0.038132	0.253462	-0.875796	-0.877111	-0.073203	23.3162	-0.873442	-4.446363E+11	1.646366E-13	NaN
787	1.000000	0.296751	7.37275e+06	-39489.1	1055.82	-29793.6	0.000000	0.000000	6.296808	-0.029666	NaN	0.000000	0.001587	0.001800	28.0832	0.147376	0.002001	73.6578	178.951	18.7649	0.035652	0.295374	-0.833822	-0.835199	-0.029666	73.6578	-0.833520	-1.280827E+11	2.316192E-13	NaN
787	1.000000	0.338806	7.37275e+06	-39489.1	1055.82	-29793.6	0.000000	0.000000	6.338863	-0.038941	NaN	0.000000	0.001587	0.001777	28.0842	0.018512	0.001967	9.412148	80.2495	-166.605	-0.129180	0.337529	-0.791767	-0.793044	-0.038941	9.412148	-0.788664	-3.154576E+10	1.234441E-12	NaN
787	1.000000	0.380816	7.37276e+06	-39489.1	1055.82	-29793.6	0.000000	0.000000	6.380874	-0.009949	NaN	0.000000	0.001607	0.001755	28.0823	0.119920	0.001882	63.7126	-121.455	12.8742	-0.037630	0.379417	-0.749757	-0.751156	-0.009949	63.7126	-0.749640	-9.296575E+9	1.070204E-12	NaN
787	1.000000	0.422854	7.37276e+06	-39489.1	1055.82	-29793.6	0.000000	0.000000	6.422910	-0.050537	NaN	0.000000	0.001564	0.001776	28.0824	0.134315	0.001959	68.5706	-67.463	-166.181	0.003405	0.421480	-0.707719	-0.709094	-0.050537	68.5706	-0.707167	-2.451190E+9	2.061747E-11	NaN
787	1.000000	0.464873	7.37276e+06	-39489.1	1055.82	-29793.6	0.000000	0.000000	6.464928	-0.071097	NaN	0.000000	0.001570	0.001796	28.0824	0.082430	0.001936	42.5736	115.24	16.8651	-0.100069	0.463501	-0.665700	-0.667072	-0.071097	42.5736	-0.664448	-6.388208E+8	1.112940E-10	NaN
787	1.000000	0.506887	7.37276e+06	-39489.1	1055.82	-29793.6	0.000000	0.000000	6.506945	-0.006289	NaN	0.000000	0.001576	0.001777	28.0836	0.047652	0.002005	23.7698	-55.6129	-164.404	0.031945	0.505605	-0.623687	-0.624969	-0.006289	23.7698	-0.623488	-1.752152E+8	3.589126E-11	NaN
787	1.000000	0.548895	7.37276e+06	-39489.1	1055.82	-29793.6	0.000000	0.000000	6.548952	-0.021137	NaN	0.000000	0.001601	0.001804	28.0836	0.035173	0.002016	17.4505	-11.9236	16.6067	-0.055092	0.547512	-0.581679	-0.583061	-0.021137	17.4505	-0.580770	-4.522258E+7	4.673998E-10	NaN
787	1.000000	0.590916	7.37276e+06	-39489.1	1055.82	-29793.6	0.000000	0.000000	6.590974	-0.014664	NaN	0.000000	0.001549	0.001791	28.0834	0.044355	0.001953	22.7096	62.7627	-166.558	-0.070845	0.589619	-0.539657	-0.540954	-0.014664	22.7096	-0.539173	-1.201940E+7	1.220045E-9	NaN
787	1.000000	0.632954	7.37276e+06	-39489.1	1055.82	-29793.6	0.000000	0.000000	6.633007	-0.123084	NaN	0.000000	0.001569	0.001778	28.0823	0.023903	0.002019	11.8403	164.472	14.1228	-0.132921	0.631579	-0.497619	-0.498994	-0.123084	11.8403	-0.489823	-2.47126e+06	4.980621E-8	NaN
787	1.000000	0.674989	7.37276e+06	-39489.1	1055.82	-29793.6	0.000000	0.000000	6.675046	-0.038018	NaN	0.000000	0.001603	0.001768	28.0823	0.053829	0.001889	28.4919	-123.07	-163.66	-0.007298	0.673625	-0.455584	-0.456948	-0.038018	28.4919	-0.454583	-792239	4.798758E-8	NaN
787	1.000000	0.716974	7.37276e+06	-39489.1	1055.82	-29793.6	0.000000	0.000000	6.717032	0.000806	NaN	0.000000	0.001574	0.001790	28.0819	0.060357	0.001992	30.3066	-85.6087	12.3444	-0.026091	0.715606	-0.413599	-0.414968	0.000806	30.3066	-0.413619	-208854	-3.859381E-9	NaN
787	1.000000	0.758976	7.37276e+06	-39489.1	1055.82	-29793.6	0.000000	0.000000	6.759030	-0.106136	NaN	0.000000	0.001618	0.001791	28.0834	0.093520	0.001986	47.0918	-54.6849	-165.945	-0.162773	0.757690	-0.371597	-0.372883	-0.106136	47.0918	-0.369907	-49520.9	2.143255E-6	NaN
787	1.000000	0.801000	7.37276e+06	-39489.1	1055.82	-29793.6	0.000000	0.000000	6.801059	0.024130	NaN	0.000000	0.001578	0.001744	28.0838	0.041457	0.002063	20.0946	-91.1528	11.8781	-0.022319	0.799604	-0.329573	-0.330969	0.024130	20.0946	-0.330474	-13255.3	-1.820375E-6	NaN
787	1.000000	0.843013	7.37276e+06	-39489.1	1055.82	-29793.6	0.000000	0.000000	6.843074	0.059141	NaN	0.000000	0.001579	0.001787	28.0839	0.054233	0.001904	28.4806	-11.7406	-164.837	0.058098	0.841667	-0.287560	-0.288907	0.059141	28.4806	-0.289117	-3236.48	-1.827334E-5	NaN
787	1.000000	0.885062	7.37276e+06	-39489.1	1055.82	-29793.6	0.000000	0.000000	6.885118	-0.033986	NaN	0.000000	0.001603	0.001759	28.084	0.055698	0.002021	27.5658	2.581463	15.4475	0.005782	0.883673	-0.245512	-0.246900	-0.033986	27.5658	-0.244587	-677.691	5.015042E-5	NaN
787	1.000000	0.927076	7.37276e+06	-39489.1	1055.82	-29793.6	0.000000	0.000000	6.927129	-0.134572	NaN	0.000000	0.001596	0.001800	28.0826	0.130035	0.001928	67.4358	101.014	-164.161	-0.180767	0.925721	-0.203497	-0.204853	-0.134572	67.4358	-0.202001	-142.079	0.000947	NaN
787	1.000000	0.969067	7.37276e+06	-39489.1	1055.82	-29793.6	0.000000	0.000000	6.969121	-0.114290	NaN	0.000000	0.001570	0.001768	28.0825	0.067072	0.001974	33.9705	88.797	17.8888	-0.138739	0.967686	-0.161506	-0.162887	-0.114290	33.9705	-0.158983	-26.2958	0.004346	NaN
787	1.000000	1.011071	7.37276e+06	-39489.1	1055.82	-29793.6	0.000000	0.000000	7.011127	-0.043343	NaN	0.000000	0.001578	0.001800	28.0823	0.088854	0.002032	43.7332	-81.8501	-167.543	-0.103391	1.009769	-0.119502	-0.120804	-0.043343	43.7332	-0.118759	-4.560083	0.009505	NaN
787	1.000000	1.053099	7.37276e+06	-39489.1	1055.82	-29793.6	0.000000	0.000000	7.053159	0.032187	NaN	0.000000	0.001616	0.001778	28.0838	0.028085	0.002004	14.0128	165.214	14.719	0.024727	1.051665	-0.077474	-0.078908	0.032187	14.0128	-0.079197	-0.590944	-0.054468	NaN
787	1.000000	1.095106	7.37276e+06	-39489.1	1055.82	-29793.6	0.000000	0.000000	7.095160	-0.111795	NaN	0.000000	0.001602	0.001818	28.0837	0.074078	0.001978	37.4456	-164.944	-166.65	-0.165036	1.093817	-0.035467	-0.036756	-0.111795	37.4456	-0.033228	-0.028426	3.932855	NaN
787	2.000000	1.136859	7.37276e+06	-39489.1	1055.82	-29793.6	0.000000	0.000000	7.137248	8.051398	NaN	0.000000	0.001598	0.001747	28.0837	8.762579	0.001661	5273.93	9.587929	7.704906	6.772567	1.135757	0.006286	0.005184	8.051398	5273.93	0.005141	0.004262	1889.07	73806.7
787	2.000000	1.147665	7.37276e+06	-39489.1	1055.82	-29793.6	0.000000	0.000000	7.148882	28.2083	NaN	0.000000	0.001605	0.001791	28.0821	20.5683	0.001736	11849.3	4.064034	-175.196	28.2242	1.147332	0.017092	0.016759	28.2083	11849.3	0.015306	0.015696	1797.17	86411.8
787	2.000000	1.158111	7.37276e+06	-39489.1	1055.82	-29793.6	0.000000	0.000000	7.160701	61.6249	NaN	0.000000	0.001549	0.001798	28.0824	31.4775	0.001603	19638.6	3.788081	0.361353	60.0505	1.157750	0.027537	0.027177	61.6249	19638.6	0.025184	0.031351	1965.65	101335
787	2.000000	1.168638	7.37276e+06	-39489.1	1055.82	-29793.6	0.000000	0.000000	7.172602	95.0444	NaN	0.000000	0.001586	0.001785	28.0824	42.3265	0.001818	23284.9	5.208732	178.148	94.9794	1.168328	0.038065	0.037755	95.0444	23284.9	0.035004	0.051755	1836.44	93513.4
787	2.000000	1.179059	7.37276e+06	-39489.1	1055.82	-29793.6	0.000000	0.000000	7.185254	149.349	NaN	0.000000	0.001547	0.001779	28.0837	52.925	0.001804	29336.4	4.427217	-2.199216	146.073	1.178638	0.048486	0.048065	149.349	29336.4	0.044667	0.076646	1948.55	96813.2
787	2.000000	1.189512	7.37276e+06	-39489.1	1055.82	-29793.6	0.000000	0.000000	7.197855	201.592	NaN	0.000000	0.001608	0.001776	28.0839	60.0124	0.001640	36585.1	1.713507	177.477	195.649	1.189265	0.058939	0.058692	201.592	36585.1	0.054807	0.107847	1869.25	101783
787	2.000000	1.200130	7.37276e+06	-39489.1	1055.82	-29793.6	0.000000	0.000000	7.210969	262.344	NaN	0.000000	0.001583	0.001784	28.0839	72.1951	0.001795	40210.2	6.115167	-7.288599	263.939	1.199714	0.069556	0.069140	262.344	40210.2	0.064663	0.143059	1833.82	97129.8
787	2.000000	1.210445	7.37276e+06	-39489.1	1055.82	-29793.6	0.000000	0.000000	7.224310	335.997	NaN	0.000000	0.001599	0.001804	28.0835	80.8414	0.001829	44208.2	4.649461	173.33	329.187	1.210210	0.079872	0.079637	335.997	44208.2	0.074171	0.181469	1851.54	94814.5
787	2.000000	1.221023	7.37276e+06	-39489.1	1055.82	-29793.6	0.000000	0.000000	7.238380	420.945	NaN	0.000000	0.001623	0.001874	28.0824	89.9731	0.001777	50628.4	5.349667	-8.108598	417.327	1.220710	0.090450	0.090137	420.945	50628.4	0.084214	0.226668	1857.1	97156.7
787	2.000000	1.231573	7.37276e+06	-39489.1	1055.82	-29793.6	0.000000	0.000000	7.252266	502.135	NaN	0.000000	0.001587	0.001855	28.0823	101.315	0.001782	56859.7	4.676790	171.83	503.565	1.231196	0.101000	0.100623	502.135	56859.7	0.094377	0.277153	1811.76	98677.5
787	2.000000	1.235383	7.37276e+06	-39489.1	1055.82	-29793.6	0.000000	0.000000	7.257425	534.969	NaN	0.000000	0.001548	0.001836	28.0825	104.029	0.001695	61356.7	2.830320	172.918	525.379	1.235137	0.104809	0.104564	534.969	61356.7	0.098270	0.297748	1796.72	102733