File: remote_trans/data/nanoindenter/0828-1/data/Data_2025-08-06,11h17m57s/2025-07-22_16-23-58_1_629.txt
2025-07-22, 16:23:58, 1
Index	Phase	Displacement	Time	Pos X	Pos Y	Pos Z	Rot A	Rot B	Piezo Z	Force A	Force B	Gripper	Voltage A	Voltage B	Temperature	Amplitude force	Amplitude pos	Stiffness	Phase shift	Phase excitation	Force A raw	Displacement raw	HMax	HMax raw	Real Force	Real Stiffness	Contact Depth	Area	Hardness	Reduced Mod.
[#]	[#]	[um]	[s]	[um]	[um]	[um]	[m°]	[m°]	[um]	[uN]	[uN]	[V]	[V]	[V]	[°C]	[uN]	[um]	[N/m]	[°]	[°]	[uN]	[um]	[um]	[um]	[uN]	[N/m]	[um]	[um^2]	[MPa]	[MPa]
629	1.000000	0.003371	7.3712e+06	-45639.1	1005.82	-29771.8	0.000000	0.000000	6.002801	-0.069533	NaN	0.000000	0.001599	0.001709	28.0834	0.081833	0.000932	87.7928	175.376	-168.42	-0.016353	0.002110	-1.098384	-1.099644	-0.069533	87.7928	-1.097790	-4.681615E+14	1.485229E-16	NaN
629	1.000000	0.045313	7.3712e+06	-45639.1	1005.82	-29771.8	0.000000	0.000000	6.044748	0.023550	NaN	0.000000	0.001591	0.001708	28.0822	0.059268	0.002003	29.5832	-17.8369	15.4674	-0.061408	0.043920	-1.056441	-1.057834	0.023550	29.5832	-1.057038	-1.327439E+14	-1.774112E-16	NaN
629	1.000000	0.087313	7.3712e+06	-45639.1	1005.82	-29771.8	0.000000	0.000000	6.086745	-0.039759	NaN	0.000000	0.001603	0.001757	28.0823	0.067140	0.002060	32.5947	97.322	-162.899	-0.037578	0.086032	-1.014442	-1.015722	-0.039759	32.5947	-1.013527	-3.450221E+13	1.152364E-15	NaN
629	1.000000	0.129322	7.3712e+06	-45639.1	1005.82	-29771.8	0.000000	0.000000	6.128758	0.045469	NaN	0.000000	0.001582	0.001711	28.0823	0.099244	0.002014	49.2825	15.7117	15.6564	0.027963	0.127979	-0.972432	-0.973776	0.045469	49.2825	-0.973124	-9.857349E+12	-4.612692E-15	NaN
629	1.000000	0.171348	7.3712e+06	-45639.1	1005.82	-29771.8	0.000000	0.000000	6.170783	0.049944	NaN	0.000000	0.001587	0.001667	28.0836	0.066111	0.002006	32.9585	14.4983	-166.298	0.056568	0.170025	-0.930407	-0.931729	0.049944	32.9585	-0.931543	-2.710348E+12	-1.842716E-14	NaN
629	1.000000	0.213374	7.3712e+06	-45639.1	1005.82	-29771.8	0.000000	0.000000	6.212808	0.009514	NaN	0.000000	0.001594	0.001711	28.0835	0.104935	0.002039	51.4518	-118.356	13.51	-0.037740	0.211992	-0.888380	-0.889762	0.009514	51.4518	-0.888519	-7.110358E+11	-1.338087E-14	NaN
629	1.000000	0.255396	7.37121e+06	-45639.1	1005.82	-29771.8	0.000000	0.000000	6.254832	0.051900	NaN	0.000000	0.001587	0.001721	28.0835	0.062922	0.001852	33.9834	29.4971	-165.78	0.050446	0.254104	-0.846358	-0.847651	0.051900	33.9834	-0.847504	-1.981226E+11	-2.619573E-13	NaN
629	1.000000	0.297405	7.37121e+06	-45639.1	1005.82	-29771.8	0.000000	0.000000	6.296841	0.055343	NaN	0.000000	0.001592	0.001686	28.0838	0.013288	0.002067	6.429111	-110.205	14.1145	-0.007975	0.296076	-0.804349	-0.805678	0.055343	6.429111	-0.810805	-6.302205E+10	-8.781483E-13	NaN
629	1.000000	0.339433	7.37121e+06	-45639.1	1005.82	-29771.8	0.000000	0.000000	6.338866	-0.016077	NaN	0.000000	0.001576	0.001724	28.0825	0.036617	0.001958	18.6989	164.524	-167.99	0.063184	0.338128	-0.762321	-0.763626	-0.016077	18.6989	-0.761676	-1.355528E+10	1.186008E-12	NaN
629	1.000000	0.381444	7.37121e+06	-45639.1	1005.82	-29771.8	0.000000	0.000000	6.380877	-0.008979	NaN	0.000000	0.001616	0.001663	28.0829	0.024501	0.001914	12.7998	-53.9945	12.975	-0.012861	0.380097	-0.720310	-0.721658	-0.008979	12.7998	-0.719784	-3.643586E+9	2.464235E-12	NaN
629	1.000000	0.423461	7.37121e+06	-45639.1	1005.82	-29771.8	0.000000	0.000000	6.422895	0.025741	NaN	0.000000	0.001579	0.001670	28.0822	0.068139	0.002016	33.8001	-81.9909	-168.617	-0.068534	0.422167	-0.678294	-0.679587	0.025741	33.8001	-0.678865	-1.006185E+9	-2.558289E-11	NaN
629	1.000000	0.465485	7.37121e+06	-45639.1	1005.82	-29771.8	0.000000	0.000000	6.464920	0.018069	NaN	0.000000	0.001617	0.001703	28.0834	0.042505	0.002090	20.3324	-76.3055	12.4129	-0.048822	0.464167	-0.636269	-0.637587	0.018069	20.3324	-0.636935	-2.680624E+8	-6.740608E-11	NaN
629	1.000000	0.507495	7.37121e+06	-45639.1	1005.82	-29771.8	0.000000	0.000000	6.506927	-0.026653	NaN	0.000000	0.001540	0.001677	28.0844	0.030667	0.002029	15.1141	-61.5635	-168.105	0.000659	0.506248	-0.594260	-0.595506	-0.026653	15.1141	-0.592937	-6.655052E+7	4.004919E-10	NaN
629	1.000000	0.549520	7.37121e+06	-45639.1	1005.82	-29771.8	0.000000	0.000000	6.548954	0.026754	NaN	0.000000	0.001620	0.001714	28.0838	0.081867	0.002059	39.7603	88.6885	12.4812	-0.058540	0.548188	-0.552235	-0.553567	0.026754	39.7603	-0.552739	-1.853068E+7	-1.443745E-9	NaN
629	1.000000	0.591540	7.37121e+06	-45639.1	1005.82	-29771.8	0.000000	0.000000	6.590972	-0.045113	NaN	0.000000	0.001595	0.001714	28.0828	0.147343	0.002034	72.4461	95.1054	-168.054	0.037755	0.590306	-0.510214	-0.511448	-0.045113	72.4461	-0.509747	-4.68699e+06	9.625079E-9	NaN
629	1.000000	0.633533	7.37121e+06	-45639.1	1005.82	-29771.8	0.000000	0.000000	6.632967	-0.002829	NaN	0.000000	0.001639	0.001681	28.0826	0.080895	0.002066	39.149	-125.409	14.864	0.037988	0.632168	-0.468221	-0.469586	-0.002829	39.149	-0.468167	-1.2294e+06	2.300755E-9	NaN
629	1.000000	0.675566	7.37121e+06	-45639.1	1005.82	-29771.8	0.000000	0.000000	6.675001	0.035014	NaN	0.000000	0.001644	0.001719	28.0826	0.086550	0.002088	41.4593	106.508	-165.234	0.011333	0.674308	-0.426189	-0.427446	0.035014	41.4593	-0.426822	-321430	-1.089321E-7	NaN
629	1.000000	0.717623	7.37121e+06	-45639.1	1005.82	-29771.8	0.000000	0.000000	6.717055	-0.045303	NaN	0.000000	0.001587	0.001713	28.084	0.034767	0.001947	17.8607	6.050081	11.8729	-0.074898	0.716260	-0.384131	-0.385495	-0.045303	17.8607	-0.382228	-74449	6.085163E-7	NaN
629	1.000000	0.759572	7.37121e+06	-45639.1	1005.82	-29771.8	0.000000	0.000000	6.759005	-0.004894	NaN	0.000000	0.001583	0.001686	28.0836	0.075487	0.001929	39.1282	-81.4429	-167.461	-0.041754	0.758313	-0.342183	-0.343441	-0.004894	39.1282	-0.342089	-19587.8	2.498496E-7	NaN
629	1.000000	0.801618	7.37121e+06	-45639.1	1005.82	-29771.8	0.000000	0.000000	6.801051	-0.011937	NaN	0.000000	0.001686	0.001662	28.0837	0.048723	0.001945	25.0493	-8.379222	14.6281	-0.021787	0.800302	-0.300136	-0.301453	-0.011937	25.0493	-0.299779	-4670.28	2.555929E-6	NaN
629	1.000000	0.843649	7.37121e+06	-45639.1	1005.82	-29771.8	0.000000	0.000000	6.843082	-0.006576	NaN	0.000000	0.001611	0.001703	28.0836	0.056641	0.001960	28.8966	106.674	-164.696	0.067587	0.842225	-0.258105	-0.259529	-0.006576	28.8966	-0.257935	-1089.52	6.035371E-6	NaN
629	1.000000	0.885670	7.37121e+06	-45639.1	1005.82	-29771.8	0.000000	0.000000	6.885105	0.033699	NaN	0.000000	0.001597	0.001721	28.0824	0.137364	0.001892	72.5833	-112.962	14.1585	-0.051746	0.884323	-0.216084	-0.217431	0.033699	72.5833	-0.216432	-243.519	-0.000138	NaN
629	1.000000	0.927666	7.37121e+06	-45639.1	1005.82	-29771.8	0.000000	0.000000	6.927100	0.003189	NaN	0.000000	0.001611	0.001708	28.0823	0.068297	0.001965	34.7531	18.668	-167.135	0.017880	0.926314	-0.174088	-0.175440	0.003189	34.7531	-0.174157	-48.4705	-6.579879E-5	NaN
629	1.000000	0.969694	7.37121e+06	-45639.1	1005.82	-29771.8	0.000000	0.000000	6.969127	-0.012013	NaN	0.000000	0.001564	0.001702	28.0824	0.014409	0.001952	7.380207	-52.2945	9.301077	-0.026330	0.968362	-0.132060	-0.133392	-0.012013	7.380207	-0.130839	-7.912045	0.001518	NaN
629	1.000000	1.011711	7.37121e+06	-45639.1	1005.82	-29771.8	0.000000	0.000000	7.011140	-0.119318	NaN	0.000000	0.001586	0.001681	28.0838	0.130669	0.001942	67.2782	-152.634	-168.015	-0.101387	1.010389	-0.090043	-0.091365	-0.119318	67.2782	-0.088713	-1.008082	0.118361	NaN
629	1.000000	1.053742	7.37121e+06	-45639.1	1005.82	-29771.8	0.000000	0.000000	7.053174	-0.034671	NaN	0.000000	0.001540	0.001673	28.0836	0.022501	0.001921	11.7101	-61.2653	13.8491	-0.049306	1.052353	-0.048013	-0.049401	-0.034671	11.7101	-0.045792	-0.067952	0.510231	NaN
629	1.000000	1.095746	7.37121e+06	-45639.1	1005.82	-29771.8	0.000000	0.000000	7.095177	-0.078191	NaN	0.000000	0.001581	0.001675	28.0835	0.067734	0.001964	34.4827	136.498	-163.349	-0.014581	1.094411	-0.006008	-0.007343	-0.078191	34.4827	-0.004307	-0.002977	26.2648	NaN
629	2.000000	1.114752	7.37121e+06	-45639.1	1005.82	-29771.8	0.000000	0.000000	7.114994	19.6719	NaN	0.000000	0.001635	0.001649	28.0822	17.0306	0.001869	9112.87	6.672043	3.153268	17.3958	1.114470	0.012998	0.012716	19.6719	9112.87	0.011379	0.010754	1829.19	80285.1
629	2.000000	1.125230	7.37121e+06	-45639.1	1005.82	-29771.8	0.000000	0.000000	7.126531	45.4133	NaN	0.000000	0.001637	0.001631	28.0822	27.167	0.001840	14766.2	6.830743	178.434	44.0785	1.124903	0.023476	0.023149	45.4133	14766.2	0.021169	0.024413	1860.18	86343.2
629	2.000000	1.135730	7.37121e+06	-45639.1	1005.82	-29771.8	0.000000	0.000000	7.138403	78.8055	NaN	0.000000	0.001608	0.001668	28.082	37.3662	0.001864	20047.2	5.386672	-2.600544	77.69	1.135303	0.033975	0.033548	78.8055	20047.2	0.031027	0.042899	1836.99	88430.4
629	2.000000	1.146209	7.37121e+06	-45639.1	1005.82	-29771.8	0.000000	0.000000	7.150506	118.301	NaN	0.000000	0.001625	0.001662	28.0831	47.3607	0.001847	25635.8	5.461510	174.821	117.671	1.145916	0.044455	0.044162	118.301	25635.8	0.040994	0.066623	1775.69	90742.2
629	2.000000	1.156693	7.37121e+06	-45639.1	1005.82	-29771.8	0.000000	0.000000	7.163108	169.83	NaN	0.000000	0.001633	0.001670	28.0835	56.3748	0.001770	31851.4	2.503650	-3.323805	169.251	1.156300	0.054938	0.054546	169.83	31851.4	0.050940	0.095339	1781.32	94246.6
629	2.000000	1.167153	7.37121e+06	-45639.1	1005.82	-29771.8	0.000000	0.000000	7.175767	223.326	NaN	0.000000	0.001595	0.001645	28.0833	67.7702	0.001798	37691.2	6.557894	171.565	219.039	1.166796	0.065399	0.065042	223.326	37691.2	0.060955	0.129255	1727.79	95783.4
629	2.000000	1.177681	7.37121e+06	-45639.1	1005.82	-29771.8	0.000000	0.000000	7.189023	289.702	NaN	0.000000	0.001602	0.001677	28.0833	76.1866	0.001753	43457.8	4.474129	-7.885514	288.487	1.177409	0.075926	0.075655	289.702	43457.8	0.070927	0.167878	1725.67	96904.4
629	2.000000	1.188168	7.37121e+06	-45639.1	1005.82	-29771.8	0.000000	0.000000	7.202612	365.166	NaN	0.000000	0.001550	0.001649	28.0825	86.3022	0.001828	47216.1	5.260773	171.199	365.367	1.187864	0.086413	0.086109	365.166	47216.1	0.080613	0.209919	1739.55	94153.6
629	2.000000	1.198654	7.37121e+06	-45639.1	1005.82	-29771.8	0.000000	0.000000	7.215973	435.098	NaN	0.000000	0.001574	0.001599	28.0826	95.6522	0.001767	54128.3	6.008258	-10.6425	431.999	1.198181	0.096900	0.096427	435.098	54128.3	0.090871	0.259201	1678.61	97135.7
629	2.000000	1.205544	7.37121e+06	-45639.1	1005.82	-29771.8	0.000000	0.000000	7.225223	492.499	NaN	0.000000	0.001591	0.001559	28.083	100.771	0.001681	59960.1	5.216493	-10.8952	484.862	1.205168	0.103790	0.103413	492.499	59960.1	0.097630	0.294312	1673.39	100979