File: remote_trans/data/nanoindenter/0828-1/data/Data_2025-08-06,11h17m57s/2025-07-22_16-23-58_1_1043.txt
2025-07-22, 16:23:58, 1
Index	Phase	Displacement	Time	Pos X	Pos Y	Pos Z	Rot A	Rot B	Piezo Z	Force A	Force B	Gripper	Voltage A	Voltage B	Temperature	Amplitude force	Amplitude pos	Stiffness	Phase shift	Phase excitation	Force A raw	Displacement raw	HMax	HMax raw	Real Force	Real Stiffness	Contact Depth	Area	Hardness	Reduced Mod.
[#]	[#]	[um]	[s]	[um]	[um]	[um]	[m°]	[m°]	[um]	[uN]	[uN]	[V]	[V]	[V]	[°C]	[uN]	[um]	[N/m]	[°]	[°]	[uN]	[um]	[um]	[um]	[uN]	[N/m]	[um]	[um^2]	[MPa]	[MPa]
1043	1.000000	0.002774	7.37525e+06	-52289.1	1055.82	-29749.5	0.000000	0.000000	6.002820	-0.015528	NaN	0.000000	0.001713	0.001737	28.0833	0.153699	0.000944	162.741	-125.577	-162.877	0.026637	0.001505	-1.146249	-1.147518	-0.015528	162.741	-1.146178	-2.087253E+15	7.439422E-18	NaN
1043	1.000000	0.044709	7.37525e+06	-52289.1	1055.82	-29749.5	0.000000	0.000000	6.044755	-0.024770	NaN	0.000000	0.001735	0.001702	28.0819	0.054937	0.001984	27.691	-163.921	13.4714	-0.018766	0.043403	-1.104314	-1.105620	-0.024770	27.691	-1.103643	-5.610028E+14	4.415357E-17	NaN
1043	1.000000	0.086678	7.37525e+06	-52289.1	1055.82	-29749.5	0.000000	0.000000	6.086724	-0.011745	NaN	0.000000	0.001662	0.001683	28.0817	0.099079	0.002062	48.046	-75.6522	-162.801	0.016381	0.085430	-1.062345	-1.063593	-0.011745	48.046	-1.062162	-1.555510E+14	7.550402E-17	NaN
1043	1.000000	0.128745	7.37525e+06	-52289.1	1055.82	-29749.5	0.000000	0.000000	6.128791	-0.030696	NaN	0.000000	0.001637	0.001689	28.0819	0.050495	0.001952	25.8623	108.128	18.3226	-0.007822	0.127365	-1.020278	-1.021658	-0.030696	25.8623	-1.019388	-4.137292E+13	7.419410E-16	NaN
1043	1.000000	0.170737	7.37525e+06	-52289.1	1055.82	-29749.5	0.000000	0.000000	6.170782	-0.031510	NaN	0.000000	0.001704	0.001688	28.0833	0.043470	0.002076	20.9443	-9.118912	-160.343	-0.010757	0.169424	-0.978286	-0.979599	-0.031510	20.9443	-0.977158	-1.117171E+13	2.820544E-15	NaN
1043	1.000000	0.212747	7.37525e+06	-52289.1	1055.82	-29749.5	0.000000	0.000000	6.212791	-0.076610	NaN	0.000000	0.001700	0.001628	28.0832	0.052323	0.002036	25.6934	-9.739932	12.4782	-0.157062	0.211403	-0.936276	-0.937620	-0.076610	25.6934	-0.934039	-2.928947E+12	2.615619E-14	NaN
1043	1.000000	0.254784	7.37525e+06	-52289.1	1055.82	-29749.5	0.000000	0.000000	6.254827	-0.094151	NaN	0.000000	0.001676	0.001636	28.0832	0.143999	0.002124	67.784	103.132	-162.725	-0.095262	0.253529	-0.894239	-0.895494	-0.094151	67.784	-0.893198	-8.225010E+11	1.144692E-13	NaN
1043	1.000000	0.296790	7.37525e+06	-52289.1	1055.82	-29749.5	0.000000	0.000000	6.296835	-0.042369	NaN	0.000000	0.001592	0.001662	28.0823	0.047953	0.001874	25.5917	7.817956	16.8905	-0.017326	0.295439	-0.852233	-0.853584	-0.042369	25.5917	-0.850991	-2.208832E+11	1.918161E-13	NaN
1043	1.000000	0.338825	7.37525e+06	-52289.1	1055.82	-29749.5	0.000000	0.000000	6.338870	-0.043584	NaN	0.000000	0.001609	0.001670	28.082	0.101382	0.001961	51.7109	118.225	-165.798	-0.018839	0.337502	-0.810198	-0.811521	-0.043584	51.7109	-0.809566	-6.062964E+10	7.188575E-13	NaN
1043	1.000000	0.380809	7.37525e+06	-52289.1	1055.82	-29749.5	0.000000	0.000000	6.380855	-0.024357	NaN	0.000000	0.001593	0.001654	28.0819	0.091481	0.002033	44.9885	102.36	15.2272	-0.084537	0.379526	-0.768214	-0.769497	-0.024357	44.9885	-0.767808	-1.642474E+10	1.482927E-12	NaN
1043	1.000000	0.422873	7.37525e+06	-52289.1	1055.82	-29749.5	0.000000	0.000000	6.422921	0.039560	NaN	0.000000	0.001562	0.001673	28.0818	0.071364	0.001942	36.7421	163.418	-165.287	-0.012884	0.421590	-0.726150	-0.727433	0.039560	36.7421	-0.726958	-4.563973E+9	-8.667854E-12	NaN
1043	1.000000	0.464863	7.37525e+06	-52289.1	1055.82	-29749.5	0.000000	0.000000	6.464908	-0.068135	NaN	0.000000	0.001616	0.001660	28.0829	0.027477	0.001974	13.9213	-73.2358	15.5963	-0.073548	0.463471	-0.684160	-0.685552	-0.068135	13.9213	-0.680489	-1.058993E+9	6.433902E-11	NaN
1043	1.000000	0.506870	7.37525e+06	-52289.1	1055.82	-29749.5	0.000000	0.000000	6.506915	-0.056434	NaN	0.000000	0.001596	0.001687	28.0831	0.029471	0.001959	15.0454	-36.3828	-168.283	-0.029953	0.505587	-0.642153	-0.643436	-0.056434	15.0454	-0.639339	-2.892191E+8	1.951260E-10	NaN
1043	1.000000	0.548916	7.37525e+06	-52289.1	1055.82	-29749.5	0.000000	0.000000	6.548963	0.014067	NaN	0.000000	0.001668	0.001689	28.0833	0.073047	0.001908	38.2843	-58.818	14.5626	0.063544	0.547562	-0.600107	-0.601461	0.014067	38.2843	-0.600383	-8.428168E+7	-1.669068E-10	NaN
1043	1.000000	0.590935	7.37525e+06	-52289.1	1055.82	-29749.5	0.000000	0.000000	6.590980	-0.055965	NaN	0.000000	0.001611	0.001651	28.0822	0.082426	0.002068	39.8496	131.622	-166.276	-0.025209	0.589624	-0.558088	-0.559399	-0.055965	39.8496	-0.557035	-2.124976E+7	2.633685E-9	NaN
1043	1.000000	0.632930	7.37525e+06	-52289.1	1055.82	-29749.5	0.000000	0.000000	6.632979	0.031842	NaN	0.000000	0.001652	0.001707	28.0836	0.128605	0.001926	66.7761	75.3035	12.9518	-0.000980	0.631627	-0.516093	-0.517396	0.031842	66.7761	-0.516450	-5.81057e+06	-5.480024E-9	NaN
1043	1.000000	0.674963	7.37525e+06	-52289.1	1055.82	-29749.5	0.000000	0.000000	6.675008	-0.044267	NaN	0.000000	0.001648	0.001707	28.0821	0.033163	0.001994	16.6317	-133.363	-163.792	-0.049908	0.673644	-0.474060	-0.475379	-0.044267	16.6317	-0.472064	-1.39429e+06	3.174856E-8	NaN
1043	1.000000	0.716968	7.37525e+06	-52289.1	1055.82	-29749.5	0.000000	0.000000	6.717014	-0.023079	NaN	0.000000	0.001646	0.001692	28.0834	0.097298	0.002021	48.1344	67.2014	15.381	-0.064406	0.715614	-0.432055	-0.433409	-0.023079	48.1344	-0.431695	-376740	6.125901E-8	NaN
1043	1.000000	0.759024	7.37525e+06	-52289.1	1055.82	-29749.5	0.000000	0.000000	6.759069	-0.036544	NaN	0.000000	0.001689	0.001704	28.0838	0.052090	0.001958	26.6023	-30.0236	-163.146	0.060262	0.757695	-0.389999	-0.391328	-0.036544	26.6023	-0.388969	-92985.6	3.930079E-7	NaN
1043	1.000000	0.801023	7.37525e+06	-52289.1	1055.82	-29749.5	0.000000	0.000000	6.801069	-0.037422	NaN	0.000000	0.001654	0.001779	28.0837	0.055124	0.002049	26.905	-72.7003	13.4776	-0.059372	0.799632	-0.348000	-0.349391	-0.037422	26.905	-0.346956	-23056.9	1.623009E-6	NaN
1043	1.000000	0.843019	7.37525e+06	-52289.1	1055.82	-29749.5	0.000000	0.000000	6.843066	0.003037	NaN	0.000000	0.001599	0.001747	28.0825	0.031017	0.002051	15.1213	167.882	-170.199	0.026550	0.841713	-0.306004	-0.307310	0.003037	15.1213	-0.306155	-5808.85	-5.227965E-7	NaN
1043	1.000000	0.885048	7.37525e+06	-52289.1	1055.82	-29749.5	0.000000	0.000000	6.885091	-0.103011	NaN	0.000000	0.001653	0.001774	28.0822	0.116193	0.002051	56.658	128.823	14.5888	-0.034638	0.883695	-0.263975	-0.265328	-0.103011	56.658	-0.262611	-1284.97	8.016643E-5	NaN
1043	1.000000	0.927062	7.37525e+06	-52289.1	1055.82	-29749.5	0.000000	0.000000	6.927110	0.029358	NaN	0.000000	0.001654	0.001758	28.0821	0.083144	0.002081	39.9495	119.907	-164.434	-0.076668	0.925758	-0.221961	-0.223265	0.029358	39.9495	-0.222513	-304.627	-9.637271E-5	NaN
1043	1.000000	0.969080	7.37525e+06	-52289.1	1055.82	-29749.5	0.000000	0.000000	6.969125	-0.046180	NaN	0.000000	0.001581	0.001804	28.0818	0.024164	0.002037	11.8603	107.961	10.8525	-0.047474	0.967699	-0.179943	-0.181324	-0.046180	11.8603	-0.177023	-54.2833	0.000851	NaN
1043	1.000000	1.011115	7.37525e+06	-52289.1	1055.82	-29749.5	0.000000	0.000000	7.011161	-0.038456	NaN	0.000000	0.001580	0.001813	28.083	0.025972	0.001954	13.2916	127.97	-166.352	0.033923	1.009779	-0.137908	-0.139244	-0.038456	13.2916	-0.135738	-9.825631	0.003914	NaN
1043	1.000000	1.053117	7.37525e+06	-52289.1	1055.82	-29749.5	0.000000	0.000000	7.053164	-0.001229	NaN	0.000000	0.001616	0.001810	28.0827	0.075836	0.002133	35.5511	-128.901	13.6629	0.089753	1.051779	-0.095906	-0.097244	-0.001229	35.5511	-0.095880	-1.477103	0.000832	NaN
1043	1.000000	1.095112	7.37525e+06	-52289.1	1055.82	-29749.5	0.000000	0.000000	7.095164	0.115708	NaN	0.000000	0.001589	0.001832	28.0826	0.077176	0.001978	39.0254	-101.013	-167.125	0.122506	1.093815	-0.053911	-0.055208	0.115708	39.0254	-0.056135	-0.139081	-0.831942	NaN
1043	1.000000	1.137151	7.37525e+06	-52289.1	1055.82	-29749.5	0.000000	0.000000	7.137202	0.074751	NaN	0.000000	0.001608	0.001837	28.0816	0.182878	0.001980	92.3732	48.2553	13.4542	0.077479	1.135814	-0.011872	-0.013210	0.074751	92.3732	-0.012479	-0.007803	-9.580400	NaN
1043	2.000000	1.161687	7.37525e+06	-52289.1	1055.82	-29749.5	0.000000	0.000000	7.162564	20.1661	NaN	0.000000	0.001621	0.001841	28.0816	15.8859	0.001676	9480.1	8.076873	-176.363	21.0262	1.161254	0.012664	0.012231	20.1661	9480.1	0.011069	0.010394	1940.25	84957.9
1043	2.000000	1.172105	7.37525e+06	-52289.1	1055.82	-29749.5	0.000000	0.000000	7.173834	40.9169	NaN	0.000000	0.001626	0.001809	28.0818	27.6704	0.001800	15376.1	8.581708	-2.641759	40.9132	1.171759	0.023081	0.022736	40.9169	15376.1	0.021086	0.024277	1685.42	90161.6
1043	2.000000	1.182573	7.37525e+06	-52289.1	1055.82	-29749.5	0.000000	0.000000	7.185724	75.4714	NaN	0.000000	0.001662	0.001839	28.083	37.8294	0.001793	21099.1	4.242259	179.149	74.8245	1.182204	0.033550	0.033181	75.4714	21099.1	0.030867	0.042561	1773.26	93440
1043	2.000000	1.193079	7.37525e+06	-52289.1	1055.82	-29749.5	0.000000	0.000000	7.198096	120.833	NaN	0.000000	0.001611	0.001841	28.0832	48.4011	0.001831	26432.4	5.865959	-4.982061	119.985	1.192743	0.044056	0.043720	120.833	26432.4	0.040627	0.065660	1840.29	94245.4
1043	2.000000	1.203500	7.37525e+06	-52289.1	1055.82	-29749.5	0.000000	0.000000	7.210908	178.986	NaN	0.000000	0.001606	0.001820	28.0832	59.0948	0.001784	33134	6.398714	172.537	174.894	1.203225	0.054476	0.054202	178.986	33134	0.050425	0.093732	1909.55	98879.1
1043	2.000000	1.214030	7.37525e+06	-52289.1	1055.82	-29749.5	0.000000	0.000000	7.224001	241.304	NaN	0.000000	0.001578	0.001805	28.0821	70.179	0.001847	38003.8	2.617064	-5.117283	238.33	1.213746	0.065007	0.064723	241.304	38003.8	0.060245	0.126687	1904.73	97551.5
1043	2.000000	1.224442	7.37525e+06	-52289.1	1055.82	-29749.5	0.000000	0.000000	7.237737	322.144	NaN	0.000000	0.001658	0.001803	28.0821	79.3238	0.001716	46219.9	2.443673	173.992	314.888	1.224076	0.075418	0.075053	322.144	46219.9	0.070191	0.164866	1953.97	104001
1043	2.000000	1.234971	7.37525e+06	-52289.1	1055.82	-29749.5	0.000000	0.000000	7.251718	406.055	NaN	0.000000	0.001678	0.001793	28.0824	88.6458	0.001780	49800.6	5.238757	-9.950757	402.437	1.234666	0.085948	0.085643	406.055	49800.6	0.079833	0.206372	1967.59	100157
1043	2.000000	1.245458	7.37525e+06	-52289.1	1055.82	-29749.5	0.000000	0.000000	7.266305	505.751	NaN	0.000000	0.001628	0.001792	28.0825	98.0947	0.001811	54161.5	5.717040	169.363	502.565	1.245159	0.096435	0.096136	505.751	54161.5	0.089431	0.251993	2007.01	98575.6
1043	2.000000	1.254534	7.37525e+06	-52289.1	1055.82	-29749.5	0.000000	0.000000	7.279341	602.024	NaN	0.000000	0.001624	0.001779	28.0836	106.52	0.001851	57542.7	5.375480	169.528	603.541	1.254201	0.105511	0.105177	602.024	57542.7	0.097664	0.294498	2044.24	96877.2