File: remote_trans/data/nanoindenter/0828-1/data/Data_2025-08-06,11h17m57s/2025-07-22_16-23-58_1_620.txt
2025-07-22, 16:23:58, 1
Index	Phase	Displacement	Time	Pos X	Pos Y	Pos Z	Rot A	Rot B	Piezo Z	Force A	Force B	Gripper	Voltage A	Voltage B	Temperature	Amplitude force	Amplitude pos	Stiffness	Phase shift	Phase excitation	Force A raw	Displacement raw	HMax	HMax raw	Real Force	Real Stiffness	Contact Depth	Area	Hardness	Reduced Mod.
[#]	[#]	[um]	[s]	[um]	[um]	[um]	[m°]	[m°]	[um]	[uN]	[uN]	[V]	[V]	[V]	[°C]	[uN]	[um]	[N/m]	[°]	[°]	[uN]	[um]	[um]	[um]	[uN]	[N/m]	[um]	[um^2]	[MPa]	[MPa]
620	1.000000	0.003041	7.37112e+06	-46089.1	1005.82	-29770.3	0.000000	0.000000	6.002818	-0.046139	NaN	0.000000	0.001481	0.001755	28.083	0.030154	0.000941	32.031	171.224	-158.843	-0.069580	0.001776	-1.075244	-1.076508	-0.046139	32.031	-1.074164	-2.254894E+14	2.046184E-16	NaN
620	1.000000	0.042982	7.37112e+06	-46089.1	1005.82	-29770.3	0.000000	0.000000	6.042760	-0.039940	NaN	0.000000	0.001511	0.001749	28.0832	0.084406	0.001975	42.7428	-131.509	-162.912	-0.034318	0.041659	-1.035302	-1.036625	-0.039940	42.7428	-1.034602	-6.627810E+13	6.026160E-16	NaN
620	1.000000	0.082970	7.37112e+06	-46089.1	1005.82	-29770.3	0.000000	0.000000	6.082750	0.019218	NaN	0.000000	0.001508	0.001733	28.0832	0.090057	0.002060	43.7127	-12.7727	-160.78	0.095610	0.081644	-0.995315	-0.996641	0.019218	43.7127	-0.995645	-1.982103E+13	-9.695739E-16	NaN
620	1.000000	0.122991	7.37112e+06	-46089.1	1005.82	-29770.3	0.000000	0.000000	6.122768	-0.053969	NaN	0.000000	0.001469	0.001722	28.0817	0.115554	0.001990	58.0697	91.2602	-161.197	-0.033781	0.121686	-0.955294	-0.956599	-0.053969	58.0697	-0.954597	-5.546473E+12	9.730255E-15	NaN
620	1.000000	0.163023	7.37112e+06	-46089.1	1005.82	-29770.3	0.000000	0.000000	6.162801	-0.033410	NaN	0.000000	0.001502	0.001691	28.0816	0.026353	0.001999	13.1799	14.4353	-164.141	-0.096209	0.161650	-0.915262	-0.916635	-0.033410	13.1799	-0.913361	-1.540124E+12	2.169336E-14	NaN
620	1.000000	0.203044	7.37112e+06	-46089.1	1005.82	-29770.3	0.000000	0.000000	6.202825	0.052633	NaN	0.000000	0.001484	0.001702	28.0818	0.043643	0.002067	21.1144	87.2777	-163.006	0.058204	0.201741	-0.875241	-0.876544	0.052633	21.1144	-0.877111	-4.984610E+11	-1.055916E-13	NaN
620	1.000000	0.243035	7.37112e+06	-46089.1	1005.82	-29770.3	0.000000	0.000000	6.242813	-0.036075	NaN	0.000000	0.001448	0.001711	28.0831	0.098688	0.001944	50.7692	-105.975	-163.204	-0.047362	0.241710	-0.835250	-0.836575	-0.036075	50.7692	-0.834717	-1.329579E+11	2.713242E-13	NaN
620	1.000000	0.283058	7.37112e+06	-46089.1	1005.82	-29770.3	0.000000	0.000000	6.282835	-0.042429	NaN	0.000000	0.001552	0.001729	28.083	0.053989	0.001984	27.211	41.7466	-163.897	-0.037887	0.281793	-0.795227	-0.796492	-0.042429	27.211	-0.794057	-3.734085E+10	1.136273E-12	NaN
620	1.000000	0.323095	7.37112e+06	-46089.1	1005.82	-29770.3	0.000000	0.000000	6.322878	0.101991	NaN	0.000000	0.001557	0.001736	28.0828	0.039535	0.001998	19.7886	147.618	-164.409	0.113706	0.321809	-0.755190	-0.756476	0.101991	19.7886	-0.759056	-1.248688E+10	-8.167824E-12	NaN
620	1.000000	0.363091	7.37112e+06	-46089.1	1005.82	-29770.3	0.000000	0.000000	6.362872	0.027083	NaN	0.000000	0.001534	0.001703	28.083	0.073058	0.001952	37.4357	-125.449	-162.86	0.056166	0.361784	-0.715194	-0.716501	0.027083	37.4357	-0.715736	-3.208591E+9	-8.440819E-12	NaN
620	1.000000	0.403116	7.37112e+06	-46089.1	1005.82	-29770.3	0.000000	0.000000	6.402897	0.021538	NaN	0.000000	0.001462	0.001783	28.082	0.056027	0.002001	27.9945	-63.0795	-167.988	0.038439	0.401760	-0.675168	-0.676525	0.021538	27.9945	-0.675745	-9.120291E+8	-2.361532E-11	NaN
620	1.000000	0.443124	7.37112e+06	-46089.1	1005.82	-29770.3	0.000000	0.000000	6.442906	0.058733	NaN	0.000000	0.001507	0.001730	28.0823	0.034277	0.001998	17.1532	-58.5143	-163.82	0.034127	0.441795	-0.635161	-0.636489	0.058733	17.1532	-0.637729	-2.748668E+8	-2.136787E-10	NaN
620	1.000000	0.483143	7.37112e+06	-46089.1	1005.82	-29770.3	0.000000	0.000000	6.482925	0.051001	NaN	0.000000	0.001519	0.001761	28.0821	0.030574	0.002059	14.8477	152.253	-163.293	0.057350	0.481805	-0.595141	-0.596480	0.051001	14.8477	-0.597718	-7.745025E+7	-6.584949E-10	NaN
620	1.000000	0.523172	7.37112e+06	-46089.1	1005.82	-29770.3	0.000000	0.000000	6.522950	-0.011204	NaN	0.000000	0.001577	0.001734	28.0835	0.082554	0.001998	41.3278	-87.2104	-167.284	0.037039	0.521850	-0.555113	-0.556435	-0.011204	41.3278	-0.554910	-1.985827E+7	5.642126E-10	NaN
620	1.000000	0.563188	7.37112e+06	-46089.1	1005.82	-29770.3	0.000000	0.000000	6.562966	-0.026103	NaN	0.000000	0.001546	0.001698	28.0835	0.021293	0.002086	10.2077	87.6112	-165.991	0.020113	0.561832	-0.515097	-0.516452	-0.026103	10.2077	-0.513179	-5.23223e+06	4.988909E-9	NaN
620	1.000000	0.603177	7.37112e+06	-46089.1	1005.82	-29770.3	0.000000	0.000000	6.602958	0.031204	NaN	0.000000	0.001500	0.001733	28.0836	0.025574	0.001971	12.9725	33.375	-165.93	0.046205	0.601849	-0.475107	-0.476435	0.031204	12.9725	-0.476911	-1.63034e+06	-1.913934E-8	NaN
620	1.000000	0.643223	7.37112e+06	-46089.1	1005.82	-29770.3	0.000000	0.000000	6.643000	-0.064637	NaN	0.000000	0.001524	0.001737	28.0833	0.124252	0.001916	64.8477	-170.741	-166.149	-0.002721	0.641908	-0.435062	-0.436377	-0.064637	64.8477	-0.434314	-410263	1.575501E-7	NaN
620	1.000000	0.683232	7.37112e+06	-46089.1	1005.82	-29770.3	0.000000	0.000000	6.683008	-0.082728	NaN	0.000000	0.001536	0.001718	28.0822	0.010509	0.002045	5.139068	-147.94	-164.956	-0.020446	0.681953	-0.395053	-0.396332	-0.082728	5.139068	-0.382979	-76317.2	1.084000E-6	NaN
620	1.000000	0.723272	7.37112e+06	-46089.1	1005.82	-29770.3	0.000000	0.000000	6.723054	0.076166	NaN	0.000000	0.001555	0.001714	28.0821	0.074575	0.002115	35.2602	-102.476	-163.251	0.051361	0.721952	-0.355013	-0.356333	0.076166	35.2602	-0.356633	-31852.5	-2.391207E-6	NaN
620	1.000000	0.763299	7.37112e+06	-46089.1	1005.82	-29770.3	0.000000	0.000000	6.763077	-0.027908	NaN	0.000000	0.001575	0.001710	28.0824	0.051692	0.001963	26.3286	-64.9938	-164.8	-0.073143	0.761954	-0.314986	-0.316331	-0.027908	26.3286	-0.314191	-7638.44	3.653637E-6	NaN
620	1.000000	0.803282	7.37112e+06	-46089.1	1005.82	-29770.4	0.000000	0.000000	6.803061	-0.003948	NaN	0.000000	0.001542	0.001716	28.0836	0.063114	0.001950	32.3608	-69.2148	-165.002	-0.045808	0.802003	-0.275003	-0.276282	-0.003948	32.3608	-0.274911	-1977.22	1.996763E-6	NaN
620	1.000000	0.843311	7.37112e+06	-46089.1	1005.82	-29770.4	0.000000	0.000000	6.843092	0.047411	NaN	0.000000	0.001581	0.001684	28.0836	0.032252	0.001971	16.3652	32.9289	-164.833	0.015239	0.841992	-0.234974	-0.236293	0.047411	16.3652	-0.237146	-518.697	-9.140329E-5	NaN
620	1.000000	0.883328	7.37112e+06	-46089.1	1005.82	-29770.4	0.000000	0.000000	6.883108	0.007050	NaN	0.000000	0.001562	0.001697	28.0838	0.043655	0.002063	21.1605	37.031	-165.644	0.021415	0.882005	-0.194957	-0.196280	0.007050	21.1605	-0.195206	-109.805	-6.420204E-5	NaN
620	1.000000	0.923336	7.37112e+06	-46089.1	1005.82	-29770.4	0.000000	0.000000	6.923113	-0.048957	NaN	0.000000	0.001556	0.001736	28.0828	0.040327	0.002080	19.3842	50.9813	-165.256	-0.011205	0.921964	-0.154949	-0.156321	-0.048957	19.3842	-0.153055	-20.5819	0.002379	NaN
620	1.000000	0.963353	7.37112e+06	-46089.1	1005.82	-29770.4	0.000000	0.000000	6.963132	-0.011041	NaN	0.000000	0.001611	0.001712	28.0825	0.011759	0.002130	5.521838	130.925	-166.002	0.038608	0.962025	-0.114931	-0.116260	-0.011041	5.521838	-0.113432	-3.545411	0.003114	NaN
620	1.000000	1.003372	7.37112e+06	-46089.1	1005.82	-29770.4	0.000000	0.000000	7.003149	-0.051364	NaN	0.000000	0.001574	0.001685	28.0826	0.087703	0.001884	46.5403	-99.0534	-166.889	-0.028467	1.002069	-0.074913	-0.076216	-0.051364	46.5403	-0.074085	-0.437302	0.117457	NaN
620	1.000000	1.043379	7.37112e+06	-46089.1	1005.82	-29770.4	0.000000	0.000000	7.043161	0.061646	NaN	0.000000	0.001586	0.001688	28.0823	0.057724	0.001968	29.3313	-26.0973	-161.82	0.046207	1.042105	-0.034906	-0.036179	0.061646	29.3313	-0.036482	-0.035432	-1.739816	NaN
620	2.000000	1.082779	7.37112e+06	-46089.1	1005.82	-29770.4	0.000000	0.000000	7.082955	9.655175	NaN	0.000000	0.001596	0.001731	28.0836	8.324270	0.001712	4862.41	8.597810	-171.309	8.396025	1.082031	0.004494	0.003746	9.655175	4862.41	0.003004	0.002384	4050.48	90990.8
620	2.000000	1.092825	7.37112e+06	-46089.1	1005.82	-29770.4	0.000000	0.000000	7.093860	30.5326	NaN	0.000000	0.001556	0.001760	28.0834	19.6995	0.001790	11003.2	5.218487	-176.064	28.3854	1.092504	0.014540	0.014220	30.5326	11003.2	0.012459	0.012045	2534.95	91599.7
620	2.000000	1.102819	7.37112e+06	-46089.1	1005.82	-29770.4	0.000000	0.000000	7.104863	55.0862	NaN	0.000000	0.001506	0.001746	28.0834	29.6398	0.001808	16397.7	1.974475	-177.351	53.01	1.102610	0.024535	0.024325	55.0862	16397.7	0.022015	0.025808	2134.46	93256.4
620	2.000000	1.112786	7.37112e+06	-46089.1	1005.82	-29770.4	0.000000	0.000000	7.116205	88.528	NaN	0.000000	0.001556	0.001773	28.0824	39.7739	0.001869	21277.3	7.967038	175.066	86.6241	1.112464	0.034502	0.034179	88.528	21277.3	0.031381	0.043655	2027.91	93040.6
620	2.000000	1.122756	7.37112e+06	-46089.1	1005.82	-29770.4	0.000000	0.000000	7.128074	134.733	NaN	0.000000	0.001554	0.001713	28.0822	49.1028	0.001730	28375.1	6.267678	174.379	132.065	1.122482	0.044472	0.044197	134.733	28375.1	0.040910	0.066402	2029.04	100605
620	2.000000	1.132792	7.37112e+06	-46089.1	1005.82	-29770.4	0.000000	0.000000	7.140323	188.569	NaN	0.000000	0.001522	0.001780	28.0824	58.7981	0.001851	31770.7	1.613181	178.621	186.623	1.132513	0.054507	0.054228	188.569	31770.7	0.050056	0.092586	2036.69	95395.4
620	2.000000	1.142789	7.37112e+06	-46089.1	1005.82	-29770.4	0.000000	0.000000	7.152835	249.727	NaN	0.000000	0.001529	0.001781	28.0822	68.5634	0.001770	38732.6	5.280231	173.2	249.089	1.142446	0.064505	0.064161	249.727	38732.6	0.059669	0.124624	2003.84	100242
620	2.000000	1.152668	7.37112e+06	-46089.1	1005.82	-29770.4	0.000000	0.000000	7.165647	321.09	NaN	0.000000	0.001504	0.001778	28.0835	78.1031	0.001783	43808.6	2.943753	174.53	316.415	1.152531	0.074383	0.074246	321.09	43808.6	0.068886	0.159586	2012.02	100193
620	2.000000	1.162703	7.37112e+06	-46089.1	1005.82	-29770.4	0.000000	0.000000	7.178849	398.13	NaN	0.000000	0.001583	0.001757	28.0836	89.205	0.001794	49732.1	3.173629	173.773	393.898	1.162384	0.084418	0.084099	398.13	49732.1	0.078414	0.199989	1990.75	101603
620	2.000000	1.172682	7.37112e+06	-46089.1	1005.82	-29770.4	0.000000	0.000000	7.192722	492.856	NaN	0.000000	0.001498	0.001784	28.0835	98.0697	0.001804	54347.9	4.163718	171.981	487.359	1.172347	0.094397	0.094062	492.856	54347.9	0.087595	0.242938	2028.73	100741
620	2.000000	1.181207	7.37112e+06	-46089.1	1005.82	-29770.4	0.000000	0.000000	7.204151	563.494	NaN	0.000000	0.001494	0.001768	28.082	105.51	0.001866	56534.4	5.618408	-10.2451	559.167	1.180850	0.102922	0.102565	563.494	56534.4	0.095446	0.282742	1992.96	97138.3