File: remote_trans/data/nanoindenter/0828-1/data/Data_2025-08-06,11h17m57s/2025-07-22_16-23-58_1_657.txt
2025-07-22, 16:23:58, 1
Index	Phase	Displacement	Time	Pos X	Pos Y	Pos Z	Rot A	Rot B	Piezo Z	Force A	Force B	Gripper	Voltage A	Voltage B	Temperature	Amplitude force	Amplitude pos	Stiffness	Phase shift	Phase excitation	Force A raw	Displacement raw	HMax	HMax raw	Real Force	Real Stiffness	Contact Depth	Area	Hardness	Reduced Mod.
[#]	[#]	[um]	[s]	[um]	[um]	[um]	[m°]	[m°]	[um]	[uN]	[uN]	[V]	[V]	[V]	[°C]	[uN]	[um]	[N/m]	[°]	[°]	[uN]	[um]	[um]	[um]	[uN]	[N/m]	[um]	[um^2]	[MPa]	[MPa]
657	1.000000	0.002075	7.37148e+06	-44239.1	1005.82	-29776.4	0.000000	0.000000	6.002780	0.001648	NaN	0.000000	0.001629	0.001689	28.0849	0.103044	0.000985	104.601	148.228	-162.763	-0.017212	0.000822	-1.131444	-1.132697	0.001648	104.601	-1.131455	-1.324783E+15	-1.244230E-18	NaN
657	1.000000	0.044056	7.37148e+06	-44239.1	1005.82	-29776.4	0.000000	0.000000	6.044763	0.051949	NaN	0.000000	0.001613	0.001692	28.0843	0.019155	0.001973	9.707497	48.0317	13.9686	0.009322	0.042649	-1.089463	-1.090870	0.051949	9.707497	-1.093477	-4.097253E+14	-1.267895E-16	NaN
657	1.000000	0.086038	7.37148e+06	-44239.1	1005.82	-29776.4	0.000000	0.000000	6.086744	0.013346	NaN	0.000000	0.001576	0.001696	28.0832	0.036771	0.002010	18.2941	-65.9162	-164.062	0.022892	0.084786	-1.047481	-1.048732	0.013346	18.2941	-1.048028	-1.004388E+14	-1.328785E-16	NaN
657	1.000000	0.128099	7.37148e+06	-44239.1	1005.82	-29776.4	0.000000	0.000000	6.128804	0.012040	NaN	0.000000	0.001551	0.001697	28.0832	0.092792	0.001927	48.1473	3.493595	13.6266	0.028339	0.126711	-1.005420	-1.006807	0.012040	48.1473	-1.005608	-2.699362E+13	-4.460245E-16	NaN
657	1.000000	0.170077	7.37148e+06	-44239.1	1005.82	-29776.4	0.000000	0.000000	6.170779	-0.066297	NaN	0.000000	0.001539	0.001707	28.0832	0.062166	0.001990	31.2466	-158.673	-165.107	0.007163	0.168826	-0.963442	-0.964692	-0.066297	31.2466	-0.961851	-6.947370E+12	9.542727E-15	NaN
657	1.000000	0.212104	7.37148e+06	-44239.1	1005.82	-29776.4	0.000000	0.000000	6.212805	-0.088089	NaN	0.000000	0.001617	0.001686	28.0845	0.063786	0.002105	30.306	6.571055	15.1989	-0.105622	0.210734	-0.921415	-0.922784	-0.088089	30.306	-0.919235	-1.848752E+12	4.764808E-14	NaN
657	1.000000	0.254115	7.37148e+06	-44239.1	1005.82	-29776.4	0.000000	0.000000	6.254821	0.014029	NaN	0.000000	0.001616	0.001697	28.0845	0.085274	0.002012	42.3905	-66.6865	-164.039	0.013596	0.252818	-0.879404	-0.880700	0.014029	42.3905	-0.879652	-5.395116E+11	-2.600226E-14	NaN
657	1.000000	0.296152	7.37148e+06	-44239.1	1005.82	-29776.4	0.000000	0.000000	6.296860	0.060502	NaN	0.000000	0.001619	0.001720	28.0845	0.021754	0.002207	9.855345	118.375	14.7684	0.051535	0.294796	-0.837367	-0.838722	0.060502	9.855345	-0.841971	-1.667213E+11	-3.628944E-13	NaN
657	1.000000	0.338137	7.37148e+06	-44239.1	1005.82	-29776.4	0.000000	0.000000	6.338842	0.003039	NaN	0.000000	0.001615	0.001708	28.0842	0.086527	0.002028	42.6666	115.567	-167.653	-0.032909	0.336860	-0.795382	-0.796659	0.003039	42.6666	-0.795435	-3.898423E+10	-7.795613E-14	NaN
657	1.000000	0.380169	7.37148e+06	-44239.1	1005.82	-29776.4	0.000000	0.000000	6.380874	0.010217	NaN	0.000000	0.001617	0.001774	28.0829	0.001547	0.002063	0.749619	-138.509	15.1344	0.036114	0.378822	-0.753350	-0.754697	0.010217	0.749619	-0.763572	-1.438433E+10	-7.102887E-13	NaN
657	1.000000	0.422179	7.37148e+06	-44239.1	1005.82	-29776.4	0.000000	0.000000	6.422883	-0.031986	NaN	0.000000	0.001626	0.001728	28.0829	0.057739	0.001884	30.6458	163.007	-161.821	-0.110855	0.420859	-0.711340	-0.712659	-0.031986	30.6458	-0.710557	-2.726767E+9	1.173042E-11	NaN
657	1.000000	0.464199	7.37148e+06	-44239.1	1005.82	-29776.4	0.000000	0.000000	6.464904	-0.003392	NaN	0.000000	0.001680	0.001748	28.083	0.054045	0.001977	27.3326	-71.4476	16.5999	-0.082419	0.462918	-0.669320	-0.670600	-0.003392	27.3326	-0.669227	-7.426872E+8	4.566983E-12	NaN
657	1.000000	0.506221	7.37148e+06	-44239.1	1005.82	-29776.4	0.000000	0.000000	6.506925	-0.034767	NaN	0.000000	0.001609	0.001733	28.0841	0.094801	0.001923	49.2952	-99.6764	-165.22	-0.031468	0.504902	-0.627297	-0.628616	-0.034767	49.2952	-0.626769	-1.943748E+8	1.788646E-10	NaN
657	1.000000	0.548287	7.37148e+06	-44239.1	1005.82	-29776.4	0.000000	0.000000	6.548990	-0.058743	NaN	0.000000	0.001634	0.001684	28.0844	0.025209	0.001993	12.6471	-125.659	14.8386	-0.058364	0.546937	-0.585232	-0.586582	-0.058743	12.6471	-0.581748	-4.664956E+7	1.259241E-9	NaN
657	1.000000	0.590293	7.37148e+06	-44239.1	1005.82	-29776.4	0.000000	0.000000	6.590997	-0.026004	NaN	0.000000	0.001653	0.001686	28.0845	0.015984	0.001921	8.320068	172.978	-164.606	-0.012645	0.588982	-0.543226	-0.544537	-0.026004	8.320068	-0.540881	-1.269352E+7	2.048605E-9	NaN
657	1.000000	0.632307	7.37148e+06	-44239.1	1005.82	-29776.4	0.000000	0.000000	6.633010	-0.057318	NaN	0.000000	0.001655	0.001689	28.0832	0.004086	0.002029	2.013476	-94.7661	13.2339	-0.051501	0.630941	-0.501212	-0.502577	-0.057318	2.013476	-0.479861	-1.79302e+06	3.196731E-8	NaN
657	1.000000	0.674314	7.37148e+06	-44239.1	1005.82	-29776.4	0.000000	0.000000	6.675017	-0.039244	NaN	0.000000	0.001586	0.001724	28.0831	0.026047	0.002066	12.6057	-154.805	-166.328	-0.093843	0.672987	-0.459205	-0.460531	-0.039244	12.6057	-0.456870	-853143	4.599965E-8	NaN
657	1.000000	0.716348	7.37148e+06	-44239.1	1005.82	-29776.4	0.000000	0.000000	6.717053	0.018117	NaN	0.000000	0.001631	0.001716	28.0831	0.099554	0.001956	50.9068	52.1309	17.2794	-0.021132	0.715010	-0.417171	-0.418509	0.018117	50.9068	-0.417438	-236628	-7.656304E-8	NaN
657	1.000000	0.758346	7.37148e+06	-44239.1	1005.82	-29776.4	0.000000	0.000000	6.759047	-0.092682	NaN	0.000000	0.001615	0.001671	28.0843	0.078589	0.001869	42.0401	90.1181	-163.273	-0.103378	0.756992	-0.375173	-0.376527	-0.092682	42.0401	-0.373520	-55819.4	1.660400E-6	NaN
657	1.000000	0.800341	7.37148e+06	-44239.1	1005.82	-29776.4	0.000000	0.000000	6.801049	0.073389	NaN	0.000000	0.001602	0.001681	28.0844	0.104375	0.001908	54.6936	139.81	18.9153	0.022750	0.798997	-0.333178	-0.334521	0.073389	54.6936	-0.334184	-15019.9	-4.886165E-6	NaN
657	1.000000	0.842378	7.37148e+06	-44239.1	1005.82	-29776.4	0.000000	0.000000	6.843085	0.055804	NaN	0.000000	0.001578	0.001738	28.0851	0.019220	0.002055	9.351549	-64.7943	-166.099	0.092323	0.841103	-0.291141	-0.292415	0.055804	9.351549	-0.295617	-4048.5	-1.378395E-5	NaN
657	1.000000	0.884397	7.37148e+06	-44239.1	1005.82	-29776.4	0.000000	0.000000	6.885104	0.029705	NaN	0.000000	0.001604	0.001741	28.084	0.063617	0.002028	31.3622	32.0039	13.2577	-0.057171	0.882981	-0.249121	-0.250538	0.029705	31.3622	-0.249832	-817.264	-3.634626E-5	NaN
657	1.000000	0.926406	7.37148e+06	-44239.1	1005.82	-29776.4	0.000000	0.000000	6.927109	-0.055426	NaN	0.000000	0.001592	0.001685	28.083	0.034781	0.002051	16.9585	120.143	-165.885	-0.032296	0.925109	-0.207112	-0.208410	-0.055426	16.9585	-0.204661	-157.047	0.000353	NaN
657	1.000000	0.968409	7.37148e+06	-44239.1	1005.82	-29776.4	0.000000	0.000000	6.969114	0.011037	NaN	0.000000	0.001582	0.001688	28.083	0.088361	0.002012	43.9165	-127.366	16.0628	-0.050210	0.967076	-0.165110	-0.166443	0.011037	43.9165	-0.165298	-34.0051	-0.000325	NaN
657	1.000000	1.010428	7.37148e+06	-44239.1	1005.82	-29776.4	0.000000	0.000000	7.011134	0.037244	NaN	0.000000	0.001617	0.001692	28.0834	0.026043	0.001883	13.8286	-171.76	-163.926	0.041821	1.009144	-0.123091	-0.124374	0.037244	13.8286	-0.125111	-6.112067	-0.006094	NaN
657	1.000000	1.052444	7.37148e+06	-44239.1	1005.82	-29776.4	0.000000	0.000000	7.053149	-0.002248	NaN	0.000000	0.001583	0.001704	28.0845	0.026531	0.002021	13.1302	106.233	18.9226	-0.021955	1.051126	-0.081074	-0.082393	-0.002248	13.1302	-0.080946	-0.653526	0.003440	NaN
657	1.000000	1.094486	7.37148e+06	-44239.1	1005.82	-29776.4	0.000000	0.000000	7.095187	-0.083892	NaN	0.000000	0.001626	0.001651	28.0846	0.122526	0.001986	61.6842	130.816	-167.22	-0.024915	1.093182	-0.039033	-0.040336	-0.083892	61.6842	-0.038013	-0.039378	2.130438	NaN
657	1.000000	1.136454	7.37148e+06	-44239.1	1005.82	-29776.4	0.000000	0.000000	7.137366	5.048658	NaN	0.000000	0.001627	0.001694	28.0848	5.478913	0.001736	3156.67	9.230661	12.4768	3.634165	1.135084	0.002935	0.001565	5.048658	3156.67	0.001735	0.001342	3762.34	78730.7
657	2.000000	1.150000	7.37148e+06	-44239.1	1005.82	-29776.4	0.000000	0.000000	7.151637	22.6679	NaN	0.000000	0.001551	0.001685	28.0833	18.8512	0.001823	10340.9	9.568828	179.727	22.0971	1.149673	0.016482	0.016154	22.6679	10340.9	0.014838	0.015069	1504.22	76963.3
657	2.000000	1.160500	7.37148e+06	-44239.1	1005.82	-29776.4	0.000000	0.000000	7.163230	49.2544	NaN	0.000000	0.001593	0.001720	28.0831	29.8066	0.001762	16918.3	3.994456	1.073377	47.8438	1.160083	0.026982	0.026565	49.2544	16918.3	0.024798	0.030650	1607.02	88291.2
657	2.000000	1.171039	7.37148e+06	-44239.1	1005.82	-29776.4	0.000000	0.000000	7.175243	85.1193	NaN	0.000000	0.001599	0.001700	28.0835	40.2031	0.001830	21965.2	9.610851	175.026	87.1649	1.170574	0.037520	0.037056	85.1193	21965.2	0.034614	0.050850	1673.92	88994.2
657	2.000000	1.181351	7.37148e+06	-44239.1	1005.82	-29776.4	0.000000	0.000000	7.187454	131.327	NaN	0.000000	0.001621	0.001735	28.0848	49.1128	0.001721	28543.2	3.114540	-2.172305	125.646	1.181039	0.047832	0.047521	131.327	28543.2	0.044382	0.075842	1731.59	94693.9
657	2.000000	1.192038	7.37148e+06	-44239.1	1005.82	-29776.4	0.000000	0.000000	7.200369	185.523	NaN	0.000000	0.001581	0.001706	28.0845	60.7786	0.001674	36316.2	5.082358	174.899	187.251	1.191466	0.058519	0.057947	185.523	36316.2	0.054688	0.107452	1726.56	101220
657	2.000000	1.202438	7.37148e+06	-44239.1	1005.82	-29776.4	0.000000	0.000000	7.213130	242.964	NaN	0.000000	0.001582	0.001714	28.0846	71.0358	0.001769	40161.1	0.338032	-2.511945	240.174	1.202156	0.068919	0.068637	242.964	40161.1	0.064382	0.141989	1711.15	97375.9
657	2.000000	1.212805	7.37148e+06	-44239.1	1005.82	-29776.4	0.000000	0.000000	7.226854	324.622	NaN	0.000000	0.001676	0.001701	28.0845	80.6933	0.001793	44995.8	5.787914	171.588	318.739	1.212484	0.079287	0.078965	324.622	44995.8	0.073876	0.180211	1801.34	96840.1
657	2.000000	1.223390	7.37148e+06	-44239.1	1005.82	-29776.4	0.000000	0.000000	7.240844	407.47	NaN	0.000000	0.001672	0.001674	28.0833	92.6612	0.001816	51019.8	3.919384	-8.348765	403.437	1.223056	0.089872	0.089537	407.47	51019.8	0.083882	0.225096	1810.21	98248.9
657	2.000000	1.233772	7.37148e+06	-44239.1	1005.82	-29776.4	0.000000	0.000000	7.254754	493.303	NaN	0.000000	0.001634	0.001656	28.0833	101.523	0.001802	56338.4	5.195446	170.16	488.347	1.233592	0.100254	0.100073	493.303	56338.4	0.093687	0.273576	1803.17	98409.9
657	2.000000	1.238943	7.37148e+06	-44239.1	1005.82	-29776.4	0.000000	0.000000	7.261810	539.175	NaN	0.000000	0.001585	0.001641	28.0834	106.463	0.001756	60615.6	5.522554	169.628	542.101	1.238564	0.105424	0.105045	539.175	60615.6	0.098753	0.300349	1795.16	101052