File: remote_trans/data/nanoindenter/0828-1/data/Data_2025-08-06,11h17m57s/2025-07-22_16-23-58_1_1083.txt
2025-07-22, 16:23:58, 1
Index	Phase	Displacement	Time	Pos X	Pos Y	Pos Z	Rot A	Rot B	Piezo Z	Force A	Force B	Gripper	Voltage A	Voltage B	Temperature	Amplitude force	Amplitude pos	Stiffness	Phase shift	Phase excitation	Force A raw	Displacement raw	HMax	HMax raw	Real Force	Real Stiffness	Contact Depth	Area	Hardness	Reduced Mod.
[#]	[#]	[um]	[s]	[um]	[um]	[um]	[m°]	[m°]	[um]	[uN]	[uN]	[V]	[V]	[V]	[°C]	[uN]	[um]	[N/m]	[°]	[°]	[uN]	[um]	[um]	[um]	[uN]	[N/m]	[um]	[um^2]	[MPa]	[MPa]
1083	1.000000	0.002295	7.37564e+06	-54289.1	1055.82	-29743.4	0.000000	0.000000	6.002778	0.016151	NaN	0.000000	0.001580	0.001671	28.0808	0.038970	0.000927	42.0524	-16.2986	-167.607	0.041677	0.001048	-1.711778	-1.713025	0.016151	42.0524	-1.712066	-7.357290E+22	-2.195303E-25	NaN
1083	1.000000	0.060262	7.37564e+06	-54289.1	1055.82	-29743.3	0.000000	0.000000	6.060746	0.047326	NaN	0.000000	0.001601	0.001686	28.0808	0.080566	0.002007	40.1388	-9.301790	15.5905	-0.040717	0.058917	-1.653811	-1.655156	0.047326	40.1388	-1.654695	-1.271859E+22	-3.720994E-24	NaN
1083	1.000000	0.118310	7.37564e+06	-54289.1	1055.82	-29743.3	0.000000	0.000000	6.118794	0.065988	NaN	0.000000	0.001606	0.001691	28.0826	0.063296	0.002037	31.0715	133.43	-164.122	0.080274	0.116986	-1.595764	-1.597088	0.065988	31.0715	-1.597356	-2.198183E+21	-3.001923E-23	NaN
1083	1.000000	0.176332	7.37564e+06	-54289.1	1055.82	-29743.3	0.000000	0.000000	6.176817	0.061902	NaN	0.000000	0.001589	0.001677	28.0818	0.061109	0.001957	31.2231	111.346	15.4718	0.065083	0.174968	-1.537741	-1.539105	0.061902	31.2231	-1.539228	-3.703549E+20	-1.671432E-22	NaN
1083	1.000000	0.234364	7.37564e+06	-54289.1	1055.82	-29743.3	0.000000	0.000000	6.234847	0.023718	NaN	0.000000	0.001589	0.001712	28.0806	0.034198	0.002003	17.0696	-159.694	-164.599	-0.098562	0.233039	-1.479709	-1.481035	0.023718	17.0696	-1.480751	-6.164788E+19	-3.847407E-22	NaN
1083	1.000000	0.292373	7.37564e+06	-54289.1	1055.82	-29743.3	0.000000	0.000000	6.292853	-0.038233	NaN	0.000000	0.001597	0.001709	28.0805	0.092376	0.001979	46.6696	-151.114	15.0242	-0.097242	0.290978	-1.421701	-1.423096	-0.038233	46.6696	-1.421086	-9.878407E+18	3.870337E-21	NaN
1083	1.000000	0.350381	7.37564e+06	-54289.1	1055.82	-29743.3	0.000000	0.000000	6.350866	0.070571	NaN	0.000000	0.001619	0.001713	28.0818	0.083166	0.001922	43.2664	-76.3158	-164.184	0.127471	0.349122	-1.363692	-1.364951	0.070571	43.2664	-1.364915	-1.759270E+18	-4.011390E-20	NaN
1083	1.000000	0.408412	7.37565e+06	-54289.1	1055.82	-29743.3	0.000000	0.000000	6.408898	0.108463	NaN	0.000000	0.001534	0.001683	28.082	0.067086	0.002032	33.023	134.248	15.2267	0.095438	0.407022	-1.305661	-1.307051	0.108463	33.023	-1.308125	-3.068712E+17	-3.534486E-19	NaN
1083	1.000000	0.466434	7.37565e+06	-54289.1	1055.82	-29743.3	0.000000	0.000000	6.466919	0.072415	NaN	0.000000	0.001592	0.001669	28.0818	0.075948	0.001924	39.48	18.2541	-166.3	0.087233	0.465131	-1.247639	-1.248942	0.072415	39.48	-1.249015	-4.974388E+16	-1.455750E-18	NaN
1083	1.000000	0.524457	7.37565e+06	-54289.1	1055.82	-29743.3	0.000000	0.000000	6.524941	0.065488	NaN	0.000000	0.001651	0.001724	28.0807	0.013201	0.001991	6.629699	-107.058	13.3608	0.167627	0.523071	-1.189617	-1.191002	0.065488	6.629699	-1.197025	-1.002097E+16	-6.535108E-18	NaN
1083	1.000000	0.582475	7.37565e+06	-54289.1	1055.82	-29743.3	0.000000	0.000000	6.582958	0.023918	NaN	0.000000	0.001573	0.001724	28.0807	0.075920	0.002023	37.537	-12.4287	-165.333	0.016856	0.581185	-1.131598	-1.132888	0.023918	37.537	-1.132076	-1.350418E+15	-1.771121E-17	NaN
1083	1.000000	0.640507	7.37565e+06	-54289.1	1055.82	-29743.3	0.000000	0.000000	6.640992	0.080506	NaN	0.000000	0.001572	0.001726	28.0816	0.036182	0.002001	18.0844	-100.493	15.397	0.119765	0.639159	-1.073566	-1.074915	0.080506	18.0844	-1.076905	-2.454424E+14	-3.280018E-16	NaN
1083	1.000000	0.698540	7.37565e+06	-54289.1	1055.82	-29743.3	0.000000	0.000000	6.699025	0.074400	NaN	0.000000	0.001570	0.001776	28.082	0.070665	0.001911	36.9756	-19.6804	-164.862	-0.074192	0.697237	-1.015534	-1.016836	0.074400	36.9756	-1.017043	-3.847343E+13	-1.933808E-15	NaN
1083	1.000000	0.756539	7.37565e+06	-54289.1	1055.82	-29743.3	0.000000	0.000000	6.757021	-0.015640	NaN	0.000000	0.001579	0.001746	28.0804	0.142996	0.001882	75.9751	43.8909	14.6267	-0.022203	0.755193	-0.957534	-0.958880	-0.015640	75.9751	-0.957379	-6.046961E+12	2.586351E-15	NaN
1083	1.000000	0.814609	7.37565e+06	-54289.1	1055.82	-29743.3	0.000000	0.000000	6.815094	0.085717	NaN	0.000000	0.001567	0.001680	28.0803	0.016531	0.001870	8.839893	90.2188	-165.79	0.041003	0.813294	-0.899464	-0.900779	0.085717	8.839893	-0.906737	-1.253389E+12	-6.838786E-14	NaN
1083	1.000000	0.872603	7.37565e+06	-54289.1	1055.82	-29743.3	0.000000	0.000000	6.873085	0.013595	NaN	0.000000	0.001596	0.001696	28.0806	0.094283	0.001995	47.2502	99.1706	15.3215	-0.024257	0.871238	-0.841470	-0.842836	0.013595	47.2502	-0.841686	-1.652474E+11	-8.226911E-14	NaN
1083	1.000000	0.930626	7.37565e+06	-54289.1	1055.82	-29743.3	0.000000	0.000000	6.931106	-0.046834	NaN	0.000000	0.001544	0.001702	28.0821	0.032406	0.002099	15.4409	-97.1166	-164.087	-0.014137	0.929316	-0.783447	-0.784757	-0.046834	15.4409	-0.781172	-2.495523E+10	1.876731E-12	NaN
1083	1.000000	0.988623	7.37565e+06	-54289.1	1055.82	-29743.3	0.000000	0.000000	6.989103	-0.039754	NaN	0.000000	0.001594	0.001696	28.0819	0.043098	0.002046	21.0599	-106.006	17.9831	-0.023371	0.987268	-0.725451	-0.726805	-0.039754	21.0599	-0.724035	-4.163837E+9	9.547395E-12	NaN
1083	1.000000	1.046658	7.37565e+06	-54289.1	1055.82	-29743.3	0.000000	0.000000	7.047140	-0.004592	NaN	0.000000	0.001591	0.001688	28.0807	0.027290	0.001916	14.2424	113.187	-165.144	-0.040257	1.045411	-0.667415	-0.668662	-0.004592	14.2424	-0.667173	-6.961460E+8	6.596658E-12	NaN
1083	1.000000	1.104685	7.37565e+06	-54289.1	1055.82	-29743.3	0.000000	0.000000	7.105166	-0.006358	NaN	0.000000	0.001574	0.001719	28.0806	0.111202	0.001948	57.0732	152.17	15.1982	-0.000422	1.103326	-0.609388	-0.610748	-0.006358	57.0732	-0.609305	-1.118281E+8	5.685271E-11	NaN
1083	1.000000	1.162710	7.37565e+06	-54289.1	1055.82	-29743.3	0.000000	0.000000	7.163195	0.067123	NaN	0.000000	0.001535	0.001715	28.0819	0.023115	0.002001	11.553	-115.39	-167.146	0.032644	1.161400	-0.551363	-0.552673	0.067123	11.553	-0.555721	-2.037807E+7	-3.293901E-9	NaN
1083	1.000000	1.220745	7.37565e+06	-54289.1	1055.82	-29743.3	0.000000	0.000000	7.221224	-0.066932	NaN	0.000000	0.001615	0.001710	28.0818	0.064880	0.002081	31.1821	123.83	18.8473	-0.120435	1.219413	-0.493329	-0.494661	-0.066932	31.1821	-0.491719	-2.62669e+06	2.548152E-8	NaN
1083	1.000000	1.278798	7.37565e+06	-54289.1	1055.82	-29743.3	0.000000	0.000000	7.279284	0.105091	NaN	0.000000	0.001557	0.001680	28.0818	0.091584	0.001960	46.7307	-138.267	-165.861	0.047987	1.277467	-0.435275	-0.436607	0.105091	46.7307	-0.436962	-447164	-2.350166E-7	NaN
1083	1.000000	1.336794	7.37565e+06	-54289.1	1055.82	-29743.3	0.000000	0.000000	7.337277	0.027746	NaN	0.000000	0.001655	0.001665	28.0805	0.058499	0.001953	29.961	-24.0676	19.2788	0.038827	1.335453	-0.377279	-0.378620	0.027746	29.961	-0.377974	-64684.4	-4.289501E-7	NaN
1083	1.000000	1.394832	7.37565e+06	-54289.1	1055.82	-29743.3	0.000000	0.000000	7.395315	0.034435	NaN	0.000000	0.001599	0.001696	28.0807	0.024692	0.002074	11.9074	-30.5635	-166.041	0.012022	1.393512	-0.319242	-0.320561	0.034435	11.9074	-0.321410	-9758.69	-3.528656E-6	NaN
1083	1.000000	1.452856	7.37565e+06	-54289.1	1055.82	-29743.3	0.000000	0.000000	7.453339	0.019248	NaN	0.000000	0.001610	0.001678	28.0818	0.067694	0.002021	33.4974	132.263	16.7509	-0.009232	1.451490	-0.261217	-0.262584	0.019248	33.4974	-0.261648	-1242.1	-1.549662E-5	NaN
1083	1.000000	1.510889	7.37565e+06	-54289.1	1055.82	-29743.3	0.000000	0.000000	7.511373	0.034220	NaN	0.000000	0.001609	0.001668	28.0815	0.009914	0.002023	4.901866	43.7306	-165.867	-0.004625	1.509558	-0.203184	-0.204515	0.034220	4.901866	-0.208420	-180.8	-0.000189	NaN
1083	1.000000	1.568911	7.37565e+06	-54289.1	1055.82	-29743.3	0.000000	0.000000	7.569396	0.073306	NaN	0.000000	0.001555	0.001732	28.0816	0.120933	0.002002	60.3984	-95.2664	13.7998	0.006340	1.567554	-0.145162	-0.146519	0.073306	60.3984	-0.146073	-15.3455	-0.004777	NaN
1083	1.000000	1.626932	7.37565e+06	-54289.1	1055.82	-29743.3	0.000000	0.000000	7.627412	-0.054226	NaN	0.000000	0.001569	0.001675	28.0807	0.152624	0.002005	76.1341	148.006	-166.982	0.000253	1.625654	-0.087141	-0.088419	-0.054226	76.1341	-0.086607	-0.898189	0.060373	NaN
1083	1.000000	1.684969	7.37565e+06	-54289.1	1055.82	-29743.3	0.000000	0.000000	7.685454	0.057772	NaN	0.000000	0.001525	0.001751	28.0807	0.038691	0.002015	19.1996	-108.53	18.054	0.076800	1.683598	-0.029104	-0.030475	0.057772	19.1996	-0.031361	-0.025131	-2.298835	NaN
1083	2.000000	1.727588	7.37565e+06	-54289.1	1055.82	-29743.3	0.000000	0.000000	7.728635	13.7475	NaN	0.000000	0.001564	0.001780	28.0817	13.072	0.001689	7741.04	2.479984	-170.862	13.4932	1.727209	0.013514	0.013136	13.7475	7741.04	0.012182	0.011709	1174.06	65359.1
1083	2.000000	1.742034	7.37565e+06	-54289.1	1055.82	-29743.3	0.000000	0.000000	7.744083	38.0892	NaN	0.000000	0.001553	0.001717	28.0819	27.2642	0.001787	15260.2	4.684131	1.646209	37.5138	1.741722	0.027961	0.027649	38.0892	15260.2	0.026089	0.033027	1153.27	76718.5
1083	2.000000	1.756462	7.37565e+06	-54289.1	1055.82	-29743.3	0.000000	0.000000	7.760333	82.3936	NaN	0.000000	0.001545	0.001744	28.0809	40.7272	0.001655	24612.7	5.509331	177.606	81.4751	1.756101	0.042389	0.042028	82.3936	24612.7	0.039878	0.063714	1293.17	89086.9
1083	2.000000	1.770999	7.37565e+06	-54289.1	1055.82	-29743.3	0.000000	0.000000	7.777336	142.333	NaN	0.000000	0.001555	0.001733	28.0806	54.2052	0.001772	30591.2	5.868737	-4.425261	142.355	1.770644	0.056926	0.056570	142.333	30591.2	0.053437	0.103331	1377.45	86946.9
1083	2.000000	1.785453	7.37565e+06	-54289.1	1055.82	-29743.3	0.000000	0.000000	7.794729	213.79	NaN	0.000000	0.001539	0.001736	28.0806	67.9198	0.001865	36409.5	5.601733	173.874	214.751	1.785165	0.071379	0.071092	213.79	36409.5	0.066976	0.152003	1406.49	85322.1
1083	2.000000	1.799978	7.37565e+06	-54289.1	1055.82	-29743.3	0.000000	0.000000	7.812861	301.493	NaN	0.000000	0.001546	0.001742	28.0817	79.0445	0.001878	42091.5	5.995089	-6.562230	303.931	1.799488	0.085904	0.085415	301.493	42091.5	0.080532	0.209551	1438.76	84008.4
1083	2.000000	1.814441	7.37565e+06	-54289.1	1055.82	-29743.3	0.000000	0.000000	7.831150	394.51	NaN	0.000000	0.001583	0.001759	28.0821	90.2634	0.001696	53220.3	3.518628	172.78	393.445	1.814154	0.100368	0.100081	394.51	53220.3	0.094808	0.279401	1411.98	91989.2
1083	2.000000	1.820823	7.37565e+06	-54289.1	1055.82	-29743.3	0.000000	0.000000	7.839668	446.422	NaN	0.000000	0.001599	0.001731	28.0811	95.9296	0.001780	53886	1.935866	-4.829885	439.772	1.820374	0.106750	0.106301	446.422	53886	0.100536	0.310053	1439.83	88416.1