File: remote_trans/data/nanoindenter/0828-1/data/Data_2025-08-06,11h17m57s/2025-07-22_16-23-58_1_64.txt
2025-07-22, 16:23:58, 1
Index	Phase	Displacement	Time	Pos X	Pos Y	Pos Z	Rot A	Rot B	Piezo Z	Force A	Force B	Gripper	Voltage A	Voltage B	Temperature	Amplitude force	Amplitude pos	Stiffness	Phase shift	Phase excitation	Force A raw	Displacement raw	HMax	HMax raw	Real Force	Real Stiffness	Contact Depth	Area	Hardness	Reduced Mod.
[#]	[#]	[um]	[s]	[um]	[um]	[um]	[m°]	[m°]	[um]	[uN]	[uN]	[V]	[V]	[V]	[°C]	[uN]	[um]	[N/m]	[°]	[°]	[uN]	[um]	[um]	[um]	[uN]	[N/m]	[um]	[um^2]	[MPa]	[MPa]
64	1.000000	0.002617	7.36567e+06	-41839.1	955.818	-29785.5	0.000000	0.000000	6.002796	-0.026470	NaN	0.000000	0.001571	0.001651	28.0877	0.189274	0.000888	213.127	-135.096	-171.054	0.045445	0.001420	-1.076549	-1.077746	-0.026470	213.127	-1.076456	-2.420566E+14	1.093546E-16	NaN
64	1.000000	0.042589	7.36567e+06	-41839.1	955.818	-29785.5	0.000000	0.000000	6.042767	-0.063696	NaN	0.000000	0.001570	0.001664	28.0872	0.034522	0.001934	17.8489	-100.59	-167.616	0.006272	0.041233	-1.036577	-1.037933	-0.063696	17.8489	-1.033900	-6.485394E+13	9.821517E-16	NaN
64	1.000000	0.082598	7.36567e+06	-41839.1	955.818	-29785.5	0.000000	0.000000	6.082773	-0.137684	NaN	0.000000	0.001560	0.001685	28.0886	0.086359	0.002121	40.7102	-69.743	-164.772	-0.100677	0.081260	-0.996567	-0.997906	-0.137684	40.7102	-0.994031	-1.885365E+13	7.302801E-15	NaN
64	1.000000	0.122585	7.36567e+06	-41839.1	955.818	-29785.5	0.000000	0.000000	6.122766	0.009042	NaN	0.000000	0.001585	0.001657	28.0881	0.070381	0.002078	33.8742	-31.3229	-163.587	0.019323	0.121310	-0.956581	-0.957855	0.009042	33.8742	-0.956781	-5.935726E+12	-1.523371E-15	NaN
64	1.000000	0.162592	7.36567e+06	-41839.1	955.818	-29785.5	0.000000	0.000000	6.162771	-0.053945	NaN	0.000000	0.001591	0.001672	28.0876	0.076659	0.002082	36.8185	-138.923	-166.739	0.023650	0.161311	-0.916574	-0.917855	-0.053945	36.8185	-0.915475	-1.644767E+12	3.279818E-14	NaN
64	1.000000	0.202630	7.36567e+06	-41839.1	955.819	-29785.5	0.000000	0.000000	6.202809	-0.043799	NaN	0.000000	0.001547	0.001630	28.0869	0.059163	0.002012	29.4052	-134.065	-165.849	-0.066813	0.201291	-0.876535	-0.877875	-0.043799	29.4052	-0.875418	-4.728686E+11	9.262434E-14	NaN
64	1.000000	0.242654	7.36567e+06	-41839.1	955.818	-29785.5	0.000000	0.000000	6.242834	-0.035460	NaN	0.000000	0.001634	0.001648	28.087	0.019305	0.002095	9.213649	-90.8336	-162.558	-0.102615	0.241368	-0.836511	-0.837797	-0.035460	9.213649	-0.833625	-1.285019E+11	2.759496E-13	NaN
64	1.000000	0.282673	7.36567e+06	-41839.1	955.818	-29785.5	0.000000	0.000000	6.282850	-0.090651	NaN	0.000000	0.001606	0.001668	28.0873	0.023891	0.001970	12.1291	-141.671	-166.899	-0.037178	0.281356	-0.796493	-0.797810	-0.090651	12.1291	-0.790888	-3.381734E+10	2.680607E-12	NaN
64	1.000000	0.322692	7.36567e+06	-41839.1	955.818	-29785.5	0.000000	0.000000	6.322871	-0.029847	NaN	0.000000	0.001597	0.001623	28.0887	0.087950	0.001942	45.2841	77.8573	-168.479	-0.088210	0.321339	-0.756474	-0.757827	-0.029847	45.2841	-0.755980	-1.133967E+10	2.632092E-12	NaN
64	1.000000	0.362716	7.36567e+06	-41839.1	955.818	-29785.5	0.000000	0.000000	6.362893	-0.083669	NaN	0.000000	0.001548	0.001598	28.0875	0.056665	0.002034	27.852	-75.4996	-166.176	-0.114381	0.361406	-0.716450	-0.717760	-0.083669	27.852	-0.714197	-3.057115E+9	2.736877E-11	NaN
64	1.000000	0.402739	7.36567e+06	-41839.1	955.818	-29785.5	0.000000	0.000000	6.402917	-0.064374	NaN	0.000000	0.001586	0.001620	28.0881	0.009096	0.001998	4.553173	-90.6354	-167.223	-0.162254	0.401447	-0.676427	-0.677719	-0.064374	4.553173	-0.665823	-6.671313E+8	9.649357E-11	NaN
64	1.000000	0.442723	7.36567e+06	-41839.1	955.818	-29785.5	0.000000	0.000000	6.442901	-0.070856	NaN	0.000000	0.001581	0.001631	28.0869	0.026777	0.002057	13.0152	-85.1919	-169.856	-0.038912	0.441470	-0.636443	-0.637696	-0.070856	13.0152	-0.632360	-2.319667E+8	3.054571E-10	NaN
64	1.000000	0.482746	7.36567e+06	-41839.1	955.819	-29785.5	0.000000	0.000000	6.482923	-0.090565	NaN	0.000000	0.001597	0.001635	28.0876	0.128259	0.001956	65.5865	-58.0903	-166.235	-0.057373	0.481460	-0.596420	-0.597706	-0.090565	65.5865	-0.595384	-7.192408E+7	1.259168E-9	NaN
64	1.000000	0.522779	7.36567e+06	-41839.1	955.817	-29785.5	0.000000	0.000000	6.522959	-0.017316	NaN	0.000000	0.001575	0.001654	28.0865	0.057254	0.001919	29.835	131.104	-166.39	-0.032738	0.521431	-0.556387	-0.557735	-0.017316	29.835	-0.555952	-2.052880E+7	8.434838E-10	NaN
64	1.000000	0.562764	7.36567e+06	-41839.1	955.818	-29785.5	0.000000	0.000000	6.562942	-0.068982	NaN	0.000000	0.001589	0.001660	28.088	0.141473	0.002022	69.9724	148.674	-166.147	-0.079135	0.561508	-0.516402	-0.517657	-0.068982	69.9724	-0.515662	-5.66563e+06	1.217558E-8	NaN
64	1.000000	0.602809	7.36567e+06	-41839.1	955.819	-29785.5	0.000000	0.000000	6.602989	-0.039080	NaN	0.000000	0.001608	0.001639	28.0868	0.122101	0.001994	61.2398	110.597	-163.829	-0.109342	0.601485	-0.476356	-0.477681	-0.039080	61.2398	-0.475878	-1.57688e+06	2.478322E-8	NaN
64	1.000000	0.642826	7.36567e+06	-41839.1	955.819	-29785.5	0.000000	0.000000	6.643005	-0.057462	NaN	0.000000	0.001645	0.001647	28.0893	0.027150	0.002036	13.3334	65.0877	-169.088	0.023036	0.641540	-0.436339	-0.437626	-0.057462	13.3334	-0.433107	-394457	1.456744E-7	NaN
64	1.000000	0.682824	7.36567e+06	-41839.1	955.818	-29785.5	0.000000	0.000000	6.683002	-0.058831	NaN	0.000000	0.001592	0.001636	28.087	0.017504	0.001924	9.095823	112.235	-164.976	-0.010973	0.681507	-0.396342	-0.397659	-0.058831	9.095823	-0.391491	-101039	5.822643E-7	NaN
64	1.000000	0.722852	7.36567e+06	-41839.1	955.818	-29785.5	0.000000	0.000000	6.723032	-0.016095	NaN	0.000000	0.001571	0.001665	28.0882	0.068591	0.002036	33.691	-140.537	-166.116	-0.007560	0.721609	-0.356314	-0.357557	-0.016095	33.691	-0.355956	-31141.2	5.168262E-7	NaN
64	1.000000	0.762855	7.36567e+06	-41839.1	955.818	-29785.5	0.000000	0.000000	6.763036	-0.015178	NaN	0.000000	0.001561	0.001660	28.0869	0.161076	0.002059	78.2317	102.036	-166.687	-0.041026	0.761588	-0.316310	-0.317577	-0.015178	78.2317	-0.316165	-8168.32	1.858197E-6	NaN
64	1.000000	0.802926	7.36567e+06	-41839.1	955.818	-29785.5	0.000000	0.000000	6.803104	-0.061407	NaN	0.000000	0.001573	0.001649	28.0884	0.083116	0.002022	41.1113	-158.173	-165.987	-0.015717	0.801537	-0.276240	-0.277628	-0.061407	41.1113	-0.275120	-1991.64	3.083233E-5	NaN
64	1.000000	0.842911	7.36567e+06	-41839.1	955.818	-29785.5	0.000000	0.000000	6.843089	-0.066675	NaN	0.000000	0.001614	0.001670	28.0884	0.085560	0.001990	42.9971	169.484	-166.585	-0.114559	0.841600	-0.236254	-0.237566	-0.066675	42.9971	-0.235091	-481.596	0.000138	NaN
64	1.000000	0.882942	7.36567e+06	-41839.1	955.819	-29785.5	0.000000	0.000000	6.883119	-0.099561	NaN	0.000000	0.001554	0.001614	28.0898	0.103226	0.001891	54.5911	-161.89	-167.008	-0.060947	0.881606	-0.196223	-0.197559	-0.099561	54.5911	-0.194856	-108.345	0.000919	NaN
64	1.000000	0.922960	7.36567e+06	-41839.1	955.818	-29785.5	0.000000	0.000000	6.923137	-0.102435	NaN	0.000000	0.001541	0.001688	28.089	0.094224	0.001988	47.3955	-119.903	-165.602	-0.104937	0.921618	-0.156206	-0.157548	-0.102435	47.3955	-0.154585	-21.9334	0.004670	NaN
64	1.000000	0.962961	7.36567e+06	-41839.1	955.819	-29785.5	0.000000	0.000000	6.963139	-0.072302	NaN	0.000000	0.001583	0.001632	28.0893	0.052609	0.002059	25.5529	158.101	-168.83	-0.114236	0.961668	-0.116205	-0.117498	-0.072302	25.5529	-0.114083	-3.657292	0.019769	NaN
64	1.000000	1.002978	7.36567e+06	-41839.1	955.818	-29785.5	0.000000	0.000000	7.003157	-0.034366	NaN	0.000000	0.001596	0.001625	28.0896	0.056809	0.002181	26.0418	162.692	-164.892	-0.101274	1.001647	-0.076188	-0.077519	-0.034366	26.0418	-0.075198	-0.467346	0.073535	NaN
64	1.000000	1.042976	7.36567e+06	-41839.1	955.817	-29785.5	0.000000	0.000000	7.043153	-0.095762	NaN	0.000000	0.001547	0.001640	28.0896	0.096243	0.001941	49.5927	-88.1632	-168.313	-0.075844	1.041672	-0.036190	-0.037494	-0.095762	49.5927	-0.034742	-0.031469	3.043032	NaN
64	1.000000	1.082943	7.36567e+06	-41839.1	955.818	-29785.5	0.000000	0.000000	7.083267	3.502664	NaN	0.000000	0.001614	0.001631	28.088	4.491843	0.001767	2542.6	9.243323	-169.117	2.007227	1.081685	0.003777	0.002519	3.502664	2542.6	0.002744	0.002165	1617.57	49921.1
64	2.000000	1.095565	7.36567e+06	-41839.1	955.818	-29785.5	0.000000	0.000000	7.096463	17.4591	NaN	0.000000	0.001628	0.001688	28.0907	16.2471	0.001700	9558.33	5.965963	-176.173	16.7249	1.095264	0.016399	0.016099	17.4591	9558.33	0.015029	0.015324	1139.32	70545.1
64	2.000000	1.105530	7.36567e+06	-41839.1	955.818	-29785.5	0.000000	0.000000	7.107359	40.0965	NaN	0.000000	0.001648	0.001651	28.0908	26.3392	0.001818	14490.7	6.419626	-179.268	39.6793	1.105303	0.026365	0.026137	40.0965	14490.7	0.024289	0.029736	1348.43	76775.5
64	2.000000	1.115522	7.36567e+06	-41839.1	955.818	-29785.5	0.000000	0.000000	7.118467	67.2374	NaN	0.000000	0.001640	0.001654	28.0908	36.5949	0.001902	19242.8	6.193666	178.107	66.2512	1.115192	0.036357	0.036027	67.2374	19242.8	0.033736	0.048844	1376.58	79549.4
64	2.000000	1.125455	7.36567e+06	-41839.1	955.818	-29785.5	0.000000	0.000000	7.129818	101.762	NaN	0.000000	0.001625	0.001615	28.089	45.092	0.001875	24055.2	2.923756	179.679	97.8708	1.125133	0.046289	0.045967	101.762	24055.2	0.043117	0.072330	1406.9	81718.8
64	2.000000	1.135535	7.36567e+06	-41839.1	955.819	-29785.5	0.000000	0.000000	7.141651	144.414	NaN	0.000000	0.001621	0.001632	28.0897	54.8397	0.001870	29323	3.643977	176.614	145.126	1.135232	0.056369	0.056066	144.414	29323	0.052675	0.100862	1431.8	84356.3
64	2.000000	1.145468	7.36567e+06	-41839.1	955.819	-29785.5	0.000000	0.000000	7.153667	195.09	NaN	0.000000	0.001567	0.001625	28.0892	64.0679	0.001869	34288.2	4.327020	175.228	194.411	1.145122	0.066302	0.065956	195.09	34288.2	0.062035	0.133207	1464.56	85832.9
64	2.000000	1.155412	7.36567e+06	-41839.1	955.819	-29785.5	0.000000	0.000000	7.165889	250.529	NaN	0.000000	0.001519	0.001649	28.0915	73.2343	0.001775	41257.7	3.406497	174.86	246.835	1.155106	0.076246	0.075940	250.529	41257.7	0.071692	0.171039	1464.75	91144.5
64	2.000000	1.165463	7.36567e+06	-41839.1	955.818	-29785.5	0.000000	0.000000	7.178552	314.061	NaN	0.000000	0.001544	0.001696	28.0906	81.1971	0.001871	43387	6.314871	171.538	313.465	1.165162	0.086298	0.085997	314.061	43387	0.080869	0.211089	1487.81	86278
64	2.000000	1.175410	7.36567e+06	-41839.1	955.819	-29785.5	0.000000	0.000000	7.191450	385.884	NaN	0.000000	0.001558	0.001647	28.0919	89.863	0.001741	51611.9	0.778840	175.742	382.93	1.175126	0.096245	0.095960	385.884	51611.9	0.090637	0.258025	1495.53	92830.7
64	2.000000	1.185004	7.36567e+06	-41839.1	955.818	-29785.5	0.000000	0.000000	7.203622	448.62	NaN	0.000000	0.001539	0.001703	28.1288	99.6294	0.001761	56576.7	4.792990	-8.006796	448.855	1.184645	0.105838	0.105480	448.62	56576.7	0.099891	0.306525	1463.57	93363.7