File: remote_trans/data/nanoindenter/0828-1/data/Data_2025-08-06,11h17m57s/2025-07-22_16-23-58_1_1085.txt
2025-07-22, 16:23:58, 1
Index	Phase	Displacement	Time	Pos X	Pos Y	Pos Z	Rot A	Rot B	Piezo Z	Force A	Force B	Gripper	Voltage A	Voltage B	Temperature	Amplitude force	Amplitude pos	Stiffness	Phase shift	Phase excitation	Force A raw	Displacement raw	HMax	HMax raw	Real Force	Real Stiffness	Contact Depth	Area	Hardness	Reduced Mod.
[#]	[#]	[um]	[s]	[um]	[um]	[um]	[m°]	[m°]	[um]	[uN]	[uN]	[V]	[V]	[V]	[°C]	[uN]	[um]	[N/m]	[°]	[°]	[uN]	[um]	[um]	[um]	[uN]	[N/m]	[um]	[um^2]	[MPa]	[MPa]
1085	1.000000	0.002263	7.37567e+06	-54389.1	1055.82	-29743.5	0.000000	0.000000	6.002778	-0.023436	NaN	0.000000	0.001556	0.001792	28.0826	0.061163	0.000939	65.1327	143.392	-157.372	0.099689	0.001015	-1.226301	-1.227550	-0.023436	65.1327	-1.226031	-2.450356E+16	9.564344E-19	NaN
1085	1.000000	0.048247	7.37567e+06	-54389.1	1055.82	-29743.5	0.000000	0.000000	6.048765	0.073639	NaN	0.000000	0.001548	0.001800	28.0828	0.020200	0.002114	9.554091	-30.4337	15.3299	0.123226	0.046919	-1.180318	-1.181646	0.073639	9.554091	-1.186098	-7.154280E+15	-1.029301E-17	NaN
1085	1.000000	0.094216	7.37567e+06	-54389.1	1055.82	-29743.5	0.000000	0.000000	6.094734	0.049344	NaN	0.000000	0.001594	0.001813	28.0819	0.035676	0.001997	17.8635	26.0383	-160.326	0.063605	0.092908	-1.134348	-1.135657	0.049344	17.8635	-1.136420	-1.544278E+15	-3.195289E-17	NaN
1085	1.000000	0.140280	7.37567e+06	-54389.1	1055.82	-29743.5	0.000000	0.000000	6.140795	-0.016971	NaN	0.000000	0.001575	0.001793	28.0814	0.040570	0.002067	19.6246	57.8247	12.4534	0.015480	0.138895	-1.088285	-1.089669	-0.016971	19.6246	-1.087636	-3.420337E+14	4.961735E-17	NaN
1085	1.000000	0.186282	7.37567e+06	-54389.1	1055.82	-29743.5	0.000000	0.000000	6.186798	0.015179	NaN	0.000000	0.001596	0.001799	28.0813	0.097528	0.002035	47.9336	157.635	-162.762	0.047008	0.185019	-1.042283	-1.043546	0.015179	47.9336	-1.042520	-8.469465E+13	-1.792255E-16	NaN
1085	1.000000	0.232291	7.37567e+06	-54389.1	1055.82	-29743.5	0.000000	0.000000	6.232807	0.017185	NaN	0.000000	0.001634	0.001784	28.0826	0.043145	0.001914	22.5362	2.685954	16.0958	0.033993	0.230975	-0.996273	-0.997590	0.017185	22.5362	-0.996845	-2.057266E+13	-8.353125E-16	NaN
1085	1.000000	0.278317	7.37567e+06	-54389.1	1055.82	-29743.5	0.000000	0.000000	6.278833	0.016833	NaN	0.000000	0.001498	0.001810	28.0827	0.095168	0.001900	50.0971	-171.952	-162.371	0.079745	0.277008	-0.950247	-0.951557	0.016833	50.0971	-0.950499	-4.883855E+12	-3.446588E-15	NaN
1085	1.000000	0.324347	7.37567e+06	-54389.1	1055.82	-29743.5	0.000000	0.000000	6.324865	0.058862	NaN	0.000000	0.001492	0.001791	28.0825	0.083452	0.002112	39.5146	1.469973	17.1846	0.056782	0.323044	-0.904218	-0.905521	0.058862	39.5146	-0.905335	-1.199904E+12	-4.905589E-14	NaN
1085	1.000000	0.370375	7.37567e+06	-54389.1	1055.82	-29743.5	0.000000	0.000000	6.370891	0.024740	NaN	0.000000	0.001556	0.001821	28.0814	0.156322	0.002160	72.3629	-167.824	-163.536	-0.031522	0.369057	-0.858190	-0.859507	0.024740	72.3629	-0.858446	-2.786699E+11	-8.877916E-14	NaN
1085	1.000000	0.416416	7.37567e+06	-54389.1	1055.82	-29743.5	0.000000	0.000000	6.416931	0.012653	NaN	0.000000	0.001561	0.001826	28.0814	0.024345	0.001927	12.6326	56.6857	16.6437	0.011637	0.415073	-0.812149	-0.813492	0.012653	12.6326	-0.812900	-6.728473E+10	-1.880541E-13	NaN
1085	1.000000	0.462387	7.37567e+06	-54389.1	1055.82	-29743.5	0.000000	0.000000	6.462906	0.080588	NaN	0.000000	0.001525	0.001845	28.0813	0.034854	0.002085	16.715	27.5064	-165.788	0.035799	0.461136	-0.766178	-0.767429	0.080588	16.715	-0.769794	-1.747825E+10	-4.610751E-12	NaN
1085	1.000000	0.508454	7.37567e+06	-54389.1	1055.82	-29743.5	0.000000	0.000000	6.508971	0.045790	NaN	0.000000	0.001535	0.001836	28.0828	0.036296	0.001902	19.0838	2.032465	16.4169	0.017751	0.507054	-0.720111	-0.721510	0.045790	19.0838	-0.721910	-3.895121E+9	-1.175562E-11	NaN
1085	1.000000	0.554449	7.37567e+06	-54389.1	1055.82	-29743.5	0.000000	0.000000	6.554967	0.065330	NaN	0.000000	0.001570	0.001784	28.0826	0.049661	0.001973	25.1688	-134.198	-166.161	0.014196	0.553074	-0.674115	-0.675490	0.065330	25.1688	-0.676062	-9.211687E+8	-7.092101E-11	NaN
1085	1.000000	0.600456	7.37567e+06	-54389.1	1055.82	-29743.5	0.000000	0.000000	6.600971	-0.019687	NaN	0.000000	0.001601	0.001778	28.0827	0.084089	0.002049	41.0437	121.221	14.0709	-0.054855	0.599023	-0.628109	-0.629542	-0.019687	41.0437	-0.627749	-2.004962E+8	9.819128E-11	NaN
1085	1.000000	0.646441	7.37567e+06	-54389.1	1055.82	-29743.5	0.000000	0.000000	6.646959	0.051234	NaN	0.000000	0.001616	0.001791	28.0815	0.023261	0.001989	11.6932	-15.8793	-164.563	-0.020776	0.645128	-0.582123	-0.583436	0.051234	11.6932	-0.585409	-5.240354E+7	-9.776850E-10	NaN
1085	1.000000	0.692497	7.37567e+06	-54389.1	1055.82	-29743.5	0.000000	0.000000	6.693011	-0.055453	NaN	0.000000	0.001566	0.001867	28.0813	0.111717	0.002087	53.5286	-121.335	14.9181	-0.062040	0.691133	-0.536067	-0.537432	-0.055453	53.5286	-0.535290	-1.061735E+7	5.222867E-9	NaN
1085	1.000000	0.738524	7.37567e+06	-54389.1	1055.82	-29743.5	0.000000	0.000000	6.739039	-0.014056	NaN	0.000000	0.001596	0.001854	28.0814	0.088092	0.001937	45.4778	-64.0068	-162.268	-0.053248	0.737217	-0.490041	-0.491347	-0.014056	45.4778	-0.489809	-2.47013e+06	5.690441E-9	NaN
1085	1.000000	0.784543	7.37567e+06	-54389.1	1055.82	-29743.5	0.000000	0.000000	6.785058	-0.010003	NaN	0.000000	0.001577	0.001771	28.0827	0.078295	0.002098	37.3208	-27.8864	10.6528	0.027408	0.783174	-0.444021	-0.445390	-0.010003	37.3208	-0.443820	-558806	1.790064E-8	NaN
1085	1.000000	0.830551	7.37567e+06	-54389.1	1055.82	-29743.5	0.000000	0.000000	6.831068	0.028949	NaN	0.000000	0.001579	0.001799	28.0825	0.099783	0.002102	47.461	134.181	-168.474	0.087348	0.829238	-0.398013	-0.399326	0.028949	47.461	-0.398471	-127109	-2.277478E-7	NaN
1085	1.000000	0.876589	7.37567e+06	-54389.1	1055.82	-29743.5	0.000000	0.000000	6.877103	-0.030873	NaN	0.000000	0.001599	0.001824	28.0826	0.089145	0.002116	42.1238	122.745	12.725	-0.032498	0.875190	-0.351975	-0.353374	-0.030873	42.1238	-0.351426	-26772.6	1.153148E-6	NaN
1085	1.000000	0.922619	7.37567e+06	-54389.1	1055.82	-29743.5	0.000000	0.000000	6.923134	-0.011432	NaN	0.000000	0.001620	0.001818	28.0812	0.027616	0.001972	14.0037	-26.4055	-168.477	-0.009479	0.921312	-0.305945	-0.307253	-0.011432	14.0037	-0.305333	-5648.07	2.024010E-6	NaN
1085	1.000000	0.968614	7.37567e+06	-54389.1	1055.82	-29743.5	0.000000	0.000000	6.969127	-0.066873	NaN	0.000000	0.001599	0.001831	28.0813	0.029677	0.001963	15.1199	-172.901	15.1028	-0.015206	0.967258	-0.259951	-0.261306	-0.066873	15.1199	-0.256633	-1040.5	6.427042E-5	NaN
1085	1.000000	1.014630	7.37567e+06	-54389.1	1055.82	-29743.5	0.000000	0.000000	7.015149	0.071291	NaN	0.000000	0.001601	0.001805	28.0813	0.055557	0.002042	27.2046	105.692	-167.865	0.065883	1.013374	-0.213934	-0.215191	0.071291	27.2046	-0.215899	-238.766	-0.000299	NaN
1085	1.000000	1.060670	7.37567e+06	-54389.1	1055.82	-29743.5	0.000000	0.000000	7.061187	0.025851	NaN	0.000000	0.001565	0.001857	28.0824	0.014844	0.002053	7.231400	-3.257792	20.0528	0.085609	1.059317	-0.167894	-0.169247	0.025851	7.231400	-0.170576	-42.0341	-0.000615	NaN
1085	1.000000	1.106672	7.37567e+06	-54389.1	1055.82	-29743.5	0.000000	0.000000	7.107189	0.048573	NaN	0.000000	0.001654	0.001863	28.0826	0.096147	0.002008	47.8888	-165.183	-163.268	0.053780	1.105342	-0.121893	-0.123223	0.048573	47.8888	-0.122653	-5.461938	-0.008893	NaN
1085	1.000000	1.152685	7.37567e+06	-54389.1	1055.82	-29743.5	0.000000	0.000000	7.153201	0.025713	NaN	0.000000	0.001576	0.001803	28.0828	0.121948	0.002077	58.7005	78.7643	12.224	0.036581	1.151299	-0.075880	-0.077265	0.025713	58.7005	-0.076208	-0.496192	-0.051821	NaN
1085	1.000000	1.198711	7.37567e+06	-54389.1	1055.82	-29743.5	0.000000	0.000000	7.199226	1.380720E-5	NaN	0.000000	0.001585	0.001777	28.0813	0.005472	0.002025	2.702468	118.907	-165.197	-0.039469	1.197355	-0.029854	-0.031210	1.380720E-5	2.702468	-0.029858	-0.022804	-0.000605	NaN
1085	2.000000	1.237872	7.37567e+06	-54389.1	1055.82	-29743.5	0.000000	0.000000	7.238836	10.9122	NaN	0.000000	0.001599	0.001789	28.0815	10.6504	0.001799	5919.26	3.337804	7.679963	9.214957	1.237512	0.009307	0.008947	10.9122	5919.26	0.007924	0.006965	1566.77	64801.7
1085	2.000000	1.249319	7.37567e+06	-54389.1	1055.82	-29743.5	0.000000	0.000000	7.251000	28.3305	NaN	0.000000	0.001638	0.001800	28.0819	22.3753	0.001830	12224.7	7.115450	-179.093	27.6918	1.249048	0.020754	0.020484	28.3305	12224.7	0.019016	0.021020	1347.8	77036.8
1085	2.000000	1.260848	7.37567e+06	-54389.1	1055.82	-29743.5	0.000000	0.000000	7.263601	54.4035	NaN	0.000000	0.001631	0.001791	28.0826	33.9568	0.001824	18615.6	4.093328	-0.537166	53.4821	1.260512	0.032283	0.031947	54.4035	18615.6	0.030091	0.040933	1329.09	84064.9
1085	2.000000	1.272202	7.37567e+06	-54389.1	1055.82	-29743.5	0.000000	0.000000	7.276805	99.38	NaN	0.000000	0.001594	0.001765	28.0835	45.1749	0.001874	24107.6	8.704075	172.982	95.4714	1.271923	0.043637	0.043358	99.38	24107.6	0.040546	0.065446	1518.5	86096.2
1085	2.000000	1.283773	7.37567e+06	-54389.1	1055.82	-29743.5	0.000000	0.000000	7.289995	138.742	NaN	0.000000	0.001590	0.001818	28.0815	56.644	0.001851	30606.4	1.968213	-2.743201	138.121	1.283625	0.055208	0.055061	138.742	30606.4	0.051808	0.098085	1414.51	89286.3
1085	2.000000	1.295345	7.37567e+06	-54389.1	1055.82	-29743.5	0.000000	0.000000	7.304228	203.415	NaN	0.000000	0.001591	0.001808	28.0812	66.7792	0.001788	37357.8	11.5753	167.376	207.826	1.294828	0.066781	0.066263	203.415	37357.8	0.062697	0.135656	1499.49	92669.2
1085	2.000000	1.306698	7.37567e+06	-54389.1	1055.82	-29743.5	0.000000	0.000000	7.318359	270.953	NaN	0.000000	0.001595	0.001802	28.0814	78.5191	0.001814	43293.8	10.2808	-13.5276	267.422	1.306305	0.078134	0.077740	270.953	43293.8	0.073440	0.178363	1519.11	93658.5
1085	2.000000	1.318312	7.37567e+06	-54389.1	1055.82	-29743.5	0.000000	0.000000	7.333087	346.656	NaN	0.000000	0.001548	0.001851	28.0826	87.0747	0.001724	50499.1	4.301931	171.708	349.831	1.317865	0.089748	0.089300	346.656	50499.1	0.084599	0.228494	1517.14	96520.7
1085	2.000000	1.329830	7.37567e+06	-54389.1	1055.82	-29743.5	0.000000	0.000000	7.348207	434.213	NaN	0.000000	0.001571	0.001808	28.0825	98.3532	0.001772	55513.9	7.579344	-11.8614	436.515	1.329295	0.101266	0.100730	434.213	55513.9	0.095400	0.282497	1537.05	95426.3
1085	2.000000	1.334196	7.37567e+06	-54389.1	1055.82	-29743.5	0.000000	0.000000	7.353637	460.091	NaN	0.000000	0.001596	0.001814	28.0827	102.822	0.001741	59055.2	6.082192	168.438	457.678	1.333983	0.105632	0.105418	460.091	59055.2	0.099789	0.305967	1503.73	97542.5