File: remote_trans/data/nanoindenter/0828-1/data/Data_2025-08-06,11h17m57s/2025-07-22_16-23-58_1_523.txt
2025-07-22, 16:23:58, 1
Index	Phase	Displacement	Time	Pos X	Pos Y	Pos Z	Rot A	Rot B	Piezo Z	Force A	Force B	Gripper	Voltage A	Voltage B	Temperature	Amplitude force	Amplitude pos	Stiffness	Phase shift	Phase excitation	Force A raw	Displacement raw	HMax	HMax raw	Real Force	Real Stiffness	Contact Depth	Area	Hardness	Reduced Mod.
[#]	[#]	[um]	[s]	[um]	[um]	[um]	[m°]	[m°]	[um]	[uN]	[uN]	[V]	[V]	[V]	[°C]	[uN]	[um]	[N/m]	[°]	[°]	[uN]	[um]	[um]	[um]	[uN]	[N/m]	[um]	[um^2]	[MPa]	[MPa]
523	1.000000	0.002342	7.37017e+06	-50939.1	1005.82	-29754	0.000000	0.000000	6.002801	-0.002138	NaN	0.000000	0.001655	0.001896	28.0809	0.091857	0.001006	91.3459	-116.353	-158.266	-0.073681	0.001096	-1.144561	-1.145807	-0.002138	91.3459	-1.144544	-1.984562E+15	1.077453E-18	NaN
523	1.000000	0.044293	7.37017e+06	-50939.1	1005.82	-29754	0.000000	0.000000	6.044753	0.001135	NaN	0.000000	0.001609	0.001875	28.0808	0.051109	0.002082	24.5504	-144.561	16.3013	-0.007414	0.042940	-1.102610	-1.103963	0.001135	24.5504	-1.102645	-5.439627E+14	-2.086368E-18	NaN
523	1.000000	0.086281	7.37017e+06	-50939.1	1005.82	-29754	0.000000	0.000000	6.086742	0.040856	NaN	0.000000	0.001584	0.001844	28.0807	0.127908	0.002066	61.9019	-105.52	-168.517	0.027381	0.084983	-1.060622	-1.061920	0.040856	61.9019	-1.061117	-1.506025E+14	-2.712804E-16	NaN
523	1.000000	0.128327	7.37017e+06	-50939.1	1005.82	-29754	0.000000	0.000000	6.128788	0.018046	NaN	0.000000	0.001662	0.001835	28.0822	0.014197	0.002010	7.064614	35.8937	17.2925	-0.011302	0.126954	-1.018576	-1.019950	0.018046	7.064614	-1.020492	-4.281238E+13	-4.215113E-16	NaN
523	1.000000	0.170324	7.37017e+06	-50939.1	1005.82	-29754	0.000000	0.000000	6.170786	0.050182	NaN	0.000000	0.001668	0.001861	28.0817	0.102194	0.001918	53.2826	-104.392	-165.796	0.018025	0.169020	-0.976579	-0.977883	0.050182	53.2826	-0.977285	-1.121594E+13	-4.474203E-15	NaN
523	1.000000	0.212355	7.37017e+06	-50939.1	1005.82	-29754	0.000000	0.000000	6.212815	0.019334	NaN	0.000000	0.001635	0.001885	28.0817	0.049658	0.001904	26.08	-4.679285	12.8171	0.002192	0.211031	-0.934548	-0.935873	0.019334	26.08	-0.935104	-3.027468E+12	-6.386044E-15	NaN
523	1.000000	0.254365	7.37017e+06	-50939.1	1005.82	-29754	0.000000	0.000000	6.254825	-0.003503	NaN	0.000000	0.001598	0.001882	28.0807	0.077875	0.002006	38.8288	165.181	-162.343	0.001508	0.253027	-0.892538	-0.893876	-0.003503	38.8288	-0.892470	-8.040871E+11	4.357102E-15	NaN
523	1.000000	0.296385	7.37017e+06	-50939.1	1005.82	-29754	0.000000	0.000000	6.296844	-0.017214	NaN	0.000000	0.001600	0.001884	28.0804	0.112227	0.002021	55.5179	-103.618	14.7694	0.015037	0.295073	-0.850518	-0.851830	-0.017214	55.5179	-0.850285	-2.160719E+11	7.966605E-14	NaN
523	1.000000	0.338404	7.37017e+06	-50939.1	1005.82	-29754	0.000000	0.000000	6.338862	-0.037981	NaN	0.000000	0.001610	0.001887	28.0803	0.075292	0.002130	35.341	95.2446	-165.518	-0.055280	0.337069	-0.808500	-0.809834	-0.037981	35.341	-0.807693	-5.718420E+10	6.641925E-13	NaN
523	1.000000	0.380398	7.37017e+06	-50939.1	1005.82	-29754	0.000000	0.000000	6.380857	-0.024110	NaN	0.000000	0.001692	0.001870	28.081	0.007941	0.002098	3.785712	-33.038	15.766	-0.044016	0.379070	-0.766505	-0.767833	-0.024110	3.785712	-0.761728	-1.357722E+10	1.775765E-12	NaN
523	1.000000	0.422455	7.37017e+06	-50939.1	1005.82	-29754	0.000000	0.000000	6.422913	-0.054333	NaN	0.000000	0.001683	0.001827	28.0814	0.016349	0.001975	8.276712	21.6111	-164.835	-0.060884	0.421119	-0.724448	-0.725784	-0.054333	8.276712	-0.719525	-3.614011E+9	1.503392E-11	NaN
523	1.000000	0.464473	7.37017e+06	-50939.1	1005.82	-29754	0.000000	0.000000	6.464930	-0.070333	NaN	0.000000	0.001641	0.001825	28.0815	0.104697	0.002025	51.7091	-133.599	15.6868	0.001062	0.463073	-0.682430	-0.683830	-0.070333	51.7091	-0.681410	-1.090141E+9	6.451779E-11	NaN
523	1.000000	0.506463	7.37017e+06	-50939.1	1005.82	-29754	0.000000	0.000000	6.506920	-0.062450	NaN	0.000000	0.001661	0.001829	28.0818	0.052918	0.001989	26.6045	-52.7248	-165.171	-0.017897	0.505154	-0.640440	-0.641750	-0.062450	26.6045	-0.638680	-2.832520E+8	2.204761E-10	NaN
523	1.000000	0.548521	7.37017e+06	-50939.1	1005.82	-29754	0.000000	0.000000	6.548983	0.038274	NaN	0.000000	0.001632	0.001855	28.0801	0.043498	0.001949	22.3227	168.645	12.6131	0.012797	0.547143	-0.598382	-0.599760	0.038274	22.3227	-0.599668	-8.239185E+7	-4.645307E-10	NaN
523	1.000000	0.590513	7.37017e+06	-50939.1	1005.82	-29754	0.000000	0.000000	6.590976	0.070864	NaN	0.000000	0.001568	0.001825	28.0801	0.081026	0.001865	43.4551	35.9367	-161.632	-0.010421	0.589206	-0.556390	-0.557697	0.070864	43.4551	-0.557613	-2.164485E+7	-3.273953E-9	NaN
523	1.000000	0.632548	7.37017e+06	-50939.1	1005.82	-29754	0.000000	0.000000	6.633007	-0.013205	NaN	0.000000	0.001609	0.001817	28.0802	0.040367	0.002009	20.0946	77.9405	13.6946	-0.005639	0.631186	-0.514355	-0.515717	-0.013205	20.0946	-0.513862	-5.34803e+06	2.469104E-9	NaN
523	1.000000	0.674533	7.37017e+06	-50939.1	1005.82	-29754	0.000000	0.000000	6.674992	-0.021168	NaN	0.000000	0.001594	0.001840	28.0816	0.112123	0.001960	57.2028	-146.28	-162.159	-0.016585	0.673237	-0.472370	-0.473667	-0.021168	57.2028	-0.472093	-1.39557e+06	1.516783E-8	NaN
523	1.000000	0.716554	7.37017e+06	-50939.1	1005.82	-29754	0.000000	0.000000	6.717015	0.043981	NaN	0.000000	0.001602	0.001838	28.082	0.030032	0.001948	15.4161	-135.68	15.8753	0.008693	0.715269	-0.430349	-0.431634	0.043981	15.4161	-0.432489	-386603	-1.137637E-7	NaN
523	1.000000	0.758583	7.37017e+06	-50939.1	1005.82	-29754	0.000000	0.000000	6.759041	-0.035676	NaN	0.000000	0.001613	0.001800	28.0816	0.028318	0.001943	14.575	-96.6616	-165.224	-0.017307	0.757283	-0.388320	-0.389620	-0.035676	14.575	-0.386485	-85674.5	4.164135E-7	NaN
523	1.000000	0.800549	7.37017e+06	-50939.1	1005.82	-29754	0.000000	0.000000	6.801006	-0.045427	NaN	0.000000	0.001604	0.001811	28.0806	0.107859	0.001958	55.0791	16.2547	14.4626	-0.004148	0.799234	-0.346355	-0.347669	-0.045427	55.0791	-0.345736	-22134	2.052374E-6	NaN
523	1.000000	0.842607	7.37017e+06	-50939.1	1005.82	-29754	0.000000	0.000000	6.843067	0.009368	NaN	0.000000	0.001599	0.001809	28.0808	0.023963	0.001938	12.3628	-6.417448	-166.807	0.004963	0.841304	-0.304296	-0.305599	0.009368	12.3628	-0.304865	-5558.37	-1.685472E-6	NaN
523	1.000000	0.884628	7.37017e+06	-50939.1	1005.82	-29754	0.000000	0.000000	6.885088	0.000484	NaN	0.000000	0.001599	0.001897	28.0806	0.076710	0.002058	37.2801	74.1999	14.521	-0.116147	0.883295	-0.262275	-0.263608	0.000484	37.2801	-0.262285	-1270.27	-3.806677E-7	NaN
523	1.000000	0.926667	7.37017e+06	-50939.1	1005.82	-29754	0.000000	0.000000	6.927122	-0.125106	NaN	0.000000	0.001592	0.001853	28.0811	0.090105	0.002099	42.9311	163.586	-166.8	-0.178004	0.925379	-0.220236	-0.221524	-0.125106	42.9311	-0.218050	-258.511	0.000484	NaN
523	1.000000	0.968657	7.37017e+06	-50939.1	1005.82	-29754	0.000000	0.000000	6.969115	-0.053951	NaN	0.000000	0.001613	0.001816	28.082	0.095779	0.001890	50.6786	-92.6951	16.8884	-0.050388	0.967292	-0.178246	-0.179611	-0.053951	50.6786	-0.177447	-55.1985	0.000977	NaN
523	1.000000	1.010671	7.37017e+06	-50939.1	1005.82	-29754	0.000000	0.000000	7.011130	-0.005131	NaN	0.000000	0.001640	0.001819	28.0817	0.026954	0.001937	13.9152	-171.635	-161.989	0.006628	1.009418	-0.136233	-0.137485	-0.005131	13.9152	-0.135956	-9.920020	0.000517	NaN
523	1.000000	1.052706	7.37017e+06	-50939.1	1005.82	-29754	0.000000	0.000000	7.053165	0.003406	NaN	0.000000	0.001606	0.001876	28.0815	0.146024	0.001953	74.7602	-106.808	11.5567	0.008023	1.051350	-0.094198	-0.095554	0.003406	74.7602	-0.094232	-1.354782	-0.002514	NaN
523	1.000000	1.094744	7.37017e+06	-50939.1	1005.82	-29754	0.000000	0.000000	7.095204	0.003083	NaN	0.000000	0.001613	0.001857	28.0804	0.089499	0.001976	45.2988	-52.0998	-163.89	-0.001261	1.093402	-0.052159	-0.053501	0.003083	45.2988	-0.052210	-0.106362	-0.028990	NaN
523	1.000000	1.136744	7.37017e+06	-50939.1	1005.82	-29754	0.000000	0.000000	7.137202	-0.055546	NaN	0.000000	0.001603	0.001842	28.0802	0.036149	0.001890	19.1241	-53.9123	16.4786	-0.115177	1.135361	-0.010159	-0.011543	-0.055546	19.1241	-0.007980	-0.005220	10.6408	NaN
523	2.000000	1.158237	7.37017e+06	-50939.1	1005.82	-29754	0.000000	0.000000	7.159512	19.8374	NaN	0.000000	0.001612	0.001830	28.0805	16.6331	0.001647	10098.8	6.227806	-178.684	19.8473	1.157908	0.011334	0.011005	19.8374	10098.8	0.009860	0.009027	2197.61	97113
523	2.000000	1.168708	7.37017e+06	-50939.1	1005.82	-29754	0.000000	0.000000	7.171140	47.9545	NaN	0.000000	0.001600	0.001782	28.0819	27.9829	0.001716	16309.5	8.840145	-1.522920	49.7562	1.168233	0.021805	0.021329	47.9545	16309.5	0.019600	0.021918	2187.95	100651
523	2.000000	1.179150	7.37017e+06	-50939.1	1005.82	-29754	0.000000	0.000000	7.183355	91.0836	NaN	0.000000	0.001580	0.001832	28.0819	39.3636	0.001743	22588.9	2.882380	179.502	89.4738	1.178846	0.032247	0.031942	91.0836	22588.9	0.029223	0.039148	2326.66	104307
523	2.000000	1.189641	7.37017e+06	-50939.1	1005.82	-29754	0.000000	0.000000	7.195857	139.976	NaN	0.000000	0.001608	0.001822	28.0826	49.1949	0.001819	27037.9	2.986547	-1.472344	138.497	1.189293	0.042738	0.042390	139.976	27037.9	0.038855	0.061103	2290.81	99934
523	2.000000	1.200159	7.37017e+06	-50939.1	1005.82	-29754	0.000000	0.000000	7.208725	197.109	NaN	0.000000	0.001557	0.001860	28.0807	59.4587	0.001789	33235.2	4.743808	174.399	196.094	1.199803	0.053256	0.052899	197.109	33235.2	0.048808	0.088765	2220.57	101918
523	2.000000	1.210591	7.37017e+06	-50939.1	1005.82	-29754	0.000000	0.000000	7.222297	273.467	NaN	0.000000	0.001595	0.001838	28.0807	70.6484	0.001786	39559.8	6.731836	-9.405256	269.063	1.210281	0.063688	0.063378	273.467	39559.8	0.058504	0.120497	2269.49	104121
523	2.000000	1.221051	7.37017e+06	-50939.1	1005.82	-29754	0.000000	0.000000	7.235678	344.498	NaN	0.000000	0.001634	0.001809	28.0804	81.3712	0.001786	45567.6	6.067280	169.85	340.068	1.220812	0.074148	0.073909	344.498	45567.6	0.068478	0.157952	2181.04	104753
523	2.000000	1.231570	7.37017e+06	-50939.1	1005.82	-29754	0.000000	0.000000	7.249189	417.271	NaN	0.000000	0.001613	0.001813	28.0814	89.6116	0.001798	49836.9	1.133814	-5.431062	413.613	1.231400	0.084667	0.084497	417.271	49836.9	0.078387	0.199870	2087.71	101848
523	2.000000	1.241996	7.37017e+06	-50939.1	1005.82	-29754	0.000000	0.000000	7.263410	509.559	NaN	0.000000	0.001617	0.001835	28.0816	98.874	0.001792	55188.4	4.316140	170.915	505.255	1.241730	0.095093	0.094827	509.559	55188.4	0.088168	0.245745	2073.53	101714
523	2.000000	1.250152	7.37017e+06	-50939.1	1005.82	-29754	0.000000	0.000000	7.273996	568.643	NaN	0.000000	0.001577	0.001810	28.082	105.577	0.001796	58771.4	3.939139	170.438	569.329	1.249764	0.103248	0.102861	568.643	58771.4	0.095992	0.285613	1990.96	100473