File: remote_trans/data/nanoindenter/0828-1/data/Data_2025-08-06,11h17m57s/2025-07-22_16-23-58_1_103.txt
2025-07-22, 16:23:58, 1
Index	Phase	Displacement	Time	Pos X	Pos Y	Pos Z	Rot A	Rot B	Piezo Z	Force A	Force B	Gripper	Voltage A	Voltage B	Temperature	Amplitude force	Amplitude pos	Stiffness	Phase shift	Phase excitation	Force A raw	Displacement raw	HMax	HMax raw	Real Force	Real Stiffness	Contact Depth	Area	Hardness	Reduced Mod.
[#]	[#]	[um]	[s]	[um]	[um]	[um]	[m°]	[m°]	[um]	[uN]	[uN]	[V]	[V]	[V]	[°C]	[uN]	[um]	[N/m]	[°]	[°]	[uN]	[um]	[um]	[um]	[uN]	[N/m]	[um]	[um^2]	[MPa]	[MPa]
103	1.000000	0.002356	7.36604e+06	-43789.1	955.82	-29778.4	0.000000	0.000000	6.002805	0.002860	NaN	0.000000	0.001567	0.001667	28.085	0.064862	0.000904	71.784	-178.938	-168.238	0.041154	0.001158	-1.148759	-1.149958	0.002860	71.784	-1.148789	-2.262495E+15	-1.264115E-18	NaN
103	1.000000	0.044304	7.36604e+06	-43789.1	955.818	-29778.4	0.000000	0.000000	6.044753	-0.006512	NaN	0.000000	0.001558	0.001651	28.1191	0.055038	0.002045	26.9187	83.3427	15.6817	-0.006902	0.042891	-1.106811	-1.108225	-0.006512	26.9187	-1.106630	-6.152613E+14	1.058349E-17	NaN
103	1.000000	0.086331	7.36604e+06	-43789.1	955.818	-29778.4	0.000000	0.000000	6.086784	0.101445	NaN	0.000000	0.001554	0.001652	28.1231	0.121151	0.002120	57.1383	-148.732	-163.979	0.049797	0.085051	-1.064785	-1.066064	0.101445	57.1383	-1.066116	-1.757956E+14	-5.770599E-16	NaN
103	1.000000	0.128356	7.36604e+06	-43789.1	955.818	-29778.4	0.000000	0.000000	6.128808	0.075172	NaN	0.000000	0.001564	0.001642	28.0825	0.060348	0.001957	30.8432	-133.467	12.5503	0.094458	0.126990	-1.022759	-1.024126	0.075172	30.8432	-1.024587	-4.860377E+13	-1.546630E-15	NaN
103	1.000000	0.170385	7.36604e+06	-43789.1	955.818	-29778.4	0.000000	0.000000	6.170836	0.066678	NaN	0.000000	0.001549	0.001602	28.0833	0.042545	0.001936	21.9795	150.821	-164.896	-0.002722	0.169071	-0.980731	-0.982045	0.066678	21.9795	-0.983006	-1.339379E+13	-4.978246E-15	NaN
103	1.000000	0.212386	7.36604e+06	-43789.1	955.819	-29778.4	0.000000	0.000000	6.212836	0.040639	NaN	0.000000	0.001595	0.001630	28.117	0.089705	0.002084	43.0353	-113.322	14.8323	0.024273	0.211036	-0.938730	-0.940080	0.040639	43.0353	-0.939438	-3.463842E+12	-1.173222E-14	NaN
103	1.000000	0.254388	7.36604e+06	-43789.1	955.818	-29778.4	0.000000	0.000000	6.254838	0.026249	NaN	0.000000	0.001574	0.001640	28.1221	0.080291	0.002095	38.334	-123.832	-163.866	-0.003133	0.253105	-0.896728	-0.898010	0.026249	38.334	-0.897241	-9.328000E+11	-2.813972E-14	NaN
103	1.000000	0.296400	7.36605e+06	-43789.1	955.819	-29778.4	0.000000	0.000000	6.296847	-0.029442	NaN	0.000000	0.001590	0.001687	28.0853	0.099885	0.002077	48.0952	96.978	16.7805	-0.039315	0.295044	-0.854716	-0.856072	-0.029442	48.0952	-0.854257	-2.445555E+11	1.203919E-13	NaN
103	1.000000	0.338403	7.36605e+06	-43789.1	955.817	-29778.4	0.000000	0.000000	6.338851	-0.012389	NaN	0.000000	0.001586	0.001690	28.0843	0.048794	0.002200	22.1763	115.527	-165.638	-0.054194	0.337159	-0.812713	-0.813957	-0.012389	22.1763	-0.812294	-6.602231E+10	1.876447E-13	NaN
103	1.000000	0.380441	7.36605e+06	-43789.1	955.819	-29778.4	0.000000	0.000000	6.380890	0.017678	NaN	0.000000	0.001532	0.001628	28.1175	0.098474	0.001942	50.6986	174.032	16.3123	-0.047572	0.379074	-0.770675	-0.772042	0.017678	50.6986	-0.770937	-1.811507E+10	-9.758490E-13	NaN
103	1.000000	0.422457	7.36605e+06	-43789.1	955.818	-29778.4	0.000000	0.000000	6.422906	0.000227	NaN	0.000000	0.001576	0.001680	28.1209	0.104505	0.001983	52.7039	-3.749355	-164.41	-0.095720	0.421156	-0.728659	-0.729960	0.000227	52.7039	-0.728662	-4.814707E+9	-4.705784E-14	NaN
103	1.000000	0.464467	7.36605e+06	-43789.1	955.818	-29778.4	0.000000	0.000000	6.464917	0.039394	NaN	0.000000	0.001643	0.001672	28.0843	0.035825	0.002050	17.4774	36.0378	15.102	0.040454	0.463045	-0.686649	-0.688071	0.039394	17.4774	-0.688339	-1.355882E+9	-2.905383E-11	NaN
103	1.000000	0.506478	7.36605e+06	-43789.1	955.818	-29778.4	0.000000	0.000000	6.506925	-0.028996	NaN	0.000000	0.001591	0.001613	28.0803	0.083481	0.002068	40.3732	70.2413	-161.288	-0.017044	0.505179	-0.644638	-0.645936	-0.028996	40.3732	-0.644099	-3.361417E+8	8.626165E-11	NaN
103	1.000000	0.548514	7.36605e+06	-43789.1	955.819	-29778.4	0.000000	0.000000	6.548962	-0.014283	NaN	0.000000	0.001599	0.001664	28.1167	0.107947	0.001895	56.9625	142.511	14.4695	-0.019470	0.547108	-0.602602	-0.604008	-0.014283	56.9625	-0.602414	-8.988772E+7	1.589028E-10	NaN
103	1.000000	0.590504	7.36605e+06	-43789.1	955.819	-29778.4	0.000000	0.000000	6.590955	0.064426	NaN	0.000000	0.001532	0.001694	28.1235	0.137923	0.001932	71.4067	37.2033	-163.998	-0.028372	0.589197	-0.560612	-0.561919	0.064426	71.4067	-0.561289	-2.433360E+7	-2.647602E-9	NaN
103	1.000000	0.632554	7.36605e+06	-43789.1	955.818	-29778.4	0.000000	0.000000	6.633003	-0.007378	NaN	0.000000	0.001563	0.001671	28.0877	0.178497	0.002127	83.9256	159.654	14.4867	-0.048914	0.631227	-0.518561	-0.519889	-0.007378	83.9256	-0.518495	-6.20396e+06	1.189239E-9	NaN
103	1.000000	0.674574	7.36605e+06	-43789.1	955.818	-29778.4	0.000000	0.000000	6.675023	0.028234	NaN	0.000000	0.001548	0.001639	28.0816	0.049665	0.002016	24.6312	-50.5684	-167.728	0.014307	0.673315	-0.476542	-0.477801	0.028234	24.6312	-0.477402	-1.65632e+06	-1.704601E-8	NaN
103	1.000000	0.716573	7.36605e+06	-43789.1	955.818	-29778.4	0.000000	0.000000	6.717021	-0.011508	NaN	0.000000	0.001565	0.001654	28.1145	0.039074	0.002010	19.4421	-105.982	13.9998	0.019114	0.715242	-0.434543	-0.435874	-0.011508	19.4421	-0.434099	-407395	2.824759E-8	NaN
103	1.000000	0.758584	7.36605e+06	-43789.1	955.818	-29778.4	0.000000	0.000000	6.759035	0.052300	NaN	0.000000	0.001550	0.001662	28.1222	0.054809	0.001900	28.8509	82.1187	-167.789	-0.014750	0.757339	-0.392531	-0.393776	0.052300	28.8509	-0.393891	-109344	-4.783111E-7	NaN
103	1.000000	0.800617	7.36605e+06	-43789.1	955.818	-29778.4	0.000000	0.000000	6.801065	-0.030336	NaN	0.000000	0.001578	0.001645	28.0855	0.077614	0.002027	38.2961	-147.627	17.3282	-0.008909	0.799261	-0.350498	-0.351855	-0.030336	38.2961	-0.349904	-25445.6	1.192202E-6	NaN
103	1.000000	0.842621	7.36605e+06	-43789.1	955.818	-29778.4	0.000000	0.000000	6.843070	-0.004048	NaN	0.000000	0.001592	0.001637	28.0823	0.117821	0.002074	56.8002	-36.629	-164.783	0.057894	0.841363	-0.308494	-0.309753	-0.004048	56.8002	-0.308441	-6280.19	6.446265E-7	NaN
103	1.000000	0.884650	7.36605e+06	-43789.1	955.819	-29778.4	0.000000	0.000000	6.885102	0.078583	NaN	0.000000	0.001567	0.001655	28.1152	0.060694	0.001879	32.2933	71.6642	12.4395	0.063120	0.883298	-0.266465	-0.267818	0.078583	32.2933	-0.268291	-1568.71	-5.009434E-5	NaN
103	1.000000	0.926653	7.36605e+06	-43789.1	955.818	-29778.4	0.000000	0.000000	6.927103	0.015854	NaN	0.000000	0.001578	0.001700	28.1242	0.078060	0.001807	43.1909	129.862	-164.984	-0.078069	0.925365	-0.224462	-0.225751	0.015854	43.1909	-0.224738	-330.497	-4.797010E-5	NaN
103	1.000000	0.968703	7.36605e+06	-43789.1	955.818	-29778.4	0.000000	0.000000	6.969151	-0.025151	NaN	0.000000	0.001609	0.001639	28.0859	0.085571	0.001971	43.4075	-132.674	16.4483	0.026898	0.967323	-0.182413	-0.183792	-0.025151	43.4075	-0.181978	-65.9262	0.000382	NaN
103	1.000000	1.010679	7.36605e+06	-43789.1	955.818	-29778.4	0.000000	0.000000	7.011128	0.011445	NaN	0.000000	0.001563	0.001673	28.0801	0.077078	0.002071	37.2229	157.3	-167.128	-0.038493	1.009390	-0.140437	-0.141725	0.011445	37.2229	-0.140668	-12.1758	-0.000940	NaN
103	1.000000	1.052712	7.36605e+06	-43789.1	955.818	-29778.4	0.000000	0.000000	7.053161	0.005361	NaN	0.000000	0.001553	0.001652	28.1119	0.133459	0.002074	64.3615	-149.603	13.6706	0.083975	1.051345	-0.098403	-0.099771	0.005361	64.3615	-0.098466	-1.688987	-0.003174	NaN
103	1.000000	1.094734	7.36605e+06	-43789.1	955.818	-29778.4	0.000000	0.000000	7.095184	0.019063	NaN	0.000000	0.001567	0.001655	28.1252	0.063801	0.002172	29.3698	3.192072	-166.509	0.021521	1.093428	-0.056381	-0.057687	0.019063	29.3698	-0.056868	-0.146141	-0.130439	NaN
103	1.000000	1.136717	7.36605e+06	-43789.1	955.818	-29778.4	0.000000	0.000000	7.137169	0.082433	NaN	0.000000	0.001559	0.001678	28.0877	0.039705	0.002032	19.5375	28.089	16.3835	0.123060	1.135393	-0.014399	-0.015723	0.082433	19.5375	-0.017564	-0.010875	-7.580342	NaN
103	2.000000	1.164222	7.36605e+06	-43789.1	955.819	-29778.4	0.000000	0.000000	7.165233	13.6719	NaN	0.000000	0.001565	0.001602	28.081	13.4542	0.001784	7541.35	4.766288	-171.848	12.591	1.163921	0.013107	0.012805	13.6719	7541.35	0.011747	0.011188	1221.98	65138.8
103	2.000000	1.174684	7.36605e+06	-43789.1	955.818	-29778.4	0.000000	0.000000	7.176664	37.2665	NaN	0.000000	0.001537	0.001608	28.1121	24.7843	0.001770	13999	6.219599	1.049131	35.7463	1.174370	0.023568	0.023255	37.2665	13999	0.021572	0.025072	1486.36	80774.3
103	2.000000	1.185150	7.36605e+06	-43789.1	955.819	-29778.4	0.000000	0.000000	7.188443	69.1962	NaN	0.000000	0.001565	0.001642	28.1257	34.527	0.001645	20984.5	3.114716	179.343	66.6244	1.184853	0.034034	0.033738	69.1962	20984.5	0.031561	0.044042	1571.14	91356.5
103	2.000000	1.195714	7.36605e+06	-43789.1	955.818	-29778.4	0.000000	0.000000	7.200367	102.295	NaN	0.000000	0.001550	0.001581	28.0853	44.2371	0.001886	23455.9	5.205328	-2.514044	101.306	1.195414	0.044598	0.044298	102.295	23455.9	0.041327	0.067503	1515.41	82482.6
103	2.000000	1.206240	7.36605e+06	-43789.1	955.819	-29778.4	0.000000	0.000000	7.212610	144.068	NaN	0.000000	0.001559	0.001629	28.0809	54.3522	0.001741	31224.3	2.119780	177.952	146.321	1.205895	0.055125	0.054779	144.068	31224.3	0.051664	0.097626	1475.72	91302.6
103	2.000000	1.216637	7.36605e+06	-43789.1	955.819	-29778.4	0.000000	0.000000	7.225479	204.228	NaN	0.000000	0.001549	0.001610	28.1109	63.4877	0.001743	36421.5	3.011390	-4.542410	200.396	1.216324	0.065521	0.065208	204.228	36421.5	0.061315	0.130567	1564.16	92090.3
103	2.000000	1.227136	7.36605e+06	-43789.1	955.818	-29778.4	0.000000	0.000000	7.238412	263.435	NaN	0.000000	0.001572	0.001546	28.1271	74.1033	0.001785	41504.8	5.589470	172.236	263.571	1.226829	0.076020	0.075714	263.435	41504.8	0.071260	0.169250	1556.48	92173.7
103	2.000000	1.237594	7.36605e+06	-43789.1	955.818	-29778.4	0.000000	0.000000	7.251785	334.328	NaN	0.000000	0.001536	0.001517	28.0865	81.6992	0.001723	47422.7	-0.041132	-2.822101	330.31	1.237163	0.086479	0.086047	334.328	47422.7	0.081191	0.212568	1572.81	93974.7
103	2.000000	1.248189	7.36605e+06	-43789.1	955.817	-29778.4	0.000000	0.000000	7.265429	408.534	NaN	0.000000	0.001565	0.001538	28.0815	91.4222	0.001741	52519.9	2.250314	174.299	413.585	1.247711	0.097073	0.096595	408.534	52519.9	0.091239	0.261061	1564.9	93913
103	2.000000	1.258043	7.36605e+06	-43789.1	955.817	-29778.4	0.000000	0.000000	7.278738	492.584	NaN	0.000000	0.001537	0.001489	28.0783	101.668	0.001824	55734.7	9.235191	166.902	487.78	1.257588	0.106927	0.106472	492.584	55734.7	0.100299	0.308752	1595.41	91641.9