File: remote_trans/data/nanoindenter/0828-1/data/Data_2025-08-06,11h17m57s/2025-07-22_16-23-58_1_1163.txt
2025-07-22, 16:23:58, 1
Index	Phase	Displacement	Time	Pos X	Pos Y	Pos Z	Rot A	Rot B	Piezo Z	Force A	Force B	Gripper	Voltage A	Voltage B	Temperature	Amplitude force	Amplitude pos	Stiffness	Phase shift	Phase excitation	Force A raw	Displacement raw	HMax	HMax raw	Real Force	Real Stiffness	Contact Depth	Area	Hardness	Reduced Mod.
[#]	[#]	[um]	[s]	[um]	[um]	[um]	[m°]	[m°]	[um]	[uN]	[uN]	[V]	[V]	[V]	[°C]	[uN]	[um]	[N/m]	[°]	[°]	[uN]	[um]	[um]	[um]	[uN]	[N/m]	[um]	[um^2]	[MPa]	[MPa]
1163	1.000000	0.002727	7.37643e+06	-57439.1	1105.82	-29736.8	0.000000	0.000000	6.002798	0.020499	NaN	0.000000	0.001590	0.001645	28.0822	0.109539	0.001023	107.123	163.579	-160.614	0.031983	0.001499	-1.033027	-1.034256	0.020499	107.123	-1.033171	-6.340575E+13	-3.233024E-16	NaN
1163	1.000000	0.042663	7.37643e+06	-57439.1	1105.82	-29736.8	0.000000	0.000000	6.042732	0.012037	NaN	0.000000	0.001599	0.001673	28.0826	0.117269	0.002142	54.7459	178.641	-163.615	-0.025285	0.041331	-0.993092	-0.994423	0.012037	54.7459	-0.993257	-1.840671E+13	-6.539406E-16	NaN
1163	1.000000	0.082694	7.37643e+06	-57439.1	1105.82	-29736.8	0.000000	0.000000	6.082764	0.013388	NaN	0.000000	0.001605	0.001666	28.0826	0.066282	0.001942	34.1272	-167.335	-167.888	0.009402	0.081395	-0.953061	-0.954360	0.013388	34.1272	-0.953355	-5.336678E+12	-2.508695E-15	NaN
1163	1.000000	0.122720	7.37643e+06	-57439.1	1105.82	-29736.8	0.000000	0.000000	6.122789	-0.023572	NaN	0.000000	0.001600	0.001688	28.082	0.119683	0.002147	55.7565	-18.0221	-169.355	0.023370	0.121381	-0.913035	-0.914373	-0.023572	55.7565	-0.912718	-1.509617E+12	1.561483E-14	NaN
1163	1.000000	0.162739	7.37643e+06	-57439.1	1105.82	-29736.8	0.000000	0.000000	6.162806	-0.035991	NaN	0.000000	0.001604	0.001696	28.0808	0.010355	0.002028	5.106571	-1.681268	-168.84	-0.094956	0.161430	-0.873016	-0.874325	-0.035991	5.106571	-0.867730	-3.721639E+11	9.670679E-14	NaN
1163	1.000000	0.202728	7.37643e+06	-57439.1	1105.82	-29736.8	0.000000	0.000000	6.202797	-0.006042	NaN	0.000000	0.001605	0.001717	28.081	0.014517	0.001909	7.602942	121.109	-168.791	0.011861	0.201410	-0.833027	-0.834345	-0.006042	7.602942	-0.832431	-1.238023E+11	4.880148E-14	NaN
1163	1.000000	0.242768	7.37643e+06	-57439.1	1105.82	-29736.8	0.000000	0.000000	6.242837	-0.007663	NaN	0.000000	0.001600	0.001704	28.0807	0.070544	0.002015	35.0049	41.8536	-165.224	0.015190	0.241416	-0.792986	-0.794338	-0.007663	35.0049	-0.792822	-3.592607E+10	2.132977E-13	NaN
1163	1.000000	0.282784	7.37643e+06	-57439.1	1105.82	-29736.8	0.000000	0.000000	6.282851	-0.053539	NaN	0.000000	0.001618	0.001648	28.082	0.117031	0.002042	57.3199	109.315	-164.486	-0.079185	0.281529	-0.752970	-0.754226	-0.053539	57.3199	-0.752270	-1.009523E+10	5.303441E-12	NaN
1163	1.000000	0.322803	7.37643e+06	-57439.1	1105.82	-29736.8	0.000000	0.000000	6.322872	-0.025163	NaN	0.000000	0.001605	0.001703	28.0819	0.047665	0.001892	25.1986	63.4106	-167.858	-0.044448	0.321478	-0.712951	-0.714277	-0.025163	25.1986	-0.712202	-2.871462E+9	8.763011E-12	NaN
1163	1.000000	0.362785	7.37643e+06	-57439.1	1105.82	-29736.8	0.000000	0.000000	6.362854	-0.003835	NaN	0.000000	0.001600	0.001668	28.082	0.069858	0.002015	34.6694	46.4122	-166.78	0.044496	0.361478	-0.672970	-0.674277	-0.003835	34.6694	-0.672887	-8.334961E+8	4.601544E-12	NaN
1163	1.000000	0.402807	7.37643e+06	-57439.1	1105.82	-29736.8	0.000000	0.000000	6.402875	-0.025599	NaN	0.000000	0.001597	0.001659	28.0817	0.107915	0.002183	49.4279	-34.0811	-166.524	-0.037999	0.401571	-0.632948	-0.634184	-0.025599	49.4279	-0.632560	-2.334380E+8	1.096591E-10	NaN
1163	1.000000	0.442838	7.37643e+06	-57439.1	1105.82	-29736.8	0.000000	0.000000	6.442906	-0.031586	NaN	0.000000	0.001580	0.001674	28.0804	0.043787	0.002021	21.6699	89.4732	-161.95	-0.084497	0.441517	-0.592917	-0.594238	-0.031586	21.6699	-0.591824	-6.424041E+7	4.916856E-10	NaN
1163	1.000000	0.482833	7.37643e+06	-57439.1	1105.82	-29736.8	0.000000	0.000000	6.482901	-0.035281	NaN	0.000000	0.001613	0.001664	28.0806	0.054173	0.001931	28.0589	-135.681	-165.724	-0.005469	0.481560	-0.552922	-0.554194	-0.035281	28.0589	-0.551979	-1.808664E+7	1.950676E-9	NaN
1163	1.000000	0.522855	7.37643e+06	-57439.1	1105.82	-29736.8	0.000000	0.000000	6.522926	0.025219	NaN	0.000000	0.001588	0.001622	28.0806	0.069634	0.001990	34.9948	75.4613	-163.419	0.025609	0.521550	-0.512899	-0.514205	0.025219	34.9948	-0.513440	-5.27614e+06	-4.779748E-9	NaN
1163	1.000000	0.562889	7.37643e+06	-57439.1	1105.82	-29736.8	0.000000	0.000000	6.562959	0.014094	NaN	0.000000	0.001616	0.001675	28.0819	0.046719	0.001986	23.5224	-102.708	-165.826	-0.007924	0.561541	-0.472866	-0.474214	0.014094	23.5224	-0.473316	-1.45176e+06	-9.708444E-9	NaN
1163	1.000000	0.602896	7.37643e+06	-57439.1	1105.82	-29736.8	0.000000	0.000000	6.602964	-0.043479	NaN	0.000000	0.001604	0.001634	28.0821	0.056805	0.002032	27.9569	-41.9525	-165.722	0.041725	0.601608	-0.432858	-0.434146	-0.043479	27.9569	-0.431692	-376697	1.154222E-7	NaN
1163	1.000000	0.642939	7.37643e+06	-57439.1	1105.82	-29736.8	0.000000	0.000000	6.643008	-0.022998	NaN	0.000000	0.001603	0.001653	28.0819	0.033180	0.001978	16.7719	161.959	-165.715	-0.064095	0.641603	-0.392815	-0.394152	-0.022998	16.7719	-0.391787	-102029	2.254112E-7	NaN
1163	1.000000	0.682971	7.37643e+06	-57439.1	1105.82	-29736.8	0.000000	0.000000	6.683042	0.043239	NaN	0.000000	0.001565	0.001665	28.0821	0.019629	0.002065	9.505460	12.4679	-164.537	0.079969	0.681618	-0.352784	-0.354137	0.043239	9.505460	-0.356195	-31390.9	-1.377450E-6	NaN
1163	1.000000	0.722964	7.37643e+06	-57439.1	1105.82	-29736.8	0.000000	0.000000	6.723034	0.017122	NaN	0.000000	0.001621	0.001681	28.0807	0.072490	0.001981	36.5913	-70.9497	-163.047	0.006669	0.721665	-0.312791	-0.314090	0.017122	36.5913	-0.313142	-7370.68	-2.323040E-6	NaN
1163	1.000000	0.762975	7.37643e+06	-57439.1	1105.82	-29736.8	0.000000	0.000000	6.763043	-0.043281	NaN	0.000000	0.001583	0.001663	28.0806	0.157093	0.002060	76.243	168.547	-166.599	-0.027162	0.761660	-0.272780	-0.274095	-0.043281	76.243	-0.272354	-1808.39	2.393345E-5	NaN
1163	1.000000	0.802999	7.37643e+06	-57439.1	1105.82	-29736.8	0.000000	0.000000	6.803070	0.041453	NaN	0.000000	0.001585	0.001671	28.0806	0.033955	0.002036	16.6757	124.669	-169.278	0.004143	0.801690	-0.232756	-0.234065	0.041453	16.6757	-0.234620	-473.455	-8.755386E-5	NaN
1163	1.000000	0.843029	7.37643e+06	-57439.1	1105.82	-29736.8	0.000000	0.000000	6.843098	-0.012288	NaN	0.000000	0.001568	0.001643	28.0818	0.110547	0.001966	56.2167	162.691	-169.037	-0.013166	0.841709	-0.192726	-0.194045	-0.012288	56.2167	-0.192562	-99.2514	0.000124	NaN
1163	1.000000	0.883027	7.37643e+06	-57439.1	1105.82	-29736.8	0.000000	0.000000	6.883098	0.040876	NaN	0.000000	0.001549	0.001668	28.0817	0.106912	0.001981	53.9772	-108.971	-165.909	-0.029034	0.881784	-0.152727	-0.153971	0.040876	53.9772	-0.153295	-20.7891	-0.001966	NaN
1163	1.000000	0.923047	7.37643e+06	-57439.1	1105.82	-29736.8	0.000000	0.000000	6.923120	0.080992	NaN	0.000000	0.001665	0.001710	28.0818	0.052137	0.002029	25.6984	-173.604	-166.99	0.061005	0.921711	-0.112708	-0.114044	0.080992	25.6984	-0.115071	-3.833312	-0.021129	NaN
1163	1.000000	0.963063	7.37643e+06	-57439.1	1105.82	-29736.8	0.000000	0.000000	6.963130	-0.058705	NaN	0.000000	0.001561	0.001641	28.0804	0.061399	0.002058	29.8414	-18.581	-165.987	-0.026896	0.961766	-0.072692	-0.073989	-0.058705	29.8414	-0.071216	-0.367569	0.159711	NaN
1163	1.000000	1.003080	7.37643e+06	-57439.1	1105.82	-29736.8	0.000000	0.000000	7.003168	0.447021	NaN	0.000000	0.001561	0.001634	28.0808	0.618503	0.002096	295.053	10.3569	-166.941	0.225915	1.001744	-0.032675	-0.034011	0.447021	295.053	-0.033811	-0.029557	-15.124	NaN
1163	2.000000	1.039553	7.37643e+06	-57439.1	1105.82	-29736.8	0.000000	0.000000	7.040032	9.951221	NaN	0.000000	0.001580	0.001640	28.0815	9.743214	0.001663	5859.28	5.038235	-169.64	9.384417	1.039308	0.003798	0.003553	9.951221	5859.28	0.002524	0.001983	5017.6	120206
1163	2.000000	1.049521	7.37643e+06	-57439.1	1105.82	-29736.8	0.000000	0.000000	7.050922	32.3655	NaN	0.000000	0.001554	0.001697	28.0812	21.5778	0.001852	11650.4	4.421318	-175.492	32.4131	1.049221	0.013766	0.013466	32.3655	11650.4	0.011682	0.011112	2912.71	100977
1163	2.000000	1.059454	7.37643e+06	-57439.1	1105.82	-29736.8	0.000000	0.000000	7.062364	69.0228	NaN	0.000000	0.001631	0.001660	28.0827	31.6752	0.001701	18624.3	3.303976	-179.483	67.6807	1.059174	0.023699	0.023419	69.0228	18624.3	0.020920	0.024009	2874.93	109817
1163	2.000000	1.069453	7.37643e+06	-57439.1	1105.82	-29736.8	0.000000	0.000000	7.074284	115.731	NaN	0.000000	0.001602	0.001706	28.0829	41.8054	0.001871	22349.7	6.151040	176.627	115.414	1.069141	0.033698	0.033386	115.731	22349.7	0.029814	0.040360	2867.47	101641
1163	2.000000	1.079441	7.37643e+06	-57439.1	1105.82	-29736.8	0.000000	0.000000	7.086946	180.722	NaN	0.000000	0.001623	0.001674	28.0821	51.3879	0.001907	26947.7	5.966409	175.412	180.29	1.079011	0.043686	0.043256	180.722	26947.7	0.038657	0.060603	2982.08	100011
1163	2.000000	1.089419	7.37643e+06	-57439.1	1105.82	-29736.8	0.000000	0.000000	7.099905	253.167	NaN	0.000000	0.001574	0.001653	28.0808	60.0839	0.001775	33850.5	3.536082	175.683	251.79	1.089103	0.053664	0.053348	253.167	33850.5	0.048055	0.086497	2926.9	105157
1163	2.000000	1.099413	7.37643e+06	-57439.1	1105.82	-29736.8	0.000000	0.000000	7.113064	330.097	NaN	0.000000	0.001555	0.001668	28.0808	69.3045	0.001818	38125.7	5.141584	173.37	328.014	1.098955	0.063659	0.063201	330.097	38125.7	0.057165	0.115839	2849.61	102344
1163	2.000000	1.109293	7.37643e+06	-57439.1	1105.82	-29736.8	0.000000	0.000000	7.126005	404.489	NaN	0.000000	0.001563	0.001685	28.0808	77.0057	0.001830	42083.6	6.281544	170.991	398.085	1.109081	0.073538	0.073326	404.489	42083.6	0.066330	0.149479	2706	99448.1
1163	2.000000	1.119351	7.37643e+06	-57439.1	1105.82	-29736.8	0.000000	0.000000	7.138770	470.287	NaN	0.000000	0.001556	0.001728	28.0804	85.5989	0.001915	44691	5.126114	171.739	467.493	1.119160	0.083596	0.083405	470.287	44691	0.075704	0.188063	2500.69	94154.7
1163	2.000000	1.129330	7.37643e+06	-57439.1	1105.82	-29736.8	0.000000	0.000000	7.152236	555.03	NaN	0.000000	0.001540	0.001678	28.082	92.0238	0.001940	47443.7	4.811519	172.123	552.787	1.128915	0.093575	0.093160	555.03	47443.7	0.084801	0.229454	2418.92	90490.9
1163	2.000000	1.136894	7.37643e+06	-57439.1	1105.82	-29736.8	0.000000	0.000000	7.162003	608.58	NaN	0.000000	0.001528	0.001707	28.0817	98.6488	0.001809	54521.8	2.225629	-6.893914	607.025	1.136656	0.101139	0.100902	608.58	54521.8	0.092767	0.268842	2263.71	96071.7