File: remote_trans/data/nanoindenter/0828-1/data/Data_2025-08-06,11h17m57s/2025-07-22_16-23-58_1_149.txt
2025-07-22, 16:23:58, 1
Index	Phase	Displacement	Time	Pos X	Pos Y	Pos Z	Rot A	Rot B	Piezo Z	Force A	Force B	Gripper	Voltage A	Voltage B	Temperature	Amplitude force	Amplitude pos	Stiffness	Phase shift	Phase excitation	Force A raw	Displacement raw	HMax	HMax raw	Real Force	Real Stiffness	Contact Depth	Area	Hardness	Reduced Mod.
[#]	[#]	[um]	[s]	[um]	[um]	[um]	[m°]	[m°]	[um]	[uN]	[uN]	[V]	[V]	[V]	[°C]	[uN]	[um]	[N/m]	[°]	[°]	[uN]	[um]	[um]	[um]	[uN]	[N/m]	[um]	[um^2]	[MPa]	[MPa]
149	1.000000	0.002620	7.3665e+06	-46089.1	955.819	-29770.7	0.000000	0.000000	6.002777	-0.017115	NaN	0.000000	0.001635	0.001738	28.1288	0.060149	0.000838	71.7976	-19.2548	-165.588	-0.046821	0.001380	-1.079519	-1.080759	-0.017115	71.7976	-1.079341	-2.646437E+14	6.467202E-17	NaN
149	1.000000	0.042602	7.3665e+06	-46089.1	955.818	-29770.7	0.000000	0.000000	6.042760	-0.005795	NaN	0.000000	0.001574	0.001748	28.1294	0.050631	0.002001	25.3003	42.521	-166.216	-0.051726	0.041241	-1.039537	-1.040898	-0.005795	25.3003	-1.039365	-7.681192E+13	7.544850E-17	NaN
149	1.000000	0.082600	7.3665e+06	-46089.1	955.817	-29770.7	0.000000	0.000000	6.082759	0.020978	NaN	0.000000	0.001681	0.001771	28.1286	0.052096	0.001994	26.1278	60.4219	-165.171	0.034183	0.081291	-0.999539	-1.000847	0.020978	26.1278	-1.000141	-2.278616E+13	-9.206315E-16	NaN
149	1.000000	0.122606	7.3665e+06	-46089.1	955.818	-29770.7	0.000000	0.000000	6.122764	-0.022356	NaN	0.000000	0.001599	0.001748	28.1307	0.083398	0.001969	42.351	-53.933	-167.605	-0.073002	0.121283	-0.959533	-0.960856	-0.022356	42.351	-0.959137	-6.386022E+12	3.500717E-15	NaN
149	1.000000	0.162631	7.3665e+06	-46089.1	955.818	-29770.7	0.000000	0.000000	6.162790	0.008829	NaN	0.000000	0.001577	0.001815	28.1303	0.067960	0.002110	32.2133	-47.8162	-165.021	0.076217	0.161341	-0.919508	-0.920798	0.008829	32.2133	-0.919713	-1.876439E+12	-4.704930E-15	NaN
149	1.000000	0.202653	7.3665e+06	-46089.1	955.818	-29770.7	0.000000	0.000000	6.202816	0.106921	NaN	0.000000	0.001592	0.001759	28.1305	0.093756	0.002031	46.1668	-73.8452	-167.836	0.023663	0.201361	-0.879486	-0.880778	0.106921	46.1668	-0.881223	-5.665656E+11	-1.887169E-13	NaN
149	1.000000	0.242669	7.3665e+06	-46089.1	955.819	-29770.7	0.000000	0.000000	6.242830	0.067823	NaN	0.000000	0.001582	0.001771	28.1289	0.049209	0.001864	26.4061	20.6944	-165.388	0.092709	0.241306	-0.839470	-0.840833	0.067823	26.4061	-0.841397	-1.637620E+11	-4.141552E-13	NaN
149	1.000000	0.282706	7.3665e+06	-46089.1	955.819	-29770.7	0.000000	0.000000	6.282863	-0.026302	NaN	0.000000	0.001605	0.001756	28.1292	0.094687	0.002013	47.0358	-86.4894	-164.411	-0.031802	0.281385	-0.799433	-0.800754	-0.026302	47.0358	-0.799014	-4.359865E+10	6.032645E-13	NaN
149	1.000000	0.322691	7.3665e+06	-46089.1	955.818	-29770.7	0.000000	0.000000	6.322848	-0.021830	NaN	0.000000	0.001575	0.001774	28.1277	0.074933	0.001948	38.4757	29.5548	-167.071	-0.085116	0.321407	-0.759448	-0.760732	-0.021830	38.4757	-0.759022	-1.247394E+10	1.750059E-12	NaN
149	1.000000	0.362693	7.3665e+06	-46089.1	955.818	-29770.7	0.000000	0.000000	6.362851	-0.015537	NaN	0.000000	0.001565	0.001767	28.1287	0.052364	0.001972	26.5539	122.689	-166.761	0.020559	0.361410	-0.719445	-0.720728	-0.015537	26.5539	-0.719007	-3.555703E+9	4.369691E-12	NaN
149	1.000000	0.402743	7.3665e+06	-46089.1	955.819	-29770.7	0.000000	0.000000	6.402902	0.001769	NaN	0.000000	0.001581	0.001751	28.129	0.059755	0.002002	29.8518	-164.008	-165.719	0.002911	0.401477	-0.679396	-0.680662	0.001769	29.8518	-0.679440	-1.024584E+9	-1.726823E-12	NaN
149	1.000000	0.442738	7.3665e+06	-46089.1	955.818	-29770.7	0.000000	0.000000	6.442896	-0.013674	NaN	0.000000	0.001556	0.001750	28.1304	0.047415	0.002075	22.8491	-86.5244	-164.78	0.062861	0.441435	-0.639401	-0.640704	-0.013674	22.8491	-0.638952	-2.856986E+8	4.786000E-11	NaN
149	1.000000	0.482790	7.3665e+06	-46089.1	955.818	-29770.7	0.000000	0.000000	6.482947	-0.042110	NaN	0.000000	0.001606	0.001771	28.1293	0.039563	0.002009	19.6943	-125.997	-166.604	-0.092299	0.481478	-0.599348	-0.600661	-0.042110	19.6943	-0.597745	-7.751727E+7	5.432337E-10	NaN
149	1.000000	0.522778	7.3665e+06	-46089.1	955.818	-29770.7	0.000000	0.000000	6.522940	0.076231	NaN	0.000000	0.001605	0.001801	28.1288	0.087633	0.002020	43.3729	95.593	-165.638	0.073176	0.521517	-0.559361	-0.560622	0.076231	43.3729	-0.560679	-2.386535E+7	-3.194219E-9	NaN
149	1.000000	0.562803	7.3665e+06	-46089.1	955.819	-29770.7	0.000000	0.000000	6.562963	0.030444	NaN	0.000000	0.001607	0.001739	28.1275	0.011049	0.001902	5.810034	-45.6081	-165.421	0.002618	0.561491	-0.519335	-0.520648	0.030444	5.810034	-0.523265	-7.22772e+06	-4.212143E-9	NaN
149	1.000000	0.602811	7.3665e+06	-46089.1	955.818	-29770.7	0.000000	0.000000	6.602966	-0.073582	NaN	0.000000	0.001609	0.001761	28.1282	0.041008	0.002005	20.4505	-114.925	-165.975	-0.044117	0.601510	-0.479328	-0.480629	-0.073582	20.4505	-0.476630	-1.61558e+06	4.554504E-8	NaN
149	1.000000	0.642846	7.3665e+06	-46089.1	955.819	-29770.7	0.000000	0.000000	6.643004	-0.003657	NaN	0.000000	0.001556	0.001766	28.1268	0.099903	0.002047	48.813	-46.2332	-164.981	0.020221	0.641545	-0.439293	-0.440594	-0.003657	48.813	-0.439237	-481500	7.594694E-9	NaN
149	1.000000	0.682856	7.3665e+06	-46089.1	955.817	-29770.7	0.000000	0.000000	6.683016	0.035634	NaN	0.000000	0.001651	0.001758	28.1295	0.044222	0.002020	21.8944	49.835	-164.395	0.026694	0.681528	-0.399283	-0.400611	0.035634	21.8944	-0.400503	-135885	-2.622378E-7	NaN
149	1.000000	0.722871	7.3665e+06	-46089.1	955.818	-29770.7	0.000000	0.000000	6.723029	-0.034152	NaN	0.000000	0.001570	0.001706	28.1281	0.020159	0.002109	9.558034	164.755	-165.755	-0.042365	0.721572	-0.359267	-0.360567	-0.034152	9.558034	-0.356588	-31804.1	1.073839E-6	NaN
149	1.000000	0.762873	7.3665e+06	-46089.1	955.819	-29770.7	0.000000	0.000000	6.763030	-0.039653	NaN	0.000000	0.001592	0.001712	28.1287	0.085629	0.001902	45.0243	-15.6272	-164.657	0.010658	0.761565	-0.319266	-0.320574	-0.039653	45.0243	-0.318606	-8873.73	4.468605E-6	NaN
149	1.000000	0.802905	7.3665e+06	-46089.1	955.818	-29770.7	0.000000	0.000000	6.803059	-0.108541	NaN	0.000000	0.001600	0.001677	28.1266	0.061962	0.001856	33.3863	-58.8103	-167.43	-0.089130	0.801611	-0.279234	-0.280528	-0.108541	33.3863	-0.276795	-2111.38	5.140770E-5	NaN
149	1.000000	0.842899	7.3665e+06	-46089.1	955.819	-29770.7	0.000000	0.000000	6.843054	-0.087500	NaN	0.000000	0.001564	0.001719	28.1272	0.053085	0.001984	26.7629	-166.318	-165.919	-0.024280	0.841603	-0.239240	-0.240536	-0.087500	26.7629	-0.236788	-512.03	0.000171	NaN
149	1.000000	0.882938	7.3665e+06	-46089.1	955.818	-29770.7	0.000000	0.000000	6.883095	-0.018196	NaN	0.000000	0.001595	0.001748	28.1267	0.062423	0.002150	29.0394	109.064	-163.129	-0.019695	0.881642	-0.199201	-0.200497	-0.018196	29.0394	-0.198731	-125.553	0.000145	NaN
149	1.000000	0.922947	7.3665e+06	-46089.1	955.819	-29770.7	0.000000	0.000000	6.923103	-0.042400	NaN	0.000000	0.001569	0.001777	28.1277	0.033456	0.002048	16.3327	36.8749	-164.98	-0.090681	0.921631	-0.159192	-0.160508	-0.042400	16.3327	-0.157245	-24.4831	0.001732	NaN
149	1.000000	0.962990	7.3665e+06	-46089.1	955.819	-29770.7	0.000000	0.000000	6.963151	0.040075	NaN	0.000000	0.001568	0.001750	28.1275	0.030522	0.002083	14.6528	-56.5157	-164.358	0.099474	0.961683	-0.119148	-0.120456	0.040075	14.6528	-0.121200	-5.107831	-0.007846	NaN
149	1.000000	1.003004	7.3665e+06	-46089.1	955.818	-29770.7	0.000000	0.000000	7.003161	-0.039407	NaN	0.000000	0.001579	0.001733	28.129	0.083180	0.002039	40.8017	-119.38	-160.666	-0.109205	1.001688	-0.079135	-0.080451	-0.039407	40.8017	-0.078411	-0.564586	0.069797	NaN
149	1.000000	1.043023	7.3665e+06	-46089.1	955.818	-29770.7	0.000000	0.000000	7.043182	0.007039	NaN	0.000000	0.001624	0.001752	28.1281	0.042108	0.002075	20.2977	-14.4055	-164.497	0.027137	1.041720	-0.039116	-0.040419	0.007039	20.2977	-0.039376	-0.043293	-0.162589	NaN
149	1.000000	1.083011	7.3665e+06	-46089.1	955.819	-29770.7	0.000000	0.000000	7.083188	0.455896	NaN	0.000000	0.001599	0.001752	28.1272	0.866668	0.001949	444.565	-1.509754	-164.964	0.063224	1.081736	0.000872	-0.000403	0.455896	444.565	0.000103	7.719059E-5	5906.11	46230.2
149	2.000000	1.098473	7.3665e+06	-46089.1	955.818	-29770.7	0.000000	0.000000	7.099590	23.3218	NaN	0.000000	0.001661	0.001733	28.1258	18.0662	0.001725	10475.8	4.403406	-174.263	22.6933	1.098222	0.016334	0.016083	23.3218	10475.8	0.014664	0.014840	1571.52	78567
149	2.000000	1.108473	7.3665e+06	-46089.1	955.819	-29770.7	0.000000	0.000000	7.110630	48.6257	NaN	0.000000	0.001660	0.001729	28.1267	28.1201	0.001756	16013	3.726675	-177.473	47.8094	1.108140	0.026334	0.026001	48.6257	16013	0.024056	0.029321	1658.37	85438.3
149	2.000000	1.118464	7.3665e+06	-46089.1	955.819	-29770.7	0.000000	0.000000	7.121860	78.7537	NaN	0.000000	0.001543	0.001753	28.1255	39.1834	0.001884	20802	4.931811	179.793	78.1122	1.118106	0.036325	0.035967	78.7537	20802	0.033485	0.048278	1631.26	86497.8
149	2.000000	1.128393	7.3665e+06	-46089.1	955.818	-29770.7	0.000000	0.000000	7.133494	120.227	NaN	0.000000	0.001567	0.001706	28.1277	49.0421	0.001870	26227.2	5.538548	176.002	117.334	1.128175	0.046254	0.046036	120.227	26227.2	0.042816	0.071510	1681.27	89607.3
149	2.000000	1.138369	7.3665e+06	-46089.1	955.82	-29770.7	0.000000	0.000000	7.145258	163.73	NaN	0.000000	0.001536	0.001734	28.127	58.2928	0.001942	30014.5	5.329911	176.113	160.176	1.138177	0.056230	0.056038	163.73	30014.5	0.052138	0.099137	1651.55	87093.4
149	2.000000	1.148336	7.3665e+06	-46089.1	955.817	-29770.7	0.000000	0.000000	7.157626	222.124	NaN	0.000000	0.001551	0.001722	28.1274	66.6695	0.001887	35326	1.311435	179.81	218.226	1.148067	0.066198	0.065928	222.124	35326	0.061482	0.131175	1693.34	89113.2
149	2.000000	1.158403	7.3665e+06	-46089.1	955.818	-29770.7	0.000000	0.000000	7.170615	293.214	NaN	0.000000	0.001568	0.001786	28.1252	77.6192	0.001844	42101.5	7.054568	172.438	290.564	1.158045	0.076264	0.075906	293.214	42101.5	0.071041	0.168348	1741.71	93749
149	2.000000	1.168326	7.3665e+06	-46089.1	955.818	-29770.7	0.000000	0.000000	7.183210	358.203	NaN	0.000000	0.001595	0.001743	28.1257	86.3689	0.001706	50618.6	4.999243	172.286	354.254	1.168051	0.086187	0.085912	358.203	50618.6	0.080880	0.211139	1696.53	100647
149	2.000000	1.178357	7.3665e+06	-46089.1	955.818	-29770.7	0.000000	0.000000	7.196473	436.834	NaN	0.000000	0.001645	0.001740	28.1246	95.2921	0.001715	55579.7	5.357692	171.442	435.899	1.177998	0.096218	0.095859	436.834	55579.7	0.090323	0.256448	1703.4	100274
149	2.000000	1.188330	7.3665e+06	-46089.1	955.817	-29770.7	0.000000	0.000000	7.209086	501.032	NaN	0.000000	0.001578	0.001727	28.1276	104.187	0.001825	57091.9	2.731380	173.642	496.762	1.187967	0.106192	0.105828	501.032	57091.9	0.099610	0.304992	1642.77	94450.2
149	2.000000	1.188743	7.3665e+06	-46089.1	955.818	-29770.7	0.000000	0.000000	7.209892	510.596	NaN	0.000000	0.001585	0.001697	28.1117	104.185	0.001784	58385.8	3.961515	-7.503347	501.839	1.188479	0.106605	0.106340	510.596	58385.8	0.100046	0.307368	1661.18	96216.9