File: remote_trans/data/nanoindenter/0828-1/data/Data_2025-08-06,11h17m57s/2025-07-22_16-23-58_1_320.txt
2025-07-22, 16:23:58, 1
Index	Phase	Displacement	Time	Pos X	Pos Y	Pos Z	Rot A	Rot B	Piezo Z	Force A	Force B	Gripper	Voltage A	Voltage B	Temperature	Amplitude force	Amplitude pos	Stiffness	Phase shift	Phase excitation	Force A raw	Displacement raw	HMax	HMax raw	Real Force	Real Stiffness	Contact Depth	Area	Hardness	Reduced Mod.
[#]	[#]	[um]	[s]	[um]	[um]	[um]	[m°]	[m°]	[um]	[uN]	[uN]	[V]	[V]	[V]	[°C]	[uN]	[um]	[N/m]	[°]	[°]	[uN]	[um]	[um]	[um]	[uN]	[N/m]	[um]	[um^2]	[MPa]	[MPa]
320	1.000000	0.002314	7.3682e+06	-54639.1	955.819	-29743.4	0.000000	0.000000	6.002831	0.045153	NaN	0.000000	0.001711	0.001666	28.0796	0.099856	0.000922	108.281	-169.942	-168.534	0.073917	0.001052	-1.105616	-1.106878	0.045153	108.281	-1.105929	-6.020683E+14	-7.499661E-17	NaN
320	1.000000	0.044258	7.3682e+06	-54639.1	955.819	-29743.4	0.000000	0.000000	6.044773	0.009841	NaN	0.000000	0.001692	0.001689	28.0793	0.042808	0.001921	22.2893	142.95	14.0953	-0.004446	0.042871	-1.063672	-1.065058	0.009841	22.2893	-1.064003	-1.646702E+14	-5.975926E-17	NaN
320	1.000000	0.086237	7.3682e+06	-54639.1	955.819	-29743.4	0.000000	0.000000	6.086752	0.001108	NaN	0.000000	0.001719	0.001714	28.0804	0.031490	0.002124	14.8284	-179.185	-164.982	0.012360	0.084940	-1.021693	-1.022990	0.001108	14.8284	-1.021749	-4.451265E+13	-2.490125E-17	NaN
320	1.000000	0.128255	7.3682e+06	-54639.1	955.818	-29743.4	0.000000	0.000000	6.128769	-0.033976	NaN	0.000000	0.001702	0.001696	28.0805	0.058208	0.002051	28.3777	-164.258	14.1141	-0.001391	0.126883	-0.979674	-0.981046	-0.033976	28.3777	-0.978776	-1.174690E+13	2.892377E-15	NaN
320	1.000000	0.170291	7.3682e+06	-54639.1	955.817	-29743.4	0.000000	0.000000	6.170810	0.080996	NaN	0.000000	0.001711	0.001652	28.0804	0.079811	0.001974	40.4327	-146.054	-164.904	0.090717	0.168952	-0.937638	-0.938977	0.080996	40.4327	-0.939141	-3.431976E+12	-2.360044E-14	NaN
320	1.000000	0.212325	7.3682e+06	-54639.1	955.818	-29743.4	0.000000	0.000000	6.212840	0.008053	NaN	0.000000	0.001682	0.001657	28.0791	0.063424	0.001994	31.8041	173.54	11.4982	-0.048601	0.210919	-0.895605	-0.897011	0.008053	31.8041	-0.895795	-8.917429E+11	-9.030765E-15	NaN
320	1.000000	0.254321	7.3682e+06	-54639.1	955.819	-29743.4	0.000000	0.000000	6.254836	0.010741	NaN	0.000000	0.001644	0.001616	28.079	0.091421	0.002041	44.7911	44.4664	-165.934	-0.085811	0.252979	-0.853609	-0.854951	0.010741	44.7911	-0.853789	-2.410130E+11	-4.456793E-14	NaN
320	1.000000	0.296361	7.3682e+06	-54639.1	955.819	-29743.4	0.000000	0.000000	6.296876	-0.019016	NaN	0.000000	0.001664	0.001681	28.0789	0.191974	0.002105	91.22	126.907	13.9999	0.014029	0.294956	-0.811569	-0.812973	-0.019016	91.22	-0.811412	-6.422898E+10	2.960667E-13	NaN
320	1.000000	0.338324	7.3682e+06	-54639.1	955.818	-29743.4	0.000000	0.000000	6.338842	0.062504	NaN	0.000000	0.001668	0.001727	28.0788	0.067654	0.002076	32.5925	-87.8787	-166.678	0.086392	0.337033	-0.769606	-0.770896	0.062504	32.5925	-0.771044	-1.817626E+10	-3.438755E-12	NaN
320	1.000000	0.380372	7.3682e+06	-54639.1	955.819	-29743.4	0.000000	0.000000	6.380888	0.029667	NaN	0.000000	0.001661	0.001695	28.0805	0.064990	0.001908	34.0644	-139.022	14.8408	-0.053880	0.378996	-0.727558	-0.728934	0.029667	34.0644	-0.728211	-4.747050E+9	-6.249489E-12	NaN
320	1.000000	0.422399	7.3682e+06	-54639.1	955.819	-29743.4	0.000000	0.000000	6.422914	-0.007858	NaN	0.000000	0.001647	0.001665	28.0803	0.064138	0.002086	30.7534	-169.968	-164.005	-0.013554	0.421073	-0.685531	-0.686857	-0.007858	30.7534	-0.685339	-1.233693E+9	6.369872E-12	NaN
320	1.000000	0.464391	7.3682e+06	-54639.1	955.819	-29743.4	0.000000	0.000000	6.464904	-0.061791	NaN	0.000000	0.001673	0.001686	28.0806	0.024393	0.001917	12.7226	105.047	16.4007	-0.015051	0.463009	-0.643538	-0.644921	-0.061791	12.7226	-0.639896	-2.943465E+8	2.099256E-10	NaN
320	1.000000	0.506410	7.3682e+06	-54639.1	955.818	-29743.4	0.000000	0.000000	6.506923	-0.042403	NaN	0.000000	0.001687	0.001650	28.0792	0.096483	0.002021	47.7509	126.961	-165.954	-0.049423	0.505093	-0.601520	-0.602837	-0.042403	47.7509	-0.600854	-8.554998E+7	4.956497E-10	NaN
320	1.000000	0.548432	7.3682e+06	-54639.1	955.818	-29743.4	0.000000	0.000000	6.548950	0.069309	NaN	0.000000	0.001675	0.001663	28.0791	0.030160	0.002032	14.8454	-158.43	17.6972	-0.019355	0.547064	-0.559498	-0.560866	0.069309	14.8454	-0.563000	-2.569595E+7	-2.697281E-9	NaN
320	1.000000	0.590462	7.3682e+06	-54639.1	955.818	-29743.4	0.000000	0.000000	6.590974	-0.082670	NaN	0.000000	0.001736	0.001626	28.0793	0.026192	0.001960	13.3633	-85.8643	-163.623	0.046905	0.589134	-0.517467	-0.518796	-0.082670	13.3633	-0.512827	-5.17357e+06	1.597920E-8	NaN
320	1.000000	0.632477	7.3682e+06	-54639.1	955.819	-29743.4	0.000000	0.000000	6.632991	-0.020407	NaN	0.000000	0.001724	0.001653	28.0803	0.034055	0.002078	16.3848	33.1611	15.1111	-0.140849	0.631109	-0.475453	-0.476821	-0.020407	16.3848	-0.474519	-1.50924e+06	1.352123E-8	NaN
320	1.000000	0.674501	7.3682e+06	-54639.1	955.82	-29743.4	0.000000	0.000000	6.675017	0.018898	NaN	0.000000	0.001699	0.001684	28.0807	0.060360	0.002068	29.1894	127.078	-164.294	0.055564	0.673151	-0.433428	-0.434778	0.018898	29.1894	-0.433914	-404954	-4.666657E-8	NaN
320	1.000000	0.716488	7.3682e+06	-54639.1	955.818	-29743.4	0.000000	0.000000	6.717002	-0.041719	NaN	0.000000	0.001750	0.001650	28.0804	0.025839	0.001969	13.1233	-89.8181	16.4801	-0.057080	0.715166	-0.391441	-0.392763	-0.041719	13.1233	-0.389057	-93255.8	4.473627E-7	NaN
320	1.000000	0.758523	7.3682e+06	-54639.1	955.818	-29743.4	0.000000	0.000000	6.759040	0.057658	NaN	0.000000	0.001685	0.001645	28.0789	0.110515	0.002165	51.0566	126.839	-164.815	-0.039863	0.757206	-0.349407	-0.350724	0.057658	51.0566	-0.350254	-25744.8	-2.239592E-6	NaN
320	1.000000	0.800537	7.3682e+06	-54639.1	955.818	-29743.4	0.000000	0.000000	6.801052	-0.023515	NaN	0.000000	0.001713	0.001669	28.0792	0.034895	0.002061	16.9317	123.902	16.3348	-0.126149	0.799179	-0.307392	-0.308751	-0.023515	16.9317	-0.306351	-5847.83	4.021092E-6	NaN
320	1.000000	0.842593	7.3682e+06	-54639.1	955.819	-29743.4	0.000000	0.000000	6.843108	-0.017086	NaN	0.000000	0.001634	0.001681	28.0794	0.093494	0.002088	44.7867	18.256	-165.283	0.019315	0.841224	-0.265337	-0.266705	-0.017086	44.7867	-0.265050	-1400.1	1.220323E-5	NaN
320	1.000000	0.884584	7.3682e+06	-54639.1	955.818	-29743.4	0.000000	0.000000	6.885098	-0.033691	NaN	0.000000	0.001685	0.001676	28.0795	0.059121	0.001873	31.5602	-157.242	17.9472	0.008431	0.883208	-0.223346	-0.224722	-0.033691	31.5602	-0.222545	-304.993	0.000110	NaN
320	1.000000	0.926628	7.3682e+06	-54639.1	955.818	-29743.4	0.000000	0.000000	6.927142	-0.030782	NaN	0.000000	0.001667	0.001681	28.0805	0.052299	0.002143	24.4027	106.338	-166.257	-0.140788	0.925285	-0.181302	-0.182645	-0.030782	24.4027	-0.180356	-61.876	0.000497	NaN
320	1.000000	0.968618	7.3682e+06	-54639.1	955.818	-29743.4	0.000000	0.000000	6.969133	0.003440	NaN	0.000000	0.001642	0.001701	28.0805	0.076900	0.001889	40.702	133.971	12.5098	-0.039124	0.967246	-0.139312	-0.140684	0.003440	40.702	-0.139375	-11.5139	-0.000299	NaN
320	1.000000	1.010646	7.3682e+06	-54639.1	955.818	-29743.4	0.000000	0.000000	7.011161	-0.010566	NaN	0.000000	0.001677	0.001668	28.0805	0.083585	0.002014	41.5107	99.4049	-163.35	0.020528	1.009334	-0.097283	-0.098596	-0.010566	41.5107	-0.097092	-1.573302	0.006716	NaN
320	1.000000	1.052661	7.3682e+06	-54639.1	955.818	-29743.4	0.000000	0.000000	7.053176	-0.014250	NaN	0.000000	0.001655	0.001680	28.0793	0.084216	0.002052	41.0457	95.4553	14.1779	0.027292	1.051263	-0.055269	-0.056666	-0.014250	41.0457	-0.055008	-0.128852	0.110590	NaN
320	1.000000	1.094667	7.3682e+06	-54639.1	955.819	-29743.4	0.000000	0.000000	7.095182	-0.013396	NaN	0.000000	0.001733	0.001646	28.0796	0.043621	0.002028	21.5127	-50.7544	-163.298	-0.074907	1.093348	-0.013263	-0.014581	-0.013396	21.5127	-0.012796	-0.007985	1.677668	NaN
320	2.000000	1.123706	7.3682e+06	-54639.1	955.819	-29743.4	0.000000	0.000000	7.124728	12.323	NaN	0.000000	0.001743	0.001654	28.079	12.4265	0.001781	6976.41	7.660190	6.903740	12.5477	1.123346	0.015776	0.015416	12.323	6976.41	0.014451	0.014561	846.332	52822.2
320	2.000000	1.134125	7.3682e+06	-54639.1	955.818	-29743.4	0.000000	0.000000	7.135867	29.8095	NaN	0.000000	0.001705	0.001673	28.0805	22.9223	0.001824	12570.3	5.536610	-176.329	30.0634	1.133878	0.026196	0.025949	29.8095	12570.3	0.024417	0.029964	994.847	66346.6
320	2.000000	1.144642	7.3682e+06	-54639.1	955.819	-29743.4	0.000000	0.000000	7.147350	53.298	NaN	0.000000	0.001689	0.001686	28.0802	32.6823	0.001813	18026	5.786354	-0.650484	53.0403	1.144338	0.036712	0.036409	53.298	18026	0.034495	0.050576	1053.82	73232.1
320	2.000000	1.155131	7.3682e+06	-54639.1	955.818	-29743.4	0.000000	0.000000	7.159094	83.8134	NaN	0.000000	0.001700	0.001705	28.0805	42.6248	0.001766	24139.4	8.782527	173.809	85.5531	1.154790	0.047202	0.046860	83.8134	24139.4	0.044598	0.076449	1096.33	79765.3
320	2.000000	1.165596	7.3682e+06	-54639.1	955.818	-29743.4	0.000000	0.000000	7.171205	123.832	NaN	0.000000	0.001730	0.001693	28.0791	51.1748	0.001624	31504.4	2.931559	-2.594499	122.055	1.165387	0.057667	0.057457	123.832	31504.4	0.054719	0.107554	1151.35	87767.1
320	2.000000	1.176000	7.3682e+06	-54639.1	955.819	-29743.4	0.000000	0.000000	7.183830	177.827	NaN	0.000000	0.001744	0.001682	28.0791	62.4742	0.001868	33450.7	3.756235	177.287	174.379	1.175728	0.068070	0.067798	177.827	33450.7	0.064083	0.140855	1262.48	81431.6
320	2.000000	1.186634	7.3682e+06	-54639.1	955.82	-29743.4	0.000000	0.000000	7.196783	234.189	NaN	0.000000	0.001708	0.001676	28.0794	72.8683	0.001921	37938.7	6.420533	-6.010286	238.282	1.186147	0.078705	0.078218	234.189	37938.7	0.074075	0.181059	1293.44	81460.4
320	2.000000	1.197040	7.3682e+06	-54639.1	955.819	-29743.4	0.000000	0.000000	7.210051	303.748	NaN	0.000000	0.001735	0.001679	28.0792	82.1804	0.001733	47421.7	5.257604	172.905	304.676	1.196764	0.089111	0.088834	303.748	47421.7	0.084307	0.227107	1337.47	90915
320	2.000000	1.207546	7.3682e+06	-54639.1	955.819	-29743.4	0.000000	0.000000	7.223687	379.855	NaN	0.000000	0.001767	0.001682	28.0807	92.3756	0.001783	51811.4	4.382637	-7.088776	378.235	1.207086	0.099616	0.099156	379.855	51811.4	0.094118	0.275809	1377.24	90135.3
320	2.000000	1.217920	7.3682e+06	-54639.1	955.819	-29743.4	0.000000	0.000000	7.237354	459.916	NaN	0.000000	0.001769	0.001737	28.0808	103.292	0.001860	55521.2	6.090303	170.691	452.93	1.217732	0.109990	0.109803	459.916	55521.2	0.103778	0.328057	1401.94	88564