File: remote_trans/data/nanoindenter/0828-1/data/Data_2025-08-06,11h17m57s/2025-07-22_16-23-58_1_1010.txt
2025-07-22, 16:23:58, 1
Index	Phase	Displacement	Time	Pos X	Pos Y	Pos Z	Rot A	Rot B	Piezo Z	Force A	Force B	Gripper	Voltage A	Voltage B	Temperature	Amplitude force	Amplitude pos	Stiffness	Phase shift	Phase excitation	Force A raw	Displacement raw	HMax	HMax raw	Real Force	Real Stiffness	Contact Depth	Area	Hardness	Reduced Mod.
[#]	[#]	[um]	[s]	[um]	[um]	[um]	[m°]	[m°]	[um]	[uN]	[uN]	[V]	[V]	[V]	[°C]	[uN]	[um]	[N/m]	[°]	[°]	[uN]	[um]	[um]	[um]	[uN]	[N/m]	[um]	[um^2]	[MPa]	[MPa]
1010	1.000000	0.002811	7.37493e+06	-50639.1	1055.82	-29754.9	0.000000	0.000000	6.002793	0.025872	NaN	0.000000	0.001664	0.001765	28.0816	0.059850	0.000963	62.1379	-18.8561	-168.204	0.107990	0.001583	-1.112595	-1.113824	0.025872	62.1379	-1.112908	-7.469761E+14	-3.463513E-17	NaN
1010	1.000000	0.044752	7.37493e+06	-50639.1	1055.82	-29754.9	0.000000	0.000000	6.044732	0.008734	NaN	0.000000	0.001657	0.001771	28.0829	0.083010	0.002036	40.7757	-61.7271	17.2099	0.013656	0.043387	-1.070655	-1.072020	0.008734	40.7757	-1.070816	-2.033038E+14	-4.296177E-17	NaN
1010	1.000000	0.086769	7.37493e+06	-50639.1	1055.82	-29754.9	0.000000	0.000000	6.086749	-0.005058	NaN	0.000000	0.001660	0.001761	28.083	0.029139	0.001966	14.8192	108.203	-165.957	-0.012412	0.085470	-1.028637	-1.029937	-0.005058	14.8192	-1.028381	-5.466508E+13	9.253092E-17	NaN
1010	1.000000	0.128787	7.37493e+06	-50639.1	1055.82	-29754.9	0.000000	0.000000	6.128766	-0.027362	NaN	0.000000	0.001636	0.001767	28.0826	0.047407	0.001896	25.0083	-175.006	14.7789	0.025524	0.127443	-0.986620	-0.987963	-0.027362	25.0083	-0.985799	-1.460612E+13	1.873352E-15	NaN
1010	1.000000	0.170798	7.37493e+06	-50639.1	1055.82	-29754.9	0.000000	0.000000	6.170776	-0.050542	NaN	0.000000	0.001678	0.001742	28.0817	0.070191	0.001969	35.6478	6.541599	-163.583	-0.041887	0.169500	-0.944609	-0.945907	-0.050542	35.6478	-0.943546	-3.935238E+12	1.284333E-14	NaN
1010	1.000000	0.212818	7.37493e+06	-50639.1	1055.82	-29754.9	0.000000	0.000000	6.212797	-0.031770	NaN	0.000000	0.001641	0.001749	28.0812	0.137250	0.001989	68.9982	-174.894	12.2488	0.005405	0.211470	-0.902589	-0.903937	-0.031770	68.9982	-0.902243	-1.089872E+12	2.914987E-14	NaN
1010	1.000000	0.254825	7.37493e+06	-50639.1	1055.82	-29754.9	0.000000	0.000000	6.254803	-0.066745	NaN	0.000000	0.001751	0.001764	28.0812	0.052009	0.001968	26.4333	-168.636	-162.176	-0.106615	0.253543	-0.860582	-0.861864	-0.066745	26.4333	-0.858688	-2.807754E+11	2.377173E-13	NaN
1010	1.000000	0.296884	7.37493e+06	-50639.1	1055.82	-29754.9	0.000000	0.000000	6.296866	0.038508	NaN	0.000000	0.001691	0.001745	28.0824	0.115840	0.002099	55.1801	-155.685	15.9317	0.029590	0.295501	-0.818523	-0.819906	0.038508	55.1801	-0.819046	-8.152230E+10	-4.723633E-13	NaN
1010	1.000000	0.338870	7.37493e+06	-50639.1	1055.82	-29754.9	0.000000	0.000000	6.338848	-0.052954	NaN	0.000000	0.001667	0.001771	28.0823	0.074201	0.001950	38.045	-108.885	-163.474	-0.023981	0.337551	-0.776537	-0.777856	-0.052954	38.045	-0.775493	-2.089183E+10	2.534687E-12	NaN
1010	1.000000	0.380908	7.37493e+06	-50639.1	1055.82	-29754.9	0.000000	0.000000	6.380888	-0.004093	NaN	0.000000	0.001634	0.001743	28.0823	0.069280	0.001983	34.9374	-90.9233	18.6551	0.045400	0.379577	-0.734499	-0.735829	-0.004093	34.9374	-0.734411	-5.766562E+9	7.097317E-13	NaN
1010	1.000000	0.422922	7.37493e+06	-50639.1	1055.82	-29754.9	0.000000	0.000000	6.422901	-0.018759	NaN	0.000000	0.001635	0.001783	28.0823	0.042347	0.001963	21.569	-7.888188	-164.267	-0.037868	0.421609	-0.692485	-0.693798	-0.018759	21.569	-0.691833	-1.513440E+9	1.239503E-11	NaN
1010	1.000000	0.464933	7.37493e+06	-50639.1	1055.82	-29754.9	0.000000	0.000000	6.464915	0.046961	NaN	0.000000	0.001666	0.001730	28.0811	0.128937	0.002002	64.3916	-179.723	15.9315	0.057885	0.463536	-0.650474	-0.651871	0.046961	64.3916	-0.651021	-4.182447E+8	-1.122804E-10	NaN
1010	1.000000	0.506983	7.37493e+06	-50639.1	1055.82	-29754.9	0.000000	0.000000	6.506960	-0.067735	NaN	0.000000	0.001683	0.001739	28.0811	0.016847	0.001992	8.455991	-132.955	-169.563	0.024053	0.505642	-0.608424	-0.609764	-0.067735	8.455991	-0.602416	-8.989479E+7	7.534908E-10	NaN
1010	1.000000	0.548962	7.37493e+06	-50639.1	1055.82	-29754.9	0.000000	0.000000	6.548943	0.014030	NaN	0.000000	0.001691	0.001724	28.0812	0.031390	0.002068	15.1792	-36.7693	17.7278	0.042407	0.547598	-0.566445	-0.567809	0.014030	15.1792	-0.567138	-2.931439E+7	-4.786174E-10	NaN
1010	1.000000	0.590980	7.37493e+06	-50639.1	1055.82	-29754.9	0.000000	0.000000	6.590959	-0.039573	NaN	0.000000	0.001683	0.001732	28.0823	0.106240	0.001936	54.8857	139.615	-164.261	-0.038413	0.589677	-0.524427	-0.525730	-0.039573	54.8857	-0.523886	-7.37269e+06	5.367555E-9	NaN
1010	1.000000	0.633018	7.37493e+06	-50639.1	1055.82	-29754.9	0.000000	0.000000	6.632997	-0.017822	NaN	0.000000	0.001723	0.001707	28.0822	0.059977	0.002088	28.7215	79.4557	14.2886	-0.085172	0.631631	-0.482389	-0.483776	-0.017822	28.7215	-0.481924	-1.91625e+06	9.300287E-9	NaN
1010	1.000000	0.675052	7.37493e+06	-50639.1	1055.82	-29754.9	0.000000	0.000000	6.675032	0.012811	NaN	0.000000	0.001718	0.001744	28.0823	0.140398	0.002040	68.8332	54.8136	-164.631	0.027781	0.673661	-0.440355	-0.441746	0.012811	68.8332	-0.440495	-501587	-2.554152E-8	NaN
1010	1.000000	0.717036	7.37493e+06	-50639.1	1055.82	-29754.9	0.000000	0.000000	6.717017	0.020443	NaN	0.000000	0.001754	0.001753	28.0812	0.060321	0.002035	29.644	68.0988	19.3833	-0.046457	0.715695	-0.398371	-0.399712	0.020443	29.644	-0.398888	-128864	-1.586422E-7	NaN
1010	1.000000	0.759059	7.37493e+06	-50639.1	1055.82	-29754.9	0.000000	0.000000	6.759040	0.031617	NaN	0.000000	0.001734	0.001741	28.081	0.154009	0.002143	71.8719	147.975	-164.511	0.057385	0.757763	-0.356348	-0.357643	0.031617	71.8719	-0.356678	-31900.2	-9.911214E-7	NaN
1010	1.000000	0.801071	7.37493e+06	-50639.1	1055.82	-29754.9	0.000000	0.000000	6.801051	-0.004352	NaN	0.000000	0.001708	0.001776	28.0811	0.128971	0.001975	65.3153	154.041	10.2736	-0.059943	0.799723	-0.314335	-0.315684	-0.004352	65.3153	-0.314285	-7663	5.679722E-7	NaN
1010	1.000000	0.843118	7.37493e+06	-50639.1	1055.82	-29754.9	0.000000	0.000000	6.843096	-0.046182	NaN	0.000000	0.001702	0.001772	28.0823	0.018950	0.001817	10.4303	131.144	-163.536	-0.086435	0.841736	-0.272289	-0.273671	-0.046182	10.4303	-0.268968	-1606.4	2.874860E-5	NaN
1010	1.000000	0.885142	7.37493e+06	-50639.1	1055.82	-29754.9	0.000000	0.000000	6.885123	0.025252	NaN	0.000000	0.001759	0.001763	28.0822	0.048237	0.002136	22.5844	150.061	16.2043	0.091835	0.883721	-0.230265	-0.231686	0.025252	22.5844	-0.231104	-416.803	-6.058587E-5	NaN
1010	1.000000	0.927141	7.37493e+06	-50639.1	1055.82	-29754.9	0.000000	0.000000	6.927121	0.000886	NaN	0.000000	0.001670	0.001735	28.0825	0.042960	0.001985	21.6445	-107.869	-162.868	0.018852	0.925818	-0.188266	-0.189589	0.000886	21.6445	-0.188297	-84.2433	-1.051493E-5	NaN
1010	1.000000	0.969135	7.37493e+06	-50639.1	1055.82	-29754.9	0.000000	0.000000	6.969115	-0.009923	NaN	0.000000	0.001674	0.001758	28.0824	0.093847	0.001888	49.7192	79.6552	13.7231	-0.024198	0.967796	-0.146272	-0.147611	-0.009923	49.7192	-0.146122	-15.3778	0.000645	NaN
1010	1.000000	1.011197	7.37493e+06	-50639.1	1055.82	-29754.9	0.000000	0.000000	7.011178	0.029517	NaN	0.000000	0.001664	0.001784	28.0813	0.021170	0.001950	10.8564	148.83	-166.409	0.014074	1.009846	-0.104210	-0.105561	0.029517	10.8564	-0.106249	-2.500772	-0.011803	NaN
1010	1.000000	1.053145	7.37493e+06	-50639.1	1055.82	-29754.9	0.000000	0.000000	7.053127	0.035638	NaN	0.000000	0.001689	0.001775	28.081	0.137117	0.001972	69.5373	-71.7741	15.6725	0.096814	1.051808	-0.062261	-0.063599	0.035638	69.5373	-0.062646	-0.214161	-0.166407	NaN
1010	1.000000	1.095167	7.37493e+06	-50639.1	1055.82	-29754.9	0.000000	0.000000	7.095145	-0.053243	NaN	0.000000	0.001728	0.001710	28.0813	0.080379	0.002124	37.8431	124.518	-164.939	-0.046040	1.093928	-0.020240	-0.021479	-0.053243	37.8431	-0.019185	-0.011974	4.446469	NaN
1010	2.000000	1.126258	7.37493e+06	-50639.1	1055.82	-29754.9	0.000000	0.000000	7.126754	12.5523	NaN	0.000000	0.001638	0.001758	28.0824	12.4848	0.001743	7164.61	8.229432	4.454180	11.4198	1.125962	0.010851	0.010555	12.5523	7164.61	0.009537	0.008671	1447.55	70294.7
1010	2.000000	1.136717	7.37493e+06	-50639.1	1055.82	-29754.9	0.000000	0.000000	7.137975	31.0739	NaN	0.000000	0.001657	0.001762	28.0825	22.6622	0.001811	12512.4	6.343776	-178.054	30.7873	1.136405	0.021310	0.020998	31.0739	12512.4	0.019447	0.021682	1433.2	77637.1
1010	2.000000	1.147220	7.37493e+06	-50639.1	1055.82	-29754.9	0.000000	0.000000	7.149687	60.4965	NaN	0.000000	0.001684	0.001724	28.0826	32.9481	0.001822	18083.1	8.763507	-3.284417	60.8129	1.146761	0.031813	0.031354	60.4965	18083.1	0.029304	0.039313	1538.85	83325.8
1010	2.000000	1.157634	7.37493e+06	-50639.1	1055.82	-29754.9	0.000000	0.000000	7.161785	101.408	NaN	0.000000	0.001727	0.001740	28.0813	42.4662	0.001772	23964	4.642626	176.862	98.6893	1.157308	0.042228	0.041901	101.408	23964	0.039054	0.061606	1646.06	88210.6
1010	2.000000	1.168135	7.37493e+06	-50639.1	1055.82	-29754.9	0.000000	0.000000	7.173903	140.75	NaN	0.000000	0.001687	0.001734	28.0816	53.1016	0.001823	29124.4	5.268725	-5.827020	137.579	1.167896	0.052728	0.052489	140.75	29124.4	0.049104	0.089662	1569.77	88863.7
1010	2.000000	1.178747	7.37493e+06	-50639.1	1055.82	-29754.9	0.000000	0.000000	7.186761	195.368	NaN	0.000000	0.001686	0.001720	28.0812	62.4252	0.001842	33886.5	2.993539	175.963	197.953	1.178259	0.063340	0.062852	195.368	33886.5	0.059016	0.122304	1597.39	88527.5
1010	2.000000	1.189154	7.37493e+06	-50639.1	1055.82	-29754.9	0.000000	0.000000	7.199708	257.127	NaN	0.000000	0.001677	0.001769	28.0823	71.4661	0.001803	39638.5	0.961066	-3.470064	256.062	1.188865	0.073747	0.073459	257.127	39638.5	0.068882	0.159569	1611.38	90660
1010	2.000000	1.199700	7.37493e+06	-50639.1	1055.82	-29754.9	0.000000	0.000000	7.212927	322.136	NaN	0.000000	0.001706	0.001660	28.0823	81.682	0.001805	45257.5	3.382734	173.14	326.746	1.199278	0.084293	0.083871	322.136	45257.5	0.078955	0.202411	1591.5	91906.7
1010	2.000000	1.210040	7.37494e+06	-50639.1	1055.82	-29754.9	0.000000	0.000000	7.226782	407.615	NaN	0.000000	0.001660	0.001682	28.0822	90.9221	0.001707	53259.6	3.577463	-7.835695	401.393	1.209753	0.094633	0.094347	407.615	53259.6	0.088893	0.249322	1634.89	97452
1010	2.000000	1.220686	7.37494e+06	-50639.1	1055.82	-29754.9	0.000000	0.000000	7.240132	473.375	NaN	0.000000	0.001665	0.001684	28.0823	100.706	0.001661	60639.1	4.773381	169.594	476.467	1.220408	0.105279	0.105002	473.375	60639.1	0.099424	0.303983	1557.24	100485
1010	2.000000	1.221053	7.37494e+06	-50639.1	1055.82	-29754.9	0.000000	0.000000	7.240648	477.008	NaN	0.000000	0.001665	0.001707	28.0822	101.267	0.001848	54788.5	5.579477	-10.9931	472.25	1.220820	0.105646	0.105413	477.008	54788.5	0.099116	0.302314	1577.86	91040.2