File: remote_trans/data/nanoindenter/0828-1/data/Data_2025-08-06,11h17m57s/2025-07-22_16-23-58_1_124.txt
2025-07-22, 16:23:58, 1
Index	Phase	Displacement	Time	Pos X	Pos Y	Pos Z	Rot A	Rot B	Piezo Z	Force A	Force B	Gripper	Voltage A	Voltage B	Temperature	Amplitude force	Amplitude pos	Stiffness	Phase shift	Phase excitation	Force A raw	Displacement raw	HMax	HMax raw	Real Force	Real Stiffness	Contact Depth	Area	Hardness	Reduced Mod.
[#]	[#]	[um]	[s]	[um]	[um]	[um]	[m°]	[m°]	[um]	[uN]	[uN]	[V]	[V]	[V]	[°C]	[uN]	[um]	[N/m]	[°]	[°]	[uN]	[um]	[um]	[um]	[uN]	[N/m]	[um]	[um^2]	[MPa]	[MPa]
124	1.000000	0.002084	7.36625e+06	-44839.1	955.818	-29775	0.000000	0.000000	6.002780	0.064498	NaN	0.000000	0.001614	0.001808	28.0852	0.096544	0.000872	110.653	153.048	-165.154	0.018676	0.000861	-1.111887	-1.113110	0.064498	110.653	-1.112325	-7.336408E+14	-8.791495E-17	NaN
124	1.000000	0.044042	7.36625e+06	-44839.1	955.818	-29775	0.000000	0.000000	6.044736	-0.010055	NaN	0.000000	0.001521	0.001795	28.1232	0.036077	0.002040	17.6815	-32.0212	18.7871	0.052537	0.042749	-1.069929	-1.071223	-0.010055	17.6815	-1.069503	-1.952129E+14	5.150679E-17	NaN
124	1.000000	0.086084	7.36625e+06	-44839.1	955.819	-29775	0.000000	0.000000	6.086777	-0.025776	NaN	0.000000	0.001538	0.001747	28.1169	0.096495	0.001984	48.6427	-40.6908	-165.81	0.054692	0.084789	-1.027888	-1.029183	-0.025776	48.6427	-1.027490	-5.317657E+13	4.847196E-16	NaN
124	1.000000	0.128103	7.36625e+06	-44839.1	955.818	-29775	0.000000	0.000000	6.128797	-0.000743	NaN	0.000000	0.001524	0.001757	28.0833	0.043461	0.001949	22.3036	-155.954	15.989	0.002415	0.126749	-0.985868	-0.987222	-0.000743	22.3036	-0.985843	-1.462597E+13	5.079046E-17	NaN
124	1.000000	0.170119	7.36625e+06	-44839.1	955.818	-29775	0.000000	0.000000	6.170816	0.073188	NaN	0.000000	0.001527	0.001784	28.0864	0.058443	0.002082	28.0741	-167.93	-162.429	0.083480	0.168793	-0.943852	-0.945178	0.073188	28.0741	-0.945807	-4.221597E+12	-1.733664E-14	NaN
124	1.000000	0.212111	7.36625e+06	-44839.1	955.819	-29775	0.000000	0.000000	6.212806	0.030596	NaN	0.000000	0.001529	0.001792	28.1222	0.099800	0.002064	48.3419	-12.6945	12.6769	0.083744	0.210775	-0.901861	-0.903197	0.030596	48.3419	-0.902336	-1.093009E+12	-2.799207E-14	NaN
124	1.000000	0.254121	7.36625e+06	-44839.1	955.817	-29775	0.000000	0.000000	6.254816	0.034062	NaN	0.000000	0.001557	0.001785	28.1167	0.043668	0.002008	21.7504	-37.7578	-161.437	0.030227	0.252846	-0.859850	-0.861125	0.034062	21.7504	-0.861025	-3.019892E+11	-1.127911E-13	NaN
124	1.000000	0.296173	7.36625e+06	-44839.1	955.818	-29775	0.000000	0.000000	6.296869	0.046879	NaN	0.000000	0.001560	0.001786	28.081	0.101241	0.001926	52.5711	-154.745	12.929	-0.048840	0.294748	-0.817798	-0.819223	0.046879	52.5711	-0.818467	-8.006087E+10	-5.855378E-13	NaN
124	1.000000	0.338202	7.36625e+06	-44839.1	955.818	-29775	0.000000	0.000000	6.338898	0.056941	NaN	0.000000	0.001574	0.001757	28.0861	0.111371	0.002034	54.7447	111.143	-166.778	-0.009276	0.336892	-0.775769	-0.777079	0.056941	54.7447	-0.776549	-2.159413E+10	-2.636851E-12	NaN
124	1.000000	0.380181	7.36625e+06	-44839.1	955.818	-29775	0.000000	0.000000	6.380877	0.043499	NaN	0.000000	0.001560	0.001780	28.1224	0.131066	0.002028	64.6329	118.926	16.0045	0.107614	0.378874	-0.733790	-0.735097	0.043499	64.6329	-0.734295	-5.745661E+9	-7.570770E-12	NaN
124	1.000000	0.422206	7.36625e+06	-44839.1	955.818	-29775	0.000000	0.000000	6.422903	0.059694	NaN	0.000000	0.001638	0.001759	28.1187	0.037747	0.002044	18.4702	137.614	-162.697	0.017290	0.420902	-0.691765	-0.693069	0.059694	18.4702	-0.694189	-1.629885E+9	-3.662455E-11	NaN
124	1.000000	0.464237	7.36625e+06	-44839.1	955.819	-29775	0.000000	0.000000	6.464935	0.099274	NaN	0.000000	0.001579	0.001761	28.0812	0.100380	0.001986	50.5349	-93.8521	17.3862	0.131800	0.462865	-0.649735	-0.651107	0.099274	50.5349	-0.651208	-4.207243E+8	-2.359603E-10	NaN
124	1.000000	0.506241	7.36625e+06	-44839.1	955.819	-29775	0.000000	0.000000	6.506934	-0.031765	NaN	0.000000	0.001602	0.001778	28.0838	0.158662	0.001932	82.1044	-157.13	-169.772	-0.043776	0.504935	-0.607730	-0.609036	-0.031765	82.1044	-0.607440	-1.054115E+8	3.013396E-10	NaN
124	1.000000	0.548241	7.36625e+06	-44839.1	955.818	-29775	0.000000	0.000000	6.548938	0.078574	NaN	0.000000	0.001583	0.001786	28.1213	0.060802	0.002010	30.2437	-167.492	15.2574	-0.046101	0.546889	-0.565731	-0.567082	0.078574	30.2437	-0.567679	-2.982380E+7	-2.634607E-9	NaN
124	1.000000	0.590296	7.36625e+06	-44839.1	955.819	-29775	0.000000	0.000000	6.590992	0.048848	NaN	0.000000	0.001649	0.001758	28.1187	0.098896	0.001942	50.9217	-49.5601	-167.688	-0.002728	0.588950	-0.523675	-0.525022	0.048848	50.9217	-0.524395	-7.49373e+06	-6.518546E-9	NaN
124	1.000000	0.632316	7.36625e+06	-44839.1	955.818	-29775	0.000000	0.000000	6.633013	0.060733	NaN	0.000000	0.001619	0.001827	28.0827	0.024375	0.001802	13.5288	-49.7053	12.979	0.055913	0.630897	-0.481655	-0.483074	0.060733	13.5288	-0.485022	-2.11738e+06	-2.868296E-8	NaN
124	1.000000	0.674307	7.36625e+06	-44839.1	955.819	-29775	0.000000	0.000000	6.675004	0.057604	NaN	0.000000	0.001618	0.001822	28.0842	0.083995	0.001968	42.6887	171.538	-164.064	0.057684	0.673002	-0.439664	-0.440970	0.057604	42.6887	-0.440676	-504552	-1.141695E-7	NaN
124	1.000000	0.716342	7.36625e+06	-44839.1	955.818	-29775	0.000000	0.000000	6.717039	0.067676	NaN	0.000000	0.001502	0.001796	28.1223	0.109960	0.002021	54.396	-121.972	17.6908	0.071391	0.714974	-0.397629	-0.398997	0.067676	54.396	-0.398562	-127493	-5.308212E-7	NaN
124	1.000000	0.758347	7.36625e+06	-44839.1	955.819	-29775	0.000000	0.000000	6.759042	0.046672	NaN	0.000000	0.001515	0.001825	28.1181	0.048115	0.001982	24.2736	-177.515	-167.299	0.009054	0.757067	-0.355625	-0.356904	0.046672	24.2736	-0.357067	-32316.3	-1.444211E-6	NaN
124	1.000000	0.800388	7.36625e+06	-44839.1	955.818	-29775	0.000000	0.000000	6.801086	0.104257	NaN	0.000000	0.001547	0.001817	28.082	0.025661	0.001976	12.9885	-94.1318	17.0999	0.150821	0.799007	-0.313584	-0.314964	0.104257	12.9885	-0.319604	-9179.23	-1.135795E-5	NaN
124	1.000000	0.842393	7.36625e+06	-44839.1	955.818	-29775	0.000000	0.000000	6.843091	0.100375	NaN	0.000000	0.001605	0.001811	28.0824	0.020667	0.001879	10.9989	-144.058	-165.72	0.081317	0.841093	-0.271578	-0.272879	0.100375	10.9989	-0.278423	-2234.41	-4.492236E-5	NaN
124	1.000000	0.884394	7.36625e+06	-44839.1	955.818	-29775	0.000000	0.000000	6.885090	0.054799	NaN	0.000000	0.001531	0.001764	28.1212	0.058347	0.002088	27.9483	64.0281	13.307	0.102567	0.883026	-0.229577	-0.230945	0.054799	27.9483	-0.231048	-415.964	-0.000132	NaN
124	1.000000	0.926444	7.36625e+06	-44839.1	955.818	-29775	0.000000	0.000000	6.927140	0.042314	NaN	0.000000	0.001547	0.001744	28.1201	0.013239	0.001996	6.633033	54.6741	-163.476	0.118937	0.925081	-0.187527	-0.188890	0.042314	6.633033	-0.192312	-98.3044	-0.000430	NaN
124	1.000000	0.968462	7.36625e+06	-44839.1	955.818	-29775	0.000000	0.000000	6.969159	0.073900	NaN	0.000000	0.001586	0.001752	28.0852	0.058264	0.002058	28.3098	28.8993	13.8705	0.048666	0.967045	-0.145509	-0.146926	0.073900	28.3098	-0.147467	-16.2796	-0.004539	NaN
124	1.000000	1.010446	7.36625e+06	-44839.1	955.818	-29775	0.000000	0.000000	7.011140	0.013870	NaN	0.000000	0.001650	0.001769	28.0824	0.048749	0.002018	24.1559	7.208825	-165.633	0.044478	1.009123	-0.103525	-0.104849	0.013870	24.1559	-0.103956	-2.231320	-0.006216	NaN
124	1.000000	1.052494	7.36625e+06	-44839.1	955.818	-29775	0.000000	0.000000	7.053193	0.134620	NaN	0.000000	0.001556	0.001766	28.1196	0.099267	0.002050	48.4124	-48.4873	13.639	0.123830	1.051138	-0.061477	-0.062833	0.134620	48.4124	-0.063563	-0.227255	-0.592374	NaN
124	1.000000	1.094493	7.36626e+06	-44839.1	955.818	-29775	0.000000	0.000000	7.095190	0.068027	NaN	0.000000	0.001591	0.001756	28.1195	0.026653	0.001915	13.9163	60.1227	-162.224	0.044288	1.093179	-0.019478	-0.020793	0.068027	13.9163	-0.023145	-0.015105	-4.503646	NaN
124	2.000000	1.127497	7.36626e+06	-44839.1	955.819	-29775	0.000000	0.000000	7.128840	15.7958	NaN	0.000000	0.001518	0.001763	28.0837	14.0647	0.001639	8582.32	5.043111	5.764498	14.758	1.127121	0.013525	0.013149	15.7958	8582.32	0.012145	0.011664	1354.24	72602.9
124	2.000000	1.137944	7.36626e+06	-44839.1	955.818	-29775	0.000000	0.000000	7.140068	34.7981	NaN	0.000000	0.001594	0.001732	28.0837	24.3321	0.001810	13446.2	5.202099	-177.773	33.5511	1.137669	0.023972	0.023697	34.7981	13446.2	0.022031	0.025835	1346.91	76430
124	2.000000	1.148413	7.36626e+06	-44839.1	955.819	-29775	0.000000	0.000000	7.151833	66.3011	NaN	0.000000	0.001540	0.001791	28.1195	33.1183	0.001801	18388.2	4.490233	0.943016	63.6591	1.148089	0.034442	0.034118	66.3011	18388.2	0.031738	0.044422	1492.51	79709.7
124	2.000000	1.158884	7.36626e+06	-44839.1	955.819	-29775	0.000000	0.000000	7.163723	100.845	NaN	0.000000	0.001539	0.001766	28.1213	44.108	0.001793	24601.7	3.449392	179.118	99.9418	1.158697	0.044912	0.044725	100.845	24601.7	0.041838	0.068864	1464.4	85652.9
124	2.000000	1.169435	7.36626e+06	-44839.1	955.818	-29775	0.000000	0.000000	7.176278	149.604	NaN	0.000000	0.001569	0.001840	28.0838	53.6466	0.001823	29435	8.864179	-6.408724	151.239	1.168926	0.055463	0.054955	149.604	29435	0.051652	0.097586	1533.04	86088.1
124	2.000000	1.179872	7.36626e+06	-44839.1	955.819	-29775	0.000000	0.000000	7.188829	201.016	NaN	0.000000	0.001520	0.001768	28.0824	63.0861	0.001722	36632.4	4.882454	174.679	199.239	1.179592	0.065900	0.065620	201.016	36632.4	0.061785	0.132286	1519.55	92019.7
124	2.000000	1.190445	7.36626e+06	-44839.1	955.819	-29775	0.000000	0.000000	7.201214	245.095	NaN	0.000000	0.001573	0.001756	28.1179	74.5739	0.001862	40060.8	3.843472	-5.144474	246.906	1.190209	0.076474	0.076237	245.095	40060.8	0.071885	0.171841	1426.29	88293.5
124	2.000000	1.200817	7.36626e+06	-44839.1	955.818	-29775	0.000000	0.000000	7.214981	327.694	NaN	0.000000	0.001529	0.001768	28.1224	83.1445	0.001780	46711.6	4.075229	174.656	325.299	1.200486	0.086846	0.086515	327.694	46711.6	0.081584	0.214377	1528.59	92174.1
124	2.000000	1.211302	7.36626e+06	-44839.1	955.818	-29775	0.000000	0.000000	7.228358	398.046	NaN	0.000000	0.001515	0.001755	28.085	94.4109	0.001900	49700.8	5.726946	-7.698718	392.728	1.210844	0.097331	0.096873	398.046	49700.8	0.091324	0.261491	1522.22	88799
124	2.000000	1.221741	7.36626e+06	-44839.1	955.818	-29775	0.000000	0.000000	7.242165	479.982	NaN	0.000000	0.001538	0.001793	28.0833	102.46	0.001898	53993.9	4.507904	172.38	473.566	1.221403	0.107770	0.107431	479.982	53993.9	0.101103	0.313164	1532.69	88151.9
124	2.000000	1.222864	7.36626e+06	-44839.1	955.818	-29775	0.000000	0.000000	7.243561	486.639	NaN	0.000000	0.001566	0.001778	28.1238	102.552	0.001789	57325.4	4.967372	171.795	489.314	1.222540	0.108892	0.108569	486.639	57325.4	0.102525	0.321045	1515.8	92435.2