File: remote_trans/data/nanoindenter/0828-1/data/Data_2025-08-06,11h17m57s/2025-07-22_16-23-58_1_32.txt
2025-07-22, 16:23:58, 1
Index	Phase	Displacement	Time	Pos X	Pos Y	Pos Z	Rot A	Rot B	Piezo Z	Force A	Force B	Gripper	Voltage A	Voltage B	Temperature	Amplitude force	Amplitude pos	Stiffness	Phase shift	Phase excitation	Force A raw	Displacement raw	HMax	HMax raw	Real Force	Real Stiffness	Contact Depth	Area	Hardness	Reduced Mod.
[#]	[#]	[um]	[s]	[um]	[um]	[um]	[m°]	[m°]	[um]	[uN]	[uN]	[V]	[V]	[V]	[°C]	[uN]	[um]	[N/m]	[°]	[°]	[uN]	[um]	[um]	[um]	[uN]	[N/m]	[um]	[um^2]	[MPa]	[MPa]
32	1.000000	0.002433	7.36535e+06	-40239.1	955.817	-29791.4	0.000000	0.000000	6.002737	0.002779	NaN	0.000000	0.001659	0.001628	28.1103	0.032385	0.001030	31.4385	-55.6294	-178.743	0.026488	0.001196	-1.026115	-1.027353	0.002779	31.4385	-1.026181	-5.106356E+13	-5.441762E-17	NaN
32	1.000000	0.042381	7.36535e+06	-40239.1	955.818	-29791.4	0.000000	0.000000	6.042688	0.088142	NaN	0.000000	0.001671	0.001628	28.1101	0.042568	0.001926	22.1043	171.713	177.005	0.048029	0.041065	-0.986167	-0.987483	0.088142	22.1043	-0.989158	-1.620949E+13	-5.437650E-15	NaN
32	1.000000	0.082418	7.36535e+06	-40239.1	955.818	-29791.4	0.000000	0.000000	6.082724	0.056624	NaN	0.000000	0.001668	0.001641	28.1096	0.067296	0.001903	35.3638	-119.079	-179.855	0.065436	0.081085	-0.946130	-0.947464	0.056624	35.3638	-0.947331	-4.426193E+12	-1.279289E-14	NaN
32	1.000000	0.122422	7.36535e+06	-40239.1	955.818	-29791.4	0.000000	0.000000	6.122729	0.079961	NaN	0.000000	0.001639	0.001600	28.1088	0.094164	0.001976	47.6443	36.9255	177.581	0.102383	0.121093	-0.906126	-0.907455	0.079961	47.6443	-0.907385	-1.278894E+12	-6.252322E-14	NaN
32	1.000000	0.162443	7.36535e+06	-40239.1	955.819	-29791.4	0.000000	0.000000	6.162748	0.037444	NaN	0.000000	0.001713	0.001608	28.1105	0.101577	0.001975	51.4296	177.125	175.28	0.077015	0.161109	-0.866106	-0.867440	0.037444	51.4296	-0.866652	-3.598644E+11	-1.040493E-13	NaN
32	1.000000	0.202464	7.36535e+06	-40239.1	955.817	-29791.4	0.000000	0.000000	6.202769	0.026651	NaN	0.000000	0.001666	0.001675	28.1105	0.063775	0.002070	30.8132	-27.2924	176.21	-0.021928	0.201079	-0.826084	-0.827469	0.026651	30.8132	-0.826733	-1.036325E+11	-2.571700E-13	NaN
32	1.000000	0.242456	7.36535e+06	-40239.1	955.818	-29791.4	0.000000	0.000000	6.242765	0.112239	NaN	0.000000	0.001663	0.001624	28.1122	0.106592	0.001892	56.3373	120.371	176.769	0.050349	0.241129	-0.786092	-0.787419	0.112239	56.3373	-0.787586	-3.049974E+10	-3.680004E-12	NaN
32	1.000000	0.282487	7.36535e+06	-40239.1	955.819	-29791.4	0.000000	0.000000	6.282791	0.020852	NaN	0.000000	0.001666	0.001624	28.1113	0.125212	0.001997	62.7044	-166.836	177.545	-0.025328	0.281140	-0.746062	-0.747408	0.020852	62.7044	-0.746311	-8.375308E+9	-2.489705E-12	NaN
32	1.000000	0.322501	7.36535e+06	-40239.1	955.818	-29791.4	0.000000	0.000000	6.322806	0.045859	NaN	0.000000	0.001627	0.001611	28.1114	0.058740	0.001961	29.949	112.386	-179.734	0.099631	0.321226	-0.706048	-0.707322	0.045859	29.949	-0.707196	-2.453468E+9	-1.869151E-11	NaN
32	1.000000	0.362525	7.36535e+06	-40239.1	955.818	-29791.4	0.000000	0.000000	6.362830	0.055544	NaN	0.000000	0.001643	0.001617	28.1097	0.038409	0.001929	19.9085	177.091	178.865	0.045069	0.361208	-0.666024	-0.667340	0.055544	19.9085	-0.668116	-7.171392E+8	-7.745209E-11	NaN
32	1.000000	0.402537	7.36535e+06	-40239.1	955.818	-29791.4	0.000000	0.000000	6.402842	0.053165	NaN	0.000000	0.001673	0.001640	28.1109	0.114202	0.001989	57.4297	113.598	176.695	0.074194	0.401230	-0.626012	-0.627319	0.053165	57.4297	-0.626706	-1.939908E+8	-2.740612E-10	NaN
32	1.000000	0.442560	7.36535e+06	-40239.1	955.818	-29791.4	0.000000	0.000000	6.442866	0.058978	NaN	0.000000	0.001649	0.001618	28.1101	0.165443	0.001962	84.3331	-155.517	176.55	0.074495	0.441197	-0.585988	-0.587351	0.058978	84.3331	-0.586513	-5.427291E+7	-1.086684E-9	NaN
32	1.000000	0.482541	7.36535e+06	-40239.1	955.818	-29791.4	0.000000	0.000000	6.482846	0.036322	NaN	0.000000	0.001728	0.001669	28.1125	0.050853	0.001854	27.4328	166.443	172.686	0.079362	0.481237	-0.546007	-0.547311	0.036322	27.4328	-0.547000	-1.543101E+7	-2.353852E-9	NaN
32	1.000000	0.522561	7.36535e+06	-40239.1	955.819	-29791.4	0.000000	0.000000	6.522866	0.028477	NaN	0.000000	0.001746	0.001641	28.1124	0.025700	0.001924	13.3589	169.016	-179.983	0.042611	0.521287	-0.505987	-0.507261	0.028477	13.3589	-0.507586	-4.37303e+06	-6.511951E-9	NaN
32	1.000000	0.562591	7.36535e+06	-40239.1	955.818	-29791.4	0.000000	0.000000	6.562895	0.003939	NaN	0.000000	0.001721	0.001629	28.1135	0.058997	0.001867	31.5925	167.354	177.583	0.061308	0.561290	-0.465957	-0.467258	0.003939	31.5925	-0.466051	-1.14815e+06	-3.430583E-9	NaN
32	1.000000	0.602627	7.36535e+06	-40239.1	955.819	-29791.4	0.000000	0.000000	6.602931	0.022381	NaN	0.000000	0.001653	0.001594	28.1108	0.084865	0.002046	41.4686	93.2747	178.382	0.047114	0.601301	-0.425921	-0.427247	0.022381	41.4686	-0.426326	-316273	-7.076321E-8	NaN
32	1.000000	0.642658	7.36535e+06	-40239.1	955.819	-29791.4	0.000000	0.000000	6.642961	-0.013906	NaN	0.000000	0.001694	0.001631	28.1119	0.045044	0.001941	23.2031	63.1246	179.592	0.025978	0.641297	-0.385890	-0.387251	-0.013906	23.2031	-0.385441	-82774.8	1.679939E-7	NaN
32	1.000000	0.682653	7.36535e+06	-40239.1	955.818	-29791.4	0.000000	0.000000	6.682956	-0.008352	NaN	0.000000	0.001684	0.001643	28.1115	0.092863	0.002193	42.3488	-8.957426	176.733	0.087136	0.681379	-0.345895	-0.347169	-0.008352	42.3488	-0.345747	-22142.3	3.772078E-7	NaN
32	1.000000	0.722671	7.36535e+06	-40239.1	955.818	-29791.4	0.000000	0.000000	6.722976	0.037960	NaN	0.000000	0.001655	0.001604	28.1137	0.116589	0.002058	56.6566	-35.2739	178.51	0.072677	0.721344	-0.305877	-0.307204	0.037960	56.6566	-0.306379	-5853.54	-6.484944E-6	NaN
32	1.000000	0.762713	7.36535e+06	-40239.1	955.817	-29791.4	0.000000	0.000000	6.763018	0.038430	NaN	0.000000	0.001685	0.001607	28.1139	0.042540	0.002065	20.5987	-11.0307	177.609	0.078914	0.761396	-0.265835	-0.267152	0.038430	20.5987	-0.267234	-1511.67	-2.542244E-5	NaN
32	1.000000	0.802696	7.36535e+06	-40239.1	955.818	-29791.4	0.000000	0.000000	6.803001	0.029785	NaN	0.000000	0.001678	0.001618	28.1147	0.068458	0.002039	33.567	-90.5352	178.965	0.051049	0.801375	-0.225852	-0.227173	0.029785	33.567	-0.226518	-352.715	-8.444643E-5	NaN
32	1.000000	0.842727	7.36535e+06	-40239.1	955.819	-29791.4	0.000000	0.000000	6.843035	0.108292	NaN	0.000000	0.001666	0.001622	28.114	0.037711	0.002127	17.7314	134.195	179.849	0.079211	0.841445	-0.185821	-0.187103	0.108292	17.7314	-0.190401	-91.3549	-0.001185	NaN
32	1.000000	0.882695	7.36535e+06	-40239.1	955.819	-29791.4	0.000000	0.000000	6.882998	-0.002689	NaN	0.000000	0.001664	0.001592	28.1143	0.099320	0.001872	53.0451	-166.977	-179.273	0.017107	0.881423	-0.145853	-0.147125	-0.002689	53.0451	-0.145815	-15.1787	0.000177	NaN
32	1.000000	0.922756	7.36536e+06	-40239.1	955.818	-29791.4	0.000000	0.000000	6.923059	-0.005568	NaN	0.000000	0.001657	0.001627	28.1143	0.047964	0.001981	24.2175	-50.9639	176.634	0.147776	0.921489	-0.105792	-0.107059	-0.005568	24.2175	-0.105620	-2.424031	0.002297	NaN
32	1.000000	0.962772	7.36536e+06	-40239.1	955.818	-29791.4	0.000000	0.000000	6.963077	0.018714	NaN	0.000000	0.001714	0.001603	28.1154	0.012291	0.002033	6.046955	-144.086	178.383	0.032165	0.961407	-0.065776	-0.067141	0.018714	6.046955	-0.068097	-0.303089	-0.061744	NaN
32	1.000000	1.002789	7.36536e+06	-40239.1	955.819	-29791.4	0.000000	0.000000	7.003093	0.014704	NaN	0.000000	0.001654	0.001629	28.1155	0.130144	0.001923	67.6638	46.3452	175.446	-0.000885	1.001447	-0.025760	-0.027101	0.014704	67.6638	-0.025923	-0.017838	-0.824314	NaN
32	2.000000	1.040404	7.36536e+06	-40239.1	955.819	-29791.4	0.000000	0.000000	7.041055	8.433265	NaN	0.000000	0.001691	0.001618	28.1161	8.224698	0.001612	5102.8	4.603637	172.126	8.060152	1.040097	0.011856	0.011549	8.433265	5102.8	0.010617	0.009875	854.005	46915.3
32	2.000000	1.050295	7.36536e+06	-40239.1	955.819	-29791.4	0.000000	0.000000	7.051573	23.7109	NaN	0.000000	0.001679	0.001672	28.1161	19.1581	0.001732	11060.4	4.390997	166.143	22.1603	1.049991	0.021747	0.021443	23.7109	11060.4	0.020139	0.022761	1041.71	66980
32	2.000000	1.060256	7.36536e+06	-40239.1	955.819	-29791.4	0.000000	0.000000	7.062657	51.0545	NaN	0.000000	0.001746	0.001685	28.1165	29.5238	0.001910	15458.8	4.277883	164.479	49.3712	1.059947	0.031707	0.031398	51.0545	15458.8	0.029231	0.039164	1303.61	71368.4
32	2.000000	1.070221	7.36536e+06	-40239.1	955.819	-29791.4	0.000000	0.000000	7.074009	84.7823	NaN	0.000000	0.001784	0.001665	28.1144	38.8149	0.001919	20229.3	4.790454	161.678	81.4956	1.070024	0.041673	0.041476	84.7823	20229.3	0.038530	0.060283	1406.4	75275.6
32	2.000000	1.080205	7.36536e+06	-40239.1	955.82	-29791.4	0.000000	0.000000	7.085798	128.732	NaN	0.000000	0.001664	0.001681	28.1159	48.3401	0.001780	27150.8	3.904114	159.945	126.381	1.079918	0.051656	0.051369	128.732	27150.8	0.048100	0.086632	1485.96	84278.3
32	2.000000	1.090283	7.36536e+06	-40239.1	955.82	-29791.4	0.000000	0.000000	7.097576	170.07	NaN	0.000000	0.001690	0.001689	28.1151	55.6356	0.001821	30554.1	9.189437	154.716	171.669	1.089879	0.061735	0.061330	170.07	30554.1	0.057560	0.117206	1451.04	81539.5
32	2.000000	1.100215	7.36536e+06	-40239.1	955.82	-29791.4	0.000000	0.000000	7.109341	214.676	NaN	0.000000	0.001678	0.001634	28.1178	64.8853	0.001772	36614	1.115683	160.62	212.211	1.099963	0.071667	0.071414	214.676	36614	0.067269	0.153158	1401.66	85477.3
32	2.000000	1.110218	7.36536e+06	-40239.1	955.82	-29791.4	0.000000	0.000000	7.121903	276.967	NaN	0.000000	0.001662	0.001673	28.1167	75.0136	0.001837	40845.2	4.332058	157.418	275.952	1.109842	0.081670	0.081294	276.967	40845.2	0.076584	0.191897	1443.3	85188.1
32	2.000000	1.120232	7.36536e+06	-40239.1	955.819	-29791.4	0.000000	0.000000	7.134346	336.06	NaN	0.000000	0.001602	0.001638	28.1176	85.2011	0.001857	45883.3	3.926711	156.174	337.263	1.119933	0.091684	0.091384	336.06	45883.3	0.086190	0.236113	1423.3	86271.7
32	2.000000	1.130120	7.36536e+06	-40239.1	955.819	-29791.4	0.000000	0.000000	7.147418	413.546	NaN	0.000000	0.001593	0.001669	28.1169	93.6089	0.001753	53414.3	0.780097	158.313	410.059	1.129904	0.101572	0.101356	413.546	53414.3	0.095765	0.284417	1454.01	91506.7
32	2.000000	1.138044	7.36536e+06	-40239.1	955.819	-29791.4	0.000000	0.000000	7.158058	479.624	NaN	0.000000	0.001631	0.001702	28.1169	101.8	0.001938	52536.2	6.798746	152.52	471.368	1.137748	0.109496	0.109200	479.624	52536.2	0.102649	0.321733	1490.75	84622.1