File: remote_trans/data/nanoindenter/0828-1/data/Data_2025-08-06,11h17m57s/2025-07-22_16-23-58_1_649.txt
2025-07-22, 16:23:58, 1
Index	Phase	Displacement	Time	Pos X	Pos Y	Pos Z	Rot A	Rot B	Piezo Z	Force A	Force B	Gripper	Voltage A	Voltage B	Temperature	Amplitude force	Amplitude pos	Stiffness	Phase shift	Phase excitation	Force A raw	Displacement raw	HMax	HMax raw	Real Force	Real Stiffness	Contact Depth	Area	Hardness	Reduced Mod.
[#]	[#]	[um]	[s]	[um]	[um]	[um]	[m°]	[m°]	[um]	[uN]	[uN]	[V]	[V]	[V]	[°C]	[uN]	[um]	[N/m]	[°]	[°]	[uN]	[um]	[um]	[um]	[uN]	[N/m]	[um]	[um^2]	[MPa]	[MPa]
649	1.000000	0.002512	7.3714e+06	-44639.1	1005.82	-29775.1	0.000000	0.000000	6.002824	-0.069901	NaN	0.000000	0.001628	0.001696	28.0844	0.100065	0.000974	102.716	-148.505	-174.6	-0.055161	0.001267	-1.101162	-1.102407	-0.069901	102.716	-1.100652	-5.114648E+14	1.366688E-16	NaN
649	1.000000	0.044446	7.3714e+06	-44639.1	1005.82	-29775.1	0.000000	0.000000	6.044758	-0.064663	NaN	0.000000	0.001607	0.001714	28.085	0.047888	0.002072	23.1175	177.924	12.4164	-0.026348	0.043074	-1.059228	-1.060600	-0.064663	23.1175	-1.057130	-1.331217E+14	4.857406E-16	NaN
649	1.000000	0.086446	7.3714e+06	-44639.1	1005.82	-29775.1	0.000000	0.000000	6.086762	0.027313	NaN	0.000000	0.001694	0.001720	28.0835	0.067893	0.001919	35.3796	-11.1625	-167.713	-0.010562	0.085155	-1.017228	-1.018519	0.027313	35.3796	-1.017807	-3.939544E+13	-6.933139E-16	NaN
649	1.000000	0.128449	7.3714e+06	-44639.1	1005.82	-29775.1	0.000000	0.000000	6.128761	-0.043200	NaN	0.000000	0.001626	0.001741	28.0834	0.074543	0.001945	38.3186	38.8849	10.8707	-0.051893	0.127080	-0.975226	-0.976594	-0.043200	38.3186	-0.974380	-1.024917E+13	4.214941E-15	NaN
649	1.000000	0.170507	7.3714e+06	-44639.1	1005.82	-29775.1	0.000000	0.000000	6.170820	-0.028207	NaN	0.000000	0.001674	0.001681	28.0832	0.052011	0.002051	25.3571	-125.365	-166.092	-0.083493	0.169117	-0.933167	-0.934557	-0.028207	25.3571	-0.932333	-2.777701E+12	1.015498E-14	NaN
649	1.000000	0.212514	7.3714e+06	-44639.1	1005.82	-29775.1	0.000000	0.000000	6.212828	-0.012164	NaN	0.000000	0.001632	0.001700	28.0843	0.032716	0.001990	16.4388	-84.5589	14.2929	0.071762	0.211091	-0.891160	-0.892583	-0.012164	16.4388	-0.890605	-7.587375E+11	1.603163E-14	NaN
649	1.000000	0.254518	7.3714e+06	-44639.1	1005.82	-29775.1	0.000000	0.000000	6.254833	-0.010232	NaN	0.000000	0.001593	0.001711	28.0844	0.064729	0.001998	32.3917	-63.8951	-168.204	0.027212	0.253229	-0.849156	-0.850445	-0.010232	32.3917	-0.848919	-2.070609E+11	4.941584E-14	NaN
649	1.000000	0.296537	7.3714e+06	-44639.1	1005.82	-29775.1	0.000000	0.000000	6.296853	0.039196	NaN	0.000000	0.001551	0.001745	28.085	0.084137	0.001944	43.2838	41.0881	11.6151	0.076218	0.295153	-0.807137	-0.808521	0.039196	43.2838	-0.807816	-5.740375E+10	-6.828106E-13	NaN
649	1.000000	0.338540	7.3714e+06	-44639.1	1005.82	-29775.1	0.000000	0.000000	6.338850	-0.113841	NaN	0.000000	0.001618	0.001704	28.0836	0.041978	0.001930	21.7499	48.7361	-164.107	-0.113020	0.337221	-0.765134	-0.766453	-0.113841	21.7499	-0.761208	-1.335787E+10	8.522380E-12	NaN
649	1.000000	0.380570	7.3714e+06	-44639.1	1005.82	-29775.1	0.000000	0.000000	6.380886	0.011967	NaN	0.000000	0.001691	0.001708	28.0836	0.068959	0.001867	36.9333	-43.6355	14.6447	0.035821	0.379198	-0.723104	-0.724476	0.011967	36.9333	-0.723347	-4.074844E+9	-2.936892E-12	NaN
649	1.000000	0.422565	7.3714e+06	-44639.1	1005.82	-29775.1	0.000000	0.000000	6.422879	-0.012779	NaN	0.000000	0.001666	0.001736	28.0835	0.091945	0.001876	49.0131	110.266	-164.764	-0.013593	0.421287	-0.681109	-0.682387	-0.012779	49.0131	-0.680914	-1.073253E+9	1.190679E-11	NaN
649	1.000000	0.464628	7.3714e+06	-44639.1	1005.82	-29775.1	0.000000	0.000000	6.464940	-0.065979	NaN	0.000000	0.001622	0.001706	28.0833	0.113991	0.002083	54.7176	103.415	15.3624	-0.012491	0.463235	-0.639046	-0.640439	-0.065979	54.7176	-0.638142	-2.784794E+8	2.369263E-10	NaN
649	1.000000	0.506595	7.3714e+06	-44639.1	1005.82	-29775.1	0.000000	0.000000	6.506909	-0.030348	NaN	0.000000	0.001632	0.001677	28.085	0.010465	0.002014	5.196327	-81.6631	-164.606	-0.032937	0.505345	-0.597079	-0.598329	-0.030348	5.196327	-0.592699	-6.604893E+7	4.594704E-10	NaN
649	1.000000	0.548656	7.3714e+06	-44639.1	1005.82	-29775.1	0.000000	0.000000	6.548968	-0.062578	NaN	0.000000	0.001678	0.001660	28.0847	0.056736	0.002031	27.9387	-32.9753	11.9453	0.004931	0.547318	-0.555018	-0.556356	-0.062578	27.9387	-0.553338	-1.888785E+7	3.313159E-9	NaN
649	1.000000	0.590672	7.3714e+06	-44639.1	1005.82	-29775.1	0.000000	0.000000	6.590988	0.024064	NaN	0.000000	0.001624	0.001673	28.0846	0.126496	0.002060	61.4144	173.34	-164.377	0.045803	0.589375	-0.513002	-0.514299	0.024064	61.4144	-0.513296	-5.2518e+06	-4.582105E-9	NaN
649	1.000000	0.632664	7.3714e+06	-44639.1	1005.82	-29775.1	0.000000	0.000000	6.632978	-0.020489	NaN	0.000000	0.001620	0.001686	28.0832	0.064506	0.001976	32.6401	85.3988	13.1957	-0.063654	0.631331	-0.471010	-0.472343	-0.020489	32.6401	-0.470539	-1.32731e+06	1.543637E-8	NaN
649	1.000000	0.674711	7.3714e+06	-44639.1	1005.82	-29775.1	0.000000	0.000000	6.675025	-0.013687	NaN	0.000000	0.001630	0.001686	28.0834	0.121161	0.001953	62.0459	-105.209	-163.889	-0.010141	0.673375	-0.428963	-0.430299	-0.013687	62.0459	-0.428798	-342808	3.992708E-8	NaN
649	1.000000	0.716740	7.3714e+06	-44639.1	1005.82	-29775.1	0.000000	0.000000	6.717055	0.028844	NaN	0.000000	0.001687	0.001653	28.0834	0.096350	0.001996	48.2788	9.848796	15.7053	0.022047	0.715339	-0.386935	-0.388336	0.028844	48.2788	-0.387383	-88249.3	-3.268476E-7	NaN
649	1.000000	0.758754	7.3714e+06	-44639.1	1005.82	-29775.1	0.000000	0.000000	6.759071	0.061530	NaN	0.000000	0.001655	0.001689	28.0847	0.048270	0.002065	23.3707	-66.5919	-163.782	0.103878	0.757424	-0.344920	-0.346250	0.061530	23.3707	-0.346895	-23009.6	-2.674093E-6	NaN
649	1.000000	0.800776	7.3714e+06	-44639.1	1005.82	-29775.1	0.000000	0.000000	6.801091	0.005187	NaN	0.000000	0.001679	0.001693	28.0846	0.019858	0.001998	9.936439	-34.289	13.0919	-0.168428	0.799381	-0.302898	-0.304293	0.005187	9.936439	-0.303289	-5266.83	-9.847832E-7	NaN
649	1.000000	0.842745	7.3714e+06	-44639.1	1005.82	-29775.1	0.000000	0.000000	6.843061	0.029473	NaN	0.000000	0.001691	0.001686	28.0846	0.110930	0.001912	58.0226	-79.5585	-161.64	-0.005792	0.841480	-0.260929	-0.262194	0.029473	58.0226	-0.261310	-1227.4	-2.401248E-5	NaN
649	1.000000	0.884819	7.3714e+06	-44639.1	1005.82	-29775.1	0.000000	0.000000	6.885133	-0.007189	NaN	0.000000	0.001651	0.001675	28.0832	0.066316	0.001968	33.6911	16.4368	14.4137	0.033898	0.883456	-0.218855	-0.220218	-0.007189	33.6911	-0.218695	-264.735	2.715636E-5	NaN
649	1.000000	0.926815	7.3714e+06	-44639.1	1005.82	-29775.1	0.000000	0.000000	6.927128	-0.034883	NaN	0.000000	0.001659	0.001644	28.0833	0.044482	0.001851	24.0285	-81.9766	-171.408	-0.038476	0.925480	-0.176859	-0.178194	-0.034883	24.0285	-0.175770	-51.6659	0.000675	NaN
649	1.000000	0.968812	7.3714e+06	-44639.1	1005.82	-29775.1	0.000000	0.000000	6.969129	0.040085	NaN	0.000000	0.001638	0.001662	28.0842	0.061424	0.002052	29.9371	177.928	12.7171	-0.022376	0.967435	-0.134862	-0.136239	0.040085	29.9371	-0.135866	-9.880991	-0.004057	NaN
649	1.000000	1.010844	7.3714e+06	-44639.1	1005.82	-29775.1	0.000000	0.000000	7.011159	0.007463	NaN	0.000000	0.001586	0.001743	28.0833	0.019935	0.002092	9.527567	131.05	-165.851	-0.009769	1.009516	-0.092830	-0.094158	0.007463	9.527567	-0.093418	-1.297784	-0.005751	NaN
649	1.000000	1.052855	7.3714e+06	-44639.1	1005.82	-29775.1	0.000000	0.000000	7.053168	-0.031805	NaN	0.000000	0.001616	0.001688	28.0845	0.044506	0.002047	21.7406	139.119	14.0041	0.010987	1.051512	-0.050819	-0.052162	-0.031805	21.7406	-0.049722	-0.089499	0.355368	NaN
649	1.000000	1.094855	7.3714e+06	-44639.1	1005.82	-29775.1	0.000000	0.000000	7.095170	-0.003177	NaN	0.000000	0.001595	0.001692	28.0845	0.041758	0.002055	20.322	81.3914	-166.785	-0.064616	1.093567	-0.008819	-0.010107	-0.003177	20.322	-0.008702	-0.005641	0.563286	NaN
649	2.000000	1.114857	7.3714e+06	-44639.1	1005.82	-29775.1	0.000000	0.000000	7.115979	19.6459	NaN	0.000000	0.001601	0.001690	28.0845	17.7729	0.001759	10102.7	7.503795	1.033808	18.5122	1.114516	0.011183	0.010842	19.6459	10102.7	0.009724	0.008877	2213.24	97969
649	2.000000	1.125315	7.3714e+06	-44639.1	1005.82	-29775.1	0.000000	0.000000	7.127620	48.4169	NaN	0.000000	0.001586	0.001719	28.0834	28.3646	0.001808	15692.2	0.251558	-174.187	47.4147	1.124928	0.021641	0.021254	48.4169	15692.2	0.019327	0.021496	2252.4	97786.8
649	2.000000	1.135833	7.3714e+06	-44639.1	1005.82	-29775.1	0.000000	0.000000	7.139405	79.2539	NaN	0.000000	0.001659	0.001679	28.0836	39.3841	0.001773	22213.9	5.191233	-2.597434	79.0358	1.135496	0.032159	0.031821	79.2539	22213.9	0.029483	0.039678	1997.41	101888
649	2.000000	1.146223	7.3714e+06	-44639.1	1005.82	-29775.1	0.000000	0.000000	7.151499	120.691	NaN	0.000000	0.001712	0.001676	28.0843	48.3994	0.001770	27350	2.319088	178.036	118.091	1.145881	0.042549	0.042207	120.691	27350	0.039240	0.062078	1944.17	100291
649	2.000000	1.156688	7.3714e+06	-44639.1	1005.82	-29775.1	0.000000	0.000000	7.163892	167.594	NaN	0.000000	0.001641	0.001694	28.0847	58.2801	0.001671	34869	4.225189	-6.043813	161.666	1.156432	0.053014	0.052758	167.594	34869	0.049409	0.090596	1849.9	105842
649	2.000000	1.167297	7.3714e+06	-44639.1	1005.82	-29775.1	0.000000	0.000000	7.177397	238.039	NaN	0.000000	0.001662	0.001704	28.0846	68.5821	0.001711	40087.5	7.251914	171.579	237.411	1.166880	0.063623	0.063206	238.039	40087.5	0.059170	0.122848	1937.66	104495
649	2.000000	1.177875	7.3714e+06	-44639.1	1005.82	-29775.1	0.000000	0.000000	7.190057	288.708	NaN	0.000000	0.001679	0.001704	28.0844	79.5058	0.001812	43865.6	3.914522	-6.683981	293.121	1.177605	0.074201	0.073931	288.708	43865.6	0.069265	0.161110	1792	99847.3
649	2.000000	1.188202	7.3714e+06	-44639.1	1005.82	-29775.1	0.000000	0.000000	7.203916	374.63	NaN	0.000000	0.001697	0.001673	28.0833	89.227	0.001734	51443.8	9.324999	167.633	372.876	1.187735	0.084528	0.084061	374.63	51443.8	0.079066	0.202910	1846.29	104341
649	2.000000	1.198693	7.3714e+06	-44639.1	1005.82	-29775.1	0.000000	0.000000	7.217380	446.954	NaN	0.000000	0.001609	0.001646	28.0834	99.6085	0.001734	57445.9	7.627845	-12.5461	443.852	1.198317	0.095019	0.094643	446.954	57445.9	0.089184	0.250762	1782.38	104810
649	2.000000	1.206200	7.37141e+06	-44639.1	1005.82	-29775.1	0.000000	0.000000	7.227911	520.525	NaN	0.000000	0.001669	0.001715	28.0834	105.674	0.001704	61999	6.787871	168.035	519.819	1.205958	0.102526	0.102284	520.525	61999	0.096230	0.286868	1814.51	105759