File: remote_trans/data/nanoindenter/0828-1/data/Data_2025-08-06,11h17m57s/2025-07-22_16-23-58_1_328.txt
2025-07-22, 16:23:58, 1
Index	Phase	Displacement	Time	Pos X	Pos Y	Pos Z	Rot A	Rot B	Piezo Z	Force A	Force B	Gripper	Voltage A	Voltage B	Temperature	Amplitude force	Amplitude pos	Stiffness	Phase shift	Phase excitation	Force A raw	Displacement raw	HMax	HMax raw	Real Force	Real Stiffness	Contact Depth	Area	Hardness	Reduced Mod.
[#]	[#]	[um]	[s]	[um]	[um]	[um]	[m°]	[m°]	[um]	[uN]	[uN]	[V]	[V]	[V]	[°C]	[uN]	[um]	[N/m]	[°]	[°]	[uN]	[um]	[um]	[um]	[uN]	[N/m]	[um]	[um^2]	[MPa]	[MPa]
328	1.000000	0.002374	7.36827e+06	-55039.1	955.819	-29742.7	0.000000	0.000000	6.002810	-0.038482	NaN	0.000000	0.001753	0.001642	28.0795	0.149962	0.000903	166.117	-5.354621	-169.615	0.042884	0.001119	-1.008679	-1.009934	-0.038482	166.117	-1.008505	-2.952998E+13	1.303146E-15	NaN
328	1.000000	0.040299	7.36827e+06	-55039.1	955.817	-29742.7	0.000000	0.000000	6.040735	-0.021519	NaN	0.000000	0.001796	0.001632	28.0798	0.111469	0.002044	54.5309	172.735	15.6342	0.019911	0.038980	-0.970754	-0.972073	-0.021519	54.5309	-0.970458	-9.074793E+12	2.371329E-15	NaN
328	1.000000	0.078327	7.36827e+06	-55039.1	955.819	-29742.7	0.000000	0.000000	6.078766	0.043344	NaN	0.000000	0.001706	0.001634	28.0791	0.049472	0.002020	24.4943	-150.976	-166.584	0.038018	0.076983	-0.932726	-0.934070	0.043344	24.4943	-0.934054	-2.930230E+12	-1.479206E-14	NaN
328	1.000000	0.116320	7.36827e+06	-55039.1	955.818	-29742.7	0.000000	0.000000	6.116755	-0.063125	NaN	0.000000	0.001670	0.001650	28.0805	0.099395	0.002050	48.4823	-45.6628	14.9492	-0.053158	0.114957	-0.894733	-0.896096	-0.063125	48.4823	-0.893757	-8.369346E+11	7.542454E-14	NaN
328	1.000000	0.154345	7.36827e+06	-55039.1	955.819	-29742.7	0.000000	0.000000	6.154782	-0.002435	NaN	0.000000	0.001699	0.001648	28.0803	0.075646	0.002029	37.2901	11.6648	-165.687	0.009750	0.153005	-0.856708	-0.858048	-0.002435	37.2901	-0.856659	-2.635712E+11	9.236999E-15	NaN
328	1.000000	0.192347	7.36827e+06	-55039.1	955.819	-29742.7	0.000000	0.000000	6.192782	-0.059645	NaN	0.000000	0.001745	0.001659	28.081	0.087946	0.002024	43.4541	24.8074	11.3199	-0.035454	0.191054	-0.818706	-0.819999	-0.059645	43.4541	-0.817676	-7.810879E+10	7.636115E-13	NaN
328	1.000000	0.230371	7.36827e+06	-55039.1	955.818	-29742.7	0.000000	0.000000	6.230803	-0.129738	NaN	0.000000	0.001775	0.001579	28.0804	0.027035	0.001899	14.2362	-174.319	-163.424	-0.100186	0.229057	-0.780682	-0.781996	-0.129738	14.2362	-0.773847	-1.984280E+10	6.538301E-12	NaN
328	1.000000	0.268419	7.36827e+06	-55039.1	955.818	-29742.7	0.000000	0.000000	6.268855	-0.033427	NaN	0.000000	0.001685	0.001670	28.0794	0.075276	0.001984	37.9367	-171.328	14.2263	0.020908	0.267015	-0.742634	-0.744038	-0.033427	37.9367	-0.741973	-7.310152E+9	4.572736E-12	NaN
328	1.000000	0.306424	7.36827e+06	-55039.1	955.818	-29742.7	0.000000	0.000000	6.306857	-0.089676	NaN	0.000000	0.001714	0.001675	28.0795	0.042248	0.001946	21.7157	133.91	-167.56	-0.101920	0.305114	-0.704629	-0.705939	-0.089676	21.7157	-0.701532	-2.053317E+9	4.367350E-11	NaN
328	1.000000	0.344445	7.36827e+06	-55039.1	955.818	-29742.7	0.000000	0.000000	6.344881	-0.022821	NaN	0.000000	0.001730	0.001642	28.0799	0.078396	0.001978	39.6368	68.5739	13.7625	-0.048478	0.343039	-0.666608	-0.668014	-0.022821	39.6368	-0.666176	-6.746015E+8	3.382935E-11	NaN
328	1.000000	0.382464	7.36827e+06	-55039.1	955.817	-29742.7	0.000000	0.000000	6.382901	-0.008176	NaN	0.000000	0.001661	0.001673	28.0804	0.076339	0.002134	35.7714	-161.564	-166.411	-0.014279	0.381130	-0.628589	-0.629923	-0.008176	35.7714	-0.628418	-2.047828E+8	3.992287E-11	NaN
328	1.000000	0.420446	7.36827e+06	-55039.1	955.818	-29742.7	0.000000	0.000000	6.420882	-0.049674	NaN	0.000000	0.001646	0.001640	28.0805	0.068060	0.001982	34.3477	18.2197	13.6328	-0.069578	0.419086	-0.590607	-0.591967	-0.049674	34.3477	-0.589522	-5.971411E+7	8.318665E-10	NaN
328	1.000000	0.458490	7.36827e+06	-55039.1	955.818	-29742.7	0.000000	0.000000	6.458926	-0.030185	NaN	0.000000	0.001651	0.001658	28.0805	0.114071	0.001965	58.0631	-32.2713	-167.079	0.011904	0.457170	-0.552563	-0.553883	-0.030185	58.0631	-0.552173	-1.819911E+7	1.658619E-9	NaN
328	1.000000	0.496512	7.36828e+06	-55039.1	955.818	-29742.7	0.000000	0.000000	6.496949	-0.010182	NaN	0.000000	0.001654	0.001640	28.0809	0.148737	0.001903	78.1457	175.444	12.3865	0.006061	0.495125	-0.514541	-0.515928	-0.010182	78.1457	-0.514444	-5.44866e+06	1.868631E-9	NaN
328	1.000000	0.534508	7.36828e+06	-55039.1	955.818	-29742.7	0.000000	0.000000	6.534946	0.016927	NaN	0.000000	0.001672	0.001641	28.0795	0.067990	0.001971	34.4926	12.413	-164.721	0.058160	0.533234	-0.476545	-0.477819	0.016927	34.4926	-0.476913	-1.63044e+06	-1.038167E-8	NaN
328	1.000000	0.572540	7.36828e+06	-55039.1	955.817	-29742.7	0.000000	0.000000	6.572980	0.052475	NaN	0.000000	0.001644	0.001645	28.0795	0.015133	0.001955	7.739073	63.2665	12.3954	0.086010	0.571179	-0.438513	-0.439874	0.052475	7.739073	-0.443598	-554784	-9.458640E-8	NaN
328	1.000000	0.610549	7.36828e+06	-55039.1	955.818	-29742.7	0.000000	0.000000	6.610984	-0.047568	NaN	0.000000	0.001637	0.001668	28.0797	0.044181	0.002024	21.8247	58.3603	-164.25	-0.059872	0.609234	-0.400504	-0.401819	-0.047568	21.8247	-0.398870	-128786	3.693563E-7	NaN
328	1.000000	0.648543	7.36828e+06	-55039.1	955.818	-29742.7	0.000000	0.000000	6.648976	-0.121937	NaN	0.000000	0.001666	0.001672	28.0793	0.098545	0.001931	51.0397	-173.72	14.7228	-0.096219	0.647168	-0.362510	-0.363885	-0.121937	51.0397	-0.360718	-36493.8	3.341320E-6	NaN
328	1.000000	0.686581	7.36828e+06	-55039.1	955.819	-29742.7	0.000000	0.000000	6.687019	0.017089	NaN	0.000000	0.001653	0.001700	28.0807	0.131204	0.001922	68.2556	-83.9021	-164.611	0.049069	0.685245	-0.324472	-0.325808	0.017089	68.2556	-0.324660	-10893	-1.568832E-6	NaN
328	1.000000	0.724586	7.36828e+06	-55039.1	955.819	-29742.7	0.000000	0.000000	6.725023	0.002864	NaN	0.000000	0.001707	0.001738	28.0807	0.079814	0.001967	40.574	-115.472	13.1667	0.022495	0.723225	-0.286467	-0.287828	0.002864	40.574	-0.286520	-2958.74	-9.680482E-7	NaN
328	1.000000	0.762614	7.36828e+06	-55039.1	955.818	-29742.7	0.000000	0.000000	6.763050	-0.040914	NaN	0.000000	0.001655	0.001723	28.0808	0.068022	0.001867	36.4415	104.603	-169.347	-0.135605	0.761264	-0.248439	-0.249789	-0.040914	36.4415	-0.247597	-754.662	5.421524E-5	NaN
328	1.000000	0.800639	7.36828e+06	-55039.1	955.818	-29742.7	0.000000	0.000000	6.801076	-0.010027	NaN	0.000000	0.001687	0.001716	28.0794	0.013362	0.002075	6.440681	155.508	14.3948	-0.016149	0.799269	-0.210414	-0.211784	-0.010027	6.440681	-0.209247	-186.471	5.377461E-5	NaN
328	1.000000	0.838633	7.36828e+06	-55039.1	955.818	-29742.7	0.000000	0.000000	6.839068	-0.071639	NaN	0.000000	0.001644	0.001717	28.0795	0.061058	0.002055	29.7192	-51.5824	-165.813	-0.021025	0.837319	-0.172420	-0.173734	-0.071639	29.7192	-0.170612	-42.0951	0.001702	NaN
328	1.000000	0.876672	7.36828e+06	-55039.1	955.818	-29742.7	0.000000	0.000000	6.877108	-0.022748	NaN	0.000000	0.001640	0.001690	28.0794	0.004677	0.001998	2.340697	-23.8032	13.003	-0.080853	0.875273	-0.134381	-0.135780	-0.022748	2.340697	-0.127092	-6.687021	0.003402	NaN
328	1.000000	0.914683	7.36828e+06	-55039.1	955.818	-29742.7	0.000000	0.000000	6.915120	-0.001555	NaN	0.000000	0.001676	0.001703	28.0794	0.079005	0.001949	40.542	-103.569	-164.652	0.064885	0.913331	-0.096370	-0.097722	-0.001555	40.542	-0.096341	-1.513065	0.001027	NaN
328	1.000000	0.952713	7.36828e+06	-55039.1	955.818	-29742.7	0.000000	0.000000	6.953151	0.011302	NaN	0.000000	0.001639	0.001720	28.0807	0.074278	0.001936	38.3691	66.2787	17.8037	-0.163660	0.951371	-0.058340	-0.059682	0.011302	38.3691	-0.058561	-0.163689	-0.069044	NaN
328	1.000000	0.990711	7.36828e+06	-55039.1	955.818	-29742.7	0.000000	0.000000	6.991144	-0.105380	NaN	0.000000	0.001666	0.001715	28.0808	0.043660	0.001904	22.9288	167.35	-166.304	-0.060164	0.989374	-0.020342	-0.021679	-0.105380	22.9288	-0.016895	-0.010443	10.0906	NaN
328	2.000000	1.020845	7.36828e+06	-55039.1	955.819	-29742.7	0.000000	0.000000	7.021726	10.7951	NaN	0.000000	0.001653	0.001689	28.0805	11.6955	0.001773	6598.21	4.717786	7.144997	10.0623	1.020576	0.009792	0.009523	10.7951	6598.21	0.008565	0.007630	1414.85	69014.5
328	2.000000	1.030287	7.36828e+06	-55039.1	955.819	-29742.7	0.000000	0.000000	7.031802	26.2108	NaN	0.000000	0.001666	0.001706	28.0796	20.3907	0.001708	11937.8	4.009972	-174.418	26.4377	1.029956	0.019234	0.018903	26.2108	11937.8	0.017587	0.018892	1387.42	79352.6
328	2.000000	1.039749	7.36828e+06	-55039.1	955.819	-29742.7	0.000000	0.000000	7.042269	50.6264	NaN	0.000000	0.001695	0.001680	28.0795	30.8035	0.001740	17708.1	6.598027	-2.386342	49.6384	1.039318	0.028696	0.028265	50.6264	17708.1	0.026552	0.033900	1493.4	87870.6
328	2.000000	1.049200	7.36828e+06	-55039.1	955.819	-29742.7	0.000000	0.000000	7.052907	79.494	NaN	0.000000	0.001686	0.001682	28.0795	40.0015	0.001756	22781.7	3.903097	177.914	76.2119	1.048961	0.038147	0.037908	79.494	22781.7	0.035530	0.052986	1500.27	90422.7
328	2.000000	1.058765	7.36828e+06	-55039.1	955.82	-29742.7	0.000000	0.000000	7.063900	114.194	NaN	0.000000	0.001686	0.001686	28.0797	49.2782	0.001737	28374.6	4.091673	-5.057723	115.063	1.058535	0.047712	0.047482	114.194	28374.6	0.044694	0.076721	1488.43	93593.4
328	2.000000	1.068179	7.36828e+06	-55039.1	955.82	-29742.7	0.000000	0.000000	7.075336	163.353	NaN	0.000000	0.001668	0.001672	28.0805	58.7622	0.001810	32457.7	6.441873	172.589	161.544	1.067775	0.057126	0.056722	163.353	32457.7	0.053352	0.103054	1585.12	92375.9
328	2.000000	1.077654	7.36828e+06	-55039.1	955.818	-29742.7	0.000000	0.000000	7.086723	209.835	NaN	0.000000	0.001636	0.001670	28.0804	66.3623	0.001627	40781.6	4.734304	-8.313761	206.595	1.077442	0.066601	0.066389	209.835	40781.6	0.062742	0.135825	1544.9	101099
328	2.000000	1.087242	7.36828e+06	-55039.1	955.818	-29742.7	0.000000	0.000000	7.098364	259.75	NaN	0.000000	0.001635	0.001653	28.0806	76.5484	0.001758	43540.7	2.339110	174.434	262.238	1.086915	0.076189	0.075862	259.75	43540.7	0.071714	0.171132	1517.84	96162.1
328	2.000000	1.096595	7.36828e+06	-55039.1	955.819	-29742.7	0.000000	0.000000	7.110623	330.387	NaN	0.000000	0.001666	0.001624	28.0809	85.2326	0.001791	47597.2	5.842762	-9.643684	324.062	1.096175	0.085542	0.085122	330.387	47597.2	0.080336	0.208657	1583.4	95200.3
328	2.000000	1.106066	7.36828e+06	-55039.1	955.818	-29742.7	0.000000	0.000000	7.122922	399.127	NaN	0.000000	0.001641	0.001639	28.0798	91.2322	0.001741	52408.7	0.098185	174.992	393.638	1.105725	0.095013	0.094672	399.127	52408.7	0.089301	0.251347	1587.95	95508
328	2.000000	1.115534	7.36828e+06	-55039.1	955.819	-29742.7	0.000000	0.000000	7.135390	472.042	NaN	0.000000	0.001615	0.001647	28.0794	102.774	0.001764	58253.5	3.571299	-9.153608	463.618	1.115289	0.104481	0.104236	472.042	58253.5	0.098404	0.298467	1581.55	97419.7
328	2.000000	1.116736	7.36828e+06	-55039.1	955.818	-29742.7	0.000000	0.000000	7.136787	476.784	NaN	0.000000	0.001644	0.001665	28.0798	103.92	0.001732	60004.8	5.474116	-10.8639	476.735	1.116393	0.105683	0.105340	476.784	60004.8	0.099724	0.305614	1560.09	99168.3