File: remote_trans/data/nanoindenter/0828-1/data/Data_2025-08-06,11h17m57s/2025-07-22_16-23-58_1_728.txt
2025-07-22, 16:23:58, 1
Index	Phase	Displacement	Time	Pos X	Pos Y	Pos Z	Rot A	Rot B	Piezo Z	Force A	Force B	Gripper	Voltage A	Voltage B	Temperature	Amplitude force	Amplitude pos	Stiffness	Phase shift	Phase excitation	Force A raw	Displacement raw	HMax	HMax raw	Real Force	Real Stiffness	Contact Depth	Area	Hardness	Reduced Mod.
[#]	[#]	[um]	[s]	[um]	[um]	[um]	[m°]	[m°]	[um]	[uN]	[uN]	[V]	[V]	[V]	[°C]	[uN]	[um]	[N/m]	[°]	[°]	[uN]	[um]	[um]	[um]	[uN]	[N/m]	[um]	[um^2]	[MPa]	[MPa]
728	1.000000	0.002079	7.37218e+06	-40689.1	1005.82	-29789	0.000000	0.000000	6.002787	0.072328	NaN	0.000000	0.001634	0.001820	28.0833	0.053299	0.000938	56.7952	-63.3845	-169.663	0.029504	0.000824	-1.110837	-1.112091	0.072328	56.7952	-1.111792	-7.216583E+14	-1.002244E-16	NaN
728	1.000000	0.044021	7.37218e+06	-40689.1	1005.82	-29789	0.000000	0.000000	6.044727	0.019986	NaN	0.000000	0.001595	0.001777	28.0836	0.045733	0.001931	23.6817	-71.645	13.4925	0.060789	0.042703	-1.068895	-1.070213	0.019986	23.6817	-1.069528	-1.953642E+14	-1.023010E-16	NaN
728	1.000000	0.086074	7.37218e+06	-40689.1	1005.82	-29789	0.000000	0.000000	6.086782	0.072244	NaN	0.000000	0.001590	0.001803	28.0832	0.085806	0.002014	42.6125	3.006851	-165.703	0.092433	0.084725	-1.026842	-1.028191	0.072244	42.6125	-1.028113	-5.421315E+13	-1.332596E-15	NaN
728	1.000000	0.128078	7.37218e+06	-40689.1	1005.82	-29789	0.000000	0.000000	6.128784	0.035703	NaN	0.000000	0.001705	0.001781	28.082	0.015744	0.001962	8.024643	175.055	16.3439	-0.043447	0.126725	-0.984838	-0.986191	0.035703	8.024643	-0.988175	-1.572278E+13	-2.270796E-15	NaN
728	1.000000	0.170108	7.37218e+06	-40689.1	1005.82	-29789	0.000000	0.000000	6.170816	0.069380	NaN	0.000000	0.001665	0.001814	28.0821	0.080064	0.002107	38.0035	-89.8315	-166.499	0.053743	0.168748	-0.942807	-0.944167	0.069380	38.0035	-0.944177	-4.013109E+12	-1.728831E-14	NaN
728	1.000000	0.212112	7.37218e+06	-40689.1	1005.82	-29789	0.000000	0.000000	6.212820	0.062172	NaN	0.000000	0.001668	0.001790	28.0822	0.103354	0.002011	51.3826	164.585	14.3453	0.077763	0.210721	-0.900804	-0.902195	0.062172	51.3826	-0.901711	-1.071981E+12	-5.799735E-14	NaN
728	1.000000	0.254107	7.37218e+06	-40689.1	1005.82	-29789	0.000000	0.000000	6.254812	0.008219	NaN	0.000000	0.001664	0.001722	28.0832	0.078164	0.001914	40.8325	-11.1687	-164.231	0.019603	0.252801	-0.858809	-0.860114	0.008219	40.8325	-0.858959	-2.831634E+11	-2.902494E-14	NaN
728	1.000000	0.296152	7.37218e+06	-40689.1	1005.82	-29789	0.000000	0.000000	6.296860	0.072811	NaN	0.000000	0.001704	0.001698	28.0834	0.118106	0.001941	60.8526	78.7253	11.0371	-0.002501	0.294817	-0.816764	-0.818099	0.072811	60.8526	-0.817661	-7.807114E+10	-9.326195E-13	NaN
728	1.000000	0.338183	7.37218e+06	-40689.1	1005.82	-29789	0.000000	0.000000	6.338889	0.025521	NaN	0.000000	0.001677	0.001713	28.083	0.036106	0.001892	19.0821	47.5459	-167.883	0.041566	0.336815	-0.774732	-0.776101	0.025521	19.0821	-0.775735	-2.105104E+10	-1.212325E-12	NaN
728	1.000000	0.380164	7.37218e+06	-40689.1	1005.82	-29789	0.000000	0.000000	6.380872	0.064584	NaN	0.000000	0.001647	0.001680	28.0822	0.021283	0.002014	10.5647	127.855	11.4205	0.058552	0.378759	-0.732752	-0.734157	0.064584	10.5647	-0.737337	-6.320852E+9	-1.021758E-11	NaN
728	1.000000	0.422211	7.37218e+06	-40689.1	1005.82	-29789	0.000000	0.000000	6.422918	0.053642	NaN	0.000000	0.001674	0.001713	28.082	0.048240	0.001959	24.6272	-20.9424	-166.517	-0.006888	0.420912	-0.690705	-0.692003	0.053642	24.6272	-0.692338	-1.537703E+9	-3.488459E-11	NaN
728	1.000000	0.464231	7.37218e+06	-40689.1	1005.82	-29789	0.000000	0.000000	6.464935	-0.016485	NaN	0.000000	0.001659	0.001694	28.0821	0.136303	0.002026	67.2727	-133.505	13.0049	-0.042985	0.462851	-0.648684	-0.650065	-0.016485	67.2727	-0.648501	-3.862615E+8	4.267773E-11	NaN
728	1.000000	0.506219	7.37218e+06	-40689.1	1005.82	-29789	0.000000	0.000000	6.506927	0.072709	NaN	0.000000	0.001649	0.001655	28.0835	0.143070	0.001943	73.6306	22.8629	-166.939	0.080583	0.504931	-0.606696	-0.607985	0.072709	73.6306	-0.607437	-1.054011E+8	-6.898328E-10	NaN
728	1.000000	0.548235	7.37218e+06	-40689.1	1005.82	-29789	0.000000	0.000000	6.548941	0.019411	NaN	0.000000	0.001710	0.001728	28.0836	0.038532	0.002046	18.8309	-33.0088	12.4382	0.021263	0.546928	-0.564681	-0.565988	0.019411	18.8309	-0.565454	-2.778428E+7	-6.986479E-10	NaN
728	1.000000	0.590278	7.37218e+06	-40689.1	1005.82	-29789	0.000000	0.000000	6.590983	-0.013693	NaN	0.000000	0.001665	0.001703	28.0835	0.081510	0.002054	39.6917	-107.257	-163.274	0.131351	0.588940	-0.522637	-0.523976	-0.013693	39.6917	-0.522379	-7.02541e+06	1.949043E-9	NaN
728	1.000000	0.632287	7.37218e+06	-40689.1	1005.82	-29789	0.000000	0.000000	6.632992	0.000427	NaN	0.000000	0.001656	0.001710	28.0835	0.041246	0.001950	21.1572	-134.566	16.5436	-0.027455	0.630959	-0.480629	-0.481956	0.000427	21.1572	-0.480644	-1.83885e+06	-2.322770E-10	NaN
728	1.000000	0.674312	7.37218e+06	-40689.1	1005.82	-29789	0.000000	0.000000	6.675016	-0.032093	NaN	0.000000	0.001664	0.001724	28.082	0.053051	0.002025	26.199	-179.716	-167.056	0.023286	0.672994	-0.438603	-0.439922	-0.032093	26.199	-0.437685	-457800	7.010286E-8	NaN
728	1.000000	0.716316	7.37218e+06	-40689.1	1005.82	-29789	0.000000	0.000000	6.717018	-0.054657	NaN	0.000000	0.001681	0.001714	28.0824	0.070469	0.002058	34.2466	-162.084	12.3046	0.031350	0.714949	-0.396600	-0.397966	-0.054657	34.2466	-0.395403	-114918	4.756131E-7	NaN
728	1.000000	0.758348	7.37218e+06	-40689.1	1005.82	-29789	0.000000	0.000000	6.759052	-0.011124	NaN	0.000000	0.001742	0.001704	28.0822	0.028566	0.002027	14.0956	-89.6674	-165.394	-0.052062	0.757031	-0.354568	-0.355885	-0.011124	14.0956	-0.353976	-29151.7	3.815752E-7	NaN
728	1.000000	0.800372	7.37218e+06	-40689.1	1005.82	-29789	0.000000	0.000000	6.801079	0.031967	NaN	0.000000	0.001764	0.001691	28.0834	0.127859	0.001925	66.4237	98.0416	9.577242	0.087551	0.799009	-0.312543	-0.313907	0.031967	66.4237	-0.312904	-7311.43	-4.372202E-6	NaN
728	1.000000	0.842376	7.37218e+06	-40689.1	1005.82	-29789	0.000000	0.000000	6.843083	0.052155	NaN	0.000000	0.001671	0.001698	28.0832	0.033248	0.001943	17.1109	-106.147	-166.329	0.029607	0.841126	-0.270539	-0.271790	0.052155	17.1109	-0.272825	-1838.43	-2.836911E-5	NaN
728	1.000000	0.884415	7.37218e+06	-40689.1	1005.82	-29789	0.000000	0.000000	6.885121	0.026074	NaN	0.000000	0.001728	0.001723	28.0833	0.072894	0.002062	35.3506	62.5491	10.9535	0.028529	0.883041	-0.228501	-0.229874	0.026074	35.3506	-0.229054	-386.875	-6.739686E-5	NaN
728	1.000000	0.926379	7.37218e+06	-40689.1	1005.82	-29789	0.000000	0.000000	6.927085	0.003056	NaN	0.000000	0.001678	0.001705	28.0822	0.053753	0.002067	26.004	160.464	-164.07	0.040865	0.925088	-0.186536	-0.187827	0.003056	26.004	-0.186624	-78.9713	-3.869234E-5	NaN
728	1.000000	0.968460	7.37218e+06	-40689.1	1005.82	-29789	0.000000	0.000000	6.969167	0.042606	NaN	0.000000	0.001700	0.001711	28.0822	0.133126	0.001932	68.9226	-82.9391	14.0301	-0.027682	0.967062	-0.144455	-0.145853	0.042606	68.9226	-0.144919	-14.6105	-0.002916	NaN
728	1.000000	1.010452	7.37218e+06	-40689.1	1005.82	-29789	0.000000	0.000000	7.011156	-0.034092	NaN	0.000000	0.001710	0.001738	28.0821	0.039797	0.001991	19.987	-69.618	-169.123	-0.088991	1.009157	-0.102463	-0.103759	-0.034092	19.987	-0.101184	-1.940601	0.017568	NaN
728	1.000000	1.052453	7.37218e+06	-40689.1	1005.82	-29789	0.000000	0.000000	7.053157	-0.037087	NaN	0.000000	0.001745	0.001741	28.0832	0.016852	0.001914	8.804737	-105.27	12.7365	-0.057717	1.051108	-0.060462	-0.061807	-0.037087	8.804737	-0.057303	-0.150480	0.246457	NaN
728	1.000000	1.094471	7.37218e+06	-40689.1	1005.82	-29789	0.000000	0.000000	7.095175	-0.007463	NaN	0.000000	0.001679	0.001757	28.0831	0.077059	0.001968	39.1494	135.947	-167.467	-0.004673	1.093209	-0.018445	-0.019707	-0.007463	39.1494	-0.018302	-0.011365	0.656644	NaN
728	2.000000	1.123564	7.37218e+06	-40689.1	1005.82	-29789	0.000000	0.000000	7.124890	15.0971	NaN	0.000000	0.001693	0.001728	28.0833	13.7936	0.001792	7697.13	5.906951	4.834979	14.0813	1.123198	0.010649	0.010283	15.0971	7697.13	0.009178	0.008282	1822.92	77274.9
728	2.000000	1.133937	7.37218e+06	-40689.1	1005.82	-29789	0.000000	0.000000	7.136253	39.1992	NaN	0.000000	0.001680	0.001768	28.084	24.4716	0.001828	13389.8	5.404771	-178.098	36.7438	1.133593	0.021021	0.020678	39.1992	13389.8	0.018825	0.020730	1890.94	84966.4
728	2.000000	1.144462	7.37218e+06	-40689.1	1005.82	-29789	0.000000	0.000000	7.148417	79.0743	NaN	0.000000	0.001697	0.001697	28.0824	34.7435	0.001690	20553.4	3.748766	-1.152730	78.1256	1.144129	0.031547	0.031214	79.0743	20553.4	0.028661	0.038015	2080.09	96312
728	2.000000	1.154935	7.37218e+06	-40689.1	1005.82	-29789	0.000000	0.000000	7.161086	132.538	NaN	0.000000	0.001704	0.001726	28.0823	47.6634	0.001853	25723.4	8.045331	173.012	131.301	1.154625	0.042019	0.041709	132.538	25723.4	0.038155	0.059346	2233.31	96472.7
728	2.000000	1.165371	7.37218e+06	-40689.1	1005.82	-29789	0.000000	0.000000	7.174403	202.634	NaN	0.000000	0.001707	0.001729	28.0823	57.0133	0.001791	31830.5	4.373957	-3.825955	197.814	1.164975	0.052455	0.052059	202.634	31830.5	0.047681	0.085379	2373.33	99527
728	2.000000	1.175883	7.37218e+06	-40689.1	1005.82	-29789	0.000000	0.000000	7.187053	254.644	NaN	0.000000	0.001690	0.001800	28.0857	66.6378	0.001755	37974	3.131718	175.29	251.247	1.175621	0.062968	0.062705	254.644	37974	0.057938	0.118519	2148.54	100778
728	2.000000	1.186372	7.37218e+06	-40689.1	1005.82	-29789	0.000000	0.000000	7.200562	328.134	NaN	0.000000	0.001629	0.001733	28.0838	75.3765	0.001854	40662.7	4.751604	-5.441644	323.186	1.185978	0.073457	0.073062	328.134	40662.7	0.067405	0.153691	2135.03	94764.4
728	2.000000	1.196894	7.37218e+06	-40689.1	1005.82	-29789	0.000000	0.000000	7.213334	382.874	NaN	0.000000	0.001723	0.001741	28.0841	83.6843	0.001916	43677.7	2.260504	175.401	381.254	1.196669	0.083978	0.083754	382.874	43677.7	0.077404	0.195504	1958.4	90251.6
728	2.000000	1.207403	7.37218e+06	-40689.1	1005.82	-29789	0.000000	0.000000	7.227490	471.626	NaN	0.000000	0.001731	0.001746	28.0824	91.942	0.001785	51512.4	5.961630	-9.579335	469.633	1.207036	0.094487	0.094120	471.626	51512.4	0.087620	0.243061	1940.36	95461.4
728	2.000000	1.217806	7.37218e+06	-40689.1	1005.82	-29789	0.000000	0.000000	7.241266	553.703	NaN	0.000000	0.001734	0.001751	28.0824	100.385	0.001810	55453.7	2.933145	173.718	549.578	1.217492	0.104890	0.104576	553.703	55453.7	0.097401	0.293092	1889.18	93584.1