File: remote_trans/data/nanoindenter/0828-1/data/Data_2025-08-06,11h17m57s/2025-07-22_16-23-58_1_177.txt
2025-07-22, 16:23:58, 1
Index	Phase	Displacement	Time	Pos X	Pos Y	Pos Z	Rot A	Rot B	Piezo Z	Force A	Force B	Gripper	Voltage A	Voltage B	Temperature	Amplitude force	Amplitude pos	Stiffness	Phase shift	Phase excitation	Force A raw	Displacement raw	HMax	HMax raw	Real Force	Real Stiffness	Contact Depth	Area	Hardness	Reduced Mod.
[#]	[#]	[um]	[s]	[um]	[um]	[um]	[m°]	[m°]	[um]	[uN]	[uN]	[V]	[V]	[V]	[°C]	[uN]	[um]	[N/m]	[°]	[°]	[uN]	[um]	[um]	[um]	[uN]	[N/m]	[um]	[um^2]	[MPa]	[MPa]
177	1.000000	0.002592	7.36677e+06	-47489.1	955.819	-29765.6	0.000000	0.000000	6.002817	-0.017673	NaN	0.000000	0.001640	0.001724	28.0835	0.074660	0.000984	75.8505	74.4598	-158.135	-0.041003	0.001304	-1.725601	-1.726889	-0.017673	75.8505	-1.725426	-1.107030E+23	1.596403E-25	NaN
177	1.000000	0.060537	7.36677e+06	-47489.1	955.819	-29765.6	0.000000	0.000000	6.060760	-0.053547	NaN	0.000000	0.001638	0.001677	28.1187	0.015037	0.001942	7.744827	-110.989	17.7096	-0.071841	0.059183	-1.667656	-1.669010	-0.053547	7.744827	-1.662471	-1.613545E+22	3.318599E-24	NaN
177	1.000000	0.118580	7.36677e+06	-47489.1	955.819	-29765.6	0.000000	0.000000	6.118804	-0.034220	NaN	0.000000	0.001654	0.001731	28.1196	0.036969	0.002029	18.2161	71.9561	-166.079	-0.034959	0.117254	-1.609613	-1.610939	-0.034220	18.2161	-1.608204	-3.064354E+21	1.116709E-23	NaN
177	1.000000	0.176566	7.36677e+06	-47489.1	955.817	-29765.6	0.000000	0.000000	6.176789	-0.051805	NaN	0.000000	0.001652	0.001718	28.0837	0.067971	0.002011	33.7963	-144.997	13.6019	0.021376	0.175218	-1.551627	-1.552975	-0.051805	33.7963	-1.550478	-5.228207E+20	9.908796E-23	NaN
177	1.000000	0.234601	7.36677e+06	-47489.1	955.818	-29765.6	0.000000	0.000000	6.234824	-0.064473	NaN	0.000000	0.001607	0.001639	28.0817	0.030664	0.002075	14.7802	2.530227	-161.85	0.043112	0.233321	-1.493592	-1.494872	-0.064473	14.7802	-1.490320	-8.267705E+19	7.798181E-22	NaN
177	1.000000	0.292649	7.36677e+06	-47489.1	955.819	-29765.6	0.000000	0.000000	6.292874	-0.012100	NaN	0.000000	0.001610	0.001668	28.1173	0.025867	0.001990	12.9973	69.4086	13.1958	-0.015723	0.291237	-1.435544	-1.436956	-0.012100	12.9973	-1.434846	-1.507117E+19	8.028326E-22	NaN
177	1.000000	0.350657	7.36677e+06	-47489.1	955.818	-29765.6	0.000000	0.000000	6.350882	-0.016081	NaN	0.000000	0.001696	0.001710	28.1202	0.062418	0.002096	29.7818	-124.59	-165.718	0.002747	0.349341	-1.377536	-1.378852	-0.016081	29.7818	-1.377131	-2.560677E+18	6.280050E-21	NaN
177	1.000000	0.408694	7.36677e+06	-47489.1	955.819	-29765.6	0.000000	0.000000	6.408921	0.023210	NaN	0.000000	0.001609	0.001655	28.0835	0.091293	0.001996	45.7289	-117.93	15.2911	0.006178	0.407332	-1.319499	-1.320861	0.023210	45.7289	-1.319879	-4.405480E+17	-5.268458E-20	NaN
177	1.000000	0.466704	7.36677e+06	-47489.1	955.818	-29765.6	0.000000	0.000000	6.466930	0.020010	NaN	0.000000	0.001651	0.001683	28.0825	0.056281	0.002050	27.4529	112.099	-166.206	0.025964	0.465360	-1.261489	-1.262833	0.020010	27.4529	-1.262036	-7.428373E+16	-2.693694E-19	NaN
177	1.000000	0.524697	7.36677e+06	-47489.1	955.819	-29765.6	0.000000	0.000000	6.524926	0.064155	NaN	0.000000	0.001638	0.001709	28.1161	0.120484	0.002015	59.7842	145.544	16.8532	0.010342	0.523356	-1.203496	-1.204837	0.064155	59.7842	-1.204300	-1.254098E+16	-5.115617E-18	NaN
177	1.000000	0.582734	7.36677e+06	-47489.1	955.819	-29765.6	0.000000	0.000000	6.582958	-0.034444	NaN	0.000000	0.001604	0.001739	28.1215	0.064832	0.001983	32.6868	-175.138	-164.025	-0.048352	0.581442	-1.145459	-1.146751	-0.034444	32.6868	-1.144669	-1.992249E+15	1.728879E-17	NaN
177	1.000000	0.640794	7.36677e+06	-47489.1	955.818	-29765.6	0.000000	0.000000	6.641018	-0.039620	NaN	0.000000	0.001663	0.001714	28.0836	0.120259	0.001984	60.6199	-141.773	13.9888	-0.076040	0.639422	-1.087399	-1.088771	-0.039620	60.6199	-1.086909	-3.344307E+14	1.184711E-16	NaN
177	1.000000	0.698782	7.36677e+06	-47489.1	955.819	-29765.6	0.000000	0.000000	6.699009	0.047854	NaN	0.000000	0.001659	0.001748	28.0815	0.123390	0.001884	65.4918	-131.74	-163.012	-0.023474	0.697486	-1.029411	-1.030707	0.047854	65.4918	-1.029959	-5.740259E+13	-8.336510E-16	NaN
177	1.000000	0.756784	7.36677e+06	-47489.1	955.818	-29765.6	0.000000	0.000000	6.757008	-0.017381	NaN	0.000000	0.001606	0.001704	28.1167	0.033507	0.002045	16.3855	161.431	12.3265	0.020643	0.755444	-0.971410	-0.972749	-0.017381	16.3855	-0.970614	-9.118798E+12	1.906021E-15	NaN
177	1.000000	0.814858	7.36677e+06	-47489.1	955.818	-29765.6	0.000000	0.000000	6.815084	0.006217	NaN	0.000000	0.001690	0.001696	28.1226	0.052532	0.001869	28.1042	117.511	-166.082	-0.036018	0.813514	-0.913335	-0.914679	0.006217	28.1042	-0.913501	-1.546835E+12	-4.018897E-15	NaN
177	1.000000	0.872881	7.36677e+06	-47489.1	955.819	-29765.6	0.000000	0.000000	6.873109	0.052970	NaN	0.000000	0.001676	0.001683	28.0837	0.078739	0.001930	40.7935	99.1741	14.7006	0.004612	0.871498	-0.855312	-0.856696	0.052970	40.7935	-0.856286	-2.605236E+11	-2.033207E-13	NaN
177	1.000000	0.930911	7.36677e+06	-47489.1	955.818	-29765.6	0.000000	0.000000	6.931138	0.037618	NaN	0.000000	0.001695	0.001694	28.0815	0.074994	0.001924	38.9794	-14.444	-165.929	0.022943	0.929637	-0.797283	-0.798556	0.037618	38.9794	-0.798006	-4.224726E+10	-8.904284E-13	NaN
177	1.000000	0.988944	7.36677e+06	-47489.1	955.818	-29765.6	0.000000	0.000000	6.989171	0.036099	NaN	0.000000	0.001656	0.001696	28.1163	0.047407	0.001972	24.0396	179.053	14.6965	0.067324	0.987633	-0.739249	-0.740560	0.036099	24.0396	-0.740375	-6.952925E+9	-5.191906E-12	NaN
177	1.000000	1.046923	7.36677e+06	-47489.1	955.818	-29765.6	0.000000	0.000000	7.047150	0.035484	NaN	0.000000	0.001623	0.001658	28.125	0.032171	0.001893	16.9984	-142.669	-165.678	-0.007825	1.045621	-0.681270	-0.682572	0.035484	16.9984	-0.682836	-1.140218E+9	-3.112057E-11	NaN
177	1.000000	1.104978	7.36677e+06	-47489.1	955.819	-29765.6	0.000000	0.000000	7.105204	0.031637	NaN	0.000000	0.001619	0.001707	28.0829	0.008270	0.002098	3.941041	-123.227	14.2518	-0.030037	1.103557	-0.623215	-0.624636	0.031637	3.941041	-0.629236	-2.101520E+8	-1.505450E-10	NaN
177	1.000000	1.162933	7.36677e+06	-47489.1	955.817	-29765.6	0.000000	0.000000	7.163157	-0.038275	NaN	0.000000	0.001606	0.001676	28.0803	0.074479	0.001997	37.2978	105.746	-164.905	-0.027392	1.161715	-0.565260	-0.566478	-0.038275	37.2978	-0.564490	-2.694500E+7	1.420493E-9	NaN
177	1.000000	1.221007	7.36677e+06	-47489.1	955.819	-29765.6	0.000000	0.000000	7.221231	-0.028356	NaN	0.000000	0.001630	0.001710	28.115	0.077560	0.002051	37.8212	131.647	13.3415	-0.011027	1.219597	-0.507186	-0.508596	-0.028356	37.8212	-0.506624	-4.24011e+06	6.687607E-9	NaN
177	1.000000	1.279040	7.36677e+06	-47489.1	955.818	-29765.6	0.000000	0.000000	7.279264	-0.031004	NaN	0.000000	0.001632	0.001713	28.1262	0.082302	0.001990	41.3651	-108.159	-163.329	-0.051344	1.277758	-0.449153	-0.450435	-0.031004	41.3651	-0.448591	-652368	4.752557E-8	NaN
177	1.000000	1.337065	7.36677e+06	-47489.1	955.818	-29765.6	0.000000	0.000000	7.337290	0.002478	NaN	0.000000	0.001641	0.001685	28.0852	0.022184	0.001981	11.1984	172.058	16.9553	0.017755	1.335677	-0.391128	-0.392516	0.002478	11.1984	-0.391294	-100387	-2.468830E-8	NaN
177	1.000000	1.395107	7.36677e+06	-47489.1	955.818	-29765.6	0.000000	0.000000	7.395332	-0.017076	NaN	0.000000	0.001591	0.001756	28.0816	0.053869	0.002013	26.7638	-29.6941	-165.663	-0.021359	1.393804	-0.333086	-0.334389	-0.017076	26.7638	-0.332608	-14243.4	1.198875E-6	NaN
177	1.000000	1.453113	7.36677e+06	-47489.1	955.819	-29765.6	0.000000	0.000000	7.453337	-0.043484	NaN	0.000000	0.001597	0.001759	28.1125	0.108183	0.001846	58.6171	157.144	13.3481	-0.027580	1.451748	-0.275080	-0.276445	-0.043484	58.6171	-0.274523	-1950.66	2.229187E-5	NaN
177	1.000000	1.511155	7.36677e+06	-47489.1	955.819	-29765.6	0.000000	0.000000	7.511379	-0.024821	NaN	0.000000	0.001693	0.001805	28.1253	0.057035	0.002057	27.7228	67.2093	-165.323	-0.083824	1.509823	-0.217039	-0.218370	-0.024821	27.7228	-0.216367	-242.931	0.000102	NaN
177	1.000000	1.569150	7.36677e+06	-47489.1	955.819	-29765.6	0.000000	0.000000	7.569376	0.027954	NaN	0.000000	0.001678	0.001726	28.0866	0.075196	0.002044	36.7909	120.304	15.0154	0.033101	1.567833	-0.159043	-0.160360	0.027954	36.7909	-0.159613	-26.9842	-0.001036	NaN
177	1.000000	1.627181	7.36677e+06	-47489.1	955.819	-29765.6	0.000000	0.000000	7.627406	-0.007830	NaN	0.000000	0.001652	0.001749	28.0813	0.081078	0.001960	41.376	-48.0215	-164.279	-0.027747	1.625850	-0.101012	-0.102343	-0.007830	41.376	-0.100870	-1.909941	0.004100	NaN
177	1.000000	1.685217	7.36678e+06	-47489.1	955.819	-29765.6	0.000000	0.000000	7.685442	-0.014561	NaN	0.000000	0.001574	0.001693	28.1109	0.086937	0.002023	42.9809	-179.258	14.8601	0.034367	1.683833	-0.042976	-0.044360	-0.014561	42.9809	-0.042722	-0.054744	0.265977	NaN
177	2.000000	1.738842	7.36678e+06	-47489.1	955.819	-29765.6	0.000000	0.000000	7.739521	11.0419	NaN	0.000000	0.001563	0.001712	28.1252	10.4934	0.001557	6741.09	7.015309	-175.671	10.3317	1.738505	0.010649	0.010312	11.0419	6741.09	0.009420	0.008544	1292.29	66628.8
177	2.000000	1.753291	7.36678e+06	-47489.1	955.819	-29765.6	0.000000	0.000000	7.755048	37.2501	NaN	0.000000	0.001580	0.001760	28.0859	25.9291	0.001813	14300.3	2.560330	4.013303	36.3528	1.752986	0.025098	0.024793	37.2501	14300.3	0.023145	0.027727	1343.47	78463.6
177	2.000000	1.767711	7.36678e+06	-47489.1	955.819	-29765.6	0.000000	0.000000	7.771102	76.9997	NaN	0.000000	0.001600	0.001717	28.0805	38.6987	0.001838	21052.7	5.121664	178.107	77.5401	1.767415	0.039518	0.039222	76.9997	21052.7	0.036775	0.055960	1375.98	81309.7
177	2.000000	1.782199	7.36678e+06	-47489.1	955.819	-29765.6	0.000000	0.000000	7.787842	131.76	NaN	0.000000	0.001606	0.001731	28.109	50.9547	0.001783	28581	5.727198	-5.070265	132.407	1.781819	0.054006	0.053626	131.76	28581	0.050549	0.094117	1399.97	85117.3
177	2.000000	1.796649	7.36678e+06	-47489.1	955.819	-29765.6	0.000000	0.000000	7.805015	198.002	NaN	0.000000	0.001589	0.001776	28.125	65.0253	0.001704	38157.1	5.808343	172.719	197.669	1.796361	0.068456	0.068168	198.002	38157.1	0.064564	0.142682	1387.72	92291.9
177	2.000000	1.811042	7.36678e+06	-47489.1	955.819	-29765.6	0.000000	0.000000	7.822564	274.771	NaN	0.000000	0.001573	0.001735	28.0888	78.5895	0.001784	44044.6	5.269543	-7.713883	268.021	1.810698	0.082849	0.082505	274.771	44044.6	0.078170	0.198900	1381.45	90229.4
177	2.000000	1.825678	7.36678e+06	-47489.1	955.82	-29765.6	0.000000	0.000000	7.841019	367.659	NaN	0.000000	0.001556	0.001746	28.0815	91.187	0.001765	51665.9	5.956101	170.344	367.296	1.825420	0.097485	0.097227	367.659	51665.9	0.092148	0.265675	1383.87	91580.4
177	2.000000	1.836225	7.36678e+06	-47489.1	955.819	-29765.5	0.000000	0.000000	7.854635	442.3	NaN	0.000000	0.001547	0.001770	28.1091	100.747	0.001789	56329.7	5.458569	-9.154712	444.848	1.835769	0.108032	0.107576	442.3	56329.7	0.102143	0.318919	1386.87	91131.9