File: remote_trans/data/nanoindenter/0828-1/data/Data_2025-08-06,11h17m57s/2025-07-22_16-23-58_1_456.txt
2025-07-22, 16:23:58, 1
Index	Phase	Displacement	Time	Pos X	Pos Y	Pos Z	Rot A	Rot B	Piezo Z	Force A	Force B	Gripper	Voltage A	Voltage B	Temperature	Amplitude force	Amplitude pos	Stiffness	Phase shift	Phase excitation	Force A raw	Displacement raw	HMax	HMax raw	Real Force	Real Stiffness	Contact Depth	Area	Hardness	Reduced Mod.
[#]	[#]	[um]	[s]	[um]	[um]	[um]	[m°]	[m°]	[um]	[uN]	[uN]	[V]	[V]	[V]	[°C]	[uN]	[um]	[N/m]	[°]	[°]	[uN]	[um]	[um]	[um]	[uN]	[N/m]	[um]	[um^2]	[MPa]	[MPa]
456	1.000000	0.002068	7.36952e+06	-54289.1	1005.82	-29743.9	0.000000	0.000000	6.002829	-0.004017	NaN	0.000000	0.001504	0.001752	28.0803	0.117610	0.000904	130.14	137.193	-168.496	0.042049	0.000782	-1.176369	-1.177655	-0.004017	130.14	-1.176346	-5.295583E+15	7.585335E-19	NaN
456	1.000000	0.046000	7.36952e+06	-54289.1	1005.82	-29743.9	0.000000	0.000000	6.046761	0.010681	NaN	0.000000	0.001614	0.001788	28.0807	0.031578	0.002002	15.7715	159.215	-165.699	0.042547	0.044625	-1.132437	-1.133812	0.010681	15.7715	-1.132945	-1.387149E+15	-7.699934E-18	NaN
456	1.000000	0.089998	7.36952e+06	-54289.1	1005.82	-29743.9	0.000000	0.000000	6.090758	-0.022620	NaN	0.000000	0.001580	0.001848	28.081	0.057700	0.002011	28.6884	38.4024	-163.463	-0.054225	0.088630	-1.088439	-1.089807	-0.022620	28.6884	-1.087847	-3.442767E+14	6.570334E-17	NaN
456	1.000000	0.134026	7.36952e+06	-54289.1	1005.82	-29743.9	0.000000	0.000000	6.134787	-0.002561	NaN	0.000000	0.001567	0.001861	28.0815	0.070303	0.001915	36.7085	-154.299	-165.047	0.004372	0.132680	-1.044411	-1.045757	-0.002561	36.7085	-1.044359	-8.965539E+13	2.856205E-17	NaN
456	1.000000	0.178031	7.36952e+06	-54289.1	1005.82	-29743.9	0.000000	0.000000	6.178790	-0.047017	NaN	0.000000	0.001576	0.001844	28.0818	0.069226	0.001907	36.304	-84.2491	-166.029	-0.000234	0.176696	-1.000407	-1.001741	-0.047017	36.304	-0.999435	-2.229284E+13	2.109073E-15	NaN
456	1.000000	0.222028	7.36952e+06	-54289.1	1005.82	-29743.9	0.000000	0.000000	6.222788	-0.018265	NaN	0.000000	0.001569	0.001755	28.0808	0.044632	0.002036	21.9195	-98.958	-168.259	0.003227	0.220762	-0.956409	-0.957676	-0.018265	21.9195	-0.955784	-5.754782E+12	3.173956E-15	NaN
456	1.000000	0.266098	7.36952e+06	-54289.1	1005.82	-29743.9	0.000000	0.000000	6.266856	-0.083913	NaN	0.000000	0.001560	0.001740	28.0806	0.082042	0.001927	42.5793	114.136	-165.371	-0.046456	0.264801	-0.912339	-0.913636	-0.083913	42.5793	-0.910861	-1.424920E+12	5.888974E-14	NaN
456	1.000000	0.310098	7.36952e+06	-54289.1	1005.82	-29743.9	0.000000	0.000000	6.310861	0.068137	NaN	0.000000	0.001550	0.001716	28.0805	0.023667	0.001989	11.8969	-142.117	-164.498	0.092016	0.308744	-0.868340	-0.869693	0.068137	11.8969	-0.872635	-4.336040E+11	-1.571408E-13	NaN
456	1.000000	0.354133	7.36952e+06	-54289.1	1005.82	-29743.9	0.000000	0.000000	6.354891	-0.058123	NaN	0.000000	0.001555	0.001731	28.0817	0.027615	0.001964	14.0596	137.403	-164.149	-0.049509	0.352815	-0.824304	-0.825622	-0.058123	14.0596	-0.821204	-8.720353E+10	6.665247E-13	NaN
456	1.000000	0.398159	7.36952e+06	-54289.1	1005.82	-29743.9	0.000000	0.000000	6.398917	-0.055966	NaN	0.000000	0.001571	0.001734	28.0816	0.058328	0.002059	28.3266	-58.9008	-168.295	-0.075167	0.396811	-0.780278	-0.781626	-0.055966	28.3266	-0.778796	-2.316735E+10	2.415740E-12	NaN
456	1.000000	0.442126	7.36952e+06	-54289.1	1005.82	-29743.9	0.000000	0.000000	6.442883	-0.083835	NaN	0.000000	0.001507	0.001731	28.0819	0.051115	0.002039	25.066	-141.626	-165.122	-0.077417	0.440846	-0.736311	-0.737592	-0.083835	25.066	-0.733803	-5.657612E+9	1.481812E-11	NaN
456	1.000000	0.486145	7.36952e+06	-54289.1	1005.82	-29743.9	0.000000	0.000000	6.486903	-0.067540	NaN	0.000000	0.001541	0.001702	28.0804	0.057119	0.002249	25.4019	160.306	-166.204	-0.006186	0.484888	-0.692293	-0.693550	-0.067540	25.4019	-0.690299	-1.442109E+9	4.683426E-11	NaN
456	1.000000	0.530179	7.36952e+06	-54289.1	1005.82	-29743.9	0.000000	0.000000	6.530941	0.019568	NaN	0.000000	0.001553	0.001723	28.0801	0.123880	0.001929	64.229	-56.8872	-164.9	-0.022002	0.528927	-0.648258	-0.649510	0.019568	64.229	-0.648487	-3.860903E+8	-5.068127E-11	NaN
456	1.000000	0.574236	7.36952e+06	-54289.1	1005.82	-29743.9	0.000000	0.000000	6.574996	-0.010309	NaN	0.000000	0.001554	0.001730	28.0799	0.161048	0.002069	77.8348	-140.014	-169.42	-0.043915	0.572881	-0.604202	-0.605557	-0.010309	77.8348	-0.604102	-9.483005E+7	1.087097E-10	NaN
456	1.000000	0.618235	7.36952e+06	-54289.1	1005.82	-29743.9	0.000000	0.000000	6.618993	-0.061298	NaN	0.000000	0.001527	0.001728	28.0815	0.051322	0.002002	25.6381	-97.1611	-166.46	0.001174	0.616947	-0.560202	-0.561490	-0.061298	25.6381	-0.558409	-2.220082E+7	2.761084E-9	NaN
456	1.000000	0.662231	7.36952e+06	-54289.1	1005.82	-29743.9	0.000000	0.000000	6.662990	-0.050825	NaN	0.000000	0.001571	0.001716	28.0817	0.038738	0.001988	19.4842	-70.8616	-171.234	-0.049751	0.661010	-0.516206	-0.517427	-0.050825	19.4842	-0.514250	-5.41489e+06	9.386144E-9	NaN
456	1.000000	0.706273	7.36952e+06	-54289.1	1005.82	-29743.9	0.000000	0.000000	6.707033	-0.030235	NaN	0.000000	0.001564	0.001707	28.0819	0.069444	0.001964	35.3612	165.343	-167.978	-0.024016	0.704931	-0.472164	-0.473506	-0.030235	35.3612	-0.471523	-1.37013e+06	2.206699E-8	NaN
456	1.000000	0.750266	7.36952e+06	-54289.1	1005.82	-29743.9	0.000000	0.000000	6.751028	0.046345	NaN	0.000000	0.001619	0.001733	28.0804	0.050891	0.002006	25.3688	130.304	-165.21	0.024007	0.748985	-0.428172	-0.429452	0.046345	25.3688	-0.429542	-351218	-1.319540E-7	NaN
456	1.000000	0.794296	7.36952e+06	-54289.1	1005.82	-29743.9	0.000000	0.000000	6.795057	-0.013542	NaN	0.000000	0.001563	0.001753	28.0802	0.043604	0.002053	21.2349	-28.7782	-166.883	0.004598	0.793023	-0.384141	-0.385414	-0.013542	21.2349	-0.383663	-78058.5	1.734819E-7	NaN
456	1.000000	0.838300	7.36952e+06	-54289.1	1005.82	-29743.9	0.000000	0.000000	6.839061	-0.002960	NaN	0.000000	0.001628	0.001774	28.0803	0.050121	0.001961	25.5532	-30.239	-163.56	0.069298	0.837012	-0.340137	-0.341425	-0.002960	25.5532	-0.340050	-18293	1.618086E-7	NaN
456	1.000000	0.882354	7.36952e+06	-54289.1	1005.82	-29743.9	0.000000	0.000000	6.883116	0.033195	NaN	0.000000	0.001638	0.001737	28.0802	0.010995	0.001979	5.557192	4.857148	-166.692	0.014597	0.881043	-0.296083	-0.297394	0.033195	5.557192	-0.300563	-4797.57	-6.919163E-6	NaN
456	1.000000	0.926376	7.36952e+06	-54289.1	1005.82	-29743.9	0.000000	0.000000	6.927137	0.020819	NaN	0.000000	0.001546	0.001754	28.0817	0.151599	0.002095	72.3724	167.888	-166.071	0.007829	0.925079	-0.252061	-0.253358	0.020819	72.3724	-0.252277	-891.554	-2.335081E-5	NaN
456	1.000000	0.970371	7.36952e+06	-54289.1	1005.82	-29743.9	0.000000	0.000000	6.971130	-0.058275	NaN	0.000000	0.001562	0.001733	28.0819	0.110165	0.002092	52.6721	105.006	-160.888	-0.062940	0.969077	-0.208066	-0.209360	-0.058275	52.6721	-0.207236	-172.97	0.000337	NaN
456	1.000000	1.014410	7.36952e+06	-54289.1	1005.82	-29743.9	0.000000	0.000000	7.015172	0.040599	NaN	0.000000	0.001587	0.001691	28.0817	0.029368	0.002034	14.4398	89.6328	-163.133	-0.053211	1.013092	-0.164027	-0.165346	0.040599	14.4398	-0.166136	-35.1745	-0.001154	NaN
456	1.000000	1.058396	7.36952e+06	-54289.1	1005.82	-29743.9	0.000000	0.000000	7.059156	-0.000491	NaN	0.000000	0.001525	0.001716	28.0804	0.061622	0.002024	30.4496	-125.565	-164.205	-0.021932	1.057072	-0.120042	-0.121365	-0.000491	30.4496	-0.120030	-4.838141	0.000102	NaN
456	1.000000	1.102417	7.36952e+06	-54289.1	1005.82	-29743.9	0.000000	0.000000	7.103177	-0.018682	NaN	0.000000	0.001538	0.001719	28.0803	0.076921	0.002071	37.1417	-51.4442	-166.106	-0.012758	1.101154	-0.076020	-0.077283	-0.018682	37.1417	-0.075643	-0.479862	0.038933	NaN
456	1.000000	1.146431	7.36952e+06	-54289.1	1005.82	-29743.9	0.000000	0.000000	7.147189	-0.068644	NaN	0.000000	0.001564	0.001714	28.0804	0.116486	0.001971	59.1108	-29.3026	-164.438	-0.040386	1.145134	-0.032006	-0.033303	-0.068644	59.1108	-0.031135	-0.024764	2.771905	NaN
456	2.000000	1.189107	7.36952e+06	-54289.1	1005.82	-29743.9	0.000000	0.000000	7.190208	8.267785	NaN	0.000000	0.001496	0.001736	28.0817	8.939963	0.001607	5564.57	8.489566	-173.075	8.185176	1.188675	0.010670	0.010237	8.267785	5564.57	0.009555	0.008692	951.233	54532.3
456	2.000000	1.200022	7.36952e+06	-54289.1	1005.82	-29743.9	0.000000	0.000000	7.201961	28.6259	NaN	0.000000	0.001555	0.001752	28.0816	21.0939	0.001742	12108.7	5.631165	-176.889	28.4937	1.199739	0.021585	0.021301	28.6259	12108.7	0.019812	0.022248	1286.69	74169.8
456	2.000000	1.210965	7.36952e+06	-54289.1	1005.82	-29743.9	0.000000	0.000000	7.214084	57.3318	NaN	0.000000	0.001580	0.001723	28.0813	31.6046	0.001910	16546.8	9.225170	177.038	56.2483	1.210651	0.032528	0.032214	57.3318	16546.8	0.029929	0.040597	1412.23	75031.2
456	2.000000	1.221945	7.36952e+06	-54289.1	1005.82	-29743.9	0.000000	0.000000	7.226415	90.1872	NaN	0.000000	0.001630	0.001773	28.0805	41.6622	0.001924	21659.6	3.833803	179.39	88.728	1.221670	0.043507	0.043233	90.1872	21659.6	0.040385	0.065026	1386.94	77603.2
456	2.000000	1.232903	7.36952e+06	-54289.1	1005.82	-29743.9	0.000000	0.000000	7.239300	137.032	NaN	0.000000	0.001611	0.001734	28.0814	51.2766	0.001845	27787.8	6.589210	175.129	134.499	1.232610	0.054466	0.054173	137.032	27787.8	0.050767	0.094799	1445.5	82456.7
456	2.000000	1.243889	7.36952e+06	-54289.1	1005.82	-29743.9	0.000000	0.000000	7.252546	191.969	NaN	0.000000	0.001629	0.001723	28.0804	60.7162	0.001724	35220.7	6.608595	173.357	187.961	1.243547	0.065452	0.065110	191.969	35220.7	0.061364	0.130745	1468.27	88993.4
456	2.000000	1.254924	7.36952e+06	-54289.1	1005.82	-29743.9	0.000000	0.000000	7.266112	253.489	NaN	0.000000	0.001622	0.001711	28.0816	71.1244	0.001856	38319.3	6.358240	173.816	253.873	1.254612	0.076487	0.076175	253.489	38319.3	0.071526	0.170349	1488.06	84824.4
456	2.000000	1.265929	7.36952e+06	-54289.1	1005.82	-29743.9	0.000000	0.000000	7.279996	323.476	NaN	0.000000	0.001501	0.001700	28.0816	79.7138	0.001689	47185.1	2.807640	174.557	324.391	1.265560	0.087492	0.087123	323.476	47185.1	0.082350	0.217924	1484.36	92347.6
456	2.000000	1.276952	7.36952e+06	-54289.1	1005.82	-29743.9	0.000000	0.000000	7.294229	401.526	NaN	0.000000	0.001519	0.001705	28.0823	91.0903	0.001715	53113.6	7.851453	168.739	402.981	1.276555	0.098515	0.098117	401.526	53113.6	0.092845	0.269243	1491.32	93520.6
456	2.000000	1.286868	7.36952e+06	-54289.1	1005.82	-29743.9	0.000000	0.000000	7.307310	478.478	NaN	0.000000	0.001549	0.001718	28.0806	100.839	0.001867	53999.9	6.375268	170.928	476.749	1.286464	0.108430	0.108027	478.478	53999.9	0.101785	0.316931	1509.72	87636.2