File: remote_trans/data/nanoindenter/0828-1/data/Data_2025-08-06,11h17m57s/2025-07-22_16-23-58_1_1133.txt
2025-07-22, 16:23:58, 1
Index	Phase	Displacement	Time	Pos X	Pos Y	Pos Z	Rot A	Rot B	Piezo Z	Force A	Force B	Gripper	Voltage A	Voltage B	Temperature	Amplitude force	Amplitude pos	Stiffness	Phase shift	Phase excitation	Force A raw	Displacement raw	HMax	HMax raw	Real Force	Real Stiffness	Contact Depth	Area	Hardness	Reduced Mod.
[#]	[#]	[um]	[s]	[um]	[um]	[um]	[m°]	[m°]	[um]	[uN]	[uN]	[V]	[V]	[V]	[°C]	[uN]	[um]	[N/m]	[°]	[°]	[uN]	[um]	[um]	[um]	[uN]	[N/m]	[um]	[um^2]	[MPa]	[MPa]
1133	1.000000	0.002286	7.37613e+06	-56789.1	1055.82	-29738.1	0.000000	0.000000	6.002811	-0.038474	NaN	0.000000	0.001677	0.001765	28.0825	0.028533	0.000847	33.6991	-102.534	-169.339	-0.030179	0.001014	-1.064212	-1.065484	-0.038474	33.6991	-1.063356	-1.614044E+14	2.383706E-16	NaN
1133	1.000000	0.042222	7.37613e+06	-56789.1	1055.82	-29738.1	0.000000	0.000000	6.042747	-0.035463	NaN	0.000000	0.001738	0.001728	28.0822	0.064558	0.002053	31.4449	146.645	-166.289	-0.015261	0.040924	-1.024276	-1.025575	-0.035463	31.4449	-1.023430	-4.689188E+13	7.562804E-16	NaN
1133	1.000000	0.082234	7.37613e+06	-56789.1	1055.82	-29738.1	0.000000	0.000000	6.082760	-0.008638	NaN	0.000000	0.001753	0.001757	28.0831	0.031529	0.002071	15.2218	-166.353	-161.921	-0.004248	0.080949	-0.984264	-0.985549	-0.008638	15.2218	-0.983838	-1.374410E+13	6.285188E-16	NaN
1133	1.000000	0.122231	7.37614e+06	-56789.1	1055.82	-29738.1	0.000000	0.000000	6.122759	0.036691	NaN	0.000000	0.001763	0.001775	28.0829	0.097093	0.002072	46.8668	-105.393	-163.417	0.010219	0.120996	-0.944267	-0.945502	0.036691	46.8668	-0.944854	-4.098442E+12	-8.952403E-15	NaN
1133	1.000000	0.162273	7.37614e+06	-56789.1	1055.82	-29738.1	0.000000	0.000000	6.162795	-0.103134	NaN	0.000000	0.001691	0.001819	28.083	0.041679	0.001811	23.0202	75.4579	-166.892	-0.084931	0.160981	-0.904225	-0.905517	-0.103134	23.0202	-0.900865	-1.044122E+12	9.877571E-14	NaN
1133	1.000000	0.202295	7.37614e+06	-56789.1	1055.82	-29738.1	0.000000	0.000000	6.202818	-0.088470	NaN	0.000000	0.001717	0.001796	28.0829	0.085778	0.001879	45.6434	76.5183	-164.033	-0.072389	0.200983	-0.864203	-0.865515	-0.088470	45.6434	-0.862750	-3.186651E+11	2.776276E-13	NaN
1133	1.000000	0.242280	7.37614e+06	-56789.1	1055.82	-29738.1	0.000000	0.000000	6.242806	-0.015585	NaN	0.000000	0.001676	0.001740	28.0815	0.037052	0.001963	18.8745	17.8402	-162.256	-0.008543	0.240943	-0.824218	-0.825555	-0.015585	18.8745	-0.823599	-9.397417E+10	1.658464E-13	NaN
1133	1.000000	0.282277	7.37614e+06	-56789.1	1055.82	-29738.1	0.000000	0.000000	6.282808	0.086237	NaN	0.000000	0.001694	0.001768	28.0815	0.076222	0.001976	38.5771	-121.472	-165.828	-0.039359	0.281056	-0.784221	-0.785442	0.086237	38.5771	-0.785897	-2.893037E+10	-2.980858E-12	NaN
1133	1.000000	0.322375	7.37614e+06	-56789.1	1055.82	-29738.1	0.000000	0.000000	6.322901	-0.001483	NaN	0.000000	0.001679	0.001716	28.0819	0.065302	0.001904	34.2976	-164.173	-165.311	-0.073355	0.321014	-0.744123	-0.745484	-0.001483	34.2976	-0.744091	-7.812134E+9	1.898072E-13	NaN
1133	1.000000	0.362348	7.37614e+06	-56789.1	1055.82	-29738.1	0.000000	0.000000	6.362875	-0.010744	NaN	0.000000	0.001687	0.001783	28.0831	0.162110	0.001982	81.8026	179.826	-163.235	-0.026810	0.361081	-0.704150	-0.705417	-0.010744	81.8026	-0.704051	-2.222525E+9	4.834192E-12	NaN
1133	1.000000	0.402372	7.37614e+06	-56789.1	1055.82	-29738.1	0.000000	0.000000	6.402897	-0.028547	NaN	0.000000	0.001716	0.001753	28.0832	0.060273	0.002008	30.0126	-100.319	-162.875	-0.029692	0.401081	-0.664126	-0.665417	-0.028547	30.0126	-0.663413	-6.183114E+8	4.616991E-11	NaN
1133	1.000000	0.442395	7.37614e+06	-56789.1	1055.82	-29738.1	0.000000	0.000000	6.442921	-0.015695	NaN	0.000000	0.001662	0.001771	28.0832	0.055282	0.002103	26.2812	45.9528	-165.612	-0.051527	0.441064	-0.624103	-0.625434	-0.015695	26.2812	-0.623655	-1.761421E+8	8.910633E-11	NaN
1133	1.000000	0.482395	7.37614e+06	-56789.1	1055.82	-29738.1	0.000000	0.000000	6.482923	0.041780	NaN	0.000000	0.001727	0.001781	28.0816	0.084195	0.002131	39.5181	-93.0184	-165.272	-0.019974	0.481109	-0.584103	-0.585389	0.041780	39.5181	-0.584896	-5.155593E+7	-8.103822E-10	NaN
1133	1.000000	0.522427	7.37614e+06	-56789.1	1055.82	-29738.1	0.000000	0.000000	6.522953	-0.011026	NaN	0.000000	0.001679	0.001741	28.0817	0.111714	0.002026	55.132	64.9056	-166.664	-0.025242	0.521124	-0.544071	-0.545374	-0.011026	55.132	-0.543921	-1.398694E+7	7.883150E-10	NaN
1133	1.000000	0.562453	7.37614e+06	-56789.1	1055.82	-29738.1	0.000000	0.000000	6.562976	-0.083993	NaN	0.000000	0.001709	0.001714	28.0815	0.029511	0.002026	14.5684	149.42	-163.951	-0.052415	0.561097	-0.504045	-0.505401	-0.083993	14.5684	-0.499721	-3.39727e+06	2.472379E-8	NaN
1133	1.000000	0.602467	7.37614e+06	-56789.1	1055.82	-29738.1	0.000000	0.000000	6.602993	-0.031270	NaN	0.000000	0.001720	0.001717	28.0816	0.021700	0.002027	10.7037	143.019	-162.19	-0.058866	0.601122	-0.464031	-0.465376	-0.031270	10.7037	-0.461840	-1.002e+06	3.120809E-8	NaN
1133	1.000000	0.642467	7.37614e+06	-56789.1	1055.82	-29738.1	0.000000	0.000000	6.642989	-0.103468	NaN	0.000000	0.001678	0.001731	28.0831	0.100367	0.002068	48.5273	-63.1974	-165.067	-0.062150	0.641211	-0.424031	-0.425287	-0.103468	48.5273	-0.422432	-278544	3.714609E-7	NaN
1133	1.000000	0.682519	7.37614e+06	-56789.1	1055.82	-29738.1	0.000000	0.000000	6.683042	-0.083357	NaN	0.000000	0.001696	0.001757	28.0832	0.083279	0.002053	40.5576	-168.897	-163.782	-0.043499	0.681181	-0.383979	-0.385317	-0.083357	40.5576	-0.382438	-74965	1.111949E-6	NaN
1133	1.000000	0.722507	7.37614e+06	-56789.1	1055.82	-29738.1	0.000000	0.000000	6.723032	-0.029018	NaN	0.000000	0.001666	0.001762	28.083	0.013649	0.001933	7.060021	46.9055	-169.829	-0.022003	0.721202	-0.343991	-0.345296	-0.029018	7.060021	-0.340908	-18827.5	1.541280E-6	NaN
1133	1.000000	0.762517	7.37614e+06	-56789.1	1055.82	-29738.1	0.000000	0.000000	6.763042	-0.026063	NaN	0.000000	0.001652	0.001752	28.0817	0.049186	0.002020	24.3444	-39.9231	-164.959	-0.050184	0.761214	-0.303981	-0.305284	-0.026063	24.3444	-0.303178	-5246.94	4.967273E-6	NaN
1133	1.000000	0.802537	7.37614e+06	-56789.1	1055.82	-29738.1	0.000000	0.000000	6.803063	-0.012362	NaN	0.000000	0.001630	0.001719	28.0818	0.194438	0.002015	96.4966	33.6337	-161.735	-0.011241	0.801270	-0.263961	-0.265228	-0.012362	96.4966	-0.263865	-1342.95	9.204968E-6	NaN
1133	1.000000	0.842576	7.37614e+06	-56789.1	1055.82	-29738.1	0.000000	0.000000	6.843102	-0.009145	NaN	0.000000	0.001666	0.001736	28.0817	0.074527	0.002006	37.1483	-109.026	-167.027	0.046060	0.841274	-0.223922	-0.225224	-0.009145	37.1483	-0.223737	-318.615	2.870224E-5	NaN
1133	1.000000	0.882567	7.37614e+06	-56789.1	1055.82	-29738.1	0.000000	0.000000	6.883089	-0.125478	NaN	0.000000	0.001668	0.001773	28.0816	0.064327	0.001853	34.7168	101.483	-163.801	-0.078014	0.881215	-0.183931	-0.185283	-0.125478	34.7168	-0.181220	-64.0024	0.001961	NaN
1133	1.000000	0.922575	7.37614e+06	-56789.1	1055.82	-29738.1	0.000000	0.000000	6.923102	0.013803	NaN	0.000000	0.001670	0.001717	28.083	0.031412	0.001988	15.8011	68.2724	-167.511	-0.048656	0.921266	-0.143924	-0.145232	0.013803	15.8011	-0.144579	-14.4002	-0.000959	NaN
1133	1.000000	0.962579	7.37614e+06	-56789.1	1055.82	-29738.1	0.000000	0.000000	6.963105	-0.012102	NaN	0.000000	0.001698	0.001755	28.0829	0.100271	0.002092	47.9245	-128.658	-160.997	0.058014	0.961275	-0.103919	-0.105223	-0.012102	47.9245	-0.103729	-2.206170	0.005486	NaN
1133	1.000000	1.002632	7.37614e+06	-56789.1	1055.82	-29738.1	0.000000	0.000000	7.003289	3.160553	NaN	0.000000	0.001711	0.001729	28.0833	2.585477	0.001994	1296.66	16.8896	-165.579	3.141366	1.001277	-0.063866	-0.065221	3.160553	1296.66	-0.065694	-0.260480	-12.1336	NaN
1133	1.000000	1.042631	7.37614e+06	-56789.1	1055.82	-29738.1	0.000000	0.000000	7.043256	2.385302	NaN	0.000000	0.001699	0.001725	28.0821	2.402785	0.002008	1196.4	23.4078	-169.866	2.383032	1.041267	-0.023867	-0.025231	2.385302	1196.4	-0.025362	-0.017243	-138.335	NaN
1133	2.000000	1.077189	7.37614e+06	-56789.1	1055.82	-29738.1	0.000000	0.000000	7.078288	13.9245	NaN	0.000000	0.001668	0.001742	28.0818	11.8081	0.001832	6444.55	8.043776	-172.414	13.0945	1.076846	0.010691	0.010348	13.9245	6444.55	0.009070	0.008167	1705.06	65154.8
1133	2.000000	1.087097	7.37614e+06	-56789.1	1055.82	-29738.1	0.000000	0.000000	7.089964	56.8664	NaN	0.000000	0.001695	0.001704	28.082	22.2185	0.001676	13258.3	2.407453	-174.969	54.5592	1.086744	0.020599	0.020246	56.8664	13258.3	0.017383	0.018595	3058.16	88830.7
1133	2.000000	1.097062	7.37614e+06	-56789.1	1055.82	-29738.1	0.000000	0.000000	7.102717	124.653	NaN	0.000000	0.001673	0.001724	28.0825	31.9862	0.001792	17853.3	4.323761	-179.887	122.047	1.096776	0.030564	0.030278	124.653	17853.3	0.025327	0.031614	3942.95	91738.5
1133	2.000000	1.107089	7.37614e+06	-56789.1	1055.82	-29738.1	0.000000	0.000000	7.115906	201.509	NaN	0.000000	0.001659	0.001746	28.083	39.7693	0.001822	21821.5	6.166757	176.939	201.632	1.106673	0.040591	0.040175	201.509	21821.5	0.033665	0.048684	4139.11	90357.7
1133	2.000000	1.117047	7.37614e+06	-56789.1	1055.82	-29738.1	0.000000	0.000000	7.128453	264.448	NaN	0.000000	0.001640	0.001726	28.0827	46.7271	0.001909	24479.7	4.848146	177.18	262.807	1.116760	0.050549	0.050262	264.448	24479.7	0.042446	0.070504	3750.84	84231.4
1133	2.000000	1.127122	7.37614e+06	-56789.1	1055.82	-29738.1	0.000000	0.000000	7.140380	309.436	NaN	0.000000	0.001768	0.001728	28.0829	52.1515	0.001729	30165.7	4.520260	176.578	315.742	1.126782	0.060624	0.060284	309.436	30165.7	0.052931	0.101687	3043.03	86427.9
1133	2.000000	1.137096	7.37614e+06	-56789.1	1055.82	-29738.1	0.000000	0.000000	7.152568	363.278	NaN	0.000000	0.001779	0.001734	28.0817	59.9131	0.001894	31635.4	2.918302	177.225	364.497	1.136930	0.070598	0.070432	363.278	31635.4	0.061985	0.133023	2730.95	79247.2
1133	2.000000	1.147048	7.37614e+06	-56789.1	1055.82	-29738.1	0.000000	0.000000	7.165849	444.199	NaN	0.000000	0.001707	0.001702	28.082	69.3676	0.001954	35493.4	6.250643	172.654	446.242	1.146679	0.080550	0.080181	444.199	35493.4	0.071163	0.168852	2630.69	78916.5
1133	2.000000	1.157080	7.37614e+06	-56789.1	1055.82	-29738.1	0.000000	0.000000	7.178842	516.141	NaN	0.000000	0.001716	0.001740	28.0821	76.4615	0.001851	41317.4	7.398188	170.625	522.521	1.156745	0.090582	0.090247	516.141	41317.4	0.081213	0.212669	2426.97	81856.8
1133	2.000000	1.166967	7.37614e+06	-56789.1	1055.82	-29738.1	0.000000	0.000000	7.192272	602.265	NaN	0.000000	0.001666	0.001710	28.0834	82.4738	0.001791	46042.7	2.731600	173.818	600.629	1.166774	0.100469	0.100276	602.265	46042.7	0.090659	0.258134	2333.15	82796.5
1133	2.000000	1.173877	7.37614e+06	-56789.1	1055.82	-29738.1	0.000000	0.000000	7.201672	662.769	NaN	0.000000	0.001668	0.001736	28.0832	88.9123	0.001742	51041.6	4.208142	171.912	658.162	1.173565	0.107379	0.107067	662.769	51041.6	0.097641	0.294372	2251.47	85950.7