File: remote_trans/data/nanoindenter/0828-1/data/Data_2025-08-06,11h17m57s/2025-07-22_16-23-58_1_119.txt
2025-07-22, 16:23:58, 1
Index	Phase	Displacement	Time	Pos X	Pos Y	Pos Z	Rot A	Rot B	Piezo Z	Force A	Force B	Gripper	Voltage A	Voltage B	Temperature	Amplitude force	Amplitude pos	Stiffness	Phase shift	Phase excitation	Force A raw	Displacement raw	HMax	HMax raw	Real Force	Real Stiffness	Contact Depth	Area	Hardness	Reduced Mod.
[#]	[#]	[um]	[s]	[um]	[um]	[um]	[m°]	[m°]	[um]	[uN]	[uN]	[V]	[V]	[V]	[°C]	[uN]	[um]	[N/m]	[°]	[°]	[uN]	[um]	[um]	[um]	[uN]	[N/m]	[um]	[um^2]	[MPa]	[MPa]
119	1.000000	0.002754	7.3662e+06	-44589.1	955.818	-29775.8	0.000000	0.000000	6.002760	0.087794	NaN	0.000000	0.001680	0.001684	28.0908	0.146323	0.001010	144.869	-74.5579	-166.017	0.017178	0.001529	-1.090356	-1.091581	0.087794	144.869	-1.090811	-3.773117E+14	-2.326828E-16	NaN
119	1.000000	0.044758	7.3662e+06	-44589.1	955.818	-29775.8	0.000000	0.000000	6.044758	-0.054712	NaN	0.000000	0.001666	0.001657	28.1283	0.123615	0.002000	61.8034	-174.136	13.3185	-0.060623	0.043424	-1.048353	-1.049687	-0.054712	61.8034	-1.047689	-9.939086E+13	5.504694E-16	NaN
119	1.000000	0.086730	7.3662e+06	-44589.1	955.818	-29775.8	0.000000	0.000000	6.086730	-0.042895	NaN	0.000000	0.001681	0.001650	28.1081	0.077795	0.002128	36.5525	114.246	-165.002	0.001215	0.085407	-1.006381	-1.007704	-0.042895	36.5525	-1.005501	-2.690460E+13	1.594320E-15	NaN
119	1.000000	0.128802	7.3662e+06	-44589.1	955.818	-29775.8	0.000000	0.000000	6.128803	-0.013116	NaN	0.000000	0.001598	0.001691	28.0796	0.110303	0.001939	56.8821	-31.8752	13.9057	-0.000931	0.127419	-0.964309	-0.965692	-0.013116	56.8821	-0.964136	-7.458136E+12	1.758649E-15	NaN
119	1.000000	0.170798	7.3662e+06	-44589.1	955.818	-29775.8	0.000000	0.000000	6.170798	-0.057904	NaN	0.000000	0.001615	0.001699	28.0919	0.056269	0.001945	28.9362	167.302	-162.87	-0.012226	0.169543	-0.922313	-0.923568	-0.057904	28.9362	-0.920812	-1.941643E+12	2.982240E-14	NaN
119	1.000000	0.212790	7.3662e+06	-44589.1	955.818	-29775.8	0.000000	0.000000	6.212793	0.012152	NaN	0.000000	0.001605	0.001690	28.1275	0.045732	0.002031	22.5224	-89.6704	17.9381	0.042958	0.211463	-0.880321	-0.881648	0.012152	22.5224	-0.880725	-5.578516E+11	-2.178373E-14	NaN
119	1.000000	0.254859	7.3662e+06	-44589.1	955.818	-29775.8	0.000000	0.000000	6.254862	0.024532	NaN	0.000000	0.001606	0.001686	28.108	0.067460	0.002012	33.535	112.684	-166.417	0.052039	0.253601	-0.838252	-0.839510	0.024532	33.535	-0.838801	-1.510228E+11	-1.624415E-13	NaN
119	1.000000	0.296825	7.3662e+06	-44589.1	955.818	-29775.8	0.000000	0.000000	6.296825	-0.070828	NaN	0.000000	0.001553	0.001662	28.0797	0.082354	0.001984	41.5187	-67.7501	17.7074	-0.102635	0.295524	-0.796285	-0.797587	-0.070828	41.5187	-0.795006	-3.846481E+10	1.841381E-12	NaN
119	1.000000	0.338910	7.3662e+06	-44589.1	955.818	-29775.8	0.000000	0.000000	6.338912	0.013459	NaN	0.000000	0.001577	0.001703	28.089	0.084589	0.002090	40.477	110.361	-165.59	0.053537	0.337534	-0.754201	-0.755577	0.013459	40.477	-0.754451	-1.080928E+10	-1.245161E-12	NaN
119	1.000000	0.380877	7.3662e+06	-44589.1	955.818	-29775.8	0.000000	0.000000	6.380878	-0.028368	NaN	0.000000	0.001611	0.001714	28.1285	0.080156	0.001932	41.4912	6.346588	15.049	0.075776	0.379542	-0.712234	-0.713569	-0.028368	41.4912	-0.711721	-2.828364E+9	1.002980E-11	NaN
119	1.000000	0.422926	7.3662e+06	-44589.1	955.818	-29775.8	0.000000	0.000000	6.422930	0.031021	NaN	0.000000	0.001580	0.001718	28.1095	0.095469	0.002032	46.9807	29.6999	-166.778	0.062401	0.421668	-0.670185	-0.671443	0.031021	46.9807	-0.670680	-7.774890E+8	-3.989874E-11	NaN
119	1.000000	0.464908	7.3662e+06	-44589.1	955.818	-29775.8	0.000000	0.000000	6.464906	-0.095574	NaN	0.000000	0.001593	0.001692	28.0807	0.030375	0.001929	15.7441	136.08	16.0364	-0.098752	0.463572	-0.628203	-0.629539	-0.095574	15.7441	-0.623650	-1.761165E+8	5.426770E-10	NaN
119	1.000000	0.506953	7.3662e+06	-44589.1	955.818	-29775.8	0.000000	0.000000	6.506957	0.038431	NaN	0.000000	0.001581	0.001719	28.0884	0.015829	0.001898	8.338997	107.193	-165.212	0.049510	0.505668	-0.586157	-0.587443	0.038431	8.338997	-0.589614	-5.988824E+7	-6.417053E-10	NaN
119	1.000000	0.548937	7.3662e+06	-44589.1	955.818	-29775.8	0.000000	0.000000	6.548940	0.019951	NaN	0.000000	0.001544	0.001690	28.1272	0.039859	0.002003	19.8981	173.632	15.8096	0.006067	0.547624	-0.544174	-0.545487	0.019951	19.8981	-0.544926	-1.444273E+7	-1.381395E-9	NaN
119	1.000000	0.590984	7.3662e+06	-44589.1	955.817	-29775.8	0.000000	0.000000	6.590986	-0.018562	NaN	0.000000	0.001541	0.001715	28.1099	0.050982	0.001950	26.1495	175.945	-163.329	0.032732	0.589658	-0.502127	-0.503453	-0.018562	26.1495	-0.501594	-3.6079e+06	5.144707E-9	NaN
119	1.000000	0.632976	7.3662e+06	-44589.1	955.818	-29775.8	0.000000	0.000000	6.632977	-0.036185	NaN	0.000000	0.001580	0.001678	28.0807	0.097031	0.001994	48.6555	47.8967	19.5963	0.033456	0.631576	-0.460135	-0.461535	-0.036185	48.6555	-0.459577	-931265	3.885553E-8	NaN
119	1.000000	0.675016	7.3662e+06	-44589.1	955.818	-29775.8	0.000000	0.000000	6.675018	-0.009913	NaN	0.000000	0.001602	0.001720	28.0881	0.202034	0.002043	98.8827	84.7274	-163.347	-0.039596	0.673718	-0.418095	-0.419393	-0.009913	98.8827	-0.418020	-241173	4.110170E-8	NaN
119	1.000000	0.717012	7.3662e+06	-44589.1	955.819	-29775.8	0.000000	0.000000	6.717013	-0.029532	NaN	0.000000	0.001600	0.001735	28.1272	0.097847	0.001987	49.2557	-67.9098	16.5984	-0.054319	0.715668	-0.376099	-0.377443	-0.029532	49.2557	-0.375649	-59896.3	4.930480E-7	NaN
119	1.000000	0.759039	7.3662e+06	-44589.1	955.818	-29775.8	0.000000	0.000000	6.759038	-0.084694	NaN	0.000000	0.001583	0.001713	28.1103	0.126845	0.002012	63.0353	-25.9642	-164.304	-0.148002	0.757745	-0.334072	-0.335366	-0.084694	63.0353	-0.333064	-14464	5.855468E-6	NaN
119	1.000000	0.801091	7.3662e+06	-44589.1	955.818	-29775.8	0.000000	0.000000	6.801092	-0.032935	NaN	0.000000	0.001674	0.001677	28.079	0.084275	0.001923	43.8153	-137.107	13.4379	0.031793	0.799738	-0.292020	-0.293373	-0.032935	43.8153	-0.291456	-3508.34	9.387619E-6	NaN
119	1.000000	0.843058	7.3662e+06	-44589.1	955.818	-29775.8	0.000000	0.000000	6.843064	0.067393	NaN	0.000000	0.001608	0.001749	28.0868	0.020678	0.002024	10.2177	139.598	-164.529	0.047279	0.841735	-0.250053	-0.251376	0.067393	10.2177	-0.254999	-981.986	-6.862933E-5	NaN
119	1.000000	0.885127	7.3662e+06	-44589.1	955.818	-29775.8	0.000000	0.000000	6.885131	0.037328	NaN	0.000000	0.001655	0.001693	28.1265	0.063283	0.002049	30.885	-99.0977	17.0265	0.008144	0.883773	-0.207984	-0.209338	0.037328	30.885	-0.208890	-184.006	-0.000203	NaN
119	1.000000	0.927131	7.3662e+06	-44589.1	955.817	-29775.8	0.000000	0.000000	6.927137	0.098754	NaN	0.000000	0.001707	0.001704	28.1108	0.087787	0.001988	44.1506	-91.754	-165.351	0.058695	0.925769	-0.165980	-0.167342	0.098754	44.1506	-0.167658	-37.3971	-0.002641	NaN
119	1.000000	0.969149	7.36621e+06	-44589.1	955.818	-29775.8	0.000000	0.000000	6.969150	-0.015907	NaN	0.000000	0.001641	0.001685	28.0816	0.006579	0.001974	3.333591	22.7614	16.8503	-0.063769	0.967767	-0.123962	-0.125343	-0.015907	3.333591	-0.120383	-4.918263	0.003234	NaN
119	1.000000	1.011173	7.36621e+06	-44589.1	955.818	-29775.8	0.000000	0.000000	7.011174	-0.024216	NaN	0.000000	0.001687	0.001730	28.087	0.067540	0.002110	32.0049	156.434	-166.838	-0.069281	1.009817	-0.081938	-0.083294	-0.024216	32.0049	-0.081371	-0.669585	0.036166	NaN
119	1.000000	1.053170	7.36621e+06	-44589.1	955.818	-29775.8	0.000000	0.000000	7.053171	-0.025891	NaN	0.000000	0.001600	0.001741	28.126	0.060122	0.002042	29.4427	38.4634	17.1828	-0.030834	1.051794	-0.039941	-0.041317	-0.025891	29.4427	-0.039282	-0.043010	0.601968	NaN
119	1.000000	1.095152	7.36621e+06	-44589.1	955.818	-29775.8	0.000000	0.000000	7.095191	0.875260	NaN	0.000000	0.001531	0.001710	28.1108	1.417225	0.001935	732.442	11.3084	-168	0.183987	1.093905	0.002042	0.000794	0.875260	732.442	0.001145	0.000875	999.932	22618.5
119	2.000000	1.111185	7.36621e+06	-44589.1	955.817	-29775.8	0.000000	0.000000	7.112093	22.0286	NaN	0.000000	0.001579	0.001738	28.0809	17.7477	0.001884	9421.59	5.847369	5.584321	21.3046	1.110794	0.018074	0.017683	22.0286	9421.59	0.016320	0.017086	1289.25	65852.6
119	2.000000	1.121636	7.36621e+06	-44589.1	955.818	-29775.8	0.000000	0.000000	7.123656	49.0965	NaN	0.000000	0.001636	0.001717	28.0861	27.4742	0.001682	16338.2	6.459548	-179.996	49.46	1.121309	0.028525	0.028198	49.0965	16338.2	0.026271	0.033369	1471.34	81716.4
119	2.000000	1.132063	7.36621e+06	-44589.1	955.818	-29775.8	0.000000	0.000000	7.135519	84.0196	NaN	0.000000	0.001651	0.001723	28.1269	37.4701	0.001836	20407.6	3.991925	0.841163	81.0113	1.131727	0.038952	0.038616	84.0196	20407.6	0.035865	0.053778	1562.33	80401
119	2.000000	1.142547	7.36621e+06	-44589.1	955.819	-29775.8	0.000000	0.000000	7.147724	125.892	NaN	0.000000	0.001620	0.001689	28.1131	47.7255	0.001759	27128.7	5.584595	175.853	124.296	1.142258	0.049436	0.049147	125.892	27128.7	0.045956	0.080323	1567.32	87454.3
119	2.000000	1.153054	7.36621e+06	-44589.1	955.819	-29775.8	0.000000	0.000000	7.160634	184.353	NaN	0.000000	0.001573	0.001695	28.0816	56.609	0.001770	31982.4	5.865998	-5.097646	180.785	1.152677	0.059943	0.059566	184.353	31982.4	0.055619	0.110571	1667.29	87874.8
119	2.000000	1.163624	7.36621e+06	-44589.1	955.818	-29775.8	0.000000	0.000000	7.173687	244.75	NaN	0.000000	0.001590	0.001738	28.0845	68.6051	0.001900	36114.7	7.399613	172.463	246.715	1.163235	0.070514	0.070124	244.75	36114.7	0.065431	0.146000	1676.37	86353.8
119	2.000000	1.174123	7.36621e+06	-44589.1	955.819	-29775.8	0.000000	0.000000	7.187041	314.21	NaN	0.000000	0.001634	0.001737	28.1246	77.7014	0.001825	42574.8	4.680638	-6.504373	315.044	1.173819	0.081012	0.080708	314.21	42574.8	0.075477	0.187078	1679.57	89932.1
119	2.000000	1.184492	7.36621e+06	-44589.1	955.819	-29775.8	0.000000	0.000000	7.200767	395.861	NaN	0.000000	0.001590	0.001731	28.1137	86.8893	0.001777	48883.8	1.332744	175.911	392.343	1.184192	0.091381	0.091081	395.861	48883.8	0.085308	0.231873	1707.23	92749.9
119	2.000000	1.194991	7.36621e+06	-44589.1	955.818	-29775.8	0.000000	0.000000	7.215198	491.538	NaN	0.000000	0.001642	0.001729	28.082	96.0703	0.001717	55936.9	6.388143	-10.1217	486.417	1.194698	0.101880	0.101588	491.538	55936.9	0.095289	0.281918	1743.55	96252.1
119	2.000000	1.201046	7.36621e+06	-44589.1	955.82	-29775.8	0.000000	0.000000	7.223363	542.856	NaN	0.000000	0.001609	0.001717	28.0822	103.697	0.001773	58500.8	2.847329	-6.609713	540.984	1.200578	0.107936	0.107467	542.856	58500.8	0.100976	0.312466	1737.33	95616.6