File: remote_trans/data/nanoindenter/0828-1/data/Data_2025-08-06,11h17m57s/2025-07-22_16-23-58_1_558.txt
2025-07-22, 16:23:58, 1
Index	Phase	Displacement	Time	Pos X	Pos Y	Pos Z	Rot A	Rot B	Piezo Z	Force A	Force B	Gripper	Voltage A	Voltage B	Temperature	Amplitude force	Amplitude pos	Stiffness	Phase shift	Phase excitation	Force A raw	Displacement raw	HMax	HMax raw	Real Force	Real Stiffness	Contact Depth	Area	Hardness	Reduced Mod.
[#]	[#]	[um]	[s]	[um]	[um]	[um]	[m°]	[m°]	[um]	[uN]	[uN]	[V]	[V]	[V]	[°C]	[uN]	[um]	[N/m]	[°]	[°]	[uN]	[um]	[um]	[um]	[uN]	[N/m]	[um]	[um^2]	[MPa]	[MPa]
558	1.000000	0.003180	7.37051e+06	-49189.1	1005.82	-29759.8	0.000000	0.000000	6.002793	0.027795	NaN	0.000000	0.001651	0.001710	28.0806	0.087171	0.000962	90.6167	-100.407	-167.588	0.045375	0.001970	-1.117540	-1.118750	0.027795	90.6167	-1.117770	-8.680774E+14	-3.201866E-17	NaN
558	1.000000	0.045172	7.37051e+06	-49189.1	1005.82	-29759.8	0.000000	0.000000	6.044783	-0.023021	NaN	0.000000	0.001589	0.001700	28.0821	0.047742	0.001988	24.0165	12.1578	13.9482	-0.031994	0.043779	-1.075548	-1.076941	-0.023021	24.0165	-1.074829	-2.301751E+14	1.000159E-16	NaN
558	1.000000	0.087109	7.37051e+06	-49189.1	1005.82	-29759.8	0.000000	0.000000	6.086722	0.015774	NaN	0.000000	0.001539	0.001714	28.0812	0.138801	0.002043	67.9441	-25.1607	-165.546	-0.036266	0.085835	-1.033611	-1.034885	0.015774	67.9441	-1.033785	-6.462279E+13	-2.440940E-16	NaN
558	1.000000	0.129164	7.37051e+06	-49189.1	1005.82	-29759.8	0.000000	0.000000	6.128778	0.034740	NaN	0.000000	0.001555	0.001708	28.0813	0.081582	0.001931	42.2541	115.881	17.3528	0.030057	0.127817	-0.991556	-0.992903	0.034740	42.2541	-0.992172	-1.779789E+13	-1.951909E-15	NaN
558	1.000000	0.171179	7.37051e+06	-49189.1	1005.82	-29759.8	0.000000	0.000000	6.170791	0.000538	NaN	0.000000	0.001539	0.001698	28.0801	0.065249	0.001971	33.1002	-58.2956	-167.166	0.062780	0.169888	-0.949541	-0.950832	0.000538	33.1002	-0.949553	-4.742409E+12	-1.134344E-16	NaN
558	1.000000	0.213194	7.37051e+06	-49189.1	1005.82	-29759.8	0.000000	0.000000	6.212808	0.027510	NaN	0.000000	0.001588	0.001685	28.0801	0.071466	0.002043	34.9893	56.2622	14.986	0.004279	0.211799	-0.907526	-0.908921	0.027510	34.9893	-0.908115	-1.308297E+12	-2.102700E-14	NaN
558	1.000000	0.255243	7.37051e+06	-49189.1	1005.82	-29759.8	0.000000	0.000000	6.254859	0.094577	NaN	0.000000	0.001610	0.001664	28.0804	0.035916	0.001923	18.6773	73.1108	-165.803	0.088638	0.253902	-0.865477	-0.866818	0.094577	18.6773	-0.869275	-3.905067E+11	-2.421910E-13	NaN
558	1.000000	0.297217	7.37051e+06	-49189.1	1005.82	-29759.8	0.000000	0.000000	6.296831	0.048152	NaN	0.000000	0.001597	0.001727	28.0812	0.070017	0.002042	34.2903	53.7105	15.7321	0.134874	0.295867	-0.823503	-0.824853	0.048152	34.2903	-0.824556	-9.682518E+10	-4.973042E-13	NaN
558	1.000000	0.339209	7.37051e+06	-49189.1	1005.82	-29759.8	0.000000	0.000000	6.338820	-0.031457	NaN	0.000000	0.001568	0.001690	28.0812	0.083989	0.001904	44.1132	-42.6441	-162.196	0.041195	0.337975	-0.781511	-0.782745	-0.031457	44.1132	-0.780976	-2.480278E+10	1.268289E-12	NaN
558	1.000000	0.381260	7.37051e+06	-49189.1	1005.82	-29759.8	0.000000	0.000000	6.380872	-0.003574	NaN	0.000000	0.001579	0.001730	28.0812	0.134157	0.001988	67.4803	66.6304	12.8146	0.037959	0.379881	-0.739460	-0.740839	-0.003574	67.4803	-0.739421	-6.747835E+9	5.296287E-13	NaN
558	1.000000	0.423288	7.37051e+06	-49189.1	1005.82	-29759.8	0.000000	0.000000	6.422899	-0.026066	NaN	0.000000	0.001591	0.001718	28.0812	0.043366	0.001997	21.7111	-162.6	-164.358	-0.042510	0.422000	-0.697432	-0.698720	-0.026066	21.7111	-0.696531	-1.754499E+9	1.485688E-11	NaN
558	1.000000	0.465315	7.37051e+06	-49189.1	1005.82	-29759.8	0.000000	0.000000	6.464926	-0.009552	NaN	0.000000	0.001528	0.001750	28.08	0.051940	0.002021	25.7031	110.285	11.8597	-0.011969	0.463939	-0.655405	-0.656781	-0.009552	25.7031	-0.655127	-4.761041E+8	2.006379E-11	NaN
558	1.000000	0.507329	7.37051e+06	-49189.1	1005.82	-29759.8	0.000000	0.000000	6.506940	-0.006605	NaN	0.000000	0.001572	0.001699	28.08	0.057433	0.001973	29.1078	154.245	-166.888	-0.026068	0.506027	-0.613391	-0.614693	-0.006605	29.1078	-0.613221	-1.265979E+8	5.217657E-11	NaN
558	1.000000	0.549364	7.37051e+06	-49189.1	1005.82	-29759.8	0.000000	0.000000	6.548976	-0.008406	NaN	0.000000	0.001599	0.001740	28.0801	0.005330	0.002084	2.557840	171.879	14.4875	0.014716	0.547963	-0.571356	-0.572757	-0.008406	2.557840	-0.568891	-3.099626E+7	2.711790E-10	NaN
558	1.000000	0.591352	7.37051e+06	-49189.1	1005.82	-29759.8	0.000000	0.000000	6.590964	0.012074	NaN	0.000000	0.001599	0.001731	28.0811	0.135426	0.001936	69.9381	109.811	-162.838	-0.030397	0.590072	-0.529368	-0.530648	0.012074	69.9381	-0.529498	-8.82267e+06	-1.368528E-9	NaN
558	1.000000	0.633386	7.37051e+06	-49189.1	1005.82	-29759.8	0.000000	0.000000	6.632998	-0.002122	NaN	0.000000	0.001577	0.001734	28.0813	0.083112	0.002037	40.8077	-112.988	15.8566	-0.035064	0.632001	-0.487334	-0.488719	-0.002122	40.8077	-0.487295	-2.27819e+06	9.314630E-10	NaN
558	1.000000	0.675384	7.37051e+06	-49189.1	1005.82	-29759.8	0.000000	0.000000	6.675000	0.112677	NaN	0.000000	0.001586	0.001738	28.0811	0.034270	0.001981	17.2972	-126.687	-163.683	0.100475	0.674061	-0.445336	-0.446659	0.112677	17.2972	-0.450222	-687812	-1.638196E-7	NaN
558	1.000000	0.717431	7.37051e+06	-49189.1	1005.82	-29759.8	0.000000	0.000000	6.717042	-0.025412	NaN	0.000000	0.001581	0.001703	28.0801	0.045180	0.001892	23.8758	-70.0323	12.9006	-0.095879	0.716114	-0.403289	-0.404606	-0.025412	23.8758	-0.402490	-145043	1.752027E-7	NaN
558	1.000000	0.759418	7.37051e+06	-49189.1	1005.82	-29759.8	0.000000	0.000000	6.759031	0.021426	NaN	0.000000	0.001642	0.001766	28.0802	0.229724	0.001939	118.499	59.7684	-166.01	0.060593	0.758146	-0.361302	-0.362574	0.021426	118.499	-0.361438	-37378.6	-5.732268E-7	NaN
558	1.000000	0.801431	7.37051e+06	-49189.1	1005.82	-29759.8	0.000000	0.000000	6.801045	0.030882	NaN	0.000000	0.001602	0.001725	28.0802	0.127383	0.001993	63.9032	-62.4456	13.5835	0.028244	0.800065	-0.319289	-0.320655	0.030882	63.9032	-0.319651	-9193.97	-3.358959E-6	NaN
558	1.000000	0.843461	7.37051e+06	-49189.1	1005.82	-29759.8	0.000000	0.000000	6.843074	0.012537	NaN	0.000000	0.001620	0.001693	28.0812	0.113608	0.001954	58.1485	134.587	-165.997	0.035528	0.842184	-0.277259	-0.278536	0.012537	58.1485	-0.277421	-2157.85	-5.810079E-6	NaN
558	1.000000	0.885485	7.37051e+06	-49189.1	1005.82	-29759.8	0.000000	0.000000	6.885098	0.023928	NaN	0.000000	0.001584	0.001722	28.0811	0.016966	0.002036	8.332683	143.045	11.7203	0.085249	0.884066	-0.235235	-0.236654	0.023928	8.332683	-0.237389	-523.258	-4.572947E-5	NaN
558	1.000000	0.927532	7.37051e+06	-49189.1	1005.82	-29759.8	0.000000	0.000000	6.927143	-0.024755	NaN	0.000000	0.001605	0.001715	28.0811	0.052877	0.001991	26.5621	-28.4778	-167.69	-0.011870	0.926218	-0.193188	-0.194502	-0.024755	26.5621	-0.192489	-98.9753	0.000250	NaN
558	1.000000	0.969545	7.37051e+06	-49189.1	1005.82	-29759.8	0.000000	0.000000	6.969159	0.032423	NaN	0.000000	0.001569	0.001731	28.0815	0.042121	0.001929	21.8313	-61.6551	15.6613	-0.010422	0.968186	-0.151175	-0.152534	0.032423	21.8313	-0.152289	-19.935	-0.001626	NaN
558	1.000000	1.011532	7.37051e+06	-49189.1	1005.82	-29759.8	0.000000	0.000000	7.011143	-0.028214	NaN	0.000000	0.001630	0.001777	28.0801	0.098644	0.002046	48.2086	-87.1747	-164.779	-0.042529	1.010189	-0.109188	-0.110531	-0.028214	48.2086	-0.108749	-2.827553	0.009978	NaN
558	1.000000	1.053558	7.37051e+06	-49189.1	1005.82	-29759.8	0.000000	0.000000	7.053170	-0.001716	NaN	0.000000	0.001658	0.001768	28.08	0.044696	0.002034	21.9718	44.1004	17.2427	-0.023384	1.052201	-0.067162	-0.068519	-0.001716	21.9718	-0.067104	-0.284783	0.006026	NaN
558	1.000000	1.095573	7.37051e+06	-49189.1	1005.82	-29759.8	0.000000	0.000000	7.095184	-0.012673	NaN	0.000000	0.001663	0.001747	28.0801	0.043360	0.002041	21.2443	-27.4097	-164.109	0.015821	1.094218	-0.025147	-0.026502	-0.012673	21.2443	-0.024700	-0.016569	0.764859	NaN
558	2.000000	1.127628	7.37051e+06	-49189.1	1005.82	-29759.8	0.000000	0.000000	7.127781	13.1437	NaN	0.000000	0.001658	0.001729	28.0813	12.2328	0.001726	7089.28	3.367403	10.7364	11.5647	1.127260	0.006908	0.006540	13.1437	7089.28	0.005518	0.004611	2850.57	95385.5
558	2.000000	1.138073	7.37051e+06	-49189.1	1005.82	-29759.8	0.000000	0.000000	7.139078	33.8731	NaN	0.000000	0.001677	0.001691	28.0813	23.5774	0.001789	13175.9	5.225411	-176.531	33.9475	1.137734	0.017353	0.017014	33.8731	13175.9	0.015425	0.015856	2136.25	95598.7
558	2.000000	1.148571	7.37051e+06	-49189.1	1005.82	-29759.8	0.000000	0.000000	7.151003	68.5872	NaN	0.000000	0.001634	0.001658	28.0822	34.4817	0.001863	18511.1	8.603314	-2.218581	68.3048	1.148117	0.027851	0.027397	68.5872	18511.1	0.025072	0.031146	2202.11	95830.5
558	2.000000	1.159013	7.37051e+06	-49189.1	1005.82	-29759.8	0.000000	0.000000	7.163049	107.595	NaN	0.000000	0.001614	0.001689	28.0807	44.312	0.001788	24784.8	4.001754	178.84	105.905	1.158669	0.038293	0.037949	107.595	24784.8	0.035037	0.051832	2075.84	99462.7
558	2.000000	1.169483	7.37051e+06	-49189.1	1005.82	-29759.8	0.000000	0.000000	7.175576	157.597	NaN	0.000000	0.001579	0.001666	28.0799	53.5623	0.001713	31276.2	3.852501	-3.043553	155.181	1.169274	0.048763	0.048554	157.597	31276.2	0.044984	0.077543	2032.39	102616
558	2.000000	1.180014	7.37051e+06	-49189.1	1005.82	-29759.8	0.000000	0.000000	7.188529	216.512	NaN	0.000000	0.001618	0.001668	28.0798	64.9086	0.001772	36640	-0.256709	-179.67	214.787	1.179728	0.059294	0.059008	216.512	36640	0.054862	0.108033	2004.13	101848
558	2.000000	1.190510	7.37051e+06	-49189.1	1005.82	-29759.8	0.000000	0.000000	7.201572	278.447	NaN	0.000000	0.001587	0.001680	28.0811	74.4235	0.001921	38735.4	2.617600	-2.990648	277.312	1.190197	0.069790	0.069477	278.447	38735.4	0.064399	0.142054	1960.15	93897.7
558	2.000000	1.200961	7.37051e+06	-49189.1	1005.82	-29759.8	0.000000	0.000000	7.215365	359.741	NaN	0.000000	0.001562	0.001702	28.0811	85.8051	0.001943	44150.5	8.680205	169.743	359.67	1.200692	0.080241	0.079972	359.741	44150.5	0.074130	0.181293	1984.31	94736.8
558	2.000000	1.211491	7.37051e+06	-49189.1	1005.82	-29759.8	0.000000	0.000000	7.229283	442.134	NaN	0.000000	0.001583	0.001702	28.0812	94.6681	0.001684	56210.1	5.388481	-8.571898	441.32	1.211071	0.090771	0.090351	442.134	56210.1	0.084872	0.229792	1924.06	107132
558	2.000000	1.221968	7.37051e+06	-49189.1	1005.82	-29759.8	0.000000	0.000000	7.243841	541.403	NaN	0.000000	0.001564	0.001730	28.0813	105.044	0.001818	57766.8	3.303104	174.093	541.479	1.221548	0.101248	0.100828	541.403	57766.8	0.094219	0.276333	1959.24	100400
558	2.000000	1.222907	7.37051e+06	-49189.1	1005.82	-29759.8	0.000000	0.000000	7.245020	547.217	NaN	0.000000	0.001556	0.001723	28.081	104.936	0.001742	60227.4	2.687893	173.409	542.426	1.222642	0.102187	0.101922	547.217	60227.4	0.095373	0.282357	1938.03	103554