File: remote_trans/data/nanoindenter/0828-1/data/Data_2025-08-06,11h17m57s/2025-07-22_16-23-58_1_13.txt
2025-07-22, 16:23:58, 1
Index	Phase	Displacement	Time	Pos X	Pos Y	Pos Z	Rot A	Rot B	Piezo Z	Force A	Force B	Gripper	Voltage A	Voltage B	Temperature	Amplitude force	Amplitude pos	Stiffness	Phase shift	Phase excitation	Force A raw	Displacement raw	HMax	HMax raw	Real Force	Real Stiffness	Contact Depth	Area	Hardness	Reduced Mod.
[#]	[#]	[um]	[s]	[um]	[um]	[um]	[m°]	[m°]	[um]	[uN]	[uN]	[V]	[V]	[V]	[°C]	[uN]	[um]	[N/m]	[°]	[°]	[uN]	[um]	[um]	[um]	[uN]	[N/m]	[um]	[um^2]	[MPa]	[MPa]
13	1.000000	0.002484	7.36517e+06	-39289.1	955.819	-29795.1	0.000000	0.000000	6.002802	0.079418	NaN	0.000000	0.001593	0.001694	28.0813	0.090385	0.001026	88.0525	68.3803	-162.956	0.050925	0.001283	-1.077968	-1.079170	0.079418	88.0525	-1.078645	-2.590082E+14	-3.066232E-16	NaN
13	1.000000	0.042456	7.36517e+06	-39289.1	955.818	-29795.1	0.000000	0.000000	6.042770	-0.028838	NaN	0.000000	0.001573	0.001676	28.0819	0.136013	0.001950	69.7672	131.095	-166.227	-0.022826	0.041140	-1.037996	-1.039312	-0.028838	69.7672	-1.037686	-7.292116E+13	3.954662E-16	NaN
13	1.000000	0.082440	7.36517e+06	-39289.1	955.818	-29795.1	0.000000	0.000000	6.082755	0.026412	NaN	0.000000	0.001656	0.001692	28.0814	0.044045	0.002003	21.987	135.055	-164.421	-0.021364	0.081109	-0.998013	-0.999344	0.026412	21.987	-0.998914	-2.193534E+13	-1.204096E-15	NaN
13	1.000000	0.122473	7.36517e+06	-39289.1	955.818	-29795.1	0.000000	0.000000	6.122787	-0.008327	NaN	0.000000	0.001637	0.001688	28.0812	0.063405	0.001906	33.2733	82.3469	-166.416	0.003304	0.121192	-0.957979	-0.959260	-0.008327	33.2733	-0.957792	-6.124837E+12	1.359592E-15	NaN
13	1.000000	0.162463	7.36517e+06	-39289.1	955.818	-29795.1	0.000000	0.000000	6.162778	-0.001063	NaN	0.000000	0.001674	0.001754	28.0807	0.102588	0.001995	51.4199	-50.4928	-164.809	0.042690	0.161110	-0.917989	-0.919342	-0.001063	51.4199	-0.917974	-1.777647E+12	5.981042E-16	NaN
13	1.000000	0.202509	7.36517e+06	-39289.1	955.818	-29795.1	0.000000	0.000000	6.202823	-0.002020	NaN	0.000000	0.001691	0.001716	28.0802	0.113868	0.002023	56.2823	15.9502	-165.985	0.031397	0.201187	-0.877944	-0.879265	-0.002020	56.2823	-0.877917	-5.111342E+11	3.951092E-15	NaN
13	1.000000	0.242522	7.36517e+06	-39289.1	955.817	-29795.1	0.000000	0.000000	6.242839	0.042252	NaN	0.000000	0.001688	0.001686	28.079	0.044882	0.002106	21.3147	-178.769	-164.584	0.035210	0.241227	-0.837930	-0.839225	0.042252	21.3147	-0.839417	-1.539552E+11	-2.744445E-13	NaN
13	1.000000	0.282542	7.36517e+06	-39289.1	955.819	-29795.1	0.000000	0.000000	6.282857	0.001726	NaN	0.000000	0.001585	0.001725	28.0807	0.100691	0.002058	48.934	-63.5561	-166.276	-0.005185	0.281207	-0.797910	-0.799246	0.001726	48.934	-0.797937	-4.215543E+10	-4.093242E-14	NaN
13	1.000000	0.322574	7.36517e+06	-39289.1	955.818	-29795.1	0.000000	0.000000	6.322890	0.037112	NaN	0.000000	0.001568	0.001694	28.0792	0.069401	0.002058	33.7301	-110.057	-160.66	0.032196	0.321212	-0.757879	-0.759240	0.037112	33.7301	-0.758704	-1.235007E+10	-3.004963E-12	NaN
13	1.000000	0.362616	7.36517e+06	-39289.1	955.818	-29795.1	0.000000	0.000000	6.362928	-0.066033	NaN	0.000000	0.001542	0.001669	28.0817	0.074250	0.002058	36.0811	113.949	-168.92	-0.012033	0.361266	-0.717836	-0.719186	-0.066033	36.0811	-0.716464	-3.282747E+9	2.011524E-11	NaN
13	1.000000	0.402607	7.36517e+06	-39289.1	955.818	-29795.1	0.000000	0.000000	6.402925	0.078636	NaN	0.000000	0.001621	0.001669	28.0786	0.025744	0.002135	12.0562	141.5	-165.236	0.108389	0.401316	-0.677845	-0.679137	0.078636	12.0562	-0.682737	-1.136664E+9	-6.918157E-11	NaN
13	1.000000	0.442609	7.36517e+06	-39289.1	955.818	-29795.1	0.000000	0.000000	6.442926	0.036628	NaN	0.000000	0.001595	0.001714	28.0819	0.044542	0.001986	22.4252	154.812	-167.19	0.024879	0.441282	-0.637843	-0.639170	0.036628	22.4252	-0.639068	-2.867489E+8	-1.277341E-10	NaN
13	1.000000	0.482630	7.36517e+06	-39289.1	955.819	-29795.1	0.000000	0.000000	6.482944	-0.035550	NaN	0.000000	0.001547	0.001703	28.0792	0.145422	0.001996	72.8628	-173.928	-168.12	0.022899	0.481274	-0.597822	-0.599179	-0.035550	72.8628	-0.597456	-7.681052E+7	4.628325E-10	NaN
13	1.000000	0.522616	7.36517e+06	-39289.1	955.818	-29795.1	0.000000	0.000000	6.522931	-0.006305	NaN	0.000000	0.001594	0.001693	28.0807	0.077966	0.002001	38.9638	-26.7163	-164.068	-0.076606	0.521326	-0.557836	-0.559126	-0.006305	38.9638	-0.557715	-2.171496E+7	2.903572E-10	NaN
13	1.000000	0.562677	7.36517e+06	-39289.1	955.818	-29795.1	0.000000	0.000000	6.562991	-0.013537	NaN	0.000000	0.001613	0.001704	28.0791	0.093839	0.002013	46.6182	114.117	-164.365	0.016302	0.561358	-0.517776	-0.519095	-0.013537	46.6182	-0.517558	-6.02042e+06	2.248573E-9	NaN
13	1.000000	0.602661	7.36517e+06	-39289.1	955.819	-29795.1	0.000000	0.000000	6.602973	-0.060787	NaN	0.000000	0.001629	0.001708	28.0816	0.038689	0.002030	19.0605	-80.1209	-167.309	0.024546	0.601426	-0.477792	-0.479027	-0.060787	19.0605	-0.475400	-1.55275e+06	3.914823E-8	NaN
13	1.000000	0.642706	7.36517e+06	-39289.1	955.818	-29795.1	0.000000	0.000000	6.643020	-0.012146	NaN	0.000000	0.001625	0.001695	28.0805	0.055465	0.002100	26.4142	149.185	-162.375	0.029490	0.641347	-0.437747	-0.439105	-0.012146	26.4142	-0.437402	-453608	2.677711E-8	NaN
13	1.000000	0.682718	7.36517e+06	-39289.1	955.818	-29795.1	0.000000	0.000000	6.683032	-0.021565	NaN	0.000000	0.001618	0.001683	28.0816	0.018519	0.002017	9.183198	113.437	-164.385	0.010074	0.681451	-0.397734	-0.399001	-0.021565	9.183198	-0.395973	-117093	1.841709E-7	NaN
13	1.000000	0.722735	7.36517e+06	-39289.1	955.818	-29795.1	0.000000	0.000000	6.723050	0.009202	NaN	0.000000	0.001576	0.001685	28.0806	0.009856	0.001910	5.161250	129.523	-165.944	-0.037164	0.721472	-0.357718	-0.358980	0.009202	5.161250	-0.359055	-34528.6	-2.665061E-7	NaN
13	1.000000	0.762762	7.36517e+06	-39289.1	955.817	-29795.1	0.000000	0.000000	6.763076	-0.005418	NaN	0.000000	0.001545	0.001720	28.0804	0.028373	0.001949	14.557	-150.13	-164.298	0.011697	0.761434	-0.317691	-0.319019	-0.005418	14.557	-0.317412	-8521.46	6.358189E-7	NaN
13	1.000000	0.802771	7.36517e+06	-39289.1	955.817	-29795.1	0.000000	0.000000	6.803084	-0.050463	NaN	0.000000	0.001587	0.001698	28.0788	0.089260	0.002131	41.8783	-97.3524	-165.373	-0.018563	0.801523	-0.277682	-0.278929	-0.050463	41.8783	-0.276778	-2110.09	2.391528E-5	NaN
13	1.000000	0.842755	7.36517e+06	-39289.1	955.818	-29795.1	0.000000	0.000000	6.843071	0.015268	NaN	0.000000	0.001578	0.001679	28.0788	0.105190	0.001874	56.1459	-159.899	-163.944	0.028366	0.841497	-0.237697	-0.238956	0.015268	56.1459	-0.237901	-533.006	-2.864528E-5	NaN
13	1.000000	0.882783	7.36517e+06	-39289.1	955.818	-29795.1	0.000000	0.000000	6.883097	-0.011948	NaN	0.000000	0.001559	0.001706	28.0782	0.091253	0.001910	47.7872	-52.9335	-165.569	-0.047012	0.881494	-0.197670	-0.198958	-0.011948	47.7872	-0.197482	-119.739	9.978235E-5	NaN
13	1.000000	0.922786	7.36517e+06	-39289.1	955.818	-29795.1	0.000000	0.000000	6.923096	-0.098500	NaN	0.000000	0.001596	0.001727	28.0807	0.127259	0.001949	65.2818	38.6404	-164.719	-0.035844	0.921454	-0.157667	-0.158998	-0.098500	65.2818	-0.156535	-23.7766	0.004143	NaN
13	1.000000	0.962826	7.36517e+06	-39289.1	955.819	-29795.1	0.000000	0.000000	6.963144	0.074345	NaN	0.000000	0.001604	0.001680	28.0808	0.089957	0.001909	47.1141	152.097	-165.021	0.088175	0.961481	-0.117626	-0.118972	0.074345	47.1141	-0.118810	-4.570912	-0.016265	NaN
13	1.000000	1.002844	7.36517e+06	-39289.1	955.819	-29795.1	0.000000	0.000000	7.003163	0.104934	NaN	0.000000	0.001626	0.001792	28.0797	0.082260	0.001965	41.8619	-130.989	-163.757	0.098029	1.001515	-0.077609	-0.078937	0.104934	41.8619	-0.079489	-0.601010	-0.174596	NaN
13	1.000000	1.042890	7.36517e+06	-39289.1	955.818	-29795.1	0.000000	0.000000	7.043204	-0.024125	NaN	0.000000	0.001625	0.001829	28.079	0.020050	0.002048	9.789049	-122.494	-167.724	-0.009723	1.041521	-0.037562	-0.038931	-0.024125	9.789049	-0.035714	-0.033618	0.717625	NaN
13	1.000000	1.082858	7.36517e+06	-39289.1	955.817	-29795.1	0.000000	0.000000	7.083178	0.110363	NaN	0.000000	0.001601	0.001792	28.0804	0.315828	0.001928	163.834	18.7428	-161.963	-0.029862	1.081588	0.002406	0.001135	0.110363	163.834	0.001901	0.001475	74.8364	3897.83
13	2.000000	1.100352	7.36517e+06	-39289.1	955.818	-29795.1	0.000000	0.000000	7.101396	17.7561	NaN	0.000000	0.001631	0.001774	28.0797	17.2213	0.001806	9536.46	9.548335	-179.802	17.0365	1.100087	0.019899	0.019634	17.7561	9536.46	0.018503	0.020244	877.106	61236.9
13	2.000000	1.110307	7.36517e+06	-39289.1	955.818	-29795.1	0.000000	0.000000	7.112645	49.2377	NaN	0.000000	0.001642	0.001801	28.0794	26.7296	0.001793	14911	5.399591	-178.686	47.1071	1.109995	0.029855	0.029542	49.2377	14911	0.027378	0.035484	1387.59	72320.6
13	2.000000	1.120292	7.36517e+06	-39289.1	955.817	-29795.1	0.000000	0.000000	7.124161	86.5091	NaN	0.000000	0.001568	0.001775	28.0805	36.7804	0.001841	19983	5.796126	178.141	84.811	1.120004	0.039839	0.039551	86.5091	19983	0.036592	0.055519	1558.2	77484.7
13	2.000000	1.130317	7.36517e+06	-39289.1	955.817	-29795.1	0.000000	0.000000	7.135127	109.401	NaN	0.000000	0.001527	0.001787	28.0808	46.909	0.001836	25544.1	3.297554	178.574	108.884	1.130162	0.049864	0.049710	109.401	25544.1	0.046652	0.082347	1328.53	81327.8
13	2.000000	1.140267	7.36517e+06	-39289.1	955.818	-29795.1	0.000000	0.000000	7.147145	159.717	NaN	0.000000	0.001511	0.001802	28.0801	54.9621	0.001849	29719.6	0.937093	-179.505	159.262	1.140165	0.059814	0.059712	159.717	29719.6	0.055784	0.111125	1437.28	81453.5
13	2.000000	1.150219	7.36517e+06	-39289.1	955.818	-29795.1	0.000000	0.000000	7.159036	206.893	NaN	0.000000	0.001563	0.001776	28.0808	62.8361	0.001820	34534.8	0.609476	179.711	201.878	1.149855	0.069767	0.069403	206.893	34534.8	0.065273	0.145394	1422.98	82747.9
13	2.000000	1.160173	7.36518e+06	-39289.1	955.817	-29795.1	0.000000	0.000000	7.171090	258.024	NaN	0.000000	0.001595	0.001795	28.0791	71.8822	0.001789	40178.3	3.003422	176.237	254.888	1.159996	0.079720	0.079543	258.024	40178.3	0.074904	0.184606	1397.7	85436.3
13	2.000000	1.170177	7.36518e+06	-39289.1	955.817	-29795.1	0.000000	0.000000	7.183907	326.449	NaN	0.000000	0.001593	0.001805	28.0796	81.2982	0.001815	44802.4	5.059866	173.215	323.033	1.169892	0.089725	0.089440	326.449	44802.4	0.084260	0.226885	1438.83	85935.3
13	2.000000	1.180235	7.36518e+06	-39289.1	955.816	-29795.1	0.000000	0.000000	7.196315	383.646	NaN	0.000000	0.001602	0.001762	28.0793	89.6292	0.001690	53025.2	2.183583	174.864	383.351	1.180040	0.099782	0.099587	383.646	53025.2	0.094356	0.277046	1384.77	92040.6
13	2.000000	1.190188	7.36518e+06	-39289.1	955.817	-29795.1	0.000000	0.000000	7.209478	461.761	NaN	0.000000	0.001612	0.001756	28.0811	99.0334	0.001682	58873.9	5.786830	170.43	458.139	1.189986	0.109736	0.109533	461.761	58873.9	0.103853	0.328482	1405.74	93851.3
13	2.000000	1.191208	7.36518e+06	-39289.1	955.817	-29795.1	0.000000	0.000000	7.210979	473.463	NaN	0.000000	0.001647	0.001787	28.1322	99.6395	0.001669	59704.9	4.487778	172.064	473.483	1.190867	0.110755	0.110414	473.463	59704.9	0.104808	0.333879	1418.07	94403.6