File: remote_trans/data/nanoindenter/0828-1/data/Data_2025-08-06,11h17m57s/2025-07-22_16-23-58_1_326.txt
2025-07-22, 16:23:58, 1
Index	Phase	Displacement	Time	Pos X	Pos Y	Pos Z	Rot A	Rot B	Piezo Z	Force A	Force B	Gripper	Voltage A	Voltage B	Temperature	Amplitude force	Amplitude pos	Stiffness	Phase shift	Phase excitation	Force A raw	Displacement raw	HMax	HMax raw	Real Force	Real Stiffness	Contact Depth	Area	Hardness	Reduced Mod.
[#]	[#]	[um]	[s]	[um]	[um]	[um]	[m°]	[m°]	[um]	[uN]	[uN]	[V]	[V]	[V]	[°C]	[uN]	[um]	[N/m]	[°]	[°]	[uN]	[um]	[um]	[um]	[uN]	[N/m]	[um]	[um^2]	[MPa]	[MPa]
326	1.000000	0.003139	7.36825e+06	-54939.1	955.818	-29742.9	0.000000	0.000000	6.002800	0.097489	NaN	0.000000	0.001599	0.001672	28.0798	0.022789	0.001017	22.4185	-99.2028	-164.199	0.121983	0.001921	-1.043125	-1.044343	0.097489	22.4185	-1.046386	-9.546283E+13	-1.021220E-15	NaN
326	1.000000	0.043069	7.36825e+06	-54939.1	955.819	-29742.9	0.000000	0.000000	6.042724	-0.042806	NaN	0.000000	0.001582	0.001724	28.0788	0.053441	0.001915	27.9102	-71.0484	-167.971	-0.045020	0.041728	-1.003195	-1.004536	-0.042806	27.9102	-1.002045	-2.417112E+13	1.770962E-15	NaN
326	1.000000	0.083113	7.36825e+06	-54939.1	955.818	-29742.9	0.000000	0.000000	6.082769	-0.015654	NaN	0.000000	0.001590	0.001664	28.0789	0.045929	0.001893	24.2565	-42.4597	-169.141	-0.028769	0.081756	-0.963152	-0.964508	-0.015654	24.2565	-0.962668	-7.125818E+12	2.196763E-15	NaN
326	1.000000	0.123104	7.36825e+06	-54939.1	955.819	-29742.9	0.000000	0.000000	6.122760	-0.035167	NaN	0.000000	0.001592	0.001705	28.0789	0.104973	0.002066	50.8121	129.55	-166.506	-0.003002	0.121884	-0.923160	-0.924381	-0.035167	50.8121	-0.922641	-2.055230E+12	1.711106E-14	NaN
326	1.000000	0.163147	7.36825e+06	-54939.1	955.819	-29742.9	0.000000	0.000000	6.162803	-0.004334	NaN	0.000000	0.001589	0.001772	28.0802	0.099342	0.001942	51.1476	90.0567	-162.315	-0.026930	0.161832	-0.883117	-0.884433	-0.004334	51.1476	-0.883054	-5.997979E+11	7.225613E-15	NaN
326	1.000000	0.203139	7.36825e+06	-54939.1	955.819	-29742.9	0.000000	0.000000	6.202795	-0.011173	NaN	0.000000	0.001591	0.001747	28.0801	0.062351	0.002094	29.7754	21.3063	-167.184	-0.023422	0.201856	-0.843125	-0.844408	-0.011173	29.7754	-0.842844	-1.713232E+11	6.521873E-14	NaN
326	1.000000	0.243179	7.36825e+06	-54939.1	955.818	-29742.9	0.000000	0.000000	6.242835	-0.021832	NaN	0.000000	0.001599	0.001712	28.0801	0.048943	0.002080	23.5251	68.3962	-162.838	-0.027147	0.241804	-0.803085	-0.804460	-0.021832	23.5251	-0.802389	-4.844935E+10	4.506174E-13	NaN
326	1.000000	0.283186	7.36825e+06	-54939.1	955.819	-29742.9	0.000000	0.000000	6.282846	0.079318	NaN	0.000000	0.001599	0.001691	28.08	0.074236	0.001816	40.8748	147.767	-162.927	0.059609	0.281912	-0.763078	-0.764352	0.079318	40.8748	-0.764534	-1.482414E+10	-5.350584E-12	NaN
326	1.000000	0.323239	7.36825e+06	-54939.1	955.818	-29742.9	0.000000	0.000000	6.322897	0.041565	NaN	0.000000	0.001572	0.001707	28.0791	0.115778	0.002034	56.9326	81.0605	-163.168	0.065793	0.321906	-0.723026	-0.724359	0.041565	56.9326	-0.723573	-4.103925E+9	-1.012820E-11	NaN
326	1.000000	0.363212	7.36826e+06	-54939.1	955.819	-29742.9	0.000000	0.000000	6.362866	-0.071238	NaN	0.000000	0.001576	0.001755	28.0788	0.011157	0.001978	5.640141	1.581315	-164.499	-0.069459	0.361904	-0.683053	-0.684360	-0.071238	5.640141	-0.673580	-8.518756E+8	8.362541E-11	NaN
326	1.000000	0.403268	7.36826e+06	-54939.1	955.819	-29742.9	0.000000	0.000000	6.402926	0.032117	NaN	0.000000	0.001568	0.001757	28.0786	0.073820	0.002014	36.6584	178.275	-165.55	0.041745	0.401922	-0.642996	-0.644343	0.032117	36.6584	-0.643653	-3.314409E+8	-9.690056E-11	NaN
326	1.000000	0.443238	7.36826e+06	-54939.1	955.818	-29742.9	0.000000	0.000000	6.442893	-0.027306	NaN	0.000000	0.001602	0.001783	28.0802	0.047449	0.001995	23.7866	112.813	-163.76	-0.015263	0.441934	-0.603026	-0.604330	-0.027306	23.7866	-0.602165	-8.918276E+7	3.061814E-10	NaN
326	1.000000	0.483284	7.36826e+06	-54939.1	955.82	-29742.9	0.000000	0.000000	6.482942	0.033226	NaN	0.000000	0.001584	0.001683	28.0805	0.091671	0.001952	46.9723	39.8126	-167.176	0.107449	0.482017	-0.562981	-0.564247	0.033226	46.9723	-0.563511	-2.611788E+7	-1.272145E-9	NaN
326	1.000000	0.523309	7.36826e+06	-54939.1	955.817	-29742.9	0.000000	0.000000	6.522968	0.037361	NaN	0.000000	0.001536	0.001672	28.0802	0.095039	0.002009	47.3178	-108.364	-163.903	-0.008164	0.521926	-0.522955	-0.524339	0.037361	47.3178	-0.523547	-7.29321e+06	-5.122732E-9	NaN
326	1.000000	0.563311	7.36826e+06	-54939.1	955.817	-29742.9	0.000000	0.000000	6.562966	-0.022694	NaN	0.000000	0.001626	0.001668	28.0786	0.099450	0.001905	52.1941	145.397	-163.594	0.027092	0.562039	-0.482954	-0.484225	-0.022694	52.1941	-0.482628	-1.96021e+06	1.157714E-8	NaN
326	1.000000	0.603337	7.36826e+06	-54939.1	955.818	-29742.9	0.000000	0.000000	6.602994	0.005568	NaN	0.000000	0.001602	0.001682	28.0783	0.044044	0.001986	22.1728	-0.670225	-166.995	0.012465	0.602060	-0.442927	-0.444204	0.005568	22.1728	-0.443115	-546158	-1.019540E-8	NaN
326	1.000000	0.643338	7.36826e+06	-54939.1	955.818	-29742.9	0.000000	0.000000	6.642995	0.013734	NaN	0.000000	0.001583	0.001684	28.0787	0.036871	0.002076	17.7624	51.2245	-167.682	0.043461	0.642085	-0.402926	-0.404179	0.013734	17.7624	-0.403506	-149959	-9.158333E-8	NaN
326	1.000000	0.683346	7.36826e+06	-54939.1	955.819	-29742.9	0.000000	0.000000	6.683003	-0.006162	NaN	0.000000	0.001535	0.001720	28.0785	0.155074	0.001824	85.0363	-113.081	-165.007	0.014094	0.682103	-0.362918	-0.364161	-0.006162	85.0363	-0.362864	-39194.1	1.572221E-7	NaN
326	1.000000	0.723377	7.36826e+06	-54939.1	955.819	-29742.9	0.000000	0.000000	6.723033	-0.015166	NaN	0.000000	0.001573	0.001652	28.0799	0.085834	0.002009	42.7152	99.7029	-166.053	-0.023632	0.722061	-0.322887	-0.324204	-0.015166	42.7152	-0.322621	-10166.9	1.491681E-6	NaN
326	1.000000	0.763381	7.36826e+06	-54939.1	955.819	-29742.9	0.000000	0.000000	6.763038	0.003268	NaN	0.000000	0.001589	0.001719	28.0799	0.093410	0.001902	49.1196	23.9914	-167.57	0.042376	0.762121	-0.282883	-0.284144	0.003268	49.1196	-0.282933	-2613.21	-1.250647E-6	NaN
326	1.000000	0.803413	7.36826e+06	-54939.1	955.818	-29742.9	0.000000	0.000000	6.803072	0.049730	NaN	0.000000	0.001594	0.001705	28.08	0.096103	0.001979	48.5594	-108.236	-162.156	0.057354	0.802101	-0.242851	-0.244163	0.049730	48.5594	-0.243619	-654.604	-7.597028E-5	NaN
326	1.000000	0.843424	7.36826e+06	-54939.1	955.818	-29742.9	0.000000	0.000000	6.843080	-0.011193	NaN	0.000000	0.001583	0.001724	28.0786	0.054289	0.002025	26.8055	134.353	-161.497	0.044935	0.842103	-0.202840	-0.204162	-0.011193	26.8055	-0.202527	-144.927	7.722952E-5	NaN
326	1.000000	0.883453	7.36826e+06	-54939.1	955.818	-29742.9	0.000000	0.000000	6.883111	0.031436	NaN	0.000000	0.001611	0.001691	28.0788	0.030697	0.001879	16.3349	-106.88	-168.435	0.038074	0.882135	-0.162811	-0.164130	0.031436	16.3349	-0.164255	-32.5993	-0.000964	NaN
326	1.000000	0.923453	7.36826e+06	-54939.1	955.819	-29742.9	0.000000	0.000000	6.923112	0.044702	NaN	0.000000	0.001594	0.001701	28.0789	0.043446	0.002019	21.5207	-54.0266	-164.816	-0.035738	0.922162	-0.122811	-0.124103	0.044702	21.5207	-0.124369	-5.908642	-0.007565	NaN
326	1.000000	0.963473	7.36826e+06	-54939.1	955.819	-29742.9	0.000000	0.000000	6.963130	0.011907	NaN	0.000000	0.001667	0.001625	28.0793	0.018983	0.001913	9.923613	157.702	-163.217	-0.033607	0.962099	-0.082791	-0.084165	0.011907	9.923613	-0.083691	-0.763602	-0.015594	NaN
326	1.000000	1.003460	7.36826e+06	-54939.1	955.818	-29742.9	0.000000	0.000000	7.003116	-0.024053	NaN	0.000000	0.001661	0.001600	28.0804	0.133241	0.001950	68.3311	-149.578	-161.79	-0.006945	1.002157	-0.042804	-0.044107	-0.024053	68.3311	-0.042540	-0.054046	0.445039	NaN
326	1.000000	1.043518	7.36826e+06	-54939.1	955.82	-29742.9	0.000000	0.000000	7.043174	-0.024495	NaN	0.000000	0.001674	0.001615	28.0805	0.064605	0.002015	32.0628	112.579	-168.216	-0.002136	1.042180	-0.002746	-0.004084	-0.024495	32.0628	-0.002173	-0.001559	15.7123	NaN
326	2.000000	1.063043	7.36826e+06	-54939.1	955.819	-29742.9	0.000000	0.000000	7.063356	15.9376	NaN	0.000000	0.001641	0.001617	28.0805	15.9969	0.001846	8663.84	5.876306	-174.552	14.7672	1.062819	0.016779	0.016554	15.9376	8663.84	0.015399	0.015822	1007.33	62930
326	2.000000	1.072965	7.36826e+06	-54939.1	955.818	-29742.9	0.000000	0.000000	7.074147	37.0721	NaN	0.000000	0.001594	0.001635	28.079	26.6874	0.001707	15635.9	7.086446	179.478	35.3928	1.072678	0.026701	0.026414	37.0721	15635.9	0.024922	0.030875	1200.73	81300.7
326	2.000000	1.083068	7.36826e+06	-54939.1	955.819	-29742.9	0.000000	0.000000	7.085188	59.8961	NaN	0.000000	0.001646	0.001643	28.0796	36.8337	0.001689	21806.5	2.812038	-179.189	62.3569	1.082644	0.036803	0.036379	59.8961	21806.5	0.034743	0.051150	1170.99	88092.1
326	2.000000	1.092988	7.36826e+06	-54939.1	955.819	-29742.9	0.000000	0.000000	7.096726	99.2196	NaN	0.000000	0.001605	0.001637	28.0795	48.1572	0.001870	25752	7.933975	174.485	99.2679	1.092647	0.046723	0.046383	99.2196	25752	0.043834	0.074310	1335.2	86309.6
326	2.000000	1.102992	7.36826e+06	-54939.1	955.82	-29742.9	0.000000	0.000000	7.108556	143.601	NaN	0.000000	0.001574	0.001596	28.0801	58.7504	0.001743	33711.8	4.313301	175.253	143.367	1.102631	0.056728	0.056367	143.601	33711.8	0.053533	0.103645	1385.51	95671.2
326	2.000000	1.112902	7.36826e+06	-54939.1	955.821	-29742.9	0.000000	0.000000	7.120647	196.603	NaN	0.000000	0.001601	0.001625	28.0803	68.2217	0.001723	39603.5	0.964891	176.97	194.199	1.112784	0.066638	0.066520	196.603	39603.5	0.062915	0.136467	1440.66	97947.4
326	2.000000	1.122842	7.36826e+06	-54939.1	955.821	-29742.9	0.000000	0.000000	7.133941	278.154	NaN	0.000000	0.001634	0.001609	28.0801	79.9034	0.001669	47874.2	4.646141	172.158	274.936	1.122599	0.076578	0.076335	278.154	47874.2	0.072220	0.173237	1605.62	105088
326	2.000000	1.132858	7.36826e+06	-54939.1	955.821	-29742.9	0.000000	0.000000	7.147813	371.875	NaN	0.000000	0.001699	0.001584	28.0799	90.4749	0.001711	52892.4	7.806410	168.259	368.329	1.132518	0.086594	0.086254	371.875	52892.4	0.081321	0.213164	1744.55	104667
326	2.000000	1.142867	7.36826e+06	-54939.1	955.821	-29742.9	0.000000	0.000000	7.161562	462.82	NaN	0.000000	0.001617	0.001575	28.0788	100.051	0.001798	55657.7	1.715341	173.899	458.344	1.142602	0.096603	0.096337	462.82	55657.7	0.090366	0.256663	1803.22	100373
326	2.000000	1.152858	7.36826e+06	-54939.1	955.82	-29742.9	0.000000	0.000000	7.175558	560.188	NaN	0.000000	0.001524	0.001621	28.0789	109.795	0.001727	63577.5	3.526974	171.3	557.527	1.152570	0.106593	0.106305	560.188	63577.5	0.099985	0.307037	1824.5	104829
326	2.000000	1.154830	7.36826e+06	-54939.1	955.82	-29742.9	0.000000	0.000000	7.178832	591.824	NaN	0.000000	0.001531	0.001584	28.0789	109.768	0.001739	63107.9	-0.351645	175.267	587.68	1.154588	0.108565	0.108324	591.824	63107.9	0.101532	0.315530	1875.65	102645