File: remote_trans/data/nanoindenter/0828-1/data/Data_2025-08-06,11h17m57s/2025-07-22_16-23-58_1_1146.txt
2025-07-22, 16:23:58, 1
Index	Phase	Displacement	Time	Pos X	Pos Y	Pos Z	Rot A	Rot B	Piezo Z	Force A	Force B	Gripper	Voltage A	Voltage B	Temperature	Amplitude force	Amplitude pos	Stiffness	Phase shift	Phase excitation	Force A raw	Displacement raw	HMax	HMax raw	Real Force	Real Stiffness	Contact Depth	Area	Hardness	Reduced Mod.
[#]	[#]	[um]	[s]	[um]	[um]	[um]	[m°]	[m°]	[um]	[uN]	[uN]	[V]	[V]	[V]	[°C]	[uN]	[um]	[N/m]	[°]	[°]	[uN]	[um]	[um]	[um]	[uN]	[N/m]	[um]	[um^2]	[MPa]	[MPa]
1146	1.000000	0.002727	7.37626e+06	-57439.1	1055.82	-29737	0.000000	0.000000	6.002788	0.079017	NaN	0.000000	0.001626	0.001693	28.0799	0.018000	0.000898	20.044	62.9548	-169.135	0.084910	0.001473	-1.012987	-1.014241	0.079017	20.044	-1.015944	-3.718545E+13	-2.124956E-15	NaN
1146	1.000000	0.040690	7.37626e+06	-57439.1	1055.82	-29737	0.000000	0.000000	6.040752	0.078566	NaN	0.000000	0.001639	0.001743	28.0796	0.040531	0.001952	20.7653	-116.546	10.7343	0.087302	0.039330	-0.975024	-0.976383	0.078566	20.7653	-0.977861	-1.141816E+13	-6.880794E-15	NaN
1146	1.000000	0.078718	7.37626e+06	-57439.1	1055.82	-29737	0.000000	0.000000	6.078777	0.003035	NaN	0.000000	0.001618	0.001774	28.0797	0.016437	0.002070	7.941527	-74.4599	-166.661	-0.040609	0.077342	-0.936995	-0.938372	0.003035	7.941527	-0.937282	-3.239410E+12	-9.369422E-16	NaN
1146	1.000000	0.116720	7.37626e+06	-57439.1	1055.82	-29737	0.000000	0.000000	6.116777	-0.029229	NaN	0.000000	0.001573	0.001733	28.0797	0.059414	0.001982	29.9735	-132.628	16.505	-0.004243	0.115364	-0.898994	-0.900350	-0.029229	29.9735	-0.898263	-9.629275E+11	3.035426E-14	NaN
1146	1.000000	0.154742	7.37626e+06	-57439.1	1055.82	-29737	0.000000	0.000000	6.154806	0.129225	NaN	0.000000	0.001547	0.001715	28.0816	0.032270	0.001950	16.553	-167.604	-165.488	0.077369	0.153416	-0.860972	-0.862298	0.129225	16.553	-0.866827	-3.618346E+11	-3.571393E-13	NaN
1146	1.000000	0.192738	7.37626e+06	-57439.1	1055.82	-29737	0.000000	0.000000	6.192799	0.054545	NaN	0.000000	0.001577	0.001704	28.0808	0.046380	0.002001	23.176	-30.571	12.9415	0.004532	0.191379	-0.822976	-0.824335	0.054545	23.176	-0.824741	-9.738529E+10	-5.600993E-13	NaN
1146	1.000000	0.230765	7.37627e+06	-57439.1	1055.82	-29737	0.000000	0.000000	6.230825	0.043528	NaN	0.000000	0.001574	0.001698	28.0807	0.069371	0.001967	35.2679	0.828844	-164.142	0.121158	0.229475	-0.784949	-0.786239	0.043528	35.2679	-0.785874	-2.890970E+10	-1.505663E-12	NaN
1146	1.000000	0.268766	7.37627e+06	-57439.1	1055.82	-29737	0.000000	0.000000	6.268827	0.061110	NaN	0.000000	0.001618	0.001740	28.08	0.039064	0.001911	20.446	-125.385	15.2832	0.035214	0.267431	-0.746947	-0.748283	0.061110	20.446	-0.749189	-9.166042E+9	-6.666978E-12	NaN
1146	1.000000	0.306800	7.37627e+06	-57439.1	1055.82	-29737	0.000000	0.000000	6.306857	-0.010432	NaN	0.000000	0.001602	0.001695	28.0797	0.085072	0.001996	42.6179	86.4156	-165.506	0.005224	0.305481	-0.708914	-0.710233	-0.010432	42.6179	-0.708731	-2.574685E+9	4.051600E-12	NaN
1146	1.000000	0.344795	7.37627e+06	-57439.1	1055.82	-29737	0.000000	0.000000	6.344853	-0.006663	NaN	0.000000	0.001596	0.001718	28.0792	0.121574	0.001875	64.8514	138.227	12.2767	-0.005921	0.343455	-0.670919	-0.672259	-0.006663	64.8514	-0.670842	-7.814766E+8	8.526521E-12	NaN
1146	1.000000	0.382821	7.37627e+06	-57439.1	1055.82	-29737	0.000000	0.000000	6.382882	0.064008	NaN	0.000000	0.001596	0.001726	28.0794	0.082983	0.002068	40.1254	148.988	-169.395	0.009945	0.381557	-0.632893	-0.634157	0.064008	40.1254	-0.634089	-2.449998E+8	-2.612585E-10	NaN
1146	1.000000	0.420837	7.37627e+06	-57439.1	1055.82	-29737	0.000000	0.000000	6.420895	-0.004843	NaN	0.000000	0.001603	0.001645	28.0807	0.085664	0.001983	43.1911	-18.6999	15.6542	-0.030878	0.419535	-0.594877	-0.596179	-0.004843	43.1911	-0.594793	-7.058687E+7	6.860966E-11	NaN
1146	1.000000	0.458836	7.37627e+06	-57439.1	1055.82	-29737	0.000000	0.000000	6.458894	-0.023551	NaN	0.000000	0.001618	0.001670	28.0809	0.127735	0.001892	67.5238	128.021	-164.522	-0.035806	0.457571	-0.556877	-0.558142	-0.023551	67.5238	-0.556616	-2.096775E+7	1.123223E-9	NaN
1146	1.000000	0.496902	7.37627e+06	-57439.1	1055.82	-29737	0.000000	0.000000	6.496963	0.055271	NaN	0.000000	0.001566	0.001726	28.0808	0.010195	0.001996	5.107730	94.0013	10.0791	-0.018493	0.495526	-0.518812	-0.520187	0.055271	5.107730	-0.526927	-8.1263e+06	-6.801495E-9	NaN
1146	1.000000	0.534894	7.37627e+06	-57439.1	1055.82	-29737	0.000000	0.000000	6.534952	-0.018723	NaN	0.000000	0.001565	0.001668	28.0807	0.060094	0.002090	28.7579	-50.2101	-167.072	0.112061	0.533553	-0.480819	-0.482161	-0.018723	28.7579	-0.480331	-1.82038e+06	1.028529E-8	NaN
1146	1.000000	0.572906	7.37627e+06	-57439.1	1055.82	-29737	0.000000	0.000000	6.572967	0.087278	NaN	0.000000	0.001601	0.001713	28.0799	0.015091	0.002031	7.431180	21.1739	14.5491	0.043352	0.571597	-0.442808	-0.444117	0.087278	7.431180	-0.451617	-719629	-1.212816E-7	NaN
1146	1.000000	0.610901	7.37627e+06	-57439.1	1055.82	-29737	0.000000	0.000000	6.610961	0.032157	NaN	0.000000	0.001640	0.001643	28.0796	0.143560	0.002066	69.4773	92.0853	-165.719	0.078579	0.609682	-0.404813	-0.406031	0.032157	69.4773	-0.405160	-158315	-2.031173E-7	NaN
1146	1.000000	0.648949	7.37627e+06	-57439.1	1055.82	-29737	0.000000	0.000000	6.649007	-0.006297	NaN	0.000000	0.001689	0.001663	28.0797	0.035608	0.002045	17.4095	-9.646258	19.4812	0.007821	0.647552	-0.366765	-0.368161	-0.006297	17.4095	-0.366493	-44217.6	1.424020E-7	NaN
1146	1.000000	0.686945	7.37627e+06	-57439.1	1055.82	-29737	0.000000	0.000000	6.687003	-0.002510	NaN	0.000000	0.001635	0.001679	28.0809	0.026486	0.002027	13.0692	172.703	-164.982	-0.015935	0.685627	-0.328768	-0.330087	-0.002510	13.0692	-0.328624	-12453.7	2.015406E-7	NaN
1146	1.000000	0.724976	7.37627e+06	-57439.1	1055.82	-29737	0.000000	0.000000	6.725034	-0.020367	NaN	0.000000	0.001677	0.001640	28.0808	0.135860	0.001934	70.2375	-137.108	14.0976	0.045027	0.723589	-0.290738	-0.292124	-0.020367	70.2375	-0.290520	-3396.97	5.995750E-6	NaN
1146	1.000000	0.763016	7.37627e+06	-57439.1	1055.82	-29737	0.000000	0.000000	6.763076	0.057391	NaN	0.000000	0.001633	0.001655	28.0808	0.123346	0.002070	59.5808	95.8322	-163.719	0.010055	0.761683	-0.252698	-0.254030	0.057391	59.5808	-0.253421	-928.502	-6.181004E-5	NaN
1146	1.000000	0.801000	7.37627e+06	-57439.1	1055.82	-29737	0.000000	0.000000	6.801060	0.042987	NaN	0.000000	0.001663	0.001660	28.0809	0.132325	0.002030	65.1754	-169.202	15.0185	0.053193	0.799644	-0.214714	-0.216070	0.042987	65.1754	-0.215208	-232.736	-0.000185	NaN
1146	1.000000	0.839024	7.37627e+06	-57439.1	1055.82	-29737	0.000000	0.000000	6.839080	-0.051932	NaN	0.000000	0.001617	0.001667	28.0801	0.080772	0.001876	43.0454	80.6232	-167.245	0.000828	0.837752	-0.176690	-0.177962	-0.051932	43.0454	-0.175785	-51.6959	0.001005	NaN
1146	1.000000	0.877040	7.37627e+06	-57439.1	1055.82	-29737	0.000000	0.000000	6.877096	-0.034396	NaN	0.000000	0.001655	0.001646	28.0796	0.161914	0.001965	82.3953	-64.5004	16.2553	0.097497	0.875686	-0.138674	-0.140028	-0.034396	82.3953	-0.138361	-11.018	0.003122	NaN
1146	1.000000	0.915025	7.37627e+06	-57439.1	1055.82	-29737	0.000000	0.000000	6.915084	0.019134	NaN	0.000000	0.001608	0.001676	28.0796	0.089583	0.001947	46.0082	-140.147	-168.902	0.053715	0.913697	-0.100689	-0.102017	0.019134	46.0082	-0.101001	-1.922644	-0.009952	NaN
1146	1.000000	0.953063	7.37627e+06	-57439.1	1055.82	-29737	0.000000	0.000000	6.953123	0.029539	NaN	0.000000	0.001576	0.001710	28.0807	0.078704	0.001992	39.5142	82.8118	14.3378	0.016964	0.951776	-0.062651	-0.063938	0.029539	39.5142	-0.063211	-0.222154	-0.132967	NaN
1146	1.000000	0.991088	7.37627e+06	-57439.1	1055.82	-29737	0.000000	0.000000	6.991147	0.019627	NaN	0.000000	0.001605	0.001697	28.081	0.105341	0.001973	53.395	-91.228	-165.086	0.032883	0.989830	-0.024626	-0.025884	0.019627	53.395	-0.024901	-0.016770	-1.170310	NaN
1146	2.000000	1.024141	7.37627e+06	-57439.1	1055.82	-29737	0.000000	0.000000	7.024579	9.236850	NaN	0.000000	0.001667	0.001673	28.0806	10.1764	0.001769	5752.32	4.106050	11.1281	8.943344	1.023857	0.008427	0.008143	9.236850	5752.32	0.007223	0.006255	1476.64	66449.5
1146	2.000000	1.033548	7.37627e+06	-57439.1	1055.82	-29737	0.000000	0.000000	7.034659	25.5969	NaN	0.000000	0.001579	0.001720	28.0805	20.177	0.001778	11345.4	4.679959	-177.283	24.0762	1.033247	0.017834	0.017534	25.5969	11345.4	0.016142	0.016838	1520.18	79881.5
1146	2.000000	1.043054	7.37627e+06	-57439.1	1055.82	-29737	0.000000	0.000000	7.045076	47.7309	NaN	0.000000	0.001547	0.001715	28.0791	28.9032	0.001859	15543.6	5.917890	-0.427848	47.194	1.042715	0.027341	0.027001	47.7309	15543.6	0.025037	0.031084	1535.55	80548.4
1146	2.000000	1.052529	7.37627e+06	-57439.1	1055.82	-29737	0.000000	0.000000	7.055636	74.1089	NaN	0.000000	0.001565	0.001704	28.0794	37.2477	0.001815	20518.7	6.942067	176.647	74.8	1.052120	0.036815	0.036406	74.1089	20518.7	0.034106	0.049685	1491.58	84103.1
1146	2.000000	1.061956	7.37627e+06	-57439.1	1055.82	-29737	0.000000	0.000000	7.066152	100.555	NaN	0.000000	0.001569	0.001733	28.0793	45.8516	0.001905	24063	5.513924	-4.510897	96.4858	1.061673	0.046242	0.045959	100.555	24063	0.043108	0.072308	1390.64	81757.7
1146	2.000000	1.071351	7.37627e+06	-57439.1	1055.82	-29737	0.000000	0.000000	7.077195	140.608	NaN	0.000000	0.001584	0.001693	28.0791	53.9035	0.001726	31228.6	6.525635	172.376	134.476	1.071082	0.055638	0.055368	140.608	31228.6	0.052261	0.099529	1412.74	90438.2
1146	2.000000	1.080951	7.37627e+06	-57439.1	1055.82	-29737	0.000000	0.000000	7.088183	174.354	NaN	0.000000	0.001529	0.001722	28.0805	61.7168	0.001809	34114.6	2.701397	-4.198308	172.603	1.080656	0.065237	0.064942	174.354	34114.6	0.061404	0.130891	1332.05	86150.6
1146	2.000000	1.090534	7.37627e+06	-57439.1	1055.82	-29737	0.000000	0.000000	7.099572	218.258	NaN	0.000000	0.001572	0.001715	28.0805	73.0843	0.001918	38101.6	8.299337	169.959	222.56	1.090209	0.074820	0.074495	218.258	38101.6	0.070524	0.166226	1313.02	85382.3
1146	2.000000	1.099991	7.37627e+06	-57439.1	1055.82	-29737	0.000000	0.000000	7.111080	268.097	NaN	0.000000	0.001529	0.001704	28.0803	80.1236	0.001761	45488.7	5.597359	-9.365028	265.361	1.099721	0.084278	0.084007	268.097	45488.7	0.079857	0.206482	1298.41	91461
1146	2.000000	1.109434	7.37627e+06	-57439.1	1055.82	-29737	0.000000	0.000000	7.123023	328.857	NaN	0.000000	0.001543	0.001743	28.079	87.3949	0.001748	49995.5	8.332400	168.635	330.614	1.109053	0.093720	0.093339	328.857	49995.5	0.088787	0.248797	1321.79	91576
1146	2.000000	1.118969	7.37627e+06	-57439.1	1055.82	-29737	0.000000	0.000000	7.134614	378.811	NaN	0.000000	0.001581	0.001727	28.0791	96.9205	0.001907	50824.6	5.767236	-9.186473	378.761	1.118526	0.103256	0.102812	378.811	50824.6	0.097666	0.294505	1286.27	85566
1146	2.000000	1.121044	7.37627e+06	-57439.1	1055.82	-29737	0.000000	0.000000	7.137173	390.599	NaN	0.000000	0.001546	0.001707	28.0793	98.3137	0.001703	57722.5	5.493629	-9.696008	394.435	1.120531	0.105330	0.104817	390.599	57722.5	0.100255	0.308512	1266.07	94947.2