File: remote_trans/data/nanoindenter/0828-1/data/Data_2025-08-06,11h17m57s/2025-07-22_16-23-58_1_437.txt
2025-07-22, 16:23:58, 1
Index	Phase	Displacement	Time	Pos X	Pos Y	Pos Z	Rot A	Rot B	Piezo Z	Force A	Force B	Gripper	Voltage A	Voltage B	Temperature	Amplitude force	Amplitude pos	Stiffness	Phase shift	Phase excitation	Force A raw	Displacement raw	HMax	HMax raw	Real Force	Real Stiffness	Contact Depth	Area	Hardness	Reduced Mod.
[#]	[#]	[um]	[s]	[um]	[um]	[um]	[m°]	[m°]	[um]	[uN]	[uN]	[V]	[V]	[V]	[°C]	[uN]	[um]	[N/m]	[°]	[°]	[uN]	[um]	[um]	[um]	[uN]	[N/m]	[um]	[um^2]	[MPa]	[MPa]
437	1.000000	0.002211	7.36933e+06	-55239.1	1005.82	-29742.1	0.000000	0.000000	6.002795	0.039774	NaN	0.000000	0.001610	0.001708	28.0802	0.075959	0.001061	71.578	55.7796	-166.899	-0.019784	0.000998	-1.070398	-1.071610	0.039774	71.578	-1.070814	-2.032968E+14	-1.956467E-16	NaN
437	1.000000	0.042178	7.36933e+06	-55239.1	1005.82	-29742.1	0.000000	0.000000	6.042762	0.027366	NaN	0.000000	0.001627	0.001723	28.0815	0.088583	0.001904	46.5131	129.669	-160.985	0.017302	0.040872	-1.030430	-1.031737	0.027366	46.5131	-1.030871	-5.904765E+13	-4.634558E-16	NaN
437	1.000000	0.082191	7.36933e+06	-55239.1	1005.82	-29742.1	0.000000	0.000000	6.082773	0.001242	NaN	0.000000	0.001610	0.001706	28.081	0.027645	0.002049	13.4885	-23.9943	-167.209	0.010291	0.080893	-0.990418	-0.991716	0.001242	13.4885	-0.990487	-1.689149E+13	-7.354833E-17	NaN
437	1.000000	0.122175	7.36933e+06	-55239.1	1005.82	-29742.1	0.000000	0.000000	6.122757	-0.006344	NaN	0.000000	0.001619	0.001680	28.0811	0.027152	0.001931	14.0616	44.0498	-165.458	-0.007125	0.120889	-0.950433	-0.951719	-0.006344	14.0616	-0.950095	-4.822924E+12	1.315291E-15	NaN
437	1.000000	0.162191	7.36933e+06	-55239.1	1005.82	-29742.1	0.000000	0.000000	6.162774	0.025214	NaN	0.000000	0.001597	0.001722	28.0798	0.020012	0.001995	10.0326	-167.22	-165.559	0.041297	0.160922	-0.910418	-0.911687	0.025214	10.0326	-0.912303	-1.490276E+12	-1.691875E-14	NaN
437	1.000000	0.202217	7.36933e+06	-55239.1	1005.82	-29742.1	0.000000	0.000000	6.202798	-0.030732	NaN	0.000000	0.001597	0.001706	28.0799	0.129579	0.001999	64.806	162.589	-165.242	-0.104147	0.200911	-0.870391	-0.871698	-0.030732	64.806	-0.870036	-3.998779E+11	7.685226E-14	NaN
437	1.000000	0.242230	7.36933e+06	-55239.1	1005.82	-29742.1	0.000000	0.000000	6.242813	0.015009	NaN	0.000000	0.001612	0.001698	28.0798	0.107277	0.001954	54.8974	-169.385	-161.917	-0.047690	0.240934	-0.830379	-0.831675	0.015009	54.8974	-0.830584	-1.168681E+11	-1.284227E-13	NaN
437	1.000000	0.282274	7.36933e+06	-55239.1	1005.82	-29742.1	0.000000	0.000000	6.282857	0.005617	NaN	0.000000	0.001619	0.001720	28.081	0.082453	0.002102	39.2192	165.688	-165.315	0.013878	0.280996	-0.790335	-0.791613	0.005617	39.2192	-0.790442	-3.334920E+10	-1.684428E-13	NaN
437	1.000000	0.322301	7.36933e+06	-55239.1	1005.82	-29742.1	0.000000	0.000000	6.322884	0.011039	NaN	0.000000	0.001607	0.001719	28.0811	0.091517	0.002003	45.6861	29.4495	-163.948	0.024397	0.321011	-0.750307	-0.751597	0.011039	45.6861	-0.750489	-9.547119E+9	-1.156222E-12	NaN
437	1.000000	0.362289	7.36933e+06	-55239.1	1005.82	-29742.1	0.000000	0.000000	6.362872	0.022648	NaN	0.000000	0.001604	0.001716	28.0811	0.116693	0.001960	59.5407	96.6279	-166.39	-0.015266	0.361015	-0.710320	-0.711594	0.022648	59.5407	-0.710605	-2.730886E+9	-8.293126E-12	NaN
437	1.000000	0.402329	7.36933e+06	-55239.1	1005.82	-29742.1	0.000000	0.000000	6.402912	0.012272	NaN	0.000000	0.001560	0.001730	28.0811	0.046857	0.002124	22.0638	-129.63	-161.114	0.095701	0.400996	-0.670280	-0.671613	0.012272	22.0638	-0.670697	-7.779076E+8	-1.577512E-11	NaN
437	1.000000	0.442316	7.36933e+06	-55239.1	1005.82	-29742.1	0.000000	0.000000	6.442899	0.002717	NaN	0.000000	0.001586	0.001683	28.08	0.061118	0.002049	29.826	86.6545	-163.17	0.026928	0.441007	-0.630292	-0.631602	0.002717	29.826	-0.630361	-2.177592E+8	-1.247628E-11	NaN
437	1.000000	0.482355	7.36934e+06	-55239.1	1005.82	-29742.1	0.000000	0.000000	6.482938	0.032003	NaN	0.000000	0.001580	0.001755	28.0798	0.053396	0.001892	28.2188	166.636	-163.273	0.088033	0.481026	-0.590254	-0.591583	0.032003	28.2188	-0.591105	-6.279075E+7	-5.096845E-10	NaN
437	1.000000	0.522377	7.36934e+06	-55239.1	1005.82	-29742.1	0.000000	0.000000	6.522958	-0.019986	NaN	0.000000	0.001583	0.001748	28.0798	0.070922	0.001965	36.0942	76.9677	-166.007	0.000147	0.521026	-0.550232	-0.551582	-0.019986	36.0942	-0.549817	-1.688163E+7	1.183911E-9	NaN
437	1.000000	0.562364	7.36934e+06	-55239.1	1005.82	-29742.1	0.000000	0.000000	6.562947	0.008624	NaN	0.000000	0.001624	0.001678	28.081	0.133709	0.001999	66.9042	-90.111	-164.294	0.045227	0.561050	-0.510244	-0.511559	0.008624	66.9042	-0.510341	-4.7771e+06	-1.805216E-9	NaN
437	1.000000	0.602414	7.36934e+06	-55239.1	1005.82	-29742.1	0.000000	0.000000	6.602996	-0.027836	NaN	0.000000	0.001670	0.001684	28.0812	0.078206	0.002096	37.3158	-54.5073	-163.733	0.006545	0.601142	-0.470194	-0.471467	-0.027836	37.3158	-0.469635	-1.2891e+06	2.159371E-8	NaN
437	1.000000	0.642426	7.36934e+06	-55239.1	1005.82	-29742.1	0.000000	0.000000	6.643008	-0.004109	NaN	0.000000	0.001591	0.001726	28.0812	0.055242	0.001946	28.3925	-74.7839	-162.98	-0.022577	0.641161	-0.430183	-0.431447	-0.004109	28.3925	-0.430074	-357367	1.149840E-8	NaN
437	1.000000	0.682409	7.36934e+06	-55239.1	1005.82	-29742.1	0.000000	0.000000	6.682989	-0.041589	NaN	0.000000	0.001682	0.001689	28.0814	0.106990	0.002027	52.7856	-158.783	-164.709	-0.054741	0.681111	-0.390200	-0.391498	-0.041589	52.7856	-0.389609	-94967.4	4.379278E-7	NaN
437	1.000000	0.722480	7.36934e+06	-55239.1	1005.82	-29742.1	0.000000	0.000000	6.723063	0.017734	NaN	0.000000	0.001688	0.001681	28.0801	0.122210	0.001944	62.8803	167.2	-163.386	0.013797	0.721121	-0.350129	-0.351488	0.017734	62.8803	-0.350340	-25818.9	-6.868571E-7	NaN
437	1.000000	0.762466	7.36934e+06	-55239.1	1005.82	-29742.1	0.000000	0.000000	6.763048	-0.011192	NaN	0.000000	0.001638	0.001741	28.0801	0.051954	0.001959	26.5252	-137.686	-164.895	-0.023049	0.761212	-0.310143	-0.311397	-0.011192	26.5252	-0.309827	-6584	1.699802E-6	NaN
437	1.000000	0.802461	7.36934e+06	-55239.1	1005.82	-29742.1	0.000000	0.000000	6.803042	-0.019012	NaN	0.000000	0.001622	0.001671	28.0798	0.067627	0.002091	32.3373	42.0616	-169.274	-0.005945	0.801143	-0.270148	-0.271466	-0.019012	32.3373	-0.269707	-1648.52	1.153285E-5	NaN
437	1.000000	0.842494	7.36934e+06	-55239.1	1005.82	-29742.1	0.000000	0.000000	6.843076	-0.000691	NaN	0.000000	0.001609	0.001706	28.0812	0.062582	0.002015	31.0597	-139.886	-164.403	-0.067291	0.841219	-0.230115	-0.231389	-0.000691	31.0597	-0.230098	-401.851	1.719528E-6	NaN
437	1.000000	0.882520	7.36934e+06	-55239.1	1005.82	-29742.1	0.000000	0.000000	6.883103	0.013016	NaN	0.000000	0.001661	0.001708	28.081	0.056358	0.001989	28.3346	143.92	-166.5	-0.053893	0.881197	-0.190089	-0.191412	0.013016	28.3346	-0.190433	-91.4671	-0.000142	NaN
437	1.000000	0.922519	7.36934e+06	-55239.1	1005.82	-29742.1	0.000000	0.000000	6.923101	0.006860	NaN	0.000000	0.001748	0.001686	28.081	0.050955	0.001986	25.6567	52.7275	-168.146	0.011159	0.921160	-0.150090	-0.151449	0.006860	25.6567	-0.150290	-18.3358	-0.000374	NaN
437	1.000000	0.962552	7.36934e+06	-55239.1	1005.82	-29742.1	0.000000	0.000000	6.963135	0.026811	NaN	0.000000	0.001655	0.001686	28.081	0.077748	0.002009	38.7006	128.8	-162.351	-0.039234	0.961240	-0.110057	-0.111369	0.026811	38.7006	-0.110577	-3.090411	-0.008675	NaN
437	1.000000	1.002559	7.36934e+06	-55239.1	1005.82	-29742.1	0.000000	0.000000	7.003143	0.034163	NaN	0.000000	0.001647	0.001717	28.0797	0.056044	0.001892	29.6142	66.6156	-160.975	-0.034262	1.001228	-0.070049	-0.071380	0.034163	29.6142	-0.070915	-0.360840	-0.094675	NaN
437	1.000000	1.042559	7.36934e+06	-55239.1	1005.82	-29742.1	0.000000	0.000000	7.043147	0.129488	NaN	0.000000	0.001633	0.001763	28.0798	0.022109	0.001989	11.115	4.028162	-164.622	0.004313	1.041281	-0.030049	-0.031328	0.129488	11.115	-0.038787	-0.041552	-3.116290	NaN
437	2.000000	1.082001	7.36934e+06	-55239.1	1005.82	-29742.1	0.000000	0.000000	7.082956	9.064037	NaN	0.000000	0.001686	0.001757	28.0797	9.368811	0.001728	5420.97	8.695734	-168.82	8.734455	1.081193	0.009392	0.008585	9.064037	5420.97	0.008138	0.007185	1261.52	58430.1
437	2.000000	1.092031	7.36934e+06	-55239.1	1005.82	-29742.1	0.000000	0.000000	7.093651	25.2442	NaN	0.000000	0.001615	0.001719	28.0818	21.4505	0.001865	11498.8	5.258410	-174.53	24.2973	1.091714	0.019422	0.019105	25.2442	11498.8	0.017775	0.019166	1317.11	75884.9
437	2.000000	1.102038	7.36934e+06	-55239.1	1005.82	-29742.1	0.000000	0.000000	7.104918	55.8592	NaN	0.000000	0.001610	0.001707	28.0823	31.6211	0.001843	17154.9	-0.925533	-171.978	56.7605	1.101740	0.029430	0.029131	55.8592	17154.9	0.026987	0.034731	1608.35	84101.7
437	2.000000	1.111972	7.36934e+06	-55239.1	1005.82	-29742.1	0.000000	0.000000	7.116600	98.3495	NaN	0.000000	0.001641	0.001696	28.0825	42.1846	0.001726	24443.3	0.069292	-177.09	96.4337	1.111718	0.039363	0.039109	98.3495	24443.3	0.036346	0.054926	1790.59	95289.5
437	2.000000	1.121999	7.36934e+06	-55239.1	1005.82	-29742.1	0.000000	0.000000	7.128557	145.264	NaN	0.000000	0.001623	0.001742	28.0807	52.0145	0.001806	28801.3	5.699508	175.451	145.309	1.121733	0.049390	0.049125	145.264	28801.3	0.045608	0.079322	1831.33	93430.4
437	2.000000	1.132002	7.36934e+06	-55239.1	1005.82	-29742.1	0.000000	0.000000	7.140710	197.524	NaN	0.000000	0.001647	0.001701	28.0799	61.033	0.001869	32654.8	7.760684	172.453	197.45	1.131642	0.059393	0.059034	197.524	32654.8	0.054857	0.108013	1828.7	90778.2
437	2.000000	1.141957	7.36934e+06	-55239.1	1005.82	-29742.1	0.000000	0.000000	7.153108	256.914	NaN	0.000000	0.001653	0.001677	28.0797	69.899	0.001813	38558	6.141363	172.832	253.768	1.141621	0.069348	0.069013	256.914	38558	0.064351	0.141870	1810.91	93528
437	2.000000	1.151883	7.36934e+06	-55239.1	1005.82	-29742.1	0.000000	0.000000	7.165321	312.505	NaN	0.000000	0.001643	0.001664	28.0793	77.479	0.001831	42322.4	5.099038	173.812	307.885	1.151639	0.079274	0.079030	312.505	42322.4	0.073736	0.179617	1739.84	91236.7
437	2.000000	1.161870	7.36934e+06	-55239.1	1005.82	-29742.1	0.000000	0.000000	7.177967	377.154	NaN	0.000000	0.001634	0.001711	28.0806	86.7577	0.001826	47518.7	5.327855	172.365	373.231	1.161664	0.089261	0.089055	377.154	47518.7	0.083309	0.222399	1695.84	92060
437	2.000000	1.171856	7.36934e+06	-55239.1	1005.82	-29742.1	0.000000	0.000000	7.191322	459.036	NaN	0.000000	0.001637	0.001708	28.0807	95.3983	0.001728	55201.8	5.850903	171.245	452.393	1.171474	0.099247	0.098865	459.036	55201.8	0.093011	0.270091	1699.56	97044.6
437	2.000000	1.180449	7.36934e+06	-55239.1	1005.82	-29742.1	0.000000	0.000000	7.202502	521.936	NaN	0.000000	0.001624	0.001738	28.0815	103.271	0.001755	58836.8	4.831853	-8.460049	520.94	1.180095	0.107840	0.107487	521.936	58836.8	0.101187	0.313628	1664.19	95987.5