File: remote_trans/data/nanoindenter/0828-1/data/Data_2025-08-06,11h17m57s/2025-07-22_16-23-58_1_345.txt
2025-07-22, 16:23:58, 1
Index	Phase	Displacement	Time	Pos X	Pos Y	Pos Z	Rot A	Rot B	Piezo Z	Force A	Force B	Gripper	Voltage A	Voltage B	Temperature	Amplitude force	Amplitude pos	Stiffness	Phase shift	Phase excitation	Force A raw	Displacement raw	HMax	HMax raw	Real Force	Real Stiffness	Contact Depth	Area	Hardness	Reduced Mod.
[#]	[#]	[um]	[s]	[um]	[um]	[um]	[m°]	[m°]	[um]	[uN]	[uN]	[V]	[V]	[V]	[°C]	[uN]	[um]	[N/m]	[°]	[°]	[uN]	[um]	[um]	[um]	[uN]	[N/m]	[um]	[um^2]	[MPa]	[MPa]
345	1.000000	0.002789	7.36844e+06	-55889.1	955.818	-29740.9	0.000000	0.000000	6.002793	0.020136	NaN	0.000000	0.001542	0.001726	28.0783	0.036616	0.001036	35.3325	-149.526	-165.285	-0.034017	0.001530	-0.957881	-0.959140	0.020136	35.3325	-0.958308	-6.223896E+12	-3.235333E-15	NaN
345	1.000000	0.040767	7.36844e+06	-55889.1	955.819	-29740.9	0.000000	0.000000	6.040769	-0.018830	NaN	0.000000	0.001582	0.001736	28.0784	0.108619	0.001957	55.4953	135.072	13.3556	0.004114	0.039395	-0.919904	-0.921275	-0.018830	55.4953	-0.919649	-1.872698E+12	1.005484E-14	NaN
345	1.000000	0.078756	7.36844e+06	-55889.1	955.819	-29740.9	0.000000	0.000000	6.078760	0.022196	NaN	0.000000	0.001590	0.001764	28.0794	0.075567	0.002078	36.3644	107.392	-168.923	-0.108736	0.077475	-0.881914	-0.883195	0.022196	36.3644	-0.882372	-5.871972E+11	-3.779927E-14	NaN
345	1.000000	0.116788	7.36844e+06	-55889.1	955.818	-29740.9	0.000000	0.000000	6.116792	0.057433	NaN	0.000000	0.001620	0.001739	28.0795	0.113045	0.001990	56.817	114.997	15.6941	0.061128	0.115402	-0.843883	-0.845268	0.057433	56.817	-0.844641	-1.812011E+11	-3.169548E-13	NaN
345	1.000000	0.154817	7.36844e+06	-55889.1	955.818	-29740.9	0.000000	0.000000	6.154820	0.029936	NaN	0.000000	0.001564	0.001697	28.0794	0.026114	0.001857	14.0604	167.352	-164.483	0.036194	0.153452	-0.805854	-0.807218	0.029936	14.0604	-0.807451	-5.675188E+10	-5.274931E-13	NaN
345	1.000000	0.192805	7.36844e+06	-55889.1	955.819	-29740.9	0.000000	0.000000	6.192806	-0.036726	NaN	0.000000	0.001590	0.001674	28.0798	0.061555	0.001997	30.8189	171.126	13.6952	-0.000335	0.191440	-0.767866	-0.769230	-0.036726	30.8189	-0.766972	-1.600036E+10	2.295325E-12	NaN
345	1.000000	0.230818	7.36844e+06	-55889.1	955.818	-29740.9	0.000000	0.000000	6.230820	-0.008271	NaN	0.000000	0.001553	0.001733	28.078	0.087241	0.001828	47.7122	122.011	-164.435	-0.075418	0.229442	-0.729853	-0.731228	-0.008271	47.7122	-0.729723	-4.977685E+9	1.661667E-12	NaN
345	1.000000	0.268860	7.36844e+06	-55889.1	955.818	-29740.9	0.000000	0.000000	6.268860	-0.046474	NaN	0.000000	0.001553	0.001722	28.0782	0.058307	0.001988	29.3347	121.417	16.8694	-0.086496	0.267432	-0.691811	-0.693238	-0.046474	29.3347	-0.690622	-1.456882E+9	3.189980E-11	NaN
345	1.000000	0.306875	7.36844e+06	-55889.1	955.819	-29740.9	0.000000	0.000000	6.306877	-0.026588	NaN	0.000000	0.001575	0.001722	28.0781	0.121008	0.002076	58.2762	161.099	-165.819	0.053229	0.305553	-0.653795	-0.655118	-0.026588	58.2762	-0.653453	-4.516109E+8	5.887285E-11	NaN
345	1.000000	0.344871	7.36844e+06	-55889.1	955.818	-29740.9	0.000000	0.000000	6.344876	0.047101	NaN	0.000000	0.001549	0.001716	28.078	0.153331	0.002048	74.8548	160.654	14.9144	0.097139	0.343518	-0.615799	-0.617153	0.047101	74.8548	-0.616271	-1.394337E+8	-3.378005E-10	NaN
345	1.000000	0.382875	7.36844e+06	-55889.1	955.818	-29740.9	0.000000	0.000000	6.382879	0.039276	NaN	0.000000	0.001568	0.001728	28.08	0.043584	0.001884	23.1333	168.297	-166.939	-0.013030	0.381624	-0.577795	-0.579047	0.039276	23.1333	-0.579068	-4.284191E+7	-9.167732E-10	NaN
345	1.000000	0.420956	7.36844e+06	-55889.1	955.818	-29740.9	0.000000	0.000000	6.420959	0.020801	NaN	0.000000	0.001601	0.001760	28.0794	0.059165	0.002002	29.546	34.277	14.0459	0.045677	0.419530	-0.539714	-0.541140	0.020801	29.546	-0.540242	-1.243710E+7	-1.672490E-9	NaN
345	1.000000	0.458921	7.36844e+06	-55889.1	955.818	-29740.9	0.000000	0.000000	6.458922	-0.031707	NaN	0.000000	0.001561	0.001727	28.0796	0.102181	0.002023	50.5088	-114.464	-166.742	0.018518	0.457619	-0.501749	-0.503051	-0.031707	50.5088	-0.501279	-3.57153e+06	8.877734E-9	NaN
345	1.000000	0.496937	7.36844e+06	-55889.1	955.818	-29740.9	0.000000	0.000000	6.496938	-0.024375	NaN	0.000000	0.001554	0.001760	28.0785	0.016082	0.001954	8.231213	100.892	13.2866	0.054076	0.495603	-0.463734	-0.465067	-0.024375	8.231213	-0.461513	-991449	2.458553E-8	NaN
345	1.000000	0.534943	7.36844e+06	-55889.1	955.82	-29740.9	0.000000	0.000000	6.534945	-0.007753	NaN	0.000000	0.001529	0.001729	28.0784	0.016621	0.002189	7.593957	91.5404	-169.098	-0.006295	0.533689	-0.425728	-0.426981	-0.007753	7.593957	-0.424962	-302515	2.562730E-8	NaN
345	1.000000	0.572959	7.36844e+06	-55889.1	955.819	-29740.9	0.000000	0.000000	6.572961	-0.004829	NaN	0.000000	0.001572	0.001785	28.0783	0.137940	0.002089	66.0258	24.1973	13.9944	-0.007594	0.571580	-0.387712	-0.389090	-0.004829	66.0258	-0.387657	-89050.1	5.422930E-8	NaN
345	1.000000	0.610968	7.36844e+06	-55889.1	955.819	-29740.9	0.000000	0.000000	6.610968	-0.074139	NaN	0.000000	0.001578	0.001734	28.0782	0.069083	0.002090	33.0582	-162.86	-167.768	-0.128671	0.609705	-0.349702	-0.350965	-0.074139	33.0582	-0.348020	-23892.2	3.103064E-6	NaN
345	1.000000	0.649014	7.36844e+06	-55889.1	955.818	-29740.9	0.000000	0.000000	6.649016	-0.002030	NaN	0.000000	0.001533	0.001708	28.0796	0.092253	0.001938	47.6089	-131.325	8.207678	-0.037189	0.647677	-0.311657	-0.312993	-0.002030	47.6089	-0.311625	-6999.88	2.900141E-7	NaN
345	1.000000	0.687019	7.36844e+06	-55889.1	955.818	-29740.9	0.000000	0.000000	6.687021	-0.004213	NaN	0.000000	0.001544	0.001696	28.0794	0.103613	0.002016	51.4	-144.743	-169.039	-0.047187	0.685666	-0.273652	-0.275004	-0.004213	51.4	-0.273590	-1888.19	2.231309E-6	NaN
345	1.000000	0.725024	7.36844e+06	-55889.1	955.819	-29740.9	0.000000	0.000000	6.725023	-0.075053	NaN	0.000000	0.001598	0.001734	28.0796	0.082778	0.001945	42.5557	-146.467	15.7378	-0.017968	0.723722	-0.235646	-0.236948	-0.075053	42.5557	-0.234324	-468.41	0.000160	NaN
345	1.000000	0.763039	7.36844e+06	-55889.1	955.818	-29740.9	0.000000	0.000000	6.763040	-0.017946	NaN	0.000000	0.001609	0.001707	28.0782	0.028934	0.001975	14.6502	8.500693	-166.284	-0.034010	0.761733	-0.197632	-0.198938	-0.017946	14.6502	-0.196713	-116.29	0.000154	NaN
345	1.000000	0.801066	7.36844e+06	-55889.1	955.817	-29740.9	0.000000	0.000000	6.801064	-0.104522	NaN	0.000000	0.001631	0.001728	28.0782	0.008829	0.001996	4.422337	95.2236	12.8163	-0.041891	0.799676	-0.159605	-0.160994	-0.104522	4.422337	-0.141879	-12.8278	0.008148	NaN
345	1.000000	0.839048	7.36844e+06	-55889.1	955.818	-29740.9	0.000000	0.000000	6.839049	-0.035821	NaN	0.000000	0.001586	0.001749	28.0785	0.096801	0.001999	48.4328	-70.7789	-166.331	0.023701	0.837795	-0.121622	-0.122876	-0.035821	48.4328	-0.121067	-5.076685	0.007056	NaN
345	1.000000	0.877085	7.36844e+06	-55889.1	955.818	-29740.9	0.000000	0.000000	6.877088	-0.001310	NaN	0.000000	0.001591	0.001725	28.0783	0.062559	0.001968	31.7851	-165.181	14.7926	-0.025129	0.875720	-0.083585	-0.084951	-0.001310	31.7851	-0.083554	-0.757756	0.001728	NaN
345	1.000000	0.915110	7.36844e+06	-55889.1	955.818	-29740.9	0.000000	0.000000	6.915113	0.011178	NaN	0.000000	0.001612	0.001726	28.0796	0.023521	0.001973	11.9191	88.4455	-164.654	-0.025474	0.913729	-0.045560	-0.046941	0.011178	11.9191	-0.046264	-0.070246	-0.159134	NaN
345	1.000000	0.953088	7.36844e+06	-55889.1	955.818	-29740.9	0.000000	0.000000	6.953091	0.013588	NaN	0.000000	0.001676	0.001696	28.0795	0.082703	0.002010	41.1418	79.0112	14.6857	-0.002885	0.951750	-0.007582	-0.008920	0.013588	41.1418	-0.007830	-0.005132	-2.647776	NaN
345	2.000000	0.976718	7.36844e+06	-55889.1	955.817	-29740.9	0.000000	0.000000	6.977337	15.0101	NaN	0.000000	0.001664	0.001724	28.0797	15.3589	0.001759	8730.51	12.2144	178.471	16.857	0.976411	0.016047	0.015741	15.0101	8730.51	0.014758	0.014964	1003.11	65207.2
345	2.000000	0.986125	7.36844e+06	-55889.1	955.818	-29740.9	0.000000	0.000000	6.987671	37.5266	NaN	0.000000	0.001592	0.001676	28.0798	25.9534	0.001836	14135.5	3.462600	1.787776	35.1553	0.985777	0.025455	0.025107	37.5266	14135.5	0.023464	0.028280	1326.97	76797
345	2.000000	0.995622	7.36844e+06	-55889.1	955.818	-29740.9	0.000000	0.000000	6.998171	61.9054	NaN	0.000000	0.001609	0.001704	28.0781	34.6815	0.001726	20089.5	3.740468	179.073	61.8317	0.995276	0.034951	0.034606	61.9054	20089.5	0.032640	0.046393	1334.36	85214.5
345	2.000000	1.005071	7.36844e+06	-55889.1	955.818	-29740.9	0.000000	0.000000	7.008867	92.2032	NaN	0.000000	0.001639	0.001727	28.0782	41.9963	0.001773	23680.2	1.892612	-0.584446	89.4144	1.004685	0.044401	0.044014	92.2032	23680.2	0.041480	0.067910	1357.72	83021.7
345	2.000000	1.014566	7.36844e+06	-55889.1	955.819	-29740.9	0.000000	0.000000	7.019830	127.896	NaN	0.000000	0.001606	0.001709	28.0783	51.0998	0.001801	28374	4.422602	175.155	125.644	1.014259	0.053896	0.053589	127.896	28374	0.050515	0.094012	1360.42	84547.7
345	2.000000	1.024043	7.36844e+06	-55889.1	955.82	-29740.9	0.000000	0.000000	7.031205	174.038	NaN	0.000000	0.001690	0.001708	28.0798	59.6578	0.001810	32958.6	4.381319	-5.999871	169.301	1.023655	0.063372	0.062984	174.038	32958.6	0.059412	0.123708	1406.84	85613.7
345	2.000000	1.033552	7.36844e+06	-55889.1	955.82	-29740.9	0.000000	0.000000	7.042591	219.651	NaN	0.000000	0.001603	0.001702	28.0796	67.9395	0.001958	34696.9	4.051544	174.066	218.758	1.033209	0.072882	0.072538	219.651	34696.9	0.068134	0.156581	1402.8	80111.5
345	2.000000	1.043016	7.36844e+06	-55889.1	955.819	-29740.9	0.000000	0.000000	7.054327	274.88	NaN	0.000000	0.001511	0.001692	28.0798	75.5439	0.001754	43064	3.740242	-6.717634	270.056	1.042730	0.082346	0.082060	274.88	43064	0.077559	0.196188	1401.11	88828.4
345	2.000000	1.052709	7.36844e+06	-55889.1	955.82	-29740.9	0.000000	0.000000	7.065691	315.504	NaN	0.000000	0.001513	0.001705	28.0794	86.402	0.001756	49198.6	6.067620	169.673	325.672	1.052391	0.092038	0.091721	315.504	49198.6	0.087229	0.241148	1308.34	91534.4
345	2.000000	1.061986	7.36844e+06	-55889.1	955.82	-29740.9	0.000000	0.000000	7.077962	388.285	NaN	0.000000	0.001651	0.001726	28.0785	93.3937	0.001820	51306.9	4.212889	-8.523801	381.418	1.061655	0.101316	0.100984	388.285	51306.9	0.095640	0.283759	1368.36	87998.3
345	2.000000	1.070595	7.36844e+06	-55889.1	955.82	-29740.9	0.000000	0.000000	7.088974	446.7	NaN	0.000000	0.001629	0.001754	28.078	103.383	0.001713	60354.6	8.201383	166.242	451.643	1.070238	0.109925	0.109567	446.7	60354.6	0.104374	0.331420	1347.84	95784.3