File: remote_trans/data/nanoindenter/0828-1/data/Data_2025-08-06,11h17m57s/2025-07-22_16-23-58_1_77.txt
2025-07-22, 16:23:58, 1
Index	Phase	Displacement	Time	Pos X	Pos Y	Pos Z	Rot A	Rot B	Piezo Z	Force A	Force B	Gripper	Voltage A	Voltage B	Temperature	Amplitude force	Amplitude pos	Stiffness	Phase shift	Phase excitation	Force A raw	Displacement raw	HMax	HMax raw	Real Force	Real Stiffness	Contact Depth	Area	Hardness	Reduced Mod.
[#]	[#]	[um]	[s]	[um]	[um]	[um]	[m°]	[m°]	[um]	[uN]	[uN]	[V]	[V]	[V]	[°C]	[uN]	[um]	[N/m]	[°]	[°]	[uN]	[um]	[um]	[um]	[uN]	[N/m]	[um]	[um^2]	[MPa]	[MPa]
77	1.000000	0.002182	7.36579e+06	-42489.1	955.818	-29783.1	0.000000	0.000000	6.002793	-0.113680	NaN	0.000000	0.001608	0.001723	28.1098	0.085927	0.000953	90.1441	30.3147	-174.602	-0.079771	0.000996	-0.742057	-0.743243	-0.113680	90.1441	-0.741111	-7.115231E+9	1.597699E-11	NaN
77	1.000000	0.034124	7.36579e+06	-42489.1	955.818	-29783.1	0.000000	0.000000	6.034737	-0.066540	NaN	0.000000	0.001595	0.001717	28.1106	0.108495	0.001867	58.1166	6.408077	-162.414	0.011806	0.032812	-0.710114	-0.711427	-0.066540	58.1166	-0.709256	-2.617522E+9	2.542107E-11	NaN
77	1.000000	0.066138	7.36579e+06	-42489.1	955.819	-29783.1	0.000000	0.000000	6.066752	-0.048583	NaN	0.000000	0.001624	0.001705	28.11	0.109725	0.001972	55.629	69.8189	-167.736	-0.046059	0.064819	-0.678101	-0.679420	-0.048583	55.629	-0.677446	-9.622063E+8	5.049125E-11	NaN
77	1.000000	0.098176	7.3658e+06	-42489.1	955.819	-29783.1	0.000000	0.000000	6.098788	-0.091264	NaN	0.000000	0.001596	0.001694	28.1092	0.111332	0.002097	53.0957	158.821	-170.144	-0.069240	0.096898	-0.646063	-0.647341	-0.091264	53.0957	-0.644773	-3.433757E+8	2.657848E-10	NaN
77	1.000000	0.130161	7.3658e+06	-42489.1	955.818	-29783.1	0.000000	0.000000	6.130776	-0.029684	NaN	0.000000	0.001590	0.001725	28.1116	0.088713	0.001989	44.6019	-55.0583	-166.083	-0.170729	0.128870	-0.614077	-0.615368	-0.029684	44.6019	-0.613578	-1.280368E+8	2.318410E-10	NaN
77	1.000000	0.162186	7.3658e+06	-42489.1	955.818	-29783.1	0.000000	0.000000	6.162798	-0.101848	NaN	0.000000	0.001589	0.001684	28.1112	0.094022	0.001953	48.1457	-61.7469	-165.977	-0.060703	0.160887	-0.582052	-0.583351	-0.101848	48.1457	-0.580466	-4.478691E+7	2.274068E-9	NaN
77	1.000000	0.194185	7.3658e+06	-42489.1	955.818	-29783.1	0.000000	0.000000	6.194797	-0.080023	NaN	0.000000	0.001601	0.001699	28.1112	0.055514	0.002025	27.4135	150.243	-163.17	-0.128498	0.192931	-0.550054	-0.551308	-0.080023	27.4135	-0.547864	-1.586246E+7	5.044822E-9	NaN
77	1.000000	0.226200	7.3658e+06	-42489.1	955.818	-29783.1	0.000000	0.000000	6.226811	-0.108115	NaN	0.000000	0.001626	0.001695	28.1115	0.036138	0.002070	17.4579	148.164	-165.892	-0.043857	0.224862	-0.518039	-0.519377	-0.108115	17.4579	-0.513394	-5.26843e+06	2.052135E-8	NaN
77	1.000000	0.258227	7.3658e+06	-42489.1	955.818	-29783.1	0.000000	0.000000	6.258842	-0.025530	NaN	0.000000	0.001585	0.001697	28.1085	0.068960	0.002110	32.6802	73.4315	-167.725	0.012132	0.256939	-0.486011	-0.487300	-0.025530	32.6802	-0.485425	-2.14507e+06	1.190180E-8	NaN
77	1.000000	0.290263	7.3658e+06	-42489.1	955.818	-29783.1	0.000000	0.000000	6.290876	-0.079185	NaN	0.000000	0.001557	0.001680	28.1091	0.128085	0.001932	66.3135	82.6928	-165.856	-0.058838	0.288929	-0.453976	-0.455310	-0.079185	66.3135	-0.453080	-754575	1.049394E-7	NaN
77	1.000000	0.322227	7.3658e+06	-42489.1	955.818	-29783.1	0.000000	0.000000	6.322842	-0.040922	NaN	0.000000	0.001597	0.001684	28.1078	0.023636	0.002141	11.0425	153.922	-165.335	0.018937	0.320972	-0.422011	-0.423266	-0.040922	11.0425	-0.419232	-250910	1.630933E-7	NaN
77	1.000000	0.354271	7.3658e+06	-42489.1	955.818	-29783.1	0.000000	0.000000	6.354883	-0.091637	NaN	0.000000	0.001564	0.001710	28.1088	0.050097	0.002126	23.5659	119.109	-168.61	-0.200713	0.352958	-0.389968	-0.391280	-0.091637	23.5659	-0.387051	-87290.6	1.049792E-6	NaN
77	1.000000	0.386282	7.3658e+06	-42489.1	955.817	-29783.1	0.000000	0.000000	6.386898	0.000468	NaN	0.000000	0.001579	0.001729	28.1101	0.135425	0.001798	75.3325	-12.2373	-165.564	4.808239E-5	0.385007	-0.357957	-0.359231	0.000468	75.3325	-0.357961	-33293.9	-1.404979E-8	NaN
77	1.000000	0.418270	7.3658e+06	-42489.1	955.818	-29783.1	0.000000	0.000000	6.418883	-0.063127	NaN	0.000000	0.001522	0.001720	28.1095	0.065766	0.001952	33.6878	106.633	-162.99	-0.119283	0.416943	-0.325969	-0.327296	-0.063127	33.6878	-0.324564	-10857.5	5.814128E-6	NaN
77	1.000000	0.450318	7.3658e+06	-42489.1	955.819	-29783.1	0.000000	0.000000	6.450933	-0.034058	NaN	0.000000	0.001524	0.001747	28.1101	0.086202	0.002035	42.362	-160.325	-165.644	-0.003685	0.448984	-0.293920	-0.295255	-0.034058	42.362	-0.293317	-3740.64	9.104874E-6	NaN
77	1.000000	0.482315	7.3658e+06	-42489.1	955.819	-29783.1	0.000000	0.000000	6.482931	0.000928	NaN	0.000000	0.001534	0.001688	28.1083	0.150722	0.001911	78.8796	-122.805	-167.262	0.007950	0.481047	-0.261923	-0.263192	0.000928	78.8796	-0.261932	-1254.6	-7.393009E-7	NaN
77	1.000000	0.514357	7.3658e+06	-42489.1	955.819	-29783.1	0.000000	0.000000	6.514967	-0.137913	NaN	0.000000	0.001527	0.001656	28.1092	0.076510	0.001867	40.9892	167.864	-163.293	-0.117538	0.513027	-0.229882	-0.231212	-0.137913	40.9892	-0.227358	-363.696	0.000379	NaN
77	1.000000	0.546326	7.3658e+06	-42489.1	955.818	-29783.1	0.000000	0.000000	6.546940	-0.050866	NaN	0.000000	0.001563	0.001712	28.1084	0.065195	0.001940	33.6063	-26.6993	-167.554	-0.057927	0.545059	-0.197913	-0.199180	-0.050866	33.6063	-0.196777	-116.575	0.000436	NaN
77	1.000000	0.578305	7.3658e+06	-42489.1	955.818	-29783.1	0.000000	0.000000	6.578920	-0.015593	NaN	0.000000	0.001611	0.001706	28.1068	0.077826	0.002052	37.9223	-91.3823	-165.019	-0.029410	0.577019	-0.165934	-0.167219	-0.015593	37.9223	-0.165626	-34.4573	0.000453	NaN
77	1.000000	0.610417	7.3658e+06	-42489.1	955.818	-29783.1	0.000000	0.000000	6.611032	-0.017098	NaN	0.000000	0.001633	0.001749	28.108	0.078611	0.002094	37.5368	62.2023	-167.154	0.016828	0.609043	-0.133822	-0.135195	-0.017098	37.5368	-0.133480	-8.895997	0.001922	NaN
77	1.000000	0.642379	7.3658e+06	-42489.1	955.818	-29783.1	0.000000	0.000000	6.642992	-0.065044	NaN	0.000000	0.001626	0.001724	28.1059	0.140109	0.002038	68.7404	52.9717	-164.644	-0.053747	0.641135	-0.101860	-0.103104	-0.065044	68.7404	-0.101150	-1.937298	0.033575	NaN
77	1.000000	0.674408	7.3658e+06	-42489.1	955.818	-29783.1	0.000000	0.000000	6.675022	-0.044429	NaN	0.000000	0.001611	0.001707	28.109	0.077324	0.002076	37.2476	18.5455	-165.431	-0.075479	0.673179	-0.069831	-0.071059	-0.044429	37.2476	-0.068936	-0.319363	0.139118	NaN
77	1.000000	0.706394	7.3658e+06	-42489.1	955.818	-29783.1	0.000000	0.000000	6.707008	-0.046448	NaN	0.000000	0.001616	0.001704	28.1078	0.030941	0.001868	16.5671	136.107	-165.804	-0.017109	0.705170	-0.037845	-0.039069	-0.046448	16.5671	-0.035742	-0.033682	1.379010	NaN
77	1.000000	0.738420	7.3658e+06	-42489.1	955.819	-29783.1	0.000000	0.000000	6.739084	1.188648	NaN	0.000000	0.001636	0.001645	28.1072	0.450314	0.001899	237.134	24.4193	-166.279	1.013354	0.737124	-0.005819	-0.007115	1.188648	237.134	-0.009578	-0.006146	-193.407	NaN
77	1.000000	0.770415	7.3658e+06	-42489.1	955.817	-29783.1	0.000000	0.000000	6.771263	5.632440	NaN	0.000000	0.001630	0.001629	28.108	1.568646	0.002034	771.333	19.0219	-168.9	5.386031	0.769145	0.026177	0.024906	5.632440	771.333	0.020700	0.023654	238.115	4582.05
77	2.000000	0.793017	7.3658e+06	-42489.1	955.818	-29783.1	0.000000	0.000000	6.793963	8.038722	NaN	0.000000	0.001606	0.001684	28.1054	2.876933	0.001985	1449.48	11.7133	-165.606	7.997594	0.792697	0.048778	0.048459	8.038722	1449.48	0.044619	0.076509	105.069	4787.74
77	2.000000	0.800979	7.3658e+06	-42489.1	955.819	-29783.1	0.000000	0.000000	6.802000	9.862148	NaN	0.000000	0.001578	0.001684	28.1059	3.517411	0.001996	1762.27	16.1901	-170.984	9.886901	0.800649	0.056740	0.056410	9.862148	1762.27	0.052543	0.100435	98.1948	5080.48
77	2.000000	0.808920	7.3658e+06	-42489.1	955.819	-29783.1	0.000000	0.000000	6.809980	10.802	NaN	0.000000	0.001621	0.001650	28.1065	4.079465	0.001931	2112.86	13.4834	-168.328	10.776	0.808622	0.064682	0.064384	10.802	2112.86	0.060847	0.128864	83.8247	5377.47
77	2.000000	0.816969	7.3658e+06	-42489.1	955.819	-29783.1	0.000000	0.000000	6.818101	12.5419	NaN	0.000000	0.001551	0.001625	28.1046	4.811653	0.002009	2395.41	12.6255	-165.955	12.7392	0.816623	0.072731	0.072385	12.5419	2395.41	0.068804	0.159256	78.7527	5484.09
77	2.000000	0.824923	7.3658e+06	-42489.1	955.818	-29783.1	0.000000	0.000000	6.826133	14.444	NaN	0.000000	0.001524	0.001642	28.1064	5.822598	0.002099	2774.49	14.8299	-169.463	14.5179	0.824673	0.080685	0.080434	14.444	2774.49	0.076780	0.192756	74.9342	5773.67
77	2.000000	0.832871	7.3658e+06	-42489.1	955.819	-29783.1	0.000000	0.000000	6.834195	17.2297	NaN	0.000000	0.001549	0.001640	28.1059	6.285556	0.002001	3141.98	12.8429	-168.94	17.0489	0.832602	0.088632	0.088363	17.2297	3141.98	0.084520	0.228116	75.5307	6010.35
77	2.000000	0.840918	7.3658e+06	-42489.1	955.817	-29783.1	0.000000	0.000000	6.842331	19.3742	NaN	0.000000	0.001533	0.001682	28.1066	7.079152	0.002021	3502.62	13.9836	-170.194	19.5412	0.840642	0.096680	0.096404	19.3742	3502.62	0.092531	0.267634	72.3907	6185.79
77	2.000000	0.848853	7.3658e+06	-42489.1	955.817	-29783.1	0.000000	0.000000	6.850371	21.9425	NaN	0.000000	0.001505	0.001647	28.1061	7.378088	0.001930	3822.43	10.2428	-166.92	21.6309	0.848606	0.104615	0.104367	21.9425	3822.43	0.100309	0.308810	71.0549	6284.44
77	2.000000	0.856889	7.3658e+06	-42489.1	955.818	-29783.1	0.000000	0.000000	6.858489	23.9425	NaN	0.000000	0.001559	0.001666	28.1051	8.328054	0.002076	4012.15	14.1493	-170.642	23.8346	0.856577	0.112650	0.112339	23.9425	4012.15	0.108174	0.353242	67.7792	6167.57
77	2.000000	0.864858	7.3658e+06	-42489.1	955.817	-29783.1	0.000000	0.000000	6.866521	25.4814	NaN	0.000000	0.001572	0.001636	28.1055	8.614382	0.001968	4377.9	11.5485	-168.299	25.4277	0.864589	0.120619	0.120350	25.4814	4377.9	0.116254	0.401808	63.4168	6310
77	2.000000	0.872840	7.3658e+06	-42489.1	955.818	-29783.1	0.000000	0.000000	6.874575	27.2238	NaN	0.000000	0.001587	0.001660	28.1039	9.398604	0.001940	4844.91	13.89	-172.514	26.945	0.872532	0.128602	0.128293	27.2238	4844.91	0.124388	0.453690	60.0053	6571.72
77	2.000000	0.880849	7.3658e+06	-42489.1	955.818	-29783.1	0.000000	0.000000	6.882637	28.5297	NaN	0.000000	0.001579	0.001651	28.1051	10.2112	0.002027	5036.95	12.7739	-170.29	28.4164	0.880545	0.136610	0.136307	28.5297	5036.95	0.132362	0.507481	56.2183	6459.98
77	2.000000	0.887896	7.3658e+06	-42489.1	955.818	-29783.1	0.000000	0.000000	6.889721	29.4238	NaN	0.000000	0.001601	0.001639	28.087	10.8736	0.001930	5632.71	11.7544	-171.009	30.0911	0.887529	0.143657	0.143290	29.4238	5632.71	0.139740	0.559840	52.5575	6877.95