File: remote_trans/data/nanoindenter/0828-1/data/Data_2025-08-06,11h17m57s/2025-07-22_16-23-58_1_1145.txt
2025-07-22, 16:23:58, 1
Index	Phase	Displacement	Time	Pos X	Pos Y	Pos Z	Rot A	Rot B	Piezo Z	Force A	Force B	Gripper	Voltage A	Voltage B	Temperature	Amplitude force	Amplitude pos	Stiffness	Phase shift	Phase excitation	Force A raw	Displacement raw	HMax	HMax raw	Real Force	Real Stiffness	Contact Depth	Area	Hardness	Reduced Mod.
[#]	[#]	[um]	[s]	[um]	[um]	[um]	[m°]	[m°]	[um]	[uN]	[uN]	[V]	[V]	[V]	[°C]	[uN]	[um]	[N/m]	[°]	[°]	[uN]	[um]	[um]	[um]	[uN]	[N/m]	[um]	[um^2]	[MPa]	[MPa]
1145	1.000000	0.002508	7.37625e+06	-57389.1	1055.82	-29737	0.000000	0.000000	6.002819	-0.094379	NaN	0.000000	0.001679	0.001693	28.082	0.083675	0.000880	95.113	25.1697	-167.847	-0.106364	0.001210	-1.044123	-1.045421	-0.094379	95.113	-1.043378	-8.697491E+13	1.085132E-15	NaN
1145	1.000000	0.042452	7.37625e+06	-57389.1	1055.82	-29737	0.000000	0.000000	6.042767	0.000935	NaN	0.000000	0.001679	0.001708	28.0821	0.088433	0.002082	42.4793	-19.8725	-166.702	-0.071540	0.041176	-1.004179	-1.005455	0.000935	42.4793	-1.004195	-2.583750E+13	-3.618256E-17	NaN
1145	1.000000	0.082429	7.37625e+06	-57389.1	1055.82	-29737	0.000000	0.000000	6.082742	-0.022430	NaN	0.000000	0.001673	0.001714	28.0822	0.056376	0.002018	27.9322	177.527	-164.249	0.068789	0.081108	-0.964203	-0.965523	-0.022430	27.9322	-0.963600	-7.335071E+12	3.057968E-15	NaN
1145	1.000000	0.122483	7.37626e+06	-57389.1	1055.82	-29737	0.000000	0.000000	6.122795	-0.065958	NaN	0.000000	0.001699	0.001694	28.0833	0.060550	0.001961	30.8801	-174.881	-171.359	0.057968	0.121189	-0.924149	-0.925442	-0.065958	30.8801	-0.922547	-2.049216E+12	3.218709E-14	NaN
1145	1.000000	0.162444	7.37626e+06	-57389.1	1055.82	-29737	0.000000	0.000000	6.162761	0.053232	NaN	0.000000	0.001712	0.001713	28.0835	0.083270	0.001960	42.476	-140.565	-167.326	0.039168	0.161193	-0.884187	-0.885438	0.053232	42.476	-0.885127	-6.397954E+11	-8.320112E-14	NaN
1145	1.000000	0.202512	7.37626e+06	-57389.1	1055.82	-29737	0.000000	0.000000	6.202826	-0.001384	NaN	0.000000	0.001721	0.001720	28.0833	0.056574	0.001995	28.3524	-99.6845	-162.819	0.027457	0.201205	-0.844120	-0.845426	-0.001384	28.3524	-0.844083	-1.780745E+11	7.773982E-15	NaN
1145	1.000000	0.242539	7.37626e+06	-57389.1	1055.82	-29737	0.000000	0.000000	6.242855	0.017923	NaN	0.000000	0.001686	0.001693	28.0818	0.059477	0.001943	30.6047	45.7303	-168.42	0.004845	0.241195	-0.804092	-0.805436	0.017923	30.6047	-0.804531	-5.180340E+10	-3.459754E-13	NaN
1145	1.000000	0.282514	7.37626e+06	-57389.1	1055.82	-29737	0.000000	0.000000	6.282830	0.029386	NaN	0.000000	0.001632	0.001701	28.0819	0.075127	0.002079	36.1383	-41.0168	-165.116	0.016261	0.281218	-0.764117	-0.765413	0.029386	36.1383	-0.764727	-1.491416E+10	-1.970343E-12	NaN
1145	1.000000	0.322546	7.37626e+06	-57389.1	1055.82	-29737	0.000000	0.000000	6.322859	-0.031458	NaN	0.000000	0.001643	0.001709	28.0821	0.071139	0.001959	36.3168	-23.3138	-171.291	-0.007444	0.321226	-0.724085	-0.725405	-0.031458	36.3168	-0.723436	-4.086250E+9	7.698391E-12	NaN
1145	1.000000	0.362552	7.37626e+06	-57389.1	1055.82	-29737	0.000000	0.000000	6.362867	0.018244	NaN	0.000000	0.001642	0.001692	28.0819	0.123645	0.002017	61.2885	-153.568	-163.099	0.053817	0.361240	-0.684079	-0.685392	0.018244	61.2885	-0.684302	-1.194093E+9	-1.527893E-11	NaN
1145	1.000000	0.402594	7.37626e+06	-57389.1	1055.82	-29737	0.000000	0.000000	6.402908	-0.019378	NaN	0.000000	0.001742	0.001685	28.0833	0.076571	0.002165	35.3664	124.419	-165.388	0.036739	0.401265	-0.644037	-0.645366	-0.019378	35.3664	-0.643626	-3.311564E+8	5.851604E-11	NaN
1145	1.000000	0.442590	7.37626e+06	-57389.1	1055.82	-29737	0.000000	0.000000	6.442905	0.012670	NaN	0.000000	0.001717	0.001680	28.0834	0.097238	0.002118	45.9151	-47.8305	-167.496	-0.064889	0.441335	-0.604041	-0.605296	0.012670	45.9151	-0.604248	-9.527021E+7	-1.329944E-10	NaN
1145	1.000000	0.482593	7.37626e+06	-57389.1	1055.82	-29737	0.000000	0.000000	6.482906	-0.046506	NaN	0.000000	0.001706	0.001691	28.0833	0.147852	0.001969	75.1061	-12.4514	-166.338	-0.032434	0.481325	-0.564038	-0.565306	-0.046506	75.1061	-0.563573	-2.616964E+7	1.777097E-9	NaN
1145	1.000000	0.522634	7.37626e+06	-57389.1	1055.82	-29737	0.000000	0.000000	6.522946	-0.080161	NaN	0.000000	0.001671	0.001704	28.0819	0.065289	0.002122	30.7737	-152.345	-165.864	-0.076792	0.521278	-0.523997	-0.525353	-0.080161	30.7737	-0.522043	-6.95036e+06	1.153332E-8	NaN
1145	1.000000	0.562641	7.37626e+06	-57389.1	1055.82	-29737	0.000000	0.000000	6.562953	-0.067262	NaN	0.000000	0.001676	0.001704	28.082	0.111415	0.002014	55.3221	74.9868	-165.933	0.008861	0.561317	-0.483990	-0.485315	-0.067262	55.3221	-0.483078	-1.98889e+06	3.381911E-8	NaN
1145	1.000000	0.602686	7.37626e+06	-57389.1	1055.82	-29737	0.000000	0.000000	6.603004	0.067723	NaN	0.000000	0.001712	0.001674	28.082	0.043424	0.002139	20.3014	83.5255	-166.612	0.057038	0.601305	-0.443945	-0.445326	0.067723	20.3014	-0.446447	-608532	-1.112897E-7	NaN
1145	1.000000	0.642683	7.37626e+06	-57389.1	1055.82	-29737	0.000000	0.000000	6.642998	0.016753	NaN	0.000000	0.001677	0.001718	28.0831	0.017589	0.002098	8.383936	93.3148	-167.898	0.075018	0.641376	-0.403948	-0.405255	0.016753	8.383936	-0.405447	-159814	-1.048286E-7	NaN
1145	1.000000	0.682688	7.37626e+06	-57389.1	1055.82	-29737	0.000000	0.000000	6.683003	0.018988	NaN	0.000000	0.001716	0.001730	28.0835	0.038266	0.001929	19.8371	103.203	-168.026	-0.051268	0.681410	-0.363944	-0.365221	0.018988	19.8371	-0.364661	-41607.3	-4.563564E-7	NaN
1145	1.000000	0.722737	7.37626e+06	-57389.1	1055.82	-29737	0.000000	0.000000	6.723050	-0.036848	NaN	0.000000	0.001692	0.001732	28.0833	0.062023	0.002079	29.8315	126.194	-164.223	-0.048885	0.721396	-0.323894	-0.325235	-0.036848	29.8315	-0.322968	-10287	3.582039E-6	NaN
1145	1.000000	0.762726	7.37626e+06	-57389.1	1055.82	-29737	0.000000	0.000000	6.763040	-0.011437	NaN	0.000000	0.001602	0.001719	28.0832	0.066419	0.002110	31.473	-61.5089	-163.322	-0.034579	0.761440	-0.283905	-0.285191	-0.011437	31.473	-0.283633	-2677.32	4.271741E-6	NaN
1145	1.000000	0.802764	7.37626e+06	-57389.1	1055.82	-29737	0.000000	0.000000	6.803077	-0.024602	NaN	0.000000	0.001651	0.001773	28.082	0.062007	0.001809	34.2729	-147.018	-166.936	-0.047703	0.801437	-0.243867	-0.245195	-0.024602	34.2729	-0.243329	-647.831	3.797653E-5	NaN
1145	1.000000	0.842765	7.37626e+06	-57389.1	1055.82	-29737	0.000000	0.000000	6.843080	0.007592	NaN	0.000000	0.001545	0.001752	28.0819	0.083418	0.001957	42.6356	79.5031	-165.961	-0.070991	0.841468	-0.203866	-0.205164	0.007592	42.6356	-0.203999	-153.188	-4.956302E-5	NaN
1145	1.000000	0.882792	7.37626e+06	-57389.1	1055.82	-29737	0.000000	0.000000	6.883102	-0.119105	NaN	0.000000	0.001644	0.001724	28.082	0.055160	0.002042	27.0107	-177.28	-163.978	-0.085030	0.881459	-0.163839	-0.165172	-0.119105	27.0107	-0.160532	-28.0177	0.004251	NaN
1145	1.000000	0.922803	7.37626e+06	-57389.1	1055.82	-29737	0.000000	0.000000	6.923118	0.010028	NaN	0.000000	0.001610	0.001752	28.0831	0.046376	0.001972	23.52	137.244	-169.229	0.060187	0.921482	-0.123828	-0.125149	0.010028	23.52	-0.124148	-5.849401	-0.001714	NaN
1145	1.000000	0.962805	7.37626e+06	-57389.1	1055.82	-29737	0.000000	0.000000	6.963118	-0.062692	NaN	0.000000	0.001620	0.001755	28.0834	0.039346	0.002056	19.1346	-25.0804	-167.324	-0.049882	0.961577	-0.083826	-0.085054	-0.062692	19.1346	-0.081368	-0.669494	0.093640	NaN
1145	1.000000	1.002827	7.37626e+06	-57389.1	1055.82	-29737	0.000000	0.000000	7.003139	-0.056556	NaN	0.000000	0.001628	0.001722	28.0834	0.024586	0.001995	12.3224	174.25	-167.299	-0.044862	1.001491	-0.043804	-0.045140	-0.056556	12.3224	-0.040362	-0.046382	1.219370	NaN
1145	1.000000	1.042850	7.37626e+06	-57389.1	1055.82	-29737	0.000000	0.000000	7.043167	0.054144	NaN	0.000000	0.001593	0.001769	28.0833	0.274544	0.002029	135.338	-7.890916	-165.885	0.002876	1.041562	-0.003781	-0.005069	0.054144	135.338	-0.004081	-0.002832	-19.1219	NaN
1145	2.000000	1.060414	7.37626e+06	-57389.1	1055.82	-29737	0.000000	0.000000	7.061458	17.7409	NaN	0.000000	0.001613	0.001755	28.0823	16.1143	0.001717	9386.58	7.149278	-177.016	17.7079	1.060125	0.013782	0.013494	17.7409	9386.58	0.012365	0.011930	1487.06	78515.8
1145	2.000000	1.070385	7.37626e+06	-57389.1	1055.82	-29737	0.000000	0.000000	7.072323	39.4409	NaN	0.000000	0.001682	0.001744	28.0823	26.3959	0.001650	15993.2	6.517975	177.721	40.0454	1.070075	0.023754	0.023444	39.4409	15993.2	0.021904	0.025624	1539.23	91282.6
1145	2.000000	1.080336	7.37626e+06	-57389.1	1055.82	-29737	0.000000	0.000000	7.083506	69.3961	NaN	0.000000	0.001664	0.001747	28.0821	35.8929	0.001679	21379.2	2.679519	179.898	69.4437	1.080017	0.033705	0.033386	69.3961	21379.2	0.031270	0.043417	1598.36	93741.8
1145	2.000000	1.090273	7.37626e+06	-57389.1	1055.82	-29737	0.000000	0.000000	7.094908	105.004	NaN	0.000000	0.001616	0.001716	28.0828	46.2798	0.001842	25118.4	3.615111	176.952	102.443	1.090046	0.043642	0.043415	105.004	25118.4	0.040507	0.065345	1606.93	89775.9
1145	2.000000	1.100278	7.37626e+06	-57389.1	1055.82	-29737	0.000000	0.000000	7.106826	151.477	NaN	0.000000	0.001663	0.001700	28.0828	55.0414	0.001829	30095.8	6.274150	173.37	148.88	1.099866	0.053647	0.053235	151.477	30095.8	0.049873	0.092020	1646.14	90644.1
1145	2.000000	1.110263	7.37626e+06	-57389.1	1055.82	-29737	0.000000	0.000000	7.118917	202.678	NaN	0.000000	0.001614	0.001720	28.0827	64.2715	0.001811	35492.7	2.315228	175.92	199.497	1.109932	0.063632	0.063301	202.678	35492.7	0.059349	0.123485	1641.33	92279.5
1145	2.000000	1.120239	7.37626e+06	-57389.1	1055.82	-29737	0.000000	0.000000	7.131184	258.356	NaN	0.000000	0.001611	0.001699	28.0831	73.0614	0.001693	43143.7	5.011473	171.883	254.324	1.119971	0.073608	0.073340	258.356	43143.7	0.069117	0.160514	1609.56	98386.1
1145	2.000000	1.130274	7.37626e+06	-57389.1	1055.82	-29737	0.000000	0.000000	7.143931	324.286	NaN	0.000000	0.001677	0.001715	28.0817	81.5646	0.001783	45745.2	-0.433766	176.868	321.805	1.129993	0.083643	0.083362	324.286	45745.2	0.078326	0.199597	1624.71	93549.6
1145	2.000000	1.140324	7.37626e+06	-57389.1	1055.82	-29737	0.000000	0.000000	7.156911	395.489	NaN	0.000000	0.001721	0.001701	28.0819	91.5526	0.001760	52023.6	8.875737	166.858	399.009	1.139916	0.093693	0.093285	395.489	52023.6	0.087991	0.244877	1615.06	96050.5
1145	2.000000	1.150122	7.37626e+06	-57389.1	1055.82	-29737	0.000000	0.000000	7.169954	474.378	NaN	0.000000	0.001628	0.001696	28.0819	100.775	0.001813	55590.7	2.954371	172.184	467.301	1.149900	0.103491	0.103269	474.378	55590.7	0.097091	0.291436	1627.73	94081.5
1145	2.000000	1.151193	7.37626e+06	-57389.1	1055.82	-29737	0.000000	0.000000	7.171594	488.19	NaN	0.000000	0.001614	0.001714	28.082	101.404	0.001692	59949.1	7.380166	167.286	486.178	1.150932	0.104562	0.104301	488.19	59949.1	0.098455	0.298742	1634.15	100209