File: remote_trans/data/nanoindenter/0828-1/data/Data_2025-08-06,11h17m57s/2025-07-22_16-23-58_1_70.txt
2025-07-22, 16:23:58, 1
Index	Phase	Displacement	Time	Pos X	Pos Y	Pos Z	Rot A	Rot B	Piezo Z	Force A	Force B	Gripper	Voltage A	Voltage B	Temperature	Amplitude force	Amplitude pos	Stiffness	Phase shift	Phase excitation	Force A raw	Displacement raw	HMax	HMax raw	Real Force	Real Stiffness	Contact Depth	Area	Hardness	Reduced Mod.
[#]	[#]	[um]	[s]	[um]	[um]	[um]	[m°]	[m°]	[um]	[uN]	[uN]	[V]	[V]	[V]	[°C]	[uN]	[um]	[N/m]	[°]	[°]	[uN]	[um]	[um]	[um]	[uN]	[N/m]	[um]	[um^2]	[MPa]	[MPa]
70	1.000000	0.003122	7.36573e+06	-42139.1	955.819	-29784.3	0.000000	0.000000	6.002779	0.015043	NaN	0.000000	0.001728	0.001656	28.0942	0.091735	0.001025	89.5127	-175.987	-165.148	0.021326	0.001874	-1.051088	-1.052335	0.015043	89.5127	-1.051214	-1.108483E+14	-1.357114E-16	NaN
70	1.000000	0.043104	7.36573e+06	-42139.1	955.818	-29784.3	0.000000	0.000000	6.042761	0.014117	NaN	0.000000	0.001601	0.001586	28.0954	0.176472	0.001899	92.9308	-83.5792	-166.268	-0.024278	0.041799	-1.011105	-1.012410	0.014117	92.9308	-1.011219	-3.212106E+13	-4.395089E-16	NaN
70	1.000000	0.083119	7.36573e+06	-42139.1	955.818	-29784.3	0.000000	0.000000	6.082775	-0.032054	NaN	0.000000	0.001614	0.001620	28.095	0.048998	0.001874	26.1407	114.188	-164.059	0.011596	0.081775	-0.971090	-0.972434	-0.032054	26.1407	-0.970170	-8.994152E+12	3.563891E-15	NaN
70	1.000000	0.123121	7.36573e+06	-42139.1	955.818	-29784.3	0.000000	0.000000	6.122781	0.069268	NaN	0.000000	0.001543	0.001668	28.0944	0.029644	0.002134	13.8886	-18.729	-165.651	0.034709	0.121787	-0.931088	-0.932423	0.069268	13.8886	-0.934829	-3.001646E+12	-2.307662E-14	NaN
70	1.000000	0.163136	7.36573e+06	-42139.1	955.818	-29784.3	0.000000	0.000000	6.162795	0.059416	NaN	0.000000	0.001603	0.001718	28.0926	0.087906	0.002067	42.5216	-69.1763	-166.484	0.011705	0.161829	-0.891073	-0.892380	0.059416	42.5216	-0.892121	-7.954111E+11	-7.469837E-14	NaN
70	1.000000	0.203176	7.36573e+06	-42139.1	955.819	-29784.3	0.000000	0.000000	6.202831	-0.037117	NaN	0.000000	0.001567	0.001683	28.0922	0.056063	0.002012	27.8657	47.4267	-164.798	0.040661	0.201882	-0.851033	-0.852327	-0.037117	27.8657	-0.850034	-2.143878E+11	1.731317E-13	NaN
70	1.000000	0.243189	7.36573e+06	-42139.1	955.818	-29784.3	0.000000	0.000000	6.242845	-0.017228	NaN	0.000000	0.001598	0.001640	28.0916	0.039745	0.002004	19.834	-17.1989	-167.867	-0.055257	0.241904	-0.811020	-0.812306	-0.017228	19.834	-0.810369	-6.216925E+10	2.771113E-13	NaN
70	1.000000	0.283198	7.36573e+06	-42139.1	955.818	-29784.3	0.000000	0.000000	6.282855	0.006707	NaN	0.000000	0.001564	0.001623	28.0934	0.110261	0.002038	54.1111	124.557	-166.819	0.105678	0.281943	-0.771011	-0.772266	0.006707	54.1111	-0.771104	-1.821043E+10	-3.682823E-13	NaN
70	1.000000	0.323203	7.36573e+06	-42139.1	955.818	-29784.3	0.000000	0.000000	6.322860	0.007493	NaN	0.000000	0.001606	0.001645	28.0936	0.045191	0.002028	22.2792	-63.9616	-165.773	-0.021734	0.321889	-0.731006	-0.732321	0.007493	22.2792	-0.731258	-5.223398E+9	-1.434509E-12	NaN
70	1.000000	0.363234	7.36573e+06	-42139.1	955.818	-29784.3	0.000000	0.000000	6.362889	-0.056950	NaN	0.000000	0.001566	0.001647	28.0937	0.079312	0.001995	39.763	27.4646	-166.171	-0.053422	0.361902	-0.690975	-0.692307	-0.056950	39.763	-0.689901	-1.424163E+9	3.998868E-11	NaN
70	1.000000	0.403237	7.36573e+06	-42139.1	955.818	-29784.3	0.000000	0.000000	6.402894	0.007951	NaN	0.000000	0.001603	0.001656	28.0929	0.161104	0.002043	78.8669	-176.717	-164.7	-0.035309	0.401927	-0.650972	-0.652282	0.007951	78.8669	-0.651048	-4.186022E+8	-1.899441E-11	NaN
70	1.000000	0.443251	7.36573e+06	-42139.1	955.818	-29784.3	0.000000	0.000000	6.442907	-0.018629	NaN	0.000000	0.001567	0.001650	28.0927	0.142591	0.001870	76.2433	53.6917	-167.718	0.030774	0.441968	-0.610958	-0.612241	-0.018629	76.2433	-0.610775	-1.171601E+8	1.590083E-10	NaN
70	1.000000	0.483266	7.36573e+06	-42139.1	955.819	-29784.3	0.000000	0.000000	6.482923	0.006692	NaN	0.000000	0.001585	0.001669	28.0908	0.075638	0.001819	41.5918	49.7164	-172.845	0.072194	0.481962	-0.570943	-0.572247	0.006692	41.5918	-0.571063	-3.321431E+7	-2.014691E-10	NaN
70	1.000000	0.523286	7.36573e+06	-42139.1	955.818	-29784.3	0.000000	0.000000	6.522942	-0.007791	NaN	0.000000	0.001602	0.001639	28.0917	0.053295	0.002001	26.6344	-100.322	-165.015	0.048141	0.521975	-0.530924	-0.532234	-0.007791	26.6344	-0.530704	-9.16971e+06	8.496501E-10	NaN
70	1.000000	0.563308	7.36573e+06	-42139.1	955.818	-29784.3	0.000000	0.000000	6.562962	-0.053411	NaN	0.000000	0.001561	0.001663	28.0914	0.014146	0.002019	7.005352	-142.953	-164.643	0.016447	0.562064	-0.490902	-0.492145	-0.053411	7.005352	-0.485183	-2.12841e+06	2.509426E-8	NaN
70	1.000000	0.603337	7.36573e+06	-42139.1	955.818	-29784.3	0.000000	0.000000	6.602994	-0.005200	NaN	0.000000	0.001529	0.001655	28.0926	0.033448	0.001954	17.1203	-131.849	-165.234	0.029512	0.602005	-0.450872	-0.452204	-0.005200	17.1203	-0.450644	-697294	7.457664E-9	NaN
70	1.000000	0.643383	7.36573e+06	-42139.1	955.819	-29784.3	0.000000	0.000000	6.643037	-0.064593	NaN	0.000000	0.001544	0.001650	28.0915	0.082347	0.001898	43.3928	-174.89	-167.426	-0.024644	0.642036	-0.410826	-0.412173	-0.064593	43.3928	-0.409710	-183771	3.514857E-7	NaN
70	1.000000	0.683338	7.36573e+06	-42139.1	955.818	-29784.3	0.000000	0.000000	6.682992	-0.057082	NaN	0.000000	0.001632	0.001677	28.0901	0.048425	0.002064	23.4593	162.216	-165.52	-0.077002	0.682068	-0.370871	-0.372142	-0.057082	23.4593	-0.369047	-48127.5	1.186064E-6	NaN
70	1.000000	0.723379	7.36573e+06	-42139.1	955.818	-29784.3	0.000000	0.000000	6.723036	-0.009125	NaN	0.000000	0.001579	0.001642	28.0899	0.138760	0.001987	69.8423	62.4167	-165.913	-0.014706	0.722111	-0.330830	-0.332099	-0.009125	69.8423	-0.330732	-13371.1	6.824596E-7	NaN
70	1.000000	0.763384	7.36573e+06	-42139.1	955.818	-29784.3	0.000000	0.000000	6.763041	0.022079	NaN	0.000000	0.001590	0.001657	28.0903	0.091759	0.001995	46.0058	96.288	-165.584	0.010839	0.762084	-0.290826	-0.292125	0.022079	46.0058	-0.291185	-3475.81	-6.352151E-6	NaN
70	1.000000	0.803431	7.36573e+06	-42139.1	955.817	-29784.4	0.000000	0.000000	6.803085	-0.063579	NaN	0.000000	0.001564	0.001661	28.0895	0.072375	0.002090	34.634	-37.9249	-162.41	-0.069190	0.802104	-0.250778	-0.252106	-0.063579	34.634	-0.249401	-804.832	7.899645E-5	NaN
70	1.000000	0.843438	7.36573e+06	-42139.1	955.819	-29784.4	0.000000	0.000000	6.843093	-0.028925	NaN	0.000000	0.001612	0.001659	28.0905	0.023533	0.001952	12.0558	8.008340	-167.202	0.067534	0.842087	-0.210771	-0.212122	-0.028925	12.0558	-0.208972	-184.569	0.000157	NaN
70	1.000000	0.883429	7.36573e+06	-42139.1	955.818	-29784.4	0.000000	0.000000	6.883086	0.003900	NaN	0.000000	0.001606	0.001673	28.0908	0.108832	0.002052	53.0301	-147.284	-165.603	-0.091773	0.882178	-0.170780	-0.172031	0.003900	53.0301	-0.170835	-42.4719	-9.182977E-5	NaN
70	1.000000	0.923493	7.36573e+06	-42139.1	955.818	-29784.4	0.000000	0.000000	6.923150	0.007689	NaN	0.000000	0.001647	0.001655	28.0916	0.125125	0.001840	68.0092	-107.385	-166.235	-0.029786	0.922187	-0.130716	-0.132022	0.007689	68.0092	-0.130801	-7.898566	-0.000973	NaN
70	1.000000	0.963480	7.36573e+06	-42139.1	955.818	-29784.4	0.000000	0.000000	6.963137	0.009088	NaN	0.000000	0.001584	0.001664	28.0888	0.109841	0.002057	53.4051	150.941	-165.184	0.053625	0.962206	-0.090729	-0.092003	0.009088	53.4051	-0.090857	-1.132060	-0.008027	NaN
70	1.000000	1.003509	7.36573e+06	-42139.1	955.819	-29784.4	0.000000	0.000000	7.003164	-0.042897	NaN	0.000000	0.001595	0.001682	28.0895	0.031871	0.002039	15.6325	5.411401	-164.535	-0.007518	1.002162	-0.050701	-0.052048	-0.042897	15.6325	-0.048642	-0.083002	0.516825	NaN
70	1.000000	1.043503	7.36573e+06	-42139.1	955.819	-29784.4	0.000000	0.000000	7.043158	-0.049159	NaN	0.000000	0.001562	0.001669	28.0893	0.162980	0.002047	79.6203	9.050352	-165.459	-0.044133	1.042161	-0.010706	-0.012049	-0.049159	79.6203	-0.010243	-0.006526	7.532553	NaN
70	2.000000	1.067007	7.36573e+06	-42139.1	955.818	-29784.4	0.000000	0.000000	7.067499	20.3026	NaN	0.000000	0.001572	0.001620	28.0888	16.3891	0.001750	9365.04	5.065711	-174.524	19.7834	1.066737	0.012798	0.012527	20.3026	9365.04	0.011172	0.010514	1931.08	83446.2
70	2.000000	1.076961	7.36573e+06	-42139.1	955.818	-29784.4	0.000000	0.000000	7.078383	42.9484	NaN	0.000000	0.001578	0.001693	28.09	26.9961	0.001873	14411.5	6.820304	-178.615	43.1036	1.076657	0.022752	0.022447	42.9484	14411.5	0.020517	0.023361	1838.48	86146.4
70	2.000000	1.086919	7.36573e+06	-42139.1	955.818	-29784.4	0.000000	0.000000	7.089434	69.5346	NaN	0.000000	0.001586	0.001635	28.0898	36.9338	0.001789	20641.9	5.632045	179.098	68.6702	1.086613	0.032710	0.032404	69.5346	20641.9	0.030183	0.041125	1690.81	92997.3
70	2.000000	1.096964	7.36573e+06	-42139.1	955.818	-29784.4	0.000000	0.000000	7.100983	106.158	NaN	0.000000	0.001533	0.001632	28.0894	46.2322	0.001772	26083.3	1.160926	-178.533	107.289	1.096586	0.042754	0.042377	106.158	26083.3	0.039702	0.063261	1678.11	94748
70	2.000000	1.106955	7.36573e+06	-42139.1	955.818	-29784.4	0.000000	0.000000	7.112852	151.858	NaN	0.000000	0.001578	0.001666	28.0889	57.4294	0.001809	31751.4	4.501463	176.265	152.6	1.106701	0.052745	0.052492	151.858	31751.4	0.049158	0.089829	1690.53	96789.5
70	2.000000	1.116868	7.36573e+06	-42139.1	955.819	-29784.4	0.000000	0.000000	7.125059	207.652	NaN	0.000000	0.001557	0.001642	28.0886	66.8161	0.001820	36713.5	6.197680	173.256	204.235	1.116612	0.062658	0.062403	207.652	36713.5	0.058416	0.120190	1727.69	96752.8
70	2.000000	1.126845	7.36573e+06	-42139.1	955.819	-29784.4	0.000000	0.000000	7.137673	271.822	NaN	0.000000	0.001566	0.001657	28.0881	77.1379	0.001825	42270	6.904426	170.843	269.072	1.126646	0.072635	0.072437	271.822	42270	0.067813	0.155303	1750.27	97997.5
70	2.000000	1.136924	7.36574e+06	-42139.1	955.818	-29784.4	0.000000	0.000000	7.150557	340.053	NaN	0.000000	0.001573	0.001664	28.0883	86.5547	0.001841	47016.8	4.541500	173.589	339.886	1.136539	0.082715	0.082330	340.053	47016.8	0.077290	0.195002	1743.85	97276.3
70	2.000000	1.146825	7.36574e+06	-42139.1	955.818	-29784.4	0.000000	0.000000	7.163801	421.388	NaN	0.000000	0.001582	0.001663	28.0898	95.2724	0.001804	52798.4	7.473432	169.709	419.797	1.146542	0.092616	0.092333	421.388	52798.4	0.086630	0.238240	1768.75	98829.5
70	2.000000	1.156841	7.36574e+06	-42139.1	955.819	-29784.4	0.000000	0.000000	7.177345	507.229	NaN	0.000000	0.001533	0.001714	28.0886	104.57	0.001886	55451.9	6.038740	171.041	504.781	1.156431	0.102632	0.102221	507.229	55451.9	0.095772	0.284453	1783.17	94991.4
70	2.000000	1.159850	7.36574e+06	-42139.1	955.818	-29784.4	0.000000	0.000000	7.181509	535.358	NaN	0.000000	0.001543	0.001750	28.1118	106.569	0.001726	61731.2	3.227308	173.257	534.735	1.159546	0.105641	0.105337	535.358	61731.2	0.099136	0.302424	1770.22	102558