File: remote_trans/data/nanoindenter/0828-1/data/Data_2025-08-06,11h17m57s/2025-07-22_16-23-58_1_1132.txt
2025-07-22, 16:23:58, 1
Index	Phase	Displacement	Time	Pos X	Pos Y	Pos Z	Rot A	Rot B	Piezo Z	Force A	Force B	Gripper	Voltage A	Voltage B	Temperature	Amplitude force	Amplitude pos	Stiffness	Phase shift	Phase excitation	Force A raw	Displacement raw	HMax	HMax raw	Real Force	Real Stiffness	Contact Depth	Area	Hardness	Reduced Mod.
[#]	[#]	[um]	[s]	[um]	[um]	[um]	[m°]	[m°]	[um]	[uN]	[uN]	[V]	[V]	[V]	[°C]	[uN]	[um]	[N/m]	[°]	[°]	[uN]	[um]	[um]	[um]	[uN]	[N/m]	[um]	[um^2]	[MPa]	[MPa]
1132	1.000000	0.002055	7.37612e+06	-56739.1	1055.82	-29738.2	0.000000	0.000000	6.002783	0.009677	NaN	0.000000	0.001639	0.001758	28.0845	0.018314	0.000990	18.507	-36.1568	-166.592	-0.032758	0.000781	-1.101583	-1.102857	0.009677	18.507	-1.101975	-5.328215E+14	-1.816119E-17	NaN
1132	1.000000	0.044009	7.37612e+06	-56739.1	1055.82	-29738.2	0.000000	0.000000	6.044742	0.126090	NaN	0.000000	0.001652	0.001657	28.0832	0.037861	0.002051	18.4561	-27.8194	12.225	0.108050	0.042637	-1.059629	-1.061001	0.126090	18.4561	-1.064753	-1.685331E+14	-7.481589E-16	NaN
1132	1.000000	0.086023	7.37612e+06	-56739.1	1055.82	-29738.2	0.000000	0.000000	6.086750	0.000927	NaN	0.000000	0.001738	0.001657	28.0833	0.056504	0.002038	27.7212	117.19	-164.207	0.091366	0.084697	-1.017615	-1.018941	0.000927	27.7212	-1.017641	-3.919267E+13	-2.365201E-17	NaN
1132	1.000000	0.128041	7.37613e+06	-56739.1	1055.82	-29738.2	0.000000	0.000000	6.128767	-0.027976	NaN	0.000000	0.001722	0.001720	28.0833	0.057360	0.002053	27.936	-63.4108	17.277	0.008975	0.126690	-0.975597	-0.976948	-0.027976	27.936	-0.974846	-1.039839E+13	2.690424E-15	NaN
1132	1.000000	0.170096	7.37613e+06	-56739.1	1055.82	-29738.2	0.000000	0.000000	6.170822	-0.029142	NaN	0.000000	0.001731	0.001703	28.0847	0.042657	0.002056	20.744	-74.5173	-166.671	-0.012489	0.168792	-0.933542	-0.934846	-0.029142	20.744	-0.932489	-2.791165E+12	1.044070E-14	NaN
1132	1.000000	0.212061	7.37613e+06	-56739.1	1055.82	-29738.2	0.000000	0.000000	6.212789	0.006776	NaN	0.000000	0.001668	0.001737	28.0846	0.111396	0.001974	56.4177	-141.338	13.3698	-0.011881	0.210744	-0.891577	-0.892894	0.006776	56.4177	-0.891667	-7.842358E+11	-8.639929E-15	NaN
1132	1.000000	0.254108	7.37613e+06	-56739.1	1055.82	-29738.2	0.000000	0.000000	6.254835	-0.012676	NaN	0.000000	0.001667	0.001714	28.0845	0.023285	0.002006	11.6101	71.6839	-169.162	-0.058952	0.252749	-0.849530	-0.850890	-0.012676	11.6101	-0.848711	-2.057245E+11	6.161485E-14	NaN
1132	1.000000	0.296087	7.37613e+06	-56739.1	1055.82	-29738.2	0.000000	0.000000	6.296815	0.014960	NaN	0.000000	0.001697	0.001728	28.0839	0.064269	0.002021	31.8019	-4.716699	15.4009	-0.001682	0.294702	-0.807551	-0.808936	0.014960	31.8019	-0.807903	-5.756058E+10	-2.599068E-13	NaN
1132	1.000000	0.338151	7.37613e+06	-56739.1	1055.82	-29738.2	0.000000	0.000000	6.338879	0.002671	NaN	0.000000	0.001700	0.001708	28.0836	0.091000	0.001981	45.9353	177.838	-165.325	-0.068611	0.336869	-0.765487	-0.766769	0.002671	45.9353	-0.765530	-1.529422E+10	-1.746231E-13	NaN
1132	1.000000	0.380144	7.37613e+06	-56739.1	1055.82	-29738.2	0.000000	0.000000	6.380874	0.062874	NaN	0.000000	0.001715	0.001725	28.0834	0.056912	0.001958	29.072	168.716	12.4349	0.109765	0.378861	-0.723494	-0.724777	0.062874	29.072	-0.725116	-4.307579E+9	-1.459603E-11	NaN
1132	1.000000	0.422150	7.37613e+06	-56739.1	1055.82	-29738.2	0.000000	0.000000	6.422878	0.028177	NaN	0.000000	0.001668	0.001732	28.0836	0.044319	0.001934	22.92	40.692	-165.469	0.038139	0.420890	-0.681488	-0.682748	0.028177	22.92	-0.682410	-1.125032E+9	-2.504551E-11	NaN
1132	1.000000	0.464217	7.37613e+06	-56739.1	1055.82	-29738.2	0.000000	0.000000	6.464944	-0.012884	NaN	0.000000	0.001660	0.001758	28.0845	0.094667	0.001989	47.5969	37.5663	12.7592	0.018912	0.462824	-0.639421	-0.640814	-0.012884	47.5969	-0.639218	-2.881138E+8	4.471844E-11	NaN
1132	1.000000	0.506200	7.37613e+06	-56739.1	1055.82	-29738.2	0.000000	0.000000	6.506929	0.031714	NaN	0.000000	0.001674	0.001702	28.0842	0.118429	0.001981	59.7685	77.5985	-161.167	0.109920	0.504837	-0.597438	-0.598801	0.031714	59.7685	-0.597836	-7.774139E+7	-4.079486E-10	NaN
1132	1.000000	0.548240	7.37613e+06	-56739.1	1055.82	-29738.2	0.000000	0.000000	6.548965	-0.050164	NaN	0.000000	0.001689	0.001784	28.0844	0.012424	0.001937	6.414192	-45.3801	10.3439	-0.043546	0.546833	-0.555398	-0.556805	-0.050164	6.414192	-0.549532	-1.672936E+7	2.998589E-9	NaN
1132	1.000000	0.590239	7.37613e+06	-56739.1	1055.82	-29738.2	0.000000	0.000000	6.590966	0.009301	NaN	0.000000	0.001682	0.001708	28.083	0.032676	0.001991	16.4141	105.467	-167.576	0.014146	0.588933	-0.513399	-0.514705	0.009301	16.4141	-0.513824	-5.34157e+06	-1.741276E-9	NaN
1132	1.000000	0.632228	7.37613e+06	-56739.1	1055.82	-29738.2	0.000000	0.000000	6.632954	-0.031101	NaN	0.000000	0.001673	0.001720	28.0836	0.100003	0.002031	49.248	-119.118	14.9168	0.101583	0.630883	-0.471410	-0.472755	-0.031101	49.248	-0.470936	-1.34443e+06	2.313328E-8	NaN
1132	1.000000	0.674278	7.37613e+06	-56739.1	1055.82	-29738.2	0.000000	0.000000	6.675004	-0.012883	NaN	0.000000	0.001696	0.001663	28.0833	0.070245	0.002003	35.0783	21.8995	-167.605	-0.039106	0.672970	-0.429360	-0.430668	-0.012883	35.0783	-0.429085	-346030	3.723008E-8	NaN
1132	1.000000	0.716295	7.37613e+06	-56739.1	1055.82	-29738.2	0.000000	0.000000	6.717022	-0.011936	NaN	0.000000	0.001761	0.001658	28.0848	0.104876	0.001983	52.8909	142.009	13.4427	0.067695	0.714909	-0.387343	-0.388729	-0.011936	52.8909	-0.387173	-87642.6	1.361859E-7	NaN
1132	1.000000	0.758293	7.37613e+06	-56739.1	1055.82	-29738.2	0.000000	0.000000	6.759022	0.027127	NaN	0.000000	0.001764	0.001731	28.0847	0.100660	0.002093	48.0894	165.314	-163.597	-0.041063	0.757002	-0.345345	-0.346636	0.027127	48.0894	-0.345768	-22157.7	-1.224271E-6	NaN
1132	1.000000	0.800315	7.37613e+06	-56739.1	1055.82	-29738.2	0.000000	0.000000	6.801041	-0.031940	NaN	0.000000	0.001741	0.001715	28.0844	0.026993	0.002041	13.2227	167.826	12.8362	0.038504	0.798973	-0.303323	-0.304665	-0.031940	13.2227	-0.301511	-4955.92	6.444822E-6	NaN
1132	1.000000	0.842361	7.37613e+06	-56739.1	1055.82	-29738.2	0.000000	0.000000	6.843090	0.029090	NaN	0.000000	0.001739	0.001733	28.0832	0.041427	0.002011	20.5982	52.8323	-167.221	-0.015994	0.841061	-0.261277	-0.262577	0.029090	20.5982	-0.262336	-1272.57	-2.285909E-5	NaN
1132	1.000000	0.884380	7.37613e+06	-56739.1	1055.82	-29738.2	0.000000	0.000000	6.885106	-0.020368	NaN	0.000000	0.001712	0.001696	28.0837	0.057582	0.001988	28.9595	-169.837	13.497	-0.019951	0.883020	-0.219259	-0.220618	-0.020368	28.9595	-0.218731	-265.082	7.683610E-5	NaN
1132	1.000000	0.926386	7.37613e+06	-56739.1	1055.82	-29738.2	0.000000	0.000000	6.927113	-0.013119	NaN	0.000000	0.001646	0.001709	28.0832	0.027937	0.001971	14.1769	-148.134	-164.044	-0.005555	0.925081	-0.177252	-0.178557	-0.013119	14.1769	-0.176558	-53.297	0.000246	NaN
1132	1.000000	0.968404	7.37613e+06	-56739.1	1055.82	-29738.2	0.000000	0.000000	6.969132	0.003335	NaN	0.000000	0.001617	0.001710	28.0831	0.042647	0.002047	20.8379	-19.3729	14.8448	-0.035191	0.967099	-0.135234	-0.136539	0.003335	20.8379	-0.135354	-9.661330	-0.000345	NaN
1132	1.000000	1.010411	7.37613e+06	-56739.1	1055.82	-29738.2	0.000000	0.000000	7.011136	-0.051882	NaN	0.000000	0.001636	0.001703	28.0843	0.103358	0.001818	56.8581	87.5989	-168.653	0.009983	1.009153	-0.093227	-0.094485	-0.051882	56.8581	-0.092542	-1.238853	0.041879	NaN
1132	1.000000	1.052437	7.37613e+06	-56739.1	1055.82	-29738.2	0.000000	0.000000	7.053162	-0.055573	NaN	0.000000	0.001665	0.001714	28.0844	0.090236	0.002119	42.5838	-48.2151	11.8342	-0.039540	1.051050	-0.051201	-0.052589	-0.055573	42.5838	-0.050223	-0.092676	0.599648	NaN
1132	1.000000	1.094434	7.37613e+06	-56739.1	1055.82	-29738.2	0.000000	0.000000	7.095162	0.011279	NaN	0.000000	0.001657	0.001721	28.0843	0.068636	0.001983	34.6081	-133.468	-165.915	0.059969	1.093179	-0.009204	-0.010459	0.011279	34.6081	-0.009448	-0.006071	-1.857833	NaN
1132	2.000000	1.114526	7.37613e+06	-56739.1	1055.82	-29738.2	0.000000	0.000000	7.116074	19.9476	NaN	0.000000	0.001689	0.001751	28.0834	16.6473	0.001733	9605.46	4.093873	5.596778	18.8682	1.114176	0.010888	0.010538	19.9476	9605.46	0.009331	0.008447	2361.5	95486.1
1132	2.000000	1.125021	7.37613e+06	-56739.1	1055.82	-29738.2	0.000000	0.000000	7.127651	46.2272	NaN	0.000000	0.001713	0.001712	28.0835	27.5549	0.001828	15076.3	5.472774	-179.425	46.4986	1.124784	0.021383	0.021146	46.2272	15076.3	0.019084	0.021123	2188.51	94774.9
1132	2.000000	1.135458	7.37613e+06	-56739.1	1055.82	-29738.2	0.000000	0.000000	7.139571	82.2969	NaN	0.000000	0.001706	0.001656	28.0831	36.7129	0.001786	20554.4	4.346809	-0.103342	80.8863	1.135027	0.031820	0.031389	82.2969	20554.4	0.028817	0.038328	2147.18	95922.8
1132	2.000000	1.145974	7.37613e+06	-56739.1	1055.82	-29738.2	0.000000	0.000000	7.151735	122.348	NaN	0.000000	0.001666	0.001683	28.0844	46.4115	0.001714	27082.6	4.554888	175.386	121.932	1.145725	0.042336	0.042087	122.348	27082.6	0.038948	0.061337	1994.69	99908.6
1132	2.000000	1.156426	7.37613e+06	-56739.1	1055.82	-29738.2	0.000000	0.000000	7.164058	167.83	NaN	0.000000	0.001629	0.001717	28.0846	58.5716	0.001848	31697.4	6.206089	-6.363910	164.712	1.156127	0.052788	0.052489	167.83	31697.4	0.048817	0.088790	1890.18	97188.2
1132	2.000000	1.166964	7.37613e+06	-56739.1	1055.82	-29738.2	0.000000	0.000000	7.177002	226.303	NaN	0.000000	0.001603	0.001664	28.0846	68.2733	0.001828	37344.8	6.802802	173.102	225.181	1.166597	0.063326	0.062959	226.303	37344.8	0.058781	0.121473	1862.98	97895.6
1132	2.000000	1.177372	7.37613e+06	-56739.1	1055.82	-29738.2	0.000000	0.000000	7.190257	295.508	NaN	0.000000	0.001682	0.001712	28.0836	79.1021	0.001779	44471.9	3.400669	-5.713973	290.631	1.177030	0.073734	0.073392	295.508	44471.9	0.068751	0.159043	1858.04	101883
1132	2.000000	1.187924	7.37613e+06	-56739.1	1055.82	-29738.2	0.000000	0.000000	7.203610	363.591	NaN	0.000000	0.001677	0.001664	28.0836	88.5476	0.001723	51392.5	2.375574	173.983	363.666	1.187730	0.084286	0.084092	363.591	51392.5	0.078980	0.202522	1795.31	104337
1132	2.000000	1.198387	7.37613e+06	-56739.1	1055.82	-29738.2	0.000000	0.000000	7.217737	452.637	NaN	0.000000	0.001638	0.001691	28.0836	97.6218	0.001813	53859.4	2.377003	-6.367778	446.453	1.198094	0.094749	0.094456	452.637	53859.4	0.088446	0.247116	1831.68	98988.5
1132	2.000000	1.205999	7.37613e+06	-56739.1	1055.82	-29738.2	0.000000	0.000000	7.228397	526.73	NaN	0.000000	0.001659	0.001714	28.0828	104.794	0.001821	57546.3	3.494488	172.551	531.728	1.205557	0.102361	0.101919	526.73	57546.3	0.095496	0.283001	1861.23	98831.7