File: remote_trans/data/nanoindenter/0828-1/data/Data_2025-08-06,11h17m57s/2025-07-22_16-23-58_1_1153.txt
2025-07-22, 16:23:58, 1
Index	Phase	Displacement	Time	Pos X	Pos Y	Pos Z	Rot A	Rot B	Piezo Z	Force A	Force B	Gripper	Voltage A	Voltage B	Temperature	Amplitude force	Amplitude pos	Stiffness	Phase shift	Phase excitation	Force A raw	Displacement raw	HMax	HMax raw	Real Force	Real Stiffness	Contact Depth	Area	Hardness	Reduced Mod.
[#]	[#]	[um]	[s]	[um]	[um]	[um]	[m°]	[m°]	[um]	[uN]	[uN]	[V]	[V]	[V]	[°C]	[uN]	[um]	[N/m]	[°]	[°]	[uN]	[um]	[um]	[um]	[uN]	[N/m]	[um]	[um^2]	[MPa]	[MPa]
1153	1.000000	0.002763	7.37633e+06	-57789.1	1055.82	-29736.3	0.000000	0.000000	6.002787	-0.005456	NaN	0.000000	0.001641	0.001673	28.0816	0.069032	0.000996	69.2803	-91.5553	-165.445	-0.067535	0.001533	-1.143115	-1.144344	-0.005456	69.2803	-1.143056	-1.895450E+15	2.878725E-18	NaN
1153	1.000000	0.044706	7.37633e+06	-57789.1	1055.82	-29736.3	0.000000	0.000000	6.044729	-0.037559	NaN	0.000000	0.001623	0.001702	28.0817	0.116642	0.002027	57.5467	26.4015	15.7341	-0.001663	0.043339	-1.101172	-1.102539	-0.037559	57.5467	-1.100683	-5.119530E+14	7.336337E-17	NaN
1153	1.000000	0.086760	7.37633e+06	-57789.1	1055.82	-29736.3	0.000000	0.000000	6.086786	0.021164	NaN	0.000000	0.001632	0.001706	28.0814	0.007599	0.001936	3.924348	-142.369	-168.086	0.077159	0.085412	-1.059118	-1.060465	0.021164	3.924348	-1.063162	-1.604418E+14	-1.319136E-16	NaN
1153	1.000000	0.128736	7.37633e+06	-57789.1	1055.82	-29736.3	0.000000	0.000000	6.128759	-0.036292	NaN	0.000000	0.001620	0.001728	28.0828	0.066020	0.002059	32.0693	-20.8677	9.433049	-0.024415	0.127332	-1.017142	-1.018546	-0.036292	32.0693	-1.016293	-3.759033E+13	9.654488E-16	NaN
1153	1.000000	0.170809	7.37633e+06	-57789.1	1055.82	-29736.3	0.000000	0.000000	6.170832	-0.040411	NaN	0.000000	0.001653	0.001758	28.0826	0.028478	0.002046	13.9183	-110.536	-165.414	-0.026550	0.169499	-0.975069	-0.976379	-0.040411	13.9183	-0.972891	-9.786386E+12	4.129343E-15	NaN
1153	1.000000	0.212784	7.37633e+06	-57789.1	1055.82	-29736.3	0.000000	0.000000	6.212806	-0.051838	NaN	0.000000	0.001644	0.001740	28.0823	0.056634	0.001980	28.5998	-65.476	13.5614	0.034333	0.211469	-0.933094	-0.934408	-0.051838	28.5998	-0.931735	-2.726517E+12	1.901248E-14	NaN
1153	1.000000	0.254804	7.37633e+06	-57789.1	1055.82	-29736.3	0.000000	0.000000	6.254826	-0.063010	NaN	0.000000	0.001607	0.001732	28.0811	0.109607	0.002019	54.296	0.452873	-170.401	-0.080688	0.253487	-0.891073	-0.892390	-0.063010	54.296	-0.890203	-7.493058E+11	8.409151E-14	NaN
1153	1.000000	0.296841	7.37634e+06	-57789.1	1055.82	-29736.3	0.000000	0.000000	6.296865	-0.017493	NaN	0.000000	0.001594	0.001760	28.0814	0.068784	0.001859	37.0078	72.7274	13.0506	0.046581	0.295466	-0.849037	-0.850411	-0.017493	37.0078	-0.848682	-2.055396E+11	8.510650E-14	NaN
1153	1.000000	0.338865	7.37634e+06	-57789.1	1055.82	-29736.3	0.000000	0.000000	6.338890	0.017745	NaN	0.000000	0.001643	0.001742	28.0814	0.055240	0.002002	27.5856	21.0165	-163.446	0.003001	0.337537	-0.807013	-0.808340	0.017745	27.5856	-0.807495	-5.683116E+10	-3.122327E-13	NaN
1153	1.000000	0.380886	7.37634e+06	-57789.1	1055.82	-29736.3	0.000000	0.000000	6.380909	-0.029825	NaN	0.000000	0.001636	0.001744	28.0827	0.019455	0.001996	9.747454	118.118	13.3561	0.052127	0.379582	-0.764992	-0.766296	-0.029825	9.747454	-0.762697	-1.399562E+10	2.131008E-12	NaN
1153	1.000000	0.422881	7.37634e+06	-57789.1	1055.82	-29736.3	0.000000	0.000000	6.422905	-0.028320	NaN	0.000000	0.001679	0.001730	28.0828	0.029237	0.002015	14.5123	-149.349	-166.582	-0.013444	0.421545	-0.722996	-0.724333	-0.028320	14.5123	-0.721533	-3.849253E+9	7.357374E-12	NaN
1153	1.000000	0.464902	7.37634e+06	-57789.1	1055.82	-29736.3	0.000000	0.000000	6.464928	0.028130	NaN	0.000000	0.001701	0.001712	28.0829	0.047703	0.002020	23.617	25.0975	13.1877	0.001856	0.463557	-0.680976	-0.682320	0.028130	23.617	-0.681869	-1.106019E+9	-2.543348E-11	NaN
1153	1.000000	0.506930	7.37634e+06	-57789.1	1055.82	-29736.3	0.000000	0.000000	6.506954	-0.007451	NaN	0.000000	0.001643	0.001719	28.0827	0.015791	0.002010	7.857342	-139.507	-163.614	0.032949	0.505593	-0.638948	-0.640285	-0.007451	7.857342	-0.638237	-2.793148E+8	2.667711E-11	NaN
1153	1.000000	0.548935	7.37634e+06	-57789.1	1055.82	-29736.3	0.000000	0.000000	6.548963	0.070754	NaN	0.000000	0.001631	0.001800	28.082	0.076619	0.002067	37.0758	9.223991	14.3808	-0.054558	0.547543	-0.596942	-0.598335	0.070754	37.0758	-0.598373	-7.907838E+7	-8.947280E-10	NaN
1153	1.000000	0.590942	7.37634e+06	-57789.1	1055.82	-29736.3	0.000000	0.000000	6.590967	-0.006451	NaN	0.000000	0.001740	0.001732	28.0816	0.072165	0.001921	37.5723	64.3297	-168.59	-0.067386	0.589646	-0.554935	-0.556232	-0.006451	37.5723	-0.554806	-1.979292E+7	3.259318E-10	NaN
1153	1.000000	0.632966	7.37634e+06	-57789.1	1055.82	-29736.3	0.000000	0.000000	6.632990	-0.022140	NaN	0.000000	0.001685	0.001798	28.0816	0.103237	0.001994	51.7753	160.02	12.6331	-0.003465	0.631585	-0.512912	-0.514293	-0.022140	51.7753	-0.512591	-5.1345e+06	4.311926E-9	NaN
1153	1.000000	0.674957	7.37634e+06	-57789.1	1055.82	-29736.3	0.000000	0.000000	6.674980	-0.039864	NaN	0.000000	0.001727	0.001746	28.0829	0.049379	0.001992	24.7839	148.145	-167.498	-0.040947	0.673625	-0.470920	-0.472253	-0.039864	24.7839	-0.469714	-1.2924e+06	3.084522E-8	NaN
1153	1.000000	0.717001	7.37634e+06	-57789.1	1055.82	-29736.3	0.000000	0.000000	6.717023	-0.069019	NaN	0.000000	0.001615	0.001728	28.083	0.024447	0.002058	11.8807	-25.0323	13.7453	-0.107982	0.715693	-0.428877	-0.430184	-0.069019	11.8807	-0.424520	-298183	2.314644E-7	NaN
1153	1.000000	0.759012	7.37634e+06	-57789.1	1055.82	-29736.3	0.000000	0.000000	6.759037	-0.000723	NaN	0.000000	0.001600	0.001682	28.083	0.043044	0.002040	21.0991	21.4376	-167.554	0.005710	0.757723	-0.386865	-0.388155	-0.000723	21.0991	-0.386840	-86683.6	8.335888E-9	NaN
1153	1.000000	0.801044	7.37634e+06	-57789.1	1055.82	-29736.3	0.000000	0.000000	6.801068	-0.031857	NaN	0.000000	0.001580	0.001729	28.0818	0.050129	0.001981	25.3093	-157.596	14.7305	-0.023424	0.799709	-0.344833	-0.346169	-0.031857	25.3093	-0.343889	-20806.6	1.531094E-6	NaN
1153	1.000000	0.843058	7.37634e+06	-57789.1	1055.82	-29736.3	0.000000	0.000000	6.843082	-0.024633	NaN	0.000000	0.001589	0.001751	28.0818	0.058231	0.002038	28.5693	-94.9585	-166.893	0.020727	0.841811	-0.302820	-0.304067	-0.024633	28.5693	-0.302173	-5069.46	4.859175E-6	NaN
1153	1.000000	0.885104	7.37634e+06	-57789.1	1055.82	-29736.3	0.000000	0.000000	6.885128	-0.014929	NaN	0.000000	0.001612	0.001789	28.0819	0.012348	0.001945	6.349027	0.333694	17.2293	0.056842	0.883684	-0.260774	-0.262194	-0.014929	6.349027	-0.259011	-1131.74	1.319132E-5	NaN
1153	1.000000	0.927103	7.37634e+06	-57789.1	1055.82	-29736.3	0.000000	0.000000	6.927125	-0.046938	NaN	0.000000	0.001564	0.001745	28.083	0.056299	0.002062	27.3089	-17.0672	-166.817	0.028535	0.925822	-0.218775	-0.220056	-0.046938	27.3089	-0.217486	-253.183	0.000185	NaN
1153	1.000000	0.969097	7.37634e+06	-57789.1	1055.82	-29736.3	0.000000	0.000000	6.969121	-0.017009	NaN	0.000000	0.001598	0.001733	28.0831	0.050133	0.002013	24.9055	-92.0154	15.1418	-0.044726	0.967796	-0.176780	-0.178082	-0.017009	24.9055	-0.176268	-52.6919	0.000323	NaN
1153	1.000000	1.011123	7.37634e+06	-57789.1	1055.82	-29736.3	0.000000	0.000000	7.011148	-0.007919	NaN	0.000000	0.001608	0.001704	28.0832	0.078361	0.002004	39.1115	-123.524	-164.433	-0.011919	1.009800	-0.134754	-0.136078	-0.007919	39.1115	-0.134602	-9.347492	0.000847	NaN
1153	1.000000	1.053153	7.37634e+06	-57789.1	1055.82	-29736.3	0.000000	0.000000	7.053179	0.030990	NaN	0.000000	0.001585	0.001781	28.0832	0.063587	0.001955	32.5258	148.149	14.0226	0.056793	1.051810	-0.092724	-0.094067	0.030990	32.5258	-0.093439	-1.299234	-0.023852	NaN
1153	1.000000	1.095131	7.37634e+06	-57789.1	1055.82	-29736.3	0.000000	0.000000	7.095154	-0.037033	NaN	0.000000	0.001653	0.001747	28.0819	0.116867	0.001996	58.5597	95.0138	-167.456	-0.031498	1.093860	-0.050747	-0.052018	-0.037033	58.5597	-0.050272	-0.092998	0.398209	NaN
1153	1.000000	1.137182	7.37634e+06	-57789.1	1055.82	-29736.3	0.000000	0.000000	7.137209	0.048639	NaN	0.000000	0.001612	0.001702	28.082	0.053313	0.002025	26.33	173.429	14.5624	0.028604	1.135783	-0.008695	-0.010095	0.048639	26.33	-0.010081	-0.006433	-7.560322	NaN
1153	2.000000	1.159795	7.37634e+06	-57789.1	1055.82	-29736.3	0.000000	0.000000	7.160399	14.056	NaN	0.000000	0.001629	0.001753	28.0817	14.5445	0.001656	8785.11	6.491602	-175.478	14.7641	1.159510	0.013918	0.013632	14.056	8785.11	0.012718	0.012361	1137.09	72191.8
1153	2.000000	1.170233	7.37634e+06	-57789.1	1055.82	-29736.3	0.000000	0.000000	7.171866	39.0911	NaN	0.000000	0.001667	0.001734	28.0831	26.1755	0.001795	14581.6	6.608691	0.708585	38.8612	1.169863	0.024355	0.023986	39.0911	14581.6	0.022345	0.026361	1482.91	82053.3
1153	2.000000	1.180725	7.37634e+06	-57789.1	1055.82	-29736.3	0.000000	0.000000	7.183379	63.9107	NaN	0.000000	0.001640	0.001768	28.0832	36.0067	0.001900	18955.1	7.672069	176.622	63.2295	1.180368	0.034847	0.034490	63.9107	18955.1	0.032318	0.045686	1398.91	81022.8
1153	2.000000	1.191125	7.37634e+06	-57789.1	1055.82	-29736.3	0.000000	0.000000	7.195265	100.015	NaN	0.000000	0.001621	0.001740	28.0834	45.3428	0.001834	24727.5	6.002495	-3.870074	97.0225	1.190830	0.045247	0.044952	100.015	24727.5	0.042214	0.069875	1431.35	85465.9
1153	2.000000	1.201699	7.37634e+06	-57789.1	1055.82	-29736.3	0.000000	0.000000	7.207326	136.155	NaN	0.000000	0.001647	0.001738	28.0821	56.3918	0.001820	30979.7	6.348176	172.912	135.682	1.201383	0.055822	0.055506	136.155	30979.7	0.052525	0.100378	1356.42	89336.8
1153	2.000000	1.212209	7.37634e+06	-57789.1	1055.82	-29736.3	0.000000	0.000000	7.219911	186.59	NaN	0.000000	0.001643	0.001700	28.0817	65.4646	0.001894	34562.8	6.263256	-6.355124	187.35	1.211802	0.066332	0.065925	186.59	34562.8	0.062283	0.134121	1391.2	86225.2
1153	2.000000	1.222661	7.37634e+06	-57789.1	1055.82	-29736.3	0.000000	0.000000	7.232539	239.472	NaN	0.000000	0.001649	0.001738	28.0818	74.935	0.001880	39862.2	3.136646	174.806	239.004	1.222321	0.076783	0.076443	239.472	39862.2	0.072278	0.173476	1380.43	87440.8
1153	2.000000	1.233113	7.37634e+06	-57789.1	1055.82	-29736.3	0.000000	0.000000	7.244956	287.231	NaN	0.000000	0.001653	0.001673	28.0829	84.9692	0.001806	47058.2	5.803891	-9.469967	282.385	1.232767	0.087235	0.086890	287.231	47058.2	0.082657	0.219352	1309.45	91799
1153	2.000000	1.243563	7.37634e+06	-57789.1	1055.82	-29736.3	0.000000	0.000000	7.258549	363.623	NaN	0.000000	0.001655	0.001752	28.0832	93.6055	0.001785	52429.8	2.951625	173.129	358.445	1.243191	0.097685	0.097314	363.623	52429.8	0.092484	0.267391	1359.89	92635.5
1153	2.000000	1.251718	7.37634e+06	-57789.1	1055.82	-29736.3	0.000000	0.000000	7.268695	412.014	NaN	0.000000	0.001648	0.001715	28.0831	101.765	0.001903	53476	7.104589	169.541	413.989	1.251293	0.105840	0.105416	412.014	53476	0.100062	0.307456	1340.07	88113.2