File: remote_trans/data/nanoindenter/0828-1/data/Data_2025-08-06,11h17m57s/2025-07-22_16-23-58_1_421.txt
2025-07-22, 16:23:58, 1
Index	Phase	Displacement	Time	Pos X	Pos Y	Pos Z	Rot A	Rot B	Piezo Z	Force A	Force B	Gripper	Voltage A	Voltage B	Temperature	Amplitude force	Amplitude pos	Stiffness	Phase shift	Phase excitation	Force A raw	Displacement raw	HMax	HMax raw	Real Force	Real Stiffness	Contact Depth	Area	Hardness	Reduced Mod.
[#]	[#]	[um]	[s]	[um]	[um]	[um]	[m°]	[m°]	[um]	[uN]	[uN]	[V]	[V]	[V]	[°C]	[uN]	[um]	[N/m]	[°]	[°]	[uN]	[um]	[um]	[um]	[uN]	[N/m]	[um]	[um^2]	[MPa]	[MPa]
421	1.000000	0.003054	7.36918e+06	-56039.1	1005.82	-29740.2	0.000000	0.000000	6.002791	0.050808	NaN	0.000000	0.001687	0.001652	28.0794	0.056387	0.000860	65.5859	-59.2101	-167.716	-0.022491	0.001836	-1.082024	-1.083243	0.050808	65.5859	-1.082605	-2.927593E+14	-1.735480E-16	NaN
421	1.000000	0.043020	7.36918e+06	-56039.1	1005.82	-29740.2	0.000000	0.000000	6.042757	0.061211	NaN	0.000000	0.001667	0.001640	28.0791	0.020384	0.001939	10.514	20.995	-165.419	0.002996	0.041695	-1.042059	-1.043383	0.061211	10.514	-1.046425	-9.557831E+13	-6.404303E-16	NaN
421	1.000000	0.083037	7.36918e+06	-56039.1	1005.82	-29740.2	0.000000	0.000000	6.082772	0.011023	NaN	0.000000	0.001611	0.001671	28.0791	0.121514	0.001964	61.8754	-158.993	-164.74	-0.072165	0.081714	-1.002042	-1.003365	0.011023	61.8754	-1.002175	-2.426908E+13	-4.541978E-16	NaN
421	1.000000	0.123021	7.36918e+06	-56039.1	1005.82	-29740.2	0.000000	0.000000	6.122756	0.002452	NaN	0.000000	0.001641	0.001631	28.0802	0.073401	0.001970	37.2681	-31.3181	-165.125	0.001818	0.121692	-0.962057	-0.963386	0.002452	37.2681	-0.962107	-7.002805E+12	-3.501562E-16	NaN
421	1.000000	0.163066	7.36918e+06	-56039.1	1005.82	-29740.2	0.000000	0.000000	6.162800	-0.038363	NaN	0.000000	0.001622	0.001648	28.0801	0.069324	0.002067	33.5368	117.928	-167.059	-0.075115	0.161735	-0.922012	-0.923344	-0.038363	33.5368	-0.921154	-1.962410E+12	1.954881E-14	NaN
421	1.000000	0.203066	7.36918e+06	-56039.1	1005.82	-29740.2	0.000000	0.000000	6.202799	-0.048955	NaN	0.000000	0.001633	0.001627	28.0801	0.134106	0.001889	71.0015	-23.2487	-165.5	0.004536	0.201746	-0.882012	-0.883333	-0.048955	71.0015	-0.881495	-5.713858E+11	8.567734E-14	NaN
421	1.000000	0.243107	7.36918e+06	-56039.1	1005.82	-29740.2	0.000000	0.000000	6.242842	-0.012175	NaN	0.000000	0.001644	0.001636	28.0788	0.107711	0.001917	56.2016	38.2817	-164.297	-0.019941	0.241760	-0.841971	-0.843318	-0.012175	56.2016	-0.841809	-1.658805E+11	7.339880E-14	NaN
421	1.000000	0.283093	7.36918e+06	-56039.1	1005.82	-29740.2	0.000000	0.000000	6.282829	0.022062	NaN	0.000000	0.001629	0.001628	28.0789	0.059785	0.001888	31.659	130.853	-165.117	0.033624	0.281770	-0.801985	-0.803308	0.022062	31.659	-0.802508	-4.862978E+10	-4.536709E-13	NaN
421	1.000000	0.323131	7.36918e+06	-56039.1	1005.82	-29740.2	0.000000	0.000000	6.322867	0.023811	NaN	0.000000	0.001643	0.001643	28.0789	0.054179	0.002166	25.0117	-161.635	-165.304	0.037364	0.321828	-0.761948	-0.763251	0.023811	25.0117	-0.762662	-1.398012E+10	-1.703223E-12	NaN
421	1.000000	0.363134	7.36918e+06	-56039.1	1005.82	-29740.2	0.000000	0.000000	6.362865	-0.077291	NaN	0.000000	0.001616	0.001692	28.0789	0.044863	0.001957	22.93	-175.885	-167.685	-0.064629	0.361836	-0.721945	-0.723242	-0.077291	22.93	-0.719417	-3.601798E+9	2.145891E-11	NaN
421	1.000000	0.403165	7.36918e+06	-56039.1	1005.82	-29740.2	0.000000	0.000000	6.402902	0.062021	NaN	0.000000	0.001635	0.001654	28.08	0.067410	0.002100	32.1019	-5.983936	-165.175	0.032572	0.401865	-0.681914	-0.683214	0.062021	32.1019	-0.683363	-1.159280E+9	-5.349931E-11	NaN
421	1.000000	0.443216	7.36918e+06	-56039.1	1005.82	-29740.2	0.000000	0.000000	6.442955	0.099261	NaN	0.000000	0.001666	0.001687	28.0804	0.059909	0.001871	32.0117	-140.067	-162.665	0.161654	0.441840	-0.641862	-0.643238	0.099261	32.0117	-0.644188	-3.370856E+8	-2.944694E-10	NaN
421	1.000000	0.483199	7.36918e+06	-56039.1	1005.82	-29740.2	0.000000	0.000000	6.482935	0.021291	NaN	0.000000	0.001766	0.001607	28.0804	0.066973	0.002034	32.9226	44.5619	-165.481	0.075407	0.481924	-0.601879	-0.603154	0.021291	32.9226	-0.602364	-8.974708E+7	-2.372355E-10	NaN
421	1.000000	0.523211	7.36918e+06	-56039.1	1005.82	-29740.2	0.000000	0.000000	6.522945	-0.036805	NaN	0.000000	0.001754	0.001670	28.0788	0.038431	0.001989	19.3218	-151.457	-162.292	-0.064857	0.521929	-0.561867	-0.563149	-0.036805	19.3218	-0.560439	-2.368349E+7	1.554044E-9	NaN
421	1.000000	0.563230	7.36918e+06	-56039.1	1005.82	-29740.2	0.000000	0.000000	6.562965	-0.004014	NaN	0.000000	0.001744	0.001669	28.079	0.071025	0.001934	36.7289	-164.849	-167.383	0.075894	0.561936	-0.521849	-0.523142	-0.004014	36.7289	-0.521767	-6.88914e+06	5.826269E-10	NaN
421	1.000000	0.603210	7.36918e+06	-56039.1	1005.82	-29740.2	0.000000	0.000000	6.602943	-0.057039	NaN	0.000000	0.001664	0.001726	28.0787	0.059368	0.002042	29.0795	62.5697	-165.782	-0.052291	0.601972	-0.481868	-0.483107	-0.057039	29.0795	-0.480397	-1.82426e+06	3.126708E-8	NaN
421	1.000000	0.643244	7.36918e+06	-56039.1	1005.82	-29740.2	0.000000	0.000000	6.642977	-0.040519	NaN	0.000000	0.001658	0.001655	28.0789	0.134145	0.001998	67.1482	90.0432	-163.22	-0.068388	0.641945	-0.441835	-0.443134	-0.040519	67.1482	-0.441382	-516258	7.848523E-8	NaN
421	1.000000	0.683267	7.36918e+06	-56039.1	1005.82	-29740.2	0.000000	0.000000	6.683001	-0.010968	NaN	0.000000	0.001655	0.001651	28.0802	0.050751	0.001902	26.6761	-158.921	-163.605	-0.040835	0.681985	-0.401812	-0.403094	-0.010968	26.6761	-0.401503	-140420	7.810937E-8	NaN
421	1.000000	0.723288	7.36918e+06	-56039.1	1005.82	-29740.2	0.000000	0.000000	6.723026	0.069044	NaN	0.000000	0.001623	0.001665	28.0803	0.051804	0.001976	26.21	65.0158	-162.425	0.047785	0.722002	-0.361790	-0.363077	0.069044	26.21	-0.363766	-40387.3	-1.709543E-6	NaN
421	1.000000	0.763345	7.36918e+06	-56039.1	1005.82	-29740.2	0.000000	0.000000	6.763080	0.010451	NaN	0.000000	0.001654	0.001634	28.0804	0.068937	0.001939	35.5618	22.8983	-164.018	0.059130	0.762028	-0.321734	-0.323050	0.010451	35.5618	-0.321954	-9940.04	-1.051420E-6	NaN
421	1.000000	0.803321	7.36918e+06	-56039.1	1005.82	-29740.2	0.000000	0.000000	6.803054	-0.038266	NaN	0.000000	0.001651	0.001646	28.079	0.029596	0.002049	14.4442	-57.4013	-164.094	0.006465	0.802023	-0.281757	-0.283056	-0.038266	14.4442	-0.279770	-2341.57	1.634199E-5	NaN
421	1.000000	0.843330	7.36918e+06	-56039.1	1005.82	-29740.2	0.000000	0.000000	6.843063	-0.038318	NaN	0.000000	0.001631	0.001672	28.079	0.020662	0.002039	10.133	80.764	-166.163	-0.055552	0.842029	-0.241749	-0.243049	-0.038318	10.133	-0.238913	-552.787	6.931720E-5	NaN
421	1.000000	0.883338	7.36918e+06	-56039.1	1005.82	-29740.2	0.000000	0.000000	6.883077	0.100017	NaN	0.000000	0.001641	0.001672	28.079	0.092203	0.002074	44.4487	105.22	-166.749	-0.015531	0.882046	-0.201740	-0.203032	0.100017	44.4487	-0.203428	-149.929	-0.000667	NaN
421	1.000000	0.923380	7.36918e+06	-56039.1	1005.82	-29740.2	0.000000	0.000000	6.923117	0.045002	NaN	0.000000	0.001680	0.001704	28.0802	0.028872	0.002024	14.2672	159.401	-165.276	0.062422	0.922106	-0.161699	-0.162973	0.045002	14.2672	-0.164064	-32.3487	-0.001391	NaN
421	1.000000	0.963389	7.36918e+06	-56039.1	1005.82	-29740.2	0.000000	0.000000	6.963122	-0.047898	NaN	0.000000	0.001644	0.001700	28.0802	0.082196	0.002058	39.9313	34.5211	-165.849	-0.000543	0.962149	-0.121689	-0.122929	-0.047898	39.9313	-0.120790	-5.011787	0.009557	NaN
421	1.000000	1.003442	7.36918e+06	-56039.1	1005.82	-29740.2	0.000000	0.000000	7.003176	-0.028564	NaN	0.000000	0.001658	0.001668	28.0803	0.074236	0.002056	36.1046	105.623	-164.091	-0.053468	1.002103	-0.081636	-0.082976	-0.028564	36.1046	-0.081043	-0.657171	0.043466	NaN
421	1.000000	1.043419	7.36918e+06	-56039.1	1005.82	-29740.2	0.000000	0.000000	7.043157	0.076749	NaN	0.000000	0.001695	0.001697	28.0805	0.071846	0.002084	34.4695	-173.502	-165.254	0.085259	1.042144	-0.041660	-0.042934	0.076749	34.4695	-0.043329	-0.057135	-1.343292	NaN
421	1.000000	1.083448	7.36918e+06	-56039.1	1005.82	-29740.2	0.000000	0.000000	7.083187	0.105277	NaN	0.000000	0.001654	0.001655	28.0798	0.089259	0.002054	43.4522	-44.0117	-164.667	0.039534	1.082164	-0.001631	-0.002914	0.105277	43.4522	-0.003448	-0.002418	-43.5405	NaN
421	2.000000	1.101010	7.36918e+06	-56039.1	1005.82	-29740.2	0.000000	0.000000	7.101454	17.2426	NaN	0.000000	0.001653	0.001660	28.0793	16.2194	0.001769	9167.8	5.493509	-174.087	15.8312	1.100709	0.015932	0.015630	17.2426	9167.8	0.014521	0.014652	1176.82	69197.6
421	2.000000	1.110981	7.36918e+06	-56039.1	1005.82	-29740.2	0.000000	0.000000	7.112266	37.6723	NaN	0.000000	0.001648	0.001674	28.0796	25.586	0.001852	13815.4	4.751128	-176.936	36.3086	1.110631	0.025902	0.025552	37.6723	13815.4	0.023857	0.028969	1300.42	74159.8
421	2.000000	1.120930	7.36918e+06	-56039.1	1005.82	-29740.2	0.000000	0.000000	7.123439	67.4511	NaN	0.000000	0.001691	0.001645	28.0805	35.3596	0.001686	20975.1	6.035713	178.444	65.5765	1.120590	0.035851	0.035512	67.4511	20975.1	0.033439	0.048175	1400.14	87311
421	2.000000	1.130959	7.36918e+06	-56039.1	1005.82	-29740.2	0.000000	0.000000	7.135065	106.257	NaN	0.000000	0.001721	0.001705	28.0804	45.3636	0.001755	25843.3	3.857450	177.973	105.564	1.130743	0.045881	0.045665	106.257	25843.3	0.042797	0.071456	1487.02	88328.6
421	2.000000	1.140938	7.36918e+06	-56039.1	1005.82	-29740.2	0.000000	0.000000	7.146897	151.31	NaN	0.000000	0.001673	0.001694	28.0802	55.7168	0.001868	29821.6	3.196605	177.457	149.395	1.140741	0.055859	0.055662	151.31	29821.6	0.052054	0.098866	1530.45	86652.3
421	2.000000	1.150987	7.36918e+06	-56039.1	1005.82	-29740.2	0.000000	0.000000	7.159062	202.72	NaN	0.000000	0.001740	0.001689	28.0803	63.7627	0.001704	37408.7	3.851046	174.989	205.386	1.150630	0.065909	0.065551	202.72	37408.7	0.061844	0.132504	1529.91	93892.3
421	2.000000	1.160918	7.36918e+06	-56039.1	1005.82	-29740.2	0.000000	0.000000	7.170966	250.692	NaN	0.000000	0.001743	0.001667	28.0791	72.5229	0.001788	40551.8	3.277914	174.972	248.199	1.160800	0.075840	0.075721	250.692	40551.8	0.071203	0.169016	1483.24	90119.5
421	2.000000	1.170812	7.36918e+06	-56039.1	1005.82	-29740.2	0.000000	0.000000	7.183567	316.494	NaN	0.000000	0.001725	0.001668	28.079	82.6401	0.001879	43979	4.008197	173.774	310.452	1.170580	0.085733	0.085501	316.494	43979	0.080336	0.208656	1516.82	87963.6
421	2.000000	1.180890	7.36918e+06	-56039.1	1005.82	-29740.2	0.000000	0.000000	7.196123	376.726	NaN	0.000000	0.001720	0.001698	28.079	91.7033	0.001825	50249.8	1.821569	175.355	375.311	1.180697	0.095811	0.095618	376.726	50249.8	0.090188	0.255772	1472.89	90778
421	2.000000	1.190874	7.36918e+06	-56039.1	1005.82	-29740.2	0.000000	0.000000	7.209387	456.443	NaN	0.000000	0.001667	0.001652	28.08	100.6	0.001814	55458.7	3.514516	173.295	456.672	1.190635	0.105796	0.105557	456.443	55458.7	0.099623	0.305066	1496.21	91737.4
421	2.000000	1.191919	7.36918e+06	-56039.1	1005.82	-29740.2	0.000000	0.000000	7.210803	465.46	NaN	0.000000	0.001661	0.001659	28.0803	100.88	0.001811	55716.7	3.901960	173.111	466.9	1.191509	0.106841	0.106430	465.46	55716.7	0.100575	0.310266	1500.2	91388.5