File: remote_trans/data/nanoindenter/0828-1/data/Data_2025-08-06,11h17m57s/2025-07-22_16-23-58_1_1158.txt
2025-07-22, 16:23:58, 1
Index	Phase	Displacement	Time	Pos X	Pos Y	Pos Z	Rot A	Rot B	Piezo Z	Force A	Force B	Gripper	Voltage A	Voltage B	Temperature	Amplitude force	Amplitude pos	Stiffness	Phase shift	Phase excitation	Force A raw	Displacement raw	HMax	HMax raw	Real Force	Real Stiffness	Contact Depth	Area	Hardness	Reduced Mod.
[#]	[#]	[um]	[s]	[um]	[um]	[um]	[m°]	[m°]	[um]	[uN]	[uN]	[V]	[V]	[V]	[°C]	[uN]	[um]	[N/m]	[°]	[°]	[uN]	[um]	[um]	[um]	[uN]	[N/m]	[um]	[um^2]	[MPa]	[MPa]
1158	1.000000	0.002683	7.37638e+06	-57689.1	1105.82	-29736.5	0.000000	0.000000	6.002817	-0.050054	NaN	0.000000	0.001652	0.001648	28.0834	0.065135	0.000993	65.6213	38.1622	-157.684	-0.018250	0.001352	-1.027597	-1.028928	-0.050054	65.6213	-1.027025	-5.241647E+13	9.549299E-16	NaN
1158	1.000000	0.042623	7.37638e+06	-57689.1	1105.82	-29736.5	0.000000	0.000000	6.042757	-0.047919	NaN	0.000000	0.001621	0.001662	28.0839	0.080067	0.001842	43.4621	94.7325	-165.561	-0.026609	0.041350	-0.987657	-0.988930	-0.047919	43.4621	-0.986830	-1.508059E+13	3.177520E-15	NaN
1158	1.000000	0.082614	7.37638e+06	-57689.1	1105.82	-29736.5	0.000000	0.000000	6.082750	-0.021983	NaN	0.000000	0.001650	0.001653	28.0834	0.098328	0.001957	50.243	-139.912	-167.364	-0.057025	0.081299	-0.947666	-0.948981	-0.021983	50.243	-0.947337	-4.427072E+12	4.965675E-15	NaN
1158	1.000000	0.122644	7.37638e+06	-57689.1	1105.82	-29736.5	0.000000	0.000000	6.122780	-0.020973	NaN	0.000000	0.001647	0.001676	28.082	0.038509	0.002063	18.6678	-30.5108	-165.799	-0.017710	0.121374	-0.907636	-0.908906	-0.020973	18.6678	-0.906793	-1.255580E+12	1.670396E-14	NaN
1158	1.000000	0.162644	7.37638e+06	-57689.1	1105.82	-29736.5	0.000000	0.000000	6.162780	-0.022550	NaN	0.000000	0.001673	0.001667	28.082	0.088371	0.002017	43.8065	7.309782	-167.539	0.006995	0.161328	-0.867636	-0.868952	-0.022550	43.8065	-0.867249	-3.666302E+11	6.150621E-14	NaN
1158	1.000000	0.202686	7.37638e+06	-57689.1	1105.82	-29736.5	0.000000	0.000000	6.202825	0.062208	NaN	0.000000	0.001691	0.001679	28.082	0.043102	0.002091	20.6167	-153.491	-162.258	0.039736	0.201377	-0.827594	-0.828903	0.062208	20.6167	-0.829857	-1.142457E+11	-5.445088E-13	NaN
1158	1.000000	0.242697	7.37638e+06	-57689.1	1105.82	-29736.5	0.000000	0.000000	6.242832	-0.034440	NaN	0.000000	0.001587	0.001599	28.0831	0.041243	0.002037	20.2516	-123.796	-168.033	-0.027192	0.241400	-0.787583	-0.788880	-0.034440	20.2516	-0.786307	-2.930371E+10	1.175288E-12	NaN
1158	1.000000	0.282695	7.37638e+06	-57689.1	1105.82	-29736.5	0.000000	0.000000	6.282829	-0.058137	NaN	0.000000	0.001705	0.001604	28.0829	0.053190	0.002073	25.6642	-4.232489	-167.89	0.028317	0.281403	-0.747585	-0.748877	-0.058137	25.6642	-0.745886	-8.264464E+9	7.034529E-12	NaN
1158	1.000000	0.322709	7.37638e+06	-57689.1	1105.82	-29736.5	0.000000	0.000000	6.322845	-0.003956	NaN	0.000000	0.001611	0.001603	28.0827	0.049317	0.001897	25.9948	-114.452	-164.507	-0.075507	0.321393	-0.707571	-0.708887	-0.003956	25.9948	-0.707457	-2.473690E+9	1.599181E-12	NaN
1158	1.000000	0.362747	7.37638e+06	-57689.1	1105.82	-29736.5	0.000000	0.000000	6.362882	-0.027777	NaN	0.000000	0.001649	0.001573	28.0826	0.043099	0.001968	21.8947	66.7727	-166.184	0.023126	0.361404	-0.667533	-0.668876	-0.027777	21.8947	-0.666581	-6.832735E+8	4.065230E-11	NaN
1158	1.000000	0.402777	7.37638e+06	-57689.1	1105.82	-29736.5	0.000000	0.000000	6.402913	0.000372	NaN	0.000000	0.001639	0.001582	28.0815	0.020692	0.002118	9.767472	-105.126	-165.745	0.028586	0.401419	-0.627503	-0.628861	0.000372	9.767472	-0.627532	-1.991235E+8	-1.865724E-12	NaN
1158	1.000000	0.442767	7.37638e+06	-57689.1	1105.82	-29736.5	0.000000	0.000000	6.442904	0.013501	NaN	0.000000	0.001636	0.001587	28.0814	0.044848	0.002074	21.6221	28.5101	-166.992	0.058569	0.441440	-0.587513	-0.588840	0.013501	21.6221	-0.587981	-5.686275E+7	-2.374334E-10	NaN
1158	1.000000	0.482791	7.37638e+06	-57689.1	1105.82	-29736.5	0.000000	0.000000	6.482928	0.016629	NaN	0.000000	0.001617	0.001571	28.0815	0.062449	0.002027	30.8092	131.05	-165.475	-0.032084	0.481443	-0.547489	-0.548837	0.016629	30.8092	-0.547894	-1.587757E+7	-1.047331E-9	NaN
1158	1.000000	0.522800	7.37638e+06	-57689.1	1105.82	-29736.5	0.000000	0.000000	6.522936	0.002134	NaN	0.000000	0.001661	0.001625	28.0826	0.106792	0.001893	56.421	-170.913	-168.113	-0.011872	0.521489	-0.507480	-0.508791	0.002134	56.421	-0.507508	-4.36217e+06	-4.891882E-10	NaN
1158	1.000000	0.562820	7.37638e+06	-57689.1	1105.82	-29736.5	0.000000	0.000000	6.562956	-0.008876	NaN	0.000000	0.001641	0.001630	28.0825	0.131348	0.001969	66.7204	-27.9076	-167.837	0.027327	0.561468	-0.467460	-0.468812	-0.008876	66.7204	-0.467360	-1.19777e+06	7.410405E-9	NaN
1158	1.000000	0.602813	7.37638e+06	-57689.1	1105.82	-29736.5	0.000000	0.000000	6.602951	0.054849	NaN	0.000000	0.001666	0.001694	28.0827	0.025513	0.002083	12.2498	-88.8479	-164.131	-0.010409	0.601557	-0.427467	-0.428723	0.054849	12.2498	-0.430825	-366214	-1.497731E-7	NaN
1158	1.000000	0.642866	7.37638e+06	-57689.1	1105.82	-29736.5	0.000000	0.000000	6.643000	-0.040016	NaN	0.000000	0.001644	0.001667	28.0826	0.081901	0.001939	42.2482	99.6311	-166.525	-0.070415	0.641523	-0.387414	-0.388757	-0.040016	42.2482	-0.386704	-86296	4.637089E-7	NaN
1158	1.000000	0.682900	7.37638e+06	-57689.1	1105.82	-29736.5	0.000000	0.000000	6.683036	0.006355	NaN	0.000000	0.001671	0.001690	28.0813	0.096804	0.001945	49.7718	-11.4127	-166.518	-0.031254	0.681591	-0.347380	-0.348689	0.006355	49.7718	-0.347476	-23461.3	-2.708920E-7	NaN
1158	1.000000	0.722901	7.37638e+06	-57689.1	1105.82	-29736.5	0.000000	0.000000	6.723038	-0.002206	NaN	0.000000	0.001630	0.001650	28.0814	0.039569	0.002145	18.4497	166.701	-162.933	-0.025892	0.721615	-0.307379	-0.308665	-0.002206	18.4497	-0.307289	-6038.15	3.653284E-7	NaN
1158	1.000000	0.762900	7.37638e+06	-57689.1	1105.82	-29736.5	0.000000	0.000000	6.763033	-0.069135	NaN	0.000000	0.001655	0.001658	28.0813	0.153607	0.002093	73.3862	109.061	-164.761	-0.003096	0.761585	-0.267380	-0.268695	-0.069135	73.3862	-0.266673	-1482.21	4.664345E-5	NaN
1158	1.000000	0.802931	7.37638e+06	-57689.1	1105.82	-29736.5	0.000000	0.000000	6.803066	-0.009658	NaN	0.000000	0.001655	0.001680	28.0829	0.020331	0.002021	10.0604	145.938	-163.64	-0.060780	0.801628	-0.227349	-0.228652	-0.009658	10.0604	-0.226629	-354.152	2.726968E-5	NaN
1158	1.000000	0.842953	7.37638e+06	-57689.1	1105.82	-29736.5	0.000000	0.000000	6.843090	0.027461	NaN	0.000000	0.001645	0.001720	28.0831	0.012653	0.001986	6.370610	82.0924	-166.304	-0.082916	0.841638	-0.187327	-0.188642	0.027461	6.370610	-0.190560	-91.9139	-0.000299	NaN
1158	1.000000	0.882930	7.37638e+06	-57689.1	1105.82	-29736.5	0.000000	0.000000	6.883067	0.028173	NaN	0.000000	0.001619	0.001678	28.0835	0.091195	0.001955	46.6557	-6.801926	-167.249	0.004149	0.881624	-0.147350	-0.148656	0.028173	46.6557	-0.147803	-16.5127	-0.001706	NaN
1158	1.000000	0.922946	7.37638e+06	-57689.1	1105.82	-29736.5	0.000000	0.000000	6.923081	-0.044178	NaN	0.000000	0.001674	0.001667	28.0817	0.040462	0.001983	20.4094	142.251	-168.554	-0.040351	0.921659	-0.107334	-0.108621	-0.044178	20.4094	-0.105710	-2.434932	0.018143	NaN
1158	1.000000	0.963000	7.37638e+06	-57689.1	1105.82	-29736.5	0.000000	0.000000	6.963137	0.018036	NaN	0.000000	0.001659	0.001672	28.0819	0.046318	0.001922	24.099	156.691	-165.196	0.002576	0.961653	-0.067280	-0.068627	0.018036	24.099	-0.067841	-0.298275	-0.060468	NaN
1158	1.000000	1.002986	7.37638e+06	-57689.1	1105.82	-29736.5	0.000000	0.000000	7.003121	-0.051587	NaN	0.000000	0.001649	0.001621	28.0817	0.027658	0.001876	14.7469	-39.6443	-162.934	-0.008017	1.001692	-0.027294	-0.028588	-0.051587	14.7469	-0.024670	-0.016539	3.119059	NaN
1158	2.000000	1.040711	7.37638e+06	-57689.1	1105.82	-29736.5	0.000000	0.000000	7.041195	8.442995	NaN	0.000000	0.001617	0.001671	28.0818	7.430219	0.001680	4421.86	12.1608	-170.602	11.0728	1.040388	0.010431	0.010108	8.442995	4421.86	0.008999	0.008090	1043.58	44915.2
1158	2.000000	1.050605	7.37638e+06	-57689.1	1105.82	-29736.5	0.000000	0.000000	7.051506	18.5805	NaN	0.000000	0.001647	0.001662	28.0836	18.3123	0.001779	10295.8	6.307959	-176.551	18.1135	1.050281	0.020325	0.020001	18.5805	10295.8	0.018972	0.020952	886.8	64985.4
1158	2.000000	1.060635	7.37638e+06	-57689.1	1105.82	-29736.5	0.000000	0.000000	7.062282	36.7148	NaN	0.000000	0.001624	0.001655	28.0831	28.4968	0.001937	14711.1	6.707442	-177.713	40.7179	1.060314	0.030355	0.030034	36.7148	14711.1	0.028483	0.037658	974.944	69260.8
1158	2.000000	1.070520	7.37638e+06	-57689.1	1105.82	-29736.5	0.000000	0.000000	7.073483	68.6991	NaN	0.000000	0.001704	0.001653	28.0829	39.4305	0.001966	20054.2	6.843808	176.97	67.5979	1.070285	0.040240	0.040005	68.6991	20054.2	0.037671	0.058147	1181.47	75982.7
1158	2.000000	1.080545	7.37638e+06	-57689.1	1105.82	-29736.5	0.000000	0.000000	7.085084	107.011	NaN	0.000000	0.001621	0.001653	28.0816	49.1384	0.001973	24900.6	7.006437	175.229	106.907	1.080295	0.050265	0.050015	107.011	24900.6	0.047042	0.083489	1281.73	78735
1158	2.000000	1.090457	7.37638e+06	-57689.1	1105.82	-29736.5	0.000000	0.000000	7.097171	159.855	NaN	0.000000	0.001622	0.001648	28.0819	56.061	0.001794	31256.3	1.958532	179.585	157.427	1.090091	0.060177	0.059811	159.855	31256.3	0.056341	0.113017	1414.43	84945.2
1158	2.000000	1.100630	7.37638e+06	-57689.1	1105.82	-29736.5	0.000000	0.000000	7.110053	225.71	NaN	0.000000	0.001625	0.001607	28.0819	67.4288	0.001771	38081.5	8.813646	169.823	231.405	1.100183	0.070350	0.069903	225.71	38081.5	0.065904	0.147827	1526.85	90491.9
1158	2.000000	1.110533	7.37638e+06	-57689.1	1105.82	-29736.5	0.000000	0.000000	7.123106	302.265	NaN	0.000000	0.001630	0.001699	28.0818	76.542	0.001785	42884.3	4.316769	173.684	303.934	1.110231	0.080253	0.079951	302.265	42884.3	0.074966	0.184875	1634.97	91123.9
1158	2.000000	1.120445	7.37638e+06	-57689.1	1105.82	-29736.5	0.000000	0.000000	7.137199	403.883	NaN	0.000000	0.001617	0.001685	28.0829	85.277	0.001671	51033.1	3.644274	173.171	401.585	1.120031	0.090165	0.089751	403.883	51033.1	0.084229	0.226738	1781.28	97918.1
1158	2.000000	1.130422	7.37639e+06	-57689.1	1105.82	-29736.5	0.000000	0.000000	7.151343	505.161	NaN	0.000000	0.001670	0.001644	28.0828	94.3852	0.001776	53140.3	2.686351	173.859	502.239	1.130072	0.100142	0.099792	505.161	53140.3	0.093012	0.270098	1870.28	93419.3
1158	2.000000	1.138300	7.37639e+06	-57689.1	1105.82	-29736.5	0.000000	0.000000	7.162852	593.388	NaN	0.000000	0.001648	0.001672	28.0828	103.262	0.001833	56329.3	3.776555	172.453	582.851	1.137983	0.108020	0.107703	593.388	56329.3	0.100120	0.307772	1928.01	92766.9