File: remote_trans/data/nanoindenter/0828-1/data/Data_2025-08-06,11h17m57s/2025-07-22_16-23-58_1_1180.txt
2025-07-22, 16:23:58, 1
Index	Phase	Displacement	Time	Pos X	Pos Y	Pos Z	Rot A	Rot B	Piezo Z	Force A	Force B	Gripper	Voltage A	Voltage B	Temperature	Amplitude force	Amplitude pos	Stiffness	Phase shift	Phase excitation	Force A raw	Displacement raw	HMax	HMax raw	Real Force	Real Stiffness	Contact Depth	Area	Hardness	Reduced Mod.
[#]	[#]	[um]	[s]	[um]	[um]	[um]	[m°]	[m°]	[um]	[uN]	[uN]	[V]	[V]	[V]	[°C]	[uN]	[um]	[N/m]	[°]	[°]	[uN]	[um]	[um]	[um]	[uN]	[N/m]	[um]	[um^2]	[MPa]	[MPa]
1180	1.000000	0.002782	7.37659e+06	-56589.1	1105.82	-29738.4	0.000000	0.000000	6.002783	-0.026050	NaN	0.000000	0.001566	0.001687	28.0818	0.027423	0.000905	30.2954	-19.7633	-159.567	0.001607	0.001525	-1.094172	-1.095429	-0.026050	30.2954	-1.093527	-4.103648E+14	6.347992E-17	NaN
1180	1.000000	0.044759	7.37659e+06	-56589.1	1105.82	-29738.4	0.000000	0.000000	6.044759	-0.045402	NaN	0.000000	0.001542	0.001688	28.0824	0.027982	0.002185	12.806	-72.3763	14.0787	-0.003970	0.043350	-1.052195	-1.053604	-0.045402	12.806	-1.049536	-1.052394E+14	4.314129E-16	NaN
1180	1.000000	0.086755	7.37659e+06	-56589.1	1105.82	-29738.4	0.000000	0.000000	6.086757	-0.012605	NaN	0.000000	0.001555	0.001702	28.0834	0.055380	0.002022	27.3857	-152.58	-164.821	0.014455	0.085487	-1.010199	-1.011467	-0.012605	27.3857	-1.009854	-3.079008E+13	4.093932E-16	NaN
1180	1.000000	0.128776	7.37659e+06	-56589.1	1105.82	-29738.4	0.000000	0.000000	6.128779	0.010394	NaN	0.000000	0.001579	0.001682	28.0834	0.065288	0.002073	31.4889	-28.7485	15.8668	-0.025956	0.127449	-0.968178	-0.969505	0.010394	31.4889	-0.968425	-8.520044E+12	-1.219951E-15	NaN
1180	1.000000	0.170800	7.37659e+06	-56589.1	1105.82	-29738.4	0.000000	0.000000	6.170800	-0.064138	NaN	0.000000	0.001602	0.001689	28.0836	0.098516	0.002007	49.0814	160.494	-164.166	-0.027799	0.169462	-0.926153	-0.927492	-0.064138	49.0814	-0.925173	-2.223552E+12	2.884462E-14	NaN
1180	1.000000	0.212815	7.37659e+06	-56589.1	1105.82	-29738.4	0.000000	0.000000	6.212815	-0.074374	NaN	0.000000	0.001617	0.001637	28.0836	0.065370	0.002062	31.7025	165.854	14.2885	-0.115102	0.211460	-0.884138	-0.885494	-0.074374	31.7025	-0.882379	-5.873248E+11	1.266320E-13	NaN
1180	1.000000	0.254820	7.37659e+06	-56589.1	1105.82	-29738.4	0.000000	0.000000	6.254821	-0.016613	NaN	0.000000	0.001639	0.001652	28.0824	0.054172	0.001969	27.5153	-137.512	-163.447	-0.023722	0.253535	-0.842134	-0.843419	-0.016613	27.5153	-0.841681	-1.652227E+11	1.005484E-13	NaN
1180	1.000000	0.296833	7.37659e+06	-56589.1	1105.82	-29738.4	0.000000	0.000000	6.296832	-0.073295	NaN	0.000000	0.001593	0.001686	28.0822	0.032136	0.001934	16.6162	119.626	16.4144	-0.020154	0.295510	-0.800121	-0.801444	-0.073295	16.6162	-0.796812	-4.069964E+10	1.800873E-12	NaN
1180	1.000000	0.338843	7.37659e+06	-56589.1	1105.82	-29738.4	0.000000	0.000000	6.338847	0.048526	NaN	0.000000	0.001595	0.001657	28.0822	0.020113	0.002054	9.791433	-25.8623	-167.216	-0.021298	0.337510	-0.758111	-0.759444	0.048526	9.791433	-0.761828	-1.361976E+10	-3.562929E-12	NaN
1180	1.000000	0.380926	7.37659e+06	-56589.1	1105.82	-29738.4	0.000000	0.000000	6.380927	-0.038200	NaN	0.000000	0.001624	0.001647	28.0836	0.082151	0.001982	41.4457	-63.0378	16.3287	-0.033479	0.379520	-0.716028	-0.717433	-0.038200	41.4457	-0.715337	-3.168583E+9	1.205575E-11	NaN
1180	1.000000	0.422930	7.37659e+06	-56589.1	1105.82	-29738.4	0.000000	0.000000	6.422928	-0.087218	NaN	0.000000	0.001576	0.001670	28.0833	0.163039	0.001966	82.9418	-4.883495	-167.273	-0.087785	0.421609	-0.674024	-0.675344	-0.087218	82.9418	-0.673236	-8.426928E+8	1.034995E-10	NaN
1180	1.000000	0.464934	7.37659e+06	-56589.1	1105.82	-29738.4	0.000000	0.000000	6.464933	-0.080559	NaN	0.000000	0.001613	0.001667	28.0835	0.093287	0.001870	49.8814	106.271	17.0411	-0.047381	0.463560	-0.632020	-0.633394	-0.080559	49.8814	-0.630809	-2.208653E+8	3.647431E-10	NaN
1180	1.000000	0.506913	7.37659e+06	-56589.1	1105.82	-29738.4	0.000000	0.000000	6.506912	-0.072629	NaN	0.000000	0.001597	0.001712	28.0823	0.038380	0.001953	19.6477	-80.0589	-169.639	-0.072123	0.505687	-0.590041	-0.591267	-0.072629	19.6477	-0.587269	-5.559079E+7	1.306501E-9	NaN
1180	1.000000	0.548952	7.37659e+06	-56589.1	1105.82	-29738.4	0.000000	0.000000	6.548951	-0.072801	NaN	0.000000	0.001592	0.001772	28.0821	0.070207	0.002118	33.1514	154.337	13.2554	-0.088930	0.547605	-0.548002	-0.549349	-0.072801	33.1514	-0.546355	-1.511663E+7	4.815982E-9	NaN
1180	1.000000	0.590985	7.37659e+06	-56589.1	1105.82	-29738.4	0.000000	0.000000	6.590988	-0.001080	NaN	0.000000	0.001599	0.001762	28.0822	0.128183	0.001929	66.448	-75.3564	-159.725	0.087354	0.589686	-0.505968	-0.507268	-0.001080	66.448	-0.505956	-4.15023e+06	2.603097E-10	NaN
1180	1.000000	0.632994	7.37659e+06	-56589.1	1105.82	-29738.4	0.000000	0.000000	6.632998	0.027645	NaN	0.000000	0.001564	0.001741	28.0834	0.079015	0.001954	40.4414	-121.173	15.8494	0.009099	0.631628	-0.463960	-0.465326	0.027645	40.4414	-0.464473	-1.09104e+06	-2.533820E-8	NaN
1180	1.000000	0.675034	7.37659e+06	-56589.1	1105.82	-29738.4	0.000000	0.000000	6.675037	0.025085	NaN	0.000000	0.001582	0.001751	28.0834	0.063566	0.001897	33.51	-16.9456	-163.17	-0.048016	0.673743	-0.421920	-0.423211	0.025085	33.51	-0.422482	-278998	-8.991229E-8	NaN
1180	1.000000	0.717060	7.37659e+06	-56589.1	1105.82	-29738.4	0.000000	0.000000	6.717062	-0.024095	NaN	0.000000	0.001611	0.001748	28.0832	0.066697	0.002088	31.9483	72.3333	15.3093	-0.034390	0.715671	-0.379894	-0.381283	-0.024095	31.9483	-0.379328	-67646	3.561910E-7	NaN
1180	1.000000	0.759018	7.37659e+06	-56589.1	1105.82	-29738.4	0.000000	0.000000	6.759019	-0.037954	NaN	0.000000	0.001597	0.001752	28.0837	0.074421	0.001859	40.0278	-154.774	-166.787	0.026186	0.757755	-0.337936	-0.339199	-0.037954	40.0278	-0.337225	-16636.9	2.281296E-6	NaN
1180	1.000000	0.801124	7.37659e+06	-56589.1	1105.82	-29738.4	0.000000	0.000000	6.801127	0.012447	NaN	0.000000	0.001568	0.001702	28.0824	0.077489	0.002008	38.582	91.9366	13.0165	-0.102519	0.799686	-0.295830	-0.297267	0.012447	38.582	-0.296072	-4112.31	-3.026812E-6	NaN
1180	1.000000	0.843081	7.37659e+06	-56589.1	1105.82	-29738.4	0.000000	0.000000	6.843081	-0.060952	NaN	0.000000	0.001620	0.001764	28.0824	0.078704	0.002025	38.8623	-94.3566	-164.157	0.052915	0.841800	-0.253873	-0.255154	-0.060952	38.8623	-0.252697	-904.949	6.735385E-5	NaN
1180	1.000000	0.885104	7.37659e+06	-56589.1	1105.82	-29738.4	0.000000	0.000000	6.885106	-0.009370	NaN	0.000000	0.001567	0.001739	28.0824	0.123686	0.001999	61.8683	-138.283	15.5743	0.016125	0.883720	-0.211850	-0.213234	-0.009370	61.8683	-0.211737	-204.602	4.579706E-5	NaN
1180	1.000000	0.927089	7.37659e+06	-56589.1	1105.82	-29738.4	0.000000	0.000000	6.927091	-0.001077	NaN	0.000000	0.001577	0.001778	28.0836	0.034756	0.002149	16.1714	-124.327	-166.612	-0.053975	0.925788	-0.169865	-0.171165	-0.001077	16.1714	-0.169815	-40.7761	2.640053E-5	NaN
1180	1.000000	0.969127	7.37659e+06	-56589.1	1105.82	-29738.4	0.000000	0.000000	6.969129	-0.025417	NaN	0.000000	0.001610	0.001786	28.0836	0.050952	0.001917	26.5758	128.331	14.0393	-0.038188	0.967777	-0.127827	-0.129177	-0.025417	26.5758	-0.127109	-6.692136	0.003798	NaN
1180	1.000000	1.011144	7.37659e+06	-56589.1	1105.82	-29738.4	0.000000	0.000000	7.011145	-0.043249	NaN	0.000000	0.001603	0.001804	28.0836	0.073753	0.001874	39.3618	49.1739	-170.179	0.001204	1.009826	-0.085809	-0.087128	-0.043249	39.3618	-0.084985	-0.820964	0.052681	NaN
1180	1.000000	1.053167	7.37659e+06	-56589.1	1105.82	-29738.4	0.000000	0.000000	7.053170	0.019831	NaN	0.000000	0.001621	0.001782	28.0823	0.017044	0.001988	8.572750	41.0065	13.0879	-0.054753	1.051818	-0.043787	-0.045136	0.019831	8.572750	-0.045522	-0.066672	-0.297434	NaN
1180	1.000000	1.095146	7.37659e+06	-56589.1	1105.82	-29738.4	0.000000	0.000000	7.095163	0.355744	NaN	0.000000	0.001596	0.001740	28.0822	0.655950	0.002072	316.589	4.383029	-163.875	-0.031660	1.093883	-0.001808	-0.003071	0.355744	316.589	-0.002650	-0.001885	-188.711	NaN
1180	2.000000	1.112068	7.37659e+06	-56589.1	1105.82	-29738.4	0.000000	0.000000	7.113107	25.2072	NaN	0.000000	0.001589	0.001773	28.0819	18.7845	0.001601	11734.1	1.725871	4.484802	21.8468	1.111794	0.015114	0.014840	25.2072	11734.1	0.013503	0.013340	1889.53	92819.5
1180	2.000000	1.122579	7.37659e+06	-56589.1	1105.82	-29738.4	0.000000	0.000000	7.124833	54.7355	NaN	0.000000	0.001655	0.001764	28.0832	29.9994	0.001806	16614	5.944865	179.986	54.8534	1.122209	0.025625	0.025255	54.7355	16614	0.023154	0.027743	1972.95	91131.8
1180	2.000000	1.133081	7.3766e+06	-56589.1	1105.82	-29738.4	0.000000	0.000000	7.136594	85.3396	NaN	0.000000	0.001605	0.001743	28.0831	39.4983	0.001728	22855.7	2.956181	-0.360637	84.9918	1.132758	0.036127	0.035804	85.3396	22855.7	0.033327	0.047922	1780.81	95389.8
1180	2.000000	1.143534	7.3766e+06	-56589.1	1105.82	-29738.4	0.000000	0.000000	7.148997	132.736	NaN	0.000000	0.001533	0.001692	28.0833	49.3929	0.001627	30361.2	2.674462	176.935	132.921	1.143222	0.046580	0.046268	132.736	30361.2	0.043301	0.072838	1822.34	102781
1180	2.000000	1.154000	7.3766e+06	-56589.1	1105.82	-29738.4	0.000000	0.000000	7.161622	185.205	NaN	0.000000	0.001575	0.001706	28.0835	60.9545	0.001802	33827	3.014231	-4.272089	181.654	1.153696	0.057046	0.056742	185.205	33827	0.052939	0.101715	1820.83	96904.7
1180	2.000000	1.164565	7.3766e+06	-56589.1	1105.82	-29738.4	0.000000	0.000000	7.174852	249.958	NaN	0.000000	0.001568	0.001689	28.0831	72.2936	0.001819	39740.6	5.521706	172.104	252.24	1.164147	0.067612	0.067193	249.958	39740.6	0.062894	0.136391	1832.66	98313.8
1180	2.000000	1.174999	7.3766e+06	-56589.1	1105.82	-29738.4	0.000000	0.000000	7.188206	320.946	NaN	0.000000	0.001603	0.001690	28.0825	82.2711	0.001779	46249.8	2.967007	-7.053515	317.853	1.174815	0.078046	0.077862	320.946	46249.8	0.072841	0.175836	1825.26	100769
1180	2.000000	1.185377	7.3766e+06	-56589.1	1105.82	-29738.4	0.000000	0.000000	7.202134	407.236	NaN	0.000000	0.001599	0.001694	28.0821	93.6983	0.001857	50464.6	4.299143	171.578	400.339	1.185091	0.088423	0.088137	407.236	50464.6	0.082371	0.218020	1867.88	98744.2
1180	2.000000	1.195952	7.3766e+06	-56589.1	1105.82	-29738.4	0.000000	0.000000	7.216271	493.834	NaN	0.000000	0.001614	0.001681	28.0833	101.378	0.001804	56195.6	3.216273	-8.489362	489.982	1.195679	0.098998	0.098725	493.834	56195.6	0.092407	0.266998	1849.58	99362.2
1180	2.000000	1.202397	7.3766e+06	-56589.1	1105.82	-29738.4	0.000000	0.000000	7.225349	557.83	NaN	0.000000	0.001610	0.001670	28.0835	108.471	0.001824	59454	7.496753	166.484	552.987	1.202124	0.105443	0.105170	557.83	59454	0.098406	0.298480	1868.9	99425.3