File: remote_trans/data/nanoindenter/0828-1/data/Data_2025-08-06,11h17m57s/2025-07-22_16-23-58_1_1184.txt
2025-07-22, 16:23:58, 1
Index	Phase	Displacement	Time	Pos X	Pos Y	Pos Z	Rot A	Rot B	Piezo Z	Force A	Force B	Gripper	Voltage A	Voltage B	Temperature	Amplitude force	Amplitude pos	Stiffness	Phase shift	Phase excitation	Force A raw	Displacement raw	HMax	HMax raw	Real Force	Real Stiffness	Contact Depth	Area	Hardness	Reduced Mod.
[#]	[#]	[um]	[s]	[um]	[um]	[um]	[m°]	[m°]	[um]	[uN]	[uN]	[V]	[V]	[V]	[°C]	[uN]	[um]	[N/m]	[°]	[°]	[uN]	[um]	[um]	[um]	[uN]	[N/m]	[um]	[um^2]	[MPa]	[MPa]
1184	1.000000	0.003118	7.37663e+06	-56389.1	1105.82	-29739	0.000000	0.000000	6.002804	-0.082186	NaN	0.000000	0.001679	0.001653	28.081	0.073451	0.000966	75.9999	-73.2747	-170.255	-0.091297	0.001822	-1.011200	-1.012496	-0.082186	75.9999	-1.010389	-3.130555E+13	2.625289E-15	NaN
1184	1.000000	0.041094	7.37663e+06	-56389.1	1105.82	-29739	0.000000	0.000000	6.040783	-0.022236	NaN	0.000000	0.001683	0.001692	28.0818	0.089225	0.001976	45.1636	74.4398	14.8317	-0.021147	0.039658	-0.973224	-0.974660	-0.022236	45.1636	-0.972855	-9.775342E+12	2.274681E-15	NaN
1184	1.000000	0.079052	7.37663e+06	-56389.1	1105.82	-29739	0.000000	0.000000	6.078743	0.032094	NaN	0.000000	0.001691	0.001695	28.0823	0.073211	0.002029	36.0812	-101.872	-167.546	0.018641	0.077804	-0.935266	-0.936514	0.032094	36.0812	-0.935933	-3.106461E+12	-1.033133E-14	NaN
1184	1.000000	0.117097	7.37663e+06	-56389.1	1105.82	-29739	0.000000	0.000000	6.116786	-0.039518	NaN	0.000000	0.001692	0.001673	28.0822	0.127977	0.002075	61.6774	-154.904	12.8045	-0.026228	0.115771	-0.897221	-0.898547	-0.039518	61.6774	-0.896740	-9.183647E+11	4.303106E-14	NaN
1184	1.000000	0.155113	7.37663e+06	-56389.1	1105.82	-29739	0.000000	0.000000	6.154800	-0.089208	NaN	0.000000	0.001667	0.001655	28.082	0.038312	0.001895	20.2125	35.5297	-168.202	-0.037750	0.153805	-0.859205	-0.860513	-0.089208	20.2125	-0.855895	-2.573651E+11	3.466216E-13	NaN
1184	1.000000	0.193084	7.37663e+06	-56389.1	1105.82	-29739	0.000000	0.000000	6.192774	-0.018184	NaN	0.000000	0.001655	0.001694	28.0809	0.080285	0.002049	39.1836	148.269	16.3526	0.015497	0.191758	-0.821234	-0.822560	-0.018184	39.1836	-0.820886	-8.634215E+10	2.106064E-13	NaN
1184	1.000000	0.231111	7.37663e+06	-56389.1	1105.82	-29739	0.000000	0.000000	6.230800	-0.034038	NaN	0.000000	0.001694	0.001665	28.0809	0.061795	0.002216	27.8891	-0.661193	-168.868	-0.129839	0.229836	-0.783207	-0.784482	-0.034038	27.8891	-0.782291	-2.584448E+10	1.317033E-12	NaN
1184	1.000000	0.269132	7.37663e+06	-56389.1	1105.82	-29739	0.000000	0.000000	6.268821	-0.023854	NaN	0.000000	0.001685	0.001653	28.0804	0.060735	0.002062	29.4557	-73.611	12.8476	0.041962	0.267811	-0.745186	-0.746507	-0.023854	29.4557	-0.744579	-7.932551E+9	3.007060E-12	NaN
1184	1.000000	0.307142	7.37663e+06	-56389.1	1105.82	-29739	0.000000	0.000000	6.306831	-0.031595	NaN	0.000000	0.001662	0.001717	28.0821	0.074729	0.002023	36.9441	-62.4941	-166.975	0.000687	0.305841	-0.707176	-0.708477	-0.031595	36.9441	-0.706535	-2.402983E+9	1.314808E-11	NaN
1184	1.000000	0.345176	7.37663e+06	-56389.1	1105.82	-29739	0.000000	0.000000	6.344866	-0.014060	NaN	0.000000	0.001648	0.001656	28.0819	0.095624	0.001931	49.5191	-139.528	14.1217	-0.059149	0.343813	-0.669142	-0.670505	-0.014060	49.5191	-0.668929	-7.357507E+8	1.911012E-11	NaN
1184	1.000000	0.383200	7.37663e+06	-56389.1	1105.82	-29739	0.000000	0.000000	6.382889	-0.020118	NaN	0.000000	0.001588	0.001679	28.082	0.091018	0.001967	46.262	-119.585	-166.015	0.002697	0.381869	-0.631118	-0.632449	-0.020118	46.262	-0.630792	-2.207514E+8	9.113376E-11	NaN
1184	1.000000	0.421201	7.37663e+06	-56389.1	1105.82	-29739	0.000000	0.000000	6.420893	0.025428	NaN	0.000000	0.001607	0.001666	28.082	0.121606	0.001979	61.4457	-177.357	13.5551	0.101226	0.419844	-0.593117	-0.594474	0.025428	61.4457	-0.593427	-6.759321E+7	-3.761931E-10	NaN
1184	1.000000	0.459217	7.37663e+06	-56389.1	1105.82	-29739	0.000000	0.000000	6.458905	-0.054568	NaN	0.000000	0.001634	0.001668	28.0808	0.124845	0.001942	64.2923	-7.824011	-166.771	-0.047525	0.457911	-0.555100	-0.556407	-0.054568	64.2923	-0.554464	-1.957798E+7	2.787212E-9	NaN
1184	1.000000	0.497248	7.37663e+06	-56389.1	1105.82	-29739	0.000000	0.000000	6.496937	-0.027793	NaN	0.000000	0.001671	0.001714	28.0808	0.049327	0.002067	23.8693	109.863	15.1417	-0.029701	0.495841	-0.517070	-0.518477	-0.027793	23.8693	-0.516196	-5.76345e+06	4.822294E-9	NaN
1184	1.000000	0.535228	7.37663e+06	-56389.1	1105.82	-29739	0.000000	0.000000	6.534917	-0.023348	NaN	0.000000	0.001664	0.001681	28.081	0.083165	0.002124	39.1605	120.224	-164.434	0.000214	0.534007	-0.479090	-0.480311	-0.023348	39.1605	-0.478643	-1.72394e+06	1.354362E-8	NaN
1184	1.000000	0.573280	7.37663e+06	-56389.1	1105.82	-29739	0.000000	0.000000	6.572970	0.007523	NaN	0.000000	0.001656	0.001677	28.0812	0.083144	0.002092	39.7411	96.3943	12.6426	0.023162	0.571889	-0.441038	-0.442429	0.007523	39.7411	-0.441180	-512883	-1.466774E-8	NaN
1184	1.000000	0.611261	7.37663e+06	-56389.1	1105.82	-29739	0.000000	0.000000	6.610948	-0.076607	NaN	0.000000	0.001616	0.001677	28.082	0.033135	0.002039	16.2464	31.1654	-168.03	-0.030163	0.610019	-0.403057	-0.404299	-0.076607	16.2464	-0.399521	-131571	5.822455E-7	NaN
1184	1.000000	0.649288	7.37663e+06	-56389.1	1105.82	-29739	0.000000	0.000000	6.648979	0.019415	NaN	0.000000	0.001597	0.001687	28.0823	0.064674	0.001986	32.5681	149.716	11.4886	0.029230	0.647942	-0.365030	-0.366376	0.019415	32.5681	-0.365477	-42750.2	-4.541411E-7	NaN
1184	1.000000	0.687324	7.37663e+06	-56389.1	1105.82	-29739	0.000000	0.000000	6.687013	-0.026583	NaN	0.000000	0.001626	0.001674	28.082	0.118461	0.002021	58.6273	81.2525	-167.918	-0.039445	0.685997	-0.326994	-0.328321	-0.026583	58.6273	-0.326654	-11652.2	2.281382E-6	NaN
1184	1.000000	0.725332	7.37663e+06	-56389.1	1105.82	-29739	0.000000	0.000000	6.725022	0.007923	NaN	0.000000	0.001654	0.001673	28.0807	0.080702	0.002129	37.908	113.278	14.4508	-0.008685	0.724006	-0.288986	-0.290312	0.007923	37.908	-0.289143	-3239.38	-2.445815E-6	NaN
1184	1.000000	0.763356	7.37663e+06	-56389.1	1105.82	-29739	0.000000	0.000000	6.763044	-0.050500	NaN	0.000000	0.001645	0.001676	28.0806	0.043954	0.001984	22.1577	-78.4796	-163.397	0.033590	0.762081	-0.250962	-0.252237	-0.050500	22.1577	-0.249253	-800.585	6.307831E-5	NaN
1184	1.000000	0.801394	7.37663e+06	-56389.1	1105.82	-29739	0.000000	0.000000	6.801084	-0.000401	NaN	0.000000	0.001592	0.001681	28.0806	0.048925	0.001984	24.6564	-90.8058	11.87	-0.063156	0.799995	-0.212924	-0.214323	-0.000401	24.6564	-0.212912	-213.738	1.874960E-6	NaN
1184	1.000000	0.839381	7.37663e+06	-56389.1	1105.82	-29739	0.000000	0.000000	6.839071	-0.013601	NaN	0.000000	0.001620	0.001654	28.0807	0.042040	0.001935	21.7251	-2.546799	-161.552	-0.008090	0.838097	-0.174937	-0.176221	-0.013601	21.7251	-0.174467	-49.0703	0.000277	NaN
1184	1.000000	0.877396	7.37663e+06	-56389.1	1105.82	-29739	0.000000	0.000000	6.877085	-0.042418	NaN	0.000000	0.001603	0.001679	28.082	0.048561	0.001965	24.7153	2.013827	14.201	-0.034799	0.876045	-0.136922	-0.138273	-0.042418	24.7153	-0.135635	-9.781186	0.004337	NaN
1184	1.000000	0.915437	7.37663e+06	-56389.1	1105.82	-29739	0.000000	0.000000	6.915127	0.015863	NaN	0.000000	0.001654	0.001686	28.082	0.040600	0.001913	21.2182	7.887189	-162.419	-0.090059	0.914116	-0.098881	-0.100202	0.015863	21.2182	-0.099442	-1.775770	-0.008933	NaN
1184	1.000000	0.953426	7.37663e+06	-56389.1	1105.82	-29739	0.000000	0.000000	6.953115	-0.016049	NaN	0.000000	0.001662	0.001655	28.0822	0.042860	0.001993	21.5045	-121.132	16.5109	-0.014275	0.952130	-0.060892	-0.062188	-0.016049	21.5045	-0.060333	-0.184088	0.087183	NaN
1184	1.000000	0.991437	7.37663e+06	-56389.1	1105.82	-29739	0.000000	0.000000	6.991129	0.043250	NaN	0.000000	0.001640	0.001703	28.0812	0.049851	0.002000	24.9249	-72.1485	-168.639	-0.039682	0.990112	-0.022881	-0.024206	0.043250	24.9249	-0.024182	-0.016064	-2.692361	NaN
1184	2.000000	1.022517	7.37663e+06	-56389.1	1105.82	-29739	0.000000	0.000000	7.022697	11.909	NaN	0.000000	0.001656	0.001668	28.0815	11.9522	0.001823	6557.62	7.835613	6.843322	12.0502	1.022189	0.008199	0.007871	11.909	6557.62	0.006837	0.005873	2027.61	78176.2
1184	2.000000	1.031925	7.37663e+06	-56389.1	1105.82	-29739	0.000000	0.000000	7.032831	29.5588	NaN	0.000000	0.001618	0.001656	28.0816	21.5278	0.001798	11971.6	5.640321	-176.552	29.4571	1.031605	0.017607	0.017287	29.5588	11971.6	0.015755	0.016306	1812.76	85655
1184	2.000000	1.041406	7.37663e+06	-56389.1	1105.82	-29739	0.000000	0.000000	7.043271	52.8762	NaN	0.000000	0.001650	0.001646	28.0809	30.4626	0.001652	18436.9	5.919611	-2.524058	50.9559	1.040961	0.027088	0.026643	52.8762	18436.9	0.024937	0.030901	1711.15	95824
1184	2.000000	1.050903	7.37663e+06	-56389.1	1105.82	-29739	0.000000	0.000000	7.053941	81.3821	NaN	0.000000	0.001685	0.001673	28.0823	38.6391	0.001755	22013.4	1.229076	-178.336	80.3267	1.050547	0.036585	0.036229	81.3821	22013.4	0.033812	0.049017	1660.3	90842.4
1184	2.000000	1.060372	7.37663e+06	-56389.1	1105.82	-29739	0.000000	0.000000	7.064965	119.174	NaN	0.000000	0.001569	0.001678	28.082	48.1359	0.001711	28132.4	4.019844	-2.698921	117.505	1.060055	0.046054	0.045737	119.174	28132.4	0.042877	0.071675	1662.69	96005.6
1184	2.000000	1.069887	7.37664e+06	-56389.1	1105.82	-29739	0.000000	0.000000	7.076032	156.901	NaN	0.000000	0.001573	0.001694	28.082	56.7966	0.001727	32891.6	4.041548	176.127	159.338	1.069555	0.055569	0.055237	156.901	32891.6	0.051992	0.098668	1590.19	95668.7
1184	2.000000	1.079332	7.37664e+06	-56389.1	1105.82	-29739	0.000000	0.000000	7.087606	208.661	NaN	0.000000	0.001570	0.001753	28.081	65.0691	0.001738	37435.4	3.571589	-5.077854	205.882	1.078991	0.065014	0.064673	208.661	37435.4	0.060833	0.128813	1619.88	95296.2
1184	2.000000	1.088960	7.37664e+06	-56389.1	1105.82	-29739	0.000000	0.000000	7.099366	260.454	NaN	0.000000	0.001590	0.001716	28.0809	75.8802	0.001816	41790.2	6.210868	171.842	267.422	1.088633	0.074642	0.074315	260.454	41790.2	0.069968	0.163958	1588.54	94293.4
1184	2.000000	1.098316	7.37664e+06	-56389.1	1105.82	-29739	0.000000	0.000000	7.111465	327.13	NaN	0.000000	0.001640	0.001710	28.0809	83.0857	0.001765	47061.3	4.194746	-6.673117	325.172	1.098063	0.083998	0.083745	327.13	47061.3	0.078785	0.201648	1622.28	95750.3
1184	2.000000	1.107710	7.37664e+06	-56389.1	1105.82	-29739	0.000000	0.000000	7.123624	394.334	NaN	0.000000	0.001525	0.001698	28.0809	91.0561	0.001776	51278.7	3.810608	172.721	389.111	1.107464	0.093392	0.093146	394.334	51278.7	0.087625	0.243082	1622.23	95024.1
1184	2.000000	1.117340	7.37664e+06	-56389.1	1105.82	-29739	0.000000	0.000000	7.136056	462.449	NaN	0.000000	0.001560	0.001726	28.0821	100.052	0.001701	58836.6	4.246664	-8.437732	462.371	1.117029	0.103022	0.102711	462.449	58836.6	0.097127	0.291631	1585.73	99541.4
1184	2.000000	1.118883	7.37664e+06	-56389.1	1105.82	-29739	0.000000	0.000000	7.138111	474.904	NaN	0.000000	0.001553	0.001728	28.0821	104.046	0.001824	57052.5	6.612262	169.611	479.293	1.118518	0.104565	0.104200	474.904	57052.5	0.098322	0.298029	1593.48	95481.4