File: remote_trans/data/nanoindenter/0828-1/data/Data_2025-08-06,11h17m57s/2025-07-22_16-23-58_1_545.txt
2025-07-22, 16:23:58, 1
Index	Phase	Displacement	Time	Pos X	Pos Y	Pos Z	Rot A	Rot B	Piezo Z	Force A	Force B	Gripper	Voltage A	Voltage B	Temperature	Amplitude force	Amplitude pos	Stiffness	Phase shift	Phase excitation	Force A raw	Displacement raw	HMax	HMax raw	Real Force	Real Stiffness	Contact Depth	Area	Hardness	Reduced Mod.
[#]	[#]	[um]	[s]	[um]	[um]	[um]	[m°]	[m°]	[um]	[uN]	[uN]	[V]	[V]	[V]	[°C]	[uN]	[um]	[N/m]	[°]	[°]	[uN]	[um]	[um]	[um]	[uN]	[N/m]	[um]	[um^2]	[MPa]	[MPa]
545	1.000000	0.002539	7.37038e+06	-49839.1	1005.82	-29757.6	0.000000	0.000000	6.002788	0.039894	NaN	0.000000	0.001646	0.001666	28.0824	0.045951	0.001021	44.9957	-105.26	-171.154	0.064606	0.001263	-1.104422	-1.105697	0.039894	44.9957	-1.105087	-5.866105E+14	-6.800789E-17	NaN
545	1.000000	0.044520	7.37038e+06	-49839.1	1005.82	-29757.6	0.000000	0.000000	6.044767	-0.019661	NaN	0.000000	0.001617	0.001717	28.0828	0.110026	0.001970	55.8512	116.49	12.0025	-0.000430	0.043162	-1.062441	-1.063799	-0.019661	55.8512	-1.062177	-1.556236E+14	1.263386E-16	NaN
545	1.000000	0.086513	7.37038e+06	-49839.1	1005.82	-29757.6	0.000000	0.000000	6.086763	0.039583	NaN	0.000000	0.001614	0.001734	28.0828	0.053906	0.001947	27.6856	-78.3799	-163.384	-0.044041	0.085223	-1.020447	-1.021738	0.039583	27.6856	-1.021520	-4.419740E+13	-8.955882E-16	NaN
545	1.000000	0.128512	7.37038e+06	-49839.1	1005.82	-29757.6	0.000000	0.000000	6.128761	0.026785	NaN	0.000000	0.001599	0.001741	28.0838	0.082591	0.001918	43.0595	-29.2406	13.9524	0.046875	0.127209	-0.978449	-0.979752	0.026785	43.0595	-0.978915	-1.179765E+13	-2.270400E-15	NaN
545	1.000000	0.170529	7.37038e+06	-49839.1	1005.82	-29757.6	0.000000	0.000000	6.170777	0.003189	NaN	0.000000	0.001629	0.001753	28.0835	0.105651	0.001984	53.2458	128.367	-163.472	-0.032881	0.169260	-0.936432	-0.937700	0.003189	53.2458	-0.936477	-3.159357E+12	-1.009534E-15	NaN
545	1.000000	0.212597	7.37038e+06	-49839.1	1005.82	-29757.6	0.000000	0.000000	6.212846	0.021717	NaN	0.000000	0.001567	0.001722	28.0838	0.031647	0.002130	14.8567	-99.9207	13.811	0.074220	0.211214	-0.894364	-0.895747	0.021717	14.8567	-0.895460	-8.825027E+11	-2.460825E-14	NaN
545	1.000000	0.254564	7.37038e+06	-49839.1	1005.82	-29757.6	0.000000	0.000000	6.254813	0.014090	NaN	0.000000	0.001666	0.001750	28.0839	0.039202	0.002009	19.5169	-119.497	-166.573	-0.053835	0.253241	-0.852396	-0.853720	0.014090	19.5169	-0.852938	-2.347016E+11	-6.003390E-14	NaN
545	1.000000	0.296590	7.37038e+06	-49839.1	1005.82	-29757.6	0.000000	0.000000	6.296838	-0.004198	NaN	0.000000	0.001654	0.001736	28.0826	0.055506	0.001952	28.4375	174.557	12.9121	0.056116	0.295237	-0.810370	-0.811723	-0.004198	28.4375	-0.810260	-6.195732E+10	6.775979E-14	NaN
545	1.000000	0.338592	7.37038e+06	-49839.1	1005.82	-29757.6	0.000000	0.000000	6.338842	0.045219	NaN	0.000000	0.001640	0.001749	28.0824	0.112254	0.001885	59.5394	-5.896088	-165.051	-0.010726	0.337299	-0.768368	-0.769662	0.045219	59.5394	-0.768938	-1.701624E+10	-2.657403E-12	NaN
545	1.000000	0.380636	7.37038e+06	-49839.1	1005.82	-29757.6	0.000000	0.000000	6.380886	0.061666	NaN	0.000000	0.001656	0.001755	28.0824	0.034963	0.002099	16.6539	71.2043	13.8993	0.113256	0.379272	-0.726325	-0.727689	0.061666	16.6539	-0.729102	-4.881622E+9	-1.263235E-11	NaN
545	1.000000	0.422633	7.37038e+06	-49839.1	1005.82	-29757.6	0.000000	0.000000	6.422882	0.034420	NaN	0.000000	0.001618	0.001750	28.0836	0.047942	0.001905	25.1717	38.5026	-165.828	0.004412	0.421318	-0.684328	-0.685643	0.034420	25.1717	-0.685353	-1.234257E+9	-2.788735E-11	NaN
545	1.000000	0.464676	7.37038e+06	-49839.1	1005.82	-29757.6	0.000000	0.000000	6.464923	-0.012482	NaN	0.000000	0.001600	0.001759	28.0836	0.083249	0.002072	40.186	52.6025	15.4688	0.018021	0.463292	-0.642285	-0.643669	-0.012482	40.186	-0.642052	-3.150963E+8	3.961183E-11	NaN
545	1.000000	0.506751	7.37038e+06	-49839.1	1005.82	-29757.6	0.000000	0.000000	6.506998	-0.022047	NaN	0.000000	0.001618	0.001725	28.0837	0.043743	0.001984	22.0529	-27.9865	-164.268	-0.023740	0.505402	-0.600210	-0.601558	-0.022047	22.0529	-0.599460	-8.185115E+7	2.693554E-10	NaN
545	1.000000	0.548734	7.37038e+06	-49839.1	1005.82	-29757.6	0.000000	0.000000	6.548982	0.014212	NaN	0.000000	0.001646	0.001709	28.0825	0.112583	0.002000	56.2822	-114.478	16.2029	-0.004011	0.547338	-0.558227	-0.559623	0.014212	56.2822	-0.558416	-2.220572E+7	-6.400179E-10	NaN
545	1.000000	0.590694	7.37038e+06	-49839.1	1005.82	-29757.6	0.000000	0.000000	6.590942	-0.012677	NaN	0.000000	0.001626	0.001723	28.0864	0.063458	0.002062	30.7696	49.8712	-166.53	-0.059694	0.589426	-0.516266	-0.517535	-0.012677	30.7696	-0.515957	-5.71945e+06	2.216512E-9	NaN
545	1.000000	0.632745	7.37038e+06	-49839.1	1005.82	-29757.6	0.000000	0.000000	6.632992	-0.021995	NaN	0.000000	0.001658	0.001738	28.0827	0.069792	0.002094	33.3289	-156.1	13.2899	0.032824	0.631343	-0.474216	-0.475617	-0.021995	33.3289	-0.473721	-1.47086e+06	1.495396E-8	NaN
545	1.000000	0.674746	7.37038e+06	-49839.1	1005.82	-29757.6	0.000000	0.000000	6.674994	0.013435	NaN	0.000000	0.001692	0.001740	28.0842	0.234120	0.001999	117.105	-56.7475	-163.412	0.014910	0.673488	-0.432215	-0.433473	0.013435	117.105	-0.432301	-384243	-3.496434E-8	NaN
545	1.000000	0.716823	7.37038e+06	-49839.1	1005.82	-29757.6	0.000000	0.000000	6.717070	-0.008429	NaN	0.000000	0.001602	0.001728	28.0854	0.040417	0.001947	20.7564	-23.2103	11.4405	0.042557	0.715398	-0.390138	-0.391563	-0.008429	20.7564	-0.389834	-95672.2	8.810368E-8	NaN
545	1.000000	0.758799	7.37038e+06	-49839.1	1005.82	-29757.6	0.000000	0.000000	6.759048	0.034172	NaN	0.000000	0.001600	0.001731	28.0839	0.059517	0.002159	27.5703	67.449	-167.599	0.133200	0.757424	-0.348162	-0.349537	0.034172	27.5703	-0.349091	-24763.6	-1.379918E-6	NaN
545	1.000000	0.800803	7.37038e+06	-49839.1	1005.82	-29757.6	0.000000	0.000000	6.801052	0.020561	NaN	0.000000	0.001578	0.001728	28.084	0.076154	0.001962	38.8057	-147.707	17.1558	0.011753	0.799503	-0.306157	-0.307458	0.020561	38.8057	-0.306555	-5888.68	-3.491696E-6	NaN
545	1.000000	0.842822	7.37038e+06	-49839.1	1005.82	-29757.6	0.000000	0.000000	6.843069	-0.013182	NaN	0.000000	0.001612	0.001780	28.0829	0.082318	0.001986	41.4536	176.919	-162.002	-0.071290	0.841541	-0.264138	-0.265419	-0.013182	41.4536	-0.263900	-1344.6	9.803464E-6	NaN
545	1.000000	0.884859	7.37038e+06	-49839.1	1005.82	-29757.6	0.000000	0.000000	6.885110	0.080465	NaN	0.000000	0.001644	0.001718	28.0829	0.052635	0.001966	26.772	99.7056	16.1703	0.133889	0.883435	-0.222102	-0.223526	0.080465	26.772	-0.224356	-325.911	-0.000247	NaN
545	1.000000	0.926848	7.37038e+06	-49839.1	1005.82	-29757.6	0.000000	0.000000	6.927096	-0.001892	NaN	0.000000	0.001596	0.001743	28.0828	0.049314	0.001998	24.6819	146.746	-165.367	-0.048237	0.925512	-0.180113	-0.181449	-0.001892	24.6819	-0.180055	-61.1519	3.093321E-5	NaN
545	1.000000	0.968908	7.37038e+06	-49839.1	1005.82	-29757.6	0.000000	0.000000	6.969152	-0.082193	NaN	0.000000	0.001642	0.001704	28.0842	0.074189	0.001974	37.5909	-92.9214	13.5141	-0.087308	0.967523	-0.138053	-0.139438	-0.082193	37.5909	-0.136413	-10.1204	0.008122	NaN
545	1.000000	1.010895	7.37038e+06	-49839.1	1005.82	-29757.6	0.000000	0.000000	7.011144	0.008609	NaN	0.000000	0.001679	0.001708	28.0842	0.154052	0.001954	78.8447	-46.1169	-163.416	-8.490609E-5	1.009571	-0.096065	-0.097390	0.008609	78.8447	-0.096147	-1.497847	-0.005748	NaN
545	1.000000	1.052931	7.37038e+06	-49839.1	1005.82	-29757.6	0.000000	0.000000	7.053178	-0.008743	NaN	0.000000	0.001740	0.001734	28.084	0.041881	0.001967	21.2866	-117.589	15.7323	-0.030038	1.051526	-0.054030	-0.055435	-0.008743	21.2866	-0.053722	-0.118014	0.074087	NaN
545	1.000000	1.094943	7.37038e+06	-49839.1	1005.82	-29757.6	0.000000	0.000000	7.095191	0.011506	NaN	0.000000	0.001738	0.001732	28.0826	0.032329	0.002018	16.0221	-149.887	-165.341	-0.014153	1.093616	-0.012018	-0.013344	0.011506	16.0221	-0.012557	-0.007847	-1.466272	NaN
545	2.000000	1.118989	7.37039e+06	-49839.1	1005.82	-29757.6	0.000000	0.000000	7.119895	16.0071	NaN	0.000000	0.001733	0.001680	28.0826	13.987	0.001667	8389.34	6.401799	6.055348	14.684	1.118599	0.012028	0.011639	16.0071	8389.34	0.010597	0.009852	1624.7	77220.4
545	2.000000	1.129471	7.37039e+06	-49839.1	1005.82	-29757.6	0.000000	0.000000	7.131406	41.0335	NaN	0.000000	0.001694	0.001741	28.0826	25.6492	0.001784	14378.9	5.366311	-177.786	39.7338	1.129084	0.022510	0.022123	41.0335	14378.9	0.020370	0.023127	1774.25	86384.9
545	2.000000	1.139902	7.37039e+06	-49839.1	1005.82	-29757.6	0.000000	0.000000	7.143166	73.3431	NaN	0.000000	0.001658	0.001743	28.0839	34.7843	0.001717	20258.2	0.169407	4.538939	71.2296	1.139597	0.032942	0.032636	73.3431	20258.2	0.030226	0.041214	1779.55	91169.4
545	2.000000	1.150369	7.37039e+06	-49839.1	1005.82	-29757.6	0.000000	0.000000	7.155747	124.753	NaN	0.000000	0.001665	0.001742	28.0841	46.5239	0.001888	24642.4	8.108991	175.645	123.072	1.150006	0.043409	0.043045	124.753	24642.4	0.039612	0.063029	1979.29	89678
545	2.000000	1.160870	7.37039e+06	-49839.1	1005.82	-29757.6	0.000000	0.000000	7.168433	177.89	NaN	0.000000	0.001676	0.001762	28.084	57.3053	0.001842	31102.4	4.246942	-2.649802	175.646	1.160422	0.053910	0.053461	177.89	31102.4	0.049620	0.091243	1949.63	94073.7
545	2.000000	1.171365	7.37039e+06	-49839.1	1005.82	-29757.6	0.000000	0.000000	7.181484	240.071	NaN	0.000000	0.001625	0.001713	28.0843	69.6388	0.001834	37971	4.763468	174.586	236.915	1.171061	0.064404	0.064100	240.071	37971	0.059662	0.124600	1926.74	98280.3
545	2.000000	1.181869	7.37039e+06	-49839.1	1005.82	-29757.6	0.000000	0.000000	7.194899	310.853	NaN	0.000000	0.001629	0.001652	28.0831	82.3463	0.001898	43390.3	11.3317	-12.9695	311.059	1.181542	0.074908	0.074582	310.853	43390.3	0.069535	0.162202	1916.46	98432.4
545	2.000000	1.192338	7.37039e+06	-49839.1	1005.82	-29757.6	0.000000	0.000000	7.209274	405.848	NaN	0.000000	0.001584	0.001659	28.0832	88.6612	0.001803	49175.8	0.731282	177.009	402.647	1.191955	0.085377	0.084994	405.848	49175.8	0.079187	0.203456	1994.77	99606.9
545	2.000000	1.202822	7.37039e+06	-49839.1	1005.82	-29757.6	0.000000	0.000000	7.222918	482.699	NaN	0.000000	0.001631	0.001654	28.0833	98.6649	0.001823	54120.3	1.952830	-4.864618	479.094	1.202419	0.095861	0.095459	482.699	54120.3	0.089172	0.250705	1925.37	98753.3
545	2.000000	1.211378	7.37039e+06	-49839.1	1005.82	-29757.6	0.000000	0.000000	7.234897	565.946	NaN	0.000000	0.001612	0.001674	28.0843	106.298	0.001827	58190.5	-0.004746	176.99	564.481	1.211002	0.104417	0.104041	565.946	58190.5	0.097123	0.291607	1940.79	98452.5