File: remote_trans/data/nanoindenter/0828-1/data/Data_2025-08-06,11h17m57s/2025-07-22_16-23-58_1_49.txt
2025-07-22, 16:23:58, 1
Index	Phase	Displacement	Time	Pos X	Pos Y	Pos Z	Rot A	Rot B	Piezo Z	Force A	Force B	Gripper	Voltage A	Voltage B	Temperature	Amplitude force	Amplitude pos	Stiffness	Phase shift	Phase excitation	Force A raw	Displacement raw	HMax	HMax raw	Real Force	Real Stiffness	Contact Depth	Area	Hardness	Reduced Mod.
[#]	[#]	[um]	[s]	[um]	[um]	[um]	[m°]	[m°]	[um]	[uN]	[uN]	[V]	[V]	[V]	[°C]	[uN]	[um]	[N/m]	[°]	[°]	[uN]	[um]	[um]	[um]	[uN]	[N/m]	[um]	[um^2]	[MPa]	[MPa]
49	1.000000	0.002781	7.36552e+06	-41089.1	955.818	-29787.5	0.000000	0.000000	6.002774	0.021189	NaN	0.000000	0.001700	0.001714	28.1256	0.045770	0.000970	47.1913	-137.229	-170.823	0.013708	0.001585	-1.709300	-1.710497	0.021189	47.1913	-1.709637	-6.830491E+22	-3.102175E-25	NaN
49	1.000000	0.060751	7.36552e+06	-41089.1	955.819	-29787.5	0.000000	0.000000	6.060742	-0.004453	NaN	0.000000	0.001736	0.001687	28.1083	0.120129	0.001941	61.9021	33.3682	16.8296	0.026945	0.059441	-1.651330	-1.652640	-0.004453	61.9021	-1.651276	-1.145508E+22	3.887765E-25	NaN
49	1.000000	0.118810	7.36552e+06	-41089.1	955.818	-29787.5	0.000000	0.000000	6.118802	0.021865	NaN	0.000000	0.001679	0.001702	28.0798	0.055098	0.002044	26.9548	105.058	-165.807	-0.011822	0.117504	-1.593271	-1.594577	0.021865	26.9548	-1.593880	-1.976158E+21	-1.106433E-23	NaN
49	1.000000	0.176813	7.36552e+06	-41089.1	955.818	-29787.5	0.000000	0.000000	6.176803	-0.037711	NaN	0.000000	0.001641	0.001687	28.0854	0.167133	0.001938	86.2603	-139.246	14.1424	-0.035652	0.175425	-1.535269	-1.536657	-0.037711	86.2603	-1.534941	-3.247542E+20	1.161208E-22	NaN
49	1.000000	0.234833	7.36552e+06	-41089.1	955.818	-29787.5	0.000000	0.000000	6.234824	-0.015084	NaN	0.000000	0.001668	0.001681	28.1264	0.078465	0.001967	39.8963	62.8302	-165.692	-0.087971	0.233540	-1.477248	-1.478542	-0.015084	39.8963	-1.476965	-5.488694E+19	2.748277E-22	NaN
49	1.000000	0.292868	7.36552e+06	-41089.1	955.818	-29787.5	0.000000	0.000000	6.292860	0.022955	NaN	0.000000	0.001680	0.001647	28.1083	0.047577	0.002014	23.6288	-112.049	15.3062	0.032931	0.291529	-1.419214	-1.420553	0.022955	23.6288	-1.419943	-9.537552E+18	-2.406794E-21	NaN
49	1.000000	0.350901	7.36552e+06	-41089.1	955.818	-29787.5	0.000000	0.000000	6.350896	0.074285	NaN	0.000000	0.001643	0.001677	28.0801	0.006004	0.002026	2.962889	-2.941498	-162.732	0.154899	0.349537	-1.361180	-1.362544	0.074285	2.962889	-1.379984	-2.795315E+18	-2.657486E-20	NaN
49	1.000000	0.408946	7.36552e+06	-41089.1	955.817	-29787.5	0.000000	0.000000	6.408937	0.010111	NaN	0.000000	0.001637	0.001649	28.0868	0.023739	0.001927	12.3169	27.7079	14.4406	0.043863	0.407555	-1.303136	-1.304526	0.010111	12.3169	-1.303752	-2.682439E+17	-3.769150E-20	NaN
49	1.000000	0.466935	7.36552e+06	-41089.1	955.817	-29787.5	0.000000	0.000000	6.466924	-0.040900	NaN	0.000000	0.001565	0.001652	28.1271	0.095378	0.001977	48.2523	97.0106	-165.063	0.006625	0.465576	-1.245147	-1.246506	-0.040900	48.2523	-1.244511	-4.330096E+16	9.445442E-19	NaN
49	1.000000	0.524955	7.36552e+06	-41089.1	955.818	-29787.5	0.000000	0.000000	6.524948	0.029572	NaN	0.000000	0.001611	0.001651	28.1106	0.077387	0.001874	41.2945	-46.7562	16.8541	-0.018009	0.523582	-1.187126	-1.188499	0.029572	41.2945	-1.187663	-7.508073E+15	-3.938733E-18	NaN
49	1.000000	0.583014	7.36552e+06	-41089.1	955.818	-29787.5	0.000000	0.000000	6.583007	0.039348	NaN	0.000000	0.001603	0.001615	28.0804	0.048760	0.002027	24.0604	116.356	-165.131	0.002591	0.581728	-1.129067	-1.130354	0.039348	24.0604	-1.130294	-1.278095E+15	-3.078636E-17	NaN
49	1.000000	0.641012	7.36552e+06	-41089.1	955.818	-29787.5	0.000000	0.000000	6.641001	-0.060863	NaN	0.000000	0.001668	0.001661	28.0876	0.065788	0.001997	32.9414	-179.87	17.8526	-0.014294	0.639624	-1.071069	-1.072457	-0.060863	32.9414	-1.069684	-1.963092E+14	3.100377E-16	NaN
49	1.000000	0.699020	7.36552e+06	-41089.1	955.818	-29787.5	0.000000	0.000000	6.699010	-0.038397	NaN	0.000000	0.001694	0.001686	28.1268	0.108937	0.001990	54.7385	-116.781	-160.612	-0.052876	0.697691	-1.013061	-1.014391	-0.038397	54.7385	-1.012535	-3.345833E+13	1.147608E-15	NaN
49	1.000000	0.757082	7.36552e+06	-41089.1	955.818	-29787.5	0.000000	0.000000	6.757071	-0.049426	NaN	0.000000	0.001646	0.001708	28.1111	0.060994	0.001957	31.1599	-115.786	14.9195	-0.087440	0.755674	-0.955000	-0.956407	-0.049426	31.1599	-0.953810	-5.412668E+12	9.131492E-15	NaN
49	1.000000	0.815075	7.36552e+06	-41089.1	955.818	-29787.5	0.000000	0.000000	6.815063	-0.070665	NaN	0.000000	0.001638	0.001695	28.079	0.066448	0.001920	34.6068	-17.7459	-165.732	-0.069815	0.813790	-0.897007	-0.898292	-0.070665	34.6068	-0.895475	-8.829173E+11	8.003587E-14	NaN
49	1.000000	0.873108	7.36552e+06	-41089.1	955.818	-29787.5	0.000000	0.000000	6.873098	-0.030181	NaN	0.000000	0.001649	0.001603	28.0851	0.044426	0.002056	21.6034	-56.5026	13.9588	-0.011558	0.871746	-0.838974	-0.840335	-0.030181	21.6034	-0.837926	-1.469599E+11	2.053695E-13	NaN
49	1.000000	0.931158	7.36553e+06	-41089.1	955.818	-29787.5	0.000000	0.000000	6.931149	-0.003142	NaN	0.000000	0.001662	0.001642	28.1247	0.048712	0.002142	22.7394	89.4247	-164.625	-0.050865	0.929829	-0.780923	-0.782252	-0.003142	22.7394	-0.780820	-2.468153E+10	1.273069E-13	NaN
49	1.000000	0.989146	7.36553e+06	-41089.1	955.819	-29787.5	0.000000	0.000000	6.989135	-0.059428	NaN	0.000000	0.001646	0.001608	28.112	0.055704	0.002091	26.6399	-115.791	15.0547	-0.033498	0.987773	-0.722935	-0.724309	-0.059428	26.6399	-0.721262	-3.816684E+9	1.557047E-11	NaN
49	1.000000	1.047177	7.36553e+06	-41089.1	955.818	-29787.5	0.000000	0.000000	7.047171	0.066104	NaN	0.000000	0.001670	0.001595	28.0786	0.051176	0.002039	25.0986	116.325	-165.671	0.024652	1.045909	-0.664904	-0.666173	0.066104	25.0986	-0.666880	-6.897306E+8	-9.584043E-11	NaN
49	1.000000	1.105220	7.36553e+06	-41089.1	955.818	-29787.5	0.000000	0.000000	7.105209	-0.052085	NaN	0.000000	0.001641	0.001602	28.0832	0.025893	0.002018	12.83	32.5053	12.3854	-0.045723	1.103813	-0.606862	-0.608269	-0.052085	12.83	-0.603817	-9.397678E+7	5.542299E-10	NaN
49	1.000000	1.163206	7.36553e+06	-41089.1	955.819	-29787.5	0.000000	0.000000	7.163198	0.016927	NaN	0.000000	0.001737	0.001649	28.1241	0.107999	0.002108	51.2282	131.926	-166.002	-0.025190	1.161923	-0.548876	-0.550159	0.016927	51.2282	-0.549124	-1.651281E+7	-1.025102E-9	NaN
49	1.000000	1.221293	7.36553e+06	-41089.1	955.819	-29787.5	0.000000	0.000000	7.221285	0.007385	NaN	0.000000	0.001712	0.001653	28.1138	0.081674	0.002070	39.4472	69.1296	14.5661	0.052587	1.219882	-0.490789	-0.492200	0.007385	39.4472	-0.490929	-2.5608e+06	-2.884015E-9	NaN
49	1.000000	1.279270	7.36553e+06	-41089.1	955.82	-29787.5	0.000000	0.000000	7.279259	-0.051845	NaN	0.000000	0.001715	0.001639	28.0803	0.096564	0.002035	47.4469	129.432	-167.35	-0.064735	1.278003	-0.432812	-0.434079	-0.051845	47.4469	-0.431992	-380398	1.362911E-7	NaN
49	1.000000	1.337320	7.36553e+06	-41089.1	955.819	-29787.5	0.000000	0.000000	7.337310	-0.023501	NaN	0.000000	0.001651	0.001639	28.083	0.029529	0.002011	14.6846	-12.3167	12.5141	-0.001945	1.335949	-0.374762	-0.376133	-0.023501	14.6846	-0.373561	-55896.3	4.204306E-7	NaN
49	1.000000	1.395304	7.36553e+06	-41089.1	955.82	-29787.5	0.000000	0.000000	7.395295	-0.008770	NaN	0.000000	0.001684	0.001710	28.1207	0.074247	0.002021	36.7359	152.402	-166.682	-0.034150	1.394047	-0.316778	-0.318034	-0.008770	36.7359	-0.316599	-8289.55	1.058003E-6	NaN
49	1.000000	1.453373	7.36553e+06	-41089.1	955.82	-29787.5	0.000000	0.000000	7.453362	-0.053727	NaN	0.000000	0.001693	0.001724	28.1145	0.100844	0.001914	52.6862	-156.311	14.3559	-0.003153	1.451985	-0.258709	-0.260096	-0.053727	52.6862	-0.257944	-1089.88	4.929620E-5	NaN
49	1.000000	1.511368	7.36553e+06	-41089.1	955.82	-29787.5	0.000000	0.000000	7.511355	-0.100482	NaN	0.000000	0.001679	0.001696	28.0816	0.065742	0.002032	32.356	-10.1579	-167.405	-0.078384	1.510008	-0.200714	-0.202073	-0.100482	32.356	-0.198384	-123.913	0.000811	NaN
49	1.000000	1.569399	7.36553e+06	-41089.1	955.82	-29787.5	0.000000	0.000000	7.569390	-0.011894	NaN	0.000000	0.001627	0.001672	28.0834	0.039368	0.001880	20.945	34.4959	9.946718	0.030926	1.568080	-0.142682	-0.144002	-0.011894	20.945	-0.142257	-13.0378	0.000912	NaN
49	1.000000	1.627409	7.36553e+06	-41089.1	955.821	-29787.5	0.000000	0.000000	7.627393	-0.158829	NaN	0.000000	0.001614	0.001653	28.1196	0.013553	0.002107	6.432730	-148.591	-161.976	-0.093266	1.626145	-0.084673	-0.085937	-0.158829	6.432730	-0.066155	-0.268218	0.592164	NaN
49	1.000000	1.685469	7.36553e+06	-41089.1	955.821	-29787.5	0.000000	0.000000	7.685460	-0.014871	NaN	0.000000	0.001655	0.001697	28.1157	0.041384	0.002026	20.4265	51.5944	11.1743	-0.013713	1.684114	-0.026613	-0.027967	-0.014871	20.4265	-0.026067	-0.017995	0.826375	NaN
49	2.000000	1.727083	7.36553e+06	-41089.1	955.821	-29787.5	0.000000	0.000000	7.727653	14.0917	NaN	0.000000	0.001714	0.001762	28.0828	12.359	0.001710	7227.19	7.811794	-175.772	13.8628	1.726791	0.015001	0.014709	14.0917	7227.19	0.013539	0.013386	1052.71	57071.1
49	2.000000	1.741529	7.36553e+06	-41089.1	955.821	-29787.5	0.000000	0.000000	7.743310	43.5428	NaN	0.000000	0.001644	0.001647	28.0831	27.903	0.001801	15491.2	6.536990	-1.474372	42.8135	1.741198	0.029447	0.029116	43.5428	15491.2	0.027339	0.035409	1229.71	75214.4
49	2.000000	1.755949	7.36553e+06	-41089.1	955.821	-29787.5	0.000000	0.000000	7.759638	89.9768	NaN	0.000000	0.001738	0.001659	28.1188	40.321	0.001678	24033.8	6.086685	174.614	90.5937	1.755635	0.043867	0.043553	89.9768	24033.8	0.041059	0.066795	1347.06	84961.8
49	2.000000	1.770481	7.36553e+06	-41089.1	955.822	-29787.5	0.000000	0.000000	7.776431	145.001	NaN	0.000000	0.001702	0.001724	28.1169	52.1109	0.001795	29036.6	4.203093	-5.029802	144.788	1.770082	0.058399	0.058000	145.001	29036.6	0.054654	0.107338	1350.88	80973.2
49	2.000000	1.784863	7.36553e+06	-41089.1	955.822	-29787.5	0.000000	0.000000	7.793467	209.579	NaN	0.000000	0.001739	0.001687	28.0822	65.0143	0.001814	35844.3	2.271022	176.533	205.444	1.784595	0.072781	0.072514	209.579	35844.3	0.068396	0.157625	1329.6	82486.1
49	2.000000	1.799422	7.36553e+06	-41089.1	955.822	-29787.5	0.000000	0.000000	7.811391	291.441	NaN	0.000000	0.001700	0.001686	28.0824	79.1064	0.001790	44185.7	1.332444	-4.817178	290.099	1.799099	0.087341	0.087018	291.441	44185.7	0.082394	0.218127	1336.11	86437.2
49	2.000000	1.813986	7.36553e+06	-41089.1	955.823	-29787.5	0.000000	0.000000	7.830306	397.311	NaN	0.000000	0.001685	0.001682	28.1175	92.1635	0.001787	51573.5	3.550538	171.913	400.641	1.813652	0.101904	0.101570	397.311	51573.5	0.096127	0.286324	1387.63	88058.4
49	2.000000	1.820440	7.36553e+06	-41089.1	955.822	-29787.5	0.000000	0.000000	7.838817	447.362	NaN	0.000000	0.001637	0.001632	28.1165	97.7983	0.001631	59977.7	2.751679	-8.450085	446.456	1.820091	0.108359	0.108009	447.362	59977.7	0.102764	0.322378	1387.7	96511.8