File: remote_trans/data/nanoindenter/0828-1/data/Data_2025-08-06,11h17m57s/2025-07-22_16-23-58_1_507.txt
2025-07-22, 16:23:58, 1
Index	Phase	Displacement	Time	Pos X	Pos Y	Pos Z	Rot A	Rot B	Piezo Z	Force A	Force B	Gripper	Voltage A	Voltage B	Temperature	Amplitude force	Amplitude pos	Stiffness	Phase shift	Phase excitation	Force A raw	Displacement raw	HMax	HMax raw	Real Force	Real Stiffness	Contact Depth	Area	Hardness	Reduced Mod.
[#]	[#]	[um]	[s]	[um]	[um]	[um]	[m°]	[m°]	[um]	[uN]	[uN]	[V]	[V]	[V]	[°C]	[uN]	[um]	[N/m]	[°]	[°]	[uN]	[um]	[um]	[um]	[uN]	[N/m]	[um]	[um^2]	[MPa]	[MPa]
507	1.000000	0.002540	7.37001e+06	-51739.1	1005.82	-29751.4	0.000000	0.000000	6.002778	0.023095	NaN	0.000000	0.001489	0.001737	28.0796	0.072616	0.001029	70.5786	166.263	-163.847	0.049785	0.001301	-1.068055	-1.069295	0.023095	70.5786	-1.068301	-1.880878E+14	-1.227863E-16	NaN
507	1.000000	0.042509	7.37001e+06	-51739.1	1005.82	-29751.4	0.000000	0.000000	6.042746	0.011653	NaN	0.000000	0.001500	0.001704	28.0797	0.031610	0.002008	15.7398	35.228	-164.911	-0.006130	0.041200	-1.028086	-1.029395	0.011653	15.7398	-1.028641	-5.510671E+13	-2.114700E-16	NaN
507	1.000000	0.082535	7.37001e+06	-51739.1	1005.82	-29751.4	0.000000	0.000000	6.082771	-0.007714	NaN	0.000000	0.001481	0.001721	28.0809	0.053973	0.001984	27.2046	-55.5409	-167.592	-0.010345	0.081261	-0.988061	-0.989334	-0.007714	27.2046	-0.987848	-1.556429E+13	4.956006E-16	NaN
507	1.000000	0.122571	7.37001e+06	-51739.1	1005.82	-29751.4	0.000000	0.000000	6.122809	0.034859	NaN	0.000000	0.001502	0.001674	28.0809	0.009183	0.001960	4.685814	66.1031	-166.82	0.009084	0.121236	-0.948025	-0.949359	0.034859	4.685814	-0.953604	-5.378120E+12	-6.481720E-15	NaN
507	1.000000	0.162561	7.37001e+06	-51739.1	1005.82	-29751.4	0.000000	0.000000	6.162797	-0.004131	NaN	0.000000	0.001530	0.001680	28.0815	0.089031	0.002008	44.3408	-105.166	-166.911	-0.064867	0.161265	-0.908034	-0.909330	-0.004131	44.3408	-0.907964	-1.302169E+12	3.172208E-15	NaN
507	1.000000	0.202596	7.37001e+06	-51739.1	1005.82	-29751.4	0.000000	0.000000	6.202833	0.011878	NaN	0.000000	0.001519	0.001683	28.0807	0.082603	0.001949	42.3794	-57.8394	-163.829	-0.017991	0.201272	-0.867999	-0.869323	0.011878	42.3794	-0.868209	-3.777622E+11	-3.144179E-14	NaN
507	1.000000	0.242581	7.37001e+06	-51739.1	1005.82	-29751.4	0.000000	0.000000	6.242819	0.038045	NaN	0.000000	0.001554	0.001701	28.0794	0.065017	0.002007	32.3981	64.0294	-165.957	0.052129	0.241250	-0.828015	-0.829346	0.038045	32.3981	-0.828895	-1.108697E+11	-3.431521E-13	NaN
507	1.000000	0.282574	7.37001e+06	-51739.1	1005.82	-29751.4	0.000000	0.000000	6.282811	-0.001442	NaN	0.000000	0.001608	0.001709	28.0795	0.062887	0.001859	33.8263	-130.61	-165.296	-0.004235	0.281250	-0.788021	-0.789345	-0.001442	33.8263	-0.787989	-3.088693E+10	4.670030E-14	NaN
507	1.000000	0.322627	7.37001e+06	-51739.1	1005.82	-29751.4	0.000000	0.000000	6.322860	-0.073535	NaN	0.000000	0.001556	0.001728	28.079	0.163275	0.002114	77.2456	48.0636	-165.459	-0.011016	0.321352	-0.747969	-0.749243	-0.073535	77.2456	-0.747255	-8.626749E+9	8.524044E-12	NaN
507	1.000000	0.362644	7.37001e+06	-51739.1	1005.82	-29751.4	0.000000	0.000000	6.362878	-0.051693	NaN	0.000000	0.001555	0.001696	28.0807	0.009953	0.001954	5.093569	47.4556	-166.866	0.018206	0.361359	-0.707951	-0.709236	-0.051693	5.093569	-0.700340	-1.977764E+9	2.613690E-11	NaN
507	1.000000	0.402674	7.37001e+06	-51739.1	1005.82	-29751.4	0.000000	0.000000	6.402909	-0.043741	NaN	0.000000	0.001551	0.001706	28.0811	0.095866	0.002050	46.7679	-105.703	-164.554	-0.100137	0.401327	-0.667921	-0.669269	-0.043741	46.7679	-0.667219	-6.971543E+8	6.274200E-11	NaN
507	1.000000	0.442673	7.37001e+06	-51739.1	1005.82	-29751.4	0.000000	0.000000	6.442908	-0.031567	NaN	0.000000	0.001534	0.001719	28.0812	0.014488	0.001965	7.373977	109.407	-166.115	0.018022	0.441408	-0.627922	-0.629188	-0.031567	7.373977	-0.624712	-1.821308E+8	1.733224E-10	NaN
507	1.000000	0.482713	7.37001e+06	-51739.1	1005.82	-29751.4	0.000000	0.000000	6.482951	0.028382	NaN	0.000000	0.001605	0.001721	28.0809	0.069953	0.002001	34.9575	-61.5423	-167.214	0.010336	0.481370	-0.587882	-0.589226	0.028382	34.9575	-0.588491	-5.779100E+7	-4.911150E-10	NaN
507	1.000000	0.522700	7.37001e+06	-51739.1	1005.82	-29751.4	0.000000	0.000000	6.522937	0.011351	NaN	0.000000	0.001609	0.001731	28.0795	0.065238	0.002002	32.5894	-95.599	-168.823	-0.048266	0.521396	-0.547895	-0.549199	0.011351	32.5894	-0.548156	-1.601087E+7	-7.089568E-10	NaN
507	1.000000	0.562728	7.37001e+06	-51739.1	1005.82	-29751.4	0.000000	0.000000	6.562964	-0.019906	NaN	0.000000	0.001603	0.001707	28.0794	0.112087	0.002072	54.109	170.218	-167.665	0.015386	0.561444	-0.507868	-0.509151	-0.019906	54.109	-0.507592	-4.37386e+06	4.551092E-9	NaN
507	1.000000	0.602733	7.37001e+06	-51739.1	1005.82	-29751.4	0.000000	0.000000	6.602966	-0.105275	NaN	0.000000	0.001614	0.001707	28.0794	0.051550	0.001913	26.9434	-6.455283	-169.947	-0.104686	0.601468	-0.467862	-0.469127	-0.105275	26.9434	-0.464932	-1.10736e+06	9.506875E-8	NaN
507	1.000000	0.642771	7.37001e+06	-51739.1	1005.82	-29751.4	0.000000	0.000000	6.643007	-0.003155	NaN	0.000000	0.001675	0.001695	28.0807	0.083642	0.001860	44.9596	-63.6304	-166.219	0.037920	0.641437	-0.427824	-0.429159	-0.003155	44.9596	-0.427772	-331536	9.516458E-9	NaN
507	1.000000	0.682767	7.37001e+06	-51739.1	1005.82	-29751.4	0.000000	0.000000	6.683003	-0.020271	NaN	0.000000	0.001623	0.001668	28.0807	0.060105	0.001983	30.304	178.991	-162.357	-0.024216	0.681433	-0.387828	-0.389162	-0.020271	30.304	-0.387326	-88085.1	2.301279E-7	NaN
507	1.000000	0.722791	7.37001e+06	-51739.1	1005.82	-29751.4	0.000000	0.000000	6.723027	-0.010361	NaN	0.000000	0.001630	0.001673	28.0807	0.051802	0.002049	25.2811	-93.5687	-162.576	-0.014803	0.721539	-0.347804	-0.349056	-0.010361	25.2811	-0.347497	-23477.5	4.413177E-7	NaN
507	1.000000	0.762805	7.37001e+06	-51739.1	1005.82	-29751.4	0.000000	0.000000	6.763041	-0.017322	NaN	0.000000	0.001565	0.001688	28.0796	0.070021	0.002030	34.5001	125.236	-164.983	0.080941	0.761473	-0.307790	-0.309122	-0.017322	34.5001	-0.307414	-6063.89	2.856569E-6	NaN
507	1.000000	0.802830	7.37001e+06	-51739.1	1005.82	-29751.4	0.000000	0.000000	6.803067	-0.001133	NaN	0.000000	0.001643	0.001709	28.0794	0.010592	0.002019	5.247093	-163.06	-168.402	-0.075757	0.801521	-0.267765	-0.269074	-0.001133	5.247093	-0.267603	-1531.36	7.399711E-7	NaN
507	1.000000	0.842858	7.37002e+06	-51739.1	1005.82	-29751.4	0.000000	0.000000	6.843093	-0.030675	NaN	0.000000	0.001587	0.001707	28.0797	0.038457	0.002067	18.6024	-164.198	-164.609	-0.086657	0.841567	-0.227737	-0.229028	-0.030675	18.6024	-0.226501	-352.493	8.702229E-5	NaN
507	1.000000	0.882873	7.37002e+06	-51739.1	1005.82	-29751.4	0.000000	0.000000	6.883112	0.063131	NaN	0.000000	0.001599	0.001694	28.0803	0.080095	0.002142	37.3885	179.012	-163.542	0.066295	0.881524	-0.187723	-0.189072	0.063131	37.3885	-0.188989	-86.5222	-0.000730	NaN
507	1.000000	0.922883	7.37002e+06	-51739.1	1005.82	-29751.4	0.000000	0.000000	6.923120	0.014480	NaN	0.000000	0.001603	0.001639	28.0809	0.067558	0.001979	34.1459	5.263781	-170.452	-0.052976	0.921573	-0.147713	-0.149022	0.014480	34.1459	-0.148031	-16.672	-0.000869	NaN
507	1.000000	0.962905	7.37002e+06	-51739.1	1005.82	-29751.4	0.000000	0.000000	6.963142	-0.001907	NaN	0.000000	0.001608	0.001690	28.0807	0.114657	0.001946	58.9182	-59.6769	-165.055	-0.002516	0.961596	-0.107690	-0.108999	-0.001907	58.9182	-0.107666	-2.681502	0.000711	NaN
507	1.000000	1.002928	7.37002e+06	-51739.1	1005.82	-29751.4	0.000000	0.000000	7.003164	0.006404	NaN	0.000000	0.001659	0.001677	28.0806	0.065990	0.001977	33.3794	-18.7191	-168.121	-0.027935	1.001575	-0.067668	-0.069021	0.006404	33.3794	-0.067812	-0.297726	-0.021510	NaN
507	1.000000	1.042916	7.37002e+06	-51739.1	1005.82	-29751.4	0.000000	0.000000	7.043151	-0.046887	NaN	0.000000	0.001637	0.001705	28.0791	0.028265	0.002013	14.042	-165.081	-171.687	-0.049165	1.041666	-0.027679	-0.028930	-0.046887	14.042	-0.025175	-0.017049	2.750180	NaN
507	2.000000	1.077596	7.37002e+06	-51739.1	1005.82	-29751.4	0.000000	0.000000	7.078209	9.169600	NaN	0.000000	0.001673	0.001712	28.0793	10.5469	0.001649	6394.97	7.205156	-173.824	8.725334	1.077227	0.007000	0.006632	9.169600	6394.97	0.005925	0.004993	1836.4	82683.7
507	2.000000	1.087471	7.37002e+06	-51739.1	1005.82	-29751.4	0.000000	0.000000	7.088806	26.7001	NaN	0.000000	0.001625	0.001655	28.0795	20.9106	0.001791	11676.4	4.848989	-176.085	25.8281	1.087220	0.016876	0.016625	26.7001	11676.4	0.015161	0.015500	1722.58	85686.8
507	2.000000	1.097493	7.37002e+06	-51739.1	1005.82	-29751.4	0.000000	0.000000	7.099750	49.1229	NaN	0.000000	0.001639	0.001671	28.0797	31.4991	0.001640	19203.3	5.500793	177.231	48.1493	1.097188	0.026898	0.026593	49.1229	19203.3	0.024980	0.030978	1585.71	99682.8
507	2.000000	1.107456	7.37002e+06	-51739.1	1005.82	-29751.4	0.000000	0.000000	7.111035	81.2645	NaN	0.000000	0.001617	0.001711	28.0805	41.5796	0.001694	24547.9	3.525084	177.882	81.3005	1.107164	0.036861	0.036569	81.2645	24547.9	0.034378	0.050307	1615.36	99993.4
507	2.000000	1.117388	7.37002e+06	-51739.1	1005.82	-29751.4	0.000000	0.000000	7.122687	123.108	NaN	0.000000	0.001586	0.001698	28.0805	51.5119	0.001663	30974.5	4.235742	174.519	119.784	1.117156	0.046792	0.046561	123.108	30974.5	0.043811	0.074249	1658.05	103856
507	2.000000	1.127366	7.37002e+06	-51739.1	1005.82	-29751.4	0.000000	0.000000	7.135185	184.37	NaN	0.000000	0.001606	0.001717	28.0806	61.0046	0.001766	34543.6	3.922393	174.559	180.467	1.127125	0.056771	0.056530	184.37	34543.6	0.052768	0.101161	1822.54	99228.1
507	2.000000	1.137365	7.37002e+06	-51739.1	1005.82	-29751.4	0.000000	0.000000	7.147865	249.573	NaN	0.000000	0.001633	0.001685	28.0792	70.3669	0.001596	44085.9	2.754779	174.305	244.305	1.137104	0.066770	0.066509	249.573	44085.9	0.062524	0.135014	1848.5	109619
507	2.000000	1.147328	7.37002e+06	-51739.1	1005.82	-29751.4	0.000000	0.000000	7.161274	333.349	NaN	0.000000	0.001638	0.001712	28.0792	80.1151	0.001816	44122.3	2.121570	174.488	328.54	1.147069	0.076732	0.076474	333.349	44122.3	0.071066	0.168452	1978.9	98218.5
507	2.000000	1.157306	7.37002e+06	-51739.1	1005.82	-29751.4	0.000000	0.000000	7.174726	417.84	NaN	0.000000	0.001645	0.001634	28.0792	90.1769	0.001910	47214.4	3.247847	173.041	411.267	1.157088	0.086710	0.086493	417.84	47214.4	0.080073	0.207460	2014.07	94706.7
507	2.000000	1.167349	7.37002e+06	-51739.1	1005.82	-29751.4	0.000000	0.000000	7.188748	514.567	NaN	0.000000	0.001663	0.001716	28.0794	99.8209	0.001864	53553.9	6.196282	169.629	511.824	1.166957	0.096754	0.096361	514.567	53553.9	0.089548	0.252572	2037.31	97358.1
507	2.000000	1.174447	7.37002e+06	-51739.1	1005.82	-29751.4	0.000000	0.000000	7.197752	560.932	NaN	0.000000	0.001651	0.001635	28.0807	104.734	0.001813	57771.9	5.321443	170.009	565.099	1.173989	0.103852	0.103394	560.932	57771.9	0.096570	0.288667	1943.18	98240.6