File: remote_trans/data/nanoindenter/0828-1/data/Data_2025-08-06,11h17m57s/2025-07-22_16-23-58_1_658.txt
2025-07-22, 16:23:58, 1
Index	Phase	Displacement	Time	Pos X	Pos Y	Pos Z	Rot A	Rot B	Piezo Z	Force A	Force B	Gripper	Voltage A	Voltage B	Temperature	Amplitude force	Amplitude pos	Stiffness	Phase shift	Phase excitation	Force A raw	Displacement raw	HMax	HMax raw	Real Force	Real Stiffness	Contact Depth	Area	Hardness	Reduced Mod.
[#]	[#]	[um]	[s]	[um]	[um]	[um]	[m°]	[m°]	[um]	[uN]	[uN]	[V]	[V]	[V]	[°C]	[uN]	[um]	[N/m]	[°]	[°]	[uN]	[um]	[um]	[um]	[uN]	[N/m]	[um]	[um^2]	[MPa]	[MPa]
658	1.000000	0.002356	7.37149e+06	-44189.1	1005.82	-29776.5	0.000000	0.000000	6.002827	0.004386	NaN	0.000000	0.001627	0.001708	28.0812	0.160686	0.001057	151.963	91.5413	-167.115	0.025400	0.001011	-1.097381	-1.098726	0.004386	151.963	-1.097402	-4.625922E+14	-9.480716E-18	NaN
658	1.000000	0.044281	7.37149e+06	-44189.1	1005.82	-29776.5	0.000000	0.000000	6.044752	-0.007850	NaN	0.000000	0.001628	0.001692	28.0812	0.064992	0.002087	31.1408	25.8391	16.6943	-0.029786	0.042926	-1.055455	-1.056811	-0.007850	31.1408	-1.055266	-1.256600E+14	6.247035E-17	NaN
658	1.000000	0.086279	7.37149e+06	-44189.1	1005.82	-29776.5	0.000000	0.000000	6.086743	-0.158466	NaN	0.000000	0.001579	0.001710	28.081	0.079185	0.002041	38.7944	37.8278	-165.352	-0.076587	0.085046	-1.013458	-1.014690	-0.158466	38.7944	-1.010394	-3.131025E+13	5.061153E-15	NaN
658	1.000000	0.128308	7.37149e+06	-44189.1	1005.82	-29776.5	0.000000	0.000000	6.128778	-0.025442	NaN	0.000000	0.001588	0.001654	28.0823	0.086310	0.002107	40.9705	-101.887	12.5075	-0.044791	0.126945	-0.971428	-0.972791	-0.025442	40.9705	-0.970963	-9.217994E+12	2.760054E-15	NaN
658	1.000000	0.170325	7.37149e+06	-44189.1	1005.82	-29776.5	0.000000	0.000000	6.170793	-0.070778	NaN	0.000000	0.001587	0.001682	28.0823	0.084726	0.002143	39.532	-158.842	-167.132	-0.091917	0.169058	-0.929411	-0.930678	-0.070778	39.532	-0.928068	-2.432893E+12	2.909226E-14	NaN
658	1.000000	0.212327	7.37149e+06	-44189.1	1005.82	-29776.5	0.000000	0.000000	6.212794	-0.085835	NaN	0.000000	0.001603	0.001641	28.0824	0.064640	0.001997	32.3606	-61.0297	12.9859	-0.111840	0.210944	-0.887409	-0.888792	-0.085835	32.3606	-0.885420	-6.456507E+11	1.329434E-13	NaN
658	1.000000	0.254371	7.37149e+06	-44189.1	1005.82	-29776.5	0.000000	0.000000	6.254841	-0.024404	NaN	0.000000	0.001571	0.001656	28.0811	0.049387	0.001948	25.3482	-60.1048	-160.245	0.058484	0.253073	-0.845365	-0.846663	-0.024404	25.3482	-0.844643	-1.812129E+11	1.346710E-13	NaN
658	1.000000	0.296389	7.37149e+06	-44189.1	1005.82	-29776.5	0.000000	0.000000	6.296859	-0.020154	NaN	0.000000	0.001607	0.001678	28.081	0.054695	0.002019	27.0957	-152.339	14.2196	-0.029986	0.295036	-0.803347	-0.804700	-0.020154	27.0957	-0.802789	-4.905929E+10	4.108161E-13	NaN
658	1.000000	0.338418	7.37149e+06	-44189.1	1005.82	-29776.5	0.000000	0.000000	6.338889	-0.009241	NaN	0.000000	0.001603	0.001673	28.0812	0.092029	0.002050	44.8969	19.2252	-165.124	-0.049150	0.337117	-0.761318	-0.762619	-0.009241	44.8969	-0.761164	-1.333923E+10	6.928053E-13	NaN
658	1.000000	0.380429	7.37149e+06	-44189.1	1005.82	-29776.5	0.000000	0.000000	6.380899	-0.009123	NaN	0.000000	0.001615	0.001650	28.0819	0.140824	0.001861	75.6731	44.3534	15.7134	0.009790	0.379112	-0.719308	-0.720624	-0.009123	75.6731	-0.719217	-3.579283E+9	2.548748E-12	NaN
658	1.000000	0.422427	7.37149e+06	-44189.1	1005.82	-29776.5	0.000000	0.000000	6.422897	-0.007550	NaN	0.000000	0.001636	0.001692	28.0822	0.082970	0.001996	41.5746	67.9705	-166.501	0.028939	0.421134	-0.677309	-0.678602	-0.007550	41.5746	-0.677173	-9.539871E+8	7.914334E-12	NaN
658	1.000000	0.464475	7.37149e+06	-44189.1	1005.82	-29776.5	0.000000	0.000000	6.464946	0.010395	NaN	0.000000	0.001598	0.001714	28.082	0.091071	0.002077	43.8431	-122.928	13.6218	-0.059887	0.463119	-0.635262	-0.636617	0.010395	43.8431	-0.635440	-2.556859E+8	-4.065441E-11	NaN
658	1.000000	0.506471	7.37149e+06	-44189.1	1005.82	-29776.5	0.000000	0.000000	6.506944	0.046410	NaN	0.000000	0.001591	0.001732	28.082	0.031366	0.001997	15.7048	139.643	-161.695	0.049991	0.505137	-0.593265	-0.594599	0.046410	15.7048	-0.595482	-7.214729E+7	-6.432633E-10	NaN
658	1.000000	0.548464	7.37149e+06	-44189.1	1005.82	-29776.5	0.000000	0.000000	6.548935	-0.010061	NaN	0.000000	0.001634	0.001748	28.081	0.062808	0.002150	29.2191	-5.817843	16.4412	-0.022874	0.547177	-0.551272	-0.552559	-0.010061	29.2191	-0.551014	-1.753862E+7	5.736612E-10	NaN
658	1.000000	0.590470	7.37149e+06	-44189.1	1005.82	-29776.5	0.000000	0.000000	6.590941	0.000959	NaN	0.000000	0.001581	0.001715	28.0809	0.098266	0.002055	47.8244	-177.977	-166.686	-0.029496	0.589187	-0.509267	-0.510549	0.000959	47.8244	-0.509282	-4.61752e+06	-2.077454E-10	NaN
658	1.000000	0.632520	7.37149e+06	-44189.1	1005.82	-29776.5	0.000000	0.000000	6.632987	-0.091529	NaN	0.000000	0.001613	0.001692	28.081	0.051139	0.002082	24.5594	66.2843	15.4952	-0.044116	0.631158	-0.467217	-0.468578	-0.091529	24.5594	-0.464422	-1.08925e+06	8.402979E-8	NaN
658	1.000000	0.674529	7.37149e+06	-44189.1	1005.82	-29776.5	0.000000	0.000000	6.674998	-0.036531	NaN	0.000000	0.001664	0.001692	28.0823	0.050302	0.001997	25.1905	-142.481	-169.561	-0.085617	0.673178	-0.425208	-0.426559	-0.036531	25.1905	-0.424120	-294318	1.241218E-7	NaN
658	1.000000	0.716573	7.37149e+06	-44189.1	1005.82	-29776.5	0.000000	0.000000	6.717042	-0.032393	NaN	0.000000	0.001675	0.001679	28.0826	0.077456	0.002039	37.9967	-165.578	17.6815	-0.040899	0.715185	-0.383164	-0.384551	-0.032393	37.9967	-0.382524	-75180	4.308712E-7	NaN
658	1.000000	0.758583	7.37149e+06	-44189.1	1005.82	-29776.5	0.000000	0.000000	6.759055	0.024961	NaN	0.000000	0.001655	0.001671	28.0824	0.078500	0.002045	38.3912	60.7926	-166.033	0.007478	0.757279	-0.341153	-0.342457	0.024961	38.3912	-0.341641	-19295.9	-1.293582E-6	NaN
658	1.000000	0.800613	7.37149e+06	-44189.1	1005.82	-29776.5	0.000000	0.000000	6.801082	-0.060445	NaN	0.000000	0.001638	0.001695	28.0812	0.024958	0.002124	11.7523	-166.701	12.09	-0.055124	0.799185	-0.299123	-0.300552	-0.060445	11.7523	-0.295266	-3999.93	1.511149E-5	NaN
658	1.000000	0.842612	7.37149e+06	-44189.1	1005.82	-29776.5	0.000000	0.000000	6.843081	-0.047363	NaN	0.000000	0.001654	0.001663	28.081	0.061397	0.001996	30.7614	-88.095	-166.099	-0.051323	0.841248	-0.257124	-0.258488	-0.047363	30.7614	-0.255969	-1016.32	4.660244E-5	NaN
658	1.000000	0.884630	7.37149e+06	-44189.1	1005.82	-29776.5	0.000000	0.000000	6.885099	-0.049096	NaN	0.000000	0.001690	0.001730	28.0814	0.068415	0.002078	32.9221	59.1627	12.5024	-0.042763	0.883273	-0.215107	-0.216463	-0.049096	32.9221	-0.213988	-222.448	0.000221	NaN
658	1.000000	0.926644	7.37149e+06	-44189.1	1005.82	-29776.5	0.000000	0.000000	6.927116	0.028424	NaN	0.000000	0.001683	0.001707	28.0825	0.050050	0.001938	25.8261	-150.669	-167.026	0.077275	0.925294	-0.173093	-0.174442	0.028424	25.8261	-0.173918	-48.0139	-0.000592	NaN
658	1.000000	0.968668	7.37149e+06	-44189.1	1005.82	-29776.5	0.000000	0.000000	6.969139	0.017862	NaN	0.000000	0.001649	0.001668	28.0826	0.061181	0.002002	30.5612	-84.7177	13.2413	-0.019365	0.967305	-0.131069	-0.132432	0.017862	30.5612	-0.131507	-8.150950	-0.002191	NaN
658	1.000000	1.010668	7.37149e+06	-44189.1	1005.82	-29776.5	0.000000	0.000000	7.011139	0.007450	NaN	0.000000	0.001662	0.001712	28.0826	0.102823	0.001937	53.0746	-28.315	-163.002	-0.019246	1.009364	-0.089069	-0.090372	0.007450	53.0746	-0.089174	-1.033678	-0.007207	NaN
658	1.000000	1.052681	7.37149e+06	-44189.1	1005.82	-29776.5	0.000000	0.000000	7.053152	-0.002150	NaN	0.000000	0.001653	0.001716	28.0823	0.127124	0.002021	62.8908	-89.8295	12.8873	-0.018825	1.051298	-0.047055	-0.048438	-0.002150	62.8908	-0.047029	-0.074128	0.029003	NaN
658	1.000000	1.094729	7.37149e+06	-44189.1	1005.82	-29776.5	0.000000	0.000000	7.095199	-0.010727	NaN	0.000000	0.001587	0.001688	28.081	0.149615	0.002023	73.9438	13.7069	-167.583	-0.045091	1.093435	-0.005007	-0.006302	-0.010727	73.9438	-0.004899	-0.003353	3.199424	NaN
658	2.000000	1.111755	7.37149e+06	-44189.1	1005.82	-29776.5	0.000000	0.000000	7.113071	20.5648	NaN	0.000000	0.001597	0.001708	28.0809	17.5959	0.001750	10053.8	6.822382	2.667944	18.3427	1.111434	0.012019	0.011697	20.5648	10053.8	0.010485	0.009725	2114.63	93144.2
658	2.000000	1.122266	7.37149e+06	-44189.1	1005.82	-29776.5	0.000000	0.000000	7.124422	41.0043	NaN	0.000000	0.001580	0.001689	28.081	27.6499	0.001729	15987.6	5.203601	-179.62	41.7097	1.121988	0.022529	0.022252	41.0043	15987.6	0.020606	0.023503	1744.62	95278
658	2.000000	1.132751	7.37149e+06	-44189.1	1005.82	-29776.5	0.000000	0.000000	7.136562	81.2613	NaN	0.000000	0.001587	0.001733	28.0824	37.8624	0.001766	21444.4	5.391842	-1.939366	79.6498	1.132335	0.033014	0.032598	81.2613	21444.4	0.030172	0.041102	1977.08	96640.1
658	2.000000	1.143177	7.37149e+06	-44189.1	1005.82	-29776.5	0.000000	0.000000	7.148662	121.974	NaN	0.000000	0.001574	0.001708	28.0826	49.0058	0.001825	26859.5	3.491831	177.213	119.671	1.142896	0.043441	0.043159	121.974	26859.5	0.040035	0.064119	1902.31	96912.4
658	2.000000	1.153707	7.37149e+06	-44189.1	1005.82	-29776.5	0.000000	0.000000	7.161609	180.801	NaN	0.000000	0.001587	0.001681	28.0826	58.5708	0.001698	34491.2	6.261977	-7.932053	178.173	1.153356	0.053971	0.053619	180.801	34491.2	0.050039	0.092534	1953.88	103593
658	2.000000	1.164253	7.37149e+06	-44189.1	1005.82	-29776.5	0.000000	0.000000	7.174547	238.975	NaN	0.000000	0.001617	0.001714	28.0815	68.1136	0.001686	40396.2	5.702869	172.607	239.117	1.163831	0.064517	0.064094	238.975	40396.2	0.060080	0.126095	1895.2	103936
658	2.000000	1.174656	7.37149e+06	-44189.1	1005.82	-29776.5	0.000000	0.000000	7.187696	305.8	NaN	0.000000	0.001588	0.001677	28.0816	77.7454	0.001725	45080.8	2.536052	-5.990047	302.509	1.174355	0.074920	0.074619	305.8	45080.8	0.069832	0.163406	1871.42	101890
658	2.000000	1.185081	7.37149e+06	-44189.1	1005.82	-29776.5	0.000000	0.000000	7.201399	385.553	NaN	0.000000	0.001562	0.001675	28.0813	88.2535	0.001790	49314.8	5.911123	170.479	379.692	1.184764	0.085344	0.085027	385.553	49314.8	0.079481	0.204778	1882.79	99565.6
658	2.000000	1.195553	7.37149e+06	-44189.1	1005.82	-29776.5	0.000000	0.000000	7.215453	472.669	NaN	0.000000	0.001611	0.001730	28.0824	96.7287	0.001708	56646.6	6.064716	-10.1134	464.112	1.195133	0.095817	0.095397	472.669	56646.6	0.089559	0.252627	1871.02	102969
658	2.000000	1.202064	7.37149e+06	-44189.1	1005.82	-29776.5	0.000000	0.000000	7.224109	524.871	NaN	0.000000	0.001672	0.001718	28.083	102.861	0.001717	59921.4	0.901704	174.024	520.784	1.201926	0.102328	0.102189	524.871	59921.4	0.095758	0.284383	1845.65	102660