File: remote_trans/data/nanoindenter/0828-1/data/Data_2025-08-06,11h17m57s/2025-07-22_16-23-58_1_267.txt
2025-07-22, 16:23:58, 1
Index	Phase	Displacement	Time	Pos X	Pos Y	Pos Z	Rot A	Rot B	Piezo Z	Force A	Force B	Gripper	Voltage A	Voltage B	Temperature	Amplitude force	Amplitude pos	Stiffness	Phase shift	Phase excitation	Force A raw	Displacement raw	HMax	HMax raw	Real Force	Real Stiffness	Contact Depth	Area	Hardness	Reduced Mod.
[#]	[#]	[um]	[s]	[um]	[um]	[um]	[m°]	[m°]	[um]	[uN]	[uN]	[V]	[V]	[V]	[°C]	[uN]	[um]	[N/m]	[°]	[°]	[uN]	[um]	[um]	[um]	[uN]	[N/m]	[um]	[um^2]	[MPa]	[MPa]
267	1.000000	0.002363	7.36766e+06	-51989.1	955.817	-29750.7	0.000000	0.000000	6.002804	0.068337	NaN	0.000000	0.001638	0.001721	28.08	0.018654	0.000929	20.0784	-99.5952	-163.465	0.078856	0.001088	-1.168133	-1.169409	0.068337	20.0784	-1.170686	-4.447101E+15	-1.536660E-17	NaN
267	1.000000	0.046331	7.36766e+06	-51989.1	955.816	-29750.7	0.000000	0.000000	6.046767	-0.013970	NaN	0.000000	0.001651	0.001722	28.0794	0.087721	0.002004	43.7677	-116.221	-165.271	0.106275	0.044996	-1.124166	-1.125501	-0.013970	43.7677	-1.123927	-1.049915E+15	1.330584E-17	NaN
267	1.000000	0.090349	7.36766e+06	-51989.1	955.818	-29750.7	0.000000	0.000000	6.090790	0.099347	NaN	0.000000	0.001589	0.001682	28.0794	0.034750	0.001967	17.668	-78.8232	-166.022	0.018531	0.089030	-1.080148	-1.081466	0.099347	17.668	-1.084365	-3.091348E+14	-3.213708E-16	NaN
267	1.000000	0.134348	7.36767e+06	-51989.1	955.817	-29750.7	0.000000	0.000000	6.134785	-0.016639	NaN	0.000000	0.001689	0.001696	28.078	0.067624	0.001879	35.9839	-13.1763	-162.516	0.029552	0.133058	-1.036149	-1.037439	-0.016639	35.9839	-1.035802	-6.878817E+13	2.418918E-16	NaN
267	1.000000	0.178364	7.36767e+06	-51989.1	955.819	-29750.7	0.000000	0.000000	6.178801	-0.014524	NaN	0.000000	0.001632	0.001765	28.0784	0.084578	0.002018	41.9211	82.9249	-169.098	-0.005505	0.177039	-0.992133	-0.993458	-0.014524	41.9211	-0.991873	-1.763328E+13	8.236964E-16	NaN
267	1.000000	0.222357	7.36767e+06	-51989.1	955.818	-29750.7	0.000000	0.000000	6.222794	0.004771	NaN	0.000000	0.001666	0.001684	28.0783	0.026921	0.001938	13.8906	-126.211	-167.403	-0.021200	0.221077	-0.948140	-0.949420	0.004771	13.8906	-0.948398	-4.575282E+12	-1.042813E-15	NaN
267	1.000000	0.266407	7.36767e+06	-51989.1	955.818	-29750.7	0.000000	0.000000	6.266845	0.014586	NaN	0.000000	0.001665	0.001783	28.0795	0.053232	0.001940	27.4382	-105.158	-167.847	-0.029269	0.265112	-0.904090	-0.905385	0.014586	27.4382	-0.904489	-1.168733E+12	-1.248016E-14	NaN
267	1.000000	0.310409	7.36767e+06	-51989.1	955.818	-29750.7	0.000000	0.000000	6.310847	-0.007060	NaN	0.000000	0.001659	0.001764	28.0798	0.041817	0.001859	22.4983	-135.334	-165.435	0.069844	0.309137	-0.860087	-0.861360	-0.007060	22.4983	-0.859852	-2.911495E+11	2.424995E-14	NaN
267	1.000000	0.354415	7.36767e+06	-51989.1	955.817	-29750.7	0.000000	0.000000	6.354853	0.010290	NaN	0.000000	0.001683	0.001772	28.0798	0.096852	0.001956	49.5098	-173.671	-167.91	-0.015223	0.353155	-0.816081	-0.817342	0.010290	49.5098	-0.816237	-7.467621E+10	-1.377999E-13	NaN
267	1.000000	0.398465	7.36767e+06	-51989.1	955.818	-29750.7	0.000000	0.000000	6.398900	-0.064836	NaN	0.000000	0.001663	0.001716	28.0788	0.053449	0.002136	25.0231	-155.713	-168.781	-0.107613	0.397139	-0.772032	-0.773358	-0.064836	25.0231	-0.770088	-1.764030E+10	3.675446E-12	NaN
267	1.000000	0.442498	7.36767e+06	-51989.1	955.818	-29750.7	0.000000	0.000000	6.442935	-0.012440	NaN	0.000000	0.001611	0.001719	28.0787	0.038730	0.002146	18.049	25.6193	-166.686	-0.043878	0.441211	-0.727999	-0.729285	-0.012440	18.049	-0.727482	-4.639642E+9	2.681269E-12	NaN
267	1.000000	0.486495	7.36767e+06	-51989.1	955.818	-29750.7	0.000000	0.000000	6.486935	0.055773	NaN	0.000000	0.001555	0.001716	28.0785	0.075637	0.001992	37.9751	40.4529	-164.825	0.034689	0.485185	-0.684002	-0.685312	0.055773	37.9751	-0.685103	-1.224580E+9	-4.554486E-11	NaN
267	1.000000	0.530502	7.36767e+06	-51989.1	955.818	-29750.7	0.000000	0.000000	6.530942	0.071210	NaN	0.000000	0.001603	0.001680	28.0786	0.045673	0.001995	22.8957	-41.1105	-166.989	0.123439	0.529193	-0.639995	-0.641303	0.071210	22.8957	-0.642328	-3.178494E+8	-2.240371E-10	NaN
267	1.000000	0.574520	7.36767e+06	-51989.1	955.817	-29750.7	0.000000	0.000000	6.574954	-0.082194	NaN	0.000000	0.001596	0.001688	28.08	0.049184	0.002033	24.1903	-178.407	-165.791	0.013853	0.573230	-0.595977	-0.597266	-0.082194	24.1903	-0.593429	-6.759679E+7	1.215951E-9	NaN
267	1.000000	0.618553	7.36767e+06	-51989.1	955.817	-29750.7	0.000000	0.000000	6.618993	0.047605	NaN	0.000000	0.001593	0.001704	28.0798	0.108631	0.001885	57.6442	-86.2289	-163.503	0.068692	0.617244	-0.551943	-0.553253	0.047605	57.6442	-0.552563	-1.842667E+7	-2.583470E-9	NaN
267	1.000000	0.662573	7.36767e+06	-51989.1	955.818	-29750.7	0.000000	0.000000	6.663012	0.044924	NaN	0.000000	0.001614	0.001691	28.08	0.085895	0.001952	44.0108	23.949	-164.147	0.005824	0.661266	-0.507924	-0.509231	0.044924	44.0108	-0.508689	-4.53064e+06	-9.915702E-9	NaN
267	1.000000	0.706603	7.36767e+06	-51989.1	955.817	-29750.7	0.000000	0.000000	6.707042	0.030764	NaN	0.000000	0.001656	0.001737	28.0787	0.070519	0.002151	32.783	-57.5195	-164.85	0.027654	0.705208	-0.463893	-0.465289	0.030764	32.783	-0.464597	-1.09544e+06	-2.808322E-8	NaN
267	1.000000	0.750592	7.36767e+06	-51989.1	955.818	-29750.7	0.000000	0.000000	6.751031	0.017927	NaN	0.000000	0.001611	0.001757	28.0786	0.045446	0.002049	22.1746	-59.14	-167.488	-0.013533	0.749308	-0.419904	-0.421189	0.017927	22.1746	-0.420511	-261611	-6.852434E-8	NaN
267	1.000000	0.794623	7.36767e+06	-51989.1	955.817	-29750.7	0.000000	0.000000	6.795060	0.001753	NaN	0.000000	0.001629	0.001716	28.0787	0.024463	0.002023	12.0931	-18.071	-169.842	-0.056459	0.793336	-0.375874	-0.377161	0.001753	12.0931	-0.375983	-60561.5	-2.895134E-8	NaN
267	1.000000	0.838621	7.36767e+06	-51989.1	955.818	-29750.7	0.000000	0.000000	6.839056	-0.057913	NaN	0.000000	0.001582	0.001732	28.0805	0.030342	0.001965	15.4404	1.847218	-166.816	-0.035317	0.837357	-0.331876	-0.333139	-0.057913	15.4404	-0.329063	-12639.3	4.581989E-6	NaN
267	1.000000	0.882662	7.36767e+06	-51989.1	955.818	-29750.7	0.000000	0.000000	6.883099	-0.008381	NaN	0.000000	0.001651	0.001734	28.0801	0.118891	0.001852	64.2105	138.787	-163.589	-0.003629	0.881357	-0.287834	-0.289140	-0.008381	64.2105	-0.287736	-3085.77	2.715898E-6	NaN
267	1.000000	0.926658	7.36767e+06	-51989.1	955.819	-29750.7	0.000000	0.000000	6.927097	0.028881	NaN	0.000000	0.001556	0.001722	28.0799	0.071428	0.001926	37.0864	-48.9982	-167.282	-0.026847	0.925346	-0.243838	-0.245151	0.028881	37.0864	-0.244422	-673.707	-4.286878E-5	NaN
267	1.000000	0.970701	7.36767e+06	-51989.1	955.818	-29750.7	0.000000	0.000000	6.971139	0.029588	NaN	0.000000	0.001554	0.001711	28.0784	0.089440	0.001869	47.8571	-137.794	-164.59	0.057717	0.969366	-0.199796	-0.201131	0.029588	47.8571	-0.200259	-133.034	-0.000222	NaN
267	1.000000	1.014714	7.36767e+06	-51989.1	955.817	-29750.7	0.000000	0.000000	7.015150	-0.039445	NaN	0.000000	0.001620	0.001710	28.0789	0.046432	0.001838	25.2688	-64.5458	-166.908	-0.022412	1.013417	-0.155783	-0.157080	-0.039445	25.2688	-0.154612	-21.9582	0.001796	NaN
267	1.000000	1.058730	7.36767e+06	-51989.1	955.816	-29750.7	0.000000	0.000000	7.059168	0.023356	NaN	0.000000	0.001654	0.001695	28.0786	0.027650	0.002018	13.7036	149.553	-167.935	0.023542	1.057388	-0.111767	-0.113109	0.023356	13.7036	-0.113045	-3.480478	-0.006711	NaN
267	1.000000	1.102743	7.36767e+06	-51989.1	955.817	-29750.7	0.000000	0.000000	7.103181	0.017939	NaN	0.000000	0.001563	0.001697	28.0797	0.066687	0.002045	32.6139	-144.469	-168.892	-0.001797	1.101438	-0.067754	-0.069059	0.017939	32.6139	-0.068166	-0.304407	-0.058930	NaN
267	1.000000	1.146787	7.36767e+06	-51989.1	955.817	-29750.7	0.000000	0.000000	7.147221	-0.097644	NaN	0.000000	0.001602	0.001690	28.08	0.094847	0.002054	46.1755	142.493	-166.07	0.027627	1.145438	-0.023709	-0.025059	-0.097644	46.1755	-0.022123	-0.014224	6.864919	NaN
267	2.000000	1.183395	7.36767e+06	-51989.1	955.818	-29750.7	0.000000	0.000000	7.184269	10.6077	NaN	0.000000	0.001616	0.001689	28.0803	11.3712	0.001714	6635.55	9.084403	-174.776	10.3057	1.183078	0.012899	0.012581	10.6077	6635.55	0.011700	0.011132	952.882	57459.3
267	2.000000	1.194335	7.36767e+06	-51989.1	955.816	-29750.7	0.000000	0.000000	7.195905	27.5361	NaN	0.000000	0.001539	0.001708	28.0788	21.2957	0.001729	12316.5	5.288309	-177.52	26.6289	1.194051	0.023839	0.023555	27.5361	12316.5	0.022162	0.026054	1056.9	69715.1
267	2.000000	1.205272	7.36767e+06	-51989.1	955.818	-29750.7	0.000000	0.000000	7.208177	60.0181	NaN	0.000000	0.001608	0.001717	28.0786	32.3084	0.001750	18457.2	5.183073	178.6	57.0656	1.204891	0.034775	0.034394	60.0181	18457.2	0.032336	0.045725	1312.58	78860.7
267	2.000000	1.216257	7.36767e+06	-51989.1	955.816	-29750.7	0.000000	0.000000	7.220770	99.1038	NaN	0.000000	0.001615	0.001711	28.0784	43.4365	0.001791	24257.6	3.404005	178.019	96.7703	1.215912	0.045760	0.045415	99.1038	24257.6	0.042696	0.071181	1392.27	83068.9
267	2.000000	1.227270	7.36767e+06	-51989.1	955.817	-29750.7	0.000000	0.000000	7.233590	143.017	NaN	0.000000	0.001567	0.001751	28.0805	53.5503	0.001719	31152.9	6.789585	171.913	143.287	1.227015	0.056774	0.056518	143.017	31152.9	0.053331	0.102985	1388.71	88691.9
267	2.000000	1.238211	7.36767e+06	-51989.1	955.819	-29750.7	0.000000	0.000000	7.247142	206.541	NaN	0.000000	0.001561	0.001716	28.0796	62.2897	0.001639	38005.3	3.049925	174.546	203.33	1.237808	0.067714	0.067311	206.541	38005.3	0.063638	0.139176	1484.03	93075.5
267	2.000000	1.249285	7.36767e+06	-51989.1	955.819	-29750.7	0.000000	0.000000	7.260747	268.057	NaN	0.000000	0.001563	0.001719	28.0795	75.0122	0.001778	42179.9	5.628628	172.481	268.477	1.248824	0.078789	0.078327	268.057	42179.9	0.074022	0.180835	1482.33	90622.9
267	2.000000	1.260125	7.36767e+06	-51989.1	955.817	-29750.7	0.000000	0.000000	7.274481	338.44	NaN	0.000000	0.001596	0.001748	28.0783	84.9106	0.001851	45864.4	2.314910	174.41	331.043	1.259736	0.089628	0.089239	338.44	45864.4	0.084094	0.226097	1496.88	88125.6
267	2.000000	1.271169	7.36767e+06	-51989.1	955.817	-29750.7	0.000000	0.000000	7.288360	407.361	NaN	0.000000	0.001609	0.001744	28.0788	93.8625	0.001785	52572.4	4.581241	170.442	404.83	1.271061	0.100673	0.100564	407.361	52572.4	0.094861	0.279678	1456.53	90824.1
267	2.000000	1.279206	7.36767e+06	-51989.1	955.819	-29750.7	0.000000	0.000000	7.299327	478.615	NaN	0.000000	0.001585	0.001736	28.0782	101.662	0.001770	57435.4	6.872444	168.131	475.176	1.278819	0.108709	0.108322	478.615	57435.4	0.102459	0.320675	1492.52	92666