File: remote_trans/data/nanoindenter/0828-1/data/Data_2025-08-06,11h17m57s/2025-07-22_16-23-58_1_198.txt
2025-07-22, 16:23:58, 1
Index	Phase	Displacement	Time	Pos X	Pos Y	Pos Z	Rot A	Rot B	Piezo Z	Force A	Force B	Gripper	Voltage A	Voltage B	Temperature	Amplitude force	Amplitude pos	Stiffness	Phase shift	Phase excitation	Force A raw	Displacement raw	HMax	HMax raw	Real Force	Real Stiffness	Contact Depth	Area	Hardness	Reduced Mod.
[#]	[#]	[um]	[s]	[um]	[um]	[um]	[m°]	[m°]	[um]	[uN]	[uN]	[V]	[V]	[V]	[°C]	[uN]	[um]	[N/m]	[°]	[°]	[uN]	[um]	[um]	[um]	[uN]	[N/m]	[um]	[um^2]	[MPa]	[MPa]
198	1.000000	0.002477	7.36698e+06	-48539.1	955.817	-29762.4	0.000000	0.000000	6.002834	-0.045592	NaN	0.000000	0.001577	0.001789	28.0784	0.098868	0.000858	115.191	-128.529	-169.666	-0.015173	0.001158	-1.115708	-1.117027	-0.045592	115.191	-1.115411	-8.070419E+14	5.649235E-17	NaN
198	1.000000	0.044397	7.36698e+06	-48539.1	955.818	-29762.4	0.000000	0.000000	6.044755	-0.011619	NaN	0.000000	0.001543	0.001730	28.0782	0.011695	0.001939	6.030213	-20.4899	16.0066	-0.037139	0.043024	-1.073788	-1.075160	-0.011619	6.030213	-1.072343	-2.131380E+14	5.451260E-17	NaN
198	1.000000	0.086421	7.36698e+06	-48539.1	955.818	-29762.4	0.000000	0.000000	6.086779	-0.034312	NaN	0.000000	0.001586	0.001727	28.0783	0.046402	0.002011	23.0733	154.077	-164.475	-0.113297	0.085144	-1.031764	-1.033040	-0.034312	23.0733	-1.030648	-5.864102E+13	5.851144E-16	NaN
198	1.000000	0.128420	7.36698e+06	-48539.1	955.819	-29762.4	0.000000	0.000000	6.128780	0.013139	NaN	0.000000	0.001578	0.001750	28.0798	0.066881	0.002038	32.8153	-160.797	16.552	-0.075998	0.127075	-0.989764	-0.991110	0.013139	32.8153	-0.990065	-1.667184E+13	-7.881189E-16	NaN
198	1.000000	0.170448	7.36698e+06	-48539.1	955.819	-29762.4	0.000000	0.000000	6.170804	-0.070427	NaN	0.000000	0.001593	0.001761	28.0799	0.059776	0.001922	31.1022	-6.308554	-163.922	-0.033833	0.169175	-0.947737	-0.949010	-0.070427	31.1022	-0.946038	-4.252008E+12	1.656326E-14	NaN
198	1.000000	0.212465	7.36698e+06	-48539.1	955.819	-29762.4	0.000000	0.000000	6.212822	-0.064269	NaN	0.000000	0.001589	0.001755	28.0798	0.159813	0.001962	81.437	85.6704	13.5942	-0.097681	0.211076	-0.905719	-0.907108	-0.064269	81.437	-0.905127	-1.192173E+12	5.390923E-14	NaN
198	1.000000	0.254499	7.36698e+06	-48539.1	955.818	-29762.4	0.000000	0.000000	6.254857	-0.029971	NaN	0.000000	0.001588	0.001752	28.0783	0.036589	0.002023	18.0841	133.143	-162.768	-0.011633	0.253195	-0.863686	-0.864989	-0.029971	18.0841	-0.862443	-3.156323E+11	9.495650E-14	NaN
198	1.000000	0.296484	7.36698e+06	-48539.1	955.819	-29762.4	0.000000	0.000000	6.296840	-0.086937	NaN	0.000000	0.001579	0.001763	28.0785	0.103094	0.001877	54.9141	49.1143	15.6096	-0.093036	0.295167	-0.821700	-0.823017	-0.086937	54.9141	-0.820513	-8.534199E+10	1.018692E-12	NaN
198	1.000000	0.338532	7.36698e+06	-48539.1	955.819	-29762.4	0.000000	0.000000	6.338888	-0.085165	NaN	0.000000	0.001624	0.001753	28.0785	0.053756	0.002108	25.4967	47.4906	-164.554	-0.083604	0.337198	-0.779652	-0.780987	-0.085165	25.4967	-0.777147	-2.200177E+10	3.870836E-12	NaN
198	1.000000	0.380537	7.36698e+06	-48539.1	955.818	-29762.4	0.000000	0.000000	6.380892	-0.106072	NaN	0.000000	0.001566	0.001776	28.0801	0.017721	0.001950	9.089188	3.850052	16.9874	-0.087304	0.379171	-0.737648	-0.739013	-0.106072	9.089188	-0.728895	-4.850089E+9	2.187009E-11	NaN
198	1.000000	0.422554	7.36698e+06	-48539.1	955.818	-29762.4	0.000000	0.000000	6.422913	0.005299	NaN	0.000000	0.001585	0.001812	28.08	0.127554	0.002018	63.1987	162.493	-165.818	-0.031025	0.421240	-0.695630	-0.696944	0.005299	63.1987	-0.695693	-1.708869E+9	-3.100847E-12	NaN
198	1.000000	0.464600	7.36698e+06	-48539.1	955.818	-29762.5	0.000000	0.000000	6.464956	-0.085564	NaN	0.000000	0.001587	0.001745	28.0798	0.077012	0.002068	37.2324	132.175	15.771	-0.094923	0.463216	-0.653584	-0.654969	-0.085564	37.2324	-0.651861	-4.294800E+8	1.992278E-10	NaN
198	1.000000	0.506587	7.36699e+06	-48539.1	955.817	-29762.5	0.000000	0.000000	6.506944	-0.065102	NaN	0.000000	0.001597	0.001764	28.0784	0.101753	0.001919	53.018	-116.767	-163.312	-0.127705	0.505258	-0.611597	-0.612926	-0.065102	53.018	-0.610676	-1.167925E+8	5.574128E-10	NaN
198	1.000000	0.548601	7.36699e+06	-48539.1	955.818	-29762.5	0.000000	0.000000	6.548957	-0.072688	NaN	0.000000	0.001595	0.001724	28.0784	0.081910	0.001922	42.6197	79.8725	13.3845	-0.041811	0.547246	-0.569583	-0.570938	-0.072688	42.6197	-0.568304	-3.042275E+7	2.389254E-9	NaN
198	1.000000	0.590585	7.36699e+06	-48539.1	955.819	-29762.5	0.000000	0.000000	6.590943	-0.033995	NaN	0.000000	0.001598	0.001754	28.0786	0.124765	0.001899	65.7017	57.7816	-165.247	-0.038873	0.589307	-0.527600	-0.528877	-0.033995	65.7017	-0.527212	-8.20054e+06	4.145437E-9	NaN
198	1.000000	0.632622	7.36699e+06	-48539.1	955.819	-29762.5	0.000000	0.000000	6.632980	-0.030355	NaN	0.000000	0.001567	0.001775	28.0785	0.067044	0.001888	35.5124	121.865	14.7261	-0.047780	0.631272	-0.485563	-0.486913	-0.030355	35.5124	-0.484922	-2.11055e+06	1.438239E-8	NaN
198	1.000000	0.674663	7.36699e+06	-48539.1	955.817	-29762.5	0.000000	0.000000	6.675020	-0.051283	NaN	0.000000	0.001581	0.001768	28.0798	0.063005	0.002061	30.5768	120.614	-163.275	-0.089260	0.673380	-0.443521	-0.444804	-0.051283	30.5768	-0.442263	-531249	9.653309E-8	NaN
198	1.000000	0.716674	7.36699e+06	-48539.1	955.818	-29762.5	0.000000	0.000000	6.717033	-0.003316	NaN	0.000000	0.001600	0.001777	28.0795	0.106801	0.002042	52.2909	8.271997	14.6907	-0.072500	0.715333	-0.401511	-0.402852	-0.003316	52.2909	-0.401463	-140234	2.364277E-8	NaN
198	1.000000	0.758684	7.36699e+06	-48539.1	955.818	-29762.5	0.000000	0.000000	6.759041	-0.048902	NaN	0.000000	0.001580	0.001733	28.0798	0.136844	0.002048	66.8147	165.417	-166.578	-0.030809	0.757398	-0.359501	-0.360786	-0.048902	66.8147	-0.358952	-34410.2	1.421149E-6	NaN
198	1.000000	0.800729	7.36699e+06	-48539.1	955.818	-29762.5	0.000000	0.000000	6.801086	-0.076832	NaN	0.000000	0.001690	0.001735	28.0785	0.053126	0.001947	27.2819	121.831	16.6165	-0.142018	0.799374	-0.317455	-0.318811	-0.076832	27.2819	-0.315343	-7943.37	9.672486E-6	NaN
198	1.000000	0.842729	7.36699e+06	-48539.1	955.819	-29762.5	0.000000	0.000000	6.843086	-0.070106	NaN	0.000000	0.001645	0.001760	28.0782	0.021281	0.001936	10.9947	-79.6587	-163.654	-0.068657	0.841377	-0.275455	-0.276808	-0.070106	10.9947	-0.270673	-1705.17	4.111358E-5	NaN
198	1.000000	0.884738	7.36699e+06	-48539.1	955.817	-29762.5	0.000000	0.000000	6.885093	-0.115395	NaN	0.000000	0.001655	0.001753	28.0784	0.046423	0.002044	22.7169	-33.5284	12.8735	-0.066441	0.883386	-0.233446	-0.234799	-0.115395	22.7169	-0.229637	-395.163	0.000292	NaN
198	1.000000	0.926780	7.36699e+06	-48539.1	955.818	-29762.5	0.000000	0.000000	6.927134	-0.108459	NaN	0.000000	0.001647	0.001657	28.0799	0.097557	0.002057	47.4294	-141.551	-164.511	-0.107794	0.925409	-0.191405	-0.192776	-0.108459	47.4294	-0.189690	-88.8879	0.001220	NaN
198	1.000000	0.968776	7.36699e+06	-48539.1	955.816	-29762.5	0.000000	0.000000	6.969131	-0.105913	NaN	0.000000	0.001610	0.001678	28.0798	0.060078	0.002028	29.6213	125.492	14.819	-0.103424	0.967385	-0.149408	-0.150799	-0.105913	29.6213	-0.146726	-15.7771	0.006713	NaN
198	1.000000	1.010795	7.36699e+06	-48539.1	955.816	-29762.5	0.000000	0.000000	7.011151	-0.064385	NaN	0.000000	0.001606	0.001674	28.0801	0.064433	0.001966	32.769	-73.6832	-165.281	-0.018662	1.009451	-0.107390	-0.108733	-0.064385	32.769	-0.105916	-2.459878	0.026174	NaN
198	1.000000	1.052796	7.36699e+06	-48539.1	955.818	-29762.5	0.000000	0.000000	7.053154	-0.018631	NaN	0.000000	0.001582	0.001727	28.0787	0.034248	0.001892	18.1056	-84.9909	16.578	-0.071751	1.051453	-0.065389	-0.066732	-0.018631	18.1056	-0.064617	-0.243183	0.076611	NaN
198	1.000000	1.094843	7.36699e+06	-48539.1	955.818	-29762.5	0.000000	0.000000	7.095197	-0.116049	NaN	0.000000	0.001550	0.001697	28.0784	0.051384	0.002013	25.525	74.4456	-169.061	-0.127440	1.093511	-0.023342	-0.024673	-0.116049	25.525	-0.019932	-0.012511	9.275904	NaN
198	2.000000	1.131002	7.36699e+06	-48539.1	955.816	-29762.5	0.000000	0.000000	7.131750	9.461481	NaN	0.000000	0.001576	0.001710	28.0787	9.643308	0.001615	5970.79	3.989346	10.675	9.037472	1.130648	0.012817	0.012464	9.461481	5970.79	0.011629	0.011049	856.354	51898.2
198	2.000000	1.141428	7.36699e+06	-48539.1	955.818	-29762.5	0.000000	0.000000	7.142976	28.9295	NaN	0.000000	0.001632	0.001708	28.0787	20.3488	0.001856	10963.4	5.479564	-175.829	28.6408	1.141064	0.023243	0.022880	28.9295	10963.4	0.021264	0.024568	1177.52	63904.6
198	2.000000	1.151870	7.36699e+06	-48539.1	955.819	-29762.5	0.000000	0.000000	7.154456	54.1595	NaN	0.000000	0.001595	0.001702	28.08	28.9797	0.001816	15954	3.854428	3.903123	52.456	1.151563	0.033686	0.033379	54.1595	15954	0.031140	0.043139	1255.47	70179.1
198	2.000000	1.162349	7.36699e+06	-48539.1	955.819	-29762.5	0.000000	0.000000	7.166078	81.9504	NaN	0.000000	0.001694	0.001687	28.0799	38.4678	0.001782	21586.9	4.652358	-179.99	80.9468	1.162004	0.044165	0.043820	81.9504	21586.9	0.041318	0.067478	1214.48	75924.8
198	2.000000	1.172803	7.36699e+06	-48539.1	955.818	-29762.5	0.000000	0.000000	7.177839	113.752	NaN	0.000000	0.001663	0.001762	28.0799	47.4167	0.001645	28832.4	6.432835	-4.873897	110.46	1.172471	0.054619	0.054286	113.752	28832.4	0.051660	0.097612	1165.34	84314.4
198	2.000000	1.183312	7.36699e+06	-48539.1	955.818	-29762.5	0.000000	0.000000	7.190338	162.143	NaN	0.000000	0.001588	0.001729	28.0788	57.9476	0.001862	31126.3	6.230888	174.892	159.399	1.182958	0.065127	0.064773	162.143	31126.3	0.061220	0.130221	1245.14	78806
198	2.000000	1.193890	7.36699e+06	-48539.1	955.819	-29762.5	0.000000	0.000000	7.202887	210.065	NaN	0.000000	0.001625	0.001725	28.0788	66.8549	0.001716	38966.9	4.886792	-4.981427	213.431	1.193461	0.075706	0.075277	210.065	38966.9	0.071663	0.170918	1229.04	86114.2
198	2.000000	1.204325	7.36699e+06	-48539.1	955.82	-29762.5	0.000000	0.000000	7.216058	276.638	NaN	0.000000	0.001612	0.001767	28.0787	77.3305	0.001755	44063.3	4.953297	173.314	275.65	1.203919	0.086140	0.085734	276.638	44063.3	0.081432	0.213674	1294.67	87091.2
198	2.000000	1.214801	7.36699e+06	-48539.1	955.818	-29762.5	0.000000	0.000000	7.229597	351.128	NaN	0.000000	0.001591	0.001741	28.08	89.9778	0.001907	47188.7	9.220640	-11.6076	351.45	1.214334	0.096617	0.096150	351.128	47188.7	0.091036	0.260034	1350.32	84546.6
198	2.000000	1.225292	7.36699e+06	-48539.1	955.817	-29762.5	0.000000	0.000000	7.243905	443.964	NaN	0.000000	0.001607	0.001715	28.0801	97.5552	0.001692	57643.5	7.334490	169.367	442.195	1.224926	0.107107	0.106742	443.964	57643.5	0.101331	0.314422	1412	93922
198	2.000000	1.227341	7.36699e+06	-48539.1	955.818	-29762.5	0.000000	0.000000	7.246500	457.245	NaN	0.000000	0.001610	0.001777	28.0798	101.627	0.001832	55471.4	6.318225	170.969	459.289	1.226857	0.109157	0.108673	457.245	55471.4	0.102975	0.323552	1413.2	89098.4