File: remote_trans/data/nanoindenter/0828-1/data/Data_2025-08-06,11h17m57s/2025-07-22_16-23-58_1_789.txt
2025-07-22, 16:23:58, 1
Index	Phase	Displacement	Time	Pos X	Pos Y	Pos Z	Rot A	Rot B	Piezo Z	Force A	Force B	Gripper	Voltage A	Voltage B	Temperature	Amplitude force	Amplitude pos	Stiffness	Phase shift	Phase excitation	Force A raw	Displacement raw	HMax	HMax raw	Real Force	Real Stiffness	Contact Depth	Area	Hardness	Reduced Mod.
[#]	[#]	[um]	[s]	[um]	[um]	[um]	[m°]	[m°]	[um]	[uN]	[uN]	[V]	[V]	[V]	[°C]	[uN]	[um]	[N/m]	[°]	[°]	[uN]	[um]	[um]	[um]	[uN]	[N/m]	[um]	[um^2]	[MPa]	[MPa]
789	1.000000	0.002755	7.37277e+06	-39589.1	1055.82	-29793.3	0.000000	0.000000	6.002766	-0.054173	NaN	0.000000	0.001550	0.001744	28.0825	0.117028	0.000880	132.936	38.0719	-170.828	-0.081051	0.001581	-1.073803	-1.074977	-0.054173	132.936	-1.073498	-2.208910E+14	2.452472E-16	NaN
789	1.000000	0.042717	7.37277e+06	-39589.1	1055.82	-29793.3	0.000000	0.000000	6.042731	0.017382	NaN	0.000000	0.001591	0.001780	28.0812	0.052650	0.001959	26.8817	-143.15	-169.483	0.044201	0.041428	-1.033841	-1.035130	0.017382	26.8817	-1.034326	-6.571534E+13	-2.644990E-16	NaN
789	1.000000	0.082763	7.37277e+06	-39589.1	1055.82	-29793.3	0.000000	0.000000	6.082774	-0.070808	NaN	0.000000	0.001541	0.001723	28.081	0.022553	0.001930	11.6854	-75.8776	-166.787	-0.051526	0.081443	-0.993795	-0.995115	-0.070808	11.6854	-0.989250	-1.625594E+13	4.355810E-15	NaN
789	1.000000	0.122762	7.37277e+06	-39589.1	1055.82	-29793.3	0.000000	0.000000	6.122776	0.015849	NaN	0.000000	0.001561	0.001727	28.0809	0.011393	0.002006	5.679095	-45.8106	-167.126	0.078970	0.121468	-0.953796	-0.955090	0.015849	5.679095	-0.955889	-5.773573E+12	-2.745017E-15	NaN
789	1.000000	0.162762	7.37277e+06	-39589.1	1055.82	-29793.3	0.000000	0.000000	6.162775	-0.013055	NaN	0.000000	0.001559	0.001720	28.0821	0.027842	0.001971	14.1275	-36.5302	-165.07	-0.041277	0.161502	-0.913796	-0.915056	-0.013055	14.1275	-0.913103	-1.527816E+12	8.545134E-15	NaN
789	1.000000	0.202782	7.37277e+06	-39589.1	1055.82	-29793.3	0.000000	0.000000	6.202792	-0.090785	NaN	0.000000	0.001522	0.001741	28.0821	0.033930	0.002007	16.9073	103.318	-166.994	-0.053151	0.201520	-0.873776	-0.875038	-0.090785	16.9073	-0.869749	-3.963206E+11	2.290707E-13	NaN
789	1.000000	0.242812	7.37277e+06	-39589.1	1055.82	-29793.3	0.000000	0.000000	6.242823	-0.062211	NaN	0.000000	0.001567	0.001729	28.0821	0.056090	0.001885	29.7493	95.0315	-165.864	0.023242	0.241479	-0.833746	-0.835079	-0.062211	29.7493	-0.832178	-1.228289E+11	5.064858E-13	NaN
789	1.000000	0.282836	7.37277e+06	-39589.1	1055.82	-29793.3	0.000000	0.000000	6.282845	-0.109069	NaN	0.000000	0.001571	0.001722	28.0823	0.071757	0.001947	36.8616	109.842	-164.474	-0.122912	0.281526	-0.793722	-0.795032	-0.109069	36.8616	-0.791503	-3.447451E+10	3.163759E-12	NaN
789	1.000000	0.322835	7.37277e+06	-39589.1	1055.82	-29793.3	0.000000	0.000000	6.322846	-0.064659	NaN	0.000000	0.001580	0.001727	28.0812	0.054045	0.002052	26.3433	-172.434	-163.958	-0.052826	0.321553	-0.753723	-0.755005	-0.064659	26.3433	-0.751883	-9.973437E+9	6.483149E-12	NaN
789	1.000000	0.362870	7.37277e+06	-39589.1	1055.82	-29793.3	0.000000	0.000000	6.362882	-0.037105	NaN	0.000000	0.001641	0.001677	28.0811	0.099585	0.002020	49.2965	153.903	-166.246	-0.011527	0.361594	-0.713688	-0.714964	-0.037105	49.2965	-0.713123	-2.955753E+9	1.255352E-11	NaN
789	1.000000	0.402852	7.37277e+06	-39589.1	1055.82	-29793.3	0.000000	0.000000	6.402864	-0.056152	NaN	0.000000	0.001623	0.001670	28.0809	0.091364	0.001957	46.6798	147.49	-165.614	-0.082472	0.401618	-0.673706	-0.674940	-0.056152	46.6798	-0.672803	-8.312961E+8	6.754728E-11	NaN
789	1.000000	0.442876	7.37277e+06	-39589.1	1055.82	-29793.3	0.000000	0.000000	6.442891	0.048731	NaN	0.000000	0.001600	0.001720	28.0824	0.083585	0.001987	42.0562	-156.653	-163.132	0.024033	0.441592	-0.633682	-0.634966	0.048731	42.0562	-0.634551	-2.486075E+8	-1.960163E-10	NaN
789	1.000000	0.482896	7.37277e+06	-39589.1	1055.82	-29793.3	0.000000	0.000000	6.482908	-0.045882	NaN	0.000000	0.001649	0.001707	28.0825	0.023704	0.002063	11.4888	-14.0052	-165.127	-0.059573	0.481610	-0.593662	-0.594948	-0.045882	11.4888	-0.590667	-6.192344E+7	7.409543E-10	NaN
789	1.000000	0.522909	7.37278e+06	-39589.1	1055.82	-29793.3	0.000000	0.000000	6.522920	-0.048345	NaN	0.000000	0.001618	0.001719	28.0824	0.032872	0.002054	16.0031	124.184	-166.134	0.008604	0.521635	-0.553649	-0.554923	-0.048345	16.0031	-0.551384	-1.774671E+7	2.724182E-9	NaN
789	1.000000	0.562932	7.37278e+06	-39589.1	1055.82	-29793.3	0.000000	0.000000	6.562950	0.112940	NaN	0.000000	0.001589	0.001692	28.0823	0.133677	0.001870	71.4695	136.512	-170.226	0.096047	0.561615	-0.513626	-0.514943	0.112940	71.4695	-0.514811	-5.51321e+06	-2.048537E-8	NaN
789	1.000000	0.602945	7.37278e+06	-39589.1	1055.82	-29793.3	0.000000	0.000000	6.602957	-0.025311	NaN	0.000000	0.001567	0.001720	28.0811	0.009870	0.002229	4.428335	-93.058	-164.867	-0.085453	0.601696	-0.473613	-0.474862	-0.025311	4.428335	-0.469326	-1.27632e+06	1.983103E-8	NaN
789	1.000000	0.642979	7.37278e+06	-39589.1	1055.82	-29793.3	0.000000	0.000000	6.642994	0.033030	NaN	0.000000	0.001615	0.001705	28.0811	0.091368	0.001985	46.0404	178.913	-167.12	0.027754	0.641693	-0.433579	-0.434865	0.033030	46.0404	-0.434117	-407640	-8.102800E-8	NaN
789	1.000000	0.682998	7.37278e+06	-39589.1	1055.82	-29793.3	0.000000	0.000000	6.683008	-0.085600	NaN	0.000000	0.001641	0.001674	28.0811	0.051120	0.001828	27.9663	-8.220127	-163.733	-0.113405	0.681697	-0.393560	-0.394861	-0.085600	27.9663	-0.391264	-100289	8.535375E-7	NaN
789	1.000000	0.723039	7.37278e+06	-39589.1	1055.82	-29793.3	0.000000	0.000000	6.723049	-0.082402	NaN	0.000000	0.001650	0.001706	28.0823	0.017266	0.001969	8.769493	23.2642	-162.875	-0.144537	0.721683	-0.353519	-0.354875	-0.082402	8.769493	-0.346472	-22685.9	3.632298E-6	NaN
789	1.000000	0.763049	7.37278e+06	-39589.1	1055.82	-29793.3	0.000000	0.000000	6.763065	0.057496	NaN	0.000000	0.001583	0.001731	28.0825	0.071749	0.002016	35.5855	-40.3994	-163.42	-0.002333	0.761776	-0.313509	-0.314782	0.057496	35.5855	-0.314720	-7777.13	-7.392894E-6	NaN
789	1.000000	0.803024	7.37278e+06	-39589.1	1055.82	-29793.3	0.000000	0.000000	6.803034	-0.091999	NaN	0.000000	0.001604	0.001691	28.0825	0.098983	0.001888	52.4138	-31.6733	-163.022	-0.090400	0.801737	-0.273534	-0.274821	-0.091999	52.4138	-0.272217	-1799.79	5.111626E-5	NaN
789	1.000000	0.843052	7.37278e+06	-39589.1	1055.82	-29793.3	0.000000	0.000000	6.843062	-0.080225	NaN	0.000000	0.001616	0.001752	28.082	0.112613	0.002014	55.9199	-0.271124	-169.994	-0.081723	0.841744	-0.233506	-0.234814	-0.080225	55.9199	-0.232430	-437.355	0.000183	NaN
789	1.000000	0.883118	7.37278e+06	-39589.1	1055.82	-29793.3	0.000000	0.000000	6.883133	0.031318	NaN	0.000000	0.001643	0.001703	28.0811	0.082223	0.001870	43.9672	43.8244	-165.413	0.006984	0.881741	-0.193440	-0.194817	0.031318	43.9672	-0.193974	-104.76	-0.000299	NaN
789	1.000000	0.923076	7.37278e+06	-39589.1	1055.82	-29793.3	0.000000	0.000000	6.923084	-0.130944	NaN	0.000000	0.001608	0.001703	28.081	0.107796	0.001979	54.4636	-25.5964	-165.593	-0.066746	0.921726	-0.153482	-0.154832	-0.130944	54.4636	-0.151679	-19.4339	0.006738	NaN
789	1.000000	0.963113	7.37278e+06	-39589.1	1055.82	-29793.3	0.000000	0.000000	6.963125	-0.021355	NaN	0.000000	0.001589	0.001686	28.081	0.178684	0.002009	88.9377	147.146	-164.703	-0.085736	0.961834	-0.113446	-0.114724	-0.021355	88.9377	-0.113265	-3.517320	0.006071	NaN
789	1.000000	1.003134	7.37278e+06	-39589.1	1055.82	-29793.3	0.000000	0.000000	7.003148	0.012271	NaN	0.000000	0.001621	0.001686	28.0822	0.129816	0.001996	65.0299	57.8517	-163.215	-0.004971	1.001760	-0.073424	-0.074798	0.012271	65.0299	-0.073566	-0.423873	-0.028950	NaN
789	1.000000	1.043143	7.37278e+06	-39589.1	1055.82	-29793.3	0.000000	0.000000	7.043158	0.028317	NaN	0.000000	0.001664	0.001722	28.0822	0.043843	0.002010	21.8155	-66.5245	-168.092	0.075956	1.041876	-0.033415	-0.034682	0.028317	21.8155	-0.034389	-0.030727	-0.921551	NaN
789	2.000000	1.082667	7.37278e+06	-39589.1	1055.82	-29793.3	0.000000	0.000000	7.083065	9.370965	NaN	0.000000	0.001619	0.001704	28.0821	8.341431	0.001809	4611.21	11.0812	-173.837	7.496436	1.081829	0.006109	0.005271	9.370965	4611.21	0.004584	0.003757	2494.08	68730.7
789	2.000000	1.092811	7.37278e+06	-39589.1	1055.82	-29793.3	0.000000	0.000000	7.094004	28.6976	NaN	0.000000	0.001642	0.001705	28.0809	18.5201	0.001858	9968.37	3.117994	-174.999	27.9451	1.092465	0.016253	0.015907	28.6976	9968.37	0.014094	0.014096	2035.88	76709.7
789	2.000000	1.102743	7.37278e+06	-39589.1	1055.82	-29793.3	0.000000	0.000000	7.104956	53.522	NaN	0.000000	0.001603	0.001690	28.0809	26.9302	0.001979	13606.8	3.741607	-176.711	52.0409	1.102434	0.026185	0.025876	53.522	13606.8	0.023235	0.027882	1919.59	74450.6
789	2.000000	1.112719	7.37278e+06	-39589.1	1055.82	-29793.3	0.000000	0.000000	7.116564	93.2293	NaN	0.000000	0.001607	0.001699	28.0809	36.6278	0.001827	20051.1	6.643567	176.434	90.8301	1.112450	0.036161	0.035892	93.2293	20051.1	0.032674	0.046468	2006.32	84983.8
789	2.000000	1.122802	7.37278e+06	-39589.1	1055.82	-29793.3	0.000000	0.000000	7.128679	142.687	NaN	0.000000	0.001639	0.001695	28.081	46.1562	0.001852	24927.2	5.317001	175.684	145.136	1.122450	0.046244	0.045892	142.687	24927.2	0.041951	0.069166	2062.95	86596.4
789	2.000000	1.132742	7.37278e+06	-39589.1	1055.82	-29793.3	0.000000	0.000000	7.140930	198.913	NaN	0.000000	0.001599	0.001700	28.0821	54.193	0.001801	30089.1	4.726968	174.143	197.676	1.132472	0.056184	0.055914	198.913	30089.1	0.051226	0.096239	2066.85	88614.6
789	2.000000	1.142737	7.37278e+06	-39589.1	1055.82	-29793.3	0.000000	0.000000	7.153490	261.337	NaN	0.000000	0.001601	0.001704	28.0822	63.1106	0.001872	33716.9	3.984365	174.108	262.409	1.142443	0.066179	0.065885	261.337	33716.9	0.060366	0.127123	2055.79	86399.1
789	2.000000	1.152704	7.37278e+06	-39589.1	1055.82	-29793.3	0.000000	0.000000	7.166768	341.915	NaN	0.000000	0.001590	0.001693	28.0821	73.29	0.001781	41139.9	5.739174	171.799	341.212	1.152326	0.076146	0.075768	341.915	41139.9	0.069913	0.163733	2088.25	92889.8
789	2.000000	1.162717	7.37278e+06	-39589.1	1055.82	-29793.3	0.000000	0.000000	7.179902	417.858	NaN	0.000000	0.001578	0.001723	28.0811	82.205	0.001926	42692.3	3.125045	173.238	419.769	1.162494	0.086159	0.085936	417.858	42692.3	0.078818	0.201796	2070.69	86829.3
789	2.000000	1.172681	7.37278e+06	-39589.1	1055.82	-29793.3	0.000000	0.000000	7.193540	507.28	NaN	0.000000	0.001614	0.001744	28.081	91.6845	0.001765	51942	5.302069	169.823	508.809	1.172369	0.096123	0.095811	507.28	51942	0.088798	0.248852	2038.48	95130.9
789	2.000000	1.181154	7.37278e+06	-39589.1	1055.82	-29793.3	0.000000	0.000000	7.205360	588.709	NaN	0.000000	0.001542	0.001788	28.081	96.3589	0.001767	54528.5	0.629601	-5.164455	585.99	1.180688	0.104596	0.104129	588.709	54528.5	0.096499	0.288294	2042.04	92785.3