File: remote_trans/data/nanoindenter/0828-1/data/Data_2025-08-06,11h17m57s/2025-07-22_16-23-58_1_766.txt
2025-07-22, 16:23:58, 1
Index	Phase	Displacement	Time	Pos X	Pos Y	Pos Z	Rot A	Rot B	Piezo Z	Force A	Force B	Gripper	Voltage A	Voltage B	Temperature	Amplitude force	Amplitude pos	Stiffness	Phase shift	Phase excitation	Force A raw	Displacement raw	HMax	HMax raw	Real Force	Real Stiffness	Contact Depth	Area	Hardness	Reduced Mod.
[#]	[#]	[um]	[s]	[um]	[um]	[um]	[m°]	[m°]	[um]	[uN]	[uN]	[V]	[V]	[V]	[°C]	[uN]	[um]	[N/m]	[°]	[°]	[uN]	[um]	[um]	[um]	[uN]	[N/m]	[um]	[um^2]	[MPa]	[MPa]
766	1.000000	0.002497	7.37255e+06	-38789.1	1005.82	-29796.1	0.000000	0.000000	6.002793	0.091743	NaN	0.000000	0.001613	0.001710	28.0818	0.100907	0.001000	100.946	17.4743	-169.339	0.109024	0.001268	-1.163788	-1.165017	0.091743	100.946	-1.164470	-3.670927E+15	-2.499171E-17	NaN
766	1.000000	0.046464	7.37255e+06	-38789.1	1005.82	-29796.1	0.000000	0.000000	6.046758	0.060448	NaN	0.000000	0.001665	0.001704	28.0821	0.033168	0.001887	17.5743	172.325	-162.264	0.119023	0.045138	-1.119821	-1.121147	0.060448	17.5743	-1.122401	-1.001580E+15	-6.035306E-17	NaN
766	1.000000	0.090463	7.37255e+06	-38789.1	1005.82	-29796.1	0.000000	0.000000	6.090758	0.064986	NaN	0.000000	0.001638	0.001712	28.0817	0.113407	0.002003	56.6137	27.2812	-164.513	0.068052	0.089141	-1.075822	-1.077144	0.064986	56.6137	-1.076683	-2.437634E+14	-2.665949E-16	NaN
766	1.000000	0.134490	7.37255e+06	-38789.1	1005.82	-29796.1	0.000000	0.000000	6.134784	0.046476	NaN	0.000000	0.001665	0.001724	28.083	0.045647	0.001990	22.9365	-176.227	-163.961	0.018330	0.133185	-1.031795	-1.033100	0.046476	22.9365	-1.033315	-6.368927E+13	-7.297244E-16	NaN
766	1.000000	0.178505	7.37255e+06	-38789.1	1005.82	-29796.1	0.000000	0.000000	6.178795	-0.043473	NaN	0.000000	0.001647	0.001712	28.083	0.047814	0.002105	22.7133	-65.4994	-166.738	-0.112588	0.177151	-0.987780	-0.989134	-0.043473	22.7133	-0.986345	-1.485535E+13	2.926396E-15	NaN
766	1.000000	0.222538	7.37255e+06	-38789.1	1005.82	-29796.1	0.000000	0.000000	6.222833	0.079624	NaN	0.000000	0.001661	0.001713	28.0831	0.159735	0.001948	82.0012	-44.3125	-166.909	0.040180	0.221187	-0.943747	-0.945098	0.079624	82.0012	-0.944476	-4.050568E+12	-1.965742E-14	NaN
766	1.000000	0.266554	7.37255e+06	-38789.1	1005.82	-29796.1	0.000000	0.000000	6.266846	-0.011322	NaN	0.000000	0.001612	0.001719	28.0822	0.064829	0.002055	31.5419	44.9425	-166.183	0.004271	0.265211	-0.899731	-0.901074	-0.011322	31.5419	-0.899462	-9.995255E+11	1.132761E-14	NaN
766	1.000000	0.310571	7.37255e+06	-38789.1	1005.82	-29796.1	0.000000	0.000000	6.310864	-0.002859	NaN	0.000000	0.001602	0.001732	28.0819	0.039866	0.001971	20.2284	-148.934	-165.994	-0.061219	0.309239	-0.855714	-0.857046	-0.002859	20.2284	-0.855608	-2.550726E+11	1.121016E-14	NaN
766	1.000000	0.354565	7.37255e+06	-38789.1	1005.82	-29796.1	0.000000	0.000000	6.354859	0.031455	NaN	0.000000	0.001628	0.001799	28.0818	0.040535	0.002071	19.5741	101.937	-167.851	0.019074	0.353237	-0.811720	-0.813048	0.031455	19.5741	-0.812925	-6.733672E+10	-4.671347E-13	NaN
766	1.000000	0.398576	7.37255e+06	-38789.1	1005.82	-29796.1	0.000000	0.000000	6.398871	0.061521	NaN	0.000000	0.001637	0.001710	28.0829	0.049187	0.001953	25.1902	95.5021	-164.156	0.067022	0.397335	-0.767709	-0.768950	0.061521	25.1902	-0.769541	-1.734040E+10	-3.547847E-12	NaN
766	1.000000	0.442651	7.37255e+06	-38789.1	1005.82	-29796.1	0.000000	0.000000	6.442943	-0.007162	NaN	0.000000	0.001690	0.001722	28.083	0.055533	0.001897	29.2778	-119.619	-171.008	0.030668	0.441340	-0.723634	-0.724945	-0.007162	29.2778	-0.723451	-4.088193E+9	1.751881E-12	NaN
766	1.000000	0.486620	7.37255e+06	-38789.1	1005.82	-29796.1	0.000000	0.000000	6.486914	0.035525	NaN	0.000000	0.001640	0.001749	28.0834	0.046796	0.002068	22.6249	113.248	-169.544	0.092551	0.485299	-0.679665	-0.680986	0.035525	22.6249	-0.680843	-1.070860E+9	-3.317401E-11	NaN
766	1.000000	0.530658	7.37255e+06	-38789.1	1005.82	-29796.1	0.000000	0.000000	6.530950	-0.017366	NaN	0.000000	0.001629	0.001706	28.0816	0.163269	0.002084	78.3622	-132.593	-168.971	0.043298	0.529390	-0.635627	-0.636895	-0.017366	78.3622	-0.635461	-2.558547E+8	6.787594E-11	NaN
766	1.000000	0.574676	7.37255e+06	-38789.1	1005.82	-29796.1	0.000000	0.000000	6.574966	-0.059434	NaN	0.000000	0.001673	0.001730	28.0818	0.100499	0.002091	48.052	-39.143	-164.681	-0.024834	0.573425	-0.591609	-0.592860	-0.059434	48.052	-0.590682	-6.195301E+7	9.593453E-10	NaN
766	1.000000	0.618703	7.37255e+06	-38789.1	1005.82	-29796.1	0.000000	0.000000	6.618995	-0.001022	NaN	0.000000	0.001637	0.001708	28.0816	0.031511	0.001867	16.8786	26.4492	-164.433	0.070472	0.617396	-0.547582	-0.548889	-0.001022	16.8786	-0.547537	-1.569751E+7	6.510605E-11	NaN
766	1.000000	0.662714	7.37255e+06	-38789.1	1005.82	-29796.1	0.000000	0.000000	6.663006	-0.023863	NaN	0.000000	0.001687	0.001749	28.0827	0.128349	0.001904	67.4004	-99.5378	-166.694	-0.045940	0.661387	-0.503571	-0.504898	-0.023863	67.4004	-0.503305	-3.81167e+06	6.260422E-9	NaN
766	1.000000	0.706725	7.37255e+06	-38789.1	1005.82	-29796.1	0.000000	0.000000	6.707018	0.014840	NaN	0.000000	0.001651	0.001755	28.0832	0.068677	0.001964	34.9593	-80.7587	-166.804	0.029905	0.705440	-0.459560	-0.460845	0.014840	34.9593	-0.459878	-940394	-1.578093E-8	NaN
766	1.000000	0.750719	7.37255e+06	-38789.1	1005.82	-29796.1	0.000000	0.000000	6.751011	-0.017639	NaN	0.000000	0.001635	0.001736	28.0835	0.145119	0.002199	65.9791	-88.1563	-162.991	0.007041	0.749415	-0.415565	-0.416870	-0.017639	65.9791	-0.415365	-221125	7.976822E-8	NaN
766	1.000000	0.794779	7.37255e+06	-38789.1	1005.82	-29796.1	0.000000	0.000000	6.795074	0.045236	NaN	0.000000	0.001639	0.001687	28.0819	0.060096	0.002048	29.3489	47.463	-162.801	-0.009039	0.793467	-0.371506	-0.372818	0.045236	29.3489	-0.372662	-54255	-8.337657E-7	NaN
766	1.000000	0.838771	7.37255e+06	-38789.1	1005.82	-29796.1	0.000000	0.000000	6.839065	0.056624	NaN	0.000000	0.001647	0.001720	28.0817	0.025244	0.002092	12.0687	-19.9803	-168.233	0.026007	0.837481	-0.327514	-0.328804	0.056624	12.0687	-0.331033	-13507.6	-4.192014E-6	NaN
766	1.000000	0.882773	7.37255e+06	-38789.1	1005.82	-29796.1	0.000000	0.000000	6.883063	-0.053671	NaN	0.000000	0.001604	0.001722	28.0819	0.073991	0.001955	37.8389	-141.576	-165.74	0.011566	0.881505	-0.283512	-0.284780	-0.053671	37.8389	-0.282448	-2569.64	2.088677E-5	NaN
766	1.000000	0.926850	7.37255e+06	-38789.1	1005.82	-29796.1	0.000000	0.000000	6.927142	-0.016123	NaN	0.000000	0.001656	0.001698	28.0831	0.090154	0.001941	46.4567	-96.3219	-163.968	-0.015093	0.925511	-0.239435	-0.240774	-0.016123	46.4567	-0.239175	-558.027	2.889371E-5	NaN
766	1.000000	0.970836	7.37255e+06	-38789.1	1005.82	-29796.1	0.000000	0.000000	6.971128	-0.008742	NaN	0.000000	0.001667	0.001737	28.0831	0.017423	0.002033	8.568869	-139.317	-167.515	-0.027361	0.969586	-0.195449	-0.196699	-0.008742	8.568869	-0.194683	-107.636	8.121518E-5	NaN
766	1.000000	1.014859	7.37255e+06	-38789.1	1005.82	-29796.1	0.000000	0.000000	7.015152	-0.002024	NaN	0.000000	0.001657	0.001716	28.0834	0.087922	0.001948	45.1273	51.4008	-166.987	0.026841	1.013538	-0.151426	-0.152747	-0.002024	45.1273	-0.151392	-19.2018	0.000105	NaN
766	1.000000	1.058879	7.37255e+06	-38789.1	1005.82	-29796.1	0.000000	0.000000	7.059172	0.009657	NaN	0.000000	0.001660	0.001716	28.0821	0.032870	0.001960	16.771	144.528	-167.194	0.004899	1.057597	-0.107406	-0.108688	0.009657	16.771	-0.107838	-2.704230	-0.003571	NaN
766	1.000000	1.102839	7.37255e+06	-38789.1	1005.82	-29796.1	0.000000	0.000000	7.103129	-0.057737	NaN	0.000000	0.001665	0.001753	28.0819	0.076053	0.001956	38.8915	-114.633	-169.207	-0.078465	1.101554	-0.063445	-0.064731	-0.057737	38.8915	-0.062332	-0.209840	0.275146	NaN
766	1.000000	1.146907	7.37255e+06	-38789.1	1005.82	-29796.1	0.000000	0.000000	7.147195	-0.087220	NaN	0.000000	0.001611	0.001756	28.0822	0.078890	0.002077	37.9864	52.0145	-168.464	-0.072154	1.145640	-0.019378	-0.020645	-0.087220	37.9864	-0.017656	-0.010935	7.975926	NaN
766	2.000000	1.174485	7.37255e+06	-38789.1	1005.82	-29796.1	0.000000	0.000000	7.175385	14.7689	NaN	0.000000	0.001661	0.001694	28.0836	14.1321	0.001828	7732.95	4.623311	-173.483	13.3826	1.174197	0.008200	0.007912	14.7689	7732.95	0.006768	0.005806	2543.9	92724.5
766	2.000000	1.185448	7.37255e+06	-38789.1	1005.82	-29796.1	0.000000	0.000000	7.187262	37.0436	NaN	0.000000	0.001603	0.001769	28.0833	25.0191	0.001887	13257.8	7.655172	179.48	35.9677	1.185159	0.019163	0.018874	37.0436	13257.8	0.017067	0.018142	2041.92	89930.7
766	2.000000	1.196509	7.37255e+06	-38789.1	1005.82	-29796.2	0.000000	0.000000	7.199753	71.8401	NaN	0.000000	0.001589	0.001736	28.083	34.3046	0.001818	18866.4	6.216958	178.917	75.3341	1.196110	0.030224	0.029825	71.8401	18866.4	0.027368	0.035465	2025.64	91529.1
766	2.000000	1.207329	7.37255e+06	-38789.1	1005.82	-29796.2	0.000000	0.000000	7.212452	117.55	NaN	0.000000	0.001614	0.001723	28.0823	44.9482	0.001772	25370.4	2.029625	178.513	114.522	1.207124	0.041044	0.040839	117.55	25370.4	0.037569	0.057897	2030.32	96332.3
766	2.000000	1.218399	7.37255e+06	-38789.1	1005.82	-29796.2	0.000000	0.000000	7.226803	197.398	NaN	0.000000	0.001570	0.001700	28.0819	56.1281	0.001718	32661.7	2.322218	176.432	195.353	1.218070	0.052114	0.051785	197.398	32661.7	0.047581	0.085083	2320.06	102304
766	2.000000	1.229416	7.37255e+06	-38789.1	1005.82	-29796.2	0.000000	0.000000	7.241312	282.388	NaN	0.000000	0.001571	0.001686	28.0821	67.1009	0.001691	39670.9	7.002818	170.337	283.099	1.229043	0.063131	0.062758	282.388	39670.9	0.057792	0.118010	2392.92	105508
766	2.000000	1.240253	7.37255e+06	-38789.1	1005.82	-29796.2	0.000000	0.000000	7.256370	385.116	NaN	0.000000	0.001618	0.001661	28.082	79.842	0.001879	42497.4	7.048784	169.443	377.818	1.240001	0.073968	0.073716	385.116	42497.4	0.067171	0.152772	2520.86	99337.7
766	2.000000	1.251337	7.37255e+06	-38789.1	1005.82	-29796.2	0.000000	0.000000	7.272218	501.041	NaN	0.000000	0.001565	0.001721	28.0829	90.147	0.001836	49096.2	4.786800	170.754	497.025	1.250988	0.085052	0.084703	501.041	49096.2	0.077398	0.195476	2563.18	101455
766	2.000000	1.262306	7.37255e+06	-38789.1	1005.82	-29796.2	0.000000	0.000000	7.288846	638.753	NaN	0.000000	0.001560	0.001789	28.0828	101.869	0.001881	54168.9	7.796825	167.25	634.477	1.261952	0.096021	0.095667	638.753	54168.9	0.087177	0.240894	2651.59	100835
766	2.000000	1.267787	7.37255e+06	-38789.1	1005.82	-29796.2	0.000000	0.000000	7.296599	694.048	NaN	0.000000	0.001653	0.001683	28.0829	105.991	0.001756	60347.1	3.156874	-9.075512	686.659	1.267536	0.101502	0.101251	694.048	60347.1	0.092876	0.269401	2576.27	106226