File: remote_trans/data/nanoindenter/0828-1/data/Data_2025-08-06,11h17m57s/2025-07-22_16-23-58_1_363.txt
2025-07-22, 16:23:58, 1
Index	Phase	Displacement	Time	Pos X	Pos Y	Pos Z	Rot A	Rot B	Piezo Z	Force A	Force B	Gripper	Voltage A	Voltage B	Temperature	Amplitude force	Amplitude pos	Stiffness	Phase shift	Phase excitation	Force A raw	Displacement raw	HMax	HMax raw	Real Force	Real Stiffness	Contact Depth	Area	Hardness	Reduced Mod.
[#]	[#]	[um]	[s]	[um]	[um]	[um]	[m°]	[m°]	[um]	[uN]	[uN]	[V]	[V]	[V]	[°C]	[uN]	[um]	[N/m]	[°]	[°]	[uN]	[um]	[um]	[um]	[uN]	[N/m]	[um]	[um^2]	[MPa]	[MPa]
363	1.000000	0.002335	7.36861e+06	-56789.1	955.818	-29738.4	0.000000	0.000000	6.002815	-0.030271	NaN	0.000000	0.001647	0.001691	28.0825	0.134521	0.001064	126.465	-67.2604	-164.291	0.028320	0.001082	-1.091578	-1.092830	-0.030271	126.465	-1.091398	-3.842250E+14	7.878497E-17	NaN
363	1.000000	0.044255	7.36861e+06	-56789.1	955.818	-29738.4	0.000000	0.000000	6.044737	-0.001636	NaN	0.000000	0.001663	0.001645	28.0811	0.052808	0.001936	27.2822	114.23	11.5161	-0.013400	0.042960	-1.049657	-1.050953	-0.001636	27.2822	-1.049612	-1.054874E+14	1.550925E-17	NaN
363	1.000000	0.086245	7.36861e+06	-56789.1	955.819	-29738.4	0.000000	0.000000	6.086726	-0.033329	NaN	0.000000	0.001678	0.001697	28.081	0.093995	0.002006	46.8472	-97.838	-167.92	-0.025077	0.084942	-1.007667	-1.008970	-0.033329	46.8472	-1.007133	-2.830072E+13	1.177687E-15	NaN
363	1.000000	0.128283	7.36861e+06	-56789.1	955.819	-29738.4	0.000000	0.000000	6.128765	0.008618	NaN	0.000000	0.001675	0.001723	28.0811	0.057467	0.002090	27.5012	27.6316	15.6478	-0.003367	0.126927	-0.965629	-0.966985	0.008618	27.5012	-0.965864	-7.869091E+12	-1.095196E-15	NaN
363	1.000000	0.170338	7.36861e+06	-56789.1	955.818	-29738.4	0.000000	0.000000	6.170822	0.054859	NaN	0.000000	0.001611	0.001697	28.0825	0.023513	0.001869	12.5828	107.95	-166.429	0.081303	0.169009	-0.923575	-0.924903	0.054859	12.5828	-0.926845	-2.342105E+12	-2.342280E-14	NaN
363	1.000000	0.212336	7.36861e+06	-56789.1	955.819	-29738.4	0.000000	0.000000	6.212821	0.055988	NaN	0.000000	0.001591	0.001686	28.0824	0.051173	0.002111	24.2406	-169.303	12.3336	-0.021244	0.210972	-0.881576	-0.882940	0.055988	24.2406	-0.883308	-6.045669E+11	-9.260825E-14	NaN
363	1.000000	0.254353	7.36861e+06	-56789.1	955.819	-29738.4	0.000000	0.000000	6.254834	-0.017807	NaN	0.000000	0.001653	0.001686	28.0827	0.124869	0.002097	59.5365	126.52	-163.645	-0.035409	0.253089	-0.839560	-0.840823	-0.017807	59.5365	-0.839335	-1.535631E+11	1.159571E-13	NaN
363	1.000000	0.296370	7.36861e+06	-56789.1	955.818	-29738.4	0.000000	0.000000	6.296852	-1.488317E-5	NaN	0.000000	0.001614	0.001724	28.0822	0.115909	0.001979	58.5698	52.4969	12.2012	0.035824	0.295030	-0.797542	-0.798883	-1.488317E-5	58.5698	-0.797542	-4.163878E+10	3.574353E-16	NaN
363	1.000000	0.338367	7.36861e+06	-56789.1	955.817	-29738.4	0.000000	0.000000	6.338846	-0.074808	NaN	0.000000	0.001624	0.001732	28.0809	0.133375	0.001956	68.1748	70.8113	-163.516	-0.090955	0.337050	-0.755546	-0.756862	-0.074808	68.1748	-0.754723	-1.090174E+10	6.862034E-12	NaN
363	1.000000	0.380410	7.36861e+06	-56789.1	955.818	-29738.4	0.000000	0.000000	6.380893	0.010251	NaN	0.000000	0.001566	0.001738	28.081	0.023100	0.001945	11.8772	-87.8912	15.5305	-0.115777	0.379033	-0.713502	-0.714879	0.010251	11.8772	-0.714149	-3.052586E+9	-3.358105E-12	NaN
363	1.000000	0.422409	7.36861e+06	-56789.1	955.819	-29738.4	0.000000	0.000000	6.422889	-0.061039	NaN	0.000000	0.001578	0.001749	28.081	0.052513	0.002020	25.9939	-42.6436	-165.445	0.018052	0.421127	-0.671503	-0.672786	-0.061039	25.9939	-0.669742	-7.548443E+8	8.086241E-11	NaN
363	1.000000	0.464443	7.36861e+06	-56789.1	955.819	-29738.4	0.000000	0.000000	6.464925	0.010341	NaN	0.000000	0.001579	0.001708	28.0824	0.106410	0.001967	54.1071	84.2988	10.3096	0.003077	0.463083	-0.629469	-0.630829	0.010341	54.1071	-0.629613	-2.126691E+8	-4.862517E-11	NaN
363	1.000000	0.506481	7.36861e+06	-56789.1	955.819	-29738.4	0.000000	0.000000	6.506963	0.004395	NaN	0.000000	0.001652	0.001712	28.0822	0.021426	0.002114	10.1331	-112.489	-166.338	-0.070096	0.505147	-0.587431	-0.588765	0.004395	10.1331	-0.587757	-5.645911E+7	-7.783771E-11	NaN
363	1.000000	0.548474	7.36862e+06	-56789.1	955.819	-29738.4	0.000000	0.000000	6.548956	0.013270	NaN	0.000000	0.001644	0.001728	28.0819	0.094575	0.001995	47.412	129.587	12.5044	-0.031288	0.547036	-0.545439	-0.546877	0.013270	47.412	-0.545649	-1.477977E+7	-8.978423E-10	NaN
363	1.000000	0.590492	7.36862e+06	-56789.1	955.818	-29738.4	0.000000	0.000000	6.590973	-0.007126	NaN	0.000000	0.001562	0.001733	28.0807	0.078200	0.001796	43.5484	-18.4206	-166.078	0.084924	0.589159	-0.503421	-0.504753	-0.007126	43.5484	-0.503298	-3.81078e+06	1.869858E-9	NaN
363	1.000000	0.632549	7.36862e+06	-56789.1	955.818	-29738.4	0.000000	0.000000	6.633030	-0.029800	NaN	0.000000	0.001625	0.001677	28.0809	0.103851	0.001950	53.2698	-156.411	14.9761	0.013331	0.631123	-0.461363	-0.462790	-0.029800	53.2698	-0.460944	-973377	3.061487E-8	NaN
363	1.000000	0.674544	7.36862e+06	-56789.1	955.818	-29738.4	0.000000	0.000000	6.675025	-0.017812	NaN	0.000000	0.001602	0.001705	28.0808	0.027251	0.002060	13.2285	-1.135089	-164.794	-0.046025	0.673226	-0.419368	-0.420687	-0.017812	13.2285	-0.418358	-243853	7.304376E-8	NaN
363	1.000000	0.716565	7.36862e+06	-56789.1	955.818	-29738.4	0.000000	0.000000	6.717045	-0.034103	NaN	0.000000	0.001660	0.001733	28.0823	0.067847	0.001886	35.9717	74.7602	12.0824	-0.073392	0.715214	-0.377348	-0.378699	-0.034103	35.9717	-0.376637	-61885.9	5.510552E-7	NaN
363	1.000000	0.758561	7.36862e+06	-56789.1	955.817	-29738.4	0.000000	0.000000	6.759044	0.003974	NaN	0.000000	0.001665	0.001739	28.0821	0.015356	0.001933	7.943682	-129.942	-165.084	-0.002911	0.757282	-0.335351	-0.336630	0.003974	7.943682	-0.335726	-15819.6	-2.512089E-7	NaN
363	1.000000	0.800586	7.36862e+06	-56789.1	955.818	-29738.4	0.000000	0.000000	6.801068	0.000390	NaN	0.000000	0.001685	0.001733	28.0818	0.089818	0.001985	45.2388	-19.8497	12.2767	0.082814	0.799259	-0.293326	-0.294653	0.000390	45.2388	-0.293333	-3742.61	-1.043095E-7	NaN
363	1.000000	0.842619	7.36862e+06	-56789.1	955.818	-29738.4	0.000000	0.000000	6.843096	-0.113962	NaN	0.000000	0.001686	0.001695	28.0821	0.098303	0.001991	49.3794	157.621	-165.246	-0.036479	0.841281	-0.251294	-0.252632	-0.113962	49.3794	-0.249563	-809.472	0.000141	NaN
363	1.000000	0.884639	7.36862e+06	-56789.1	955.819	-29738.4	0.000000	0.000000	6.885119	-0.051159	NaN	0.000000	0.001644	0.001752	28.0808	0.082096	0.002042	40.2056	85.5941	12.6045	-0.009280	0.883271	-0.209274	-0.210641	-0.051159	40.2056	-0.208319	-180.123	0.000284	NaN
363	1.000000	0.926658	7.36862e+06	-56789.1	955.818	-29738.4	0.000000	0.000000	6.927139	-0.040804	NaN	0.000000	0.001558	0.001716	28.0809	0.054682	0.001900	28.7772	-77.8472	-164.402	0.062316	0.925308	-0.167254	-0.168605	-0.040804	28.7772	-0.166190	-35.2519	0.001157	NaN
363	1.000000	0.968666	7.36862e+06	-56789.1	955.818	-29738.4	0.000000	0.000000	6.969147	-0.014099	NaN	0.000000	0.001576	0.001685	28.0806	0.066168	0.002082	31.782	166.752	15.8228	0.009811	0.967245	-0.125247	-0.126667	-0.014099	31.782	-0.124914	-6.057444	0.002328	NaN
363	1.000000	1.010648	7.36862e+06	-56789.1	955.817	-29738.4	0.000000	0.000000	7.011130	-0.001557	NaN	0.000000	0.001602	0.001737	28.0822	0.140050	0.002054	68.193	131.683	-166.34	-0.017950	1.009373	-0.083264	-0.084540	-0.001557	68.193	-0.083247	-0.744765	0.002091	NaN
363	1.000000	1.052714	7.36862e+06	-56789.1	955.818	-29738.4	0.000000	0.000000	7.053196	0.005814	NaN	0.000000	0.001581	0.001722	28.0822	0.082913	0.002101	39.462	21.2806	13.4675	0.010154	1.051302	-0.041199	-0.042610	0.005814	39.462	-0.041309	-0.049567	-0.117288	NaN
363	1.000000	1.094707	7.36862e+06	-56789.1	955.817	-29738.4	0.000000	0.000000	7.095245	1.368305	NaN	0.000000	0.001598	0.001705	28.0824	1.549494	0.002060	752.217	11.8049	-170.557	0.726688	1.093366	0.000794	-0.000547	1.368305	752.217	-0.000570	-0.000421	-3248.57	NaN
363	2.000000	1.110689	7.36862e+06	-56789.1	955.818	-29738.4	0.000000	0.000000	7.111992	19.9726	NaN	0.000000	0.001640	0.001709	28.0809	15.5547	0.001757	8850.81	6.260500	3.437565	19.089	1.110392	0.016776	0.016480	19.9726	8850.81	0.015084	0.015397	1297.14	65167.7
363	2.000000	1.121178	7.36862e+06	-56789.1	955.817	-29738.4	0.000000	0.000000	7.123166	36.6073	NaN	0.000000	0.001721	0.001722	28.0809	23.685	0.001758	13471.1	2.286516	-175.683	34.3423	1.120916	0.027265	0.027004	36.6073	13471.1	0.025227	0.031431	1164.7	69422.6
363	2.000000	1.131680	7.36862e+06	-56789.1	955.818	-29738.4	0.000000	0.000000	7.134704	61.7853	NaN	0.000000	0.001799	0.001681	28.0812	33.8552	0.001827	18534.6	0.951593	3.521377	59.6122	1.131274	0.037768	0.037362	61.7853	18534.6	0.035268	0.052371	1179.76	73996.7
363	2.000000	1.142158	7.36862e+06	-56789.1	955.817	-29738.4	0.000000	0.000000	7.146658	97.6548	NaN	0.000000	0.001717	0.001724	28.0822	43.1963	0.001887	22897.5	4.507327	177.779	96.1562	1.141858	0.048246	0.047946	97.6548	22897.5	0.045047	0.077721	1256.49	75040.2
363	2.000000	1.152590	7.36862e+06	-56789.1	955.816	-29738.4	0.000000	0.000000	7.158797	139.149	NaN	0.000000	0.001771	0.001669	28.0823	51.2251	0.001713	29904.4	1.924828	-1.541050	134.591	1.152313	0.058678	0.058401	139.149	29904.4	0.055188	0.109120	1275.19	82709.6
363	2.000000	1.163169	7.36862e+06	-56789.1	955.817	-29738.4	0.000000	0.000000	7.171461	189.849	NaN	0.000000	0.001725	0.001701	28.0825	61.7133	0.001713	36022	5.692106	173.352	188.81	1.162856	0.069256	0.068944	189.849	36022	0.065303	0.145510	1304.72	86277
363	2.000000	1.173712	7.36862e+06	-56789.1	955.818	-29738.4	0.000000	0.000000	7.184548	251.659	NaN	0.000000	0.001762	0.001702	28.0825	72.0106	0.001857	38777.2	2.975336	-4.198390	252.058	1.173213	0.079799	0.079300	251.659	38777.2	0.074932	0.184727	1362.32	82429.8
363	2.000000	1.184102	7.36862e+06	-56789.1	955.817	-29738.4	0.000000	0.000000	7.197461	312.997	NaN	0.000000	0.001736	0.001705	28.0809	81.0724	0.001743	46524.6	-0.635132	177.059	311.922	1.183883	0.090190	0.089970	312.997	46524.6	0.085144	0.231089	1354.44	88423.1
363	2.000000	1.194496	7.36862e+06	-56789.1	955.818	-29738.4	0.000000	0.000000	7.211473	400.913	NaN	0.000000	0.001713	0.001630	28.081	93.355	0.001811	51537	6.176831	-10.1964	394.528	1.194179	0.100584	0.100267	400.913	51537	0.094749	0.279095	1436.47	89128.4
363	2.000000	1.200514	7.36862e+06	-56789.1	955.818	-29738.4	0.000000	0.000000	7.219393	447.174	NaN	0.000000	0.001610	0.001701	28.0809	98.7594	0.001787	55274.4	6.316823	-10.4737	439.826	1.200109	0.106601	0.106197	447.174	55274.4	0.100534	0.310038	1442.32	90696.4