File: remote_trans/data/nanoindenter/0828-1/data/Data_2025-08-06,11h17m57s/2025-07-22_16-23-58_1_674.txt
2025-07-22, 16:23:58, 1
Index	Phase	Displacement	Time	Pos X	Pos Y	Pos Z	Rot A	Rot B	Piezo Z	Force A	Force B	Gripper	Voltage A	Voltage B	Temperature	Amplitude force	Amplitude pos	Stiffness	Phase shift	Phase excitation	Force A raw	Displacement raw	HMax	HMax raw	Real Force	Real Stiffness	Contact Depth	Area	Hardness	Reduced Mod.
[#]	[#]	[um]	[s]	[um]	[um]	[um]	[m°]	[m°]	[um]	[uN]	[uN]	[V]	[V]	[V]	[°C]	[uN]	[um]	[N/m]	[°]	[°]	[uN]	[um]	[um]	[um]	[uN]	[N/m]	[um]	[um^2]	[MPa]	[MPa]
674	1.000000	0.002420	7.37164e+06	-43389.1	1005.82	-29779.2	0.000000	0.000000	6.002826	0.049146	NaN	0.000000	0.001566	0.001718	28.0817	0.124993	0.001046	119.475	-91.5059	-158.237	0.057188	0.001112	-1.050149	-1.051456	0.049146	119.475	-1.050457	-1.082825E+14	-4.538714E-16	NaN
674	1.000000	0.042334	7.37164e+06	-43389.1	1005.82	-29779.2	0.000000	0.000000	6.042737	-0.013565	NaN	0.000000	0.001639	0.001722	28.0817	0.079339	0.002014	39.4018	163.365	-167.174	0.027646	0.041060	-1.010234	-1.011508	-0.013565	39.4018	-1.009976	-3.090745E+13	4.388771E-16	NaN
674	1.000000	0.082373	7.37164e+06	-43389.1	1005.82	-29779.2	0.000000	0.000000	6.082776	-0.039775	NaN	0.000000	0.001680	0.001688	28.0816	0.085757	0.002102	40.7887	-133.937	-163.931	-0.100202	0.081042	-0.970195	-0.971526	-0.039775	40.7887	-0.969463	-8.798969E+12	4.520466E-15	NaN
674	1.000000	0.122357	7.37164e+06	-43389.1	1005.82	-29779.2	0.000000	0.000000	6.122763	0.057612	NaN	0.000000	0.001689	0.001715	28.0827	0.110070	0.002083	52.8505	39.2012	-164.053	-0.028982	0.121057	-0.930211	-0.931511	0.057612	52.8505	-0.931029	-2.667381E+12	-2.159864E-14	NaN
674	1.000000	0.162373	7.37164e+06	-43389.1	1005.82	-29779.2	0.000000	0.000000	6.162779	0.061619	NaN	0.000000	0.001622	0.001722	28.0828	0.079169	0.001919	41.2513	2.649767	-164.853	0.047816	0.161033	-0.890195	-0.891535	0.061619	41.2513	-0.891315	-7.757066E+11	-7.943536E-14	NaN
674	1.000000	0.202388	7.37164e+06	-43389.1	1005.82	-29779.3	0.000000	0.000000	6.202790	-0.030907	NaN	0.000000	0.001590	0.001710	28.0829	0.023056	0.001929	11.9501	144.144	-162.92	-0.063986	0.201049	-0.850181	-0.851520	-0.030907	11.9501	-0.848241	-2.027291E+11	1.524555E-13	NaN
674	1.000000	0.242448	7.37164e+06	-43389.1	1005.82	-29779.3	0.000000	0.000000	6.242853	0.018676	NaN	0.000000	0.001605	0.001689	28.0817	0.013602	0.002071	6.567087	2.126392	-165.696	-0.004017	0.241139	-0.810120	-0.811429	0.018676	6.567087	-0.812253	-6.593791E+10	-2.832354E-13	NaN
674	1.000000	0.282439	7.37164e+06	-43389.1	1005.82	-29779.3	0.000000	0.000000	6.282845	0.063328	NaN	0.000000	0.001600	0.001665	28.082	0.089151	0.002045	43.5863	-71.0327	-163.952	0.086353	0.281057	-0.770130	-0.771511	0.063328	43.5863	-0.771219	-1.827606E+10	-3.465066E-12	NaN
674	1.000000	0.322482	7.37164e+06	-43389.1	1005.82	-29779.3	0.000000	0.000000	6.322885	-0.036284	NaN	0.000000	0.001630	0.001727	28.0819	0.032655	0.001963	16.6338	6.335014	-161.949	-0.094761	0.321151	-0.730086	-0.731417	-0.036284	16.6338	-0.728450	-4.782777E+9	7.586315E-12	NaN
674	1.000000	0.362474	7.37164e+06	-43389.1	1005.82	-29779.3	0.000000	0.000000	6.362876	-0.056926	NaN	0.000000	0.001641	0.001711	28.0817	0.024892	0.002032	12.2528	-34.974	-168.48	-0.025694	0.361170	-0.690094	-0.691399	-0.056926	12.2528	-0.686610	-1.284036E+9	4.433334E-11	NaN
674	1.000000	0.402502	7.37164e+06	-43389.1	1005.82	-29779.3	0.000000	0.000000	6.402903	-0.068539	NaN	0.000000	0.001641	0.001725	28.0834	0.047117	0.002024	23.2744	20.0937	-167.641	-0.062764	0.401177	-0.650067	-0.651392	-0.068539	23.2744	-0.647858	-3.785041E+8	1.810792E-10	NaN
674	1.000000	0.442510	7.37164e+06	-43389.1	1005.82	-29779.3	0.000000	0.000000	6.442913	-0.002333	NaN	0.000000	0.001655	0.001676	28.0831	0.074126	0.001927	38.4614	-134.497	-163.141	0.000869	0.441180	-0.610059	-0.611388	-0.002333	38.4614	-0.610013	-1.143656E+8	2.040323E-11	NaN
674	1.000000	0.482508	7.37164e+06	-43389.1	1005.82	-29779.3	0.000000	0.000000	6.482915	0.070115	NaN	0.000000	0.001573	0.001756	28.0834	0.072638	0.001944	37.362	-129.974	-166.188	0.072093	0.481203	-0.570061	-0.571365	0.070115	37.362	-0.571468	-3.364448E+7	-2.083993E-9	NaN
674	1.000000	0.522558	7.37165e+06	-43389.1	1005.82	-29779.3	0.000000	0.000000	6.522961	-0.014234	NaN	0.000000	0.001584	0.001707	28.0818	0.066728	0.001984	33.6354	-74.5127	-167.65	-0.065044	0.521278	-0.530010	-0.531290	-0.014234	33.6354	-0.529693	-8.87788e+06	1.603349E-9	NaN
674	1.000000	0.562582	7.37165e+06	-43389.1	1005.82	-29779.3	0.000000	0.000000	6.562985	-0.018538	NaN	0.000000	0.001563	0.001736	28.0816	0.025931	0.002109	12.2931	-177.613	-163.962	-0.055840	0.561238	-0.489986	-0.491330	-0.018538	12.2931	-0.488855	-2.39549e+06	7.738898E-9	NaN
674	1.000000	0.602563	7.37165e+06	-43389.1	1005.82	-29779.3	0.000000	0.000000	6.602968	0.044219	NaN	0.000000	0.001598	0.001713	28.0816	0.067224	0.002073	32.4358	-142.363	-163.891	0.093218	0.601262	-0.450006	-0.451306	0.044219	32.4358	-0.451028	-706024	-6.263093E-8	NaN
674	1.000000	0.642578	7.37165e+06	-43389.1	1005.82	-29779.3	0.000000	0.000000	6.642984	0.034391	NaN	0.000000	0.001588	0.001680	28.0821	0.008054	0.001898	4.243765	-83.687	-163.339	-0.009905	0.641304	-0.409990	-0.411264	0.034391	4.243765	-0.416068	-226265	-1.519952E-7	NaN
674	1.000000	0.682603	7.37165e+06	-43389.1	1005.82	-29779.3	0.000000	0.000000	6.683007	0.006967	NaN	0.000000	0.001584	0.001677	28.0831	0.041153	0.001952	21.0877	-71.1527	-165.665	-0.032656	0.681228	-0.369965	-0.371340	0.006967	21.0877	-0.370213	-50025.6	-1.392696E-7	NaN
674	1.000000	0.722641	7.37165e+06	-43389.1	1005.82	-29779.3	0.000000	0.000000	6.723046	0.022322	NaN	0.000000	0.001616	0.001735	28.083	0.149291	0.001914	77.9798	-39.4811	-167.882	0.050349	0.721288	-0.329927	-0.331281	0.022322	77.9798	-0.330142	-13107.7	-1.702932E-6	NaN
674	1.000000	0.762640	7.37165e+06	-43389.1	1005.82	-29779.3	0.000000	0.000000	6.763044	-0.004847	NaN	0.000000	0.001583	0.001745	28.083	0.033636	0.002069	16.2575	-100.174	-165.223	0.043732	0.761360	-0.289928	-0.291208	-0.004847	16.2575	-0.289705	-3302.75	1.467485E-6	NaN
674	1.000000	0.802663	7.37165e+06	-43389.1	1005.82	-29779.3	0.000000	0.000000	6.803067	-0.005661	NaN	0.000000	0.001596	0.001730	28.082	0.046522	0.002060	22.5811	145.25	-164.818	-0.026257	0.801341	-0.249905	-0.251227	-0.005661	22.5811	-0.249717	-813.927	6.954875E-6	NaN
674	1.000000	0.842680	7.37165e+06	-43389.1	1005.82	-29779.3	0.000000	0.000000	6.843082	-0.046020	NaN	0.000000	0.001598	0.001711	28.0816	0.040391	0.001889	21.3858	-49.7393	-168.023	-0.075652	0.841367	-0.209888	-0.211202	-0.046020	21.3858	-0.208274	-179.817	0.000256	NaN
674	1.000000	0.882659	7.37165e+06	-43389.1	1005.82	-29779.3	0.000000	0.000000	6.883060	-0.058477	NaN	0.000000	0.001597	0.001669	28.0814	0.034029	0.002077	16.3874	-136.08	-167.51	-0.015035	0.881370	-0.169910	-0.171198	-0.058477	16.3874	-0.167233	-36.7639	0.001591	NaN
674	1.000000	0.922685	7.37165e+06	-43389.1	1005.82	-29779.3	0.000000	0.000000	6.923088	-0.016058	NaN	0.000000	0.001602	0.001702	28.0828	0.019839	0.001929	10.2853	-150.979	-164.543	-0.000769	0.921423	-0.129883	-0.131145	-0.016058	10.2853	-0.128713	-7.193576	0.002232	NaN
674	1.000000	0.962695	7.37165e+06	-43389.1	1005.82	-29779.3	0.000000	0.000000	6.963097	-0.037115	NaN	0.000000	0.001615	0.001697	28.0829	0.017881	0.002034	8.790071	107.736	-165.016	0.002151	0.961425	-0.089874	-0.091144	-0.037115	8.790071	-0.086707	-0.903160	0.041095	NaN
674	1.000000	1.002738	7.37165e+06	-43389.1	1005.82	-29779.3	0.000000	0.000000	7.003144	0.028875	NaN	0.000000	0.001611	0.001701	28.0828	0.084487	0.001974	42.7995	-112.594	-168.429	0.016470	1.001447	-0.049830	-0.051121	0.028875	42.7995	-0.050336	-0.093408	-0.309125	NaN
674	1.000000	1.042737	7.37165e+06	-43389.1	1005.82	-29779.3	0.000000	0.000000	7.043141	0.004679	NaN	0.000000	0.001604	0.001705	28.0828	0.044610	0.002060	21.6583	-77.2857	-161.402	0.038229	1.041447	-0.009831	-0.011121	0.004679	21.6583	-0.009993	-0.006383	-0.733006	NaN
674	2.000000	1.064366	7.37165e+06	-43389.1	1005.82	-29779.3	0.000000	0.000000	7.065511	18.0271	NaN	0.000000	0.001607	0.001688	28.0818	15.8245	0.001787	8853.66	7.919659	-176.477	18.0198	1.064066	0.011798	0.011498	18.0271	8853.66	0.010271	0.009484	1900.72	83060.2
674	2.000000	1.074369	7.37165e+06	-43389.1	1005.82	-29779.3	0.000000	0.000000	7.076498	41.9637	NaN	0.000000	0.001661	0.001692	28.0818	27.7829	0.001869	14863.9	7.665073	178.715	42.5822	1.074050	0.021801	0.021481	41.9637	14863.9	0.019683	0.022047	1903.35	91459.1
674	2.000000	1.084274	7.37165e+06	-43389.1	1005.82	-29779.3	0.000000	0.000000	7.087817	76.3788	NaN	0.000000	0.001654	0.001716	28.0815	37.694	0.001811	20813.5	0.630391	-177.767	74.9603	1.084057	0.031706	0.031488	76.3788	20813.5	0.028954	0.038603	1978.59	96785.2
674	2.000000	1.094278	7.37165e+06	-43389.1	1005.82	-29779.3	0.000000	0.000000	7.099407	114.975	NaN	0.000000	0.001647	0.001738	28.0832	47.5968	0.001801	26427.4	2.607310	177.298	112.556	1.094063	0.041709	0.041495	114.975	26427.4	0.038446	0.060075	1913.86	98510.2
674	2.000000	1.104270	7.37165e+06	-43389.1	1005.82	-29779.3	0.000000	0.000000	7.111427	164.294	NaN	0.000000	0.001630	0.001734	28.0831	56.7194	0.001797	31570.5	2.968150	176.547	164.613	1.103984	0.051702	0.051415	164.294	31570.5	0.047799	0.085732	1916.37	98510.8
674	2.000000	1.114242	7.37165e+06	-43389.1	1005.82	-29779.3	0.000000	0.000000	7.123420	213.454	NaN	0.000000	0.001607	0.001761	28.083	67.0144	0.001762	38043.1	6.027388	171.245	213.054	1.114050	0.061674	0.061482	213.454	38043.1	0.057466	0.116878	1826.29	101668
674	2.000000	1.124200	7.37165e+06	-43389.1	1005.82	-29779.3	0.000000	0.000000	7.136625	292.478	NaN	0.000000	0.001580	0.001746	28.083	77.3633	0.001928	40116.1	3.628981	173.787	289.272	1.123989	0.071632	0.071421	292.478	40116.1	0.066164	0.148834	1965.13	95003.8
674	2.000000	1.134181	7.37165e+06	-43389.1	1005.82	-29779.3	0.000000	0.000000	7.149857	371.572	NaN	0.000000	0.001655	0.001711	28.0821	85.5782	0.001730	49470.2	3.744412	172.152	367.728	1.133781	0.081613	0.081213	371.572	49470.2	0.075979	0.189259	1963.31	103894
674	2.000000	1.144264	7.37165e+06	-43389.1	1005.82	-29779.3	0.000000	0.000000	7.163276	452.736	NaN	0.000000	0.001662	0.001767	28.0817	96.7775	0.001831	52848.1	4.329637	171.397	456.809	1.143935	0.091696	0.091367	452.736	52848.1	0.085271	0.231694	1954.03	100310
674	2.000000	1.154143	7.37165e+06	-43389.1	1005.82	-29779.3	0.000000	0.000000	7.176603	536.616	NaN	0.000000	0.001660	0.001724	28.0814	106.68	0.001856	57489.3	7.387020	167.531	532.634	1.153856	0.101575	0.101287	536.616	57489.3	0.094574	0.278180	1929.03	99585.7
674	2.000000	1.156577	7.37165e+06	-43389.1	1005.82	-29779.3	0.000000	0.000000	7.180064	561.609	NaN	0.000000	0.001650	0.001693	28.0819	106.222	0.001787	59435	1.005896	-5.833846	551.554	1.156372	0.104008	0.103804	561.609	59435	0.096921	0.290536	1933.01	100743