File: remote_trans/data/nanoindenter/0828-1/data/Data_2025-08-06,11h17m57s/2025-07-22_16-23-58_1_681.txt
2025-07-22, 16:23:58, 1
Index	Phase	Displacement	Time	Pos X	Pos Y	Pos Z	Rot A	Rot B	Piezo Z	Force A	Force B	Gripper	Voltage A	Voltage B	Temperature	Amplitude force	Amplitude pos	Stiffness	Phase shift	Phase excitation	Force A raw	Displacement raw	HMax	HMax raw	Real Force	Real Stiffness	Contact Depth	Area	Hardness	Reduced Mod.
[#]	[#]	[um]	[s]	[um]	[um]	[um]	[m°]	[m°]	[um]	[uN]	[uN]	[V]	[V]	[V]	[°C]	[uN]	[um]	[N/m]	[°]	[°]	[uN]	[um]	[um]	[um]	[uN]	[N/m]	[um]	[um^2]	[MPa]	[MPa]
681	1.000000	0.002609	7.37171e+06	-43039.1	1005.82	-29780.5	0.000000	0.000000	6.002770	0.047155	NaN	0.000000	0.001612	0.001806	28.0835	0.166125	0.000994	167.143	-47.1557	-164.517	-0.014987	0.001361	-1.126722	-1.127970	0.047155	167.143	-1.126934	-1.152099E+15	-4.092993E-17	NaN
681	1.000000	0.044578	7.37171e+06	-43039.1	1005.82	-29780.5	0.000000	0.000000	6.044739	0.047188	NaN	0.000000	0.001564	0.001780	28.0814	0.021841	0.001916	11.4	-70.1359	16.7422	-0.005474	0.043207	-1.084753	-1.086124	0.047188	11.4	-1.087857	-3.443812E+14	-1.370222E-16	NaN
681	1.000000	0.086628	7.37171e+06	-43039.1	1005.82	-29780.5	0.000000	0.000000	6.086788	0.040285	NaN	0.000000	0.001652	0.001805	28.0816	0.108895	0.001978	55.0563	51.2735	-164.278	0.011745	0.085351	-1.042703	-1.043980	0.040285	55.0563	-1.043252	-8.663583E+13	-4.649905E-16	NaN
681	1.000000	0.128574	7.37171e+06	-43039.1	1005.82	-29780.5	0.000000	0.000000	6.128734	0.052729	NaN	0.000000	0.001613	0.001808	28.0815	0.015719	0.002002	7.850187	-165.031	13.6702	0.098386	0.127270	-1.000758	-1.002061	0.052729	7.850187	-1.005795	-2.715116E+13	-1.942064E-15	NaN
681	1.000000	0.170650	7.37171e+06	-43039.1	1005.82	-29780.5	0.000000	0.000000	6.170810	0.039000	NaN	0.000000	0.001569	0.001810	28.0827	0.074191	0.002072	35.8066	-148.572	-165.409	-0.039726	0.169366	-0.958682	-0.959966	0.039000	35.8066	-0.959499	-6.458170E+12	-6.038917E-15	NaN
681	1.000000	0.212649	7.37171e+06	-43039.1	1005.82	-29780.5	0.000000	0.000000	6.212806	-0.048174	NaN	0.000000	0.001592	0.001822	28.0826	0.078110	0.002072	37.6989	-32.0415	15.7482	0.013025	0.211281	-0.916682	-0.918050	-0.048174	37.6989	-0.915724	-1.657541E+12	2.906362E-14	NaN
681	1.000000	0.254672	7.37171e+06	-43039.1	1005.82	-29780.5	0.000000	0.000000	6.254831	-0.003540	NaN	0.000000	0.001588	0.001818	28.0826	0.075472	0.001931	39.0789	-124.545	-164.383	-0.030801	0.253329	-0.874659	-0.876002	-0.003540	39.0789	-0.874591	-4.608426E+11	7.682129E-15	NaN
681	1.000000	0.296700	7.37171e+06	-43039.1	1005.82	-29780.5	0.000000	0.000000	6.296862	0.087279	NaN	0.000000	0.001668	0.001810	28.0812	0.063026	0.002076	30.3576	4.304581	17.5008	0.039490	0.295287	-0.832631	-0.834044	0.087279	30.3576	-0.834787	-1.332496E+11	-6.550059E-13	NaN
681	1.000000	0.338718	7.37171e+06	-43039.1	1005.82	-29780.5	0.000000	0.000000	6.338879	0.069871	NaN	0.000000	0.001672	0.001837	28.0814	0.066762	0.002002	33.3487	148.951	-166.843	0.065651	0.337439	-0.790613	-0.791892	0.069871	33.3487	-0.792185	-3.521697E+10	-1.984021E-12	NaN
681	1.000000	0.380702	7.37171e+06	-43039.1	1005.82	-29780.5	0.000000	0.000000	6.380863	0.065928	NaN	0.000000	0.001628	0.001838	28.0816	0.081649	0.002026	40.3095	-82.8961	14.9311	0.113791	0.379347	-0.748630	-0.749985	0.065928	40.3095	-0.749856	-9.359713E+9	-7.043813E-12	NaN
681	1.000000	0.422741	7.37171e+06	-43039.1	1005.82	-29780.5	0.000000	0.000000	6.422898	-0.026230	NaN	0.000000	0.001637	0.001755	28.0817	0.023232	0.001972	11.7809	-161.671	-159.53	-0.096063	0.421430	-0.706591	-0.707901	-0.026230	11.7809	-0.704921	-2.284131E+9	1.148364E-11	NaN
681	1.000000	0.464744	7.37171e+06	-43039.1	1005.82	-29780.5	0.000000	0.000000	6.464902	-0.016534	NaN	0.000000	0.001715	0.001751	28.0829	0.064112	0.002026	31.6382	15.8661	14.0185	0.067563	0.463436	-0.664587	-0.665895	-0.016534	31.6382	-0.664195	-6.337615E+8	2.608884E-11	NaN
681	1.000000	0.506805	7.37171e+06	-43039.1	1005.82	-29780.5	0.000000	0.000000	6.506965	0.043825	NaN	0.000000	0.001687	0.001762	28.0831	0.123940	0.001949	63.5919	-153.488	-164.032	0.007181	0.505470	-0.622526	-0.623862	0.043825	63.5919	-0.623043	-1.727658E+8	-2.536695E-10	NaN
681	1.000000	0.548798	7.37171e+06	-43039.1	1005.82	-29780.5	0.000000	0.000000	6.548959	0.041900	NaN	0.000000	0.001615	0.001767	28.0832	0.065627	0.002182	30.0776	110.082	14.3396	0.017332	0.547457	-0.580533	-0.581874	0.041900	30.0776	-0.581578	-4.639775E+7	-9.030700E-10	NaN
681	1.000000	0.590808	7.37171e+06	-43039.1	1005.82	-29780.5	0.000000	0.000000	6.590969	0.064172	NaN	0.000000	0.001573	0.001813	28.0821	0.106068	0.001949	54.4144	111.09	-167.809	0.038177	0.589561	-0.538523	-0.539770	0.064172	54.4144	-0.539408	-1.210994E+7	-5.299137E-9	NaN
681	1.000000	0.632847	7.37171e+06	-43039.1	1005.82	-29780.5	0.000000	0.000000	6.633008	0.036650	NaN	0.000000	0.001587	0.001770	28.0821	0.019694	0.002055	9.583864	151.484	15.1866	-0.009221	0.631459	-0.496484	-0.497872	0.036650	9.583864	-0.499352	-3.35718e+06	-1.091679E-8	NaN
681	1.000000	0.674858	7.37172e+06	-43039.1	1005.82	-29780.5	0.000000	0.000000	6.675017	0.026029	NaN	0.000000	0.001517	0.001804	28.0819	0.023360	0.001984	11.7728	46.3854	-164.161	0.008754	0.673498	-0.454474	-0.455834	0.026029	11.7728	-0.456132	-832982	-3.124748E-8	NaN
681	1.000000	0.716879	7.37172e+06	-43039.1	1005.82	-29780.5	0.000000	0.000000	6.717036	-0.036004	NaN	0.000000	0.001614	0.001790	28.0834	0.041501	0.001993	20.8188	-89.5996	18.9595	-0.029993	0.715468	-0.412452	-0.413863	-0.036004	20.8188	-0.411155	-192674	1.868651E-7	NaN
681	1.000000	0.758886	7.37172e+06	-43039.1	1005.82	-29780.5	0.000000	0.000000	6.759046	0.024040	NaN	0.000000	0.001597	0.001798	28.0831	0.071323	0.002051	34.7705	28.7961	-163.407	0.069255	0.757606	-0.370445	-0.371725	0.024040	34.7705	-0.370964	-51286.5	-4.687311E-7	NaN
681	1.000000	0.800901	7.37172e+06	-43039.1	1005.82	-29780.5	0.000000	0.000000	6.801059	-0.010635	NaN	0.000000	0.001588	0.001747	28.0829	0.053082	0.001949	27.2295	110.214	14.1418	-0.007900	0.799559	-0.328430	-0.329772	-0.010635	27.2295	-0.328137	-12250.7	8.680913E-7	NaN
681	1.000000	0.842927	7.37172e+06	-43039.1	1005.82	-29780.5	0.000000	0.000000	6.843085	-0.013815	NaN	0.000000	0.001559	0.001749	28.0818	0.072457	0.001993	36.3594	72.3891	-167.632	0.002900	0.841545	-0.286404	-0.287786	-0.013815	36.3594	-0.286119	-2917.98	4.734373E-6	NaN
681	1.000000	0.884924	7.37172e+06	-43039.1	1005.82	-29780.5	0.000000	0.000000	6.885083	0.001623	NaN	0.000000	0.001629	0.001787	28.0819	0.113002	0.001843	61.3032	-98.1336	14.2251	-0.073103	0.883541	-0.244407	-0.245790	0.001623	61.3032	-0.244427	-673.812	-2.409310E-6	NaN
681	1.000000	0.926950	7.37172e+06	-43039.1	1005.82	-29780.5	0.000000	0.000000	6.927110	0.053629	NaN	0.000000	0.001613	0.001763	28.0819	0.109766	0.001877	58.4848	143.539	-165.707	0.120193	0.925686	-0.202382	-0.203645	0.053629	58.4848	-0.203069	-147.919	-0.000363	NaN
681	1.000000	0.968976	7.37172e+06	-43039.1	1005.82	-29780.5	0.000000	0.000000	6.969134	0.001661	NaN	0.000000	0.001602	0.001792	28.0819	0.090417	0.001970	45.8859	109.8	15.2332	0.033035	0.967642	-0.160355	-0.161689	0.001661	45.8859	-0.160383	-27.8472	-5.964466E-5	NaN
681	1.000000	1.010959	7.37172e+06	-43039.1	1005.82	-29780.5	0.000000	0.000000	7.011119	0.049004	NaN	0.000000	0.001634	0.001769	28.083	0.049852	0.001929	25.8378	-86.385	-162.314	0.051625	1.009643	-0.118372	-0.119689	0.049004	25.8378	-0.119795	-4.785625	-0.010240	NaN
681	1.000000	1.052994	7.37172e+06	-43039.1	1005.82	-29780.5	0.000000	0.000000	7.053152	-0.003296	NaN	0.000000	0.001630	0.001824	28.083	0.112335	0.002023	55.5429	-61.1338	19.0199	0.020775	1.051682	-0.076338	-0.077649	-0.003296	55.5429	-0.076293	-0.498682	0.006610	NaN
681	1.000000	1.095030	7.37172e+06	-43039.1	1005.82	-29780.5	0.000000	0.000000	7.095192	0.092923	NaN	0.000000	0.001636	0.001776	28.0829	0.086703	0.001946	44.5637	107.032	-164.275	0.045160	1.093689	-0.034301	-0.035642	0.092923	44.5637	-0.035865	-0.033967	-2.735735	NaN
681	2.000000	1.136681	7.37172e+06	-43039.1	1005.82	-29780.5	0.000000	0.000000	7.137256	10.1209	NaN	0.000000	0.001618	0.001812	28.0819	8.844045	0.001600	5528.92	7.562030	10.1209	8.050014	1.135614	0.007350	0.006283	10.1209	5528.92	0.005977	0.005043	2006.99	71133.9
681	2.000000	1.147423	7.37172e+06	-43039.1	1005.82	-29780.5	0.000000	0.000000	7.148729	27.9228	NaN	0.000000	0.001581	0.001793	28.082	20.3327	0.001669	12182.6	6.129643	-178.594	26.7511	1.147158	0.018091	0.017827	27.9228	12182.6	0.016372	0.017159	1627.28	84970.3
681	2.000000	1.157956	7.37172e+06	-43039.1	1005.82	-29780.5	0.000000	0.000000	7.160568	59.6921	NaN	0.000000	0.001632	0.001706	28.0818	30.9725	0.001702	18197	8.211163	-3.992096	57.6467	1.157541	0.028624	0.028210	59.6921	18197	0.026164	0.033168	1799.71	91288.3
681	2.000000	1.168444	7.37172e+06	-43039.1	1005.82	-29780.5	0.000000	0.000000	7.172554	96.1543	NaN	0.000000	0.001581	0.001707	28.0833	41.0093	0.001756	23358.1	4.349985	178.899	98.7693	1.168194	0.039112	0.038863	96.1543	23358.1	0.036025	0.054160	1775.39	91700.8
681	2.000000	1.178826	7.37172e+06	-43039.1	1005.82	-29780.5	0.000000	0.000000	7.185166	150.387	NaN	0.000000	0.001556	0.001707	28.0832	51.1341	0.001779	28750.7	8.312048	-6.848839	145.634	1.178458	0.049495	0.049127	150.387	28750.7	0.045572	0.079218	1898.39	93327.2
681	2.000000	1.189416	7.37172e+06	-43039.1	1005.82	-29780.5	0.000000	0.000000	7.198114	207.778	NaN	0.000000	0.001630	0.001681	28.0832	62.76	0.001879	33401.6	6.213325	174.658	207.215	1.188939	0.060084	0.059608	207.778	33401.6	0.055419	0.109895	1890.69	92055.8
681	2.000000	1.199807	7.37172e+06	-43039.1	1005.82	-29780.5	0.000000	0.000000	7.211383	277.788	NaN	0.000000	0.001577	0.001710	28.0819	73.2033	0.001808	40480	4.676064	-6.438573	273.016	1.199477	0.070476	0.070146	277.788	40480	0.065329	0.145609	1907.77	96921.4
681	2.000000	1.210362	7.37172e+06	-43039.1	1005.82	-29780.5	0.000000	0.000000	7.225249	358.343	NaN	0.000000	0.001625	0.001712	28.0823	82.846	0.001832	45213.3	3.806024	173.532	357.481	1.210143	0.081031	0.080812	358.343	45213.3	0.075086	0.185392	1932.89	95938.6
681	2.000000	1.220797	7.37172e+06	-43039.1	1005.82	-29780.5	0.000000	0.000000	7.239487	450.865	NaN	0.000000	0.001589	0.001690	28.0826	92.95	0.001836	50622.1	8.789283	-10.885	446.686	1.220381	0.091466	0.091050	450.865	50622.1	0.084786	0.229381	1965.57	96568.2
681	2.000000	1.231314	7.37172e+06	-43039.1	1005.82	-29780.5	0.000000	0.000000	7.254011	548.36	NaN	0.000000	0.001630	0.001704	28.0822	101.508	0.001759	57722.9	3.374200	172.983	547.582	1.231056	0.101983	0.101725	548.36	57722.9	0.094858	0.279664	1960.78	99724.8
681	2.000000	1.235379	7.37172e+06	-43039.1	1005.82	-29780.5	0.000000	0.000000	7.259604	585.549	NaN	0.000000	0.001548	0.001682	28.0833	104.735	0.001740	60187.8	3.823726	172.051	590.13	1.235047	0.106048	0.105716	585.549	60187.8	0.098751	0.300340	1949.62	100340