File: remote_trans/data/nanoindenter/0828-1/data/Data_2025-08-06,11h17m57s/2025-07-22_16-23-58_1_738.txt
2025-07-22, 16:23:58, 1
Index	Phase	Displacement	Time	Pos X	Pos Y	Pos Z	Rot A	Rot B	Piezo Z	Force A	Force B	Gripper	Voltage A	Voltage B	Temperature	Amplitude force	Amplitude pos	Stiffness	Phase shift	Phase excitation	Force A raw	Displacement raw	HMax	HMax raw	Real Force	Real Stiffness	Contact Depth	Area	Hardness	Reduced Mod.
[#]	[#]	[um]	[s]	[um]	[um]	[um]	[m°]	[m°]	[um]	[uN]	[uN]	[V]	[V]	[V]	[°C]	[uN]	[um]	[N/m]	[°]	[°]	[uN]	[um]	[um]	[um]	[uN]	[N/m]	[um]	[um^2]	[MPa]	[MPa]
738	1.000000	0.001764	7.37227e+06	-40189.1	1005.82	-29790.9	0.000000	0.000000	6.002772	0.027138	NaN	0.000000	0.001586	0.001659	28.0814	0.035074	0.000993	35.3162	-46.6783	-163.861	-0.026945	0.000511	-1.056778	-1.058031	0.027138	35.3162	-1.057354	-1.340491E+14	-2.024506E-16	NaN
738	1.000000	0.041731	7.37227e+06	-40189.1	1005.82	-29790.9	0.000000	0.000000	6.042738	0.008325	NaN	0.000000	0.001549	0.001713	28.0811	0.028181	0.002079	13.5553	174.179	-166.094	0.019536	0.040399	-1.016811	-1.018143	0.008325	13.5553	-1.017272	-3.874735E+13	-2.148559E-16	NaN
738	1.000000	0.081767	7.37227e+06	-40189.1	1005.82	-29790.9	0.000000	0.000000	6.082771	-0.039044	NaN	0.000000	0.001555	0.001685	28.0799	0.070103	0.001888	37.1233	-158.307	-166.417	-0.156983	0.080447	-0.976776	-0.978095	-0.039044	37.1233	-0.975987	-1.077310E+13	3.624182E-15	NaN
738	1.000000	0.121746	7.37227e+06	-40189.1	1005.82	-29790.9	0.000000	0.000000	6.122753	0.032362	NaN	0.000000	0.001552	0.001662	28.0797	0.059560	0.002074	28.7116	-177.174	-164.157	-0.050031	0.120439	-0.936796	-0.938103	0.032362	28.7116	-0.937642	-3.275822E+12	-9.878966E-15	NaN
738	1.000000	0.161784	7.37227e+06	-40189.1	1005.82	-29790.9	0.000000	0.000000	6.162789	-0.025536	NaN	0.000000	0.001567	0.001649	28.08	0.080433	0.001982	40.5761	-24.0201	-165.123	-0.031085	0.160489	-0.896759	-0.898054	-0.025536	40.5761	-0.896287	-9.054927E+11	2.820097E-14	NaN
738	1.000000	0.201774	7.37227e+06	-40189.1	1005.82	-29790.9	0.000000	0.000000	6.202779	-0.026573	NaN	0.000000	0.001614	0.001654	28.0813	0.079722	0.001932	41.2735	58.0498	-164.736	-0.036681	0.200505	-0.856768	-0.858037	-0.026573	41.2735	-0.856285	-2.605182E+11	1.020000E-13	NaN
738	1.000000	0.241840	7.37227e+06	-40189.1	1005.82	-29790.9	0.000000	0.000000	6.242845	-0.039906	NaN	0.000000	0.001576	0.001637	28.0813	0.047274	0.002013	23.479	-85.2693	-161.485	-0.021269	0.240487	-0.816702	-0.818056	-0.039906	23.479	-0.815427	-7.281053E+10	5.480840E-13	NaN
738	1.000000	0.281832	7.37227e+06	-40189.1	1005.82	-29790.9	0.000000	0.000000	6.282841	0.069531	NaN	0.000000	0.001566	0.001679	28.0816	0.028593	0.001990	14.3706	40.3	-161.781	0.000352	0.280532	-0.776710	-0.778010	0.069531	14.3706	-0.780339	-2.431305E+10	-2.859817E-12	NaN
738	1.000000	0.321821	7.37227e+06	-40189.1	1005.82	-29790.9	0.000000	0.000000	6.322826	-0.029470	NaN	0.000000	0.001612	0.001664	28.0814	0.218458	0.002104	103.846	176.887	-164.541	0.010126	0.320567	-0.736722	-0.737976	-0.029470	103.846	-0.736509	-6.158828E+9	4.784922E-12	NaN
738	1.000000	0.361891	7.37227e+06	-40189.1	1005.82	-29790.9	0.000000	0.000000	6.362899	0.041671	NaN	0.000000	0.001513	0.001668	28.0802	0.054049	0.001929	28.0196	-151.978	-166.013	0.047716	0.360567	-0.696652	-0.697975	0.041671	28.0196	-0.697767	-1.824038E+9	-2.284519E-11	NaN
738	1.000000	0.401869	7.37227e+06	-40189.1	1005.82	-29790.9	0.000000	0.000000	6.402875	-0.001763	NaN	0.000000	0.001546	0.001714	28.08	0.048599	0.002121	22.9132	-6.118344	-167.722	-0.001583	0.400581	-0.656673	-0.657961	-0.001763	22.9132	-0.656615	-4.990015E+8	3.533015E-12	NaN
738	1.000000	0.441887	7.37227e+06	-40189.1	1005.82	-29790.9	0.000000	0.000000	6.442898	0.098283	NaN	0.000000	0.001508	0.001689	28.0801	0.013576	0.002007	6.763629	88.2767	-166.17	0.096131	0.440588	-0.616655	-0.617954	0.098283	6.763629	-0.627553	-1.992598E+8	-4.932413E-10	NaN
738	1.000000	0.481920	7.37228e+06	-40189.1	1005.82	-29790.9	0.000000	0.000000	6.482925	-0.034127	NaN	0.000000	0.001568	0.001706	28.0814	0.047259	0.001963	24.0806	141.605	-166.014	0.015166	0.480586	-0.576622	-0.577957	-0.034127	24.0806	-0.575560	-3.832001E+7	8.905915E-10	NaN
738	1.000000	0.521955	7.37228e+06	-40189.1	1005.82	-29790.9	0.000000	0.000000	6.522964	0.062285	NaN	0.000000	0.001580	0.001682	28.0814	0.026572	0.002014	13.1969	-40.0575	-169.044	0.071345	0.520631	-0.536587	-0.537911	0.062285	13.1969	-0.540127	-1.239134E+7	-5.026472E-9	NaN
738	1.000000	0.561932	7.37228e+06	-40189.1	1005.82	-29790.9	0.000000	0.000000	6.562939	0.005173	NaN	0.000000	0.001614	0.001670	28.0813	0.083965	0.002008	41.8198	41.138	-164.296	-0.001090	0.560647	-0.496610	-0.497895	0.005173	41.8198	-0.496703	-3.08323e+06	-1.677800E-9	NaN
738	1.000000	0.601982	7.37228e+06	-40189.1	1005.82	-29790.9	0.000000	0.000000	6.602987	-0.027442	NaN	0.000000	0.001585	0.001689	28.0814	0.006431	0.001850	3.476341	-51.2533	-164.206	-0.028846	0.600716	-0.456560	-0.457826	-0.027442	3.476341	-0.450640	-697198	3.935996E-8	NaN
738	1.000000	0.641988	7.37228e+06	-40189.1	1005.82	-29790.9	0.000000	0.000000	6.642996	0.048788	NaN	0.000000	0.001645	0.001718	28.0801	0.091225	0.002000	45.6015	-30.7536	-162.093	0.012917	0.640697	-0.416554	-0.417845	0.048788	45.6015	-0.417357	-236001	-2.067284E-7	NaN
738	1.000000	0.682006	7.37228e+06	-40189.1	1005.82	-29790.9	0.000000	0.000000	6.683013	0.028369	NaN	0.000000	0.001599	0.001711	28.0798	0.025647	0.002059	12.458	-113.359	-165.921	-0.036397	0.680691	-0.376537	-0.377852	0.028369	12.458	-0.378245	-65266.3	-4.346645E-7	NaN
738	1.000000	0.722038	7.37228e+06	-40189.1	1005.82	-29790.9	0.000000	0.000000	6.723042	-0.040676	NaN	0.000000	0.001587	0.001709	28.0799	0.086529	0.002043	42.3438	-24.5992	-168.852	-0.111190	0.720719	-0.336505	-0.337824	-0.040676	42.3438	-0.335784	-15850.5	2.566218E-6	NaN
738	1.000000	0.762014	7.37228e+06	-40189.1	1005.82	-29790.9	0.000000	0.000000	6.763022	0.029971	NaN	0.000000	0.001585	0.001679	28.0811	0.073858	0.001986	37.1898	-84.9695	-165.222	0.024548	0.760693	-0.296528	-0.297850	0.029971	37.1898	-0.297133	-4264.93	-7.027424E-6	NaN
738	1.000000	0.802055	7.37228e+06	-40189.1	1005.82	-29790.9	0.000000	0.000000	6.803061	-0.016898	NaN	0.000000	0.001615	0.001681	28.0813	0.128612	0.001907	67.4596	-18.7836	-163.07	0.035422	0.800712	-0.256487	-0.257831	-0.016898	67.4596	-0.256299	-1028.25	1.643354E-5	NaN
738	1.000000	0.842091	7.37228e+06	-40189.1	1005.82	-29790.9	0.000000	0.000000	6.843099	0.048016	NaN	0.000000	0.001590	0.001700	28.0817	0.051104	0.001984	25.7527	-76.2954	-161.798	0.132807	0.840764	-0.216452	-0.217778	0.048016	25.7527	-0.217850	-256.609	-0.000187	NaN
738	1.000000	0.882052	7.37228e+06	-40189.1	1005.82	-29790.9	0.000000	0.000000	6.883061	0.069393	NaN	0.000000	0.001571	0.001700	28.0802	0.069293	0.001887	36.7261	9.264910	-161.837	0.017293	0.880744	-0.176490	-0.177798	0.069393	36.7261	-0.177907	-56.2071	-0.001235	NaN
738	1.000000	0.922080	7.37228e+06	-40189.1	1005.82	-29790.9	0.000000	0.000000	6.923084	-0.049270	NaN	0.000000	0.001568	0.001646	28.0806	0.068845	0.001911	36.0317	102.586	-169.558	-0.092759	0.920800	-0.136462	-0.137742	-0.049270	36.0317	-0.135437	-9.696732	0.005081	NaN
738	1.000000	0.962137	7.37228e+06	-40189.1	1005.82	-29790.9	0.000000	0.000000	6.963144	0.004692	NaN	0.000000	0.001599	0.001645	28.0805	0.093596	0.002027	46.1729	162.114	-167.38	0.108567	0.960827	-0.096405	-0.097715	0.004692	46.1729	-0.096481	-1.524125	-0.003079	NaN
738	1.000000	1.002122	7.37228e+06	-40189.1	1005.82	-29790.9	0.000000	0.000000	7.003128	-0.006763	NaN	0.000000	0.001580	0.001649	28.0802	0.022439	0.001927	11.6445	-84.2889	-166.368	-0.001718	1.000799	-0.056420	-0.057743	-0.006763	11.6445	-0.055984	-0.137674	0.049127	NaN
738	1.000000	1.042183	7.37228e+06	-40189.1	1005.82	-29790.9	0.000000	0.000000	7.043186	-0.086516	NaN	0.000000	0.001640	0.001671	28.0814	0.014388	0.001997	7.205416	9.876056	-167.082	-0.079781	1.040881	-0.016359	-0.017661	-0.086516	7.205416	-0.007354	-0.004851	17.8348	NaN
738	2.000000	1.066752	7.37228e+06	-40189.1	1005.82	-29790.9	0.000000	0.000000	7.068270	12.4562	NaN	0.000000	0.001539	0.001652	28.0813	13.3431	0.001815	7349.66	7.405759	-172.956	11.3507	1.066481	0.008210	0.007938	12.4562	7349.66	0.006939	0.005974	2085.24	86881.1
738	2.000000	1.076704	7.37228e+06	-40189.1	1005.82	-29790.9	0.000000	0.000000	7.079136	34.6862	NaN	0.000000	0.001569	0.001678	28.0815	24.524	0.001880	13042.5	7.330859	-178.449	33.7767	1.076375	0.018162	0.017833	34.6862	13042.5	0.016168	0.016874	2055.6	91733.1
738	2.000000	1.086718	7.37228e+06	-40189.1	1005.82	-29790.9	0.000000	0.000000	7.090187	59.9331	NaN	0.000000	0.001550	0.001687	28.081	34.6075	0.001880	18410.7	9.678554	176.561	60.7085	1.086301	0.028176	0.027759	59.9331	18410.7	0.025734	0.032365	1851.77	93498.2
738	2.000000	1.096647	7.37228e+06	-40189.1	1005.82	-29790.9	0.000000	0.000000	7.101712	98.7547	NaN	0.000000	0.001616	0.001676	28.0804	42.5215	0.001848	23006.5	5.011066	177.433	96.6194	1.096367	0.038105	0.037824	98.7547	23006.5	0.034885	0.051480	1918.33	92641.8
738	2.000000	1.106605	7.37228e+06	-40189.1	1005.82	-29790.9	0.000000	0.000000	7.113805	150.714	NaN	0.000000	0.001522	0.001673	28.0803	50.4375	0.001827	27613.5	0.857297	-179.268	146.801	1.106260	0.048063	0.047718	150.714	27613.5	0.043970	0.074689	2017.88	92313.4
738	2.000000	1.116649	7.37228e+06	-40189.1	1005.82	-29790.9	0.000000	0.000000	7.126022	203.598	NaN	0.000000	0.001526	0.001686	28.0804	59.3804	0.001786	33240.1	1.482285	179.19	201.553	1.116391	0.058107	0.057848	203.598	33240.1	0.053513	0.103581	1965.58	94361.4
738	2.000000	1.126641	7.37228e+06	-40189.1	1005.82	-29790.9	0.000000	0.000000	7.138811	271.671	NaN	0.000000	0.001513	0.001652	28.0813	69.3965	0.001860	37316.3	4.932691	174.604	270.738	1.126204	0.068098	0.067662	271.671	37316.3	0.062638	0.135438	2005.86	92640.4
738	2.000000	1.136590	7.37228e+06	-40189.1	1005.82	-29790.9	0.000000	0.000000	7.151992	350.302	NaN	0.000000	0.001556	0.001673	28.082	77.9841	0.001778	43869.7	5.268903	173.407	349.763	1.136286	0.078048	0.077744	350.302	43869.7	0.072059	0.172565	2029.97	96485.4
738	2.000000	1.146666	7.37228e+06	-40189.1	1005.82	-29790.9	0.000000	0.000000	7.164751	415.583	NaN	0.000000	0.001623	0.001647	28.0817	87.4046	0.001807	48362.6	7.472707	170.607	419.012	1.146275	0.088124	0.087732	415.583	48362.6	0.081679	0.214815	1934.61	95334.7
738	2.000000	1.156617	7.37228e+06	-40189.1	1005.82	-29790.9	0.000000	0.000000	7.177342	479.839	NaN	0.000000	0.001643	0.001680	28.0804	95.9879	0.001860	51603.3	5.236719	171.573	480.415	1.156473	0.098075	0.097931	479.839	51603.3	0.091101	0.260363	1842.96	92397.7
738	2.000000	1.160025	7.37228e+06	-40189.1	1005.82	-29790.9	0.000000	0.000000	7.182057	511.636	NaN	0.000000	0.001624	0.001657	28.0804	98.1691	0.001788	54889.3	6.541655	-10.1031	504.606	1.159789	0.101483	0.101246	511.636	54889.3	0.094492	0.277753	1842.06	95155