File: remote_trans/data/nanoindenter/0828-1/data/Data_2025-08-06,11h17m57s/2025-07-22_16-23-58_1_1025.txt
2025-07-22, 16:23:58, 1
Index	Phase	Displacement	Time	Pos X	Pos Y	Pos Z	Rot A	Rot B	Piezo Z	Force A	Force B	Gripper	Voltage A	Voltage B	Temperature	Amplitude force	Amplitude pos	Stiffness	Phase shift	Phase excitation	Force A raw	Displacement raw	HMax	HMax raw	Real Force	Real Stiffness	Contact Depth	Area	Hardness	Reduced Mod.
[#]	[#]	[um]	[s]	[um]	[um]	[um]	[m°]	[m°]	[um]	[uN]	[uN]	[V]	[V]	[V]	[°C]	[uN]	[um]	[N/m]	[°]	[°]	[uN]	[um]	[um]	[um]	[uN]	[N/m]	[um]	[um^2]	[MPa]	[MPa]
1025	1.000000	0.002820	7.37507e+06	-51389.1	1055.82	-29752.4	0.000000	0.000000	6.002835	0.032210	NaN	0.000000	0.001560	0.001761	28.0832	0.052892	0.000838	63.1107	168.914	-174.247	0.031695	0.001538	-1.103044	-1.104325	0.032210	63.1107	-1.103427	-5.572675E+14	-5.779978E-17	NaN
1025	1.000000	0.044744	7.37507e+06	-51389.1	1055.82	-29752.4	0.000000	0.000000	6.044760	0.043649	NaN	0.000000	0.001601	0.001687	28.0835	0.082279	0.001927	42.7058	152.564	13.726	-0.066417	0.043386	-1.061119	-1.062477	0.043649	42.7058	-1.061886	-1.542276E+14	-2.830160E-16	NaN
1025	1.000000	0.086747	7.37507e+06	-51389.1	1055.82	-29752.4	0.000000	0.000000	6.086763	0.059304	NaN	0.000000	0.001574	0.001695	28.0841	0.085015	0.001950	43.5969	-47.6771	-162.921	0.092623	0.085430	-1.019117	-1.020434	0.059304	43.5969	-1.020137	-4.234423E+13	-1.400532E-15	NaN
1025	1.000000	0.128755	7.37507e+06	-51389.1	1055.82	-29752.4	0.000000	0.000000	6.128771	0.063521	NaN	0.000000	0.001549	0.001705	28.0837	0.043962	0.002057	21.3675	32.2683	12.9739	0.119564	0.127401	-0.977108	-0.978462	0.063521	21.3675	-0.979338	-1.195341E+13	-5.314017E-15	NaN
1025	1.000000	0.170791	7.37507e+06	-51389.1	1055.82	-29752.4	0.000000	0.000000	6.170807	0.047080	NaN	0.000000	0.001590	0.001718	28.0826	0.085806	0.001969	43.5804	-90.1099	-167.817	0.064945	0.169410	-0.935072	-0.936454	0.047080	43.5804	-0.935882	-3.101559E+12	-1.517942E-14	NaN
1025	1.000000	0.212807	7.37507e+06	-51389.1	1055.82	-29752.4	0.000000	0.000000	6.212823	0.048796	NaN	0.000000	0.001514	0.001695	28.0824	0.052968	0.002011	26.3411	-16.5506	13	-0.035365	0.211402	-0.893056	-0.894462	0.048796	26.3411	-0.894446	-8.550798E+11	-5.706552E-14	NaN
1025	1.000000	0.254807	7.37508e+06	-51389.1	1055.82	-29752.4	0.000000	0.000000	6.254821	0.019982	NaN	0.000000	0.001565	0.001724	28.0829	0.131104	0.001939	67.6085	-142.835	-165.271	-0.003901	0.253526	-0.851057	-0.852337	0.019982	67.6085	-0.851278	-2.228673E+11	-8.966056E-14	NaN
1025	1.000000	0.296826	7.37508e+06	-51389.1	1055.82	-29752.4	0.000000	0.000000	6.296839	0.003178	NaN	0.000000	0.001574	0.001701	28.0836	0.084744	0.002157	39.2789	176.316	15.0511	-0.007641	0.295537	-0.809038	-0.810327	0.003178	39.2789	-0.809098	-5.975028E+10	-5.318185E-14	NaN
1025	1.000000	0.338849	7.37508e+06	-51389.1	1055.82	-29752.4	0.000000	0.000000	6.338864	0.030933	NaN	0.000000	0.001608	0.001756	28.084	0.034498	0.002112	16.3332	-131.573	-165.839	0.118176	0.337528	-0.767014	-0.768336	0.030933	16.3332	-0.768434	-1.675011E+10	-1.846713E-12	NaN
1025	1.000000	0.380856	7.37508e+06	-51389.1	1055.82	-29752.4	0.000000	0.000000	6.380870	0.011288	NaN	0.000000	0.001647	0.001744	28.0834	0.098397	0.002201	44.7106	-27.8639	16.1382	0.013965	0.379498	-0.725008	-0.726365	0.011288	44.7106	-0.725197	-4.318582E+9	-2.613709E-12	NaN
1025	1.000000	0.422896	7.37508e+06	-51389.1	1055.82	-29752.4	0.000000	0.000000	6.422914	0.099933	NaN	0.000000	0.001668	0.001752	28.0833	0.032267	0.002151	15.003	-82.3867	-166.127	0.095198	0.421570	-0.682968	-0.684294	0.099933	15.003	-0.687963	-1.339928E+9	-7.458071E-11	NaN
1025	1.000000	0.464940	7.37508e+06	-51389.1	1055.82	-29752.4	0.000000	0.000000	6.464957	0.069613	NaN	0.000000	0.001692	0.001788	28.082	0.112482	0.001894	59.3826	89.5261	12.4876	0.097285	0.463558	-0.640923	-0.642306	0.069613	59.3826	-0.641803	-3.126226E+8	-2.226758E-10	NaN
1025	1.000000	0.506896	7.37508e+06	-51389.1	1055.82	-29752.4	0.000000	0.000000	6.506910	0.023055	NaN	0.000000	0.001694	0.001773	28.0821	0.088096	0.001926	45.7509	147.8	-162.38	-0.006948	0.505554	-0.598968	-0.600309	0.023055	45.7509	-0.599346	-8.155447E+7	-2.826989E-10	NaN
1025	1.000000	0.548985	7.37508e+06	-51389.1	1055.82	-29752.4	0.000000	0.000000	6.548997	-0.027937	NaN	0.000000	0.001664	0.001716	28.0821	0.087847	0.002067	42.4938	111.196	11.7324	-0.053862	0.547521	-0.556878	-0.558343	-0.027937	42.4938	-0.556385	-2.081437E+7	1.342191E-9	NaN
1025	1.000000	0.590973	7.37508e+06	-51389.1	1055.82	-29752.4	0.000000	0.000000	6.590991	0.107768	NaN	0.000000	0.001573	0.001743	28.0837	0.083604	0.001962	42.6192	85.6883	-167.063	0.112354	0.589630	-0.514891	-0.516234	0.107768	42.6192	-0.516787	-5.87362e+06	-1.834777E-8	NaN
1025	1.000000	0.632994	7.37508e+06	-51389.1	1055.82	-29752.4	0.000000	0.000000	6.633009	0.028829	NaN	0.000000	0.001627	0.001696	28.0837	0.125810	0.002005	62.7369	104.521	10.3978	-0.025384	0.631624	-0.472870	-0.474239	0.028829	62.7369	-0.473214	-1.44702e+06	-1.992331E-8	NaN
1025	1.000000	0.674985	7.37508e+06	-51389.1	1055.82	-29752.4	0.000000	0.000000	6.674998	-0.015540	NaN	0.000000	0.001608	0.001728	28.0838	0.141904	0.002104	67.4291	31.769	-166.053	0.008628	0.673727	-0.430878	-0.432137	-0.015540	67.4291	-0.430705	-364788	4.259932E-8	NaN
1025	1.000000	0.717015	7.37508e+06	-51389.1	1055.82	-29752.4	0.000000	0.000000	6.717029	0.013933	NaN	0.000000	0.001621	0.001750	28.0824	0.048392	0.002063	23.4586	122.242	15.943	-0.008202	0.715644	-0.388848	-0.390220	0.013933	23.4586	-0.389294	-93985.7	-1.482495E-7	NaN
1025	1.000000	0.759029	7.37508e+06	-51389.1	1055.82	-29752.4	0.000000	0.000000	6.759046	0.076234	NaN	0.000000	0.001569	0.001757	28.0825	0.078817	0.002025	38.9172	-151.895	-164.763	0.063698	0.757721	-0.346834	-0.348143	0.076234	38.9172	-0.348303	-24119.6	-3.160688E-6	NaN
1025	1.000000	0.800997	7.37508e+06	-51389.1	1055.82	-29752.4	0.000000	0.000000	6.801011	0.016154	NaN	0.000000	0.001612	0.001771	28.0824	0.049009	0.001951	25.1186	43.3925	12.1995	0.069506	0.799659	-0.304867	-0.306205	0.016154	25.1186	-0.305349	-5651.16	-2.858574E-6	NaN
1025	1.000000	0.843045	7.37508e+06	-51389.1	1055.82	-29752.4	0.000000	0.000000	6.843059	0.013747	NaN	0.000000	0.001646	0.001735	28.0834	0.072726	0.001996	36.4423	111.16	-168.701	0.003035	0.841745	-0.262819	-0.264118	0.013747	36.4423	-0.263101	-1307.34	-1.051527E-5	NaN
1025	1.000000	0.885068	7.37508e+06	-51389.1	1055.82	-29752.4	0.000000	0.000000	6.885084	0.055986	NaN	0.000000	0.001613	0.001711	28.0837	0.096116	0.001919	50.096	113.048	16.7903	0.098857	0.883744	-0.220795	-0.222119	0.055986	50.096	-0.221634	-294.955	-0.000190	NaN
1025	1.000000	0.927112	7.37508e+06	-51389.1	1055.82	-29752.4	0.000000	0.000000	6.927127	0.039264	NaN	0.000000	0.001569	0.001762	28.0837	0.067582	0.002023	33.4058	-124.256	-167.8	0.068520	0.925727	-0.178752	-0.180136	0.039264	33.4058	-0.179633	-60.1485	-0.000653	NaN
1025	1.000000	0.969101	7.37508e+06	-51389.1	1055.82	-29752.4	0.000000	0.000000	6.969115	0.029697	NaN	0.000000	0.001679	0.001726	28.0835	0.080731	0.001956	41.2648	129.436	12.5557	-0.010292	0.967771	-0.136763	-0.138092	0.029697	41.2648	-0.137303	-10.5215	-0.002822	NaN
1025	1.000000	1.011141	7.37508e+06	-51389.1	1055.82	-29752.4	0.000000	0.000000	7.011158	0.087845	NaN	0.000000	0.001686	0.001760	28.0824	0.012429	0.001962	6.334658	145.359	-166	0.032820	1.009813	-0.094723	-0.096051	0.087845	6.334658	-0.105123	-2.364997	-0.037144	NaN
1025	1.000000	1.053135	7.37508e+06	-51389.1	1055.82	-29752.4	0.000000	0.000000	7.053149	0.027278	NaN	0.000000	0.001636	0.001730	28.0824	0.037923	0.002197	17.2635	41.1146	13.9722	0.036589	1.051811	-0.052729	-0.054053	0.027278	17.2635	-0.053914	-0.119576	-0.228122	NaN
1025	1.000000	1.095145	7.37508e+06	-51389.1	1055.82	-29752.4	0.000000	0.000000	7.095161	0.047684	NaN	0.000000	0.001591	0.001723	28.0822	0.084416	0.002111	39.9876	-75.58	-162.424	0.097056	1.093863	-0.010718	-0.012000	0.047684	39.9876	-0.011613	-0.007307	-6.525349	NaN
1025	2.000000	1.118181	7.37508e+06	-51389.1	1055.82	-29752.4	0.000000	0.000000	7.118845	15.822	NaN	0.000000	0.001583	0.001721	28.0834	15.0856	0.001798	8389.06	9.731278	2.669774	14.9762	1.117807	0.012318	0.011944	15.822	8389.06	0.010903	0.010203	1550.77	75880.3
1025	2.000000	1.128658	7.37508e+06	-51389.1	1055.82	-29752.4	0.000000	0.000000	7.130220	37.6542	NaN	0.000000	0.001602	0.001733	28.0838	25.6201	0.001831	13989	2.738063	-176.502	36.3071	1.128395	0.022795	0.022532	37.6542	13989	0.020776	0.023776	1583.69	82887.4
1025	2.000000	1.139126	7.37508e+06	-51389.1	1055.82	-29752.4	0.000000	0.000000	7.141959	68.5377	NaN	0.000000	0.001609	0.001716	28.0834	35.9929	0.001656	21730.2	8.996006	-7.365920	66.4983	1.138812	0.033263	0.032948	68.5377	21730.2	0.030897	0.042624	1607.95	96162.8
1025	2.000000	1.149649	7.37508e+06	-51389.1	1055.82	-29752.4	0.000000	0.000000	7.154693	122.314	NaN	0.000000	0.001633	0.001700	28.0823	47.4034	0.001832	25878.4	8.733882	173.326	122.551	1.149323	0.043786	0.043460	122.314	25878.4	0.040241	0.064652	1891.87	92986
1025	2.000000	1.160138	7.37508e+06	-51389.1	1055.82	-29752.4	0.000000	0.000000	7.167095	168.844	NaN	0.000000	0.001618	0.001716	28.0822	56.2711	0.001760	31975.8	1.474800	-2.144382	168	1.159769	0.054275	0.053906	168.844	31975.8	0.050314	0.093388	1807.99	95598.4
1025	2.000000	1.170600	7.37508e+06	-51389.1	1055.82	-29752.4	0.000000	0.000000	7.179834	224.203	NaN	0.000000	0.001674	0.001776	28.0823	66.7681	0.001777	37572.4	4.733771	173.892	222.391	1.170243	0.064736	0.064379	224.203	37572.4	0.060261	0.126746	1768.92	96421.8
1025	2.000000	1.181052	7.37508e+06	-51389.1	1055.82	-29752.4	0.000000	0.000000	7.192652	281.746	NaN	0.000000	0.001637	0.001754	28.0833	77.1574	0.001777	43420.5	4.408838	-7.384172	277.732	1.180824	0.075189	0.074961	281.746	43420.5	0.070322	0.165401	1703.41	97543.7
1025	2.000000	1.191563	7.37508e+06	-51389.1	1055.82	-29752.4	0.000000	0.000000	7.206136	354.025	NaN	0.000000	0.001615	0.001803	28.0836	87.4352	0.001801	48557.4	8.009075	168.578	352.457	1.191216	0.085700	0.085352	354.025	48557.4	0.080232	0.208181	1700.56	97231.6
1025	2.000000	1.201950	7.37508e+06	-51389.1	1055.82	-29752.4	0.000000	0.000000	7.219666	430.471	NaN	0.000000	0.001575	0.001801	28.0837	95.2265	0.001834	51930	2.721104	-6.517421	421.749	1.201540	0.096086	0.095677	430.471	51930	0.089869	0.254177	1693.59	94107.4
1025	2.000000	1.210617	7.37508e+06	-51389.1	1055.82	-29752.4	0.000000	0.000000	7.231099	497.721	NaN	0.000000	0.001669	0.001804	28.0834	102.734	0.001758	58431.5	7.856659	168.527	499.278	1.210117	0.104753	0.104254	497.721	58431.5	0.098365	0.298257	1668.76	97751.9