File: remote_trans/data/nanoindenter/0828-1/data/Data_2025-08-06,11h17m57s/2025-07-22_16-23-58_1_1165.txt
2025-07-22, 16:23:58, 1
Index	Phase	Displacement	Time	Pos X	Pos Y	Pos Z	Rot A	Rot B	Piezo Z	Force A	Force B	Gripper	Voltage A	Voltage B	Temperature	Amplitude force	Amplitude pos	Stiffness	Phase shift	Phase excitation	Force A raw	Displacement raw	HMax	HMax raw	Real Force	Real Stiffness	Contact Depth	Area	Hardness	Reduced Mod.
[#]	[#]	[um]	[s]	[um]	[um]	[um]	[m°]	[m°]	[um]	[uN]	[uN]	[V]	[V]	[V]	[°C]	[uN]	[um]	[N/m]	[°]	[°]	[uN]	[um]	[um]	[um]	[uN]	[N/m]	[um]	[um^2]	[MPa]	[MPa]
1165	1.000000	0.002894	7.37644e+06	-57339.1	1105.82	-29736.9	0.000000	0.000000	6.002807	-0.007376	NaN	0.000000	0.001622	0.001687	28.0838	0.033264	0.000902	36.8865	-168.114	-157.194	0.011390	0.001567	-1.036823	-1.038151	-0.007376	36.8865	-1.036673	-7.066925E+13	1.043694E-16	NaN
1165	1.000000	0.042834	7.37645e+06	-57339.1	1105.82	-29736.9	0.000000	0.000000	6.042751	0.092387	NaN	0.000000	0.001660	0.001693	28.0839	0.113751	0.001930	58.9445	124.582	-162.335	0.088532	0.041530	-0.996883	-0.998187	0.092387	58.9445	-0.998059	-2.136162E+13	-4.324884E-15	NaN
1165	1.000000	0.082854	7.37645e+06	-57339.1	1105.82	-29736.9	0.000000	0.000000	6.082770	0.077454	NaN	0.000000	0.001655	0.001710	28.0842	0.157720	0.001923	82.0335	-40.5549	-159.668	0.098450	0.081506	-0.956864	-0.958211	0.077454	82.0335	-0.957572	-6.083207E+12	-1.273245E-14	NaN
1165	1.000000	0.122876	7.37645e+06	-57339.1	1105.82	-29736.9	0.000000	0.000000	6.122788	-0.031682	NaN	0.000000	0.001627	0.001722	28.0841	0.152773	0.001848	82.6701	-64.2042	-167.356	-0.030158	0.121556	-0.916842	-0.918162	-0.031682	82.6701	-0.916554	-1.700894E+12	1.862670E-14	NaN
1165	1.000000	0.162882	7.37645e+06	-57339.1	1105.82	-29736.9	0.000000	0.000000	6.162795	-0.001773	NaN	0.000000	0.001635	0.001708	28.0829	0.020085	0.001831	10.968	114.277	-162.716	-0.005940	0.161541	-0.876836	-0.878176	-0.001773	10.968	-0.876714	-4.923464E+11	3.601860E-15	NaN
1165	1.000000	0.202921	7.37645e+06	-57339.1	1105.82	-29736.9	0.000000	0.000000	6.202836	0.050631	NaN	0.000000	0.001659	0.001677	28.083	0.083306	0.001843	45.2007	24.0813	-166.033	0.030133	0.201539	-0.836797	-0.838179	0.050631	45.2007	-0.837637	-1.456385E+11	-3.476502E-13	NaN
1165	1.000000	0.242906	7.37645e+06	-57339.1	1105.82	-29736.9	0.000000	0.000000	6.242820	0.028523	NaN	0.000000	0.001661	0.001679	28.0829	0.138687	0.002068	67.0718	145.754	-165.946	0.038617	0.241672	-0.796812	-0.798046	0.028523	67.0718	-0.797131	-4.110684E+10	-6.938817E-13	NaN
1165	1.000000	0.282950	7.37645e+06	-57339.1	1105.82	-29736.9	0.000000	0.000000	6.282865	0.044233	NaN	0.000000	0.001676	0.001702	28.0841	0.126499	0.002069	61.1502	-102.312	-162.692	0.046758	0.281627	-0.756768	-0.758091	0.044233	61.1502	-0.757311	-1.182255E+10	-3.741449E-12	NaN
1165	1.000000	0.322961	7.37645e+06	-57339.1	1105.82	-29736.9	0.000000	0.000000	6.322873	-0.022939	NaN	0.000000	0.001619	0.001681	28.0842	0.140921	0.002024	69.6318	114.862	-165.269	-0.005709	0.321632	-0.716757	-0.718085	-0.022939	69.6318	-0.716510	-3.287500E+9	6.977521E-12	NaN
1165	1.000000	0.362971	7.37645e+06	-57339.1	1105.82	-29736.9	0.000000	0.000000	6.362884	0.004103	NaN	0.000000	0.001586	0.001667	28.084	0.096150	0.001969	48.8358	-127.37	-163.038	-0.067817	0.361627	-0.676747	-0.678091	0.004103	48.8358	-0.676810	-9.431192E+8	-4.350507E-12	NaN
1165	1.000000	0.402971	7.37645e+06	-57339.1	1105.82	-29736.9	0.000000	0.000000	6.402888	0.108534	NaN	0.000000	0.001566	0.001731	28.0828	0.046542	0.001970	23.6295	-160.881	-166.474	0.065321	0.401667	-0.636747	-0.638050	0.108534	23.6295	-0.640192	-2.971141E+8	-3.652951E-10	NaN
1165	1.000000	0.442999	7.37645e+06	-57339.1	1105.82	-29736.9	0.000000	0.000000	6.442915	0.064979	NaN	0.000000	0.001574	0.001690	28.0828	0.061368	0.002044	30.0189	156.863	-163.447	0.009131	0.441732	-0.596718	-0.597986	0.064979	30.0189	-0.598342	-7.899844E+7	-8.225399E-10	NaN
1165	1.000000	0.483018	7.37645e+06	-57339.1	1105.82	-29736.9	0.000000	0.000000	6.482933	0.038709	NaN	0.000000	0.001541	0.001680	28.0829	0.085205	0.001887	45.1459	164.33	-163.828	0.068494	0.481692	-0.556700	-0.558026	0.038709	45.1459	-0.557343	-2.145926E+7	-1.803831E-9	NaN
1165	1.000000	0.523037	7.37645e+06	-57339.1	1105.82	-29736.9	0.000000	0.000000	6.522953	0.059126	NaN	0.000000	0.001571	0.001653	28.0827	0.107435	0.001981	54.2434	4.503687	-163.29	0.045117	0.521668	-0.516680	-0.518050	0.059126	54.2434	-0.517498	-6.00887e+06	-9.839712E-9	NaN
1165	1.000000	0.563052	7.37645e+06	-57339.1	1105.82	-29736.9	0.000000	0.000000	6.562966	0.037938	NaN	0.000000	0.001523	0.001633	28.0837	0.144381	0.001979	72.9612	88.4503	-162.171	0.081677	0.561717	-0.476666	-0.478001	0.037938	72.9612	-0.477056	-1.63796e+06	-2.316141E-8	NaN
1165	1.000000	0.603068	7.37645e+06	-57339.1	1105.82	-29736.9	0.000000	0.000000	6.602980	-0.030122	NaN	0.000000	0.001568	0.001687	28.0838	0.132109	0.001931	68.4195	-85.0211	-162.355	0.024515	0.601758	-0.436650	-0.437960	-0.030122	68.4195	-0.436319	-437920	6.878471E-8	NaN
1165	1.000000	0.643084	7.37645e+06	-57339.1	1105.82	-29736.9	0.000000	0.000000	6.642996	-0.038224	NaN	0.000000	0.001579	0.001686	28.0836	0.054355	0.001940	28.0162	165.198	-168.09	0.022785	0.641759	-0.396633	-0.397959	-0.038224	28.0162	-0.395610	-115703	3.303652E-7	NaN
1165	1.000000	0.683109	7.37645e+06	-57339.1	1105.82	-29736.9	0.000000	0.000000	6.683022	-0.007626	NaN	0.000000	0.001647	0.001689	28.0823	0.076436	0.002005	38.13	37.4037	-163.953	-0.057668	0.681807	-0.356608	-0.357910	-0.007626	38.13	-0.356458	-31667.3	2.408166E-7	NaN
1165	1.000000	0.723135	7.37645e+06	-57339.1	1105.82	-29736.9	0.000000	0.000000	6.723047	-0.015196	NaN	0.000000	0.001624	0.001688	28.0824	0.028343	0.001940	14.6099	-67.0992	-163.527	0.031503	0.721826	-0.316583	-0.317891	-0.015196	14.6099	-0.315803	-8068.51	1.883316E-6	NaN
1165	1.000000	0.763123	7.37645e+06	-57339.1	1105.82	-29737	0.000000	0.000000	6.763036	-0.011270	NaN	0.000000	0.001597	0.001711	28.0828	0.058620	0.001918	30.5557	93.7363	-164.188	-0.009233	0.761819	-0.276595	-0.277898	-0.011270	30.5557	-0.276318	-2076.57	5.426987E-6	NaN
1165	1.000000	0.803166	7.37645e+06	-57339.1	1105.82	-29737	0.000000	0.000000	6.803081	0.050998	NaN	0.000000	0.001636	0.001698	28.0827	0.111649	0.002000	55.8223	-46.081	-168.049	0.054020	0.801816	-0.236552	-0.237901	0.050998	55.8223	-0.237237	-520.392	-9.799874E-5	NaN
1165	1.000000	0.843182	7.37645e+06	-57339.1	1105.82	-29737	0.000000	0.000000	6.843095	0.005367	NaN	0.000000	0.001682	0.001665	28.0838	0.062893	0.002127	29.5645	107.753	-165.611	-0.016127	0.841895	-0.196536	-0.197823	0.005367	29.5645	-0.196672	-116.108	-4.622084E-5	NaN
1165	1.000000	0.883178	7.37645e+06	-57339.1	1105.82	-29737	0.000000	0.000000	6.883092	0.020958	NaN	0.000000	0.001678	0.001627	28.0837	0.039871	0.002062	19.3363	81.9078	-165.584	-0.041331	0.881889	-0.156539	-0.157828	0.020958	19.3363	-0.157352	-24.5913	-0.000852	NaN
1165	1.000000	0.923211	7.37645e+06	-57339.1	1105.82	-29737	0.000000	0.000000	6.923123	-0.019380	NaN	0.000000	0.001712	0.001663	28.0839	0.041361	0.001900	21.7683	108.41	-166.384	-0.018106	0.921844	-0.116507	-0.117873	-0.019380	21.7683	-0.115839	-3.975308	0.004875	NaN
1165	1.000000	0.963238	7.37645e+06	-57339.1	1105.82	-29737	0.000000	0.000000	6.963152	0.018287	NaN	0.000000	0.001647	0.001722	28.0825	0.002927	0.002023	1.446688	61.7002	-166.128	0.036213	0.961908	-0.076480	-0.077809	0.018287	1.446688	-0.085960	-0.866664	-0.021100	NaN
1165	1.000000	1.003236	7.37645e+06	-57339.1	1105.82	-29737	0.000000	0.000000	7.003150	0.017698	NaN	0.000000	0.001614	0.001675	28.0824	0.062848	0.001992	31.5518	108.381	-165.689	-0.005402	1.001896	-0.036481	-0.037822	0.017698	31.5518	-0.036902	-0.036469	-0.485284	NaN
1165	1.000000	1.043107	7.37645e+06	-57339.1	1105.82	-29737	0.000000	0.000000	7.043366	8.387114	NaN	0.000000	0.001642	0.001681	28.0821	8.131317	0.001653	4919.75	8.097925	-170.632	6.387129	1.041909	0.003390	0.002192	8.387114	4919.75	0.002111	0.001645	5098.6	110824
1165	2.000000	1.053701	7.37645e+06	-57339.1	1105.82	-29737	0.000000	0.000000	7.054557	22.9219	NaN	0.000000	0.001604	0.001705	28.0827	20.5614	0.001777	11573.8	10.3538	179.219	22.4695	1.053424	0.013983	0.013706	22.9219	11573.8	0.012498	0.012092	1895.69	96162.6
1165	2.000000	1.063718	7.37645e+06	-57339.1	1105.82	-29737	0.000000	0.000000	7.065540	46.4088	NaN	0.000000	0.001644	0.001650	28.0834	30.2924	0.001701	17813.4	1.471746	-176.699	46.9188	1.063411	0.024000	0.023693	46.4088	17813.4	0.022046	0.025860	1794.62	101206
1165	2.000000	1.073751	7.37645e+06	-57339.1	1105.82	-29737	0.000000	0.000000	7.076611	71.6251	NaN	0.000000	0.001647	0.001628	28.0835	42.3955	0.001859	22801.1	7.069747	175.847	75.7437	1.073434	0.034033	0.033716	71.6251	22801.1	0.031677	0.044292	1617.1	98984.1
1165	2.000000	1.083605	7.37645e+06	-57339.1	1105.82	-29737	0.000000	0.000000	7.088326	116.86	NaN	0.000000	0.001719	0.001618	28.0836	50.6467	0.001766	28682.2	2.078202	177.917	114.356	1.083399	0.043887	0.043681	116.86	28682.2	0.040831	0.066194	1765.41	101853
1165	2.000000	1.093647	7.37645e+06	-57339.1	1105.82	-29737	0.000000	0.000000	7.100253	162.657	NaN	0.000000	0.001641	0.001708	28.0823	61.5836	0.001822	33797.9	7.093094	172.76	162.12	1.093276	0.053930	0.053559	162.657	33797.9	0.050320	0.093405	1741.41	101036
1165	2.000000	1.103593	7.37645e+06	-57339.1	1105.82	-29737	0.000000	0.000000	7.112303	213.796	NaN	0.000000	0.001613	0.001673	28.0825	71.6557	0.001724	41567.6	2.154083	174.8	211.162	1.103426	0.063876	0.063708	213.796	41567.6	0.060018	0.125874	1698.49	107043
1165	2.000000	1.113569	7.37645e+06	-57339.1	1105.82	-29737	0.000000	0.000000	7.125241	285.801	NaN	0.000000	0.001632	0.001681	28.0829	82.5074	0.001846	44695.8	3.154893	173.941	283.442	1.113399	0.073851	0.073682	285.801	44695.8	0.069055	0.160266	1783.29	102004
1165	2.000000	1.123617	7.37645e+06	-57339.1	1105.82	-29737	0.000000	0.000000	7.138039	352.631	NaN	0.000000	0.001615	0.001650	28.0849	91.2144	0.001822	50075.9	4.245551	171.834	352.47	1.123384	0.083900	0.083666	352.631	50075.9	0.078618	0.200901	1755.24	102073
1165	2.000000	1.133538	7.37645e+06	-57339.1	1105.82	-29737	0.000000	0.000000	7.151177	430.824	NaN	0.000000	0.001601	0.001674	28.084	100.453	0.001703	58978.1	1.033416	173.625	427.309	1.133288	0.093820	0.093570	430.824	58978.1	0.088342	0.246600	1747.06	108509
1165	2.000000	1.142583	7.37645e+06	-57339.1	1105.82	-29737	0.000000	0.000000	7.163022	498.869	NaN	0.000000	0.001614	0.001657	28.0838	109.692	0.001742	62980.3	4.231580	169.934	496.511	1.142410	0.102865	0.102692	498.869	62980.3	0.096924	0.290552	1716.97	106750