File: remote_trans/data/nanoindenter/0828-1/data/Data_2025-08-06,11h17m57s/2025-07-22_16-23-58_1_557.txt
2025-07-22, 16:23:58, 1
Index	Phase	Displacement	Time	Pos X	Pos Y	Pos Z	Rot A	Rot B	Piezo Z	Force A	Force B	Gripper	Voltage A	Voltage B	Temperature	Amplitude force	Amplitude pos	Stiffness	Phase shift	Phase excitation	Force A raw	Displacement raw	HMax	HMax raw	Real Force	Real Stiffness	Contact Depth	Area	Hardness	Reduced Mod.
[#]	[#]	[um]	[s]	[um]	[um]	[um]	[m°]	[m°]	[um]	[uN]	[uN]	[V]	[V]	[V]	[°C]	[uN]	[um]	[N/m]	[°]	[°]	[uN]	[um]	[um]	[um]	[uN]	[N/m]	[um]	[um^2]	[MPa]	[MPa]
557	1.000000	0.002581	7.3705e+06	-49239.1	1005.82	-29759.6	0.000000	0.000000	6.002805	-0.038193	NaN	0.000000	0.001610	0.001674	28.0817	0.081060	0.000914	88.7319	87.6865	-167.699	-0.026220	0.001333	-1.112299	-1.113547	-0.038193	88.7319	-1.111976	-7.257867E+14	5.262357E-17	NaN
557	1.000000	0.044525	7.3705e+06	-49239.1	1005.82	-29759.6	0.000000	0.000000	6.044749	-0.020233	NaN	0.000000	0.001591	0.001712	28.0836	0.037900	0.001969	19.249	-35.7467	12.9003	-0.077415	0.043204	-1.070356	-1.071676	-0.020233	19.249	-1.069567	-1.956026E+14	1.034402E-16	NaN
557	1.000000	0.086534	7.3705e+06	-49239.1	1005.82	-29759.6	0.000000	0.000000	6.086758	-0.033242	NaN	0.000000	0.001605	0.001694	28.0833	0.037693	0.002029	18.5745	-163.073	-168.066	-0.019255	0.085243	-1.028346	-1.029638	-0.033242	18.5745	-1.027004	-5.238203E+13	6.346068E-16	NaN
557	1.000000	0.128579	7.3705e+06	-49239.1	1005.82	-29759.6	0.000000	0.000000	6.128802	-0.069253	NaN	0.000000	0.001660	0.001659	28.0836	0.107791	0.001951	55.2441	174.692	12.9694	-0.112801	0.127166	-0.986301	-0.987715	-0.069253	55.2441	-0.985361	-1.440877E+13	4.806283E-15	NaN
557	1.000000	0.170579	7.3705e+06	-49239.1	1005.82	-29759.6	0.000000	0.000000	6.170803	-0.035949	NaN	0.000000	0.001722	0.001634	28.0836	0.045013	0.002024	22.2436	-63.0958	-164.305	0.025989	0.169217	-0.944301	-0.945663	-0.035949	22.2436	-0.943089	-3.879797E+12	9.265642E-15	NaN
557	1.000000	0.212606	7.3705e+06	-49239.1	1005.82	-29759.6	0.000000	0.000000	6.212830	-0.040559	NaN	0.000000	0.001644	0.001664	28.0819	0.032171	0.001953	16.4744	-59.9669	15.4808	-0.104931	0.211224	-0.902274	-0.903656	-0.040559	16.4744	-0.900427	-1.030012E+12	3.937712E-14	NaN
557	1.000000	0.254578	7.3705e+06	-49239.1	1005.82	-29759.6	0.000000	0.000000	6.254804	0.020514	NaN	0.000000	0.001583	0.001673	28.0827	0.007557	0.002022	3.737450	-104.337	-163.793	0.042597	0.253304	-0.860302	-0.861576	0.020514	3.737450	-0.864419	-3.356768E+11	-6.111144E-14	NaN
557	1.000000	0.296607	7.3705e+06	-49239.1	1005.82	-29759.7	0.000000	0.000000	6.296832	-0.008129	NaN	0.000000	0.001619	0.001686	28.0823	0.070946	0.002104	33.7152	162.209	14.4755	-0.004157	0.295258	-0.818273	-0.819623	-0.008129	33.7152	-0.818092	-7.913014E+10	1.027317E-13	NaN
557	1.000000	0.338649	7.3705e+06	-49239.1	1005.82	-29759.7	0.000000	0.000000	6.338875	0.017669	NaN	0.000000	0.001606	0.001645	28.083	0.055109	0.002090	26.3707	-33.3235	-167.768	0.015367	0.337345	-0.776231	-0.777536	0.017669	26.3707	-0.776734	-2.171906E+10	-8.135067E-13	NaN
557	1.000000	0.380649	7.3705e+06	-49239.1	1005.82	-29759.7	0.000000	0.000000	6.380876	0.015794	NaN	0.000000	0.001605	0.001673	28.0834	0.114248	0.001918	59.5728	9.223047	13.3738	-0.042144	0.379308	-0.734231	-0.735572	0.015794	59.5728	-0.734430	-5.769946E+9	-2.737370E-12	NaN
557	1.000000	0.422673	7.3705e+06	-49239.1	1005.82	-29759.7	0.000000	0.000000	6.422899	0.015282	NaN	0.000000	0.001668	0.001701	28.0834	0.042572	0.001995	21.3423	-106.614	-168.199	-0.030741	0.421411	-0.692208	-0.693469	0.015282	21.3423	-0.692745	-1.557484E+9	-9.812146E-12	NaN
557	1.000000	0.464691	7.3705e+06	-49239.1	1005.82	-29759.7	0.000000	0.000000	6.464916	-0.016144	NaN	0.000000	0.001608	0.001658	28.0823	0.090770	0.001995	45.5098	-151.575	14.8025	0.017570	0.463355	-0.650189	-0.651525	-0.016144	45.5098	-0.649923	-4.040013E+8	3.996113E-11	NaN
557	1.000000	0.506744	7.3705e+06	-49239.1	1005.82	-29759.7	0.000000	0.000000	6.506970	0.007243	NaN	0.000000	0.001627	0.001666	28.0818	0.144315	0.002041	70.6914	69.8976	-166.044	-0.000562	0.505427	-0.608136	-0.609453	0.007243	70.6914	-0.608213	-1.080249E+8	-6.704821E-11	NaN
557	1.000000	0.548716	7.3705e+06	-49239.1	1005.82	-29759.7	0.000000	0.000000	6.548939	-0.059404	NaN	0.000000	0.001593	0.001664	28.0819	0.033257	0.002002	16.6107	-62.2164	13.6138	-0.040694	0.547358	-0.566164	-0.567522	-0.059404	16.6107	-0.563482	-2.609338E+7	2.276611E-9	NaN
557	1.000000	0.590786	7.3705e+06	-49239.1	1005.82	-29759.7	0.000000	0.000000	6.591014	0.060880	NaN	0.000000	0.001591	0.001776	28.0831	0.062549	0.002022	30.9364	-92.6968	-161.801	0.064271	0.589424	-0.524095	-0.525456	0.060880	30.9364	-0.525571	-7.7811e+06	-7.824029E-9	NaN
557	1.000000	0.632769	7.3705e+06	-49239.1	1005.82	-29759.7	0.000000	0.000000	6.632997	0.045662	NaN	0.000000	0.001600	0.001761	28.083	0.072063	0.002002	35.9908	-168.845	14.9189	0.116326	0.631431	-0.482111	-0.483449	0.045662	35.9908	-0.483062	-1.98787e+06	-2.297018E-8	NaN
557	1.000000	0.674777	7.3705e+06	-49239.1	1005.82	-29759.7	0.000000	0.000000	6.675002	-0.020145	NaN	0.000000	0.001666	0.001751	28.0832	0.100755	0.001962	51.3498	152.67	-165.89	0.009579	0.673486	-0.440103	-0.441394	-0.020145	51.3498	-0.439809	-490526	4.106743E-8	NaN
557	1.000000	0.716808	7.3705e+06	-49239.1	1005.82	-29759.7	0.000000	0.000000	6.717036	0.053658	NaN	0.000000	0.001602	0.001725	28.083	0.033750	0.002094	16.1167	-143.602	15.4498	0.093549	0.715460	-0.398072	-0.399420	0.053658	16.1167	-0.400569	-136178	-3.940295E-7	NaN
557	1.000000	0.758810	7.3705e+06	-49239.1	1005.82	-29759.7	0.000000	0.000000	6.759035	-0.013547	NaN	0.000000	0.001596	0.001716	28.0819	0.046524	0.002050	22.6903	-120.549	-164.805	-0.131781	0.757485	-0.356071	-0.357396	-0.013547	22.6903	-0.355623	-30797.6	4.398572E-7	NaN
557	1.000000	0.800838	7.3705e+06	-49239.1	1005.82	-29759.7	0.000000	0.000000	6.801064	0.017068	NaN	0.000000	0.001586	0.001724	28.0819	0.033802	0.001912	17.6768	68.1332	15.2934	0.103971	0.799473	-0.314043	-0.315407	0.017068	17.6768	-0.314767	-7789.42	-2.191215E-6	NaN
557	1.000000	0.842889	7.3705e+06	-49239.1	1005.82	-29759.7	0.000000	0.000000	6.843111	-0.084561	NaN	0.000000	0.001576	0.001708	28.082	0.071918	0.001949	36.8903	-16.1034	-164.698	-0.076277	0.841542	-0.271991	-0.273338	-0.084561	36.8903	-0.270272	-1681.41	5.029203E-5	NaN
557	1.000000	0.884885	7.3705e+06	-49239.1	1005.82	-29759.7	0.000000	0.000000	6.885109	-0.040521	NaN	0.000000	0.001572	0.001731	28.083	0.029090	0.001841	15.7972	50.5759	14.8135	-0.028943	0.883487	-0.229995	-0.231393	-0.040521	15.7972	-0.228071	-373.274	0.000109	NaN
557	1.000000	0.926885	7.3705e+06	-49239.1	1005.82	-29759.7	0.000000	0.000000	6.927108	-0.056162	NaN	0.000000	0.001518	0.001719	28.0834	0.054497	0.001957	27.8503	-142.137	-162.761	0.043091	0.925575	-0.187995	-0.189306	-0.056162	27.8503	-0.186483	-78.5395	0.000715	NaN
557	1.000000	0.968907	7.3705e+06	-49239.1	1005.82	-29759.7	0.000000	0.000000	6.969129	-0.076486	NaN	0.000000	0.001570	0.001732	28.0835	0.097787	0.001931	50.6478	-153.674	12.7621	-0.057239	0.967529	-0.145973	-0.147352	-0.076486	50.6478	-0.144841	-14.562	0.005252	NaN
557	1.000000	1.010935	7.3705e+06	-49239.1	1005.82	-29759.7	0.000000	0.000000	7.011160	-0.005708	NaN	0.000000	0.001571	0.001710	28.0823	0.091444	0.001983	46.104	70.0057	-165.152	-0.008234	1.009547	-0.103946	-0.105333	-0.005708	46.104	-0.103853	-2.219832	0.002571	NaN
557	1.000000	1.052960	7.3705e+06	-49239.1	1005.82	-29759.7	0.000000	0.000000	7.053184	-0.030723	NaN	0.000000	0.001565	0.001705	28.082	0.084686	0.002049	41.3225	68.5637	15.5855	0.082413	1.051591	-0.061920	-0.063289	-0.030723	41.3225	-0.061362	-0.196973	0.155977	NaN
557	1.000000	1.094957	7.3705e+06	-49239.1	1005.82	-29759.7	0.000000	0.000000	7.095182	-0.014495	NaN	0.000000	0.001571	0.001718	28.0823	0.089433	0.001970	45.3969	-135.995	-168.171	-0.047626	1.093624	-0.019923	-0.021257	-0.014495	45.3969	-0.019683	-0.012330	1.175575	NaN
557	2.000000	1.123970	7.3705e+06	-49239.1	1005.82	-29759.7	0.000000	0.000000	7.124869	16.3873	NaN	0.000000	0.001585	0.001672	28.0835	14.8686	0.001779	8359.86	6.673870	5.653576	15.2216	1.123631	0.009089	0.008751	16.3873	8359.86	0.007619	0.006654	2462.89	93635.5
557	2.000000	1.134367	7.3705e+06	-49239.1	1005.82	-29759.7	0.000000	0.000000	7.136247	40.2356	NaN	0.000000	0.001609	0.001724	28.0832	26.9847	0.001730	15600.6	4.808622	-178.495	38.2927	1.134130	0.019487	0.019250	40.2356	15600.6	0.017553	0.018841	2135.49	103839
557	2.000000	1.144887	7.3705e+06	-49239.1	1005.82	-29759.7	0.000000	0.000000	7.147903	67.8681	NaN	0.000000	0.001598	0.001731	28.0835	37.3715	0.001736	21525.5	8.385468	-4.270854	66.9507	1.144523	0.030007	0.029643	67.8681	21525.5	0.027642	0.035999	1885.29	103653
557	2.000000	1.155328	7.3705e+06	-49239.1	1005.82	-29759.7	0.000000	0.000000	7.159813	103.6	NaN	0.000000	0.001576	0.001732	28.0838	46.1707	0.001810	25504.6	5.485033	176.28	100.891	1.155035	0.040448	0.040155	103.6	25504.6	0.037401	0.057485	1802.22	97188.5
557	2.000000	1.165882	7.3705e+06	-49239.1	1005.82	-29759.7	0.000000	0.000000	7.172491	155.256	NaN	0.000000	0.001597	0.001739	28.0851	57.5731	0.001816	31696.2	6.101145	-5.648601	153.964	1.165570	0.051002	0.050690	155.256	31696.2	0.047328	0.084334	1840.96	99719.1
557	2.000000	1.176377	7.3705e+06	-49239.1	1005.82	-29759.7	0.000000	0.000000	7.185461	215.44	NaN	0.000000	0.001568	0.001714	28.0822	69.24	0.001792	38632.6	7.978223	171.104	215.169	1.175969	0.061496	0.061088	215.44	38632.6	0.057314	0.116353	1851.61	103476
557	2.000000	1.186866	7.3705e+06	-49239.1	1005.82	-29759.7	0.000000	0.000000	7.198675	281.724	NaN	0.000000	0.001647	0.001692	28.0824	78.6651	0.001829	43008	4.485550	-6.789702	279.803	1.186533	0.071986	0.071653	281.724	43008	0.067073	0.152384	1848.77	100659
557	2.000000	1.197270	7.3705e+06	-49239.1	1005.82	-29759.7	0.000000	0.000000	7.211898	350.287	NaN	0.000000	0.001629	0.001719	28.0835	88.4866	0.001873	47253	4.028702	173.526	345.621	1.196909	0.082389	0.082029	350.287	47253	0.076830	0.192974	1815.2	98277.3
557	2.000000	1.207727	7.3705e+06	-49239.1	1005.82	-29759.7	0.000000	0.000000	7.225941	437.499	NaN	0.000000	0.001617	0.001677	28.0837	99.1476	0.001763	56239.5	5.364102	-8.374838	431.128	1.207398	0.092847	0.092518	437.499	56239.5	0.087012	0.240094	1822.2	104864
557	2.000000	1.218309	7.3705e+06	-49239.1	1005.82	-29759.7	0.000000	0.000000	7.239767	516.393	NaN	0.000000	0.001593	0.001715	28.084	110.141	0.001827	60287.3	6.300556	169.482	515.711	1.217934	0.103428	0.103053	516.393	60287.3	0.097004	0.290976	1774.69	102110