File: remote_trans/data/nanoindenter/0828-1/data/Data_2025-08-06,11h17m57s/2025-07-22_16-23-58_1_702.txt
2025-07-22, 16:23:58, 1
Index	Phase	Displacement	Time	Pos X	Pos Y	Pos Z	Rot A	Rot B	Piezo Z	Force A	Force B	Gripper	Voltage A	Voltage B	Temperature	Amplitude force	Amplitude pos	Stiffness	Phase shift	Phase excitation	Force A raw	Displacement raw	HMax	HMax raw	Real Force	Real Stiffness	Contact Depth	Area	Hardness	Reduced Mod.
[#]	[#]	[um]	[s]	[um]	[um]	[um]	[m°]	[m°]	[um]	[uN]	[uN]	[V]	[V]	[V]	[°C]	[uN]	[um]	[N/m]	[°]	[°]	[uN]	[um]	[um]	[um]	[uN]	[N/m]	[um]	[um^2]	[MPa]	[MPa]
702	1.000000	0.002503	7.37192e+06	-41989.1	1005.82	-29784.2	0.000000	0.000000	6.002806	-0.006317	NaN	0.000000	0.001647	0.001732	28.0828	0.060952	0.000944	64.5375	24.7748	-175.711	-0.015830	0.001243	-1.125897	-1.127157	-0.006317	64.5375	-1.125823	-1.113260E+15	5.674667E-18	NaN
702	1.000000	0.044422	7.37192e+06	-41989.1	1005.82	-29784.2	0.000000	0.000000	6.044728	0.069549	NaN	0.000000	0.001669	0.001759	28.0839	0.112872	0.001929	58.5134	156.717	14.9463	-0.019457	0.043118	-1.083978	-1.085282	0.069549	58.5134	-1.084869	-3.139901E+14	-2.215020E-16	NaN
702	1.000000	0.086465	7.37192e+06	-41989.1	1005.82	-29784.2	0.000000	0.000000	6.086769	0.004860	NaN	0.000000	0.001747	0.001723	28.0839	0.049406	0.001921	25.7201	32.5732	-165.596	0.048056	0.085189	-1.041934	-1.043211	0.004860	25.7201	-1.042076	-8.353777E+13	-5.817443E-17	NaN
702	1.000000	0.128464	7.37192e+06	-41989.1	1005.82	-29784.2	0.000000	0.000000	6.128766	-0.017556	NaN	0.000000	0.001660	0.001777	28.0839	0.138240	0.001943	71.1388	-44.1884	14.1034	-0.049035	0.127062	-0.999936	-1.001338	-0.017556	71.1388	-0.999751	-2.251215E+13	7.798334E-16	NaN
702	1.000000	0.170481	7.37192e+06	-41989.1	1005.82	-29784.2	0.000000	0.000000	6.170784	-0.016109	NaN	0.000000	0.001680	0.001755	28.084	0.093825	0.002028	46.2731	29.016	-166.959	-0.112798	0.169149	-0.957919	-0.959251	-0.016109	46.2731	-0.957657	-6.099384E+12	2.641038E-15	NaN
702	1.000000	0.212513	7.37192e+06	-41989.1	1005.82	-29784.2	0.000000	0.000000	6.212817	0.014048	NaN	0.000000	0.001696	0.001788	28.0827	0.029941	0.001890	15.8408	-81.3426	12.7991	-0.022938	0.211156	-0.915887	-0.917243	0.014048	15.8408	-0.916552	-1.700780E+12	-8.259554E-15	NaN
702	1.000000	0.254513	7.37192e+06	-41989.1	1005.82	-29784.2	0.000000	0.000000	6.254818	0.034257	NaN	0.000000	0.001693	0.001769	28.0828	0.035463	0.001939	18.2884	113.304	-162.723	-0.004046	0.253219	-0.873887	-0.875180	0.034257	18.2884	-0.875292	-4.710072E+11	-7.273076E-14	NaN
702	1.000000	0.296538	7.37192e+06	-41989.1	1005.82	-29784.2	0.000000	0.000000	6.296842	-0.003948	NaN	0.000000	0.001694	0.001745	28.0824	0.036309	0.002120	17.1285	-149.022	13.212	0.061344	0.295181	-0.831861	-0.833219	-0.003948	17.1285	-0.831688	-1.209673E+11	3.263768E-14	NaN
702	1.000000	0.338551	7.37192e+06	-41989.1	1005.82	-29784.2	0.000000	0.000000	6.338856	0.038612	NaN	0.000000	0.001672	0.001744	28.0841	0.061744	0.002009	30.7324	-115.943	-164.9	0.064206	0.337230	-0.789849	-0.791169	0.038612	30.7324	-0.790791	-3.371506E+10	-1.145256E-12	NaN
702	1.000000	0.380580	7.37192e+06	-41989.1	1005.82	-29784.2	0.000000	0.000000	6.380882	-0.019619	NaN	0.000000	0.001708	0.001737	28.0842	0.042563	0.002046	20.8038	93.2082	11.5537	0.012160	0.379279	-0.747820	-0.749121	-0.019619	20.8038	-0.747113	-8.588473E+9	2.284380E-12	NaN
702	1.000000	0.422583	7.37192e+06	-41989.1	1005.82	-29784.2	0.000000	0.000000	6.422888	0.037878	NaN	0.000000	0.001637	0.001791	28.084	0.023805	0.001973	12.0624	153.15	-166.449	0.028379	0.421298	-0.705817	-0.707102	0.037878	12.0624	-0.708172	-2.529882E+9	-1.497211E-11	NaN
702	1.000000	0.464627	7.37192e+06	-41989.1	1005.82	-29784.2	0.000000	0.000000	6.464929	-0.025833	NaN	0.000000	0.001652	0.001756	28.0825	0.037004	0.002116	17.4896	-116.017	14.8537	-0.051838	0.463266	-0.663773	-0.665133	-0.025833	17.4896	-0.662665	-6.039048E+8	4.277678E-11	NaN
702	1.000000	0.506646	7.37192e+06	-41989.1	1005.82	-29784.2	0.000000	0.000000	6.506949	-0.002630	NaN	0.000000	0.001678	0.001727	28.0825	0.055365	0.001996	27.7355	6.797316	-167.033	0.089282	0.505338	-0.621754	-0.623062	-0.002630	27.7355	-0.621683	-1.654855E+8	1.588983E-11	NaN
702	1.000000	0.548669	7.37192e+06	-41989.1	1005.82	-29784.2	0.000000	0.000000	6.548973	0.010548	NaN	0.000000	0.001645	0.001785	28.0828	0.052010	0.002049	25.3819	32.4033	14.8161	0.034863	0.547330	-0.579731	-0.581069	0.010548	25.3819	-0.580043	-4.418921E+7	-2.387074E-10	NaN
702	1.000000	0.590663	7.37192e+06	-41989.1	1005.82	-29784.2	0.000000	0.000000	6.590969	0.073999	NaN	0.000000	0.001660	0.001767	28.0838	0.016539	0.001820	9.089515	49.9395	-164.429	0.015155	0.589337	-0.537737	-0.539062	0.073999	9.089515	-0.543843	-1.395214E+7	-5.303753E-9	NaN
702	1.000000	0.632682	7.37192e+06	-41989.1	1005.82	-29784.2	0.000000	0.000000	6.632986	0.029041	NaN	0.000000	0.001631	0.001775	28.0846	0.095923	0.001895	50.6187	66.2847	15.5748	0.046904	0.631283	-0.495718	-0.497117	0.029041	50.6187	-0.496148	-3.02877e+06	-9.588384E-9	NaN
702	1.000000	0.674715	7.37192e+06	-41989.1	1005.82	-29784.2	0.000000	0.000000	6.675016	-0.070357	NaN	0.000000	0.001701	0.001825	28.084	0.093463	0.001918	48.7326	-112.955	-169.946	-0.055229	0.673400	-0.453685	-0.454999	-0.070357	48.7326	-0.452602	-742975	9.469649E-8	NaN
702	1.000000	0.716719	7.37192e+06	-41989.1	1005.82	-29784.2	0.000000	0.000000	6.717022	-0.004969	NaN	0.000000	0.001655	0.001770	28.0841	0.109138	0.001991	54.8024	147.502	13.3844	-0.012686	0.715360	-0.411681	-0.413040	-0.004969	54.8024	-0.411613	-195584	2.540450E-8	NaN
702	1.000000	0.758748	7.37192e+06	-41989.1	1005.82	-29784.2	0.000000	0.000000	6.759050	-0.033537	NaN	0.000000	0.001664	0.001757	28.0829	0.069360	0.002102	33.0026	-125.813	-168.798	-0.064253	0.757429	-0.369651	-0.370971	-0.033537	33.0026	-0.368889	-47877.1	7.004861E-7	NaN
702	1.000000	0.800747	7.37192e+06	-41989.1	1005.82	-29784.2	0.000000	0.000000	6.801052	0.041152	NaN	0.000000	0.001712	0.001702	28.0826	0.094071	0.002116	44.46	68.5969	11.8594	0.026911	0.799417	-0.327652	-0.328982	0.041152	44.46	-0.328347	-12337.5	-3.335521E-6	NaN
702	1.000000	0.842764	7.37192e+06	-41989.1	1005.82	-29784.2	0.000000	0.000000	6.843071	0.079105	NaN	0.000000	0.001678	0.001741	28.0831	0.045849	0.001858	24.6706	-0.814268	-165.506	0.063229	0.841468	-0.285635	-0.286932	0.079105	24.6706	-0.288040	-3118.33	-2.536768E-5	NaN
702	1.000000	0.884813	7.37192e+06	-41989.1	1005.82	-29784.2	0.000000	0.000000	6.885118	0.042245	NaN	0.000000	0.001766	0.001763	28.0843	0.096035	0.001991	48.2396	157.77	12.7452	0.081529	0.883407	-0.243587	-0.244993	0.042245	48.2396	-0.244244	-669.409	-6.310806E-5	NaN
702	1.000000	0.926818	7.37192e+06	-41989.1	1005.82	-29784.2	0.000000	0.000000	6.927122	-0.000861	NaN	0.000000	0.001771	0.001740	28.084	0.021210	0.001981	10.708	-52.9817	-164.601	-0.020717	0.925459	-0.201581	-0.202941	-0.000861	10.708	-0.201521	-139.529	6.172782E-6	NaN
702	1.000000	0.968830	7.37192e+06	-41989.1	1005.82	-29784.2	0.000000	0.000000	6.969137	0.078429	NaN	0.000000	0.001765	0.001747	28.084	0.046357	0.001898	24.4215	77.1831	17.3365	-0.000282	0.967523	-0.159569	-0.160877	0.078429	24.4215	-0.161978	-29.7203	-0.002639	NaN
702	1.000000	1.010816	7.37192e+06	-41989.1	1005.82	-29784.2	0.000000	0.000000	7.011123	0.076307	NaN	0.000000	0.001682	0.001730	28.0827	0.090482	0.002083	43.4456	-12.9701	-164.718	0.022267	1.009572	-0.117584	-0.118827	0.076307	43.4456	-0.118901	-4.590402	-0.016623	NaN
702	1.000000	1.052839	7.37192e+06	-41989.1	1005.82	-29784.2	0.000000	0.000000	7.053142	-0.013981	NaN	0.000000	0.001683	0.001720	28.0826	0.059640	0.002037	29.279	-71.6446	13.9818	-0.055652	1.051486	-0.075561	-0.076914	-0.013981	29.279	-0.075202	-0.467468	0.029908	NaN
702	1.000000	1.094889	7.37192e+06	-41989.1	1005.82	-29784.2	0.000000	0.000000	7.095204	0.274930	NaN	0.000000	0.001686	0.001668	28.0826	0.300312	0.002043	146.986	-4.983891	-165.793	0.252670	1.093565	-0.033511	-0.034835	0.274930	146.986	-0.034914	-0.031838	-8.635358	NaN
702	2.000000	1.134956	7.37192e+06	-41989.1	1005.82	-29784.2	0.000000	0.000000	7.135613	8.602009	NaN	0.000000	0.001684	0.001738	28.0841	9.970189	0.001822	5470.68	15.8454	4.081763	8.605739	1.134544	0.006556	0.006145	8.602009	5470.68	0.005377	0.004480	1920.02	74673.7
702	2.000000	1.145324	7.37192e+06	-41989.1	1005.82	-29784.2	0.000000	0.000000	7.146916	31.3396	NaN	0.000000	0.001710	0.001717	28.0838	23.5822	0.001737	13572.8	5.612349	-178.265	29.3352	1.145029	0.016925	0.016629	31.3396	13572.8	0.015193	0.015543	2016.27	99465.1
702	2.000000	1.155817	7.37192e+06	-41989.1	1005.82	-29784.2	0.000000	0.000000	7.158804	65.2867	NaN	0.000000	0.001701	0.001749	28.0838	35.9951	0.001799	20006.4	6.720325	-2.227130	63.5401	1.155414	0.027418	0.027015	65.2867	20006.4	0.024970	0.030961	2108.66	103880
702	2.000000	1.166285	7.37192e+06	-41989.1	1005.82	-29784.2	0.000000	0.000000	7.171464	118.621	NaN	0.000000	0.001693	0.001773	28.0841	48.3143	0.001878	25730.4	4.735577	176.676	117.631	1.165969	0.037886	0.037569	118.621	25730.4	0.034428	0.050422	2352.54	104691
702	2.000000	1.176730	7.37192e+06	-41989.1	1005.82	-29784.2	0.000000	0.000000	7.184521	182.183	NaN	0.000000	0.001684	0.001727	28.0829	59.0699	0.001791	32973.4	4.927141	-6.278025	176.171	1.176394	0.048330	0.047994	182.183	32973.4	0.044186	0.075295	2419.61	109788
702	2.000000	1.187244	7.37192e+06	-41989.1	1005.82	-29784.2	0.000000	0.000000	7.197879	251.386	NaN	0.000000	0.001708	0.001791	28.0828	68.2158	0.001810	37677.9	5.480988	172.763	249.426	1.186896	0.058844	0.058496	251.386	37677.9	0.053840	0.104652	2402.11	106411
702	2.000000	1.197798	7.37192e+06	-41989.1	1005.82	-29784.2	0.000000	0.000000	7.211695	330.756	NaN	0.000000	0.001709	0.001777	28.0829	77.8396	0.001783	43658.8	4.853365	-7.975192	329.525	1.197388	0.069398	0.068989	330.756	43658.8	0.063716	0.139470	2371.51	106808
702	2.000000	1.208239	7.37192e+06	-41989.1	1005.82	-29784.2	0.000000	0.000000	7.225611	415.324	NaN	0.000000	0.001709	0.001748	28.0849	88.1669	0.001773	49725.5	8.615373	167.002	412.926	1.207921	0.079839	0.079522	415.324	49725.5	0.073575	0.178933	2321.11	107401
702	2.000000	1.218749	7.37192e+06	-41989.1	1005.82	-29784.2	0.000000	0.000000	7.239825	505.44	NaN	0.000000	0.001714	0.001725	28.0845	96.2681	0.001773	54293.8	4.909580	-9.830070	503.187	1.218405	0.090349	0.090006	505.44	54293.8	0.083367	0.222675	2269.86	105121
702	2.000000	1.229257	7.37192e+06	-41989.1	1005.82	-29784.2	0.000000	0.000000	7.254097	597.01	NaN	0.000000	0.001704	0.001682	28.0844	103.777	0.001912	54279.6	1.819746	173.555	596.862	1.228910	0.100857	0.100511	597.01	54279.6	0.092608	0.268028	2227.41	95789.9
702	2.000000	1.232707	7.37192e+06	-41989.1	1005.82	-29784.2	0.000000	0.000000	7.258458	619.157	NaN	0.000000	0.001694	0.001745	28.0846	105.2	0.001732	60752.1	5.446696	-11.4257	614.523	1.232387	0.104308	0.103988	619.157	60752.1	0.096664	0.289169	2141.16	103219