File: remote_trans/data/nanoindenter/0828-1/data/Data_2025-08-06,11h17m57s/2025-07-22_16-23-58_1_622.txt
2025-07-22, 16:23:58, 1
Index	Phase	Displacement	Time	Pos X	Pos Y	Pos Z	Rot A	Rot B	Piezo Z	Force A	Force B	Gripper	Voltage A	Voltage B	Temperature	Amplitude force	Amplitude pos	Stiffness	Phase shift	Phase excitation	Force A raw	Displacement raw	HMax	HMax raw	Real Force	Real Stiffness	Contact Depth	Area	Hardness	Reduced Mod.
[#]	[#]	[um]	[s]	[um]	[um]	[um]	[m°]	[m°]	[um]	[uN]	[uN]	[V]	[V]	[V]	[°C]	[uN]	[um]	[N/m]	[°]	[°]	[uN]	[um]	[um]	[um]	[uN]	[N/m]	[um]	[um^2]	[MPa]	[MPa]
622	1.000000	0.002220	7.37114e+06	-45989.1	1005.82	-29770.6	0.000000	0.000000	6.002814	0.013682	NaN	0.000000	0.001551	0.001654	28.0824	0.082047	0.000948	86.5739	5.730642	-166.289	-0.038644	0.000959	-1.099496	-1.100758	0.013682	86.5739	-1.099615	-4.953355E+14	-2.762216E-17	NaN
622	1.000000	0.044131	7.37114e+06	-45989.1	1005.82	-29770.6	0.000000	0.000000	6.044723	-0.033403	NaN	0.000000	0.001517	0.001652	28.0821	0.055834	0.001933	28.8821	61.2897	14.3838	-0.048125	0.042733	-1.057586	-1.058984	-0.033403	28.8821	-1.056719	-1.314390E+14	2.541300E-16	NaN
622	1.000000	0.086178	7.37114e+06	-45989.1	1005.82	-29770.6	0.000000	0.000000	6.086771	-0.004957	NaN	0.000000	0.001583	0.001651	28.0809	0.124899	0.001932	64.6443	134.273	-164.842	-0.057023	0.084813	-1.015539	-1.016904	-0.004957	64.6443	-1.015482	-3.665695E+13	1.352296E-16	NaN
622	1.000000	0.128199	7.37114e+06	-45989.1	1005.82	-29770.6	0.000000	0.000000	6.128792	-0.002257	NaN	0.000000	0.001597	0.001682	28.0808	0.041411	0.002015	20.5481	-156.42	16.3855	-0.103818	0.126859	-0.973518	-0.974858	-0.002257	20.5481	-0.973436	-9.953290E+12	2.268094E-16	NaN
622	1.000000	0.170211	7.37114e+06	-45989.1	1005.82	-29770.6	0.000000	0.000000	6.170804	-0.025338	NaN	0.000000	0.001519	0.001622	28.081	0.076369	0.001881	40.5992	-14.274	-164.7	-0.044656	0.168913	-0.931506	-0.932804	-0.025338	40.5992	-0.931038	-2.668087E+12	9.496598E-15	NaN
622	1.000000	0.212222	7.37114e+06	-45989.1	1005.82	-29770.6	0.000000	0.000000	6.212817	0.026501	NaN	0.000000	0.001538	0.001654	28.0819	0.072237	0.002000	36.1193	65.3532	12.3655	0.073931	0.210839	-0.889495	-0.890878	0.026501	36.1193	-0.890045	-7.456314E+11	-3.554160E-14	NaN
622	1.000000	0.254241	7.37114e+06	-45989.1	1005.82	-29770.6	0.000000	0.000000	6.254831	-0.074489	NaN	0.000000	0.001574	0.001664	28.0822	0.080579	0.002065	39.0168	170.515	-164.838	-0.095492	0.252945	-0.847476	-0.848772	-0.074489	39.0168	-0.846044	-1.893052E+11	3.934887E-13	NaN
622	1.000000	0.296264	7.37114e+06	-45989.1	1005.82	-29770.6	0.000000	0.000000	6.296856	-0.025735	NaN	0.000000	0.001572	0.001656	28.0823	0.043759	0.001944	22.5083	-70.7144	14.2816	-0.072722	0.294890	-0.805453	-0.806826	-0.025735	22.5083	-0.804596	-5.190870E+10	4.957835E-13	NaN
622	1.000000	0.338264	7.37114e+06	-45989.1	1005.82	-29770.6	0.000000	0.000000	6.338857	-0.012205	NaN	0.000000	0.001552	0.001655	28.0809	0.052777	0.002003	26.3518	106.839	-163.762	-0.022791	0.336999	-0.763453	-0.764718	-0.012205	26.3518	-0.763106	-1.417581E+10	8.609967E-13	NaN
622	1.000000	0.380325	7.37114e+06	-45989.1	1005.82	-29770.6	0.000000	0.000000	6.380914	-0.101978	NaN	0.000000	0.001551	0.001665	28.0809	0.056760	0.001858	30.5478	-62.8712	15.1728	-0.075949	0.378948	-0.721392	-0.722769	-0.101978	30.5478	-0.718888	-3.542496E+9	2.878716E-11	NaN
622	1.000000	0.422300	7.37114e+06	-45989.1	1005.82	-29770.6	0.000000	0.000000	6.422891	-0.068214	NaN	0.000000	0.001596	0.001624	28.0808	0.071908	0.001932	37.224	142.848	-165.427	-0.020467	0.421011	-0.679417	-0.680706	-0.068214	37.224	-0.678042	-9.804620E+8	6.957373E-11	NaN
622	1.000000	0.464314	7.37114e+06	-45989.1	1005.82	-29770.6	0.000000	0.000000	6.464910	0.041602	NaN	0.000000	0.001652	0.001672	28.0821	0.039432	0.002049	19.2442	-129.332	16.5618	0.021964	0.462928	-0.637402	-0.638788	0.041602	19.2442	-0.639024	-2.863479E+8	-1.452864E-10	NaN
622	1.000000	0.506367	7.37114e+06	-45989.1	1005.82	-29770.6	0.000000	0.000000	6.506961	0.023022	NaN	0.000000	0.001657	0.001633	28.0823	0.105866	0.002063	51.3227	122.502	-165.369	-0.013441	0.505087	-0.595350	-0.596630	0.023022	51.3227	-0.595687	-7.261762E+7	-3.170262E-10	NaN
622	1.000000	0.548356	7.37114e+06	-45989.1	1005.82	-29770.6	0.000000	0.000000	6.548948	-0.035109	NaN	0.000000	0.001614	0.001696	28.0824	0.022859	0.001971	11.5988	170.455	16.6695	-0.026836	0.546978	-0.553361	-0.554739	-0.035109	11.5988	-0.551091	-1.758178E+7	1.996902E-9	NaN
622	1.000000	0.590397	7.37114e+06	-45989.1	1005.82	-29770.6	0.000000	0.000000	6.590989	-0.028114	NaN	0.000000	0.001575	0.001665	28.0816	0.046077	0.001848	24.9389	-111.368	-166.198	-0.033293	0.589106	-0.511320	-0.512611	-0.028114	24.9389	-0.510475	-4.79762e+06	5.859913E-9	NaN
622	1.000000	0.632406	7.37114e+06	-45989.1	1005.82	-29770.6	0.000000	0.000000	6.633003	0.077466	NaN	0.000000	0.001584	0.001649	28.0808	0.050074	0.002068	24.209	-97.4892	17.8455	0.025819	0.631056	-0.469311	-0.470661	0.077466	24.209	-0.471711	-1.37847e+06	-5.619720E-8	NaN
622	1.000000	0.674408	7.37114e+06	-45989.1	1005.82	-29770.6	0.000000	0.000000	6.674999	-0.062505	NaN	0.000000	0.001596	0.001712	28.0807	0.117221	0.001901	61.6709	105.577	-163.118	0.023086	0.673074	-0.427309	-0.428643	-0.062505	61.6709	-0.426549	-318578	1.962011E-7	NaN
622	1.000000	0.716452	7.37114e+06	-45989.1	1005.82	-29770.6	0.000000	0.000000	6.717046	0.015190	NaN	0.000000	0.001653	0.001669	28.081	0.064491	0.001938	33.2809	-179.929	13.5711	-0.051085	0.715099	-0.385265	-0.386618	0.015190	33.2809	-0.385607	-83230.8	-1.825051E-7	NaN
622	1.000000	0.758458	7.37114e+06	-45989.1	1005.82	-29770.6	0.000000	0.000000	6.759051	-0.003936	NaN	0.000000	0.001622	0.001631	28.0819	0.032410	0.001981	16.3643	-128.694	-167.639	-0.025367	0.757135	-0.343259	-0.344582	-0.003936	16.3643	-0.343078	-20248.6	1.943986E-7	NaN
622	1.000000	0.800473	7.37114e+06	-45989.1	1005.82	-29770.6	0.000000	0.000000	6.801065	-0.034600	NaN	0.000000	0.001556	0.001730	28.0821	0.093091	0.002017	46.1439	-62.8798	18.7484	-0.047483	0.799151	-0.301244	-0.302566	-0.034600	46.1439	-0.300682	-4817.09	7.182706E-6	NaN
622	1.000000	0.842487	7.37114e+06	-45989.1	1005.82	-29770.6	0.000000	0.000000	6.843080	0.001098	NaN	0.000000	0.001552	0.001734	28.0819	0.070872	0.002052	34.5366	159.258	-165.852	-0.021937	0.841222	-0.259230	-0.260495	0.001098	34.5366	-0.259254	-1141.51	-9.620263E-7	NaN
622	1.000000	0.884471	7.37114e+06	-45989.1	1005.82	-29770.6	0.000000	0.000000	6.885064	-0.027249	NaN	0.000000	0.001577	0.001723	28.0809	0.063767	0.002037	31.3055	-4.004647	12.5869	0.007999	0.883147	-0.217245	-0.218570	-0.027249	31.3055	-0.216593	-244.965	0.000111	NaN
622	1.000000	0.926523	7.37114e+06	-45989.1	1005.82	-29770.6	0.000000	0.000000	6.927117	-0.000967	NaN	0.000000	0.001618	0.001756	28.0809	0.047079	0.002069	22.7587	56.7136	-164.466	-0.093374	0.925196	-0.175194	-0.176521	-0.000967	22.7587	-0.175162	-50.438	1.916634E-5	NaN
622	1.000000	0.968547	7.37114e+06	-45989.1	1005.82	-29770.6	0.000000	0.000000	6.969141	0.013690	NaN	0.000000	0.001642	0.001701	28.0812	0.053530	0.002098	25.5124	-159.028	17.9666	-0.057003	0.967262	-0.133169	-0.134454	0.013690	25.5124	-0.133572	-8.932206	-0.001533	NaN
622	1.000000	1.010543	7.37114e+06	-45989.1	1005.82	-29770.6	0.000000	0.000000	7.011136	-0.015741	NaN	0.000000	0.001694	0.001720	28.082	0.043906	0.001926	22.7953	-82.7223	-166.835	0.011968	1.009278	-0.091173	-0.092438	-0.015741	22.7953	-0.090656	-1.119870	0.014056	NaN
622	1.000000	1.052584	7.37114e+06	-45989.1	1005.82	-29770.6	0.000000	0.000000	7.053176	-0.048602	NaN	0.000000	0.001602	0.001723	28.0819	0.054041	0.001994	27.0959	178.198	13.3822	0.048203	1.051199	-0.049132	-0.050518	-0.048602	27.0959	-0.047787	-0.078176	0.621699	NaN
622	1.000000	1.094558	7.37114e+06	-45989.1	1005.82	-29770.6	0.000000	0.000000	7.095151	0.007108	NaN	0.000000	0.001611	0.001719	28.0822	0.078140	0.001843	42.4056	169.83	-166.413	0.012976	1.093242	-0.007159	-0.008475	0.007108	42.4056	-0.007285	-0.004810	-1.477684	NaN
622	2.000000	1.117685	7.37114e+06	-45989.1	1005.82	-29770.6	0.000000	0.000000	7.118995	17.4195	NaN	0.000000	0.001611	0.001644	28.0818	14.5384	0.001674	8683.51	7.507753	3.707133	16.957	1.117321	0.015969	0.015604	17.4195	8683.51	0.014464	0.014577	1194.97	65709.9
622	2.000000	1.128147	7.37114e+06	-45989.1	1005.82	-29770.6	0.000000	0.000000	7.130105	33.181	NaN	0.000000	0.001581	0.001683	28.0811	25.0025	0.001859	13448.8	4.649135	-174.755	32.7502	1.127852	0.026430	0.026135	33.181	13448.8	0.024580	0.030256	1096.67	70640.1
622	2.000000	1.138604	7.37114e+06	-45989.1	1005.82	-29770.6	0.000000	0.000000	7.141594	58.3065	NaN	0.000000	0.001691	0.001669	28.0814	34.9418	0.001810	19300.9	6.352398	-1.191886	56.1979	1.138256	0.036887	0.036539	58.3065	19300.9	0.034621	0.050868	1146.22	78185.6
622	2.000000	1.149074	7.37114e+06	-45989.1	1005.82	-29770.6	0.000000	0.000000	7.153467	92.4223	NaN	0.000000	0.001646	0.001655	28.081	45.0483	0.001801	25014.9	6.098693	176.981	90.9081	1.148801	0.047357	0.047085	92.4223	25014.9	0.044586	0.076418	1209.44	82675.1
622	2.000000	1.159598	7.37114e+06	-45989.1	1005.82	-29770.6	0.000000	0.000000	7.165681	133.532	NaN	0.000000	0.001564	0.001730	28.0819	55.9729	0.001786	31344.8	7.672201	-6.749034	131.796	1.159184	0.057881	0.057467	133.532	31344.8	0.054686	0.107446	1242.79	87366.3
622	2.000000	1.170155	7.37114e+06	-45989.1	1005.82	-29770.6	0.000000	0.000000	7.178325	184.304	NaN	0.000000	0.001588	0.001735	28.082	66.8213	0.001841	36294.7	6.667503	173.92	188.16	1.169795	0.068438	0.068078	184.304	36294.7	0.064629	0.142929	1289.48	87711.4
622	2.000000	1.180601	7.37114e+06	-45989.1	1005.82	-29770.6	0.000000	0.000000	7.191392	248.069	NaN	0.000000	0.001564	0.001739	28.0817	77.9343	0.001728	45108.3	5.473052	-7.272792	247.787	1.180178	0.078884	0.078461	248.069	45108.3	0.074759	0.183986	1348.3	96080.9
622	2.000000	1.190926	7.37114e+06	-45989.1	1005.82	-29770.6	0.000000	0.000000	7.204549	316.965	NaN	0.000000	0.001582	0.001744	28.0805	85.6515	0.001676	51093.1	-1.353407	178.397	308.898	1.190755	0.089209	0.089038	316.965	51093.1	0.084556	0.228289	1388.44	97699.8
622	2.000000	1.201590	7.37114e+06	-45989.1	1005.82	-29770.6	0.000000	0.000000	7.218586	399.01	NaN	0.000000	0.001587	0.001715	28.0808	97.0533	0.001819	53365.1	4.544573	-7.973139	397.757	1.201311	0.099873	0.099594	399.01	53365.1	0.094265	0.276573	1442.69	92709.7
622	2.000000	1.209981	7.37114e+06	-45989.1	1005.82	-29770.6	0.000000	0.000000	7.230529	485.393	NaN	0.000000	0.001521	0.001724	28.0807	106.029	0.001796	59050.4	7.586404	168.985	480.129	1.209677	0.108264	0.107961	485.393	59050.4	0.102099	0.318675	1523.16	95570.1