File: remote_trans/data/nanoindenter/0828-1/data/Data_2025-08-06,11h17m57s/2025-07-22_16-23-58_1_1058.txt
2025-07-22, 16:23:58, 1
Index	Phase	Displacement	Time	Pos X	Pos Y	Pos Z	Rot A	Rot B	Piezo Z	Force A	Force B	Gripper	Voltage A	Voltage B	Temperature	Amplitude force	Amplitude pos	Stiffness	Phase shift	Phase excitation	Force A raw	Displacement raw	HMax	HMax raw	Real Force	Real Stiffness	Contact Depth	Area	Hardness	Reduced Mod.
[#]	[#]	[um]	[s]	[um]	[um]	[um]	[m°]	[m°]	[um]	[uN]	[uN]	[V]	[V]	[V]	[°C]	[uN]	[um]	[N/m]	[°]	[°]	[uN]	[um]	[um]	[um]	[uN]	[N/m]	[um]	[um^2]	[MPa]	[MPa]
1058	1.000000	0.002728	7.37539e+06	-53039.1	1055.82	-29747.4	0.000000	0.000000	6.002797	-0.001712	NaN	0.000000	0.001592	0.001720	28.0829	0.086355	0.001013	85.2238	29.0045	-164.142	-0.053181	0.001496	-1.149522	-1.150753	-0.001712	85.2238	-1.149507	-2.313160E+15	7.402153E-19	NaN
1058	1.000000	0.044647	7.37539e+06	-53039.1	1055.82	-29747.4	0.000000	0.000000	6.044714	-0.053291	NaN	0.000000	0.001660	0.001714	28.0829	0.027070	0.002048	13.2205	-52.9442	12.8918	-0.057953	0.043319	-1.107602	-1.108930	-0.053291	13.2205	-1.104579	-5.774749E+14	9.228300E-17	NaN
1058	1.000000	0.086699	7.37539e+06	-53039.1	1055.82	-29747.4	0.000000	0.000000	6.086769	0.004545	NaN	0.000000	0.001658	0.001753	28.0828	0.043190	0.002057	20.993	33.7877	-166.35	-0.061088	0.085387	-1.065550	-1.066862	0.004545	20.993	-1.065712	-1.736120E+14	-2.617878E-17	NaN
1058	1.000000	0.128730	7.37539e+06	-53039.1	1055.82	-29747.4	0.000000	0.000000	6.128798	-0.034682	NaN	0.000000	0.001684	0.001710	28.0839	0.063854	0.001971	32.3987	56.1242	13.1782	-0.043287	0.127321	-1.023520	-1.024928	-0.034682	32.3987	-1.022717	-4.586759E+13	7.561374E-16	NaN
1058	1.000000	0.170708	7.3754e+06	-53039.1	1055.82	-29747.4	0.000000	0.000000	6.170779	0.033371	NaN	0.000000	0.001655	0.001686	28.084	0.098795	0.002100	47.0418	176.911	-163.785	0.094981	0.169380	-0.981541	-0.982869	0.033371	47.0418	-0.982073	-1.301197E+13	-2.564614E-15	NaN
1058	1.000000	0.212718	7.3754e+06	-53039.1	1055.82	-29747.4	0.000000	0.000000	6.212785	-0.066456	NaN	0.000000	0.001735	0.001702	28.0843	0.037418	0.002031	18.4205	-77.0125	12.3119	-0.077714	0.211419	-0.939531	-0.940831	-0.066456	18.4205	-0.936825	-3.193786E+12	2.080790E-14	NaN
1058	1.000000	0.254752	7.3754e+06	-53039.1	1055.82	-29747.4	0.000000	0.000000	6.254819	-0.079258	NaN	0.000000	0.001735	0.001706	28.0828	0.094047	0.002019	46.5874	-111.012	-164.525	0.007901	0.253451	-0.897497	-0.898798	-0.079258	46.5874	-0.896221	-9.036446E+11	8.770952E-14	NaN
1058	1.000000	0.296746	7.3754e+06	-53039.1	1055.82	-29747.4	0.000000	0.000000	6.296814	-0.044850	NaN	0.000000	0.001683	0.001662	28.0826	0.018593	0.002004	9.278634	60.9417	15.2568	-0.019067	0.295452	-0.855503	-0.856797	-0.044850	9.278634	-0.851878	-2.270738E+11	1.975125E-13	NaN
1058	1.000000	0.338778	7.3754e+06	-53039.1	1055.82	-29747.4	0.000000	0.000000	6.338847	-0.001290	NaN	0.000000	0.001623	0.001667	28.0827	0.124559	0.001918	64.9506	51.4851	-164.324	-0.020420	0.337506	-0.813471	-0.814743	-0.001290	64.9506	-0.813457	-6.846420E+10	1.884915E-14	NaN
1058	1.000000	0.380817	7.3754e+06	-53039.1	1055.82	-29747.4	0.000000	0.000000	6.380887	0.024158	NaN	0.000000	0.001681	0.001635	28.0825	0.059004	0.002065	28.5674	-90.8243	15.3465	-0.010021	0.379446	-0.771432	-0.772803	0.024158	28.5674	-0.772066	-1.876722E+10	-1.287228E-12	NaN
1058	1.000000	0.422854	7.3754e+06	-53039.1	1055.82	-29747.4	0.000000	0.000000	6.422921	-0.053434	NaN	0.000000	0.001631	0.001709	28.0836	0.078445	0.001881	41.7123	121.268	-161.926	-0.011842	0.421476	-0.729395	-0.730774	-0.053434	41.7123	-0.728434	-4.780438E+9	1.117772E-11	NaN
1058	1.000000	0.464815	7.3754e+06	-53039.1	1055.82	-29747.4	0.000000	0.000000	6.464884	0.013795	NaN	0.000000	0.001699	0.001673	28.0836	0.199396	0.001979	100.758	-113.927	13.3539	0.007017	0.463475	-0.687435	-0.688774	0.013795	100.758	-0.687537	-1.322091E+9	-1.043455E-11	NaN
1058	1.000000	0.506867	7.3754e+06	-53039.1	1055.82	-29747.4	0.000000	0.000000	6.506937	0.016078	NaN	0.000000	0.001687	0.001690	28.084	0.209368	0.002022	103.558	-152.825	-165.74	0.014952	0.505574	-0.645382	-0.646675	0.016078	103.558	-0.645498	-3.513293E+8	-4.576204E-11	NaN
1058	1.000000	0.548906	7.3754e+06	-53039.1	1055.82	-29747.4	0.000000	0.000000	6.548977	0.031798	NaN	0.000000	0.001661	0.001702	28.0826	0.077846	0.001951	39.907	25.3588	12.5673	0.023094	0.547498	-0.603343	-0.604752	0.031798	39.907	-0.603941	-9.434561E+7	-3.370328E-10	NaN
1058	1.000000	0.590904	7.3754e+06	-53039.1	1055.82	-29747.4	0.000000	0.000000	6.590974	0.014442	NaN	0.000000	0.001643	0.001667	28.0825	0.066974	0.002020	33.1518	-142.444	-167.55	-0.009981	0.589658	-0.561346	-0.562591	0.014442	33.1518	-0.561672	-2.463261E+7	-5.863137E-10	NaN
1058	1.000000	0.632932	7.3754e+06	-53039.1	1055.82	-29747.4	0.000000	0.000000	6.632999	-0.050651	NaN	0.000000	0.001664	0.001679	28.0824	0.072842	0.002097	34.7387	94.8888	17.9	-0.012192	0.631574	-0.519317	-0.520675	-0.050651	34.7387	-0.518224	-6.1502e+06	8.235731E-9	NaN
1058	1.000000	0.674943	7.3754e+06	-53039.1	1055.82	-29747.4	0.000000	0.000000	6.675012	-0.019884	NaN	0.000000	0.001636	0.001663	28.0837	0.143684	0.002009	71.5163	-89.4354	-163.172	-0.009920	0.673617	-0.477306	-0.478632	-0.019884	71.5163	-0.477098	-1.64015e+06	1.212305E-8	NaN
1058	1.000000	0.716965	7.3754e+06	-53039.1	1055.82	-29747.4	0.000000	0.000000	6.717032	-0.059662	NaN	0.000000	0.001723	0.001678	28.0836	0.060044	0.001945	30.8695	60.5869	9.155618	-0.018320	0.715665	-0.435285	-0.436584	-0.059662	30.8695	-0.433835	-403915	1.477103E-7	NaN
1058	1.000000	0.758982	7.3754e+06	-53039.1	1055.82	-29747.4	0.000000	0.000000	6.759050	-0.013489	NaN	0.000000	0.001635	0.001697	28.0837	0.098567	0.002009	49.0748	-145.088	-163.228	0.019793	0.757662	-0.393268	-0.394587	-0.013489	49.0748	-0.393062	-106400	1.267753E-7	NaN
1058	1.000000	0.800987	7.3754e+06	-53039.1	1055.82	-29747.4	0.000000	0.000000	6.801054	-0.059799	NaN	0.000000	0.001640	0.001694	28.0823	0.048105	0.002070	23.2433	-16.6471	13.3099	-0.052713	0.799610	-0.351263	-0.352639	-0.059799	23.2433	-0.349333	-24964.3	2.395379E-6	NaN
1058	1.000000	0.843019	7.3754e+06	-53039.1	1055.82	-29747.4	0.000000	0.000000	6.843089	0.012995	NaN	0.000000	0.001693	0.001690	28.0821	0.085450	0.002078	41.1274	-35.1497	-162.829	0.023571	0.841665	-0.309230	-0.310584	0.012995	41.1274	-0.309467	-6503.87	-1.998066E-6	NaN
1058	1.000000	0.885060	7.3754e+06	-53039.1	1055.82	-29747.4	0.000000	0.000000	6.885129	-0.012121	NaN	0.000000	0.001624	0.001690	28.0824	0.043016	0.001943	22.1411	34.18	12.7244	-0.035033	0.883619	-0.267189	-0.268630	-0.012121	22.1411	-0.266779	-1487.7	8.147405E-6	NaN
1058	1.000000	0.927050	7.3754e+06	-53039.1	1055.82	-29747.4	0.000000	0.000000	6.927119	-0.009789	NaN	0.000000	0.001669	0.001661	28.0823	0.153028	0.002037	75.1221	51.0331	-164.567	-0.052885	0.925757	-0.225200	-0.226492	-0.009789	75.1221	-0.225102	-334.93	2.922584E-5	NaN
1058	1.000000	0.969060	7.3754e+06	-53039.1	1055.82	-29747.4	0.000000	0.000000	6.969129	-0.021876	NaN	0.000000	0.001613	0.001680	28.0835	0.070833	0.002059	34.3964	-166.713	14.845	0.003383	0.967746	-0.183189	-0.184503	-0.021876	34.3964	-0.182712	-67.8409	0.000322	NaN
1058	1.000000	1.011074	7.3754e+06	-53039.1	1055.82	-29747.4	0.000000	0.000000	7.011143	-0.015709	NaN	0.000000	0.001721	0.001674	28.0835	0.040353	0.001871	21.5711	71.8544	-165.6	-0.008410	1.009717	-0.141175	-0.142532	-0.015709	21.5711	-0.140629	-12.1554	0.001292	NaN
1058	1.000000	1.053109	7.3754e+06	-53039.1	1055.82	-29747.4	0.000000	0.000000	7.053182	0.089977	NaN	0.000000	0.001644	0.001703	28.0833	0.086631	0.001858	46.6174	-161.059	14.8297	0.139977	1.051724	-0.099140	-0.100525	0.089977	46.6174	-0.100588	-1.882701	-0.047792	NaN
1058	1.000000	1.095099	7.3754e+06	-53039.1	1055.82	-29747.4	0.000000	0.000000	7.095167	-0.045108	NaN	0.000000	0.001674	0.001674	28.0822	0.074811	0.001969	38.0004	-170.739	-165.502	0.004467	1.093754	-0.057150	-0.058495	-0.045108	38.0004	-0.056260	-0.140264	0.321598	NaN
1058	1.000000	1.137111	7.3754e+06	-53039.1	1055.82	-29747.4	0.000000	0.000000	7.137183	0.068241	NaN	0.000000	0.001701	0.001682	28.0823	0.073936	0.002119	34.8968	-171.232	16.2034	0.076146	1.135803	-0.015139	-0.016446	0.068241	34.8968	-0.016605	-0.010260	-6.651058	NaN
1058	2.000000	1.161644	7.3754e+06	-53039.1	1055.82	-29747.4	0.000000	0.000000	7.162369	15.9515	NaN	0.000000	0.001658	0.001674	28.0826	14.5476	0.001745	8338.56	9.580563	-177.556	15.0531	1.161407	0.009394	0.009157	15.9515	8338.56	0.007960	0.007001	2278.5	91051.7
1058	2.000000	1.172142	7.3754e+06	-53039.1	1055.82	-29747.4	0.000000	0.000000	7.173590	33.5181	NaN	0.000000	0.001674	0.001670	28.084	25.0491	0.001916	13075	11.5856	-2.166766	33.3903	1.171759	0.019893	0.019510	33.5181	13075	0.017970	0.019453	1723.04	85649.1
1058	2.000000	1.182641	7.3754e+06	-53039.1	1055.82	-29747.4	0.000000	0.000000	7.185226	61.1655	NaN	0.000000	0.001673	0.001723	28.0842	34.0037	0.001750	19430.9	7.735233	177.154	63.229	1.182317	0.030392	0.030068	61.1655	19430.9	0.028031	0.036762	1663.85	92590.9
1058	2.000000	1.193099	7.3754e+06	-53039.1	1055.82	-29747.4	0.000000	0.000000	7.197176	97.432	NaN	0.000000	0.001655	0.001740	28.085	42.8371	0.001751	24459.3	2.561189	0.331496	96.0361	1.192747	0.040850	0.040498	97.432	24459.3	0.037862	0.058620	1662.09	92298.2
1058	2.000000	1.203541	7.3754e+06	-53039.1	1055.82	-29747.4	0.000000	0.000000	7.209438	141.696	NaN	0.000000	0.001650	0.001699	28.0831	53.8778	0.001819	29623.6	5.969859	176.096	139.383	1.203181	0.051291	0.050931	141.696	29623.6	0.047704	0.085448	1658.27	92589.3
1058	2.000000	1.214075	7.3754e+06	-53039.1	1055.82	-29747.4	0.000000	0.000000	7.222022	191.555	NaN	0.000000	0.001637	0.001666	28.0827	64.0084	0.001855	34513	3.779592	-4.005981	189.182	1.213723	0.061825	0.061474	191.555	34513	0.057663	0.117560	1629.42	91965.7
1058	2.000000	1.224566	7.3754e+06	-53039.1	1055.82	-29747.4	0.000000	0.000000	7.234848	248.307	NaN	0.000000	0.001643	0.001690	28.0827	74.8538	0.001890	39602.5	6.325408	172.253	247.166	1.224254	0.072317	0.072005	248.307	39602.5	0.067614	0.154518	1606.98	92046.3
1058	2.000000	1.235089	7.3754e+06	-53039.1	1055.82	-29747.4	0.000000	0.000000	7.247536	300.925	NaN	0.000000	0.001661	0.001627	28.0826	82.7388	0.001747	47353.7	5.756481	-8.608049	299.813	1.234807	0.082840	0.082558	300.925	47353.7	0.078074	0.198473	1516.2	97112.8
1058	2.000000	1.245472	7.3754e+06	-53039.1	1055.82	-29747.4	0.000000	0.000000	7.261423	386.15	NaN	0.000000	0.001648	0.001623	28.0839	90.79	0.001820	49891.2	4.726354	172.407	382.878	1.245233	0.093222	0.092983	386.15	49891.2	0.087417	0.242068	1595.21	92646.4
1058	2.000000	1.254547	7.3754e+06	-53039.1	1055.82	-29747.4	0.000000	0.000000	7.273630	462.295	NaN	0.000000	0.001690	0.001572	28.084	100.467	0.001795	55957.6	4.129397	172.269	463.3	1.254220	0.102297	0.101971	462.295	55957.6	0.096101	0.286189	1615.35	95566.4