File: remote_trans/data/nanoindenter/0828-1/data/Data_2025-08-06,11h17m57s/2025-07-22_16-23-58_1_199.txt
2025-07-22, 16:23:58, 1
Index	Phase	Displacement	Time	Pos X	Pos Y	Pos Z	Rot A	Rot B	Piezo Z	Force A	Force B	Gripper	Voltage A	Voltage B	Temperature	Amplitude force	Amplitude pos	Stiffness	Phase shift	Phase excitation	Force A raw	Displacement raw	HMax	HMax raw	Real Force	Real Stiffness	Contact Depth	Area	Hardness	Reduced Mod.
[#]	[#]	[um]	[s]	[um]	[um]	[um]	[m°]	[m°]	[um]	[uN]	[uN]	[V]	[V]	[V]	[°C]	[uN]	[um]	[N/m]	[°]	[°]	[uN]	[um]	[um]	[um]	[uN]	[N/m]	[um]	[um^2]	[MPa]	[MPa]
199	1.000000	0.002619	7.36699e+06	-48589.1	955.819	-29762.3	0.000000	0.000000	6.002810	-0.025833	NaN	0.000000	0.001544	0.001764	28.0783	0.045883	0.000990	46.3442	114.36	-167.806	-0.012719	0.001379	-1.121065	-1.122304	-0.025833	46.3442	-1.120647	-9.487468E+14	2.722823E-17	NaN
199	1.000000	0.044582	7.36699e+06	-48589.1	955.818	-29762.3	0.000000	0.000000	6.044773	-0.013546	NaN	0.000000	0.001581	0.001717	28.0793	0.058761	0.001876	31.324	11.3847	13.5576	-0.028277	0.043187	-1.079102	-1.080497	-0.013546	31.324	-1.078778	-2.600773E+14	5.208387E-17	NaN
199	1.000000	0.086578	7.36699e+06	-48589.1	955.818	-29762.3	0.000000	0.000000	6.086771	0.010254	NaN	0.000000	0.001581	0.001729	28.0793	0.036341	0.002157	16.8467	79.0921	-164.474	0.004327	0.085262	-1.037106	-1.038421	0.010254	16.8467	-1.037562	-7.264147E+13	-1.411657E-16	NaN
199	1.000000	0.128569	7.36699e+06	-48589.1	955.818	-29762.3	0.000000	0.000000	6.128763	0.040304	NaN	0.000000	0.001586	0.001761	28.0797	0.020754	0.001837	11.3004	119.781	13.1301	0.058849	0.127199	-0.995115	-0.996485	0.040304	11.3004	-0.997790	-2.118405E+13	-1.902548E-15	NaN
199	1.000000	0.170598	7.36699e+06	-48589.1	955.818	-29762.3	0.000000	0.000000	6.170793	0.080984	NaN	0.000000	0.001651	0.001720	28.0797	0.069009	0.002108	32.7366	46.3398	-165.044	0.092055	0.169315	-0.953086	-0.954369	0.080984	32.7366	-0.954941	-5.606073E+12	-1.444568E-14	NaN
199	1.000000	0.212619	7.36699e+06	-48589.1	955.818	-29762.3	0.000000	0.000000	6.212812	0.013610	NaN	0.000000	0.001685	0.001794	28.0781	0.044931	0.002007	22.3906	-140.739	16.0749	0.065985	0.211240	-0.911064	-0.912444	0.013610	22.3906	-0.911520	-1.454446E+12	-9.357183E-15	NaN
199	1.000000	0.254633	7.36699e+06	-48589.1	955.819	-29762.3	0.000000	0.000000	6.254829	0.094956	NaN	0.000000	0.001686	0.001753	28.0783	0.039350	0.001977	19.9036	-152.626	-165.542	0.047463	0.253343	-0.869050	-0.870341	0.094956	19.9036	-0.872628	-4.335141E+11	-2.190376E-13	NaN
199	1.000000	0.296656	7.36699e+06	-48589.1	955.818	-29762.3	0.000000	0.000000	6.296849	0.036951	NaN	0.000000	0.001620	0.001779	28.0781	0.073133	0.001949	37.529	45.1153	12.0947	0.007365	0.295342	-0.827028	-0.828342	0.036951	37.529	-0.827767	-1.070312E+11	-3.452352E-13	NaN
199	1.000000	0.338699	7.36699e+06	-48589.1	955.819	-29762.3	0.000000	0.000000	6.338895	0.109175	NaN	0.000000	0.001650	0.001751	28.0794	0.081462	0.001990	40.9419	54.2245	-165.922	0.034041	0.337355	-0.784985	-0.786329	0.109175	40.9419	-0.786985	-2.993151E+10	-3.647484E-12	NaN
199	1.000000	0.380686	7.36699e+06	-48589.1	955.819	-29762.3	0.000000	0.000000	6.380883	0.113188	NaN	0.000000	0.001626	0.001791	28.0795	0.138904	0.002077	66.8913	-149.86	15.9807	0.101935	0.379363	-0.742997	-0.744321	0.113188	66.8913	-0.744267	-7.855265E+9	-1.440918E-11	NaN
199	1.000000	0.422734	7.36699e+06	-48589.1	955.819	-29762.3	0.000000	0.000000	6.422930	0.101556	NaN	0.000000	0.001618	0.001697	28.0797	0.071771	0.001956	36.6995	-15.0041	-163.753	0.151355	0.421383	-0.700949	-0.702301	0.101556	36.6995	-0.703025	-2.151970E+9	-4.719232E-11	NaN
199	1.000000	0.464749	7.36699e+06	-48589.1	955.818	-29762.3	0.000000	0.000000	6.464944	0.067838	NaN	0.000000	0.001657	0.001766	28.0782	0.037527	0.002041	18.3894	140.384	15.5652	0.108453	0.463350	-0.658935	-0.660334	0.067838	18.3894	-0.661702	-5.858372E+8	-1.157968E-10	NaN
199	1.000000	0.506742	7.36699e+06	-48589.1	955.819	-29762.3	0.000000	0.000000	6.506934	0.005997	NaN	0.000000	0.001607	0.001758	28.0782	0.074640	0.001999	37.3301	123.816	-165.439	-0.024237	0.505437	-0.616942	-0.618246	0.005997	37.3301	-0.617062	-1.429699E+8	-4.194708E-11	NaN
199	1.000000	0.548744	7.367e+06	-48589.1	955.818	-29762.3	0.000000	0.000000	6.548937	0.025059	NaN	0.000000	0.001593	0.001719	28.0784	0.033688	0.002003	16.8147	37.387	13.3255	0.030833	0.547433	-0.574939	-0.576251	0.025059	16.8147	-0.576057	-3.893098E+7	-6.436680E-10	NaN
199	1.000000	0.590791	7.367e+06	-48589.1	955.818	-29762.3	0.000000	0.000000	6.590984	0.026093	NaN	0.000000	0.001647	0.001746	28.0794	0.058093	0.002099	27.6789	74.6909	-168.781	0.005186	0.589444	-0.532893	-0.534239	0.026093	27.6789	-0.533600	-1.005903E+7	-2.593942E-9	NaN
199	1.000000	0.632779	7.367e+06	-48589.1	955.818	-29762.3	0.000000	0.000000	6.632975	0.099528	NaN	0.000000	0.001622	0.001718	28.0798	0.053562	0.002043	26.2214	54.2674	16.8464	0.093976	0.631455	-0.490905	-0.492229	0.099528	26.2214	-0.493752	-2.80419e+06	-3.549281E-8	NaN
199	1.000000	0.674825	7.367e+06	-48589.1	955.818	-29762.3	0.000000	0.000000	6.675019	0.033662	NaN	0.000000	0.001693	0.001683	28.0797	0.045802	0.001961	23.3612	-127.415	-162.762	0.021322	0.673547	-0.448858	-0.450136	0.033662	23.3612	-0.449939	-681526	-4.939139E-8	NaN
199	1.000000	0.716807	7.367e+06	-48589.1	955.818	-29762.3	0.000000	0.000000	6.716998	-0.019901	NaN	0.000000	0.001670	0.001711	28.0796	0.057458	0.002023	28.4037	-50.2795	15.7539	0.014868	0.715494	-0.406877	-0.408190	-0.019901	28.4037	-0.406352	-164624	1.208880E-7	NaN
199	1.000000	0.758877	7.367e+06	-48589.1	955.818	-29762.3	0.000000	0.000000	6.759070	0.015378	NaN	0.000000	0.001644	0.001739	28.0785	0.021431	0.001920	11.1648	109.456	-166.894	0.038958	0.757523	-0.364806	-0.366161	0.015378	11.1648	-0.365839	-43267.6	-3.554241E-7	NaN
199	1.000000	0.800900	7.367e+06	-48589.1	955.818	-29762.3	0.000000	0.000000	6.801094	0.037966	NaN	0.000000	0.001667	0.001722	28.0784	0.067511	0.001939	34.8094	-138.811	11.7189	0.063614	0.799490	-0.322783	-0.324194	0.037966	34.8094	-0.323601	-10509.8	-3.612424E-6	NaN
199	1.000000	0.842877	7.367e+06	-48589.1	955.818	-29762.3	0.000000	0.000000	6.843069	0.000678	NaN	0.000000	0.001659	0.001703	28.0785	0.098907	0.002042	48.427	31.5126	-166.803	-0.011567	0.841586	-0.280806	-0.282098	0.000678	48.427	-0.280817	-2428.24	-2.790208E-7	NaN
199	1.000000	0.884910	7.367e+06	-48589.1	955.818	-29762.3	0.000000	0.000000	6.885105	0.067072	NaN	0.000000	0.001652	0.001746	28.0798	0.045779	0.002117	21.6245	82.0624	12.1911	0.060362	0.883545	-0.238774	-0.240139	0.067072	21.6245	-0.241100	-598.027	-0.000112	NaN
199	1.000000	0.926940	7.367e+06	-48589.1	955.818	-29762.3	0.000000	0.000000	6.927135	0.073515	NaN	0.000000	0.001602	0.001731	28.0794	0.033618	0.001811	18.5609	-172.849	-166.034	0.098185	0.925640	-0.196743	-0.198044	0.073515	18.5609	-0.199714	-130.316	-0.000564	NaN
199	1.000000	0.968914	7.367e+06	-48589.1	955.818	-29762.3	0.000000	0.000000	6.969108	0.052448	NaN	0.000000	0.001638	0.001683	28.0793	0.029733	0.001955	15.2105	150.298	11.5025	0.036093	0.967594	-0.154770	-0.156090	0.052448	15.2105	-0.157356	-24.5949	-0.002132	NaN
199	1.000000	1.010958	7.367e+06	-48589.1	955.818	-29762.3	0.000000	0.000000	7.011154	0.091384	NaN	0.000000	0.001567	0.001722	28.078	0.031019	0.002081	14.909	-123.025	-165.693	0.048211	1.009670	-0.112725	-0.114013	0.091384	14.909	-0.117322	-4.263254	-0.021435	NaN
199	1.000000	1.052953	7.367e+06	-48589.1	955.819	-29762.3	0.000000	0.000000	7.053146	0.020983	NaN	0.000000	0.001540	0.001723	28.078	0.025087	0.001951	12.8599	15.2123	12.5407	0.064272	1.051599	-0.070731	-0.072085	0.020983	12.8599	-0.071954	-0.384493	-0.054573	NaN
199	1.000000	1.094973	7.367e+06	-48589.1	955.818	-29762.3	0.000000	0.000000	7.095165	-0.006715	NaN	0.000000	0.001535	0.001769	28.0781	0.082942	0.001925	43.0949	138.619	-164.545	0.051390	1.093669	-0.028710	-0.030014	-0.006715	43.0949	-0.028594	-0.021044	0.319095	NaN
199	2.000000	1.134102	7.367e+06	-48589.1	955.818	-29762.3	0.000000	0.000000	7.134692	9.667694	NaN	0.000000	0.001544	0.001736	28.0794	10.6963	0.001762	6071.02	5.370973	6.919266	9.214852	1.133768	0.010418	0.010084	9.667694	6071.02	0.009224	0.008332	1160.32	60766.2
199	2.000000	1.144489	7.367e+06	-48589.1	955.817	-29762.3	0.000000	0.000000	7.145851	28.4648	NaN	0.000000	0.001579	0.001706	28.0793	22.5537	0.001749	12895.5	5.955309	179.314	26.426	1.144234	0.020805	0.020550	28.4648	12895.5	0.019149	0.021223	1341.21	80873.4
199	2.000000	1.154959	7.367e+06	-48589.1	955.818	-29762.3	0.000000	0.000000	7.157422	55.2361	NaN	0.000000	0.001564	0.001745	28.08	31.797	0.001788	17782.3	4.792844	-0.944304	53.4401	1.154640	0.031275	0.030956	55.2361	17782.3	0.028945	0.038586	1431.51	82707.8
199	2.000000	1.165438	7.367e+06	-48589.1	955.817	-29762.3	0.000000	0.000000	7.169328	89.9387	NaN	0.000000	0.001588	0.001753	28.0796	41.996	0.001887	22259.6	4.682076	178.043	87.2793	1.165091	0.041754	0.041407	89.9387	22259.6	0.038724	0.060772	1479.94	82497.2
199	2.000000	1.175950	7.367e+06	-48589.1	955.818	-29762.3	0.000000	0.000000	7.181449	129.056	NaN	0.000000	0.001511	0.001785	28.0785	51.1449	0.001736	29453	7.968568	-8.678851	127.987	1.175619	0.052267	0.051935	129.056	29453	0.048980	0.089288	1445.4	90054.9
199	2.000000	1.186490	7.367e+06	-48589.1	955.817	-29762.3	0.000000	0.000000	7.194146	181.543	NaN	0.000000	0.001600	0.001797	28.0785	61.2571	0.001703	35971.5	3.994279	173.984	181.278	1.186155	0.062806	0.062471	181.543	35971.5	0.059021	0.122321	1484.15	93968.1
199	2.000000	1.196936	7.367e+06	-48589.1	955.818	-29762.3	0.000000	0.000000	7.206789	234.967	NaN	0.000000	0.001551	0.001773	28.0782	70.6676	0.001807	39100.8	2.092618	-4.609784	234.555	1.196733	0.073253	0.073049	234.967	39100.8	0.068746	0.159023	1477.56	89583.7
199	2.000000	1.207523	7.367e+06	-48589.1	955.818	-29762.3	0.000000	0.000000	7.220241	304.648	NaN	0.000000	0.001567	0.001740	28.0798	80.2161	0.001730	46368.4	3.623066	172.478	308.207	1.207192	0.083839	0.083508	304.648	46368.4	0.078911	0.202216	1506.55	94208.1
199	2.000000	1.217822	7.367e+06	-48589.1	955.819	-29762.3	0.000000	0.000000	7.233432	374.997	NaN	0.000000	0.001652	0.001776	28.0795	89.7297	0.001785	50265	4.808883	-8.719598	367.363	1.217521	0.094138	0.093838	374.997	50265	0.088543	0.247591	1514.58	92293.6
199	2.000000	1.228424	7.367e+06	-48589.1	955.817	-29762.3	0.000000	0.000000	7.247432	457.621	NaN	0.000000	0.001614	0.001749	28.0794	100.404	0.001878	53472.7	6.467942	169.643	457.682	1.227974	0.104741	0.104290	457.621	53472.7	0.098322	0.298027	1535.5	89490.6
199	2.000000	1.231313	7.367e+06	-48589.1	955.817	-29762.3	0.000000	0.000000	7.251229	479.717	NaN	0.000000	0.001616	0.001722	28.0794	103.156	0.001738	59336.4	4.539996	170.166	474.927	1.231121	0.107630	0.107437	479.717	59336.4	0.101566	0.315720	1519.44	96481.4