File: remote_trans/data/nanoindenter/0828-1/data/Data_2025-08-06,11h17m57s/2025-07-22_16-23-58_1_1081.txt
2025-07-22, 16:23:58, 1
Index	Phase	Displacement	Time	Pos X	Pos Y	Pos Z	Rot A	Rot B	Piezo Z	Force A	Force B	Gripper	Voltage A	Voltage B	Temperature	Amplitude force	Amplitude pos	Stiffness	Phase shift	Phase excitation	Force A raw	Displacement raw	HMax	HMax raw	Real Force	Real Stiffness	Contact Depth	Area	Hardness	Reduced Mod.
[#]	[#]	[um]	[s]	[um]	[um]	[um]	[m°]	[m°]	[um]	[uN]	[uN]	[V]	[V]	[V]	[°C]	[uN]	[um]	[N/m]	[°]	[°]	[uN]	[um]	[um]	[um]	[uN]	[N/m]	[um]	[um^2]	[MPa]	[MPa]
1081	1.000000	0.003200	7.37562e+06	-54189.1	1055.82	-29744.1	0.000000	0.000000	6.002802	0.025657	NaN	0.000000	0.001603	0.001676	28.0831	0.056226	0.000976	57.624	-4.973215	-166.014	0.065838	0.001948	-1.145957	-1.147208	0.025657	57.624	-1.146291	-2.094529E+15	-1.224971E-17	NaN
1081	1.000000	0.045145	7.37562e+06	-54189.1	1055.82	-29744.1	0.000000	0.000000	6.044749	0.075492	NaN	0.000000	0.001602	0.001685	28.0834	0.096269	0.001856	51.8608	-68.359	15.5801	0.020054	0.043791	-1.104012	-1.105365	0.075492	51.8608	-1.105104	-5.869104E+14	-1.286254E-16	NaN
1081	1.000000	0.087157	7.37562e+06	-54189.1	1055.82	-29744.1	0.000000	0.000000	6.086755	-0.088198	NaN	0.000000	0.001586	0.001706	28.0829	0.079248	0.001965	40.3326	137.893	-166.3	-0.047713	0.085914	-1.061999	-1.063242	-0.088198	40.3326	-1.060359	-1.471121E+14	5.995295E-16	NaN
1081	1.000000	0.129174	7.37562e+06	-54189.1	1055.82	-29744.1	0.000000	0.000000	6.128775	0.006276	NaN	0.000000	0.001549	0.001675	28.0831	0.016423	0.002026	8.107787	-49.1676	13.9328	-0.029731	0.127814	-1.019983	-1.021342	0.006276	8.107787	-1.020563	-4.290746E+13	-1.462591E-16	NaN
1081	1.000000	0.171202	7.37562e+06	-54189.1	1055.82	-29744.1	0.000000	0.000000	6.170804	0.028327	NaN	0.000000	0.001548	0.001695	28.0841	0.015149	0.002103	7.204273	17.5327	-166.349	0.014216	0.169899	-0.977954	-0.979257	0.028327	7.204273	-0.980903	-1.254819E+13	-2.257437E-15	NaN
1081	1.000000	0.213200	7.37562e+06	-54189.1	1055.82	-29744.1	0.000000	0.000000	6.212801	0.017628	NaN	0.000000	0.001578	0.001659	28.0844	0.051681	0.001985	26.0329	-12.8606	13.8514	-0.051915	0.211815	-0.935957	-0.937342	0.017628	26.0329	-0.936465	-3.158196E+12	-5.581604E-15	NaN
1081	1.000000	0.255245	7.37562e+06	-54189.1	1055.82	-29744.1	0.000000	0.000000	6.254843	-0.075966	NaN	0.000000	0.001619	0.001658	28.0845	0.149926	0.001871	80.1478	91.4682	-165.341	-0.173234	0.253914	-0.893911	-0.895243	-0.075966	80.1478	-0.893200	-8.225715E+11	9.235137E-14	NaN
1081	1.000000	0.297220	7.37562e+06	-54189.1	1055.82	-29744.1	0.000000	0.000000	6.296817	-0.092661	NaN	0.000000	0.001587	0.001655	28.0833	0.070717	0.001970	35.8886	74.9382	13.3529	-0.086246	0.295899	-0.851937	-0.853257	-0.092661	35.8886	-0.850000	-2.141627E+11	4.326685E-13	NaN
1081	1.000000	0.339271	7.37563e+06	-54189.1	1055.82	-29744.1	0.000000	0.000000	6.338871	-0.018088	NaN	0.000000	0.001636	0.001680	28.0831	0.062909	0.002145	29.3221	51.5547	-165.204	-0.039773	0.337957	-0.809886	-0.811199	-0.018088	29.3221	-0.809423	-6.035957E+10	2.996721E-13	NaN
1081	1.000000	0.381295	7.37563e+06	-54189.1	1055.82	-29744.1	0.000000	0.000000	6.380897	0.014019	NaN	0.000000	0.001612	0.001706	28.083	0.062934	0.002085	30.1834	93.0817	15.2224	0.005221	0.379914	-0.767861	-0.769242	0.014019	30.1834	-0.768209	-1.663259E+10	-8.428523E-13	NaN
1081	1.000000	0.423290	7.37563e+06	-54189.1	1055.82	-29744.1	0.000000	0.000000	6.422891	-0.003740	NaN	0.000000	0.001576	0.001690	28.0842	0.128430	0.001975	65.0131	-114.067	-165.682	0.007779	0.421961	-0.725867	-0.727196	-0.003740	65.0131	-0.725824	-4.404319E+9	8.491042E-13	NaN
1081	1.000000	0.465336	7.37563e+06	-54189.1	1055.82	-29744.1	0.000000	0.000000	6.464934	-0.076537	NaN	0.000000	0.001585	0.001702	28.0845	0.115461	0.001908	60.5273	42.0227	18.1987	-0.077358	0.463986	-0.683820	-0.685171	-0.076537	60.5273	-0.682872	-1.141513E+9	6.704897E-11	NaN
1081	1.000000	0.507349	7.37563e+06	-54189.1	1055.82	-29744.1	0.000000	0.000000	6.506950	0.002059	NaN	0.000000	0.001568	0.001681	28.0842	0.101261	0.001994	50.7875	148.647	-166.412	-0.011229	0.506041	-0.641807	-0.643116	0.002059	50.7875	-0.641837	-3.129673E+8	-6.578823E-12	NaN
1081	1.000000	0.549367	7.37563e+06	-54189.1	1055.82	-29744.1	0.000000	0.000000	6.548968	0.016367	NaN	0.000000	0.001577	0.001677	28.0832	0.035918	0.001961	18.3171	138.434	16.1312	-0.038344	0.547981	-0.599790	-0.601176	0.016367	18.3171	-0.600460	-8.448815E+7	-1.937150E-10	NaN
1081	1.000000	0.591383	7.37563e+06	-54189.1	1055.82	-29744.1	0.000000	0.000000	6.590981	-0.066774	NaN	0.000000	0.001541	0.001676	28.0832	0.030927	0.002039	15.1695	-0.388648	-163.437	-0.003175	0.590075	-0.557773	-0.559081	-0.066774	15.1695	-0.554472	-1.958308E+7	3.409768E-9	NaN
1081	1.000000	0.633403	7.37563e+06	-54189.1	1055.82	-29744.1	0.000000	0.000000	6.633004	-0.001990	NaN	0.000000	0.001608	0.001744	28.0828	0.082349	0.002094	39.3194	-6.599029	14.4299	0.011301	0.632047	-0.515753	-0.517109	-0.001990	39.3194	-0.515715	-5.67532e+06	3.506354E-10	NaN
1081	1.000000	0.675444	7.37563e+06	-54189.1	1055.82	-29744.1	0.000000	0.000000	6.675044	-0.026502	NaN	0.000000	0.001594	0.001692	28.0831	0.050922	0.002045	24.8989	-81.5163	-169.086	-0.081055	0.674180	-0.473712	-0.474977	-0.026502	24.8989	-0.472914	-1.43306e+06	1.849348E-8	NaN
1081	1.000000	0.717415	7.37563e+06	-54189.1	1055.82	-29744.1	0.000000	0.000000	6.717016	0.016590	NaN	0.000000	0.001576	0.001699	28.084	0.065876	0.001974	33.3709	111.217	18.8057	0.019596	0.716057	-0.431742	-0.433100	0.016590	33.3709	-0.432115	-381920	-4.343920E-8	NaN
1081	1.000000	0.759454	7.37563e+06	-54189.1	1055.82	-29744.1	0.000000	0.000000	6.759054	-0.026985	NaN	0.000000	0.001603	0.001656	28.0841	0.062164	0.001958	31.7543	-93.467	-164.724	-0.034224	0.758159	-0.389703	-0.390998	-0.026985	31.7543	-0.389065	-93280.8	2.892876E-7	NaN
1081	1.000000	0.801457	7.37563e+06	-54189.1	1055.82	-29744.1	0.000000	0.000000	6.801054	-0.084336	NaN	0.000000	0.001582	0.001592	28.0843	0.034501	0.001996	17.2888	14.4085	15.1921	-0.041448	0.800081	-0.347700	-0.349075	-0.084336	17.2888	-0.344041	-20912.5	4.032783E-6	NaN
1081	1.000000	0.843500	7.37563e+06	-54189.1	1055.82	-29744.1	0.000000	0.000000	6.843102	0.041812	NaN	0.000000	0.001593	0.001633	28.0831	0.117504	0.002134	55.0646	95.7899	-166.777	0.075651	0.842180	-0.305657	-0.306976	0.041812	55.0646	-0.306226	-5823.04	-7.180496E-6	NaN
1081	1.000000	0.885485	7.37563e+06	-54189.1	1055.82	-29744.1	0.000000	0.000000	6.885084	-0.055843	NaN	0.000000	0.001565	0.001663	28.0833	0.168662	0.001922	87.7693	-81.5881	12.2686	-0.068961	0.884173	-0.263672	-0.264983	-0.055843	87.7693	-0.263194	-1311.63	4.257532E-5	NaN
1081	1.000000	0.927522	7.37563e+06	-54189.1	1055.82	-29744.1	0.000000	0.000000	6.927125	0.049457	NaN	0.000000	0.001630	0.001643	28.0833	0.031805	0.002025	15.7026	-145.456	-166.387	0.020847	0.926236	-0.221635	-0.222921	0.049457	15.7026	-0.223997	-321.658	-0.000154	NaN
1081	1.000000	0.969548	7.37563e+06	-54189.1	1055.82	-29744.1	0.000000	0.000000	6.969145	-0.086128	NaN	0.000000	0.001633	0.001653	28.0846	0.015734	0.002051	7.671515	176.86	17.1258	-0.006915	0.968172	-0.179609	-0.180984	-0.086128	7.671515	-0.171188	-43.0747	0.002000	NaN
1081	1.000000	1.011551	7.37563e+06	-54189.1	1055.82	-29744.1	0.000000	0.000000	7.011149	-0.061462	NaN	0.000000	0.001642	0.001637	28.0848	0.069088	0.001912	36.1259	20.2217	-168.368	-0.067787	1.010249	-0.137606	-0.138907	-0.061462	36.1259	-0.136330	-10.0836	0.006095	NaN
1081	1.000000	1.053555	7.37563e+06	-54189.1	1055.82	-29744.1	0.000000	0.000000	7.053156	0.013051	NaN	0.000000	0.001566	0.001609	28.0845	0.081576	0.001884	43.3082	91.1295	15.5622	-0.040960	1.052172	-0.095602	-0.096985	0.013051	43.3082	-0.095828	-1.473092	-0.008860	NaN
1081	1.000000	1.095571	7.37563e+06	-54189.1	1055.82	-29744.1	0.000000	0.000000	7.095172	0.000318	NaN	0.000000	0.001627	0.001559	28.083	0.082638	0.002005	41.2102	82.5936	-166.854	-0.011013	1.094282	-0.053586	-0.054875	0.000318	41.2102	-0.053592	-0.116966	-0.002716	NaN
1081	1.000000	1.137567	7.37563e+06	-54189.1	1055.82	-29744.1	0.000000	0.000000	7.137167	-0.035547	NaN	0.000000	0.001567	0.001610	28.0832	0.092392	0.002037	45.3627	-3.469289	14.4119	-0.030176	1.136254	-0.011589	-0.012902	-0.035547	45.3627	-0.011001	-0.006959	5.108192	NaN
1081	2.000000	1.160103	7.37563e+06	-54189.1	1055.82	-29744.1	0.000000	0.000000	7.160453	18.2221	NaN	0.000000	0.001568	0.001652	28.083	16.8812	0.001837	9190.41	7.143637	-177.905	17.5297	1.159818	0.010946	0.010661	18.2221	9190.41	0.009459	0.008587	2122.11	90613.5
1081	2.000000	1.170541	7.37563e+06	-54189.1	1055.82	-29744.1	0.000000	0.000000	7.171791	40.0934	NaN	0.000000	0.001525	0.001667	28.083	27.387	0.001861	14717.9	5.516752	1.036357	38.7986	1.170178	0.021385	0.021022	40.0934	14717.9	0.019342	0.021518	1863.23	91667.3
1081	2.000000	1.181047	7.37563e+06	-54189.1	1055.82	-29744.1	0.000000	0.000000	7.183438	67.8369	NaN	0.000000	0.001564	0.001637	28.0843	37.286	0.001879	19844.7	7.556220	176.532	68.6243	1.180783	0.031890	0.031626	67.8369	19844.7	0.029327	0.039360	1723.52	91388.6
1081	2.000000	1.191485	7.37563e+06	-54189.1	1055.82	-29744.1	0.000000	0.000000	7.195174	99.3813	NaN	0.000000	0.001595	0.001693	28.0841	47.1881	0.001765	26733.2	7.754681	-7.392867	96.4821	1.191176	0.042329	0.042020	99.3813	26733.2	0.039540	0.062846	1581.34	97428.1
1081	2.000000	1.201977	7.37563e+06	-54189.1	1055.82	-29744.1	0.000000	0.000000	7.207314	139.436	NaN	0.000000	0.001581	0.001673	28.0843	57.2404	0.001811	31609	5.033050	174.519	136.584	1.201686	0.052821	0.052530	139.436	31609	0.049512	0.090911	1533.76	95780
1081	2.000000	1.212470	7.37563e+06	-54189.1	1055.82	-29744.1	0.000000	0.000000	7.220090	194.955	NaN	0.000000	0.001567	0.001702	28.0831	67.8356	0.001824	37185.3	4.694379	-6.221462	192.078	1.212229	0.063314	0.063073	194.955	37185.3	0.059382	0.123600	1577.3	96634.9
1081	2.000000	1.222976	7.37563e+06	-54189.1	1055.82	-29744.1	0.000000	0.000000	7.232767	247.734	NaN	0.000000	0.001585	0.001685	28.0837	78.3277	0.001816	43125.5	4.768196	171.849	247.516	1.222721	0.073820	0.073565	247.734	43125.5	0.069511	0.162106	1528.23	97860.8
1081	2.000000	1.233417	7.37563e+06	-54189.1	1055.82	-29744.1	0.000000	0.000000	7.246109	318.264	NaN	0.000000	0.001547	0.001679	28.0835	87.4763	0.001806	48437.3	5.130330	-8.761909	313.262	1.233154	0.084261	0.083998	318.264	48437.3	0.079333	0.204111	1559.27	97953.5
1081	2.000000	1.243887	7.37563e+06	-54189.1	1055.82	-29744.1	0.000000	0.000000	7.259411	387.102	NaN	0.000000	0.001561	0.001664	28.0854	95.6401	0.001727	55369.3	-0.276672	175.575	383.266	1.243611	0.094730	0.094455	387.102	55369.3	0.089487	0.252270	1534.48	100719
1081	2.000000	1.251872	7.37563e+06	-54189.1	1055.82	-29744.1	0.000000	0.000000	7.270188	454.978	NaN	0.000000	0.001575	0.001674	28.0849	104.511	0.001749	59750.3	3.925853	171.537	448.879	1.251594	0.102715	0.102438	454.978	59750.3	0.097004	0.290977	1563.62	101201