File: remote_trans/data/nanoindenter/0828-1/data/Data_2025-08-06,11h17m57s/2025-07-22_16-23-58_1_264.txt
2025-07-22, 16:23:58, 1
Index	Phase	Displacement	Time	Pos X	Pos Y	Pos Z	Rot A	Rot B	Piezo Z	Force A	Force B	Gripper	Voltage A	Voltage B	Temperature	Amplitude force	Amplitude pos	Stiffness	Phase shift	Phase excitation	Force A raw	Displacement raw	HMax	HMax raw	Real Force	Real Stiffness	Contact Depth	Area	Hardness	Reduced Mod.
[#]	[#]	[um]	[s]	[um]	[um]	[um]	[m°]	[m°]	[um]	[uN]	[uN]	[V]	[V]	[V]	[°C]	[uN]	[um]	[N/m]	[°]	[°]	[uN]	[um]	[um]	[um]	[uN]	[N/m]	[um]	[um^2]	[MPa]	[MPa]
264	1.000000	0.002345	7.36763e+06	-51839.1	955.819	-29751.2	0.000000	0.000000	6.002807	0.050856	NaN	0.000000	0.001622	0.001656	28.0801	0.082235	0.001188	69.2399	173.466	-166.791	0.053386	0.001075	-1.140220	-1.141491	0.050856	69.2399	-1.140771	-1.766362E+15	-2.879128E-17	NaN
264	1.000000	0.044282	7.36763e+06	-51839.1	955.819	-29751.2	0.000000	0.000000	6.044738	-0.083774	NaN	0.000000	0.001623	0.001633	28.0803	0.164152	0.002009	81.6976	-102.466	15.711	-0.071067	0.042980	-1.098284	-1.099585	-0.083774	81.6976	-1.097514	-4.641962E+14	1.804716E-16	NaN
264	1.000000	0.086296	7.36763e+06	-51839.1	955.819	-29751.2	0.000000	0.000000	6.086757	0.040040	NaN	0.000000	0.001647	0.001692	28.0798	0.090837	0.001854	49.0015	-31.1046	-166.471	0.131820	0.085020	-1.056270	-1.057545	0.040040	49.0015	-1.056882	-1.321059E+14	-3.030904E-16	NaN
264	1.000000	0.128352	7.36764e+06	-51839.1	955.819	-29751.2	0.000000	0.000000	6.128811	-0.021075	NaN	0.000000	0.001622	0.001707	28.0788	0.081856	0.001955	41.8744	-88.7043	13.7423	0.008923	0.126997	-1.014213	-1.015568	-0.021075	41.8744	-1.013836	-3.483438E+13	6.049919E-16	NaN
264	1.000000	0.170325	7.36764e+06	-51839.1	955.819	-29751.2	0.000000	0.000000	6.170786	0.015825	NaN	0.000000	0.001608	0.001631	28.0787	0.036786	0.002096	17.5539	87.2035	-165.083	0.043462	0.169048	-0.972240	-0.973517	0.015825	17.5539	-0.972916	-9.794051E+12	-1.615793E-15	NaN
264	1.000000	0.212354	7.36764e+06	-51839.1	955.818	-29751.2	0.000000	0.000000	6.212811	-0.066242	NaN	0.000000	0.001609	0.001610	28.0792	0.069145	0.001925	35.9275	-74.0192	11.5102	-0.146553	0.211001	-0.930211	-0.931564	-0.066242	35.9275	-0.928828	-2.491024E+12	2.659239E-14	NaN
264	1.000000	0.254417	7.36764e+06	-51839.1	955.818	-29751.2	0.000000	0.000000	6.254879	0.044610	NaN	0.000000	0.001654	0.001612	28.0805	0.064066	0.001919	33.3826	-131.531	-163.697	0.084333	0.253129	-0.888148	-0.889437	0.044610	33.3826	-0.889150	-7.251524E+11	-6.151746E-14	NaN
264	1.000000	0.296390	7.36764e+06	-51839.1	955.819	-29751.2	0.000000	0.000000	6.296851	0.029011	NaN	0.000000	0.001604	0.001635	28.0803	0.067769	0.002005	33.8025	166.631	14.3395	-0.003246	0.294969	-0.846175	-0.847596	0.029011	33.8025	-0.846819	-1.939341E+11	-1.495922E-13	NaN
264	1.000000	0.338383	7.36764e+06	-51839.1	955.818	-29751.2	0.000000	0.000000	6.338841	-0.033819	NaN	0.000000	0.001563	0.001636	28.0802	0.054129	0.001984	27.2759	-0.434128	-162.152	-0.071128	0.337074	-0.804182	-0.805491	-0.033819	27.2759	-0.803253	-4.977490E+10	6.794378E-13	NaN
264	1.000000	0.380429	7.36764e+06	-51839.1	955.817	-29751.2	0.000000	0.000000	6.380891	0.053997	NaN	0.000000	0.001571	0.001634	28.0789	0.045333	0.001955	23.1825	93.565	15.2791	0.000495	0.379070	-0.762136	-0.763496	0.053997	23.1825	-0.763883	-1.452508E+10	-3.717501E-12	NaN
264	1.000000	0.422441	7.36764e+06	-51839.1	955.818	-29751.2	0.000000	0.000000	6.422902	0.024610	NaN	0.000000	0.001639	0.001635	28.0787	0.114758	0.002075	55.296	86.3379	-163.501	0.020936	0.421114	-0.720124	-0.721452	0.024610	55.296	-0.720458	-3.721505E+9	-6.612996E-12	NaN
264	1.000000	0.464474	7.36764e+06	-51839.1	955.817	-29751.2	0.000000	0.000000	6.464935	0.024066	NaN	0.000000	0.001603	0.001685	28.0789	0.106461	0.002017	52.7853	59.3676	15.0822	0.056570	0.463153	-0.678091	-0.679412	0.024066	52.7853	-0.678433	-9.925891E+8	-2.424587E-11	NaN
264	1.000000	0.506506	7.36764e+06	-51839.1	955.818	-29751.2	0.000000	0.000000	6.506968	0.055376	NaN	0.000000	0.001579	0.001712	28.0801	0.050286	0.001950	25.7904	-9.460725	-163.384	0.073648	0.505236	-0.636059	-0.637329	0.055376	25.7904	-0.637670	-2.743553E+8	-2.018399E-10	NaN
264	1.000000	0.548538	7.36764e+06	-51839.1	955.818	-29751.2	0.000000	0.000000	6.549002	0.085859	NaN	0.000000	0.001613	0.001688	28.0802	0.108186	0.001910	56.6332	90.7841	14.2582	0.056448	0.547166	-0.594027	-0.595400	0.085859	56.6332	-0.595164	-7.142324E+7	-1.202119E-9	NaN
264	1.000000	0.590517	7.36764e+06	-51839.1	955.818	-29751.2	0.000000	0.000000	6.590977	0.004173	NaN	0.000000	0.001614	0.001666	28.0802	0.023877	0.001989	12.0041	174.275	-163.904	0.036619	0.589263	-0.552048	-0.553302	0.004173	12.0041	-0.552309	-1.827821E+7	-2.283200E-10	NaN
264	1.000000	0.632522	7.36764e+06	-51839.1	955.818	-29751.2	0.000000	0.000000	6.632983	0.039816	NaN	0.000000	0.001609	0.001647	28.0802	0.101287	0.001884	53.765	0.510523	15.2755	0.021732	0.631168	-0.510043	-0.511398	0.039816	53.765	-0.510598	-4.81672e+06	-8.266155E-9	NaN
264	1.000000	0.674576	7.36764e+06	-51839.1	955.819	-29751.2	0.000000	0.000000	6.675036	-0.001952	NaN	0.000000	0.001593	0.001694	28.0786	0.146454	0.002044	71.6563	-154.377	-164.028	0.069814	0.673272	-0.467989	-0.469293	-0.001952	71.6563	-0.467969	-1.22155e+06	1.598356E-9	NaN
264	1.000000	0.716576	7.36764e+06	-51839.1	955.819	-29751.2	0.000000	0.000000	6.717038	0.042888	NaN	0.000000	0.001611	0.001724	28.0788	0.092529	0.002024	45.7123	150.939	16.1932	0.104445	0.715225	-0.425989	-0.427340	0.042888	45.7123	-0.426692	-320074	-1.339930E-7	NaN
264	1.000000	0.758596	7.36764e+06	-51839.1	955.818	-29751.2	0.000000	0.000000	6.759054	-0.048320	NaN	0.000000	0.001556	0.001754	28.0788	0.098797	0.002134	46.3057	171.697	-168.163	-0.047882	0.757313	-0.383969	-0.385252	-0.048320	46.3057	-0.383187	-76841.8	6.288205E-7	NaN
264	1.000000	0.800607	7.36764e+06	-51839.1	955.819	-29751.2	0.000000	0.000000	6.801068	0.027163	NaN	0.000000	0.001522	0.001701	28.0799	0.096136	0.001913	50.2496	-145.784	12.834	0.063137	0.799218	-0.341958	-0.343347	0.027163	50.2496	-0.342363	-19769	-1.373996E-6	NaN
264	1.000000	0.842623	7.36764e+06	-51839.1	955.818	-29751.2	0.000000	0.000000	6.843083	-0.012779	NaN	0.000000	0.001562	0.001682	28.0799	0.060882	0.002226	27.3491	1.394387	-167.536	0.085811	0.841288	-0.299942	-0.301277	-0.012779	27.3491	-0.299591	-4640.35	2.753951E-6	NaN
264	1.000000	0.884633	7.36764e+06	-51839.1	955.818	-29751.2	0.000000	0.000000	6.885093	0.014167	NaN	0.000000	0.001562	0.001704	28.0797	0.167269	0.002060	81.1975	-43.825	17.2228	0.006450	0.883287	-0.257933	-0.259278	0.014167	81.1975	-0.258064	-1094.49	-1.294389E-5	NaN
264	1.000000	0.926619	7.36764e+06	-51839.1	955.819	-29751.2	0.000000	0.000000	6.927080	0.048862	NaN	0.000000	0.001552	0.001664	28.0791	0.042880	0.002059	20.8224	26.0801	-164.354	0.022862	0.925347	-0.215947	-0.217218	0.048862	20.8224	-0.217707	-255.253	-0.000191	NaN
264	1.000000	0.968661	7.36764e+06	-51839.1	955.819	-29751.2	0.000000	0.000000	6.969123	0.057141	NaN	0.000000	0.001584	0.001708	28.0789	0.073114	0.001937	37.7374	-48.4788	17.5279	0.016616	0.967335	-0.173904	-0.175230	0.057141	37.7374	-0.175040	-50.1958	-0.001138	NaN
264	1.000000	1.010684	7.36764e+06	-51839.1	955.819	-29751.2	0.000000	0.000000	7.011145	0.025201	NaN	0.000000	0.001541	0.001707	28.0791	0.106377	0.002125	50.0587	-157.291	-167.745	0.005178	1.009447	-0.131881	-0.133119	0.025201	50.0587	-0.132259	-8.427766	-0.002990	NaN
264	1.000000	1.052717	7.36764e+06	-51839.1	955.821	-29751.2	0.000000	0.000000	7.053176	-0.026100	NaN	0.000000	0.001591	0.001723	28.0803	0.061382	0.001813	33.8654	-171.605	15.4238	-0.083724	1.051325	-0.089848	-0.091240	-0.026100	33.8654	-0.089270	-1.039092	0.025118	NaN
264	1.000000	1.094733	7.36764e+06	-51839.1	955.82	-29751.2	0.000000	0.000000	7.095195	0.059231	NaN	0.000000	0.001572	0.001653	28.0802	0.028097	0.001866	15.056	124.376	-166.284	0.038804	1.093407	-0.047832	-0.049158	0.059231	15.056	-0.050783	-0.096355	-0.614714	NaN
264	1.000000	1.136733	7.36764e+06	-51839.1	955.819	-29751.2	0.000000	0.000000	7.137193	0.011974	NaN	0.000000	0.001619	0.001638	28.0804	0.137094	0.002055	66.7033	93.0583	18.7685	-0.004178	1.135360	-0.005832	-0.007205	0.011974	66.7033	-0.005967	-0.004016	-2.981567	NaN
264	2.000000	1.162221	7.36764e+06	-51839.1	955.82	-29751.2	0.000000	0.000000	7.163355	16.3984	NaN	0.000000	0.001604	0.001673	28.0804	14.6317	0.001815	8060.5	5.428880	-171.834	14.9533	1.161923	0.019656	0.019358	16.3984	8060.5	0.018130	0.019688	832.902	52484.5
264	2.000000	1.172713	7.36764e+06	-51839.1	955.82	-29751.2	0.000000	0.000000	7.174777	38.9987	NaN	0.000000	0.001606	0.001675	28.079	25.3162	0.001889	13399.1	8.884054	-0.142706	39.1569	1.172318	0.030148	0.029753	38.9987	13399.1	0.027965	0.036632	1064.61	63961.4
264	2.000000	1.183158	7.36764e+06	-51839.1	955.818	-29751.2	0.000000	0.000000	7.186585	72.1665	NaN	0.000000	0.001575	0.001675	28.0788	34.7078	0.001826	19003.8	9.264428	176.199	70.4629	1.182817	0.040593	0.040252	72.1665	19003.8	0.037745	0.058329	1237.22	71890.4
264	2.000000	1.193646	7.36764e+06	-51839.1	955.819	-29751.2	0.000000	0.000000	7.198660	110.737	NaN	0.000000	0.001623	0.001641	28.0788	44.0659	0.001762	25014	3.717526	-1.773746	106.833	1.193285	0.051080	0.050720	110.737	25014	0.047760	0.085616	1293.41	78105
264	2.000000	1.204155	7.36764e+06	-51839.1	955.82	-29751.2	0.000000	0.000000	7.210974	154.63	NaN	0.000000	0.001602	0.001675	28.0801	56.585	0.001837	30811	9.006652	172.691	151.933	1.203775	0.061590	0.061210	154.63	30811	0.057826	0.118128	1309	81903.5
264	2.000000	1.214591	7.36764e+06	-51839.1	955.819	-29751.2	0.000000	0.000000	7.223525	206.051	NaN	0.000000	0.001615	0.001668	28.0803	65.584	0.001829	35866.1	2.883434	-2.925558	202.344	1.214274	0.072026	0.071708	206.051	35866.1	0.067717	0.154926	1330	83252
264	2.000000	1.225019	7.36764e+06	-51839.1	955.82	-29751.2	0.000000	0.000000	7.236415	265.921	NaN	0.000000	0.001619	0.001684	28.0803	73.8504	0.001783	41408.5	4.569070	174.074	261.203	1.224802	0.082453	0.082237	265.921	41408.5	0.077637	0.196534	1353.05	85338.1
264	2.000000	1.235609	7.36764e+06	-51839.1	955.82	-29751.2	0.000000	0.000000	7.249687	331.135	NaN	0.000000	0.001612	0.001667	28.0789	84.6235	0.001671	50652.3	4.029646	-6.322006	329.934	1.235156	0.093044	0.092591	331.135	50652.3	0.088141	0.245612	1348.2	93378.6
264	2.000000	1.246079	7.36764e+06	-51839.1	955.82	-29751.2	0.000000	0.000000	7.263120	403.173	NaN	0.000000	0.001586	0.001686	28.0788	94.8455	0.001809	52416	8.488520	168.813	402.806	1.245816	0.103514	0.103251	403.173	52416	0.097745	0.294930	1367.01	88181.5
264	2.000000	1.255029	7.36764e+06	-51839.1	955.82	-29751.2	0.000000	0.000000	7.274983	474.014	NaN	0.000000	0.001556	0.001693	28.079	101.671	0.001728	58829.4	1.770396	174.816	471.358	1.254793	0.112464	0.112228	474.014	58829.4	0.106421	0.343091	1381.6	91762