File: remote_trans/data/nanoindenter/0828-1/data/Data_2025-08-06,11h17m57s/2025-07-22_16-23-58_1_1096.txt
2025-07-22, 16:23:58, 1
Index	Phase	Displacement	Time	Pos X	Pos Y	Pos Z	Rot A	Rot B	Piezo Z	Force A	Force B	Gripper	Voltage A	Voltage B	Temperature	Amplitude force	Amplitude pos	Stiffness	Phase shift	Phase excitation	Force A raw	Displacement raw	HMax	HMax raw	Real Force	Real Stiffness	Contact Depth	Area	Hardness	Reduced Mod.
[#]	[#]	[um]	[s]	[um]	[um]	[um]	[m°]	[m°]	[um]	[uN]	[uN]	[V]	[V]	[V]	[°C]	[uN]	[um]	[N/m]	[°]	[°]	[uN]	[um]	[um]	[um]	[uN]	[N/m]	[um]	[um^2]	[MPa]	[MPa]
1096	1.000000	0.002421	7.37578e+06	-54939.1	1055.82	-29742.4	0.000000	0.000000	6.002821	-0.079283	NaN	0.000000	0.001601	0.001643	28.0825	0.136383	0.000947	143.994	111.875	-170.476	0.005713	0.001137	-1.146250	-1.147535	-0.079283	143.994	-1.145838	-2.065441E+15	3.838560E-17	NaN
1096	1.000000	0.044346	7.37578e+06	-54939.1	1055.82	-29742.4	0.000000	0.000000	6.044750	-0.010517	NaN	0.000000	0.001621	0.001676	28.0826	0.084775	0.002060	41.1586	137.496	16.9297	-0.010887	0.042996	-1.104325	-1.105675	-0.010517	41.1586	-1.104134	-5.695779E+14	1.846441E-17	NaN
1096	1.000000	0.086364	7.37578e+06	-54939.1	1055.82	-29742.4	0.000000	0.000000	6.086770	0.058100	NaN	0.000000	0.001572	0.001694	28.0823	0.051716	0.001863	27.7645	-9.335801	-164.44	0.048099	0.085072	-1.062307	-1.063599	0.058100	27.7645	-1.063877	-1.640283E+14	-3.542078E-16	NaN
1096	1.000000	0.128343	7.37578e+06	-54939.1	1055.82	-29742.4	0.000000	0.000000	6.128745	-0.049805	NaN	0.000000	0.001594	0.001643	28.0837	0.127665	0.001958	65.2083	126.59	13.6533	-0.018432	0.126945	-1.020328	-1.021727	-0.049805	65.2083	-1.019755	-4.184665E+13	1.190185E-15	NaN
1096	1.000000	0.170393	7.37578e+06	-54939.1	1055.82	-29742.5	0.000000	0.000000	6.170793	-0.093811	NaN	0.000000	0.001566	0.001678	28.0845	0.019313	0.001890	10.2199	-102.199	-163.021	-0.080981	0.169076	-0.978279	-0.979595	-0.093811	10.2199	-0.971394	-9.342275E+12	1.004161E-14	NaN
1096	1.000000	0.212386	7.37578e+06	-54939.1	1055.82	-29742.5	0.000000	0.000000	6.212788	-0.051278	NaN	0.000000	0.001594	0.001687	28.0835	0.054232	0.001953	27.7749	98.5523	16.6337	-0.003566	0.211003	-0.936285	-0.937668	-0.051278	27.7749	-0.934901	-3.008385E+12	1.704495E-14	NaN
1096	1.000000	0.254416	7.37578e+06	-54939.1	1055.82	-29742.5	0.000000	0.000000	6.254820	-0.000685	NaN	0.000000	0.001646	0.001688	28.0831	0.201705	0.002048	98.4871	-58.4669	-160.623	0.021420	0.253039	-0.894256	-0.895633	-0.000685	98.4871	-0.894250	-8.498991E+11	8.060175E-16	NaN
1096	1.000000	0.296448	7.37578e+06	-54939.1	1055.82	-29742.5	0.000000	0.000000	6.296851	-0.032493	NaN	0.000000	0.001666	0.001700	28.0824	0.048826	0.001885	25.9023	-101.427	16.5607	-0.013759	0.295104	-0.852223	-0.853568	-0.032493	25.9023	-0.851282	-2.228937E+11	1.457762E-13	NaN
1096	1.000000	0.338451	7.37578e+06	-54939.1	1055.82	-29742.5	0.000000	0.000000	6.338854	-0.018063	NaN	0.000000	0.001612	0.001686	28.0824	0.061174	0.002041	29.967	118.117	-163.988	-0.026562	0.337131	-0.810220	-0.811541	-0.018063	29.967	-0.809768	-6.101366E+10	2.960438E-13	NaN
1096	1.000000	0.380519	7.37578e+06	-54939.1	1055.82	-29742.5	0.000000	0.000000	6.380921	-0.035928	NaN	0.000000	0.001591	0.001743	28.0827	0.162139	0.002030	79.8796	124.473	14.5135	0.058195	0.379143	-0.768153	-0.769529	-0.035928	79.8796	-0.767815	-1.642855E+10	2.186920E-12	NaN
1096	1.000000	0.422518	7.37578e+06	-54939.1	1055.82	-29742.5	0.000000	0.000000	6.422924	0.045961	NaN	0.000000	0.001577	0.001749	28.0836	0.082519	0.002010	41.0573	-4.615860	-163.892	0.060109	0.421203	-0.726154	-0.727468	0.045961	41.0573	-0.726993	-4.569018E+9	-1.005932E-11	NaN
1096	1.000000	0.464527	7.37578e+06	-54939.1	1055.82	-29742.5	0.000000	0.000000	6.464929	-0.054035	NaN	0.000000	0.001562	0.001695	28.0837	0.064005	0.002035	31.4581	-95.595	12.2369	-0.045755	0.463131	-0.684144	-0.685540	-0.054035	31.4581	-0.682856	-1.140940E+9	4.735995E-11	NaN
1096	1.000000	0.506556	7.37578e+06	-54939.1	1055.82	-29742.5	0.000000	0.000000	6.506958	-0.047776	NaN	0.000000	0.001610	0.001705	28.0835	0.101573	0.001908	53.2469	173.004	-166.342	-0.032763	0.505248	-0.642115	-0.643423	-0.047776	53.2469	-0.641442	-3.090818E+8	1.545737E-10	NaN
1096	1.000000	0.548568	7.37578e+06	-54939.1	1055.82	-29742.5	0.000000	0.000000	6.548969	-0.069320	NaN	0.000000	0.001583	0.001704	28.0823	0.029790	0.001919	15.525	-0.610651	10.4848	-0.002062	0.547133	-0.600103	-0.601538	-0.069320	15.525	-0.596755	-7.512007E+7	9.227897E-10	NaN
1096	1.000000	0.590571	7.37578e+06	-54939.1	1055.82	-29742.5	0.000000	0.000000	6.590974	-0.030307	NaN	0.000000	0.001569	0.001703	28.0823	0.064724	0.001976	32.7615	177.156	-164.449	-0.018712	0.589255	-0.558100	-0.559416	-0.030307	32.7615	-0.557406	-2.150248E+7	1.409474E-9	NaN
1096	1.000000	0.632584	7.37578e+06	-54939.1	1055.82	-29742.5	0.000000	0.000000	6.632988	0.012439	NaN	0.000000	0.001565	0.001709	28.0825	0.056717	0.002027	27.9769	107.425	11.2772	-0.046478	0.631247	-0.516088	-0.517424	0.012439	27.9769	-0.516421	-5.80513e+06	-2.142702E-9	NaN
1096	1.000000	0.674629	7.37578e+06	-54939.1	1055.82	-29742.5	0.000000	0.000000	6.675034	0.033503	NaN	0.000000	0.001590	0.001696	28.0839	0.100151	0.001772	56.5045	178.508	-163.72	0.032574	0.673300	-0.474042	-0.475371	0.033503	56.5045	-0.474487	-1.50769e+06	-2.222144E-8	NaN
1096	1.000000	0.716621	7.37578e+06	-54939.1	1055.82	-29742.5	0.000000	0.000000	6.717026	0.005013	NaN	0.000000	0.001587	0.001713	28.084	0.052224	0.002144	24.3552	73.5698	15.1863	-0.008242	0.715204	-0.432050	-0.433468	0.005013	24.3552	-0.432204	-383033	-1.308822E-8	NaN
1096	1.000000	0.758638	7.37578e+06	-54939.1	1055.82	-29742.5	0.000000	0.000000	6.759038	-0.088437	NaN	0.000000	0.001612	0.001751	28.0838	0.053435	0.002123	25.1642	-40.3104	-164.202	0.010395	0.757387	-0.390034	-0.391285	-0.088437	25.1642	-0.387398	-88293.1	1.001624E-6	NaN
1096	1.000000	0.800650	7.37578e+06	-54939.1	1055.82	-29742.5	0.000000	0.000000	6.801051	-0.060373	NaN	0.000000	0.001614	0.001759	28.0825	0.097743	0.002109	46.3462	78.9099	11.4853	-0.117067	0.799337	-0.348022	-0.349334	-0.060373	46.3462	-0.347045	-23125.2	2.610727E-6	NaN
1096	1.000000	0.842685	7.37578e+06	-54939.1	1055.82	-29742.5	0.000000	0.000000	6.843089	0.005952	NaN	0.000000	0.001608	0.001787	28.0827	0.018375	0.002192	8.380996	-82.0831	-166.145	-0.055154	0.841371	-0.305986	-0.307301	0.005952	8.380996	-0.306519	-5881.54	-1.012037E-6	NaN
1096	1.000000	0.884673	7.37578e+06	-54939.1	1055.82	-29742.5	0.000000	0.000000	6.885077	-0.004005	NaN	0.000000	0.001601	0.001757	28.0825	0.088060	0.002020	43.6043	129.796	10.7044	-0.041973	0.883288	-0.263998	-0.265384	-0.004005	43.6043	-0.263930	-1346	2.975349E-6	NaN
1096	1.000000	0.926730	7.37578e+06	-54939.1	1055.82	-29742.5	0.000000	0.000000	6.927131	-0.060250	NaN	0.000000	0.001585	0.001751	28.0824	0.043692	0.002001	21.8401	-28.7084	-162.876	-0.019302	0.925372	-0.221942	-0.223299	-0.060250	21.8401	-0.219873	-276.464	0.000218	NaN
1096	1.000000	0.968746	7.37578e+06	-54939.1	1055.82	-29742.5	0.000000	0.000000	6.969147	-0.072088	NaN	0.000000	0.001611	0.001752	28.0839	0.036667	0.002006	18.2765	131.911	14.6566	-0.048369	0.967430	-0.179925	-0.181241	-0.072088	18.2765	-0.176967	-54.1646	0.001331	NaN
1096	1.000000	1.010759	7.37578e+06	-54939.1	1055.82	-29742.5	0.000000	0.000000	7.011159	-0.091337	NaN	0.000000	0.001667	0.001753	28.0838	0.031979	0.002002	15.9737	8.021338	-166.635	-0.111522	1.009466	-0.137912	-0.139205	-0.091337	15.9737	-0.133624	-8.952730	0.010202	NaN
1096	1.000000	1.052771	7.37578e+06	-54939.1	1055.82	-29742.5	0.000000	0.000000	7.053174	-0.033574	NaN	0.000000	0.001649	0.001731	28.0838	0.120985	0.001988	60.8549	110.628	10.8843	0.006570	1.051369	-0.095900	-0.097302	-0.033574	60.8549	-0.095486	-1.447030	0.023202	NaN
1096	1.000000	1.094790	7.37578e+06	-54939.1	1055.82	-29742.5	0.000000	0.000000	7.095203	0.212042	NaN	0.000000	0.001627	0.001750	28.0826	0.140072	0.001992	70.3256	35.8084	-166.835	0.211096	1.093445	-0.053881	-0.055226	0.212042	70.3256	-0.056142	-0.139154	-1.523791	NaN
1096	1.000000	1.136789	7.37578e+06	-54939.1	1055.82	-29742.5	0.000000	0.000000	7.137372	4.354544	NaN	0.000000	0.001622	0.001745	28.0824	1.382171	0.001903	726.362	13.3339	11.0243	4.280067	1.135414	-0.011882	-0.013257	4.354544	726.362	-0.016379	-0.010118	-430.374	NaN
1096	2.000000	1.160313	7.37578e+06	-54939.1	1055.82	-29742.5	0.000000	0.000000	7.161399	16.5689	NaN	0.000000	0.001579	0.001763	28.0826	11.8532	0.001696	6988.42	4.722549	-172.816	15.2565	1.159993	0.011642	0.011322	16.5689	6988.42	0.009864	0.009031	1834.74	67188.1
1096	2.000000	1.170835	7.37578e+06	-54939.1	1055.82	-29742.5	0.000000	0.000000	7.172706	35.6767	NaN	0.000000	0.001580	0.001758	28.0839	22.0638	0.001644	13417.5	3.465980	2.714799	34.8135	1.170438	0.022163	0.021767	35.6767	13417.5	0.020169	0.022809	1564.16	81169.7
1096	2.000000	1.181254	7.37578e+06	-54939.1	1055.82	-29742.5	0.000000	0.000000	7.184564	70.6428	NaN	0.000000	0.001647	0.001738	28.0855	33.4648	0.001810	18488.7	6.847438	177.381	69.0972	1.180960	0.032583	0.032289	70.6428	18488.7	0.029717	0.040160	1759.02	84291
1096	2.000000	1.191719	7.37578e+06	-54939.1	1055.82	-29742.5	0.000000	0.000000	7.196541	107.397	NaN	0.000000	0.001639	0.001708	28.0843	42.9046	0.001807	23745.8	1.648288	0.311409	103.363	1.191374	0.043048	0.042703	107.397	23745.8	0.039656	0.063141	1700.9	86338.2
1096	2.000000	1.202289	7.37578e+06	-54939.1	1055.82	-29742.5	0.000000	0.000000	7.209119	156.219	NaN	0.000000	0.001659	0.001664	28.0826	56.6365	0.001902	29779.8	5.183487	175.86	155.632	1.201847	0.053618	0.053175	156.219	29779.8	0.049683	0.091437	1708.48	89977.4
1096	2.000000	1.212730	7.37578e+06	-54939.1	1055.82	-29742.5	0.000000	0.000000	7.221807	210.835	NaN	0.000000	0.001573	0.001639	28.0829	67.07	0.001743	38488.5	8.053447	-10.3166	208.683	1.212314	0.064059	0.063642	210.835	38488.5	0.059951	0.125631	1678.21	99210
1096	2.000000	1.223231	7.37578e+06	-54939.1	1055.82	-29742.5	0.000000	0.000000	7.234998	276.222	NaN	0.000000	0.001612	0.001675	28.087	75.5565	0.001759	42958.3	3.848993	173.531	275.905	1.222779	0.074560	0.074108	276.222	42958.3	0.069737	0.163021	1694.39	97207.2
1096	2.000000	1.233594	7.37578e+06	-54939.1	1055.82	-29742.5	0.000000	0.000000	7.248157	344.2	NaN	0.000000	0.001630	0.001622	28.0829	84.878	0.001747	48590.7	4.317887	-7.943145	335.924	1.233182	0.084923	0.084511	344.2	48590.7	0.079610	0.205362	1676.07	97964
1096	2.000000	1.244207	7.37578e+06	-54939.1	1055.82	-29742.5	0.000000	0.000000	7.261753	416.704	NaN	0.000000	0.001678	0.001691	28.0841	95.5402	0.001729	55247.5	5.032376	170.073	417.286	1.244123	0.095536	0.095451	416.704	55247.5	0.089879	0.254225	1639.11	100110
1096	2.000000	1.252693	7.37578e+06	-54939.1	1055.82	-29742.5	0.000000	0.000000	7.273518	496.427	NaN	0.000000	0.001623	0.001678	28.0842	106.608	0.001891	56376.8	4.841446	-9.317842	492.167	1.252300	0.104021	0.103629	496.427	56376.8	0.097417	0.293178	1693.27	95128