File: remote_trans/data/nanoindenter/0828-1/data/Data_2025-08-06,11h17m57s/2025-07-22_16-23-58_1_695.txt
2025-07-22, 16:23:58, 1
Index	Phase	Displacement	Time	Pos X	Pos Y	Pos Z	Rot A	Rot B	Piezo Z	Force A	Force B	Gripper	Voltage A	Voltage B	Temperature	Amplitude force	Amplitude pos	Stiffness	Phase shift	Phase excitation	Force A raw	Displacement raw	HMax	HMax raw	Real Force	Real Stiffness	Contact Depth	Area	Hardness	Reduced Mod.
[#]	[#]	[um]	[s]	[um]	[um]	[um]	[m°]	[m°]	[um]	[uN]	[uN]	[V]	[V]	[V]	[°C]	[uN]	[um]	[N/m]	[°]	[°]	[uN]	[um]	[um]	[um]	[uN]	[N/m]	[um]	[um^2]	[MPa]	[MPa]
695	1.000000	0.001942	7.37185e+06	-42339.1	1005.82	-29783	0.000000	0.000000	6.002805	0.029936	NaN	0.000000	0.001677	0.001691	28.0825	0.064041	0.000981	65.3044	29.9579	-171.258	0.103660	0.000628	-1.083609	-1.084922	0.029936	65.3044	-1.083952	-3.052110E+14	-9.808171E-17	NaN
695	1.000000	0.041865	7.37185e+06	-42339.1	1005.82	-29783	0.000000	0.000000	6.042726	0.004420	NaN	0.000000	0.001660	0.001695	28.0827	0.066210	0.002017	32.8178	-32.8703	-166.859	-0.011162	0.040630	-1.043686	-1.044921	0.004420	32.8178	-1.043787	-8.808157E+13	-5.018353E-17	NaN
695	1.000000	0.081908	7.37185e+06	-42339.1	1005.82	-29783	0.000000	0.000000	6.082767	-0.050320	NaN	0.000000	0.001701	0.001700	28.0841	0.032606	0.002059	15.8367	92.5593	-165.019	0.004877	0.080578	-1.003643	-1.004973	-0.050320	15.8367	-1.001259	-2.358988E+13	2.133109E-15	NaN
695	1.000000	0.121888	7.37185e+06	-42339.1	1005.82	-29783	0.000000	0.000000	6.122747	-0.051653	NaN	0.000000	0.001688	0.001745	28.0837	0.122727	0.001974	62.1708	-91.1543	-169.206	-0.027871	0.120632	-0.963662	-0.964919	-0.051653	62.1708	-0.963039	-7.208465E+12	7.165624E-15	NaN
695	1.000000	0.161926	7.37185e+06	-42339.1	1005.82	-29783	0.000000	0.000000	6.162791	0.074978	NaN	0.000000	0.001661	0.001727	28.0839	0.038279	0.002050	18.6771	-139.831	-166.969	0.046358	0.160590	-0.923624	-0.924961	0.074978	18.6771	-0.926635	-2.326913E+12	-3.222229E-14	NaN
695	1.000000	0.201946	7.37185e+06	-42339.1	1005.82	-29783	0.000000	0.000000	6.202808	0.022277	NaN	0.000000	0.001692	0.001718	28.0825	0.088362	0.002031	43.5155	115.231	-166.733	-0.048238	0.200692	-0.883605	-0.884859	0.022277	43.5155	-0.883989	-6.175176E+11	-3.607458E-14	NaN
695	1.000000	0.241958	7.37185e+06	-42339.1	1005.82	-29783	0.000000	0.000000	6.242817	-0.054837	NaN	0.000000	0.001684	0.001763	28.0826	0.061045	0.002014	30.3115	-25.7219	-165.006	-0.007247	0.240654	-0.843592	-0.844896	-0.054837	30.3115	-0.842236	-1.681044E+11	3.262071E-13	NaN
695	1.000000	0.281990	7.37185e+06	-42339.1	1005.82	-29783	0.000000	0.000000	6.282849	-0.045461	NaN	0.000000	0.001592	0.001775	28.0828	0.112764	0.001959	57.5504	38.9052	-164.411	0.019881	0.280689	-0.803560	-0.804862	-0.045461	57.5504	-0.802968	-4.933427E+10	9.214917E-13	NaN
695	1.000000	0.322003	7.37185e+06	-42339.1	1005.82	-29783	0.000000	0.000000	6.322863	-0.035075	NaN	0.000000	0.001601	0.001737	28.0826	0.076957	0.002033	37.8526	158.091	-166.884	0.045876	0.320733	-0.763548	-0.764818	-0.035075	37.8526	-0.762853	-1.406392E+10	2.493952E-12	NaN
695	1.000000	0.362012	7.37185e+06	-42339.1	1005.82	-29783	0.000000	0.000000	6.362874	0.021521	NaN	0.000000	0.001598	0.001782	28.0837	0.043746	0.001947	22.4739	-50.0676	-169.418	0.046850	0.360659	-0.723538	-0.724892	0.021521	22.4739	-0.724257	-4.192916E+9	-5.132673E-12	NaN
695	1.000000	0.402018	7.37185e+06	-42339.1	1005.82	-29783	0.000000	0.000000	6.402880	0.004731	NaN	0.000000	0.001629	0.001761	28.0837	0.056285	0.002048	27.4826	173.368	-165.005	0.113443	0.400736	-0.683532	-0.684815	0.004731	27.4826	-0.683661	-1.170238E+9	-4.042743E-12	NaN
695	1.000000	0.442035	7.37185e+06	-42339.1	1005.82	-29783	0.000000	0.000000	6.442894	-0.042696	NaN	0.000000	0.001687	0.001753	28.0837	0.053649	0.002007	26.7244	52.3209	-166.676	-0.016747	0.440718	-0.643516	-0.644832	-0.042696	26.7244	-0.642318	-3.177502E+8	1.343699E-10	NaN
695	1.000000	0.482041	7.37185e+06	-42339.1	1005.82	-29783	0.000000	0.000000	6.482899	-0.082676	NaN	0.000000	0.001694	0.001750	28.0823	0.059736	0.001898	31.4661	-148.511	-166.507	-0.028935	0.480753	-0.603510	-0.604798	-0.082676	31.4661	-0.601539	-8.742963E+7	9.456306E-10	NaN
695	1.000000	0.522088	7.37185e+06	-42339.1	1005.82	-29783	0.000000	0.000000	6.522949	-0.007103	NaN	0.000000	0.001690	0.001755	28.0827	0.065879	0.002050	32.1317	62.7113	-164.764	-0.028447	0.520783	-0.563463	-0.564767	-0.007103	32.1317	-0.563297	-2.594068E+7	2.738226E-10	NaN
695	1.000000	0.562115	7.37185e+06	-42339.1	1005.82	-29783	0.000000	0.000000	6.562976	0.006157	NaN	0.000000	0.001719	0.001727	28.0826	0.132527	0.002068	64.0979	64.8368	-166.978	0.113880	0.560799	-0.523436	-0.524752	0.006157	64.0979	-0.523508	-7.2841e+06	-8.452563E-10	NaN
695	1.000000	0.602106	7.37185e+06	-42339.1	1005.82	-29783	0.000000	0.000000	6.602967	0.009542	NaN	0.000000	0.001680	0.001748	28.0838	0.040723	0.002193	18.5698	96.9724	-161.037	-0.102383	0.600822	-0.483445	-0.484729	0.009542	18.5698	-0.483830	-2.03765e+06	-4.682997E-9	NaN
695	1.000000	0.642158	7.37185e+06	-42339.1	1005.82	-29783	0.000000	0.000000	6.643020	0.023203	NaN	0.000000	0.001621	0.001750	28.0837	0.066941	0.002034	32.9148	132.45	-163.513	0.042905	0.640856	-0.443392	-0.444695	0.023203	32.9148	-0.443921	-560634	-4.138752E-8	NaN
695	1.000000	0.682160	7.37185e+06	-42339.1	1005.82	-29783	0.000000	0.000000	6.683023	0.034845	NaN	0.000000	0.001648	0.001673	28.0838	0.090428	0.001997	45.2927	-96.3271	-166.354	0.115751	0.680874	-0.403390	-0.404677	0.034845	45.2927	-0.403967	-152245	-2.288735E-7	NaN
695	1.000000	0.722176	7.37185e+06	-42339.1	1005.82	-29783	0.000000	0.000000	6.723038	0.020108	NaN	0.000000	0.001707	0.001641	28.0838	0.070554	0.001956	36.0773	-115.386	-170.123	0.008193	0.720848	-0.363374	-0.364703	0.020108	36.0773	-0.363792	-40422.6	-4.974523E-7	NaN
695	1.000000	0.762151	7.37185e+06	-42339.1	1005.82	-29783	0.000000	0.000000	6.763012	-0.010732	NaN	0.000000	0.001675	0.001661	28.0824	0.061854	0.002004	30.865	74.4009	-164.061	0.022618	0.760858	-0.323400	-0.324693	-0.010732	30.865	-0.323139	-10346.7	1.037200E-6	NaN
695	1.000000	0.802190	7.37185e+06	-42339.1	1005.82	-29783	0.000000	0.000000	6.803050	-0.009664	NaN	0.000000	0.001623	0.001684	28.0825	0.064913	0.001906	34.0564	127.832	-166.165	-0.021507	0.800889	-0.283361	-0.284662	-0.009664	34.0564	-0.283148	-2632.76	3.670778E-6	NaN
695	1.000000	0.842205	7.37185e+06	-42339.1	1005.82	-29783	0.000000	0.000000	6.843068	0.061699	NaN	0.000000	0.001638	0.001681	28.0825	0.087700	0.001994	43.991	165.203	-166.727	0.002959	0.840901	-0.243346	-0.244650	0.061699	43.991	-0.244398	-673.117	-9.166129E-5	NaN
695	1.000000	0.882243	7.37185e+06	-42339.1	1005.82	-29783	0.000000	0.000000	6.883102	-0.052624	NaN	0.000000	0.001615	0.001608	28.0838	0.071712	0.001968	36.4461	143.222	-165.847	-0.008417	0.880955	-0.203308	-0.204596	-0.052624	36.4461	-0.202225	-143.284	0.000367	NaN
695	1.000000	0.922226	7.37185e+06	-42339.1	1005.82	-29783	0.000000	0.000000	6.923089	0.039474	NaN	0.000000	0.001599	0.001691	28.0838	0.064414	0.001869	34.4668	-134.137	-169.545	0.030372	0.920912	-0.163325	-0.164639	0.039474	34.4668	-0.164184	-32.5057	-0.001214	NaN
695	1.000000	0.962263	7.37185e+06	-42339.1	1005.82	-29783	0.000000	0.000000	6.963126	0.049557	NaN	0.000000	0.001643	0.001702	28.0835	0.132625	0.002033	65.2497	125.039	-166.114	-0.050514	0.960949	-0.123288	-0.124601	0.049557	65.2497	-0.123857	-5.772046	-0.008586	NaN
695	1.000000	1.002271	7.37185e+06	-42339.1	1005.82	-29783	0.000000	0.000000	7.003132	-0.003672	NaN	0.000000	0.001628	0.001686	28.0833	0.050956	0.002017	25.2669	125.182	-166.915	-0.071693	1.000992	-0.083280	-0.084559	-0.003672	25.2669	-0.083171	-0.741573	0.004952	NaN
695	1.000000	1.042261	7.37185e+06	-42339.1	1005.82	-29783	0.000000	0.000000	7.043125	0.069975	NaN	0.000000	0.001670	0.001663	28.0819	0.107885	0.001982	54.4255	169.854	-167.537	-0.029276	1.040989	-0.043290	-0.044562	0.069975	54.4255	-0.044254	-0.060979	-1.147531	NaN
695	1.000000	1.082289	7.37185e+06	-42339.1	1005.82	-29783	0.000000	0.000000	7.083234	2.062392	NaN	0.000000	0.001675	0.001710	28.0818	2.822947	0.001918	1471.72	14.5543	-171.125	1.091460	1.081027	-0.003262	-0.004523	2.062392	1471.72	-0.004313	-0.002981	-691.916	NaN
695	2.000000	1.096869	7.37185e+06	-42339.1	1005.82	-29783	0.000000	0.000000	7.098654	22.467	NaN	0.000000	0.001669	0.001692	28.082	17.3216	0.001888	9175.65	3.984792	-173.603	21.421	1.096585	0.011318	0.011034	22.467	9175.65	0.009482	0.008612	2608.94	90337.7
695	2.000000	1.106851	7.37185e+06	-42339.1	1005.82	-29783	0.000000	0.000000	7.109611	46.1826	NaN	0.000000	0.001718	0.001725	28.0834	27.0792	0.001894	14300.9	1.705731	-174.329	45.0491	1.106499	0.021301	0.020948	46.1826	14300.9	0.018879	0.020811	2219.17	90571.4
695	2.000000	1.116832	7.37185e+06	-42339.1	1005.82	-29783	0.000000	0.000000	7.120943	79.0807	NaN	0.000000	0.001708	0.001671	28.0835	36.3503	0.001933	18804	5.862165	177.63	78.0841	1.116520	0.031281	0.030969	79.0807	18804	0.028127	0.036951	2140.18	89374.3
695	2.000000	1.126818	7.37185e+06	-42339.1	1005.82	-29783	0.000000	0.000000	7.132466	116.488	NaN	0.000000	0.001723	0.001701	28.0834	44.9431	0.001730	25985.4	5.960869	174.79	115.155	1.126555	0.041267	0.041004	116.488	25985.4	0.037905	0.058726	1983.58	97968.8
695	2.000000	1.136796	7.37185e+06	-42339.1	1005.82	-29783	0.000000	0.000000	7.144333	162.424	NaN	0.000000	0.001593	0.001704	28.0822	54.81	0.001785	30700.8	7.097437	172.71	161.309	1.136397	0.051245	0.050846	162.424	30700.8	0.047277	0.084184	1929.39	96673.7
695	2.000000	1.146806	7.37185e+06	-42339.1	1005.82	-29783	0.000000	0.000000	7.155989	202.491	NaN	0.000000	0.001620	0.001701	28.0825	64.5588	0.001837	35146.6	2.375019	175.772	202.434	1.146700	0.061255	0.061149	202.491	35146.6	0.056934	0.115045	1760.1	94672.2
695	2.000000	1.156857	7.37185e+06	-42339.1	1005.82	-29783	0.000000	0.000000	7.168599	264.764	NaN	0.000000	0.001640	0.001653	28.0824	74.0733	0.001801	41139.4	4.192214	172.573	266.66	1.156566	0.071306	0.071015	264.764	41139.4	0.066479	0.150061	1764.37	97028.1
695	2.000000	1.166763	7.37185e+06	-42339.1	1005.82	-29783	0.000000	0.000000	7.181552	338.884	NaN	0.000000	0.001600	0.001668	28.0823	82.5737	0.001764	46806	2.897523	174.01	337.445	1.166437	0.081212	0.080886	338.884	46806	0.075782	0.188401	1798.74	98522.2
695	2.000000	1.176795	7.37185e+06	-42339.1	1005.82	-29783	0.000000	0.000000	7.194531	410.58	NaN	0.000000	0.001637	0.001641	28.0834	92.2359	0.001817	50761.3	5.541427	170.811	410.92	1.176369	0.091244	0.090818	410.58	50761.3	0.085178	0.231251	1775.48	96441.7
695	2.000000	1.186682	7.37185e+06	-42339.1	1005.82	-29783	0.000000	0.000000	7.207524	486.166	NaN	0.000000	0.001643	0.001666	28.0833	99.7228	0.001705	58500	2.272780	172.648	481.872	1.186476	0.101131	0.100925	486.166	58500	0.094898	0.279872	1737.1	101030