File: remote_trans/data/nanoindenter/0828-1/data/Data_2025-08-06,11h17m57s/2025-07-22_16-23-58_1_389.txt
2025-07-22, 16:23:58, 1
Index	Phase	Displacement	Time	Pos X	Pos Y	Pos Z	Rot A	Rot B	Piezo Z	Force A	Force B	Gripper	Voltage A	Voltage B	Temperature	Amplitude force	Amplitude pos	Stiffness	Phase shift	Phase excitation	Force A raw	Displacement raw	HMax	HMax raw	Real Force	Real Stiffness	Contact Depth	Area	Hardness	Reduced Mod.
[#]	[#]	[um]	[s]	[um]	[um]	[um]	[m°]	[m°]	[um]	[uN]	[uN]	[V]	[V]	[V]	[°C]	[uN]	[um]	[N/m]	[°]	[°]	[uN]	[um]	[um]	[um]	[uN]	[N/m]	[um]	[um^2]	[MPa]	[MPa]
389	1.000000	0.002500	7.36887e+06	-57639.1	1005.82	-29736.8	0.000000	0.000000	6.002796	0.098420	NaN	0.000000	0.001664	0.001638	28.0795	0.033316	0.001020	32.6565	12.6276	-165.672	0.149128	0.001249	-1.100307	-1.101558	0.098420	32.6565	-1.102567	-5.426591E+14	-1.813654E-16	NaN
389	1.000000	0.044453	7.36887e+06	-57639.1	1005.82	-29736.8	0.000000	0.000000	6.044748	0.063133	NaN	0.000000	0.001631	0.001652	28.0795	0.118752	0.002069	57.3986	14.2831	18.5179	0.022733	0.043127	-1.058353	-1.059680	0.063133	57.3986	-1.059178	-1.418318E+14	-4.451275E-16	NaN
389	1.000000	0.086478	7.36887e+06	-57639.1	1005.82	-29736.8	0.000000	0.000000	6.086771	0.009830	NaN	0.000000	0.001661	0.001664	28.0808	0.050138	0.002077	24.1448	167.012	-166.913	0.071168	0.085112	-1.016329	-1.017694	0.009830	24.1448	-1.016634	-3.798922E+13	-2.587533E-16	NaN
389	1.000000	0.128472	7.36887e+06	-57639.1	1005.82	-29736.8	0.000000	0.000000	6.128765	-0.002704	NaN	0.000000	0.001605	0.001658	28.0807	0.045377	0.001848	24.5606	65.193	12.5007	0.028730	0.127165	-0.974334	-0.975642	-0.002704	24.5606	-0.974251	-1.020837E+13	2.649248E-16	NaN
389	1.000000	0.170501	7.36887e+06	-57639.1	1005.82	-29736.8	0.000000	0.000000	6.170798	0.127419	NaN	0.000000	0.001633	0.001658	28.0812	0.028595	0.002099	13.6252	-118.977	-163.501	0.143865	0.169168	-0.932306	-0.933638	0.127419	13.6252	-0.939320	-3.451092E+12	-3.692126E-14	NaN
389	1.000000	0.212503	7.36887e+06	-57639.1	1005.82	-29736.8	0.000000	0.000000	6.212796	0.004618	NaN	0.000000	0.001682	0.001711	28.0796	0.042381	0.002091	20.2653	17.8177	17.2896	0.033214	0.211160	-0.890303	-0.891647	0.004618	20.2653	-0.890474	-7.556520E+11	-6.110664E-15	NaN
389	1.000000	0.254563	7.36887e+06	-57639.1	1005.82	-29736.8	0.000000	0.000000	6.254860	0.109812	NaN	0.000000	0.001677	0.001673	28.0798	0.047633	0.001971	24.1619	134.902	-165.525	0.073443	0.253235	-0.848243	-0.849572	0.109812	24.1619	-0.851652	-2.254796E+11	-4.870144E-13	NaN
389	1.000000	0.296553	7.36887e+06	-57639.1	1005.82	-29736.8	0.000000	0.000000	6.296848	0.083209	NaN	0.000000	0.001661	0.001653	28.0796	0.062595	0.002059	30.3963	164.572	16.9154	0.098201	0.295189	-0.806254	-0.807618	0.083209	30.3963	-0.808307	-5.829059E+10	-1.427480E-12	NaN
389	1.000000	0.338590	7.36887e+06	-57639.1	1005.82	-29736.8	0.000000	0.000000	6.338887	0.098971	NaN	0.000000	0.001651	0.001640	28.0806	0.124971	0.001911	65.3986	-105.014	-165.336	0.179954	0.337257	-0.764216	-0.765550	0.098971	65.3986	-0.765351	-1.520851E+10	-6.507636E-12	NaN
389	1.000000	0.380586	7.36887e+06	-57639.1	1005.82	-29736.8	0.000000	0.000000	6.380885	0.151947	NaN	0.000000	0.001617	0.001646	28.0804	0.033716	0.001972	17.0992	168.313	16.2896	0.156370	0.379265	-0.722220	-0.723542	0.151947	17.0992	-0.728885	-4.848520E+9	-3.133882E-11	NaN
389	1.000000	0.422627	7.36887e+06	-57639.1	1005.82	-29736.8	0.000000	0.000000	6.422922	0.062424	NaN	0.000000	0.001687	0.001640	28.0808	0.023296	0.001991	11.7003	83.7493	-167.631	-0.018450	0.421303	-0.680180	-0.681503	0.062424	11.7003	-0.684181	-1.189543E+9	-5.247701E-11	NaN
389	1.000000	0.464647	7.36887e+06	-57639.1	1005.82	-29736.8	0.000000	0.000000	6.464942	0.064897	NaN	0.000000	0.001676	0.001673	28.0795	0.029906	0.002053	14.5667	124.323	15.8901	0.094925	0.463283	-0.638159	-0.639523	0.064897	14.5667	-0.641500	-3.096535E+8	-2.095781E-10	NaN
389	1.000000	0.506626	7.36887e+06	-57639.1	1005.82	-29736.8	0.000000	0.000000	6.506922	0.084205	NaN	0.000000	0.001680	0.001604	28.0797	0.122741	0.002028	60.5323	-161.07	-165.404	0.070023	0.505321	-0.596180	-0.597485	0.084205	60.5323	-0.597224	-7.624622E+7	-1.104376E-9	NaN
389	1.000000	0.548672	7.36887e+06	-57639.1	1005.82	-29736.8	0.000000	0.000000	6.548968	0.092469	NaN	0.000000	0.001684	0.001619	28.0796	0.055500	0.002020	27.4731	-152.009	14.361	0.041818	0.547307	-0.554134	-0.555499	0.092469	27.4731	-0.556658	-2.099632E+7	-4.404047E-9	NaN
389	1.000000	0.590685	7.36887e+06	-57639.1	1005.82	-29736.8	0.000000	0.000000	6.590979	0.035018	NaN	0.000000	0.001635	0.001639	28.0795	0.021158	0.001978	10.695	160.675	-167.136	0.010574	0.589422	-0.512121	-0.513384	0.035018	10.695	-0.514577	-5.47195e+06	-6.399489E-9	NaN
389	1.000000	0.632703	7.36887e+06	-57639.1	1005.82	-29736.8	0.000000	0.000000	6.632998	0.057629	NaN	0.000000	0.001698	0.001654	28.0807	0.082494	0.001927	42.8034	-156.142	16.3665	-0.003733	0.631346	-0.470103	-0.471461	0.057629	42.8034	-0.471113	-1.35212e+06	-4.262170E-8	NaN
389	1.000000	0.674743	7.36887e+06	-57639.1	1005.82	-29736.8	0.000000	0.000000	6.675035	0.003330	NaN	0.000000	0.001667	0.001563	28.0808	0.040562	0.002004	20.2357	-94.9871	-165.542	-0.018962	0.673437	-0.428064	-0.429369	0.003330	20.2357	-0.428187	-336055	-9.910147E-9	NaN
389	1.000000	0.716745	7.36887e+06	-57639.1	1005.82	-29736.8	0.000000	0.000000	6.717038	0.008910	NaN	0.000000	0.001639	0.001640	28.0812	0.192411	0.002005	95.9763	-123.526	12.6651	0.051918	0.715375	-0.386062	-0.387431	0.008910	95.9763	-0.386131	-84681.9	-1.052230E-7	NaN
389	1.000000	0.758754	7.36887e+06	-57639.1	1005.82	-29736.8	0.000000	0.000000	6.759047	0.020408	NaN	0.000000	0.001660	0.001627	28.0801	0.085584	0.001946	43.978	109.021	-165.702	0.028747	0.757414	-0.344052	-0.345393	0.020408	43.978	-0.344400	-21165.7	-9.642047E-7	NaN
389	1.000000	0.800763	7.36887e+06	-57639.1	1005.82	-29736.8	0.000000	0.000000	6.801057	0.019904	NaN	0.000000	0.001745	0.001654	28.0799	0.091703	0.002181	42.0559	-134.744	12.6396	0.019141	0.799455	-0.302043	-0.303351	0.019904	42.0559	-0.302398	-5108.67	-3.896064E-6	NaN
389	1.000000	0.842780	7.36887e+06	-57639.1	1005.82	-29736.8	0.000000	0.000000	6.843073	0.013926	NaN	0.000000	0.001661	0.001649	28.0797	0.015979	0.001773	9.014752	-79.0164	-163.553	0.042921	0.841480	-0.260026	-0.261327	0.013926	9.014752	-0.261185	-1221.98	-1.139603E-5	NaN
389	1.000000	0.884779	7.36887e+06	-57639.1	1005.82	-29736.8	0.000000	0.000000	6.885074	0.078441	NaN	0.000000	0.001697	0.001627	28.0807	0.092098	0.001923	47.8967	0.485211	11.8596	0.084208	0.883467	-0.218028	-0.219339	0.078441	47.8967	-0.219256	-270.259	-0.000290	NaN
389	1.000000	0.926830	7.36887e+06	-57639.1	1005.82	-29736.8	0.000000	0.000000	6.927122	-0.011525	NaN	0.000000	0.001610	0.001640	28.0806	0.054926	0.001999	27.4781	146.42	-164.607	0.004582	0.925533	-0.175977	-0.177273	-0.011525	27.4781	-0.175662	-51.446	0.000224	NaN
389	1.000000	0.968824	7.36887e+06	-57639.1	1005.82	-29736.8	0.000000	0.000000	6.969119	0.051628	NaN	0.000000	0.001626	0.001640	28.0808	0.101520	0.002037	49.8421	43.6524	14.4176	-0.005154	0.967511	-0.133982	-0.135295	0.051628	49.8421	-0.134759	-9.412173	-0.005485	NaN
389	1.000000	1.010837	7.36887e+06	-57639.1	1005.82	-29736.8	0.000000	0.000000	7.011132	0.071565	NaN	0.000000	0.001634	0.001612	28.0796	0.041179	0.002014	20.4507	140.672	-164.053	0.034396	1.009577	-0.091970	-0.093229	0.071565	20.4507	-0.094594	-1.380884	-0.051826	NaN
389	1.000000	1.052854	7.36887e+06	-57639.1	1005.82	-29736.8	0.000000	0.000000	7.053149	0.064311	NaN	0.000000	0.001667	0.001615	28.0794	0.060863	0.002017	30.1725	56.0354	15.6533	0.062737	1.051480	-0.049952	-0.051327	0.064311	30.1725	-0.051551	-0.101624	-0.632840	NaN
389	1.000000	1.094864	7.36887e+06	-57639.1	1005.82	-29736.8	0.000000	0.000000	7.095160	0.080485	NaN	0.000000	0.001595	0.001613	28.0796	0.039395	0.001954	20.159	177.318	-165.376	0.064099	1.093593	-0.007943	-0.009213	0.080485	20.159	-0.010937	-0.006922	-11.6271	NaN
389	2.000000	1.118888	7.36887e+06	-57639.1	1005.82	-29736.8	0.000000	0.000000	7.119951	18.7376	NaN	0.000000	0.001660	0.001593	28.0797	16.6399	0.001787	9309.85	8.510114	2.262625	17.9714	1.118583	0.016082	0.015777	18.7376	9309.85	0.014572	0.014719	1273	70109
389	2.000000	1.129333	7.36887e+06	-57639.1	1005.82	-29736.8	0.000000	0.000000	7.131344	41.7807	NaN	0.000000	0.001665	0.001623	28.0808	26.26	0.001684	15591.6	1.000818	-175.646	40.4057	1.129046	0.026526	0.026239	41.7807	15591.6	0.024517	0.030142	1386.13	82049.9
389	2.000000	1.139785	7.36887e+06	-57639.1	1005.82	-29736.8	0.000000	0.000000	7.143008	71.2207	NaN	0.000000	0.001681	0.001598	28.0809	36.0566	0.001812	19893.4	3.689152	0.019871	67.9844	1.139425	0.036979	0.036619	71.2207	19893.4	0.034294	0.050114	1421.16	81189.7
389	2.000000	1.150346	7.36887e+06	-57639.1	1005.82	-29736.8	0.000000	0.000000	7.154918	104.007	NaN	0.000000	0.001673	0.001613	28.082	45.4914	0.001823	24950.3	2.099492	179.774	106.686	1.150043	0.047540	0.047237	104.007	24950.3	0.044413	0.075931	1369.77	82725.8
389	2.000000	1.160761	7.36887e+06	-57639.1	1005.82	-29736.8	0.000000	0.000000	7.167301	151.831	NaN	0.000000	0.001664	0.001650	28.0796	54.4608	0.001801	30242.9	6.941238	-6.452103	148.753	1.160422	0.057955	0.057615	151.831	30242.9	0.054190	0.105802	1435.05	84947.3
389	2.000000	1.171365	7.36887e+06	-57639.1	1005.82	-29736.8	0.000000	0.000000	7.179685	195.097	NaN	0.000000	0.001566	0.001655	28.0796	67.3348	0.001856	36287.3	8.201694	171.362	196.934	1.170931	0.068559	0.068125	195.097	36287.3	0.064527	0.142539	1368.73	87813.4
389	2.000000	1.181729	7.36887e+06	-57639.1	1005.82	-29736.8	0.000000	0.000000	7.192529	255.386	NaN	0.000000	0.001628	0.001583	28.0796	76.9642	0.001819	42322.7	5.839778	-8.697667	251.37	1.181481	0.078922	0.078675	255.386	42322.7	0.074397	0.182431	1399.9	90531
389	2.000000	1.192316	7.36887e+06	-57639.1	1005.82	-29736.8	0.000000	0.000000	7.205622	316.296	NaN	0.000000	0.001614	0.001611	28.0808	85.4172	0.001889	45207.7	4.926138	172.063	319.549	1.191978	0.089510	0.089172	316.296	45207.7	0.084262	0.226894	1394.02	86710.8
389	2.000000	1.202536	7.36887e+06	-57639.1	1005.82	-29736.8	0.000000	0.000000	7.218730	386.479	NaN	0.000000	0.001584	0.001565	28.0807	95.4069	0.001896	50323.3	2.962770	-6.301746	374.111	1.202271	0.099729	0.099464	386.479	50323.3	0.093969	0.275038	1405.18	87669
389	2.000000	1.211208	7.36887e+06	-57639.1	1005.82	-29736.8	0.000000	0.000000	7.230233	455.272	NaN	0.000000	0.001639	0.001542	28.0809	104.643	0.001912	54717.9	6.844257	170.102	453.349	1.210737	0.108401	0.107931	455.272	54717.9	0.102161	0.319018	1427.1	88510.5