File: remote_trans/data/nanoindenter/0828-1/data/Data_2025-08-06,11h17m57s/2025-07-22_16-23-58_1_434.txt
2025-07-22, 16:23:58, 1
Index	Phase	Displacement	Time	Pos X	Pos Y	Pos Z	Rot A	Rot B	Piezo Z	Force A	Force B	Gripper	Voltage A	Voltage B	Temperature	Amplitude force	Amplitude pos	Stiffness	Phase shift	Phase excitation	Force A raw	Displacement raw	HMax	HMax raw	Real Force	Real Stiffness	Contact Depth	Area	Hardness	Reduced Mod.
[#]	[#]	[um]	[s]	[um]	[um]	[um]	[m°]	[m°]	[um]	[uN]	[uN]	[V]	[V]	[V]	[°C]	[uN]	[um]	[N/m]	[°]	[°]	[uN]	[um]	[um]	[um]	[uN]	[N/m]	[um]	[um^2]	[MPa]	[MPa]
434	1.000000	0.002797	7.3693e+06	-55389.1	1005.82	-29741.7	0.000000	0.000000	6.002810	-0.012675	NaN	0.000000	0.001605	0.001669	28.0835	0.084786	0.000982	86.2973	25.7377	-166.545	-0.028399	0.001557	-1.132682	-1.133923	-0.012675	86.2973	-1.132572	-1.371256E+15	9.243249E-18	NaN
434	1.000000	0.044725	7.3693e+06	-55389.1	1005.82	-29741.7	0.000000	0.000000	6.044737	-0.020263	NaN	0.000000	0.001693	0.001728	28.0812	0.175389	0.002090	83.9198	70.4604	18.3773	0.026898	0.043409	-1.090755	-1.092070	-0.020263	83.9198	-1.090574	-3.745554E+14	5.410004E-17	NaN
434	1.000000	0.086736	7.3693e+06	-55389.1	1005.82	-29741.7	0.000000	0.000000	6.086751	0.039372	NaN	0.000000	0.001620	0.001667	28.081	0.039979	0.001887	21.1874	154.997	-163.083	0.015018	0.085456	-1.048744	-1.050024	0.039372	21.1874	-1.050137	-1.072159E+14	-3.672246E-16	NaN
434	1.000000	0.128780	7.3693e+06	-55389.1	1005.82	-29741.7	0.000000	0.000000	6.128795	0.024745	NaN	0.000000	0.001696	0.001688	28.0813	0.048881	0.001918	25.4789	31.2006	14.0383	-0.012739	0.127361	-1.006700	-1.008119	0.024745	25.4789	-1.007428	-2.856031E+13	-8.664149E-16	NaN
434	1.000000	0.170768	7.3693e+06	-55389.1	1005.82	-29741.7	0.000000	0.000000	6.170781	-0.006526	NaN	0.000000	0.001678	0.001736	28.0813	0.036475	0.002063	17.6762	63.5788	-163.992	-0.009050	0.169460	-0.964712	-0.966020	-0.006526	17.6762	-0.964435	-7.527527E+12	8.669778E-16	NaN
434	1.000000	0.212818	7.3693e+06	-55389.1	1005.82	-29741.7	0.000000	0.000000	6.212830	-0.048633	NaN	0.000000	0.001648	0.001637	28.0824	0.058088	0.002084	27.8725	-157.649	15.1916	-0.024408	0.211446	-0.922661	-0.924033	-0.048633	27.8725	-0.921353	-1.974549E+12	2.462990E-14	NaN
434	1.000000	0.254819	7.3693e+06	-55389.1	1005.82	-29741.7	0.000000	0.000000	6.254833	0.025002	NaN	0.000000	0.001686	0.001642	28.0825	0.062857	0.001883	33.3872	27.3964	-163.063	0.034289	0.253496	-0.880661	-0.881984	0.025002	33.3872	-0.881223	-5.665527E+11	-4.413076E-14	NaN
434	1.000000	0.296840	7.3693e+06	-55389.1	1005.82	-29741.7	0.000000	0.000000	6.296851	-0.058128	NaN	0.000000	0.001696	0.001645	28.0824	0.097037	0.002005	48.3934	-109.509	17.677	-0.098657	0.295462	-0.838640	-0.840017	-0.058128	48.3934	-0.837739	-1.461018E+11	3.978577E-13	NaN
434	1.000000	0.338834	7.3693e+06	-55389.1	1005.82	-29741.7	0.000000	0.000000	6.338848	0.022168	NaN	0.000000	0.001649	0.001699	28.0814	0.069298	0.002047	33.851	118.354	-163.155	-0.040759	0.337541	-0.796646	-0.797938	0.022168	33.851	-0.797137	-4.111462E+10	-5.391804E-13	NaN
434	1.000000	0.380877	7.36931e+06	-55389.1	1005.82	-29741.7	0.000000	0.000000	6.380891	0.025032	NaN	0.000000	0.001639	0.001665	28.0816	0.027954	0.002037	13.7245	134.274	15.7001	0.046912	0.379513	-0.754603	-0.755967	0.025032	13.7245	-0.755971	-1.133658E+10	-2.208116E-12	NaN
434	1.000000	0.422885	7.36931e+06	-55389.1	1005.82	-29741.7	0.000000	0.000000	6.422901	0.049546	NaN	0.000000	0.001629	0.001640	28.0814	0.049861	0.002013	24.7709	50.9145	-162.707	0.072406	0.421580	-0.712594	-0.713899	0.049546	24.7709	-0.714094	-3.047304E+9	-1.625896E-11	NaN
434	1.000000	0.464921	7.36931e+06	-55389.1	1005.82	-29741.7	0.000000	0.000000	6.464933	-0.037107	NaN	0.000000	0.001623	0.001573	28.0825	0.065544	0.002053	31.9184	-41.5203	17.8387	-0.008805	0.463544	-0.670559	-0.671935	-0.037107	31.9184	-0.669687	-7.535351E+8	4.924424E-11	NaN
434	1.000000	0.506914	7.36931e+06	-55389.1	1005.82	-29741.7	0.000000	0.000000	6.506927	-0.017011	NaN	0.000000	0.001685	0.001598	28.0828	0.021486	0.001930	11.135	66.7742	-163.24	-0.070383	0.505617	-0.628566	-0.629862	-0.017011	11.135	-0.627420	-1.984208E+8	8.573002E-11	NaN
434	1.000000	0.548953	7.36931e+06	-55389.1	1005.82	-29741.7	0.000000	0.000000	6.548967	0.007377	NaN	0.000000	0.001615	0.001677	28.0826	0.039387	0.002095	18.797	-111.926	12.8831	0.030650	0.547508	-0.586526	-0.587972	0.007377	18.797	-0.586820	-5.480542E+7	-1.346114E-10	NaN
434	1.000000	0.590929	7.36931e+06	-55389.1	1005.82	-29741.7	0.000000	0.000000	6.590942	-0.030837	NaN	0.000000	0.001704	0.001629	28.0821	0.041435	0.002142	19.3458	30.2886	-164.305	0.025858	0.589640	-0.544550	-0.545840	-0.030837	19.3458	-0.543355	-1.373639E+7	2.244889E-9	NaN
434	1.000000	0.632986	7.36931e+06	-55389.1	1005.82	-29741.7	0.000000	0.000000	6.633000	0.009216	NaN	0.000000	0.001614	0.001640	28.0815	0.070829	0.002035	34.8133	-147.236	16.0907	-0.036211	0.631579	-0.502493	-0.503900	0.009216	34.8133	-0.502692	-3.73737e+06	-2.465983E-9	NaN
434	1.000000	0.674978	7.36931e+06	-55389.1	1005.82	-29741.7	0.000000	0.000000	6.674995	0.084423	NaN	0.000000	0.001669	0.001722	28.0815	0.068266	0.002026	33.6901	-41.3408	-167.682	0.077421	0.673685	-0.460502	-0.461795	0.084423	33.6901	-0.462381	-1.0197e+06	-8.279189E-8	NaN
434	1.000000	0.716982	7.36931e+06	-55389.1	1005.82	-29741.7	0.000000	0.000000	6.717000	0.088250	NaN	0.000000	0.001676	0.001794	28.0815	0.095890	0.001912	50.1473	171.242	15.473	0.065363	0.715660	-0.418497	-0.419820	0.088250	50.1473	-0.419817	-255752	-3.450619E-7	NaN
434	1.000000	0.759021	7.36931e+06	-55389.1	1005.82	-29741.7	0.000000	0.000000	6.759037	0.059699	NaN	0.000000	0.001590	0.001785	28.0828	0.115213	0.001998	57.6743	57.9725	-167.895	0.038899	0.757745	-0.376458	-0.377735	0.059699	57.6743	-0.377235	-63122.8	-9.457647E-7	NaN
434	1.000000	0.801057	7.36931e+06	-55389.1	1005.82	-29741.7	0.000000	0.000000	6.801074	0.081080	NaN	0.000000	0.001564	0.001778	28.0831	0.102458	0.002054	49.8704	-132.377	13.2561	0.045154	0.799712	-0.334423	-0.335768	0.081080	49.8704	-0.335642	-15774.9	-5.139812E-6	NaN
434	1.000000	0.843080	7.36931e+06	-55389.1	1005.82	-29741.7	0.000000	0.000000	6.843096	0.072413	NaN	0.000000	0.001552	0.001789	28.0826	0.041718	0.002008	20.7713	110.848	-163.288	0.040793	0.841739	-0.292400	-0.293740	0.072413	20.7713	-0.295014	-3965.56	-1.826058E-5	NaN
434	1.000000	0.885069	7.36931e+06	-55389.1	1005.82	-29741.7	0.000000	0.000000	6.885081	-0.042119	NaN	0.000000	0.001595	0.001781	28.0813	0.126339	0.001881	67.1729	173.594	15.7128	-0.054305	0.883701	-0.250410	-0.251778	-0.042119	67.1729	-0.249940	-820.417	5.133801E-5	NaN
434	1.000000	0.927109	7.36931e+06	-55389.1	1005.82	-29741.7	0.000000	0.000000	6.927121	-0.021450	NaN	0.000000	0.001618	0.001758	28.0838	0.034582	0.001927	17.9443	-123.998	-163.849	0.037457	0.925822	-0.208371	-0.209657	-0.021450	17.9443	-0.207474	-174.52	0.000123	NaN
434	1.000000	0.969111	7.36931e+06	-55389.1	1005.82	-29741.7	0.000000	0.000000	6.969126	0.040649	NaN	0.000000	0.001635	0.001811	28.0817	0.024450	0.001998	12.2369	-168.65	16.7242	-0.004115	0.967786	-0.166368	-0.167694	0.040649	12.2369	-0.168860	-39.2453	-0.001036	NaN
434	1.000000	1.011132	7.36931e+06	-55389.1	1005.82	-29741.7	0.000000	0.000000	7.011145	-0.010389	NaN	0.000000	0.001687	0.001765	28.0824	0.045373	0.001951	23.2525	-37.504	-164.994	0.034512	1.009834	-0.124347	-0.125645	-0.010389	23.2525	-0.124012	-5.813179	0.001787	NaN
434	1.000000	1.053119	7.36931e+06	-55389.1	1005.82	-29741.7	0.000000	0.000000	7.053134	0.047962	NaN	0.000000	0.001651	0.001824	28.0822	0.047509	0.002007	23.6668	-151.456	10.1127	0.088828	1.051793	-0.082361	-0.083687	0.047962	23.6668	-0.083881	-0.771771	-0.062145	NaN
434	1.000000	1.095173	7.36931e+06	-55389.1	1005.82	-29741.7	0.000000	0.000000	7.095189	0.041584	NaN	0.000000	0.001734	0.001772	28.0823	0.029013	0.001982	14.6356	-156.368	-163.908	0.003572	1.093908	-0.040306	-0.041572	0.041584	14.6356	-0.042437	-0.053657	-0.775005	NaN
434	1.000000	1.137168	7.36931e+06	-55389.1	1005.82	-29741.7	0.000000	0.000000	7.137222	0.974250	NaN	0.000000	0.001716	0.001727	28.0816	1.572299	0.001899	827.984	9.442064	13.7904	0.214092	1.135816	0.001689	0.000337	0.974250	827.984	0.000806	0.000612	1592.11	30580.6
434	2.000000	1.152778	7.36931e+06	-55389.1	1005.82	-29741.7	0.000000	0.000000	7.153730	22.8134	NaN	0.000000	0.001675	0.001776	28.0812	18.2859	0.001934	9453.36	6.305329	-173.85	22.2044	1.152433	0.017298	0.016954	22.8134	9453.36	0.015488	0.015942	1431.01	68404.7
434	2.000000	1.163268	7.36931e+06	-55389.1	1005.82	-29741.7	0.000000	0.000000	7.165450	52.7119	NaN	0.000000	0.001657	0.001793	28.0814	28.1505	0.001788	15747.2	6.593451	1.725551	53.4391	1.162828	0.027788	0.027349	52.7119	15747.2	0.025278	0.031523	1672.16	81033
434	2.000000	1.173723	7.36931e+06	-55389.1	1005.82	-29741.7	0.000000	0.000000	7.177558	92.8846	NaN	0.000000	0.001668	0.001791	28.0822	36.7791	0.001664	22108.3	2.608323	-178.395	93.0759	1.173353	0.038243	0.037874	92.8846	22108.3	0.035092	0.051962	1787.56	88611
434	2.000000	1.184191	7.36931e+06	-55389.1	1005.82	-29741.7	0.000000	0.000000	7.189834	136.839	NaN	0.000000	0.001604	0.001808	28.0829	47.4447	0.001780	26659.5	3.109095	-1.874711	135.539	1.183982	0.048712	0.048503	136.839	26659.5	0.044862	0.077196	1772.61	87665.2
434	2.000000	1.194641	7.36931e+06	-55389.1	1005.82	-29741.7	0.000000	0.000000	7.202587	192.841	NaN	0.000000	0.001654	0.001781	28.0824	59.3944	0.001814	32747.5	5.387756	175.352	189.247	1.194286	0.059161	0.058806	192.841	32747.5	0.054745	0.107641	1791.51	91192.9
434	2.000000	1.205150	7.36931e+06	-55389.1	1005.82	-29741.7	0.000000	0.000000	7.215586	253.351	NaN	0.000000	0.001641	0.001820	28.0829	67.9906	0.001746	38941	5.383800	-5.812203	251.269	1.204807	0.069671	0.069328	253.351	38941	0.064791	0.143547	1764.94	93904
434	2.000000	1.215582	7.36931e+06	-55389.1	1005.82	-29741.7	0.000000	0.000000	7.228675	317.947	NaN	0.000000	0.001682	0.001818	28.0817	77.7282	0.001771	43889.7	4.077957	174.465	314.016	1.215356	0.080103	0.079877	317.947	43889.7	0.074670	0.183600	1731.74	93583.5
434	2.000000	1.226151	7.36931e+06	-55389.1	1005.82	-29741.7	0.000000	0.000000	7.242182	389.364	NaN	0.000000	0.001698	0.001793	28.0816	86.6251	0.001721	50332	2.196372	-3.804865	389.379	1.225654	0.090671	0.090174	389.364	50332	0.084869	0.229779	1694.51	95931.8
434	2.000000	1.236644	7.36931e+06	-55389.1	1005.82	-29741.7	0.000000	0.000000	7.255761	464.388	NaN	0.000000	0.001723	0.001780	28.0816	97.3722	0.001841	52891.2	6.740827	170.158	463.961	1.236410	0.101164	0.100930	464.388	52891.2	0.094579	0.278207	1669.22	91616.3
434	2.000000	1.242608	7.36931e+06	-55389.1	1005.82	-29741.7	0.000000	0.000000	7.264449	530.619	NaN	0.000000	0.001613	0.001758	28.0818	102.458	0.001735	59055.3	7.116601	169.454	529.012	1.242265	0.107128	0.106786	530.619	59055.3	0.100389	0.309247	1715.84	97024.1