File: remote_trans/data/nanoindenter/0828-1/data/Data_2025-08-06,11h17m57s/2025-07-22_16-23-58_1_791.txt
2025-07-22, 16:23:58, 1
Index	Phase	Displacement	Time	Pos X	Pos Y	Pos Z	Rot A	Rot B	Piezo Z	Force A	Force B	Gripper	Voltage A	Voltage B	Temperature	Amplitude force	Amplitude pos	Stiffness	Phase shift	Phase excitation	Force A raw	Displacement raw	HMax	HMax raw	Real Force	Real Stiffness	Contact Depth	Area	Hardness	Reduced Mod.
[#]	[#]	[um]	[s]	[um]	[um]	[um]	[m°]	[m°]	[um]	[uN]	[uN]	[V]	[V]	[V]	[°C]	[uN]	[um]	[N/m]	[°]	[°]	[uN]	[um]	[um]	[um]	[uN]	[N/m]	[um]	[um^2]	[MPa]	[MPa]
791	1.000000	0.002559	7.37279e+06	-39689.1	1055.82	-29792.8	0.000000	0.000000	6.002804	-0.050174	NaN	0.000000	0.001574	0.001695	28.0833	0.069048	0.000956	72.2625	101.977	-162.904	0.002722	0.001264	-1.166731	-1.168025	-0.050174	72.2625	-1.166210	-3.873443E+15	1.295331E-17	NaN
791	1.000000	0.046491	7.37279e+06	-39689.1	1055.82	-29792.8	0.000000	0.000000	6.046737	-0.051115	NaN	0.000000	0.001677	0.001712	28.0834	0.069489	0.002004	34.6818	-35.6485	-164.248	-0.068336	0.045207	-1.122798	-1.124082	-0.051115	34.6818	-1.121693	-9.798994E+14	5.216364E-17	NaN
791	1.000000	0.090530	7.37279e+06	-39689.1	1055.82	-29792.8	0.000000	0.000000	6.090777	-0.001909	NaN	0.000000	0.001707	0.001664	28.0822	0.002166	0.001990	1.088464	19.7175	-166.978	-0.004701	0.089219	-1.078760	-1.080070	-0.001909	1.088464	-1.077445	-2.495718E+14	7.648231E-18	NaN
791	1.000000	0.134543	7.37279e+06	-39689.1	1055.82	-29792.8	0.000000	0.000000	6.134788	-0.065689	NaN	0.000000	0.001669	0.001691	28.0822	0.017087	0.002057	8.307359	-73.9869	-168.818	-0.036716	0.133198	-1.034747	-1.036092	-0.065689	8.307359	-1.028816	-5.540594E+13	1.185603E-15	NaN
791	1.000000	0.178533	7.37279e+06	-39689.1	1055.82	-29792.8	0.000000	0.000000	6.178779	-0.035348	NaN	0.000000	0.001637	0.001734	28.0827	0.053831	0.001962	27.4378	8.285841	-166.869	-0.025586	0.177192	-0.990757	-0.992097	-0.035348	27.4378	-0.989791	-1.653070E+13	2.138341E-15	NaN
791	1.000000	0.222558	7.37279e+06	-39689.1	1055.82	-29792.8	0.000000	0.000000	6.222806	0.010310	NaN	0.000000	0.001640	0.001713	28.0839	0.043034	0.001906	22.5793	-56.3143	-165.831	0.055323	0.221215	-0.946731	-0.948075	0.010310	22.5793	-0.947074	-4.390961E+12	-2.348062E-15	NaN
791	1.000000	0.266592	7.37279e+06	-39689.1	1055.82	-29792.8	0.000000	0.000000	6.266838	-0.033221	NaN	0.000000	0.001630	0.001696	28.0837	0.109746	0.001928	56.9308	-177.564	-169.499	-0.003674	0.265231	-0.902698	-0.904058	-0.033221	56.9308	-0.902260	-1.090440E+12	3.046552E-14	NaN
791	1.000000	0.310596	7.37279e+06	-39689.1	1055.82	-29792.8	0.000000	0.000000	6.310842	-0.030471	NaN	0.000000	0.001632	0.001733	28.0835	0.038774	0.002109	18.3856	-56.079	-167.292	0.064546	0.309293	-0.858694	-0.859997	-0.030471	18.3856	-0.857451	-2.701558E+11	1.127904E-13	NaN
791	1.000000	0.354634	7.37279e+06	-39689.1	1055.82	-29792.8	0.000000	0.000000	6.354878	-0.095350	NaN	0.000000	0.001744	0.001687	28.0824	0.022547	0.002013	11.2017	-126.509	-163.092	-0.113319	0.353312	-0.814655	-0.815977	-0.095350	11.2017	-0.808271	-5.822500E+10	1.637618E-12	NaN
791	1.000000	0.398654	7.37279e+06	-39689.1	1055.82	-29792.8	0.000000	0.000000	6.398901	-0.011401	NaN	0.000000	0.001656	0.001692	28.0823	0.082274	0.002097	39.2276	-31.7743	-168.278	-0.056678	0.397379	-0.770635	-0.771910	-0.011401	39.2276	-0.770417	-1.782296E+10	6.396941E-13	NaN
791	1.000000	0.442683	7.37279e+06	-39689.1	1055.82	-29792.8	0.000000	0.000000	6.442925	-0.120506	NaN	0.000000	0.001619	0.001742	28.0821	0.021839	0.001970	11.0882	-39.7073	-164.053	-0.094537	0.441325	-0.726607	-0.727965	-0.120506	11.0882	-0.718456	-3.494717E+9	3.448246E-11	NaN
791	1.000000	0.486675	7.37279e+06	-39689.1	1055.82	-29792.8	0.000000	0.000000	6.486921	-0.039504	NaN	0.000000	0.001693	0.001720	28.0835	0.057545	0.002025	28.4198	-127.733	-167.264	-0.058203	0.485355	-0.682614	-0.683935	-0.039504	28.4198	-0.681572	-1.095721E+9	3.605291E-11	NaN
791	1.000000	0.530679	7.37279e+06	-39689.1	1055.82	-29792.8	0.000000	0.000000	6.530923	-0.096938	NaN	0.000000	0.001607	0.001706	28.0834	0.065351	0.001939	33.7069	121.8	-164.983	-0.047684	0.529423	-0.638610	-0.639866	-0.096938	33.7069	-0.636453	-2.640096E+8	3.671756E-10	NaN
791	1.000000	0.574703	7.37279e+06	-39689.1	1055.82	-29792.8	0.000000	0.000000	6.574947	-0.090350	NaN	0.000000	0.001620	0.001740	28.0832	0.097591	0.001985	49.1523	-135.505	-164.967	-0.050957	0.573351	-0.594586	-0.595938	-0.090350	49.1523	-0.593208	-6.712496E+7	1.346000E-9	NaN
791	1.000000	0.618741	7.37279e+06	-39689.1	1055.82	-29792.8	0.000000	0.000000	6.618984	-0.110581	NaN	0.000000	0.001652	0.001682	28.0822	0.067882	0.001981	34.2748	-90.6985	-163.305	-0.023211	0.617441	-0.550548	-0.551848	-0.110581	34.2748	-0.548129	-1.599678E+7	6.912734E-9	NaN
791	1.000000	0.662762	7.37279e+06	-39689.1	1055.82	-29792.8	0.000000	0.000000	6.663007	-0.071378	NaN	0.000000	0.001616	0.001744	28.0821	0.022936	0.001959	11.7089	-84.1666	-164.906	0.027744	0.661479	-0.506527	-0.507810	-0.071378	11.7089	-0.501955	-3.65e+06	1.955556E-8	NaN
791	1.000000	0.706764	7.3728e+06	-39689.1	1055.82	-29792.8	0.000000	0.000000	6.707011	-0.019177	NaN	0.000000	0.001598	0.001708	28.0822	0.049865	0.001959	25.4501	-50.72	-166.324	-0.087476	0.705480	-0.462526	-0.463809	-0.019177	25.4501	-0.461960	-1.00592e+06	1.906387E-8	NaN
791	1.000000	0.750811	7.3728e+06	-39689.1	1055.82	-29792.8	0.000000	0.000000	6.751054	-0.113226	NaN	0.000000	0.001591	0.001675	28.0832	0.054748	0.001986	27.5629	-97.9417	-166.499	-0.085314	0.749522	-0.418479	-0.419768	-0.113226	27.5629	-0.415398	-221362	5.114964E-7	NaN
791	1.000000	0.794801	7.3728e+06	-39689.1	1055.82	-29792.8	0.000000	0.000000	6.795047	-0.051715	NaN	0.000000	0.001639	0.001703	28.0834	0.046807	0.001985	23.582	-130.987	-166.313	-0.027157	0.793529	-0.374488	-0.375761	-0.051715	23.582	-0.372844	-54583.2	9.474570E-7	NaN
791	1.000000	0.838811	7.3728e+06	-39689.1	1055.82	-29792.8	0.000000	0.000000	6.839056	-0.088165	NaN	0.000000	0.001631	0.001718	28.0833	0.031691	0.002046	15.4864	-49.0514	-164.436	-0.179976	0.837445	-0.330478	-0.331844	-0.088165	15.4864	-0.326208	-11478	7.681173E-6	NaN
791	1.000000	0.882863	7.3728e+06	-39689.1	1055.82	-29792.8	0.000000	0.000000	6.883110	-0.015601	NaN	0.000000	0.001621	0.001697	28.083	0.059133	0.001865	31.7036	-126.539	-167.865	-0.076427	0.881560	-0.286427	-0.287729	-0.015601	31.7036	-0.286058	-2911.8	5.357745E-6	NaN
791	1.000000	0.926875	7.3728e+06	-39689.1	1055.82	-29792.8	0.000000	0.000000	6.927120	-0.073723	NaN	0.000000	0.001601	0.001712	28.082	0.110320	0.002029	54.3753	-16.2918	-163.186	-0.041514	0.925548	-0.242414	-0.243741	-0.073723	54.3753	-0.241398	-604.46	0.000122	NaN
791	1.000000	0.970902	7.3728e+06	-39689.1	1055.82	-29792.8	0.000000	0.000000	6.971150	-0.010906	NaN	0.000000	0.001682	0.001687	28.0824	0.017188	0.001962	8.759288	-53.4266	-167.69	0.043035	0.969525	-0.198387	-0.199765	-0.010906	8.759288	-0.197453	-119.609	9.117967E-5	NaN
791	1.000000	1.014913	7.3728e+06	-39689.1	1055.82	-29792.8	0.000000	0.000000	7.015155	-0.145533	NaN	0.000000	0.001611	0.001686	28.0823	0.039573	0.001917	20.6451	-42.0943	-167.715	-0.116010	1.013611	-0.154376	-0.155678	-0.145533	20.6451	-0.149089	-17.4332	0.008348	NaN
791	1.000000	1.058917	7.3728e+06	-39689.1	1055.82	-29792.8	0.000000	0.000000	7.059163	-0.022323	NaN	0.000000	0.001609	0.001754	28.0836	0.066408	0.001968	33.746	173.3	-164.97	-0.031039	1.057586	-0.110373	-0.111703	-0.022323	33.746	-0.109877	-2.987260	0.007473	NaN
791	1.000000	1.102897	7.3728e+06	-39689.1	1055.82	-29792.8	0.000000	0.000000	7.103147	0.051573	NaN	0.000000	0.001629	0.001771	28.0834	0.087612	0.002085	42.0129	104.279	-168.659	0.027388	1.101608	-0.066392	-0.067681	0.051573	42.0129	-0.067313	-0.288546	-0.178734	NaN
791	1.000000	1.146938	7.3728e+06	-39689.1	1055.82	-29792.8	0.000000	0.000000	7.147188	0.054234	NaN	0.000000	0.001664	0.001755	28.0834	0.080798	0.001986	40.6743	9.002499	-165.807	0.001930	1.145637	-0.022352	-0.023652	0.054234	40.6743	-0.023352	-0.015291	-3.546786	NaN
791	2.000000	1.180492	7.3728e+06	-39689.1	1055.82	-29792.8	0.000000	0.000000	7.181301	13.6435	NaN	0.000000	0.001622	0.001760	28.0822	12.9828	0.001767	7345.53	5.178992	-173.566	13.6457	1.180150	0.011203	0.010861	13.6435	7345.53	0.009810	0.008971	1520.86	70856.2
791	2.000000	1.191483	7.3728e+06	-39689.1	1055.82	-29792.8	0.000000	0.000000	7.193328	38.8493	NaN	0.000000	0.001585	0.001748	28.0819	24.8998	0.001681	14809.3	5.859610	179.959	41.9689	1.191162	0.022194	0.021873	38.8493	14809.3	0.020226	0.022899	1696.52	89411.9
791	2.000000	1.202370	7.3728e+06	-39689.1	1055.82	-29792.9	0.000000	0.000000	7.205760	76.4552	NaN	0.000000	0.001616	0.001773	28.0824	35.6913	0.001748	20423.8	4.526505	178.159	74.4398	1.202060	0.033081	0.032771	76.4552	20423.8	0.030273	0.041311	1850.7	91806.6
791	2.000000	1.213346	7.3728e+06	-39689.1	1055.82	-29792.9	0.000000	0.000000	7.218796	126.607	NaN	0.000000	0.001597	0.001755	28.0833	47.5061	0.001797	26431.2	5.195702	175.251	124.164	1.213071	0.044056	0.043782	126.607	26431.2	0.040464	0.065232	1940.87	94549.7
791	2.000000	1.224342	7.3728e+06	-39689.1	1055.82	-29792.9	0.000000	0.000000	7.231795	175.318	NaN	0.000000	0.001615	0.001742	28.0833	57.8287	0.001814	31876.2	7.609707	171.667	173.934	1.223979	0.055053	0.054690	175.318	31876.2	0.050928	0.095303	1839.59	94338
791	2.000000	1.235348	7.3728e+06	-39689.1	1055.82	-29792.9	0.000000	0.000000	7.245237	234.612	NaN	0.000000	0.001599	0.001764	28.0833	67.1863	0.001701	39506.5	4.836166	172.669	233.425	1.234956	0.066059	0.065666	234.612	39506.5	0.061605	0.131627	1782.4	99487.9
791	2.000000	1.246311	7.3728e+06	-39689.1	1055.82	-29792.9	0.000000	0.000000	7.259069	304.429	NaN	0.000000	0.001641	0.001753	28.0823	77.2512	0.001843	41908.5	2.999547	174.203	301.322	1.246021	0.077021	0.076732	304.429	41908.5	0.071573	0.170547	1785.02	92715.7
791	2.000000	1.257238	7.3728e+06	-39689.1	1055.82	-29792.9	0.000000	0.000000	7.273254	383.713	NaN	0.000000	0.001619	0.001756	28.0822	88.5601	0.001835	48265.3	5.743937	170.78	378.525	1.256941	0.087948	0.087651	383.713	48265.3	0.081986	0.216233	1774.54	94830.4
791	2.000000	1.268234	7.3728e+06	-39689.1	1055.82	-29792.9	0.000000	0.000000	7.287449	461.547	NaN	0.000000	0.001614	0.001701	28.0818	96.8617	0.001788	54158.8	3.939213	171.661	457.723	1.267967	0.098945	0.098678	461.547	54158.8	0.092553	0.267747	1723.82	95626.9
791	2.000000	1.275426	7.3728e+06	-39689.1	1055.82	-29792.9	0.000000	0.000000	7.296803	514.177	NaN	0.000000	0.001633	0.001742	28.0832	103.745	0.001724	60165.8	6.138322	168.711	519.257	1.274962	0.106136	0.105673	514.177	60165.8	0.099727	0.305631	1682.35	99431.6