File: remote_trans/data/nanoindenter/0828-1/data/Data_2025-08-06,11h17m57s/2025-07-22_16-23-58_1_567.txt
2025-07-22, 16:23:58, 1
Index	Phase	Displacement	Time	Pos X	Pos Y	Pos Z	Rot A	Rot B	Piezo Z	Force A	Force B	Gripper	Voltage A	Voltage B	Temperature	Amplitude force	Amplitude pos	Stiffness	Phase shift	Phase excitation	Force A raw	Displacement raw	HMax	HMax raw	Real Force	Real Stiffness	Contact Depth	Area	Hardness	Reduced Mod.
[#]	[#]	[um]	[s]	[um]	[um]	[um]	[m°]	[m°]	[um]	[uN]	[uN]	[V]	[V]	[V]	[°C]	[uN]	[um]	[N/m]	[°]	[°]	[uN]	[um]	[um]	[um]	[uN]	[N/m]	[um]	[um^2]	[MPa]	[MPa]
567	1.000000	0.002274	7.37059e+06	-48739.1	1005.82	-29761.4	0.000000	0.000000	6.002780	0.057264	NaN	0.000000	0.001567	0.001700	28.0819	0.104930	0.000958	109.53	129.073	-163.007	0.034291	0.001021	-1.036576	-1.037829	0.057264	109.53	-1.036968	-7.131808E+13	-8.029399E-16	NaN
567	1.000000	0.042264	7.37059e+06	-48739.1	1005.82	-29761.4	0.000000	0.000000	6.042770	0.032861	NaN	0.000000	0.001555	0.001704	28.0821	0.122329	0.002062	59.3167	155.033	-167.206	0.052146	0.040938	-0.996586	-0.997912	0.032861	59.3167	-0.997001	-2.067244E+13	-1.589609E-15	NaN
567	1.000000	0.082228	7.37059e+06	-48739.1	1005.82	-29761.4	0.000000	0.000000	6.082734	0.051242	NaN	0.000000	0.001602	0.001714	28.082	0.056320	0.001941	29.0163	173.124	-166.37	0.035332	0.080925	-0.956622	-0.957924	0.051242	29.0163	-0.957946	-6.154321E+12	-8.326210E-15	NaN
567	1.000000	0.122268	7.37059e+06	-48739.1	1005.82	-29761.4	0.000000	0.000000	6.122774	0.045390	NaN	0.000000	0.001611	0.001698	28.0807	0.129857	0.001988	65.3259	134.677	-165.422	0.137107	0.120976	-0.916582	-0.917874	0.045390	65.3259	-0.917103	-1.730179E+12	-2.623406E-14	NaN
567	1.000000	0.162284	7.37059e+06	-48739.1	1005.82	-29761.4	0.000000	0.000000	6.162788	-0.011600	NaN	0.000000	0.001571	0.001686	28.0807	0.058896	0.002068	28.4848	-137.295	-166.369	-0.044168	0.160994	-0.876565	-0.877856	-0.011600	28.4848	-0.876260	-4.854280E+11	2.389574E-14	NaN
567	1.000000	0.202304	7.37059e+06	-48739.1	1005.82	-29761.4	0.000000	0.000000	6.202808	-0.010432	NaN	0.000000	0.001581	0.001698	28.0807	0.037194	0.002071	17.9627	4.007572	-165.145	-0.060125	0.201030	-0.836546	-0.837820	-0.010432	17.9627	-0.836110	-1.388650E+11	7.512103E-14	NaN
567	1.000000	0.242340	7.37059e+06	-48739.1	1005.82	-29761.4	0.000000	0.000000	6.242844	0.010690	NaN	0.000000	0.001641	0.001670	28.0819	0.032128	0.001988	16.1576	139.758	-165.145	0.015521	0.241022	-0.796510	-0.797828	0.010690	16.1576	-0.797006	-4.094701E+10	-2.610699E-13	NaN
567	1.000000	0.282339	7.37059e+06	-48739.1	1005.82	-29761.4	0.000000	0.000000	6.282843	0.013959	NaN	0.000000	0.001616	0.001687	28.082	0.112191	0.002061	54.4438	131.875	-166.054	0.027733	0.281013	-0.756511	-0.757836	0.013959	54.4438	-0.756703	-1.159982E+10	-1.203368E-12	NaN
567	1.000000	0.322366	7.37059e+06	-48739.1	1005.82	-29761.4	0.000000	0.000000	6.322868	-0.053133	NaN	0.000000	0.001618	0.001701	28.0819	0.115001	0.002095	54.8877	-85.0505	-161.14	0.074797	0.321069	-0.716484	-0.717781	-0.053133	54.8877	-0.715758	-3.210754E+9	1.654839E-11	NaN
567	1.000000	0.362354	7.37059e+06	-48739.1	1005.82	-29761.4	0.000000	0.000000	6.362860	0.030611	NaN	0.000000	0.001555	0.001678	28.0813	0.112062	0.002119	52.8857	-67.5343	-165.719	0.037520	0.361071	-0.676495	-0.677779	0.030611	52.8857	-0.676930	-9.466914E+8	-3.233512E-11	NaN
567	1.000000	0.402395	7.3706e+06	-48739.1	1005.82	-29761.4	0.000000	0.000000	6.402901	0.053826	NaN	0.000000	0.001583	0.001683	28.0807	0.067934	0.001993	34.0929	-136.97	-162.703	0.062557	0.401098	-0.636455	-0.637751	0.053826	34.0929	-0.637639	-2.740904E+8	-1.963798E-10	NaN
567	1.000000	0.442374	7.3706e+06	-48739.1	1005.82	-29761.4	0.000000	0.000000	6.442881	0.056892	NaN	0.000000	0.001551	0.001652	28.0807	0.055301	0.002042	27.0852	-72.0909	-164.927	0.021987	0.441115	-0.596476	-0.597735	0.056892	27.0852	-0.598051	-7.827362E+7	-7.268405E-10	NaN
567	1.000000	0.482409	7.3706e+06	-48739.1	1005.82	-29761.4	0.000000	0.000000	6.482912	-0.029144	NaN	0.000000	0.001548	0.001708	28.0805	0.089883	0.001978	45.4312	-8.010062	-166.508	-0.121106	0.481114	-0.556441	-0.557736	-0.029144	45.4312	-0.555960	-2.053412E+7	1.419299E-9	NaN
567	1.000000	0.522422	7.3706e+06	-48739.1	1005.82	-29761.4	0.000000	0.000000	6.522925	-0.014049	NaN	0.000000	0.001528	0.001650	28.0817	0.066469	0.001867	35.6099	-36.9758	-164.788	-0.000640	0.521071	-0.516428	-0.517779	-0.014049	35.6099	-0.516132	-5.7516e+06	2.442606E-9	NaN
567	1.000000	0.562445	7.3706e+06	-48739.1	1005.82	-29761.4	0.000000	0.000000	6.562951	0.046523	NaN	0.000000	0.001559	0.001705	28.0815	0.082590	0.001998	41.3446	-118.155	-166.282	0.002797	0.561168	-0.476405	-0.477682	0.046523	41.3446	-0.477249	-1.64818e+06	-2.822701E-8	NaN
567	1.000000	0.602472	7.3706e+06	-48739.1	1005.82	-29761.4	0.000000	0.000000	6.602976	0.008863	NaN	0.000000	0.001537	0.001698	28.0813	0.007831	0.001950	4.015292	104.703	-168.151	0.033243	0.601177	-0.436378	-0.437673	0.008863	4.015292	-0.438034	-463026	-1.914198E-8	NaN
567	1.000000	0.642502	7.3706e+06	-48739.1	1005.82	-29761.4	0.000000	0.000000	6.643008	0.043986	NaN	0.000000	0.001609	0.001703	28.08	0.151362	0.001991	76.0257	-22.1606	-158.312	0.073805	0.641123	-0.396347	-0.397726	0.043986	76.0257	-0.396781	-120246	-3.657985E-7	NaN
567	1.000000	0.682514	7.3706e+06	-48739.1	1005.82	-29761.4	0.000000	0.000000	6.683021	0.045478	NaN	0.000000	0.001543	0.001709	28.0799	0.046532	0.002005	23.2136	76.8216	-163.839	-0.024787	0.681204	-0.356335	-0.357646	0.045478	23.2136	-0.357805	-33120.6	-1.373092E-6	NaN
567	1.000000	0.722520	7.3706e+06	-48739.1	1005.82	-29761.4	0.000000	0.000000	6.723025	0.012805	NaN	0.000000	0.001517	0.001700	28.08	0.055466	0.001992	27.8505	129.602	-164.072	-0.012965	0.721239	-0.316330	-0.317611	0.012805	27.8505	-0.316675	-8311.01	-1.540719E-6	NaN
567	1.000000	0.762555	7.3706e+06	-48739.1	1005.82	-29761.4	0.000000	0.000000	6.763059	-0.014830	NaN	0.000000	0.001588	0.001689	28.0802	0.127000	0.001842	68.9485	-49.9846	-162.109	0.005018	0.761218	-0.276295	-0.277632	-0.014830	68.9485	-0.276133	-2063.27	7.187724E-6	NaN
567	1.000000	0.802542	7.3706e+06	-48739.1	1005.82	-29761.4	0.000000	0.000000	6.803049	0.047186	NaN	0.000000	0.001578	0.001688	28.0812	0.083339	0.001877	44.3885	156.933	-168.899	0.045697	0.801267	-0.236307	-0.237583	0.047186	44.3885	-0.237105	-517.917	-9.110738E-5	NaN
567	1.000000	0.842583	7.3706e+06	-48739.1	1005.82	-29761.4	0.000000	0.000000	6.843087	-0.010969	NaN	0.000000	0.001579	0.001691	28.0814	0.080233	0.001834	43.7524	-97.8937	-164.714	-0.015856	0.841264	-0.196267	-0.197586	-0.010969	43.7524	-0.196079	-113.515	9.662959E-5	NaN
567	1.000000	0.882587	7.3706e+06	-48739.1	1005.82	-29761.4	0.000000	0.000000	6.883091	-0.004293	NaN	0.000000	0.001554	0.001730	28.0813	0.124272	0.002052	60.5647	-153.169	-167.135	0.051603	0.881280	-0.156263	-0.157570	-0.004293	60.5647	-0.156210	-23.4594	0.000183	NaN
567	1.000000	0.922597	7.3706e+06	-48739.1	1005.82	-29761.4	0.000000	0.000000	6.923100	-0.028563	NaN	0.000000	0.001646	0.001707	28.0801	0.021587	0.001980	10.9046	119.016	-164.084	-0.019957	0.921349	-0.116253	-0.117501	-0.028563	10.9046	-0.114288	-3.693248	0.007734	NaN
567	1.000000	0.962614	7.3706e+06	-48739.1	1005.82	-29761.4	0.000000	0.000000	6.963118	-0.009423	NaN	0.000000	0.001585	0.001689	28.0801	0.071103	0.002095	33.9423	-162.807	-164.619	0.071045	0.961277	-0.076236	-0.077573	-0.009423	33.9423	-0.076027	-0.490914	0.019195	NaN
567	1.000000	1.002646	7.3706e+06	-48739.1	1005.82	-29761.4	0.000000	0.000000	7.003152	0.041315	NaN	0.000000	0.001630	0.001673	28.0801	0.019127	0.002038	9.385039	-107.905	-162.398	0.035728	1.001309	-0.036203	-0.037541	0.041315	9.385039	-0.039505	-0.043685	-0.945735	NaN
567	1.000000	1.042614	7.3706e+06	-48739.1	1005.82	-29761.4	0.000000	0.000000	7.043395	6.721900	NaN	0.000000	0.001564	0.001720	28.08	6.838754	0.001734	3943.91	8.476368	-171.116	4.369718	1.041313	0.003764	0.002463	6.721900	3943.91	0.002486	0.001952	3443.94	81560.9
567	2.000000	1.054098	7.3706e+06	-48739.1	1005.82	-29761.4	0.000000	0.000000	7.055711	26.9593	NaN	0.000000	0.001534	0.001693	28.0811	19.1285	0.001907	10029.5	6.853822	-176.901	25.5584	1.053835	0.015248	0.014985	26.9593	10029.5	0.013232	0.013000	2073.87	80369.3
567	2.000000	1.064078	7.3706e+06	-48739.1	1005.82	-29761.4	0.000000	0.000000	7.066778	53.4071	NaN	0.000000	0.001548	0.001741	28.0812	28.0336	0.001792	15643.5	4.278400	-177.607	50.7636	1.063736	0.025228	0.024886	53.4071	15643.5	0.022667	0.026908	1984.78	87129.5
567	2.000000	1.074065	7.3706e+06	-48739.1	1005.82	-29761.4	0.000000	0.000000	7.077978	82.9147	NaN	0.000000	0.001551	0.001724	28.0811	37.9115	0.001898	19969.5	5.206707	179.033	80.4632	1.073836	0.035215	0.034986	82.9147	19969.5	0.032101	0.045211	1833.95	85806.1
567	2.000000	1.084117	7.3706e+06	-48739.1	1005.82	-29761.4	0.000000	0.000000	7.089830	126.678	NaN	0.000000	0.001610	0.001704	28.0798	45.9574	0.001816	25313.1	9.139023	175.189	129.1	1.083678	0.045268	0.044828	126.678	25313.1	0.041514	0.068001	1862.9	88687.5
567	2.000000	1.094037	7.3706e+06	-48739.1	1005.82	-29761.4	0.000000	0.000000	7.101483	168.82	NaN	0.000000	0.001540	0.001686	28.0798	54.7952	0.001857	29508.7	4.944098	175.468	167.049	1.093751	0.055188	0.054901	168.82	29508.7	0.050897	0.095206	1773.22	87376.1
567	2.000000	1.103997	7.3706e+06	-48739.1	1005.82	-29761.4	0.000000	0.000000	7.113669	222.969	NaN	0.000000	0.001546	0.001680	28.0801	62.5945	0.001753	35710.6	3.851930	175.613	220.099	1.103751	0.065147	0.064902	222.969	35710.6	0.060464	0.127479	1749.06	91380.2
567	2.000000	1.113985	7.3706e+06	-48739.1	1005.82	-29761.4	0.000000	0.000000	7.126232	285.601	NaN	0.000000	0.001582	0.001667	28.0813	72.2478	0.001715	42137.6	2.517045	175.658	282.892	1.113740	0.075136	0.074890	285.601	42137.6	0.070052	0.164300	1738.29	94978.2
567	2.000000	1.123963	7.3706e+06	-48739.1	1005.82	-29761.4	0.000000	0.000000	7.139028	354.12	NaN	0.000000	0.001506	0.001688	28.0814	84.3336	0.001795	46980.8	6.054941	171.104	351.465	1.123800	0.085113	0.084951	354.12	46980.8	0.079460	0.204686	1730.07	94874.5
567	2.000000	1.133923	7.3706e+06	-48739.1	1005.82	-29761.4	0.000000	0.000000	7.152482	439.11	NaN	0.000000	0.001551	0.001689	28.0812	92.1704	0.001668	55273.7	4.594456	171.654	433.729	1.133602	0.095074	0.094752	439.11	55273.7	0.089116	0.250425	1753.46	100915
567	2.000000	1.143025	7.3706e+06	-48739.1	1005.82	-29761.4	0.000000	0.000000	7.164387	507.285	NaN	0.000000	0.001551	0.001626	28.0816	99.3371	0.001726	57540	0.319249	176.029	507.49	1.142706	0.104175	0.103856	507.285	57540	0.097563	0.293957	1725.71	96961.9