File: remote_trans/data/nanoindenter/0828-1/data/Data_2025-08-06,11h17m57s/2025-07-22_16-23-58_1_214.txt
2025-07-22, 16:23:58, 1
Index	Phase	Displacement	Time	Pos X	Pos Y	Pos Z	Rot A	Rot B	Piezo Z	Force A	Force B	Gripper	Voltage A	Voltage B	Temperature	Amplitude force	Amplitude pos	Stiffness	Phase shift	Phase excitation	Force A raw	Displacement raw	HMax	HMax raw	Real Force	Real Stiffness	Contact Depth	Area	Hardness	Reduced Mod.
[#]	[#]	[um]	[s]	[um]	[um]	[um]	[m°]	[m°]	[um]	[uN]	[uN]	[V]	[V]	[V]	[°C]	[uN]	[um]	[N/m]	[°]	[°]	[uN]	[um]	[um]	[um]	[uN]	[N/m]	[um]	[um^2]	[MPa]	[MPa]
214	1.000000	0.002767	7.36714e+06	-49339.1	955.818	-29759.7	0.000000	0.000000	6.002791	-0.019630	NaN	0.000000	0.001632	0.001655	28.0785	0.089724	0.001020	87.9866	-62.3794	-169.826	0.015386	0.001536	-1.085114	-1.086346	-0.019630	87.9866	-1.084947	-3.147455E+14	6.236793E-17	NaN
214	1.000000	0.042742	7.36714e+06	-49339.1	955.819	-29759.7	0.000000	0.000000	6.042768	0.024819	NaN	0.000000	0.001574	0.001655	28.0786	0.081672	0.002076	39.3369	150.278	-166.982	0.028249	0.041459	-1.045139	-1.046423	0.024819	39.3369	-1.045612	-9.320279E+13	-2.662956E-16	NaN
214	1.000000	0.082741	7.36714e+06	-49339.1	955.818	-29759.7	0.000000	0.000000	6.082769	0.062489	NaN	0.000000	0.001572	0.001700	28.0798	0.045152	0.001929	23.4039	69.5296	-167.801	0.122471	0.081433	-1.005140	-1.006448	0.062489	23.4039	-1.007143	-2.830896E+13	-2.207386E-15	NaN
214	1.000000	0.122756	7.36714e+06	-49339.1	955.819	-29759.7	0.000000	0.000000	6.122785	0.086973	NaN	0.000000	0.001617	0.001631	28.0796	0.037541	0.001954	19.2084	-151.091	-166.583	0.000322	0.121416	-0.965125	-0.966466	0.086973	19.2084	-0.968521	-8.545372E+12	-1.017783E-14	NaN
214	1.000000	0.162757	7.36714e+06	-49339.1	955.819	-29759.7	0.000000	0.000000	6.162783	0.028641	NaN	0.000000	0.001627	0.001652	28.0794	0.095162	0.001924	49.4495	-156.444	-165.073	0.037780	0.161458	-0.925124	-0.926423	0.028641	49.4495	-0.925559	-2.250359E+12	-1.272736E-14	NaN
214	1.000000	0.202776	7.36714e+06	-49339.1	955.818	-29759.7	0.000000	0.000000	6.202799	-0.035450	NaN	0.000000	0.001643	0.001663	28.0778	0.063880	0.001880	33.9751	-11.625	-168.078	0.007573	0.201447	-0.885105	-0.886434	-0.035450	33.9751	-0.884323	-6.239700E+11	5.681424E-14	NaN
214	1.000000	0.242774	7.36714e+06	-49339.1	955.818	-29759.7	0.000000	0.000000	6.242802	0.089675	NaN	0.000000	0.001609	0.001689	28.0774	0.122496	0.002028	60.4092	34.7531	-167.091	0.050703	0.241517	-0.845108	-0.846365	0.089675	60.4092	-0.846221	-1.903535E+11	-4.710990E-13	NaN
214	1.000000	0.282815	7.36714e+06	-49339.1	955.817	-29759.7	0.000000	0.000000	6.282841	0.020587	NaN	0.000000	0.001641	0.001631	28.0776	0.109991	0.001991	55.2458	-107.785	-166.606	0.036977	0.281524	-0.805066	-0.806358	0.020587	55.2458	-0.805346	-5.313936E+10	-3.874122E-13	NaN
214	1.000000	0.322844	7.36714e+06	-49339.1	955.819	-29759.7	0.000000	0.000000	6.322873	0.089665	NaN	0.000000	0.001622	0.001654	28.0778	0.016833	0.001996	8.435003	-41.5331	-168.204	0.118236	0.321512	-0.765037	-0.766369	0.089665	8.435003	-0.773010	-1.932959E+10	-4.638719E-12	NaN
214	1.000000	0.362858	7.36714e+06	-49339.1	955.818	-29759.7	0.000000	0.000000	6.362887	0.101568	NaN	0.000000	0.001662	0.001637	28.0791	0.021661	0.001978	10.949	-89.9538	-164.777	0.059203	0.361593	-0.725024	-0.726289	0.101568	10.949	-0.731981	-5.343238E+9	-1.900861E-11	NaN
214	1.000000	0.402860	7.36714e+06	-49339.1	955.819	-29759.7	0.000000	0.000000	6.402887	0.050178	NaN	0.000000	0.001564	0.001644	28.0791	0.093911	0.001939	48.4366	83.0264	-168.415	0.121873	0.401594	-0.685021	-0.686287	0.050178	48.4366	-0.685798	-1.251668E+9	-4.008912E-11	NaN
214	1.000000	0.442924	7.36714e+06	-49339.1	955.818	-29759.7	0.000000	0.000000	6.442949	-0.001633	NaN	0.000000	0.001616	0.001655	28.0794	0.059518	0.002046	29.0857	-141.367	-164.698	-0.006959	0.441609	-0.644957	-0.646273	-0.001633	29.0857	-0.644915	-3.449167E+8	4.735555E-12	NaN
214	1.000000	0.482904	7.36714e+06	-49339.1	955.818	-29759.7	0.000000	0.000000	6.482928	-0.003524	NaN	0.000000	0.001637	0.001669	28.0783	0.058647	0.002100	27.9302	-105.299	-169.254	0.025603	0.481613	-0.604978	-0.606268	-0.003524	27.9302	-0.604883	-9.720616E+7	3.625661E-11	NaN
214	1.000000	0.522946	7.36714e+06	-49339.1	955.819	-29759.7	0.000000	0.000000	6.522973	0.050506	NaN	0.000000	0.001690	0.001677	28.078	0.137516	0.001986	69.2281	155.964	-168.134	0.082322	0.521570	-0.564935	-0.566311	0.050506	69.2281	-0.565483	-2.780982E+7	-1.816133E-9	NaN
214	1.000000	0.562901	7.36714e+06	-49339.1	955.817	-29759.7	0.000000	0.000000	6.562926	0.002388	NaN	0.000000	0.001629	0.001690	28.0778	0.048492	0.001932	25.098	16.0686	-168.089	0.086687	0.561681	-0.524981	-0.526201	0.002388	25.098	-0.525052	-7.653e+06	-3.120199E-10	NaN
214	1.000000	0.602961	7.36714e+06	-49339.1	955.818	-29759.7	0.000000	0.000000	6.602984	-0.039071	NaN	0.000000	0.001646	0.001726	28.0792	0.007094	0.002043	3.471571	-44.684	-169.006	-0.011699	0.601648	-0.484920	-0.486233	-0.039071	3.471571	-0.476480	-1.60779e+06	2.430102E-8	NaN
214	1.000000	0.642992	7.36714e+06	-49339.1	955.818	-29759.7	0.000000	0.000000	6.643016	-0.008183	NaN	0.000000	0.001621	0.001763	28.0792	0.069065	0.001964	35.1681	163.554	-167	0.058990	0.641659	-0.444890	-0.446223	-0.008183	35.1681	-0.444715	-575274	1.422477E-8	NaN
214	1.000000	0.682969	7.36714e+06	-49339.1	955.818	-29759.7	0.000000	0.000000	6.682996	0.049111	NaN	0.000000	0.001651	0.001720	28.0792	0.062100	0.001926	32.2366	-117.041	-166.747	0.033614	0.681676	-0.404912	-0.406206	0.049111	32.2366	-0.406055	-163031	-3.012375E-7	NaN
214	1.000000	0.722955	7.36714e+06	-49339.1	955.818	-29759.7	0.000000	0.000000	6.722982	0.035416	NaN	0.000000	0.001641	0.001736	28.079	0.048930	0.001933	25.309	167.171	-164.105	0.010358	0.721690	-0.364926	-0.366192	0.035416	25.309	-0.365976	-43463.7	-8.148457E-7	NaN
214	1.000000	0.763007	7.36714e+06	-49339.1	955.818	-29759.7	0.000000	0.000000	6.763032	0.004380	NaN	0.000000	0.001636	0.001723	28.0778	0.051418	0.002188	23.505	-70.3487	-165.97	0.051799	0.761754	-0.324874	-0.326128	0.004380	23.505	-0.325014	-11024.2	-3.972803E-7	NaN
214	1.000000	0.803051	7.36714e+06	-49339.1	955.817	-29759.7	0.000000	0.000000	6.803078	0.056660	NaN	0.000000	0.001595	0.001712	28.0778	0.052684	0.001997	26.3809	138.928	-166.464	0.104787	0.801700	-0.284831	-0.286181	0.056660	26.3809	-0.286442	-2950.74	-1.920204E-5	NaN
214	1.000000	0.843073	7.36714e+06	-49339.1	955.819	-29759.7	0.000000	0.000000	6.843098	0.016775	NaN	0.000000	0.001651	0.001749	28.0777	0.118342	0.002038	58.0562	115.168	-165.7	0.019350	0.841704	-0.244809	-0.246178	0.016775	58.0562	-0.245026	-688.418	-2.436815E-5	NaN
214	1.000000	0.883063	7.36714e+06	-49339.1	955.818	-29759.7	0.000000	0.000000	6.883088	0.006255	NaN	0.000000	0.001624	0.001652	28.0791	0.118258	0.002057	57.4839	124.244	-169.707	-0.014922	0.881725	-0.204818	-0.206157	0.006255	57.4839	-0.204900	-158.463	-3.947391E-5	NaN
214	1.000000	0.923076	7.36714e+06	-49339.1	955.819	-29759.7	0.000000	0.000000	6.923104	0.064286	NaN	0.000000	0.001620	0.001693	28.0791	0.078063	0.001907	40.9255	155.068	-167.235	0.008984	0.921743	-0.164805	-0.166139	0.064286	40.9255	-0.165983	-34.9586	-0.001839	NaN
214	1.000000	0.963121	7.36714e+06	-49339.1	955.818	-29759.7	0.000000	0.000000	6.963145	0.000317	NaN	0.000000	0.001643	0.001716	28.0791	0.052423	0.001993	26.299	34.1601	-168.992	0.098584	0.961790	-0.124761	-0.126092	0.000317	26.299	-0.124770	-6.017813	-5.266133E-5	NaN
214	1.000000	1.003133	7.36714e+06	-49339.1	955.818	-29759.7	0.000000	0.000000	7.003158	0.024250	NaN	0.000000	0.001632	0.001715	28.0795	0.027473	0.001904	14.4277	15.4427	-164.615	-0.001053	1.001820	-0.084749	-0.086062	0.024250	14.4277	-0.086009	-0.869024	-0.027905	NaN
214	1.000000	1.043151	7.36714e+06	-49339.1	955.82	-29759.7	0.000000	0.000000	7.043177	0.036793	NaN	0.000000	0.001728	0.001762	28.078	0.069258	0.001999	34.6409	175.06	-167.296	0.029060	1.041836	-0.044731	-0.046046	0.036793	34.6409	-0.045527	-0.066698	-0.551633	NaN
214	1.000000	1.083142	7.36714e+06	-49339.1	955.818	-29759.7	0.000000	0.000000	7.083170	0.065174	NaN	0.000000	0.001646	0.001726	28.0779	0.018021	0.001862	9.678294	-58.9724	-167.305	0.052855	1.081859	-0.004739	-0.006022	0.065174	9.678294	-0.009790	-0.006267	-10.3996	NaN
214	2.000000	1.101658	7.36714e+06	-49339.1	955.82	-29759.7	0.000000	0.000000	7.102499	19.8367	NaN	0.000000	0.001643	0.001715	28.0781	15.3392	0.001806	8494.28	6.035242	-175.848	19.2078	1.101311	0.013777	0.013429	19.8367	8494.28	0.012025	0.011520	1721.9	72305.1
214	2.000000	1.111612	7.36714e+06	-49339.1	955.819	-29759.7	0.000000	0.000000	7.113311	40.7348	NaN	0.000000	0.001655	0.001713	28.0793	23.7689	0.001768	13446.3	5.489746	-178.966	39.6445	1.111256	0.023730	0.023374	40.7348	13446.3	0.021458	0.024885	1636.9	77875.9
214	2.000000	1.121574	7.36714e+06	-49339.1	955.821	-29759.7	0.000000	0.000000	7.124448	69.2867	NaN	0.000000	0.001696	0.001722	28.0795	34.0746	0.001810	18825.4	5.513140	177.803	68.6494	1.121286	0.033693	0.033404	69.2867	18825.4	0.030932	0.042698	1622.72	83236.4
214	2.000000	1.131565	7.36714e+06	-49339.1	955.819	-29759.7	0.000000	0.000000	7.135778	101.857	NaN	0.000000	0.001639	0.001747	28.0794	43.8441	0.001837	23860.9	1.222845	-179.897	99.898	1.131312	0.043683	0.043431	101.857	23860.9	0.040482	0.065279	1560.33	85324.4
214	2.000000	1.141500	7.36714e+06	-49339.1	955.819	-29759.7	0.000000	0.000000	7.147734	151.022	NaN	0.000000	0.001664	0.001746	28.0788	52.6532	0.001826	28834.6	4.940359	174.624	147.542	1.141180	0.053618	0.053298	151.022	28834.6	0.049690	0.091457	1651.29	87112.2
214	2.000000	1.151536	7.36714e+06	-49339.1	955.82	-29759.7	0.000000	0.000000	7.159583	195.109	NaN	0.000000	0.001668	0.001740	28.0781	62.2348	0.001837	33873.3	3.758768	174.815	195.442	1.151309	0.063655	0.063427	195.109	33873.3	0.059335	0.123433	1580.69	88087.8
214	2.000000	1.161525	7.36715e+06	-49339.1	955.821	-29759.7	0.000000	0.000000	7.172272	260.789	NaN	0.000000	0.001643	0.001756	28.078	72.8453	0.001797	40544	4.420416	172.801	259.101	1.161180	0.073643	0.073299	260.789	40544	0.068819	0.159316	1636.93	92804.6
214	2.000000	1.171453	7.36715e+06	-49339.1	955.82	-29759.7	0.000000	0.000000	7.184860	325.461	NaN	0.000000	0.001672	0.001694	28.078	80.6635	0.001780	45327.9	1.837471	174.514	321.139	1.171288	0.083572	0.083406	325.461	45327.9	0.078187	0.198975	1635.69	92841
214	2.000000	1.181484	7.36715e+06	-49339.1	955.821	-29759.7	0.000000	0.000000	7.198276	407.794	NaN	0.000000	0.001651	0.001678	28.0793	90.8902	0.001803	50403	7.494320	169.281	406.59	1.181130	0.093602	0.093249	407.794	50403	0.087534	0.242640	1680.66	93486.4
214	2.000000	1.191550	7.36715e+06	-49339.1	955.82	-29759.7	0.000000	0.000000	7.211671	488.738	NaN	0.000000	0.001668	0.001689	28.0793	99.4694	0.001826	54481.7	4.905723	170.31	490.255	1.191203	0.103669	0.103321	488.738	54481.7	0.096941	0.290639	1681.6	92330.9
214	2.000000	1.192969	7.36715e+06	-49339.1	955.821	-29759.7	0.000000	0.000000	7.213758	505.007	NaN	0.000000	0.001653	0.001733	28.0795	99.7776	0.001727	57783.9	4.947414	-10.0652	499.647	1.192551	0.105087	0.104669	505.007	57783.9	0.098532	0.299160	1688.09	96522.5