File: remote_trans/data/nanoindenter/0828-1/data/Data_2025-08-06,11h17m57s/2025-07-22_16-23-58_1_269.txt
2025-07-22, 16:23:58, 1
Index	Phase	Displacement	Time	Pos X	Pos Y	Pos Z	Rot A	Rot B	Piezo Z	Force A	Force B	Gripper	Voltage A	Voltage B	Temperature	Amplitude force	Amplitude pos	Stiffness	Phase shift	Phase excitation	Force A raw	Displacement raw	HMax	HMax raw	Real Force	Real Stiffness	Contact Depth	Area	Hardness	Reduced Mod.
[#]	[#]	[um]	[s]	[um]	[um]	[um]	[m°]	[m°]	[um]	[uN]	[uN]	[V]	[V]	[V]	[°C]	[uN]	[um]	[N/m]	[°]	[°]	[uN]	[um]	[um]	[um]	[uN]	[N/m]	[um]	[um^2]	[MPa]	[MPa]
269	1.000000	0.002569	7.36768e+06	-52089.1	955.818	-29749.9	0.000000	0.000000	6.002823	-0.107996	NaN	0.000000	0.001627	0.001660	28.079	0.071036	0.000831	85.4438	-65.4019	-167.19	-0.095300	0.001278	-1.765205	-1.766496	-0.107996	85.4438	-1.764258	-3.628704E+23	2.976147E-25	NaN
269	1.000000	0.062486	7.36768e+06	-52089.1	955.818	-29749.9	0.000000	0.000000	6.062747	0.031124	NaN	0.000000	0.001615	0.001674	28.0777	0.123688	0.002066	59.8697	-107.888	-164.097	-0.085544	0.061192	-1.705288	-1.706582	0.031124	59.8697	-1.705678	-6.051499E+22	-5.143199E-25	NaN
269	1.000000	0.122517	7.36768e+06	-52089.1	955.817	-29749.9	0.000000	0.000000	6.122775	-0.002974	NaN	0.000000	0.001599	0.001672	28.0783	0.114257	0.001983	57.6237	-25.361	-166.863	-0.012027	0.121202	-1.645258	-1.646573	-0.002974	57.6237	-1.645219	-9.516578E+21	3.125042E-25	NaN
269	1.000000	0.182533	7.36768e+06	-52089.1	955.818	-29749.8	0.000000	0.000000	6.182791	-0.026428	NaN	0.000000	0.001573	0.001687	28.0779	0.039774	0.001834	21.6926	32.8182	-165.071	0.077575	0.181211	-1.585242	-1.586563	-0.026428	21.6926	-1.584328	-1.474892E+21	1.791833E-23	NaN
269	1.000000	0.242571	7.36769e+06	-52089.1	955.818	-29749.8	0.000000	0.000000	6.242827	-0.066441	NaN	0.000000	0.001672	0.001696	28.0791	0.094972	0.002049	46.3507	115.519	-167.213	-0.057852	0.241318	-1.525203	-1.526456	-0.066441	46.3507	-1.524128	-2.331347E+20	2.849913E-22	NaN
269	1.000000	0.302597	7.36769e+06	-52089.1	955.819	-29749.8	0.000000	0.000000	6.302855	-0.022053	NaN	0.000000	0.001609	0.001641	28.0791	0.089094	0.002045	43.5741	126.148	-163.589	-0.043339	0.301304	-1.465178	-1.466470	-0.022053	43.5741	-1.464798	-3.778845E+19	5.836000E-22	NaN
269	1.000000	0.362615	7.36769e+06	-52089.1	955.818	-29749.8	0.000000	0.000000	6.362873	-0.014231	NaN	0.000000	0.001675	0.001677	28.0778	0.085175	0.001948	43.7327	98.906	-165.703	0.015090	0.361381	-1.405159	-1.406393	-0.014231	43.7327	-1.404915	-6.012143E+18	2.367034E-21	NaN
269	1.000000	0.422645	7.36769e+06	-52089.1	955.818	-29749.8	0.000000	0.000000	6.422905	0.008717	NaN	0.000000	0.001676	0.001636	28.0778	0.034818	0.002010	17.3233	-19.4262	-164.367	-0.021081	0.421343	-1.345129	-1.346431	0.008717	17.3233	-1.345507	-9.688070E+17	-8.997971E-21	NaN
269	1.000000	0.482682	7.36769e+06	-52089.1	955.818	-29749.8	0.000000	0.000000	6.482941	-0.009001	NaN	0.000000	0.001661	0.001643	28.079	0.073507	0.001970	37.3129	-114.082	-163.589	-0.021301	0.481344	-1.285092	-1.286430	-0.009001	37.3129	-1.284911	-1.502239E+17	5.991855E-20	NaN
269	1.000000	0.542711	7.36769e+06	-52089.1	955.817	-29749.8	0.000000	0.000000	6.542970	-0.007270	NaN	0.000000	0.001668	0.001648	28.0792	0.071953	0.002042	35.2329	-63.2433	-167.323	0.048942	0.541372	-1.225063	-1.226402	-0.007270	35.2329	-1.224908	-2.366994E+16	3.071315E-19	NaN
269	1.000000	0.602686	7.36769e+06	-52089.1	955.819	-29749.8	0.000000	0.000000	6.602946	0.035161	NaN	0.000000	0.001667	0.001701	28.0784	0.065019	0.002052	31.6918	-103.092	-164.987	0.028805	0.601374	-1.165089	-1.166401	0.035161	31.6918	-1.165921	-3.839035E+15	-9.158769E-18	NaN
269	1.000000	0.662765	7.36769e+06	-52089.1	955.818	-29749.8	0.000000	0.000000	6.663024	0.008279	NaN	0.000000	0.001700	0.001648	28.0782	0.056444	0.001987	28.4101	166.677	-164.188	0.034023	0.661492	-1.105009	-1.106282	0.008279	28.4101	-1.105228	-5.891730E+14	-1.405175E-17	NaN
269	1.000000	0.722784	7.36769e+06	-52089.1	955.819	-29749.8	0.000000	0.000000	6.723043	0.016326	NaN	0.000000	0.001626	0.001635	28.0786	0.044981	0.002141	21.0102	-143.567	-160.969	0.005542	0.721408	-1.044991	-1.046366	0.016326	21.0102	-1.045573	-9.309055E+13	-1.753787E-16	NaN
269	1.000000	0.782803	7.36769e+06	-52089.1	955.818	-29749.8	0.000000	0.000000	6.783060	-0.033314	NaN	0.000000	0.001661	0.001625	28.0793	0.113056	0.001895	59.653	174.565	-165.534	0.016852	0.781521	-0.984972	-0.986254	-0.033314	59.653	-0.984553	-1.405210E+13	2.370726E-15	NaN
269	1.000000	0.842834	7.36769e+06	-52089.1	955.819	-29749.8	0.000000	0.000000	6.843092	-0.025723	NaN	0.000000	0.001656	0.001627	28.0792	0.133963	0.001982	67.5798	85.7722	-165.076	0.045049	0.841550	-0.924940	-0.926225	-0.025723	67.5798	-0.924655	-2.188013E+12	1.175624E-14	NaN
269	1.000000	0.902855	7.36769e+06	-52089.1	955.819	-29749.8	0.000000	0.000000	6.903113	-0.010078	NaN	0.000000	0.001606	0.001555	28.0779	0.038795	0.002045	18.9717	22.8603	-161.843	-0.027864	0.901521	-0.864920	-0.866254	-0.010078	18.9717	-0.864521	-3.367537E+11	2.992555E-14	NaN
269	1.000000	0.962867	7.36769e+06	-52089.1	955.819	-29749.8	0.000000	0.000000	6.963129	0.053644	NaN	0.000000	0.001583	0.001654	28.078	0.041710	0.002012	20.7312	-25.2334	-164.743	0.026009	0.961576	-0.804907	-0.806198	0.053644	20.7312	-0.806848	-5.569293E+10	-9.632055E-13	NaN
269	1.000000	1.022881	7.36769e+06	-52089.1	955.819	-29749.8	0.000000	0.000000	7.023140	-0.001533	NaN	0.000000	0.001599	0.001688	28.0795	0.067056	0.001817	36.9025	78.1398	-166.092	0.041754	1.021551	-0.744894	-0.746224	-0.001533	36.9025	-0.744862	-8.003397E+9	1.915236E-13	NaN
269	1.000000	1.082891	7.36769e+06	-52089.1	955.819	-29749.8	0.000000	0.000000	7.083151	0.005256	NaN	0.000000	0.001578	0.001667	28.0792	0.024657	0.002108	11.6975	-113.163	-165.944	0.069307	1.081650	-0.684883	-0.686124	0.005256	11.6975	-0.685220	-1.229086E+9	-4.276653E-12	NaN
269	1.000000	1.142948	7.36769e+06	-52089.1	955.82	-29749.8	0.000000	0.000000	7.143206	-0.010753	NaN	0.000000	0.001607	0.001667	28.0794	0.089429	0.001959	45.6586	116.602	-160.956	0.003722	1.141612	-0.624827	-0.626162	-0.010753	45.6586	-0.624650	-1.817763E+8	5.915448E-11	NaN
269	1.000000	1.202962	7.36769e+06	-52089.1	955.82	-29749.8	0.000000	0.000000	7.203222	0.037690	NaN	0.000000	0.001634	0.001718	28.0782	0.116313	0.001890	61.5425	-52.4177	-165.777	0.053599	1.201664	-0.564813	-0.566110	0.037690	61.5425	-0.565272	-2.762385E+7	-1.364391E-9	NaN
269	1.000000	1.262996	7.36769e+06	-52089.1	955.82	-29749.8	0.000000	0.000000	7.263254	-0.030915	NaN	0.000000	0.001586	0.001691	28.078	0.153017	0.001960	78.0755	105.573	-164.325	-0.037192	1.261698	-0.504778	-0.506076	-0.030915	78.0755	-0.504481	-3.95835e+06	7.809999E-9	NaN
269	1.000000	1.323016	7.36769e+06	-52089.1	955.819	-29749.8	0.000000	0.000000	7.323274	-0.021855	NaN	0.000000	0.001578	0.001715	28.0791	0.123449	0.002033	60.7314	-114.003	-166.07	-0.011033	1.321721	-0.444759	-0.446053	-0.021855	60.7314	-0.444489	-571064	3.827101E-8	NaN
269	1.000000	1.383040	7.36769e+06	-52089.1	955.819	-29749.8	0.000000	0.000000	7.383299	0.019497	NaN	0.000000	0.001628	0.001680	28.0792	0.046205	0.002053	22.5089	-83.6787	-165.185	0.034567	1.381697	-0.384735	-0.386077	0.019497	22.5089	-0.385384	-82621.6	-2.359854E-7	NaN
269	1.000000	1.443072	7.36769e+06	-52089.1	955.819	-29749.8	0.000000	0.000000	7.443331	0.017267	NaN	0.000000	0.001734	0.001712	28.0785	0.055154	0.002055	26.844	108.589	-164.761	0.085619	1.441767	-0.324703	-0.326008	0.017267	26.844	-0.325185	-11088	-1.557299E-6	NaN
269	1.000000	1.503096	7.36769e+06	-52089.1	955.819	-29749.8	0.000000	0.000000	7.503355	-0.010015	NaN	0.000000	0.001788	0.001702	28.0782	0.098966	0.002019	49.0158	70.6683	-166.438	-0.027835	1.501770	-0.264678	-0.266004	-0.010015	49.0158	-0.264525	-1374.47	7.286420E-6	NaN
269	1.000000	1.563119	7.36769e+06	-52089.1	955.819	-29749.8	0.000000	0.000000	7.563380	0.057763	NaN	0.000000	0.001711	0.001675	28.0794	0.078156	0.002058	37.9715	22.1154	-168.329	0.066962	1.561803	-0.204655	-0.205972	0.057763	37.9715	-0.205796	-163.885	-0.000352	NaN
269	1.000000	1.623143	7.36769e+06	-52089.1	955.819	-29749.8	0.000000	0.000000	7.623404	0.052009	NaN	0.000000	0.001703	0.001664	28.0793	0.068662	0.001976	34.7432	57.7927	-164.685	0.097437	1.621833	-0.144631	-0.145941	0.052009	34.7432	-0.145754	-15.1393	-0.003435	NaN
269	1.000000	1.683169	7.36769e+06	-52089.1	955.819	-29749.8	0.000000	0.000000	7.683428	-0.002416	NaN	0.000000	0.001708	0.001668	28.0792	0.079705	0.001998	39.9001	137.922	-163.709	-0.037919	1.681905	-0.084605	-0.085869	-0.002416	39.9001	-0.084560	-0.801694	0.003014	NaN
269	1.000000	1.743219	7.36769e+06	-52089.1	955.818	-29749.8	0.000000	0.000000	7.743477	-0.018105	NaN	0.000000	0.001714	0.001725	28.0781	0.038342	0.001958	19.5774	-108.593	-164.211	0.000455	1.741912	-0.024556	-0.025863	-0.018105	19.5774	-0.023862	-0.015761	1.148720	NaN
269	2.000000	1.782710	7.36769e+06	-52089.1	955.819	-29749.8	0.000000	0.000000	7.783591	15.1435	NaN	0.000000	0.001717	0.001687	28.0782	15.3522	0.001899	8082.43	9.670559	-175.965	15.349	1.782433	0.014935	0.014659	15.1435	8082.43	0.013530	0.013375	1132.24	63851.6
269	2.000000	1.797650	7.36769e+06	-52089.1	955.819	-29749.8	0.000000	0.000000	7.799587	40.7994	NaN	0.000000	0.001707	0.001692	28.0797	28.1138	0.001754	16025.6	5.112124	179.877	39.1235	1.797285	0.029875	0.029511	40.7994	16025.6	0.027966	0.036633	1113.72	76497.8
269	2.000000	1.812571	7.36769e+06	-52089.1	955.819	-29749.8	0.000000	0.000000	7.815901	74.6726	NaN	0.000000	0.001670	0.001678	28.0793	41.8766	0.001808	23160.6	3.041375	179.289	71.294	1.812323	0.044796	0.044548	74.6726	23160.6	0.042378	0.070319	1061.91	79796.9
269	2.000000	1.827607	7.36769e+06	-52089.1	955.82	-29749.8	0.000000	0.000000	7.833119	127.708	NaN	0.000000	0.001762	0.001656	28.0783	55.875	0.001921	29089.5	4.975315	175.245	127.95	1.827404	0.059833	0.059629	127.708	29089.5	0.056540	0.113696	1123.25	78820.2
269	2.000000	1.842597	7.36769e+06	-52089.1	955.82	-29749.8	0.000000	0.000000	7.851515	210.543	NaN	0.000000	0.001765	0.001675	28.0781	69.5448	0.001729	40226	2.528188	174.99	208.876	1.842302	0.074823	0.074528	210.543	40226	0.070897	0.167756	1255.06	89730.7
269	2.000000	1.857594	7.36769e+06	-52089.1	955.82	-29749.8	0.000000	0.000000	7.870459	306.506	NaN	0.000000	0.001699	0.001654	28.079	84.2505	0.001809	46561.7	5.154020	171.819	306.323	1.857271	0.089820	0.089497	306.506	46561.7	0.084883	0.229843	1333.55	88733.3
269	2.000000	1.872538	7.36769e+06	-52089.1	955.82	-29749.8	0.000000	0.000000	7.890128	421.399	NaN	0.000000	0.001739	0.001720	28.0795	98.4853	0.001844	53405	5.207296	170.723	420.495	1.872111	0.104764	0.104337	421.399	53405	0.098846	0.300851	1400.69	88956.8
269	2.000000	1.874462	7.36769e+06	-52089.1	955.82	-29749.8	0.000000	0.000000	7.892506	432.452	NaN	0.000000	0.001746	0.001659	28.0792	97.5608	0.001679	58107.2	1.199939	173.885	426.191	1.874248	0.106687	0.106473	432.452	58107.2	0.101106	0.313180	1380.84	94865.1