File: remote_trans/data/nanoindenter/0828-1/data/Data_2025-08-06,11h17m57s/2025-07-22_16-23-58_1_236.txt
2025-07-22, 16:23:58, 1
Index	Phase	Displacement	Time	Pos X	Pos Y	Pos Z	Rot A	Rot B	Piezo Z	Force A	Force B	Gripper	Voltage A	Voltage B	Temperature	Amplitude force	Amplitude pos	Stiffness	Phase shift	Phase excitation	Force A raw	Displacement raw	HMax	HMax raw	Real Force	Real Stiffness	Contact Depth	Area	Hardness	Reduced Mod.
[#]	[#]	[um]	[s]	[um]	[um]	[um]	[m°]	[m°]	[um]	[uN]	[uN]	[V]	[V]	[V]	[°C]	[uN]	[um]	[N/m]	[°]	[°]	[uN]	[um]	[um]	[um]	[uN]	[N/m]	[um]	[um^2]	[MPa]	[MPa]
236	1.000000	0.002752	7.36735e+06	-50439.1	955.818	-29756.1	0.000000	0.000000	6.002858	0.068057	NaN	0.000000	0.001534	0.001644	28.0793	0.113167	0.000855	132.404	125.268	-160.42	0.029183	0.001482	-1.053748	-1.055019	0.068057	132.404	-1.054134	-1.213336E+14	-5.609062E-16	NaN
236	1.000000	0.042655	7.36735e+06	-50439.1	955.819	-29756.1	0.000000	0.000000	6.042759	0.020651	NaN	0.000000	0.001620	0.001650	28.0791	0.026891	0.001916	14.0377	147.767	-163.27	0.046903	0.041288	-1.013845	-1.015213	0.020651	14.0377	-1.014948	-3.605615E+13	-5.727348E-16	NaN
236	1.000000	0.082667	7.36735e+06	-50439.1	955.817	-29756.1	0.000000	0.000000	6.082770	0.010441	NaN	0.000000	0.001561	0.001631	28.0793	0.031194	0.002132	14.6326	157.212	-165.579	0.058931	0.081332	-0.973833	-0.975169	0.010441	14.6326	-0.974368	-1.024549E+13	-1.019036E-15	NaN
236	1.000000	0.122688	7.36735e+06	-50439.1	955.819	-29756.1	0.000000	0.000000	6.122790	-0.009678	NaN	0.000000	0.001583	0.001616	28.0801	0.057860	0.001836	31.5142	-143.905	-165.096	0.034599	0.121370	-0.933813	-0.935131	-0.009678	31.5142	-0.933582	-2.887631E+12	3.351603E-15	NaN
236	1.000000	0.162703	7.36735e+06	-50439.1	955.819	-29756.1	0.000000	0.000000	6.162809	0.071164	NaN	0.000000	0.001582	0.001616	28.0802	0.054398	0.002077	26.1852	166.717	-165.715	0.036815	0.161401	-0.893797	-0.895100	0.071164	26.1852	-0.895835	-8.928703E+11	-7.970254E-14	NaN
236	1.000000	0.202714	7.36735e+06	-50439.1	955.819	-29756.1	0.000000	0.000000	6.202818	0.018900	NaN	0.000000	0.001551	0.001647	28.0803	0.062363	0.002083	29.9429	-169.544	-164.993	0.035495	0.201379	-0.853786	-0.855122	0.018900	29.9429	-0.854260	-2.445778E+11	-7.727779E-14	NaN
236	1.000000	0.242749	7.36735e+06	-50439.1	955.819	-29756.1	0.000000	0.000000	6.242852	-0.000755	NaN	0.000000	0.001495	0.001639	28.0806	0.021043	0.002028	10.3737	47.1633	-168.8	-0.043550	0.241475	-0.813751	-0.815025	-0.000755	10.3737	-0.813697	-6.897970E+10	1.094891E-14	NaN
236	1.000000	0.282739	7.36736e+06	-50439.1	955.818	-29756.1	0.000000	0.000000	6.282843	0.025362	NaN	0.000000	0.001570	0.001646	28.0793	0.149823	0.002029	73.8307	6.690690	-163.578	0.112860	0.281410	-0.773762	-0.775091	0.025362	73.8307	-0.774019	-1.995017E+10	-1.271289E-12	NaN
236	1.000000	0.322776	7.36736e+06	-50439.1	955.818	-29756.1	0.000000	0.000000	6.322881	0.047691	NaN	0.000000	0.001579	0.001628	28.0798	0.061790	0.002130	29.0134	73.5576	-166.009	0.109256	0.321457	-0.733725	-0.735044	0.047691	29.0134	-0.734957	-5.866290E+9	-8.129594E-12	NaN
236	1.000000	0.362765	7.36736e+06	-50439.1	955.818	-29756.1	0.000000	0.000000	6.362867	-0.006125	NaN	0.000000	0.001567	0.001640	28.0795	0.058370	0.001981	29.4715	156.807	-164.04	0.059865	0.361441	-0.693736	-0.695060	-0.006125	29.4715	-0.693580	-1.598949E+9	3.830581E-12	NaN
236	1.000000	0.402795	7.36736e+06	-50439.1	955.82	-29756.1	0.000000	0.000000	6.402898	-0.002206	NaN	0.000000	0.001567	0.001635	28.0806	0.149771	0.002093	71.5547	45.7355	-164.474	0.055590	0.401509	-0.653705	-0.654992	-0.002206	71.5547	-0.653682	-4.548884E+8	4.849606E-12	NaN
236	1.000000	0.442829	7.36736e+06	-50439.1	955.818	-29756.1	0.000000	0.000000	6.442935	0.082804	NaN	0.000000	0.001583	0.001619	28.0805	0.102972	0.001968	52.3351	-29.2839	-162.557	0.070742	0.441545	-0.613671	-0.614956	0.082804	52.3351	-0.614858	-1.333326E+8	-6.210327E-10	NaN
236	1.000000	0.482839	7.36736e+06	-50439.1	955.819	-29756.1	0.000000	0.000000	6.482942	0.002219	NaN	0.000000	0.001585	0.001636	28.0802	0.042711	0.001905	22.4247	48.8381	-167.761	0.023142	0.481539	-0.573662	-0.574961	0.002219	22.4247	-0.573736	-3.616088E+7	-6.136626E-11	NaN
236	1.000000	0.522858	7.36736e+06	-50439.1	955.819	-29756.1	0.000000	0.000000	6.522963	0.047385	NaN	0.000000	0.001573	0.001637	28.0801	0.073057	0.002071	35.2758	154.01	-162.495	0.049287	0.521586	-0.533643	-0.534915	0.047385	35.2758	-0.534650	-1.040242E+7	-4.555219E-9	NaN
236	1.000000	0.562851	7.36736e+06	-50439.1	955.819	-29756.1	0.000000	0.000000	6.562954	0.002770	NaN	0.000000	0.001552	0.001605	28.0789	0.035024	0.002163	16.1918	-52.1698	-162.791	0.107451	0.561561	-0.493650	-0.494940	0.002770	16.1918	-0.493778	-2.80655e+06	-9.868159E-10	NaN
236	1.000000	0.602864	7.36736e+06	-50439.1	955.818	-29756.1	0.000000	0.000000	6.602966	-0.005864	NaN	0.000000	0.001586	0.001619	28.0791	0.039729	0.002051	19.3716	-62.5847	-163.655	-0.030947	0.601587	-0.453637	-0.454913	-0.005864	19.3716	-0.453410	-762682	7.688076E-9	NaN
236	1.000000	0.642910	7.36736e+06	-50439.1	955.818	-29756.1	0.000000	0.000000	6.643011	-0.034886	NaN	0.000000	0.001567	0.001621	28.0791	0.090367	0.002051	44.0658	-70.4257	-166.139	0.012724	0.641640	-0.413591	-0.414861	-0.034886	44.0658	-0.412997	-204647	1.704690E-7	NaN
236	1.000000	0.682917	7.36736e+06	-50439.1	955.818	-29756.1	0.000000	0.000000	6.683022	0.053677	NaN	0.000000	0.001549	0.001698	28.0806	0.088395	0.001984	44.5483	-131.401	-161.15	0.001780	0.681581	-0.373584	-0.374920	0.053677	44.5483	-0.374487	-57637	-9.312955E-7	NaN
236	1.000000	0.722924	7.36736e+06	-50439.1	955.818	-29756.1	0.000000	0.000000	6.723028	0.029741	NaN	0.000000	0.001544	0.001667	28.0803	0.093294	0.001971	47.3357	70.8176	-165.559	0.013750	0.721615	-0.333576	-0.334885	0.029741	47.3357	-0.334048	-14951	-1.989255E-6	NaN
236	1.000000	0.762939	7.36736e+06	-50439.1	955.818	-29756.1	0.000000	0.000000	6.763040	-0.032940	NaN	0.000000	0.001581	0.001651	28.0802	0.092017	0.002054	44.7947	-115.131	-165.848	0.033252	0.761644	-0.293561	-0.294856	-0.032940	44.7947	-0.293010	-3701.28	8.899593E-6	NaN
236	1.000000	0.802950	7.36736e+06	-50439.1	955.819	-29756.1	0.000000	0.000000	6.803056	0.073150	NaN	0.000000	0.001580	0.001685	28.0801	0.108315	0.002061	52.564	81.7385	-163.938	0.015177	0.801601	-0.253550	-0.254899	0.073150	52.564	-0.254594	-967.971	-7.557021E-5	NaN
236	1.000000	0.842994	7.36736e+06	-50439.1	955.819	-29756.1	0.000000	0.000000	6.843096	-0.004069	NaN	0.000000	0.001542	0.001666	28.0789	0.135071	0.002081	64.9073	-150.163	-165.793	0.053570	0.841682	-0.213507	-0.214818	-0.004069	64.9073	-0.213460	-218.131	1.865481E-5	NaN
236	1.000000	0.883016	7.36736e+06	-50439.1	955.818	-29756.1	0.000000	0.000000	6.883119	0.008398	NaN	0.000000	0.001560	0.001655	28.0787	0.013585	0.002118	6.414278	40.6476	-166.097	-0.028926	0.881712	-0.173484	-0.174788	0.008398	6.414278	-0.174466	-49.069	-0.000171	NaN
236	1.000000	0.923026	7.36736e+06	-50439.1	955.818	-29756.1	0.000000	0.000000	6.923130	0.036035	NaN	0.000000	0.001566	0.001674	28.0787	0.093926	0.001978	47.493	59.6449	-163.279	0.056485	0.921758	-0.133475	-0.134743	0.036035	47.493	-0.134044	-9.120212	-0.003951	NaN
236	1.000000	0.963026	7.36736e+06	-50439.1	955.819	-29756.1	0.000000	0.000000	6.963129	0.000599	NaN	0.000000	0.001597	0.001691	28.08	0.154185	0.001805	85.4187	52.483	-166.674	0.038383	0.961707	-0.093474	-0.094793	0.000599	85.4187	-0.093480	-1.302038	-0.000460	NaN
236	1.000000	1.003042	7.36736e+06	-50439.1	955.817	-29756.1	0.000000	0.000000	7.003147	0.051991	NaN	0.000000	0.001656	0.001663	28.0798	0.105365	0.002060	51.1462	-162.926	-165.006	-0.017618	1.001741	-0.053458	-0.054760	0.051991	51.1462	-0.054221	-0.122113	-0.425759	NaN
236	1.000000	1.043062	7.36736e+06	-50439.1	955.819	-29756.1	0.000000	0.000000	7.043167	0.064241	NaN	0.000000	0.001498	0.001662	28.0797	0.079832	0.002047	38.9995	64.2018	-167.358	-0.076266	1.041742	-0.013438	-0.014759	0.064241	38.9995	-0.014674	-0.009081	-7.074360	NaN
236	2.000000	1.071549	7.36736e+06	-50439.1	955.817	-29756.1	0.000000	0.000000	7.072264	14.8933	NaN	0.000000	0.001640	0.001652	28.0784	13.6306	0.001652	8249.8	3.515264	-173.768	13.7131	1.071253	0.015049	0.014752	14.8933	8249.8	0.013695	0.013584	1096.38	64669.9
236	2.000000	1.081526	7.36736e+06	-50439.1	955.818	-29756.1	0.000000	0.000000	7.082678	25.517	NaN	0.000000	0.001627	0.001633	28.0784	23.4789	0.001838	12775.7	3.370829	-175.062	24.9109	1.081200	0.025025	0.024699	25.517	12775.7	0.023527	0.028390	898.788	69274.1
236	2.000000	1.091513	7.36736e+06	-50439.1	955.818	-29756.1	0.000000	0.000000	7.093680	50.1893	NaN	0.000000	0.001626	0.001637	28.0786	33.2094	0.001738	19110.1	7.553015	176.558	50.4524	1.091186	0.035013	0.034685	50.1893	19110.1	0.033043	0.047287	1061.38	80290.9
236	2.000000	1.101513	7.36736e+06	-50439.1	955.817	-29756.1	0.000000	0.000000	7.104938	80.7931	NaN	0.000000	0.001557	0.001694	28.0787	44.0553	0.001816	24257.5	8.839157	174.185	81.7873	1.101126	0.045012	0.044625	80.7931	24257.5	0.042514	0.070688	1142.96	83357.9
236	2.000000	1.111438	7.36736e+06	-50439.1	955.818	-29756.1	0.000000	0.000000	7.116702	125.502	NaN	0.000000	0.001582	0.001701	28.0799	53.0611	0.001844	28772.1	3.225247	178.049	122.856	1.111188	0.054938	0.054688	125.502	28772.1	0.051667	0.097634	1285.43	84128.8
236	2.000000	1.121508	7.36736e+06	-50439.1	955.818	-29756.1	0.000000	0.000000	7.128884	176.869	NaN	0.000000	0.001537	0.001666	28.0797	63.667	0.001804	35295.6	8.571603	171.17	179.01	1.121160	0.065007	0.064660	176.869	35295.6	0.061249	0.130326	1357.13	89326.3
236	2.000000	1.131393	7.36736e+06	-50439.1	955.817	-29756.1	0.000000	0.000000	7.141447	241.995	NaN	0.000000	0.001568	0.001663	28.08	72.2883	0.001774	40744.2	5.376002	172.412	237.903	1.131051	0.074893	0.074550	241.995	40744.2	0.070438	0.165875	1458.89	91400.4
236	2.000000	1.141361	7.36736e+06	-50439.1	955.818	-29756.1	0.000000	0.000000	7.154476	316.421	NaN	0.000000	0.001515	0.001663	28.0788	80.8141	0.001828	44198.1	3.020552	174.636	310.935	1.141120	0.084861	0.084619	316.421	44198.1	0.079491	0.204826	1544.82	89224.4
236	2.000000	1.151443	7.36736e+06	-50439.1	955.818	-29756.1	0.000000	0.000000	7.168338	408.369	NaN	0.000000	0.001614	0.001662	28.0788	90.1692	0.001675	53820	0.177455	175.795	407.293	1.151247	0.094942	0.094746	408.369	53820	0.089251	0.251099	1626.32	98128.2
236	2.000000	1.161266	7.36736e+06	-50439.1	955.818	-29756.1	0.000000	0.000000	7.182342	510.033	NaN	0.000000	0.001632	0.001707	28.0788	99.2434	0.001725	57529.6	0.833206	175.045	501.885	1.161058	0.104766	0.104557	510.033	57529.6	0.098117	0.296923	1717.73	96458.9
236	2.000000	1.166450	7.36736e+06	-50439.1	955.819	-29756.1	0.000000	0.000000	7.189842	566.356	NaN	0.000000	0.001612	0.001719	28.0788	105.711	0.001801	58682.7	7.477368	168.338	567.248	1.165937	0.109950	0.109437	566.356	58682.7	0.102711	0.322081	1758.43	94471.4