File: remote_trans/data/nanoindenter/0828-1/data/Data_2025-08-06,11h17m57s/2025-07-22_16-23-58_1_761.txt
2025-07-22, 16:23:58, 1
Index	Phase	Displacement	Time	Pos X	Pos Y	Pos Z	Rot A	Rot B	Piezo Z	Force A	Force B	Gripper	Voltage A	Voltage B	Temperature	Amplitude force	Amplitude pos	Stiffness	Phase shift	Phase excitation	Force A raw	Displacement raw	HMax	HMax raw	Real Force	Real Stiffness	Contact Depth	Area	Hardness	Reduced Mod.
[#]	[#]	[um]	[s]	[um]	[um]	[um]	[m°]	[m°]	[um]	[uN]	[uN]	[V]	[V]	[V]	[°C]	[uN]	[um]	[N/m]	[°]	[°]	[uN]	[um]	[um]	[um]	[uN]	[N/m]	[um]	[um^2]	[MPa]	[MPa]
761	1.000000	0.002595	7.3725e+06	-39039.1	1005.82	-29795.3	0.000000	0.000000	6.002819	-0.035792	NaN	0.000000	0.001642	0.001690	28.0824	0.065658	0.000837	78.4129	134.679	-157.714	-0.072175	0.001287	-1.116146	-1.117454	-0.035792	78.4129	-1.115804	-8.168987E+14	4.381470E-17	NaN
761	1.000000	0.044510	7.3725e+06	-39039.1	1005.82	-29795.3	0.000000	0.000000	6.044738	0.046090	NaN	0.000000	0.001611	0.001722	28.0819	0.070135	0.002036	34.448	106.029	14.4604	-0.005441	0.043187	-1.074230	-1.075553	0.046090	34.448	-1.075234	-2.330767E+14	-1.977474E-16	NaN
761	1.000000	0.086520	7.3725e+06	-39039.1	1005.82	-29795.3	0.000000	0.000000	6.086744	-0.037498	NaN	0.000000	0.001683	0.001685	28.0811	0.103259	0.001999	51.6633	-87.9394	-162.806	0.001833	0.085228	-1.032221	-1.033513	-0.037498	51.6633	-1.031676	-6.053804E+13	6.194055E-16	NaN
761	1.000000	0.128544	7.3725e+06	-39039.1	1005.82	-29795.3	0.000000	0.000000	6.128768	-0.029714	NaN	0.000000	0.001658	0.001733	28.0807	0.108721	0.001991	54.6134	-164.889	12.9844	-0.021982	0.127180	-0.990197	-0.991560	-0.029714	54.6134	-0.989788	-1.652963E+13	1.797627E-15	NaN
761	1.000000	0.170565	7.3725e+06	-39039.1	1005.82	-29795.3	0.000000	0.000000	6.170787	-0.103308	NaN	0.000000	0.001625	0.001693	28.0808	0.062127	0.002116	29.3554	116.141	-164.282	-0.111204	0.169296	-0.948175	-0.949445	-0.103308	29.3554	-0.945536	-4.186158E+12	2.467859E-14	NaN
761	1.000000	0.212571	7.3725e+06	-39039.1	1005.82	-29795.3	0.000000	0.000000	6.212796	0.003497	NaN	0.000000	0.001590	0.001703	28.0822	0.047914	0.002113	22.6727	-8.755935	13.1409	-0.027146	0.211207	-0.906170	-0.907533	0.003497	22.6727	-0.906286	-1.235917E+12	-2.829503E-15	NaN
761	1.000000	0.254582	7.3725e+06	-39039.1	1005.82	-29795.3	0.000000	0.000000	6.254808	0.014320	NaN	0.000000	0.001591	0.001658	28.0823	0.118966	0.001832	64.9297	-52.897	-165.939	-0.062424	0.253280	-0.864158	-0.865461	0.014320	64.9297	-0.864324	-3.346864E+11	-4.278534E-14	NaN
761	1.000000	0.296635	7.3725e+06	-39039.1	1005.82	-29795.3	0.000000	0.000000	6.296860	-0.009407	NaN	0.000000	0.001615	0.001674	28.0822	0.019772	0.002045	9.669622	-24.5593	13.4093	-0.012141	0.295294	-0.822106	-0.823446	-0.009407	9.669622	-0.821376	-8.767434E+10	1.072932E-13	NaN
761	1.000000	0.338630	7.3725e+06	-39039.1	1005.82	-29795.3	0.000000	0.000000	6.338857	0.036691	NaN	0.000000	0.001665	0.001732	28.0811	0.039324	0.002025	19.4184	157.852	-165.29	0.039400	0.337317	-0.780110	-0.781424	0.036691	19.4184	-0.781528	-2.523417E+10	-1.454013E-12	NaN
761	1.000000	0.380666	7.3725e+06	-39039.1	1005.82	-29795.3	0.000000	0.000000	6.380893	0.021922	NaN	0.000000	0.001628	0.001725	28.0814	0.082980	0.001989	41.7239	34.6135	12.6347	-0.019872	0.379286	-0.738074	-0.739454	0.021922	41.7239	-0.738468	-6.549232E+9	-3.347224E-12	NaN
761	1.000000	0.422666	7.3725e+06	-39039.1	1005.82	-29795.3	0.000000	0.000000	6.422890	-0.028600	NaN	0.000000	0.001630	0.001648	28.0818	0.065515	0.001988	32.9602	-133.501	-167.377	0.039105	0.421361	-0.696074	-0.697379	-0.028600	32.9602	-0.695424	-1.694431E+9	1.687875E-11	NaN
761	1.000000	0.464686	7.3725e+06	-39039.1	1005.82	-29795.3	0.000000	0.000000	6.464912	0.009677	NaN	0.000000	0.001622	0.001692	28.0826	0.134991	0.002019	66.8624	-118.512	12.4914	-0.058746	0.463314	-0.654055	-0.655426	0.009677	66.8624	-0.654163	-4.618484E+8	-2.095317E-11	NaN
761	1.000000	0.506694	7.3725e+06	-39039.1	1005.82	-29795.3	0.000000	0.000000	6.506919	-0.000825	NaN	0.000000	0.001625	0.001670	28.0827	0.076868	0.001860	41.3194	-45.9565	-169.337	0.023160	0.505398	-0.612047	-0.613343	-0.000825	41.3194	-0.612032	-1.219184E+8	6.765242E-12	NaN
761	1.000000	0.548720	7.3725e+06	-39039.1	1005.82	-29795.3	0.000000	0.000000	6.548945	-0.022317	NaN	0.000000	0.001588	0.001684	28.0827	0.024579	0.002078	11.8279	93.0419	15.6192	-0.058120	0.547315	-0.570020	-0.571426	-0.022317	11.8279	-0.568605	-3.071566E+7	7.265697E-10	NaN
761	1.000000	0.590738	7.3725e+06	-39039.1	1005.82	-29795.3	0.000000	0.000000	6.590964	0.016355	NaN	0.000000	0.001598	0.001665	28.0819	0.019888	0.001975	10.0706	-135.17	-165.433	-0.019829	0.589401	-0.528003	-0.529340	0.016355	10.0706	-0.529221	-8.74485e+06	-1.870257E-9	NaN
761	1.000000	0.632780	7.3725e+06	-39039.1	1005.82	-29795.3	0.000000	0.000000	6.633008	0.053971	NaN	0.000000	0.001578	0.001706	28.0815	0.125941	0.001970	63.9454	150.841	10.0354	0.021014	0.631417	-0.485960	-0.487324	0.053971	63.9454	-0.486593	-2.22728e+06	-2.423198E-8	NaN
761	1.000000	0.674774	7.3725e+06	-39039.1	1005.82	-29795.3	0.000000	0.000000	6.674996	-0.093383	NaN	0.000000	0.001654	0.001707	28.0814	0.118611	0.001878	63.1452	124.417	-164.313	-0.071357	0.673473	-0.443966	-0.445268	-0.093383	63.1452	-0.442857	-541593	1.724222E-7	NaN
761	1.000000	0.716792	7.3725e+06	-39039.1	1005.82	-29795.3	0.000000	0.000000	6.717018	0.004818	NaN	0.000000	0.001684	0.001712	28.0816	0.050892	0.002053	24.7842	132.973	15.1874	0.000823	0.715455	-0.401948	-0.403286	0.004818	24.7842	-0.402094	-143170	-3.365106E-8	NaN
761	1.000000	0.758814	7.3725e+06	-39039.1	1005.82	-29795.3	0.000000	0.000000	6.759038	-0.042926	NaN	0.000000	0.001687	0.001658	28.0833	0.068417	0.002117	32.3174	-72.5806	-161.238	-0.092293	0.757520	-0.359927	-0.361221	-0.042926	32.3174	-0.358930	-34386	1.248352E-6	NaN
761	1.000000	0.800852	7.3725e+06	-39039.1	1005.82	-29795.3	0.000000	0.000000	6.801078	-0.005422	NaN	0.000000	0.001627	0.001683	28.083	0.060527	0.001929	31.3788	12.4539	16.8802	-0.030498	0.799429	-0.317888	-0.319311	-0.005422	31.3788	-0.317759	-8622.42	6.287781E-7	NaN
761	1.000000	0.842856	7.3725e+06	-39039.1	1005.82	-29795.3	0.000000	0.000000	6.843084	0.055304	NaN	0.000000	0.001611	0.001648	28.0829	0.099039	0.001986	49.8648	148.447	-166.536	-0.055125	0.841530	-0.275885	-0.277211	0.055304	49.8648	-0.276716	-2105.59	-2.626528E-5	NaN
761	1.000000	0.884856	7.3725e+06	-39039.1	1005.82	-29795.3	0.000000	0.000000	6.885079	-0.053714	NaN	0.000000	0.001622	0.001641	28.0816	0.034623	0.002019	17.152	60.4797	15.062	-0.085102	0.883495	-0.233885	-0.235246	-0.053714	17.152	-0.231536	-423.397	0.000127	NaN
761	1.000000	0.926868	7.3725e+06	-39039.1	1005.82	-29795.3	0.000000	0.000000	6.927094	0.013110	NaN	0.000000	0.001631	0.001700	28.0814	0.055542	0.001934	28.7215	72.1108	-162.14	0.052384	0.925560	-0.191872	-0.193181	0.013110	28.7215	-0.192215	-97.9388	-0.000134	NaN
761	1.000000	0.968906	7.3725e+06	-39039.1	1005.82	-29795.3	0.000000	0.000000	6.969129	-0.051027	NaN	0.000000	0.001687	0.001707	28.0815	0.041411	0.002079	19.9198	-86.435	10.1214	-0.015490	0.967516	-0.149835	-0.151225	-0.051027	19.9198	-0.147913	-16.5897	0.003076	NaN
761	1.000000	1.010945	7.3725e+06	-39039.1	1005.82	-29795.3	0.000000	0.000000	7.011171	-0.000523	NaN	0.000000	0.001657	0.001792	28.0829	0.100190	0.001988	50.3928	160.414	-165.637	0.046685	1.009601	-0.107795	-0.109139	-0.000523	50.3928	-0.107788	-2.697606	0.000194	NaN
761	1.000000	1.052934	7.3725e+06	-39039.1	1005.82	-29795.3	0.000000	0.000000	7.053178	0.446859	NaN	0.000000	0.001751	0.001746	28.0829	0.650818	0.001908	341.149	4.420250	15.0639	0.247264	1.051586	-0.065806	-0.067154	0.446859	341.149	-0.066789	-0.279181	-1.600608	NaN
761	1.000000	1.094941	7.3725e+06	-39039.1	1005.82	-29795.3	0.000000	0.000000	7.095195	0.708665	NaN	0.000000	0.001652	0.001738	28.0828	0.718556	0.002033	353.531	28.8471	-169.547	0.716717	1.093602	-0.023800	-0.025138	0.708665	353.531	-0.025303	-0.017181	-41.2463	NaN
761	2.000000	1.124032	7.3725e+06	-39039.1	1005.82	-29795.3	0.000000	0.000000	7.124913	15.9662	NaN	0.000000	0.001628	0.001777	28.0822	13.6939	0.001746	7842.09	6.620337	6.430676	14.9765	1.123773	0.005291	0.005033	15.9662	7842.09	0.003764	0.003033	5263.87	130094
761	2.000000	1.134506	7.3725e+06	-39039.1	1005.82	-29795.3	0.000000	0.000000	7.137960	78.551	NaN	0.000000	0.001647	0.001769	28.082	26.885	0.001741	15439.6	6.880142	178.361	76.9216	1.134117	0.015766	0.015377	78.551	15439.6	0.011950	0.011430	6872.19	131942
761	2.000000	1.144989	7.3725e+06	-39039.1	1005.82	-29795.3	0.000000	0.000000	7.150817	136.328	NaN	0.000000	0.001678	0.001757	28.0826	35.9285	0.001821	19733.8	5.841481	-2.417799	133.229	1.144604	0.026249	0.025863	136.328	19733.8	0.021068	0.024248	5622.29	115784
761	2.000000	1.155465	7.3725e+06	-39039.1	1005.82	-29795.3	0.000000	0.000000	7.163447	188.751	NaN	0.000000	0.001600	0.001730	28.0822	42.2411	0.001778	23754.7	0.782060	-179.114	188.386	1.155114	0.036725	0.036374	188.751	23754.7	0.030765	0.042345	4457.46	105468
761	2.000000	1.165922	7.3725e+06	-39039.1	1005.82	-29795.3	0.000000	0.000000	7.175730	233.187	NaN	0.000000	0.001591	0.001773	28.0831	51.0977	0.001711	29868.7	2.416969	-2.931365	229.299	1.165627	0.047182	0.046887	233.187	29868.7	0.041326	0.067501	3454.58	105035
761	2.000000	1.176507	7.3725e+06	-39039.1	1005.82	-29795.3	0.000000	0.000000	7.188638	289.723	NaN	0.000000	0.001578	0.001758	28.0829	61.7188	0.001817	33974.8	10.9872	168.827	289.614	1.176056	0.057766	0.057315	289.723	33974.8	0.051371	0.096697	2996.21	99821.5
761	2.000000	1.186914	7.3725e+06	-39039.1	1005.82	-29795.3	0.000000	0.000000	7.201677	353.769	NaN	0.000000	0.001612	0.001772	28.0829	67.9121	0.001828	37154.2	4.717451	-6.047441	351.536	1.186518	0.068174	0.067778	353.769	37154.2	0.061033	0.129537	2731.03	94315.9
761	2.000000	1.197354	7.3725e+06	-39039.1	1005.82	-29795.3	0.000000	0.000000	7.214635	415.052	NaN	0.000000	0.001632	0.001736	28.0815	77.2909	0.001714	45104.1	5.165490	171.399	409.913	1.197186	0.078613	0.078446	415.052	45104.1	0.071712	0.171121	2425.49	99617.9
761	2.000000	1.207884	7.3725e+06	-39039.1	1005.82	-29795.3	0.000000	0.000000	7.228926	506.587	NaN	0.000000	0.001601	0.001690	28.0816	87.0803	0.001842	47282.5	5.160915	-7.880398	503.71	1.207524	0.089143	0.088783	506.587	47282.5	0.081108	0.212186	2387.47	93781.2
761	2.000000	1.218349	7.3725e+06	-39039.1	1005.82	-29795.3	0.000000	0.000000	7.242774	588.894	NaN	0.000000	0.001620	0.001707	28.0819	94.8728	0.001752	54154.1	5.466037	170.468	585.312	1.217927	0.099609	0.099186	588.894	54154.1	0.091453	0.262144	2246.45	96635.1