File: remote_trans/data/nanoindenter/0828-1/data/Data_2025-08-06,11h17m57s/2025-07-22_16-23-58_1_677.txt
2025-07-22, 16:23:58, 1
Index	Phase	Displacement	Time	Pos X	Pos Y	Pos Z	Rot A	Rot B	Piezo Z	Force A	Force B	Gripper	Voltage A	Voltage B	Temperature	Amplitude force	Amplitude pos	Stiffness	Phase shift	Phase excitation	Force A raw	Displacement raw	HMax	HMax raw	Real Force	Real Stiffness	Contact Depth	Area	Hardness	Reduced Mod.
[#]	[#]	[um]	[s]	[um]	[um]	[um]	[m°]	[m°]	[um]	[uN]	[uN]	[V]	[V]	[V]	[°C]	[uN]	[um]	[N/m]	[°]	[°]	[uN]	[um]	[um]	[um]	[uN]	[N/m]	[um]	[um^2]	[MPa]	[MPa]
677	1.000000	0.002539	7.37167e+06	-43239.1	1005.82	-29779.7	0.000000	0.000000	6.002786	-0.030651	NaN	0.000000	0.001715	0.001693	28.081	0.078056	0.001017	76.7415	-124.195	-161.599	0.009161	0.001259	-1.207150	-1.208430	-0.030651	76.7415	-1.206850	-1.356666E+16	2.259274E-18	NaN
677	1.000000	0.046503	7.37167e+06	-43239.1	1005.82	-29779.6	0.000000	0.000000	6.046750	-0.001627	NaN	0.000000	0.001654	0.001722	28.0801	0.085713	0.001931	44.3773	-20.8784	-161.538	-0.053643	0.045166	-1.163187	-1.164524	-0.001627	44.3773	-1.163159	-3.525413E+15	4.615842E-19	NaN
677	1.000000	0.090539	7.37167e+06	-43239.1	1005.82	-29779.6	0.000000	0.000000	6.090788	0.018314	NaN	0.000000	0.001639	0.001697	28.0816	0.049531	0.001992	24.8688	-173.342	-164.792	-0.010840	0.089238	-1.119150	-1.120452	0.018314	24.8688	-1.119702	-9.214599E+14	-1.987480E-17	NaN
677	1.000000	0.134522	7.37167e+06	-43239.1	1005.82	-29779.6	0.000000	0.000000	6.134770	0.011358	NaN	0.000000	0.001623	0.001747	28.0816	0.058833	0.002005	29.3442	-61.1548	-162.623	0.018457	0.133230	-1.075167	-1.076459	0.011358	29.3442	-1.075458	-2.346974E+14	-4.839617E-17	NaN
677	1.000000	0.178546	7.37167e+06	-43239.1	1005.82	-29779.6	0.000000	0.000000	6.178797	0.071109	NaN	0.000000	0.001595	0.001687	28.0815	0.046064	0.001894	24.3257	-4.156931	-167.814	0.014762	0.177208	-1.031143	-1.032482	0.071109	24.3257	-1.033335	-6.372971E+13	-1.115786E-15	NaN
677	1.000000	0.222572	7.37167e+06	-43239.1	1005.82	-29779.6	0.000000	0.000000	6.222817	-0.060690	NaN	0.000000	0.001652	0.001745	28.0804	0.045077	0.001936	23.2828	158.238	-162.976	-0.102877	0.221242	-0.987117	-0.988447	-0.060690	23.2828	-0.985162	-1.432031E+13	4.238064E-15	NaN
677	1.000000	0.266571	7.37167e+06	-43239.1	1005.82	-29779.6	0.000000	0.000000	6.266815	-0.100381	NaN	0.000000	0.001582	0.001730	28.0804	0.089684	0.002161	41.4966	140.079	-164.371	-0.107120	0.265300	-0.943118	-0.944389	-0.100381	41.4966	-0.941304	-3.670544E+12	2.734771E-14	NaN
677	1.000000	0.310603	7.37167e+06	-43239.1	1005.82	-29779.6	0.000000	0.000000	6.310845	-0.150137	NaN	0.000000	0.001595	0.001705	28.0805	0.070724	0.001970	35.8924	-19.6514	-164.499	-0.154518	0.309297	-0.899086	-0.900392	-0.150137	35.8924	-0.895949	-8.960284E+11	1.675588E-13	NaN
677	1.000000	0.354630	7.37167e+06	-43239.1	1005.82	-29779.6	0.000000	0.000000	6.354877	-0.033719	NaN	0.000000	0.001604	0.001741	28.0819	0.103747	0.002093	49.5661	-82.3077	-162.355	-0.059365	0.353320	-0.855059	-0.856369	-0.033719	49.5661	-0.854549	-2.467902E+11	1.366302E-13	NaN
677	1.000000	0.398667	7.37167e+06	-43239.1	1005.82	-29779.6	0.000000	0.000000	6.398914	-0.001994	NaN	0.000000	0.001607	0.001722	28.0819	0.014400	0.001926	7.478405	-89.874	-163.475	-0.008538	0.397345	-0.811023	-0.812344	-0.001994	7.478405	-0.810823	-6.305666E+10	3.162033E-14	NaN
677	1.000000	0.442666	7.37167e+06	-43239.1	1005.82	-29779.6	0.000000	0.000000	6.442915	0.039334	NaN	0.000000	0.001568	0.001741	28.0816	0.078285	0.001923	40.7127	175.979	-164.836	0.004883	0.441365	-0.767023	-0.768324	0.039334	40.7127	-0.767748	-1.639392E+10	-2.399278E-12	NaN
677	1.000000	0.486689	7.37167e+06	-43239.1	1005.82	-29779.6	0.000000	0.000000	6.486936	-0.020727	NaN	0.000000	0.001512	0.001703	28.0806	0.060047	0.001896	31.6767	110.965	-165.815	0.024177	0.485334	-0.723000	-0.724355	-0.020727	31.6767	-0.722509	-3.969117E+9	5.221973E-12	NaN
677	1.000000	0.530733	7.37167e+06	-43239.1	1005.82	-29779.6	0.000000	0.000000	6.530977	-0.083069	NaN	0.000000	0.001567	0.001745	28.0805	0.032661	0.002103	15.5273	44.9296	-164.496	-0.074412	0.529398	-0.678956	-0.680292	-0.083069	15.5273	-0.674944	-8.892937E+8	9.340973E-11	NaN
677	1.000000	0.574715	7.37167e+06	-43239.1	1005.82	-29779.6	0.000000	0.000000	6.574963	-0.003678	NaN	0.000000	0.001588	0.001704	28.0804	0.021923	0.001910	11.4758	109.703	-160.017	0.033001	0.573412	-0.634974	-0.636278	-0.003678	11.4758	-0.634734	-2.500458E+8	1.470972E-11	NaN
677	1.000000	0.618761	7.37167e+06	-43239.1	1005.82	-29779.6	0.000000	0.000000	6.619007	-0.034967	NaN	0.000000	0.001606	0.001738	28.0815	0.063887	0.002085	30.6481	143.573	-165.633	-0.018882	0.617458	-0.590928	-0.592231	-0.034967	30.6481	-0.590073	-6.076729E+7	5.754175E-10	NaN
677	1.000000	0.662745	7.37167e+06	-43239.1	1005.82	-29779.6	0.000000	0.000000	6.662992	-0.016292	NaN	0.000000	0.001620	0.001777	28.0818	0.075092	0.002012	37.3248	-176.036	-168.931	-0.034028	0.661433	-0.546945	-0.548257	-0.016292	37.3248	-0.546617	-1.524384E+7	1.068732E-9	NaN
677	1.000000	0.706733	7.37167e+06	-43239.1	1005.82	-29779.6	0.000000	0.000000	6.706980	-0.014993	NaN	0.000000	0.001644	0.001820	28.082	0.091105	0.002036	44.7465	-171.898	-166.45	-0.037624	0.705390	-0.502956	-0.504300	-0.014993	44.7465	-0.502705	-3.73895e+06	4.009900E-9	NaN
677	1.000000	0.750789	7.37167e+06	-43239.1	1005.82	-29779.6	0.000000	0.000000	6.751035	-0.029257	NaN	0.000000	0.001660	0.001746	28.0819	0.045530	0.002108	21.6029	-60.836	-163.481	-0.058922	0.749499	-0.458901	-0.460191	-0.029257	21.6029	-0.457885	-881639	3.318454E-8	NaN
677	1.000000	0.794814	7.37168e+06	-43239.1	1005.82	-29779.6	0.000000	0.000000	6.795063	0.025663	NaN	0.000000	0.001616	0.001733	28.0803	0.051872	0.001975	26.2652	-19.4277	-167.907	0.017405	0.793489	-0.414876	-0.416200	0.025663	26.2652	-0.415608	-222892	-1.151373E-7	NaN
677	1.000000	0.838831	7.37168e+06	-43239.1	1005.82	-29779.6	0.000000	0.000000	6.839075	-0.088648	NaN	0.000000	0.001635	0.001736	28.0801	0.053808	0.002099	25.6394	-41.1465	-165.213	-0.138345	0.837529	-0.370858	-0.372160	-0.088648	25.6394	-0.368265	-46895.8	1.890311E-6	NaN
677	1.000000	0.882847	7.37168e+06	-43239.1	1005.82	-29779.6	0.000000	0.000000	6.883095	-0.005581	NaN	0.000000	0.001625	0.001732	28.0803	0.120112	0.002075	57.8739	96.5072	-160.988	-0.065536	0.881602	-0.326842	-0.328088	-0.005581	57.8739	-0.326770	-11697.9	4.770886E-7	NaN
677	1.000000	0.926835	7.37168e+06	-43239.1	1005.82	-29779.6	0.000000	0.000000	6.927080	-0.065098	NaN	0.000000	0.001626	0.001716	28.0814	0.117479	0.002008	58.5086	-97.8792	-162.767	-0.073632	0.925565	-0.282854	-0.284124	-0.065098	58.5086	-0.282020	-2531.73	2.571295E-5	NaN
677	1.000000	0.970891	7.37168e+06	-43239.1	1005.82	-29779.6	0.000000	0.000000	6.971138	0.000874	NaN	0.000000	0.001613	0.001756	28.0816	0.056945	0.001927	29.5571	109.113	-164.339	-0.069690	0.969599	-0.238799	-0.240090	0.000874	29.5571	-0.238821	-550.963	-1.585849E-6	NaN
677	1.000000	1.014904	7.37168e+06	-43239.1	1005.82	-29779.6	0.000000	0.000000	7.015147	-0.117702	NaN	0.000000	0.001611	0.001788	28.0819	0.062502	0.001902	32.8601	4.330391	-162.785	-0.096333	1.013645	-0.194785	-0.196044	-0.117702	32.8601	-0.192099	-97.505	0.001207	NaN
677	1.000000	1.058922	7.37168e+06	-43239.1	1005.82	-29779.6	0.000000	0.000000	7.059168	-0.045591	NaN	0.000000	0.001639	0.001742	28.0805	0.092134	0.001889	48.7696	109.063	-166.956	-0.105495	1.057597	-0.150767	-0.152093	-0.045591	48.7696	-0.150066	-18.1641	0.002510	NaN
677	1.000000	1.102955	7.37168e+06	-43239.1	1005.82	-29779.6	0.000000	0.000000	7.103201	-0.038110	NaN	0.000000	0.001618	0.001694	28.0804	0.043653	0.001984	21.9998	-134.366	-163.759	-0.068157	1.101635	-0.106735	-0.108054	-0.038110	21.9998	-0.105435	-2.401968	0.015866	NaN
677	1.000000	1.146908	7.37168e+06	-43239.1	1005.82	-29779.6	0.000000	0.000000	7.147154	-0.039408	NaN	0.000000	0.001593	0.001673	28.0802	0.016195	0.002113	7.665877	-85.7848	-160.639	0.022179	1.145621	-0.062781	-0.064069	-0.039408	7.665877	-0.058926	-0.167719	0.234963	NaN
677	1.000000	1.190957	7.37168e+06	-43239.1	1005.82	-29779.6	0.000000	0.000000	7.191204	-0.019008	NaN	0.000000	0.001590	0.001717	28.0815	0.045886	0.001954	23.4831	128.706	-168.366	-0.015015	1.189698	-0.018732	-0.019991	-0.019008	23.4831	-0.018125	-0.011246	1.690146	NaN
677	2.000000	1.218498	7.37168e+06	-43239.1	1005.82	-29779.6	0.000000	0.000000	7.219752	24.4677	NaN	0.000000	0.001588	0.001704	28.0819	16.0573	0.001654	9708.94	9.025481	-179.311	23.7003	1.218191	0.008809	0.008501	24.4677	9708.94	0.006919	0.005954	4109.61	114960
677	2.000000	1.229459	7.37168e+06	-43239.1	1005.82	-29779.6	0.000000	0.000000	7.231903	53.4464	NaN	0.000000	0.001627	0.001723	28.0829	25.4924	0.001800	14163.3	3.253968	-175.726	51.0817	1.229212	0.019770	0.019523	53.4464	14163.3	0.016939	0.017959	2976.01	96559.8
677	2.000000	1.240433	7.37168e+06	-43239.1	1005.82	-29779.6	0.000000	0.000000	7.244046	81.8594	NaN	0.000000	0.001631	0.001712	28.0804	34.8081	0.001719	20250.4	8.136029	175.972	79.7632	1.240126	0.030744	0.030437	81.8594	20250.4	0.027712	0.036136	2265.34	97328.1
677	2.000000	1.251411	7.37168e+06	-43239.1	1005.82	-29779.6	0.000000	0.000000	7.256568	119.437	NaN	0.000000	0.001628	0.001757	28.0801	44.3467	0.001822	24341.5	4.515155	177.744	116.205	1.251083	0.041722	0.041394	119.437	24341.5	0.038042	0.059066	2022.1	91506.6
677	2.000000	1.262492	7.37168e+06	-43239.1	1005.82	-29779.6	0.000000	0.000000	7.269336	160.486	NaN	0.000000	0.001596	0.001735	28.0804	55.0213	0.001926	28565.8	5.886657	176.018	164.733	1.262112	0.052803	0.052422	160.486	28565.8	0.048589	0.088102	1821.59	87927.7
677	2.000000	1.273485	7.37168e+06	-43239.1	1005.82	-29779.6	0.000000	0.000000	7.282727	218.836	NaN	0.000000	0.001624	0.001738	28.0818	66.1093	0.001872	35309.3	4.055581	176.197	221.36	1.273243	0.063796	0.063554	218.836	35309.3	0.059147	0.122768	1782.51	92070.3
677	2.000000	1.284350	7.37168e+06	-43239.1	1005.82	-29779.6	0.000000	0.000000	7.296363	286.259	NaN	0.000000	0.001570	0.001762	28.0819	73.7188	0.001720	42866.8	3.545655	173.851	282.72	1.284027	0.074661	0.074338	286.259	42866.8	0.069652	0.162676	1759.69	97102.8
677	2.000000	1.295279	7.37168e+06	-43239.1	1005.82	-29779.6	0.000000	0.000000	7.310635	367.596	NaN	0.000000	0.001667	0.001745	28.0818	82.2255	0.001757	46787.4	2.495594	175.047	360.692	1.295027	0.085589	0.085338	367.596	46787.4	0.079697	0.205755	1786.57	94238.1
677	2.000000	1.306421	7.37168e+06	-43239.1	1005.82	-29779.6	0.000000	0.000000	7.324945	444.665	NaN	0.000000	0.001691	0.001795	28.0804	94.911	0.001728	54927.4	3.737903	172.809	446.428	1.306087	0.096731	0.096398	444.665	54927.4	0.090660	0.258139	1722.58	98772.4
677	2.000000	1.311330	7.37168e+06	-43239.1	1005.82	-29779.6	0.000000	0.000000	7.331635	487.993	NaN	0.000000	0.001705	0.001811	28.0808	98.041	0.001722	56945.2	4.370861	172.69	484.606	1.310947	0.101641	0.101257	487.993	56945.2	0.095214	0.281522	1733.41	98056