File: remote_trans/data/nanoindenter/0828-1/data/Data_2025-08-06,11h17m57s/2025-07-22_16-23-58_1_524.txt
2025-07-22, 16:23:58, 1
Index	Phase	Displacement	Time	Pos X	Pos Y	Pos Z	Rot A	Rot B	Piezo Z	Force A	Force B	Gripper	Voltage A	Voltage B	Temperature	Amplitude force	Amplitude pos	Stiffness	Phase shift	Phase excitation	Force A raw	Displacement raw	HMax	HMax raw	Real Force	Real Stiffness	Contact Depth	Area	Hardness	Reduced Mod.
[#]	[#]	[um]	[s]	[um]	[um]	[um]	[m°]	[m°]	[um]	[uN]	[uN]	[V]	[V]	[V]	[°C]	[uN]	[um]	[N/m]	[°]	[°]	[uN]	[um]	[um]	[um]	[uN]	[N/m]	[um]	[um^2]	[MPa]	[MPa]
524	1.000000	0.002855	7.37017e+06	-50889.1	1005.82	-29754.1	0.000000	0.000000	6.002802	0.028808	NaN	0.000000	0.001629	0.001832	28.0818	0.130034	0.000924	140.679	13.1089	-166.974	0.000702	0.001598	-1.148674	-1.149931	0.028808	140.679	-1.148828	-2.265177E+15	-1.271785E-17	NaN
524	1.000000	0.044816	7.37018e+06	-50889.1	1005.82	-29754.1	0.000000	0.000000	6.044762	-0.019145	NaN	0.000000	0.001583	0.001777	28.0826	0.056851	0.001962	28.9728	-87.2385	13.5378	-0.068504	0.043459	-1.106712	-1.108070	-0.019145	28.9728	-1.106217	-6.074564E+14	3.151605E-17	NaN
524	1.000000	0.086816	7.37018e+06	-50889.1	1005.82	-29754.1	0.000000	0.000000	6.086762	-0.027278	NaN	0.000000	0.001617	0.001834	28.0827	0.118985	0.001891	62.9122	-46.1179	-168.161	0.008472	0.085456	-1.064712	-1.066073	-0.027278	62.9122	-1.064387	-1.666377E+14	1.636945E-16	NaN
524	1.000000	0.128813	7.37018e+06	-50889.1	1005.82	-29754.1	0.000000	0.000000	6.128760	0.021887	NaN	0.000000	0.001624	0.001837	28.0828	0.105764	0.002058	51.3795	-119.505	12.8994	0.078406	0.127491	-1.022716	-1.024037	0.021887	51.3795	-1.023035	-4.632219E+13	-4.724892E-16	NaN
524	1.000000	0.170824	7.37018e+06	-50889.1	1005.82	-29754.1	0.000000	0.000000	6.170768	-0.055007	NaN	0.000000	0.001659	0.001808	28.0828	0.064542	0.001972	32.7235	52.8247	-163.923	-0.084821	0.169578	-0.980705	-0.981950	-0.055007	32.7235	-0.979444	-1.199273E+13	4.586687E-15	NaN
524	1.000000	0.212845	7.37018e+06	-50889.1	1005.82	-29754.1	0.000000	0.000000	6.212788	-0.109836	NaN	0.000000	0.001669	0.001783	28.0813	0.067681	0.001932	35.0322	-153.951	15.0087	-0.028396	0.211508	-0.938683	-0.940020	-0.109836	35.0322	-0.936332	-3.145159E+12	3.492224E-14	NaN
524	1.000000	0.254898	7.37018e+06	-50889.1	1005.82	-29754.1	0.000000	0.000000	6.254845	0.011434	NaN	0.000000	0.001643	0.001780	28.0815	0.051571	0.001940	26.5841	-137.653	-163.856	-0.078664	0.253541	-0.896631	-0.897988	0.011434	26.5841	-0.896954	-9.244847E+11	-1.236762E-14	NaN
524	1.000000	0.296901	7.37018e+06	-50889.1	1005.82	-29754.1	0.000000	0.000000	6.296847	-0.014250	NaN	0.000000	0.001628	0.001766	28.0812	0.072889	0.001965	37.1012	-15.6414	11.8989	0.024424	0.295574	-0.854628	-0.855954	-0.014250	37.1012	-0.854340	-2.451869E+11	5.811869E-14	NaN
524	1.000000	0.338917	7.37018e+06	-50889.1	1005.82	-29754.1	0.000000	0.000000	6.338866	0.063155	NaN	0.000000	0.001602	0.001797	28.0825	0.075374	0.002103	35.8462	-3.512369	-164.832	0.040712	0.337622	-0.812612	-0.813907	0.063155	35.8462	-0.813933	-6.949074E+10	-9.088213E-13	NaN
524	1.000000	0.380944	7.37018e+06	-50889.1	1005.82	-29754.1	0.000000	0.000000	6.380890	-0.007328	NaN	0.000000	0.001617	0.001761	28.0824	0.032830	0.001997	16.4358	-74.1237	13.8065	0.004391	0.379549	-0.770585	-0.771979	-0.007328	16.4358	-0.770250	-1.773006E+10	4.132978E-13	NaN
524	1.000000	0.422977	7.37018e+06	-50889.1	1005.82	-29754.1	0.000000	0.000000	6.422926	0.057764	NaN	0.000000	0.001605	0.001814	28.0823	0.062678	0.002109	29.7194	-41.9767	-164.572	-0.002127	0.421639	-0.728551	-0.729889	0.057764	29.7194	-0.730009	-5.022606E+9	-1.150087E-11	NaN
524	1.000000	0.464977	7.37018e+06	-50889.1	1005.82	-29754.1	0.000000	0.000000	6.464924	0.012343	NaN	0.000000	0.001626	0.001797	28.0815	0.028325	0.002052	13.8015	44.6975	13.9006	0.003600	0.463629	-0.686552	-0.687900	0.012343	13.8015	-0.687223	-1.309051E+9	-9.429295E-12	NaN
524	1.000000	0.506998	7.37018e+06	-50889.1	1005.82	-29754.1	0.000000	0.000000	6.506945	-0.010063	NaN	0.000000	0.001622	0.001812	28.0814	0.035891	0.001975	18.1703	153.699	-166.649	0.003956	0.505693	-0.644530	-0.645835	-0.010063	18.1703	-0.644115	-3.363093E+8	2.992088E-11	NaN
524	1.000000	0.549009	7.37018e+06	-50889.1	1005.82	-29754.1	0.000000	0.000000	6.548957	0.039727	NaN	0.000000	0.001623	0.001825	28.0814	0.067109	0.001899	35.3461	-163.922	13.1971	0.068703	0.547665	-0.602520	-0.603864	0.039727	35.3461	-0.603363	-9.263245E+7	-4.288630E-10	NaN
524	1.000000	0.591036	7.37018e+06	-50889.1	1005.82	-29754.1	0.000000	0.000000	6.590980	-0.070105	NaN	0.000000	0.001652	0.001795	28.0827	0.041502	0.001970	21.0658	178.171	-162.194	-0.030766	0.589676	-0.560493	-0.561853	-0.070105	21.0658	-0.557997	-2.191106E+7	3.199530E-9	NaN
524	1.000000	0.633044	7.37018e+06	-50889.1	1005.82	-29754.1	0.000000	0.000000	6.632993	0.054137	NaN	0.000000	0.001649	0.001755	28.0826	0.101009	0.001969	51.2907	-134.361	18.1117	0.021352	0.631679	-0.518485	-0.519849	0.054137	51.2907	-0.519276	-6.36106e+06	-8.510752E-9	NaN
524	1.000000	0.675071	7.37018e+06	-50889.1	1005.82	-29754.1	0.000000	0.000000	6.675016	-0.037206	NaN	0.000000	0.001647	0.001772	28.0827	0.070895	0.001918	36.9547	49.1361	-164.14	-0.088137	0.673717	-0.476458	-0.477811	-0.037206	36.9547	-0.475703	-1.56801e+06	2.372841E-8	NaN
524	1.000000	0.717076	7.37018e+06	-50889.1	1005.82	-29754.1	0.000000	0.000000	6.717025	0.054432	NaN	0.000000	0.001636	0.001770	28.0828	0.136167	0.002118	64.2896	108.795	13.3602	-0.008215	0.715698	-0.434453	-0.435830	0.054432	64.2896	-0.435088	-420718	-1.293789E-7	NaN
524	1.000000	0.759078	7.37018e+06	-50889.1	1005.82	-29754.1	0.000000	0.000000	6.759025	0.018071	NaN	0.000000	0.001605	0.001652	28.0817	0.092881	0.002025	45.874	25.1812	-162.814	-0.007567	0.757767	-0.392451	-0.393761	0.018071	45.874	-0.392746	-105300	-1.716154E-7	NaN
524	1.000000	0.801135	7.37018e+06	-50889.1	1005.82	-29754.1	0.000000	0.000000	6.801083	0.020356	NaN	0.000000	0.001626	0.001663	28.0815	0.087986	0.002073	42.435	-83.2955	13.2009	0.011590	0.799765	-0.350393	-0.351763	0.020356	42.435	-0.350753	-26177.7	-7.776024E-7	NaN
524	1.000000	0.843116	7.37018e+06	-50889.1	1005.82	-29754.1	0.000000	0.000000	6.843065	0.055756	NaN	0.000000	0.001634	0.001697	28.0814	0.084740	0.001955	43.3388	-57.4726	-169.195	0.068963	0.841836	-0.308413	-0.309692	0.055756	43.3388	-0.309377	-6483.97	-8.599120E-6	NaN
524	1.000000	0.885149	7.37018e+06	-50889.1	1005.82	-29754.1	0.000000	0.000000	6.885096	0.016782	NaN	0.000000	0.001639	0.001700	28.0827	0.026807	0.001993	13.449	38.1207	17.8106	0.033324	0.883807	-0.266380	-0.267721	0.016782	13.449	-0.267316	-1516.01	-1.106982E-5	NaN
524	1.000000	0.927148	7.37018e+06	-50889.1	1005.82	-29754.1	0.000000	0.000000	6.927096	0.030903	NaN	0.000000	0.001638	0.001698	28.0827	0.054340	0.001906	28.5058	-158.775	-167.889	0.051598	0.925878	-0.224381	-0.225651	0.030903	28.5058	-0.225194	-336.055	-9.195933E-5	NaN
524	1.000000	0.969173	7.37018e+06	-50889.1	1005.82	-29754.1	0.000000	0.000000	6.969123	0.067360	NaN	0.000000	0.001626	0.001703	28.0827	0.070497	0.002101	33.5492	146.736	14.8208	-0.048447	0.967828	-0.182355	-0.183701	0.067360	33.5492	-0.183861	-70.9439	-0.000949	NaN
524	1.000000	1.011218	7.37018e+06	-50889.1	1005.82	-29754.1	0.000000	0.000000	7.011162	-0.072323	NaN	0.000000	0.001628	0.001649	28.0813	0.042184	0.001952	21.6078	177.732	-165.482	-0.019012	1.009896	-0.140310	-0.141633	-0.072323	21.6078	-0.137800	-10.7523	0.006726	NaN
524	1.000000	1.053232	7.37018e+06	-50889.1	1005.82	-29754.1	0.000000	0.000000	7.053179	0.009422	NaN	0.000000	0.001626	0.001647	28.0812	0.068497	0.002031	33.7177	-61.2836	13.9416	-0.050974	1.051795	-0.098297	-0.099733	0.009422	33.7177	-0.098507	-1.692524	-0.005567	NaN
524	1.000000	1.095254	7.37018e+06	-50889.1	1005.82	-29754.1	0.000000	0.000000	7.095202	0.030802	NaN	0.000000	0.001660	0.001662	28.0813	0.071766	0.001958	36.6445	71.9252	-167.077	0.053523	1.093933	-0.056275	-0.057595	0.030802	36.6445	-0.056905	-0.146507	-0.210241	NaN
524	1.000000	1.137234	7.37018e+06	-50889.1	1005.82	-29754.1	0.000000	0.000000	7.137181	0.010815	NaN	0.000000	0.001665	0.001681	28.0829	0.103236	0.002014	51.2544	-173.388	15.1648	0.062752	1.135849	-0.014294	-0.015679	0.010815	51.2544	-0.014453	-0.008950	-1.208470	NaN
524	2.000000	1.162818	7.37018e+06	-50889.1	1005.82	-29754.1	0.000000	0.000000	7.163436	16.3303	NaN	0.000000	0.001669	0.001649	28.0827	15.1694	0.001697	8936.91	8.084644	-177.648	17.8173	1.162550	0.011289	0.011021	16.3303	8936.91	0.009919	0.009092	1796.22	85633.3
524	2.000000	1.173231	7.37018e+06	-50889.1	1005.82	-29754.1	0.000000	0.000000	7.174822	39.9814	NaN	0.000000	0.001654	0.001674	28.083	24.8595	0.001767	14068.5	7.192020	-0.918456	37.0404	1.172849	0.021702	0.021320	39.9814	14068.5	0.019571	0.021873	1827.91	86910
524	2.000000	1.183718	7.37018e+06	-50889.1	1005.82	-29754.1	0.000000	0.000000	7.186300	64.0763	NaN	0.000000	0.001634	0.001691	28.0828	34.3233	0.001665	20616.2	4.172896	177.942	62.9275	1.183455	0.032189	0.031926	64.0763	20616.2	0.029858	0.040451	1584.07	93652.6
524	2.000000	1.194212	7.37018e+06	-50889.1	1005.82	-29754.1	0.000000	0.000000	7.198425	103.75	NaN	0.000000	0.001696	0.001656	28.0815	44.0203	0.001749	25163.9	6.084273	-3.544817	101.839	1.193818	0.042683	0.042290	103.75	25163.9	0.039591	0.062975	1647.46	91614.9
524	2.000000	1.204735	7.37018e+06	-50889.1	1005.82	-29754.1	0.000000	0.000000	7.211016	154.041	NaN	0.000000	0.001694	0.001667	28.0816	55.6691	0.001826	30482.9	5.213045	174.879	153.922	1.204464	0.053206	0.052936	154.041	30482.9	0.049416	0.090616	1699.92	92517.9
524	2.000000	1.215095	7.37018e+06	-50889.1	1005.82	-29754.1	0.000000	0.000000	7.223984	217.442	NaN	0.000000	0.001635	0.001631	28.0814	65.6174	0.001866	35168.5	2.263411	-2.838383	211.142	1.214765	0.063567	0.063236	217.442	35168.5	0.058929	0.121998	1782.35	91992.4
524	2.000000	1.225619	7.37018e+06	-50889.1	1005.82	-29754.1	0.000000	0.000000	7.237045	279.147	NaN	0.000000	0.001713	0.001652	28.0829	74.8411	0.001761	42498.3	3.189556	174.528	276.512	1.225427	0.074091	0.073898	279.147	42498.3	0.069164	0.160705	1737.01	96856.8
524	2.000000	1.236090	7.37018e+06	-50889.1	1005.82	-29754.1	0.000000	0.000000	7.250956	362.784	NaN	0.000000	0.001723	0.001681	28.0826	84.506	0.001764	47916.3	3.798844	-6.657856	357.126	1.235724	0.084562	0.084196	362.784	47916.3	0.078884	0.202091	1795.15	97383
524	2.000000	1.246592	7.37018e+06	-50889.1	1005.82	-29754.1	0.000000	0.000000	7.265010	449.19	NaN	0.000000	0.001720	0.001630	28.0825	94.3226	0.001840	51262.4	3.148857	173.782	444.284	1.246243	0.095063	0.094714	449.19	51262.4	0.088491	0.247338	1816.1	94173.2
524	2.000000	1.255596	7.37018e+06	-50889.1	1005.82	-29754.1	0.000000	0.000000	7.277102	524.266	NaN	0.000000	0.001633	0.001685	28.0815	104.417	0.001848	56508.2	7.280116	168.503	520.936	1.255287	0.104067	0.103758	524.266	56508.2	0.097109	0.291534	1798.3	95618