File: remote_trans/data/nanoindenter/0828-1/data/Data_2025-08-06,11h17m57s/2025-07-22_16-23-58_1_473.txt
2025-07-22, 16:23:58, 1
Index	Phase	Displacement	Time	Pos X	Pos Y	Pos Z	Rot A	Rot B	Piezo Z	Force A	Force B	Gripper	Voltage A	Voltage B	Temperature	Amplitude force	Amplitude pos	Stiffness	Phase shift	Phase excitation	Force A raw	Displacement raw	HMax	HMax raw	Real Force	Real Stiffness	Contact Depth	Area	Hardness	Reduced Mod.
[#]	[#]	[um]	[s]	[um]	[um]	[um]	[m°]	[m°]	[um]	[uN]	[uN]	[V]	[V]	[V]	[°C]	[uN]	[um]	[N/m]	[°]	[°]	[uN]	[um]	[um]	[um]	[uN]	[N/m]	[um]	[um^2]	[MPa]	[MPa]
473	1.000000	0.002462	7.36968e+06	-53439.1	1005.82	-29746.4	0.000000	0.000000	6.002779	0.055827	NaN	0.000000	0.001547	0.001778	28.0824	0.043986	0.000914	48.1157	118.631	-169.215	0.040776	0.001224	-1.084015	-1.085252	0.055827	48.1157	-1.084885	-3.141396E+14	-1.777148E-16	NaN
473	1.000000	0.042454	7.36968e+06	-53439.1	1005.82	-29746.4	0.000000	0.000000	6.042772	0.082176	NaN	0.000000	0.001576	0.001748	28.0821	0.097000	0.001925	50.3878	53.9538	-159.725	0.029847	0.041084	-1.044023	-1.045392	0.082176	50.3878	-1.045246	-9.215195E+13	-8.917487E-16	NaN
473	1.000000	0.082442	7.36968e+06	-53439.1	1005.82	-29746.4	0.000000	0.000000	6.082754	-0.073840	NaN	0.000000	0.001574	0.001766	28.0807	0.066470	0.001965	33.8354	-138.713	-164.408	-0.026311	0.081132	-1.004035	-1.005344	-0.073840	33.8354	-1.002398	-2.443725E+13	3.021606E-15	NaN
473	1.000000	0.122474	7.36968e+06	-53439.1	1005.82	-29746.4	0.000000	0.000000	6.122789	0.007604	NaN	0.000000	0.001573	0.001780	28.0806	0.043058	0.001915	22.4874	-87.4043	-163.187	0.004526	0.121163	-0.964003	-0.965314	0.007604	22.4874	-0.964256	-7.485991E+12	-1.015801E-15	NaN
473	1.000000	0.162469	7.36968e+06	-53439.1	1005.82	-29746.4	0.000000	0.000000	6.162784	0.014695	NaN	0.000000	0.001538	0.001778	28.0803	0.141618	0.002027	69.859	69.6651	-164.452	0.016289	0.161210	-0.924008	-0.925266	0.014695	69.859	-0.924165	-2.154975E+12	-6.819049E-15	NaN
473	1.000000	0.202490	7.36968e+06	-53439.1	1005.82	-29746.4	0.000000	0.000000	6.202807	0.043609	NaN	0.000000	0.001535	0.001729	28.0819	0.014534	0.001904	7.634592	-102.92	-162.401	-0.006437	0.201167	-0.883986	-0.885310	0.043609	7.634592	-0.888270	-7.055600E+11	-6.180709E-14	NaN
473	1.000000	0.242532	7.36968e+06	-53439.1	1005.82	-29746.4	0.000000	0.000000	6.242850	0.074417	NaN	0.000000	0.001602	0.001772	28.0817	0.056072	0.002101	26.6922	-81.0617	-161.113	0.046786	0.241223	-0.843945	-0.845254	0.074417	26.6922	-0.846036	-1.892561E+11	-3.932095E-13	NaN
473	1.000000	0.282541	7.36968e+06	-53439.1	1005.82	-29746.4	0.000000	0.000000	6.282856	-0.002764	NaN	0.000000	0.001569	0.001755	28.0817	0.004647	0.001894	2.453797	-31.7326	-163.695	-0.035195	0.281190	-0.803935	-0.805287	-0.002764	2.453797	-0.803091	-4.952371E+10	5.580294E-14	NaN
473	1.000000	0.322525	7.36968e+06	-53439.1	1005.82	-29746.4	0.000000	0.000000	6.322841	0.024506	NaN	0.000000	0.001580	0.001809	28.0818	0.037126	0.001974	18.8056	-33.4879	-167.311	-0.038853	0.321252	-0.763951	-0.765225	0.024506	18.8056	-0.764929	-1.500865E+10	-1.632762E-12	NaN
473	1.000000	0.362547	7.36968e+06	-53439.1	1005.82	-29746.4	0.000000	0.000000	6.362864	0.050769	NaN	0.000000	0.001560	0.001790	28.0809	0.058029	0.001916	30.2859	67.1783	-165.282	0.074602	0.361250	-0.723929	-0.725227	0.050769	30.2859	-0.725187	-4.317134E+9	-1.175995E-11	NaN
473	1.000000	0.402587	7.36968e+06	-53439.1	1005.82	-29746.4	0.000000	0.000000	6.402899	-0.058794	NaN	0.000000	0.001548	0.001790	28.0808	0.063180	0.002057	30.7169	76.4431	-165.86	-0.024922	0.401289	-0.683889	-0.685187	-0.058794	30.7169	-0.682454	-1.126583E+9	5.218809E-11	NaN
473	1.000000	0.442570	7.36968e+06	-53439.1	1005.82	-29746.4	0.000000	0.000000	6.442886	0.036054	NaN	0.000000	0.001557	0.001796	28.0808	0.133054	0.001931	68.9204	90.7003	-163.695	-0.025233	0.441303	-0.643907	-0.645173	0.036054	68.9204	-0.644299	-3.382739E+8	-1.065815E-10	NaN
473	1.000000	0.482624	7.36968e+06	-53439.1	1005.82	-29746.4	0.000000	0.000000	6.482939	0.012117	NaN	0.000000	0.001533	0.001821	28.0819	0.020187	0.002020	9.994668	30.7631	-163.723	-0.008958	0.481303	-0.603853	-0.605173	0.012117	9.994668	-0.604762	-9.683452E+7	-1.251351E-10	NaN
473	1.000000	0.522646	7.36968e+06	-53439.1	1005.82	-29746.4	0.000000	0.000000	6.522962	0.035610	NaN	0.000000	0.001556	0.001778	28.0819	0.143110	0.002146	66.6967	59.8031	-164.696	-0.001963	0.521369	-0.563831	-0.565108	0.035610	66.6967	-0.564231	-2.672355E+7	-1.332534E-9	NaN
473	1.000000	0.562644	7.36968e+06	-53439.1	1005.82	-29746.4	0.000000	0.000000	6.562959	0.013223	NaN	0.000000	0.001539	0.001780	28.0817	0.078005	0.001961	39.7872	-89.8228	-163.879	0.055179	0.561328	-0.523833	-0.525149	0.013223	39.7872	-0.524082	-7.4191e+06	-1.782251E-9	NaN
473	1.000000	0.602655	7.36968e+06	-53439.1	1005.82	-29746.4	0.000000	0.000000	6.602970	0.019558	NaN	0.000000	0.001566	0.001768	28.0813	0.064161	0.002091	30.6889	-144.892	-165.293	0.043621	0.601370	-0.483822	-0.485107	0.019558	30.6889	-0.484300	-2.0687e+06	-9.454438E-9	NaN
473	1.000000	0.642678	7.36968e+06	-53439.1	1005.82	-29746.4	0.000000	0.000000	6.642994	0.044431	NaN	0.000000	0.001529	0.001723	28.0806	0.020896	0.002025	10.3182	73.0527	-165.591	-0.013810	0.641371	-0.443799	-0.445105	0.044431	10.3182	-0.447029	-620132	-7.164765E-8	NaN
473	1.000000	0.682706	7.36968e+06	-53439.1	1005.82	-29746.4	0.000000	0.000000	6.683023	0.037320	NaN	0.000000	0.001564	0.001757	28.0807	0.035832	0.002045	17.5176	118.213	-165.993	0.057519	0.681375	-0.403770	-0.405101	0.037320	17.5176	-0.405368	-159400	-2.341269E-7	NaN
473	1.000000	0.722689	7.36968e+06	-53439.1	1005.82	-29746.4	0.000000	0.000000	6.723003	-0.017546	NaN	0.000000	0.001538	0.001741	28.0807	0.079428	0.001870	42.48	-83.1281	-164.347	0.014988	0.721377	-0.363787	-0.365099	-0.017546	42.48	-0.363477	-40001.9	4.386361E-7	NaN
473	1.000000	0.762738	7.36969e+06	-53439.1	1005.82	-29746.4	0.000000	0.000000	6.763055	0.035449	NaN	0.000000	0.001563	0.001688	28.0819	0.074078	0.001936	38.2726	-158.807	-167.725	0.049758	0.761481	-0.323738	-0.324996	0.035449	38.2726	-0.324433	-10809.6	-3.279402E-6	NaN
473	1.000000	0.802706	7.36969e+06	-53439.1	1005.82	-29746.4	0.000000	0.000000	6.803020	-0.014036	NaN	0.000000	0.001559	0.001766	28.0818	0.153677	0.002063	74.5095	-152.893	-167.095	-0.040217	0.801487	-0.283771	-0.284989	-0.014036	74.5095	-0.283629	-2677.01	5.243319E-6	NaN
473	1.000000	0.842762	7.36969e+06	-53439.1	1005.82	-29746.4	0.000000	0.000000	6.843077	0.002652	NaN	0.000000	0.001566	0.001729	28.0819	0.145274	0.002035	71.3885	81.0038	-163.951	-0.039108	0.841409	-0.243715	-0.245068	0.002652	71.3885	-0.243743	-657.505	-4.034114E-6	NaN
473	1.000000	0.882791	7.36969e+06	-53439.1	1005.82	-29746.4	0.000000	0.000000	6.883107	0.023884	NaN	0.000000	0.001577	0.001717	28.0807	0.112557	0.001995	56.4198	-87.9043	-167.084	0.001438	0.881502	-0.203685	-0.204975	0.023884	56.4198	-0.204003	-153.207	-0.000156	NaN
473	1.000000	0.922773	7.36969e+06	-53439.1	1005.82	-29746.4	0.000000	0.000000	6.923088	0.014972	NaN	0.000000	0.001560	0.001765	28.0807	0.087174	0.002106	41.3861	24.2658	-168.305	0.037136	0.921483	-0.163704	-0.164993	0.014972	41.3861	-0.163975	-32.2322	-0.000464	NaN
473	1.000000	0.962834	7.36969e+06	-53439.1	1005.82	-29746.4	0.000000	0.000000	6.963151	0.038928	NaN	0.000000	0.001568	0.001723	28.0808	0.005004	0.002040	2.452883	125.051	-162.339	0.041490	0.961485	-0.123642	-0.124992	0.038928	2.452883	-0.135545	-9.742859	-0.003996	NaN
473	1.000000	1.002845	7.36969e+06	-53439.1	1005.82	-29746.4	0.000000	0.000000	7.003160	-0.005764	NaN	0.000000	0.001610	0.001738	28.0807	0.045094	0.001837	24.5511	106.72	-163.864	-0.053120	1.001533	-0.083631	-0.084943	-0.005764	24.5511	-0.083455	-0.753542	0.007649	NaN
473	1.000000	1.042849	7.36969e+06	-53439.1	1005.82	-29746.4	0.000000	0.000000	7.043166	0.054804	NaN	0.000000	0.001546	0.001768	28.0818	0.111058	0.001874	59.26	126.57	-168.229	0.064934	1.041511	-0.043628	-0.044965	0.054804	59.26	-0.044321	-0.061268	-0.894496	NaN
473	1.000000	1.082844	7.36969e+06	-53439.1	1005.82	-29746.4	0.000000	0.000000	7.083185	0.619491	NaN	0.000000	0.001563	0.001730	28.0818	0.975526	0.001883	518.207	13.4573	-168.216	0.114789	1.081504	-0.003632	-0.004972	0.619491	518.207	-0.004529	-0.003118	-198.651	NaN
473	2.000000	1.099309	7.36969e+06	-53439.1	1005.82	-29746.4	0.000000	0.000000	7.100446	19.9826	NaN	0.000000	0.001574	0.001717	28.0821	17.2023	0.001778	9673.62	7.523808	-175.868	19.0781	1.099042	0.012833	0.012565	19.9826	9673.62	0.011283	0.010643	1877.56	85670.9
473	2.000000	1.109287	7.36969e+06	-53439.1	1005.82	-29746.4	0.000000	0.000000	7.111465	45.2932	NaN	0.000000	0.001533	0.001708	28.0808	26.5961	0.001747	15224.4	1.141338	-173.972	44.4276	1.108983	0.022810	0.022506	45.2932	15224.4	0.020579	0.023461	1930.61	90812
473	2.000000	1.119310	7.36969e+06	-53439.1	1005.82	-29746.4	0.000000	0.000000	7.122836	78.0744	NaN	0.000000	0.001554	0.001714	28.0809	37.1678	0.001790	20766.4	3.846280	-179.377	78.412	1.119004	0.032833	0.032527	78.0744	20766.4	0.030013	0.040771	1914.93	93963
473	2.000000	1.129235	7.36969e+06	-53439.1	1005.82	-29746.4	0.000000	0.000000	7.134344	116.556	NaN	0.000000	0.001605	0.001737	28.0807	47.4752	0.001768	26848.2	6.093632	175.452	113.965	1.128989	0.042759	0.042512	116.556	26848.2	0.039503	0.062749	1857.49	97922.8
473	2.000000	1.139261	7.36969e+06	-53439.1	1005.82	-29746.4	0.000000	0.000000	7.146297	163.413	NaN	0.000000	0.001522	0.001712	28.0809	57.1889	0.001883	30378.1	3.221598	177.588	161.638	1.139022	0.052784	0.052545	163.413	30378.1	0.048750	0.088588	1844.63	93249.2
473	2.000000	1.149305	7.36969e+06	-53439.1	1005.82	-29746.4	0.000000	0.000000	7.158786	222.844	NaN	0.000000	0.001591	0.001734	28.0822	66.008	0.001628	40544.7	4.393302	173.559	223.346	1.148971	0.062829	0.062494	222.844	40544.7	0.058707	0.121211	1838.48	106399
473	2.000000	1.159241	7.36969e+06	-53439.1	1005.82	-29746.4	0.000000	0.000000	7.171197	283.025	NaN	0.000000	0.001562	0.001753	28.0821	77.3787	0.001888	40975.6	6.189868	172.723	282.511	1.158928	0.072765	0.072451	283.025	40975.6	0.067585	0.154401	1833.05	95273.6
473	2.000000	1.169242	7.36969e+06	-53439.1	1005.82	-29746.4	0.000000	0.000000	7.184189	355.756	NaN	0.000000	0.001551	0.001765	28.0821	86.0308	0.001894	45422.6	6.291056	171.732	356.917	1.168878	0.082765	0.082402	355.756	45422.6	0.076891	0.193245	1840.96	94404.3
473	2.000000	1.179199	7.36969e+06	-53439.1	1005.82	-29746.4	0.000000	0.000000	7.197501	437.309	NaN	0.000000	0.001563	0.001767	28.0808	94.144	0.001748	53857.9	3.391969	173.482	436.397	1.178889	0.092722	0.092413	437.309	53857.9	0.086633	0.238251	1835.49	100810
473	2.000000	1.189260	7.36969e+06	-53439.1	1005.82	-29746.4	0.000000	0.000000	7.210695	513.509	NaN	0.000000	0.001559	0.001741	28.081	104.824	0.001777	58977.9	6.285776	170.244	515.088	1.188833	0.102783	0.102356	513.509	58977.9	0.096253	0.286992	1789.28	100584
473	2.000000	1.190098	7.36969e+06	-53439.1	1005.82	-29746.4	0.000000	0.000000	7.211827	520.643	NaN	0.000000	0.001596	0.001748	28.0809	105.1	0.001778	59101	5.857733	169.765	515.135	1.189908	0.103621	0.103431	520.643	59101	0.097014	0.291030	1788.97	100092