File: remote_trans/data/nanoindenter/0828-1/data/Data_2025-08-06,11h17m57s/2025-07-22_16-23-58_1_499.txt
2025-07-22, 16:23:58, 1
Index	Phase	Displacement	Time	Pos X	Pos Y	Pos Z	Rot A	Rot B	Piezo Z	Force A	Force B	Gripper	Voltage A	Voltage B	Temperature	Amplitude force	Amplitude pos	Stiffness	Phase shift	Phase excitation	Force A raw	Displacement raw	HMax	HMax raw	Real Force	Real Stiffness	Contact Depth	Area	Hardness	Reduced Mod.
[#]	[#]	[um]	[s]	[um]	[um]	[um]	[m°]	[m°]	[um]	[uN]	[uN]	[V]	[V]	[V]	[°C]	[uN]	[um]	[N/m]	[°]	[°]	[uN]	[um]	[um]	[um]	[uN]	[N/m]	[um]	[um^2]	[MPa]	[MPa]
499	1.000000	0.002763	7.36993e+06	-52139.1	1005.82	-29750	0.000000	0.000000	6.002774	-0.059128	NaN	0.000000	0.001625	0.001770	28.0827	0.060792	0.000958	63.447	110.498	-165.046	-0.051967	0.001494	-1.173015	-1.174284	-0.059128	63.447	-1.172316	-4.676455E+15	1.264370E-17	NaN
499	1.000000	0.046755	7.36993e+06	-52139.1	1005.82	-29750	0.000000	0.000000	6.046768	-0.031489	NaN	0.000000	0.001650	0.001753	28.0816	0.067060	0.001933	34.6931	-172.62	-161.847	-0.014365	0.045416	-1.129022	-1.130362	-0.031489	34.6931	-1.128342	-1.203314E+15	2.616817E-17	NaN
499	1.000000	0.090761	7.36993e+06	-52139.1	1005.82	-29750	0.000000	0.000000	6.090775	0.004984	NaN	0.000000	0.001662	0.001726	28.0814	0.095500	0.002038	46.8673	37.7345	-165.26	-0.002587	0.089421	-1.085017	-1.086357	0.004984	46.8673	-1.085096	-3.162007E+14	-1.576123E-17	NaN
499	1.000000	0.134785	7.36993e+06	-52139.1	1005.82	-29750	0.000000	0.000000	6.134797	-0.036774	NaN	0.000000	0.001594	0.001703	28.0809	0.069037	0.002071	33.3404	176.196	-162.43	-0.080529	0.133468	-1.040993	-1.042310	-0.036774	33.3404	-1.040165	-7.873954E+13	4.670323E-16	NaN
499	1.000000	0.178807	7.36993e+06	-52139.1	1005.82	-29750	0.000000	0.000000	6.178823	0.035395	NaN	0.000000	0.001598	0.001703	28.0821	0.075037	0.001926	38.9612	-63.6492	-165.811	0.025686	0.177472	-0.996970	-0.998306	0.035395	38.9612	-0.997652	-2.109362E+13	-1.678017E-15	NaN
499	1.000000	0.222795	7.36993e+06	-52139.1	1005.82	-29750	0.000000	0.000000	6.222809	0.000359	NaN	0.000000	0.001583	0.001717	28.0821	0.043237	0.002032	21.2801	-25.1044	-169.18	0.029833	0.221538	-0.952983	-0.954240	0.000359	21.2801	-0.952995	-5.277422E+12	-6.794180E-17	NaN
499	1.000000	0.266794	7.36993e+06	-52139.1	1005.82	-29750	0.000000	0.000000	6.266806	-0.022773	NaN	0.000000	0.001573	0.001734	28.0822	0.038057	0.001975	19.2669	-130.944	-163.249	-0.073788	0.265557	-0.908984	-0.910221	-0.022773	19.2669	-0.908098	-1.307579E+12	1.741596E-14	NaN
499	1.000000	0.310850	7.36993e+06	-52139.1	1005.82	-29750	0.000000	0.000000	6.310862	-0.045076	NaN	0.000000	0.001650	0.001667	28.0806	0.035773	0.001976	18.0994	12.8099	-162.715	0.001054	0.309548	-0.864928	-0.866229	-0.045076	18.0994	-0.863060	-3.217611E+11	1.400917E-13	NaN
499	1.000000	0.354859	7.36993e+06	-52139.1	1005.82	-29750	0.000000	0.000000	6.354876	0.079870	NaN	0.000000	0.001663	0.001715	28.0807	0.059562	0.002148	27.7336	113.896	-164.434	0.073598	0.353502	-0.820918	-0.822276	0.079870	27.7336	-0.823078	-9.245937E+10	-8.638402E-13	NaN
499	1.000000	0.398876	7.36993e+06	-52139.1	1005.82	-29750	0.000000	0.000000	6.398890	0.010126	NaN	0.000000	0.001630	0.001715	28.0808	0.032862	0.002044	16.0778	131.937	-166.316	0.038357	0.397628	-0.776902	-0.778149	0.010126	16.0778	-0.777374	-2.215907E+10	-4.569587E-13	NaN
499	1.000000	0.442921	7.36993e+06	-52139.1	1005.82	-29750	0.000000	0.000000	6.442933	-0.042693	NaN	0.000000	0.001643	0.001686	28.082	0.067642	0.001956	34.5758	-35.2859	-164.041	0.011317	0.441559	-0.732857	-0.734219	-0.042693	34.5758	-0.731931	-5.334847E+9	8.002707E-12	NaN
499	1.000000	0.486925	7.36994e+06	-52139.1	1005.82	-29750	0.000000	0.000000	6.486936	-0.065704	NaN	0.000000	0.001573	0.001745	28.0823	0.096861	0.002082	46.5172	130.746	-165.746	0.010858	0.485553	-0.688852	-0.690225	-0.065704	46.5172	-0.687793	-1.332772E+9	4.929887E-11	NaN
499	1.000000	0.530947	7.36994e+06	-52139.1	1005.82	-29750	0.000000	0.000000	6.530962	0.024073	NaN	0.000000	0.001604	0.001725	28.0821	0.066435	0.002021	32.8761	153.178	-166.623	0.014795	0.529644	-0.644831	-0.646134	0.024073	32.8761	-0.645380	-3.500145E+8	-6.877828E-11	NaN
499	1.000000	0.574969	7.36994e+06	-52139.1	1005.82	-29750	0.000000	0.000000	6.574981	-0.038134	NaN	0.000000	0.001606	0.001775	28.0819	0.059235	0.002072	28.5856	150.919	-163.023	0.049629	0.573660	-0.600809	-0.602118	-0.038134	28.5856	-0.599808	-8.276025E+7	4.607791E-10	NaN
499	1.000000	0.619002	7.36994e+06	-52139.1	1005.82	-29750	0.000000	0.000000	6.619015	-0.030613	NaN	0.000000	0.001593	0.001721	28.081	0.079915	0.002022	39.5134	-6.796534	-163.41	-0.092710	0.617672	-0.556776	-0.558106	-0.030613	39.5134	-0.556195	-2.068818E+7	1.479715E-9	NaN
499	1.000000	0.662985	7.36994e+06	-52139.1	1005.82	-29750	0.000000	0.000000	6.662996	-0.056524	NaN	0.000000	0.001599	0.001757	28.0811	0.054524	0.002068	26.3679	116.204	-163.473	-0.060028	0.661672	-0.512793	-0.514106	-0.056524	26.3679	-0.511186	-4.90826e+06	1.151603E-8	NaN
499	1.000000	0.707015	7.36994e+06	-52139.1	1005.82	-29750	0.000000	0.000000	6.707029	0.005415	NaN	0.000000	0.001554	0.001760	28.081	0.060477	0.001935	31.2595	-76.8631	-168.728	0.017874	0.705709	-0.468763	-0.470069	0.005415	31.2595	-0.468893	-1.25856e+06	-4.302675E-9	NaN
499	1.000000	0.751028	7.36994e+06	-52139.1	1005.82	-29750	0.000000	0.000000	6.751039	-0.068152	NaN	0.000000	0.001566	0.001715	28.0823	0.069292	0.002018	34.3301	13.4344	-164.152	-0.080846	0.749746	-0.424750	-0.426032	-0.068152	34.3301	-0.423261	-286184	2.381412E-7	NaN
499	1.000000	0.795040	7.36994e+06	-52139.1	1005.82	-29750	0.000000	0.000000	6.795050	-0.087951	NaN	0.000000	0.001582	0.001800	28.0821	0.154403	0.001945	79.371	-98.3974	-162.829	-0.098486	0.793732	-0.380738	-0.382046	-0.087951	79.371	-0.379907	-68953.2	1.275514E-6	NaN
499	1.000000	0.839048	7.36994e+06	-52139.1	1005.82	-29750	0.000000	0.000000	6.839062	0.002518	NaN	0.000000	0.001609	0.001790	28.0826	0.023624	0.001971	11.9834	-43.5942	-163.695	-0.065134	0.837724	-0.336730	-0.338054	0.002518	11.9834	-0.336887	-16449.3	-1.530510E-7	NaN
499	1.000000	0.883092	7.36994e+06	-52139.1	1005.82	-29750	0.000000	0.000000	6.883106	-0.006649	NaN	0.000000	0.001519	0.001791	28.0811	0.101584	0.001849	54.9296	-29.6083	-162.486	-0.113667	0.881761	-0.292685	-0.294017	-0.006649	54.9296	-0.292595	-3648.71	1.822316E-6	NaN
499	1.000000	0.927092	7.36994e+06	-52139.1	1005.82	-29750	0.000000	0.000000	6.927103	-0.048388	NaN	0.000000	0.001534	0.001825	28.0811	0.104567	0.002004	52.1883	-138.659	-164.945	-0.090824	0.925758	-0.248686	-0.250019	-0.048388	52.1883	-0.247991	-765.348	6.322301E-5	NaN
499	1.000000	0.971088	7.36994e+06	-52139.1	1005.82	-29750	0.000000	0.000000	6.971102	0.017061	NaN	0.000000	0.001601	0.001792	28.0814	0.044222	0.001904	23.2255	-147.818	-160.434	0.065331	0.969799	-0.204690	-0.205979	0.017061	23.2255	-0.205241	-160.503	-0.000106	NaN
499	1.000000	1.015167	7.36994e+06	-52139.1	1005.82	-29750	0.000000	0.000000	7.015181	-0.000497	NaN	0.000000	0.001558	0.001723	28.0824	0.047457	0.001862	25.4879	4.231878	-165.38	0.011927	1.013805	-0.160611	-0.161973	-0.000497	25.4879	-0.160596	-28.0912	1.769933E-5	NaN
499	1.000000	1.059133	7.36994e+06	-52139.1	1005.82	-29750	0.000000	0.000000	7.059147	-0.001246	NaN	0.000000	0.001585	0.001738	28.0823	0.033387	0.002006	16.6406	-143.95	-168.188	0.021255	1.057814	-0.116645	-0.117964	-0.001246	16.6406	-0.116588	-4.118475	0.000303	NaN
499	1.000000	1.103175	7.36994e+06	-52139.1	1005.82	-29750	0.000000	0.000000	7.103187	-0.033153	NaN	0.000000	0.001543	0.001764	28.0822	0.096188	0.002025	47.5071	112.802	-167.479	-0.042817	1.101842	-0.072603	-0.073935	-0.033153	47.5071	-0.072079	-0.387425	0.085572	NaN
499	1.000000	1.147181	7.36994e+06	-52139.1	1005.82	-29750	0.000000	0.000000	7.147193	-0.038100	NaN	0.000000	0.001546	0.001762	28.0812	0.049134	0.002052	23.9472	137.229	-163.348	-0.090981	1.145851	-0.028597	-0.029926	-0.038100	23.9472	-0.027404	-0.019537	1.950211	NaN
499	2.000000	1.186759	7.36994e+06	-52139.1	1005.82	-29750	0.000000	0.000000	7.187207	10.5564	NaN	0.000000	0.001541	0.001711	28.0812	11.1696	0.001785	6257.26	12.2857	-176.375	11.0106	1.186494	0.010981	0.010716	10.5564	6257.26	0.009716	0.008867	1190.47	60709.9
499	2.000000	1.197677	7.36994e+06	-52139.1	1005.82	-29750	0.000000	0.000000	7.199090	34.0186	NaN	0.000000	0.001555	0.001706	28.0813	22.9579	0.001749	13125.5	5.807039	-178.864	32.4418	1.197276	0.021899	0.021498	34.0186	13125.5	0.019955	0.022472	1513.81	79995.9
499	2.000000	1.208642	7.36994e+06	-52139.1	1005.82	-29750	0.000000	0.000000	7.211284	63.8995	NaN	0.000000	0.001556	0.001758	28.0821	34.7327	0.001816	19129.2	3.186950	-178.213	61.5823	1.208314	0.032864	0.032536	63.8995	19129.2	0.030359	0.041491	1540.06	85800.8
499	2.000000	1.219675	7.36994e+06	-52139.1	1005.82	-29750	0.000000	0.000000	7.223957	103.793	NaN	0.000000	0.001571	0.001779	28.0824	46.3709	0.001899	24418	7.494745	176.447	104.967	1.219229	0.043897	0.043452	103.793	24418	0.040709	0.065874	1575.63	86921.5
499	2.000000	1.230535	7.36994e+06	-52139.1	1005.82	-29750	0.000000	0.000000	7.237034	157.684	NaN	0.000000	0.001571	0.001730	28.0824	57.0127	0.001877	30374.6	5.672785	175.05	153.759	1.230221	0.054758	0.054443	157.684	30374.6	0.050864	0.095103	1658.04	89988.5
499	2.000000	1.241530	7.36994e+06	-52139.1	1005.82	-29750	0.000000	0.000000	7.250519	218.223	NaN	0.000000	0.001531	0.001717	28.0809	65.9485	0.001707	38630.1	5.334744	173.88	214.585	1.241248	0.065753	0.065470	218.223	38630.1	0.061516	0.131300	1662.02	97401.7
499	2.000000	1.252543	7.36994e+06	-52139.1	1005.82	-29750	0.000000	0.000000	7.264275	284.932	NaN	0.000000	0.001551	0.001775	28.0809	77.6003	0.001822	42581.4	4.560370	174.181	282.185	1.252205	0.076765	0.076427	284.932	42581.4	0.071747	0.171265	1663.68	94006.6
499	2.000000	1.263512	7.36994e+06	-52139.1	1005.82	-29750	0.000000	0.000000	7.277923	350.061	NaN	0.000000	0.001522	0.001758	28.0812	87.0896	0.001777	49011.7	0.292907	176.65	346.679	1.263229	0.087734	0.087451	350.061	49011.7	0.082378	0.218051	1605.41	95894.6
499	2.000000	1.274407	7.36994e+06	-52139.1	1005.82	-29750	0.000000	0.000000	7.292198	432.245	NaN	0.000000	0.001504	0.001728	28.0824	97.6661	0.001601	60993.6	3.523755	172.562	422.377	1.274100	0.098630	0.098322	432.245	60993.6	0.093315	0.271655	1591.15	106917
499	2.000000	1.283528	7.36994e+06	-52139.1	1005.82	-29750	0.000000	0.000000	7.304120	500.345	NaN	0.000000	0.001562	0.001753	28.0825	108.618	0.001873	58006.8	7.917545	167.84	500.134	1.283267	0.107751	0.107489	500.345	58006.8	0.101281	0.314149	1592.7	94555