File: remote_trans/data/nanoindenter/0828-1/data/Data_2025-08-06,11h17m57s/2025-07-22_16-23-58_1_34.txt
2025-07-22, 16:23:58, 1
Index	Phase	Displacement	Time	Pos X	Pos Y	Pos Z	Rot A	Rot B	Piezo Z	Force A	Force B	Gripper	Voltage A	Voltage B	Temperature	Amplitude force	Amplitude pos	Stiffness	Phase shift	Phase excitation	Force A raw	Displacement raw	HMax	HMax raw	Real Force	Real Stiffness	Contact Depth	Area	Hardness	Reduced Mod.
[#]	[#]	[um]	[s]	[um]	[um]	[um]	[m°]	[m°]	[um]	[uN]	[uN]	[V]	[V]	[V]	[°C]	[uN]	[um]	[N/m]	[°]	[°]	[uN]	[um]	[um]	[um]	[uN]	[N/m]	[um]	[um^2]	[MPa]	[MPa]
34	1.000000	0.002837	7.36537e+06	-40339.1	955.82	-29791	0.000000	0.000000	6.002815	-0.036460	NaN	0.000000	0.001578	0.001623	28.0835	0.073025	0.001043	70.0016	-157.712	-173.414	0.054731	0.001568	-1.096376	-1.097645	-0.036460	70.0016	-1.095986	-4.427693E+14	8.234547E-17	NaN
34	1.000000	0.042761	7.36537e+06	-40339.1	955.819	-29791	0.000000	0.000000	6.042741	-0.004147	NaN	0.000000	0.001561	0.001604	28.0799	0.025612	0.001893	13.5302	-16.9814	-162.809	0.060615	0.041505	-1.056452	-1.057708	-0.004147	13.5302	-1.056222	-1.294342E+14	3.204175E-17	NaN
34	1.000000	0.082774	7.36537e+06	-40339.1	955.818	-29791	0.000000	0.000000	6.082754	0.006840	NaN	0.000000	0.001627	0.001646	28.0807	0.032037	0.002057	15.5768	-89.0722	-163.544	0.023011	0.081510	-1.016439	-1.017703	0.006840	15.5768	-1.016769	-3.814798E+13	-1.792943E-16	NaN
34	1.000000	0.122831	7.36537e+06	-40339.1	955.818	-29791	0.000000	0.000000	6.122813	0.044167	NaN	0.000000	0.001614	0.001610	28.0806	0.042720	0.002118	20.1664	139.889	-166.377	0.041381	0.121508	-0.976382	-0.977705	0.044167	20.1664	-0.978025	-1.147622E+13	-3.848579E-15	NaN
34	1.000000	0.162827	7.36537e+06	-40339.1	955.818	-29791	0.000000	0.000000	6.162806	-0.033407	NaN	0.000000	0.001622	0.001630	28.0819	0.067953	0.001878	36.1829	-174.238	-165.044	0.039127	0.161442	-0.936386	-0.937771	-0.033407	36.1829	-0.935693	-3.083380E+12	1.083450E-14	NaN
34	1.000000	0.202846	7.36537e+06	-40339.1	955.819	-29791	0.000000	0.000000	6.202826	0.004894	NaN	0.000000	0.001579	0.001581	28.0818	0.201366	0.001971	102.174	-165.542	-163.733	-0.055659	0.201549	-0.896367	-0.897664	0.004894	102.174	-0.896403	-9.087738E+11	-5.384914E-15	NaN
34	1.000000	0.242846	7.36537e+06	-40339.1	955.818	-29791	0.000000	0.000000	6.242825	-0.022644	NaN	0.000000	0.001578	0.001634	28.0818	0.051608	0.001989	25.9419	114.407	-162.494	0.032068	0.241589	-0.856367	-0.857624	-0.022644	25.9419	-0.855712	-2.559057E+11	8.848739E-14	NaN
34	1.000000	0.282841	7.36537e+06	-40339.1	955.818	-29791	0.000000	0.000000	6.282824	0.062553	NaN	0.000000	0.001650	0.001594	28.0821	0.032953	0.001889	17.4452	-168.049	-165.458	0.035990	0.281574	-0.816371	-0.817639	0.062553	17.4452	-0.819061	-8.155916E+10	-7.669610E-13	NaN
34	1.000000	0.322860	7.36537e+06	-40339.1	955.819	-29791	0.000000	0.000000	6.322842	0.045994	NaN	0.000000	0.001657	0.001625	28.081	0.027430	0.002047	13.4031	68.4958	-163.744	0.033837	0.321559	-0.776353	-0.777654	0.045994	13.4031	-0.778927	-2.326219E+10	-1.977196E-12	NaN
34	1.000000	0.362912	7.36537e+06	-40339.1	955.819	-29791	0.000000	0.000000	6.362893	0.011439	NaN	0.000000	0.001689	0.001622	28.0807	0.127503	0.001989	64.0941	143.2	-165.792	-0.005480	0.361579	-0.736301	-0.737634	0.011439	64.0941	-0.736435	-6.144534E+9	-1.861639E-12	NaN
34	1.000000	0.402925	7.36537e+06	-40339.1	955.818	-29791	0.000000	0.000000	6.402909	0.077147	NaN	0.000000	0.001620	0.001642	28.0799	0.066225	0.002074	31.9287	-31.699	-165.094	0.022600	0.401623	-0.696288	-0.697590	0.077147	31.9287	-0.698100	-1.843229E+9	-4.185404E-11	NaN
34	1.000000	0.442948	7.36537e+06	-40339.1	955.819	-29791	0.000000	0.000000	6.442926	-0.052584	NaN	0.000000	0.001584	0.001626	28.0811	0.048482	0.002060	23.5379	49.3917	-166.802	0.013769	0.441651	-0.656265	-0.657562	-0.052584	23.5379	-0.654590	-4.681065E+8	1.123336E-10	NaN
34	1.000000	0.482936	7.36537e+06	-40339.1	955.818	-29791	0.000000	0.000000	6.482916	-0.002183	NaN	0.000000	0.001566	0.001611	28.0818	0.012178	0.001960	6.214267	-10.0389	-168.227	-0.091677	0.481642	-0.616276	-0.617570	-0.002183	6.214267	-0.616013	-1.382992E+8	1.578658E-11	NaN
34	1.000000	0.522964	7.36538e+06	-40339.1	955.818	-29791	0.000000	0.000000	6.522945	0.028421	NaN	0.000000	0.001632	0.001624	28.0795	0.090090	0.001923	46.8581	141.162	-164.315	0.033848	0.521709	-0.576249	-0.577504	0.028421	46.8581	-0.576704	-3.974016E+7	-7.151689E-10	NaN
34	1.000000	0.562990	7.36538e+06	-40339.1	955.818	-29791	0.000000	0.000000	6.562968	-0.054637	NaN	0.000000	0.001601	0.001608	28.0809	0.175833	0.002089	84.1597	-60.8741	-162.366	0.012852	0.561660	-0.536223	-0.537553	-0.054637	84.1597	-0.535736	-1.076959E+7	5.073247E-9	NaN
34	1.000000	0.602996	7.36538e+06	-40339.1	955.818	-29791	0.000000	0.000000	6.602973	-0.068843	NaN	0.000000	0.001594	0.001644	28.0784	0.056596	0.001907	29.6704	34.6777	-164.955	-0.077635	0.601710	-0.496217	-0.497503	-0.068843	29.6704	-0.494477	-2.87033e+06	2.398437E-8	NaN
34	1.000000	0.643059	7.36538e+06	-40339.1	955.817	-29791	0.000000	0.000000	6.643041	0.039928	NaN	0.000000	0.001622	0.001701	28.08	0.095436	0.002032	46.9566	-127.144	-162.016	-0.011610	0.641720	-0.456153	-0.457493	0.039928	46.9566	-0.456791	-850959	-4.692120E-8	NaN
34	1.000000	0.683041	7.36538e+06	-40339.1	955.818	-29791	0.000000	0.000000	6.683023	0.048854	NaN	0.000000	0.001600	0.001677	28.079	0.086091	0.001960	43.9178	137.023	-166.543	0.010847	0.681717	-0.416172	-0.417495	0.048854	43.9178	-0.417007	-233315	-2.093912E-7	NaN
34	1.000000	0.723051	7.36538e+06	-40339.1	955.819	-29791	0.000000	0.000000	6.723031	-0.011308	NaN	0.000000	0.001612	0.001683	28.0795	0.066901	0.001967	34.005	56.3818	-163.89	0.010498	0.721751	-0.376161	-0.377462	-0.011308	34.005	-0.375912	-60419.9	1.871502E-7	NaN
34	1.000000	0.763051	7.36538e+06	-40339.1	955.817	-29791	0.000000	0.000000	6.763030	-0.027273	NaN	0.000000	0.001606	0.001745	28.0803	0.026028	0.002010	12.9514	110.567	-165.945	-0.094946	0.761772	-0.336162	-0.337441	-0.027273	12.9514	-0.334583	-15222.7	1.791615E-6	NaN
34	1.000000	0.803071	7.36538e+06	-40339.1	955.818	-29791	0.000000	0.000000	6.803049	-0.060995	NaN	0.000000	0.001607	0.001687	28.0807	0.028631	0.002128	13.4569	41.4593	-165.024	-0.044170	0.801797	-0.296142	-0.297416	-0.060995	13.4569	-0.292742	-3667.32	1.663216E-5	NaN
34	1.000000	0.843103	7.36538e+06	-40339.1	955.818	-29791	0.000000	0.000000	6.843081	-0.035072	NaN	0.000000	0.001620	0.001716	28.0803	0.025145	0.002055	12.2365	-51.8608	-164.657	0.004266	0.841750	-0.256110	-0.257463	-0.035072	12.2365	-0.253961	-946.468	3.705602E-5	NaN
34	1.000000	0.883116	7.36538e+06	-40339.1	955.818	-29791	0.000000	0.000000	6.883095	-0.025550	NaN	0.000000	0.001627	0.001717	28.08	0.120977	0.002024	59.7854	168.864	-162.469	-0.046964	0.881817	-0.216096	-0.217396	-0.025550	59.7854	-0.215776	-237.678	0.000107	NaN
34	1.000000	0.923155	7.36538e+06	-40339.1	955.818	-29791	0.000000	0.000000	6.923136	0.034765	NaN	0.000000	0.001638	0.001661	28.0781	0.057330	0.002005	28.5872	73.6573	-166.297	0.038066	0.921780	-0.176058	-0.177433	0.034765	28.5872	-0.176970	-54.1706	-0.000642	NaN
34	1.000000	0.963152	7.36538e+06	-40339.1	955.819	-29791	0.000000	0.000000	6.963129	-0.061692	NaN	0.000000	0.001576	0.001715	28.0806	0.036385	0.001982	18.3551	-68.3247	-166.389	-0.063056	0.961829	-0.136061	-0.137384	-0.061692	18.3551	-0.133540	-8.919828	0.006916	NaN
34	1.000000	1.003158	7.36538e+06	-40339.1	955.819	-29791	0.000000	0.000000	7.003137	-0.035389	NaN	0.000000	0.001623	0.001686	28.0791	0.065147	0.002049	31.7898	-123.414	-161.206	0.010024	1.001885	-0.096055	-0.097328	-0.035389	31.7898	-0.095220	-1.426988	0.024800	NaN
34	1.000000	1.043194	7.36538e+06	-40339.1	955.818	-29791	0.000000	0.000000	7.043176	0.041821	NaN	0.000000	0.001652	0.001719	28.0819	0.095265	0.002014	47.313	-48.9722	-166.199	0.042057	1.041918	-0.056019	-0.057295	0.041821	47.313	-0.056682	-0.144317	-0.289788	NaN
34	1.000000	1.083208	7.36538e+06	-40339.1	955.818	-29791	0.000000	0.000000	7.083185	-0.061929	NaN	0.000000	0.001634	0.001723	28.0796	0.113187	0.002056	55.0538	-31.3424	-162.958	0.003440	1.081858	-0.016005	-0.017355	-0.061929	55.0538	-0.015161	-0.009372	6.607647	NaN
34	2.000000	1.111693	7.36538e+06	-40339.1	955.818	-29791	0.000000	0.000000	7.112166	11.9968	NaN	0.000000	0.001574	0.001630	28.0807	12.5585	0.001826	6877.9	8.664687	-173.858	11.4607	1.111445	0.012480	0.012232	11.9968	6877.9	0.011172	0.010513	1141.16	61287.1
34	2.000000	1.121739	7.36538e+06	-40339.1	955.819	-29791	0.000000	0.000000	7.122886	28.3918	NaN	0.000000	0.001622	0.001641	28.0787	22.3843	0.001863	12014	9.807146	-178.896	31.5301	1.121392	0.022526	0.022179	28.3918	12014	0.020753	0.023740	1195.95	71239.7
34	2.000000	1.131636	7.36538e+06	-40339.1	955.819	-29791	0.000000	0.000000	7.133867	54.7817	NaN	0.000000	0.001591	0.001733	28.0799	33.2172	0.001801	18443.4	6.337659	179.132	54.2089	1.131351	0.032423	0.032138	54.7817	18443.4	0.030195	0.041150	1331.28	83067.5
34	2.000000	1.141565	7.36538e+06	-40339.1	955.819	-29791	0.000000	0.000000	7.145208	89.1466	NaN	0.000000	0.001600	0.001675	28.0784	42.8168	0.001733	24709.8	5.115020	176.923	85.7758	1.141378	0.042352	0.042165	89.1466	24709.8	0.039646	0.063117	1412.4	89860.6
34	2.000000	1.151599	7.36538e+06	-40339.1	955.82	-29791	0.000000	0.000000	7.156837	127.93	NaN	0.000000	0.001630	0.001695	28.0803	53.9766	0.001879	28722.3	3.375880	177.772	126.162	1.151326	0.052386	0.052114	127.93	28722.3	0.049046	0.089487	1429.59	87722.8
34	2.000000	1.161564	7.36538e+06	-40339.1	955.819	-29791	0.000000	0.000000	7.169193	186.11	NaN	0.000000	0.001618	0.001732	28.0789	63.8925	0.001851	34524.3	5.594187	174.585	185.256	1.161230	0.062351	0.062017	186.11	34524.3	0.058308	0.119813	1553.35	91127.1
34	2.000000	1.171561	7.36538e+06	-40339.1	955.819	-29791	0.000000	0.000000	7.181828	250.304	NaN	0.000000	0.001556	0.001681	28.081	73.7839	0.001805	40867.2	8.011148	170.5	249.301	1.171249	0.072348	0.072036	250.304	40867.2	0.067755	0.155075	1614.08	94815
34	2.000000	1.181533	7.36538e+06	-40339.1	955.82	-29791	0.000000	0.000000	7.194767	322.518	NaN	0.000000	0.001635	0.001704	28.0785	81.0939	0.001733	46806.1	1.396908	176.528	318.493	1.181097	0.082320	0.081884	322.518	46806.1	0.077152	0.194392	1659.11	96992.1
34	2.000000	1.191572	7.36538e+06	-40339.1	955.819	-29791	0.000000	0.000000	7.207885	397.447	NaN	0.000000	0.001609	0.001698	28.0796	93.625	0.001699	55121.7	7.073591	169.449	396.543	1.191297	0.092359	0.092084	397.447	55121.7	0.086951	0.239797	1657.43	102843
34	2.000000	1.201541	7.36538e+06	-40339.1	955.819	-29791	0.000000	0.000000	7.221666	490.222	NaN	0.000000	0.001647	0.001712	28.0776	100.856	0.001862	54154.7	3.696409	173.791	489.038	1.201136	0.102328	0.101923	490.222	54154.7	0.095538	0.283226	1730.85	92969.9
34	2.000000	1.206384	7.36538e+06	-40339.1	955.819	-29791	0.000000	0.000000	7.228356	535.143	NaN	0.000000	0.001612	0.001660	28.1311	104.926	0.001782	58877.7	5.682634	171.107	524.719	1.206171	0.107171	0.106958	535.143	58877.7	0.100355	0.309056	1731.54	96762.1