File: remote_trans/data/nanoindenter/0828-1/data/Data_2025-08-06,11h17m57s/2025-07-22_16-23-58_1_317.txt
2025-07-22, 16:23:58, 1
Index	Phase	Displacement	Time	Pos X	Pos Y	Pos Z	Rot A	Rot B	Piezo Z	Force A	Force B	Gripper	Voltage A	Voltage B	Temperature	Amplitude force	Amplitude pos	Stiffness	Phase shift	Phase excitation	Force A raw	Displacement raw	HMax	HMax raw	Real Force	Real Stiffness	Contact Depth	Area	Hardness	Reduced Mod.
[#]	[#]	[um]	[s]	[um]	[um]	[um]	[m°]	[m°]	[um]	[uN]	[uN]	[V]	[V]	[V]	[°C]	[uN]	[um]	[N/m]	[°]	[°]	[uN]	[um]	[um]	[um]	[uN]	[N/m]	[um]	[um^2]	[MPa]	[MPa]
317	1.000000	0.002006	7.36816e+06	-54489.1	955.819	-29743.1	0.000000	0.000000	6.002812	0.000922	NaN	0.000000	0.001595	0.001734	28.0784	0.060721	0.000907	66.9611	-109.161	-172.83	-0.040122	0.000733	-1.734019	-1.735292	0.000922	66.9611	-1.734029	-1.440131E+23	-6.403572E-27	NaN
317	1.000000	0.061941	7.36816e+06	-54489.1	955.819	-29743.1	0.000000	0.000000	6.062750	0.083379	NaN	0.000000	0.001710	0.001740	28.0798	0.049834	0.001913	26.0513	32.3122	-166.611	-0.021727	0.060633	-1.674083	-1.675391	0.083379	26.0513	-1.676484	-2.477424E+22	-3.365537E-24	NaN
317	1.000000	0.121991	7.36816e+06	-54489.1	955.819	-29743.1	0.000000	0.000000	6.122793	-0.080546	NaN	0.000000	0.001735	0.001719	28.0801	0.119011	0.001967	60.5002	-60.6572	-164.336	-0.068649	0.120650	-1.614034	-1.615375	-0.080546	60.5002	-1.613035	-3.552898E+21	2.267054E-23	NaN
317	1.000000	0.182005	7.36816e+06	-54489.1	955.818	-29743.1	0.000000	0.000000	6.182814	0.067640	NaN	0.000000	0.001642	0.001700	28.0785	0.061190	0.002102	29.1149	-114.913	-166.843	0.040929	0.180681	-1.554019	-1.555344	0.067640	29.1149	-1.555762	-6.147184E+20	-1.100339E-22	NaN
317	1.000000	0.242021	7.36817e+06	-54489.1	955.819	-29743.1	0.000000	0.000000	6.242826	-0.010488	NaN	0.000000	0.001657	0.001739	28.0784	0.062784	0.001913	32.8278	-67.2969	-164.255	0.107615	0.240746	-1.494004	-1.495279	-0.010488	32.8278	-1.493764	-9.188757E+19	1.141408E-22	NaN
317	1.000000	0.302020	7.36817e+06	-54489.1	955.819	-29743.1	0.000000	0.000000	6.302826	0.026028	NaN	0.000000	0.001613	0.001714	28.0799	0.129523	0.001842	70.3186	-70.0478	-168.717	0.076320	0.300708	-1.434005	-1.435316	0.026028	70.3186	-1.434282	-1.481267E+19	-1.757174E-21	NaN
317	1.000000	0.362070	7.36817e+06	-54489.1	955.819	-29743.1	0.000000	0.000000	6.362876	0.012531	NaN	0.000000	0.001638	0.001721	28.0796	0.088777	0.002038	43.5683	-73.6299	-165.867	0.003079	0.360735	-1.373955	-1.375290	0.012531	43.5683	-1.374171	-2.338036E+18	-5.359479E-21	NaN
317	1.000000	0.422079	7.36817e+06	-54489.1	955.817	-29743.1	0.000000	0.000000	6.422884	-0.000605	NaN	0.000000	0.001632	0.001698	28.0795	0.029190	0.001984	14.7112	-108.28	-166.678	-0.008244	0.420834	-1.313946	-1.315191	-0.000605	14.7112	-1.313915	-3.667096E+17	1.649135E-21	NaN
317	1.000000	0.482152	7.36817e+06	-54489.1	955.818	-29743.1	0.000000	0.000000	6.482957	-0.007076	NaN	0.000000	0.001673	0.001715	28.0783	0.079440	0.002167	36.6507	72.2425	-167.226	-0.056564	0.480816	-1.253873	-1.255209	-0.007076	36.6507	-1.253728	-5.751625E+16	1.230227E-19	NaN
317	1.000000	0.542155	7.36817e+06	-54489.1	955.818	-29743.1	0.000000	0.000000	6.542959	-0.017607	NaN	0.000000	0.001637	0.001716	28.0786	0.214755	0.002095	102.527	102.277	-163.976	-0.071707	0.540878	-1.193870	-1.195147	-0.017607	102.527	-1.193741	-9.055907E+15	1.944222E-18	NaN
317	1.000000	0.602197	7.36817e+06	-54489.1	955.819	-29743.1	0.000000	0.000000	6.603003	0.024707	NaN	0.000000	0.001616	0.001701	28.0797	0.068662	0.001926	35.6586	63.2053	-165.496	-0.039874	0.600880	-1.133828	-1.135145	0.024707	35.6586	-1.134347	-1.448545E+15	-1.705651E-17	NaN
317	1.000000	0.662190	7.36817e+06	-54489.1	955.819	-29743.1	0.000000	0.000000	6.662995	0.002751	NaN	0.000000	0.001597	0.001744	28.0799	0.059731	0.001918	31.1497	-168.153	-167.084	-0.046321	0.660898	-1.073835	-1.075127	0.002751	31.1497	-1.073901	-2.236653E+14	-1.230180E-17	NaN
317	1.000000	0.722207	7.36817e+06	-54489.1	955.818	-29743.1	0.000000	0.000000	6.723015	0.049150	NaN	0.000000	0.001640	0.001695	28.0782	0.094242	0.002028	46.4799	11.3152	-167.13	0.095844	0.720939	-1.013817	-1.015086	0.049150	46.4799	-1.014610	-3.568048E+13	-1.377516E-15	NaN
317	1.000000	0.782255	7.36817e+06	-54489.1	955.818	-29743.1	0.000000	0.000000	6.783058	-0.057618	NaN	0.000000	0.001592	0.001653	28.0782	0.057013	0.001953	29.1986	83.2386	-163.946	-0.080480	0.780974	-0.953770	-0.955051	-0.057618	29.1986	-0.952290	-5.163025E+12	1.115968E-14	NaN
317	1.000000	0.842320	7.36817e+06	-54489.1	955.818	-29743.1	0.000000	0.000000	6.843124	-0.028758	NaN	0.000000	0.001569	0.001672	28.0796	0.078983	0.002085	37.882	-50.0301	-165.185	-0.011090	0.841000	-0.893705	-0.895025	-0.028758	37.882	-0.893136	-8.209212E+11	3.503080E-14	NaN
317	1.000000	0.902305	7.36817e+06	-54489.1	955.819	-29743.1	0.000000	0.000000	6.903110	-0.017721	NaN	0.000000	0.001712	0.001656	28.0793	0.051302	0.001941	26.4348	-154.46	-167.728	-0.103612	0.901038	-0.833719	-0.834986	-0.017721	26.4348	-0.833217	-1.268759E+11	1.396753E-13	NaN
317	1.000000	0.962301	7.36817e+06	-54489.1	955.819	-29743.1	0.000000	0.000000	6.963106	0.004769	NaN	0.000000	0.001611	0.001627	28.0797	0.064281	0.001902	33.7929	110.731	-165.144	-0.003412	0.961004	-0.773724	-0.775021	0.004769	33.7929	-0.773830	-1.983218E+10	-2.404529E-13	NaN
317	1.000000	1.022352	7.36817e+06	-54489.1	955.819	-29743.1	0.000000	0.000000	7.023156	-0.053688	NaN	0.000000	0.001646	0.001616	28.078	0.027227	0.002032	13.396	-107.03	-165.651	-0.022127	1.021031	-0.713672	-0.714993	-0.053688	13.396	-0.710666	-2.736174E+9	1.962153E-11	NaN
317	1.000000	1.082372	7.36817e+06	-54489.1	955.818	-29743.1	0.000000	0.000000	7.083176	-0.029632	NaN	0.000000	0.001621	0.001662	28.0782	0.056292	0.002076	27.121	-141.159	-165.55	0.028689	1.081127	-0.653653	-0.654898	-0.029632	27.121	-0.652833	-4.428653E+8	6.690954E-11	NaN
317	1.000000	1.142367	7.36817e+06	-54489.1	955.82	-29743.1	0.000000	0.000000	7.143171	-0.036904	NaN	0.000000	0.001612	0.001645	28.0795	0.033424	0.002115	15.8009	-162.951	-167.783	-0.012168	1.141070	-0.593658	-0.594955	-0.036904	15.8009	-0.591906	-6.440902E+7	5.729614E-10	NaN
317	1.000000	1.202418	7.36817e+06	-54489.1	955.818	-29743.1	0.000000	0.000000	7.203223	-0.003966	NaN	0.000000	0.001636	0.001635	28.0797	0.103898	0.002067	50.2758	-53.3393	-164.114	-0.022987	1.201105	-0.533607	-0.534920	-0.003966	50.2758	-0.533548	-1.004237E+7	3.949698E-10	NaN
317	1.000000	1.262468	7.36817e+06	-54489.1	955.818	-29743.1	0.000000	0.000000	7.263274	0.002306	NaN	0.000000	0.001635	0.001603	28.0785	0.039874	0.001931	20.6451	-124.545	-169.483	0.026603	1.261116	-0.473556	-0.474909	0.002306	20.6451	-0.473640	-1.46705e+06	-1.571620E-9	NaN
317	1.000000	1.322481	7.36817e+06	-54489.1	955.819	-29743.1	0.000000	0.000000	7.323288	0.037100	NaN	0.000000	0.001631	0.001635	28.0781	0.126805	0.002115	59.9671	-131.743	-165.896	0.056889	1.321164	-0.413544	-0.414860	0.037100	59.9671	-0.414008	-211527	-1.753910E-7	NaN
317	1.000000	1.382489	7.36817e+06	-54489.1	955.818	-29743.1	0.000000	0.000000	7.383296	0.051591	NaN	0.000000	0.001599	0.001679	28.0784	0.077001	0.001867	41.2436	-53.5552	-165.063	0.060513	1.381152	-0.353536	-0.354872	0.051591	41.2436	-0.354474	-29640.1	-1.740580E-6	NaN
317	1.000000	1.442535	7.36817e+06	-54489.1	955.817	-29743.1	0.000000	0.000000	7.443341	0.015180	NaN	0.000000	0.001636	0.001666	28.0794	0.025714	0.001998	12.8717	-37.0643	-166.424	0.066523	1.441213	-0.293490	-0.294811	0.015180	12.8717	-0.294375	-3879.26	-3.913096E-6	NaN
317	1.000000	1.502528	7.36817e+06	-54489.1	955.819	-29743.1	0.000000	0.000000	7.503333	-0.013685	NaN	0.000000	0.001608	0.001660	28.0794	0.071646	0.002062	34.7515	-122.839	-164.675	-0.028595	1.501262	-0.233496	-0.234763	-0.013685	34.7515	-0.233201	-449.752	3.042864E-5	NaN
317	1.000000	1.562586	7.36817e+06	-54489.1	955.819	-29743.1	0.000000	0.000000	7.563390	-0.032676	NaN	0.000000	0.001578	0.001623	28.0783	0.147212	0.001948	75.5884	-107.627	-163.81	-0.050701	1.561271	-0.173439	-0.174754	-0.032676	75.5884	-0.173115	-46.5074	0.000703	NaN
317	1.000000	1.622577	7.36817e+06	-54489.1	955.819	-29743.1	0.000000	0.000000	7.623382	-0.008177	NaN	0.000000	0.001654	0.001628	28.0781	0.141881	0.001947	72.8874	149.728	-170.325	0.036977	1.621315	-0.113448	-0.114710	-0.008177	72.8874	-0.113364	-3.533892	0.002314	NaN
317	1.000000	1.682637	7.36817e+06	-54489.1	955.819	-29743.1	0.000000	0.000000	7.683442	0.002019	NaN	0.000000	0.001616	0.001630	28.0795	0.144474	0.001967	73.4454	166.223	-165.667	0.060289	1.681312	-0.053388	-0.054713	0.002019	73.4454	-0.053408	-0.115505	-0.017477	NaN
317	1.000000	1.742649	7.36817e+06	-54489.1	955.82	-29743.1	0.000000	0.000000	7.743610	3.797096	NaN	0.000000	0.001643	0.001615	28.0792	4.770400	0.001804	2644.53	11.6504	-170.454	2.406715	1.741297	0.006624	0.005272	3.797096	2644.53	0.005547	0.004638	818.675	35477.3
317	2.000000	1.761122	7.36817e+06	-54489.1	955.819	-29743.1	0.000000	0.000000	7.763148	29.6709	NaN	0.000000	0.001659	0.001631	28.0781	24.1506	0.001870	12916.6	2.802904	-175.344	29.8361	1.760852	0.025097	0.024827	29.6709	12916.6	0.023374	0.028124	1054.99	70369.1
317	2.000000	1.776049	7.36817e+06	-54489.1	955.82	-29743.1	0.000000	0.000000	7.779740	70.1344	NaN	0.000000	0.001668	0.001669	28.0784	37.2831	0.001700	21934.1	4.112942	178.254	68.279	1.775728	0.040025	0.039703	70.1344	21934.1	0.037627	0.058039	1208.41	83183
317	2.000000	1.791062	7.36817e+06	-54489.1	955.82	-29743.1	0.000000	0.000000	7.796975	124.172	NaN	0.000000	0.001615	0.001660	28.0783	52.3612	0.001887	27753.6	4.307315	177.044	124.066	1.790716	0.055037	0.054691	124.172	27753.6	0.051682	0.097683	1271.18	81130.4
317	2.000000	1.806076	7.36817e+06	-54489.1	955.82	-29743.1	0.000000	0.000000	7.814762	191.581	NaN	0.000000	0.001615	0.001641	28.0797	66.3168	0.001805	36745.5	9.341719	168.963	193.808	1.805770	0.070052	0.069745	191.581	36745.5	0.066141	0.148746	1287.97	87047.1
317	2.000000	1.821038	7.36817e+06	-54489.1	955.82	-29743.1	0.000000	0.000000	7.833141	274.666	NaN	0.000000	0.001581	0.001684	28.0796	79.2756	0.001746	45403.7	6.989631	170.142	276.419	1.820638	0.085013	0.084613	274.666	45403.7	0.080476	0.209294	1312.34	90674.7
317	2.000000	1.836013	7.36817e+06	-54489.1	955.819	-29743.1	0.000000	0.000000	7.851808	364.406	NaN	0.000000	0.001612	0.001649	28.0782	91.3671	0.001702	53671.6	7.254408	168.405	365.447	1.835704	0.099988	0.099679	364.406	53671.6	0.094896	0.279862	1302.09	92692.8
317	2.000000	1.845915	7.36817e+06	-54489.1	955.819	-29743.1	0.000000	0.000000	7.864238	425.88	NaN	0.000000	0.001605	0.001711	28.0781	100.658	0.001777	56639.4	2.203266	173.019	420.833	1.845656	0.109890	0.109631	425.88	56639.4	0.104250	0.330723	1287.72	89982.8