File: remote_trans/data/nanoindenter/0828-1/data/Data_2025-08-06,11h17m57s/2025-07-22_16-23-58_1_66.txt
2025-07-22, 16:23:58, 1
Index	Phase	Displacement	Time	Pos X	Pos Y	Pos Z	Rot A	Rot B	Piezo Z	Force A	Force B	Gripper	Voltage A	Voltage B	Temperature	Amplitude force	Amplitude pos	Stiffness	Phase shift	Phase excitation	Force A raw	Displacement raw	HMax	HMax raw	Real Force	Real Stiffness	Contact Depth	Area	Hardness	Reduced Mod.
[#]	[#]	[um]	[s]	[um]	[um]	[um]	[m°]	[m°]	[um]	[uN]	[uN]	[V]	[V]	[V]	[°C]	[uN]	[um]	[N/m]	[°]	[°]	[uN]	[um]	[um]	[um]	[uN]	[N/m]	[um]	[um^2]	[MPa]	[MPa]
66	1.000000	0.002905	7.36569e+06	-41939.1	955.818	-29785	0.000000	0.000000	6.002830	0.030529	NaN	0.000000	0.001742	0.001634	28.1055	0.071904	0.000958	75.0775	-166.002	-170.225	0.034020	0.001589	-1.085097	-1.086413	0.030529	75.0775	-1.085402	-3.192031E+14	-9.564166E-17	NaN
66	1.000000	0.042856	7.36569e+06	-41939.1	955.819	-29785	0.000000	0.000000	6.042781	0.022212	NaN	0.000000	0.001734	0.001643	28.1038	0.013423	0.002039	6.584683	-71.0805	-168.148	0.012631	0.041553	-1.045146	-1.046448	0.022212	6.584683	-1.047676	-9.935100E+13	-2.235725E-16	NaN
66	1.000000	0.082822	7.36569e+06	-41939.1	955.818	-29785	0.000000	0.000000	6.082747	0.023463	NaN	0.000000	0.001719	0.001681	28.1059	0.038857	0.002026	19.182	-159.822	-163.268	0.035684	0.081547	-1.005180	-1.006455	0.023463	19.182	-1.006097	-2.740644E+13	-8.561276E-16	NaN
66	1.000000	0.122867	7.36569e+06	-41939.1	955.819	-29785	0.000000	0.000000	6.122792	0.009950	NaN	0.000000	0.001645	0.001683	28.105	0.050385	0.002021	24.9334	-19.2615	-167.483	0.054075	0.121525	-0.965135	-0.966477	0.009950	24.9334	-0.965434	-7.764603E+12	-1.281435E-15	NaN
66	1.000000	0.162876	7.36569e+06	-41939.1	955.818	-29785	0.000000	0.000000	6.162800	-0.019569	NaN	0.000000	0.001606	0.001694	28.1062	0.069523	0.001996	34.8228	-30.6914	-166.357	-0.044205	0.161593	-0.925126	-0.926408	-0.019569	34.8228	-0.924704	-2.191358E+12	8.929966E-15	NaN
66	1.000000	0.202917	7.36569e+06	-41939.1	955.818	-29785	0.000000	0.000000	6.202839	-0.034137	NaN	0.000000	0.001639	0.001671	28.1057	0.051714	0.002133	24.2497	1.359439	-164.545	0.011635	0.201557	-0.885085	-0.886445	-0.034137	24.2497	-0.884029	-6.182943E+11	5.521129E-14	NaN
66	1.000000	0.242917	7.36569e+06	-41939.1	955.819	-29785	0.000000	0.000000	6.242844	0.059969	NaN	0.000000	0.001661	0.001638	28.1056	0.084261	0.001923	43.8215	-40.3132	-164.453	-0.012509	0.241596	-0.845085	-0.846406	0.059969	43.8215	-0.846111	-1.897019E+11	-3.161237E-13	NaN
66	1.000000	0.282912	7.36569e+06	-41939.1	955.817	-29785	0.000000	0.000000	6.282833	-0.091900	NaN	0.000000	0.001539	0.001694	28.105	0.070637	0.001983	35.6228	-167.718	-165.191	-0.080571	0.281612	-0.805089	-0.806390	-0.091900	35.6228	-0.803154	-4.962238E+10	1.851980E-12	NaN
66	1.000000	0.322936	7.36569e+06	-41939.1	955.817	-29785	0.000000	0.000000	6.322859	-0.033027	NaN	0.000000	0.001535	0.001719	28.1058	0.046735	0.002010	23.2567	15.3775	-164.518	-0.061935	0.321601	-0.765066	-0.766401	-0.033027	23.2567	-0.764001	-1.457901E+10	2.265388E-12	NaN
66	1.000000	0.362978	7.36569e+06	-41939.1	955.818	-29785	0.000000	0.000000	6.362900	-0.056640	NaN	0.000000	0.001573	0.001709	28.1061	0.067592	0.001959	34.5095	61.0588	-164.828	-0.019576	0.361676	-0.725024	-0.726326	-0.056640	34.5095	-0.723793	-4.132279E+9	1.370664E-11	NaN
66	1.000000	0.402979	7.36569e+06	-41939.1	955.819	-29785	0.000000	0.000000	6.402901	-0.066048	NaN	0.000000	0.001653	0.001664	28.1076	0.031574	0.002041	15.4678	-163.379	-163.451	-0.041449	0.401755	-0.685022	-0.686247	-0.066048	15.4678	-0.681820	-1.104309E+9	5.980948E-11	NaN
66	1.000000	0.442981	7.36569e+06	-41939.1	955.818	-29785	0.000000	0.000000	6.442908	0.053232	NaN	0.000000	0.001631	0.001675	28.107	0.099502	0.002124	46.8428	125.115	-165.952	0.019279	0.441675	-0.645020	-0.646327	0.053232	46.8428	-0.645873	-3.555059E+8	-1.497373E-10	NaN
66	1.000000	0.483021	7.36569e+06	-41939.1	955.819	-29785	0.000000	0.000000	6.482945	0.013969	NaN	0.000000	0.001610	0.001667	28.108	0.081940	0.001918	42.7199	135.888	-164.279	0.053613	0.481717	-0.604981	-0.606285	0.013969	42.7199	-0.605226	-9.827007E+7	-1.421458E-10	NaN
66	1.000000	0.523010	7.36569e+06	-41939.1	955.818	-29785	0.000000	0.000000	6.522936	0.051928	NaN	0.000000	0.001629	0.001660	28.1062	0.068449	0.002078	32.9362	124.362	-167.464	0.008917	0.521690	-0.564992	-0.566312	0.051928	32.9362	-0.566175	-2.842918E+7	-1.826591E-9	NaN
66	1.000000	0.563053	7.36569e+06	-41939.1	955.818	-29785	0.000000	0.000000	6.562976	-0.046349	NaN	0.000000	0.001549	0.001747	28.1075	0.088575	0.002019	43.8689	132.459	-168.438	0.002611	0.561750	-0.524949	-0.526252	-0.046349	43.8689	-0.524156	-7.43674e+06	6.232425E-9	NaN
66	1.000000	0.603069	7.36569e+06	-41939.1	955.818	-29785.1	0.000000	0.000000	6.602992	-0.025240	NaN	0.000000	0.001554	0.001709	28.1066	0.145447	0.001939	74.9954	176.074	-165.755	-0.103567	0.601745	-0.484933	-0.486257	-0.025240	74.9954	-0.484680	-2.0942e+06	1.205236E-8	NaN
66	1.000000	0.643061	7.36569e+06	-41939.1	955.818	-29785.1	0.000000	0.000000	6.642984	-0.025086	NaN	0.000000	0.001541	0.001687	28.1089	0.074098	0.001919	38.6163	-64.4131	-161.828	-0.048335	0.641755	-0.444941	-0.446246	-0.025086	38.6163	-0.444453	-570408	4.397851E-8	NaN
66	1.000000	0.683095	7.36569e+06	-41939.1	955.819	-29785.1	0.000000	0.000000	6.683019	-0.021017	NaN	0.000000	0.001554	0.001695	28.108	0.042618	0.002068	20.6041	-78.1145	-162.671	-0.113588	0.681751	-0.404906	-0.406250	-0.021017	20.6041	-0.404141	-153115	1.372645E-7	NaN
66	1.000000	0.723144	7.36569e+06	-41939.1	955.818	-29785.1	0.000000	0.000000	6.723068	-0.023349	NaN	0.000000	0.001528	0.001676	28.1094	0.108702	0.002023	53.7336	35.3436	-163.586	-0.001129	0.721863	-0.364857	-0.366139	-0.023349	53.7336	-0.364531	-41427.7	5.636091E-7	NaN
66	1.000000	0.763119	7.36569e+06	-41939.1	955.818	-29785.1	0.000000	0.000000	6.763042	-0.044943	NaN	0.000000	0.001548	0.001684	28.1075	0.045321	0.001983	22.858	100.4	-165.535	-0.013697	0.761808	-0.324882	-0.326194	-0.044943	22.858	-0.323408	-10441.2	4.304376E-6	NaN
66	1.000000	0.803149	7.36569e+06	-41939.1	955.818	-29785.1	0.000000	0.000000	6.803074	0.018858	NaN	0.000000	0.001522	0.001697	28.1086	0.077149	0.002058	37.4784	123.589	-166.214	-0.053733	0.801862	-0.284853	-0.286140	0.018858	37.4784	-0.285231	-2829.65	-6.664326E-6	NaN
66	1.000000	0.843170	7.36569e+06	-41939.1	955.818	-29785.1	0.000000	0.000000	6.843095	0.011395	NaN	0.000000	0.001565	0.001694	28.1075	0.111471	0.001939	57.4747	57.5849	-167.43	-0.039004	0.841862	-0.244831	-0.246140	0.011395	57.4747	-0.244980	-687.292	-1.658009E-5	NaN
66	1.000000	0.883173	7.36569e+06	-41939.1	955.819	-29785.1	0.000000	0.000000	6.883096	-0.025399	NaN	0.000000	0.001561	0.001686	28.1095	0.029855	0.001988	15.0195	-134.881	-165.032	-0.096050	0.881856	-0.204829	-0.206146	-0.025399	15.0195	-0.203560	-150.679	0.000169	NaN
66	1.000000	0.923164	7.36569e+06	-41939.1	955.818	-29785.1	0.000000	0.000000	6.923088	0.004866	NaN	0.000000	0.001559	0.001654	28.1094	0.046370	0.002033	22.8044	84.4166	-164.081	-0.040118	0.921871	-0.164838	-0.166131	0.004866	22.8044	-0.164998	-33.5946	-0.000145	NaN
66	1.000000	0.963233	7.36569e+06	-41939.1	955.819	-29785.1	0.000000	0.000000	6.963158	0.010976	NaN	0.000000	0.001580	0.001691	28.1112	0.121923	0.001970	61.8805	92.6978	-165.501	-0.055658	0.961893	-0.124769	-0.126109	0.010976	61.8805	-0.124902	-6.054166	-0.001813	NaN
66	1.000000	1.003213	7.36569e+06	-41939.1	955.819	-29785.1	0.000000	0.000000	7.003134	-0.081899	NaN	0.000000	0.001568	0.001670	28.1101	0.092558	0.001955	47.3413	-157.576	-164.065	0.015652	1.001914	-0.084789	-0.086088	-0.081899	47.3413	-0.083491	-0.755076	0.108465	NaN
66	1.000000	1.043259	7.36569e+06	-41939.1	955.819	-29785.1	0.000000	0.000000	7.043182	-0.039979	NaN	0.000000	0.001633	0.001688	28.1101	0.048009	0.002016	23.8096	132.453	-166.914	-0.057704	1.041968	-0.044743	-0.046034	-0.039979	23.8096	-0.043484	-0.057758	0.692181	NaN
66	1.000000	1.083226	7.3657e+06	-41939.1	955.819	-29785.1	0.000000	0.000000	7.083149	-0.026567	NaN	0.000000	0.001628	0.001673	28.1095	0.024531	0.001993	12.3108	105.322	-166.441	-0.115814	1.081940	-0.004776	-0.006062	-0.026567	12.3108	-0.003157	-0.002226	11.9371	NaN
66	2.000000	1.101907	7.3657e+06	-41939.1	955.819	-29785.1	0.000000	0.000000	7.102651	19.9491	NaN	0.000000	0.001590	0.001682	28.1107	17.1223	0.001755	9757.32	9.368243	-179.469	18.9666	1.101609	0.013905	0.013607	19.9491	9757.32	0.012372	0.011939	1670.95	81587.6
66	2.000000	1.111881	7.3657e+06	-41939.1	955.819	-29785.1	0.000000	0.000000	7.113682	45.6736	NaN	0.000000	0.001554	0.001744	28.1098	27.006	0.001670	16171.7	2.615807	-178.549	45.5628	1.111619	0.023879	0.023618	45.6736	16171.7	0.021761	0.025385	1799.24	92734.5
66	2.000000	1.121808	7.3657e+06	-41939.1	955.818	-29785.1	0.000000	0.000000	7.125009	79.728	NaN	0.000000	0.001572	0.001714	28.1121	37.8318	0.001801	21005.5	8.485291	174.017	78.0254	1.121553	0.033807	0.033551	79.728	21005.5	0.030960	0.042757	1864.68	92811.8
66	2.000000	1.131766	7.3657e+06	-41939.1	955.819	-29785.1	0.000000	0.000000	7.136751	123.129	NaN	0.000000	0.001540	0.001720	28.1115	47.7354	0.001711	27904.2	3.623535	176.551	120.2	1.131508	0.043764	0.043506	123.129	27904.2	0.040455	0.065209	1888.23	99836.7
66	2.000000	1.141759	7.3657e+06	-41939.1	955.82	-29785.1	0.000000	0.000000	7.148624	168.892	NaN	0.000000	0.001583	0.001705	28.1127	58.0936	0.001870	31070.8	5.313193	174.131	165.543	1.141549	0.053757	0.053547	168.892	31070.8	0.049680	0.091427	1847.29	93883.5
66	2.000000	1.151839	7.3657e+06	-41939.1	955.819	-29785.1	0.000000	0.000000	7.160760	218.902	NaN	0.000000	0.001570	0.001652	28.1107	66.5474	0.001713	38843.7	3.634265	174.149	220.873	1.151514	0.063837	0.063512	218.902	38843.7	0.059611	0.124417	1759.43	100613
66	2.000000	1.161780	7.3657e+06	-41939.1	955.82	-29785.1	0.000000	0.000000	7.173316	282.516	NaN	0.000000	0.001641	0.001718	28.112	77.403	0.001967	39350.4	4.429189	173.914	282.074	1.161424	0.073779	0.073422	282.516	39350.4	0.068394	0.157617	1792.42	90556.9
66	2.000000	1.171713	7.3657e+06	-41939.1	955.819	-29785.1	0.000000	0.000000	7.185994	349.32	NaN	0.000000	0.001623	0.001692	28.1107	86.8714	0.001722	50440.7	3.694590	171.857	345.068	1.171470	0.083711	0.083469	349.32	50440.7	0.078517	0.200450	1742.68	102932
66	2.000000	1.181694	7.3657e+06	-41939.1	955.819	-29785.1	0.000000	0.000000	7.199367	431.854	NaN	0.000000	0.001606	0.001696	28.1126	97.0618	0.001832	52973.6	4.865150	170.804	426.922	1.181452	0.093692	0.093450	431.854	52973.6	0.087578	0.242853	1778.25	98211.3
66	2.000000	1.191740	7.3657e+06	-41939.1	955.82	-29785.1	0.000000	0.000000	7.212886	516.356	NaN	0.000000	0.001546	0.001709	28.1127	106.028	0.001781	59530.2	3.264798	171.299	514.671	1.191505	0.103738	0.103504	516.356	59530.2	0.097233	0.292194	1767.17	100618
66	2.000000	1.193207	7.3657e+06	-41939.1	955.819	-29785.1	0.000000	0.000000	7.214979	531.593	NaN	0.000000	0.001574	0.001700	28.1245	106.469	0.001773	60034.1	3.490069	-8.924269	525.559	1.192944	0.105205	0.104942	531.593	60034.1	0.098564	0.299329	1775.95	100253