File: remote_trans/data/nanoindenter/0828-1/data/Data_2025-08-06,11h17m57s/2025-07-22_16-23-58_1_475.txt
2025-07-22, 16:23:58, 1
Index	Phase	Displacement	Time	Pos X	Pos Y	Pos Z	Rot A	Rot B	Piezo Z	Force A	Force B	Gripper	Voltage A	Voltage B	Temperature	Amplitude force	Amplitude pos	Stiffness	Phase shift	Phase excitation	Force A raw	Displacement raw	HMax	HMax raw	Real Force	Real Stiffness	Contact Depth	Area	Hardness	Reduced Mod.
[#]	[#]	[um]	[s]	[um]	[um]	[um]	[m°]	[m°]	[um]	[uN]	[uN]	[V]	[V]	[V]	[°C]	[uN]	[um]	[N/m]	[°]	[°]	[uN]	[um]	[um]	[um]	[uN]	[N/m]	[um]	[um^2]	[MPa]	[MPa]
475	1.000000	0.002709	7.3697e+06	-53339.1	1005.82	-29746.7	0.000000	0.000000	6.002793	0.068286	NaN	0.000000	0.001529	0.001793	28.0799	0.023879	0.000979	24.386	103.73	-170.223	0.016636	0.001489	-0.995059	-0.996279	0.068286	24.386	-0.997159	-2.077400E+13	-3.287074E-15	NaN
475	1.000000	0.040664	7.3697e+06	-53339.1	1005.82	-29746.7	0.000000	0.000000	6.040748	0.089735	NaN	0.000000	0.001591	0.001777	28.0802	0.108013	0.002054	52.5781	-65.5897	16.0955	0.007490	0.039335	-0.957104	-0.958433	0.089735	52.5781	-0.958384	-6.238583E+12	-1.438384E-14	NaN
475	1.000000	0.078671	7.3697e+06	-53339.1	1005.82	-29746.7	0.000000	0.000000	6.078752	0.017475	NaN	0.000000	0.001553	0.001811	28.0806	0.075652	0.001903	39.745	110.682	-165.376	-0.026222	0.077356	-0.919097	-0.920412	0.017475	39.745	-0.919427	-1.859819E+12	-9.395947E-15	NaN
475	1.000000	0.116692	7.3697e+06	-53339.1	1005.82	-29746.7	0.000000	0.000000	6.116777	0.102924	NaN	0.000000	0.001580	0.001752	28.0807	0.024585	0.001965	12.5088	163.893	14.1903	0.107365	0.115353	-0.881076	-0.882416	0.102924	12.5088	-0.887247	-6.834457E+11	-1.505956E-13	NaN
475	1.000000	0.154710	7.3697e+06	-53339.1	1005.82	-29746.7	0.000000	0.000000	6.154792	0.039185	NaN	0.000000	0.001569	0.001762	28.0808	0.014496	0.001958	7.404296	-56.5588	-168.57	0.048749	0.153367	-0.843058	-0.844401	0.039185	7.404296	-0.847027	-1.952003E+11	-2.007446E-13	NaN
475	1.000000	0.192721	7.3697e+06	-53339.1	1005.82	-29746.7	0.000000	0.000000	6.192804	0.065202	NaN	0.000000	0.001587	0.001757	28.0808	0.041069	0.002027	20.2598	103.906	16.6291	0.021974	0.191414	-0.805047	-0.806355	0.065202	20.2598	-0.807461	-5.677043E+10	-1.148512E-12	NaN
475	1.000000	0.230753	7.3697e+06	-53339.1	1005.82	-29746.7	0.000000	0.000000	6.230837	0.087783	NaN	0.000000	0.001547	0.001764	28.0793	0.112752	0.002032	55.4817	15.875	-165.506	0.020001	0.229444	-0.767015	-0.768324	0.087783	55.4817	-0.768202	-1.662871E+10	-5.278985E-12	NaN
475	1.000000	0.268748	7.3697e+06	-53339.1	1005.82	-29746.7	0.000000	0.000000	6.268830	0.050114	NaN	0.000000	0.001632	0.001810	28.0796	0.097775	0.002087	46.8461	109.134	13.9937	0.027435	0.267396	-0.729021	-0.730373	0.050114	46.8461	-0.729823	-4.993399E+9	-1.003615E-11	NaN
475	1.000000	0.306754	7.3697e+06	-53339.1	1005.82	-29746.7	0.000000	0.000000	6.306837	0.056977	NaN	0.000000	0.001590	0.001770	28.0798	0.103732	0.002128	48.7512	67.0968	-164.848	-0.033407	0.305430	-0.691014	-0.692339	0.056977	48.7512	-0.691891	-1.516187E+9	-3.757932E-11	NaN
475	1.000000	0.344769	7.3697e+06	-53339.1	1005.82	-29746.7	0.000000	0.000000	6.344851	0.044140	NaN	0.000000	0.001586	0.001775	28.0811	0.026110	0.001953	13.369	122.07	17.7715	0.088957	0.343442	-0.652999	-0.654326	0.044140	13.369	-0.655476	-4.813776E+8	-9.169588E-11	NaN
475	1.000000	0.382816	7.3697e+06	-53339.1	1005.82	-29746.7	0.000000	0.000000	6.382896	-0.005848	NaN	0.000000	0.001550	0.001806	28.0808	0.034906	0.002006	17.3968	-23.9548	-167.776	0.079500	0.381502	-0.614953	-0.616266	-0.005848	17.3968	-0.614701	-1.326710E+8	4.407824E-11	NaN
475	1.000000	0.420827	7.3697e+06	-53339.1	1005.82	-29746.7	0.000000	0.000000	6.420909	0.020575	NaN	0.000000	0.001534	0.001804	28.081	0.039426	0.001890	20.8572	38.5196	15.313	0.056349	0.419445	-0.576941	-0.578324	0.020575	20.8572	-0.577681	-4.099345E+7	-5.019209E-10	NaN
475	1.000000	0.458866	7.3697e+06	-53339.1	1005.82	-29746.7	0.000000	0.000000	6.458952	0.126805	NaN	0.000000	0.001577	0.001771	28.0813	0.096993	0.002095	46.2941	33.2902	-167.389	0.048290	0.457513	-0.538902	-0.540256	0.126805	46.2941	-0.540957	-1.272399E+7	-9.965853E-9	NaN
475	1.000000	0.496860	7.3697e+06	-53339.1	1005.82	-29746.7	0.000000	0.000000	6.496943	0.055427	NaN	0.000000	0.001646	0.001779	28.0798	0.056681	0.001919	29.5352	37.5932	12.4371	0.071706	0.495443	-0.500908	-0.502325	0.055427	29.5352	-0.502316	-3.69249e+06	-1.501087E-8	NaN
475	1.000000	0.534840	7.3697e+06	-53339.1	1005.82	-29746.7	0.000000	0.000000	6.534920	0.002476	NaN	0.000000	0.001613	0.001785	28.0797	0.173342	0.002014	86.0643	-75.4177	-165.17	-0.013895	0.533603	-0.462929	-0.464166	0.002476	86.0643	-0.462950	-1.03865e+06	-2.383619E-9	NaN
475	1.000000	0.572885	7.3697e+06	-53339.1	1005.82	-29746.7	0.000000	0.000000	6.572967	0.038074	NaN	0.000000	0.001618	0.001803	28.0799	0.185519	0.001958	94.7566	102.129	12.1027	0.049128	0.571559	-0.424884	-0.426210	0.038074	94.7566	-0.425185	-304724	-1.249473E-7	NaN
475	1.000000	0.610899	7.3697e+06	-53339.1	1005.82	-29746.7	0.000000	0.000000	6.610984	0.115197	NaN	0.000000	0.001668	0.001851	28.0802	0.074721	0.002046	36.5182	58.3901	-168.649	0.069629	0.609556	-0.386870	-0.388212	0.115197	36.5182	-0.389235	-93805.5	-1.228038E-6	NaN
475	1.000000	0.648910	7.3697e+06	-53339.1	1005.82	-29746.7	0.000000	0.000000	6.648991	0.009376	NaN	0.000000	0.001621	0.001788	28.081	0.098850	0.001997	49.4955	-73.3885	12.1013	-0.033256	0.647519	-0.348858	-0.350250	0.009376	49.4955	-0.349000	-24688	-3.797709E-7	NaN
475	1.000000	0.686920	7.3697e+06	-53339.1	1005.82	-29746.7	0.000000	0.000000	6.687002	0.025846	NaN	0.000000	0.001634	0.001769	28.0808	0.048839	0.001931	25.2936	112.834	-163.698	0.023271	0.685583	-0.310848	-0.312186	0.025846	25.2936	-0.311615	-6997.51	-3.693652E-6	NaN
475	1.000000	0.724964	7.3697e+06	-53339.1	1005.82	-29746.7	0.000000	0.000000	6.725048	0.064901	NaN	0.000000	0.001647	0.001756	28.081	0.063685	0.001965	32.4146	-134.817	9.904392	0.096043	0.723572	-0.272804	-0.274196	0.064901	32.4146	-0.274306	-1935.91	-3.352461E-5	NaN
475	1.000000	0.763001	7.3697e+06	-53339.1	1005.82	-29746.7	0.000000	0.000000	6.763085	0.096250	NaN	0.000000	0.001617	0.001748	28.0799	0.079542	0.001996	39.8532	-16.9002	-168.801	0.084332	0.761653	-0.234768	-0.236116	0.096250	39.8532	-0.236579	-508.184	-0.000189	NaN
475	1.000000	0.800956	7.3697e+06	-53339.1	1005.82	-29746.7	0.000000	0.000000	6.801039	0.055606	NaN	0.000000	0.001597	0.001796	28.0798	0.084414	0.002089	40.4113	141.127	13.6706	0.088259	0.799643	-0.196812	-0.198126	0.055606	40.4113	-0.197844	-121.397	-0.000458	NaN
475	1.000000	0.838992	7.3697e+06	-53339.1	1005.82	-29746.7	0.000000	0.000000	6.839078	0.129527	NaN	0.000000	0.001602	0.001770	28.08	0.102226	0.002075	49.2748	26.7563	-162.691	0.090336	0.837695	-0.158776	-0.160073	0.129527	49.2748	-0.160748	-28.2656	-0.004582	NaN
475	1.000000	0.877008	7.3697e+06	-53339.1	1005.82	-29746.7	0.000000	0.000000	6.877089	0.020910	NaN	0.000000	0.001614	0.001764	28.0798	0.051035	0.001951	26.1545	30.0799	13.3832	0.081581	0.875671	-0.120761	-0.122098	0.020910	26.1545	-0.121360	-5.145856	-0.004063	NaN
475	1.000000	0.915028	7.3697e+06	-53339.1	1005.82	-29746.7	0.000000	0.000000	6.915112	0.068878	NaN	0.000000	0.001586	0.001823	28.0809	0.044841	0.001926	23.2851	-56.5934	-167.857	0.124784	0.913723	-0.082740	-0.084045	0.068878	23.2851	-0.084959	-0.819742	-0.084024	NaN
475	1.000000	0.953038	7.3697e+06	-53339.1	1005.82	-29746.7	0.000000	0.000000	6.953119	0.010260	NaN	0.000000	0.001635	0.001794	28.0811	0.078563	0.002036	38.5788	3.636627	11.2806	-0.057166	0.951675	-0.044730	-0.046094	0.010260	38.5788	-0.044930	-0.063951	-0.160441	NaN
475	1.000000	0.991051	7.3697e+06	-53339.1	1005.82	-29746.7	0.000000	0.000000	6.991409	6.739010	NaN	0.000000	0.001599	0.001796	28.0809	3.760682	0.001817	2069.53	15.5445	-169.363	6.141198	0.989725	-0.006717	-0.008043	6.739010	2069.53	-0.009160	-0.005905	-1141.22	NaN
475	2.000000	1.003107	7.3697e+06	-53339.1	1005.82	-29746.7	0.000000	0.000000	7.003535	8.453460	NaN	0.000000	0.001623	0.001823	28.0798	10.0598	0.001793	5611.64	11.8367	6.368318	7.990176	1.002718	0.005338	0.004950	8.453460	5611.64	0.004209	0.003423	2469.92	87636.8
475	2.000000	1.012564	7.36971e+06	-53339.1	1005.82	-29746.7	0.000000	0.000000	7.014235	38.6682	NaN	0.000000	0.001658	0.001804	28.0797	21.7839	0.001674	13013.3	3.721345	-175.685	36.3969	1.012225	0.014795	0.014456	38.6682	13013.3	0.012567	0.012176	3175.82	107748
475	2.000000	1.021994	7.36971e+06	-53339.1	1005.82	-29746.7	0.000000	0.000000	7.026469	106.846	NaN	0.000000	0.001624	0.001807	28.0801	31.0133	0.001820	17038.2	2.329399	2.586740	103.022	1.021609	0.024225	0.023840	106.846	17038.2	0.019522	0.021797	4901.94	105439
475	2.000000	1.031416	7.36971e+06	-53339.1	1005.82	-29746.7	0.000000	0.000000	7.039383	191.753	NaN	0.000000	0.001640	0.001805	28.0804	41.7607	0.001870	22329.2	6.847580	174.556	187.433	1.031170	0.033647	0.033402	191.753	22329.2	0.027207	0.035153	5454.84	108809
475	2.000000	1.040992	7.36971e+06	-53339.1	1005.82	-29746.7	0.000000	0.000000	7.052932	288.325	NaN	0.000000	0.001739	0.001797	28.0811	49.2836	0.001932	25514.7	7.879744	-7.085343	285.071	1.040575	0.043224	0.042806	288.325	25514.7	0.034748	0.051162	5635.58	103060
475	2.000000	1.050541	7.36971e+06	-53339.1	1005.82	-29746.7	0.000000	0.000000	7.065256	355.794	NaN	0.000000	0.001728	0.001796	28.0809	56.025	0.001757	31884.1	6.152274	173.679	356.012	1.050133	0.052773	0.052364	355.794	31884.1	0.044404	0.075903	4687.48	105735
475	2.000000	1.059938	7.36971e+06	-53339.1	1005.82	-29746.7	0.000000	0.000000	7.078318	444.898	NaN	0.000000	0.001636	0.001817	28.0811	61.9991	0.001867	33201.1	2.936886	-4.788083	441.334	1.059636	0.062170	0.061868	444.898	33201.1	0.052120	0.099078	4490.37	96368.8
475	2.000000	1.069382	7.36971e+06	-53339.1	1005.82	-29746.7	0.000000	0.000000	7.091817	543.503	NaN	0.000000	0.001599	0.001809	28.0799	68.1165	0.001809	37647.3	5.960773	171.41	538.06	1.069013	0.071613	0.071244	543.503	37647.3	0.060786	0.128640	4224.99	95899.9
475	2.000000	1.078947	7.36971e+06	-53339.1	1005.82	-29746.7	0.000000	0.000000	7.104500	619.326	NaN	0.000000	0.001634	0.001756	28.0796	74.8718	0.001927	38851.2	6.456694	-8.744189	616.439	1.078557	0.081178	0.080789	619.326	38851.2	0.069222	0.160939	3848.21	88480.3
475	2.000000	1.088359	7.36971e+06	-53339.1	1005.82	-29746.7	0.000000	0.000000	7.116425	680.387	NaN	0.000000	0.001620	0.001781	28.0797	78.9506	0.001777	44422.2	1.799060	174.483	675.426	1.088149	0.090591	0.090380	680.387	44422.2	0.079103	0.203078	3350.37	90061.9
475	2.000000	1.092935	7.36971e+06	-53339.1	1005.82	-29746.7	0.000000	0.000000	7.122793	723.974	NaN	0.000000	0.001616	0.001749	28.0796	83.7996	0.001844	45437.1	1.320486	-4.663349	720.557	1.092638	0.095167	0.094869	723.974	45437.1	0.083216	0.221966	3261.63	88112.9