File: remote_trans/data/nanoindenter/0828-1/data/Data_2025-08-06,11h17m57s/2025-07-22_16-23-58_1_688.txt
2025-07-22, 16:23:58, 1
Index	Phase	Displacement	Time	Pos X	Pos Y	Pos Z	Rot A	Rot B	Piezo Z	Force A	Force B	Gripper	Voltage A	Voltage B	Temperature	Amplitude force	Amplitude pos	Stiffness	Phase shift	Phase excitation	Force A raw	Displacement raw	HMax	HMax raw	Real Force	Real Stiffness	Contact Depth	Area	Hardness	Reduced Mod.
[#]	[#]	[um]	[s]	[um]	[um]	[um]	[m°]	[m°]	[um]	[uN]	[uN]	[V]	[V]	[V]	[°C]	[uN]	[um]	[N/m]	[°]	[°]	[uN]	[um]	[um]	[um]	[uN]	[N/m]	[um]	[um^2]	[MPa]	[MPa]
688	1.000000	0.003116	7.37178e+06	-42689.1	1005.82	-29781.8	0.000000	0.000000	6.002807	0.000226	NaN	0.000000	0.001658	0.001732	28.0833	0.066861	0.000951	70.2726	-176.57	-162.993	-0.053343	0.001811	-1.119624	-1.120930	0.000226	70.2726	-1.119627	-9.193131E+14	-2.457012E-19	NaN
688	1.000000	0.045063	7.37178e+06	-42689.1	1005.82	-29781.8	0.000000	0.000000	6.044752	-0.030879	NaN	0.000000	0.001651	0.001726	28.082	0.056265	0.001970	28.5662	-146.743	17.3102	-0.039544	0.043737	-1.077678	-1.079004	-0.030879	28.5662	-1.076867	-2.451547E+14	1.259583E-16	NaN
688	1.000000	0.087057	7.37178e+06	-42689.1	1005.82	-29781.8	0.000000	0.000000	6.086749	0.035302	NaN	0.000000	0.001683	0.001738	28.0819	0.025257	0.001988	12.7041	160.238	-165.499	0.077046	0.085716	-1.035683	-1.037025	0.035302	12.7041	-1.037768	-7.310510E+13	-4.828932E-16	NaN
688	1.000000	0.129092	7.37178e+06	-42689.1	1005.82	-29781.8	0.000000	0.000000	6.128781	-0.028830	NaN	0.000000	0.001732	0.001702	28.0816	0.131792	0.002015	65.4156	-120.836	14.0539	-0.126455	0.127705	-0.993649	-0.995036	-0.028830	65.4156	-0.993318	-1.844158E+13	1.563314E-15	NaN
688	1.000000	0.171100	7.37178e+06	-42689.1	1005.82	-29781.8	0.000000	0.000000	6.170790	-0.012246	NaN	0.000000	0.001747	0.001690	28.0829	0.055244	0.001995	27.6868	68.0079	-168.367	0.038678	0.169817	-0.951641	-0.952924	-0.012246	27.6868	-0.951309	-5.008168E+12	2.445219E-15	NaN
688	1.000000	0.213146	7.37178e+06	-42689.1	1005.82	-29781.8	0.000000	0.000000	6.212836	0.001905	NaN	0.000000	0.001667	0.001764	28.083	0.128729	0.001965	65.5245	-113.088	12.2154	0.011016	0.211711	-0.909595	-0.911030	0.001905	65.5245	-0.909616	-1.370827E+12	-1.389881E-15	NaN
688	1.000000	0.255144	7.37178e+06	-42689.1	1005.82	-29781.8	0.000000	0.000000	6.254835	0.025338	NaN	0.000000	0.001641	0.001712	28.0831	0.048678	0.002113	23.0367	-41.0262	-168.382	0.053390	0.253873	-0.867597	-0.868868	0.025338	23.0367	-0.868422	-3.802686E+11	-6.663066E-14	NaN
688	1.000000	0.297131	7.37178e+06	-42689.1	1005.82	-29781.8	0.000000	0.000000	6.296820	-0.023046	NaN	0.000000	0.001683	0.001732	28.0821	0.066451	0.002017	32.9428	-89.4598	12.3415	-0.018278	0.295821	-0.825610	-0.826920	-0.023046	32.9428	-0.825085	-9.843693E+10	2.341173E-13	NaN
688	1.000000	0.339199	7.37178e+06	-42689.1	1005.82	-29781.8	0.000000	0.000000	6.338886	-0.093248	NaN	0.000000	0.001648	0.001704	28.0822	0.164185	0.002065	79.5012	101.689	-167.488	-0.058270	0.337867	-0.783542	-0.784874	-0.093248	79.5012	-0.782662	-2.614570E+10	3.566477E-12	NaN
688	1.000000	0.381180	7.37178e+06	-42689.1	1005.82	-29781.8	0.000000	0.000000	6.380870	-0.006147	NaN	0.000000	0.001666	0.001716	28.0819	0.148194	0.001883	78.6923	-166.762	12.1597	0.069147	0.379845	-0.741561	-0.742896	-0.006147	78.6923	-0.741503	-7.203112E+9	8.534216E-13	NaN
688	1.000000	0.423236	7.37178e+06	-42689.1	1005.82	-29781.8	0.000000	0.000000	6.422925	-0.011379	NaN	0.000000	0.001642	0.001714	28.0817	0.048935	0.002126	23.0141	-167.445	-168.391	0.052037	0.421896	-0.699505	-0.700845	-0.011379	23.0141	-0.699134	-1.904180E+9	5.975698E-12	NaN
688	1.000000	0.465247	7.37178e+06	-42689.1	1005.82	-29781.8	0.000000	0.000000	6.464939	0.037497	NaN	0.000000	0.001661	0.001691	28.0828	0.109445	0.002043	53.5817	162.68	15.3608	0.034330	0.463895	-0.657494	-0.658846	0.037497	53.5817	-0.658019	-5.215863E+8	-7.189024E-11	NaN
688	1.000000	0.507222	7.37178e+06	-42689.1	1005.82	-29781.8	0.000000	0.000000	6.506912	-0.012000	NaN	0.000000	0.001689	0.001710	28.0829	0.034632	0.002016	17.1787	133.471	-165.141	0.043410	0.505938	-0.615519	-0.616803	-0.012000	17.1787	-0.614995	-1.339120E+8	8.961121E-11	NaN
688	1.000000	0.549271	7.37178e+06	-42689.1	1005.82	-29781.8	0.000000	0.000000	6.548963	0.059077	NaN	0.000000	0.001686	0.001742	28.0831	0.073786	0.001962	37.607	-174.693	17.5608	-0.043285	0.547956	-0.573470	-0.574785	0.059077	37.607	-0.574648	-3.722556E+7	-1.587006E-9	NaN
688	1.000000	0.591287	7.37178e+06	-42689.1	1005.82	-29781.8	0.000000	0.000000	6.590978	0.016440	NaN	0.000000	0.001662	0.001731	28.0817	0.012967	0.001980	6.549532	165.241	-166.958	0.020654	0.590019	-0.531453	-0.532722	0.016440	6.549532	-0.533336	-9.97453e+06	-1.648185E-9	NaN
688	1.000000	0.633288	7.37178e+06	-42689.1	1005.82	-29781.8	0.000000	0.000000	6.632978	-0.002421	NaN	0.000000	0.001687	0.001722	28.0816	0.092897	0.001980	46.9095	-50.1356	15.5242	0.087259	0.631950	-0.489453	-0.490790	-0.002421	46.9095	-0.489414	-2.43896e+06	9.924429E-10	NaN
688	1.000000	0.675325	7.37178e+06	-42689.1	1005.82	-29781.8	0.000000	0.000000	6.675013	-0.052168	NaN	0.000000	0.001690	0.001692	28.0818	0.039674	0.002138	18.5593	-159.74	-165.339	0.013938	0.674006	-0.447416	-0.448734	-0.052168	18.5593	-0.445308	-586454	8.895425E-8	NaN
688	1.000000	0.717334	7.37178e+06	-42689.1	1005.82	-29781.8	0.000000	0.000000	6.717026	0.035850	NaN	0.000000	0.001687	0.001726	28.0827	0.074398	0.001986	37.4591	-135.405	13.9698	-0.004782	0.716006	-0.405406	-0.406735	0.035850	37.4591	-0.406124	-163401	-2.193976E-7	NaN
688	1.000000	0.759381	7.37178e+06	-42689.1	1005.82	-29781.8	0.000000	0.000000	6.759070	-0.025871	NaN	0.000000	0.001657	0.001703	28.083	0.090848	0.001982	45.8362	128.842	-166.6	0.042376	0.757989	-0.363360	-0.364751	-0.025871	45.8362	-0.362936	-39288.8	6.584840E-7	NaN
688	1.000000	0.801351	7.37178e+06	-42689.1	1005.82	-29781.8	0.000000	0.000000	6.801040	-0.032198	NaN	0.000000	0.001685	0.001707	28.0829	0.113469	0.001898	59.7942	112.729	14.1716	-0.010304	0.800049	-0.321389	-0.322692	-0.032198	59.7942	-0.320985	-9619.21	3.347229E-6	NaN
688	1.000000	0.843411	7.37178e+06	-42689.1	1005.82	-29781.8	0.000000	0.000000	6.843103	0.038539	NaN	0.000000	0.001672	0.001695	28.0817	0.105993	0.002048	51.7566	-85.3579	-166.507	-0.021938	0.842105	-0.279330	-0.280636	0.038539	51.7566	-0.279888	-2351.17	-1.639148E-5	NaN
688	1.000000	0.885427	7.37178e+06	-42689.1	1005.82	-29781.8	0.000000	0.000000	6.885118	0.007883	NaN	0.000000	0.001721	0.001707	28.0821	0.042621	0.001996	21.3512	81.2046	16.9159	0.011151	0.884038	-0.237313	-0.238703	0.007883	21.3512	-0.237590	-527.07	-1.495573E-5	NaN
688	1.000000	0.927426	7.37178e+06	-42689.1	1005.82	-29781.8	0.000000	0.000000	6.927115	-0.027368	NaN	0.000000	0.001744	0.001701	28.0819	0.103005	0.002078	49.5648	152.153	-165.988	-0.052993	0.926123	-0.195315	-0.196618	-0.027368	49.5648	-0.194901	-108.533	0.000252	NaN
688	1.000000	0.969463	7.37178e+06	-42689.1	1005.82	-29781.8	0.000000	0.000000	6.969155	0.059753	NaN	0.000000	0.001705	0.001733	28.0819	0.039054	0.002095	18.6434	56.9607	13.27	0.152011	0.968039	-0.153278	-0.154701	0.059753	18.6434	-0.155682	-22.953	-0.002603	NaN
688	1.000000	1.011466	7.37178e+06	-42689.1	1005.82	-29781.8	0.000000	0.000000	7.011155	-0.007916	NaN	0.000000	0.001744	0.001753	28.083	0.097341	0.001964	49.5741	154.002	-169.302	0.052120	1.010189	-0.111275	-0.112552	-0.007916	49.5741	-0.111155	-3.178123	0.002491	NaN
688	1.000000	1.053497	7.37178e+06	-42689.1	1005.82	-29781.8	0.000000	0.000000	7.053188	0.028128	NaN	0.000000	0.001694	0.001733	28.0833	0.052931	0.002035	26.0083	3.104621	11.9155	0.012386	1.052119	-0.069244	-0.070622	0.028128	26.0083	-0.070055	-0.342266	-0.082181	NaN
688	1.000000	1.095518	7.37178e+06	-42689.1	1005.82	-29781.8	0.000000	0.000000	7.095208	0.015832	NaN	0.000000	0.001747	0.001699	28.0834	0.031333	0.002168	14.4534	34.8025	-163.717	0.013523	1.094203	-0.027223	-0.028538	0.015832	14.4534	-0.028045	-0.020332	-0.778668	NaN
688	2.000000	1.129557	7.37178e+06	-42689.1	1005.82	-29781.8	0.000000	0.000000	7.129807	13.6181	NaN	0.000000	0.001706	0.001704	28.0819	11.337	0.001692	6699.57	4.416633	8.545742	12.6002	1.129224	0.006816	0.006483	13.6181	6699.57	0.005292	0.004401	3094.02	92262.2
688	2.000000	1.139984	7.37178e+06	-42689.1	1005.82	-29781.8	0.000000	0.000000	7.142126	59.66	NaN	0.000000	0.001705	0.001722	28.082	24.2981	0.001762	13790.5	6.665700	-179.102	59.1522	1.139694	0.017243	0.016953	59.66	13790.5	0.013998	0.013973	4269.71	106589
688	2.000000	1.150470	7.37178e+06	-42689.1	1005.82	-29781.8	0.000000	0.000000	7.154815	113.256	NaN	0.000000	0.001696	0.001749	28.0819	36.0067	0.001728	20838.9	4.431540	-2.233017	109.96	1.150145	0.027729	0.027405	113.256	20838.9	0.023653	0.028611	3958.5	112560
688	2.000000	1.160942	7.37178e+06	-42689.1	1005.82	-29781.8	0.000000	0.000000	7.168369	188.243	NaN	0.000000	0.001706	0.001691	28.083	45.6207	0.001757	25965	1.636261	178.471	186.166	1.160565	0.038201	0.037825	188.243	25965	0.032764	0.046667	4033.79	109814
688	2.000000	1.171447	7.37179e+06	-42689.1	1005.82	-29781.8	0.000000	0.000000	7.181877	261.3	NaN	0.000000	0.001693	0.001691	28.0834	54.2952	0.001820	29831.2	1.690893	-2.378449	258.118	1.171098	0.048707	0.048357	261.3	29831.2	0.042137	0.069668	3750.65	103259
688	2.000000	1.181883	7.37179e+06	-42689.1	1005.82	-29781.8	0.000000	0.000000	7.195761	345.193	NaN	0.000000	0.001721	0.001696	28.0828	62.8122	0.001866	33670	3.456946	175.504	338.938	1.181565	0.059143	0.058824	345.193	33670	0.051454	0.096959	3560.2	98792.2
688	2.000000	1.192490	7.37179e+06	-42689.1	1005.82	-29781.8	0.000000	0.000000	7.209628	424.533	NaN	0.000000	0.001692	0.001717	28.0817	71.0926	0.001769	40198.6	1.488538	-4.287462	425.786	1.192165	0.069749	0.069425	424.533	40198.6	0.061828	0.132445	3205.34	100917
688	2.000000	1.202947	7.37179e+06	-42689.1	1005.82	-29781.8	0.000000	0.000000	7.223949	518.539	NaN	0.000000	0.001711	0.001704	28.0816	80.1303	0.001734	46209.1	2.625374	174.094	517.915	1.202541	0.080206	0.079800	518.539	46209.1	0.071790	0.171445	3024.53	101962
688	2.000000	1.213332	7.37179e+06	-42689.1	1005.82	-29781.8	0.000000	0.000000	7.238093	610.009	NaN	0.000000	0.001737	0.001702	28.0816	89.4699	0.001905	46962.9	5.157293	-9.015954	602.757	1.212979	0.090591	0.090239	610.009	46962.9	0.080849	0.210998	2891.06	93409.1
688	2.000000	1.223786	7.37179e+06	-42689.1	1005.82	-29781.8	0.000000	0.000000	7.252430	704.455	NaN	0.000000	0.001721	0.001723	28.0818	97.1606	0.001774	54777.2	7.168820	168.052	698.842	1.223467	0.101046	0.100726	704.455	54777.2	0.091400	0.261876	2690.03	97796.8
688	2.000000	1.225493	7.37179e+06	-42689.1	1005.82	-29781.8	0.000000	0.000000	7.254361	709.916	NaN	0.000000	0.001709	0.001693	28.0834	99.2217	0.001875	52919.9	4.228753	-8.261085	711.772	1.225191	0.102753	0.102450	709.916	52919.9	0.092691	0.268453	2644.47	93316.3