File: remote_trans/data/nanoindenter/0828-1/data/Data_2025-08-06,11h17m57s/2025-07-22_16-23-58_1_585.txt
2025-07-22, 16:23:58, 1
Index	Phase	Displacement	Time	Pos X	Pos Y	Pos Z	Rot A	Rot B	Piezo Z	Force A	Force B	Gripper	Voltage A	Voltage B	Temperature	Amplitude force	Amplitude pos	Stiffness	Phase shift	Phase excitation	Force A raw	Displacement raw	HMax	HMax raw	Real Force	Real Stiffness	Contact Depth	Area	Hardness	Reduced Mod.
[#]	[#]	[um]	[s]	[um]	[um]	[um]	[m°]	[m°]	[um]	[uN]	[uN]	[V]	[V]	[V]	[°C]	[uN]	[um]	[N/m]	[°]	[°]	[uN]	[um]	[um]	[um]	[uN]	[N/m]	[um]	[um^2]	[MPa]	[MPa]
585	1.000000	0.003693	7.37077e+06	-47839.1	1005.82	-29764.5	0.000000	0.000000	6.002829	0.098443	NaN	0.000000	0.001559	0.001751	28.0809	0.099328	0.001160	85.6384	-61.9474	-174.57	0.086178	0.002427	-1.155156	-1.156421	0.098443	85.6384	-1.156018	-2.828125E+15	-3.480841E-17	NaN
585	1.000000	0.047628	7.37077e+06	-47839.1	1005.82	-29764.5	0.000000	0.000000	6.046758	-0.052521	NaN	0.000000	0.001559	0.001737	28.0796	0.067038	0.001865	35.9539	108.22	-166.452	-0.050163	0.046326	-1.111221	-1.112523	-0.052521	35.9539	-1.110125	-6.854380E+14	7.662447E-17	NaN
585	1.000000	0.091625	7.37077e+06	-47839.1	1005.82	-29764.5	0.000000	0.000000	6.090755	-0.078927	NaN	0.000000	0.001612	0.001790	28.0799	0.015016	0.001985	7.564075	52.0733	-165.702	0.011875	0.090347	-1.067223	-1.068502	-0.078927	7.564075	-1.059397	-1.427987E+14	5.527169E-16	NaN
585	1.000000	0.135624	7.37077e+06	-47839.1	1005.82	-29764.5	0.000000	0.000000	6.134758	0.036072	NaN	0.000000	0.001596	0.001742	28.0795	0.065296	0.002014	32.4167	116.64	-166.527	0.046712	0.134296	-1.023224	-1.024552	0.036072	32.4167	-1.024059	-4.781479E+13	-7.544156E-16	NaN
585	1.000000	0.179661	7.37077e+06	-47839.1	1005.82	-29764.5	0.000000	0.000000	6.178792	-0.046854	NaN	0.000000	0.001610	0.001746	28.081	0.079303	0.002030	39.0607	-177.435	-167.96	0.006688	0.178419	-0.979188	-0.980430	-0.046854	39.0607	-0.978288	-1.157035E+13	4.049509E-15	NaN
585	1.000000	0.223697	7.37077e+06	-47839.1	1005.82	-29764.5	0.000000	0.000000	6.222829	-0.005279	NaN	0.000000	0.001686	0.001738	28.0808	0.038339	0.001920	19.972	-107.2	-164.486	0.098530	0.222386	-0.935152	-0.936463	-0.005279	19.972	-0.934954	-3.013364E+12	1.752010E-15	NaN
585	1.000000	0.267723	7.37077e+06	-47839.1	1005.82	-29764.5	0.000000	0.000000	6.266853	-0.046340	NaN	0.000000	0.001691	0.001738	28.0809	0.063022	0.002000	31.5039	110.658	-165.075	0.011104	0.266379	-0.891126	-0.892470	-0.046340	31.5039	-0.890023	-7.451138E+11	6.219127E-14	NaN
585	1.000000	0.311696	7.37077e+06	-47839.1	1005.82	-29764.5	0.000000	0.000000	6.310831	0.067538	NaN	0.000000	0.001565	0.001742	28.0796	0.070506	0.001977	35.6601	-73.3326	-165.322	0.072864	0.310404	-0.847153	-0.848445	0.067538	35.6601	-0.848573	-2.048396E+11	-3.297133E-13	NaN
585	1.000000	0.355721	7.37077e+06	-47839.1	1005.82	-29764.5	0.000000	0.000000	6.354852	-0.044816	NaN	0.000000	0.001625	0.001693	28.0795	0.085586	0.002063	41.4913	-113.413	-161.567	0.035255	0.354426	-0.803127	-0.804423	-0.044816	41.4913	-0.802317	-4.834113E+10	9.270778E-13	NaN
585	1.000000	0.399756	7.37077e+06	-47839.1	1005.82	-29764.5	0.000000	0.000000	6.398888	-0.012322	NaN	0.000000	0.001599	0.001751	28.0796	0.202801	0.002082	97.3985	102.575	-167.676	-0.032051	0.398405	-0.759093	-0.760444	-0.012322	97.3985	-0.758998	-1.246447E+10	9.886014E-13	NaN
585	1.000000	0.443778	7.37077e+06	-47839.1	1005.82	-29764.5	0.000000	0.000000	6.442911	0.010509	NaN	0.000000	0.001589	0.001760	28.0802	0.142279	0.001961	72.5683	-58.694	-163.102	-0.009464	0.442487	-0.715071	-0.716362	0.010509	72.5683	-0.715179	-3.152976E+9	-3.333050E-12	NaN
585	1.000000	0.487774	7.37077e+06	-47839.1	1005.82	-29764.5	0.000000	0.000000	6.486905	-0.015645	NaN	0.000000	0.001628	0.001743	28.0809	0.068010	0.002019	33.6816	173.146	-164.097	-0.056838	0.486477	-0.671075	-0.672371	-0.015645	33.6816	-0.670727	-7.786397E+8	2.009273E-11	NaN
585	1.000000	0.531832	7.37077e+06	-47839.1	1005.82	-29764.5	0.000000	0.000000	6.530963	-0.035655	NaN	0.000000	0.001600	0.001790	28.0808	0.076116	0.001990	38.2586	83.1919	-165.558	-0.095383	0.530505	-0.627017	-0.628343	-0.035655	38.2586	-0.626318	-1.916253E+8	1.860649E-10	NaN
585	1.000000	0.575847	7.37077e+06	-47839.1	1005.82	-29764.5	0.000000	0.000000	6.574977	-0.058275	NaN	0.000000	0.001623	0.001770	28.0807	0.044727	0.002162	20.6849	166.304	-166.165	0.025260	0.574524	-0.583002	-0.584325	-0.058275	20.6849	-0.580889	-4.539370E+7	1.283767E-9	NaN
585	1.000000	0.619848	7.37077e+06	-47839.1	1005.82	-29764.5	0.000000	0.000000	6.618979	-0.028634	NaN	0.000000	0.001584	0.001785	28.0806	0.068976	0.002098	32.8805	22.4323	-166.262	-0.002041	0.618524	-0.539001	-0.540324	-0.028634	32.8805	-0.538347	-1.170675E+7	2.445932E-9	NaN
585	1.000000	0.663851	7.37077e+06	-47839.1	1005.82	-29764.5	0.000000	0.000000	6.662983	-0.032067	NaN	0.000000	0.001558	0.001759	28.0796	0.030241	0.001897	15.941	-171.648	-166.848	-0.012401	0.662563	-0.494997	-0.496286	-0.032067	15.941	-0.493488	-2.78053e+06	1.153270E-8	NaN
585	1.000000	0.707874	7.37077e+06	-47839.1	1005.82	-29764.5	0.000000	0.000000	6.707007	0.018648	NaN	0.000000	0.001606	0.001760	28.0795	0.049185	0.001973	24.9297	-106.044	-166.631	-0.029898	0.706562	-0.450975	-0.452287	0.018648	24.9297	-0.451536	-717744	-2.598186E-8	NaN
585	1.000000	0.751914	7.37077e+06	-47839.1	1005.82	-29764.5	0.000000	0.000000	6.751048	0.028449	NaN	0.000000	0.001589	0.001739	28.0809	0.092224	0.002005	45.9934	-150.605	-164.339	0.030206	0.750582	-0.406935	-0.408267	0.028449	45.9934	-0.407399	-170370	-1.669835E-7	NaN
585	1.000000	0.795927	7.37077e+06	-47839.1	1005.82	-29764.5	0.000000	0.000000	6.795059	-0.030070	NaN	0.000000	0.001631	0.001737	28.0812	0.035395	0.001972	17.9462	160.295	-166.785	0.030413	0.794591	-0.362921	-0.364257	-0.030070	17.9462	-0.361665	-37661.7	7.984294E-7	NaN
585	1.000000	0.839939	7.37077e+06	-47839.1	1005.82	-29764.5	0.000000	0.000000	6.839069	-0.048440	NaN	0.000000	0.001565	0.001754	28.0809	0.140597	0.002033	69.1627	11.5438	-164.66	-0.106335	0.838649	-0.318910	-0.320200	-0.048440	69.1627	-0.318385	-8807.46	5.499907E-6	NaN
585	1.000000	0.883972	7.37077e+06	-47839.1	1005.82	-29764.5	0.000000	0.000000	6.883108	0.061936	NaN	0.000000	0.001660	0.001721	28.0795	0.102412	0.002049	49.9739	-106.598	-165.69	0.084354	0.882629	-0.274876	-0.276220	0.061936	49.9739	-0.275806	-2039.85	-3.036327E-5	NaN
585	1.000000	0.927999	7.37077e+06	-47839.1	1005.82	-29764.5	0.000000	0.000000	6.927132	0.018986	NaN	0.000000	0.001709	0.001715	28.0795	0.049341	0.002080	23.7204	-97.9763	-169.749	-0.016357	0.926682	-0.230850	-0.232166	0.018986	23.7204	-0.231450	-422.082	-4.498283E-5	NaN
585	1.000000	0.972010	7.37077e+06	-47839.1	1005.82	-29764.5	0.000000	0.000000	6.971140	-0.064854	NaN	0.000000	0.001673	0.001749	28.0797	0.049956	0.001960	25.4846	-11.0585	-164.837	-0.002875	0.970670	-0.186839	-0.188179	-0.064854	25.4846	-0.184930	-73.9535	0.000877	NaN
585	1.000000	1.016008	7.37077e+06	-47839.1	1005.82	-29764.5	0.000000	0.000000	7.015141	0.009051	NaN	0.000000	0.001628	0.001762	28.0809	0.099046	0.002057	48.1521	-167.715	-167.682	0.011041	1.014727	-0.142841	-0.144122	0.009051	48.1521	-0.142982	-13.45	-0.000673	NaN
585	1.000000	1.060049	7.37077e+06	-47839.1	1005.82	-29764.5	0.000000	0.000000	7.059179	-0.058649	NaN	0.000000	0.001579	0.001718	28.081	0.070420	0.001996	35.2777	121.946	-164.468	-0.050248	1.058745	-0.098800	-0.100104	-0.058649	35.2777	-0.097553	-1.611267	0.036399	NaN
585	1.000000	1.104046	7.37078e+06	-47839.1	1005.82	-29764.5	0.000000	0.000000	7.103175	-0.086437	NaN	0.000000	0.001585	0.001773	28.0807	0.040402	0.001911	21.1417	-23.5146	-163.411	-0.089660	1.102726	-0.054803	-0.056122	-0.086437	21.1417	-0.051736	-0.102936	0.839713	NaN
585	1.000000	1.148046	7.37078e+06	-47839.1	1005.82	-29764.5	0.000000	0.000000	7.147177	-0.024335	NaN	0.000000	0.001618	0.001735	28.0797	0.049349	0.001918	25.7303	19.4491	-165.476	-0.071650	1.146727	-0.010803	-0.012122	-0.024335	25.7303	-0.010094	-0.006441	3.778177	NaN
585	2.000000	1.174571	7.37078e+06	-47839.1	1005.82	-29764.5	0.000000	0.000000	7.174325	15.1148	NaN	0.000000	0.001594	0.001748	28.0797	15.147	0.001846	8205.36	9.938882	-177.012	15.5846	1.174248	0.015723	0.015399	15.1148	8205.36	0.014341	0.014417	1048.41	62436
585	2.000000	1.185568	7.37078e+06	-47839.1	1005.82	-29764.5	0.000000	0.000000	7.186368	40.5571	NaN	0.000000	0.001548	0.001738	28.0796	25.3989	0.001733	14652.7	2.533677	-176.446	40.7821	1.185138	0.026720	0.026289	40.5571	14652.7	0.024644	0.030371	1335.4	76818.1
585	2.000000	1.196456	7.37078e+06	-47839.1	1005.82	-29764.5	0.000000	0.000000	7.198614	73.5902	NaN	0.000000	0.001574	0.001694	28.0809	35.304	0.001683	20982.8	3.539530	179.382	71.2379	1.196153	0.037607	0.037305	73.5902	20982.8	0.034977	0.051692	1423.63	84319.1
585	2.000000	1.207483	7.37078e+06	-47839.1	1005.82	-29764.5	0.000000	0.000000	7.211069	108.323	NaN	0.000000	0.001575	0.001654	28.0812	47.4335	0.001764	26885.5	6.058291	174.272	108.452	1.207211	0.048634	0.048362	108.323	26885.5	0.045612	0.079335	1365.39	87208.6
585	2.000000	1.218411	7.37078e+06	-47839.1	1005.82	-29764.5	0.000000	0.000000	7.223976	156.459	NaN	0.000000	0.001542	0.001660	28.081	56.4723	0.001663	33951	0.443969	178.031	152.83	1.218072	0.059562	0.059224	156.459	33951	0.056106	0.112215	1394.28	92597.6
585	2.000000	1.229385	7.37078e+06	-47839.1	1005.82	-29764.5	0.000000	0.000000	7.237275	213.015	NaN	0.000000	0.001573	0.001722	28.0796	66.5593	0.001716	38783.5	4.687486	174.178	208.559	1.228996	0.070536	0.070147	213.015	38783.5	0.066417	0.149818	1421.82	91545.7
585	2.000000	1.240586	7.37078e+06	-47839.1	1005.82	-29764.5	0.000000	0.000000	7.250740	268.075	NaN	0.000000	0.001592	0.001670	28.0793	78.511	0.001823	43074.8	6.069059	171.21	276.013	1.240253	0.081738	0.081404	268.075	43074.8	0.077070	0.194031	1381.61	89342.9
585	2.000000	1.251419	7.37078e+06	-47839.1	1005.82	-29764.5	0.000000	0.000000	7.264588	341.403	NaN	0.000000	0.001600	0.001710	28.0798	88.5522	0.001804	49075.2	4.604586	171.465	339.935	1.251073	0.092571	0.092224	341.403	49075.2	0.087353	0.241755	1412.19	91190.1
585	2.000000	1.262431	7.37078e+06	-47839.1	1005.82	-29764.5	0.000000	0.000000	7.279154	427.844	NaN	0.000000	0.001596	0.001703	28.0807	99.3394	0.001785	55666.9	4.407980	170.702	426.523	1.262078	0.103582	0.103229	427.844	55666.9	0.097818	0.295320	1448.75	93588.9
585	2.000000	1.267434	7.37078e+06	-47839.1	1005.82	-29764.5	0.000000	0.000000	7.285459	459.503	NaN	0.000000	0.001586	0.001687	28.0807	103.514	0.001823	56773.9	1.330666	173.882	458.408	1.267255	0.108586	0.108407	459.503	56773.9	0.102515	0.320988	1431.52	91553.9