File: remote_trans/data/nanoindenter/0828-1/data/Data_2025-08-06,11h17m57s/2025-07-22_16-23-58_1_1178.txt
2025-07-22, 16:23:58, 1
Index	Phase	Displacement	Time	Pos X	Pos Y	Pos Z	Rot A	Rot B	Piezo Z	Force A	Force B	Gripper	Voltage A	Voltage B	Temperature	Amplitude force	Amplitude pos	Stiffness	Phase shift	Phase excitation	Force A raw	Displacement raw	HMax	HMax raw	Real Force	Real Stiffness	Contact Depth	Area	Hardness	Reduced Mod.
[#]	[#]	[um]	[s]	[um]	[um]	[um]	[m°]	[m°]	[um]	[uN]	[uN]	[V]	[V]	[V]	[°C]	[uN]	[um]	[N/m]	[°]	[°]	[uN]	[um]	[um]	[um]	[uN]	[N/m]	[um]	[um^2]	[MPa]	[MPa]
1178	1.000000	0.002563	7.37657e+06	-56689.1	1105.82	-29738.3	0.000000	0.000000	6.002797	-0.081643	NaN	0.000000	0.001570	0.001644	28.0824	0.059261	0.001008	58.7961	112.661	-158.669	-0.095075	0.001346	-0.955269	-0.956487	-0.081643	58.7961	-0.954228	-5.483334E+12	1.488931E-14	NaN
1178	1.000000	0.040526	7.37657e+06	-56689.1	1105.82	-29738.3	0.000000	0.000000	6.040762	-0.008753	NaN	0.000000	0.001555	0.001664	28.0837	0.091426	0.001961	46.6269	163.704	15.6579	-0.002721	0.039183	-0.917307	-0.918649	-0.008753	46.6269	-0.917166	-1.733580E+12	5.049188E-15	NaN
1178	1.000000	0.078511	7.37657e+06	-56689.1	1105.82	-29738.3	0.000000	0.000000	6.078749	0.037311	NaN	0.000000	0.001569	0.001633	28.0835	0.058242	0.002142	27.1941	140.197	-163.309	0.002143	0.077292	-0.879322	-0.880540	0.037311	27.1941	-0.880351	-5.513853E+11	-6.766737E-14	NaN
1178	1.000000	0.116564	7.37657e+06	-56689.1	1105.82	-29738.3	0.000000	0.000000	6.116799	-0.030775	NaN	0.000000	0.001541	0.001670	28.0834	0.033420	0.001907	17.5245	175.357	11.2606	-0.053632	0.115144	-0.841269	-0.842689	-0.030775	17.5245	-0.839952	-1.565451E+11	1.965890E-13	NaN
1178	1.000000	0.154575	7.37657e+06	-56689.1	1105.82	-29738.3	0.000000	0.000000	6.154810	-0.041694	NaN	0.000000	0.001542	0.001662	28.084	0.187557	0.001981	94.6572	-91.9992	-165.222	0.003866	0.153293	-0.803258	-0.804540	-0.041694	94.6572	-0.802927	-4.927179E+10	8.462016E-13	NaN
1178	1.000000	0.192562	7.37657e+06	-56689.1	1105.82	-29738.3	0.000000	0.000000	6.192798	-0.012891	NaN	0.000000	0.001478	0.001639	28.0824	0.034289	0.001934	17.7306	179.514	15.3945	-0.050105	0.191217	-0.765271	-0.766615	-0.012891	17.7306	-0.764726	-1.491362E+10	8.643534E-13	NaN
1178	1.000000	0.230594	7.37657e+06	-56689.1	1105.82	-29738.3	0.000000	0.000000	6.230830	-0.022639	NaN	0.000000	0.001494	0.001637	28.0822	0.096306	0.002091	46.0561	106.063	-166.576	-0.045175	0.229295	-0.727238	-0.728538	-0.022639	46.0561	-0.726870	-4.551366E+9	4.974085E-12	NaN
1178	1.000000	0.268599	7.37657e+06	-56689.1	1105.82	-29738.3	0.000000	0.000000	6.268832	-0.079233	NaN	0.000000	0.001538	0.001660	28.0822	0.059657	0.001905	31.3194	109.527	13.5076	-0.097789	0.267305	-0.689234	-0.690528	-0.079233	31.3194	-0.687337	-1.313760E+9	6.030991E-11	NaN
1178	1.000000	0.306632	7.37657e+06	-56689.1	1105.82	-29738.3	0.000000	0.000000	6.306869	0.023875	NaN	0.000000	0.001537	0.001659	28.0829	0.064244	0.002031	31.6395	-67.3161	-162.798	0.085123	0.305352	-0.651201	-0.652481	0.023875	31.6395	-0.651767	-4.282104E+8	-5.575603E-11	NaN
1178	1.000000	0.344669	7.37657e+06	-56689.1	1105.82	-29738.3	0.000000	0.000000	6.344905	-0.019377	NaN	0.000000	0.001546	0.001597	28.0836	0.070011	0.002030	34.4829	-16.5453	19.2014	-0.017661	0.343274	-0.613163	-0.614559	-0.019377	34.4829	-0.612742	-1.246907E+8	1.553985E-10	NaN
1178	1.000000	0.382671	7.37657e+06	-56689.1	1105.82	-29738.3	0.000000	0.000000	6.382908	0.018727	NaN	0.000000	0.001538	0.001635	28.0833	0.073528	0.001964	37.4422	-125.762	-168.058	0.027740	0.381325	-0.575162	-0.576508	0.018727	37.4422	-0.575537	-3.829244E+7	-4.890463E-10	NaN
1178	1.000000	0.420673	7.37657e+06	-56689.1	1105.82	-29738.3	0.000000	0.000000	6.420910	-0.008244	NaN	0.000000	0.001538	0.001625	28.0833	0.105178	0.001860	56.5503	145.997	18.2122	-0.041872	0.419305	-0.537160	-0.538527	-0.008244	56.5503	-0.537050	-1.123154E+7	7.340480E-10	NaN
1178	1.000000	0.458676	7.37657e+06	-56689.1	1105.82	-29738.3	0.000000	0.000000	6.458913	-0.008945	NaN	0.000000	0.001493	0.001697	28.0822	0.087559	0.002172	40.3219	-74.6408	-165.102	-0.005437	0.457343	-0.499157	-0.500490	-0.008945	40.3219	-0.498990	-3.3184e+06	2.695495E-9	NaN
1178	1.000000	0.496686	7.37657e+06	-56689.1	1105.82	-29738.3	0.000000	0.000000	6.496920	-0.072068	NaN	0.000000	0.001538	0.001671	28.0824	0.053499	0.001984	26.9613	156.291	14.3737	-0.077547	0.495333	-0.461146	-0.462500	-0.072068	26.9613	-0.459142	-918238	7.848518E-8	NaN
1178	1.000000	0.534712	7.37657e+06	-56689.1	1105.82	-29738.3	0.000000	0.000000	6.534948	-0.011823	NaN	0.000000	0.001505	0.001588	28.0821	0.100771	0.001951	51.6443	-128.107	-165.189	-0.071366	0.533384	-0.423121	-0.424449	-0.011823	51.6443	-0.422949	-283284	4.173473E-8	NaN
1178	1.000000	0.572736	7.37657e+06	-56689.1	1105.82	-29738.3	0.000000	0.000000	6.572972	-0.030589	NaN	0.000000	0.001539	0.001576	28.082	0.101875	0.001985	51.3216	93.1789	14.3586	0.012095	0.571393	-0.385097	-0.386440	-0.030589	51.3216	-0.384650	-80642.7	3.793136E-7	NaN
1178	1.000000	0.610751	7.37657e+06	-56689.1	1105.82	-29738.3	0.000000	0.000000	6.610984	-0.068174	NaN	0.000000	0.001544	0.001593	28.0834	0.091211	0.002033	44.8659	-168.665	-166.672	-0.180715	0.609439	-0.347082	-0.348393	-0.068174	44.8659	-0.345943	-22287.7	3.058820E-6	NaN
1178	1.000000	0.648783	7.37657e+06	-56689.1	1105.82	-29738.3	0.000000	0.000000	6.649017	-0.073615	NaN	0.000000	0.001585	0.001595	28.0834	0.054941	0.001973	27.8467	139.412	19.6695	-0.080140	0.647476	-0.309049	-0.310357	-0.073615	27.8467	-0.307067	-5992.52	1.228453E-5	NaN
1178	1.000000	0.686749	7.37657e+06	-56689.1	1105.82	-29738.3	0.000000	0.000000	6.686985	-0.013599	NaN	0.000000	0.001591	0.001619	28.0835	0.081351	0.002015	40.3637	-72.0188	-166.252	-0.072710	0.685422	-0.271084	-0.272411	-0.013599	40.3637	-0.270831	-1714.64	7.931318E-6	NaN
1178	1.000000	0.724802	7.37657e+06	-56689.1	1105.82	-29738.3	0.000000	0.000000	6.725039	0.029654	NaN	0.000000	0.001572	0.001610	28.0823	0.087147	0.001928	45.1998	-25.8862	14.1354	-0.032000	0.723373	-0.233031	-0.234459	0.029654	45.1998	-0.233523	-455.032	-6.516894E-5	NaN
1178	1.000000	0.762838	7.37657e+06	-56689.1	1105.82	-29738.3	0.000000	0.000000	6.763074	-0.003738	NaN	0.000000	0.001537	0.001604	28.0823	0.068462	0.002048	33.4365	-42.1032	-163.696	-0.078896	0.761474	-0.194995	-0.196359	-0.003738	33.4365	-0.194911	-108.576	3.443163E-5	NaN
1178	1.000000	0.800832	7.37657e+06	-56689.1	1105.82	-29738.3	0.000000	0.000000	6.801068	0.000448	NaN	0.000000	0.001579	0.001574	28.0823	0.094891	0.002004	47.344	67.3406	14.2555	0.007114	0.799482	-0.157001	-0.158351	0.000448	47.344	-0.157008	-24.2452	-1.849373E-5	NaN
1178	1.000000	0.838849	7.37657e+06	-56689.1	1105.82	-29738.3	0.000000	0.000000	6.839085	-0.006268	NaN	0.000000	0.001558	0.001651	28.0821	0.104495	0.002097	49.8319	-109.163	-162.887	0.028229	0.837460	-0.118984	-0.120373	-0.006268	49.8319	-0.118889	-4.587923	0.001366	NaN
1178	1.000000	0.876834	7.37657e+06	-56689.1	1105.82	-29738.3	0.000000	0.000000	6.877070	-0.006790	NaN	0.000000	0.001560	0.001636	28.0832	0.069850	0.002009	34.7622	45.1269	11.6649	0.017631	0.875474	-0.080999	-0.082358	-0.006790	34.7622	-0.080852	-0.650043	0.010445	NaN
1178	1.000000	0.914860	7.37657e+06	-56689.1	1105.82	-29738.3	0.000000	0.000000	6.915098	0.038814	NaN	0.000000	0.001530	0.001656	28.0834	0.082524	0.002103	39.2379	62.9695	-166.396	0.033691	0.913538	-0.042973	-0.044295	0.038814	39.2379	-0.043715	-0.058706	-0.661162	NaN
1178	1.000000	0.952888	7.37657e+06	-56689.1	1105.82	-29738.3	0.000000	0.000000	6.953161	0.882912	NaN	0.000000	0.001568	0.001650	28.0836	1.247388	0.002041	611.193	30.2277	13.1451	0.782450	0.951512	-0.004945	-0.006320	0.882912	611.193	-0.006029	-0.004054	-217.798	NaN
1178	2.000000	0.970409	7.37658e+06	-56689.1	1105.82	-29738.3	0.000000	0.000000	6.971757	27.0053	NaN	0.000000	0.001548	0.001664	28.0824	18.0729	0.001846	9791.62	8.931044	-178.751	26.889	0.969999	0.012577	0.012166	27.0053	9791.62	0.010508	0.009752	2769.34	90592.3
1178	2.000000	0.979849	7.37658e+06	-56689.1	1105.82	-29738.3	0.000000	0.000000	6.982687	63.2427	NaN	0.000000	0.001562	0.001706	28.082	27.649	0.001806	15311	7.306522	-1.143346	61.9614	0.979458	0.022016	0.021625	63.2427	15311	0.018918	0.020871	3030.21	96829.4
1178	2.000000	0.989328	7.37658e+06	-56689.1	1105.82	-29738.3	0.000000	0.000000	6.993825	103.54	NaN	0.000000	0.001588	0.001700	28.0823	36.6252	0.001845	19845.9	4.321962	179.688	103.334	0.988953	0.031495	0.031120	103.54	19845.9	0.027583	0.035882	2885.57	95720.6
1178	2.000000	0.998765	7.37658e+06	-56689.1	1105.82	-29738.3	0.000000	0.000000	7.004841	141.938	NaN	0.000000	0.001577	0.001710	28.0822	44.1476	0.001930	22879.6	7.032830	-4.272561	138.733	0.998382	0.040932	0.040549	141.938	22879.6	0.036279	0.054766	2591.7	89323.1
1178	2.000000	1.008298	7.37658e+06	-56689.1	1105.82	-29738.3	0.000000	0.000000	7.015595	171.619	NaN	0.000000	0.001573	0.001701	28.0837	51.7534	0.001887	27420.8	5.875288	174.276	172.142	1.008033	0.050465	0.050200	171.619	27420.8	0.045771	0.079792	2150.84	88690
1178	2.000000	1.017802	7.37658e+06	-56689.1	1105.82	-29738.3	0.000000	0.000000	7.026387	202.917	NaN	0.000000	0.001557	0.001691	28.0832	57.6472	0.001850	31158	4.852791	-5.576723	202.064	1.017370	0.059969	0.059537	202.917	31158	0.055085	0.108776	1865.46	86313.2
1178	2.000000	1.027285	7.37658e+06	-56689.1	1105.82	-29738.3	0.000000	0.000000	7.037324	238.277	NaN	0.000000	0.001588	0.001681	28.0833	63.5401	0.001812	35064.4	2.688203	175.229	239.149	1.026941	0.069452	0.069108	238.277	35064.4	0.064355	0.141887	1679.34	85048.7
1178	2.000000	1.036708	7.37658e+06	-56689.1	1105.82	-29738.3	0.000000	0.000000	7.048077	270.578	NaN	0.000000	0.001563	0.001686	28.0832	71.4414	0.001895	37704.1	5.034085	-7.471579	267.352	1.036379	0.078875	0.078547	270.578	37704.1	0.073493	0.178587	1515.1	81514.8
1178	2.000000	1.046250	7.37658e+06	-56689.1	1105.82	-29738.3	0.000000	0.000000	7.059413	314.19	NaN	0.000000	0.001560	0.001709	28.0824	79.1048	0.001884	41988.4	4.214435	172.681	314.489	1.046049	0.088418	0.088216	314.19	41988.4	0.082806	0.220045	1427.84	81780.1
1178	2.000000	1.055764	7.37658e+06	-56689.1	1105.82	-29738.3	0.000000	0.000000	7.071119	367.453	NaN	0.000000	0.001567	0.001712	28.0819	87.5814	0.001877	46662.9	6.220197	-9.901307	366.211	1.055400	0.097931	0.097567	367.453	46662.9	0.092025	0.265051	1386.34	82809.5
1178	2.000000	1.062120	7.37658e+06	-56689.1	1105.82	-29738.3	0.000000	0.000000	7.079316	412.231	NaN	0.000000	0.001543	0.001630	28.0821	91.4862	0.001827	50062.9	5.742097	170.465	404.963	1.061838	0.104287	0.104005	412.231	50062.9	0.098111	0.296892	1388.49	83944