File: remote_trans/data/nanoindenter/0828-1/data/Data_2025-08-06,11h17m57s/2025-07-22_16-23-58_1_1125.txt
2025-07-22, 16:23:58, 1
Index	Phase	Displacement	Time	Pos X	Pos Y	Pos Z	Rot A	Rot B	Piezo Z	Force A	Force B	Gripper	Voltage A	Voltage B	Temperature	Amplitude force	Amplitude pos	Stiffness	Phase shift	Phase excitation	Force A raw	Displacement raw	HMax	HMax raw	Real Force	Real Stiffness	Contact Depth	Area	Hardness	Reduced Mod.
[#]	[#]	[um]	[s]	[um]	[um]	[um]	[m°]	[m°]	[um]	[uN]	[uN]	[V]	[V]	[V]	[°C]	[uN]	[um]	[N/m]	[°]	[°]	[uN]	[um]	[um]	[um]	[uN]	[N/m]	[um]	[um^2]	[MPa]	[MPa]
1125	1.000000	0.002479	7.37606e+06	-56389.1	1055.82	-29739.1	0.000000	0.000000	6.002769	-0.063934	NaN	0.000000	0.001643	0.001693	28.0819	0.041544	0.000947	43.875	-117.29	-168.615	-0.015392	0.001279	-1.109389	-1.110589	-0.063934	43.875	-1.108296	-6.477630E+14	9.869918E-17	NaN
1125	1.000000	0.044456	7.37606e+06	-56389.1	1055.82	-29739.1	0.000000	0.000000	6.044752	0.068643	NaN	0.000000	0.001633	0.001702	28.0816	0.091619	0.001946	47.0789	-170.878	15.3527	0.073957	0.043097	-1.067412	-1.068771	0.068643	47.0789	-1.068505	-1.892803E+14	-3.626545E-16	NaN
1125	1.000000	0.086475	7.37606e+06	-56389.1	1055.82	-29739.1	0.000000	0.000000	6.086765	-0.054632	NaN	0.000000	0.001604	0.001707	28.0814	0.026216	0.001940	13.5163	131.199	-167.58	-0.007768	0.085180	-1.025393	-1.026688	-0.054632	13.5163	-1.022361	-4.536514E+13	1.204264E-15	NaN
1125	1.000000	0.128465	7.37606e+06	-56389.1	1055.82	-29739.1	0.000000	0.000000	6.128754	-0.072803	NaN	0.000000	0.001612	0.001641	28.0826	0.058865	0.001966	29.9342	77.4625	14.3241	-0.029473	0.127117	-0.983403	-0.984751	-0.072803	29.9342	-0.981579	-1.281392E+13	5.681530E-15	NaN
1125	1.000000	0.170483	7.37606e+06	-56389.1	1055.82	-29739.1	0.000000	0.000000	6.170775	-0.017662	NaN	0.000000	0.001694	0.001677	28.0826	0.032094	0.001978	16.2239	77.9807	-165.922	-0.014070	0.169193	-0.941385	-0.942675	-0.017662	16.2239	-0.940568	-3.587580E+12	4.923143E-15	NaN
1125	1.000000	0.212534	7.37606e+06	-56389.1	1055.82	-29739.1	0.000000	0.000000	6.212831	0.089628	NaN	0.000000	0.001622	0.001711	28.0829	0.069579	0.002081	33.4362	59.7431	15.2284	0.008737	0.211164	-0.899333	-0.900703	0.089628	33.4362	-0.901344	-1.059802E+12	-8.457011E-14	NaN
1125	1.000000	0.254566	7.37606e+06	-56389.1	1055.82	-29739.1	0.000000	0.000000	6.254860	0.043279	NaN	0.000000	0.001651	0.001673	28.0816	0.037285	0.001891	19.7125	-97.794	-165.246	0.065306	0.253198	-0.857302	-0.858670	0.043279	19.7125	-0.858949	-2.830689E+11	-1.528931E-13	NaN
1125	1.000000	0.296546	7.37606e+06	-56389.1	1055.82	-29739.1	0.000000	0.000000	6.296841	0.050718	NaN	0.000000	0.001649	0.001690	28.0812	0.134118	0.002102	63.7945	-138.903	17.5432	-0.011890	0.295173	-0.815322	-0.816695	0.050718	63.7945	-0.815918	-7.393539E+10	-6.859745E-13	NaN
1125	1.000000	0.338563	7.37606e+06	-56389.1	1055.82	-29739.1	0.000000	0.000000	6.338855	-0.018507	NaN	0.000000	0.001638	0.001724	28.0814	0.140519	0.001965	71.498	-166.577	-166.493	-0.101773	0.337235	-0.773305	-0.774633	-0.018507	71.498	-0.773111	-1.939072E+10	9.544314E-13	NaN
1125	1.000000	0.380586	7.37606e+06	-56389.1	1055.82	-29739.1	0.000000	0.000000	6.380878	0.007363	NaN	0.000000	0.001685	0.001663	28.0826	0.044005	0.002061	21.3563	47.3299	10.6952	0.008927	0.379230	-0.731282	-0.732638	0.007363	21.3563	-0.731541	-5.269953E+9	-1.397216E-12	NaN
1125	1.000000	0.422628	7.37606e+06	-56389.1	1055.82	-29739.1	0.000000	0.000000	6.422921	0.020734	NaN	0.000000	0.001676	0.001707	28.0827	0.058572	0.001854	31.588	-80.0208	-167.932	0.001215	0.421298	-0.689240	-0.690570	0.020734	31.588	-0.689732	-1.416637E+9	-1.463572E-11	NaN
1125	1.000000	0.464630	7.37606e+06	-56389.1	1055.82	-29739.1	0.000000	0.000000	6.464923	0.008101	NaN	0.000000	0.001592	0.001696	28.0825	0.051438	0.002034	25.2936	-131.084	12.1208	0.011195	0.463295	-0.647238	-0.648573	0.008101	25.2936	-0.647478	-3.739925E+8	-2.166185E-11	NaN
1125	1.000000	0.506614	7.37606e+06	-56389.1	1055.82	-29739.1	0.000000	0.000000	6.506904	-0.062890	NaN	0.000000	0.001707	0.001691	28.0814	0.071820	0.001933	37.1491	-98.9203	-169.538	-0.023225	0.505300	-0.605253	-0.606568	-0.062890	37.1491	-0.603984	-9.447454E+7	6.656810E-10	NaN
1125	1.000000	0.548676	7.37606e+06	-56389.1	1055.82	-29739.1	0.000000	0.000000	6.548965	-0.062517	NaN	0.000000	0.001680	0.001716	28.0814	0.065386	0.001981	33.0097	-71.0463	17.3026	-0.006475	0.547326	-0.563192	-0.564542	-0.062517	33.0097	-0.561772	-2.471082E+7	2.529934E-9	NaN
1125	1.000000	0.590682	7.37606e+06	-56389.1	1055.82	-29739.1	0.000000	0.000000	6.590974	-0.016589	NaN	0.000000	0.001703	0.001681	28.0814	0.084918	0.001964	43.2373	-141.659	-168.333	-0.047173	0.589355	-0.521186	-0.522513	-0.016589	43.2373	-0.520898	-6.70023e+06	2.475853E-9	NaN
1125	1.000000	0.632719	7.37606e+06	-56389.1	1055.82	-29739.1	0.000000	0.000000	6.633011	-0.009652	NaN	0.000000	0.001709	0.001663	28.0814	0.075227	0.001929	39.0035	-41.4909	15.6591	0.019371	0.631371	-0.479149	-0.480497	-0.009652	39.0035	-0.478964	-1.74187e+06	5.541030E-9	NaN
1125	1.000000	0.674750	7.37606e+06	-56389.1	1055.82	-29739.1	0.000000	0.000000	6.675043	0.024400	NaN	0.000000	0.001720	0.001673	28.0828	0.044120	0.001910	23.0976	99.2391	-164.566	0.019391	0.673385	-0.437118	-0.438483	0.024400	23.0976	-0.437911	-461176	-5.290715E-8	NaN
1125	1.000000	0.716735	7.37606e+06	-56389.1	1055.82	-29739.1	0.000000	0.000000	6.717029	0.030220	NaN	0.000000	0.001651	0.001657	28.0827	0.033282	0.001926	17.2831	-66.2196	14.3605	0.017575	0.715396	-0.395133	-0.396472	0.030220	17.2831	-0.396444	-118921	-2.541154E-7	NaN
1125	1.000000	0.758758	7.37606e+06	-56389.1	1055.82	-29739.1	0.000000	0.000000	6.759050	-0.005141	NaN	0.000000	0.001650	0.001693	28.0828	0.043693	0.002195	19.9078	24.1012	-161.236	0.019524	0.757442	-0.353110	-0.354425	-0.005141	19.9078	-0.352916	-28138.6	1.827203E-7	NaN
1125	1.000000	0.800772	7.37606e+06	-56389.1	1055.82	-29739.1	0.000000	0.000000	6.801064	-0.021817	NaN	0.000000	0.001663	0.001710	28.0816	0.035156	0.001980	17.7575	35.0164	12.7864	0.020372	0.799381	-0.311096	-0.312487	-0.021817	17.7575	-0.310174	-6662.47	3.274584E-6	NaN
1125	1.000000	0.842801	7.37606e+06	-56389.1	1055.82	-29739.1	0.000000	0.000000	6.843094	0.024112	NaN	0.000000	0.001644	0.001703	28.0815	0.072330	0.002096	34.5071	168.237	-165.825	0.046397	0.841449	-0.269067	-0.270419	0.024112	34.5071	-0.269591	-1641.82	-1.468609E-5	NaN
1125	1.000000	0.884804	7.37606e+06	-56389.1	1055.82	-29739.1	0.000000	0.000000	6.885096	-0.011262	NaN	0.000000	0.001675	0.001671	28.0816	0.117554	0.001970	59.6638	117.807	14.6026	-0.085171	0.883401	-0.227064	-0.228466	-0.011262	59.6638	-0.226922	-357.959	3.146188E-5	NaN
1125	1.000000	0.926818	7.37606e+06	-56389.1	1055.82	-29739.1	0.000000	0.000000	6.927109	-0.021867	NaN	0.000000	0.001681	0.001720	28.0829	0.103193	0.002092	49.3363	123.982	-165.936	-0.055105	0.925527	-0.185050	-0.186341	-0.021867	49.3363	-0.184718	-73.3458	0.000298	NaN
1125	1.000000	0.968855	7.37606e+06	-56389.1	1055.82	-29739.1	0.000000	0.000000	6.969148	0.013377	NaN	0.000000	0.001684	0.001691	28.0828	0.065264	0.001972	33.0925	-138.177	15.2552	0.011328	0.967488	-0.143013	-0.144379	0.013377	33.0925	-0.143316	-13.6439	-0.000980	NaN
1125	1.000000	1.010857	7.37606e+06	-56389.1	1055.82	-29739.1	0.000000	0.000000	7.011146	-0.072018	NaN	0.000000	0.001701	0.001669	28.0829	0.026611	0.001992	13.3621	-125.312	-164.505	-0.031688	1.009490	-0.101011	-0.102377	-0.072018	13.3621	-0.096969	-1.563231	0.046070	NaN
1125	1.000000	1.052879	7.37606e+06	-56389.1	1055.82	-29739.1	0.000000	0.000000	7.053169	-0.069429	NaN	0.000000	0.001656	0.001681	28.0816	0.075271	0.002056	36.6057	64.0124	12.7788	0.032190	1.051494	-0.058988	-0.060373	-0.069429	36.6057	-0.057566	-0.153157	0.453320	NaN
1125	1.000000	1.094876	7.37606e+06	-56389.1	1055.82	-29739.1	0.000000	0.000000	7.095168	-0.013989	NaN	0.000000	0.001664	0.001672	28.0813	0.121329	0.002048	59.2459	104.778	-165.996	0.029808	1.093543	-0.016992	-0.018325	-0.013989	59.2459	-0.016814	-0.010392	1.346039	NaN
1125	2.000000	1.124915	7.37606e+06	-56389.1	1055.82	-29739.1	0.000000	0.000000	7.125770	13.6685	NaN	0.000000	0.001627	0.001644	28.0813	13.1629	0.001777	7409.03	5.716867	6.827084	13.0173	1.124561	0.013047	0.012693	13.6685	7409.03	0.011663	0.011089	1232.6	64281.2
1125	2.000000	1.135370	7.37606e+06	-56389.1	1055.82	-29739.1	0.000000	0.000000	7.136829	28.3383	NaN	0.000000	0.001638	0.001703	28.0817	22.9648	0.001877	12237.4	9.304926	-179.423	28.9926	1.135036	0.023502	0.023169	28.3383	12237.4	0.021766	0.025393	1115.98	70162.6
1125	2.000000	1.145841	7.37606e+06	-56389.1	1055.82	-29739.1	0.000000	0.000000	7.148520	58.0077	NaN	0.000000	0.001643	0.001696	28.0828	32.0876	0.001767	18161	5.274147	-1.237678	57.2156	1.145550	0.033973	0.033682	58.0077	18161	0.031578	0.044077	1316.05	79032.9
1125	2.000000	1.156273	7.37606e+06	-56389.1	1055.82	-29739.1	0.000000	0.000000	7.160662	99.5669	NaN	0.000000	0.001668	0.001697	28.083	42.8166	0.001802	23759.7	4.090627	178.381	97.1808	1.155997	0.044405	0.044129	99.5669	23759.7	0.041262	0.067331	1478.78	83657.9
1125	2.000000	1.166778	7.37606e+06	-56389.1	1055.82	-29739.1	0.000000	0.000000	7.172946	142.81	NaN	0.000000	0.001591	0.001678	28.0828	53.1787	0.001822	29193.1	5.248057	-4.012740	138.824	1.166414	0.054911	0.054546	142.81	29193.1	0.051242	0.096289	1483.14	85953.7
1125	2.000000	1.177290	7.37606e+06	-56389.1	1055.82	-29739.1	0.000000	0.000000	7.185645	195.989	NaN	0.000000	0.001651	0.001705	28.0813	62.6373	0.001776	35274.1	2.840196	177.196	195.722	1.176915	0.065422	0.065047	195.989	35274.1	0.061255	0.130345	1503.61	89265.1
1125	2.000000	1.187729	7.37606e+06	-56389.1	1055.82	-29739.1	0.000000	0.000000	7.198584	256.731	NaN	0.000000	0.001588	0.001687	28.0813	73.1059	0.001792	40788.7	3.114988	-5.004036	251.245	1.187532	0.075861	0.075664	256.731	40788.7	0.071141	0.168759	1521.29	90715.2
1125	2.000000	1.198251	7.37606e+06	-56389.1	1055.82	-29739.1	0.000000	0.000000	7.212154	330.823	NaN	0.000000	0.001588	0.001696	28.0814	83.4122	0.001925	43321.2	4.991888	173.508	330.485	1.197962	0.086384	0.086094	330.823	43321.2	0.080656	0.210117	1574.47	86346.2
1125	2.000000	1.208739	7.37606e+06	-56389.1	1055.82	-29739.1	0.000000	0.000000	7.225829	408.309	NaN	0.000000	0.001620	0.001748	28.0828	91.1525	0.001862	48956.1	2.159654	-4.571709	405.257	1.208345	0.096871	0.096478	408.309	48956.1	0.090615	0.257915	1583.11	88072.7
1125	2.000000	1.219145	7.37606e+06	-56389.1	1055.82	-29739.1	0.000000	0.000000	7.239864	496.513	NaN	0.000000	0.001592	0.001690	28.0829	100.915	0.001808	55812.2	2.453585	174.377	490.334	1.218674	0.107277	0.106806	496.513	55812.2	0.100605	0.310426	1599.46	91521.5