File: remote_trans/data/nanoindenter/0828-1/data/Data_2025-08-06,11h17m57s/2025-07-22_16-23-58_1_1080.txt
2025-07-22, 16:23:58, 1
Index	Phase	Displacement	Time	Pos X	Pos Y	Pos Z	Rot A	Rot B	Piezo Z	Force A	Force B	Gripper	Voltage A	Voltage B	Temperature	Amplitude force	Amplitude pos	Stiffness	Phase shift	Phase excitation	Force A raw	Displacement raw	HMax	HMax raw	Real Force	Real Stiffness	Contact Depth	Area	Hardness	Reduced Mod.
[#]	[#]	[um]	[s]	[um]	[um]	[um]	[m°]	[m°]	[um]	[uN]	[uN]	[V]	[V]	[V]	[°C]	[uN]	[um]	[N/m]	[°]	[°]	[uN]	[um]	[um]	[um]	[uN]	[N/m]	[um]	[um^2]	[MPa]	[MPa]
1080	1.000000	0.002477	7.37561e+06	-54139.1	1055.82	-29744.3	0.000000	0.000000	6.002791	-0.016724	NaN	0.000000	0.001609	0.001639	28.0827	0.070154	0.001059	66.2396	-109.134	-169.796	0.001931	0.001191	-0.986197	-0.987484	-0.016724	66.2396	-0.986008	-1.470098E+13	1.137605E-15	NaN
1080	1.000000	0.040444	7.37561e+06	-54139.1	1055.82	-29744.3	0.000000	0.000000	6.040756	-0.062881	NaN	0.000000	0.001596	0.001621	28.0829	0.013724	0.001882	7.293165	-7.003136	8.140546	-0.064763	0.039086	-0.948231	-0.949589	-0.062881	7.293165	-0.941764	-3.723412E+12	1.688811E-14	NaN
1080	1.000000	0.078450	7.37561e+06	-54139.1	1055.82	-29744.3	0.000000	0.000000	6.078766	0.037768	NaN	0.000000	0.001591	0.001645	28.0842	0.132231	0.001944	68.0365	142.303	-164.261	-0.055995	0.077129	-0.910225	-0.911545	0.037768	68.0365	-0.910641	-1.415227E+12	-2.668666E-14	NaN
1080	1.000000	0.116474	7.37561e+06	-54139.1	1055.82	-29744.3	0.000000	0.000000	6.116785	-0.091450	NaN	0.000000	0.001609	0.001642	28.0843	0.082380	0.001874	43.9694	15.1191	12.378	-0.022487	0.115088	-0.872200	-0.873587	-0.091450	43.9694	-0.870641	-4.074841E+11	2.244268E-13	NaN
1080	1.000000	0.154452	7.37562e+06	-54139.1	1055.82	-29744.3	0.000000	0.000000	6.154767	0.008460	NaN	0.000000	0.001585	0.001631	28.0845	0.038740	0.001919	20.1895	-103.882	-163.825	-0.057951	0.153135	-0.834222	-0.835540	0.008460	20.1895	-0.834537	-1.322108E+11	-6.398653E-14	NaN
1080	1.000000	0.192502	7.37562e+06	-54139.1	1055.82	-29744.3	0.000000	0.000000	6.192816	-0.026637	NaN	0.000000	0.001572	0.001662	28.0844	0.042452	0.002057	20.6343	-41.5943	15.511	0.060785	0.191155	-0.796173	-0.797520	-0.026637	20.6343	-0.795205	-3.870431E+10	6.882151E-13	NaN
1080	1.000000	0.230512	7.37562e+06	-54139.1	1055.82	-29744.3	0.000000	0.000000	6.230823	-0.076928	NaN	0.000000	0.001608	0.001632	28.0833	0.111496	0.002023	55.1143	-31.7696	-165.52	-0.004947	0.229216	-0.758163	-0.759458	-0.076928	55.1143	-0.757116	-1.175072E+10	6.546662E-12	NaN
1080	1.000000	0.268526	7.37562e+06	-54139.1	1055.82	-29744.3	0.000000	0.000000	6.268838	-0.065635	NaN	0.000000	0.001533	0.001618	28.083	0.079016	0.001865	42.3582	162.701	13.2642	-0.079420	0.267152	-0.720149	-0.721522	-0.065635	42.3582	-0.718987	-3.553471E+9	1.847062E-11	NaN
1080	1.000000	0.306528	7.37562e+06	-54139.1	1055.82	-29744.3	0.000000	0.000000	6.306839	-0.094484	NaN	0.000000	0.001556	0.001674	28.0832	0.054819	0.002072	26.4579	161.292	-169.02	-0.068665	0.305230	-0.682147	-0.683445	-0.094484	26.4579	-0.679469	-1.025505E+9	9.213389E-11	NaN
1080	1.000000	0.344571	7.37562e+06	-54139.1	1055.82	-29744.3	0.000000	0.000000	6.344885	-0.008042	NaN	0.000000	0.001625	0.001667	28.0845	0.016723	0.002016	8.295568	178.492	15.5342	-0.009401	0.343206	-0.644104	-0.645469	-0.008042	8.295568	-0.643377	-3.285614E+8	2.447549E-11	NaN
1080	1.000000	0.382566	7.37562e+06	-54139.1	1055.82	-29744.3	0.000000	0.000000	6.382880	-0.018526	NaN	0.000000	0.001552	0.001685	28.0845	0.057317	0.001973	29.0551	23.8689	-165.54	-0.006518	0.381297	-0.606108	-0.607378	-0.018526	29.0551	-0.605630	-9.953565E+7	1.861214E-10	NaN
1080	1.000000	0.420580	7.37562e+06	-54139.1	1055.82	-29744.3	0.000000	0.000000	6.420892	-0.064448	NaN	0.000000	0.001536	0.001690	28.0844	0.065422	0.001899	34.4549	157.199	14.1473	-0.023753	0.419239	-0.568095	-0.569436	-0.064448	34.4549	-0.566692	-2.890086E+7	2.229952E-9	NaN
1080	1.000000	0.458594	7.37562e+06	-54139.1	1055.82	-29744.3	0.000000	0.000000	6.458908	-0.007595	NaN	0.000000	0.001535	0.001690	28.0844	0.118525	0.001952	60.7092	5.806748	-163.503	-0.012769	0.457299	-0.530081	-0.531376	-0.007595	60.7092	-0.529987	-8.96181e+06	8.474615E-10	NaN
1080	1.000000	0.496650	7.37562e+06	-54139.1	1055.82	-29744.3	0.000000	0.000000	6.496964	-0.018798	NaN	0.000000	0.001576	0.001698	28.0834	0.046957	0.002054	22.8568	-13.2342	14.0503	-0.141597	0.495304	-0.492025	-0.493371	-0.018798	22.8568	-0.491408	-2.60058e+06	7.228567E-9	NaN
1080	1.000000	0.534648	7.37562e+06	-54139.1	1055.82	-29744.3	0.000000	0.000000	6.534964	0.038951	NaN	0.000000	0.001571	0.001667	28.0836	0.085934	0.002023	42.4756	-157.348	-168.229	-0.064439	0.533283	-0.454027	-0.455392	0.038951	42.4756	-0.454715	-795621	-4.895627E-8	NaN
1080	1.000000	0.572658	7.37562e+06	-54139.1	1055.82	-29744.3	0.000000	0.000000	6.572970	-0.073153	NaN	0.000000	0.001534	0.001696	28.0834	0.066353	0.002203	30.1258	128.264	13.2865	-0.052185	0.571270	-0.416016	-0.417404	-0.073153	30.1258	-0.414195	-212826	3.437209E-7	NaN
1080	1.000000	0.610635	7.37562e+06	-54139.1	1055.82	-29744.3	0.000000	0.000000	6.610949	-0.004948	NaN	0.000000	0.001562	0.001678	28.0846	0.031653	0.001913	16.5492	94.1328	-163.129	-0.049643	0.609376	-0.378040	-0.379299	-0.004948	16.5492	-0.377816	-64347.4	7.689648E-8	NaN
1080	1.000000	0.648694	7.37562e+06	-54139.1	1055.82	-29744.3	0.000000	0.000000	6.649009	0.012579	NaN	0.000000	0.001593	0.001650	28.0844	0.071719	0.001881	38.1317	177.09	10.5595	-0.043923	0.647324	-0.339981	-0.341351	0.012579	38.1317	-0.340229	-18402.9	-6.835215E-7	NaN
1080	1.000000	0.686704	7.37562e+06	-54139.1	1055.82	-29744.3	0.000000	0.000000	6.687019	0.004407	NaN	0.000000	0.001573	0.001666	28.0845	0.076396	0.001934	39.5066	116.068	-165.9	-0.030217	0.685410	-0.301971	-0.303264	0.004407	39.5066	-0.302054	-5048.9	-8.729231E-7	NaN
1080	1.000000	0.724738	7.37562e+06	-54139.1	1055.82	-29744.3	0.000000	0.000000	6.725050	-0.063989	NaN	0.000000	0.001611	0.001637	28.0844	0.094484	0.001956	48.3109	92.6078	12.5272	-0.103626	0.723350	-0.263937	-0.265325	-0.063989	48.3109	-0.262943	-1300.08	4.921883E-5	NaN
1080	1.000000	0.762731	7.37562e+06	-54139.1	1055.82	-29744.3	0.000000	0.000000	6.763048	0.063419	NaN	0.000000	0.001591	0.001658	28.0831	0.082098	0.001930	42.5447	18.4185	-167.8	-0.073505	0.761372	-0.225944	-0.227303	0.063419	42.5447	-0.227062	-359.782	-0.000176	NaN
1080	1.000000	0.800739	7.37562e+06	-54139.1	1055.82	-29744.3	0.000000	0.000000	6.801053	-0.020804	NaN	0.000000	0.001651	0.001692	28.0832	0.095213	0.001881	50.6254	45.6946	12.509	0.018532	0.799412	-0.187936	-0.189263	-0.020804	50.6254	-0.187628	-82.095	0.000253	NaN
1080	1.000000	0.838726	7.37562e+06	-54139.1	1055.82	-29744.3	0.000000	0.000000	6.839037	-0.105410	NaN	0.000000	0.001651	0.001680	28.0832	0.071640	0.002117	33.8386	159.817	-171.384	-0.114318	0.837455	-0.149948	-0.151220	-0.105410	33.8386	-0.147612	-16.3798	0.006435	NaN
1080	1.000000	0.876804	7.37562e+06	-54139.1	1055.82	-29744.3	0.000000	0.000000	6.877119	0.006235	NaN	0.000000	0.001584	0.001683	28.0834	0.106317	0.001988	53.4878	85.2731	14.4292	0.073377	0.875462	-0.111870	-0.113213	0.006235	53.4878	-0.111958	-3.303450	-0.001887	NaN
1080	1.000000	0.914762	7.37562e+06	-54139.1	1055.82	-29744.3	0.000000	0.000000	6.915076	-0.010048	NaN	0.000000	0.001573	0.001622	28.0845	0.054430	0.001983	27.4528	-157.096	-169.945	-0.036260	0.913455	-0.073913	-0.075220	-0.010048	27.4528	-0.073638	-0.425723	0.023602	NaN
1080	1.000000	0.952828	7.37562e+06	-54139.1	1055.82	-29744.3	0.000000	0.000000	6.953234	2.220435	NaN	0.000000	0.001552	0.001684	28.0849	1.148709	0.002008	572.094	20.5922	18.0507	2.151031	0.951450	-0.035847	-0.037225	2.220435	572.094	-0.038758	-0.041469	-53.5442	NaN
1080	1.000000	0.990827	7.37562e+06	-54139.1	1055.82	-29744.3	0.000000	0.000000	6.991416	6.664500	NaN	0.000000	0.001585	0.001646	28.0848	4.717045	0.001988	2373.22	26.1713	-171.591	6.405685	0.989480	0.002152	0.000806	6.664500	2373.22	4.589467E-5	3.432800E-5	194142	370073
1080	2.000000	1.003830	7.37562e+06	-54139.1	1055.82	-29744.3	0.000000	0.000000	7.004585	10.7078	NaN	0.000000	0.001589	0.001649	28.0833	9.221571	0.001886	4888.75	16.048	10.5054	10.4153	1.003457	0.015156	0.014783	10.7078	4888.75	0.013513	0.013353	801.902	38652.8
1080	2.000000	1.013333	7.37562e+06	-54139.1	1055.82	-29744.3	0.000000	0.000000	7.014469	19.9748	NaN	0.000000	0.001601	0.001689	28.0837	13.9014	0.001843	7543.52	15.427	-176.723	19.8768	1.012966	0.024658	0.024291	19.9748	7543.52	0.022672	0.026916	742.11	42008.8
1080	2.000000	1.022771	7.37562e+06	-54139.1	1055.82	-29744.3	0.000000	0.000000	7.024527	35.0322	NaN	0.000000	0.001576	0.001665	28.0831	18.5094	0.001815	10200.2	12.7143	2.303144	34.3739	1.022356	0.034096	0.033682	35.0322	10200.2	0.031520	0.043954	797.02	44451.1
1080	2.000000	1.032208	7.37562e+06	-54139.1	1055.82	-29744.3	0.000000	0.000000	7.034767	54.5518	NaN	0.000000	0.001642	0.001697	28.083	23.2688	0.001917	12139.2	15.7311	176.878	53.2342	1.031867	0.043533	0.043192	54.5518	12139.2	0.040163	0.064450	846.415	43686.7
1080	2.000000	1.041737	7.37562e+06	-54139.1	1055.82	-29744.3	0.000000	0.000000	7.045169	75.7896	NaN	0.000000	0.001610	0.001714	28.0842	28.0138	0.001911	14662	12.1725	-1.810206	75.2612	1.041433	0.053062	0.052759	75.7896	14662	0.049185	0.089912	842.934	44674.3
1080	2.000000	1.051211	7.37562e+06	-54139.1	1055.82	-29744.3	0.000000	0.000000	7.055875	105.739	NaN	0.000000	0.001693	0.001682	28.0845	34.0029	0.001664	20436	15.0588	171.085	105.014	1.050879	0.062536	0.062204	105.739	20436	0.058655	0.121030	873.658	53668.7
1080	2.000000	1.060697	7.37562e+06	-54139.1	1055.82	-29744.3	0.000000	0.000000	7.066680	137.814	NaN	0.000000	0.001628	0.001697	28.0845	41.8392	0.001884	22211.6	8.345361	-2.496332	136.292	1.060350	0.072022	0.071675	137.814	22211.6	0.067368	0.153548	897.531	51788.2
1080	2.000000	1.070209	7.37562e+06	-54139.1	1055.82	-29744.3	0.000000	0.000000	7.077775	176.274	NaN	0.000000	0.001622	0.001721	28.0833	50.936	0.001744	29199.2	8.041021	173.797	176.952	1.069921	0.081534	0.081247	176.274	29199.2	0.077007	0.193753	909.791	60606.7
1080	2.000000	1.079670	7.37562e+06	-54139.1	1055.82	-29744.3	0.000000	0.000000	7.088996	219.072	NaN	0.000000	0.001567	0.001708	28.083	59.5104	0.001775	33524	5.057818	-4.519504	216.055	1.079429	0.090996	0.090754	219.072	33524	0.086094	0.235650	929.647	63094.9
1080	2.000000	1.089156	7.37562e+06	-54139.1	1055.82	-29744.3	0.000000	0.000000	7.100351	264.5	NaN	0.000000	0.001577	0.001728	28.083	67.941	0.001737	39104.5	3.062157	175.643	262.869	1.088806	0.100482	0.100131	264.5	39104.5	0.095409	0.282544	936.135	67213.6
1080	2.000000	1.094147	7.37562e+06	-54139.1	1055.82	-29744.3	0.000000	0.000000	7.106274	287.154	NaN	0.000000	0.001525	0.001710	28.083	73.2567	0.001686	43461.8	4.809093	172.961	286.577	1.093932	0.105473	0.105257	287.154	43461.8	0.100517	0.309949	926.457	71324.1