File: remote_trans/data/nanoindenter/0828-1/data/Data_2025-08-06,11h17m57s/2025-07-22_16-23-58_1_405.txt
2025-07-22, 16:23:58, 1
Index	Phase	Displacement	Time	Pos X	Pos Y	Pos Z	Rot A	Rot B	Piezo Z	Force A	Force B	Gripper	Voltage A	Voltage B	Temperature	Amplitude force	Amplitude pos	Stiffness	Phase shift	Phase excitation	Force A raw	Displacement raw	HMax	HMax raw	Real Force	Real Stiffness	Contact Depth	Area	Hardness	Reduced Mod.
[#]	[#]	[um]	[s]	[um]	[um]	[um]	[m°]	[m°]	[um]	[uN]	[uN]	[V]	[V]	[V]	[°C]	[uN]	[um]	[N/m]	[°]	[°]	[uN]	[um]	[um]	[um]	[uN]	[N/m]	[um]	[um^2]	[MPa]	[MPa]
405	1.000000	0.002458	7.36902e+06	-56839.1	1005.82	-29738.2	0.000000	0.000000	6.002817	-0.001988	NaN	0.000000	0.001706	0.001707	28.082	0.084234	0.000988	85.2844	49.521	-169.837	0.033069	0.001221	-0.976661	-0.977898	-0.001988	85.2844	-0.976644	-1.099489E+13	1.808238E-16	NaN
405	1.000000	0.040408	7.36902e+06	-56839.1	1005.82	-29738.2	0.000000	0.000000	6.040770	0.052391	NaN	0.000000	0.001670	0.001678	28.082	0.065927	0.002004	32.894	129.338	16.1732	0.044218	0.039068	-0.938711	-0.940051	0.052391	32.894	-0.939905	-3.514448E+12	-1.490746E-14	NaN
405	1.000000	0.078388	7.36902e+06	-56839.1	1005.82	-29738.2	0.000000	0.000000	6.078748	0.000466	NaN	0.000000	0.001616	0.001670	28.082	0.117205	0.001808	64.8152	75.7529	-163.939	0.024197	0.077082	-0.900731	-0.902037	0.000466	64.8152	-0.900736	-1.039952E+12	-4.485206E-16	NaN
405	1.000000	0.116441	7.36902e+06	-56839.1	1005.82	-29738.2	0.000000	0.000000	6.116802	0.051625	NaN	0.000000	0.001662	0.001665	28.0806	0.083326	0.001985	41.9674	128.269	14.1973	0.047873	0.115111	-0.862678	-0.864008	0.051625	41.9674	-0.863601	-3.272314E+11	-1.577614E-13	NaN
405	1.000000	0.154439	7.36902e+06	-56839.1	1005.82	-29738.2	0.000000	0.000000	6.154797	-0.027604	NaN	0.000000	0.001569	0.001676	28.0808	0.119720	0.002105	56.8613	-148.996	-163.631	-0.018090	0.153102	-0.824680	-0.826017	-0.027604	56.8613	-0.824316	-9.610323E+10	2.872339E-13	NaN
405	1.000000	0.192457	7.36902e+06	-56839.1	1005.82	-29738.2	0.000000	0.000000	6.192816	-0.013060	NaN	0.000000	0.001592	0.001725	28.0807	0.059621	0.001929	30.9005	-166.258	13.8999	0.082051	0.191117	-0.786662	-0.788002	-0.013060	30.9005	-0.786345	-2.933842E+10	4.451532E-13	NaN
405	1.000000	0.230478	7.36902e+06	-56839.1	1005.82	-29738.2	0.000000	0.000000	6.230838	0.014280	NaN	0.000000	0.001596	0.001692	28.0817	0.087834	0.002119	41.4501	104.899	-163.671	-0.069150	0.229134	-0.748641	-0.749985	0.014280	41.4501	-0.748900	-9.083225E+9	-1.572136E-12	NaN
405	1.000000	0.268506	7.36902e+06	-56839.1	1005.82	-29738.2	0.000000	0.000000	6.268866	0.030510	NaN	0.000000	0.001647	0.001694	28.0822	0.045555	0.002021	22.5424	-128.717	15.1914	0.015985	0.267144	-0.710613	-0.711975	0.030510	22.5424	-0.711628	-2.820128E+9	-1.081875E-11	NaN
405	1.000000	0.306513	7.36902e+06	-56839.1	1005.82	-29738.2	0.000000	0.000000	6.306870	-0.070245	NaN	0.000000	0.001659	0.001668	28.0822	0.058879	0.002044	28.8124	-52.2692	-162.543	-0.097398	0.305160	-0.672606	-0.673959	-0.070245	28.8124	-0.670777	-7.798841E+8	9.007094E-11	NaN
405	1.000000	0.344503	7.36902e+06	-56839.1	1005.82	-29738.2	0.000000	0.000000	6.344864	0.046206	NaN	0.000000	0.001631	0.001667	28.0822	0.032382	0.001988	16.2878	51.8222	12.6886	0.070027	0.343173	-0.634616	-0.635946	0.046206	16.2878	-0.636743	-2.664409E+8	-1.734197E-10	NaN
405	1.000000	0.382524	7.36902e+06	-56839.1	1005.82	-29738.2	0.000000	0.000000	6.382883	-0.005344	NaN	0.000000	0.001662	0.001693	28.0813	0.080902	0.002071	39.0569	-176.332	-167.194	-0.055616	0.381238	-0.596595	-0.597881	-0.005344	39.0569	-0.596493	-7.449838E+7	7.173743E-11	NaN
405	1.000000	0.420550	7.36902e+06	-56839.1	1005.82	-29738.2	0.000000	0.000000	6.420909	0.000502	NaN	0.000000	0.001664	0.001692	28.0811	0.051673	0.001997	25.8748	-65.072	14.676	-0.050460	0.419214	-0.558569	-0.559905	0.000502	25.8748	-0.558583	-2.232444E+7	-2.246995E-11	NaN
405	1.000000	0.458563	7.36902e+06	-56839.1	1005.82	-29738.2	0.000000	0.000000	6.458920	-0.056546	NaN	0.000000	0.001654	0.001722	28.0814	0.027897	0.002107	13.2421	-117.539	-164.16	0.020657	0.457264	-0.520556	-0.521855	-0.056546	13.2421	-0.517353	-5.98112e+06	9.454123E-9	NaN
405	1.000000	0.496595	7.36902e+06	-56839.1	1005.82	-29738.2	0.000000	0.000000	6.496949	-0.111889	NaN	0.000000	0.001576	0.001709	28.0812	0.106866	0.002002	53.3709	39.823	13.8394	-0.033199	0.495242	-0.482525	-0.483877	-0.111889	53.3709	-0.480952	-1.85719e+06	6.024665E-8	NaN
405	1.000000	0.534601	7.36902e+06	-56839.1	1005.82	-29738.2	0.000000	0.000000	6.534960	-0.006357	NaN	0.000000	0.001619	0.001748	28.0825	0.122199	0.002024	60.361	158.736	-166.277	-0.025029	0.533286	-0.444518	-0.445833	-0.006357	60.361	-0.444439	-570140	1.115070E-8	NaN
405	1.000000	0.572626	7.36902e+06	-56839.1	1005.82	-29738.2	0.000000	0.000000	6.572983	-0.060610	NaN	0.000000	0.001616	0.001740	28.0828	0.067251	0.001918	35.0557	-128.384	12.4092	-0.061781	0.571169	-0.406493	-0.407951	-0.060610	35.0557	-0.405196	-158505	3.823846E-7	NaN
405	1.000000	0.610636	7.36902e+06	-56839.1	1005.82	-29738.2	0.000000	0.000000	6.610995	-0.024799	NaN	0.000000	0.001595	0.001695	28.0826	0.018376	0.001951	9.416404	79.7632	-161.814	0.018654	0.609268	-0.368483	-0.369851	-0.024799	9.416404	-0.366508	-44238.4	5.605743E-7	NaN
405	1.000000	0.648643	7.36902e+06	-56839.1	1005.82	-29738.2	0.000000	0.000000	6.649001	-0.035424	NaN	0.000000	0.001631	0.001694	28.0813	0.083281	0.002082	39.9964	-70.6001	13.7844	0.013857	0.647233	-0.330476	-0.331886	-0.035424	39.9964	-0.329812	-12962.7	2.732759E-6	NaN
405	1.000000	0.686634	7.36903e+06	-56839.1	1005.82	-29738.2	0.000000	0.000000	6.686993	-0.000353	NaN	0.000000	0.001704	0.001702	28.0811	0.081725	0.001993	41.0134	53.7771	-167.348	0.008459	0.685322	-0.292485	-0.293797	-0.000353	41.0134	-0.292478	-3634.16	9.706417E-8	NaN
405	1.000000	0.724676	7.36903e+06	-56839.1	1005.82	-29738.2	0.000000	0.000000	6.725034	-0.041297	NaN	0.000000	0.001711	0.001703	28.0811	0.052220	0.002062	25.3237	-163.728	14.651	-0.097139	0.723375	-0.254443	-0.255744	-0.041297	25.3237	-0.253220	-921.904	4.479494E-5	NaN
405	1.000000	0.762672	7.36903e+06	-56839.1	1005.82	-29738.2	0.000000	0.000000	6.763031	0.002533	NaN	0.000000	0.001645	0.001683	28.081	0.055200	0.002057	26.8333	144.154	-162.771	0.014433	0.761379	-0.216447	-0.217741	0.002533	26.8333	-0.216518	-244.289	-1.036792E-5	NaN
405	1.000000	0.800723	7.36903e+06	-56839.1	1005.82	-29738.2	0.000000	0.000000	6.801082	0.008082	NaN	0.000000	0.001649	0.001727	28.0824	0.042176	0.001993	21.1636	-84.982	12.581	-0.018806	0.799360	-0.178397	-0.179759	0.008082	21.1636	-0.178683	-57.9469	-0.000139	NaN
405	1.000000	0.838722	7.36903e+06	-56839.1	1005.82	-29738.2	0.000000	0.000000	6.839081	0.003303	NaN	0.000000	0.001687	0.001700	28.082	0.076768	0.002011	38.1697	-137.55	-166.187	0.038842	0.837375	-0.140397	-0.141744	0.003303	38.1697	-0.140462	-12.0681	-0.000274	NaN
405	1.000000	0.876725	7.36903e+06	-56839.1	1005.82	-29738.2	0.000000	0.000000	6.877082	-0.046069	NaN	0.000000	0.001667	0.001753	28.0822	0.031904	0.002050	15.5598	-178.053	15.8418	-0.203297	0.875390	-0.102394	-0.103729	-0.046069	15.5598	-0.100174	-1.843422	0.024991	NaN
405	1.000000	0.914744	7.36903e+06	-56839.1	1005.82	-29738.2	0.000000	0.000000	6.915105	0.060009	NaN	0.000000	0.001661	0.001719	28.0811	0.033832	0.002018	16.7664	2.481945	-165.305	0.049619	0.913412	-0.064375	-0.065707	0.060009	16.7664	-0.067060	-0.283995	-0.211303	NaN
405	1.000000	0.952742	7.36903e+06	-56839.1	1005.82	-29738.2	0.000000	0.000000	6.953099	-0.051342	NaN	0.000000	0.001581	0.001715	28.081	0.047234	0.002039	23.169	-105.751	15.3474	0.016529	0.951385	-0.026377	-0.027734	-0.051342	23.169	-0.024715	-0.016584	3.095847	NaN
405	2.000000	0.989342	7.36903e+06	-56839.1	1005.82	-29738.2	0.000000	0.000000	6.990080	9.195897	NaN	0.000000	0.001582	0.001685	28.0809	9.799735	0.001611	6084.71	6.011594	-173.448	8.518305	0.988977	0.010223	0.009858	9.195897	6084.71	0.009089	0.008187	1123.24	61440.1
405	2.000000	0.998796	7.36903e+06	-56839.1	1005.82	-29738.2	0.000000	0.000000	7.000003	20.5931	NaN	0.000000	0.001545	0.001639	28.081	19.753	0.001822	10842.4	3.436219	7.357123	20.2868	0.998481	0.019677	0.019362	20.5931	10842.4	0.018253	0.019871	1036.34	70272.9
405	2.000000	1.008331	7.36903e+06	-56839.1	1005.82	-29738.2	0.000000	0.000000	7.010425	42.1735	NaN	0.000000	0.001630	0.001651	28.0822	30.1938	0.001789	16875.9	7.907553	178.181	42.5692	1.007975	0.029212	0.028856	42.1735	16875.9	0.027338	0.035406	1191.13	81940.6
405	2.000000	1.017757	7.36903e+06	-56839.1	1005.82	-29738.2	0.000000	0.000000	7.020862	66.7414	NaN	0.000000	0.001576	0.001613	28.0824	37.6223	0.001733	21707.4	4.715214	-0.392998	65.649	1.017435	0.038638	0.038316	66.7414	21707.4	0.036332	0.054892	1215.86	84649.5
405	2.000000	1.027270	7.36903e+06	-56839.1	1005.82	-29738.2	0.000000	0.000000	7.031843	102.421	NaN	0.000000	0.001652	0.001647	28.0823	46.7512	0.001813	25792.4	4.922559	177.581	102.332	1.026830	0.048151	0.047711	102.421	25792.4	0.045173	0.078079	1311.76	84332.9
405	2.000000	1.036811	7.36903e+06	-56839.1	1005.82	-29738.2	0.000000	0.000000	7.042829	137.54	NaN	0.000000	0.001593	0.001618	28.0823	56.4314	0.001923	29344	10.675	-8.290973	142.461	1.036293	0.057692	0.057174	137.54	29344	0.054176	0.105758	1300.51	82439.6
405	2.000000	1.046163	7.36903e+06	-56839.1	1005.82	-29738.2	0.000000	0.000000	7.054027	182.397	NaN	0.000000	0.001712	0.001585	28.0812	64.785	0.001774	36529.3	1.380984	177.806	177.971	1.045863	0.067044	0.066744	182.397	36529.3	0.063299	0.137905	1322.63	89872.1
405	2.000000	1.055815	7.36903e+06	-56839.1	1005.82	-29738.2	0.000000	0.000000	7.065888	236.096	NaN	0.000000	0.001685	0.001654	28.0817	75.2101	0.001890	39795.5	3.970649	-5.250646	238.747	1.055502	0.076696	0.076383	236.096	39795.5	0.072247	0.173347	1361.99	87327.2
405	2.000000	1.065213	7.36903e+06	-56839.1	1005.82	-29738.2	0.000000	0.000000	7.078079	303.986	NaN	0.000000	0.001623	0.001670	28.0814	84.3111	0.001821	46292.1	1.916205	176.298	303.283	1.064782	0.086094	0.085663	303.986	46292.1	0.081169	0.212465	1430.76	91756.5
405	2.000000	1.074657	7.36903e+06	-56839.1	1005.82	-29738.2	0.000000	0.000000	7.090209	369.268	NaN	0.000000	0.001709	0.001622	28.0827	93.6337	0.001870	50062.3	8.086404	-10.0214	365.255	1.074233	0.095538	0.095114	369.268	50062.3	0.090006	0.254859	1448.91	90601.2
405	2.000000	1.084329	7.36903e+06	-56839.1	1005.82	-29738.2	0.000000	0.000000	7.102511	433.204	NaN	0.000000	0.001668	0.001615	28.0825	101.898	0.001782	57187.7	4.190848	172.766	442.216	1.083880	0.105210	0.104761	433.204	57187.7	0.099528	0.304551	1422.43	94677.3
405	2.000000	1.087150	7.36903e+06	-56839.1	1005.82	-29738.2	0.000000	0.000000	7.106518	462.008	NaN	0.000000	0.001706	0.001653	28.0823	103.604	0.001684	61519	3.625588	172.223	461.637	1.086855	0.108031	0.107736	462.008	61519	0.102399	0.320339	1442.25	99306.5