File: remote_trans/data/nanoindenter/0828-1/data/Data_2025-08-06,11h17m57s/2025-07-22_16-23-58_1_1082.txt
2025-07-22, 16:23:58, 1
Index	Phase	Displacement	Time	Pos X	Pos Y	Pos Z	Rot A	Rot B	Piezo Z	Force A	Force B	Gripper	Voltage A	Voltage B	Temperature	Amplitude force	Amplitude pos	Stiffness	Phase shift	Phase excitation	Force A raw	Displacement raw	HMax	HMax raw	Real Force	Real Stiffness	Contact Depth	Area	Hardness	Reduced Mod.
[#]	[#]	[um]	[s]	[um]	[um]	[um]	[m°]	[m°]	[um]	[uN]	[uN]	[V]	[V]	[V]	[°C]	[uN]	[um]	[N/m]	[°]	[°]	[uN]	[um]	[um]	[um]	[uN]	[N/m]	[um]	[um^2]	[MPa]	[MPa]
1082	1.000000	0.002393	7.37563e+06	-54239.1	1055.82	-29744	0.000000	0.000000	6.002785	-0.014935	NaN	0.000000	0.001656	0.001722	28.081	0.015855	0.000876	18.1014	85.5595	-159.933	-0.063610	0.001127	-1.079910	-1.081176	-0.014935	18.1014	-1.079291	-2.642411E+14	5.651946E-17	NaN
1082	1.000000	0.042340	7.37563e+06	-54239.1	1055.82	-29744	0.000000	0.000000	6.042734	0.021564	NaN	0.000000	0.001662	0.001694	28.0809	0.130154	0.002028	64.1777	-156.331	-167.054	0.056203	0.041105	-1.039963	-1.041198	0.021564	64.1777	-1.040215	-7.886093E+13	-2.734371E-16	NaN
1082	1.000000	0.082344	7.37563e+06	-54239.1	1055.82	-29744	0.000000	0.000000	6.082738	0.012004	NaN	0.000000	0.001667	0.001701	28.0819	0.133002	0.002096	63.4682	-5.867641	-167.519	0.030168	0.081074	-0.999959	-1.001229	0.012004	63.4682	-1.000101	-2.275757E+13	-5.274642E-16	NaN
1082	1.000000	0.122364	7.37563e+06	-54239.1	1055.82	-29744	0.000000	0.000000	6.122756	-0.013255	NaN	0.000000	0.001629	0.001665	28.0816	0.103011	0.001939	53.1248	-150.065	-165.177	0.039821	0.121024	-0.959940	-0.961280	-0.013255	53.1248	-0.959753	-6.509280E+12	2.036293E-15	NaN
1082	1.000000	0.162376	7.37563e+06	-54239.1	1055.82	-29744	0.000000	0.000000	6.162768	-0.005294	NaN	0.000000	0.001621	0.001732	28.0818	0.031507	0.002104	14.9783	126.385	-167.19	0.000141	0.161116	-0.919927	-0.921187	-0.005294	14.9783	-0.919662	-1.873471E+12	2.825744E-15	NaN
1082	1.000000	0.202421	7.37563e+06	-54239.1	1055.82	-29744	0.000000	0.000000	6.202814	0.002065	NaN	0.000000	0.001646	0.001718	28.0805	0.051392	0.002017	25.4811	-106.037	-166.547	-0.065929	0.201080	-0.879882	-0.881224	0.002065	25.4811	-0.879943	-5.444198E+11	-3.792428E-15	NaN
1082	1.000000	0.242440	7.37563e+06	-54239.1	1055.82	-29744	0.000000	0.000000	6.242836	0.067600	NaN	0.000000	0.001619	0.001693	28.0803	0.085497	0.002058	41.5341	88.8092	-165.006	0.024054	0.241081	-0.839863	-0.841222	0.067600	41.5341	-0.841084	-1.621711E+11	-4.168440E-13	NaN
1082	1.000000	0.282455	7.37563e+06	-54239.1	1055.82	-29744	0.000000	0.000000	6.282845	-0.054733	NaN	0.000000	0.001556	0.001702	28.0804	0.200801	0.001950	102.98	-158.075	-165.899	-0.064866	0.281220	-0.799849	-0.801083	-0.054733	102.98	-0.799450	-4.419760E+10	1.238371E-12	NaN
1082	1.000000	0.322464	7.37564e+06	-54239.1	1055.82	-29744	0.000000	0.000000	6.322856	-0.024370	NaN	0.000000	0.001569	0.001691	28.0802	0.070783	0.002051	34.5092	129.516	-167.208	0.012695	0.321161	-0.759839	-0.761143	-0.024370	34.5092	-0.759310	-1.258661E+10	1.936161E-12	NaN
1082	1.000000	0.362467	7.37564e+06	-54239.1	1055.82	-29744	0.000000	0.000000	6.362859	-0.003402	NaN	0.000000	0.001554	0.001712	28.0817	0.057137	0.001994	28.6518	147.016	-164.601	0.030947	0.361175	-0.719836	-0.721128	-0.003402	28.6518	-0.719747	-3.639382E+9	9.348952E-13	NaN
1082	1.000000	0.402509	7.37564e+06	-54239.1	1055.82	-29744	0.000000	0.000000	6.402905	0.061684	NaN	0.000000	0.001591	0.001720	28.0817	0.057526	0.001999	28.7765	62.3771	-166.085	0.041710	0.401156	-0.679794	-0.681148	0.061684	28.7765	-0.681402	-1.089871E+9	-5.659750E-11	NaN
1082	1.000000	0.442506	7.37564e+06	-54239.1	1055.82	-29744	0.000000	0.000000	6.442898	-0.021645	NaN	0.000000	0.001572	0.001733	28.0815	0.123559	0.002050	60.2688	-140.6	-167.632	-0.066431	0.441211	-0.639798	-0.641092	-0.021645	60.2688	-0.639528	-2.909493E+8	7.439380E-11	NaN
1082	1.000000	0.482555	7.37564e+06	-54239.1	1055.82	-29744	0.000000	0.000000	6.482948	0.005652	NaN	0.000000	0.001595	0.001736	28.0805	0.042399	0.001944	21.811	103.987	-165.829	0.027049	0.481246	-0.599748	-0.601057	0.005652	21.811	-0.599942	-8.311276E+7	-6.800522E-11	NaN
1082	1.000000	0.522535	7.37564e+06	-54239.1	1055.82	-29744	0.000000	0.000000	6.522925	-0.060173	NaN	0.000000	0.001582	0.001676	28.0804	0.064868	0.001887	34.3707	111.568	-164.014	-0.088969	0.521282	-0.559769	-0.561021	-0.060173	34.3707	-0.558456	-2.223372E+7	2.706400E-9	NaN
1082	1.000000	0.562559	7.37564e+06	-54239.1	1055.82	-29744	0.000000	0.000000	6.562951	-0.039820	NaN	0.000000	0.001594	0.001706	28.0802	0.102732	0.001848	55.581	3.447035	-165.56	-0.037223	0.561269	-0.519744	-0.521034	-0.039820	55.581	-0.519207	-6.3469e+06	6.273965E-9	NaN
1082	1.000000	0.602592	7.37564e+06	-54239.1	1055.82	-29744	0.000000	0.000000	6.602982	-0.058051	NaN	0.000000	0.001607	0.001691	28.0805	0.087904	0.002080	42.252	-157.499	-164.515	0.005438	0.601265	-0.479712	-0.481038	-0.058051	42.252	-0.478681	-1.72609e+06	3.363136E-8	NaN
1082	1.000000	0.642586	7.37564e+06	-54239.1	1055.82	-29744	0.000000	0.000000	6.642978	-0.009912	NaN	0.000000	0.001596	0.001648	28.0814	0.064698	0.001894	34.1549	-39.7227	-166.872	-0.117101	0.641285	-0.439718	-0.441018	-0.009912	34.1549	-0.439500	-485630	2.040982E-8	NaN
1082	1.000000	0.682602	7.37564e+06	-54239.1	1055.82	-29744	0.000000	0.000000	6.682995	0.021571	NaN	0.000000	0.001538	0.001704	28.0814	0.070347	0.001987	35.4013	-156.176	-166.435	-0.014793	0.681323	-0.399702	-0.400980	0.021571	35.4013	-0.400159	-134356	-1.605547E-7	NaN
1082	1.000000	0.722645	7.37564e+06	-54239.1	1055.82	-29744	0.000000	0.000000	6.723038	0.004541	NaN	0.000000	0.001607	0.001672	28.0815	0.057621	0.002030	28.3876	-160.069	-168.004	-0.070830	0.721318	-0.359658	-0.360985	0.004541	28.3876	-0.359778	-35369.9	-1.283880E-7	NaN
1082	1.000000	0.762663	7.37564e+06	-54239.1	1055.82	-29744	0.000000	0.000000	6.763057	0.038032	NaN	0.000000	0.001585	0.001692	28.0801	0.083160	0.001955	42.5423	-64.525	-165.993	0.012570	0.761312	-0.319641	-0.320992	0.038032	42.5423	-0.320311	-9401.91	-4.045087E-6	NaN
1082	1.000000	0.802660	7.37564e+06	-54239.1	1055.82	-29744	0.000000	0.000000	6.803052	-0.025052	NaN	0.000000	0.001602	0.001692	28.08	0.086289	0.001995	43.2437	-149.372	-166.399	0.010682	0.801377	-0.279643	-0.280926	-0.025052	43.2437	-0.279209	-2296.29	1.090978E-5	NaN
1082	1.000000	0.842682	7.37564e+06	-54239.1	1055.82	-29744	0.000000	0.000000	6.843075	-0.006622	NaN	0.000000	0.001574	0.001700	28.0801	0.153551	0.001971	77.9099	141.544	-168.311	-0.032443	0.841358	-0.239621	-0.240945	-0.006622	77.9099	-0.239557	-565.767	1.170445E-5	NaN
1082	1.000000	0.882716	7.37564e+06	-54239.1	1055.82	-29744	0.000000	0.000000	6.883108	-0.022614	NaN	0.000000	0.001611	0.001705	28.0818	0.040639	0.002159	18.8233	14.2211	-165.559	0.016293	0.881432	-0.199587	-0.200872	-0.022614	18.8233	-0.198686	-125.34	0.000180	NaN
1082	1.000000	0.922755	7.37564e+06	-54239.1	1055.82	-29744	0.000000	0.000000	6.923148	0.015738	NaN	0.000000	0.001620	0.001731	28.0815	0.028390	0.002243	12.6572	42.8933	-166.046	0.060470	0.921389	-0.159549	-0.160914	0.015738	12.6572	-0.160481	-27.9597	-0.000563	NaN
1082	1.000000	0.962718	7.37564e+06	-54239.1	1055.82	-29744	0.000000	0.000000	6.963110	-0.018252	NaN	0.000000	0.001610	0.001707	28.0816	0.056644	0.001992	28.4427	-175.728	-163.678	-0.108414	0.961482	-0.119586	-0.120822	-0.018252	28.4427	-0.119104	-4.634177	0.003939	NaN
1082	1.000000	1.002720	7.37564e+06	-54239.1	1055.82	-29744	0.000000	0.000000	7.003113	0.018344	NaN	0.000000	0.001618	0.001703	28.0816	0.011697	0.002058	5.682678	-91.0162	-165.55	-0.016864	1.001400	-0.079584	-0.080903	0.018344	5.682678	-0.082005	-0.694195	-0.026424	NaN
1082	1.000000	1.042786	7.37564e+06	-54239.1	1055.82	-29744	0.000000	0.000000	7.043179	0.000292	NaN	0.000000	0.001587	0.001734	28.0803	0.092323	0.002010	45.9312	-122.089	-163.624	0.039556	1.041479	-0.039517	-0.040824	0.000292	45.9312	-0.039522	-0.043737	-0.006670	NaN
1082	1.000000	1.082769	7.37564e+06	-54239.1	1055.82	-29744	0.000000	0.000000	7.083206	1.070834	NaN	0.000000	0.001514	0.001720	28.0802	1.715168	0.001838	932.927	2.453919	-165.5	0.254850	1.081466	0.000466	-0.000837	1.070834	932.927	-0.000395	-0.000293	-3655.84	NaN
1082	2.000000	1.098328	7.37564e+06	-54239.1	1055.82	-29744	0.000000	0.000000	7.099590	21.1114	NaN	0.000000	0.001536	0.001719	28.0802	18.4401	0.001794	10280.4	5.576298	-174.052	22.2981	1.098004	0.016025	0.015700	21.1114	10280.4	0.014485	0.014605	1445.52	77720.6
1082	2.000000	1.108276	7.37564e+06	-54239.1	1055.82	-29744	0.000000	0.000000	7.110419	42.5372	NaN	0.000000	0.001564	0.001652	28.0816	29.204	0.001812	16119.1	0.331858	-175.015	41.4454	1.107987	0.025973	0.025684	42.5372	16119.1	0.023994	0.029210	1456.25	86168.4
1082	2.000000	1.118231	7.37564e+06	-54239.1	1055.82	-29744	0.000000	0.000000	7.121529	70.6395	NaN	0.000000	0.001596	0.001704	28.0817	39.2847	0.001808	21727.5	5.351956	176.916	69.461	1.118031	0.035927	0.035728	70.6395	21727.5	0.033489	0.048286	1462.94	90338.3
1082	2.000000	1.128199	7.37564e+06	-54239.1	1055.82	-29744	0.000000	0.000000	7.133191	111.814	NaN	0.000000	0.001581	0.001645	28.0815	47.1988	0.001690	27925.2	3.929061	177.311	110.109	1.127989	0.045896	0.045686	111.814	27925.2	0.042893	0.071718	1559.07	95269.6
1082	2.000000	1.138159	7.37564e+06	-54239.1	1055.82	-29744	0.000000	0.000000	7.144790	151.641	NaN	0.000000	0.001537	0.001691	28.0814	57.9181	0.001736	33358.3	4.610985	174.249	148.703	1.137969	0.055856	0.055665	151.641	33358.3	0.052447	0.100126	1514.5	96317.3
1082	2.000000	1.148194	7.37564e+06	-54239.1	1055.82	-29744	0.000000	0.000000	7.156865	201.263	NaN	0.000000	0.001531	0.001709	28.08	68.4527	0.001888	36261.1	7.337936	171.821	197.363	1.147919	0.065891	0.065616	201.263	36261.1	0.061728	0.132077	1523.83	91159.3
1082	2.000000	1.158167	7.37564e+06	-54239.1	1055.82	-29744	0.000000	0.000000	7.169052	255.077	NaN	0.000000	0.001587	0.001690	28.0801	76.3503	0.001839	41506.4	0.110067	177.761	252.575	1.157969	0.075863	0.075666	255.077	41506.4	0.071254	0.169228	1507.3	92183.2
1082	2.000000	1.168145	7.37564e+06	-54239.1	1055.82	-29744	0.000000	0.000000	7.181498	315.09	NaN	0.000000	0.001616	0.001691	28.0802	85.3123	0.001818	46935	4.706119	172.237	311.431	1.167892	0.085842	0.085589	315.09	46935	0.080807	0.210804	1494.7	93396.4
1082	2.000000	1.178210	7.37564e+06	-54239.1	1055.82	-29744	0.000000	0.000000	7.194305	381.748	NaN	0.000000	0.001620	0.001656	28.0815	93.7635	0.001740	53876.3	3.529630	172.626	382.022	1.177984	0.095906	0.095680	381.748	53876.3	0.090592	0.257798	1480.8	96946.2
1082	2.000000	1.188091	7.37564e+06	-54239.1	1055.82	-29744	0.000000	0.000000	7.207531	463.056	NaN	0.000000	0.001523	0.001697	28.0817	102.42	0.001786	57359.3	-0.995903	177.369	459.084	1.187936	0.105788	0.105633	463.056	57359.3	0.099733	0.305663	1514.92	94788.5
1082	2.000000	1.188634	7.37564e+06	-54239.1	1055.82	-29744	0.000000	0.000000	7.208325	469.159	NaN	0.000000	0.001525	0.001693	28.0816	103.791	0.001836	56519	3.090035	-6.194683	465.469	1.188202	0.106331	0.105898	469.159	56519	0.100105	0.307692	1524.77	93091.4