File: remote_trans/data/nanoindenter/0828-1/data/Data_2025-08-06,11h17m57s/2025-07-22_16-23-58_1_12.txt
2025-07-22, 16:23:58, 1
Index	Phase	Displacement	Time	Pos X	Pos Y	Pos Z	Rot A	Rot B	Piezo Z	Force A	Force B	Gripper	Voltage A	Voltage B	Temperature	Amplitude force	Amplitude pos	Stiffness	Phase shift	Phase excitation	Force A raw	Displacement raw	HMax	HMax raw	Real Force	Real Stiffness	Contact Depth	Area	Hardness	Reduced Mod.
[#]	[#]	[um]	[s]	[um]	[um]	[um]	[m°]	[m°]	[um]	[uN]	[uN]	[V]	[V]	[V]	[°C]	[uN]	[um]	[N/m]	[°]	[°]	[uN]	[um]	[um]	[um]	[uN]	[N/m]	[um]	[um^2]	[MPa]	[MPa]
12	1.000000	0.002013	7.36516e+06	-39239.1	955.819	-29795.3	0.000000	0.000000	6.002796	0.004693	NaN	0.000000	0.001569	0.001619	28.1105	0.033638	0.000879	38.2873	-40.8508	-166.622	-0.005845	0.000755	-1.078928	-1.080185	0.004693	38.2873	-1.079020	-2.620356E+14	-1.791126E-17	NaN
12	1.000000	0.041988	7.36516e+06	-39239.1	955.819	-29795.3	0.000000	0.000000	6.042773	0.057147	NaN	0.000000	0.001529	0.001650	28.1107	0.051865	0.002028	25.5684	-38.8074	-166.391	0.069102	0.040658	-1.038953	-1.040283	0.057147	25.5684	-1.040630	-7.987915E+13	-7.154236E-16	NaN
12	1.000000	0.081978	7.36516e+06	-39239.1	955.818	-29795.3	0.000000	0.000000	6.082761	0.004097	NaN	0.000000	0.001516	0.001613	28.1102	0.078232	0.002102	37.2231	-8.754156	-162.358	-0.003434	0.080641	-0.998963	-1.000300	0.004097	37.2231	-0.999045	-2.202498E+13	-1.860102E-16	NaN
12	1.000000	0.121989	7.36516e+06	-39239.1	955.818	-29795.3	0.000000	0.000000	6.122773	0.026115	NaN	0.000000	0.001554	0.001644	28.1117	0.032686	0.002045	15.982	13.6612	-166.238	-0.020964	0.120692	-0.958952	-0.960249	0.026115	15.982	-0.960178	-6.595794E+12	-3.959380E-15	NaN
12	1.000000	0.162016	7.36516e+06	-39239.1	955.819	-29795.3	0.000000	0.000000	6.162800	0.022930	NaN	0.000000	0.001541	0.001608	28.1101	0.072509	0.002043	35.494	-8.810391	-163.73	0.092867	0.160720	-0.918925	-0.920221	0.022930	35.494	-0.919409	-1.858781E+12	-1.233622E-14	NaN
12	1.000000	0.202031	7.36516e+06	-39239.1	955.819	-29795.3	0.000000	0.000000	6.202815	0.011731	NaN	0.000000	0.001521	0.001648	28.1095	0.011936	0.002137	5.586590	-31.6569	-164.794	0.059836	0.200707	-0.878910	-0.880234	0.011731	5.586590	-0.880485	-5.536879E+11	-2.118741E-14	NaN
12	1.000000	0.242046	7.36516e+06	-39239.1	955.819	-29795.3	0.000000	0.000000	6.242829	-0.004960	NaN	0.000000	0.001549	0.001669	28.1087	0.039884	0.002006	19.8782	161.703	-164.429	-0.067122	0.240778	-0.838895	-0.840163	-0.004960	19.8782	-0.838708	-1.505870E+11	3.293538E-14	NaN
12	1.000000	0.282074	7.36516e+06	-39239.1	955.818	-29795.3	0.000000	0.000000	6.282860	0.063018	NaN	0.000000	0.001570	0.001643	28.1088	0.033127	0.002044	16.2098	179.818	-164.87	0.002523	0.280770	-0.798867	-0.800171	0.063018	16.2098	-0.801783	-4.753989E+10	-1.325579E-12	NaN
12	1.000000	0.322080	7.36516e+06	-39239.1	955.818	-29795.3	0.000000	0.000000	6.322864	0.021051	NaN	0.000000	0.001556	0.001637	28.1095	0.086067	0.001980	43.4791	1.821955	-163.984	-0.017195	0.320786	-0.758861	-0.760155	0.021051	43.4791	-0.759224	-1.255281E+10	-1.676989E-12	NaN
12	1.000000	0.362099	7.36516e+06	-39239.1	955.818	-29795.3	0.000000	0.000000	6.362881	-0.038261	NaN	0.000000	0.001579	0.001685	28.1104	0.119063	0.001982	60.057	-162.814	-163.675	-0.037133	0.360832	-0.718842	-0.720109	-0.038261	60.057	-0.718364	-3.484667E+9	1.097981E-11	NaN
12	1.000000	0.402117	7.36516e+06	-39239.1	955.819	-29795.3	0.000000	0.000000	6.402900	-0.004056	NaN	0.000000	0.001522	0.001636	28.1096	0.035935	0.001945	18.4782	-27.3135	-165.269	-0.012864	0.400837	-0.678824	-0.680104	-0.004056	18.4782	-0.678659	-9.996878E+8	4.057113E-12	NaN
12	1.000000	0.442117	7.36516e+06	-39239.1	955.818	-29795.3	0.000000	0.000000	6.442900	-0.001300	NaN	0.000000	0.001532	0.001642	28.1101	0.009019	0.001946	4.634150	78.5247	-162.026	0.012839	0.440851	-0.638824	-0.640090	-0.001300	4.634150	-0.638613	-2.826569E+8	4.599750E-12	NaN
12	1.000000	0.482161	7.36516e+06	-39239.1	955.818	-29795.3	0.000000	0.000000	6.482942	-0.050543	NaN	0.000000	0.001584	0.001642	28.1083	0.085977	0.002041	42.134	87.5131	-165.468	-0.098007	0.480844	-0.598780	-0.600097	-0.050543	42.134	-0.597880	-7.785022E+7	6.492390E-10	NaN
12	1.000000	0.522178	7.36516e+06	-39239.1	955.818	-29795.3	0.000000	0.000000	6.522962	0.038898	NaN	0.000000	0.001545	0.001682	28.1085	0.139282	0.001783	78.1295	-5.910308	-161.634	-0.007308	0.520852	-0.558763	-0.560089	0.038898	78.1295	-0.559137	-2.272137E+7	-1.711968E-9	NaN
12	1.000000	0.562194	7.36516e+06	-39239.1	955.818	-29795.3	0.000000	0.000000	6.562976	-0.031931	NaN	0.000000	0.001533	0.001698	28.1065	0.073312	0.001985	36.9393	-34.5209	-166.058	-0.068403	0.560911	-0.518747	-0.520029	-0.031931	36.9393	-0.518099	-6.12565e+06	5.212697E-9	NaN
12	1.000000	0.602196	7.36516e+06	-39239.1	955.818	-29795.3	0.000000	0.000000	6.602981	0.054478	NaN	0.000000	0.001558	0.001670	28.1084	0.075286	0.002002	37.6059	162.659	-165.056	0.100833	0.600932	-0.478745	-0.480009	0.054478	37.6059	-0.479831	-1.7913e+06	-3.041268E-8	NaN
12	1.000000	0.642248	7.36516e+06	-39239.1	955.819	-29795.3	0.000000	0.000000	6.643033	0.032757	NaN	0.000000	0.001589	0.001629	28.1075	0.136340	0.001970	69.1993	-9.763681	-166.708	0.038142	0.640955	-0.438692	-0.439986	0.032757	69.1993	-0.439047	-478540	-6.845185E-8	NaN
12	1.000000	0.682264	7.36516e+06	-39239.1	955.819	-29795.3	0.000000	0.000000	6.683046	-0.017754	NaN	0.000000	0.001634	0.001634	28.1078	0.130915	0.002017	64.9026	54.1205	-164.73	-0.023437	0.680918	-0.398677	-0.400023	-0.017754	64.9026	-0.398472	-127115	1.396661E-7	NaN
12	1.000000	0.722284	7.36516e+06	-39239.1	955.818	-29795.3	0.000000	0.000000	6.723069	0.056709	NaN	0.000000	0.001649	0.001622	28.1069	0.041108	0.002047	20.0823	35.1885	-163.972	0.011045	0.720958	-0.358657	-0.359983	0.056709	20.0823	-0.360775	-36563.1	-1.550991E-6	NaN
12	1.000000	0.762289	7.36516e+06	-39239.1	955.818	-29795.3	0.000000	0.000000	6.763074	0.041073	NaN	0.000000	0.001586	0.001652	28.1071	0.057489	0.001936	29.6977	10.5318	-167.509	0.051802	0.760970	-0.318652	-0.319971	0.041073	29.6977	-0.319689	-9205.91	-4.461585E-6	NaN
12	1.000000	0.802314	7.36516e+06	-39239.1	955.818	-29795.3	0.000000	0.000000	6.803099	0.043928	NaN	0.000000	0.001549	0.001631	28.1059	0.131203	0.002108	62.2431	-104.148	-163.844	0.035693	0.801042	-0.278627	-0.279899	0.043928	62.2431	-0.279156	-2292.12	-1.916477E-5	NaN
12	1.000000	0.842335	7.36516e+06	-39239.1	955.818	-29795.3	0.000000	0.000000	6.843117	-0.015125	NaN	0.000000	0.001580	0.001667	28.1068	0.106264	0.001944	54.6635	-52.3369	-166.74	0.013913	0.840973	-0.238606	-0.239968	-0.015125	54.6635	-0.238398	-542.644	2.787294E-5	NaN
12	1.000000	0.882315	7.36516e+06	-39239.1	955.819	-29795.3	0.000000	0.000000	6.883098	0.003868	NaN	0.000000	0.001552	0.001668	28.1063	0.048099	0.002206	21.8023	-84.6283	-164.788	0.001114	0.881072	-0.198626	-0.199869	0.003868	21.8023	-0.198759	-125.685	-3.077887E-5	NaN
12	1.000000	0.922330	7.36516e+06	-39239.1	955.819	-29795.3	0.000000	0.000000	6.923112	-0.035444	NaN	0.000000	0.001564	0.001690	28.1078	0.046369	0.001809	25.6303	-111.392	-166.046	-0.002609	0.921027	-0.158611	-0.159914	-0.035444	25.6303	-0.157573	-24.8164	0.001428	NaN
12	1.000000	0.962350	7.36516e+06	-39239.1	955.818	-29795.3	0.000000	0.000000	6.963135	0.040579	NaN	0.000000	0.001551	0.001672	28.106	0.098368	0.002025	48.5678	12.2763	-166.223	0.011219	0.961044	-0.118591	-0.119897	0.040579	48.5678	-0.119217	-4.658653	-0.008710	NaN
12	1.000000	1.002353	7.36516e+06	-39239.1	955.819	-29795.3	0.000000	0.000000	7.003138	0.043645	NaN	0.000000	0.001583	0.001668	28.1065	0.025405	0.002087	12.1734	29.4276	-165.532	0.055637	1.001083	-0.078588	-0.079858	0.043645	12.1734	-0.081277	-0.666012	-0.065532	NaN
12	1.000000	1.042398	7.36516e+06	-39239.1	955.819	-29795.3	0.000000	0.000000	7.043181	-0.005166	NaN	0.000000	0.001579	0.001670	28.1051	0.108036	0.002018	53.528	138.13	-163.733	0.052668	1.041005	-0.038543	-0.039936	-0.005166	53.528	-0.038471	-0.040649	0.127086	NaN
12	1.000000	1.082410	7.36516e+06	-39239.1	955.818	-29795.3	0.000000	0.000000	7.083221	0.670080	NaN	0.000000	0.001591	0.001650	28.106	1.030618	0.002076	496.494	10.0205	-163.467	0.068937	1.081035	0.001469	9.397587E-5	0.670080	496.494	0.000457	0.000345	1944.36	24435
12	2.000000	1.097960	7.36516e+06	-39239.1	955.819	-29795.3	0.000000	0.000000	7.099400	15.9744	NaN	0.000000	0.001573	0.001670	28.1048	16.5513	0.001832	9035.32	5.665676	-174.707	14.8288	1.097610	0.017019	0.016669	15.9744	9035.32	0.015693	0.016221	984.806	64815.7
12	2.000000	1.107942	7.36516e+06	-39239.1	955.819	-29795.3	0.000000	0.000000	7.110269	37.5804	NaN	0.000000	0.001601	0.001606	28.107	26.516	0.001835	14451.7	6.185268	-179.177	37.3681	1.107650	0.027001	0.026709	37.5804	14451.7	0.025050	0.031107	1208.09	74861.8
12	2.000000	1.117898	7.36516e+06	-39239.1	955.818	-29795.3	0.000000	0.000000	7.121424	66.7621	NaN	0.000000	0.001558	0.001597	28.1054	35.2683	0.001820	19379.3	3.711392	-179.722	64.4067	1.117627	0.036957	0.036686	66.7621	19379.3	0.034373	0.050296	1327.37	78948.2
12	2.000000	1.127923	7.36516e+06	-39239.1	955.82	-29795.3	0.000000	0.000000	7.133138	107.85	NaN	0.000000	0.001527	0.001583	28.1058	45.1633	0.001744	25897.4	7.432485	174.625	107.21	1.127618	0.046982	0.046678	107.85	25897.4	0.043859	0.074381	1449.96	86755.5
12	2.000000	1.137918	7.36517e+06	-39239.1	955.82	-29795.3	0.000000	0.000000	7.145253	159.421	NaN	0.000000	0.001544	0.001600	28.1036	54.999	0.001768	31107.8	3.692588	176.823	161.539	1.137545	0.056978	0.056604	159.421	31107.8	0.053134	0.102346	1557.67	88840
12	2.000000	1.147851	7.36517e+06	-39239.1	955.82	-29795.3	0.000000	0.000000	7.157297	210.82	NaN	0.000000	0.001533	0.001607	28.1041	65.3086	0.001885	34649.1	4.960105	174.684	207.649	1.147643	0.066910	0.066702	210.82	34649.1	0.062347	0.134357	1569.1	86364.5
12	2.000000	1.157837	7.36517e+06	-39239.1	955.819	-29795.3	0.000000	0.000000	7.169949	275.678	NaN	0.000000	0.001649	0.001603	28.1028	72.85	0.001740	41878.8	5.857947	172.62	273.235	1.157460	0.076896	0.076519	275.678	41878.8	0.071959	0.172149	1601.39	92218
12	2.000000	1.167823	7.36517e+06	-39239.1	955.819	-29795.3	0.000000	0.000000	7.182501	338.135	NaN	0.000000	0.001561	0.001592	28.1048	83.5525	0.001883	44378.7	5.491618	172.359	336.021	1.167567	0.086883	0.086626	338.135	44378.7	0.081168	0.212461	1591.51	87964.5
12	2.000000	1.177762	7.36517e+06	-39239.1	955.819	-29795.3	0.000000	0.000000	7.195474	411.958	NaN	0.000000	0.001639	0.001592	28.1038	90.5578	0.001846	49043.5	3.783227	173.684	406.732	1.177479	0.096821	0.096538	411.958	49043.5	0.090521	0.257441	1600.2	88311.2
12	2.000000	1.187805	7.36517e+06	-39239.1	955.82	-29795.3	0.000000	0.000000	7.208266	478.857	NaN	0.000000	0.001539	0.001612	28.1046	98.9765	0.001809	54724.4	5.095329	171.019	476.278	1.187674	0.106864	0.106734	478.857	54724.4	0.100302	0.308768	1550.86	89978.4
12	2.000000	1.188219	7.36517e+06	-39239.1	955.82	-29795.3	0.000000	0.000000	7.209144	490.171	NaN	0.000000	0.001538	0.001598	28.1326	98.5124	0.001796	54847.4	4.999702	-8.676037	480.873	1.187870	0.107278	0.106929	490.171	54847.4	0.100575	0.310265	1579.85	89962.8