File: remote_trans/data/nanoindenter/0828-1/data/Data_2025-08-06,11h17m57s/2025-07-22_16-23-58_1_222.txt
2025-07-22, 16:23:58, 1
Index	Phase	Displacement	Time	Pos X	Pos Y	Pos Z	Rot A	Rot B	Piezo Z	Force A	Force B	Gripper	Voltage A	Voltage B	Temperature	Amplitude force	Amplitude pos	Stiffness	Phase shift	Phase excitation	Force A raw	Displacement raw	HMax	HMax raw	Real Force	Real Stiffness	Contact Depth	Area	Hardness	Reduced Mod.
[#]	[#]	[um]	[s]	[um]	[um]	[um]	[m°]	[m°]	[um]	[uN]	[uN]	[V]	[V]	[V]	[°C]	[uN]	[um]	[N/m]	[°]	[°]	[uN]	[um]	[um]	[um]	[uN]	[N/m]	[um]	[um^2]	[MPa]	[MPa]
222	1.000000	0.002883	7.36722e+06	-49739.1	955.818	-29758.3	0.000000	0.000000	6.002817	-0.036544	NaN	0.000000	0.001551	0.001722	28.08	0.037422	0.000935	40.0226	-77.1921	-161.328	-0.003283	0.001575	-1.014487	-1.015795	-0.036544	40.0226	-1.013802	-3.479749E+13	1.050205E-15	NaN
222	1.000000	0.042823	7.36722e+06	-49739.1	955.819	-29758.3	0.000000	0.000000	6.042756	-0.046447	NaN	0.000000	0.001566	0.001710	28.08	0.097830	0.001954	50.0564	19.5993	-164.484	-0.010081	0.041492	-0.974547	-0.975877	-0.046447	50.0564	-0.973851	-1.008223E+13	4.606798E-15	NaN
222	1.000000	0.082810	7.36722e+06	-49739.1	955.817	-29758.3	0.000000	0.000000	6.082745	0.001858	NaN	0.000000	0.001628	0.001675	28.08	0.080960	0.002021	40.0503	108.25	-166.579	-0.079620	0.081494	-0.934560	-0.935876	0.001858	40.0503	-0.934594	-2.979884E+12	-6.235434E-16	NaN
222	1.000000	0.122849	7.36722e+06	-49739.1	955.819	-29758.3	0.000000	0.000000	6.122784	-0.018637	NaN	0.000000	0.001579	0.001667	28.0789	0.084160	0.001851	45.4646	16.9777	-161.431	-0.047447	0.121495	-0.894520	-0.895874	-0.018637	45.4646	-0.894213	-8.488970E+11	2.195405E-14	NaN
222	1.000000	0.162838	7.36722e+06	-49739.1	955.818	-29758.3	0.000000	0.000000	6.162775	0.032649	NaN	0.000000	0.001585	0.001675	28.0791	0.039641	0.001946	20.3697	-81.329	-167.36	-0.000409	0.161555	-0.854531	-0.855814	0.032649	20.3697	-0.855733	-2.560707E+11	-1.274993E-13	NaN
222	1.000000	0.202867	7.36722e+06	-49739.1	955.818	-29758.3	0.000000	0.000000	6.202805	0.043967	NaN	0.000000	0.001606	0.001738	28.0794	0.099644	0.001982	50.2712	-84.0942	-164.461	0.094869	0.201536	-0.814502	-0.815834	0.043967	50.2712	-0.815158	-7.220066E+10	-6.089526E-13	NaN
222	1.000000	0.242885	7.36722e+06	-49739.1	955.819	-29758.3	0.000000	0.000000	6.242818	-0.052326	NaN	0.000000	0.001695	0.001741	28.0806	0.067102	0.001940	34.58	8.358758	-166.195	-0.019514	0.241566	-0.774485	-0.775803	-0.052326	34.58	-0.773350	-1.953653E+10	2.678345E-12	NaN
222	1.000000	0.282913	7.36722e+06	-49739.1	955.818	-29758.4	0.000000	0.000000	6.282848	-0.010236	NaN	0.000000	0.001665	0.001673	28.0801	0.068409	0.002160	31.6677	95.4567	-165.775	0.002400	0.281637	-0.734457	-0.735732	-0.010236	31.6677	-0.734214	-5.731060E+9	1.786127E-12	NaN
222	1.000000	0.322933	7.36722e+06	-49739.1	955.819	-29758.4	0.000000	0.000000	6.322869	0.006399	NaN	0.000000	0.001693	0.001704	28.0801	0.013967	0.001937	7.212265	138.624	-162.048	-0.013940	0.321647	-0.694436	-0.695722	0.006399	7.212265	-0.695101	-1.677347E+9	-3.815247E-12	NaN
222	1.000000	0.362919	7.36722e+06	-49739.1	955.819	-29758.4	0.000000	0.000000	6.362854	-0.007296	NaN	0.000000	0.001645	0.001703	28.0804	0.113419	0.001964	57.7369	-166.064	-165.995	-0.037137	0.361588	-0.654450	-0.655781	-0.007296	57.7369	-0.654356	-4.646613E+8	1.570203E-11	NaN
222	1.000000	0.402976	7.36722e+06	-49739.1	955.819	-29758.4	0.000000	0.000000	6.402910	-0.031061	NaN	0.000000	0.001653	0.001708	28.0789	0.082669	0.002117	39.0447	171.177	-163.684	0.040975	0.401667	-0.614393	-0.615703	-0.031061	39.0447	-0.613797	-1.289270E+8	2.409161E-10	NaN
222	1.000000	0.442982	7.36722e+06	-49739.1	955.819	-29758.4	0.000000	0.000000	6.442915	-0.059054	NaN	0.000000	0.001696	0.001679	28.079	0.015086	0.001985	7.599416	-95.0086	-167.902	0.063149	0.441610	-0.574387	-0.575759	-0.059054	7.599416	-0.568559	-3.067022E+7	1.925436E-9	NaN
222	1.000000	0.483008	7.36722e+06	-49739.1	955.819	-29758.4	0.000000	0.000000	6.482940	-0.069927	NaN	0.000000	0.001599	0.001681	28.0788	0.071552	0.002054	34.8372	-63.763	-163.018	-0.084725	0.481726	-0.534362	-0.535644	-0.069927	34.8372	-0.532856	-9.82272e+06	7.118895E-9	NaN
222	1.000000	0.523013	7.36722e+06	-49739.1	955.818	-29758.4	0.000000	0.000000	6.522946	-0.070056	NaN	0.000000	0.001619	0.001672	28.0802	0.017555	0.002049	8.569334	-96.2452	-163.92	-0.140269	0.521702	-0.494356	-0.495667	-0.070056	8.569334	-0.488225	-2.34739e+06	2.984407E-8	NaN
222	1.000000	0.563023	7.36722e+06	-49739.1	955.819	-29758.4	0.000000	0.000000	6.562957	-0.026138	NaN	0.000000	0.001636	0.001707	28.0802	0.105795	0.002079	50.8826	-67.7966	-164.183	-0.019982	0.561745	-0.454346	-0.455625	-0.026138	50.8826	-0.453961	-776430	3.366481E-8	NaN
222	1.000000	0.603042	7.36722e+06	-49739.1	955.818	-29758.4	0.000000	0.000000	6.602978	0.019004	NaN	0.000000	0.001621	0.001715	28.0802	0.023579	0.001892	12.4615	41.0375	-167.316	0.008873	0.601677	-0.414327	-0.415692	0.019004	12.4615	-0.415471	-221895	-8.564412E-8	NaN
222	1.000000	0.643062	7.36722e+06	-49739.1	955.819	-29758.4	0.000000	0.000000	6.642997	-0.011545	NaN	0.000000	0.001655	0.001733	28.0803	0.129982	0.002012	64.5879	68.7426	-164.183	0.010720	0.641739	-0.374307	-0.375630	-0.011545	64.5879	-0.374173	-57039.8	2.024104E-7	NaN
222	1.000000	0.683098	7.36722e+06	-49739.1	955.819	-29758.4	0.000000	0.000000	6.683030	-0.066245	NaN	0.000000	0.001578	0.001717	28.0794	0.076809	0.001953	39.3247	-25.1901	-165.371	-0.022787	0.681758	-0.334272	-0.335611	-0.066245	39.3247	-0.333008	-14436.9	4.588608E-6	NaN
222	1.000000	0.723122	7.36722e+06	-49739.1	955.819	-29758.4	0.000000	0.000000	6.723057	-0.007863	NaN	0.000000	0.001610	0.001680	28.0792	0.033181	0.002106	15.7569	76.8615	-164.318	-0.015182	0.721802	-0.294247	-0.295567	-0.007863	15.7569	-0.293873	-3812.88	2.062102E-6	NaN
222	1.000000	0.763127	7.36722e+06	-49739.1	955.818	-29758.4	0.000000	0.000000	6.763063	0.023001	NaN	0.000000	0.001597	0.001689	28.079	0.055085	0.001971	27.9518	174.238	-164.237	0.080434	0.761738	-0.254242	-0.255631	0.023001	27.9518	-0.254859	-977.129	-2.353959E-5	NaN
222	1.000000	0.803128	7.36722e+06	-49739.1	955.819	-29758.4	0.000000	0.000000	6.803064	0.013486	NaN	0.000000	0.001619	0.001728	28.0802	0.033808	0.002043	16.5464	60.4033	-164.935	-0.047175	0.801803	-0.214241	-0.215566	0.013486	16.5464	-0.214853	-229.691	-5.871235E-5	NaN
222	1.000000	0.843171	7.36722e+06	-49739.1	955.817	-29758.4	0.000000	0.000000	6.843109	0.055080	NaN	0.000000	0.001601	0.001751	28.0803	0.022629	0.002011	11.2544	-127.574	-168.929	-0.007640	0.841885	-0.174198	-0.175485	0.055080	11.2544	-0.177868	-56.1211	-0.000981	NaN
222	1.000000	0.883168	7.36722e+06	-49739.1	955.818	-29758.4	0.000000	0.000000	6.883105	0.024922	NaN	0.000000	0.001589	0.001715	28.0803	0.054771	0.001938	28.2642	150.651	-165.863	-0.033740	0.881889	-0.134201	-0.135480	0.024922	28.2642	-0.134863	-9.455074	-0.002636	NaN
222	1.000000	0.923167	7.36722e+06	-49739.1	955.817	-29758.4	0.000000	0.000000	6.923104	0.017262	NaN	0.000000	0.001571	0.001696	28.0795	0.079453	0.002035	39.044	-27.8261	-168.408	-0.014714	0.921858	-0.094202	-0.095511	0.017262	39.044	-0.094534	-1.376489	-0.012541	NaN
222	1.000000	0.963189	7.36722e+06	-49739.1	955.818	-29758.4	0.000000	0.000000	6.963122	-0.058749	NaN	0.000000	0.001652	0.001714	28.0792	0.094549	0.001969	48.0066	-25.6518	-161.734	-0.084552	0.961890	-0.054180	-0.055480	-0.058749	48.0066	-0.053262	-0.114352	0.513757	NaN
222	1.000000	1.003216	7.36722e+06	-49739.1	955.818	-29758.4	0.000000	0.000000	7.003151	-0.031959	NaN	0.000000	0.001601	0.001698	28.0791	0.050000	0.001907	26.2169	100.16	-166.793	-0.035196	1.001902	-0.014153	-0.015468	-0.031959	26.2169	-0.013239	-0.008240	3.878481	NaN
222	2.000000	1.031757	7.36722e+06	-49739.1	955.818	-29758.4	0.000000	0.000000	7.032247	13.4866	NaN	0.000000	0.001622	0.001677	28.0791	13.9906	0.001803	7758.93	7.398863	-173.368	13.4219	1.031456	0.014388	0.014086	13.4866	7758.93	0.013084	0.012815	1052.4	62620.4
222	2.000000	1.041673	7.36722e+06	-49739.1	955.818	-29758.4	0.000000	0.000000	7.043245	39.8168	NaN	0.000000	0.001599	0.001698	28.0804	25.432	0.001770	14367	10.0816	177.548	38.9628	1.041317	0.024303	0.023948	39.8168	14367	0.022225	0.026160	1522.07	81156.3
222	2.000000	1.051614	7.36722e+06	-49739.1	955.82	-29758.4	0.000000	0.000000	7.054507	71.9333	NaN	0.000000	0.001580	0.001653	28.0802	35.0978	0.001851	18963.8	5.580407	179.557	69.957	1.051298	0.034245	0.033929	71.9333	18963.8	0.031400	0.043695	1646.27	82886.6
222	2.000000	1.061626	7.36722e+06	-49739.1	955.819	-29758.4	0.000000	0.000000	7.065887	105.184	NaN	0.000000	0.001595	0.001659	28.0803	44.9147	0.001800	24947.6	3.141162	179.044	103.925	1.061382	0.044257	0.044013	105.184	24947.6	0.041095	0.066889	1572.53	88130.3
222	2.000000	1.071558	7.36722e+06	-49739.1	955.819	-29758.4	0.000000	0.000000	7.077946	156.931	NaN	0.000000	0.001554	0.001636	28.0792	54.7411	0.001821	30059.6	4.712810	176.309	153.505	1.071306	0.054189	0.053937	156.931	30059.6	0.050273	0.093260	1682.73	89931.2
222	2.000000	1.081665	7.36722e+06	-49739.1	955.819	-29758.4	0.000000	0.000000	7.090194	208.986	NaN	0.000000	0.001591	0.001644	28.0794	64.9918	0.001860	34932.5	5.901060	173.773	211.359	1.081312	0.064296	0.063942	208.986	34932.5	0.059809	0.125123	1670.25	90226.7
222	2.000000	1.091507	7.36722e+06	-49739.1	955.819	-29758.4	0.000000	0.000000	7.102822	276.761	NaN	0.000000	0.001597	0.001677	28.0793	74.8971	0.001871	40021.1	7.881599	170.722	272.176	1.091207	0.074137	0.073838	276.761	40021.1	0.068951	0.159847	1731.42	91455.8
222	2.000000	1.101544	7.36722e+06	-49739.1	955.819	-29758.4	0.000000	0.000000	7.115776	347.698	NaN	0.000000	0.001584	0.001683	28.0791	84.7212	0.001859	45579.8	4.927591	173.841	343.493	1.101093	0.084174	0.083723	347.698	45579.8	0.078453	0.200164	1737.07	93079.2
222	2.000000	1.111469	7.36722e+06	-49739.1	955.819	-29758.4	0.000000	0.000000	7.128923	426.044	NaN	0.000000	0.001606	0.001684	28.0807	92.7027	0.001825	50808.3	5.781105	171.554	420.157	1.111257	0.094099	0.093888	426.044	50808.3	0.087811	0.243991	1746.15	93976.8
222	2.000000	1.121578	7.36722e+06	-49739.1	955.819	-29758.4	0.000000	0.000000	7.142240	504.07	NaN	0.000000	0.001565	0.001694	28.0806	104.222	0.001774	58746.1	6.858439	168.457	504.168	1.121366	0.104208	0.103997	504.07	58746.1	0.097773	0.295080	1708.25	98805.8
222	2.000000	1.126382	7.36722e+06	-49739.1	955.818	-29758.4	0.000000	0.000000	7.148934	550.023	NaN	0.000000	0.001617	0.001673	28.0806	106.432	0.001812	58729.8	4.405021	171.342	540.442	1.126173	0.109013	0.108804	550.023	58729.8	0.101989	0.318061	1729.3	95142.8