File: remote_trans/data/nanoindenter/0828-1/data/Data_2025-08-06,11h17m57s/2025-07-22_16-23-58_1_712.txt
2025-07-22, 16:23:58, 1
Index	Phase	Displacement	Time	Pos X	Pos Y	Pos Z	Rot A	Rot B	Piezo Z	Force A	Force B	Gripper	Voltage A	Voltage B	Temperature	Amplitude force	Amplitude pos	Stiffness	Phase shift	Phase excitation	Force A raw	Displacement raw	HMax	HMax raw	Real Force	Real Stiffness	Contact Depth	Area	Hardness	Reduced Mod.
[#]	[#]	[um]	[s]	[um]	[um]	[um]	[m°]	[m°]	[um]	[uN]	[uN]	[V]	[V]	[V]	[°C]	[uN]	[um]	[N/m]	[°]	[°]	[uN]	[um]	[um]	[um]	[uN]	[N/m]	[um]	[um^2]	[MPa]	[MPa]
712	1.000000	0.002935	7.37202e+06	-41489.1	1005.82	-29786	0.000000	0.000000	6.002758	-0.005104	NaN	0.000000	0.001631	0.001763	28.081	0.040676	0.000897	45.3677	23.759	-158.152	0.050457	0.001718	-1.159776	-1.160993	-0.005104	45.3677	-1.159691	-3.167605E+15	1.611442E-18	NaN
712	1.000000	0.044911	7.37202e+06	-41489.1	1005.82	-29786	0.000000	0.000000	6.044734	-0.038150	NaN	0.000000	0.001636	0.001705	28.0808	0.073370	0.002070	35.4508	157.71	15.4957	-0.039464	0.043557	-1.117799	-1.119153	-0.038150	35.4508	-1.116992	-8.474399E+14	4.501799E-17	NaN
712	1.000000	0.086905	7.37202e+06	-41489.1	1005.82	-29786	0.000000	0.000000	6.086731	0.046824	NaN	0.000000	0.001644	0.001775	28.0793	0.078381	0.002068	37.8956	70.6413	-162.437	0.062352	0.085622	-1.075805	-1.077089	0.046824	37.8956	-1.076732	-2.441311E+14	-1.918002E-16	NaN
712	1.000000	0.128938	7.37202e+06	-41489.1	1005.82	-29786	0.000000	0.000000	6.128762	-0.004279	NaN	0.000000	0.001688	0.001717	28.0794	0.023971	0.002184	10.9754	-81.8944	15.4772	-0.058481	0.127604	-1.033772	-1.035107	-0.004279	10.9754	-1.033479	-6.401472E+13	6.683891E-17	NaN
712	1.000000	0.170970	7.37202e+06	-41489.1	1005.82	-29786	0.000000	0.000000	6.170795	0.005370	NaN	0.000000	0.001649	0.001689	28.0795	0.106374	0.002044	52.0536	-58.2884	-165.472	-0.009010	0.169665	-0.991740	-0.993045	0.005370	52.0536	-0.991817	-1.760292E+13	-3.050405E-16	NaN
712	1.000000	0.212991	7.37202e+06	-41489.1	1005.82	-29786	0.000000	0.000000	6.212812	-0.066433	NaN	0.000000	0.001574	0.001753	28.0792	0.089954	0.001993	45.1396	-126.132	12.1756	-0.120397	0.211651	-0.949719	-0.951059	-0.066433	45.1396	-0.948615	-4.606294E+12	1.442212E-14	NaN
712	1.000000	0.254980	7.37202e+06	-41489.1	1005.82	-29786	0.000000	0.000000	6.254803	-0.034941	NaN	0.000000	0.001596	0.001787	28.0805	0.058278	0.001906	30.5752	-44.0849	-162.184	-0.032599	0.253646	-0.907730	-0.909064	-0.034941	30.5752	-0.906873	-1.258706E+12	2.775961E-14	NaN
712	1.000000	0.297035	7.37202e+06	-41489.1	1005.82	-29786	0.000000	0.000000	6.296859	0.002566	NaN	0.000000	0.001602	0.001783	28.0804	0.089048	0.002082	42.7685	0.210128	14.654	-0.038298	0.295702	-0.865675	-0.867008	0.002566	42.7685	-0.865720	-3.495685E+11	-7.340077E-15	NaN
712	1.000000	0.339040	7.37202e+06	-41489.1	1005.82	-29786	0.000000	0.000000	6.338864	-0.001719	NaN	0.000000	0.001619	0.001767	28.0803	0.037016	0.002044	18.1066	61.0266	-165.544	-0.042211	0.337734	-0.823670	-0.824976	-0.001719	18.1066	-0.823599	-9.397489E+10	1.828771E-14	NaN
712	1.000000	0.381037	7.37202e+06	-41489.1	1005.82	-29786	0.000000	0.000000	6.380861	0.001452	NaN	0.000000	0.001647	0.001799	28.0787	0.080122	0.001999	40.089	145.197	13.6738	-0.000175	0.379681	-0.781673	-0.783029	0.001452	40.089	-0.781700	-2.537072E+10	-5.722161E-14	NaN
712	1.000000	0.423089	7.37202e+06	-41489.1	1005.82	-29786	0.000000	0.000000	6.422914	0.018673	NaN	0.000000	0.001627	0.001781	28.0793	0.100564	0.001920	52.3799	141.901	-166.819	0.075389	0.421733	-0.739621	-0.740977	0.018673	52.3799	-0.739888	-6.847505E+9	-2.727047E-12	NaN
712	1.000000	0.465091	7.37202e+06	-41489.1	1005.82	-29786	0.000000	0.000000	6.464915	-0.012815	NaN	0.000000	0.001660	0.001815	28.079	0.012017	0.001948	6.167916	-177.45	15.5956	-0.016097	0.463750	-0.697619	-0.698961	-0.012815	6.167916	-0.696061	-1.728736E+9	7.412694E-12	NaN
712	1.000000	0.507140	7.37202e+06	-41489.1	1005.82	-29786	0.000000	0.000000	6.506962	-0.056005	NaN	0.000000	0.001674	0.001772	28.0804	0.075575	0.002066	36.5799	-134.33	-165.224	-0.072276	0.505795	-0.655570	-0.656915	-0.056005	36.5799	-0.654422	-4.656316E+8	1.202772E-10	NaN
712	1.000000	0.549136	7.37202e+06	-41489.1	1005.82	-29786	0.000000	0.000000	6.548962	0.034326	NaN	0.000000	0.001580	0.001772	28.0803	0.020303	0.001930	10.5175	99.5512	16.9032	0.024557	0.547766	-0.613574	-0.614944	0.034326	10.5175	-0.616022	-1.383369E+8	-2.481325E-10	NaN
712	1.000000	0.591147	7.37202e+06	-41489.1	1005.82	-29786	0.000000	0.000000	6.590972	0.040028	NaN	0.000000	0.001614	0.001784	28.0807	0.071350	0.001929	36.9944	41.1874	-162.554	-0.014721	0.589863	-0.571563	-0.572847	0.040028	36.9944	-0.572375	-3.462923E+7	-1.155907E-9	NaN
712	1.000000	0.633167	7.37202e+06	-41489.1	1005.82	-29786	0.000000	0.000000	6.632991	-0.002945	NaN	0.000000	0.001661	0.001796	28.0797	0.074746	0.001990	37.5598	-64.8409	16.0566	-0.047130	0.631802	-0.529543	-0.530908	-0.002945	37.5598	-0.529484	-8.8189e+06	3.339136E-10	NaN
712	1.000000	0.675169	7.37202e+06	-41489.1	1005.82	-29786	0.000000	0.000000	6.674993	-4.777948E-6	NaN	0.000000	0.001602	0.001752	28.0791	0.057474	0.001966	29.2309	-105.656	-164.006	0.010497	0.673915	-0.487542	-0.488795	-4.777948E-6	29.2309	-0.487541	-2.2963e+06	2.080718E-12	NaN
712	1.000000	0.717203	7.37202e+06	-41489.1	1005.82	-29786	0.000000	0.000000	6.717026	-0.015768	NaN	0.000000	0.001616	0.001789	28.0791	0.091358	0.001961	46.5843	172.411	13.1315	-0.035745	0.715797	-0.445507	-0.446914	-0.015768	46.5843	-0.445253	-585412	2.693482E-8	NaN
712	1.000000	0.759220	7.37202e+06	-41489.1	1005.82	-29786	0.000000	0.000000	6.759041	-0.077396	NaN	0.000000	0.001589	0.001751	28.0792	0.086872	0.001869	46.4845	-123.767	-169.195	-0.080433	0.757940	-0.403490	-0.404770	-0.077396	46.4845	-0.402241	-143861	5.379878E-7	NaN
712	1.000000	0.801255	7.37202e+06	-41489.1	1005.82	-29786	0.000000	0.000000	6.801078	-0.038879	NaN	0.000000	0.001609	0.001763	28.0804	0.097385	0.001860	52.3518	-54.7719	17.4311	-0.027334	0.799824	-0.361455	-0.362886	-0.038879	52.3518	-0.360898	-36713.4	1.058988E-6	NaN
712	1.000000	0.843277	7.37202e+06	-41489.1	1005.82	-29786	0.000000	0.000000	6.843099	-0.042947	NaN	0.000000	0.001655	0.001722	28.0804	0.110786	0.002044	54.1905	45.5961	-166.856	0.016391	0.841964	-0.319434	-0.320746	-0.042947	54.1905	-0.318839	-8944.34	4.801535E-6	NaN
712	1.000000	0.885298	7.37202e+06	-41489.1	1005.82	-29786	0.000000	0.000000	6.885120	-0.051435	NaN	0.000000	0.001645	0.001762	28.0806	0.078457	0.002145	36.5711	121.362	11.2319	-0.001735	0.883920	-0.277412	-0.278790	-0.051435	36.5711	-0.276357	-2079.42	2.473516E-5	NaN
712	1.000000	0.927294	7.37202e+06	-41489.1	1005.82	-29786	0.000000	0.000000	6.927114	-0.099265	NaN	0.000000	0.001634	0.001700	28.0794	0.090092	0.001973	45.651	82.6828	-164.78	-0.122748	0.925983	-0.235417	-0.236727	-0.099265	45.651	-0.233786	-459.377	0.000216	NaN
712	1.000000	0.969293	7.37202e+06	-41489.1	1005.82	-29786	0.000000	0.000000	6.969116	-0.018158	NaN	0.000000	0.001649	0.001753	28.0794	0.129964	0.002016	64.4554	-31.8868	16.0074	0.015825	0.968021	-0.193418	-0.194689	-0.018158	64.4554	-0.193206	-101.729	0.000178	NaN
712	1.000000	1.011317	7.37202e+06	-41489.1	1005.82	-29786	0.000000	0.000000	7.011140	-0.013030	NaN	0.000000	0.001645	0.001718	28.0796	0.071704	0.001981	36.1964	-139.188	-166.544	0.021554	1.010011	-0.151394	-0.152699	-0.013030	36.1964	-0.151124	-18.9874	0.000686	NaN
712	1.000000	1.053322	7.37202e+06	-41489.1	1005.82	-29786	0.000000	0.000000	7.053146	0.000660	NaN	0.000000	0.001596	0.001726	28.0808	0.074584	0.001978	37.7152	-179.304	12.8546	-0.037027	1.051978	-0.109388	-0.110732	0.000660	37.7152	-0.109401	-2.918938	-0.000226	NaN
712	1.000000	1.095362	7.37202e+06	-41489.1	1005.82	-29786	0.000000	0.000000	7.095187	0.041182	NaN	0.000000	0.001577	0.001716	28.0804	0.069160	0.002115	32.6964	-127.504	-165.968	-0.023381	1.094037	-0.067349	-0.068673	0.041182	32.6964	-0.068293	-0.306827	-0.134218	NaN
712	1.000000	1.137386	7.37202e+06	-41489.1	1005.82	-29786	0.000000	0.000000	7.137208	-0.041940	NaN	0.000000	0.001594	0.001694	28.0807	0.074179	0.002039	36.3737	12.4512	14.7552	-0.056421	1.136044	-0.025325	-0.026667	-0.041940	36.3737	-0.024460	-0.016333	2.567884	NaN
712	2.000000	1.170999	7.37202e+06	-41489.1	1005.82	-29786	0.000000	0.000000	7.171306	11.7548	NaN	0.000000	0.001591	0.001683	28.0797	11.9347	0.001786	6681.34	9.246646	-175.811	11.2529	1.170662	0.008289	0.007951	11.7548	6681.34	0.006969	0.006004	1957.93	78782.2
712	2.000000	1.181465	7.37202e+06	-41489.1	1005.82	-29786	0.000000	0.000000	7.182547	30.5993	NaN	0.000000	0.001625	0.001717	28.0793	23.0809	0.001860	12411.8	7.680957	0.859245	29.3394	1.181099	0.018755	0.018388	30.5993	12411.8	0.016906	0.017912	1708.34	84730.5
712	2.000000	1.191891	7.37202e+06	-41489.1	1005.82	-29786	0.000000	0.000000	7.194102	58.1031	NaN	0.000000	0.001654	0.001705	28.0793	33.1755	0.001672	19838.8	5.964805	177.025	57.1403	1.191594	0.029180	0.028884	58.1031	19838.8	0.026984	0.034724	1673.3	97269.1
712	2.000000	1.202393	7.37202e+06	-41489.1	1005.82	-29786	0.000000	0.000000	7.206374	101.164	NaN	0.000000	0.001651	0.001688	28.0793	42.3979	0.001765	24027.8	2.832276	-0.737711	99.0031	1.202033	0.039683	0.039323	101.164	24027.8	0.036525	0.055356	1827.51	93304.6
712	2.000000	1.212854	7.37202e+06	-41489.1	1005.82	-29786	0.000000	0.000000	7.218889	151.133	NaN	0.000000	0.001583	0.001719	28.0804	53.0288	0.001882	28180.8	2.309722	178.255	147.451	1.212643	0.050143	0.049933	151.133	28180.8	0.046121	0.080802	1870.42	90576.6
712	2.000000	1.223406	7.37202e+06	-41489.1	1005.82	-29786	0.000000	0.000000	7.231644	204.739	NaN	0.000000	0.001609	0.001692	28.0806	64.0597	0.001831	34988.5	4.642603	-6.997665	203.911	1.223069	0.060696	0.060359	204.739	34988.5	0.056307	0.112900	1813.46	95137.5
712	2.000000	1.233804	7.37202e+06	-41489.1	1005.82	-29786	0.000000	0.000000	7.244830	272.581	NaN	0.000000	0.001636	0.001737	28.0804	74.1039	0.001780	41622.8	4.416376	172.767	269.849	1.233473	0.071093	0.070762	272.581	41622.8	0.066182	0.148904	1830.58	98548.7
712	2.000000	1.244241	7.37202e+06	-41489.1	1005.82	-29786	0.000000	0.000000	7.258108	341.707	NaN	0.000000	0.001651	0.001695	28.0796	83.4809	0.001651	50550.1	6.178844	-10.3366	335.172	1.243913	0.081531	0.081203	341.707	50550.1	0.076461	0.191358	1785.69	105578
712	2.000000	1.254791	7.37202e+06	-41489.1	1005.82	-29786	0.000000	0.000000	7.271934	421.411	NaN	0.000000	0.001620	0.001701	28.0794	93.8818	0.001802	52105.1	4.462253	171.149	420.337	1.254578	0.092081	0.091868	421.411	52105.1	0.086015	0.235268	1791.19	98145.8
712	2.000000	1.265327	7.37203e+06	-41489.1	1005.82	-29786	0.000000	0.000000	7.286145	510.849	NaN	0.000000	0.001535	0.001723	28.0795	104.269	0.001786	58387.8	6.212668	-11.5027	508.749	1.265038	0.102616	0.102328	510.849	58387.8	0.096055	0.285944	1786.54	99759.7
712	2.000000	1.266816	7.37203e+06	-41489.1	1005.82	-29786	0.000000	0.000000	7.288248	525.778	NaN	0.000000	0.001579	0.001734	28.0795	106.407	0.001799	59132.4	4.822160	169.897	526.299	1.266516	0.104106	0.103806	525.778	59132.4	0.097437	0.293284	1792.73	99759.6