File: remote_trans/data/nanoindenter/0828-1/data/Data_2025-08-06,11h17m57s/2025-07-22_16-23-58_1_1084.txt
2025-07-22, 16:23:58, 1
Index	Phase	Displacement	Time	Pos X	Pos Y	Pos Z	Rot A	Rot B	Piezo Z	Force A	Force B	Gripper	Voltage A	Voltage B	Temperature	Amplitude force	Amplitude pos	Stiffness	Phase shift	Phase excitation	Force A raw	Displacement raw	HMax	HMax raw	Real Force	Real Stiffness	Contact Depth	Area	Hardness	Reduced Mod.
[#]	[#]	[um]	[s]	[um]	[um]	[um]	[m°]	[m°]	[um]	[uN]	[uN]	[V]	[V]	[V]	[°C]	[uN]	[um]	[N/m]	[°]	[°]	[uN]	[um]	[um]	[um]	[uN]	[N/m]	[um]	[um^2]	[MPa]	[MPa]
1084	1.000000	0.002642	7.37566e+06	-54339.1	1055.82	-29743.7	0.000000	0.000000	6.002776	-0.048309	NaN	0.000000	0.001584	0.001703	28.0837	0.052466	0.000920	57.0423	-70.5192	-166.103	-0.035317	0.001382	-1.096499	-1.097759	-0.048309	57.0423	-1.095863	-4.410996E+14	1.095192E-16	NaN
1084	1.000000	0.044612	7.37566e+06	-54339.1	1055.82	-29743.7	0.000000	0.000000	6.044748	-0.014415	NaN	0.000000	0.001584	0.001697	28.0833	0.130335	0.001981	65.7801	-154.82	15.6667	0.008319	0.043222	-1.054528	-1.055919	-0.014415	65.7801	-1.054364	-1.222007E+14	1.179612E-16	NaN
1084	1.000000	0.086633	7.37566e+06	-54339.1	1055.82	-29743.7	0.000000	0.000000	6.086769	-0.012370	NaN	0.000000	0.001569	0.001719	28.0837	0.149519	0.002106	71.0087	-89.0904	-164.851	-0.085842	0.085299	-1.012508	-1.013842	-0.012370	71.0087	-1.012377	-3.329465E+13	3.715276E-16	NaN
1084	1.000000	0.128641	7.37566e+06	-54339.1	1055.82	-29743.7	0.000000	0.000000	6.128777	0.012582	NaN	0.000000	0.001610	0.001721	28.0823	0.038252	0.001976	19.3606	-137.051	12.7343	0.014057	0.127327	-0.970500	-0.971813	0.012582	19.3606	-0.970987	-9.225085E+12	-1.363870E-15	NaN
1084	1.000000	0.170635	7.37566e+06	-54339.1	1055.82	-29743.7	0.000000	0.000000	6.170771	-0.005940	NaN	0.000000	0.001569	0.001701	28.0823	0.078118	0.001867	41.8456	-66.648	-170.442	0.008127	0.169356	-0.928506	-0.929784	-0.005940	41.8456	-0.928399	-2.458048E+12	2.416502E-15	NaN
1084	1.000000	0.212660	7.37566e+06	-54339.1	1055.82	-29743.7	0.000000	0.000000	6.212797	0.017933	NaN	0.000000	0.001547	0.001704	28.0824	0.129819	0.002035	63.8028	147.345	14.0727	-0.002971	0.211329	-0.886481	-0.887811	0.017933	63.8028	-0.886692	-6.717251E+11	-2.669651E-14	NaN
1084	1.000000	0.254681	7.37566e+06	-54339.1	1055.82	-29743.8	0.000000	0.000000	6.254816	-0.022554	NaN	0.000000	0.001557	0.001663	28.0835	0.050969	0.002042	24.9607	144.108	-166.531	-0.050215	0.253404	-0.844460	-0.845736	-0.022554	24.9607	-0.843782	-1.764121E+11	1.278466E-13	NaN
1084	1.000000	0.296691	7.37566e+06	-54339.1	1055.82	-29743.8	0.000000	0.000000	6.296827	-0.017797	NaN	0.000000	0.001564	0.001726	28.0836	0.114152	0.001982	57.6054	-150.491	16.3095	0.003995	0.295360	-0.802450	-0.803780	-0.017797	57.6054	-0.802218	-4.819115E+10	3.692999E-13	NaN
1084	1.000000	0.338723	7.37566e+06	-54339.1	1055.82	-29743.8	0.000000	0.000000	6.338861	0.031469	NaN	0.000000	0.001642	0.001713	28.0837	0.031785	0.002048	15.5222	19.2878	-165.922	0.027165	0.337409	-0.760417	-0.761731	0.031469	15.5222	-0.761938	-1.366666E+10	-2.302624E-12	NaN
1084	1.000000	0.380761	7.37566e+06	-54339.1	1055.82	-29743.8	0.000000	0.000000	6.380897	-0.014929	NaN	0.000000	0.001626	0.001751	28.0828	0.089679	0.002044	43.8821	-96.612	13.3234	0.000321	0.379359	-0.718379	-0.719782	-0.014929	43.8821	-0.718124	-3.458505E+9	4.316683E-12	NaN
1084	1.000000	0.422778	7.37566e+06	-54339.1	1055.82	-29743.8	0.000000	0.000000	6.422911	-0.073111	NaN	0.000000	0.001570	0.001655	28.0829	0.011134	0.001807	6.162621	-77.1903	-162.771	-0.085472	0.421468	-0.676363	-0.677672	-0.073111	6.162621	-0.667465	-7.025742E+8	1.040618E-10	NaN
1084	1.000000	0.464789	7.37566e+06	-54339.1	1055.82	-29743.8	0.000000	0.000000	6.464925	0.004167	NaN	0.000000	0.001551	0.001732	28.0824	0.069673	0.001917	36.3459	119.669	16.86	-0.014340	0.463421	-0.634352	-0.635719	0.004167	36.3459	-0.634438	-2.477163E+8	-1.681976E-11	NaN
1084	1.000000	0.506797	7.37566e+06	-54339.1	1055.82	-29743.8	0.000000	0.000000	6.506931	-0.066221	NaN	0.000000	0.001594	0.001738	28.0822	0.053577	0.001805	29.6827	114.839	-166.433	-0.041064	0.505482	-0.592343	-0.593659	-0.066221	29.6827	-0.590670	-6.193062E+7	1.069285E-9	NaN
1084	1.000000	0.548797	7.37566e+06	-54339.1	1055.82	-29743.8	0.000000	0.000000	6.548934	0.005239	NaN	0.000000	0.001585	0.001737	28.0839	0.025358	0.001994	12.7165	-136.145	16.5223	0.037186	0.547484	-0.550344	-0.551657	0.005239	12.7165	-0.550653	-1.733778E+7	-3.022008E-10	NaN
1084	1.000000	0.590850	7.37566e+06	-54339.1	1055.82	-29743.8	0.000000	0.000000	6.590980	-0.151732	NaN	0.000000	0.001577	0.001834	28.0838	0.053701	0.002111	25.4375	-90.2718	-167.232	-0.101053	0.589541	-0.508291	-0.509599	-0.151732	25.4375	-0.503817	-3.87485e+06	3.915831E-8	NaN
1084	1.000000	0.632878	7.37566e+06	-54339.1	1055.82	-29743.8	0.000000	0.000000	6.633015	0.031161	NaN	0.000000	0.001553	0.001792	28.0841	0.097304	0.002167	44.8964	7.736139	12.1973	0.098901	0.631508	-0.466263	-0.467633	0.031161	44.8964	-0.466784	-1.17566e+06	-2.650498E-8	NaN
1084	1.000000	0.674872	7.37566e+06	-54339.1	1055.82	-29743.8	0.000000	0.000000	6.675008	-0.020870	NaN	0.000000	0.001599	0.001820	28.0827	0.066846	0.001945	34.3687	-81.453	-162.074	-0.057540	0.673569	-0.424268	-0.425572	-0.020870	34.3687	-0.423813	-291382	7.162424E-8	NaN
1084	1.000000	0.716909	7.37566e+06	-54339.1	1055.82	-29743.8	0.000000	0.000000	6.717044	-0.041613	NaN	0.000000	0.001535	0.001838	28.0828	0.050172	0.001989	25.2239	-11.4609	18.6887	-0.005184	0.715590	-0.382232	-0.383550	-0.041613	25.2239	-0.380994	-71475.4	5.821996E-7	NaN
1084	1.000000	0.758861	7.37566e+06	-54339.1	1055.82	-29743.8	0.000000	0.000000	6.758994	-0.066119	NaN	0.000000	0.001622	0.001792	28.0827	0.108571	0.001946	55.7785	31.3884	-162.349	-0.055435	0.757604	-0.340280	-0.341536	-0.066119	55.7785	-0.339391	-17892.6	3.695342E-6	NaN
1084	1.000000	0.800904	7.37566e+06	-54339.1	1055.82	-29743.8	0.000000	0.000000	6.801038	-0.049157	NaN	0.000000	0.001600	0.001810	28.0839	0.036825	0.001826	20.1706	16.3129	16.3363	-0.068388	0.799525	-0.298237	-0.299616	-0.049157	20.1706	-0.296409	-4160.25	1.181583E-5	NaN
1084	1.000000	0.842899	7.37566e+06	-54339.1	1055.82	-29743.8	0.000000	0.000000	6.843037	0.033663	NaN	0.000000	0.001616	0.001794	28.0837	0.078979	0.001914	41.2721	-110.106	-165.751	0.048893	0.841611	-0.256241	-0.257529	0.033663	41.2721	-0.256853	-1048.62	-3.210235E-5	NaN
1084	1.000000	0.884956	7.37566e+06	-54339.1	1055.82	-29743.8	0.000000	0.000000	6.885093	0.022314	NaN	0.000000	0.001637	0.001805	28.0838	0.039857	0.001913	20.8354	47.8739	14.5574	-0.022636	0.883604	-0.214184	-0.215537	0.022314	20.8354	-0.214988	-230.842	-9.666539E-5	NaN
1084	1.000000	0.926982	7.37566e+06	-54339.1	1055.82	-29743.8	0.000000	0.000000	6.927114	-0.109830	NaN	0.000000	0.001668	0.001802	28.0827	0.091379	0.002029	45.0293	170.445	-166.56	-0.058912	0.925697	-0.172158	-0.173443	-0.109830	45.0293	-0.170329	-41.6224	0.002639	NaN
1084	1.000000	0.968993	7.37566e+06	-54339.1	1055.82	-29743.8	0.000000	0.000000	6.969129	-0.004696	NaN	0.000000	0.001522	0.001801	28.0828	0.106731	0.001820	58.6427	49.9606	13.776	0.006040	0.967621	-0.130147	-0.131520	-0.004696	58.6427	-0.130087	-7.650805	0.000614	NaN
1084	1.000000	1.011016	7.37566e+06	-54339.1	1055.82	-29743.8	0.000000	0.000000	7.011147	-0.127807	NaN	0.000000	0.001598	0.001799	28.0826	0.054272	0.001863	29.1294	-73.6627	-163.943	-0.016292	1.009744	-0.088124	-0.089396	-0.127807	29.1294	-0.084834	-0.814045	0.157003	NaN
1084	1.000000	1.053029	7.37566e+06	-54339.1	1055.82	-29743.8	0.000000	0.000000	7.053164	-0.033405	NaN	0.000000	0.001557	0.001803	28.0827	0.014834	0.002010	7.381102	-46.3315	13.1562	-0.049298	1.051637	-0.046112	-0.047504	-0.033405	7.381102	-0.042717	-0.054725	0.610411	NaN
1084	1.000000	1.095047	7.37566e+06	-54339.1	1055.82	-29743.8	0.000000	0.000000	7.095188	0.116377	NaN	0.000000	0.001633	0.001784	28.0839	0.350555	0.002107	166.412	9.693379	-165.934	-0.053366	1.093739	-0.004093	-0.005402	0.116377	166.412	-0.004618	-0.003175	-36.6522	NaN
1084	2.000000	1.113059	7.37566e+06	-54339.1	1055.82	-29743.8	0.000000	0.000000	7.114281	26.3998	NaN	0.000000	0.001683	0.001793	28.0836	19.0166	0.001783	10663.5	6.655192	3.725510	24.4279	1.112698	0.013918	0.013557	26.3998	10663.5	0.012062	0.011564	2282.96	90598.9
1084	2.000000	1.123571	7.37566e+06	-54339.1	1055.82	-29743.8	0.000000	0.000000	7.126567	69.5301	NaN	0.000000	0.001633	0.001816	28.0837	32.1793	0.001886	17062.3	5.856054	-179.44	69.1401	1.123210	0.024430	0.024069	69.5301	17062.3	0.021374	0.024747	2809.63	99094.5
1084	2.000000	1.133936	7.37566e+06	-54339.1	1055.82	-29743.8	0.000000	0.000000	7.140078	146.009	NaN	0.000000	0.001582	0.001784	28.0825	43.779	0.001775	24669.7	5.494502	-2.391593	140.322	1.133636	0.034795	0.034495	146.009	24669.7	0.030356	0.041485	3519.57	110660
1084	2.000000	1.144505	7.37566e+06	-54339.1	1055.82	-29743.8	0.000000	0.000000	7.153851	223.878	NaN	0.000000	0.001518	0.001820	28.0826	56.3427	0.001884	29905	5.284709	176.1	221.54	1.144146	0.045365	0.045006	223.878	29905	0.039750	0.063384	3532.1	108524
1084	2.000000	1.154917	7.37566e+06	-54339.1	1055.82	-29743.8	0.000000	0.000000	7.168430	325.204	NaN	0.000000	0.001585	0.001774	28.0827	65.7446	0.001859	35357.8	5.248895	-5.235805	317.971	1.154570	0.055777	0.055429	325.204	35357.8	0.048878	0.088978	3654.88	108297
1084	2.000000	1.165461	7.37566e+06	-54339.1	1055.82	-29743.8	0.000000	0.000000	7.182455	409.828	NaN	0.000000	0.001520	0.001773	28.0837	77.3423	0.001780	43448.4	5.683898	172.287	407.535	1.165178	0.066320	0.066038	409.828	43448.4	0.059246	0.123117	3328.76	113132
1084	2.000000	1.176013	7.37566e+06	-54339.1	1055.82	-29743.8	0.000000	0.000000	7.197719	524.37	NaN	0.000000	0.001558	0.001766	28.0837	87.1935	0.001862	46821.5	7.507245	-9.714766	523.551	1.175680	0.076873	0.076540	524.37	46821.5	0.068473	0.157932	3320.22	107642
1084	2.000000	1.186355	7.37566e+06	-54339.1	1055.82	-29743.8	0.000000	0.000000	7.211742	613.861	NaN	0.000000	0.001554	0.001779	28.0837	94.8814	0.001851	51267.2	5.977280	171.911	606.84	1.186055	0.087214	0.086915	613.861	51267.2	0.078234	0.199186	3081.84	104950
1084	2.000000	1.196735	7.37566e+06	-54339.1	1055.82	-29743.8	0.000000	0.000000	7.227004	732.554	NaN	0.000000	0.001589	0.001784	28.0825	103.898	0.001857	55946.7	2.653117	-5.687529	718.021	1.196346	0.097595	0.097206	732.554	55946.7	0.087774	0.243813	3004.57	103519
1084	2.000000	1.203809	7.37566e+06	-54339.1	1055.82	-29743.8	0.000000	0.000000	7.236993	803.428	NaN	0.000000	0.001567	0.001805	28.0823	109.643	0.001754	62523.9	4.655169	-8.668279	794.167	1.203473	0.104668	0.104332	803.428	62523.9	0.095031	0.280564	2863.62	107846