File: remote_trans/data/nanoindenter/0828-1/data/Data_2025-08-06,11h17m57s/2025-07-22_16-23-58_1_1032.txt
2025-07-22, 16:23:58, 1
Index	Phase	Displacement	Time	Pos X	Pos Y	Pos Z	Rot A	Rot B	Piezo Z	Force A	Force B	Gripper	Voltage A	Voltage B	Temperature	Amplitude force	Amplitude pos	Stiffness	Phase shift	Phase excitation	Force A raw	Displacement raw	HMax	HMax raw	Real Force	Real Stiffness	Contact Depth	Area	Hardness	Reduced Mod.
[#]	[#]	[um]	[s]	[um]	[um]	[um]	[m°]	[m°]	[um]	[uN]	[uN]	[V]	[V]	[V]	[°C]	[uN]	[um]	[N/m]	[°]	[°]	[uN]	[um]	[um]	[um]	[uN]	[N/m]	[um]	[um^2]	[MPa]	[MPa]
1032	1.000000	0.002716	7.37514e+06	-51739.1	1055.82	-29751.2	0.000000	0.000000	6.002818	-0.025705	NaN	0.000000	0.001591	0.001669	28.0829	0.040931	0.000917	44.6234	-58.0835	-171.104	-0.026932	0.001418	-1.117700	-1.118997	-0.025705	44.6234	-1.117267	-8.546916E+14	3.007508E-17	NaN
1032	1.000000	0.044653	7.37514e+06	-51739.1	1055.82	-29751.2	0.000000	0.000000	6.044757	0.010713	NaN	0.000000	0.001568	0.001711	28.0836	0.022974	0.002030	11.3171	-27.2595	14.0816	0.046267	0.043281	-1.075762	-1.077135	0.010713	11.3171	-1.076472	-2.421768E+14	-4.423768E-17	NaN
1032	1.000000	0.086650	7.37514e+06	-51739.1	1055.82	-29751.2	0.000000	0.000000	6.086752	-0.014942	NaN	0.000000	0.001629	0.001676	28.0836	0.038711	0.002059	18.7974	-179.434	-164.209	0.002685	0.085345	-1.033765	-1.035070	-0.014942	18.7974	-1.033169	-6.340190E+13	2.356657E-16	NaN
1032	1.000000	0.128652	7.37514e+06	-51739.1	1055.82	-29751.2	0.000000	0.000000	6.128756	0.035387	NaN	0.000000	0.001554	0.001700	28.0838	0.036032	0.002000	18.0115	86.3114	14.6686	-0.006431	0.127335	-0.991764	-0.993080	0.035387	18.0115	-0.993237	-1.839542E+13	-1.923671E-15	NaN
1032	1.000000	0.170684	7.37514e+06	-51739.1	1055.82	-29751.2	0.000000	0.000000	6.170787	0.005729	NaN	0.000000	0.001566	0.001685	28.0827	0.164712	0.002033	81.0307	-34.128	-164.969	0.028072	0.169363	-0.949732	-0.951053	0.005729	81.0307	-0.949785	-4.776633E+12	-1.199409E-15	NaN
1032	1.000000	0.212677	7.37514e+06	-51739.1	1055.82	-29751.2	0.000000	0.000000	6.212778	-0.035224	NaN	0.000000	0.001535	0.001692	28.0826	0.157313	0.002042	77.0411	71.7245	16.6544	-0.053305	0.211310	-0.907739	-0.909105	-0.035224	77.0411	-0.907396	-1.279336E+12	2.753285E-14	NaN
1032	1.000000	0.254718	7.37514e+06	-51739.1	1055.82	-29751.2	0.000000	0.000000	6.254817	-0.078235	NaN	0.000000	0.001596	0.001703	28.0826	0.108675	0.001858	58.4766	128.989	-165.107	-0.045615	0.253403	-0.865698	-0.867013	-0.078235	58.4766	-0.864694	-3.385731E+11	2.310724E-13	NaN
1032	1.000000	0.296756	7.37514e+06	-51739.1	1055.82	-29751.2	0.000000	0.000000	6.296861	0.058809	NaN	0.000000	0.001593	0.001779	28.0826	0.096013	0.001971	48.7072	-7.092004	13.8791	-0.008709	0.295369	-0.823660	-0.825046	0.058809	48.7072	-0.824565	-9.685264E+10	-6.072059E-13	NaN
1032	1.000000	0.338761	7.37514e+06	-51739.1	1055.82	-29751.2	0.000000	0.000000	6.338865	0.011066	NaN	0.000000	0.001548	0.001724	28.0842	0.042624	0.002106	20.2438	126.179	-171.175	0.037354	0.337457	-0.781654	-0.782958	0.011066	20.2438	-0.782064	-2.566131E+10	-4.312476E-13	NaN
1032	1.000000	0.380775	7.37514e+06	-51739.1	1055.82	-29751.2	0.000000	0.000000	6.380875	-0.060586	NaN	0.000000	0.001544	0.001700	28.084	0.023961	0.002137	11.2137	20.6675	13.2755	-0.062415	0.379421	-0.739641	-0.740994	-0.060586	11.2137	-0.735588	-5.983576E+9	1.012539E-11	NaN
1032	1.000000	0.422800	7.37514e+06	-51739.1	1055.82	-29751.2	0.000000	0.000000	6.422905	0.056415	NaN	0.000000	0.001588	0.001728	28.0839	0.052066	0.001939	26.8517	3.071399	-167.031	0.072571	0.421490	-0.697615	-0.698926	0.056415	26.8517	-0.699191	-1.907568E+9	-2.957417E-11	NaN
1032	1.000000	0.464786	7.37514e+06	-51739.1	1055.82	-29751.2	0.000000	0.000000	6.464888	-0.015477	NaN	0.000000	0.001574	0.001715	28.0826	0.034516	0.001995	17.2987	12.0252	13.2849	-0.052213	0.463451	-0.655630	-0.656964	-0.015477	17.2987	-0.654959	-4.735893E+8	3.267973E-11	NaN
1032	1.000000	0.506805	7.37514e+06	-51739.1	1055.82	-29751.2	0.000000	0.000000	6.506908	0.007895	NaN	0.000000	0.001554	0.001727	28.0827	0.111996	0.001918	58.4026	155.013	-169.2	-0.110294	0.505534	-0.613610	-0.614881	0.007895	58.4026	-0.613712	-1.285797E+8	-6.140164E-11	NaN
1032	1.000000	0.548872	7.37514e+06	-51739.1	1055.82	-29751.2	0.000000	0.000000	6.548976	0.046901	NaN	0.000000	0.001597	0.001671	28.0828	0.107892	0.002134	50.5619	-77.0697	16.3405	0.020488	0.547468	-0.571544	-0.572947	0.046901	50.5619	-0.572240	-3.448040E+7	-1.360236E-9	NaN
1032	1.000000	0.590855	7.37515e+06	-51739.1	1055.82	-29751.2	0.000000	0.000000	6.590957	-0.013396	NaN	0.000000	0.001570	0.001695	28.084	0.108272	0.002108	51.3688	71.2965	-168.811	-0.031411	0.589526	-0.529561	-0.530889	-0.013396	51.3688	-0.529365	-8.78534e+06	1.524867E-9	NaN
1032	1.000000	0.632874	7.37515e+06	-51739.1	1055.82	-29751.2	0.000000	0.000000	6.632978	0.012657	NaN	0.000000	0.001579	0.001677	28.0841	0.099820	0.001859	53.7041	-163.213	11.1089	-0.016610	0.631491	-0.487541	-0.488924	0.012657	53.7041	-0.487718	-2.30937e+06	-5.480830E-9	NaN
1032	1.000000	0.674938	7.37515e+06	-51739.1	1055.82	-29751.2	0.000000	0.000000	6.675042	0.019913	NaN	0.000000	0.001565	0.001687	28.084	0.060915	0.002009	30.3152	145.914	-167.323	0.047664	0.673583	-0.445477	-0.446832	0.019913	30.3152	-0.445970	-599183	-3.323324E-8	NaN
1032	1.000000	0.716913	7.37515e+06	-51739.1	1055.82	-29751.2	0.000000	0.000000	6.717017	0.032331	NaN	0.000000	0.001556	0.001702	28.0829	0.061449	0.002040	30.1237	80.301	12.2585	-0.007134	0.715546	-0.403502	-0.404869	0.032331	30.1237	-0.404307	-153949	-2.100115E-7	NaN
1032	1.000000	0.758934	7.37515e+06	-51739.1	1055.82	-29751.2	0.000000	0.000000	6.759036	-0.019296	NaN	0.000000	0.001566	0.001699	28.0829	0.177618	0.001922	92.3927	-111.368	-165.331	-0.018658	0.757653	-0.361481	-0.362762	-0.019296	92.3927	-0.361324	-37238	5.181785E-7	NaN
1032	1.000000	0.800936	7.37515e+06	-51739.1	1055.82	-29751.2	0.000000	0.000000	6.801040	0.042258	NaN	0.000000	0.001569	0.001717	28.0828	0.086927	0.001885	46.1184	-91.0511	16.1546	0.020767	0.799580	-0.319480	-0.320835	0.042258	46.1184	-0.320167	-9356.11	-4.516615E-6	NaN
1032	1.000000	0.842966	7.37515e+06	-51739.1	1055.82	-29751.2	0.000000	0.000000	6.843069	0.014306	NaN	0.000000	0.001575	0.001711	28.083	0.038419	0.002031	18.9176	-144.632	-166.38	0.044936	0.841647	-0.277450	-0.278769	0.014306	18.9176	-0.278017	-2203.09	-6.493713E-6	NaN
1032	1.000000	0.885014	7.37515e+06	-51739.1	1055.82	-29751.2	0.000000	0.000000	6.885115	-0.026347	NaN	0.000000	0.001532	0.001726	28.0842	0.005443	0.002004	2.715920	-164.94	12.1814	-0.056762	0.883680	-0.235402	-0.236735	-0.026347	2.715920	-0.228126	-374.021	7.044272E-5	NaN
1032	1.000000	0.926979	7.37515e+06	-51739.1	1055.82	-29751.2	0.000000	0.000000	6.927081	-0.003730	NaN	0.000000	0.001565	0.001729	28.0844	0.090245	0.001974	45.7142	-39.5572	-170.554	0.040249	0.925661	-0.193437	-0.194754	-0.003730	45.7142	-0.193376	-102.39	3.642474E-5	NaN
1032	1.000000	0.969004	7.37515e+06	-51739.1	1055.82	-29751.2	0.000000	0.000000	6.969110	0.074997	NaN	0.000000	0.001552	0.001722	28.0845	0.088430	0.001988	44.4834	-173.148	12.7171	0.111189	0.967614	-0.151411	-0.152801	0.074997	44.4834	-0.152675	-20.2591	-0.003702	NaN
1032	1.000000	1.011058	7.37515e+06	-51739.1	1055.82	-29751.2	0.000000	0.000000	7.011159	-0.030422	NaN	0.000000	0.001528	0.001725	28.083	0.123275	0.002019	61.07	97.1006	-167.467	0.009408	1.009711	-0.109358	-0.110704	-0.030422	61.07	-0.108984	-2.860242	0.010636	NaN
1032	1.000000	1.053017	7.37515e+06	-51739.1	1055.82	-29751.2	0.000000	0.000000	7.053166	1.142831	NaN	0.000000	0.001532	0.001680	28.0833	1.213630	0.001904	637.496	7.213579	12.2387	0.707071	1.051693	-0.067399	-0.068722	1.142831	637.496	-0.068743	-0.315555	-3.621650	NaN
1032	1.000000	1.095089	7.37515e+06	-51739.1	1055.82	-29751.2	0.000000	0.000000	7.095324	3.211771	NaN	0.000000	0.001576	0.001651	28.0829	1.430223	0.001917	745.906	13.8548	-170.086	3.235000	1.093763	-0.025326	-0.026652	3.211771	745.906	-0.028555	-0.020994	-152.986	NaN
1032	2.000000	1.127146	7.37515e+06	-51739.1	1055.82	-29751.2	0.000000	0.000000	7.127612	8.843467	NaN	0.000000	0.001568	0.001674	28.0847	8.278915	0.002004	4130.82	13.1284	8.476867	8.654698	1.126806	0.006730	0.006391	8.843467	4130.82	0.005125	0.004247	2082.1	57909.3
1032	2.000000	1.137506	7.37515e+06	-51739.1	1055.82	-29751.2	0.000000	0.000000	7.138893	31.2429	NaN	0.000000	0.001595	0.001675	28.0845	17.9873	0.001715	10489	5.341094	-175.06	29.7495	1.137279	0.017090	0.016863	31.2429	10489	0.014856	0.015094	2069.86	78001.5
1032	2.000000	1.148006	7.37515e+06	-51739.1	1055.82	-29751.2	0.000000	0.000000	7.151331	78.3477	NaN	0.000000	0.001525	0.001712	28.0844	28.4034	0.001840	15439.7	6.653612	-0.839360	75.5846	1.147626	0.027590	0.027211	78.3477	15439.7	0.023785	0.028841	2716.5	83062.1
1032	2.000000	1.158532	7.37515e+06	-51739.1	1055.82	-29751.2	0.000000	0.000000	7.164241	136.304	NaN	0.000000	0.001643	0.001750	28.0827	38.0411	0.001755	21677.2	2.806943	-179.691	136.975	1.158155	0.038117	0.037740	136.304	21677.2	0.033401	0.048089	2834.44	90314
1032	2.000000	1.169045	7.37515e+06	-51739.1	1055.82	-29751.2	0.000000	0.000000	7.177778	209.838	NaN	0.000000	0.001613	0.001751	28.0828	47.4867	0.001778	26706.1	3.381618	-2.813588	209.449	1.168762	0.048630	0.048346	209.838	26706.1	0.042737	0.071293	2943.33	91382.1
1032	2.000000	1.179518	7.37515e+06	-51739.1	1055.82	-29751.2	0.000000	0.000000	7.191866	297.753	NaN	0.000000	0.001634	0.001734	28.083	58.0673	0.001798	32304.3	4.094569	174.846	297.436	1.179162	0.059102	0.058747	297.753	32304.3	0.052189	0.099301	2998.5	93660.7
1032	2.000000	1.189859	7.37515e+06	-51739.1	1055.82	-29751.2	0.000000	0.000000	7.205389	375.115	NaN	0.000000	0.001606	0.001713	28.0829	66.9064	0.001847	36218.6	-0.648218	-0.855801	368.261	1.189616	0.069444	0.069201	375.115	36218.6	0.061676	0.131888	2844.19	91117.4
1032	2.000000	1.200409	7.37515e+06	-51739.1	1055.82	-29751.2	0.000000	0.000000	7.220988	497.907	NaN	0.000000	0.001571	0.001732	28.0845	76.4934	0.001904	40180.8	2.918474	174.73	493.837	1.200044	0.079993	0.079629	497.907	40180.8	0.070700	0.166946	2982.45	89847.2
1032	2.000000	1.210879	7.37515e+06	-51739.1	1055.82	-29751.2	0.000000	0.000000	7.236546	621.623	NaN	0.000000	0.001566	0.001712	28.0842	85.8996	0.001774	48421.5	4.404173	-8.532719	614.681	1.210493	0.090464	0.090077	621.623	48421.5	0.080835	0.210936	2946.98	96324.4
1032	2.000000	1.221421	7.37515e+06	-51739.1	1055.82	-29751.2	0.000000	0.000000	7.252469	752.46	NaN	0.000000	0.001528	0.001665	28.0844	95.1697	0.001804	52746.3	3.964169	171.553	749.984	1.220979	0.101006	0.100564	752.46	52746.3	0.090307	0.256364	2935.12	95178
1032	2.000000	1.222281	7.37515e+06	-51739.1	1055.82	-29751.2	0.000000	0.000000	7.254205	773.762	NaN	0.000000	0.001518	0.001641	28.0842	94.2711	0.001737	54280.3	-0.281675	175.643	763.503	1.221955	0.101865	0.101540	773.762	54280.3	0.091174	0.260732	2967.65	97122