File: remote_trans/data/nanoindenter/0828-1/data/Data_2025-08-06,11h17m57s/2025-07-22_16-23-58_1_705.txt
2025-07-22, 16:23:58, 1
Index	Phase	Displacement	Time	Pos X	Pos Y	Pos Z	Rot A	Rot B	Piezo Z	Force A	Force B	Gripper	Voltage A	Voltage B	Temperature	Amplitude force	Amplitude pos	Stiffness	Phase shift	Phase excitation	Force A raw	Displacement raw	HMax	HMax raw	Real Force	Real Stiffness	Contact Depth	Area	Hardness	Reduced Mod.
[#]	[#]	[um]	[s]	[um]	[um]	[um]	[m°]	[m°]	[um]	[uN]	[uN]	[V]	[V]	[V]	[°C]	[uN]	[um]	[N/m]	[°]	[°]	[uN]	[um]	[um]	[um]	[uN]	[N/m]	[um]	[um^2]	[MPa]	[MPa]
705	1.000000	0.002693	7.37195e+06	-41839.1	1005.82	-29784.9	0.000000	0.000000	6.002785	0.011594	NaN	0.000000	0.001689	0.001776	28.0822	0.047508	0.001085	43.7712	-111.73	-167.459	-0.012846	0.001376	-1.020063	-1.021380	0.011594	43.7712	-1.020262	-4.250818E+13	-2.727408E-16	NaN
705	1.000000	0.042677	7.37195e+06	-41839.1	1005.82	-29784.9	0.000000	0.000000	6.042767	-0.046389	NaN	0.000000	0.001703	0.001784	28.0832	0.066934	0.002014	33.2304	-157.778	-171.073	-0.016085	0.041347	-0.980079	-0.981409	-0.046389	33.2304	-0.979032	-1.184032E+13	3.917908E-15	NaN
705	1.000000	0.082675	7.37195e+06	-41839.1	1005.82	-29784.9	0.000000	0.000000	6.082764	-0.066225	NaN	0.000000	0.001738	0.001770	28.0831	0.101052	0.002040	49.5306	87.3292	-170.647	-0.137733	0.081366	-0.940080	-0.941389	-0.066225	49.5306	-0.939077	-3.425222E+12	1.933460E-14	NaN
705	1.000000	0.122700	7.37195e+06	-41839.1	1005.82	-29784.9	0.000000	0.000000	6.122791	-0.002222	NaN	0.000000	0.001732	0.001793	28.0833	0.078260	0.001985	39.4178	-41.9854	-166.078	0.044186	0.121326	-0.900056	-0.901430	-0.002222	39.4178	-0.900013	-1.016829E+12	2.185230E-15	NaN
705	1.000000	0.162703	7.37195e+06	-41839.1	1005.82	-29784.9	0.000000	0.000000	6.162792	-0.045516	NaN	0.000000	0.001712	0.001778	28.0831	0.019617	0.002012	9.749113	-156.89	-163.305	0.028153	0.161372	-0.860053	-0.861383	-0.045516	9.749113	-0.856551	-2.626880E+11	1.732691E-13	NaN
705	1.000000	0.202705	7.37195e+06	-41839.1	1005.82	-29784.9	0.000000	0.000000	6.202800	0.071402	NaN	0.000000	0.001728	0.001781	28.0819	0.071032	0.002041	34.8055	65.093	-165.363	0.070967	0.201434	-0.820050	-0.821322	0.071402	34.8055	-0.821589	-8.825826E+10	-8.090115E-13	NaN
705	1.000000	0.242718	7.37195e+06	-41839.1	1005.82	-29784.9	0.000000	0.000000	6.242807	-0.055809	NaN	0.000000	0.001738	0.001793	28.0817	0.056522	0.001883	30.0217	-141.648	-162.776	0.008656	0.241433	-0.780037	-0.781322	-0.055809	30.0217	-0.778643	-2.305657E+10	2.420519E-12	NaN
705	1.000000	0.282727	7.37195e+06	-41839.1	1005.82	-29784.9	0.000000	0.000000	6.282816	-0.064426	NaN	0.000000	0.001694	0.001847	28.0819	0.084137	0.002096	40.1389	64.369	-165.837	-0.056844	0.281481	-0.740029	-0.741275	-0.064426	40.1389	-0.738825	-6.622976E+9	9.727692E-12	NaN
705	1.000000	0.322757	7.37195e+06	-41839.1	1005.82	-29784.9	0.000000	0.000000	6.322845	-0.087893	NaN	0.000000	0.001650	0.001792	28.0831	0.088322	0.001957	45.1399	-3.046379	-167.76	-0.048955	0.321454	-0.699999	-0.701302	-0.087893	45.1399	-0.698539	-1.868840E+9	4.703065E-11	NaN
705	1.000000	0.362788	7.37195e+06	-41839.1	1005.82	-29784.9	0.000000	0.000000	6.362877	-0.057730	NaN	0.000000	0.001657	0.001787	28.083	0.051901	0.001963	26.445	-126.415	-163.872	-0.056184	0.361486	-0.659967	-0.661269	-0.057730	26.445	-0.658330	-5.267373E+8	1.095999E-10	NaN
705	1.000000	0.402823	7.37195e+06	-41839.1	1005.82	-29784.9	0.000000	0.000000	6.402912	-0.055425	NaN	0.000000	0.001589	0.001810	28.0829	0.109844	0.001993	55.1105	-174.825	-168.229	-0.041173	0.401459	-0.619933	-0.621297	-0.055425	55.1105	-0.619178	-1.528762E+8	3.625449E-10	NaN
705	1.000000	0.442807	7.37195e+06	-41839.1	1005.82	-29784.9	0.000000	0.000000	6.442898	-0.021622	NaN	0.000000	0.001663	0.001768	28.0829	0.112875	0.001946	58.012	-146.751	-168.636	-0.002331	0.441510	-0.579949	-0.581246	-0.021622	58.012	-0.579669	-4.366763E+7	4.951528E-10	NaN
705	1.000000	0.482804	7.37195e+06	-41839.1	1005.82	-29784.9	0.000000	0.000000	6.482895	-0.019044	NaN	0.000000	0.001665	0.001739	28.0817	0.031338	0.001888	16.6011	140.394	-163.35	-0.000543	0.481519	-0.539951	-0.541237	-0.019044	16.6011	-0.539091	-1.198802E+7	1.588553E-9	NaN
705	1.000000	0.522857	7.37195e+06	-41839.1	1005.82	-29784.9	0.000000	0.000000	6.522945	-0.094179	NaN	0.000000	0.001680	0.001791	28.0818	0.046327	0.001973	23.4761	65.5766	-166.401	-0.095906	0.521573	-0.499898	-0.501183	-0.094179	23.4761	-0.496890	-3.1018e+06	3.036266E-8	NaN
705	1.000000	0.562886	7.37195e+06	-41839.1	1005.82	-29784.9	0.000000	0.000000	6.562975	-0.062655	NaN	0.000000	0.001774	0.001762	28.0816	0.046929	0.002078	22.5857	18.718	-167.003	-0.070465	0.561598	-0.459869	-0.461158	-0.062655	22.5857	-0.457789	-878895	7.128823E-8	NaN
705	1.000000	0.602884	7.37195e+06	-41839.1	1005.82	-29784.9	0.000000	0.000000	6.602973	-0.056731	NaN	0.000000	0.001730	0.001782	28.0828	0.086568	0.001928	44.8908	-100.614	-167.797	-0.063393	0.601569	-0.419872	-0.421186	-0.056731	44.8908	-0.418924	-248401	2.283857E-7	NaN
705	1.000000	0.642912	7.37195e+06	-41839.1	1005.82	-29784.9	0.000000	0.000000	6.643001	-0.051671	NaN	0.000000	0.001742	0.001775	28.0829	0.152902	0.001942	78.7319	-28.2476	-163.576	-0.048987	0.641600	-0.379844	-0.381155	-0.051671	78.7319	-0.379352	-67699.4	7.632425E-7	NaN
705	1.000000	0.682945	7.37195e+06	-41839.1	1005.82	-29784.9	0.000000	0.000000	6.683035	-0.040042	NaN	0.000000	0.001734	0.001774	28.0833	0.086821	0.001939	44.7772	162.472	-166.769	-0.096164	0.681632	-0.339810	-0.341123	-0.040042	44.7772	-0.339139	-17742.2	2.256876E-6	NaN
705	1.000000	0.722941	7.37195e+06	-41839.1	1005.82	-29784.9	0.000000	0.000000	6.723033	-0.002711	NaN	0.000000	0.001675	0.001791	28.0815	0.082893	0.002061	40.2101	-114.865	-164.279	0.011306	0.721601	-0.299814	-0.301154	-0.002711	40.2101	-0.299764	-4667.89	5.808122E-7	NaN
705	1.000000	0.762968	7.37195e+06	-41839.1	1005.82	-29784.9	0.000000	0.000000	6.763060	0.022734	NaN	0.000000	0.001662	0.001809	28.0817	0.095775	0.001791	53.4794	102.296	-165.013	0.010287	0.761634	-0.259788	-0.261122	0.022734	53.4794	-0.260106	-1176.38	-1.932506E-5	NaN
705	1.000000	0.802983	7.37195e+06	-41839.1	1005.82	-29784.9	0.000000	0.000000	6.803073	-0.025149	NaN	0.000000	0.001664	0.001767	28.0817	0.058862	0.002030	29.0018	-106.857	-167.507	-0.070894	0.801719	-0.219773	-0.221036	-0.025149	29.0018	-0.219123	-268.935	9.351474E-5	NaN
705	1.000000	0.843027	7.37195e+06	-41839.1	1005.82	-29784.9	0.000000	0.000000	6.843118	-0.010764	NaN	0.000000	0.001730	0.001708	28.0817	0.051955	0.002166	23.9827	-117.053	-167.71	0.026513	0.841692	-0.179729	-0.181063	-0.010764	23.9827	-0.179392	-59.5831	0.000181	NaN
705	1.000000	0.883015	7.37195e+06	-41839.1	1005.82	-29784.9	0.000000	0.000000	6.883105	-0.047453	NaN	0.000000	0.001762	0.001707	28.0828	0.069652	0.001897	36.7168	-67.2771	-163.373	-0.086879	0.881680	-0.139740	-0.141076	-0.047453	36.7168	-0.138771	-11.2158	0.004231	NaN
705	1.000000	0.922997	7.37195e+06	-41839.1	1005.82	-29784.9	0.000000	0.000000	6.923090	0.023708	NaN	0.000000	0.001692	0.001728	28.0832	0.028326	0.002033	13.9334	171.743	-170.245	-0.047459	0.921740	-0.099758	-0.101016	0.023708	13.9334	-0.101035	-1.925948	-0.012310	NaN
705	1.000000	0.963047	7.37195e+06	-41839.1	1005.82	-29784.9	0.000000	0.000000	6.963138	-0.013757	NaN	0.000000	0.001641	0.001784	28.0831	0.077694	0.002118	36.6743	5.849790	-161.309	0.048304	0.961704	-0.059708	-0.061052	-0.013757	36.6743	-0.059427	-0.173392	0.079339	NaN
705	1.000000	1.003043	7.37195e+06	-41839.1	1005.82	-29784.9	0.000000	0.000000	7.003135	0.005821	NaN	0.000000	0.001683	0.001757	28.0817	0.053246	0.002023	26.3149	-157.133	-166.012	-0.099858	1.001787	-0.019712	-0.020968	0.005821	26.3149	-0.019878	-0.012472	-0.466774	NaN
705	2.000000	1.030571	7.37195e+06	-41839.1	1005.82	-29784.9	0.000000	0.000000	7.031345	16.6054	NaN	0.000000	0.001669	0.001761	28.0815	14.1086	0.001626	8676.43	6.249933	-177.881	16.0969	1.030244	0.007815	0.007489	16.6054	8676.43	0.006380	0.005428	3059.08	107594
705	2.000000	1.040516	7.37195e+06	-41839.1	1005.82	-29784.9	0.000000	0.000000	7.042111	36.5775	NaN	0.000000	0.001639	0.001779	28.0815	25.7708	0.001859	13861.9	5.467628	179.874	35.0361	1.040263	0.017761	0.017508	36.5775	13861.9	0.015782	0.016342	2238.26	99070.8
705	2.000000	1.050450	7.37195e+06	-41839.1	1005.82	-29784.9	0.000000	0.000000	7.053268	66.3416	NaN	0.000000	0.001650	0.001802	28.0814	35.4359	0.001891	18741.2	5.282485	177.714	63.874	1.050183	0.027694	0.027427	66.3416	18741.2	0.025039	0.031087	2134.06	97114
705	2.000000	1.060435	7.37195e+06	-41839.1	1005.82	-29784.9	0.000000	0.000000	7.064877	105.846	NaN	0.000000	0.001688	0.001843	28.0828	43.2465	0.001840	23497.7	4.497423	177.414	103.123	1.060164	0.037680	0.037408	105.846	23497.7	0.034301	0.050132	2111.36	95883.4
705	2.000000	1.070443	7.37195e+06	-41839.1	1005.82	-29784.9	0.000000	0.000000	7.076594	147.421	NaN	0.000000	0.001729	0.001795	28.0828	52.9196	0.001788	29592.6	5.280681	174.943	144.94	1.070102	0.047688	0.047347	147.421	29592.6	0.043951	0.074638	1975.13	98963.6
705	2.000000	1.080466	7.37195e+06	-41839.1	1005.82	-29784.9	0.000000	0.000000	7.088782	200.116	NaN	0.000000	0.001684	0.001781	28.0827	61.6328	0.001734	35549.9	4.607566	174.185	201.589	1.080116	0.057711	0.057360	200.116	35549.9	0.053489	0.103501	1933.46	100958
705	2.000000	1.090504	7.37195e+06	-41839.1	1005.82	-29784.9	0.000000	0.000000	7.101095	255.466	NaN	0.000000	0.001733	0.001749	28.0814	72.0697	0.001879	38346	9.248373	168.225	258.369	1.090043	0.067748	0.067287	255.466	38346	0.062752	0.135860	1880.36	95049.1
705	2.000000	1.100412	7.37195e+06	-41839.1	1005.82	-29784.9	0.000000	0.000000	7.113795	323.416	NaN	0.000000	0.001712	0.001778	28.0816	80.7018	0.001847	43694.5	4.625229	171.712	321.002	1.100146	0.077656	0.077390	323.416	43694.5	0.072105	0.172755	1872.1	96047.2
705	2.000000	1.110397	7.37195e+06	-41839.1	1005.82	-29784.9	0.000000	0.000000	7.126450	388.375	NaN	0.000000	0.001675	0.001766	28.0816	89.0619	0.001784	49910.4	6.398470	169.298	385.93	1.110166	0.087641	0.087410	388.375	49910.4	0.081805	0.215396	1803.07	98252.9
705	2.000000	1.120316	7.37195e+06	-41839.1	1005.82	-29784.9	0.000000	0.000000	7.139598	466.952	NaN	0.000000	0.001688	0.001767	28.0819	98.6452	0.001822	54137.3	5.085723	170.472	460.855	1.120018	0.097560	0.097263	466.952	54137.3	0.091091	0.260312	1793.82	96944.4
705	2.000000	1.124917	7.37195e+06	-41839.1	1005.82	-29784.9	0.000000	0.000000	7.145711	503.718	NaN	0.000000	0.001742	0.001823	28.0828	101.568	0.001789	56783.2	5.319685	-10.0064	503.841	1.124489	0.102161	0.101734	503.718	56783.2	0.095508	0.283067	1779.5	97509.8