File: remote_trans/data/nanoindenter/0828-1/data/Data_2025-08-06,11h17m57s/2025-07-22_16-23-58_1_1066.txt
2025-07-22, 16:23:58, 1
Index	Phase	Displacement	Time	Pos X	Pos Y	Pos Z	Rot A	Rot B	Piezo Z	Force A	Force B	Gripper	Voltage A	Voltage B	Temperature	Amplitude force	Amplitude pos	Stiffness	Phase shift	Phase excitation	Force A raw	Displacement raw	HMax	HMax raw	Real Force	Real Stiffness	Contact Depth	Area	Hardness	Reduced Mod.
[#]	[#]	[um]	[s]	[um]	[um]	[um]	[m°]	[m°]	[um]	[uN]	[uN]	[V]	[V]	[V]	[°C]	[uN]	[um]	[N/m]	[°]	[°]	[uN]	[um]	[um]	[um]	[uN]	[N/m]	[um]	[um^2]	[MPa]	[MPa]
1066	1.000000	0.002813	7.37547e+06	-53439.1	1055.82	-29746.2	0.000000	0.000000	6.002804	-0.002590	NaN	0.000000	0.001545	0.001716	28.0825	0.051161	0.000816	62.6928	-90.7228	-165.885	-0.028103	0.001522	-1.146483	-1.147774	-0.002590	62.6928	-1.146452	-2.105004E+15	1.230256E-18	NaN
1066	1.000000	0.044781	7.37547e+06	-53439.1	1055.82	-29746.2	0.000000	0.000000	6.044773	0.018292	NaN	0.000000	0.001514	0.001689	28.0831	0.055088	0.001833	30.0464	-78.0234	14.0203	0.054721	0.043392	-1.104515	-1.105904	0.018292	30.0464	-1.104972	-5.845267E+14	-3.129411E-17	NaN
1066	1.000000	0.086757	7.37547e+06	-53439.1	1055.82	-29746.2	0.000000	0.000000	6.086748	-0.010880	NaN	0.000000	0.001554	0.001736	28.0827	0.055893	0.001964	28.4645	-31.3757	-163.312	0.007992	0.085511	-1.062539	-1.063785	-0.010880	28.4645	-1.062253	-1.559879E+14	6.974878E-17	NaN
1066	1.000000	0.128770	7.37547e+06	-53439.1	1055.82	-29746.2	0.000000	0.000000	6.128764	0.069445	NaN	0.000000	0.001582	0.001696	28.0821	0.088330	0.001898	46.5341	-73.6732	13.3732	0.082646	0.127433	-1.020526	-1.021863	0.069445	46.5341	-1.021645	-4.436979E+13	-1.565134E-15	NaN
1066	1.000000	0.170801	7.37547e+06	-53439.1	1055.82	-29746.2	0.000000	0.000000	6.170795	0.066156	NaN	0.000000	0.001605	0.001733	28.0814	0.080445	0.002095	38.3985	-124.892	-163.212	0.014851	0.169510	-0.978495	-0.979786	0.066156	38.3985	-0.979787	-1.212102E+13	-5.457932E-15	NaN
1066	1.000000	0.212813	7.37547e+06	-53439.1	1055.82	-29746.2	0.000000	0.000000	6.212803	-0.016051	NaN	0.000000	0.001573	0.001713	28.0813	0.074562	0.002000	37.2776	-172.683	13.2468	-0.015744	0.211469	-0.936483	-0.937827	-0.016051	37.2776	-0.936161	-3.128479E+12	5.130744E-15	NaN
1066	1.000000	0.254855	7.37548e+06	-53439.1	1055.82	-29746.2	0.000000	0.000000	6.254846	-0.000636	NaN	0.000000	0.001561	0.001701	28.0818	0.093341	0.002077	44.9412	-22.6193	-161.869	-0.060556	0.253578	-0.894441	-0.895718	-0.000636	44.9412	-0.894431	-8.546796E+11	7.442511E-16	NaN
1066	1.000000	0.296846	7.37548e+06	-53439.1	1055.82	-29746.2	0.000000	0.000000	6.296838	0.032756	NaN	0.000000	0.001568	0.001665	28.0826	0.017945	0.001882	9.532825	-26.0499	15.6268	0.016541	0.295509	-0.852450	-0.853787	0.032756	9.532825	-0.855027	-2.505008E+11	-1.307636E-13	NaN
1066	1.000000	0.338901	7.37548e+06	-53439.1	1055.82	-29746.2	0.000000	0.000000	6.338893	0.023732	NaN	0.000000	0.001556	0.001728	28.0825	0.149480	0.002048	72.9742	12.7114	-165.003	0.058932	0.337541	-0.810395	-0.811755	0.023732	72.9742	-0.810639	-6.269594E+10	-3.785311E-13	NaN
1066	1.000000	0.380872	7.37548e+06	-53439.1	1055.82	-29746.2	0.000000	0.000000	6.380866	0.060386	NaN	0.000000	0.001527	0.001651	28.0827	0.090240	0.002174	41.5154	-57.2532	14.8802	0.038814	0.379529	-0.768424	-0.769767	0.060386	41.5154	-0.769515	-1.732656E+10	-3.485185E-12	NaN
1066	1.000000	0.422905	7.37548e+06	-53439.1	1055.82	-29746.2	0.000000	0.000000	6.422898	0.024493	NaN	0.000000	0.001497	0.001705	28.0824	0.052604	0.002016	26.0928	24.4816	-165.748	0.042077	0.421604	-0.726391	-0.727692	0.024493	26.0928	-0.727095	-4.583615E+9	-5.343498E-12	NaN
1066	1.000000	0.464920	7.37548e+06	-53439.1	1055.82	-29746.2	0.000000	0.000000	6.464913	0.039761	NaN	0.000000	0.001556	0.001676	28.0812	0.092730	0.002000	46.3716	-37.9158	12.632	-0.061366	0.463561	-0.684376	-0.685735	0.039761	46.3716	-0.685019	-1.221347E+9	-3.255484E-11	NaN
1066	1.000000	0.506940	7.37548e+06	-53439.1	1055.82	-29746.2	0.000000	0.000000	6.506935	0.079829	NaN	0.000000	0.001587	0.001644	28.0815	0.029457	0.001962	15.0159	-78.8819	-161.379	-0.016466	0.505620	-0.642356	-0.643676	0.079829	15.0159	-0.646343	-3.608265E+8	-2.212384E-10	NaN
1066	1.000000	0.548978	7.37548e+06	-53439.1	1055.82	-29746.2	0.000000	0.000000	6.548968	-0.036254	NaN	0.000000	0.001586	0.001689	28.0813	0.013316	0.001996	6.673025	-125.758	16.2886	0.018228	0.547675	-0.600318	-0.601622	-0.036254	6.673025	-0.596243	-7.391078E+7	4.905126E-10	NaN
1066	1.000000	0.590988	7.37548e+06	-53439.1	1055.82	-29746.2	0.000000	0.000000	6.590980	0.026934	NaN	0.000000	0.001529	0.001709	28.0826	0.065028	0.001848	35.1891	68.478	-165.523	0.091476	0.589633	-0.558308	-0.559663	0.026934	35.1891	-0.558882	-2.253779E+7	-1.195053E-9	NaN
1066	1.000000	0.633015	7.37548e+06	-53439.1	1055.82	-29746.2	0.000000	0.000000	6.633007	-9.802039E-5	NaN	0.000000	0.001525	0.001680	28.0827	0.011998	0.002046	5.865228	-2.131272	14.9489	-0.012294	0.631656	-0.516281	-0.517640	-9.802039E-5	5.865228	-0.516268	-5.77673e+06	1.696814E-11	NaN
1066	1.000000	0.675026	7.37548e+06	-53439.1	1055.82	-29746.2	0.000000	0.000000	6.675019	0.046282	NaN	0.000000	0.001510	0.001675	28.0824	0.020576	0.001944	10.5855	-28.2658	-164.841	0.062500	0.673698	-0.474270	-0.475598	0.046282	10.5855	-0.477549	-1.66423e+06	-2.781000E-8	NaN
1066	1.000000	0.717043	7.37548e+06	-53439.1	1055.82	-29746.2	0.000000	0.000000	6.717035	0.020631	NaN	0.000000	0.001507	0.001655	28.0811	0.014967	0.002006	7.462516	-6.593883	15.6459	0.000303	0.715644	-0.432253	-0.433652	0.020631	7.462516	-0.434326	-410423	-5.026737E-8	NaN
1066	1.000000	0.759045	7.37548e+06	-53439.1	1055.82	-29746.2	0.000000	0.000000	6.759034	-0.048646	NaN	0.000000	0.001527	0.001684	28.0811	0.050272	0.001975	25.4491	162.668	-163.379	-0.028166	0.757748	-0.390251	-0.391548	-0.048646	25.4491	-0.388818	-92523.4	5.257649E-7	NaN
1066	1.000000	0.801081	7.37548e+06	-53439.1	1055.82	-29746.2	0.000000	0.000000	6.801074	0.053690	NaN	0.000000	0.001492	0.001713	28.0812	0.058332	0.001834	31.8006	38.2394	12.8345	0.144004	0.799735	-0.348215	-0.349561	0.053690	31.8006	-0.349482	-25088.7	-2.140026E-6	NaN
1066	1.000000	0.843089	7.37548e+06	-53439.1	1055.82	-29746.2	0.000000	0.000000	6.843079	-0.020706	NaN	0.000000	0.001475	0.001693	28.0823	0.039166	0.002045	19.1543	21.5608	-167.231	-0.036733	0.841813	-0.306207	-0.307483	-0.020706	19.1543	-0.305396	-5660.24	3.658199E-6	NaN
1066	1.000000	0.885095	7.37548e+06	-53439.1	1055.82	-29746.2	0.000000	0.000000	6.885087	0.039623	NaN	0.000000	0.001466	0.001688	28.0822	0.028555	0.002119	13.4748	-151.783	14.9029	-0.007326	0.883766	-0.264201	-0.265530	0.039623	13.4748	-0.266407	-1468.41	-2.698350E-5	NaN
1066	1.000000	0.927115	7.37548e+06	-53439.1	1055.82	-29746.2	0.000000	0.000000	6.927109	0.054900	NaN	0.000000	0.001520	0.001653	28.0824	0.026857	0.001901	14.13	96.4169	-168.391	0.002470	0.925826	-0.222181	-0.223470	0.054900	14.13	-0.225095	-334.843	-0.000164	NaN
1066	1.000000	0.969128	7.37548e+06	-53439.1	1055.82	-29746.2	0.000000	0.000000	6.969121	0.057162	NaN	0.000000	0.001558	0.001709	28.0823	0.037544	0.001948	19.2693	44.0005	12.765	0.016909	0.967789	-0.180168	-0.181507	0.057162	19.2693	-0.182393	-67.0028	-0.000853	NaN
1066	1.000000	1.011167	7.37548e+06	-53439.1	1055.82	-29746.2	0.000000	0.000000	7.011163	0.115496	NaN	0.000000	0.001539	0.001683	28.0813	0.108551	0.001953	55.5838	-67.3173	-162.812	0.140938	1.009813	-0.138129	-0.139483	0.115496	55.5838	-0.139688	-11.6707	-0.009896	NaN
1066	1.000000	1.053182	7.37548e+06	-53439.1	1055.82	-29746.2	0.000000	0.000000	7.053172	-0.012333	NaN	0.000000	0.001516	0.001686	28.0813	0.070772	0.002136	33.1365	87.7528	16.4019	-0.000783	1.051819	-0.096114	-0.097477	-0.012333	33.1365	-0.095835	-1.473678	0.008369	NaN
1066	1.000000	1.095154	7.37548e+06	-53439.1	1055.82	-29746.2	0.000000	0.000000	7.095146	0.005786	NaN	0.000000	0.001522	0.001670	28.0812	0.027295	0.002112	12.9249	45.3218	-163.476	-0.062693	1.093864	-0.054142	-0.055432	0.005786	12.9249	-0.054478	-0.124273	-0.046555	NaN
1066	1.000000	1.137207	7.37548e+06	-53439.1	1055.82	-29746.2	0.000000	0.000000	7.137260	1.505619	NaN	0.000000	0.001543	0.001712	28.0824	1.491165	0.002024	736.608	9.039424	15.2712	0.998204	1.135843	-0.012089	-0.013453	1.505619	736.608	-0.013622	-0.008463	-177.915	NaN
1066	2.000000	1.161737	7.37548e+06	-53439.1	1055.82	-29746.2	0.000000	0.000000	7.162331	14.6568	NaN	0.000000	0.001515	0.001680	28.0826	10.7766	0.001694	6360.14	1.929025	-168.783	13.8411	1.161484	0.012441	0.012188	14.6568	6360.14	0.010713	0.009984	1467.98	58154.2
1066	2.000000	1.172272	7.37548e+06	-53439.1	1055.82	-29746.2	0.000000	0.000000	7.173534	30.8829	NaN	0.000000	0.001483	0.001664	28.082	21.7724	0.001700	12806.7	3.533491	5.595451	31.0584	1.171917	0.022976	0.022621	30.8829	12806.7	0.021168	0.024411	1265.15	74889.8
1066	2.000000	1.182656	7.37548e+06	-53439.1	1055.82	-29746.2	0.000000	0.000000	7.185248	63.2196	NaN	0.000000	0.001583	0.001672	28.0813	32.8105	0.001735	18909	3.285637	-178.203	61.3134	1.182395	0.033360	0.033099	63.2196	18909	0.030853	0.042530	1486.48	83771.3
1066	2.000000	1.193164	7.37548e+06	-53439.1	1055.82	-29746.2	0.000000	0.000000	7.197994	117.644	NaN	0.000000	0.001539	0.001667	28.0816	43.1191	0.001709	25234.1	4.703883	-1.246804	116.091	1.192771	0.043868	0.043475	117.644	25234.1	0.040371	0.064991	1810.16	90434.8
1066	2.000000	1.203754	7.37548e+06	-53439.1	1055.82	-29746.2	0.000000	0.000000	7.211204	181.334	NaN	0.000000	0.001564	0.001663	28.0816	54.4531	0.001814	30013.8	2.960910	179.585	183.248	1.203373	0.054458	0.054077	181.334	30013.8	0.049927	0.092186	1967.04	90315.1
1066	2.000000	1.214203	7.37548e+06	-53439.1	1055.82	-29746.2	0.000000	0.000000	7.224425	248.748	NaN	0.000000	0.001532	0.001664	28.0826	64.7616	0.001844	35115.9	1.926959	-1.598643	250.209	1.213932	0.064907	0.064635	248.748	35115.9	0.059594	0.124356	2000.29	90979.6
1066	2.000000	1.224609	7.37548e+06	-53439.1	1055.82	-29746.2	0.000000	0.000000	7.238612	340.653	NaN	0.000000	0.001496	0.001673	28.0827	74.0771	0.001775	41740.4	4.492114	174.437	338.193	1.224291	0.075313	0.074995	340.653	41740.4	0.069192	0.160819	2118.25	95096
1066	2.000000	1.235150	7.37548e+06	-53439.1	1055.82	-29746.2	0.000000	0.000000	7.252947	432.891	NaN	0.000000	0.001520	0.001683	28.0825	82.7977	0.001719	48170.2	2.325561	-4.719455	430.304	1.234842	0.085854	0.085546	432.891	48170.2	0.079114	0.203126	2131.14	97649.1
1066	2.000000	1.245532	7.37548e+06	-53439.1	1055.82	-29746.2	0.000000	0.000000	7.268293	553.586	NaN	0.000000	0.001525	0.001686	28.0826	93.0453	0.001755	53023.4	2.439162	174.764	548.831	1.245184	0.096236	0.095888	553.586	53023.4	0.088406	0.246916	2242	97491.3
1066	2.000000	1.254481	7.37548e+06	-53439.1	1055.82	-29746.2	0.000000	0.000000	7.281680	661.507	NaN	0.000000	0.001558	0.001650	28.0811	102.503	0.001814	56497.7	4.884830	171.421	655.461	1.254198	0.105185	0.104902	661.507	56497.7	0.096403	0.287787	2298.6	96220.7