File: remote_trans/data/nanoindenter/0828-1/data/Data_2025-08-06,11h17m57s/2025-07-22_16-23-58_1_289.txt
2025-07-22, 16:23:58, 1
Index	Phase	Displacement	Time	Pos X	Pos Y	Pos Z	Rot A	Rot B	Piezo Z	Force A	Force B	Gripper	Voltage A	Voltage B	Temperature	Amplitude force	Amplitude pos	Stiffness	Phase shift	Phase excitation	Force A raw	Displacement raw	HMax	HMax raw	Real Force	Real Stiffness	Contact Depth	Area	Hardness	Reduced Mod.
[#]	[#]	[um]	[s]	[um]	[um]	[um]	[m°]	[m°]	[um]	[uN]	[uN]	[V]	[V]	[V]	[°C]	[uN]	[um]	[N/m]	[°]	[°]	[uN]	[um]	[um]	[um]	[uN]	[N/m]	[um]	[um^2]	[MPa]	[MPa]
289	1.000000	0.002771	7.36788e+06	-53089.1	955.819	-29747.1	0.000000	0.000000	6.002807	-0.009704	NaN	0.000000	0.001624	0.001739	28.0785	0.065910	0.001022	64.4697	115.703	-164.505	-0.005127	0.001526	-1.737934	-1.739180	-0.009704	64.4697	-1.737821	-1.617201E+23	6.000735E-26	NaN
289	1.000000	0.060750	7.36788e+06	-53089.1	955.818	-29747.1	0.000000	0.000000	6.060785	0.001192	NaN	0.000000	0.001652	0.001678	28.0773	0.058523	0.001943	30.1208	-35.6959	19.1221	0.009803	0.059377	-1.679956	-1.681329	0.001192	30.1208	-1.679986	-2.757627E+22	-4.323507E-26	NaN
289	1.000000	0.118717	7.36788e+06	-53089.1	955.817	-29747	0.000000	0.000000	6.118757	0.081662	NaN	0.000000	0.001608	0.001714	28.0766	0.094734	0.002011	47.1063	139.267	-165.221	0.114202	0.117424	-1.621988	-1.623282	0.081662	47.1063	-1.623289	-4.863223E+21	-1.679174E-23	NaN
289	1.000000	0.176763	7.36788e+06	-53089.1	955.818	-29747	0.000000	0.000000	6.176802	0.080057	NaN	0.000000	0.001632	0.001659	28.0783	0.050176	0.002039	24.6143	61.2827	14.7643	0.094037	0.175371	-1.563943	-1.565334	0.080057	24.6143	-1.566382	-8.511465E+20	-9.405819E-23	NaN
289	1.000000	0.234797	7.36788e+06	-53089.1	955.818	-29747	0.000000	0.000000	6.234836	0.086874	NaN	0.000000	0.001637	0.001658	28.0787	0.043794	0.002047	21.3906	3.645121	-165.946	0.002345	0.233475	-1.505909	-1.507231	0.086874	21.3906	-1.508955	-1.464101E+20	-5.933599E-22	NaN
289	1.000000	0.292808	7.36788e+06	-53089.1	955.819	-29747	0.000000	0.000000	6.292845	0.026662	NaN	0.000000	0.001675	0.001672	28.0784	0.120073	0.001932	62.1584	176.247	17.0249	0.112534	0.291460	-1.447898	-1.449246	0.026662	62.1584	-1.448220	-2.272064E+19	-1.173451E-21	NaN
289	1.000000	0.350859	7.36788e+06	-53089.1	955.818	-29747	0.000000	0.000000	6.350896	0.029393	NaN	0.000000	0.001625	0.001693	28.0774	0.057677	0.002011	28.6854	-83.1961	-165.405	-0.036742	0.349473	-1.389846	-1.391233	0.029393	28.6854	-1.390615	-3.874971E+18	-7.585408E-21	NaN
289	1.000000	0.408888	7.36788e+06	-53089.1	955.817	-29747	0.000000	0.000000	6.408924	-0.001049	NaN	0.000000	0.001648	0.001724	28.077	0.134868	0.001940	69.5319	-60.3154	15.4791	-0.001048	0.407509	-1.331818	-1.333197	-0.001049	69.5319	-1.331807	-6.357690E+17	1.650640E-21	NaN
289	1.000000	0.466878	7.36788e+06	-53089.1	955.819	-29747	0.000000	0.000000	6.466915	0.007969	NaN	0.000000	0.001661	0.001714	28.0785	0.012261	0.002049	5.984339	-72.3727	-165.032	0.045281	0.465573	-1.273827	-1.275133	0.007969	5.984339	-1.274826	-1.101332E+17	-7.235576E-20	NaN
289	1.000000	0.524893	7.36788e+06	-53089.1	955.817	-29747	0.000000	0.000000	6.524934	0.127729	NaN	0.000000	0.001690	0.001731	28.0785	0.033720	0.001899	17.7526	-135.669	16.5349	0.105852	0.523557	-1.215813	-1.217149	0.127729	17.7526	-1.221209	-2.111976E+16	-6.047854E-18	NaN
289	1.000000	0.582933	7.36788e+06	-53089.1	955.818	-29747	0.000000	0.000000	6.582968	-0.004240	NaN	0.000000	0.001622	0.001683	28.0769	0.058909	0.001941	30.357	-6.466987	-166.625	0.019819	0.581633	-1.157773	-1.159073	-0.004240	30.357	-1.157668	-2.975898E+15	1.424782E-18	NaN
289	1.000000	0.640958	7.36788e+06	-53089.1	955.819	-29747	0.000000	0.000000	6.640994	0.011481	NaN	0.000000	0.001615	0.001693	28.0773	0.079972	0.001944	41.1409	167.226	17.7481	0.015944	0.639617	-1.099748	-1.101088	0.011481	41.1409	-1.099958	-5.006087E+14	-2.293339E-17	NaN
289	1.000000	0.698963	7.36788e+06	-53089.1	955.819	-29747	0.000000	0.000000	6.698998	-0.020861	NaN	0.000000	0.001628	0.001693	28.0769	0.100862	0.001936	52.1026	-43.9293	-160.225	0.084496	0.697681	-1.041743	-1.043025	-0.020861	52.1026	-1.041442	-8.191441E+13	2.546698E-16	NaN
289	1.000000	0.757025	7.36788e+06	-53089.1	955.818	-29747	0.000000	0.000000	6.757060	-0.013679	NaN	0.000000	0.001599	0.001655	28.0782	0.057498	0.001957	29.3754	-156.632	14.2619	0.004832	0.755634	-0.983681	-0.985072	-0.013679	29.3754	-0.983332	-1.353001E+13	1.011035E-15	NaN
289	1.000000	0.815015	7.36788e+06	-53089.1	955.819	-29747	0.000000	0.000000	6.815053	0.033851	NaN	0.000000	0.001634	0.001670	28.0782	0.018357	0.002182	8.414646	127.872	-163.165	0.091901	0.813754	-0.925690	-0.926952	0.033851	8.414646	-0.928708	-2.481729E+12	-1.364008E-14	NaN
289	1.000000	0.873087	7.36788e+06	-53089.1	955.818	-29747	0.000000	0.000000	6.873123	-0.001063	NaN	0.000000	0.001601	0.001659	28.0771	0.070734	0.002013	35.1362	33.8148	14.7472	0.062260	0.871765	-0.867619	-0.868941	-0.001063	35.1362	-0.867596	-3.706121E+11	2.868929E-15	NaN
289	1.000000	0.931101	7.36789e+06	-53089.1	955.818	-29747	0.000000	0.000000	6.931139	0.065224	NaN	0.000000	0.001642	0.001673	28.0773	0.066891	0.001950	34.297	-80.3939	-164.04	0.061352	0.929817	-0.809605	-0.810888	0.065224	34.297	-0.811031	-6.346937E+10	-1.027646E-12	NaN
289	1.000000	0.989087	7.36789e+06	-53089.1	955.819	-29747	0.000000	0.000000	6.989124	0.036394	NaN	0.000000	0.001635	0.001672	28.0786	0.081558	0.001911	42.674	-20.3547	16.1775	-0.007731	0.987747	-0.751619	-0.752958	0.036394	42.674	-0.752259	-1.009166E+10	-3.606350E-12	NaN
289	1.000000	1.047122	7.36789e+06	-53089.1	955.819	-29747	0.000000	0.000000	7.047157	-0.026803	NaN	0.000000	0.001655	0.001700	28.0785	0.059789	0.001948	30.6889	66.6388	-165.443	-0.015295	1.045829	-0.693584	-0.694876	-0.026803	30.6889	-0.692929	-1.566539E+9	1.710939E-11	NaN
289	1.000000	1.105153	7.36789e+06	-53089.1	955.819	-29747	0.000000	0.000000	7.105185	-0.084673	NaN	0.000000	0.001623	0.001676	28.0784	0.137490	0.001988	69.1474	-168.834	16.1304	-0.020452	1.103789	-0.635553	-0.636917	-0.084673	69.1474	-0.634634	-2.492610E+8	3.396956E-10	NaN
289	1.000000	1.163163	7.36789e+06	-53089.1	955.818	-29747	0.000000	0.000000	7.163201	0.041310	NaN	0.000000	0.001631	0.001650	28.0773	0.089950	0.002057	43.7309	143.986	-168.922	-0.045410	1.161873	-0.577542	-0.578833	0.041310	43.7309	-0.578251	-4.174298E+7	-9.896252E-10	NaN
289	1.000000	1.221165	7.36789e+06	-53089.1	955.818	-29747	0.000000	0.000000	7.221203	0.052240	NaN	0.000000	0.001617	0.001671	28.0778	0.085152	0.002199	38.7167	147.052	12.6704	0.055250	1.219803	-0.519541	-0.520903	0.052240	38.7167	-0.520553	-6.62648e+06	-7.883501E-9	NaN
289	1.000000	1.279224	7.36789e+06	-53089.1	955.82	-29747	0.000000	0.000000	7.279262	0.043308	NaN	0.000000	0.001673	0.001663	28.0787	0.104148	0.002019	51.5841	-166.606	-170.022	-0.076391	1.277912	-0.461482	-0.462794	0.043308	51.5841	-0.462112	-1.01085e+06	-4.284289E-8	NaN
289	1.000000	1.337222	7.36789e+06	-53089.1	955.82	-29747	0.000000	0.000000	7.337261	0.066127	NaN	0.000000	0.001694	0.001685	28.0786	0.053075	0.002049	25.9002	141.322	12.7432	0.037766	1.335862	-0.403483	-0.404844	0.066127	25.9002	-0.405398	-159558	-4.144364E-7	NaN
289	1.000000	1.395277	7.36789e+06	-53089.1	955.82	-29747	0.000000	0.000000	7.395317	0.089214	NaN	0.000000	0.001683	0.001652	28.0772	0.079167	0.002075	38.148	147.42	-166.488	0.101393	1.393948	-0.345429	-0.346758	0.089214	38.148	-0.347183	-23232.1	-3.840102E-6	NaN
289	1.000000	1.453282	7.36789e+06	-53089.1	955.821	-29747	0.000000	0.000000	7.453319	0.007339	NaN	0.000000	0.001682	0.001673	28.0774	0.065053	0.001925	33.7906	-103.097	13.5076	0.054437	1.451916	-0.287423	-0.288789	0.007339	33.7906	-0.287586	-3069.81	-2.390718E-6	NaN
289	1.000000	1.511368	7.36789e+06	-53089.1	955.821	-29747	0.000000	0.000000	7.511406	0.033418	NaN	0.000000	0.001656	0.001646	28.0777	0.133942	0.001846	72.5489	-22.3623	-164.006	0.124409	1.509979	-0.229337	-0.230727	0.033418	72.5489	-0.229683	-395.831	-8.442599E-5	NaN
289	1.000000	1.569369	7.36789e+06	-53089.1	955.822	-29747	0.000000	0.000000	7.569406	0.027511	NaN	0.000000	0.001611	0.001678	28.0788	0.065510	0.002056	31.8617	-154.467	13.1923	0.057450	1.568034	-0.171337	-0.172672	0.027511	31.8617	-0.171984	-44.4626	-0.000619	NaN
289	1.000000	1.627368	7.36789e+06	-53089.1	955.821	-29747	0.000000	0.000000	7.627407	0.091244	NaN	0.000000	0.001606	0.001661	28.0789	0.129076	0.002069	62.3979	44.1089	-169.817	0.029350	1.626037	-0.113338	-0.114669	0.091244	62.3979	-0.114435	-3.719105	-0.024534	NaN
289	1.000000	1.685400	7.36789e+06	-53089.1	955.821	-29747	0.000000	0.000000	7.685442	0.136096	NaN	0.000000	0.001617	0.001647	28.0775	0.124400	0.002039	61.0082	-12.9379	13.4504	0.064550	1.684079	-0.055305	-0.056627	0.136096	61.0082	-0.056979	-0.147231	-0.924369	NaN
289	1.000000	1.743407	7.36789e+06	-53089.1	955.821	-29747	0.000000	0.000000	7.743496	1.284134	NaN	0.000000	0.001576	0.001627	28.0775	1.884361	0.002029	928.856	13.9786	-172.833	0.425443	1.742130	0.002702	0.001424	1.284134	928.856	0.001665	0.001286	998.929	23669.2
289	2.000000	1.763410	7.36789e+06	-53089.1	955.822	-29747	0.000000	0.000000	7.764660	29.5165	NaN	0.000000	0.001593	0.001648	28.0777	21.4447	0.001781	12043.2	1.016644	6.753756	28.3854	1.763063	0.022704	0.022357	29.5165	12043.2	0.020866	0.023921	1233.9	71141.7
289	2.000000	1.777850	7.36789e+06	-53089.1	955.821	-29747	0.000000	0.000000	7.780614	66.3224	NaN	0.000000	0.001644	0.001637	28.0786	35.3289	0.001823	19383.4	7.274018	174.791	64.9558	1.777537	0.037145	0.036831	66.3224	19383.4	0.034578	0.050769	1306.36	78596.9
289	2.000000	1.792430	7.36789e+06	-53089.1	955.821	-29747	0.000000	0.000000	7.797029	110.947	NaN	0.000000	0.001576	0.001714	28.0785	48.122	0.001735	27736.8	9.023497	-9.416230	114.173	1.792050	0.051725	0.051345	110.947	27736.8	0.048725	0.088512	1253.47	85178.3
289	2.000000	1.806794	7.36789e+06	-53089.1	955.822	-29747	0.000000	0.000000	7.813955	173.222	NaN	0.000000	0.001609	0.001685	28.0772	60.3521	0.001776	33989.3	2.500907	175.921	171.328	1.806589	0.066088	0.065883	173.222	33989.3	0.062266	0.134060	1292.13	84813.6
289	2.000000	1.821284	7.36789e+06	-53089.1	955.822	-29747	0.000000	0.000000	7.831612	250.225	NaN	0.000000	0.001604	0.001715	28.077	72.2662	0.001834	39413.8	1.808324	-4.291728	246.143	1.820956	0.080579	0.080250	250.225	39413.8	0.075817	0.188553	1327.08	82928.8
289	2.000000	1.835789	7.36789e+06	-53089.1	955.821	-29747	0.000000	0.000000	7.849564	334.038	NaN	0.000000	0.001580	0.001719	28.0785	84.0551	0.001711	49133.7	3.454897	172.223	334.32	1.835464	0.095084	0.094759	334.038	49133.7	0.089985	0.254753	1311.22	88939.1
289	2.000000	1.849238	7.36789e+06	-53089.1	955.821	-29747	0.000000	0.000000	7.866945	429.635	NaN	0.000000	0.001603	0.001690	28.0785	98.032	0.001822	53791.6	7.842863	-12.5602	425.562	1.848805	0.108532	0.108099	429.635	53791.6	0.102542	0.321138	1337.85	86724.5