File: remote_trans/data/nanoindenter/0828-1/data/Data_2025-08-06,11h17m57s/2025-07-22_16-23-58_1_739.txt
2025-07-22, 16:23:58, 1
Index	Phase	Displacement	Time	Pos X	Pos Y	Pos Z	Rot A	Rot B	Piezo Z	Force A	Force B	Gripper	Voltage A	Voltage B	Temperature	Amplitude force	Amplitude pos	Stiffness	Phase shift	Phase excitation	Force A raw	Displacement raw	HMax	HMax raw	Real Force	Real Stiffness	Contact Depth	Area	Hardness	Reduced Mod.
[#]	[#]	[um]	[s]	[um]	[um]	[um]	[m°]	[m°]	[um]	[uN]	[uN]	[V]	[V]	[V]	[°C]	[uN]	[um]	[N/m]	[°]	[°]	[uN]	[um]	[um]	[um]	[uN]	[N/m]	[um]	[um^2]	[MPa]	[MPa]
739	1.000000	0.002118	7.37228e+06	-40139.1	1005.82	-29791	0.000000	0.000000	6.002724	0.014524	NaN	0.000000	0.001581	0.001678	28.0843	0.048902	0.001056	46.287	-115.566	175.673	0.065218	0.000904	-1.109527	-1.110742	0.014524	46.287	-1.109763	-6.778004E+14	-2.142852E-17	NaN
739	1.000000	0.044090	7.37228e+06	-40139.1	1005.82	-29791	0.000000	0.000000	6.044699	0.091418	NaN	0.000000	0.001562	0.001669	28.0847	0.073569	0.001926	38.197	171.993	-1.020119	0.068526	0.042703	-1.067555	-1.068943	0.091418	38.197	-1.069350	-1.942950E+14	-4.705095E-16	NaN
739	1.000000	0.086107	7.37228e+06	-40139.1	1005.82	-29791	0.000000	0.000000	6.086710	-0.045518	NaN	0.000000	0.001599	0.001637	28.0849	0.023572	0.001923	12.2569	131.106	177.798	0.012487	0.084782	-1.025539	-1.026864	-0.045518	12.2569	-1.022754	-4.591989E+13	9.912391E-16	NaN
739	1.000000	0.128106	7.37228e+06	-40139.1	1005.82	-29791	0.000000	0.000000	6.128709	-0.032421	NaN	0.000000	0.001570	0.001691	28.0833	0.071233	0.002064	34.5177	89.716	-3.673024	-0.022116	0.126711	-0.983540	-0.984935	-0.032421	34.5177	-0.982835	-1.332306E+13	2.433464E-15	NaN
739	1.000000	0.170129	7.37228e+06	-40139.1	1005.82	-29791.1	0.000000	0.000000	6.170735	0.034412	NaN	0.000000	0.001585	0.001683	28.0835	0.065499	0.001954	33.5145	61.3852	177.122	0.007865	0.168825	-0.941517	-0.942821	0.034412	33.5145	-0.942287	-3.784360E+12	-9.093242E-15	NaN
739	1.000000	0.212162	7.37228e+06	-40139.1	1005.82	-29791.1	0.000000	0.000000	6.212767	0.022538	NaN	0.000000	0.001557	0.001662	28.0837	0.086679	0.002102	41.2342	-117.212	-1.996516	0.031513	0.210762	-0.899484	-0.900884	0.022538	41.2342	-0.899894	-1.013051E+12	-2.224726E-14	NaN
739	1.000000	0.254191	7.37228e+06	-40139.1	1005.82	-29791.1	0.000000	0.000000	6.254795	0.000350	NaN	0.000000	0.001613	0.001645	28.0847	0.067553	0.002024	33.3769	31.0546	177.49	-0.048571	0.252888	-0.857455	-0.858758	0.000350	33.3769	-0.857463	-2.702568E+11	-1.293304E-15	NaN
739	1.000000	0.296176	7.37228e+06	-40139.1	1005.82	-29791.1	0.000000	0.000000	6.296781	0.018819	NaN	0.000000	0.001565	0.001694	28.0848	0.123726	0.001939	63.8045	87.6745	-2.846535	0.050063	0.294845	-0.815470	-0.816801	0.018819	63.8045	-0.815691	-7.341269E+10	-2.563511E-13	NaN
739	1.000000	0.338182	7.37228e+06	-40139.1	1005.82	-29791.1	0.000000	0.000000	6.338787	0.012063	NaN	0.000000	0.001575	0.001669	28.0847	0.072423	0.001974	36.6836	169.146	179.801	0.108345	0.336914	-0.773464	-0.774732	0.012063	36.6836	-0.773710	-1.975826E+10	-6.105070E-13	NaN
739	1.000000	0.380204	7.37228e+06	-40139.1	1005.82	-29791.1	0.000000	0.000000	6.380809	0.012213	NaN	0.000000	0.001563	0.001623	28.0835	0.105904	0.001989	53.2566	103.997	-5.629567	-0.054538	0.378832	-0.731442	-0.732814	0.012213	53.2566	-0.731614	-5.282041E+9	-2.312200E-12	NaN
739	1.000000	0.422223	7.37228e+06	-40139.1	1005.82	-29791.1	0.000000	0.000000	6.422828	0.007320	NaN	0.000000	0.001560	0.001652	28.0834	0.082125	0.002068	39.7046	39.0825	178.738	-0.006166	0.420840	-0.689422	-0.690805	0.007320	39.7046	-0.689561	-1.409007E+9	-5.194954E-12	NaN
739	1.000000	0.464249	7.37228e+06	-40139.1	1005.82	-29791.1	0.000000	0.000000	6.464853	-0.018798	NaN	0.000000	0.001544	0.001696	28.0832	0.085358	0.002082	40.9941	131.708	-3.605366	-0.000174	0.462916	-0.647397	-0.648730	-0.018798	40.9941	-0.647053	-3.690018E+8	5.094204E-11	NaN
739	1.000000	0.506276	7.37228e+06	-40139.1	1005.82	-29791.1	0.000000	0.000000	6.506881	-0.010915	NaN	0.000000	0.001588	0.001688	28.0846	0.035779	0.002111	16.9468	35.2325	174.873	-0.016280	0.504948	-0.605369	-0.606698	-0.010915	16.9468	-0.604886	-9.721623E+7	1.122708E-10	NaN
739	1.000000	0.548288	7.37228e+06	-40139.1	1005.82	-29791.1	0.000000	0.000000	6.548891	-0.045827	NaN	0.000000	0.001553	0.001685	28.0844	0.084458	0.002071	40.7906	145.739	-2.133987	-0.085814	0.546944	-0.563358	-0.564702	-0.045827	40.7906	-0.562515	-2.530256E+7	1.811174E-9	NaN
739	1.000000	0.590267	7.37229e+06	-40139.1	1005.82	-29791.1	0.000000	0.000000	6.590874	0.066253	NaN	0.000000	0.001590	0.001647	28.0845	0.072509	0.001933	37.5122	119.383	171.714	0.015062	0.588995	-0.521379	-0.522651	0.066253	37.5122	-0.522703	-7.09885e+06	-9.332961E-9	NaN
739	1.000000	0.632320	7.37229e+06	-40139.1	1005.82	-29791.1	0.000000	0.000000	6.632926	0.022871	NaN	0.000000	0.001627	0.001679	28.0845	0.087905	0.001916	45.8857	-135.608	-3.596605	-0.002088	0.630934	-0.479326	-0.480712	0.022871	45.8857	-0.479700	-1.7837e+06	-1.282250E-8	NaN
739	1.000000	0.674340	7.37229e+06	-40139.1	1005.82	-29791.1	0.000000	0.000000	6.674947	0.062935	NaN	0.000000	0.001647	0.001707	28.0834	0.091534	0.001937	47.2542	-55.9404	178.268	0.060171	0.673007	-0.437306	-0.438639	0.062935	47.2542	-0.438305	-467125	-1.347293E-7	NaN
739	1.000000	0.716351	7.37229e+06	-40139.1	1005.82	-29791.1	0.000000	0.000000	6.716952	-0.101744	NaN	0.000000	0.001647	0.001672	28.0833	0.116246	0.002124	54.735	-111.891	-6.323474	-0.208516	0.715015	-0.395294	-0.396631	-0.101744	54.735	-0.393900	-109377	9.302174E-7	NaN
739	1.000000	0.758372	7.37229e+06	-40139.1	1005.82	-29791.1	0.000000	0.000000	6.758978	0.017583	NaN	0.000000	0.001627	0.001680	28.0833	0.049493	0.002122	23.3188	-114.782	174.135	-0.065837	0.757066	-0.353273	-0.354579	0.017583	23.3188	-0.353839	-29018.6	-6.059314E-7	NaN
739	1.000000	0.800399	7.37229e+06	-40139.1	1005.82	-29791.1	0.000000	0.000000	6.801004	0.018358	NaN	0.000000	0.001666	0.001643	28.0845	0.131511	0.001988	66.1411	-139.601	-4.230212	0.043500	0.799039	-0.311247	-0.312607	0.018358	66.1411	-0.311455	-6959.52	-2.637767E-6	NaN
739	1.000000	0.842437	7.37229e+06	-40139.1	1005.82	-29791.1	0.000000	0.000000	6.843044	0.057903	NaN	0.000000	0.001675	0.001631	28.0846	0.038431	0.001906	20.1669	171.417	177.745	0.120501	0.841099	-0.269209	-0.270546	0.057903	20.1669	-0.271362	-1746.77	-3.314869E-5	NaN
739	1.000000	0.884445	7.37229e+06	-40139.1	1005.82	-29791.1	0.000000	0.000000	6.885050	-0.002679	NaN	0.000000	0.001698	0.001669	28.0859	0.127315	0.001984	64.1688	-42.5642	-3.300514	0.071561	0.883112	-0.227201	-0.228534	-0.002679	64.1688	-0.227169	-361.199	7.417161E-6	NaN
739	1.000000	0.926422	7.37229e+06	-40139.1	1005.82	-29791.1	0.000000	0.000000	6.927026	-0.018824	NaN	0.000000	0.001635	0.001680	28.0836	0.124592	0.002071	60.172	118.996	-178.278	-0.044624	0.925179	-0.185223	-0.186466	-0.018824	60.172	-0.184989	-74.1213	0.000254	NaN
739	1.000000	0.968419	7.37229e+06	-40139.1	1005.82	-29791.1	0.000000	0.000000	6.969026	0.048292	NaN	0.000000	0.001681	0.001665	28.0836	0.028371	0.002168	13.085	44.8569	-5.724975	-0.105870	0.967097	-0.143227	-0.144548	0.048292	13.085	-0.145995	-15.2948	-0.003157	NaN
739	1.000000	1.010479	7.37229e+06	-40139.1	1005.82	-29791.1	0.000000	0.000000	7.011083	-0.019128	NaN	0.000000	0.001681	0.001682	28.0832	0.008298	0.002070	4.008324	164.107	179.772	0.059817	1.009176	-0.101167	-0.102469	-0.019128	4.008324	-0.097588	-1.614191	0.011850	NaN
739	1.000000	1.052468	7.37229e+06	-40139.1	1005.82	-29791.1	0.000000	0.000000	7.053072	-0.006374	NaN	0.000000	0.001643	0.001700	28.0844	0.110710	0.002015	54.9493	158.294	-2.493590	0.077683	1.051128	-0.059178	-0.060518	-0.006374	54.9493	-0.059091	-0.169564	0.037592	NaN
739	1.000000	1.094520	7.37229e+06	-40139.1	1005.82	-29791.1	0.000000	0.000000	7.095123	-0.032446	NaN	0.000000	0.001642	0.001687	28.0842	0.108768	0.002136	50.9184	170.475	176.855	-0.013830	1.093218	-0.017126	-0.018428	-0.032446	50.9184	-0.016648	-0.010287	3.154078	NaN
739	2.000000	1.121498	7.37229e+06	-40139.1	1005.82	-29791.1	0.000000	0.000000	7.122896	19.3067	NaN	0.000000	0.001667	0.001647	28.0842	15.8477	0.001687	9391.87	6.479073	-13.2966	17.5829	1.121173	0.009852	0.009527	19.3067	9391.87	0.008310	0.007363	2622.04	99997.9
739	2.000000	1.131957	7.37229e+06	-40139.1	1005.82	-29791.1	0.000000	0.000000	7.134498	47.1244	NaN	0.000000	0.001663	0.001723	28.0843	27.7059	0.001815	15269.1	3.973572	164.544	45.9603	1.131658	0.020311	0.020013	47.1244	15269.1	0.017996	0.019491	2417.73	99923.9
739	2.000000	1.142460	7.37229e+06	-40139.1	1005.82	-29791.1	0.000000	0.000000	7.146577	85.48	NaN	0.000000	0.001621	0.001699	28.0832	36.5309	0.001743	20958.6	4.204693	-17.7065	84.544	1.142061	0.030814	0.030415	85.48	20958.6	0.027755	0.036220	2360.04	100615
739	2.000000	1.152924	7.37229e+06	-40139.1	1005.82	-29791.1	0.000000	0.000000	7.159105	135.688	NaN	0.000000	0.001687	0.001727	28.0833	47.9219	0.001730	27697.5	5.317444	158.272	133.577	1.152585	0.041278	0.040939	135.688	27697.5	0.037604	0.057983	2340.12	105090
739	2.000000	1.163435	7.37229e+06	-40139.1	1005.82	-29791.1	0.000000	0.000000	7.171853	190.141	NaN	0.000000	0.001670	0.001709	28.0834	58.291	0.001849	31521.9	6.514809	-23.3028	189.885	1.163018	0.051789	0.051372	190.141	31521.9	0.047265	0.084148	2259.6	99280.6
739	2.000000	1.173914	7.37229e+06	-40139.1	1005.82	-29791.1	0.000000	0.000000	7.184965	254.195	NaN	0.000000	0.001647	0.001687	28.0847	68.4256	0.001753	39038.1	5.230675	155.762	250.903	1.173549	0.062268	0.061903	254.195	39038.1	0.057385	0.116597	2180.11	104452
739	2.000000	1.184308	7.37229e+06	-40139.1	1005.82	-29791.1	0.000000	0.000000	7.198461	329.687	NaN	0.000000	0.001647	0.001687	28.0844	79.2056	0.001784	44392.8	4.651993	-25.2502	324.563	1.184088	0.072662	0.072443	329.687	44392.8	0.067092	0.152461	2162.44	103874
739	2.000000	1.194859	7.37229e+06	-40139.1	1005.82	-29791.1	0.000000	0.000000	7.212634	417.835	NaN	0.000000	0.001658	0.001662	28.0844	89.3947	0.001765	50661	2.981494	155.097	414.762	1.194634	0.083213	0.082988	417.835	50661	0.077027	0.193843	2155.54	105129
739	2.000000	1.205300	7.37229e+06	-40139.1	1005.82	-29791.1	0.000000	0.000000	7.227124	516.346	NaN	0.000000	0.001625	0.001665	28.0833	98.9465	0.001774	55773	3.823525	-26.2559	510.879	1.204978	0.093655	0.093332	516.346	55773	0.086711	0.238631	2163.78	104312
739	2.000000	1.214819	7.37229e+06	-40139.1	1005.82	-29791.1	0.000000	0.000000	7.240359	606.786	NaN	0.000000	0.001687	0.001678	28.0831	108.371	0.001839	58928.2	5.191871	152.277	605.289	1.214635	0.103173	0.102989	606.786	58928.2	0.095450	0.282762	2145.92	101248