File: remote_trans/data/nanoindenter/0828-1/data/Data_2025-08-06,11h17m57s/2025-07-22_16-23-58_1_1094.txt
2025-07-22, 16:23:58, 1
Index	Phase	Displacement	Time	Pos X	Pos Y	Pos Z	Rot A	Rot B	Piezo Z	Force A	Force B	Gripper	Voltage A	Voltage B	Temperature	Amplitude force	Amplitude pos	Stiffness	Phase shift	Phase excitation	Force A raw	Displacement raw	HMax	HMax raw	Real Force	Real Stiffness	Contact Depth	Area	Hardness	Reduced Mod.
[#]	[#]	[um]	[s]	[um]	[um]	[um]	[m°]	[m°]	[um]	[uN]	[uN]	[V]	[V]	[V]	[°C]	[uN]	[um]	[N/m]	[°]	[°]	[uN]	[um]	[um]	[um]	[uN]	[N/m]	[um]	[um^2]	[MPa]	[MPa]
1094	1.000000	0.001834	7.37575e+06	-54839.1	1055.82	-29742.8	0.000000	0.000000	6.002785	-0.006740	NaN	0.000000	0.001708	0.001741	28.0838	0.085705	0.000930	92.1612	-151.483	-162.3	0.039518	0.000591	-1.024931	-1.026175	-0.006740	92.1612	-1.024876	-4.904068E+13	1.374290E-16	NaN
1094	1.000000	0.041804	7.37575e+06	-54839.1	1055.82	-29742.8	0.000000	0.000000	6.042753	-0.023662	NaN	0.000000	0.001714	0.001713	28.0823	0.068908	0.001935	35.6136	84.2938	-163.312	-0.023692	0.040459	-0.984962	-0.986306	-0.023662	35.6136	-0.984463	-1.401321E+13	1.688538E-15	NaN
1094	1.000000	0.081823	7.37575e+06	-54839.1	1055.82	-29742.8	0.000000	0.000000	6.082774	0.000872	NaN	0.000000	0.001739	0.001735	28.0825	0.113499	0.002070	54.8265	68.3147	-160.273	0.011955	0.080477	-0.944942	-0.946288	0.000872	54.8265	-0.944954	-4.111233E+12	-2.121006E-16	NaN
1094	1.000000	0.121831	7.37575e+06	-54839.1	1055.82	-29742.8	0.000000	0.000000	6.122780	-0.010223	NaN	0.000000	0.001739	0.001750	28.0821	0.068346	0.002097	32.5974	129.479	-164.704	-0.006742	0.120542	-0.904935	-0.906223	-0.010223	32.5974	-0.904700	-1.176429E+12	8.690046E-15	NaN
1094	1.000000	0.161852	7.37575e+06	-54839.1	1055.82	-29742.8	0.000000	0.000000	6.162802	-0.012394	NaN	0.000000	0.001669	0.001762	28.082	0.073603	0.002031	36.2419	64.1587	-165.088	0.049480	0.160551	-0.864914	-0.866214	-0.012394	36.2419	-0.864657	-3.381803E+11	3.665024E-14	NaN
1094	1.000000	0.201860	7.37575e+06	-54839.1	1055.82	-29742.8	0.000000	0.000000	6.202808	-0.080069	NaN	0.000000	0.001665	0.001772	28.0833	0.105389	0.002088	50.4694	-80.547	-162.487	-0.172920	0.200562	-0.824905	-0.826203	-0.080069	50.4694	-0.823715	-9.431627E+10	8.489415E-13	NaN
1094	1.000000	0.241888	7.37575e+06	-54839.1	1055.82	-29742.8	0.000000	0.000000	6.242839	0.018336	NaN	0.000000	0.001691	0.001736	28.0834	0.096177	0.001966	48.9085	158.88	-160.97	-0.047198	0.240535	-0.784877	-0.786230	0.018336	48.9085	-0.785158	-2.826955E+10	-6.486054E-13	NaN
1094	1.000000	0.281882	7.37575e+06	-54839.1	1055.82	-29742.8	0.000000	0.000000	6.282831	-0.024866	NaN	0.000000	0.001692	0.001748	28.0833	0.028987	0.001953	14.8454	126.252	-165.085	-0.030627	0.280608	-0.744884	-0.746157	-0.024866	14.8454	-0.743628	-7.699490E+9	3.229535E-12	NaN
1094	1.000000	0.321929	7.37575e+06	-54839.1	1055.82	-29742.8	0.000000	0.000000	6.322879	-0.011500	NaN	0.000000	0.001653	0.001764	28.0822	0.098707	0.002020	48.8556	-17.7977	-165.569	0.002491	0.320576	-0.704836	-0.706190	-0.011500	48.8556	-0.704660	-2.265445E+9	5.076397E-12	NaN
1094	1.000000	0.361913	7.37575e+06	-54839.1	1055.82	-29742.8	0.000000	0.000000	6.362863	-0.002155	NaN	0.000000	0.001664	0.001749	28.0825	0.024190	0.002002	12.0854	92.7854	-165.874	-0.058951	0.360631	-0.664853	-0.666135	-0.002155	12.0854	-0.664719	-6.443156E+8	3.345298E-12	NaN
1094	1.000000	0.401950	7.37576e+06	-54839.1	1055.82	-29742.8	0.000000	0.000000	6.402899	-0.036359	NaN	0.000000	0.001691	0.001741	28.0823	0.104089	0.001985	52.4344	69.8638	-167.872	0.028714	0.400717	-0.624816	-0.626049	-0.036359	52.4344	-0.624296	-1.797497E+8	2.022759E-10	NaN
1094	1.000000	0.441989	7.37576e+06	-54839.1	1055.82	-29742.8	0.000000	0.000000	6.442937	-0.059641	NaN	0.000000	0.001702	0.001720	28.0834	0.056456	0.002052	27.507	10.3214	-163.566	-0.063714	0.440643	-0.584776	-0.586122	-0.059641	27.507	-0.583150	-4.877472E+7	1.222775E-9	NaN
1094	1.000000	0.482007	7.37576e+06	-54839.1	1055.82	-29742.8	0.000000	0.000000	6.482957	0.009882	NaN	0.000000	0.001657	0.001745	28.0837	0.060153	0.001986	30.2859	59.4305	-166.908	0.000134	0.480684	-0.544759	-0.546082	0.009882	30.2859	-0.545004	-1.447867E+7	-6.825510E-10	NaN
1094	1.000000	0.522010	7.37576e+06	-54839.1	1055.82	-29742.8	0.000000	0.000000	6.522960	-0.005638	NaN	0.000000	0.001682	0.001733	28.0834	0.111183	0.001918	57.9725	-83.0095	-165.403	0.007267	0.520731	-0.504755	-0.506034	-0.005638	57.9725	-0.504683	-3.984e+06	1.415231E-9	NaN
1094	1.000000	0.562056	7.37576e+06	-54839.1	1055.82	-29742.8	0.000000	0.000000	6.563003	-0.083020	NaN	0.000000	0.001695	0.001750	28.0839	0.134643	0.002052	65.6162	89.4755	-167.086	-0.096043	0.560712	-0.464710	-0.466053	-0.083020	65.6162	-0.463761	-1.06622e+06	7.786346E-8	NaN
1094	1.000000	0.602021	7.37576e+06	-54839.1	1055.82	-29742.8	0.000000	0.000000	6.602969	-0.058067	NaN	0.000000	0.001678	0.001756	28.0819	0.053924	0.001933	27.9017	-65.6493	-164.359	-0.115209	0.600687	-0.424745	-0.426078	-0.058067	27.9017	-0.423184	-285467	2.034092E-7	NaN
1094	1.000000	0.642043	7.37576e+06	-54839.1	1055.82	-29742.8	0.000000	0.000000	6.642992	-0.034041	NaN	0.000000	0.001652	0.001740	28.0821	0.117850	0.001967	59.9033	-20.8344	-164.104	-0.056437	0.640734	-0.384723	-0.386031	-0.034041	59.9033	-0.384297	-79708.8	4.270640E-7	NaN
1094	1.000000	0.682083	7.37576e+06	-54839.1	1055.82	-29742.8	0.000000	0.000000	6.683032	-0.026227	NaN	0.000000	0.001681	0.001697	28.0823	0.015487	0.001901	8.145984	112.894	-166.663	-0.005891	0.680754	-0.344683	-0.346011	-0.026227	8.145984	-0.342268	-19705.9	1.330902E-6	NaN
1094	1.000000	0.722088	7.37576e+06	-54839.1	1055.82	-29742.8	0.000000	0.000000	6.723040	0.031552	NaN	0.000000	0.001657	0.001740	28.0833	0.030165	0.002048	14.7271	-127.232	-163.041	0.002662	0.720832	-0.304678	-0.305934	0.031552	14.7271	-0.306284	-5834.59	-5.407813E-6	NaN
1094	1.000000	0.762074	7.37576e+06	-54839.1	1055.82	-29742.8	0.000000	0.000000	6.763025	0.019031	NaN	0.000000	0.001701	0.001718	28.0831	0.059397	0.002048	29.0074	-177.992	-165.291	-0.028147	0.760798	-0.264692	-0.265967	0.019031	29.0074	-0.265184	-1406.67	-1.352891E-5	NaN
1094	1.000000	0.802113	7.37576e+06	-54839.1	1055.82	-29742.8	0.000000	0.000000	6.803063	-0.014594	NaN	0.000000	0.001720	0.001731	28.0832	0.063269	0.001896	33.3634	40.231	-166.387	0.025362	0.800776	-0.224652	-0.225989	-0.014594	33.3634	-0.224324	-325.536	4.483121E-5	NaN
1094	1.000000	0.842126	7.37576e+06	-54839.1	1055.82	-29742.8	0.000000	0.000000	6.843070	-0.162241	NaN	0.000000	0.001730	0.001763	28.0832	0.167705	0.001929	86.9499	13.2686	-166.549	-0.077394	0.840782	-0.184639	-0.185983	-0.162241	86.9499	-0.183240	-69.2494	0.002343	NaN
1094	1.000000	0.882130	7.37576e+06	-54839.1	1055.82	-29742.8	0.000000	0.000000	6.883081	-0.002757	NaN	0.000000	0.001688	0.001755	28.0821	0.005630	0.002086	2.699193	65.3595	-165.475	-0.006187	0.880816	-0.144635	-0.145950	-0.002757	2.699193	-0.143869	-13.9705	0.000197	NaN
1094	1.000000	0.922163	7.37576e+06	-54839.1	1055.82	-29742.8	0.000000	0.000000	6.923114	0.017666	NaN	0.000000	0.001608	0.001761	28.0823	0.138990	0.002059	67.4898	-69.6713	-165.971	0.010670	0.920903	-0.104602	-0.105863	0.017666	67.4898	-0.104799	-2.327153	-0.007591	NaN
1094	1.000000	0.962193	7.37576e+06	-54839.1	1055.82	-29742.8	0.000000	0.000000	6.963142	-0.038572	NaN	0.000000	0.001592	0.001725	28.0821	0.016173	0.001955	8.273070	173.245	-164.738	-0.044468	0.960807	-0.064573	-0.065959	-0.038572	8.273070	-0.061076	-0.193311	0.199534	NaN
1094	1.000000	1.002182	7.37576e+06	-54839.1	1055.82	-29742.8	0.000000	0.000000	7.003133	0.023980	NaN	0.000000	0.001667	0.001706	28.083	0.053503	0.002034	26.2981	-132.457	-167.662	0.041697	1.000915	-0.024584	-0.025850	0.023980	26.2981	-0.025268	-0.017145	-1.398665	NaN
1094	2.000000	1.034789	7.37576e+06	-54839.1	1055.82	-29742.8	0.000000	0.000000	7.036145	9.878350	NaN	0.000000	0.001644	0.001802	28.0829	11.025	0.001762	6255.33	5.278772	-169.297	9.727004	1.034468	0.008023	0.007703	9.878350	6255.33	0.006839	0.005875	1681.46	74563.1
1094	2.000000	1.044733	7.37576e+06	-54839.1	1055.82	-29742.8	0.000000	0.000000	7.046658	23.6851	NaN	0.000000	0.001659	0.001720	28.083	21.7601	0.001906	11418.5	8.389680	-177.954	22.955	1.044469	0.017968	0.017704	23.6851	11418.5	0.016412	0.017215	1375.84	79511.4
1094	2.000000	1.054674	7.37576e+06	-54839.1	1055.82	-29742.8	0.000000	0.000000	7.057801	52.8974	NaN	0.000000	0.001639	0.001753	28.0831	32.0933	0.001915	16758.3	8.005220	178.295	51.9066	1.054377	0.027909	0.027611	52.8974	16758.3	0.025541	0.032008	1652.63	85580.4
1094	2.000000	1.064669	7.37576e+06	-54839.1	1055.82	-29742.8	0.000000	0.000000	7.068791	77.0892	NaN	0.000000	0.001769	0.001694	28.0817	40.1206	0.001590	25230.1	3.483689	177.616	74.8842	1.064397	0.037904	0.037631	77.0892	25230.1	0.035612	0.053181	1449.57	99957.3
1094	2.000000	1.074679	7.37576e+06	-54839.1	1055.82	-29742.8	0.000000	0.000000	7.080269	112.778	NaN	0.000000	0.001707	0.001756	28.0819	50.8249	0.001852	27447.6	6.575697	174.908	113.089	1.074373	0.047914	0.047607	112.778	27447.6	0.044832	0.077112	1462.52	90306
1094	2.000000	1.084608	7.37576e+06	-54839.1	1055.82	-29742.8	0.000000	0.000000	7.092361	165.379	NaN	0.000000	0.001718	0.001760	28.0819	58.9917	0.001626	36271.8	2.805875	176.366	161.771	1.084257	0.057842	0.057491	165.379	36271.8	0.054422	0.106571	1551.81	101513
1094	2.000000	1.094682	7.37576e+06	-54839.1	1055.82	-29742.8	0.000000	0.000000	7.104669	219.662	NaN	0.000000	0.001649	0.001782	28.0833	70.316	0.001700	41369.6	2.611119	175.47	220.034	1.094331	0.067917	0.067565	219.662	41369.6	0.063934	0.140294	1565.73	100910
1094	2.000000	1.104621	7.37576e+06	-54839.1	1055.82	-29742.8	0.000000	0.000000	7.117163	281.787	NaN	0.000000	0.001712	0.001775	28.0833	80.1343	0.001788	44814.8	3.043882	174.172	282.394	1.104303	0.077856	0.077538	281.787	44814.8	0.073140	0.177096	1591.16	97295.2
1094	2.000000	1.114541	7.37576e+06	-54839.1	1055.82	-29742.8	0.000000	0.000000	7.130230	358.302	NaN	0.000000	0.001676	0.001722	28.0833	89.0473	0.001667	53432.7	6.386211	169.567	353.292	1.114167	0.087775	0.087402	358.302	53432.7	0.082746	0.219767	1630.37	104136
1094	2.000000	1.124573	7.37576e+06	-54839.1	1055.82	-29742.8	0.000000	0.000000	7.143445	435.652	NaN	0.000000	0.001706	0.001750	28.082	99.0158	0.001778	55693.5	6.865958	168.261	431.61	1.124230	0.097808	0.097465	435.652	55693.5	0.091941	0.264622	1646.32	98915.5
1094	2.000000	1.130705	7.37576e+06	-54839.1	1055.82	-29742.8	0.000000	0.000000	7.151445	481.08	NaN	0.000000	0.001657	0.001737	28.0821	105.81	0.001765	59934.3	4.746010	170.191	485.373	1.130276	0.103939	0.103510	481.08	59934.3	0.097919	0.295863	1626.02	100671