File: remote_trans/data/nanoindenter/0828-1/data/Data_2025-08-06,11h17m57s/2025-07-22_16-23-58_1_1114.txt
2025-07-22, 16:23:58, 1
Index	Phase	Displacement	Time	Pos X	Pos Y	Pos Z	Rot A	Rot B	Piezo Z	Force A	Force B	Gripper	Voltage A	Voltage B	Temperature	Amplitude force	Amplitude pos	Stiffness	Phase shift	Phase excitation	Force A raw	Displacement raw	HMax	HMax raw	Real Force	Real Stiffness	Contact Depth	Area	Hardness	Reduced Mod.
[#]	[#]	[um]	[s]	[um]	[um]	[um]	[m°]	[m°]	[um]	[uN]	[uN]	[V]	[V]	[V]	[°C]	[uN]	[um]	[N/m]	[°]	[°]	[uN]	[um]	[um]	[um]	[uN]	[N/m]	[um]	[um^2]	[MPa]	[MPa]
1114	1.000000	0.002783	7.37595e+06	-55839.1	1055.82	-29740.6	0.000000	0.000000	6.002775	0.023566	NaN	0.000000	0.001575	0.001706	28.0839	0.096428	0.000908	106.204	-149.865	-166.063	0.021439	0.001500	-1.039204	-1.040487	0.023566	106.204	-1.039371	-7.682572E+13	-3.067454E-16	NaN
1114	1.000000	0.042733	7.37595e+06	-55839.1	1055.82	-29740.6	0.000000	0.000000	6.042724	-0.021323	NaN	0.000000	0.001562	0.001687	28.0821	0.099389	0.001880	52.8593	75.0528	-162.253	0.038616	0.041453	-0.999254	-1.000534	-0.021323	52.8593	-0.998952	-2.196124E+13	9.709367E-16	NaN
1114	1.000000	0.082783	7.37595e+06	-55839.1	1055.82	-29740.6	0.000000	0.000000	6.082776	0.027294	NaN	0.000000	0.001536	0.001712	28.0823	0.091791	0.002049	44.8031	101.258	-166.072	0.069201	0.081444	-0.959204	-0.960544	0.027294	44.8031	-0.959661	-6.490830E+12	-4.204977E-15	NaN
1114	1.000000	0.122801	7.37595e+06	-55839.1	1055.82	-29740.6	0.000000	0.000000	6.122793	0.014958	NaN	0.000000	0.001511	0.001685	28.0825	0.028790	0.002022	14.2392	43.6348	-166.795	-0.042980	0.121511	-0.919187	-0.920476	0.014958	14.2392	-0.919975	-1.891749E+12	-7.907145E-15	NaN
1114	1.000000	0.162773	7.37595e+06	-55839.1	1055.82	-29740.6	0.000000	0.000000	6.162764	-0.018507	NaN	0.000000	0.001544	0.001722	28.0836	0.032980	0.002023	16.3027	-15.656	-166.888	0.043855	0.161489	-0.879214	-0.880499	-0.018507	16.3027	-0.878363	-5.182816E+11	3.570919E-14	NaN
1114	1.000000	0.202849	7.37595e+06	-55839.1	1055.82	-29740.6	0.000000	0.000000	6.202840	-0.009534	NaN	0.000000	0.001626	0.001727	28.0835	0.069937	0.002020	34.6234	131.332	-163.931	0.053061	0.201481	-0.839138	-0.840507	-0.009534	34.6234	-0.838932	-1.516427E+11	6.286991E-14	NaN
1114	1.000000	0.242816	7.37595e+06	-55839.1	1055.82	-29740.6	0.000000	0.000000	6.242808	0.001115	NaN	0.000000	0.001606	0.001723	28.0832	0.025440	0.002063	12.3324	-22.6753	-162.401	-0.005389	0.241554	-0.799171	-0.800434	0.001115	12.3324	-0.799239	-4.390708E+10	-2.539457E-14	NaN
1114	1.000000	0.282832	7.37595e+06	-55839.1	1055.82	-29740.6	0.000000	0.000000	6.282824	0.011893	NaN	0.000000	0.001551	0.001701	28.0834	0.111631	0.001806	61.8027	-124.877	-168.24	0.105605	0.281556	-0.759156	-0.760431	0.011893	61.8027	-0.759300	-1.258281E+10	-9.451883E-13	NaN
1114	1.000000	0.322887	7.37595e+06	-55839.1	1055.82	-29740.6	0.000000	0.000000	6.322878	-0.008291	NaN	0.000000	0.001528	0.001720	28.0823	0.092437	0.002062	44.8301	61.1247	-162.721	0.036662	0.321606	-0.719100	-0.720381	-0.008291	44.8301	-0.718962	-3.550681E+9	2.335017E-12	NaN
1114	1.000000	0.362907	7.37595e+06	-55839.1	1055.82	-29740.6	0.000000	0.000000	6.362900	0.045186	NaN	0.000000	0.001574	0.001737	28.0825	0.010614	0.001777	5.974064	89.9478	-164.641	-0.026474	0.361625	-0.679080	-0.680363	0.045186	5.974064	-0.684753	-1.211154E+9	-3.730815E-11	NaN
1114	1.000000	0.402857	7.37595e+06	-55839.1	1055.82	-29740.6	0.000000	0.000000	6.402850	0.040301	NaN	0.000000	0.001577	0.001742	28.0828	0.098824	0.001906	51.8574	-104.231	-166.745	0.012028	0.401588	-0.639130	-0.640399	0.040301	51.8574	-0.639713	-2.926547E+8	-1.377090E-10	NaN
1114	1.000000	0.442945	7.37595e+06	-55839.1	1055.82	-29740.6	0.000000	0.000000	6.442937	0.017693	NaN	0.000000	0.001563	0.001751	28.0837	0.060620	0.001977	30.6577	-124.552	-165.889	-0.018907	0.441575	-0.599043	-0.600412	0.017693	30.6577	-0.599476	-8.189131E+7	-2.160553E-10	NaN
1114	1.000000	0.482927	7.37595e+06	-55839.1	1055.82	-29740.6	0.000000	0.000000	6.482918	-0.003149	NaN	0.000000	0.001537	0.001797	28.0837	0.104066	0.002038	51.0542	-160.547	-168.013	0.005844	0.481676	-0.559060	-0.560312	-0.003149	51.0542	-0.559014	-2.263269E+7	1.391523E-10	NaN
1114	1.000000	0.522946	7.37595e+06	-55839.1	1055.82	-29740.6	0.000000	0.000000	6.522937	0.000424	NaN	0.000000	0.001555	0.001734	28.0837	0.098173	0.001920	51.1359	-26.8794	-161.95	0.102536	0.521654	-0.519042	-0.520334	0.000424	51.1359	-0.519048	-6.3148e+06	-6.718559E-11	NaN
1114	1.000000	0.563002	7.37595e+06	-55839.1	1055.82	-29740.6	0.000000	0.000000	6.562993	0.001480	NaN	0.000000	0.001579	0.001721	28.0836	0.041997	0.001988	21.1216	62.2766	-166.817	-0.024826	0.561746	-0.478985	-0.480242	0.001480	21.1216	-0.479038	-1.74606e+06	-8.478286E-10	NaN
1114	1.000000	0.603001	7.37595e+06	-55839.1	1055.82	-29740.6	0.000000	0.000000	6.602995	0.062245	NaN	0.000000	0.001541	0.001713	28.0825	0.160709	0.002116	75.9568	-77.1454	-162.57	-0.020819	0.601717	-0.438986	-0.440271	0.062245	75.9568	-0.439601	-487225	-1.277546E-7	NaN
1114	1.000000	0.643001	7.37595e+06	-55839.1	1055.82	-29740.6	0.000000	0.000000	6.642991	-0.029905	NaN	0.000000	0.001581	0.001731	28.0828	0.044737	0.002012	22.2358	-47.3014	-165.277	0.030581	0.641634	-0.398987	-0.400353	-0.029905	22.2358	-0.397978	-125069	2.391093E-7	NaN
1114	1.000000	0.683011	7.37595e+06	-55839.1	1055.82	-29740.6	0.000000	0.000000	6.683003	0.015950	NaN	0.000000	0.001607	0.001717	28.0827	0.106829	0.002028	52.6652	-70.4425	-167.657	0.113698	0.681702	-0.358976	-0.360285	0.015950	52.6652	-0.359203	-34699.7	-4.596558E-7	NaN
1114	1.000000	0.723026	7.37595e+06	-55839.1	1055.82	-29740.6	0.000000	0.000000	6.723016	-0.016164	NaN	0.000000	0.001609	0.001682	28.0837	0.090378	0.002028	44.5571	150.54	-164.623	-6.568868E-5	0.721722	-0.318962	-0.320265	-0.016164	44.5571	-0.318690	-8899.07	1.816326E-6	NaN
1114	1.000000	0.763037	7.37595e+06	-55839.1	1055.82	-29740.6	0.000000	0.000000	6.763029	0.022277	NaN	0.000000	0.001639	0.001713	28.0838	0.014140	0.002042	6.923580	-0.674701	-167.453	0.009686	0.761764	-0.278951	-0.280224	0.022277	6.923580	-0.281364	-2474.79	-9.001640E-6	NaN
1114	1.000000	0.803060	7.37595e+06	-55839.1	1055.82	-29740.6	0.000000	0.000000	6.803058	0.164440	NaN	0.000000	0.001611	0.001680	28.0837	0.114938	0.001956	58.7478	99.2579	-162.916	0.111132	0.801783	-0.238927	-0.240204	0.164440	58.7478	-0.241027	-596.459	-0.000276	NaN
1114	1.000000	0.843076	7.37595e+06	-55839.1	1055.82	-29740.6	0.000000	0.000000	6.843068	0.010062	NaN	0.000000	0.001639	0.001703	28.0824	0.124568	0.001981	62.8918	110.074	-170.352	0.057475	0.841740	-0.198912	-0.200247	0.010062	62.8918	-0.199032	-126.99	-7.923649E-5	NaN
1114	1.000000	0.883096	7.37595e+06	-55839.1	1055.82	-29740.6	0.000000	0.000000	6.883089	0.055490	NaN	0.000000	0.001590	0.001702	28.0827	0.015658	0.001919	8.159215	158.731	-165.051	0.056184	0.881814	-0.158892	-0.160174	0.055490	8.159215	-0.163993	-32.2549	-0.001720	NaN
1114	1.000000	0.923114	7.37595e+06	-55839.1	1055.82	-29740.6	0.000000	0.000000	6.923102	-0.080873	NaN	0.000000	0.001576	0.001723	28.0827	0.040393	0.001860	21.7209	24.7851	-166.085	0.002485	0.921769	-0.118874	-0.120218	-0.080873	21.7209	-0.116081	-4.021073	0.020112	NaN
1114	1.000000	0.963140	7.37595e+06	-55839.1	1055.82	-29740.6	0.000000	0.000000	6.963131	0.001971	NaN	0.000000	0.001659	0.001718	28.0829	0.019801	0.001994	9.931166	139.296	-165.624	0.002443	0.961794	-0.078848	-0.080194	0.001971	9.931166	-0.078996	-0.584122	-0.003374	NaN
1114	1.000000	1.003142	7.37595e+06	-55839.1	1055.82	-29740.6	0.000000	0.000000	7.003137	0.089161	NaN	0.000000	0.001625	0.001693	28.0839	0.087043	0.002137	40.7239	-125.332	-163.765	0.094269	1.001864	-0.038845	-0.040124	0.089161	40.7239	-0.040487	-0.046790	-1.905543	NaN
1114	1.000000	1.043135	7.37595e+06	-55839.1	1055.82	-29740.6	0.000000	0.000000	7.043292	4.041292	NaN	0.000000	0.001592	0.001716	28.0839	4.623786	0.001830	2526.84	13.8171	-168.22	2.918181	1.041778	0.001147	-0.000209	4.041292	2526.84	-5.221355E-5	-3.898032E-5	-103675	NaN
1114	2.000000	1.056746	7.37595e+06	-55839.1	1055.82	-29740.6	0.000000	0.000000	7.057437	17.0049	NaN	0.000000	0.001653	0.001745	28.0838	16.3443	0.001755	9315.25	3.913723	-171.771	16.6648	1.056475	0.014758	0.014487	17.0049	9315.25	0.013389	0.013197	1288.53	74084.6
1114	2.000000	1.066698	7.37595e+06	-55839.1	1055.82	-29740.6	0.000000	0.000000	7.068051	33.1059	NaN	0.000000	0.001682	0.001731	28.0826	25.7691	0.001960	13147.2	5.079185	-175.773	31.7318	1.066356	0.024711	0.024369	33.1059	13147.2	0.022822	0.027172	1218.38	72869.4
1114	2.000000	1.076668	7.37595e+06	-55839.1	1055.82	-29740.6	0.000000	0.000000	7.078897	54.3846	NaN	0.000000	0.001586	0.001706	28.0825	35.2307	0.001845	19090.2	4.627409	178.955	51.99	1.076464	0.034680	0.034476	54.3846	19090.2	0.032544	0.046181	1177.63	81161.7
1114	2.000000	1.086616	7.37595e+06	-55839.1	1055.82	-29740.6	0.000000	0.000000	7.090368	91.4187	NaN	0.000000	0.001535	0.001738	28.0823	44.6361	0.001814	24613.1	5.514622	176.896	88.707	1.086340	0.044629	0.044352	91.4187	24613.1	0.041843	0.068878	1327.26	85684.1
1114	2.000000	1.096723	7.37595e+06	-55839.1	1055.82	-29740.6	0.000000	0.000000	7.101820	124.103	NaN	0.000000	0.001548	0.001734	28.0822	55.2383	0.001892	29192.4	5.604885	173.73	125.732	1.096503	0.054735	0.054515	124.103	29192.4	0.051547	0.097255	1276.06	85523.8
1114	2.000000	1.106680	7.37595e+06	-55839.1	1055.82	-29740.6	0.000000	0.000000	7.113968	177.363	NaN	0.000000	0.001565	0.001735	28.0837	64.6832	0.001786	36216.9	4.298507	174.324	177.425	1.106327	0.064693	0.064339	177.363	36216.9	0.061020	0.129490	1369.71	91953.1
1114	2.000000	1.116670	7.37595e+06	-55839.1	1055.82	-29740.6	0.000000	0.000000	7.125851	223.369	NaN	0.000000	0.001583	0.001741	28.0838	73.67	0.001876	39263.2	4.734382	172.058	221.816	1.116478	0.074683	0.074491	223.369	39263.2	0.070416	0.165785	1347.34	88102.1
1114	2.000000	1.126676	7.37595e+06	-55839.1	1055.82	-29740.6	0.000000	0.000000	7.138804	295.022	NaN	0.000000	0.001589	0.001696	28.0838	81.9061	0.001774	46180.9	7.815320	168.924	296.337	1.126275	0.084689	0.084288	295.022	46180.9	0.079897	0.206663	1427.55	92811.9
1114	2.000000	1.136622	7.37595e+06	-55839.1	1055.82	-29740.6	0.000000	0.000000	7.151257	355.939	NaN	0.000000	0.001575	0.001706	28.0827	90.496	0.001849	48931.6	3.460313	172.814	354.764	1.136386	0.094635	0.094398	355.939	48931.6	0.089179	0.250741	1419.55	89279.2
1114	2.000000	1.146615	7.37595e+06	-55839.1	1055.82	-29740.6	0.000000	0.000000	7.164527	435.604	NaN	0.000000	0.001546	0.001714	28.0829	102.048	0.001807	56478.3	8.146722	166.926	435.356	1.146277	0.104628	0.104289	435.604	56478.3	0.098843	0.300838	1447.97	94078.1