File: remote_trans/data/nanoindenter/0828-1/data/Data_2025-08-06,11h17m57s/2025-07-22_16-23-58_1_1209.txt
2025-07-22, 16:23:58, 1
Index	Phase	Displacement	Time	Pos X	Pos Y	Pos Z	Rot A	Rot B	Piezo Z	Force A	Force B	Gripper	Voltage A	Voltage B	Temperature	Amplitude force	Amplitude pos	Stiffness	Phase shift	Phase excitation	Force A raw	Displacement raw	HMax	HMax raw	Real Force	Real Stiffness	Contact Depth	Area	Hardness	Reduced Mod.
[#]	[#]	[um]	[s]	[um]	[um]	[um]	[m°]	[m°]	[um]	[uN]	[uN]	[V]	[V]	[V]	[°C]	[uN]	[um]	[N/m]	[°]	[°]	[uN]	[um]	[um]	[um]	[uN]	[N/m]	[um]	[um^2]	[MPa]	[MPa]
1209	1.000000	0.002424	7.37687e+06	-55139.1	1105.82	-29740	0.000000	0.000000	6.002819	0.057124	NaN	0.000000	0.001573	0.001720	28.0841	0.057886	0.001096	52.8122	-137.385	-169.292	0.059929	0.001219	-1.245350	-1.246555	0.057124	52.8122	-1.246161	-4.555825E+16	-1.253874E-18	NaN
1209	1.000000	0.048378	7.37687e+06	-55139.1	1105.82	-29740	0.000000	0.000000	6.048772	0.026641	NaN	0.000000	0.001594	0.001698	28.0836	0.098451	0.002124	46.362	178.863	13.5077	0.076776	0.047037	-1.199395	-1.200737	0.026641	46.362	-1.199826	-1.092507E+16	-2.438484E-18	NaN
1209	1.000000	0.094343	7.37687e+06	-55139.1	1105.82	-29740	0.000000	0.000000	6.094738	0.061430	NaN	0.000000	0.001607	0.001703	28.0826	0.099072	0.002076	47.7329	11.0087	-167.316	0.033037	0.093093	-1.153431	-1.154681	0.061430	47.7329	-1.154396	-2.690030E+15	-2.283619E-17	NaN
1209	1.000000	0.140387	7.37687e+06	-55139.1	1105.82	-29740	0.000000	0.000000	6.140781	0.026000	NaN	0.000000	0.001562	0.001745	28.0824	0.174750	0.002037	85.7876	176.469	10.5134	0.075310	0.138997	-1.107387	-1.108776	0.026000	85.7876	-1.107614	-6.342573E+14	-4.099349E-17	NaN
1209	1.000000	0.186424	7.37687e+06	-55139.1	1105.82	-29740	0.000000	0.000000	6.186817	0.018617	NaN	0.000000	0.001570	0.001678	28.0823	0.049513	0.002070	23.9213	-165.805	-165.791	0.058522	0.185135	-1.061350	-1.062639	0.018617	23.9213	-1.061934	-1.544561E+14	-1.205332E-16	NaN
1209	1.000000	0.232430	7.37687e+06	-55139.1	1105.82	-29740	0.000000	0.000000	6.232825	0.058454	NaN	0.000000	0.001573	0.001714	28.0835	0.053843	0.002068	26.0308	-26.3866	16.131	-0.006421	0.231039	-1.015343	-1.016735	0.058454	26.0308	-1.017028	-3.845544E+13	-1.520056E-15	NaN
1209	1.000000	0.278450	7.37687e+06	-55139.1	1105.82	-29740	0.000000	0.000000	6.278843	0.011258	NaN	0.000000	0.001559	0.001721	28.0835	0.073387	0.001878	39.0859	-114.762	-165.331	-0.031465	0.277200	-0.969324	-0.970574	0.011258	39.0859	-0.969540	-8.819991E+12	-1.276443E-15	NaN
1209	1.000000	0.324474	7.37687e+06	-55139.1	1105.82	-29740	0.000000	0.000000	6.324867	-0.014916	NaN	0.000000	0.001594	0.001699	28.0836	0.102497	0.001987	51.5903	152.957	13.4752	-0.031867	0.323123	-0.923299	-0.924651	-0.014916	51.5903	-0.923082	-2.083639E+12	7.158435E-15	NaN
1209	1.000000	0.370520	7.37687e+06	-55139.1	1105.82	-29740	0.000000	0.000000	6.370914	0.034487	NaN	0.000000	0.001581	0.001689	28.0826	0.071244	0.001995	35.7148	-30.8435	-166.638	0.066406	0.369203	-0.877254	-0.878571	0.034487	35.7148	-0.877978	-5.121094E+11	-6.734276E-14	NaN
1209	1.000000	0.416500	7.37687e+06	-55139.1	1105.82	-29740	0.000000	0.000000	6.416893	0.000749	NaN	0.000000	0.001611	0.001727	28.0825	0.154417	0.001933	79.8986	107.534	13.1395	0.014405	0.415197	-0.831274	-0.832577	0.000749	79.8986	-0.831281	-1.194391E+11	-6.274971E-15	NaN
1209	1.000000	0.462524	7.37687e+06	-55139.1	1105.82	-29740	0.000000	0.000000	6.462920	0.077775	NaN	0.000000	0.001593	0.001721	28.0822	0.069405	0.001935	35.86	124.166	-167.119	0.098324	0.461245	-0.785250	-0.786529	0.077775	35.86	-0.786876	-2.983002E+10	-2.607260E-12	NaN
1209	1.000000	0.508581	7.37687e+06	-55139.1	1105.82	-29740	0.000000	0.000000	6.508971	-0.065639	NaN	0.000000	0.001583	0.001739	28.0839	0.027479	0.001961	14.0152	-149.932	13.7335	-0.082874	0.507170	-0.739193	-0.740604	-0.065639	14.0152	-0.735681	-6.000905E+9	1.093812E-11	NaN
1209	1.000000	0.554566	7.37687e+06	-55139.1	1105.82	-29740	0.000000	0.000000	6.554964	0.126168	NaN	0.000000	0.001587	0.001694	28.0837	0.050447	0.001861	27.1087	154.512	-163.544	0.042903	0.553258	-0.693208	-0.694516	0.126168	27.1087	-0.696699	-1.763769E+9	-7.153346E-11	NaN
1209	1.000000	0.600606	7.37687e+06	-55139.1	1105.82	-29740	0.000000	0.000000	6.600999	0.009066	NaN	0.000000	0.001584	0.001746	28.0835	0.055484	0.001982	27.9961	94.2646	15.4715	-0.047015	0.599277	-0.647168	-0.648497	0.009066	27.9961	-0.647411	-3.732009E+8	-2.429277E-11	NaN
1209	1.000000	0.646599	7.37687e+06	-55139.1	1105.82	-29740	0.000000	0.000000	6.646992	0.009413	NaN	0.000000	0.001572	0.001711	28.0821	0.091707	0.002069	44.3218	57.7513	-167.6	0.003375	0.645340	-0.601175	-0.602434	0.009413	44.3218	-0.601334	-8.686245E+7	-1.083623E-10	NaN
1209	1.000000	0.692647	7.37687e+06	-55139.1	1105.82	-29740	0.000000	0.000000	6.693041	0.030026	NaN	0.000000	0.001569	0.001663	28.0823	0.046741	0.001943	24.0529	140.859	15.7377	0.043132	0.691332	-0.555126	-0.556442	0.030026	24.0529	-0.556063	-2.060136E+7	-1.457481E-9	NaN
1209	1.000000	0.738641	7.37687e+06	-55139.1	1105.82	-29740	0.000000	0.000000	6.739033	-0.029231	NaN	0.000000	0.001535	0.001668	28.0823	0.124344	0.002009	61.9047	-63.8383	-161.224	0.015689	0.737285	-0.509132	-0.510489	-0.029231	61.9047	-0.508778	-4.54357e+06	6.433443E-9	NaN
1209	1.000000	0.784651	7.37687e+06	-55139.1	1105.82	-29740	0.000000	0.000000	6.785046	0.037691	NaN	0.000000	0.001606	0.001691	28.0836	0.046966	0.001918	24.4816	-35.7115	13.0687	0.038553	0.783310	-0.463123	-0.464464	0.037691	24.4816	-0.464277	-1.08418e+06	-3.476480E-8	NaN
1209	1.000000	0.830686	7.37687e+06	-55139.1	1105.82	-29740	0.000000	0.000000	6.831078	-0.019707	NaN	0.000000	0.001617	0.001711	28.0835	0.116566	0.001909	61.0658	-34.5767	-169.32	0.113105	0.829381	-0.417088	-0.418393	-0.019707	61.0658	-0.416846	-232091	8.491185E-8	NaN
1209	1.000000	0.876705	7.37687e+06	-55139.1	1105.82	-29740	0.000000	0.000000	6.877099	0.035331	NaN	0.000000	0.001611	0.001715	28.0836	0.036411	0.001999	18.2104	-16.5415	15.3781	0.070978	0.875308	-0.371069	-0.372466	0.035331	18.2104	-0.372524	-54008.4	-6.541812E-7	NaN
1209	1.000000	0.922708	7.37687e+06	-55139.1	1105.82	-29740	0.000000	0.000000	6.923101	0.012496	NaN	0.000000	0.001607	0.001698	28.0828	0.076894	0.002007	38.3045	73.6113	-165.9	-0.049715	0.921394	-0.325066	-0.326380	0.012496	38.3045	-0.325311	-11135.2	-1.122232E-6	NaN
1209	1.000000	0.968735	7.37687e+06	-55139.1	1105.82	-29740	0.000000	0.000000	6.969129	0.033444	NaN	0.000000	0.001586	0.001729	28.0823	0.046891	0.001860	25.2073	-141.097	13.8847	0.011701	0.967468	-0.279039	-0.280306	0.033444	25.2073	-0.280034	-2363.1	-1.415259E-5	NaN
1209	1.000000	1.014761	7.37687e+06	-55139.1	1105.82	-29740	0.000000	0.000000	7.015155	0.026974	NaN	0.000000	0.001576	0.001684	28.0823	0.029162	0.002019	14.4447	143.124	-170.529	-0.014061	1.013401	-0.233013	-0.234372	0.026974	14.4447	-0.234414	-469.935	-5.739983E-5	NaN
1209	1.000000	1.060766	7.37687e+06	-55139.1	1105.82	-29740	0.000000	0.000000	7.061158	-0.023142	NaN	0.000000	0.001602	0.001668	28.0838	0.017457	0.002034	8.583176	46.5056	14.1989	0.007667	1.059419	-0.187008	-0.188355	-0.023142	8.583176	-0.184986	-74.1131	0.000312	NaN
1209	1.000000	1.106804	7.37687e+06	-55139.1	1105.82	-29740	0.000000	0.000000	7.107195	-0.035053	NaN	0.000000	0.001602	0.001646	28.0837	0.056500	0.002037	27.7342	-82.7471	-168.166	-0.003025	1.105445	-0.140970	-0.142329	-0.035053	27.7342	-0.140022	-11.8408	0.002960	NaN
1209	1.000000	1.152820	7.37687e+06	-55139.1	1105.82	-29740	0.000000	0.000000	7.153212	-0.021410	NaN	0.000000	0.001563	0.001667	28.0836	0.075764	0.002070	36.5987	-19.5546	12.8978	-0.016236	1.151456	-0.094954	-0.096318	-0.021410	36.5987	-0.094515	-1.375167	0.015569	NaN
1209	1.000000	1.198837	7.37687e+06	-55139.1	1105.82	-29740	0.000000	0.000000	7.199229	-0.002702	NaN	0.000000	0.001563	0.001664	28.0823	0.171693	0.001992	86.1815	-176.185	-165.061	0.009281	1.197546	-0.048937	-0.050228	-0.002702	86.1815	-0.048914	-0.084591	0.031937	NaN
1209	1.000000	1.244835	7.37687e+06	-55139.1	1105.82	-29740	0.000000	0.000000	7.245305	1.874650	NaN	0.000000	0.001566	0.001652	28.0821	1.905623	0.001891	1007.72	15.5474	9.908310	1.320912	1.243506	-0.002939	-0.004268	1.874650	1007.72	-0.004334	-0.002994	-626.102	NaN
1209	2.000000	1.263277	7.37687e+06	-55139.1	1105.82	-29740	0.000000	0.000000	7.264465	19.3375	NaN	0.000000	0.001557	0.001627	28.0825	7.363103	0.001959	3758.46	5.435805	-168.209	19.0341	1.262951	0.015503	0.015177	19.3375	3758.46	0.011644	0.011067	1747.37	32641.9
1209	2.000000	1.274790	7.37687e+06	-55139.1	1105.82	-29740	0.000000	0.000000	7.276547	33.155	NaN	0.000000	0.001529	0.001629	28.0833	9.746389	0.001959	4974.26	6.686065	7.268901	32.763	1.274395	0.027017	0.026621	33.155	4974.26	0.022018	0.025812	1284.47	28287.1
1209	2.000000	1.286221	7.37687e+06	-55139.1	1105.82	-29740	0.000000	0.000000	7.288551	47.1103	NaN	0.000000	0.001615	0.001649	28.0834	11.2618	0.002036	5531.1	7.235933	-172.507	46.95	1.285932	0.038447	0.038158	47.1103	5531.1	0.032059	0.045119	1044.13	23790.5
1209	2.000000	1.297736	7.37687e+06	-55139.1	1105.82	-29740	0.000000	0.000000	7.300637	60.9793	NaN	0.000000	0.001629	0.001617	28.0834	13.2368	0.001929	6861.52	9.522137	2.782470	60.9304	1.297370	0.049962	0.049596	60.9793	6861.52	0.043297	0.072826	837.327	23230
1209	2.000000	1.309199	7.37687e+06	-55139.1	1105.82	-29740	0.000000	0.000000	7.312858	79.405	NaN	0.000000	0.001599	0.001644	28.0822	14.7951	0.001965	7527.89	5.757382	-173.904	79.9221	1.308903	0.061425	0.061130	79.405	7527.89	0.053514	0.103583	766.584	21369.9
1209	2.000000	1.320709	7.37687e+06	-55139.1	1105.82	-29740	0.000000	0.000000	7.325234	100.452	NaN	0.000000	0.001566	0.001644	28.0822	16.7925	0.001953	8599.87	7.629305	2.591730	100.278	1.320380	0.072935	0.072606	100.452	8599.87	0.064174	0.141201	711.407	20909.6
1209	2.000000	1.332194	7.37687e+06	-55139.1	1105.82	-29740	0.000000	0.000000	7.337705	124.439	NaN	0.000000	0.001556	0.001682	28.0836	18.518	0.002019	9171.38	8.231965	-178.546	123.856	1.331832	0.084420	0.084059	124.439	9171.38	0.074244	0.181778	684.567	19653.4
1209	2.000000	1.343686	7.37687e+06	-55139.1	1105.82	-29740	0.000000	0.000000	7.350311	151.505	NaN	0.000000	0.001574	0.001629	28.0835	20.5068	0.001975	10381.1	5.941187	2.559677	150.442	1.343294	0.095912	0.095520	151.505	10381.1	0.084966	0.230239	658.033	19766.3
1209	2.000000	1.352628	7.37687e+06	-55139.1	1105.82	-29740	0.000000	0.000000	7.360238	175.459	NaN	0.000000	0.001559	0.001695	28.0842	22.2174	0.002031	10936.8	7.375398	1.718239	173.505	1.352205	0.104854	0.104431	175.459	10936.8	0.092822	0.269123	651.965	19261.5