File: remote_trans/data/nanoindenter/0828-1/data/Data_2025-08-06,11h17m57s/2025-07-22_16-23-58_1_122.txt
2025-07-22, 16:23:58, 1
Index	Phase	Displacement	Time	Pos X	Pos Y	Pos Z	Rot A	Rot B	Piezo Z	Force A	Force B	Gripper	Voltage A	Voltage B	Temperature	Amplitude force	Amplitude pos	Stiffness	Phase shift	Phase excitation	Force A raw	Displacement raw	HMax	HMax raw	Real Force	Real Stiffness	Contact Depth	Area	Hardness	Reduced Mod.
[#]	[#]	[um]	[s]	[um]	[um]	[um]	[m°]	[m°]	[um]	[uN]	[uN]	[V]	[V]	[V]	[°C]	[uN]	[um]	[N/m]	[°]	[°]	[uN]	[um]	[um]	[um]	[uN]	[N/m]	[um]	[um^2]	[MPa]	[MPa]
122	1.000000	0.002559	7.36623e+06	-44739.1	955.819	-29775.3	0.000000	0.000000	6.002714	-0.065088	NaN	0.000000	0.001582	0.001766	28.1026	0.087932	0.000994	88.4818	-95.4385	176.828	-0.084572	0.001291	-1.049792	-1.051060	-0.065088	88.4818	-1.049240	-1.042806E+14	6.241588E-16	NaN
122	1.000000	0.042528	7.36623e+06	-44739.1	955.819	-29775.3	0.000000	0.000000	6.042687	0.006464	NaN	0.000000	0.001591	0.001765	28.1001	0.082148	0.001948	42.1727	157.158	175.831	-0.014752	0.041244	-1.009823	-1.011106	0.006464	42.1727	-1.009938	-3.087047E+13	-2.093992E-16	NaN
122	1.000000	0.082542	7.36623e+06	-44739.1	955.818	-29775.3	0.000000	0.000000	6.082701	0.019703	NaN	0.000000	0.001551	0.001705	28.0995	0.068597	0.002103	32.6193	134.103	178.17	-0.062482	0.081288	-0.969809	-0.971063	0.019703	32.6193	-0.970262	-9.019679E+12	-2.184455E-15	NaN
122	1.000000	0.122554	7.36623e+06	-44739.1	955.818	-29775.3	0.000000	0.000000	6.122714	0.036700	NaN	0.000000	0.001580	0.001764	28.0982	0.062237	0.001953	31.8611	170.253	175.415	-0.000740	0.121200	-0.929797	-0.931151	0.036700	31.8611	-0.930661	-2.637017E+12	-1.391723E-14	NaN
122	1.000000	0.162579	7.36623e+06	-44739.1	955.819	-29775.3	0.000000	0.000000	6.162733	-0.096800	NaN	0.000000	0.001627	0.001724	28.0999	0.060271	0.001971	30.5821	-105.348	174.055	-0.099752	0.161256	-0.889772	-0.891094	-0.096800	30.5821	-0.887398	-6.866599E+11	1.409725E-13	NaN
122	1.000000	0.202571	7.36623e+06	-44739.1	955.818	-29775.4	0.000000	0.000000	6.202731	0.031182	NaN	0.000000	0.001595	0.001757	28.1011	0.090633	0.001976	45.8625	-32.9488	173.712	0.037471	0.201252	-0.849780	-0.851099	0.031182	45.8625	-0.850290	-2.161046E+11	-1.442932E-13	NaN
122	1.000000	0.242575	7.36623e+06	-44739.1	955.818	-29775.4	0.000000	0.000000	6.242734	0.000175	NaN	0.000000	0.001580	0.001762	28.101	0.031241	0.001843	16.9551	-7.334724	173.369	-0.017952	0.241306	-0.809775	-0.811045	0.000175	16.9551	-0.809783	-6.104179E+10	-2.871525E-15	NaN
122	1.000000	0.282630	7.36623e+06	-44739.1	955.818	-29775.4	0.000000	0.000000	6.282789	0.011600	NaN	0.000000	0.001600	0.001750	28.1004	0.040857	0.002055	19.8862	-55.5422	179.208	0.076674	0.281296	-0.769720	-0.771055	0.011600	19.8862	-0.770158	-1.767874E+10	-6.561654E-13	NaN
122	1.000000	0.322647	7.36623e+06	-44739.1	955.819	-29775.4	0.000000	0.000000	6.322804	-0.033494	NaN	0.000000	0.001643	0.001760	28.099	0.011068	0.001932	5.728398	105.369	172.72	-0.109117	0.321359	-0.729704	-0.730992	-0.033494	5.728398	-0.725319	-4.335111E+9	7.726155E-12	NaN
122	1.000000	0.362664	7.36623e+06	-44739.1	955.818	-29775.4	0.000000	0.000000	6.362823	0.009693	NaN	0.000000	0.001664	0.001747	28.0983	0.049371	0.002015	24.5042	-24.1553	178.458	-0.020912	0.361343	-0.689686	-0.691007	0.009693	24.5042	-0.689983	-1.427861E+9	-6.788743E-12	NaN
122	1.000000	0.402684	7.36623e+06	-44739.1	955.819	-29775.4	0.000000	0.000000	6.402845	0.067652	NaN	0.000000	0.001596	0.001755	28.099	0.082945	0.002191	37.8587	5.610452	174.56	0.053379	0.401340	-0.649667	-0.651010	0.067652	37.8587	-0.651007	-4.180606E+8	-1.618232E-10	NaN
122	1.000000	0.442703	7.36623e+06	-44739.1	955.819	-29775.4	0.000000	0.000000	6.442860	-0.030358	NaN	0.000000	0.001582	0.001790	28.0997	0.089274	0.002078	42.9678	-94.5724	177.155	0.009710	0.441431	-0.609648	-0.610920	-0.030358	42.9678	-0.609118	-1.111683E+8	2.730818E-10	NaN
122	1.000000	0.482749	7.36623e+06	-44739.1	955.818	-29775.4	0.000000	0.000000	6.482903	-0.100280	NaN	0.000000	0.001537	0.001752	28.1	0.051776	0.002101	24.6384	122.784	178.375	-0.089503	0.481395	-0.569602	-0.570955	-0.100280	24.6384	-0.566549	-2.877025E+7	3.485539E-9	NaN
122	1.000000	0.522705	7.36623e+06	-44739.1	955.818	-29775.4	0.000000	0.000000	6.522864	0.003941	NaN	0.000000	0.001567	0.001754	28.0991	0.074885	0.002149	34.8418	2.473786	174.061	-0.022195	0.521387	-0.529645	-0.530964	0.003941	34.8418	-0.529730	-8.88846e+06	-4.434329E-10	NaN
122	1.000000	0.562748	7.36623e+06	-44739.1	955.818	-29775.4	0.000000	0.000000	6.562906	-0.021454	NaN	0.000000	0.001579	0.001745	28.0962	0.036976	0.001922	19.2422	-146.309	174.354	0.025906	0.561377	-0.489602	-0.490973	-0.021454	19.2422	-0.488766	-2.38864e+06	8.981689E-9	NaN
122	1.000000	0.602774	7.36623e+06	-44739.1	955.819	-29775.4	0.000000	0.000000	6.602931	-0.039827	NaN	0.000000	0.001572	0.001741	28.0968	0.073156	0.001864	39.2517	54.6753	175.141	-0.024305	0.601492	-0.449577	-0.450858	-0.039827	39.2517	-0.448816	-657157	6.060542E-8	NaN
122	1.000000	0.642794	7.36623e+06	-44739.1	955.818	-29775.4	0.000000	0.000000	6.642950	-0.069901	NaN	0.000000	0.001612	0.001769	28.0966	0.036396	0.002050	17.7581	-128.996	175.97	-0.090236	0.641434	-0.409557	-0.410916	-0.069901	17.7581	-0.406604	-165993	4.211070E-7	NaN
122	1.000000	0.682797	7.36623e+06	-44739.1	955.819	-29775.4	0.000000	0.000000	6.682953	-0.076597	NaN	0.000000	0.001614	0.001756	28.0968	0.066799	0.001869	35.7496	130.209	175.497	-0.083049	0.681440	-0.369553	-0.370911	-0.076597	35.7496	-0.367946	-46402.5	1.650699E-6	NaN
122	1.000000	0.722810	7.36623e+06	-44739.1	955.818	-29775.4	0.000000	0.000000	6.722967	-0.030968	NaN	0.000000	0.001665	0.001746	28.0976	0.028426	0.001941	14.6439	72.1789	173.905	0.025997	0.721467	-0.329541	-0.330884	-0.030968	14.6439	-0.327955	-12175.4	2.543486E-6	NaN
122	1.000000	0.762811	7.36623e+06	-44739.1	955.819	-29775.4	0.000000	0.000000	6.762970	0.011421	NaN	0.000000	0.001595	0.001787	28.0978	0.054482	0.002064	26.398	164.233	174.766	-0.010664	0.761491	-0.289540	-0.290860	0.011421	26.398	-0.289865	-3321.04	-3.438962E-6	NaN
122	1.000000	0.802850	7.36623e+06	-44739.1	955.819	-29775.4	0.000000	0.000000	6.803005	-0.077357	NaN	0.000000	0.001569	0.001760	28.0967	0.086014	0.001958	43.9367	47.5939	175.346	-0.100571	0.801497	-0.249501	-0.250854	-0.077357	43.9367	-0.248181	-770.555	0.000100	NaN
122	1.000000	0.842848	7.36623e+06	-44739.1	955.819	-29775.4	0.000000	0.000000	6.843003	-0.086276	NaN	0.000000	0.001609	0.001736	28.0963	0.086553	0.001972	43.8916	154.749	179.447	-0.048899	0.841567	-0.209503	-0.210784	-0.086276	43.8916	-0.208028	-178.174	0.000484	NaN
122	1.000000	0.882895	7.36623e+06	-44739.1	955.818	-29775.4	0.000000	0.000000	6.883051	-0.081238	NaN	0.000000	0.001608	0.001750	28.0966	0.015349	0.001922	7.986770	97.2905	174.552	-0.101405	0.881531	-0.169455	-0.170820	-0.081238	7.986770	-0.161827	-29.5374	0.002750	NaN
122	1.000000	0.922892	7.36623e+06	-44739.1	955.818	-29775.4	0.000000	0.000000	6.923049	-0.020635	NaN	0.000000	0.001584	0.001732	28.095	0.055793	0.001993	27.9923	-103.746	177.398	-0.051806	0.921559	-0.129459	-0.130792	-0.020635	27.9923	-0.128906	-7.256411	0.002844	NaN
122	1.000000	0.962934	7.36623e+06	-44739.1	955.818	-29775.4	0.000000	0.000000	6.963091	-0.035785	NaN	0.000000	0.001574	0.001761	28.0959	0.049995	0.001935	25.8353	-59.6453	174.399	-0.042219	0.961624	-0.089417	-0.090727	-0.035785	25.8353	-0.088378	-0.989867	0.036151	NaN
122	1.000000	1.002936	7.36623e+06	-44739.1	955.818	-29775.4	0.000000	0.000000	7.003091	-0.100373	NaN	0.000000	0.001555	0.001779	28.0958	0.118393	0.002023	58.5213	-3.871816	175.982	-0.069782	1.001580	-0.049415	-0.050771	-0.100373	58.5213	-0.048128	-0.080068	1.253603	NaN
122	1.000000	1.042919	7.36624e+06	-44739.1	955.818	-29775.4	0.000000	0.000000	7.043074	-0.081114	NaN	0.000000	0.001553	0.001760	28.0967	0.035852	0.002064	17.3697	17.8546	172.807	-0.068605	1.041620	-0.009432	-0.010731	-0.081114	17.3697	-0.005929	-0.003993	20.3137	NaN
122	2.000000	1.065459	7.36624e+06	-44739.1	955.818	-29775.4	0.000000	0.000000	7.066485	21.1014	NaN	0.000000	0.001576	0.001736	28.0959	16.869	0.001749	9647.3	3.268680	167.097	20.2364	1.065155	0.013109	0.012804	21.1014	9647.3	0.011468	0.010859	1943.18	84582.3
122	2.000000	1.075440	7.36624e+06	-44739.1	955.818	-29775.4	0.000000	0.000000	7.077634	49.523	NaN	0.000000	0.001598	0.001696	28.0956	27.9192	0.001825	15302.3	6.605077	160.813	48.5168	1.075121	0.023089	0.022770	49.523	15302.3	0.020662	0.023593	2099.05	91020.3
122	2.000000	1.085385	7.36624e+06	-44739.1	955.819	-29775.4	0.000000	0.000000	7.089087	86.1975	NaN	0.000000	0.001585	0.001711	28.0954	36.0841	0.001789	20173.8	3.319626	161.404	83.6506	1.085084	0.033034	0.032734	86.1975	20173.8	0.029830	0.040392	2134.04	91709.8
122	2.000000	1.095437	7.36624e+06	-44739.1	955.818	-29775.4	0.000000	0.000000	7.100902	129.097	NaN	0.000000	0.001561	0.001660	28.0939	46.5928	0.001757	26513.2	2.649524	160.866	129.57	1.095167	0.043087	0.042816	129.097	26513.2	0.039435	0.062576	2063.06	96835.1
122	2.000000	1.105404	7.36624e+06	-44739.1	955.818	-29775.4	0.000000	0.000000	7.112851	177.311	NaN	0.000000	0.001554	0.001699	28.0949	55.9974	0.001767	31699	0.909882	160.018	175.422	1.105220	0.053053	0.052869	177.311	31699	0.048858	0.088915	1994.16	97124.8
122	2.000000	1.115353	7.36624e+06	-44739.1	955.819	-29775.4	0.000000	0.000000	7.125886	252.365	NaN	0.000000	0.001702	0.001688	28.0957	66.9264	0.001745	38359.5	5.568385	154.56	250.277	1.114993	0.063003	0.062642	252.365	38359.5	0.058068	0.118973	2121.2	101607
122	2.000000	1.125367	7.36624e+06	-44739.1	955.819	-29775.4	0.000000	0.000000	7.138469	314.901	NaN	0.000000	0.001641	0.001693	28.0949	77.7487	0.001945	39980.6	6.979522	152.982	313.172	1.124999	0.073016	0.072648	314.901	39980.6	0.067109	0.152525	2064.58	93530
122	2.000000	1.135323	7.36624e+06	-44739.1	955.819	-29775.4	0.000000	0.000000	7.151625	392.742	NaN	0.000000	0.001649	0.001696	28.095	86.8977	0.001797	48351.2	5.762591	152.955	390.662	1.135119	0.082972	0.082768	392.742	48351.2	0.076880	0.193195	2032.88	100504
122	2.000000	1.145315	7.36624e+06	-44739.1	955.819	-29775.4	0.000000	0.000000	7.165164	479.026	NaN	0.000000	0.001624	0.001691	28.0939	95.4103	0.001882	50684.7	4.694206	154.51	476.594	1.145016	0.092965	0.092665	479.026	50684.7	0.085876	0.234600	2041.89	95606.4
122	2.000000	1.155294	7.36624e+06	-44739.1	955.818	-29775.4	0.000000	0.000000	7.178908	570.632	NaN	0.000000	0.001680	0.001660	28.0932	104.383	0.001824	57223.7	6.575197	151.296	566.864	1.154944	0.102943	0.102593	570.632	57223.7	0.095464	0.282835	2017.54	98306.6
122	2.000000	1.158334	7.36624e+06	-44739.1	955.819	-29775.4	0.000000	0.000000	7.183403	605.997	NaN	0.000000	0.001687	0.001684	28.1007	107.214	0.001776	60351.2	5.706436	152.315	603.914	1.157928	0.105984	0.105578	605.997	60351.2	0.098453	0.298730	2028.58	100883