File: remote_trans/data/nanoindenter/0828-1/data/Data_2025-08-06,11h17m57s/2025-07-22_16-23-58_1_407.txt
2025-07-22, 16:23:58, 1
Index	Phase	Displacement	Time	Pos X	Pos Y	Pos Z	Rot A	Rot B	Piezo Z	Force A	Force B	Gripper	Voltage A	Voltage B	Temperature	Amplitude force	Amplitude pos	Stiffness	Phase shift	Phase excitation	Force A raw	Displacement raw	HMax	HMax raw	Real Force	Real Stiffness	Contact Depth	Area	Hardness	Reduced Mod.
[#]	[#]	[um]	[s]	[um]	[um]	[um]	[m°]	[m°]	[um]	[uN]	[uN]	[V]	[V]	[V]	[°C]	[uN]	[um]	[N/m]	[°]	[°]	[uN]	[um]	[um]	[um]	[uN]	[N/m]	[um]	[um^2]	[MPa]	[MPa]
407	1.000000	0.002556	7.36904e+06	-56739.1	1005.82	-29738.3	0.000000	0.000000	6.002780	-0.030364	NaN	0.000000	0.001576	0.001588	28.0798	0.021068	0.000895	23.5356	-111.063	-166.208	0.035917	0.001295	-1.097388	-1.098649	-0.030364	23.5356	-1.096420	-4.487564E+14	6.766226E-17	NaN
407	1.000000	0.044517	7.36904e+06	-56739.1	1005.82	-29738.3	0.000000	0.000000	6.044743	0.023080	NaN	0.000000	0.001588	0.001634	28.0813	0.020507	0.002071	9.900405	-180	12.3223	-0.012274	0.043121	-1.055427	-1.056823	0.023080	9.900405	-1.057175	-1.333083E+14	-1.731297E-16	NaN
407	1.000000	0.086525	7.36904e+06	-56739.1	1005.82	-29738.3	0.000000	0.000000	6.086748	-0.040649	NaN	0.000000	0.001611	0.001648	28.0806	0.026733	0.001943	13.7619	74.8414	-163.65	0.016321	0.085207	-1.013419	-1.014736	-0.040649	13.7619	-1.011204	-3.210581E+13	1.266088E-15	NaN
407	1.000000	0.128552	7.36904e+06	-56739.1	1005.82	-29738.3	0.000000	0.000000	6.128776	-0.036947	NaN	0.000000	0.001631	0.001647	28.0807	0.086592	0.002031	42.6438	92.5895	14.769	-0.074270	0.127169	-0.971392	-0.972774	-0.036947	42.6438	-0.970742	-9.155121E+12	4.035634E-15	NaN
407	1.000000	0.170579	7.36904e+06	-56739.1	1005.82	-29738.3	0.000000	0.000000	6.170802	-0.057131	NaN	0.000000	0.001640	0.001643	28.0796	0.074015	0.001983	37.3281	-137.02	-168.362	-0.035578	0.169270	-0.929364	-0.930674	-0.057131	37.3281	-0.928217	-2.444141E+12	2.337463E-14	NaN
407	1.000000	0.212605	7.36904e+06	-56739.1	1005.82	-29738.3	0.000000	0.000000	6.212828	-0.071261	NaN	0.000000	0.001660	0.001657	28.0795	0.082972	0.002131	38.9368	93.1743	16.6752	0.007686	0.211241	-0.887338	-0.888703	-0.071261	38.9368	-0.885966	-6.567131E+11	1.085119E-13	NaN
407	1.000000	0.254613	7.36904e+06	-56739.1	1005.82	-29738.3	0.000000	0.000000	6.254840	0.023256	NaN	0.000000	0.001641	0.001638	28.08	0.061256	0.002084	29.397	-6.238305	-161.468	0.005859	0.253357	-0.845330	-0.846586	0.023256	29.397	-0.845923	-1.885949E+11	-1.233101E-13	NaN
407	1.000000	0.296634	7.36904e+06	-56739.1	1005.82	-29738.3	0.000000	0.000000	6.296859	-0.012686	NaN	0.000000	0.001638	0.001660	28.0802	0.102989	0.002054	50.1337	-104.394	16.6413	-0.040783	0.295236	-0.803310	-0.804708	-0.012686	50.1337	-0.803120	-4.956905E+10	2.559250E-13	NaN
407	1.000000	0.338664	7.36904e+06	-56739.1	1005.82	-29738.3	0.000000	0.000000	6.338890	0.017677	NaN	0.000000	0.001636	0.001671	28.0809	0.067004	0.002064	32.4632	144.896	-166.488	0.023531	0.337334	-0.761279	-0.762610	0.017677	32.4632	-0.761688	-1.356005E+10	-1.303641E-12	NaN
407	1.000000	0.380664	7.36904e+06	-56739.1	1005.82	-29738.3	0.000000	0.000000	6.380891	0.041444	NaN	0.000000	0.001618	0.001678	28.081	0.157215	0.001878	83.708	-135.139	12.5382	0.050529	0.379288	-0.719280	-0.720655	0.041444	83.708	-0.719651	-3.628427E+9	-1.142194E-11	NaN
407	1.000000	0.422658	7.36904e+06	-56739.1	1005.82	-29738.4	0.000000	0.000000	6.422882	-0.033247	NaN	0.000000	0.001609	0.001667	28.0806	0.036783	0.001865	19.7276	85.9207	-163.087	-0.012729	0.421349	-0.677285	-0.678595	-0.033247	19.7276	-0.676021	-9.199965E+8	3.613774E-11	NaN
407	1.000000	0.464679	7.36904e+06	-56739.1	1005.82	-29738.4	0.000000	0.000000	6.464906	0.015651	NaN	0.000000	0.001626	0.001705	28.0795	0.035836	0.001948	18.4006	-75.6217	14.5815	0.073929	0.463297	-0.635264	-0.636647	0.015651	18.4006	-0.635902	-2.594502E+8	-6.032523E-11	NaN
407	1.000000	0.506704	7.36904e+06	-56739.1	1005.82	-29738.4	0.000000	0.000000	6.506929	-0.012489	NaN	0.000000	0.001605	0.001704	28.0798	0.138210	0.002026	68.222	166.384	-162.892	-0.024395	0.505456	-0.593239	-0.594488	-0.012489	68.222	-0.593102	-6.689962E+7	1.866888E-10	NaN
407	1.000000	0.548734	7.36904e+06	-56739.1	1005.82	-29738.4	0.000000	0.000000	6.548959	-0.003167	NaN	0.000000	0.001649	0.001675	28.0798	0.058242	0.001992	29.2383	76.8563	17.0111	-0.042494	0.547392	-0.551210	-0.552551	-0.003167	29.2383	-0.551128	-1.760292E+7	1.799072E-10	NaN
407	1.000000	0.590742	7.36904e+06	-56739.1	1005.82	-29738.4	0.000000	0.000000	6.590968	0.016140	NaN	0.000000	0.001678	0.001688	28.0809	0.069079	0.002019	34.2095	-116.86	-161.811	-0.025300	0.589465	-0.509201	-0.510479	0.016140	34.2095	-0.509555	-4.6582e+06	-3.464832E-9	NaN
407	1.000000	0.632794	7.36904e+06	-56739.1	1005.82	-29738.4	0.000000	0.000000	6.633021	0.022570	NaN	0.000000	0.001671	0.001669	28.081	0.080059	0.002101	38.114	-56.6045	16.156	0.058440	0.631393	-0.467149	-0.468551	0.022570	38.114	-0.467593	-1.20683e+06	-1.870151E-8	NaN
407	1.000000	0.674772	7.36904e+06	-56739.1	1005.82	-29738.4	0.000000	0.000000	6.674994	-0.082161	NaN	0.000000	0.001674	0.001643	28.0812	0.036201	0.001915	18.9002	141.918	-164.246	-0.067859	0.673508	-0.425171	-0.426436	-0.082161	18.9002	-0.421911	-273849	3.000219E-7	NaN
407	1.000000	0.716832	7.36904e+06	-56739.1	1005.82	-29738.4	0.000000	0.000000	6.717058	0.015400	NaN	0.000000	0.001595	0.001619	28.08	0.058636	0.002008	29.2003	-120.974	16.6683	0.013279	0.715461	-0.383112	-0.384482	0.015400	29.2003	-0.383508	-77660.3	-1.983051E-7	NaN
407	1.000000	0.758815	7.36904e+06	-56739.1	1005.82	-29738.4	0.000000	0.000000	6.759039	-0.025728	NaN	0.000000	0.001588	0.001585	28.0798	0.077994	0.001908	40.873	-26.3262	-163.184	-0.051911	0.757546	-0.341129	-0.342397	-0.025728	40.873	-0.340657	-18669.1	1.378087E-6	NaN
407	1.000000	0.800865	7.36904e+06	-56739.1	1005.82	-29738.4	0.000000	0.000000	6.801089	-0.034983	NaN	0.000000	0.001646	0.001589	28.0798	0.068529	0.002012	34.0618	135.286	14.4261	-0.122230	0.799472	-0.299079	-0.300471	-0.034983	34.0618	-0.298308	-4440.57	7.877938E-6	NaN
407	1.000000	0.842853	7.36904e+06	-56739.1	1005.82	-29738.4	0.000000	0.000000	6.843077	-0.052689	NaN	0.000000	0.001624	0.001575	28.0799	0.126545	0.002035	62.1727	50.3393	-164.548	-0.064986	0.841575	-0.257090	-0.258369	-0.052689	62.1727	-0.256455	-1033.93	5.096018E-5	NaN
407	1.000000	0.884881	7.36904e+06	-56739.1	1005.82	-29738.4	0.000000	0.000000	6.885106	-0.003786	NaN	0.000000	0.001628	0.001613	28.0811	0.117480	0.001969	59.658	7.575395	15.8218	-0.075030	0.883559	-0.215063	-0.216385	-0.003786	59.658	-0.215015	-231.079	1.638420E-5	NaN
407	1.000000	0.926894	7.36905e+06	-56739.1	1005.82	-29738.4	0.000000	0.000000	6.927119	0.004722	NaN	0.000000	0.001655	0.001609	28.0809	0.020770	0.001949	10.6588	-34.3088	-164.153	0.052007	0.925550	-0.173050	-0.174393	0.004722	10.6588	-0.173382	-47.0036	-0.000100	NaN
407	1.000000	0.968876	7.36905e+06	-56739.1	1005.82	-29738.4	0.000000	0.000000	6.969103	0.030223	NaN	0.000000	0.001629	0.001560	28.0809	0.045340	0.001892	23.9632	-20.7486	14.3633	0.048193	0.967560	-0.131067	-0.132384	0.030223	23.9632	-0.132013	-8.336445	-0.003625	NaN
407	1.000000	1.010942	7.36905e+06	-56739.1	1005.82	-29738.4	0.000000	0.000000	7.011166	-0.022641	NaN	0.000000	0.001618	0.001618	28.0794	0.036113	0.001948	18.5376	142.855	-165.638	-0.032577	1.009627	-0.089002	-0.090317	-0.022641	18.5376	-0.088086	-0.974180	0.023241	NaN
407	1.000000	1.052985	7.36905e+06	-56739.1	1005.82	-29738.4	0.000000	0.000000	7.053209	-0.052963	NaN	0.000000	0.001627	0.001606	28.0795	0.043921	0.001969	22.3012	68.8366	14.6935	-0.050143	1.051579	-0.046958	-0.048365	-0.052963	22.3012	-0.045177	-0.065074	0.813888	NaN
407	1.000000	1.094960	7.36905e+06	-56739.1	1005.82	-29738.4	0.000000	0.000000	7.095190	0.100046	NaN	0.000000	0.001547	0.001672	28.0796	0.121723	0.002045	59.5112	36.4453	-165.958	0.178681	1.093698	-0.004983	-0.006246	0.100046	59.5112	-0.006244	-0.004185	-23.9046	NaN
407	2.000000	1.117049	7.36905e+06	-56739.1	1005.82	-29738.4	0.000000	0.000000	7.117934	16.0336	NaN	0.000000	0.001561	0.001696	28.0805	14.9765	0.001624	9224.24	6.669223	5.355930	15.3282	1.116670	0.017106	0.016726	16.0336	9224.24	0.015802	0.016370	979.478	65869.7
407	2.000000	1.127519	7.36905e+06	-56739.1	1005.82	-29738.4	0.000000	0.000000	7.129308	38.0166	NaN	0.000000	0.001647	0.001604	28.0808	25.3816	0.001805	14062.4	3.070146	-174.853	37.3988	1.127202	0.027575	0.027259	38.0166	14062.4	0.025548	0.032019	1187.3	71800.3
407	2.000000	1.138000	7.36905e+06	-56739.1	1005.82	-29738.4	0.000000	0.000000	7.141204	72.3876	NaN	0.000000	0.001663	0.001660	28.0809	36.6681	0.001749	20968	5.313300	-1.567544	70.9033	1.137682	0.038056	0.037738	72.3876	20968	0.035467	0.052839	1369.96	83340
407	2.000000	1.148477	7.36905e+06	-56739.1	1005.82	-29738.4	0.000000	0.000000	7.153638	119.963	NaN	0.000000	0.001661	0.001656	28.0798	47.2292	0.001808	26122.5	6.715134	175.596	119.627	1.148148	0.048534	0.048205	119.963	26122.5	0.045089	0.077841	1541.12	85542.7
407	2.000000	1.158955	7.36905e+06	-56739.1	1005.82	-29738.4	0.000000	0.000000	7.166439	176.439	NaN	0.000000	0.001622	0.001651	28.08	54.9536	0.001767	31094.7	2.787759	-1.440851	173.966	1.158602	0.059011	0.058659	176.439	31094.7	0.054756	0.107677	1638.6	86576
407	2.000000	1.169347	7.36905e+06	-56739.1	1005.82	-29738.4	0.000000	0.000000	7.179419	239.319	NaN	0.000000	0.001629	0.001679	28.0795	66.5255	0.001800	36968	2.848817	177.113	233.956	1.169101	0.069404	0.069157	239.319	36968	0.064548	0.142621	1678	89435
407	2.000000	1.179911	7.36905e+06	-56739.1	1005.82	-29738.4	0.000000	0.000000	7.192900	310.228	NaN	0.000000	0.001616	0.001661	28.0799	78.6035	0.001820	43194.8	5.354042	-6.926332	305.465	1.179518	0.079968	0.079574	310.228	43194.8	0.074581	0.183221	1693.19	92197.1
407	2.000000	1.190456	7.36905e+06	-56739.1	1005.82	-29738.4	0.000000	0.000000	7.206467	383.681	NaN	0.000000	0.001585	0.001646	28.0807	88.784	0.001786	49717.4	4.473532	173.268	383.741	1.190116	0.090512	0.090172	383.681	49717.4	0.084724	0.229088	1674.82	94903
407	2.000000	1.200788	7.36905e+06	-56739.1	1005.82	-29738.4	0.000000	0.000000	7.220725	479.112	NaN	0.000000	0.001596	0.001625	28.0805	99.0453	0.001688	58665.2	8.248260	-12.1931	470.108	1.200498	0.100844	0.100555	479.112	58665.2	0.094719	0.278935	1717.65	101485
407	2.000000	1.208853	7.36905e+06	-56739.1	1005.82	-29738.4	0.000000	0.000000	7.231715	550.21	NaN	0.000000	0.001563	0.001623	28.0805	106.288	0.001908	55711.4	2.577332	-5.741440	546.656	1.208606	0.108909	0.108662	550.21	55711.4	0.101502	0.315367	1744.67	90637.8