File: remote_trans/data/nanoindenter/0828-1/data/Data_2025-08-06,11h17m57s/2025-07-22_16-23-58_1_60.txt
2025-07-22, 16:23:58, 1
Index	Phase	Displacement	Time	Pos X	Pos Y	Pos Z	Rot A	Rot B	Piezo Z	Force A	Force B	Gripper	Voltage A	Voltage B	Temperature	Amplitude force	Amplitude pos	Stiffness	Phase shift	Phase excitation	Force A raw	Displacement raw	HMax	HMax raw	Real Force	Real Stiffness	Contact Depth	Area	Hardness	Reduced Mod.
[#]	[#]	[um]	[s]	[um]	[um]	[um]	[m°]	[m°]	[um]	[uN]	[uN]	[V]	[V]	[V]	[°C]	[uN]	[um]	[N/m]	[°]	[°]	[uN]	[um]	[um]	[um]	[uN]	[N/m]	[um]	[um^2]	[MPa]	[MPa]
60	1.000000	0.002696	7.36563e+06	-41639.1	955.819	-29786.3	0.000000	0.000000	6.002786	-0.034382	NaN	0.000000	0.001665	0.001722	28.081	0.064711	0.000924	70.0561	-104.237	-165.102	-0.035672	0.001402	-0.981885	-0.983178	-0.034382	70.0561	-0.981517	-1.278926E+13	2.688381E-15	NaN
60	1.000000	0.040682	7.36563e+06	-41639.1	955.818	-29786.3	0.000000	0.000000	6.040772	-0.023027	NaN	0.000000	0.001613	0.001730	28.0894	0.093449	0.001928	48.4777	22.5131	14.0979	0.004563	0.039300	-0.943899	-0.945281	-0.023027	48.4777	-0.943543	-3.934860E+12	5.851960E-15	NaN
60	1.000000	0.078665	7.36563e+06	-41639.1	955.818	-29786.3	0.000000	0.000000	6.078754	-0.065244	NaN	0.000000	0.001574	0.001740	28.1286	0.061476	0.002040	30.1368	-120.512	-162.248	0.013568	0.077423	-0.905915	-0.907157	-0.065244	30.1368	-0.904292	-1.161592E+12	5.616742E-14	NaN
60	1.000000	0.116713	7.36563e+06	-41639.1	955.818	-29786.3	0.000000	0.000000	6.116807	0.054073	NaN	0.000000	0.001628	0.001705	28.1068	0.093358	0.001977	47.2256	-137.064	20.6176	0.028381	0.115360	-0.867867	-0.869221	0.054073	47.2256	-0.868726	-3.838930E+11	-1.408551E-13	NaN
60	1.000000	0.154709	7.36563e+06	-41639.1	955.818	-29786.3	0.000000	0.000000	6.154800	-0.002126	NaN	0.000000	0.001630	0.001707	28.0791	0.020488	0.001952	10.4937	-112.913	-162.778	-0.068809	0.153428	-0.829872	-0.831153	-0.002126	10.4937	-0.829720	-1.137600E+11	1.868664E-14	NaN
60	1.000000	0.192727	7.36563e+06	-41639.1	955.818	-29786.3	0.000000	0.000000	6.192819	0.002298	NaN	0.000000	0.001618	0.001718	28.0899	0.005190	0.002006	2.587292	133.022	11.6266	-0.027890	0.191374	-0.791854	-0.793207	0.002298	2.587292	-0.792520	-3.558800E+10	-6.457846E-14	NaN
60	1.000000	0.230757	7.36563e+06	-41639.1	955.819	-29786.3	0.000000	0.000000	6.230848	-0.020347	NaN	0.000000	0.001584	0.001724	28.1271	0.024378	0.002053	11.8767	65.6898	-163.551	0.041828	0.229413	-0.753824	-0.755167	-0.020347	11.8767	-0.752539	-1.018072E+10	1.998560E-12	NaN
60	1.000000	0.268768	7.36563e+06	-41639.1	955.819	-29786.3	0.000000	0.000000	6.268860	0.018829	NaN	0.000000	0.001610	0.001761	28.1062	0.045423	0.001828	24.8444	78.7269	15.833	0.074633	0.267424	-0.715813	-0.717157	0.018829	24.8444	-0.716381	-3.274270E+9	-5.750474E-12	NaN
60	1.000000	0.306793	7.36563e+06	-41639.1	955.818	-29786.3	0.000000	0.000000	6.306885	0.019349	NaN	0.000000	0.001585	0.001748	28.0794	0.076052	0.002086	36.4563	-61.2934	-162.958	0.036606	0.305452	-0.677788	-0.679128	0.019349	36.4563	-0.678186	-9.849107E+8	-1.964526E-11	NaN
60	1.000000	0.344785	7.36563e+06	-41639.1	955.819	-29786.3	0.000000	0.000000	6.344875	-0.031911	NaN	0.000000	0.001614	0.001729	28.0907	0.058280	0.002035	28.6427	-115.12	14.8424	-0.039679	0.343486	-0.639796	-0.641094	-0.031911	28.6427	-0.638960	-2.857722E+8	1.116643E-10	NaN
60	1.000000	0.382811	7.36563e+06	-41639.1	955.817	-29786.3	0.000000	0.000000	6.382901	-0.043215	NaN	0.000000	0.001569	0.001654	28.1275	0.081703	0.001966	41.5566	-116.151	-161.699	-0.041189	0.381495	-0.601769	-0.603085	-0.043215	41.5566	-0.600989	-8.591841E+7	5.029723E-10	NaN
60	1.000000	0.420837	7.36563e+06	-41639.1	955.819	-29786.3	0.000000	0.000000	6.420926	-0.058416	NaN	0.000000	0.001600	0.001683	28.1043	0.022914	0.002139	10.7121	37.3133	15.7344	-0.007083	0.419486	-0.563744	-0.565095	-0.058416	10.7121	-0.559654	-2.309886E+7	2.528974E-9	NaN
60	1.000000	0.458829	7.36563e+06	-41639.1	955.818	-29786.3	0.000000	0.000000	6.458920	-0.023370	NaN	0.000000	0.001616	0.001675	28.0787	0.056625	0.001892	29.9253	72.5389	-166.071	-0.022469	0.457512	-0.525751	-0.527069	-0.023370	29.9253	-0.525165	-7.68087e+06	3.042636E-9	NaN
60	1.000000	0.496879	7.36563e+06	-41639.1	955.818	-29786.3	0.000000	0.000000	6.496971	-0.002498	NaN	0.000000	0.001613	0.001663	28.0916	0.080651	0.002097	38.4616	154.008	18.8244	0.062779	0.495486	-0.487701	-0.489095	-0.002498	38.4616	-0.487653	-2.30454e+06	1.084031E-9	NaN
60	1.000000	0.534850	7.36563e+06	-41639.1	955.819	-29786.3	0.000000	0.000000	6.534943	0.035837	NaN	0.000000	0.001552	0.001690	28.1291	0.068866	0.001914	35.9866	40.6343	-165.518	0.026626	0.533504	-0.449731	-0.451077	0.035837	35.9866	-0.450478	-693537	-5.167258E-8	NaN
60	1.000000	0.572872	7.36563e+06	-41639.1	955.819	-29786.3	0.000000	0.000000	6.572963	-0.003665	NaN	0.000000	0.001632	0.001704	28.1048	0.032872	0.002005	16.3946	-10.6915	15.6207	0.002808	0.571575	-0.411709	-0.413006	-0.003665	16.3946	-0.411541	-195124	1.878445E-8	NaN
60	1.000000	0.610879	7.36563e+06	-41639.1	955.819	-29786.3	0.000000	0.000000	6.610973	0.037409	NaN	0.000000	0.001575	0.001664	28.0801	0.090129	0.001894	47.5985	121.642	-165.713	-0.009885	0.609611	-0.373701	-0.374969	0.037409	47.5985	-0.374291	-57262.6	-6.532845E-7	NaN
60	1.000000	0.648908	7.36563e+06	-41639.1	955.819	-29786.3	0.000000	0.000000	6.649000	0.021816	NaN	0.000000	0.001557	0.001655	28.0913	0.110441	0.001981	55.7389	-108.595	14.1166	0.079520	0.647552	-0.335673	-0.337028	0.021816	55.7389	-0.335966	-15947.9	-1.367934E-6	NaN
60	1.000000	0.686934	7.36563e+06	-41639.1	955.818	-29786.3	0.000000	0.000000	6.687026	0.002885	NaN	0.000000	0.001573	0.001684	28.1284	0.051925	0.002030	25.582	-10.6525	-160.677	-0.009411	0.685608	-0.297647	-0.298972	0.002885	25.582	-0.297731	-4353.48	-6.627169E-7	NaN
60	1.000000	0.724948	7.36563e+06	-41639.1	955.818	-29786.3	0.000000	0.000000	6.725040	-0.008026	NaN	0.000000	0.001569	0.001673	28.1027	0.132010	0.001948	67.7551	-179.355	21.5248	-0.077328	0.723558	-0.259632	-0.261023	-0.008026	67.7551	-0.259543	-1153.23	6.959779E-6	NaN
60	1.000000	0.762965	7.36563e+06	-41639.1	955.819	-29786.3	0.000000	0.000000	6.763056	-0.013740	NaN	0.000000	0.001541	0.001670	28.0795	0.053064	0.002055	25.8196	-27.055	-168.849	0.009769	0.761696	-0.221616	-0.222884	-0.013740	25.8196	-0.221217	-290.474	4.730221E-5	NaN
60	1.000000	0.800998	7.36563e+06	-41639.1	955.819	-29786.3	0.000000	0.000000	6.801091	0.021371	NaN	0.000000	0.001555	0.001685	28.0929	0.021788	0.001933	11.2737	-88.8132	16.8378	-0.048951	0.799613	-0.183582	-0.184968	0.021371	11.2737	-0.185004	-74.1651	-0.000288	NaN
60	1.000000	0.839017	7.36563e+06	-41639.1	955.818	-29786.3	0.000000	0.000000	6.839109	-0.003152	NaN	0.000000	0.001555	0.001692	28.13	0.072827	0.002026	35.9507	-116.406	-166.373	0.022430	0.837710	-0.145563	-0.146870	-0.003152	35.9507	-0.145497	-14.9748	0.000211	NaN
60	1.000000	0.877019	7.36563e+06	-41639.1	955.818	-29786.3	0.000000	0.000000	6.877113	0.054759	NaN	0.000000	0.001582	0.001708	28.1019	0.101349	0.001973	51.3802	-59.8701	16.526	0.016748	0.875629	-0.107562	-0.108952	0.054759	51.3802	-0.108361	-2.774447	-0.019737	NaN
60	1.000000	0.915035	7.36563e+06	-41639.1	955.818	-29786.3	0.000000	0.000000	6.915127	0.015939	NaN	0.000000	0.001585	0.001662	28.0806	0.081899	0.001985	41.2632	-163.956	-162.88	-0.049516	0.913685	-0.069546	-0.070896	0.015939	41.2632	-0.069835	-0.337657	-0.047204	NaN
60	1.000000	0.953068	7.36563e+06	-41639.1	955.819	-29786.3	0.000000	0.000000	6.953159	0.000692	NaN	0.000000	0.001609	0.001659	28.0908	0.074848	0.002094	35.7388	0.597604	16.6126	0.021512	0.951734	-0.031513	-0.032846	0.000692	35.7388	-0.031527	-0.025406	-0.027249	NaN
60	1.000000	0.991034	7.36563e+06	-41639.1	955.819	-29786.3	0.000000	0.000000	6.991189	1.554685	NaN	0.000000	0.001597	0.001639	28.1292	1.436251	0.001773	810.286	22.2576	-167.346	1.352608	0.989697	0.006453	0.005117	1.554685	810.286	0.005014	0.004146	374.941	11496.7
60	2.000000	1.011082	7.36563e+06	-41639.1	955.818	-29786.3	0.000000	0.000000	7.011904	17.7602	NaN	0.000000	0.001597	0.001672	28.1003	13.6615	0.001846	7400.32	3.273765	10.3036	17.6632	1.010689	0.026502	0.026109	17.7602	7400.32	0.024702	0.030476	582.769	38730
60	2.000000	1.020550	7.36563e+06	-41639.1	955.819	-29786.3	0.000000	0.000000	7.021877	30.0519	NaN	0.000000	0.001577	0.001674	28.0811	22.1731	0.001795	12352.3	4.711347	-175.473	30.164	1.020199	0.035970	0.035618	30.0519	12352.3	0.034145	0.049774	603.766	50584.8
60	2.000000	1.030001	7.36563e+06	-41639.1	955.819	-29786.3	0.000000	0.000000	7.032102	48.8854	NaN	0.000000	0.001541	0.001695	28.0933	28.718	0.001750	16414.3	1.733311	4.784438	47.5517	1.029727	0.045420	0.045146	48.8854	16414.3	0.043187	0.072523	674.071	55687.7
60	2.000000	1.039465	7.36563e+06	-41639.1	955.819	-29786.3	0.000000	0.000000	7.042746	77.5896	NaN	0.000000	0.001585	0.001645	28.1307	36.9232	0.001792	20600.7	3.203650	-177.922	76.4161	1.039126	0.054885	0.054545	77.5896	20600.7	0.052060	0.098887	784.628	59852.8
60	2.000000	1.048976	7.36563e+06	-41639.1	955.82	-29786.3	0.000000	0.000000	7.053585	109.916	NaN	0.000000	0.001622	0.001695	28.1008	46.4885	0.001775	26186.9	3.640327	-1.203876	109.069	1.048605	0.064396	0.064024	109.916	26186.9	0.061248	0.130320	843.427	66275.1
60	2.000000	1.058450	7.36563e+06	-41639.1	955.82	-29786.3	0.000000	0.000000	7.064924	155.296	NaN	0.000000	0.001575	0.001670	28.0799	56.5736	0.001885	30009.4	4.430143	177.231	156.027	1.058182	0.073869	0.073601	155.296	30009.4	0.069988	0.164040	946.695	67694.9
60	2.000000	1.067939	7.36564e+06	-41639.1	955.819	-29786.3	0.000000	0.000000	7.076690	210.695	NaN	0.000000	0.001587	0.001647	28.0926	65.8278	0.001788	36814.1	4.432273	-4.834420	209.65	1.067542	0.083359	0.082962	210.695	36814.1	0.079066	0.202910	1038.37	74668.1
60	2.000000	1.077487	7.36564e+06	-41639.1	955.818	-29786.3	0.000000	0.000000	7.088793	272.875	NaN	0.000000	0.001576	0.001649	28.1294	76.2202	0.001887	40387.7	2.952446	176.179	276.57	1.077108	0.092906	0.092528	272.875	40387.7	0.087839	0.244129	1117.75	74681.4
60	2.000000	1.086920	7.36564e+06	-41639.1	955.82	-29786.3	0.000000	0.000000	7.101527	353.172	NaN	0.000000	0.001623	0.001662	28.0997	84.1825	0.001798	46807.4	5.100596	-7.023527	348.996	1.086543	0.102340	0.101963	353.172	46807.4	0.096681	0.289258	1220.96	79514.3
60	2.000000	1.096348	7.36564e+06	-41639.1	955.82	-29786.3	0.000000	0.000000	7.114637	442.788	NaN	0.000000	0.001608	0.001684	28.0801	92.1573	0.001775	51923.2	3.103874	174.394	439.49	1.096006	0.111767	0.111426	442.788	51923.2	0.105371	0.337085	1313.58	81708.1
60	2.000000	1.103362	7.36564e+06	-41639.1	955.82	-29786.3	0.000000	0.000000	7.124603	514.607	NaN	0.000000	0.001601	0.001667	28.1304	100.916	0.001829	55175.8	8.928803	167.976	512.696	1.103067	0.118782	0.118487	514.607	55175.8	0.111787	0.374589	1373.79	82365.4