File: remote_trans/data/nanoindenter/0828-1/data/Data_2025-08-06,11h17m57s/2025-07-22_16-23-58_1_192.txt
2025-07-22, 16:23:58, 1
Index	Phase	Displacement	Time	Pos X	Pos Y	Pos Z	Rot A	Rot B	Piezo Z	Force A	Force B	Gripper	Voltage A	Voltage B	Temperature	Amplitude force	Amplitude pos	Stiffness	Phase shift	Phase excitation	Force A raw	Displacement raw	HMax	HMax raw	Real Force	Real Stiffness	Contact Depth	Area	Hardness	Reduced Mod.
[#]	[#]	[um]	[s]	[um]	[um]	[um]	[m°]	[m°]	[um]	[uN]	[uN]	[V]	[V]	[V]	[°C]	[uN]	[um]	[N/m]	[°]	[°]	[uN]	[um]	[um]	[um]	[uN]	[N/m]	[um]	[um^2]	[MPa]	[MPa]
192	1.000000	0.002706	7.36692e+06	-48239.1	955.819	-29763.6	0.000000	0.000000	6.002807	-0.030656	NaN	0.000000	0.001602	0.001696	28.0788	0.085097	0.000883	96.3903	172.522	-161.805	-0.053297	0.001439	-1.026540	-1.027807	-0.030656	96.3903	-1.026302	-5.125433E+13	5.981086E-16	NaN
192	1.000000	0.042648	7.36692e+06	-48239.1	955.818	-29763.6	0.000000	0.000000	6.042750	-0.021696	NaN	0.000000	0.001548	0.001712	28.0787	0.052711	0.001953	26.9894	-36.2943	-162.948	-0.007262	0.041405	-0.986598	-0.987840	-0.021696	26.9894	-0.985995	-1.469482E+13	1.476471E-15	NaN
192	1.000000	0.082663	7.36692e+06	-48239.1	955.818	-29763.6	0.000000	0.000000	6.082767	0.023828	NaN	0.000000	0.001627	0.001728	28.0784	0.076413	0.001883	40.5891	159.016	-165.563	0.002216	0.081331	-0.946583	-0.947915	0.023828	40.5891	-0.947023	-4.384040E+12	-5.435157E-15	NaN
192	1.000000	0.122691	7.36692e+06	-48239.1	955.818	-29763.6	0.000000	0.000000	6.122791	-0.058496	NaN	0.000000	0.001598	0.001682	28.0797	0.090008	0.002063	43.6225	74.9474	-166.043	-0.016367	0.121360	-0.906555	-0.907886	-0.058496	43.6225	-0.905549	-1.207919E+12	4.842670E-14	NaN
192	1.000000	0.162669	7.36692e+06	-48239.1	955.818	-29763.6	0.000000	0.000000	6.162770	-0.066183	NaN	0.000000	0.001568	0.001678	28.08	0.085319	0.002074	41.1418	-170.749	-164.349	-0.034476	0.161415	-0.866576	-0.867830	-0.066183	41.1418	-0.865370	-3.457739E+11	1.914054E-13	NaN
192	1.000000	0.202722	7.36692e+06	-48239.1	955.819	-29763.6	0.000000	0.000000	6.202823	-0.033437	NaN	0.000000	0.001642	0.001669	28.0797	0.112081	0.002113	53.0355	151.578	-167.32	-0.080627	0.201435	-0.826524	-0.827811	-0.033437	53.0355	-0.826051	-1.014507E+11	3.295880E-13	NaN
192	1.000000	0.242726	7.36692e+06	-48239.1	955.819	-29763.6	0.000000	0.000000	6.242828	-0.025082	NaN	0.000000	0.001587	0.001665	28.079	0.122224	0.002062	59.2727	152.945	-166.349	-0.015776	0.241425	-0.786519	-0.787821	-0.025082	59.2727	-0.786202	-2.920738E+10	8.587389E-13	NaN
192	1.000000	0.282729	7.36692e+06	-48239.1	955.818	-29763.6	0.000000	0.000000	6.282831	-0.028090	NaN	0.000000	0.001604	0.001680	28.0786	0.066373	0.002152	30.8458	-62.2323	-163.374	-0.089117	0.281464	-0.746516	-0.747782	-0.028090	30.8458	-0.745833	-8.250819E+9	3.404481E-12	NaN
192	1.000000	0.322747	7.36692e+06	-48239.1	955.818	-29763.6	0.000000	0.000000	6.322850	-0.000391	NaN	0.000000	0.001593	0.001650	28.0787	0.087318	0.001871	46.672	76.1475	-164.042	-0.028869	0.321446	-0.706499	-0.707800	-0.000391	46.672	-0.706492	-2.399803E+9	1.628249E-13	NaN
192	1.000000	0.362791	7.36692e+06	-48239.1	955.819	-29763.6	0.000000	0.000000	6.362892	-0.047731	NaN	0.000000	0.001596	0.001684	28.0786	0.093662	0.002099	44.6326	62.8802	-167.731	-0.041842	0.361485	-0.666454	-0.667761	-0.047731	44.6326	-0.665652	-6.635480E+8	7.193328E-11	NaN
192	1.000000	0.402783	7.36692e+06	-48239.1	955.818	-29763.6	0.000000	0.000000	6.402884	-0.043052	NaN	0.000000	0.001540	0.001659	28.08	0.124930	0.001995	62.611	51.6591	-167.171	-0.064683	0.401489	-0.626463	-0.627757	-0.043052	62.611	-0.625947	-1.893890E+8	2.273194E-10	NaN
192	1.000000	0.442811	7.36692e+06	-48239.1	955.819	-29763.6	0.000000	0.000000	6.442913	-0.017359	NaN	0.000000	0.001600	0.001683	28.08	0.023667	0.002083	11.3623	-126.294	-165.304	-0.049016	0.441472	-0.586434	-0.587773	-0.017359	11.3623	-0.585289	-5.220290E+7	3.325301E-10	NaN
192	1.000000	0.482840	7.36692e+06	-48239.1	955.818	-29763.6	0.000000	0.000000	6.482943	0.009646	NaN	0.000000	0.001592	0.001652	28.0802	0.072510	0.001960	36.9858	95.8594	-164.635	0.047887	0.481514	-0.546405	-0.547731	0.009646	36.9858	-0.546601	-1.523590E+7	-6.330863E-10	NaN
192	1.000000	0.522839	7.36692e+06	-48239.1	955.818	-29763.6	0.000000	0.000000	6.522944	0.050232	NaN	0.000000	0.001589	0.001655	28.079	0.090733	0.001930	47.0004	99.59	-166.516	0.074188	0.521515	-0.506407	-0.507730	0.050232	47.0004	-0.507208	-4.32038e+06	-1.162676E-8	NaN
192	1.000000	0.562848	7.36692e+06	-48239.1	955.819	-29763.6	0.000000	0.000000	6.562953	0.052234	NaN	0.000000	0.001566	0.001662	28.0791	0.048387	0.002014	24.0219	159.694	-167.22	0.012243	0.561501	-0.466398	-0.467745	0.052234	24.0219	-0.468028	-1.22391e+06	-4.267793E-8	NaN
192	1.000000	0.602897	7.36692e+06	-48239.1	955.819	-29763.6	0.000000	0.000000	6.602998	-0.032524	NaN	0.000000	0.001569	0.001634	28.0791	0.076835	0.001963	39.1359	-21.7036	-163.43	-0.005483	0.601580	-0.426349	-0.427666	-0.032524	39.1359	-0.425726	-310141	1.048689E-7	NaN
192	1.000000	0.642935	7.36692e+06	-48239.1	955.818	-29763.6	0.000000	0.000000	6.643036	-0.037304	NaN	0.000000	0.001571	0.001680	28.0799	0.065594	0.002016	32.5427	-156.364	-164.901	-0.041513	0.641573	-0.386311	-0.387673	-0.037304	32.5427	-0.385451	-82803.6	4.505146E-7	NaN
192	1.000000	0.682905	7.36692e+06	-48239.1	955.818	-29763.6	0.000000	0.000000	6.683006	-0.040463	NaN	0.000000	0.001577	0.001645	28.0799	0.110025	0.001953	56.3228	-145.428	-164.645	-0.019856	0.681565	-0.346341	-0.347680	-0.040463	56.3228	-0.345802	-22183.1	1.824033E-6	NaN
192	1.000000	0.722911	7.36692e+06	-48239.1	955.818	-29763.6	0.000000	0.000000	6.723013	-0.005434	NaN	0.000000	0.001576	0.001688	28.0798	0.148510	0.001946	76.3087	160.736	-164.514	-0.017743	0.721614	-0.306335	-0.307631	-0.005434	76.3087	-0.306281	-5833.99	9.314188E-7	NaN
192	1.000000	0.762952	7.36692e+06	-48239.1	955.818	-29763.6	0.000000	0.000000	6.763055	0.008459	NaN	0.000000	0.001629	0.001667	28.0796	0.039532	0.002024	19.5359	-103.314	-165.594	0.059596	0.761687	-0.266294	-0.267559	0.008459	19.5359	-0.266618	-1479.35	-5.717732E-6	NaN
192	1.000000	0.802971	7.36693e+06	-48239.1	955.819	-29763.6	0.000000	0.000000	6.803074	0.014462	NaN	0.000000	0.001632	0.001675	28.0786	0.107742	0.002038	52.8679	141.921	-164.175	0.015342	0.801651	-0.226275	-0.227594	0.014462	52.8679	-0.226480	-352.226	-4.105908E-5	NaN
192	1.000000	0.842997	7.36693e+06	-48239.1	955.818	-29763.6	0.000000	0.000000	6.843099	-0.017796	NaN	0.000000	0.001575	0.001692	28.0787	0.058302	0.002021	28.8517	-148.696	-165.384	0.033516	0.841658	-0.186249	-0.187588	-0.017796	28.8517	-0.185786	-76.4488	0.000233	NaN
192	1.000000	0.883001	7.36693e+06	-48239.1	955.818	-29763.6	0.000000	0.000000	6.883103	-0.008683	NaN	0.000000	0.001594	0.001693	28.0787	0.026592	0.002041	13.0318	22.5097	-166.357	0.011803	0.881701	-0.146245	-0.147544	-0.008683	13.0318	-0.145745	-15.1334	0.000574	NaN
192	1.000000	0.923019	7.36693e+06	-48239.1	955.818	-29763.6	0.000000	0.000000	6.923122	0.015445	NaN	0.000000	0.001582	0.001720	28.0799	0.090404	0.001864	48.496	141.983	-164.816	-0.026737	0.921753	-0.106227	-0.107492	0.015445	48.496	-0.106466	-2.527678	-0.006110	NaN
192	1.000000	0.963023	7.36693e+06	-48239.1	955.818	-29763.6	0.000000	0.000000	6.963128	0.062922	NaN	0.000000	0.001511	0.001699	28.0798	0.046936	0.001991	23.5767	-133.524	-164.509	0.034179	0.961767	-0.066223	-0.067479	0.062922	23.5767	-0.068224	-0.305507	-0.205960	NaN
192	1.000000	1.003038	7.36693e+06	-48239.1	955.819	-29763.6	0.000000	0.000000	7.003142	0.013329	NaN	0.000000	0.001532	0.001636	28.08	0.078013	0.001945	40.1007	70.4584	-165.889	0.050152	1.001741	-0.026207	-0.027504	0.013329	40.1007	-0.026457	-0.018429	-0.723231	NaN
192	1.000000	1.043031	7.36693e+06	-48239.1	955.82	-29763.6	0.000000	0.000000	7.043335	4.900717	NaN	0.000000	0.001614	0.001673	28.0801	5.663498	0.001820	3111.93	19.2657	-172.822	4.152265	1.041765	0.013785	0.012520	4.900717	3111.93	0.012604	0.012222	400.98	25717.9
192	2.000000	1.055612	7.36693e+06	-48239.1	955.82	-29763.6	0.000000	0.000000	7.056785	26.0225	NaN	0.000000	0.001714	0.001650	28.0797	19.2312	0.001646	11680.7	4.660933	-176.442	24.9898	1.055319	0.026366	0.026073	26.0225	11680.7	0.024695	0.030464	854.213	61143.7
192	2.000000	1.065564	7.36693e+06	-48239.1	955.819	-29763.6	0.000000	0.000000	7.067816	52.2595	NaN	0.000000	0.001638	0.001653	28.0802	29.5955	0.001803	16416	4.172847	-177.553	50.7375	1.065321	0.036319	0.036075	52.2595	16416	0.033931	0.049287	1060.31	67557.9
192	2.000000	1.075589	7.36693e+06	-48239.1	955.819	-29763.6	0.000000	0.000000	7.079202	85.3774	NaN	0.000000	0.001610	0.001704	28.0791	38.7897	0.001751	22147.4	3.162942	179.793	85.5573	1.075292	0.046343	0.046047	85.3774	22147.4	0.043452	0.073254	1165.5	74761.9
192	2.000000	1.085533	7.36693e+06	-48239.1	955.82	-29763.6	0.000000	0.000000	7.090703	123.263	NaN	0.000000	0.001614	0.001691	28.0803	49.998	0.001843	27125	6.144129	174.815	120.634	1.085280	0.056287	0.056034	123.263	27125	0.052879	0.101519	1214.19	77780.2
192	2.000000	1.095543	7.36693e+06	-48239.1	955.82	-29763.6	0.000000	0.000000	7.102864	175.581	NaN	0.000000	0.001602	0.001723	28.0802	58.1504	0.001832	31745.6	0.014541	179.946	173.215	1.095341	0.066297	0.066096	175.581	31745.6	0.062149	0.133627	1313.97	79343.2
192	2.000000	1.105507	7.36693e+06	-48239.1	955.819	-29763.6	0.000000	0.000000	7.115176	232.668	NaN	0.000000	0.001632	0.001729	28.0802	67.5265	0.001771	38135.5	3.893320	175.549	231.558	1.105222	0.076262	0.075976	232.668	38135.5	0.071686	0.171014	1360.52	84253.1
192	2.000000	1.115451	7.36693e+06	-48239.1	955.82	-29763.6	0.000000	0.000000	7.127684	295.016	NaN	0.000000	0.001697	0.001760	28.0792	77.2335	0.001912	40385.5	2.277222	176.012	290.6	1.115259	0.086206	0.086014	295.016	40385.5	0.080727	0.210440	1401.9	80433
192	2.000000	1.125575	7.36693e+06	-48239.1	955.819	-29763.6	0.000000	0.000000	7.140756	366.721	NaN	0.000000	0.001710	0.001760	28.0792	85.7659	0.001770	48450.5	7.362493	170.594	367.64	1.125145	0.096330	0.095900	366.721	48450.5	0.090653	0.258105	1420.82	87131.1
192	2.000000	1.135582	7.36693e+06	-48239.1	955.82	-29763.6	0.000000	0.000000	7.153420	431.365	NaN	0.000000	0.001630	0.001726	28.0792	94.9093	0.001771	53599.6	4.989833	171.763	434.821	1.135274	0.106336	0.106029	431.365	53599.6	0.100300	0.308760	1397.09	88130
192	2.000000	1.144958	7.36693e+06	-48239.1	955.819	-29763.6	0.000000	0.000000	7.166416	519.382	NaN	0.000000	0.001604	0.001715	28.0788	104.255	0.001766	59040.2	5.457297	-9.717376	514.748	1.144720	0.115713	0.115474	519.382	59040.2	0.109115	0.358744	1447.78	90059.4