File: remote_trans/data/nanoindenter/0828-1/data/Data_2025-08-06,11h17m57s/2025-07-22_16-23-58_1_315.txt
2025-07-22, 16:23:58, 1
Index	Phase	Displacement	Time	Pos X	Pos Y	Pos Z	Rot A	Rot B	Piezo Z	Force A	Force B	Gripper	Voltage A	Voltage B	Temperature	Amplitude force	Amplitude pos	Stiffness	Phase shift	Phase excitation	Force A raw	Displacement raw	HMax	HMax raw	Real Force	Real Stiffness	Contact Depth	Area	Hardness	Reduced Mod.
[#]	[#]	[um]	[s]	[um]	[um]	[um]	[m°]	[m°]	[um]	[uN]	[uN]	[V]	[V]	[V]	[°C]	[uN]	[um]	[N/m]	[°]	[°]	[uN]	[um]	[um]	[um]	[uN]	[N/m]	[um]	[um^2]	[MPa]	[MPa]
315	1.000000	0.002703	7.36815e+06	-54389.1	955.818	-29744	0.000000	0.000000	6.002826	-0.046569	NaN	0.000000	0.001602	0.001679	28.0799	0.084364	0.001137	74.1816	16.3199	-162.436	0.040320	0.001423	-0.746053	-0.747333	-0.046569	74.1816	-0.745582	-8.186105E+9	5.688753E-12	NaN
315	1.000000	0.038623	7.36815e+06	-54389.1	955.818	-29744	0.000000	0.000000	6.038748	-0.000165	NaN	0.000000	0.001585	0.001710	28.0782	0.093991	0.001824	51.5203	-48.6251	-165.573	0.039068	0.037347	-0.710133	-0.711409	-0.000165	51.5203	-0.710130	-2.690475E+9	6.146601E-14	NaN
315	1.000000	0.074638	7.36815e+06	-54389.1	955.818	-29744	0.000000	0.000000	6.074763	-0.001244	NaN	0.000000	0.001594	0.001730	28.0785	0.079032	0.002062	38.3333	105.268	-169.088	-0.012838	0.073290	-0.674118	-0.675466	-0.001244	38.3333	-0.674094	-8.657928E+8	1.437103E-12	NaN
315	1.000000	0.110645	7.36815e+06	-54389.1	955.819	-29744	0.000000	0.000000	6.110769	-0.017576	NaN	0.000000	0.001584	0.001709	28.0782	0.050346	0.001958	25.7071	-43.271	-169.921	0.021748	0.109329	-0.638111	-0.639427	-0.017576	25.7071	-0.637598	-2.737358E+8	6.420886E-11	NaN
315	1.000000	0.146658	7.36815e+06	-54389.1	955.819	-29744	0.000000	0.000000	6.146783	0.017342	NaN	0.000000	0.001602	0.001679	28.0784	0.077393	0.002012	38.4593	-36.2801	-165.619	0.040289	0.145369	-0.602098	-0.603387	0.017342	38.4593	-0.602437	-8.995254E+7	-1.927892E-10	NaN
315	1.000000	0.182683	7.36815e+06	-54389.1	955.818	-29744	0.000000	0.000000	6.182808	0.015129	NaN	0.000000	0.001591	0.001690	28.0796	0.058814	0.001934	30.4157	-163.979	-168.002	-0.095920	0.181355	-0.566073	-0.567401	0.015129	30.4157	-0.566446	-2.867607E+7	-5.275813E-10	NaN
315	1.000000	0.218698	7.36815e+06	-54389.1	955.817	-29744	0.000000	0.000000	6.218824	0.023054	NaN	0.000000	0.001570	0.001697	28.0799	0.104792	0.002029	51.656	-136.25	-164.975	-0.035733	0.217353	-0.530058	-0.531403	0.023054	51.656	-0.530393	-9.07884e+06	-2.539312E-9	NaN
315	1.000000	0.254701	7.36815e+06	-54389.1	955.819	-29744	0.000000	0.000000	6.254823	-0.073028	NaN	0.000000	0.001595	0.001698	28.0799	0.071660	0.001996	35.8941	-124.062	-164.882	-0.103976	0.253343	-0.494055	-0.495413	-0.073028	35.8941	-0.492529	-2.69608e+06	2.708657E-8	NaN
315	1.000000	0.290702	7.36815e+06	-54389.1	955.818	-29744	0.000000	0.000000	6.290828	0.042512	NaN	0.000000	0.001614	0.001679	28.08	0.124189	0.001904	65.2349	0.341574	-166.452	-0.002836	0.289424	-0.458054	-0.459332	0.042512	65.2349	-0.458543	-900624	-4.720291E-8	NaN
315	1.000000	0.326736	7.36815e+06	-54389.1	955.818	-29744	0.000000	0.000000	6.326862	0.028778	NaN	0.000000	0.001629	0.001693	28.079	0.053754	0.002016	26.6635	-101.277	-164.923	0.013765	0.325383	-0.422020	-0.423373	0.028778	26.6635	-0.422829	-282181	-1.019855E-7	NaN
315	1.000000	0.362736	7.36815e+06	-54389.1	955.818	-29744	0.000000	0.000000	6.362867	0.129026	NaN	0.000000	0.001600	0.001703	28.0786	0.074431	0.002070	35.9516	-85.3369	-166.659	0.024726	0.361454	-0.386020	-0.387302	0.129026	35.9516	-0.388711	-92199.2	-1.399424E-6	NaN
315	1.000000	0.398776	7.36815e+06	-54389.1	955.819	-29744	0.000000	0.000000	6.398902	0.007415	NaN	0.000000	0.001605	0.001706	28.0784	0.031026	0.002012	15.422	61.4506	-164.39	-0.096457	0.397508	-0.349980	-0.351248	0.007415	15.422	-0.350340	-25819.2	-2.871932E-7	NaN
315	1.000000	0.434786	7.36815e+06	-54389.1	955.817	-29744	0.000000	0.000000	6.434913	0.042574	NaN	0.000000	0.001633	0.001740	28.0785	0.099996	0.002079	48.0954	168.609	-164.248	0.037924	0.433467	-0.313970	-0.315289	0.042574	48.0954	-0.314634	-7754.28	-5.490383E-6	NaN
315	1.000000	0.470804	7.36815e+06	-54389.1	955.819	-29744	0.000000	0.000000	6.470930	0.033599	NaN	0.000000	0.001621	0.001703	28.0798	0.122484	0.001942	63.0773	29.2765	-165.439	0.110416	0.469467	-0.277952	-0.279289	0.033599	63.0773	-0.278352	-2228.91	-1.507414E-5	NaN
315	1.000000	0.506846	7.36815e+06	-54389.1	955.818	-29744	0.000000	0.000000	6.506969	-0.037263	NaN	0.000000	0.001662	0.001734	28.0799	0.055778	0.001957	28.5006	91.1915	-168.163	0.027857	0.505551	-0.241910	-0.243205	-0.037263	28.5006	-0.240930	-594.382	6.269155E-5	NaN
315	1.000000	0.542823	7.36815e+06	-54389.1	955.818	-29744	0.000000	0.000000	6.542948	-0.004708	NaN	0.000000	0.001692	0.001708	28.0799	0.095710	0.001791	53.438	117.304	-166.61	0.012426	0.541541	-0.205933	-0.207215	-0.004708	53.438	-0.205867	-164.322	2.865223E-5	NaN
315	1.000000	0.578846	7.36815e+06	-54389.1	955.819	-29744	0.000000	0.000000	6.578974	0.072087	NaN	0.000000	0.001693	0.001668	28.0785	0.008138	0.002153	3.779381	-57.9652	-164.871	0.167515	0.577553	-0.169910	-0.171203	0.072087	3.779381	-0.184216	-71.9287	-0.001002	NaN
315	1.000000	0.614871	7.36815e+06	-54389.1	955.819	-29744	0.000000	0.000000	6.614998	0.048845	NaN	0.000000	0.001648	0.001679	28.0785	0.108906	0.002036	53.4939	141.164	-166.026	-0.013167	0.613562	-0.133885	-0.135194	0.048845	53.4939	-0.134570	-9.334239	-0.005233	NaN
315	1.000000	0.650869	7.36815e+06	-54389.1	955.819	-29744	0.000000	0.000000	6.650998	0.087822	NaN	0.000000	0.001675	0.001710	28.0785	0.055347	0.002094	26.4256	26.3097	-165.612	0.097056	0.649581	-0.097887	-0.099175	0.087822	26.4256	-0.100379	-1.862811	-0.047145	NaN
315	1.000000	0.686907	7.36815e+06	-54389.1	955.818	-29744	0.000000	0.000000	6.687034	0.045541	NaN	0.000000	0.001620	0.001710	28.0783	0.011907	0.002022	5.888462	98.6904	-165.79	0.104995	0.685605	-0.061849	-0.063151	0.045541	5.888462	-0.067649	-0.294710	-0.154528	NaN
315	1.000000	0.722913	7.36815e+06	-54389.1	955.819	-29744	0.000000	0.000000	6.723036	-0.034061	NaN	0.000000	0.001579	0.001741	28.0798	0.209610	0.002012	104.196	41.2279	-164.518	0.046386	0.721634	-0.025843	-0.027122	-0.034061	104.196	-0.025598	-0.017491	1.947380	NaN
315	1.000000	0.758923	7.36815e+06	-54389.1	955.819	-29744	0.000000	0.000000	6.759052	0.106764	NaN	0.000000	0.001595	0.001703	28.08	0.093838	0.002106	44.55	-3.559038	-162.411	0.080776	0.757635	0.010167	0.008879	0.106764	44.55	0.008369	0.007425	14.3794	472.366
315	1.000000	0.794934	7.36815e+06	-54389.1	955.818	-29744	0.000000	0.000000	6.795136	1.871070	NaN	0.000000	0.001635	0.001705	28.0798	1.002051	0.001872	535.165	25.6903	-164.702	1.752616	0.793638	0.046178	0.044882	1.871070	535.165	0.043555	0.073539	25.4431	1803.02
315	1.000000	0.830956	7.36815e+06	-54389.1	955.818	-29744	0.000000	0.000000	6.831176	2.304133	NaN	0.000000	0.001621	0.001682	28.0796	1.204953	0.002030	593.59	26.4543	-168.221	2.326593	0.829690	0.082200	0.080934	2.304133	593.59	0.079289	0.203911	11.2997	1200.99
315	1.000000	0.866942	7.36815e+06	-54389.1	955.819	-29744	0.000000	0.000000	6.867233	4.034233	NaN	0.000000	0.001640	0.001651	28.0784	2.217349	0.001889	1173.94	21.0631	-166.691	3.878405	0.865624	0.118186	0.116868	4.034233	1173.94	0.115608	0.397818	10.1409	1700.5
315	1.000000	0.902965	7.36815e+06	-54389.1	955.818	-29744	0.000000	0.000000	6.903374	6.894654	NaN	0.000000	0.001629	0.001714	28.0784	2.893907	0.002007	1442.09	22.8161	-167.689	6.922924	0.901642	0.154209	0.152886	6.894654	1442.09	0.150623	0.641668	10.7449	1644.8
315	1.000000	0.938983	7.36815e+06	-54389.1	955.819	-29744	0.000000	0.000000	6.939371	6.393886	NaN	0.000000	0.001651	0.001719	28.0785	3.661745	0.002059	1778.26	22.0085	-169.945	6.216641	0.937731	0.190227	0.188975	6.393886	1778.26	0.187530	0.960673	6.655630	1657.6
315	2.000000	0.956553	7.36815e+06	-54389.1	955.819	-29744	0.000000	0.000000	6.957050	9.045832	NaN	0.000000	0.001606	0.001677	28.0789	5.712516	0.002029	2815.74	16.8844	-172.474	9.193193	0.956288	0.207797	0.207532	9.045832	2815.74	0.205388	1.138635	7.944451	2410.87
315	2.000000	0.965489	7.36815e+06	-54389.1	955.819	-29744	0.000000	0.000000	6.966158	13.2221	NaN	0.000000	0.001616	0.001728	28.0799	6.703022	0.001943	3449.25	12.7394	-172.93	13.1259	0.965250	0.216733	0.216494	13.2221	3449.25	0.213858	1.228546	10.7624	2843.16
315	2.000000	0.974489	7.36815e+06	-54389.1	955.82	-29744	0.000000	0.000000	6.975313	16.988	NaN	0.000000	0.001589	0.001721	28.0801	7.907757	0.002065	3829.18	11.1222	-170.496	17.1207	0.974134	0.225733	0.225378	16.988	3829.18	0.222406	1.322913	12.8413	3041.68
315	2.000000	0.983428	7.36815e+06	-54389.1	955.819	-29744	0.000000	0.000000	6.984378	20.0637	NaN	0.000000	0.001591	0.001687	28.0801	8.338777	0.002025	4116.92	12.1147	-171.819	19.4881	0.983176	0.234672	0.234420	20.0637	4116.92	0.231017	1.421677	14.1127	3154.6
315	2.000000	0.992476	7.36815e+06	-54389.1	955.819	-29744	0.000000	0.000000	6.993557	23.2289	NaN	0.000000	0.001629	0.001699	28.0798	9.336340	0.002029	4602.55	8.851073	-169.648	22.9088	0.992139	0.243720	0.243383	23.2289	4602.55	0.239935	1.527920	15.2029	3401.9
315	2.000000	1.001448	7.36815e+06	-54389.1	955.82	-29744	0.000000	0.000000	7.002567	24.1621	NaN	0.000000	0.001592	0.001671	28.0789	9.984157	0.001997	4999.52	9.000923	-170.164	24.3293	1.001170	0.252692	0.252414	24.1621	4999.52	0.249067	1.640900	14.7249	3565.83
315	2.000000	1.010477	7.36815e+06	-54389.1	955.822	-29744	0.000000	0.000000	7.011672	26.0225	NaN	0.000000	0.001582	0.001642	28.0788	10.594	0.001988	5330.3	10.614	-173.003	26.4398	1.010113	0.261721	0.261357	26.0225	5330.3	0.258059	1.756315	14.8166	3674.71
315	2.000000	1.019431	7.36815e+06	-54389.1	955.82	-29744	0.000000	0.000000	7.020663	26.8989	NaN	0.000000	0.001583	0.001659	28.0785	10.6399	0.001890	5630.37	13.0685	-174.47	26.828	1.019088	0.270675	0.270332	26.8989	5630.37	0.267092	1.876424	14.3352	3755.3
315	2.000000	1.028439	7.36815e+06	-54389.1	955.82	-29744	0.000000	0.000000	7.029610	25.4379	NaN	0.000000	0.001590	0.001675	28.0794	11.3898	0.002027	5618.77	11.3739	-172.776	25.1639	1.028158	0.279683	0.279402	25.4379	5618.77	0.276287	2.003005	12.6999	3627.22
315	2.000000	1.037393	7.36815e+06	-54389.1	955.821	-29744	0.000000	0.000000	7.038649	27.4948	NaN	0.000000	0.001581	0.001653	28.0795	12.1559	0.002090	5816.52	14.8638	-175.974	27.5392	1.037052	0.288637	0.288296	27.4948	5816.52	0.285091	2.128298	12.9187	3642.67
315	2.000000	1.046400	7.36815e+06	-54389.1	955.821	-29744	0.000000	0.000000	7.047738	29.4674	NaN	0.000000	0.001582	0.001641	28.0794	12.6635	0.001973	6418.41	12.7663	-174.179	29.2824	1.046146	0.297644	0.297390	29.4674	6418.41	0.294201	2.262165	13.0262	3898.87
315	2.000000	1.048404	7.36815e+06	-54389.1	955.82	-29744	0.000000	0.000000	7.049740	29.4363	NaN	0.000000	0.001613	0.001672	28.0792	13.0305	0.002035	6404.59	12.4873	-174.324	29.481	1.048066	0.299648	0.299310	29.4363	6404.59	0.296201	2.292125	12.8424	3864.96