File: remote_trans/data/nanoindenter/0828-1/data/Data_2025-08-06,11h17m57s/2025-07-22_16-23-58_1_1160.txt
2025-07-22, 16:23:58, 1
Index	Phase	Displacement	Time	Pos X	Pos Y	Pos Z	Rot A	Rot B	Piezo Z	Force A	Force B	Gripper	Voltage A	Voltage B	Temperature	Amplitude force	Amplitude pos	Stiffness	Phase shift	Phase excitation	Force A raw	Displacement raw	HMax	HMax raw	Real Force	Real Stiffness	Contact Depth	Area	Hardness	Reduced Mod.
[#]	[#]	[um]	[s]	[um]	[um]	[um]	[m°]	[m°]	[um]	[uN]	[uN]	[V]	[V]	[V]	[°C]	[uN]	[um]	[N/m]	[°]	[°]	[uN]	[um]	[um]	[um]	[uN]	[N/m]	[um]	[um^2]	[MPa]	[MPa]
1160	1.000000	0.002699	7.3764e+06	-57589.1	1105.82	-29736.5	0.000000	0.000000	6.002767	-0.039460	NaN	0.000000	0.001615	0.001671	28.0829	0.007685	0.000916	8.386832	52.0887	-163.555	0.018565	0.001450	-1.049941	-1.051189	-0.039460	8.386832	-1.046412	-9.553795E+13	4.130311E-16	NaN
1160	1.000000	0.042662	7.3764e+06	-57589.1	1105.82	-29736.5	0.000000	0.000000	6.042731	-0.011568	NaN	0.000000	0.001638	0.001643	28.0843	0.090771	0.002015	45.0478	74.8026	-167.23	-0.027663	0.041367	-1.009977	-1.011272	-0.011568	45.0478	-1.009785	-3.072462E+13	3.765153E-16	NaN
1160	1.000000	0.082677	7.3764e+06	-57589.1	1105.82	-29736.5	0.000000	0.000000	6.082744	-0.063152	NaN	0.000000	0.001690	0.001678	28.0837	0.030220	0.002052	14.7269	110.923	-165.542	-0.061281	0.081375	-0.969962	-0.971265	-0.063152	14.7269	-0.966746	-8.087359E+12	7.808763E-15	NaN
1160	1.000000	0.122732	7.3764e+06	-57589.1	1105.82	-29736.5	0.000000	0.000000	6.122802	0.016714	NaN	0.000000	0.001740	0.001686	28.0838	0.040652	0.001939	20.9645	28.794	-165.904	-0.029374	0.121416	-0.929908	-0.931223	0.016714	20.9645	-0.930506	-2.624355E+12	-6.368845E-15	NaN
1160	1.000000	0.162733	7.3764e+06	-57589.1	1105.82	-29736.5	0.000000	0.000000	6.162800	-0.059335	NaN	0.000000	0.001701	0.001677	28.0822	0.077423	0.002150	36.0186	21.3862	-167.899	-0.032605	0.161377	-0.889907	-0.891263	-0.059335	36.0186	-0.888671	-7.144159E+11	8.305375E-14	NaN
1160	1.000000	0.202718	7.3764e+06	-57589.1	1105.82	-29736.6	0.000000	0.000000	6.202786	-0.032227	NaN	0.000000	0.001681	0.001649	28.0819	0.071860	0.001963	36.6161	-12.6152	-166.239	-0.069012	0.201487	-0.849921	-0.851152	-0.032227	36.6161	-0.849261	-2.092829E+11	1.539860E-13	NaN
1160	1.000000	0.242752	7.3764e+06	-57589.1	1105.82	-29736.6	0.000000	0.000000	6.242816	-0.112643	NaN	0.000000	0.001637	0.001659	28.0818	0.057889	0.002009	28.8088	21.0466	-161.898	-0.024585	0.241380	-0.809888	-0.811259	-0.112643	28.8088	-0.806955	-5.588048E+10	2.015790E-12	NaN
1160	1.000000	0.282777	7.3764e+06	-57589.1	1105.82	-29736.6	0.000000	0.000000	6.282845	-0.033674	NaN	0.000000	0.001703	0.001692	28.0819	0.096350	0.001986	48.5051	88.385	-158.637	-0.010590	0.281460	-0.769862	-0.771179	-0.033674	48.5051	-0.769341	-1.723253E+10	1.954085E-12	NaN
1160	1.000000	0.322775	7.3764e+06	-57589.1	1105.82	-29736.6	0.000000	0.000000	6.322841	-0.086230	NaN	0.000000	0.001691	0.001700	28.0834	0.055885	0.001955	28.5825	-54.4452	-163.422	-0.087427	0.321538	-0.729864	-0.731101	-0.086230	28.5825	-0.727602	-4.657135E+9	1.851574E-11	NaN
1160	1.000000	0.362779	7.3764e+06	-57589.1	1105.82	-29736.6	0.000000	0.000000	6.362848	-0.022756	NaN	0.000000	0.001670	0.001668	28.0831	0.102872	0.002104	48.8839	29.2083	-162.481	0.008603	0.361558	-0.689860	-0.691082	-0.022756	48.8839	-0.689511	-1.406810E+9	1.617530E-11	NaN
1160	1.000000	0.402834	7.3764e+06	-57589.1	1105.82	-29736.6	0.000000	0.000000	6.402906	0.045500	NaN	0.000000	0.001654	0.001681	28.0834	0.030233	0.002007	15.0602	-28.0078	-162.831	0.036394	0.401468	-0.649805	-0.651171	0.045500	15.0602	-0.652071	-4.323377E+8	-1.052413E-10	NaN
1160	1.000000	0.442861	7.3764e+06	-57589.1	1105.82	-29736.6	0.000000	0.000000	6.442928	-0.051322	NaN	0.000000	0.001656	0.001661	28.0822	0.116927	0.002072	56.4245	-147.707	-164.201	-0.094090	0.441530	-0.609779	-0.611110	-0.051322	56.4245	-0.609097	-1.110927E+8	4.619728E-10	NaN
1160	1.000000	0.482860	7.3764e+06	-57589.1	1105.82	-29736.6	0.000000	0.000000	6.482926	-0.080196	NaN	0.000000	0.001651	0.001661	28.0825	0.084266	0.002076	40.5822	-138.153	-165.744	-0.082758	0.481555	-0.569779	-0.571084	-0.080196	40.5822	-0.568297	-3.041601E+7	2.636638E-9	NaN
1160	1.000000	0.522892	7.3764e+06	-57589.1	1105.82	-29736.6	0.000000	0.000000	6.522960	-0.025594	NaN	0.000000	0.001665	0.001630	28.0824	0.050860	0.001952	26.0496	26.5745	-166.722	-0.078218	0.521563	-0.529747	-0.531076	-0.025594	26.0496	-0.529010	-8.68623e+06	2.946533E-9	NaN
1160	1.000000	0.562894	7.3764e+06	-57589.1	1105.82	-29736.6	0.000000	0.000000	6.562961	-0.068126	NaN	0.000000	0.001688	0.001603	28.0835	0.092767	0.002147	43.2118	-37.5453	-167.015	0.063899	0.561654	-0.489745	-0.490985	-0.068126	43.2118	-0.488563	-2.37303e+06	2.870861E-8	NaN
1160	1.000000	0.602920	7.3764e+06	-57589.1	1105.82	-29736.6	0.000000	0.000000	6.602987	-0.054992	NaN	0.000000	0.001651	0.001737	28.0836	0.158273	0.002078	76.164	-96.1789	-160.269	0.017752	0.601603	-0.449719	-0.451037	-0.054992	76.164	-0.449178	-664906	8.270711E-8	NaN
1160	1.000000	0.642975	7.3764e+06	-57589.1	1105.82	-29736.6	0.000000	0.000000	6.643042	-0.055370	NaN	0.000000	0.001671	0.001685	28.0832	0.044078	0.002058	21.4196	-111.626	-164.521	-0.124410	0.641639	-0.409664	-0.411000	-0.055370	21.4196	-0.407726	-172206	3.215342E-7	NaN
1160	1.000000	0.682958	7.3764e+06	-57589.1	1105.82	-29736.6	0.000000	0.000000	6.683027	-0.022825	NaN	0.000000	0.001704	0.001727	28.0836	0.033549	0.001874	17.898	150.339	-163.142	-0.079030	0.681676	-0.369681	-0.370963	-0.022825	17.898	-0.368725	-47616.2	4.793568E-7	NaN
1160	1.000000	0.722967	7.3764e+06	-57589.1	1105.82	-29736.6	0.000000	0.000000	6.723034	-0.052025	NaN	0.000000	0.001737	0.001646	28.0822	0.087116	0.002166	40.2186	162.512	-165.984	-0.080667	0.721685	-0.329673	-0.330954	-0.052025	40.2186	-0.328703	-12486.6	4.166467E-6	NaN
1160	1.000000	0.762939	7.3764e+06	-57589.1	1105.82	-29736.6	0.000000	0.000000	6.763008	-0.018611	NaN	0.000000	0.001700	0.001652	28.0822	0.058283	0.002126	27.4178	-174.512	-162.242	-0.064011	0.761657	-0.289700	-0.290982	-0.018611	27.4178	-0.289191	-3244.71	5.735818E-6	NaN
1160	1.000000	0.803003	7.3764e+06	-57589.1	1105.82	-29736.6	0.000000	0.000000	6.803070	-0.049725	NaN	0.000000	0.001603	0.001651	28.082	0.024426	0.002021	12.0881	-46.4856	-165.088	-0.118064	0.801739	-0.249637	-0.250900	-0.049725	12.0881	-0.246551	-727.015	6.839546E-5	NaN
1160	1.000000	0.843022	7.3764e+06	-57589.1	1105.82	-29736.6	0.000000	0.000000	6.843090	-0.034633	NaN	0.000000	0.001625	0.001698	28.0837	0.061336	0.001956	31.3525	135.852	-166.9	-0.046203	0.841693	-0.209618	-0.210946	-0.034633	31.3525	-0.208789	-183.313	0.000189	NaN
1160	1.000000	0.883053	7.3764e+06	-57589.1	1105.82	-29736.6	0.000000	0.000000	6.883126	0.068123	NaN	0.000000	0.001652	0.001703	28.0836	0.067009	0.002028	33.0447	-139.42	-165.01	0.095972	0.881718	-0.169586	-0.170922	0.068123	33.0447	-0.171132	-42.9784	-0.001585	NaN
1160	1.000000	0.923059	7.3764e+06	-57589.1	1105.82	-29736.6	0.000000	0.000000	6.923128	-0.010639	NaN	0.000000	0.001641	0.001646	28.0835	0.040943	0.001969	20.791	-170.093	-162.574	-0.055923	0.921697	-0.129580	-0.130942	-0.010639	20.791	-0.129197	-7.351610	0.001447	NaN
1160	1.000000	0.963059	7.3764e+06	-57589.1	1105.82	-29736.6	0.000000	0.000000	6.963128	-0.017455	NaN	0.000000	0.001716	0.001660	28.0835	0.127284	0.002058	61.8463	58.3856	-162.532	0.008333	0.961742	-0.089580	-0.090897	-0.017455	61.8463	-0.089369	-1.044654	0.016709	NaN
1160	1.000000	1.003083	7.3764e+06	-57589.1	1105.82	-29736.6	0.000000	0.000000	7.003149	-0.077172	NaN	0.000000	0.001651	0.001679	28.082	0.037584	0.002067	18.1821	140.051	-162.442	-0.129831	1.001748	-0.049557	-0.050891	-0.077172	18.1821	-0.046374	-0.070790	1.090163	NaN
1160	1.000000	1.043085	7.3764e+06	-57589.1	1105.82	-29736.6	0.000000	0.000000	7.043152	-0.062285	NaN	0.000000	0.001643	0.001670	28.0822	0.045084	0.002062	21.8642	-66.4301	-164.377	-0.068300	1.041821	-0.009554	-0.010819	-0.062285	21.8642	-0.007418	-0.004889	12.7406	NaN
1160	2.000000	1.063549	7.3764e+06	-57589.1	1105.82	-29736.6	0.000000	0.000000	7.064307	16.7367	NaN	0.000000	0.001631	0.001650	28.0822	15.3037	0.001606	9530.31	1.530191	-171.383	15.3203	1.063295	0.010910	0.010656	16.7367	9530.31	0.009592	0.008732	1916.68	93179.6
1160	2.000000	1.073559	7.3764e+06	-57589.1	1105.82	-29736.6	0.000000	0.000000	7.075233	39.0085	NaN	0.000000	0.001666	0.001694	28.0837	26.4805	0.001887	14034.3	5.814103	-177.19	39.4209	1.073286	0.020920	0.020647	39.0085	14034.3	0.018835	0.020745	1880.42	89025.2
1160	2.000000	1.083508	7.3764e+06	-57589.1	1105.82	-29736.6	0.000000	0.000000	7.086603	73.5405	NaN	0.000000	0.001624	0.001606	28.0836	36.9424	0.001827	20217.5	6.000473	179.1	72.3804	1.083201	0.030868	0.030562	73.5405	20217.5	0.028140	0.036977	1988.82	96058.4
1160	2.000000	1.093510	7.3764e+06	-57589.1	1105.82	-29736.6	0.000000	0.000000	7.097920	105.501	NaN	0.000000	0.001653	0.001630	28.0836	45.5464	0.001750	26024.7	5.563384	177.138	104.394	1.093178	0.040870	0.040539	105.501	26024.7	0.037830	0.058541	1802.18	98272.1
1160	2.000000	1.103543	7.3764e+06	-57589.1	1105.82	-29736.6	0.000000	0.000000	7.109831	151.141	NaN	0.000000	0.001603	0.001654	28.0837	57.2188	0.001823	31387.3	4.153730	176.865	151.602	1.103114	0.050904	0.050475	151.141	31387.3	0.047292	0.084228	1794.43	98809.7
1160	2.000000	1.113509	7.3764e+06	-57589.1	1105.82	-29736.6	0.000000	0.000000	7.121794	199.662	NaN	0.000000	0.001617	0.001676	28.0824	66.3414	0.001597	41549.4	4.037814	174.164	198.75	1.113264	0.060870	0.060624	199.662	41549.4	0.057266	0.116186	1718.46	111368
1160	2.000000	1.123549	7.3764e+06	-57589.1	1105.82	-29736.6	0.000000	0.000000	7.134375	261.44	NaN	0.000000	0.001635	0.001649	28.0827	78.0329	0.001798	43406.4	7.588681	170.947	264.078	1.123270	0.070909	0.070631	261.44	43406.4	0.066392	0.149722	1746.17	102491
1160	2.000000	1.133460	7.3764e+06	-57589.1	1105.82	-29736.6	0.000000	0.000000	7.147225	332.855	NaN	0.000000	0.001663	0.001680	28.0827	85.7612	0.001804	47536.1	3.543881	174.606	331.955	1.133165	0.080821	0.080525	332.855	47536.1	0.075569	0.187477	1775.45	100305
1160	2.000000	1.143441	7.3764e+06	-57589.1	1105.82	-29736.6	0.000000	0.000000	7.159957	399.728	NaN	0.000000	0.001621	0.001632	28.0837	96.7437	0.001835	52711.8	5.983913	171.19	397.706	1.143068	0.090801	0.090428	399.728	52711.8	0.085114	0.230945	1730.84	100214
1160	2.000000	1.153528	7.3764e+06	-57589.1	1105.82	-29736.6	0.000000	0.000000	7.173159	475.433	NaN	0.000000	0.001641	0.001672	28.0836	108.465	0.001909	56822.2	11.2286	166.033	478.425	1.153024	0.100889	0.100385	475.433	56822.2	0.094613	0.278385	1707.83	98394
1160	2.000000	1.155485	7.3764e+06	-57589.1	1105.82	-29736.6	0.000000	0.000000	7.175757	491.02	NaN	0.000000	0.001593	0.001693	28.0836	107.839	0.001659	64988.9	9.857295	166.478	493.951	1.154947	0.102845	0.102307	491.02	64988.9	0.097179	0.291904	1682.13	109899