File: remote_trans/data/nanoindenter/0828-1/data/Data_2025-08-06,11h17m57s/2025-07-22_16-23-58_1_63.txt
2025-07-22, 16:23:58, 1
Index	Phase	Displacement	Time	Pos X	Pos Y	Pos Z	Rot A	Rot B	Piezo Z	Force A	Force B	Gripper	Voltage A	Voltage B	Temperature	Amplitude force	Amplitude pos	Stiffness	Phase shift	Phase excitation	Force A raw	Displacement raw	HMax	HMax raw	Real Force	Real Stiffness	Contact Depth	Area	Hardness	Reduced Mod.
[#]	[#]	[um]	[s]	[um]	[um]	[um]	[m°]	[m°]	[um]	[uN]	[uN]	[V]	[V]	[V]	[°C]	[uN]	[um]	[N/m]	[°]	[°]	[uN]	[um]	[um]	[um]	[uN]	[N/m]	[um]	[um^2]	[MPa]	[MPa]
63	1.000000	0.002706	7.36566e+06	-41789.1	955.819	-29785.6	0.000000	0.000000	6.002796	-0.034184	NaN	0.000000	0.001591	0.001665	28.0851	0.126273	0.000919	137.436	-118.956	-169.24	-0.006478	0.001453	-1.144929	-1.146182	-0.034184	137.436	-1.144743	-1.996798E+15	1.711941E-17	NaN
63	1.000000	0.044635	7.36566e+06	-41789.1	955.818	-29785.6	0.000000	0.000000	6.044727	0.007437	NaN	0.000000	0.001606	0.001738	28.124	0.029329	0.002005	14.6255	66.4592	17.3029	-0.039735	0.043310	-1.103000	-1.104326	0.007437	14.6255	-1.103381	-5.564890E+14	-1.336342E-17	NaN
63	1.000000	0.086705	7.36566e+06	-41789.1	955.819	-29785.6	0.000000	0.000000	6.086794	-0.042137	NaN	0.000000	0.001634	0.001662	28.1159	0.029437	0.001858	15.8408	-91.6055	-164.221	-0.007638	0.085349	-1.060931	-1.062287	-0.042137	15.8408	-1.058936	-1.407735E+14	2.993258E-16	NaN
63	1.000000	0.128699	7.36566e+06	-41789.1	955.818	-29785.6	0.000000	0.000000	6.128791	-0.004849	NaN	0.000000	0.001601	0.001696	28.0822	0.083246	0.002200	37.8375	-72.3358	11.9134	0.047394	0.127317	-1.018936	-1.020318	-0.004849	37.8375	-1.018840	-4.067667E+13	1.192016E-16	NaN
63	1.000000	0.170720	7.36566e+06	-41789.1	955.817	-29785.6	0.000000	0.000000	6.170810	-0.059274	NaN	0.000000	0.001681	0.001704	28.0859	0.122031	0.002010	60.7173	61.3633	-163.162	-0.009608	0.169385	-0.976915	-0.978251	-0.059274	60.7173	-0.976183	-1.083884E+13	5.468682E-15	NaN
63	1.000000	0.212748	7.36566e+06	-41789.1	955.817	-29785.6	0.000000	0.000000	6.212838	-0.047098	NaN	0.000000	0.001650	0.001720	28.1247	0.033510	0.001972	16.9969	-175.806	14.8384	-0.024356	0.211414	-0.934887	-0.936221	-0.047098	16.9969	-0.932809	-2.819086E+12	1.670688E-14	NaN
63	1.000000	0.254739	7.36566e+06	-41789.1	955.818	-29785.6	0.000000	0.000000	6.254829	-0.036197	NaN	0.000000	0.001664	0.001665	28.1157	0.020786	0.001976	10.5176	10.9571	-167.484	-0.074083	0.253492	-0.892896	-0.894144	-0.036197	10.5176	-0.890315	-7.519244E+11	4.813959E-14	NaN
63	1.000000	0.296753	7.36566e+06	-41789.1	955.819	-29785.6	0.000000	0.000000	6.296842	-0.048139	NaN	0.000000	0.001598	0.001698	28.0826	0.066515	0.002077	32.0179	158.152	12.0117	-0.013780	0.295387	-0.850883	-0.852248	-0.048139	32.0179	-0.849755	-2.125310E+11	2.265038E-13	NaN
63	1.000000	0.338794	7.36566e+06	-41789.1	955.819	-29785.6	0.000000	0.000000	6.338883	-0.080340	NaN	0.000000	0.001558	0.001662	28.0866	0.038576	0.002177	17.7194	-56.0164	-165.067	-0.027681	0.337463	-0.808841	-0.810172	-0.080340	17.7194	-0.805440	-5.329710E+10	1.507408E-12	NaN
63	1.000000	0.380795	7.36566e+06	-41789.1	955.819	-29785.6	0.000000	0.000000	6.380886	-0.025120	NaN	0.000000	0.001635	0.001655	28.1244	0.021560	0.002049	10.5215	-74.8944	13.8347	-0.073702	0.379466	-0.766840	-0.768170	-0.025120	10.5215	-0.765049	-1.506560E+10	1.667361E-12	NaN
63	1.000000	0.422802	7.36566e+06	-41789.1	955.818	-29785.6	0.000000	0.000000	6.422891	-0.064319	NaN	0.000000	0.001615	0.001626	28.1176	0.046182	0.001955	23.6267	-104.852	-168.393	-0.044623	0.421595	-0.724833	-0.726040	-0.064319	23.6267	-0.722792	-4.004440E+9	1.606197E-11	NaN
63	1.000000	0.464837	7.36566e+06	-41789.1	955.819	-29785.6	0.000000	0.000000	6.464926	-0.084788	NaN	0.000000	0.001594	0.001688	28.0846	0.068667	0.002063	33.2821	-69.3655	11.2619	0.002950	0.463513	-0.682798	-0.684123	-0.084788	33.2821	-0.680887	-1.072361E+9	7.906677E-11	NaN
63	1.000000	0.506866	7.36566e+06	-41789.1	955.818	-29785.6	0.000000	0.000000	6.506957	-0.009745	NaN	0.000000	0.001580	0.001683	28.0842	0.106603	0.001940	54.943	-122.199	-165.967	0.104164	0.505542	-0.640770	-0.642094	-0.009745	54.943	-0.640637	-3.013172E+8	3.233988E-11	NaN
63	1.000000	0.548870	7.36566e+06	-41789.1	955.819	-29785.6	0.000000	0.000000	6.548958	-0.078666	NaN	0.000000	0.001544	0.001632	28.1226	0.037406	0.001843	20.2983	77.804	12.9151	-0.072427	0.547503	-0.598766	-0.600133	-0.078666	20.2983	-0.595859	-7.301651E+7	1.077375E-9	NaN
63	1.000000	0.590865	7.36566e+06	-41789.1	955.819	-29785.6	0.000000	0.000000	6.590954	-0.050112	NaN	0.000000	0.001608	0.001659	28.1162	0.105813	0.001913	55.3008	-80.4513	-164.395	-0.084356	0.589544	-0.556771	-0.558092	-0.050112	55.3008	-0.556091	-2.061999E+7	2.430256E-9	NaN
63	1.000000	0.632906	7.36566e+06	-41789.1	955.819	-29785.6	0.000000	0.000000	6.632997	0.001116	NaN	0.000000	0.001584	0.001641	28.0823	0.090560	0.001993	45.432	-125.517	13.8636	-0.097082	0.631607	-0.514730	-0.516028	0.001116	45.432	-0.514748	-5.50208e+06	-2.028102E-10	NaN
63	1.000000	0.674928	7.36566e+06	-41789.1	955.819	-29785.6	0.000000	0.000000	6.675018	-0.032869	NaN	0.000000	0.001606	0.001669	28.0846	0.046913	0.001931	24.2944	122.09	-172.287	-0.137142	0.673603	-0.472708	-0.474032	-0.032869	24.2944	-0.471693	-1.37769e+06	2.385791E-8	NaN
63	1.000000	0.716937	7.36566e+06	-41789.1	955.819	-29785.6	0.000000	0.000000	6.717029	0.012721	NaN	0.000000	0.001661	0.001644	28.1216	0.119969	0.001929	62.2014	24.6971	16.8688	0.068841	0.715589	-0.430699	-0.432047	0.012721	62.2014	-0.430852	-366537	-3.470508E-8	NaN
63	1.000000	0.758950	7.36566e+06	-41789.1	955.818	-29785.6	0.000000	0.000000	6.759038	-0.086391	NaN	0.000000	0.001643	0.001614	28.1183	0.098510	0.001991	49.486	-19.8409	-164.852	0.024871	0.757671	-0.388686	-0.389965	-0.086391	49.486	-0.387376	-88230.7	9.791447E-7	NaN
63	1.000000	0.800983	7.36566e+06	-41789.1	955.817	-29785.6	0.000000	0.000000	6.801076	0.034062	NaN	0.000000	0.001649	0.001625	28.0809	0.052119	0.002041	25.5318	-162.392	15.3555	-0.021733	0.799603	-0.346652	-0.348032	0.034062	25.5318	-0.347653	-23600.6	-1.443272E-6	NaN
63	1.000000	0.843022	7.36566e+06	-41789.1	955.818	-29785.6	0.000000	0.000000	6.843113	-0.019591	NaN	0.000000	0.001645	0.001679	28.0859	0.038844	0.001991	19.5084	-141.802	-164.375	0.051068	0.841682	-0.304613	-0.305954	-0.019591	19.5084	-0.303860	-5370.72	3.647819E-6	NaN
63	1.000000	0.885010	7.36566e+06	-41789.1	955.819	-29785.6	0.000000	0.000000	6.885099	-0.055894	NaN	0.000000	0.001584	0.001623	28.1213	0.102210	0.001942	52.6189	-111.182	12.0766	-0.127241	0.883579	-0.262626	-0.264056	-0.055894	52.6189	-0.261829	-1250.05	4.471370E-5	NaN
63	1.000000	0.927037	7.36566e+06	-41789.1	955.818	-29785.6	0.000000	0.000000	6.927126	-0.081866	NaN	0.000000	0.001581	0.001633	28.123	0.051276	0.002052	24.9919	158.446	-168.214	-0.049072	0.925753	-0.220598	-0.221882	-0.081866	24.9919	-0.218141	-259.381	0.000316	NaN
63	1.000000	0.969059	7.36566e+06	-41789.1	955.819	-29785.6	0.000000	0.000000	6.969150	0.004634	NaN	0.000000	0.001609	0.001664	28.0854	0.053195	0.002098	25.3558	-115.615	12.1168	0.008628	0.967723	-0.178577	-0.179913	0.004634	25.3558	-0.178714	-58.0177	-7.986967E-5	NaN
63	1.000000	1.011055	7.36566e+06	-41789.1	955.818	-29785.6	0.000000	0.000000	7.011146	-0.007734	NaN	0.000000	0.001558	0.001656	28.0853	0.094349	0.002179	43.2994	111.877	-165.441	0.006213	1.009739	-0.136581	-0.137896	-0.007734	43.2994	-0.136447	-10.1354	0.000763	NaN
63	1.000000	1.053079	7.36566e+06	-41789.1	955.819	-29785.6	0.000000	0.000000	7.053170	-0.002951	NaN	0.000000	0.001556	0.001653	28.1194	0.051718	0.001992	25.9563	-62.7132	18.1204	0.009876	1.051662	-0.094557	-0.095973	-0.002951	25.9563	-0.094471	-1.371985	0.002151	NaN
63	1.000000	1.095067	7.36566e+06	-41789.1	955.819	-29785.6	0.000000	0.000000	7.095158	-0.021719	NaN	0.000000	0.001591	0.001694	28.1208	0.080521	0.002014	39.9798	18.8338	-167.181	-0.014560	1.093808	-0.052569	-0.053828	-0.021719	39.9798	-0.052161	-0.106004	0.204885	NaN
63	1.000000	1.137082	7.36566e+06	-41789.1	955.819	-29785.6	0.000000	0.000000	7.137171	-0.062740	NaN	0.000000	0.001553	0.001693	28.083	0.060934	0.001988	30.6446	4.550726	13.5348	-0.033030	1.135784	-0.010554	-0.011851	-0.062740	30.6446	-0.009018	-0.005823	10.7736	NaN
63	2.000000	1.163658	7.36566e+06	-41789.1	955.818	-29785.6	0.000000	0.000000	7.164482	17.8183	NaN	0.000000	0.001535	0.001675	28.0841	14.5432	0.001684	8634.82	8.520085	-177.53	16.5497	1.163346	0.016022	0.015710	17.8183	8634.82	0.014475	0.014591	1221.15	65309.6
63	2.000000	1.174097	7.36566e+06	-41789.1	955.819	-29785.6	0.000000	0.000000	7.176176	48.3476	NaN	0.000000	0.001555	0.001665	28.1196	27.048	0.001850	14621.7	3.016295	3.393028	47.4774	1.173778	0.026462	0.026143	48.3476	14621.7	0.023982	0.029189	1656.37	78192.1
63	2.000000	1.184563	7.36566e+06	-41789.1	955.819	-29785.6	0.000000	0.000000	7.188291	88.4869	NaN	0.000000	0.001596	0.001668	28.1235	37.4556	0.001728	21678.5	4.346557	177.593	86.5292	1.184340	0.036927	0.036705	88.4869	21678.5	0.033866	0.049138	1800.77	89349.3
63	2.000000	1.195044	7.36566e+06	-41789.1	955.818	-29785.6	0.000000	0.000000	7.200780	137.337	NaN	0.000000	0.001606	0.001620	28.0827	48.2612	0.001717	28100.3	9.805431	-10.0353	134.004	1.194660	0.047409	0.047025	137.337	28100.3	0.043743	0.074059	1854.41	94339.7
63	2.000000	1.205585	7.36566e+06	-41789.1	955.819	-29785.6	0.000000	0.000000	7.213787	197.351	NaN	0.000000	0.001571	0.001620	28.0841	58.5098	0.001891	30946.4	6.348402	173.721	196.108	1.205146	0.057949	0.057510	197.351	30946.4	0.053166	0.102451	1926.31	88333.7
63	2.000000	1.216194	7.36566e+06	-41789.1	955.82	-29785.6	0.000000	0.000000	7.226530	249.25	NaN	0.000000	0.001568	0.001618	28.1178	69.0591	0.001863	37066.4	6.159690	-8.684984	254.307	1.215897	0.068559	0.068262	249.25	37066.4	0.063515	0.138715	1796.85	90926.9
63	2.000000	1.226515	7.36566e+06	-41789.1	955.818	-29785.6	0.000000	0.000000	7.240070	327.607	NaN	0.000000	0.001570	0.001643	28.1233	79.6059	0.001955	40729.4	4.573616	172.553	325.659	1.226219	0.078879	0.078584	327.607	40729.4	0.072846	0.175859	1862.89	88735.7
63	2.000000	1.237036	7.36566e+06	-41789.1	955.818	-29785.6	0.000000	0.000000	7.254190	415.155	NaN	0.000000	0.001574	0.001644	28.0849	89.2456	0.001854	48135	9.702726	-13.5381	413.011	1.236534	0.089400	0.088898	415.155	48135	0.082932	0.220634	1881.64	93626.2
63	2.000000	1.247488	7.36566e+06	-41789.1	955.818	-29785.6	0.000000	0.000000	7.267915	494.777	NaN	0.000000	0.001662	0.001674	28.0843	98.5937	0.001868	52793	3.729864	171.445	493.087	1.247229	0.099853	0.099594	494.777	52793	0.092824	0.269133	1838.41	92975.1
63	2.000000	1.256906	7.36566e+06	-41789.1	955.818	-29785.6	0.000000	0.000000	7.281278	590.786	NaN	0.000000	0.001653	0.001646	28.0855	106.102	0.001742	60896.3	4.298069	-9.847369	582.53	1.256668	0.109270	0.109033	590.786	60896.3	0.101994	0.318091	1857.28	98648