File: remote_trans/data/nanoindenter/0828-1/data/Data_2025-08-06,11h17m57s/2025-07-22_16-23-58_1_686.txt
2025-07-22, 16:23:58, 1
Index	Phase	Displacement	Time	Pos X	Pos Y	Pos Z	Rot A	Rot B	Piezo Z	Force A	Force B	Gripper	Voltage A	Voltage B	Temperature	Amplitude force	Amplitude pos	Stiffness	Phase shift	Phase excitation	Force A raw	Displacement raw	HMax	HMax raw	Real Force	Real Stiffness	Contact Depth	Area	Hardness	Reduced Mod.
[#]	[#]	[um]	[s]	[um]	[um]	[um]	[m°]	[m°]	[um]	[uN]	[uN]	[V]	[V]	[V]	[°C]	[uN]	[um]	[N/m]	[°]	[°]	[uN]	[um]	[um]	[um]	[uN]	[N/m]	[um]	[um^2]	[MPa]	[MPa]
686	1.000000	0.002324	7.37176e+06	-42789.1	1005.82	-29781.5	0.000000	0.000000	6.002796	0.007781	NaN	0.000000	0.001565	0.001736	28.0807	0.084982	0.000983	86.4536	-110.709	-169.468	0.091217	0.001062	-1.028451	-1.029714	0.007781	86.4536	-1.028519	-5.489826E+13	-1.417321E-16	NaN
686	1.000000	0.042311	7.37176e+06	-42789.1	1005.82	-29781.5	0.000000	0.000000	6.042781	-0.023098	NaN	0.000000	0.001574	0.001699	28.0802	0.026729	0.002033	13.1497	3.046538	-165.054	-0.050695	0.040995	-0.988464	-0.989781	-0.023098	13.1497	-0.987147	-1.522951E+13	1.516630E-15	NaN
686	1.000000	0.082286	7.37176e+06	-42789.1	1005.82	-29781.5	0.000000	0.000000	6.082756	-0.011894	NaN	0.000000	0.001623	0.001677	28.0801	0.016912	0.002109	8.017698	81.0766	-166.056	-0.078519	0.081023	-0.948490	-0.949753	-0.011894	8.017698	-0.947378	-4.432616E+12	2.683328E-15	NaN
686	1.000000	0.122329	7.37176e+06	-42789.1	1005.82	-29781.5	0.000000	0.000000	6.122800	-0.009284	NaN	0.000000	0.001557	0.001725	28.0815	0.056131	0.002088	26.8781	109.663	-169.72	-0.049557	0.120990	-0.908446	-0.909785	-0.009284	26.8781	-0.908187	-1.311231E+12	7.080025E-15	NaN
686	1.000000	0.162326	7.37176e+06	-42789.1	1005.82	-29781.5	0.000000	0.000000	6.162798	0.030110	NaN	0.000000	0.001564	0.001726	28.0814	0.045176	0.001978	22.8355	99.9351	-166.123	-0.051754	0.161002	-0.868449	-0.869774	0.030110	22.8355	-0.869438	-3.925054E+11	-7.671174E-14	NaN
686	1.000000	0.202351	7.37176e+06	-42789.1	1005.82	-29781.5	0.000000	0.000000	6.202819	-0.074085	NaN	0.000000	0.001590	0.001700	28.0815	0.058743	0.001897	30.9688	170.366	-167.267	-0.125163	0.201085	-0.828425	-0.829691	-0.074085	30.9688	-0.826631	-1.033038E+11	7.171523E-13	NaN
686	1.000000	0.242349	7.37176e+06	-42789.1	1005.82	-29781.5	0.000000	0.000000	6.242818	-0.048939	NaN	0.000000	0.001553	0.001707	28.08	0.043888	0.001879	23.362	70.6825	-161.932	-0.103042	0.240999	-0.788427	-0.789777	-0.048939	23.362	-0.786856	-2.981101E+10	1.641643E-12	NaN
686	1.000000	0.282382	7.37176e+06	-42789.1	1005.82	-29781.5	0.000000	0.000000	6.282852	-0.023634	NaN	0.000000	0.001589	0.001773	28.0802	0.060096	0.001931	31.1138	13.4997	-166.129	-0.036832	0.281061	-0.748394	-0.749715	-0.023634	31.1138	-0.747824	-8.782125E+9	2.691157E-12	NaN
686	1.000000	0.322417	7.37176e+06	-42789.1	1005.82	-29781.5	0.000000	0.000000	6.322889	0.029756	NaN	0.000000	0.001587	0.001734	28.0802	0.038465	0.002035	18.9033	-129.097	-164.586	0.053045	0.321028	-0.708359	-0.709748	0.029756	18.9033	-0.709540	-2.640980E+9	-1.126700E-11	NaN
686	1.000000	0.362422	7.37176e+06	-42789.1	1005.82	-29781.5	0.000000	0.000000	6.362891	-0.064600	NaN	0.000000	0.001571	0.001677	28.0801	0.095913	0.002059	46.5899	104.503	-171.993	-0.012634	0.361122	-0.668353	-0.669653	-0.064600	46.5899	-0.667313	-6.992244E+8	9.238766E-11	NaN
686	1.000000	0.402415	7.37176e+06	-42789.1	1005.82	-29781.5	0.000000	0.000000	6.402883	-0.063308	NaN	0.000000	0.001531	0.001746	28.0813	0.069373	0.001991	34.8464	-15.9536	-168.813	0.057648	0.401069	-0.628361	-0.629707	-0.063308	34.8464	-0.626998	-1.957919E+8	3.233413E-10	NaN
686	1.000000	0.442447	7.37176e+06	-42789.1	1005.82	-29781.5	0.000000	0.000000	6.442917	-0.021936	NaN	0.000000	0.001631	0.001673	28.0812	0.065823	0.002085	31.568	134.79	-167.423	-0.006120	0.441125	-0.588329	-0.589651	-0.021936	31.568	-0.587808	-5.655139E+7	3.878973E-10	NaN
686	1.000000	0.482476	7.37176e+06	-42789.1	1005.82	-29781.5	0.000000	0.000000	6.482945	-0.039930	NaN	0.000000	0.001593	0.001736	28.0812	0.020352	0.001949	10.4439	166.849	-171.413	-0.003597	0.481148	-0.548300	-0.549627	-0.039930	10.4439	-0.545432	-1.467820E+7	2.720386E-9	NaN
686	1.000000	0.522461	7.37176e+06	-42789.1	1005.82	-29781.5	0.000000	0.000000	6.522931	-0.022068	NaN	0.000000	0.001608	0.001675	28.0802	0.049812	0.002061	24.1725	126.587	-166.413	-0.036499	0.521170	-0.508315	-0.509606	-0.022068	24.1725	-0.507630	-4.37928e+06	5.039102E-9	NaN
686	1.000000	0.562529	7.37176e+06	-42789.1	1005.82	-29781.5	0.000000	0.000000	6.562997	-0.075102	NaN	0.000000	0.001556	0.001710	28.08	0.022949	0.002036	11.2697	1.102204	-164.402	-0.047017	0.561196	-0.468247	-0.469580	-0.075102	11.2697	-0.463249	-1.04872e+06	7.161351E-8	NaN
686	1.000000	0.602507	7.37176e+06	-42789.1	1005.82	-29781.5	0.000000	0.000000	6.602975	-0.062008	NaN	0.000000	0.001543	0.001714	28.08	0.046487	0.002043	22.7505	-58.7337	-167.164	-0.021287	0.601223	-0.428269	-0.429553	-0.062008	22.7505	-0.426225	-315233	1.967054E-7	NaN
686	1.000000	0.642512	7.37176e+06	-42789.1	1005.82	-29781.5	0.000000	0.000000	6.642981	-0.046287	NaN	0.000000	0.001570	0.001732	28.0799	0.115277	0.001972	58.4442	-70.6694	-164.408	0.015113	0.641182	-0.388264	-0.389594	-0.046287	58.4442	-0.387670	-89088.4	5.195669E-7	NaN
686	1.000000	0.682549	7.37176e+06	-42789.1	1005.82	-29781.5	0.000000	0.000000	6.683020	-0.004210	NaN	0.000000	0.001559	0.001720	28.0813	0.076336	0.001903	40.1205	-135.999	-168.924	0.002218	0.681173	-0.348227	-0.349602	-0.004210	40.1205	-0.348148	-23994.5	1.754599E-7	NaN
686	1.000000	0.722563	7.37176e+06	-42789.1	1005.82	-29781.5	0.000000	0.000000	6.723035	0.017436	NaN	0.000000	0.001589	0.001701	28.0815	0.070045	0.002040	34.331	-167.176	-166.971	0.038721	0.721222	-0.308212	-0.309554	0.017436	34.331	-0.308593	-6312.91	-2.761977E-6	NaN
686	1.000000	0.762570	7.37176e+06	-42789.1	1005.82	-29781.5	0.000000	0.000000	6.763039	-0.036762	NaN	0.000000	0.001571	0.001666	28.0813	0.135904	0.001907	71.2779	-5.866849	-164.813	-0.022701	0.761249	-0.268206	-0.269527	-0.036762	71.2779	-0.267819	-1543	2.382484E-5	NaN
686	1.000000	0.802595	7.37176e+06	-42789.1	1005.82	-29781.5	0.000000	0.000000	6.803063	-0.076518	NaN	0.000000	0.001608	0.001683	28.0802	0.030105	0.001871	16.0895	44.4463	-168.098	0.000981	0.801291	-0.228180	-0.229485	-0.076518	16.0895	-0.224614	-329	0.000233	NaN
686	1.000000	0.842613	7.37176e+06	-42789.1	1005.82	-29781.5	0.000000	0.000000	6.843083	-0.027272	NaN	0.000000	0.001598	0.001700	28.0803	0.080456	0.002007	40.0937	179.467	-164.443	0.018470	0.841292	-0.188163	-0.189484	-0.027272	40.0937	-0.187653	-82.1746	0.000332	NaN
686	1.000000	0.882603	7.37176e+06	-42789.1	1005.82	-29781.5	0.000000	0.000000	6.883074	0.012922	NaN	0.000000	0.001564	0.001723	28.08	0.127224	0.002036	62.4771	-164.669	-170.126	0.023555	0.881324	-0.148173	-0.149451	0.012922	62.4771	-0.148328	-16.8828	-0.000765	NaN
686	1.000000	0.922617	7.37176e+06	-42789.1	1005.82	-29781.5	0.000000	0.000000	6.923087	-0.006021	NaN	0.000000	0.001573	0.001706	28.0815	0.074086	0.001868	39.6647	156.907	-169.252	0.021013	0.921322	-0.108159	-0.109454	-0.006021	39.6647	-0.108045	-2.731891	0.002204	NaN
686	1.000000	0.962686	7.37176e+06	-42789.1	1005.82	-29781.5	0.000000	0.000000	6.963158	0.032892	NaN	0.000000	0.001484	0.001745	28.0816	0.087057	0.001867	46.6215	-125.171	-166.763	0.009419	0.961305	-0.068090	-0.069471	0.032892	46.6215	-0.068619	-0.313123	-0.105045	NaN
686	1.000000	1.002680	7.37176e+06	-42789.1	1005.82	-29781.5	0.000000	0.000000	7.003151	-0.005365	NaN	0.000000	0.001525	0.001682	28.0815	0.071983	0.001967	36.588	176.034	-170.43	0.025200	1.001352	-0.028096	-0.029424	-0.005365	36.588	-0.027986	-0.020257	0.264833	NaN
686	2.000000	1.039221	7.37177e+06	-42789.1	1005.82	-29781.5	0.000000	0.000000	7.040157	11.3193	NaN	0.000000	0.001537	0.001682	28.0812	10.4264	0.001635	6377.71	3.022684	-170.476	10.4325	1.038874	0.008446	0.008098	11.3193	6377.71	0.007114	0.006147	1841.36	74318.6
686	2.000000	1.049171	7.37177e+06	-42789.1	1005.82	-29781.5	0.000000	0.000000	7.050841	29.1742	NaN	0.000000	0.001527	0.001674	28.08	21.6108	0.001852	11668.1	5.046658	-177.393	28.7309	1.048802	0.018395	0.018026	29.1742	11668.1	0.016520	0.017366	1679.94	80894.7
686	2.000000	1.059124	7.37177e+06	-42789.1	1005.82	-29781.5	0.000000	0.000000	7.061950	57.2944	NaN	0.000000	0.001536	0.001750	28.0803	32.2416	0.001806	17854.6	7.192995	176.375	57.1832	1.058869	0.028348	0.028093	57.2944	17854.6	0.025941	0.032751	1749.41	90139.4
686	2.000000	1.069099	7.37177e+06	-42789.1	1005.82	-29781.5	0.000000	0.000000	7.073365	92.3251	NaN	0.000000	0.001547	0.001768	28.0804	40.4536	0.001784	22671.4	-0.149456	-177.169	91.3519	1.068755	0.038323	0.037979	92.3251	22671.4	0.035269	0.052374	1762.79	90509.1
686	2.000000	1.079050	7.37177e+06	-42789.1	1005.82	-29781.5	0.000000	0.000000	7.084905	130.993	NaN	0.000000	0.001560	0.001761	28.0818	49.0938	0.001718	28582.7	4.652414	175.253	128.775	1.078750	0.048274	0.047974	130.993	28582.7	0.044837	0.077126	1698.43	94031.9
686	2.000000	1.089056	7.37177e+06	-42789.1	1005.82	-29781.5	0.000000	0.000000	7.096739	175.479	NaN	0.000000	0.001578	0.001768	28.0817	59.6247	0.001921	31039.4	7.012910	173.171	174.367	1.088793	0.058280	0.058017	175.479	31039.4	0.054040	0.105308	1666.34	87388.6
686	2.000000	1.099004	7.37177e+06	-42789.1	1005.82	-29781.5	0.000000	0.000000	7.108853	228.182	NaN	0.000000	0.001572	0.001831	28.0817	68.4285	0.001789	38243	4.433679	173.397	225.576	1.098748	0.068228	0.067972	228.182	38243	0.063753	0.139609	1634.44	93512.3
686	2.000000	1.109077	7.37177e+06	-42789.1	1005.82	-29781.5	0.000000	0.000000	7.121399	288.331	NaN	0.000000	0.001601	0.001782	28.0814	77.4679	0.001887	41055.5	4.371426	172.885	289.971	1.108808	0.078301	0.078032	288.331	41055.5	0.073034	0.176649	1632.22	89246
686	2.000000	1.119022	7.37177e+06	-42789.1	1005.82	-29781.5	0.000000	0.000000	7.134163	356.95	NaN	0.000000	0.001605	0.001798	28.0802	86.5335	0.001950	44371.6	6.239355	171.582	355.187	1.118664	0.088246	0.087888	356.95	44371.6	0.082212	0.217284	1642.78	86969
686	2.000000	1.129097	7.37177e+06	-42789.1	1005.82	-29781.5	0.000000	0.000000	7.147157	427.945	NaN	0.000000	0.001567	0.001822	28.0802	94.9023	0.001846	51417.6	11.6036	164.98	429.491	1.128662	0.098322	0.097886	427.945	51417.6	0.092079	0.265326	1612.9	91200.1
686	2.000000	1.136547	7.37177e+06	-42789.1	1005.82	-29781.5	0.000000	0.000000	7.156744	479.932	NaN	0.000000	0.001595	0.001756	28.0801	100.814	0.001809	55722.8	5.658718	-9.466491	480.07	1.135995	0.105772	0.105219	479.932	55722.8	0.099312	0.303376	1581.97	92430.6