File: remote_trans/data/nanoindenter/0828-1/data/Data_2025-08-06,11h17m57s/2025-07-22_16-23-58_1_723.txt
2025-07-22, 16:23:58, 1
Index	Phase	Displacement	Time	Pos X	Pos Y	Pos Z	Rot A	Rot B	Piezo Z	Force A	Force B	Gripper	Voltage A	Voltage B	Temperature	Amplitude force	Amplitude pos	Stiffness	Phase shift	Phase excitation	Force A raw	Displacement raw	HMax	HMax raw	Real Force	Real Stiffness	Contact Depth	Area	Hardness	Reduced Mod.
[#]	[#]	[um]	[s]	[um]	[um]	[um]	[m°]	[m°]	[um]	[uN]	[uN]	[V]	[V]	[V]	[°C]	[uN]	[um]	[N/m]	[°]	[°]	[uN]	[um]	[um]	[um]	[uN]	[N/m]	[um]	[um^2]	[MPa]	[MPa]
723	1.000000	0.002821	7.37213e+06	-40939.1	1005.82	-29788.1	0.000000	0.000000	6.002811	-0.038562	NaN	0.000000	0.001620	0.001726	28.0835	0.054822	0.000959	57.1903	-64.1166	-167.464	-0.074239	0.001497	-1.071433	-1.072757	-0.038562	57.1903	-1.070928	-2.040103E+14	1.890208E-16	NaN
723	1.000000	0.042765	7.37213e+06	-40939.1	1005.82	-29788.1	0.000000	0.000000	6.042757	0.028560	NaN	0.000000	0.001568	0.001736	28.0829	0.033047	0.001853	17.8369	-42.5904	-165.539	-0.007528	0.041423	-1.031490	-1.032832	0.028560	17.8369	-1.032691	-6.247021E+13	-4.571712E-16	NaN
723	1.000000	0.082779	7.37213e+06	-40939.1	1005.82	-29788.1	0.000000	0.000000	6.082771	0.017701	NaN	0.000000	0.001545	0.001729	28.0822	0.106393	0.001936	54.9482	75.0748	-166.394	0.040599	0.081414	-0.991475	-0.992841	0.017701	54.9482	-0.991717	-1.754836E+13	-1.008720E-15	NaN
723	1.000000	0.122792	7.37213e+06	-40939.1	1005.82	-29788.1	0.000000	0.000000	6.122785	0.049181	NaN	0.000000	0.001556	0.001685	28.082	0.030637	0.001904	16.0886	-151.113	-163.407	0.002096	0.121435	-0.951463	-0.952820	0.049181	16.0886	-0.953755	-5.403469E+12	-9.101669E-15	NaN
723	1.000000	0.162759	7.37213e+06	-40939.1	1005.82	-29788.1	0.000000	0.000000	6.162752	0.033692	NaN	0.000000	0.001535	0.001728	28.082	0.092404	0.002009	46.0014	143.464	-167.219	0.043933	0.161507	-0.911495	-0.912748	0.033692	46.0014	-0.912045	-1.478352E+12	-2.279025E-14	NaN
723	1.000000	0.202803	7.37213e+06	-40939.1	1005.82	-29788.1	0.000000	0.000000	6.202795	-0.003065	NaN	0.000000	0.001560	0.001702	28.0833	0.022024	0.001916	11.4968	-100.721	-161.834	-0.031845	0.201549	-0.871451	-0.872706	-0.003065	11.4968	-0.871251	-4.153099E+11	7.380282E-15	NaN
723	1.000000	0.242832	7.37213e+06	-40939.1	1005.82	-29788.1	0.000000	0.000000	6.242825	0.022234	NaN	0.000000	0.001592	0.001753	28.0834	0.048320	0.002118	22.813	154.407	-166.917	0.010830	0.241520	-0.831422	-0.832735	0.022234	22.813	-0.832153	-1.227351E+11	-1.811552E-13	NaN
723	1.000000	0.282867	7.37213e+06	-40939.1	1005.82	-29788.1	0.000000	0.000000	6.282857	-0.029692	NaN	0.000000	0.001582	0.001764	28.0834	0.056757	0.002077	27.3327	23.2497	-162.315	-0.094262	0.281547	-0.791388	-0.792707	-0.029692	27.3327	-0.790573	-3.348600E+10	8.867105E-13	NaN
723	1.000000	0.322855	7.37213e+06	-40939.1	1005.82	-29788.1	0.000000	0.000000	6.322846	-0.015463	NaN	0.000000	0.001560	0.001733	28.0825	0.068796	0.002013	34.1776	110.112	-161.796	0.021878	0.321486	-0.751399	-0.752769	-0.015463	34.1776	-0.751060	-9.719574E+9	1.590914E-12	NaN
723	1.000000	0.362883	7.37213e+06	-40939.1	1005.82	-29788.1	0.000000	0.000000	6.362871	-0.064473	NaN	0.000000	0.001604	0.001725	28.0822	0.065436	0.002038	32.1107	-58.8637	-162.163	0.017736	0.361552	-0.711372	-0.712703	-0.064473	32.1107	-0.709866	-2.668231E+9	2.416327E-11	NaN
723	1.000000	0.402910	7.37213e+06	-40939.1	1005.82	-29788.1	0.000000	0.000000	6.402901	-0.007023	NaN	0.000000	0.001537	0.001701	28.0819	0.104461	0.002010	51.9598	-121.473	-167.517	0.034212	0.401651	-0.671345	-0.672604	-0.007023	51.9598	-0.671243	-7.914209E+8	8.873588E-12	NaN
723	1.000000	0.442951	7.37213e+06	-40939.1	1005.82	-29788.1	0.000000	0.000000	6.442945	0.086948	NaN	0.000000	0.001590	0.001743	28.0824	0.099637	0.002080	47.9074	-162.278	-163.32	0.100997	0.441550	-0.631304	-0.632705	0.086948	47.9074	-0.632665	-2.342185E+8	-3.712264E-10	NaN
723	1.000000	0.482907	7.37213e+06	-40939.1	1005.82	-29788.1	0.000000	0.000000	6.482898	-0.007587	NaN	0.000000	0.001599	0.001754	28.083	0.071002	0.001930	36.7808	174.31	-165.105	0.035321	0.481668	-0.591347	-0.592587	-0.007587	36.7808	-0.591193	-6.296629E+7	1.204927E-10	NaN
723	1.000000	0.522937	7.37213e+06	-40939.1	1005.82	-29788.1	0.000000	0.000000	6.522927	-0.016603	NaN	0.000000	0.001623	0.001738	28.083	0.126105	0.001925	65.518	179.08	-164.851	-0.018796	0.521622	-0.551318	-0.552633	-0.016603	65.518	-0.551128	-1.760268E+7	9.431805E-10	NaN
723	1.000000	0.562994	7.37213e+06	-40939.1	1005.82	-29788.1	0.000000	0.000000	6.562984	-0.024155	NaN	0.000000	0.001545	0.001684	28.0829	0.149568	0.002076	72.0507	-123.039	-162.015	-0.044077	0.561701	-0.511261	-0.512554	-0.024155	72.0507	-0.511010	-4.88066e+06	4.949078E-9	NaN
723	1.000000	0.602987	7.37213e+06	-40939.1	1005.82	-29788.1	0.000000	0.000000	6.602978	-0.004126	NaN	0.000000	0.001617	0.001690	28.082	0.103687	0.002016	51.437	-6.644268	-164.002	-0.006203	0.601730	-0.471268	-0.472525	-0.004126	51.437	-0.471207	-1.35625e+06	3.042385E-9	NaN
723	1.000000	0.642991	7.37213e+06	-40939.1	1005.82	-29788.1	0.000000	0.000000	6.642981	-0.035278	NaN	0.000000	0.001589	0.001658	28.0819	0.056523	0.001980	28.5417	-158.255	-167.441	-0.012701	0.641681	-0.431264	-0.432573	-0.035278	28.5417	-0.430337	-360434	9.787549E-8	NaN
723	1.000000	0.683024	7.37213e+06	-40939.1	1005.82	-29788.1	0.000000	0.000000	6.683013	-0.050097	NaN	0.000000	0.001572	0.001705	28.0822	0.028813	0.002108	13.667	131.136	-166.677	-0.030910	0.681749	-0.391231	-0.392505	-0.050097	13.667	-0.388481	-91503.6	5.474844E-7	NaN
723	1.000000	0.723028	7.37213e+06	-40939.1	1005.82	-29788.1	0.000000	0.000000	6.723020	0.006194	NaN	0.000000	0.001568	0.001757	28.0822	0.015105	0.002043	7.394540	72.6212	-165.332	0.036146	0.721751	-0.351226	-0.352504	0.006194	7.394540	-0.351855	-27158.7	-2.280751E-7	NaN
723	1.000000	0.763052	7.37213e+06	-40939.1	1005.82	-29788.1	0.000000	0.000000	6.763043	0.009157	NaN	0.000000	0.001635	0.001732	28.0831	0.076243	0.002006	38.0138	-70.4606	-165.161	-0.082700	0.761788	-0.311203	-0.312467	0.009157	38.0138	-0.311384	-6942.66	-1.318974E-6	NaN
723	1.000000	0.803072	7.37213e+06	-40939.1	1005.82	-29788.1	0.000000	0.000000	6.803066	0.046443	NaN	0.000000	0.001627	0.001707	28.0826	0.081111	0.001998	40.5973	14.793	-164.337	-0.065054	0.801768	-0.271182	-0.272487	0.046443	40.5973	-0.272040	-1788.68	-2.596508E-5	NaN
723	1.000000	0.843085	7.37213e+06	-40939.1	1005.82	-29788.1	0.000000	0.000000	6.843078	0.033134	NaN	0.000000	0.001650	0.001697	28.083	0.030081	0.002014	14.9342	82.1913	-167.866	0.024189	0.841795	-0.231169	-0.232460	0.033134	14.9342	-0.232833	-443.797	-7.466074E-5	NaN
723	1.000000	0.883108	7.37213e+06	-40939.1	1005.82	-29788.1	0.000000	0.000000	6.883097	-0.065968	NaN	0.000000	0.001637	0.001688	28.082	0.166537	0.001956	85.1304	26.2024	-166.645	-0.082168	0.881820	-0.191147	-0.192435	-0.065968	85.1304	-0.190566	-91.9328	0.000718	NaN
723	1.000000	0.923125	7.37213e+06	-40939.1	1005.82	-29788.1	0.000000	0.000000	6.923116	-0.026522	NaN	0.000000	0.001685	0.001710	28.082	0.038787	0.001915	20.2499	116.037	-164.352	-0.003903	0.921769	-0.151129	-0.152486	-0.026522	20.2499	-0.150147	-18.2257	0.001455	NaN
723	1.000000	0.963140	7.37213e+06	-40939.1	1005.82	-29788.1	0.000000	0.000000	6.963128	-0.069109	NaN	0.000000	0.001636	0.001721	28.0821	0.056436	0.002198	25.681	103.446	-170.51	-0.050013	0.961824	-0.111115	-0.112431	-0.069109	25.681	-0.109097	-2.875983	0.024030	NaN
723	1.000000	1.003167	7.37213e+06	-40939.1	1005.82	-29788.1	0.000000	0.000000	7.003158	-0.019344	NaN	0.000000	0.001595	0.001724	28.0836	0.022946	0.002134	10.753	-164.307	-162.918	-0.015437	1.001898	-0.071087	-0.072357	-0.019344	10.753	-0.069738	-0.335636	0.057634	NaN
723	1.000000	1.043170	7.37213e+06	-40939.1	1005.82	-29788.1	0.000000	0.000000	7.043169	0.198158	NaN	0.000000	0.001711	0.001710	28.0835	0.331420	0.002083	159.088	15.9385	-165.144	0.176507	1.041854	-0.031085	-0.032401	0.198158	159.088	-0.032019	-0.026240	-7.551816	NaN
723	2.000000	1.079739	7.37213e+06	-40939.1	1005.82	-29788.1	0.000000	0.000000	7.080133	9.797504	NaN	0.000000	0.001716	0.001706	28.0833	10.0494	0.001581	6356.9	6.239519	-172.923	9.542893	1.079402	0.005484	0.005148	9.797504	6356.9	0.004328	0.003528	2776.79	97776
723	2.000000	1.089656	7.37213e+06	-40939.1	1005.82	-29788.1	0.000000	0.000000	7.090756	26.9866	NaN	0.000000	0.001629	0.001714	28.0832	21.4451	0.001790	11982.1	6.329690	-178.823	26.828	1.089350	0.015401	0.015095	26.9866	11982.1	0.013712	0.013606	1983.4	93850.9
723	2.000000	1.099578	7.37213e+06	-40939.1	1005.82	-29788.1	0.000000	0.000000	7.101878	56.1779	NaN	0.000000	0.001638	0.001691	28.0821	30.9309	0.001808	17112.2	1.157842	-177.318	53.4689	1.099307	0.025324	0.025053	56.1779	17112.2	0.022861	0.027240	2062.35	94727.9
723	2.000000	1.109580	7.37213e+06	-40939.1	1005.82	-29788.1	0.000000	0.000000	7.113393	93.0081	NaN	0.000000	0.001602	0.001689	28.0821	40.2651	0.001733	23233.8	3.668836	177.108	90.186	1.109320	0.035325	0.035066	93.0081	23233.8	0.032323	0.045695	2035.39	99301.8
723	2.000000	1.119592	7.37213e+06	-40939.1	1005.82	-29788.1	0.000000	0.000000	7.125062	133.321	NaN	0.000000	0.001679	0.001702	28.0819	49.0749	0.001738	28243.6	3.274405	177.145	131.933	1.119261	0.045337	0.045007	133.321	28243.6	0.041797	0.068754	1939.11	98411
723	2.000000	1.129624	7.37213e+06	-40939.1	1005.82	-29788.1	0.000000	0.000000	7.137008	179.9	NaN	0.000000	0.001669	0.001723	28.0831	57.9546	0.001792	32339.8	3.546374	175.689	179.667	1.129381	0.055369	0.055126	179.9	32339.8	0.051197	0.096149	1871.06	95288.1
723	2.000000	1.139520	7.37213e+06	-40939.1	1005.82	-29788.1	0.000000	0.000000	7.149515	243.436	NaN	0.000000	0.001679	0.001712	28.0831	66.7224	0.001715	38901.7	2.693860	174.34	239.857	1.139257	0.065265	0.065002	243.436	38901.7	0.060572	0.127867	1903.83	99394.7
723	2.000000	1.149536	7.37213e+06	-40939.1	1005.82	-29788.1	0.000000	0.000000	7.161907	301.232	NaN	0.000000	0.001565	0.001710	28.0832	78.6522	0.001913	41110.8	5.599230	171.38	301.222	1.149392	0.075281	0.075137	301.232	41110.8	0.069785	0.163216	1845.6	92971
723	2.000000	1.159566	7.37213e+06	-40939.1	1005.82	-29788.1	0.000000	0.000000	7.174913	373.648	NaN	0.000000	0.001579	0.001722	28.0832	87.0571	0.001799	48401.7	2.074290	173.962	375.84	1.159271	0.085312	0.085017	373.648	48401.7	0.079522	0.204964	1823	97677.7
723	2.000000	1.169532	7.37213e+06	-40939.1	1005.82	-29788.1	0.000000	0.000000	7.187972	448.926	NaN	0.000000	0.001598	0.001730	28.0819	96.0212	0.001745	55012.3	4.355774	170.294	449.208	1.169286	0.095277	0.095031	448.926	55012.3	0.089157	0.250628	1791.2	100396
723	2.000000	1.176988	7.37213e+06	-40939.1	1005.82	-29788.1	0.000000	0.000000	7.197888	508.773	NaN	0.000000	0.001611	0.001725	28.082	103.419	0.001780	58101.3	2.901698	-8.187954	504.685	1.176538	0.102733	0.102283	508.773	58101.3	0.096165	0.286529	1775.64	99168.8