File: remote_trans/data/nanoindenter/0828-1/data/Data_2025-08-06,11h17m57s/2025-07-22_16-23-58_1_1011.txt
2025-07-22, 16:23:58, 1
Index	Phase	Displacement	Time	Pos X	Pos Y	Pos Z	Rot A	Rot B	Piezo Z	Force A	Force B	Gripper	Voltage A	Voltage B	Temperature	Amplitude force	Amplitude pos	Stiffness	Phase shift	Phase excitation	Force A raw	Displacement raw	HMax	HMax raw	Real Force	Real Stiffness	Contact Depth	Area	Hardness	Reduced Mod.
[#]	[#]	[um]	[s]	[um]	[um]	[um]	[m°]	[m°]	[um]	[uN]	[uN]	[V]	[V]	[V]	[°C]	[uN]	[um]	[N/m]	[°]	[°]	[uN]	[um]	[um]	[um]	[uN]	[N/m]	[um]	[um^2]	[MPa]	[MPa]
1011	1.000000	0.002279	7.37494e+06	-50689.1	1055.82	-29754.8	0.000000	0.000000	6.002774	0.025454	NaN	0.000000	0.001628	0.001727	28.0835	0.064358	0.000948	67.8669	75.7465	-163.918	0.044744	0.001060	-1.084743	-1.085963	0.025454	67.8669	-1.085024	-3.154969E+14	-8.067928E-17	NaN
1011	1.000000	0.044277	7.37494e+06	-50689.1	1055.82	-29754.8	0.000000	0.000000	6.044770	0.003091	NaN	0.000000	0.001594	0.001686	28.0832	0.096552	0.001877	51.4396	-33.5074	14.0592	-0.058714	0.042907	-1.042745	-1.044115	0.003091	51.4396	-1.042790	-8.540564E+13	-3.619674E-17	NaN
1011	1.000000	0.086250	7.37494e+06	-50689.1	1055.82	-29754.8	0.000000	0.000000	6.086743	-0.001232	NaN	0.000000	0.001578	0.001679	28.0838	0.089718	0.002015	44.5172	3.389314	-163.699	-0.060999	0.084935	-1.000772	-1.002087	-0.001232	44.5172	-1.000752	-2.322135E+13	5.305246E-17	NaN
1011	1.000000	0.128279	7.37494e+06	-50689.1	1055.82	-29754.8	0.000000	0.000000	6.128771	-0.019566	NaN	0.000000	0.001539	0.001671	28.0825	0.037922	0.002024	18.7356	151.288	16.4799	-0.032688	0.126903	-0.958744	-0.960119	-0.019566	18.7356	-0.957961	-6.157048E+12	3.177756E-15	NaN
1011	1.000000	0.170318	7.37494e+06	-50689.1	1055.82	-29754.8	0.000000	0.000000	6.170812	0.026792	NaN	0.000000	0.001541	0.001687	28.0822	0.031202	0.002030	15.3742	36.802	-166.061	0.019889	0.168927	-0.916705	-0.918095	0.026792	15.3742	-0.918012	-1.779747E+12	-1.505404E-14	NaN
1011	1.000000	0.212329	7.37494e+06	-50689.1	1055.82	-29754.8	0.000000	0.000000	6.212823	0.007647	NaN	0.000000	0.001533	0.001661	28.0819	0.082094	0.002034	40.3597	-15.5522	11.6398	0.099432	0.210945	-0.874693	-0.876077	0.007647	40.3597	-0.874835	-4.643601E+11	-1.646787E-14	NaN
1011	1.000000	0.254332	7.37494e+06	-50689.1	1055.82	-29754.8	0.000000	0.000000	6.254824	-0.011311	NaN	0.000000	0.001598	0.001652	28.0833	0.084696	0.002022	41.8832	-157.433	-169.288	-0.022049	0.253003	-0.832690	-0.834020	-0.011311	41.8832	-0.832488	-1.240235E+11	9.119837E-14	NaN
1011	1.000000	0.296339	7.37494e+06	-50689.1	1055.82	-29754.8	0.000000	0.000000	6.296834	0.039055	NaN	0.000000	0.001592	0.001663	28.0832	0.041494	0.001921	21.6001	-49.5486	13.2487	0.034199	0.294985	-0.790683	-0.792037	0.039055	21.6001	-0.792039	-3.505718E+10	-1.114040E-12	NaN
1011	1.000000	0.338375	7.37494e+06	-50689.1	1055.82	-29754.8	0.000000	0.000000	6.338868	0.014097	NaN	0.000000	0.001545	0.001653	28.0837	0.041157	0.001949	21.1145	64.8632	-166.644	0.076814	0.337062	-0.748648	-0.749960	0.014097	21.1145	-0.749148	-9.154377E+9	-1.539913E-12	NaN
1011	1.000000	0.380396	7.37494e+06	-50689.1	1055.82	-29754.8	0.000000	0.000000	6.380890	0.031984	NaN	0.000000	0.001567	0.001654	28.0823	0.033065	0.001917	17.2498	103.619	14.3041	0.014090	0.378994	-0.706626	-0.708028	0.031984	17.2498	-0.708017	-2.517576E+9	-1.270443E-11	NaN
1011	1.000000	0.422384	7.37494e+06	-50689.1	1055.82	-29754.8	0.000000	0.000000	6.422879	0.046686	NaN	0.000000	0.001505	0.001666	28.0822	0.133872	0.001977	67.7264	154.172	-167.565	0.035962	0.421168	-0.664639	-0.665854	0.046686	67.7264	-0.665156	-6.532402E+8	-7.146849E-11	NaN
1011	1.000000	0.464441	7.37494e+06	-50689.1	1055.82	-29754.8	0.000000	0.000000	6.464934	0.004930	NaN	0.000000	0.001556	0.001642	28.0821	0.095099	0.001889	50.3458	119.813	11.7907	0.074155	0.463084	-0.622582	-0.623938	0.004930	50.3458	-0.622655	-1.706566E+8	-2.889009E-11	NaN
1011	1.000000	0.506453	7.37494e+06	-50689.1	1055.82	-29754.8	0.000000	0.000000	6.506947	0.010780	NaN	0.000000	0.001570	0.001672	28.0822	0.133360	0.001952	68.3183	-2.272616	-166.594	0.009373	0.505152	-0.580569	-0.581871	0.010780	68.3183	-0.580688	-4.510407E+7	-2.390116E-10	NaN
1011	1.000000	0.548476	7.37494e+06	-50689.1	1055.82	-29754.8	0.000000	0.000000	6.548971	0.049442	NaN	0.000000	0.001546	0.001682	28.0835	0.044708	0.001826	24.4796	17.5385	13.3107	-0.027970	0.547102	-0.538546	-0.539921	0.049442	24.4796	-0.540061	-1.236532E+7	-3.998459E-9	NaN
1011	1.000000	0.590481	7.37494e+06	-50689.1	1055.82	-29754.8	0.000000	0.000000	6.590974	-0.003885	NaN	0.000000	0.001562	0.001656	28.0839	0.042840	0.002085	20.5468	121.222	-167.542	0.045424	0.589193	-0.496541	-0.497829	-0.003885	20.5468	-0.496400	-3.05333e+06	1.272457E-9	NaN
1011	1.000000	0.632490	7.37494e+06	-50689.1	1055.82	-29754.8	0.000000	0.000000	6.632982	-0.022772	NaN	0.000000	0.001532	0.001707	28.0837	0.031862	0.002004	15.8996	45.0171	12.0176	-0.003109	0.631186	-0.454532	-0.455836	-0.022772	15.8996	-0.453458	-763881	2.981151E-8	NaN
1011	1.000000	0.674520	7.37494e+06	-50689.1	1055.82	-29754.8	0.000000	0.000000	6.675013	-0.001025	NaN	0.000000	0.001517	0.001668	28.0824	0.031790	0.001977	16.0785	46.6588	-165.297	0.026377	0.673216	-0.412502	-0.413806	-0.001025	16.0785	-0.412455	-201046	5.097568E-9	NaN
1011	1.000000	0.716510	7.37494e+06	-50689.1	1055.82	-29754.8	0.000000	0.000000	6.717007	0.089684	NaN	0.000000	0.001550	0.001686	28.0825	0.049569	0.001966	25.2149	105.935	10.2606	0.069644	0.715182	-0.370512	-0.371840	0.089684	25.2149	-0.373180	-55194.7	-1.624871E-6	NaN
1011	1.000000	0.758536	7.37494e+06	-50689.1	1055.82	-29754.8	0.000000	0.000000	6.759030	0.010790	NaN	0.000000	0.001573	0.001668	28.0824	0.104146	0.002057	50.6402	-122.222	-167.812	-0.084710	0.757263	-0.328486	-0.329759	0.010790	50.6402	-0.328646	-12462.7	-8.657531E-7	NaN
1011	1.000000	0.800573	7.37494e+06	-50689.1	1055.82	-29754.8	0.000000	0.000000	6.801069	0.056011	NaN	0.000000	0.001535	0.001660	28.0838	0.081245	0.002059	39.4514	-0.439673	12.8275	0.007670	0.799222	-0.286449	-0.287800	0.056011	39.4514	-0.287514	-3062.11	-1.829149E-5	NaN
1011	1.000000	0.842588	7.37494e+06	-50689.1	1055.82	-29754.8	0.000000	0.000000	6.843082	0.022637	NaN	0.000000	0.001598	0.001674	28.0836	0.034754	0.002115	16.4284	-109.45	-165.385	0.132081	0.841234	-0.244434	-0.245788	0.022637	16.4284	-0.245468	-699.391	-3.236622E-5	NaN
1011	1.000000	0.884614	7.37494e+06	-50689.1	1055.82	-29754.8	0.000000	0.000000	6.885108	0.019500	NaN	0.000000	0.001572	0.001640	28.0837	0.045655	0.001961	23.284	-36.3606	10.3284	0.095015	0.883257	-0.202408	-0.203766	0.019500	23.284	-0.203036	-147.734	-0.000132	NaN
1011	1.000000	0.926638	7.37494e+06	-50689.1	1055.82	-29754.8	0.000000	0.000000	6.927131	0.006153	NaN	0.000000	0.001563	0.001660	28.0824	0.065164	0.001964	33.1813	-171.505	-172.617	-0.004719	0.925275	-0.160384	-0.161747	0.006153	33.1813	-0.160523	-28.0079	-0.000220	NaN
1011	1.000000	0.968647	7.37494e+06	-50689.1	1055.82	-29754.8	0.000000	0.000000	6.969140	0.000935	NaN	0.000000	0.001567	0.001683	28.083	0.067394	0.001959	34.3943	40.9551	16.2408	-0.009593	0.967281	-0.118376	-0.119741	0.000935	34.3943	-0.118396	-4.483379	-0.000209	NaN
1011	1.000000	1.010661	7.37494e+06	-50689.1	1055.82	-29754.8	0.000000	0.000000	7.011153	-0.011917	NaN	0.000000	0.001543	0.001644	28.0826	0.046983	0.002049	22.9302	-20.2964	-165.06	0.004107	1.009271	-0.076362	-0.077751	-0.011917	22.9302	-0.075972	-0.489303	0.024355	NaN
1011	1.000000	1.052687	7.37494e+06	-50689.1	1055.82	-29754.8	0.000000	0.000000	7.053179	-0.041552	NaN	0.000000	0.001549	0.001648	28.0825	0.023613	0.002056	11.4877	89.273	16.7182	0.073223	1.051309	-0.034335	-0.035713	-0.041552	11.4877	-0.031622	-0.025564	1.625381	NaN
1011	2.000000	1.091369	7.37494e+06	-50689.1	1055.82	-29754.8	0.000000	0.000000	7.092196	8.117116	NaN	0.000000	0.001529	0.001686	28.0837	9.150293	0.001798	5089.56	8.469665	-173.356	7.596303	1.091102	0.004347	0.004080	8.117116	5089.56	0.003151	0.002507	3237.54	92866.9
1011	2.000000	1.101803	7.37494e+06	-50689.1	1055.82	-29754.8	0.000000	0.000000	7.103591	31.4785	NaN	0.000000	0.001505	0.001656	28.0837	22.3428	0.001782	12535.5	7.559755	-0.547058	30.1742	1.101473	0.014781	0.014450	31.4785	12535.5	0.012898	0.012583	2501.61	102098
1011	2.000000	1.112241	7.37494e+06	-50689.1	1055.82	-29754.8	0.000000	0.000000	7.115453	66.1103	NaN	0.000000	0.001488	0.001661	28.0838	33.5503	0.001697	19772.7	6.042559	177.08	64.1653	1.111883	0.025219	0.024861	66.1103	19772.7	0.022711	0.026982	2450.12	109976
1011	2.000000	1.122759	7.37494e+06	-50689.1	1055.82	-29754.8	0.000000	0.000000	7.127590	105.496	NaN	0.000000	0.001536	0.001627	28.0824	44.2916	0.001813	24435.9	5.793961	-3.941868	104.088	1.122338	0.035737	0.035315	105.496	24435.9	0.032499	0.046082	2289.3	104001
1011	2.000000	1.133168	7.37494e+06	-50689.1	1055.82	-29754.8	0.000000	0.000000	7.140251	160.266	NaN	0.000000	0.001525	0.001654	28.0824	53.9554	0.001710	31560.1	3.039351	175.809	156.465	1.132931	0.046145	0.045909	160.266	31560.1	0.042337	0.070207	2282.77	108823
1011	2.000000	1.143703	7.37494e+06	-50689.1	1055.82	-29754.8	0.000000	0.000000	7.153739	232.086	NaN	0.000000	0.001512	0.001660	28.0826	66.1815	0.001815	36460.7	6.785790	-8.055487	230.043	1.143339	0.056680	0.056317	232.086	36460.7	0.051906	0.098396	2358.69	106196
1011	2.000000	1.154145	7.37494e+06	-50689.1	1055.82	-29754.8	0.000000	0.000000	7.168611	339.801	NaN	0.000000	0.001515	0.001625	28.0841	77.1976	0.001774	43527.7	7.404138	169.746	334.267	1.153749	0.067123	0.066726	339.801	43527.7	0.061268	0.130393	2605.96	110131
1011	2.000000	1.164709	7.37494e+06	-50689.1	1055.82	-29754.8	0.000000	0.000000	7.182969	432.047	NaN	0.000000	0.001598	0.001680	28.0839	88.0387	0.001831	48091.5	5.480775	-9.596465	431.239	1.164432	0.077687	0.077409	432.047	48091.5	0.070949	0.167970	2572.16	107207
1011	2.000000	1.175068	7.37494e+06	-50689.1	1055.82	-29754.8	0.000000	0.000000	7.198033	546.474	NaN	0.000000	0.001590	0.001659	28.0839	97.1424	0.001874	51842.6	3.873360	172.227	538.671	1.174797	0.088045	0.087774	546.474	51842.6	0.080140	0.207763	2630.28	103915
1011	2.000000	1.185666	7.37494e+06	-50689.1	1055.82	-29754.8	0.000000	0.000000	7.213356	661.362	NaN	0.000000	0.001623	0.001680	28.0828	107.063	0.001814	59031.6	4.488396	-9.059772	657.643	1.185195	0.098644	0.098173	661.362	59031.6	0.090241	0.256036	2583.08	106588
1011	2.000000	1.188643	7.37495e+06	-50689.1	1055.82	-29754.8	0.000000	0.000000	7.217574	691.553	NaN	0.000000	0.001624	0.001716	28.0838	109.169	0.001829	59673.2	2.180179	-7.040608	687.277	1.188292	0.101621	0.101269	691.553	59673.2	0.092929	0.269672	2564.42	104987