File: remote_trans/data/nanoindenter/0828-1/data/Data_2025-08-06,11h17m57s/2025-07-22_16-23-58_1_232.txt
2025-07-22, 16:23:58, 1
Index	Phase	Displacement	Time	Pos X	Pos Y	Pos Z	Rot A	Rot B	Piezo Z	Force A	Force B	Gripper	Voltage A	Voltage B	Temperature	Amplitude force	Amplitude pos	Stiffness	Phase shift	Phase excitation	Force A raw	Displacement raw	HMax	HMax raw	Real Force	Real Stiffness	Contact Depth	Area	Hardness	Reduced Mod.
[#]	[#]	[um]	[s]	[um]	[um]	[um]	[m°]	[m°]	[um]	[uN]	[uN]	[V]	[V]	[V]	[°C]	[uN]	[um]	[N/m]	[°]	[°]	[uN]	[um]	[um]	[um]	[uN]	[N/m]	[um]	[um^2]	[MPa]	[MPa]
232	1.000000	0.001925	7.36731e+06	-50239.1	955.818	-29756.8	0.000000	0.000000	6.002808	-0.002938	NaN	0.000000	0.001698	0.001619	28.0788	0.053071	0.000991	53.5275	103.994	-170.199	-0.060680	0.000632	-1.012094	-1.013387	-0.002938	53.5275	-1.012053	-3.296176E+13	8.914628E-17	NaN
232	1.000000	0.041872	7.36731e+06	-50239.1	955.819	-29756.8	0.000000	0.000000	6.042753	-0.056441	NaN	0.000000	0.001765	0.001622	28.0774	0.010305	0.001998	5.157420	-158.754	-165.61	-0.021473	0.040574	-0.972147	-0.973445	-0.056441	5.157420	-0.963939	-7.412633E+12	7.614167E-15	NaN
232	1.000000	0.081889	7.36731e+06	-50239.1	955.819	-29756.8	0.000000	0.000000	6.082773	0.022005	NaN	0.000000	0.001647	0.001598	28.0773	0.055199	0.002038	27.0876	-85.7811	-166.891	0.036014	0.080559	-0.932130	-0.933460	0.022005	27.0876	-0.932740	-2.812997E+12	-7.822647E-15	NaN
232	1.000000	0.121873	7.36731e+06	-50239.1	955.819	-29756.8	0.000000	0.000000	6.122756	-0.007186	NaN	0.000000	0.001655	0.001660	28.0771	0.104999	0.001981	52.9959	147.947	-163.245	0.009406	0.120626	-0.892146	-0.893393	-0.007186	52.9959	-0.892044	-7.935065E+11	9.055553E-15	NaN
232	1.000000	0.161902	7.36731e+06	-50239.1	955.818	-29756.8	0.000000	0.000000	6.162786	0.018541	NaN	0.000000	0.001660	0.001615	28.0783	0.061767	0.002131	28.9891	73.7315	-172.202	0.128347	0.160581	-0.852117	-0.853438	0.018541	28.9891	-0.852597	-2.322183E+11	-7.984501E-14	NaN
232	1.000000	0.201935	7.36732e+06	-50239.1	955.819	-29756.8	0.000000	0.000000	6.202819	0.006138	NaN	0.000000	0.001691	0.001561	28.0785	0.042570	0.002127	20.0109	-70.6759	-168.292	-0.100454	0.200549	-0.812084	-0.813470	0.006138	20.0109	-0.812314	-6.606405E+10	-9.290353E-14	NaN
232	1.000000	0.241944	7.36732e+06	-50239.1	955.819	-29756.8	0.000000	0.000000	6.242829	0.032331	NaN	0.000000	0.001680	0.001570	28.0784	0.039050	0.001939	20.1439	113.899	-169.807	-0.025883	0.240664	-0.772075	-0.773355	0.032331	20.1439	-0.773279	-1.949296E+10	-1.658587E-12	NaN
232	1.000000	0.282000	7.36732e+06	-50239.1	955.818	-29756.8	0.000000	0.000000	6.282885	0.017270	NaN	0.000000	0.001619	0.001557	28.0783	0.046935	0.002069	22.6854	112.728	-164.933	-0.000704	0.280672	-0.732019	-0.733347	0.017270	22.6854	-0.732590	-5.446267E+9	-3.170921E-12	NaN
232	1.000000	0.322000	7.36732e+06	-50239.1	955.817	-29756.8	0.000000	0.000000	6.322885	0.017705	NaN	0.000000	0.001720	0.001585	28.0771	0.099812	0.001967	50.7395	-162.165	-164.271	-0.021517	0.320618	-0.692019	-0.693402	0.017705	50.7395	-0.692280	-1.534898E+9	-1.153527E-11	NaN
232	1.000000	0.362003	7.36732e+06	-50239.1	955.819	-29756.8	0.000000	0.000000	6.362888	0.022923	NaN	0.000000	0.001681	0.001609	28.0772	0.094819	0.002067	45.8663	6.960044	-165.946	0.020730	0.360675	-0.652016	-0.653344	0.022923	45.8663	-0.652391	-4.367239E+8	-5.248899E-11	NaN
232	1.000000	0.402021	7.36732e+06	-50239.1	955.818	-29756.8	0.000000	0.000000	6.402907	0.044075	NaN	0.000000	0.001772	0.001645	28.0773	0.141547	0.001876	75.4417	148.072	-168.711	0.032400	0.400735	-0.611998	-0.613284	0.044075	75.4417	-0.612436	-1.234881E+8	-3.569202E-10	NaN
232	1.000000	0.442042	7.36732e+06	-50239.1	955.818	-29756.8	0.000000	0.000000	6.442925	-0.004174	NaN	0.000000	0.001703	0.001641	28.0786	0.089990	0.002138	42.0829	47.9482	-166.666	-0.011611	0.440717	-0.571977	-0.573302	-0.004174	42.0829	-0.571902	-3.411264E+7	1.223686E-10	NaN
232	1.000000	0.482059	7.36732e+06	-50239.1	955.819	-29756.8	0.000000	0.000000	6.482945	0.068280	NaN	0.000000	0.001640	0.001614	28.0785	0.088323	0.001956	45.1473	-98.4234	-163.28	0.084949	0.480744	-0.531960	-0.533275	0.068280	45.1473	-0.533094	-9.89774e+06	-6.898589E-9	NaN
232	1.000000	0.522078	7.36732e+06	-50239.1	955.818	-29756.8	0.000000	0.000000	6.522959	-0.048970	NaN	0.000000	0.001665	0.001613	28.0786	0.114265	0.002110	54.1559	133.522	-165.326	-0.045798	0.520821	-0.491941	-0.493198	-0.048970	54.1559	-0.491263	-2.58845e+06	1.891847E-8	NaN
232	1.000000	0.562068	7.36732e+06	-50239.1	955.818	-29756.8	0.000000	0.000000	6.562953	0.040666	NaN	0.000000	0.001657	0.001706	28.0774	0.080131	0.001941	41.2834	-107.5	-163.507	-0.036820	0.560759	-0.451951	-0.453260	0.040666	41.2834	-0.452690	-745100	-5.457753E-8	NaN
232	1.000000	0.602080	7.36732e+06	-50239.1	955.819	-29756.8	0.000000	0.000000	6.602963	-0.008109	NaN	0.000000	0.001682	0.001605	28.0774	0.025547	0.002021	12.6382	-140.536	-164.608	0.073032	0.600817	-0.411939	-0.413202	-0.008109	12.6382	-0.411458	-194594	4.166885E-8	NaN
232	1.000000	0.642127	7.36732e+06	-50239.1	955.818	-29756.8	0.000000	0.000000	6.643011	0.026124	NaN	0.000000	0.001656	0.001638	28.0773	0.042352	0.002051	20.6492	-123.912	-168.046	0.051417	0.640790	-0.371892	-0.373229	0.026124	20.6492	-0.372841	-54578.7	-4.786552E-7	NaN
232	1.000000	0.682160	7.36732e+06	-50239.1	955.819	-29756.8	0.000000	0.000000	6.683042	-0.026014	NaN	0.000000	0.001698	0.001650	28.0771	0.060242	0.002052	29.361	-175.142	-163.491	0.067351	0.680822	-0.331859	-0.333197	-0.026014	29.361	-0.331195	-13581.3	1.915400E-6	NaN
232	1.000000	0.722191	7.36732e+06	-50239.1	955.817	-29756.8	0.000000	0.000000	6.723077	0.077791	NaN	0.000000	0.001660	0.001650	28.0784	0.029867	0.002026	14.7432	-47.2045	-166.356	0.039894	0.720840	-0.291828	-0.293179	0.077791	14.7432	-0.295786	-4072.1	-1.910328E-5	NaN
232	1.000000	0.762156	7.36732e+06	-50239.1	955.818	-29756.8	0.000000	0.000000	6.763039	-0.004818	NaN	0.000000	0.001677	0.001584	28.0785	0.074158	0.001949	38.0494	-42.9289	-166.401	0.066375	0.760874	-0.251863	-0.253145	-0.004818	38.0494	-0.251768	-875.567	5.502942E-6	NaN
232	1.000000	0.802200	7.36732e+06	-50239.1	955.818	-29756.8	0.000000	0.000000	6.803083	-0.010038	NaN	0.000000	0.001660	0.001581	28.0784	0.036249	0.002073	17.4859	-42.5289	-164.335	0.050911	0.800875	-0.211819	-0.213144	-0.010038	17.4859	-0.211388	-201.967	4.970088E-5	NaN
232	1.000000	0.842215	7.36732e+06	-50239.1	955.819	-29756.8	0.000000	0.000000	6.843099	0.022520	NaN	0.000000	0.001699	0.001618	28.0772	0.055843	0.001984	28.1445	-74.1607	-166.455	0.067595	0.840912	-0.171804	-0.173107	0.022520	28.1445	-0.172404	-45.2121	-0.000498	NaN
232	1.000000	0.882245	7.36732e+06	-50239.1	955.819	-29756.8	0.000000	0.000000	6.883130	0.033070	NaN	0.000000	0.001628	0.001574	28.0775	0.112643	0.001892	59.5343	25.9648	-165.951	0.015536	0.880922	-0.131774	-0.133097	0.033070	59.5343	-0.132191	-8.402374	-0.003936	NaN
232	1.000000	0.922217	7.36732e+06	-50239.1	955.818	-29756.8	0.000000	0.000000	6.923100	-0.006195	NaN	0.000000	0.001647	0.001564	28.0771	0.046767	0.002020	23.1483	45.9757	-165.731	-0.062100	0.920927	-0.091802	-0.093092	-0.006195	23.1483	-0.091602	-1.178192	0.005258	NaN
232	1.000000	0.962248	7.36732e+06	-50239.1	955.818	-29756.8	0.000000	0.000000	6.963130	-0.041692	NaN	0.000000	0.001648	0.001598	28.0771	0.071308	0.002019	35.3131	-33.69	-165.96	0.030899	0.960944	-0.051771	-0.053075	-0.041692	35.3131	-0.050886	-0.097045	0.429614	NaN
232	1.000000	1.002257	7.36732e+06	-50239.1	955.819	-29756.8	0.000000	0.000000	7.003141	0.012202	NaN	0.000000	0.001669	0.001615	28.0784	0.067633	0.001793	37.7191	117.552	-166.697	0.054221	1.000994	-0.011762	-0.013025	0.012202	37.7191	-0.012004	-0.007531	-1.620271	NaN
232	2.000000	1.030895	7.36732e+06	-50239.1	955.818	-29756.8	0.000000	0.000000	7.032313	12.9899	NaN	0.000000	0.001721	0.001571	28.0786	13.4536	0.001743	7720.12	8.682742	-175.492	13.543	1.030539	0.016876	0.016520	12.9899	7720.12	0.015614	0.016113	806.158	55565.3
232	2.000000	1.040776	7.36732e+06	-50239.1	955.819	-29756.8	0.000000	0.000000	7.043067	34.2111	NaN	0.000000	0.001685	0.001615	28.0786	23.4325	0.001733	13523.2	4.295954	-176.913	33.1027	1.040465	0.026757	0.026446	34.2111	13523.2	0.024860	0.030761	1112.15	70445
232	2.000000	1.050747	7.36732e+06	-50239.1	955.818	-29756.8	0.000000	0.000000	7.054041	58.6266	NaN	0.000000	0.001580	0.001585	28.0774	33.5979	0.001769	18988.9	6.454570	177.86	56.8749	1.050363	0.036728	0.036343	58.6266	18988.9	0.034412	0.050386	1163.55	77289.3
232	2.000000	1.060808	7.36732e+06	-50239.1	955.819	-29756.8	0.000000	0.000000	7.065197	85.2419	NaN	0.000000	0.001642	0.001630	28.0774	42.3668	0.001767	23974.5	4.484626	177.745	85.9846	1.060500	0.046789	0.046481	85.2419	23974.5	0.044122	0.075115	1134.82	79920.8
232	2.000000	1.070818	7.36732e+06	-50239.1	955.819	-29756.8	0.000000	0.000000	7.076717	121.982	NaN	0.000000	0.001635	0.001646	28.0775	53.6599	0.001847	29047	11.8894	169.921	125.319	1.070387	0.056799	0.056368	121.982	29047	0.053649	0.104025	1172.62	82282.2
232	2.000000	1.080699	7.36732e+06	-50239.1	955.819	-29756.8	0.000000	0.000000	7.088547	169.346	NaN	0.000000	0.001617	0.001633	28.0783	63.5534	0.001805	35208.2	5.393938	173.611	168.111	1.080474	0.066680	0.066455	169.346	35208.2	0.063073	0.137058	1235.58	86889.1
232	2.000000	1.090668	7.36732e+06	-50239.1	955.819	-29756.8	0.000000	0.000000	7.100669	221.729	NaN	0.000000	0.001655	0.001585	28.0786	72.5682	0.001874	38733	5.098355	173.1	220.055	1.090331	0.076649	0.076312	221.729	38733	0.072356	0.173802	1275.75	84884.1
232	2.000000	1.100669	7.36732e+06	-50239.1	955.82	-29756.8	0.000000	0.000000	7.112870	275.231	NaN	0.000000	0.001627	0.001654	28.0785	81.4169	0.001905	42728.2	6.046022	172.256	273.331	1.100419	0.086650	0.086400	275.231	42728.2	0.081819	0.215459	1277.42	84101.8
232	2.000000	1.110643	7.36732e+06	-50239.1	955.818	-29756.8	0.000000	0.000000	7.125734	345.506	NaN	0.000000	0.001655	0.001592	28.0785	89.7337	0.001671	53701.4	5.527766	170.869	343.353	1.110329	0.096624	0.096310	345.506	53701.4	0.091798	0.263895	1309.25	95508.8
232	2.000000	1.120561	7.36732e+06	-50239.1	955.819	-29756.8	0.000000	0.000000	7.138353	411.203	NaN	0.000000	0.001639	0.001555	28.0773	97.4249	0.001771	55011.5	1.011604	175.365	405.73	1.120333	0.106542	0.106314	411.203	55011.5	0.100936	0.312244	1316.93	89945.5
232	2.000000	1.125592	7.36732e+06	-50239.1	955.819	-29756.8	0.000000	0.000000	7.145203	455.418	NaN	0.000000	0.001682	0.001614	28.0773	102.29	0.001837	55678.2	1.210874	175.125	452.508	1.125282	0.111573	0.111263	455.418	55678.2	0.105439	0.337469	1349.51	87567.1