File: remote_trans/data/nanoindenter/0828-1/data/Data_2025-08-06,11h17m57s/2025-07-22_16-23-58_1_627.txt
2025-07-22, 16:23:58, 1
Index	Phase	Displacement	Time	Pos X	Pos Y	Pos Z	Rot A	Rot B	Piezo Z	Force A	Force B	Gripper	Voltage A	Voltage B	Temperature	Amplitude force	Amplitude pos	Stiffness	Phase shift	Phase excitation	Force A raw	Displacement raw	HMax	HMax raw	Real Force	Real Stiffness	Contact Depth	Area	Hardness	Reduced Mod.
[#]	[#]	[um]	[s]	[um]	[um]	[um]	[m°]	[m°]	[um]	[uN]	[uN]	[V]	[V]	[V]	[°C]	[uN]	[um]	[N/m]	[°]	[°]	[uN]	[um]	[um]	[um]	[uN]	[N/m]	[um]	[um^2]	[MPa]	[MPa]
627	1.000000	0.002482	7.37118e+06	-45739.1	1005.82	-29771.4	0.000000	0.000000	6.002806	-0.039757	NaN	0.000000	0.001634	0.001634	28.0815	0.102958	0.001044	98.5836	150.289	-163.02	-0.022190	0.001206	-1.153130	-1.154406	-0.039757	98.5836	-1.152828	-2.562889E+15	1.551240E-17	NaN
627	1.000000	0.044400	7.37118e+06	-45739.1	1005.82	-29771.4	0.000000	0.000000	6.044725	-0.017810	NaN	0.000000	0.001655	0.001662	28.0809	0.041434	0.001955	21.1936	87.2488	14.625	-0.044187	0.043072	-1.111212	-1.112540	-0.017810	21.1936	-1.110582	-6.951752E+14	2.561948E-17	NaN
627	1.000000	0.086464	7.37118e+06	-45739.1	1005.82	-29771.4	0.000000	0.000000	6.086793	0.070786	NaN	0.000000	0.001640	0.001632	28.0822	0.064826	0.001951	33.2206	57.9004	-164.739	0.089426	0.085137	-1.069148	-1.070476	0.070786	33.2206	-1.070746	-2.028701E+14	-3.489247E-16	NaN
627	1.000000	0.128439	7.37118e+06	-45739.1	1005.82	-29771.4	0.000000	0.000000	6.128766	0.024994	NaN	0.000000	0.001641	0.001637	28.0822	0.048680	0.002048	23.7641	8.954809	8.316854	0.019728	0.127082	-1.027173	-1.028530	0.024994	23.7641	-1.027962	-5.395865E+13	-4.631994E-16	NaN
627	1.000000	0.170464	7.37118e+06	-45739.1	1005.82	-29771.4	0.000000	0.000000	6.170791	0.025678	NaN	0.000000	0.001632	0.001662	28.0821	0.092471	0.002267	40.785	173.102	-166.361	-0.026488	0.169151	-0.985148	-0.986461	0.025678	40.785	-0.985620	-1.452529E+13	-1.767815E-15	NaN
627	1.000000	0.212493	7.37118e+06	-45739.1	1005.82	-29771.4	0.000000	0.000000	6.212820	0.020469	NaN	0.000000	0.001669	0.001650	28.0809	0.044202	0.001997	22.1327	24.8155	14.3447	0.081273	0.211158	-0.943119	-0.944454	0.020469	22.1327	-0.943813	-3.967986E+12	-5.158603E-15	NaN
627	1.000000	0.254530	7.37119e+06	-45739.1	1005.82	-29771.4	0.000000	0.000000	6.254856	0.013050	NaN	0.000000	0.001651	0.001707	28.081	0.135582	0.001966	68.9566	112.985	-164.062	-0.048043	0.253209	-0.901083	-0.902403	0.013050	68.9566	-0.901224	-1.055872E+12	-1.235953E-14	NaN
627	1.000000	0.296528	7.37119e+06	-45739.1	1005.82	-29771.4	0.000000	0.000000	6.296854	0.024959	NaN	0.000000	0.001667	0.001714	28.081	0.178733	0.002020	88.4661	-18.3043	13.961	0.032565	0.295191	-0.859085	-0.860421	0.024959	88.4661	-0.859296	-2.861505E+11	-8.722474E-14	NaN
627	1.000000	0.338539	7.37119e+06	-45739.1	1005.82	-29771.4	0.000000	0.000000	6.338864	-0.010295	NaN	0.000000	0.001682	0.001683	28.081	0.069568	0.001878	37.0447	-84.86	-164.356	0.001974	0.337237	-0.817073	-0.818375	-0.010295	37.0447	-0.816865	-7.615377E+10	1.351882E-13	NaN
627	1.000000	0.380575	7.37119e+06	-45739.1	1005.82	-29771.4	0.000000	0.000000	6.380902	0.029942	NaN	0.000000	0.001658	0.001721	28.0826	0.065926	0.001916	34.4038	141.49	15.5935	0.014545	0.379227	-0.775037	-0.776385	0.029942	34.4038	-0.775690	-2.102127E+10	-1.424362E-12	NaN
627	1.000000	0.422558	7.37119e+06	-45739.1	1005.82	-29771.4	0.000000	0.000000	6.422879	-0.107801	NaN	0.000000	0.001716	0.001695	28.0823	0.046318	0.001939	23.8905	-113.165	-166.767	-0.100735	0.421226	-0.733054	-0.734386	-0.107801	23.8905	-0.729670	-4.969493E+9	2.169248E-11	NaN
627	1.000000	0.464580	7.37119e+06	-45739.1	1005.82	-29771.4	0.000000	0.000000	6.464905	-0.002653	NaN	0.000000	0.001687	0.001685	28.0824	0.105633	0.002006	52.6688	-114.374	14.3449	-0.005563	0.463193	-0.691033	-0.692419	-0.002653	52.6688	-0.690995	-1.474051E+9	1.800119E-12	NaN
627	1.000000	0.506623	7.37119e+06	-45739.1	1005.82	-29771.4	0.000000	0.000000	6.506951	0.044627	NaN	0.000000	0.001586	0.001674	28.0815	0.117991	0.001937	60.9299	-88.9013	-163.304	0.048190	0.505301	-0.648989	-0.650311	0.044627	60.9299	-0.649538	-3.991227E+8	-1.118125E-10	NaN
627	1.000000	0.548643	7.37119e+06	-45739.1	1005.82	-29771.4	0.000000	0.000000	6.548968	-0.013652	NaN	0.000000	0.001633	0.001695	28.0812	0.003087	0.002023	1.525752	131.85	14.6165	-0.028872	0.547274	-0.606969	-0.608338	-0.013652	1.525752	-0.600258	-8.394961E+7	1.626254E-10	NaN
627	1.000000	0.590654	7.37119e+06	-45739.1	1005.82	-29771.4	0.000000	0.000000	6.590978	-0.043750	NaN	0.000000	0.001641	0.001684	28.0814	0.091084	0.002026	44.9475	-165.741	-163.063	-0.086735	0.589341	-0.564958	-0.566271	-0.043750	44.9475	-0.564228	-2.672099E+7	1.637277E-9	NaN
627	1.000000	0.632681	7.37119e+06	-45739.1	1005.82	-29771.4	0.000000	0.000000	6.633009	0.042338	NaN	0.000000	0.001642	0.001675	28.0823	0.036656	0.001910	19.1867	31.9036	13.0868	0.042040	0.631322	-0.522931	-0.524290	0.042338	19.1867	-0.524586	-7.53979e+06	-5.615287E-9	NaN
627	1.000000	0.674705	7.37119e+06	-45739.1	1005.82	-29771.4	0.000000	0.000000	6.675031	0.000197	NaN	0.000000	0.001682	0.001682	28.0823	0.052091	0.001931	26.974	76.5262	-165.908	-0.055893	0.673400	-0.480907	-0.482212	0.000197	26.974	-0.480912	-1.85481e+06	-1.060534E-10	NaN
627	1.000000	0.716723	7.37119e+06	-45739.1	1005.82	-29771.4	0.000000	0.000000	6.717050	0.009126	NaN	0.000000	0.001636	0.001624	28.0821	0.096214	0.001956	49.1879	-16.9852	12.8536	-0.001892	0.715380	-0.438889	-0.440232	0.009126	49.1879	-0.439028	-478236	-1.908236E-8	NaN
627	1.000000	0.758715	7.37119e+06	-45739.1	1005.82	-29771.4	0.000000	0.000000	6.759041	0.006688	NaN	0.000000	0.001633	0.001689	28.081	0.080231	0.001821	44.059	-79.0777	-164.912	-0.007985	0.757431	-0.396897	-0.398181	0.006688	44.059	-0.397011	-121158	-5.520413E-8	NaN
627	1.000000	0.800742	7.37119e+06	-45739.1	1005.82	-29771.4	0.000000	0.000000	6.801069	0.029642	NaN	0.000000	0.001684	0.001652	28.0811	0.049142	0.002002	24.5515	115.193	13.575	-0.003044	0.799400	-0.354870	-0.356212	0.029642	24.5515	-0.355775	-30954.7	-9.576062E-7	NaN
627	1.000000	0.842759	7.37119e+06	-45739.1	1005.82	-29771.4	0.000000	0.000000	6.843085	-0.001115	NaN	0.000000	0.001638	0.001630	28.0811	0.012088	0.002089	5.786846	-109.024	-168.036	-0.045376	0.841407	-0.312853	-0.314205	-0.001115	5.786846	-0.312708	-7262.8	1.535881E-7	NaN
627	1.000000	0.884747	7.37119e+06	-45739.1	1005.82	-29771.4	0.000000	0.000000	6.885074	0.013100	NaN	0.000000	0.001674	0.001619	28.0808	0.046922	0.001986	23.6271	-65.9224	13.6107	0.024733	0.883474	-0.270865	-0.272138	0.013100	23.6271	-0.271281	-1741.81	-7.521174E-6	NaN
627	1.000000	0.926764	7.37119e+06	-45739.1	1005.82	-29771.4	0.000000	0.000000	6.927089	-0.028901	NaN	0.000000	0.001610	0.001679	28.0823	0.155820	0.002014	77.3764	142.938	-163.978	-0.016478	0.925464	-0.228848	-0.230148	-0.028901	77.3764	-0.228568	-380.09	7.603696E-5	NaN
627	1.000000	0.968788	7.37119e+06	-45739.1	1005.82	-29771.4	0.000000	0.000000	6.969112	-0.040101	NaN	0.000000	0.001652	0.001665	28.0822	0.097123	0.001953	49.7251	51.3188	13.4552	-0.061879	0.967412	-0.186825	-0.188200	-0.040101	49.7251	-0.186220	-77.7439	0.000516	NaN
627	1.000000	1.010823	7.37119e+06	-45739.1	1005.82	-29771.4	0.000000	0.000000	7.011149	0.006187	NaN	0.000000	0.001567	0.001653	28.0822	0.133136	0.001947	68.3839	106.713	-166.597	-0.017566	1.009504	-0.144789	-0.146108	0.006187	68.3839	-0.144857	-14.572	-0.000425	NaN
627	1.000000	1.052858	7.37119e+06	-45739.1	1005.82	-29771.4	0.000000	0.000000	7.053181	-0.063908	NaN	0.000000	0.001550	0.001697	28.0814	0.072694	0.001868	38.9079	61.5428	12.5469	-0.021044	1.051522	-0.102754	-0.104090	-0.063908	38.9079	-0.101522	-1.974148	0.032372	NaN
627	1.000000	1.094814	7.37119e+06	-45739.1	1005.82	-29771.4	0.000000	0.000000	7.095141	0.030609	NaN	0.000000	0.001551	0.001675	28.0813	0.039318	0.001978	19.8767	-26.6224	-164.169	0.028526	1.093531	-0.060798	-0.062081	0.030609	19.8767	-0.061953	-0.204724	-0.149515	NaN
627	1.000000	1.136885	7.37119e+06	-45739.1	1005.82	-29771.4	0.000000	0.000000	7.137210	-0.010025	NaN	0.000000	0.001559	0.001633	28.0814	0.087213	0.002099	41.5473	137.686	13.4811	-0.032534	1.135496	-0.018727	-0.020116	-0.010025	41.5473	-0.018546	-0.011531	0.869344	NaN
627	2.000000	1.165402	7.37119e+06	-45739.1	1005.82	-29771.4	0.000000	0.000000	7.166310	14.1707	NaN	0.000000	0.001603	0.001654	28.0823	13.3283	0.001727	7716.58	4.954023	-171.019	13.526	1.165095	0.009789	0.009483	14.1707	7716.58	0.008412	0.007470	1897.09	81573.1
627	2.000000	1.175847	7.37119e+06	-45739.1	1005.82	-29771.4	0.000000	0.000000	7.177542	33.2927	NaN	0.000000	0.001574	0.001650	28.0824	23.793	0.001750	13592.3	3.603563	4.236282	32.6337	1.175448	0.020235	0.019836	33.2927	13592.3	0.018398	0.020087	1657.41	87620.6
627	2.000000	1.186289	7.37119e+06	-45739.1	1005.82	-29771.4	0.000000	0.000000	7.189206	63.0526	NaN	0.000000	0.001583	0.001665	28.0822	34.479	0.001886	18281.1	6.775690	178.875	62.3467	1.185984	0.030677	0.030372	63.0526	18281.1	0.028090	0.036877	1709.79	86975.2
627	2.000000	1.196831	7.37119e+06	-45739.1	1005.82	-29771.4	0.000000	0.000000	7.201281	100.324	NaN	0.000000	0.001575	0.001617	28.0811	44.5536	0.001800	24746.5	4.771671	-1.974240	101.045	1.196405	0.041218	0.040793	100.324	24746.5	0.038178	0.059404	1688.84	92763.8
627	2.000000	1.207286	7.37119e+06	-45739.1	1005.82	-29771.4	0.000000	0.000000	7.213724	148.685	NaN	0.000000	0.001583	0.001656	28.0815	54.5088	0.001740	31330.3	4.896524	175.884	148.377	1.206903	0.051674	0.051291	148.685	31330.3	0.048114	0.086674	1715.44	97228.4
627	2.000000	1.217707	7.37119e+06	-45739.1	1005.82	-29771.4	0.000000	0.000000	7.226446	204.655	NaN	0.000000	0.001584	0.001682	28.0811	64.6641	0.001786	36199.9	2.614511	-3.417984	200.317	1.217415	0.062095	0.061803	204.655	36199.9	0.057855	0.118229	1731.01	96187.6
627	2.000000	1.228213	7.37119e+06	-45739.1	1005.82	-29771.4	0.000000	0.000000	7.239398	264.148	NaN	0.000000	0.001627	0.001658	28.081	74.7992	0.001762	42445.2	4.517677	173.327	260.997	1.227856	0.072601	0.072244	264.148	42445.2	0.067933	0.155783	1695.61	98252
627	2.000000	1.238692	7.37119e+06	-45739.1	1005.82	-29771.4	0.000000	0.000000	7.252716	333.227	NaN	0.000000	0.001600	0.001657	28.0822	83.9336	0.001883	44570.1	3.229233	-5.513080	327.808	1.238416	0.083080	0.082804	333.227	44570.1	0.077473	0.195807	1701.81	92024.2
627	2.000000	1.249217	7.37119e+06	-45739.1	1005.82	-29771.4	0.000000	0.000000	7.266610	415.176	NaN	0.000000	0.001595	0.001663	28.0824	90.4582	0.001697	53316.8	1.894606	174.166	414.563	1.249065	0.093605	0.093453	415.176	53316.8	0.087764	0.243765	1703.18	98662.4
627	2.000000	1.259175	7.37119e+06	-45739.1	1005.82	-29771.4	0.000000	0.000000	7.279665	490.512	NaN	0.000000	0.001621	0.001597	28.0823	102.389	0.001774	57706.3	6.666885	169.064	487.026	1.258963	0.103563	0.103351	490.512	57706.3	0.097187	0.291952	1680.12	97575.5