File: remote_trans/data/nanoindenter/0828-1/data/Data_2025-08-06,11h17m57s/2025-07-22_16-23-58_1_274.txt
2025-07-22, 16:23:58, 1
Index	Phase	Displacement	Time	Pos X	Pos Y	Pos Z	Rot A	Rot B	Piezo Z	Force A	Force B	Gripper	Voltage A	Voltage B	Temperature	Amplitude force	Amplitude pos	Stiffness	Phase shift	Phase excitation	Force A raw	Displacement raw	HMax	HMax raw	Real Force	Real Stiffness	Contact Depth	Area	Hardness	Reduced Mod.
[#]	[#]	[um]	[s]	[um]	[um]	[um]	[m°]	[m°]	[um]	[uN]	[uN]	[V]	[V]	[V]	[°C]	[uN]	[um]	[N/m]	[°]	[°]	[uN]	[um]	[um]	[um]	[uN]	[N/m]	[um]	[um^2]	[MPa]	[MPa]
274	1.000000	0.002509	7.36774e+06	-52339.1	955.819	-29749.8	0.000000	0.000000	6.002810	-0.060369	NaN	0.000000	0.001672	0.001657	28.081	0.045109	0.001014	44.4884	-99.461	-172.383	-0.106564	0.001215	-1.056460	-1.057754	-0.060369	44.4884	-1.055442	-1.263464E+14	4.778089E-16	NaN
274	1.000000	0.042444	7.36774e+06	-52339.1	955.818	-29749.8	0.000000	0.000000	6.042748	0.011016	NaN	0.000000	0.001596	0.001676	28.0808	0.068938	0.002014	34.2377	114.404	-167.494	-0.078648	0.041125	-1.016524	-1.017844	0.011016	34.2377	-1.016766	-3.814436E+13	-2.887923E-16	NaN
274	1.000000	0.082459	7.36774e+06	-52339.1	955.82	-29749.8	0.000000	0.000000	6.082762	-0.020891	NaN	0.000000	0.001619	0.001653	28.0808	0.090600	0.001945	46.5928	16.0824	-171.855	-0.061505	0.081132	-0.976509	-0.977836	-0.020891	46.5928	-0.976173	-1.083536E+13	1.928052E-15	NaN
274	1.000000	0.122467	7.36774e+06	-52339.1	955.818	-29749.8	0.000000	0.000000	6.122771	0.010657	NaN	0.000000	0.001554	0.001649	28.0798	0.066821	0.001971	33.9047	42.5234	-164.297	0.063834	0.121176	-0.936502	-0.937792	0.010657	33.9047	-0.936737	-3.185063E+12	-3.345874E-15	NaN
274	1.000000	0.162513	7.36774e+06	-52339.1	955.818	-29749.8	0.000000	0.000000	6.162818	0.043001	NaN	0.000000	0.001622	0.001657	28.0796	0.058483	0.002032	28.7784	-112.684	-167.535	0.006847	0.161183	-0.896456	-0.897785	0.043001	28.7784	-0.897576	-9.425723E+11	-4.562134E-14	NaN
274	1.000000	0.202478	7.36774e+06	-52339.1	955.819	-29749.8	0.000000	0.000000	6.202782	0.016262	NaN	0.000000	0.001614	0.001679	28.0795	0.028082	0.001934	14.5233	-144.683	-169.002	-0.047050	0.201217	-0.856490	-0.857752	0.016262	14.5233	-0.857330	-2.691421E+11	-6.042225E-14	NaN
274	1.000000	0.242517	7.36774e+06	-52339.1	955.818	-29749.8	0.000000	0.000000	6.242817	-0.094218	NaN	0.000000	0.001608	0.001724	28.0808	0.076155	0.002004	37.9941	30.9776	-165.139	-0.075704	0.241167	-0.816452	-0.817802	-0.094218	37.9941	-0.814592	-7.093515E+10	1.328222E-12	NaN
274	1.000000	0.282552	7.36774e+06	-52339.1	955.819	-29749.8	0.000000	0.000000	6.282854	-0.053837	NaN	0.000000	0.001643	0.001661	28.081	0.015178	0.002017	7.524814	-147.673	-165.72	-0.066427	0.281203	-0.776416	-0.777765	-0.053837	7.524814	-0.771050	-1.817952E+10	2.961426E-12	NaN
274	1.000000	0.322570	7.36774e+06	-52339.1	955.818	-29749.8	0.000000	0.000000	6.322871	-0.071308	NaN	0.000000	0.001612	0.001684	28.0811	0.068433	0.001936	35.3568	-101.294	-165.357	-0.032844	0.321244	-0.736398	-0.737725	-0.071308	35.3568	-0.734885	-5.853044E+9	1.218305E-11	NaN
274	1.000000	0.362566	7.36774e+06	-52339.1	955.818	-29749.8	0.000000	0.000000	6.362869	-0.004564	NaN	0.000000	0.001648	0.001701	28.0813	0.069750	0.002065	33.7838	159.677	-166.791	-0.017466	0.361263	-0.696403	-0.697706	-0.004564	33.7838	-0.696301	-1.741863E+9	2.620040E-12	NaN
274	1.000000	0.402603	7.36774e+06	-52339.1	955.818	-29749.8	0.000000	0.000000	6.402904	-0.079560	NaN	0.000000	0.001688	0.001688	28.08	0.045414	0.002046	22.1928	132.793	-168.501	-0.032672	0.401291	-0.656365	-0.657677	-0.079560	22.1928	-0.653676	-4.548060E+8	1.749328E-10	NaN
274	1.000000	0.442626	7.36774e+06	-52339.1	955.818	-29749.8	0.000000	0.000000	6.442928	-0.026090	NaN	0.000000	0.001719	0.001661	28.0799	0.051938	0.002055	25.2745	126.913	-167.361	-0.031139	0.441316	-0.616343	-0.617653	-0.026090	25.2745	-0.615569	-1.363667E+8	1.913188E-10	NaN
274	1.000000	0.482617	7.36774e+06	-52339.1	955.818	-29749.8	0.000000	0.000000	6.482920	0.005485	NaN	0.000000	0.001687	0.001589	28.0799	0.054906	0.002028	27.0779	-31.377	-168.665	-0.124905	0.481277	-0.576352	-0.577691	0.005485	27.0779	-0.576504	-3.948775E+7	-1.389062E-10	NaN
274	1.000000	0.522641	7.36774e+06	-52339.1	955.818	-29749.8	0.000000	0.000000	6.522943	-0.031482	NaN	0.000000	0.001656	0.001646	28.0811	0.115423	0.002095	55.1014	-57.0887	-167.273	-0.092173	0.521342	-0.536327	-0.537627	-0.031482	55.1014	-0.535899	-1.082592E+7	2.908024E-9	NaN
274	1.000000	0.562648	7.36774e+06	-52339.1	955.819	-29749.8	0.000000	0.000000	6.562948	-0.092003	NaN	0.000000	0.001626	0.001626	28.0811	0.062571	0.002045	30.5925	-142.101	-165.382	-0.054081	0.561349	-0.496320	-0.497619	-0.092003	30.5925	-0.494065	-2.83252e+06	3.248096E-8	NaN
274	1.000000	0.602666	7.36774e+06	-52339.1	955.819	-29749.8	0.000000	0.000000	6.602966	-0.088313	NaN	0.000000	0.001628	0.001630	28.0813	0.037703	0.002088	18.0582	142.766	-167.862	-0.111416	0.601359	-0.456302	-0.457609	-0.088313	18.0582	-0.452634	-743752	1.187395E-7	NaN
274	1.000000	0.642701	7.36774e+06	-52339.1	955.819	-29749.8	0.000000	0.000000	6.643002	-0.071602	NaN	0.000000	0.001593	0.001632	28.08	0.066157	0.001900	34.8167	117.294	-164.881	-0.104029	0.641352	-0.416267	-0.417616	-0.071602	34.8167	-0.414725	-216545	3.306581E-7	NaN
274	1.000000	0.682703	7.36774e+06	-52339.1	955.819	-29749.8	0.000000	0.000000	6.683002	-0.112312	NaN	0.000000	0.001659	0.001617	28.0798	0.130675	0.002117	61.7289	-66.3144	-161.929	-0.126999	0.681415	-0.376266	-0.377554	-0.112312	61.7289	-0.374901	-58431.7	1.922113E-6	NaN
274	1.000000	0.722727	7.36774e+06	-52339.1	955.819	-29749.8	0.000000	0.000000	6.723028	-0.061021	NaN	0.000000	0.001631	0.001629	28.0797	0.080002	0.001915	41.783	-43.9316	-166.18	-0.014126	0.721444	-0.336242	-0.337524	-0.061021	41.783	-0.335146	-15514.1	3.933274E-6	NaN
274	1.000000	0.762766	7.36774e+06	-52339.1	955.818	-29749.8	0.000000	0.000000	6.763068	-0.026304	NaN	0.000000	0.001601	0.001637	28.0796	0.062172	0.001956	31.79	-17.4178	-166.385	-0.031836	0.761433	-0.296203	-0.297536	-0.026304	31.79	-0.295582	-4043.69	6.504958E-6	NaN
274	1.000000	0.802747	7.36774e+06	-52339.1	955.817	-29749.8	0.000000	0.000000	6.803048	-0.060936	NaN	0.000000	0.001587	0.001624	28.081	0.094120	0.002010	46.8219	166.464	-164.128	-0.030794	0.801504	-0.256221	-0.257464	-0.060936	46.8219	-0.255245	-990.582	6.151510E-5	NaN
274	1.000000	0.842793	7.36774e+06	-52339.1	955.818	-29749.8	0.000000	0.000000	6.843096	-0.006624	NaN	0.000000	0.001643	0.001645	28.0813	0.051141	0.001906	26.8316	-159.201	-168.482	-0.053101	0.841504	-0.216175	-0.217465	-0.006624	26.8316	-0.215990	-239.568	2.764865E-5	NaN
274	1.000000	0.882808	7.36774e+06	-52339.1	955.819	-29749.8	0.000000	0.000000	6.883112	0.004263	NaN	0.000000	0.001656	0.001609	28.0812	0.038316	0.001953	19.6209	74.263	-170.739	-0.055842	0.881522	-0.176160	-0.177447	0.004263	19.6209	-0.176323	-52.8064	-8.073337E-5	NaN
274	1.000000	0.922802	7.36774e+06	-52339.1	955.819	-29749.8	0.000000	0.000000	6.923103	-0.078325	NaN	0.000000	0.001633	0.001617	28.0801	0.095202	0.001998	47.6385	-104.068	-167.996	-0.001269	0.921547	-0.136166	-0.137422	-0.078325	47.6385	-0.134933	-9.484378	0.008258	NaN
274	1.000000	0.962841	7.36774e+06	-52339.1	955.818	-29749.8	0.000000	0.000000	6.963142	-0.057670	NaN	0.000000	0.001593	0.001615	28.0796	0.116704	0.002092	55.782	-38.0173	-168.288	-0.089487	0.961506	-0.096128	-0.097463	-0.057670	55.782	-0.095352	-1.436926	0.040135	NaN
274	1.000000	1.002828	7.36774e+06	-52339.1	955.819	-29749.8	0.000000	0.000000	7.003127	-0.109703	NaN	0.000000	0.001647	0.001628	28.0797	0.022667	0.001947	11.6401	-91.7243	-164.361	-0.056155	1.001523	-0.056140	-0.057445	-0.109703	11.6401	-0.049072	-0.085531	1.282612	NaN
274	1.000000	1.042850	7.36774e+06	-52339.1	955.818	-29749.8	0.000000	0.000000	7.043150	-0.084225	NaN	0.000000	0.001729	0.001655	28.0797	0.060717	0.001972	30.7831	-16.575	-167.475	-0.039880	1.041510	-0.016118	-0.017459	-0.084225	30.7831	-0.014066	-0.008722	9.656554	NaN
274	2.000000	1.071444	7.36774e+06	-52339.1	955.819	-29749.8	0.000000	0.000000	7.072281	12.9478	NaN	0.000000	0.001633	0.001656	28.081	13.6668	0.001842	7418.39	7.275547	-173.783	12.5581	1.071186	0.012476	0.012218	12.9478	7418.39	0.011167	0.010508	1232.24	66119.9
274	2.000000	1.081361	7.36774e+06	-52339.1	955.819	-29749.8	0.000000	0.000000	7.083108	35.09	NaN	0.000000	0.001615	0.001615	28.0812	25.458	0.001897	13417.4	8.183776	178.56	34.3052	1.081111	0.022393	0.022143	35.09	13417.4	0.020431	0.023225	1510.89	80438.7
274	2.000000	1.091313	7.36774e+06	-52339.1	955.819	-29749.8	0.000000	0.000000	7.094191	62.5983	NaN	0.000000	0.001635	0.001659	28.0812	35.9267	0.001908	18829.9	6.771387	176.787	59.9255	1.091081	0.032345	0.032113	62.5983	18829.9	0.029852	0.040437	1548.05	85552.4
274	2.000000	1.101335	7.36774e+06	-52339.1	955.818	-29749.8	0.000000	0.000000	7.105830	101.925	NaN	0.000000	0.001633	0.001646	28.0802	44.5486	0.001755	25389.9	4.123519	177.394	102.678	1.101041	0.042367	0.042072	101.925	25389.9	0.039356	0.062374	1634.1	92882.2
274	2.000000	1.111321	7.36774e+06	-52339.1	955.819	-29749.8	0.000000	0.000000	7.117602	145.347	NaN	0.000000	0.001623	0.001664	28.0801	55.1676	0.001714	32186.8	1.569695	177.67	144.734	1.111019	0.052352	0.052050	145.347	32186.8	0.048965	0.089242	1628.69	98438.8
274	2.000000	1.121310	7.36774e+06	-52339.1	955.82	-29749.8	0.000000	0.000000	7.129974	203.285	NaN	0.000000	0.001651	0.001651	28.08	66.3845	0.001917	34625.2	8.971121	170.76	201.707	1.120931	0.062341	0.061963	203.285	34625.2	0.057938	0.118518	1715.22	91891.1
274	2.000000	1.131247	7.36774e+06	-52339.1	955.82	-29749.8	0.000000	0.000000	7.142328	262.043	NaN	0.000000	0.001624	0.001639	28.0799	76.9314	0.001830	42044	5.013912	172.034	258.676	1.131049	0.072279	0.072081	262.043	42044	0.067604	0.154479	1696.31	97733.3
274	2.000000	1.141302	7.36774e+06	-52339.1	955.819	-29749.8	0.000000	0.000000	7.155619	340.737	NaN	0.000000	0.001673	0.001624	28.0822	86.8979	0.001877	46305.6	4.216708	172.737	338.94	1.140820	0.082333	0.081852	340.737	46305.6	0.076814	0.192907	1766.32	96323.5
274	2.000000	1.151272	7.36774e+06	-52339.1	955.82	-29749.8	0.000000	0.000000	7.168919	421.702	NaN	0.000000	0.001669	0.001658	28.0814	97.3323	0.001815	53631.4	1.910204	173.909	421.636	1.151028	0.092304	0.092060	421.702	53631.4	0.086407	0.237158	1778.15	100617
274	2.000000	1.161358	7.36774e+06	-52339.1	955.821	-29749.8	0.000000	0.000000	7.182043	495.581	NaN	0.000000	0.001685	0.001663	28.0817	107.59	0.001902	56579.8	4.264129	170.674	499.881	1.161213	0.102389	0.102244	495.581	56579.8	0.095820	0.284708	1740.66	96880.1
274	2.000000	1.166201	7.36774e+06	-52339.1	955.82	-29749.8	0.000000	0.000000	7.189778	565.884	NaN	0.000000	0.001680	0.001644	28.0799	110.098	0.001794	61381.4	2.989079	172.274	562.653	1.165781	0.107233	0.106813	565.884	61381.4	0.100319	0.308860	1832.17	100909