File: remote_trans/data/nanoindenter/0828-1/data/Data_2025-08-06,11h17m57s/2025-07-22_16-23-58_1_1065.txt
2025-07-22, 16:23:58, 1
Index	Phase	Displacement	Time	Pos X	Pos Y	Pos Z	Rot A	Rot B	Piezo Z	Force A	Force B	Gripper	Voltage A	Voltage B	Temperature	Amplitude force	Amplitude pos	Stiffness	Phase shift	Phase excitation	Force A raw	Displacement raw	HMax	HMax raw	Real Force	Real Stiffness	Contact Depth	Area	Hardness	Reduced Mod.
[#]	[#]	[um]	[s]	[um]	[um]	[um]	[m°]	[m°]	[um]	[uN]	[uN]	[V]	[V]	[V]	[°C]	[uN]	[um]	[N/m]	[°]	[°]	[uN]	[um]	[um]	[um]	[uN]	[N/m]	[um]	[um^2]	[MPa]	[MPa]
1065	1.000000	0.002173	7.37546e+06	-53389.1	1055.82	-29746.3	0.000000	0.000000	6.002763	-0.086489	NaN	0.000000	0.001596	0.001682	28.0832	0.026091	0.000963	27.0885	150.875	-169.435	-0.013891	0.000920	-1.166457	-1.167710	-0.086489	27.0885	-1.164062	-3.625023E+15	2.385895E-17	NaN
1065	1.000000	0.046164	7.37546e+06	-53389.1	1055.82	-29746.3	0.000000	0.000000	6.046759	0.022110	NaN	0.000000	0.001561	0.001712	28.083	0.046384	0.001960	23.6655	66.9966	-164.933	0.065819	0.044849	-1.122466	-1.123781	0.022110	23.6655	-1.123166	-1.025542E+15	-2.155959E-17	NaN
1065	1.000000	0.090156	7.37546e+06	-53389.1	1055.82	-29746.3	0.000000	0.000000	6.090752	0.059667	NaN	0.000000	0.001558	0.001690	28.0829	0.070116	0.002046	34.2712	133.771	-161.964	0.032445	0.088794	-1.078474	-1.079836	0.059667	34.2712	-1.079780	-2.682644E+14	-2.224176E-16	NaN
1065	1.000000	0.134187	7.37546e+06	-53389.1	1055.82	-29746.3	0.000000	0.000000	6.134781	0.015879	NaN	0.000000	0.001569	0.001681	28.0839	0.046955	0.001981	23.7027	69.8056	-165.838	0.024453	0.132884	-1.034443	-1.035746	0.015879	23.7027	-1.034945	-6.698740E+13	-2.370397E-16	NaN
1065	1.000000	0.178191	7.37546e+06	-53389.1	1055.82	-29746.3	0.000000	0.000000	6.178786	0.045685	NaN	0.000000	0.001503	0.001702	28.084	0.045958	0.002103	21.8565	148.713	-163.127	-0.075247	0.176894	-0.990439	-0.991736	0.045685	21.8565	-0.992007	-1.770674E+13	-2.580084E-15	NaN
1065	1.000000	0.222212	7.37546e+06	-53389.1	1055.82	-29746.3	0.000000	0.000000	6.222806	0.001892	NaN	0.000000	0.001633	0.001664	28.0838	0.039917	0.002022	19.7448	45.145	-163.869	0.017006	0.220915	-0.946418	-0.947715	0.001892	19.7448	-0.946490	-4.312034E+12	-4.387346E-16	NaN
1065	1.000000	0.266250	7.37547e+06	-53389.1	1055.82	-29746.3	0.000000	0.000000	6.266846	0.058551	NaN	0.000000	0.001624	0.001666	28.0828	0.056365	0.001953	28.8653	167.799	-162.507	0.045319	0.264949	-0.902380	-0.903681	0.058551	28.8653	-0.903901	-1.147556E+12	-5.102204E-14	NaN
1065	1.000000	0.310278	7.37547e+06	-53389.1	1055.82	-29746.3	0.000000	0.000000	6.310872	0.009896	NaN	0.000000	0.001610	0.001699	28.0832	0.067560	0.002029	33.2953	144.287	-166.657	-0.020223	0.308993	-0.858352	-0.859637	0.009896	33.2953	-0.858575	-2.797870E+11	-3.537130E-14	NaN
1065	1.000000	0.354288	7.37547e+06	-53389.1	1055.82	-29746.3	0.000000	0.000000	6.354881	-0.015897	NaN	0.000000	0.001602	0.001715	28.083	0.046943	0.002011	23.3461	-156.44	-164.726	-0.090287	0.353004	-0.814342	-0.815626	-0.015897	23.3461	-0.813832	-6.927102E+10	2.294957E-13	NaN
1065	1.000000	0.398308	7.37547e+06	-53389.1	1055.82	-29746.3	0.000000	0.000000	6.398903	0.026101	NaN	0.000000	0.001646	0.001714	28.0841	0.102584	0.001942	52.8227	-107.455	-168.306	-0.048351	0.396932	-0.770322	-0.771698	0.026101	52.8227	-0.770693	-1.797717E+10	-1.451900E-12	NaN
1065	1.000000	0.442343	7.37547e+06	-53389.1	1055.82	-29746.3	0.000000	0.000000	6.442935	-0.049848	NaN	0.000000	0.001568	0.001688	28.0844	0.091488	0.002061	44.3868	-82.4754	-168.161	0.016905	0.441025	-0.726287	-0.727605	-0.049848	44.3868	-0.725445	-4.352248E+9	1.145346E-11	NaN
1065	1.000000	0.486366	7.37547e+06	-53389.1	1055.82	-29746.3	0.000000	0.000000	6.486959	-0.022912	NaN	0.000000	0.001621	0.001658	28.0844	0.066724	0.001976	33.7653	-89.9689	-164.582	0.002596	0.485014	-0.682264	-0.683616	-0.022912	33.7653	-0.681755	-1.102058E+9	2.078991E-11	NaN
1065	1.000000	0.530343	7.37547e+06	-53389.1	1055.82	-29746.3	0.000000	0.000000	6.530938	0.040175	NaN	0.000000	0.001617	0.001712	28.0828	0.074798	0.001981	37.7493	11.7723	-165.993	-0.000364	0.529081	-0.638287	-0.639549	0.040175	37.7493	-0.639085	-2.869058E+8	-1.400279E-10	NaN
1065	1.000000	0.574380	7.37547e+06	-53389.1	1055.82	-29746.3	0.000000	0.000000	6.574975	0.034271	NaN	0.000000	0.001601	0.001742	28.083	0.024862	0.002065	12.0408	97.3	-166.099	0.048916	0.573082	-0.594250	-0.595548	0.034271	12.0408	-0.596385	-7.424448E+7	-4.615905E-10	NaN
1065	1.000000	0.618386	7.37547e+06	-53389.1	1055.82	-29746.3	0.000000	0.000000	6.618979	-0.023419	NaN	0.000000	0.001640	0.001694	28.0827	0.036891	0.002016	18.2952	-25.1497	-168.373	0.049549	0.617077	-0.550244	-0.551553	-0.023419	18.2952	-0.549284	-1.659727E+7	1.411012E-9	NaN
1065	1.000000	0.662385	7.37547e+06	-53389.1	1055.82	-29746.3	0.000000	0.000000	6.662982	0.070389	NaN	0.000000	0.001616	0.001714	28.0842	0.085329	0.002015	42.3413	-151.953	-165.179	0.096727	0.661068	-0.506245	-0.507562	0.070389	42.3413	-0.507491	-4.35981e+06	-1.614508E-8	NaN
1065	1.000000	0.706433	7.37547e+06	-53389.1	1055.82	-29746.3	0.000000	0.000000	6.707026	-0.016553	NaN	0.000000	0.001618	0.001674	28.0843	0.137702	0.001916	71.8871	124.92	-164.247	0.036294	0.705175	-0.462197	-0.463455	-0.016553	71.8871	-0.462024	-1.00799e+06	1.642192E-8	NaN
1065	1.000000	0.750426	7.37547e+06	-53389.1	1055.82	-29746.3	0.000000	0.000000	6.751021	0.017764	NaN	0.000000	0.001639	0.001703	28.0841	0.027506	0.002019	13.6214	31.6419	-164.878	0.012348	0.749164	-0.418204	-0.419466	0.017764	13.6214	-0.419182	-250500	-7.091288E-8	NaN
1065	1.000000	0.794478	7.37547e+06	-53389.1	1055.82	-29746.3	0.000000	0.000000	6.795070	-0.029713	NaN	0.000000	0.001647	0.001686	28.0839	0.056957	0.001935	29.4342	31.4875	-165.282	0.012207	0.793137	-0.374152	-0.375493	-0.029713	29.4342	-0.373395	-55589.7	5.345065E-7	NaN
1065	1.000000	0.838492	7.37547e+06	-53389.1	1055.82	-29746.3	0.000000	0.000000	6.839087	0.024505	NaN	0.000000	0.001617	0.001685	28.0828	0.098476	0.001935	50.9017	-15.9598	-162.509	0.024338	0.837233	-0.330138	-0.331397	0.024505	50.9017	-0.330499	-13266.5	-1.847129E-6	NaN
1065	1.000000	0.882529	7.37547e+06	-53389.1	1055.82	-29746.3	0.000000	0.000000	6.883121	-0.027254	NaN	0.000000	0.001583	0.001695	28.0827	0.019434	0.001942	10.0049	143.643	-166.205	0.005052	0.881261	-0.286101	-0.287369	-0.027254	10.0049	-0.284058	-2717.09	1.003063E-5	NaN
1065	1.000000	0.926520	7.37547e+06	-53389.1	1055.82	-29746.3	0.000000	0.000000	6.927113	-0.010538	NaN	0.000000	0.001551	0.001699	28.0827	0.138202	0.002006	68.9002	-134.422	-163.457	0.012167	0.925262	-0.242110	-0.243368	-0.010538	68.9002	-0.241995	-617.572	1.706439E-5	NaN
1065	1.000000	0.970531	7.37547e+06	-53389.1	1055.82	-29746.3	0.000000	0.000000	6.971124	-0.021790	NaN	0.000000	0.001583	0.001660	28.0839	0.038365	0.002009	19.0939	68.304	-168.02	0.073758	0.969258	-0.198099	-0.199372	-0.021790	19.0939	-0.197243	-118.657	0.000184	NaN
1065	1.000000	1.014543	7.37547e+06	-53389.1	1055.82	-29746.3	0.000000	0.000000	7.015134	-0.038232	NaN	0.000000	0.001559	0.001685	28.0837	0.127518	0.001964	64.9332	-105.839	-166.582	-0.040755	1.013157	-0.154087	-0.155473	-0.038232	64.9332	-0.153646	-21.0945	0.001812	NaN
1065	1.000000	1.058556	7.37547e+06	-53389.1	1055.82	-29746.3	0.000000	0.000000	7.059148	-0.036497	NaN	0.000000	0.001583	0.001686	28.0842	0.068321	0.002036	33.5584	54.2978	-162.902	-0.052680	1.057234	-0.110074	-0.111396	-0.036497	33.5584	-0.109258	-2.898684	0.012591	NaN
1065	1.000000	1.102553	7.37547e+06	-53389.1	1055.82	-29746.3	0.000000	0.000000	7.103148	0.038593	NaN	0.000000	0.001590	0.001725	28.0835	0.115433	0.002019	57.1797	-4.271814	-165.329	-0.039718	1.101280	-0.066077	-0.067350	0.038593	57.1797	-0.066584	-0.275591	-0.140039	NaN
1065	1.000000	1.146585	7.37547e+06	-53389.1	1055.82	-29746.3	0.000000	0.000000	7.147178	-0.004227	NaN	0.000000	0.001498	0.001659	28.083	0.075381	0.002129	35.4009	67.6079	-164.11	0.051642	1.145313	-0.022045	-0.023318	-0.004227	35.4009	-0.021955	-0.014084	0.300128	NaN
1065	2.000000	1.177128	7.37547e+06	-53389.1	1055.82	-29746.3	0.000000	0.000000	7.178400	16.4812	NaN	0.000000	0.001530	0.001696	28.0832	13.9514	0.001817	7676.49	7.027736	-174.392	15.8784	1.176803	0.008498	0.008173	16.4812	7676.49	0.006888	0.005923	2782.41	91128.2
1065	2.000000	1.188046	7.37547e+06	-53389.1	1055.82	-29746.3	0.000000	0.000000	7.190222	38.4791	NaN	0.000000	0.001572	0.001689	28.0842	24.7782	0.001765	14040.8	5.392937	-177.481	36.9567	1.187761	0.019416	0.019131	38.4791	14040.8	0.017361	0.018563	2072.84	94153.4
1065	2.000000	1.199034	7.37547e+06	-53389.1	1055.82	-29746.3	0.000000	0.000000	7.202531	70.5961	NaN	0.000000	0.001621	0.001697	28.085	34.073	0.001781	19136.1	7.887589	177.736	68.8585	1.198684	0.030404	0.030054	70.5961	19136.1	0.027637	0.035988	1961.64	92160.5
1065	2.000000	1.210023	7.37547e+06	-53389.1	1055.82	-29746.3	0.000000	0.000000	7.215086	108.659	NaN	0.000000	0.001531	0.001631	28.085	46.1022	0.001811	25451.7	6.306718	176.196	107.682	1.209669	0.041393	0.041039	108.659	25451.7	0.038191	0.059438	1828.12	95380.4
1065	2.000000	1.220972	7.37547e+06	-53389.1	1055.82	-29746.3	0.000000	0.000000	7.228011	156.702	NaN	0.000000	0.001561	0.001707	28.0835	55.5232	0.001815	30595.6	2.860453	177.583	153.1	1.220805	0.052342	0.052175	156.702	30595.6	0.048500	0.087835	1784.06	94319.1
1065	2.000000	1.231975	7.37547e+06	-53389.1	1055.82	-29746.3	0.000000	0.000000	7.241519	217.605	NaN	0.000000	0.001577	0.001732	28.0833	67.2625	0.001775	37884.7	7.031235	171.882	213.968	1.231637	0.063345	0.063007	217.605	37884.7	0.059037	0.122377	1778.15	98943.5
1065	2.000000	1.243039	7.37547e+06	-53389.1	1055.82	-29746.3	0.000000	0.000000	7.255407	286.264	NaN	0.000000	0.001586	0.001688	28.0838	78.1736	0.001741	44905.2	2.716003	174.468	287.595	1.242828	0.074409	0.074198	286.264	44905.2	0.069628	0.162579	1760.77	101751
1065	2.000000	1.254002	7.37547e+06	-53389.1	1055.82	-29746.3	0.000000	0.000000	7.269515	362.749	NaN	0.000000	0.001517	0.001650	28.0846	88.9978	0.001787	49802.3	7.682873	169.103	365.017	1.253715	0.085372	0.085085	362.749	49802.3	0.079909	0.206715	1754.83	100077
1065	2.000000	1.265064	7.37547e+06	-53389.1	1055.82	-29746.3	0.000000	0.000000	7.284074	447.753	NaN	0.000000	0.001522	0.001661	28.0849	97.3496	0.001791	54350.5	5.630283	171.374	454.511	1.264622	0.096434	0.095992	447.753	54350.5	0.090256	0.256109	1748.3	98121.7
1065	2.000000	1.270857	7.37547e+06	-53389.1	1055.82	-29746.3	0.000000	0.000000	7.292046	500.747	NaN	0.000000	0.001531	0.001645	28.0845	102.99	0.001784	57730	1.146958	175.08	494.534	1.270585	0.102227	0.101955	500.747	57730	0.095721	0.284186	1762.04	98940.2