File: remote_trans/data/nanoindenter/0828-1/data/Data_2025-08-06,11h17m57s/2025-07-22_16-23-58_1_121.txt
2025-07-22, 16:23:58, 1
Index	Phase	Displacement	Time	Pos X	Pos Y	Pos Z	Rot A	Rot B	Piezo Z	Force A	Force B	Gripper	Voltage A	Voltage B	Temperature	Amplitude force	Amplitude pos	Stiffness	Phase shift	Phase excitation	Force A raw	Displacement raw	HMax	HMax raw	Real Force	Real Stiffness	Contact Depth	Area	Hardness	Reduced Mod.
[#]	[#]	[um]	[s]	[um]	[um]	[um]	[m°]	[m°]	[um]	[uN]	[uN]	[V]	[V]	[V]	[°C]	[uN]	[um]	[N/m]	[°]	[°]	[uN]	[um]	[um]	[um]	[uN]	[N/m]	[um]	[um^2]	[MPa]	[MPa]
121	1.000000	0.002555	7.36622e+06	-44689.1	955.818	-29775.5	0.000000	0.000000	6.002827	0.035350	NaN	0.000000	0.001636	0.001702	28.1136	0.097068	0.000997	97.3195	153.564	-162.929	0.017502	0.001325	-1.042312	-1.043543	0.035350	97.3195	-1.042584	-8.486286E+13	-4.165593E-16	NaN
121	1.000000	0.042501	7.36622e+06	-44689.1	955.817	-29775.5	0.000000	0.000000	6.042773	0.042746	NaN	0.000000	0.001636	0.001694	28.1129	0.054443	0.001917	28.4026	177.788	-169.181	0.097121	0.041186	-1.002366	-1.003682	0.042746	28.4026	-1.003495	-2.528262E+13	-1.690738E-15	NaN
121	1.000000	0.082478	7.36622e+06	-44689.1	955.817	-29775.5	0.000000	0.000000	6.082750	0.048814	NaN	0.000000	0.001621	0.001674	28.112	0.086801	0.001895	45.7999	-53.2717	-168.929	0.009985	0.081225	-0.962390	-0.963643	0.048814	45.7999	-0.963189	-7.242055E+12	-6.740394E-15	NaN
121	1.000000	0.122497	7.36622e+06	-44689.1	955.818	-29775.5	0.000000	0.000000	6.122768	0.019059	NaN	0.000000	0.001664	0.001667	28.1129	0.061060	0.002191	27.8747	155.106	-163.287	0.051108	0.121236	-0.922370	-0.923632	0.019059	27.8747	-0.922883	-2.070759E+12	-9.204046E-15	NaN
121	1.000000	0.162527	7.36622e+06	-44689.1	955.819	-29775.5	0.000000	0.000000	6.162796	-0.014340	NaN	0.000000	0.001649	0.001660	28.1113	0.019213	0.002067	9.296437	66.1385	-167.896	-0.026500	0.161247	-0.882341	-0.883620	-0.014340	9.296437	-0.881184	-5.658675E+11	2.534150E-14	NaN
121	1.000000	0.202553	7.36622e+06	-44689.1	955.818	-29775.5	0.000000	0.000000	6.202824	0.018200	NaN	0.000000	0.001669	0.001706	28.1133	0.038334	0.002063	18.5833	105.66	-166.555	-0.016765	0.201252	-0.842314	-0.843615	0.018200	18.5833	-0.843048	-1.724208E+11	-1.055567E-13	NaN
121	1.000000	0.242554	7.36622e+06	-44689.1	955.818	-29775.5	0.000000	0.000000	6.242828	0.077878	NaN	0.000000	0.001646	0.001726	28.1118	0.038788	0.001956	19.8265	89.7973	-165.1	0.004785	0.241251	-0.802313	-0.803617	0.077878	19.8265	-0.805259	-5.299565E+10	-1.469520E-12	NaN
121	1.000000	0.282572	7.36622e+06	-44689.1	955.818	-29775.5	0.000000	0.000000	6.282847	0.115401	NaN	0.000000	0.001623	0.001697	28.1127	0.018681	0.002010	9.294014	-95.3332	-165.738	0.044761	0.281282	-0.762296	-0.763586	0.115401	9.294014	-0.771608	-1.849996E+10	-6.237904E-12	NaN
121	1.000000	0.322592	7.36622e+06	-44689.1	955.818	-29775.5	0.000000	0.000000	6.322863	0.006870	NaN	0.000000	0.001600	0.001750	28.1099	0.040058	0.001955	20.4906	-118.644	-169.198	-0.035393	0.321325	-0.722275	-0.723542	0.006870	20.4906	-0.722526	-3.971232E+9	-1.730014E-12	NaN
121	1.000000	0.362618	7.36622e+06	-44689.1	955.819	-29775.5	0.000000	0.000000	6.362888	-0.011705	NaN	0.000000	0.001605	0.001692	28.1106	0.024249	0.001986	12.2074	-111.856	-163.649	0.039574	0.361229	-0.682249	-0.683638	-0.011705	12.2074	-0.681530	-1.094287E+9	1.069664E-11	NaN
121	1.000000	0.402628	7.36622e+06	-44689.1	955.818	-29775.5	0.000000	0.000000	6.402898	-0.002826	NaN	0.000000	0.001558	0.001702	28.1099	0.108132	0.001984	54.4941	125.712	-165.336	-0.007161	0.401312	-0.642240	-0.643555	-0.002826	54.4941	-0.642201	-3.165808E+8	8.925963E-12	NaN
121	1.000000	0.442633	7.36622e+06	-44689.1	955.818	-29775.5	0.000000	0.000000	6.442900	-0.081900	NaN	0.000000	0.001566	0.001674	28.111	0.073161	0.002086	35.0677	88.0055	-168.148	-0.093766	0.441347	-0.602235	-0.603520	-0.081900	35.0677	-0.600483	-8.454966E+7	9.686579E-10	NaN
121	1.000000	0.482657	7.36622e+06	-44689.1	955.817	-29775.5	0.000000	0.000000	6.482930	0.071031	NaN	0.000000	0.001589	0.001671	28.1115	0.092811	0.001965	47.2212	153.197	-165.154	0.035901	0.481322	-0.562210	-0.563546	0.071031	47.2212	-0.563338	-2.597473E+7	-2.734609E-9	NaN
121	1.000000	0.522698	7.36622e+06	-44689.1	955.819	-29775.5	0.000000	0.000000	6.522969	0.024035	NaN	0.000000	0.001576	0.001666	28.112	0.065238	0.001992	32.7566	160.836	-165.196	-0.037050	0.521330	-0.522170	-0.523537	0.024035	32.7566	-0.522720	-7.10263e+06	-3.384004E-9	NaN
121	1.000000	0.562730	7.36622e+06	-44689.1	955.818	-29775.5	0.000000	0.000000	6.562998	-0.048257	NaN	0.000000	0.001557	0.001690	28.1102	0.032137	0.002080	15.4527	-52.755	-163.098	-0.081196	0.561471	-0.482138	-0.483396	-0.048257	15.4527	-0.479796	-1.78923e+06	2.697073E-8	NaN
121	1.000000	0.602692	7.36622e+06	-44689.1	955.819	-29775.5	0.000000	0.000000	6.602962	-0.019982	NaN	0.000000	0.001567	0.001696	28.1103	0.048213	0.001953	24.685	78.3372	-167.825	0.009823	0.601415	-0.442175	-0.443453	-0.019982	24.685	-0.441568	-519383	3.847261E-8	NaN
121	1.000000	0.642738	7.36622e+06	-44689.1	955.818	-29775.5	0.000000	0.000000	6.643008	-0.009914	NaN	0.000000	0.001547	0.001697	28.1081	0.005912	0.002005	2.948565	156.524	-162.53	0.035291	0.641432	-0.402129	-0.403436	-0.009914	2.948565	-0.399607	-131945	7.513414E-8	NaN
121	1.000000	0.682729	7.36622e+06	-44689.1	955.818	-29775.5	0.000000	0.000000	6.682999	0.001205	NaN	0.000000	0.001657	0.001694	28.1099	0.065606	0.001958	33.5031	-174.113	-165.856	-0.008934	0.681463	-0.362138	-0.363405	0.001205	33.5031	-0.362165	-38294.4	-3.145676E-8	NaN
121	1.000000	0.722793	7.36622e+06	-44689.1	955.818	-29775.5	0.000000	0.000000	6.723064	0.017167	NaN	0.000000	0.001664	0.001662	28.1094	0.068277	0.001967	34.7099	179.086	-166.392	-0.038846	0.721526	-0.322074	-0.323342	0.017167	34.7099	-0.322445	-10106.6	-1.698614E-6	NaN
121	1.000000	0.762792	7.36622e+06	-44689.1	955.818	-29775.5	0.000000	0.000000	6.763064	0.048882	NaN	0.000000	0.001645	0.001680	28.1105	0.058755	0.001920	30.5948	-118.112	-169.63	-0.020843	0.761451	-0.282075	-0.283417	0.048882	30.5948	-0.283273	-2644.2	-1.848645E-5	NaN
121	1.000000	0.802799	7.36622e+06	-44689.1	955.818	-29775.5	0.000000	0.000000	6.803071	0.048209	NaN	0.000000	0.001602	0.001657	28.1091	0.062723	0.001978	31.7146	174.239	-166.03	0.040253	0.801492	-0.242068	-0.243375	0.048209	31.7146	-0.243208	-645.036	-7.473790E-5	NaN
121	1.000000	0.842809	7.36622e+06	-44689.1	955.818	-29775.5	0.000000	0.000000	6.843080	0.036260	NaN	0.000000	0.001611	0.001699	28.1093	0.048001	0.002034	23.5946	-137.947	-168.16	0.018680	0.841522	-0.202059	-0.203346	0.036260	23.5946	-0.203211	-148.711	-0.000244	NaN
121	1.000000	0.882830	7.36622e+06	-44689.1	955.819	-29775.5	0.000000	0.000000	6.883101	0.011718	NaN	0.000000	0.001625	0.001713	28.107	0.087772	0.002047	42.8722	-135.518	-166.78	0.127996	0.881556	-0.162037	-0.163311	0.011718	42.8722	-0.162242	-30.0414	-0.000390	NaN
121	1.000000	0.922821	7.36622e+06	-44689.1	955.818	-29775.5	0.000000	0.000000	6.923093	0.036535	NaN	0.000000	0.001636	0.001718	28.1086	0.086633	0.001959	44.2142	-18.1891	-165.621	0.093036	0.921563	-0.122046	-0.123305	0.036535	44.2142	-0.122666	-5.465068	-0.006685	NaN
121	1.000000	0.962858	7.36623e+06	-44689.1	955.818	-29775.5	0.000000	0.000000	6.963128	0.015092	NaN	0.000000	0.001600	0.001722	28.1074	0.116260	0.001990	58.412	65.2066	-169.821	-0.044152	0.961585	-0.082010	-0.083282	0.015092	58.412	-0.082203	-0.702074	-0.021496	NaN
121	1.000000	1.002849	7.36623e+06	-44689.1	955.818	-29775.5	0.000000	0.000000	7.003118	-0.030959	NaN	0.000000	0.001615	0.001696	28.109	0.050212	0.002003	25.0685	-152.244	-165.705	0.001317	1.001593	-0.042018	-0.043274	-0.030959	25.0685	-0.041092	-0.048818	0.634176	NaN
121	1.000000	1.042874	7.36623e+06	-44689.1	955.819	-29775.5	0.000000	0.000000	7.043183	0.955024	NaN	0.000000	0.001633	0.001686	28.1075	0.919765	0.001897	484.726	13.5709	-163.041	0.752667	1.041641	-0.001994	-0.003226	0.955024	484.726	-0.003471	-0.002433	-392.453	NaN
121	2.000000	1.077475	7.36623e+06	-44689.1	955.817	-29775.5	0.000000	0.000000	7.078052	7.466082	NaN	0.000000	0.001692	0.001726	28.1089	8.658725	0.001899	4560.09	14.9261	-171.844	7.518021	1.077196	0.032608	0.032328	7.466082	4560.09	0.031380	0.043652	171.037	19940.9
121	2.000000	1.087361	7.36623e+06	-44689.1	955.817	-29775.5	0.000000	0.000000	7.088604	23.6757	NaN	0.000000	0.001717	0.001690	28.1074	18.5317	0.001768	10480	7.771636	-176.094	23.3371	1.087057	0.042494	0.042190	23.6757	10480	0.040799	0.066110	358.124	37239.3
121	2.000000	1.097311	7.36623e+06	-44689.1	955.819	-29775.5	0.000000	0.000000	7.099746	52.6648	NaN	0.000000	0.001691	0.001725	28.1066	28.7851	0.001711	16821.6	6.148268	179.199	51.5975	1.097082	0.052444	0.052215	52.6648	16821.6	0.050096	0.092710	568.06	50475.2
121	2.000000	1.107275	7.36623e+06	-44689.1	955.819	-29775.5	0.000000	0.000000	7.111144	87.5588	NaN	0.000000	0.001627	0.001680	28.1049	39.8578	0.001910	20868.2	10.0122	173.287	85.0574	1.106932	0.062407	0.062064	87.5588	20868.2	0.059260	0.123170	710.879	54325.8
121	2.000000	1.117284	7.36623e+06	-44689.1	955.819	-29775.5	0.000000	0.000000	7.122747	126.339	NaN	0.000000	0.001621	0.001728	28.1063	47.704	0.001852	25760.3	6.603964	175.078	124.587	1.117017	0.072417	0.072150	126.339	25760.3	0.068738	0.158993	794.619	59024.7
121	2.000000	1.127254	7.36623e+06	-44689.1	955.82	-29775.5	0.000000	0.000000	7.134429	167.994	NaN	0.000000	0.001560	0.001678	28.1058	56.8788	0.002012	28269	6.585408	173.883	165.844	1.127021	0.082386	0.082153	167.994	28269	0.077929	0.197830	849.184	58068.1
121	2.000000	1.137271	7.36623e+06	-44689.1	955.819	-29775.5	0.000000	0.000000	7.146610	220.629	NaN	0.000000	0.001632	0.001682	28.1069	65.0875	0.001770	36766.2	4.749394	173.419	219.464	1.136981	0.092403	0.092114	220.629	36766.2	0.087903	0.244443	902.579	67941.1
121	2.000000	1.147215	7.36623e+06	-44689.1	955.819	-29775.5	0.000000	0.000000	7.158994	279.995	NaN	0.000000	0.001674	0.001681	28.1056	73.3469	0.001767	41517.5	0.762270	176.483	276.657	1.146980	0.102347	0.102113	279.995	41517.5	0.097289	0.292495	957.263	70136.6
121	2.000000	1.157204	7.36623e+06	-44689.1	955.819	-29775.5	0.000000	0.000000	7.171772	347.832	NaN	0.000000	0.001628	0.001752	28.1062	84.6701	0.001874	45171.4	3.242117	173.326	345.088	1.157048	0.112337	0.112181	347.832	45171.4	0.106562	0.343902	1011.43	70375.2
121	2.000000	1.167288	7.36623e+06	-44689.1	955.82	-29775.5	0.000000	0.000000	7.185088	426.455	NaN	0.000000	0.001627	0.001775	28.1033	94.6092	0.001824	51864.7	6.237596	169.264	429.097	1.166993	0.122421	0.122126	426.455	51864.7	0.116254	0.401808	1061.34	74754.1
121	2.000000	1.174255	7.36623e+06	-44689.1	955.819	-29775.5	0.000000	0.000000	7.194354	482.406	NaN	0.000000	0.001614	0.001762	28.0908	100.189	0.001869	53600.9	5.922275	169.647	482.725	1.174031	0.129387	0.129164	482.406	53600.9	0.122637	0.442272	1090.74	73637.7