File: remote_trans/data/nanoindenter/0828-1/data/Data_2025-08-06,11h17m57s/2025-07-22_16-23-58_1_634.txt
2025-07-22, 16:23:58, 1
Index	Phase	Displacement	Time	Pos X	Pos Y	Pos Z	Rot A	Rot B	Piezo Z	Force A	Force B	Gripper	Voltage A	Voltage B	Temperature	Amplitude force	Amplitude pos	Stiffness	Phase shift	Phase excitation	Force A raw	Displacement raw	HMax	HMax raw	Real Force	Real Stiffness	Contact Depth	Area	Hardness	Reduced Mod.
[#]	[#]	[um]	[s]	[um]	[um]	[um]	[m°]	[m°]	[um]	[uN]	[uN]	[V]	[V]	[V]	[°C]	[uN]	[um]	[N/m]	[°]	[°]	[uN]	[um]	[um]	[um]	[uN]	[N/m]	[um]	[um^2]	[MPa]	[MPa]
634	1.000000	0.002652	7.37125e+06	-45389.1	1005.82	-29772.6	0.000000	0.000000	6.002836	0.062166	NaN	0.000000	0.001569	0.001734	28.0845	0.168188	0.001036	162.294	-158.258	-164.659	0.126006	0.001351	-1.119063	-1.120364	0.062166	162.294	-1.119350	-9.114854E+14	-6.820340E-17	NaN
634	1.000000	0.044570	7.37125e+06	-45389.1	1005.82	-29772.6	0.000000	0.000000	6.044751	0.016248	NaN	0.000000	0.001581	0.001684	28.0844	0.074038	0.001980	37.3992	-134.143	14.8574	0.056543	0.043117	-1.077145	-1.078598	0.016248	37.3992	-1.077471	-2.497743E+14	-6.505231E-17	NaN
634	1.000000	0.086583	7.37125e+06	-45389.1	1005.82	-29772.6	0.000000	0.000000	6.086761	-0.047387	NaN	0.000000	0.001579	0.001725	28.0841	0.091559	0.002018	45.3794	152.675	-168.779	-0.010229	0.085210	-1.035132	-1.036505	-0.047387	45.3794	-1.034349	-6.576199E+13	7.205779E-16	NaN
634	1.000000	0.128582	7.37125e+06	-45389.1	1005.82	-29772.6	0.000000	0.000000	6.128765	0.058481	NaN	0.000000	0.001592	0.001711	28.0829	0.046268	0.001960	23.6072	15.7557	15.1541	0.073695	0.127248	-0.993133	-0.994467	0.058481	23.6072	-0.994991	-1.942319E+13	-3.010875E-15	NaN
634	1.000000	0.170604	7.37125e+06	-45389.1	1005.82	-29772.6	0.000000	0.000000	6.170787	0.033527	NaN	0.000000	0.001641	0.001700	28.0829	0.050735	0.001927	26.3353	-153.86	-167.09	0.116967	0.169295	-0.951110	-0.952420	0.033527	26.3353	-0.952065	-5.127181E+12	-6.539031E-15	NaN
634	1.000000	0.212621	7.37125e+06	-45389.1	1005.82	-29772.6	0.000000	0.000000	6.212801	-0.016358	NaN	0.000000	0.001594	0.001693	28.0828	0.096791	0.001969	49.1478	-48.0492	16.4451	0.009331	0.211292	-0.909094	-0.910423	-0.016358	49.1478	-0.908844	-1.338282E+12	1.222313E-14	NaN
634	1.000000	0.254640	7.37125e+06	-45389.1	1005.82	-29772.6	0.000000	0.000000	6.254822	0.040998	NaN	0.000000	0.001623	0.001755	28.083	0.146174	0.002029	72.0341	-3.280099	-167.462	0.013305	0.253363	-0.867075	-0.868352	0.040998	72.0341	-0.867502	-3.695256E+11	-1.109484E-13	NaN
634	1.000000	0.296659	7.37125e+06	-45389.1	1005.82	-29772.6	0.000000	0.000000	6.296838	-0.041787	NaN	0.000000	0.001622	0.001751	28.0844	0.120245	0.002052	58.5888	-176.658	13.1867	0.053745	0.295312	-0.825056	-0.826403	-0.041787	58.5888	-0.824521	-9.672000E+10	4.320447E-13	NaN
634	1.000000	0.338699	7.37125e+06	-45389.1	1005.82	-29772.6	0.000000	0.000000	6.338879	-0.005517	NaN	0.000000	0.001586	0.001768	28.0841	0.049605	0.002054	24.1474	-67.7052	-164.632	0.033384	0.337360	-0.783016	-0.784354	-0.005517	24.1474	-0.782845	-2.629572E+10	2.097871E-13	NaN
634	1.000000	0.380689	7.37125e+06	-45389.1	1005.82	-29772.6	0.000000	0.000000	6.380870	0.006562	NaN	0.000000	0.001597	0.001806	28.084	0.056617	0.001839	30.7922	8.921977	12.1273	-0.051301	0.379347	-0.741026	-0.742368	0.006562	30.7922	-0.741186	-7.131950E+9	-9.200951E-13	NaN
634	1.000000	0.422740	7.37125e+06	-45389.1	1005.82	-29772.6	0.000000	0.000000	6.422922	0.037353	NaN	0.000000	0.001610	0.001762	28.083	0.151878	0.001962	77.4119	-57.8912	-167.954	0.054559	0.421430	-0.698975	-0.700285	0.037353	77.4119	-0.699337	-1.916366E+9	-1.949159E-11	NaN
634	1.000000	0.464733	7.37125e+06	-45389.1	1005.82	-29772.6	0.000000	0.000000	6.464913	-0.027749	NaN	0.000000	0.001660	0.001760	28.0828	0.068923	0.002101	32.8029	-171.066	14.9711	-0.033814	0.463406	-0.656982	-0.658309	-0.027749	32.8029	-0.656347	-4.947969E+8	5.608220E-11	NaN
634	1.000000	0.506750	7.37125e+06	-45389.1	1005.82	-29772.6	0.000000	0.000000	6.506932	0.038983	NaN	0.000000	0.001623	0.001779	28.0831	0.121173	0.002041	59.3649	20.5939	-166.521	0.062201	0.505466	-0.614965	-0.616249	0.038983	59.3649	-0.615458	-1.358888E+8	-2.868774E-10	NaN
634	1.000000	0.548792	7.37126e+06	-45389.1	1005.82	-29772.6	0.000000	0.000000	6.548974	0.036016	NaN	0.000000	0.001589	0.001722	28.084	0.012566	0.002058	6.104710	-81.2986	16.6141	0.012769	0.547427	-0.572923	-0.574288	0.036016	6.104710	-0.577348	-4.056152E+7	-8.879417E-10	NaN
634	1.000000	0.590790	7.37126e+06	-45389.1	1005.82	-29772.6	0.000000	0.000000	6.590970	-0.026389	NaN	0.000000	0.001637	0.001746	28.0837	0.149471	0.001914	78.0879	-107.88	-165.101	-0.075058	0.589469	-0.530925	-0.532246	-0.026389	78.0879	-0.530671	-9.16007e+06	2.880848E-9	NaN
634	1.000000	0.632810	7.37126e+06	-45389.1	1005.82	-29772.6	0.000000	0.000000	6.632991	0.008766	NaN	0.000000	0.001633	0.001816	28.0841	0.147181	0.002095	70.2468	-17.981	18.242	-0.048400	0.631503	-0.488905	-0.490212	0.008766	70.2468	-0.488998	-2.40654e+06	-3.642743E-9	NaN
634	1.000000	0.674833	7.37126e+06	-45389.1	1005.82	-29772.6	0.000000	0.000000	6.675015	0.014785	NaN	0.000000	0.001572	0.001772	28.0828	0.062548	0.001972	31.7133	164.349	-165.394	-0.044193	0.673496	-0.446881	-0.448219	0.014785	31.7133	-0.447231	-624220	-2.368543E-8	NaN
634	1.000000	0.716846	7.37126e+06	-45389.1	1005.82	-29772.6	0.000000	0.000000	6.717027	0.018953	NaN	0.000000	0.001610	0.001737	28.0824	0.038717	0.002083	18.5901	160.221	14.3424	0.075715	0.715516	-0.404869	-0.406199	0.018953	18.5901	-0.405634	-160795	-1.178716E-7	NaN
634	1.000000	0.758873	7.37126e+06	-45389.1	1005.82	-29772.6	0.000000	0.000000	6.759056	0.047868	NaN	0.000000	0.001600	0.001813	28.083	0.112985	0.001975	57.2077	63.4052	-167.668	0.008504	0.757491	-0.362842	-0.364223	0.047868	57.2077	-0.363469	-39990.9	-1.196972E-6	NaN
634	1.000000	0.800849	7.37126e+06	-45389.1	1005.82	-29772.6	0.000000	0.000000	6.801031	0.031414	NaN	0.000000	0.001645	0.001792	28.0828	0.047723	0.002069	23.0628	17.1136	12.4629	0.059577	0.799526	-0.320866	-0.322188	0.031414	23.0628	-0.321887	-9917.52	-3.167499E-6	NaN
634	1.000000	0.842900	7.37126e+06	-45389.1	1005.82	-29772.6	0.000000	0.000000	6.843081	0.023207	NaN	0.000000	0.001618	0.001737	28.0842	0.022891	0.001929	11.8681	-1.757554	-165.796	0.058702	0.841557	-0.278815	-0.280157	0.023207	11.8681	-0.280282	-2383.52	-9.736293E-6	NaN
634	1.000000	0.884905	7.37126e+06	-45389.1	1005.82	-29772.6	0.000000	0.000000	6.885084	-0.031233	NaN	0.000000	0.001615	0.001765	28.0842	0.033858	0.002183	15.5124	-154.708	13.0903	-0.049924	0.883550	-0.236810	-0.238165	-0.031233	15.5124	-0.235300	-485.242	6.436478E-5	NaN
634	1.000000	0.926917	7.37126e+06	-45389.1	1005.82	-29772.6	0.000000	0.000000	6.927095	-0.062164	NaN	0.000000	0.001617	0.001738	28.084	0.139709	0.001790	78.0712	7.058518	-165.738	-0.081316	0.925611	-0.194798	-0.196104	-0.062164	78.0712	-0.194201	-105.67	0.000588	NaN
634	1.000000	0.968963	7.37126e+06	-45389.1	1005.82	-29772.6	0.000000	0.000000	6.969148	0.086440	NaN	0.000000	0.001588	0.001716	28.0833	0.059598	0.002000	29.7985	-51.9294	14.5364	0.084836	0.967589	-0.152751	-0.154126	0.086440	29.7985	-0.154927	-22.2467	-0.003886	NaN
634	1.000000	1.010969	7.37126e+06	-45389.1	1005.82	-29772.6	0.000000	0.000000	7.011149	-0.019599	NaN	0.000000	0.001600	0.001747	28.0831	0.044010	0.002041	21.5612	-11.2374	-165.512	-0.001120	1.009680	-0.110746	-0.112035	-0.019599	21.5612	-0.110064	-3.014612	0.006501	NaN
634	1.000000	1.052956	7.37126e+06	-45389.1	1005.82	-29772.6	0.000000	0.000000	7.053138	0.017000	NaN	0.000000	0.001589	0.001749	28.0829	0.060537	0.001977	30.6284	101.66	15.492	-0.008913	1.051592	-0.068758	-0.070123	0.017000	30.6284	-0.069175	-0.324128	-0.052449	NaN
634	1.000000	1.094986	7.37126e+06	-45389.1	1005.82	-29772.6	0.000000	0.000000	7.095167	0.004156	NaN	0.000000	0.001613	0.001745	28.0841	0.026680	0.001971	13.5338	-59.8531	-167.483	-0.064346	1.093683	-0.026729	-0.028032	0.004156	13.5338	-0.026959	-0.019007	-0.218674	NaN
634	2.000000	1.130088	7.37126e+06	-45389.1	1005.82	-29772.6	0.000000	0.000000	7.130734	11.3052	NaN	0.000000	0.001606	0.001716	28.0843	10.088	0.001678	6011.16	4.545786	9.756941	10.3857	1.129719	0.008373	0.008004	11.3052	6011.16	0.006963	0.005997	1885.15	70919.3
634	2.000000	1.140518	7.37126e+06	-45389.1	1005.82	-29772.6	0.000000	0.000000	7.141807	26.9608	NaN	0.000000	0.001662	0.001716	28.0838	20.024	0.001857	10782.4	4.965481	-174.37	26.1555	1.140232	0.018803	0.018517	26.9608	10782.4	0.016928	0.017942	1502.63	73544
634	2.000000	1.150979	7.37126e+06	-45389.1	1005.82	-29772.6	0.000000	0.000000	7.153316	52.461	NaN	0.000000	0.001594	0.001704	28.0827	29.7802	0.001842	16169	6.493637	0.871274	51.1931	1.150585	0.029264	0.028870	52.461	16169	0.026831	0.034431	1523.68	79613.3
634	2.000000	1.161465	7.37126e+06	-45389.1	1005.82	-29772.6	0.000000	0.000000	7.165168	85.6922	NaN	0.000000	0.001592	0.001794	28.0825	40.0563	0.001795	22311.5	5.588986	178.161	83.8955	1.161147	0.039750	0.039432	85.6922	22311.5	0.036869	0.056188	1525.09	85996.2
634	2.000000	1.171928	7.37126e+06	-45389.1	1005.82	-29772.6	0.000000	0.000000	7.177156	122.777	NaN	0.000000	0.001624	0.001770	28.0822	50.3991	0.001819	27703.6	5.094235	-3.573541	119.475	1.171592	0.050213	0.049877	122.777	27703.6	0.046889	0.083041	1478.52	87834.1
634	2.000000	1.182481	7.37126e+06	-45389.1	1005.82	-29772.6	0.000000	0.000000	7.189473	165.697	NaN	0.000000	0.001641	0.001748	28.0826	59.4111	0.001817	32692.2	7.036151	174.894	165.684	1.182059	0.060766	0.060345	165.697	32692.2	0.056965	0.115151	1438.96	88020.7
634	2.000000	1.192994	7.37126e+06	-45389.1	1005.82	-29772.6	0.000000	0.000000	7.202175	218.957	NaN	0.000000	0.001691	0.001691	28.0838	68.4788	0.001710	40047.8	3.492729	-4.554487	219.395	1.192645	0.071279	0.070930	218.957	40047.8	0.067178	0.152800	1432.97	93603.3
634	2.000000	1.203368	7.37126e+06	-45389.1	1005.82	-29772.6	0.000000	0.000000	7.215346	286.984	NaN	0.000000	0.001685	0.001769	28.0839	78.8299	0.001816	43408.8	1.562565	176.923	283.619	1.203118	0.081653	0.081403	286.984	43408.8	0.076695	0.192382	1491.74	90420.9
634	2.000000	1.213827	7.37126e+06	-45389.1	1005.82	-29772.6	0.000000	0.000000	7.228589	354.722	NaN	0.000000	0.001696	0.001742	28.0839	88.6881	0.001828	48516.1	4.680094	-6.753536	348.122	1.213447	0.092112	0.091732	354.722	48516.1	0.086628	0.238230	1488.99	90815.8
634	2.000000	1.224331	7.37126e+06	-45389.1	1005.82	-29772.6	0.000000	0.000000	7.241940	423.963	NaN	0.000000	0.001622	0.001739	28.0828	97.9211	0.001757	55742.3	2.178287	174.052	418.857	1.224079	0.102616	0.102364	423.963	55742.3	0.096912	0.290485	1459.5	94492.2
634	2.000000	1.226547	7.37126e+06	-45389.1	1005.82	-29772.6	0.000000	0.000000	7.244824	440.209	NaN	0.000000	0.001657	0.001771	28.0826	101.946	0.001769	57635.8	4.062468	171.791	447.864	1.226146	0.104832	0.104431	440.209	57635.8	0.099104	0.302247	1456.45	95782