File: remote_trans/data/nanoindenter/0828-1/data/Data_2025-08-06,11h17m57s/2025-07-22_16-23-58_1_125.txt
2025-07-22, 16:23:58, 1
Index	Phase	Displacement	Time	Pos X	Pos Y	Pos Z	Rot A	Rot B	Piezo Z	Force A	Force B	Gripper	Voltage A	Voltage B	Temperature	Amplitude force	Amplitude pos	Stiffness	Phase shift	Phase excitation	Force A raw	Displacement raw	HMax	HMax raw	Real Force	Real Stiffness	Contact Depth	Area	Hardness	Reduced Mod.
[#]	[#]	[um]	[s]	[um]	[um]	[um]	[m°]	[m°]	[um]	[uN]	[uN]	[V]	[V]	[V]	[°C]	[uN]	[um]	[N/m]	[°]	[°]	[uN]	[um]	[um]	[um]	[uN]	[N/m]	[um]	[um^2]	[MPa]	[MPa]
125	1.000000	0.002667	7.36626e+06	-44889.1	955.819	-29775	0.000000	0.000000	6.002824	-0.022554	NaN	0.000000	0.001538	0.001810	28.1243	0.053791	0.001022	52.6484	155.758	-161.401	-0.010066	0.001399	-0.967425	-0.968693	-0.022554	52.6484	-0.967104	-8.177752E+12	2.757979E-15	NaN
125	1.000000	0.040633	7.36626e+06	-44889.1	955.818	-29775	0.000000	0.000000	6.040790	-0.043335	NaN	0.000000	0.001557	0.001797	28.1177	0.069343	0.001908	36.3408	-45.9933	12.8588	-0.046895	0.039309	-0.929459	-0.930783	-0.043335	36.3408	-0.928565	-2.470722E+12	1.753931E-14	NaN
125	1.000000	0.078598	7.36626e+06	-44889.1	955.818	-29775	0.000000	0.000000	6.078758	0.042158	NaN	0.000000	0.001538	0.001777	28.0835	0.097032	0.001979	49.0216	119.819	-163.458	0.012194	0.077293	-0.891494	-0.892799	0.042158	49.0216	-0.892139	-7.958562E+11	-5.297189E-14	NaN
125	1.000000	0.116620	7.36626e+06	-44889.1	955.818	-29775	0.000000	0.000000	6.116779	0.020653	NaN	0.000000	0.001525	0.001753	28.0854	0.087335	0.001890	46.2102	-141.305	14.9322	0.034522	0.115239	-0.853472	-0.854853	0.020653	46.2102	-0.853807	-2.411514E+11	-8.564424E-14	NaN
125	1.000000	0.154639	7.36626e+06	-44889.1	955.818	-29775	0.000000	0.000000	6.154798	0.010563	NaN	0.000000	0.001535	0.001768	28.124	0.014036	0.001989	7.055957	-91.3128	-165.581	0.022009	0.153370	-0.815453	-0.816722	0.010563	7.055957	-0.816576	-7.547034E+10	-1.399635E-13	NaN
125	1.000000	0.192647	7.36626e+06	-44889.1	955.818	-29775	0.000000	0.000000	6.192808	0.065498	NaN	0.000000	0.001542	0.001801	28.1156	0.038218	0.001936	19.7361	136.419	13.6751	-0.037051	0.191260	-0.777445	-0.778832	0.065498	19.7361	-0.779934	-2.400688E+10	-2.728302E-12	NaN
125	1.000000	0.230670	7.36626e+06	-44889.1	955.818	-29775	0.000000	0.000000	6.230828	-0.006246	NaN	0.000000	0.001557	0.001783	28.0816	0.016133	0.001844	8.749109	-117.128	-165.458	0.042364	0.229382	-0.739422	-0.740710	-0.006246	8.749109	-0.738887	-6.635809E+9	9.413026E-13	NaN
125	1.000000	0.268642	7.36626e+06	-44889.1	955.818	-29775	0.000000	0.000000	6.268800	-0.010232	NaN	0.000000	0.001528	0.001787	28.0872	0.065284	0.001985	32.8897	-33.6427	14.5974	-0.023493	0.267338	-0.701450	-0.702754	-0.010232	32.8897	-0.701216	-2.033024E+9	5.032975E-12	NaN
125	1.000000	0.306728	7.36626e+06	-44889.1	955.817	-29775	0.000000	0.000000	6.306887	-8.831902E-5	NaN	0.000000	0.001614	0.001776	28.1263	0.035285	0.001882	18.7489	55.9199	-165.292	-0.046373	0.305402	-0.663364	-0.664690	-8.831902E-5	18.7489	-0.663360	-6.172940E+8	1.430745E-13	NaN
125	1.000000	0.344674	7.36626e+06	-44889.1	955.817	-29775	0.000000	0.000000	6.344832	-0.022363	NaN	0.000000	0.001578	0.001798	28.1161	0.020285	0.001946	10.4246	177.803	15.4697	-0.046751	0.343350	-0.625418	-0.626742	-0.022363	10.4246	-0.623809	-1.770017E+8	1.263407E-10	NaN
125	1.000000	0.382739	7.36626e+06	-44889.1	955.818	-29775	0.000000	0.000000	6.382896	-0.016873	NaN	0.000000	0.001545	0.001783	28.0829	0.113245	0.002016	56.174	32.7081	-163.337	0.072700	0.381437	-0.587354	-0.588655	-0.016873	56.174	-0.587128	-5.534388E+7	3.048752E-10	NaN
125	1.000000	0.420749	7.36626e+06	-44889.1	955.818	-29775	0.000000	0.000000	6.420907	-0.018402	NaN	0.000000	0.001491	0.001772	28.0844	0.038747	0.002037	19.0216	-142.949	12.7078	0.054691	0.419458	-0.549343	-0.550634	-0.018402	19.0216	-0.548618	-1.624836E+7	1.132514E-9	NaN
125	1.000000	0.458773	7.36626e+06	-44889.1	955.818	-29775	0.000000	0.000000	6.458933	0.036033	NaN	0.000000	0.001536	0.001807	28.1236	0.047740	0.001997	23.9062	-96.1667	-163.754	-0.027716	0.457466	-0.511319	-0.512626	0.036033	23.9062	-0.512449	-5.11122e+06	-7.049766E-9	NaN
125	1.000000	0.496784	7.36626e+06	-44889.1	955.818	-29775	0.000000	0.000000	6.496943	0.024477	NaN	0.000000	0.001535	0.001787	28.1132	0.072173	0.001890	38.189	-30.7952	13.6219	0.058697	0.495401	-0.473308	-0.474691	0.024477	38.189	-0.473789	-1.47411e+06	-1.660446E-8	NaN
125	1.000000	0.534775	7.36626e+06	-44889.1	955.818	-29775	0.000000	0.000000	6.534936	0.067429	NaN	0.000000	0.001547	0.001825	28.0823	0.053556	0.001974	27.1356	103.512	-165.185	-0.042104	0.533492	-0.435317	-0.436600	0.067429	27.1356	-0.437181	-450362	-1.497215E-7	NaN
125	1.000000	0.572800	7.36626e+06	-44889.1	955.818	-29775	0.000000	0.000000	6.572959	0.008703	NaN	0.000000	0.001545	0.001799	28.0857	0.088366	0.002121	41.6546	175.805	16.5328	-0.001620	0.571431	-0.397292	-0.398661	0.008703	41.6546	-0.397448	-122911	-7.080539E-8	NaN
125	1.000000	0.610853	7.36626e+06	-44889.1	955.818	-29775	0.000000	0.000000	6.611011	-0.022145	NaN	0.000000	0.001536	0.001795	28.127	0.121022	0.001842	65.6897	117.614	-161.133	-0.026485	0.609507	-0.359239	-0.360585	-0.022145	65.6897	-0.358986	-34449.4	6.428179E-7	NaN
125	1.000000	0.648851	7.36626e+06	-44889.1	955.818	-29775	0.000000	0.000000	6.649009	-0.019596	NaN	0.000000	0.001519	0.001843	28.1125	0.012976	0.001919	6.762078	44.8517	12.4112	-0.021899	0.647461	-0.321241	-0.322631	-0.019596	6.762078	-0.319067	-9013.79	2.174045E-6	NaN
125	1.000000	0.686867	7.36626e+06	-44889.1	955.818	-29775	0.000000	0.000000	6.687027	0.037198	NaN	0.000000	0.001547	0.001754	28.0811	0.142364	0.001899	74.9789	91.4782	-164.696	0.034835	0.685520	-0.283225	-0.284572	0.037198	74.9789	-0.283597	-2674.03	-1.391080E-5	NaN
125	1.000000	0.724892	7.36626e+06	-44889.1	955.818	-29775	0.000000	0.000000	6.725049	-0.043524	NaN	0.000000	0.001515	0.001821	28.0846	0.089711	0.001957	45.8445	69.4173	15.7887	-0.029542	0.723493	-0.245200	-0.246599	-0.043524	45.8445	-0.244488	-675.285	6.445273E-5	NaN
125	1.000000	0.762859	7.36626e+06	-44889.1	955.818	-29775	0.000000	0.000000	6.763016	-0.040793	NaN	0.000000	0.001558	0.001801	28.1256	0.075637	0.001959	38.6017	98.7384	-165.218	-0.133122	0.761577	-0.207233	-0.208516	-0.040793	38.6017	-0.206441	-167.892	0.000243	NaN
125	1.000000	0.800908	7.36626e+06	-44889.1	955.818	-29775	0.000000	0.000000	6.801068	0.037380	NaN	0.000000	0.001579	0.001798	28.1115	0.067807	0.001974	34.349	40.5975	14.0594	-0.023337	0.799562	-0.169184	-0.170530	0.037380	34.349	-0.170000	-41.0784	-0.000910	NaN
125	1.000000	0.838927	7.36626e+06	-44889.1	955.818	-29775	0.000000	0.000000	6.839086	0.012020	NaN	0.000000	0.001595	0.001792	28.0822	0.095395	0.002014	47.3749	125.324	-163.835	0.068311	0.837612	-0.131165	-0.132480	0.012020	47.3749	-0.131356	-8.096218	-0.001485	NaN
125	1.000000	0.876927	7.36626e+06	-44889.1	955.819	-29775	0.000000	0.000000	6.877082	-0.077430	NaN	0.000000	0.001574	0.001786	28.0859	0.053451	0.002151	24.854	107.139	16.9056	-0.011909	0.875582	-0.093165	-0.094510	-0.077430	24.854	-0.090829	-1.130339	0.068501	NaN
125	1.000000	0.914955	7.36626e+06	-44889.1	955.818	-29775	0.000000	0.000000	6.915114	0.000583	NaN	0.000000	0.001570	0.001766	28.1276	0.051744	0.001989	26.0131	-127.688	-163.433	-0.067843	0.913665	-0.055137	-0.056427	0.000583	26.0131	-0.055154	-0.130131	-0.004478	NaN
125	1.000000	0.952954	7.36626e+06	-44889.1	955.817	-29775	0.000000	0.000000	6.953114	0.021421	NaN	0.000000	0.001542	0.001774	28.1099	0.073093	0.001952	37.4466	158.974	17.5672	0.004050	0.951633	-0.017138	-0.018459	0.021421	37.4466	-0.017567	-0.010877	-1.969467	NaN
125	2.000000	0.986510	7.36626e+06	-44889.1	955.817	-29775	0.000000	0.000000	6.987125	11.1142	NaN	0.000000	0.001549	0.001776	28.0807	10.2641	0.001494	6869.44	7.135221	-173.668	10.2618	0.986229	0.016418	0.016137	11.1142	6869.44	0.015204	0.015559	714.341	50316.3
125	2.000000	0.995971	7.36626e+06	-44889.1	955.817	-29775	0.000000	0.000000	6.997285	28.0968	NaN	0.000000	0.001595	0.001790	28.0861	21.8961	0.001856	11797.6	5.735129	3.700152	28.1138	0.995617	0.025879	0.025525	28.0968	11797.6	0.024093	0.029386	956.136	62877.8
125	2.000000	1.005461	7.36626e+06	-44889.1	955.817	-29775	0.000000	0.000000	7.007996	57.7978	NaN	0.000000	0.001579	0.001785	28.1267	31.3094	0.001718	18226.7	2.305859	-177.875	56.7177	1.005088	0.035369	0.034996	57.7978	18226.7	0.032991	0.047172	1225.27	76672.8
125	2.000000	1.014892	7.36627e+06	-44889.1	955.817	-29775	0.000000	0.000000	7.018758	90.2076	NaN	0.000000	0.001608	0.001779	28.1096	40.0057	0.001851	21608	7.761419	-4.964134	88.742	1.014502	0.044800	0.044410	90.2076	21608	0.041669	0.068412	1318.6	75478.3
125	2.000000	1.024353	7.36627e+06	-44889.1	955.817	-29775	0.000000	0.000000	7.029704	126.342	NaN	0.000000	0.001578	0.001771	28.0822	49.2659	0.001747	28204.6	8.057570	172.965	124.842	1.024078	0.054260	0.053986	126.342	28204.6	0.050901	0.095218	1326.87	83509.1
125	2.000000	1.033976	7.36627e+06	-44889.1	955.818	-29775	0.000000	0.000000	7.041007	167.205	NaN	0.000000	0.001577	0.001770	28.0886	58.2413	0.001744	33398.4	6.154752	-5.883005	172.581	1.033392	0.063884	0.063300	167.205	33398.4	0.060129	0.126271	1324.18	85871.1
125	2.000000	1.043357	7.36627e+06	-44889.1	955.817	-29775	0.000000	0.000000	7.052647	222.16	NaN	0.000000	0.001594	0.001747	28.1273	66.8814	0.001733	38585	4.561804	173.584	221.202	1.042975	0.073265	0.072883	222.16	38585	0.068946	0.159828	1390	88179.1
125	2.000000	1.052725	7.36627e+06	-44889.1	955.816	-29775	0.000000	0.000000	7.064173	274.653	NaN	0.000000	0.001585	0.001787	28.1078	76.7568	0.001866	41137.5	5.174329	-8.053646	266.841	1.052423	0.082633	0.082331	274.653	41137.5	0.077625	0.196482	1397.85	84790.9
125	2.000000	1.062324	7.36627e+06	-44889.1	955.817	-29775	0.000000	0.000000	7.076347	337.308	NaN	0.000000	0.001588	0.001783	28.081	84.807	0.001781	47611.4	2.258419	174.105	335.023	1.062156	0.092231	0.092064	337.308	47611.4	0.086918	0.239636	1407.59	88860.3
125	2.000000	1.071869	7.36627e+06	-44889.1	955.818	-29775	0.000000	0.000000	7.088946	411.568	NaN	0.000000	0.001550	0.001787	28.0882	94.9509	0.001672	56784.5	6.588641	-10.8449	411.132	1.071393	0.101777	0.101301	411.568	56784.5	0.096341	0.287458	1431.75	96764.4
125	2.000000	1.081364	7.36627e+06	-44889.1	955.817	-29775	0.000000	0.000000	7.101651	489.676	NaN	0.000000	0.001615	0.001751	28.1277	100.913	0.001793	56267.5	3.460097	171.66	489.271	1.081041	0.111271	0.110949	489.676	56267.5	0.104744	0.333520	1468.21	89016.4
125	2.000000	1.083333	7.36627e+06	-44889.1	955.818	-29775	0.000000	0.000000	7.104065	500.497	NaN	0.000000	0.001595	0.001764	28.1286	103.846	0.001700	61071.4	2.001182	172.505	499.62	1.083072	0.113241	0.112980	500.497	61071.4	0.107094	0.346973	1442.47	94724.7