File: remote_trans/data/nanoindenter/0828-1/data/Data_2025-08-06,11h17m57s/2025-07-22_16-23-58_1_805.txt
2025-07-22, 16:23:58, 1
Index	Phase	Displacement	Time	Pos X	Pos Y	Pos Z	Rot A	Rot B	Piezo Z	Force A	Force B	Gripper	Voltage A	Voltage B	Temperature	Amplitude force	Amplitude pos	Stiffness	Phase shift	Phase excitation	Force A raw	Displacement raw	HMax	HMax raw	Real Force	Real Stiffness	Contact Depth	Area	Hardness	Reduced Mod.
[#]	[#]	[um]	[s]	[um]	[um]	[um]	[m°]	[m°]	[um]	[uN]	[uN]	[V]	[V]	[V]	[°C]	[uN]	[um]	[N/m]	[°]	[°]	[uN]	[um]	[um]	[um]	[uN]	[N/m]	[um]	[um^2]	[MPa]	[MPa]
805	1.000000	0.002665	7.37293e+06	-40389.1	1055.82	-29790.1	0.000000	0.000000	6.002792	0.067596	NaN	0.000000	0.001594	0.001723	28.0812	0.038327	0.000882	43.4351	109.584	-160.205	0.041106	0.001429	-1.097550	-1.098786	0.067596	43.4351	-1.098717	-4.817738E+14	-1.403073E-16	NaN
805	1.000000	0.044588	7.37293e+06	-40389.1	1055.82	-29790.1	0.000000	0.000000	6.044714	0.002391	NaN	0.000000	0.001531	0.001753	28.0812	0.124608	0.001999	62.3471	84.614	14.2486	0.043590	0.043250	-1.055626	-1.056964	0.002391	62.3471	-1.055655	-1.271803E+14	-1.880149E-17	NaN
805	1.000000	0.086639	7.37293e+06	-40389.1	1055.82	-29790.1	0.000000	0.000000	6.086765	0.014611	NaN	0.000000	0.001656	0.001749	28.0811	0.069190	0.001971	35.096	-113.571	-164.335	0.057729	0.085331	-1.013575	-1.014884	0.014611	35.096	-1.013887	-3.488981E+13	-4.187759E-16	NaN
805	1.000000	0.128630	7.37293e+06	-40389.1	1055.82	-29790.1	0.000000	0.000000	6.128757	0.042622	NaN	0.000000	0.001675	0.001742	28.0796	0.067553	0.002005	33.689	-149.136	12.0284	0.031917	0.127329	-0.971585	-0.972885	0.042622	33.689	-0.972533	-9.678415E+12	-4.403802E-15	NaN
805	1.000000	0.170678	7.37293e+06	-40389.1	1055.82	-29790.1	0.000000	0.000000	6.170803	-0.014677	NaN	0.000000	0.001622	0.001736	28.0798	0.073696	0.001988	37.0686	33.2605	-165.571	0.054470	0.169364	-0.929536	-0.930850	-0.014677	37.0686	-0.929239	-2.523052E+12	5.817325E-15	NaN
805	1.000000	0.212688	7.37293e+06	-40389.1	1055.82	-29790.1	0.000000	0.000000	6.212817	0.076955	NaN	0.000000	0.001616	0.001725	28.0797	0.029708	0.002127	13.9684	-174.506	13.7462	0.021741	0.211331	-0.887526	-0.888883	0.076955	13.9684	-0.891658	-7.840123E+11	-9.815522E-14	NaN
805	1.000000	0.254723	7.37293e+06	-40389.1	1055.82	-29790.1	0.000000	0.000000	6.254852	0.101790	NaN	0.000000	0.001577	0.001722	28.081	0.096509	0.001993	48.4325	-48.5265	-167.705	0.082338	0.253406	-0.845491	-0.846808	0.101790	48.4325	-0.847067	-1.954451E+11	-5.208126E-13	NaN
805	1.000000	0.296720	7.37293e+06	-40389.1	1055.82	-29790.1	0.000000	0.000000	6.296844	-0.029442	NaN	0.000000	0.001601	0.001702	28.081	0.026320	0.001974	13.3305	-162.273	13.3849	0.038510	0.295370	-0.803494	-0.804845	-0.029442	13.3305	-0.801838	-4.762241E+10	6.182297E-13	NaN
805	1.000000	0.338735	7.37293e+06	-40389.1	1055.82	-29790.1	0.000000	0.000000	6.338863	0.079883	NaN	0.000000	0.001636	0.001748	28.0811	0.051986	0.002082	24.9654	37.3934	-166.206	0.113741	0.337478	-0.761480	-0.762737	0.079883	24.9654	-0.763879	-1.452354E+10	-5.500246E-12	NaN
805	1.000000	0.380756	7.37293e+06	-40389.1	1055.82	-29790.1	0.000000	0.000000	6.380880	-0.009198	NaN	0.000000	0.001671	0.001703	28.0798	0.050719	0.002053	24.7029	120.317	11.8628	0.028240	0.379317	-0.719459	-0.720897	-0.009198	24.7029	-0.719179	-3.575035E+9	2.572728E-12	NaN
805	1.000000	0.422786	7.37293e+06	-40389.1	1055.82	-29790.1	0.000000	0.000000	6.422911	0.009508	NaN	0.000000	0.001631	0.001731	28.0797	0.059370	0.001932	30.7351	52.8359	-167.805	-0.034482	0.421426	-0.677429	-0.678788	0.009508	30.7351	-0.677661	-9.687428E+8	-9.815126E-12	NaN
805	1.000000	0.464808	7.37293e+06	-40389.1	1055.82	-29790.1	0.000000	0.000000	6.464933	0.000607	NaN	0.000000	0.001610	0.001739	28.0799	0.104476	0.001955	53.4389	-66.7834	15.0222	-0.042677	0.463402	-0.635406	-0.636812	0.000607	53.4389	-0.635414	-2.554824E+8	-2.374987E-12	NaN
805	1.000000	0.506800	7.37293e+06	-40389.1	1055.82	-29790.1	0.000000	0.000000	6.506928	0.059940	NaN	0.000000	0.001634	0.001700	28.0799	0.130169	0.001909	68.201	95.2415	-166.918	0.074427	0.505442	-0.593414	-0.594772	0.059940	68.201	-0.594073	-6.899397E+7	-8.687774E-10	NaN
805	1.000000	0.548831	7.37293e+06	-40389.1	1055.82	-29790.1	0.000000	0.000000	6.548958	0.039661	NaN	0.000000	0.001636	0.001738	28.0809	0.015672	0.002109	7.432151	-42.7337	12.383	0.027361	0.547491	-0.551383	-0.552724	0.039661	7.432151	-0.555386	-2.016162E+7	-1.967170E-9	NaN
805	1.000000	0.590857	7.37293e+06	-40389.1	1055.82	-29790.1	0.000000	0.000000	6.590982	0.011447	NaN	0.000000	0.001629	0.001691	28.0808	0.019021	0.001976	9.625933	-81.5393	-164.674	0.000907	0.589465	-0.509358	-0.510749	0.011447	9.625933	-0.510249	-4.76311e+06	-2.403172E-9	NaN
805	1.000000	0.632880	7.37293e+06	-40389.1	1055.82	-29790.1	0.000000	0.000000	6.633008	0.063835	NaN	0.000000	0.001707	0.001793	28.0807	0.065186	0.002023	32.2268	7.769326	12.4275	0.047631	0.631474	-0.467334	-0.468740	0.063835	32.2268	-0.468819	-1.25559e+06	-5.084094E-8	NaN
805	1.000000	0.674860	7.37293e+06	-40389.1	1055.82	-29790.1	0.000000	0.000000	6.674987	0.045286	NaN	0.000000	0.001694	0.001754	28.0795	0.055472	0.001807	30.6982	91.9439	-166.364	-0.014672	0.673560	-0.425355	-0.426654	0.045286	30.6982	-0.426461	-317668	-1.425581E-7	NaN
805	1.000000	0.716898	7.37293e+06	-40389.1	1055.82	-29790.1	0.000000	0.000000	6.717025	0.053468	NaN	0.000000	0.001691	0.001717	28.0796	0.090353	0.002009	44.9841	54.0932	13.9469	0.063174	0.715583	-0.383317	-0.384631	0.053468	44.9841	-0.384208	-79476.6	-6.727536E-7	NaN
805	1.000000	0.758930	7.37293e+06	-40389.1	1055.82	-29790.1	0.000000	0.000000	6.759058	0.075067	NaN	0.000000	0.001696	0.001734	28.0796	0.079707	0.002093	38.0789	80.1282	-165.614	0.032566	0.757636	-0.341285	-0.342578	0.075067	38.0789	-0.342763	-20035.8	-3.746659E-6	NaN
805	1.000000	0.800934	7.37293e+06	-40389.1	1055.82	-29790.1	0.000000	0.000000	6.801062	0.079664	NaN	0.000000	0.001717	0.001798	28.0807	0.083603	0.001942	43.0601	-137.701	11.4366	0.067353	0.799589	-0.299281	-0.300625	0.079664	43.0601	-0.300668	-4814.81	-1.654551E-5	NaN
805	1.000000	0.842951	7.37293e+06	-40389.1	1055.82	-29790.1	0.000000	0.000000	6.843077	0.019021	NaN	0.000000	0.001671	0.001803	28.0808	0.060440	0.002102	28.7517	136.425	-165.949	0.081792	0.841673	-0.257263	-0.258541	0.019021	28.7517	-0.257759	-1082.78	-1.756673E-5	NaN
805	1.000000	0.884980	7.37293e+06	-40389.1	1055.82	-29790.1	0.000000	0.000000	6.885109	0.089003	NaN	0.000000	0.001657	0.001787	28.0806	0.100144	0.002021	49.5622	-81.5731	19.2849	0.070674	0.883604	-0.215234	-0.216611	0.089003	49.5622	-0.216581	-244.861	-0.000363	NaN
805	1.000000	0.926964	7.37293e+06	-40389.1	1055.82	-29790.1	0.000000	0.000000	6.927092	0.064298	NaN	0.000000	0.001649	0.001783	28.0805	0.044912	0.001921	23.3784	-155.599	-163.413	0.125729	0.925714	-0.173250	-0.174500	0.064298	23.3784	-0.175313	-50.7399	-0.001267	NaN
805	1.000000	0.969016	7.37293e+06	-40389.1	1055.82	-29790.1	0.000000	0.000000	6.969148	0.167607	NaN	0.000000	0.001642	0.001738	28.0798	0.058337	0.002060	28.3135	23.5212	16.2554	0.086832	0.967644	-0.131198	-0.132570	0.167607	28.3135	-0.135638	-9.782540	-0.017133	NaN
805	1.000000	1.011007	7.37293e+06	-40389.1	1055.82	-29790.1	0.000000	0.000000	7.011139	0.163824	NaN	0.000000	0.001672	0.001758	28.0797	0.043768	0.002018	21.6857	-22.9524	-167.379	0.143066	1.009735	-0.089207	-0.090479	0.163824	21.6857	-0.094873	-1.401268	-0.116911	NaN
805	1.000000	1.053041	7.37293e+06	-40389.1	1055.82	-29790.1	0.000000	0.000000	7.053204	0.939120	NaN	0.000000	0.001648	0.001770	28.0796	0.602705	0.002061	292.464	27.93	13.0508	0.938974	1.051651	-0.047173	-0.048564	0.939120	292.464	-0.049582	-0.088630	-10.596	NaN
805	1.000000	1.095039	7.37293e+06	-40389.1	1055.82	-29790.1	0.000000	0.000000	7.095220	1.346939	NaN	0.000000	0.001617	0.001753	28.0807	0.615963	0.002020	304.95	29.5668	-162.678	1.380918	1.093778	-0.005175	-0.006436	1.346939	304.95	-0.008488	-0.005516	-244.181	NaN
805	2.000000	1.114106	7.37293e+06	-40389.1	1055.82	-29790.1	0.000000	0.000000	7.115159	22.5972	NaN	0.000000	0.001641	0.001750	28.0805	16.2411	0.001788	9082.16	7.915762	5.619947	22.6278	1.113732	0.013891	0.013518	22.5972	9082.16	0.012025	0.011520	1961.52	77309.1
805	2.000000	1.124500	7.37293e+06	-40389.1	1055.82	-29790.1	0.000000	0.000000	7.126723	51.0693	NaN	0.000000	0.001676	0.001759	28.0808	26.4941	0.001741	15215.3	4.909757	-178.662	48.4194	1.124212	0.024285	0.023998	51.0693	15215.3	0.021768	0.025397	2010.83	87229.4
805	2.000000	1.135014	7.37293e+06	-40389.1	1055.82	-29790.1	0.000000	0.000000	7.138616	84.6062	NaN	0.000000	0.001697	0.001781	28.0797	36.1413	0.001863	19397.5	7.254842	-1.853676	84.3761	1.134637	0.034799	0.034423	84.6062	19397.5	0.031528	0.043971	1924.15	84515.6
805	2.000000	1.145431	7.37293e+06	-40389.1	1055.82	-29790.1	0.000000	0.000000	7.151014	132.818	NaN	0.000000	0.001644	0.001773	28.0801	43.4796	0.001642	26487.6	1.965941	179.62	127.393	1.145135	0.045216	0.044921	132.818	26487.6	0.041456	0.067844	1957.7	92909.4
805	2.000000	1.156115	7.37293e+06	-40389.1	1055.82	-29790.1	0.000000	0.000000	7.163504	176.758	NaN	0.000000	0.001654	0.001706	28.0803	54.7784	0.001782	30748.4	3.550587	-1.454171	179.299	1.155700	0.055901	0.055485	176.758	30748.4	0.051590	0.097390	1814.95	90020
805	2.000000	1.166478	7.37293e+06	-40389.1	1055.82	-29790.1	0.000000	0.000000	7.176216	233.919	NaN	0.000000	0.001632	0.001754	28.081	63.7162	0.001841	34604.6	3.095991	177.28	231.22	1.166168	0.066264	0.065954	233.919	34604.6	0.061194	0.130124	1797.66	87645.1
805	2.000000	1.176997	7.37293e+06	-40389.1	1055.82	-29790.1	0.000000	0.000000	7.189253	295.213	NaN	0.000000	0.001595	0.001781	28.0809	74.5628	0.001764	42261.4	5.712039	-7.020708	292.419	1.176653	0.076782	0.076439	295.213	42261.4	0.071543	0.170422	1732.25	93530.7
805	2.000000	1.187374	7.37293e+06	-40389.1	1055.82	-29790.1	0.000000	0.000000	7.202483	364.594	NaN	0.000000	0.001636	0.001756	28.0808	83.4726	0.001899	43946.6	7.885354	170.505	360.398	1.187120	0.087160	0.086905	364.594	43946.6	0.080938	0.211406	1724.62	87325.4
805	2.000000	1.197867	7.37294e+06	-40389.1	1055.82	-29790.1	0.000000	0.000000	7.216150	441.855	NaN	0.000000	0.001579	0.001758	28.0797	91.372	0.001791	51027	3.559034	-6.056022	435.116	1.197594	0.097652	0.097380	441.855	51027	0.091158	0.260650	1695.2	91315.5
805	2.000000	1.204993	7.37294e+06	-40389.1	1055.82	-29790.1	0.000000	0.000000	7.225830	503.994	NaN	0.000000	0.001590	0.001731	28.0796	97.8613	0.001748	55970.1	6.866085	-9.602991	502.568	1.204501	0.104779	0.104287	503.994	55970.1	0.098025	0.296432	1700.2	93921.9