File: remote_trans/data/nanoindenter/0828-1/data/Data_2025-08-06,11h17m57s/2025-07-22_16-23-58_1_249.txt
2025-07-22, 16:23:58, 1
Index	Phase	Displacement	Time	Pos X	Pos Y	Pos Z	Rot A	Rot B	Piezo Z	Force A	Force B	Gripper	Voltage A	Voltage B	Temperature	Amplitude force	Amplitude pos	Stiffness	Phase shift	Phase excitation	Force A raw	Displacement raw	HMax	HMax raw	Real Force	Real Stiffness	Contact Depth	Area	Hardness	Reduced Mod.
[#]	[#]	[um]	[s]	[um]	[um]	[um]	[m°]	[m°]	[um]	[uN]	[uN]	[V]	[V]	[V]	[°C]	[uN]	[um]	[N/m]	[°]	[°]	[uN]	[um]	[um]	[um]	[uN]	[N/m]	[um]	[um^2]	[MPa]	[MPa]
249	1.000000	0.002838	7.36748e+06	-51089.1	955.819	-29753.6	0.000000	0.000000	6.002785	0.004966	NaN	0.000000	0.001628	0.001545	28.0795	0.009768	0.000945	10.3424	48.1172	-168.251	0.001578	0.001602	-1.185643	-1.186879	0.004966	10.3424	-1.186004	-7.133380E+15	-6.961659E-19	NaN
249	1.000000	0.046820	7.36748e+06	-51089.1	955.818	-29753.6	0.000000	0.000000	6.046765	-0.038579	NaN	0.000000	0.001598	0.001542	28.0789	0.030319	0.002041	14.8522	-29.5114	-166.329	-0.011561	0.045536	-1.141662	-1.142946	-0.038579	14.8522	-1.139714	-1.709616E+15	2.256599E-17	NaN
249	1.000000	0.090831	7.36748e+06	-51089.1	955.818	-29753.6	0.000000	0.000000	6.090777	-0.008459	NaN	0.000000	0.001655	0.001584	28.0802	0.054482	0.001972	27.6232	146.533	-165.303	-0.088022	0.089535	-1.097651	-1.098946	-0.008459	27.6232	-1.097421	-4.628559E+14	1.827484E-17	NaN
249	1.000000	0.134825	7.36748e+06	-51089.1	955.819	-29753.6	0.000000	0.000000	6.134770	-0.044955	NaN	0.000000	0.001609	0.001541	28.0796	0.038334	0.002087	18.3663	-99.4792	-165.767	-0.019724	0.133532	-1.053657	-1.054950	-0.044955	18.3663	-1.051821	-1.129509E+14	3.980034E-16	NaN
249	1.000000	0.178875	7.36748e+06	-51089.1	955.817	-29753.6	0.000000	0.000000	6.178820	-0.059220	NaN	0.000000	0.001604	0.001558	28.0802	0.152218	0.001954	77.8976	-8.150466	-162.95	-0.039883	0.177549	-1.009606	-1.010933	-0.059220	77.8976	-1.009036	-3.001991E+13	1.972694E-15	NaN
249	1.000000	0.222853	7.36748e+06	-51089.1	955.817	-29753.7	0.000000	0.000000	6.222801	0.028839	NaN	0.000000	0.001606	0.001573	28.079	0.040264	0.002093	19.2332	37.508	-165.372	0.033263	0.221576	-0.965629	-0.966906	0.028839	19.2332	-0.966753	-8.089140E+12	-3.565186E-15	NaN
249	1.000000	0.266924	7.36748e+06	-51089.1	955.818	-29753.7	0.000000	0.000000	6.266869	-0.038397	NaN	0.000000	0.001710	0.001648	28.079	0.033366	0.002043	16.3337	-98.8991	-165.858	-0.009097	0.265538	-0.921558	-0.922944	-0.038397	16.3337	-0.919795	-1.881207E+12	2.041100E-14	NaN
249	1.000000	0.310884	7.36749e+06	-51089.1	955.819	-29753.7	0.000000	0.000000	6.310829	-0.057307	NaN	0.000000	0.001656	0.001643	28.0791	0.067833	0.001972	34.3996	78.2431	-166.808	-0.046070	0.309593	-0.877597	-0.878888	-0.057307	34.3996	-0.876348	-4.867614E+11	1.177306E-13	NaN
249	1.000000	0.354926	7.36749e+06	-51089.1	955.818	-29753.7	0.000000	0.000000	6.354871	-0.039189	NaN	0.000000	0.001658	0.001582	28.0793	0.053421	0.001934	27.6194	41.1444	-167.623	0.018344	0.353620	-0.833556	-0.834862	-0.039189	27.6194	-0.832492	-1.240390E+11	3.159430E-13	NaN
249	1.000000	0.398952	7.36749e+06	-51089.1	955.819	-29753.7	0.000000	0.000000	6.398899	-0.004770	NaN	0.000000	0.001669	0.001610	28.0804	0.123826	0.001904	65.0216	174.565	-167.545	-0.047470	0.397669	-0.789529	-0.790813	-0.004770	65.0216	-0.789474	-3.235513E+10	1.474198E-13	NaN
249	1.000000	0.442970	7.36749e+06	-51089.1	955.818	-29753.7	0.000000	0.000000	6.442917	0.004573	NaN	0.000000	0.001682	0.001616	28.0803	0.006692	0.001856	3.605042	43.201	-166.633	-0.021546	0.441655	-0.745511	-0.746827	0.004573	3.605042	-0.746463	-8.415220E+9	-5.434709E-13	NaN
249	1.000000	0.486990	7.36749e+06	-51089.1	955.819	-29753.7	0.000000	0.000000	6.486932	-0.100352	NaN	0.000000	0.001666	0.001579	28.0805	0.055847	0.002008	27.8107	-106.031	-164.583	-0.060060	0.485646	-0.701492	-0.702836	-0.100352	27.8107	-0.698786	-1.883421E+9	5.328153E-11	NaN
249	1.000000	0.530997	7.36749e+06	-51089.1	955.818	-29753.7	0.000000	0.000000	6.530940	-0.090944	NaN	0.000000	0.001641	0.001615	28.0792	0.067058	0.001958	34.2565	146.862	-164.681	-0.018616	0.529688	-0.657484	-0.658794	-0.090944	34.2565	-0.655493	-4.816448E+8	1.888195E-10	NaN
249	1.000000	0.575031	7.36749e+06	-51089.1	955.818	-29753.7	0.000000	0.000000	6.574980	0.053564	NaN	0.000000	0.001627	0.001613	28.0793	0.068305	0.002020	33.8175	86.5933	-164.488	0.049074	0.573707	-0.613451	-0.614774	0.053564	33.8175	-0.614639	-1.324097E+8	-4.045347E-10	NaN
249	1.000000	0.619051	7.36749e+06	-51089.1	955.818	-29753.7	0.000000	0.000000	6.618997	-0.020314	NaN	0.000000	0.001605	0.001589	28.0792	0.173085	0.001965	88.0974	-101.392	-166.661	-0.022251	0.617761	-0.569430	-0.570721	-0.020314	88.0974	-0.569257	-3.135970E+7	6.477725E-10	NaN
249	1.000000	0.663083	7.36749e+06	-51089.1	955.818	-29753.7	0.000000	0.000000	6.663030	-0.002929	NaN	0.000000	0.001597	0.001563	28.0801	0.027479	0.001874	14.6633	-19.111	-167.049	0.049171	0.661776	-0.525398	-0.526706	-0.002929	14.6633	-0.525249	-7.70133e+06	3.803661E-10	NaN
249	1.000000	0.707113	7.36749e+06	-51089.1	955.819	-29753.7	0.000000	0.000000	6.707058	-0.036137	NaN	0.000000	0.001597	0.001567	28.0799	0.024186	0.002064	11.7159	-30.4992	-165.241	0.033486	0.705738	-0.481369	-0.482744	-0.036137	11.7159	-0.479055	-1.74703e+06	2.068452E-8	NaN
249	1.000000	0.751118	7.36749e+06	-51089.1	955.818	-29753.7	0.000000	0.000000	6.751062	-0.072189	NaN	0.000000	0.001582	0.001622	28.0798	0.046964	0.001995	23.5464	173.393	-163.846	0.012423	0.749816	-0.437364	-0.438665	-0.072189	23.5464	-0.435064	-420401	1.717151E-7	NaN
249	1.000000	0.795095	7.36749e+06	-51089.1	955.819	-29753.7	0.000000	0.000000	6.795040	-0.027939	NaN	0.000000	0.001607	0.001572	28.0787	0.028212	0.001977	14.2673	138.585	-165.388	0.003350	0.793827	-0.393387	-0.394655	-0.027939	14.2673	-0.391918	-102471	2.726539E-7	NaN
249	1.000000	0.839133	7.36749e+06	-51089.1	955.818	-29753.7	0.000000	0.000000	6.839078	-0.027616	NaN	0.000000	0.001613	0.001586	28.0788	0.091618	0.002067	44.331	167.994	-168.344	-0.049230	0.837850	-0.349349	-0.350632	-0.027616	44.331	-0.348882	-24590.7	1.123012E-6	NaN
249	1.000000	0.883155	7.36749e+06	-51089.1	955.819	-29753.7	0.000000	0.000000	6.883098	-0.104722	NaN	0.000000	0.001595	0.001613	28.0787	0.127694	0.001957	65.235	-169.934	-168.309	-0.127303	0.881852	-0.305326	-0.306630	-0.104722	65.235	-0.304122	-5419.07	1.932464E-5	NaN
249	1.000000	0.927164	7.36749e+06	-51089.1	955.819	-29753.7	0.000000	0.000000	6.927109	-0.028927	NaN	0.000000	0.001598	0.001606	28.0802	0.048755	0.001892	25.7656	-144.539	-168.092	-0.088742	0.925885	-0.261318	-0.262597	-0.028927	25.7656	-0.260476	-1191.83	2.427135E-5	NaN
249	1.000000	0.971178	7.36749e+06	-51089.1	955.819	-29753.7	0.000000	0.000000	6.971124	-0.025172	NaN	0.000000	0.001591	0.001619	28.0801	0.043662	0.001901	22.9673	166.022	-162.175	-0.110388	0.969816	-0.217303	-0.218665	-0.025172	22.9673	-0.216482	-243.961	0.000103	NaN
249	1.000000	1.015219	7.36749e+06	-51089.1	955.819	-29753.7	0.000000	0.000000	7.015165	-0.010447	NaN	0.000000	0.001588	0.001622	28.0801	0.166616	0.002028	82.1404	168.527	-166.655	-0.055471	1.013900	-0.173263	-0.174582	-0.010447	82.1404	-0.173168	-46.6052	0.000224	NaN
249	1.000000	1.059198	7.36749e+06	-51089.1	955.819	-29753.7	0.000000	0.000000	7.059142	-0.071531	NaN	0.000000	0.001650	0.001593	28.0789	0.035032	0.002063	16.9827	-37.8487	-163.171	-0.100598	1.057922	-0.129283	-0.130560	-0.071531	16.9827	-0.126124	-6.400233	0.011176	NaN
249	1.000000	1.103249	7.36749e+06	-51089.1	955.82	-29753.7	0.000000	0.000000	7.103203	0.189034	NaN	0.000000	0.001654	0.001573	28.0791	0.102521	0.002061	49.7485	29.2964	-167.812	0.089706	1.101938	-0.085233	-0.086544	0.189034	49.7485	-0.088083	-0.974032	-0.194073	NaN
249	1.000000	1.147267	7.36749e+06	-51089.1	955.821	-29753.7	0.000000	0.000000	7.147229	0.385269	NaN	0.000000	0.001644	0.001589	28.0788	0.363226	0.002016	180.134	38.1056	-167.217	0.381597	1.145945	-0.041215	-0.042537	0.385269	180.134	-0.042819	-0.055118	-6.989928	NaN
249	1.000000	1.191270	7.36749e+06	-51089.1	955.821	-29753.7	0.000000	0.000000	7.191288	1.732154	NaN	0.000000	0.001636	0.001600	28.08	1.938219	0.001926	1006.36	26.6751	-168.878	1.530433	1.189969	0.002788	0.001487	1.732154	1006.36	0.001497	0.001152	1503.32	27086.7
249	2.000000	1.213722	7.36749e+06	-51089.1	955.821	-29753.7	0.000000	0.000000	7.214337	16.2513	NaN	0.000000	0.001603	0.001670	28.0803	15.8108	0.001790	8831.35	9.032675	-174.918	16.2195	1.213444	0.025241	0.024962	16.2513	8831.35	0.023861	0.028975	560.87	47401
249	2.000000	1.224702	7.36749e+06	-51089.1	955.82	-29753.7	0.000000	0.000000	7.226385	42.2073	NaN	0.000000	0.001586	0.001668	28.0804	27.9584	0.001777	15730.4	7.185502	-179.235	41.4347	1.224343	0.036221	0.035861	42.2073	15730.4	0.034208	0.049919	845.524	64325.5
249	2.000000	1.235649	7.36749e+06	-51089.1	955.82	-29753.7	0.000000	0.000000	7.238380	67.7124	NaN	0.000000	0.001577	0.001664	28.0791	40.5815	0.001790	22666.1	7.045183	176.861	67.6635	1.235382	0.047167	0.046901	67.7124	22666.1	0.044926	0.077378	875.081	74445.7
249	2.000000	1.246581	7.36749e+06	-51089.1	955.822	-29753.7	0.000000	0.000000	7.251108	111.38	NaN	0.000000	0.001610	0.001677	28.079	50.9436	0.001817	28036.6	7.837647	174.263	109.314	1.246323	0.058099	0.057841	111.38	28036.6	0.055120	0.108892	1022.85	77624.7
249	2.000000	1.257720	7.36749e+06	-51089.1	955.821	-29753.7	0.000000	0.000000	7.264126	157.065	NaN	0.000000	0.001582	0.001659	28.0787	61.0624	0.001844	33118.3	9.265439	170.984	160.419	1.257472	0.069239	0.068991	157.065	33118.3	0.065682	0.146967	1068.71	78928
249	2.000000	1.268540	7.36749e+06	-51089.1	955.82	-29753.7	0.000000	0.000000	7.277442	217.768	NaN	0.000000	0.001578	0.001673	28.0799	72.4592	0.001774	40848.3	7.350387	171.793	213.874	1.268287	0.080059	0.079805	217.768	40848.3	0.076060	0.189611	1148.5	85706.8
249	2.000000	1.279479	7.36749e+06	-51089.1	955.821	-29753.7	0.000000	0.000000	7.291133	284.691	NaN	0.000000	0.001701	0.001654	28.08	81.0042	0.001727	46898.1	5.181981	172.57	277.936	1.279268	0.090997	0.090786	284.691	46898.1	0.086444	0.237340	1199.51	87951.5
249	2.000000	1.290626	7.36749e+06	-51089.1	955.821	-29753.7	0.000000	0.000000	7.305541	364.003	NaN	0.000000	0.001636	0.001635	28.0803	91.4654	0.001744	52439.7	5.402851	171.933	364.348	1.290264	0.102144	0.101783	364.003	52439.7	0.096938	0.290623	1252.49	88872.7
249	2.000000	1.301562	7.36749e+06	-51089.1	955.821	-29753.7	0.000000	0.000000	7.320070	451.377	NaN	0.000000	0.001647	0.001620	28.0787	103.594	0.001745	59376.7	3.731038	172.857	447.996	1.301191	0.113080	0.112710	451.377	59376.7	0.107378	0.348618	1294.76	91878.6
249	2.000000	1.305073	7.36749e+06	-51089.1	955.821	-29753.7	0.000000	0.000000	7.324698	478.51	NaN	0.000000	0.001610	0.001634	28.0788	109.02	0.001746	62427.8	7.639556	-11.752	473.813	1.304776	0.116592	0.116294	478.51	62427.8	0.110843	0.368954	1296.94	93899.9