File: remote_trans/data/nanoindenter/0828-1/data/Data_2025-08-06,11h17m57s/2025-07-22_16-23-58_1_228.txt
2025-07-22, 16:23:58, 1
Index	Phase	Displacement	Time	Pos X	Pos Y	Pos Z	Rot A	Rot B	Piezo Z	Force A	Force B	Gripper	Voltage A	Voltage B	Temperature	Amplitude force	Amplitude pos	Stiffness	Phase shift	Phase excitation	Force A raw	Displacement raw	HMax	HMax raw	Real Force	Real Stiffness	Contact Depth	Area	Hardness	Reduced Mod.
[#]	[#]	[um]	[s]	[um]	[um]	[um]	[m°]	[m°]	[um]	[uN]	[uN]	[V]	[V]	[V]	[°C]	[uN]	[um]	[N/m]	[°]	[°]	[uN]	[um]	[um]	[um]	[uN]	[N/m]	[um]	[um^2]	[MPa]	[MPa]
228	1.000000	0.002528	7.36728e+06	-50039.1	955.818	-29757.4	0.000000	0.000000	6.002800	0.051947	NaN	0.000000	0.001591	0.001671	28.0778	0.118206	0.000955	123.759	81.2635	-165.193	-0.000850	0.001302	-1.057613	-1.058838	0.051947	123.759	-1.057928	-1.364504E+14	-3.807023E-16	NaN
228	1.000000	0.042483	7.36728e+06	-50039.1	955.818	-29757.4	0.000000	0.000000	6.042755	0.043403	NaN	0.000000	0.001574	0.001676	28.078	0.071160	0.002067	34.4344	45.4829	-164.462	0.011481	0.041162	-1.017657	-1.018978	0.043403	34.4344	-1.018603	-4.037871E+13	-1.074904E-15	NaN
228	1.000000	0.082512	7.36728e+06	-50039.1	955.819	-29757.4	0.000000	0.000000	6.082781	-0.042447	NaN	0.000000	0.001627	0.001677	28.0777	0.068521	0.001937	35.3785	-33.802	-167.126	-0.113661	0.081174	-0.977628	-0.978967	-0.042447	35.3785	-0.976729	-1.102386E+13	3.850471E-15	NaN
228	1.000000	0.122514	7.36728e+06	-50039.1	955.819	-29757.4	0.000000	0.000000	6.122785	0.010594	NaN	0.000000	0.001646	0.001670	28.0789	0.064780	0.002080	31.1511	64.8973	-164.918	-0.039806	0.121165	-0.937627	-0.938976	0.010594	31.1511	-0.937882	-3.300328E+12	-3.209856E-15	NaN
228	1.000000	0.162519	7.36728e+06	-50039.1	955.818	-29757.4	0.000000	0.000000	6.162791	0.054822	NaN	0.000000	0.001610	0.001674	28.0791	0.100047	0.002049	48.8243	23.0235	-166.723	0.019935	0.161246	-0.897622	-0.898895	0.054822	48.8243	-0.898464	-9.689693E+11	-5.657742E-14	NaN
228	1.000000	0.202522	7.36728e+06	-50039.1	955.818	-29757.4	0.000000	0.000000	6.202793	0.020729	NaN	0.000000	0.001629	0.001680	28.0789	0.039915	0.002078	19.2087	-159.562	-165.735	0.060325	0.201253	-0.857619	-0.858888	0.020729	19.2087	-0.858428	-2.785104E+11	-7.442735E-14	NaN
228	1.000000	0.242545	7.36728e+06	-50039.1	955.819	-29757.4	0.000000	0.000000	6.242816	0.029829	NaN	0.000000	0.001517	0.001634	28.0778	0.110373	0.001965	56.1799	-22.5621	-165.089	-0.050156	0.241244	-0.817596	-0.818897	0.029829	56.1799	-0.817994	-7.888700E+10	-3.781169E-13	NaN
228	1.000000	0.282561	7.36728e+06	-50039.1	955.818	-29757.4	0.000000	0.000000	6.282835	0.097810	NaN	0.000000	0.001553	0.001720	28.0784	0.062494	0.001949	32.0705	110.975	-166.295	0.098891	0.281287	-0.777580	-0.778854	0.097810	32.0705	-0.779867	-2.395671E+10	-4.082766E-12	NaN
228	1.000000	0.322585	7.36728e+06	-50039.1	955.819	-29757.4	0.000000	0.000000	6.322856	-0.000239	NaN	0.000000	0.001558	0.001689	28.0777	0.097318	0.001947	49.9712	27.8909	-168.493	0.050962	0.321258	-0.737555	-0.738883	-0.000239	49.9712	-0.737552	-6.363663E+9	3.755617E-14	NaN
228	1.000000	0.362604	7.36728e+06	-50039.1	955.818	-29757.4	0.000000	0.000000	6.362872	-0.047115	NaN	0.000000	0.001575	0.001701	28.0777	0.011576	0.001938	5.973320	164.198	-166.94	-0.091257	0.361326	-0.697537	-0.698815	-0.047115	5.973320	-0.691621	-1.503393E+9	3.133926E-11	NaN
228	1.000000	0.402637	7.36728e+06	-50039.1	955.819	-29757.4	0.000000	0.000000	6.402909	0.028728	NaN	0.000000	0.001631	0.001711	28.0784	0.023793	0.002001	11.8911	15.4169	-165.664	-0.055664	0.401289	-0.657503	-0.658852	0.028728	11.8911	-0.659315	-5.433646E+8	-5.287017E-11	NaN
228	1.000000	0.442666	7.36728e+06	-50039.1	955.818	-29757.4	0.000000	0.000000	6.442934	-0.034103	NaN	0.000000	0.001616	0.001675	28.0785	0.029755	0.002086	14.2609	134.932	-167.775	-0.006708	0.441319	-0.617475	-0.618822	-0.034103	14.2609	-0.615682	-1.368555E+8	2.491885E-10	NaN
228	1.000000	0.482658	7.36728e+06	-50039.1	955.818	-29757.4	0.000000	0.000000	6.482930	0.040389	NaN	0.000000	0.001602	0.001690	28.0783	0.057078	0.002024	28.203	32.2803	-165.181	0.089535	0.481317	-0.577482	-0.578824	0.040389	28.203	-0.578557	-4.215041E+7	-9.582176E-10	NaN
228	1.000000	0.522695	7.36728e+06	-50039.1	955.818	-29757.4	0.000000	0.000000	6.522961	-0.094551	NaN	0.000000	0.001551	0.001674	28.077	0.014140	0.002131	6.635337	-36.2464	-166.223	-0.108092	0.521333	-0.537446	-0.538807	-0.094551	6.635337	-0.526758	-8.08252e+06	1.169822E-8	NaN
228	1.000000	0.562681	7.36728e+06	-50039.1	955.819	-29757.4	0.000000	0.000000	6.562949	-0.050668	NaN	0.000000	0.001571	0.001690	28.0771	0.045534	0.001874	24.2979	-8.612495	-166.613	-0.132384	0.561373	-0.497460	-0.498768	-0.050668	24.2979	-0.495896	-3.00432e+06	1.686499E-8	NaN
228	1.000000	0.602722	7.36728e+06	-50039.1	955.818	-29757.4	0.000000	0.000000	6.602995	0.074230	NaN	0.000000	0.001556	0.001693	28.0773	0.138229	0.001892	73.0415	72.4811	-168.036	-0.066441	0.601454	-0.457419	-0.458687	0.074230	73.0415	-0.458181	-890129	-8.339292E-8	NaN
228	1.000000	0.642720	7.36728e+06	-50039.1	955.818	-29757.4	0.000000	0.000000	6.642989	-0.024011	NaN	0.000000	0.001561	0.001679	28.0775	0.049187	0.001857	26.493	-67.3291	-167.623	4.115799E-5	0.641368	-0.417421	-0.418773	-0.024011	26.493	-0.416741	-231298	1.038078E-7	NaN
228	1.000000	0.682745	7.36728e+06	-50039.1	955.819	-29757.4	0.000000	0.000000	6.683017	0.032143	NaN	0.000000	0.001549	0.001658	28.0783	0.117491	0.002011	58.4259	-115.307	-164.734	0.063964	0.681376	-0.377396	-0.378765	0.032143	58.4259	-0.377808	-64331.4	-4.996437E-7	NaN
228	1.000000	0.722758	7.36728e+06	-50039.1	955.819	-29757.4	0.000000	0.000000	6.723032	0.099012	NaN	0.000000	0.001584	0.001658	28.0785	0.046415	0.001998	23.229	124.163	-167.681	0.007572	0.721459	-0.337383	-0.338682	0.099012	23.229	-0.340580	-18621.1	-5.317195E-6	NaN
228	1.000000	0.762774	7.36728e+06	-50039.1	955.819	-29757.4	0.000000	0.000000	6.763048	0.082129	NaN	0.000000	0.001537	0.001652	28.0786	0.115570	0.001968	58.7098	120.81	-170.477	0.023889	0.761477	-0.297367	-0.298664	0.082129	58.7098	-0.298416	-4456.99	-1.842711E-5	NaN
228	1.000000	0.802807	7.36728e+06	-50039.1	955.818	-29757.4	0.000000	0.000000	6.803077	0.003600	NaN	0.000000	0.001561	0.001707	28.0774	0.101190	0.002111	47.9359	-71.3582	-163.225	0.020351	0.801495	-0.257334	-0.258646	0.003600	47.9359	-0.257390	-1068.75	-3.368461E-6	NaN
228	1.000000	0.842841	7.36728e+06	-50039.1	955.818	-29757.4	0.000000	0.000000	6.843113	0.048073	NaN	0.000000	0.001546	0.001666	28.0773	0.069079	0.001963	35.1903	-124.675	-165.666	0.012642	0.841485	-0.217299	-0.218655	0.048073	35.1903	-0.218324	-261.134	-0.000184	NaN
228	1.000000	0.882809	7.36728e+06	-50039.1	955.818	-29757.4	0.000000	0.000000	6.883080	0.008643	NaN	0.000000	0.001602	0.001679	28.0772	0.130690	0.001949	67.0605	160.244	-165.155	0.016055	0.881529	-0.177332	-0.178612	0.008643	67.0605	-0.177428	-55.1575	-0.000157	NaN
228	1.000000	0.922835	7.36728e+06	-50039.1	955.818	-29757.4	0.000000	0.000000	6.923106	0.004632	NaN	0.000000	0.001612	0.001680	28.0785	0.030426	0.001908	15.9499	145.555	-166.258	0.035536	0.921505	-0.137305	-0.138636	0.004632	15.9499	-0.137523	-10.6232	-0.000436	NaN
228	1.000000	0.962871	7.36728e+06	-50039.1	955.818	-29757.4	0.000000	0.000000	6.963143	0.035338	NaN	0.000000	0.001544	0.001706	28.0785	0.063481	0.001965	32.3033	15.7351	-168.904	-0.051506	0.961586	-0.097269	-0.098555	0.035338	32.3033	-0.098090	-1.656591	-0.021332	NaN
228	1.000000	1.002869	7.36728e+06	-50039.1	955.819	-29757.4	0.000000	0.000000	7.003143	0.083123	NaN	0.000000	0.001539	0.001673	28.0785	0.030392	0.001962	15.4906	21.2111	-167.405	0.124224	1.001593	-0.057272	-0.058548	0.083123	15.4906	-0.061296	-0.196119	-0.423838	NaN
228	1.000000	1.042876	7.36728e+06	-50039.1	955.819	-29757.4	0.000000	0.000000	7.043145	-0.028619	NaN	0.000000	0.001602	0.001706	28.0784	0.042525	0.002029	20.9608	-152.019	-167.286	-0.015506	1.041592	-0.017265	-0.018549	-0.028619	20.9608	-0.016241	-0.010032	2.852766	NaN
228	2.000000	1.074371	7.36728e+06	-50039.1	955.819	-29757.4	0.000000	0.000000	7.075166	12.7631	NaN	0.000000	0.001555	0.001661	28.0774	13.1701	0.001816	7252.72	7.546814	-175.661	12.4185	1.074119	0.014231	0.013979	12.7631	7252.72	0.012911	0.012600	1012.98	59033.3
228	2.000000	1.084298	7.36728e+06	-50039.1	955.82	-29757.4	0.000000	0.000000	7.085877	31.8382	NaN	0.000000	0.001551	0.001664	28.0773	24.2178	0.001929	12552.8	7.117953	-179.399	30.8772	1.083974	0.024157	0.023833	31.8382	12552.8	0.022255	0.026210	1214.73	70840.2
228	2.000000	1.094243	7.36728e+06	-50039.1	955.819	-29757.4	0.000000	0.000000	7.096905	58.1823	NaN	0.000000	0.001612	0.001644	28.0776	33.292	0.001838	18117	4.457261	179.32	55.9355	1.094054	0.034102	0.033913	58.1823	18117	0.031693	0.044326	1312.59	78619.1
228	2.000000	1.104233	7.36728e+06	-50039.1	955.818	-29757.4	0.000000	0.000000	7.108416	95.1601	NaN	0.000000	0.001562	0.001653	28.0788	43.8782	0.001832	23952.5	6.254989	175.568	92.6094	1.103915	0.044092	0.043775	95.1601	23952.5	0.041112	0.066935	1421.68	84586.1
228	2.000000	1.114325	7.36728e+06	-50039.1	955.819	-29757.4	0.000000	0.000000	7.120025	132.061	NaN	0.000000	0.001562	0.001680	28.079	52.0444	0.001795	28989.8	1.758166	178.535	133.192	1.113976	0.054184	0.053835	132.061	28989.8	0.050768	0.094801	1393.04	86022.6
228	2.000000	1.124275	7.36728e+06	-50039.1	955.819	-29757.4	0.000000	0.000000	7.132112	184.014	NaN	0.000000	0.001589	0.001691	28.0791	61.4788	0.001708	35988.9	3.971243	175.081	186.714	1.123912	0.064134	0.063771	184.014	35988.9	0.060299	0.126884	1450.26	92307.9
228	2.000000	1.134199	7.36728e+06	-50039.1	955.821	-29757.4	0.000000	0.000000	7.144206	236.807	NaN	0.000000	0.001568	0.001663	28.0791	72.1285	0.001788	40333.5	2.936639	174.07	235.721	1.134023	0.074058	0.073882	236.807	40333.5	0.069654	0.162685	1455.62	91362
228	2.000000	1.144278	7.36728e+06	-50039.1	955.821	-29757.4	0.000000	0.000000	7.157054	304.149	NaN	0.000000	0.001674	0.001652	28.0777	80.8127	0.001808	44705.2	4.396838	172.202	304.4	1.143919	0.084137	0.083778	304.149	44705.2	0.079034	0.202768	1499.99	90705.1
228	2.000000	1.154244	7.36728e+06	-50039.1	955.821	-29757.4	0.000000	0.000000	7.170062	378.096	NaN	0.000000	0.001592	0.001730	28.0775	90.2505	0.001838	49096.4	4.865428	171.576	381.799	1.153885	0.094103	0.093744	378.096	49096.4	0.088328	0.246530	1533.67	90341.5
228	2.000000	1.164110	7.36728e+06	-50039.1	955.82	-29757.4	0.000000	0.000000	7.183208	457.876	NaN	0.000000	0.001569	0.001656	28.0776	98.9482	0.001693	58442.6	1.968188	173.319	453.592	1.163941	0.103969	0.103800	457.876	58442.6	0.098093	0.296797	1542.72	98010.5
228	2.000000	1.170183	7.36728e+06	-50039.1	955.821	-29757.4	0.000000	0.000000	7.191327	507.626	NaN	0.000000	0.001612	0.001695	28.0786	105.205	0.001789	58822.4	6.647287	168.738	506.026	1.169823	0.110043	0.109682	507.626	58822.4	0.103570	0.326890	1552.89	93997.2