File: remote_trans/data/nanoindenter/0828-1/data/Data_2025-08-06,11h17m57s/2025-07-22_16-23-58_1_174.txt
2025-07-22, 16:23:58, 1
Index	Phase	Displacement	Time	Pos X	Pos Y	Pos Z	Rot A	Rot B	Piezo Z	Force A	Force B	Gripper	Voltage A	Voltage B	Temperature	Amplitude force	Amplitude pos	Stiffness	Phase shift	Phase excitation	Force A raw	Displacement raw	HMax	HMax raw	Real Force	Real Stiffness	Contact Depth	Area	Hardness	Reduced Mod.
[#]	[#]	[um]	[s]	[um]	[um]	[um]	[m°]	[m°]	[um]	[uN]	[uN]	[V]	[V]	[V]	[°C]	[uN]	[um]	[N/m]	[°]	[°]	[uN]	[um]	[um]	[um]	[uN]	[N/m]	[um]	[um^2]	[MPa]	[MPa]
174	1.000000	0.002988	7.36674e+06	-47339.1	955.819	-29766.8	0.000000	0.000000	6.002842	-0.073338	NaN	0.000000	0.001648	0.001706	28.134	0.062891	0.000860	73.0914	-160.653	-166.693	-0.051493	0.001703	-1.014659	-1.015944	-0.073338	73.0914	-1.013906	-3.491041E+13	2.100755E-15	NaN
174	1.000000	0.042909	7.36674e+06	-47339.1	955.819	-29766.8	0.000000	0.000000	6.042768	0.028449	NaN	0.000000	0.001736	0.001699	28.1321	0.059415	0.001990	29.854	135.796	-164.394	0.018564	0.041649	-0.974738	-0.975998	0.028449	29.854	-0.975452	-1.059594E+13	-2.684922E-15	NaN
174	1.000000	0.082896	7.36674e+06	-47339.1	955.818	-29766.8	0.000000	0.000000	6.082753	-0.009219	NaN	0.000000	0.001677	0.001693	28.132	0.054716	0.002092	26.155	90.7069	-162.917	-0.011003	0.081554	-0.934751	-0.936093	-0.009219	26.155	-0.934486	-2.969903E+12	3.104162E-15	NaN
174	1.000000	0.122937	7.36674e+06	-47339.1	955.818	-29766.8	0.000000	0.000000	6.122795	0.000944	NaN	0.000000	0.001624	0.001703	28.1311	0.043215	0.001815	23.8124	142.523	-166.089	0.002576	0.121609	-0.894710	-0.896038	0.000944	23.8124	-0.894739	-8.629309E+11	-1.094451E-15	NaN
174	1.000000	0.162916	7.36674e+06	-47339.1	955.818	-29766.8	0.000000	0.000000	6.162773	-0.012808	NaN	0.000000	0.001708	0.001683	28.132	0.027450	0.001980	13.8659	-97.3698	-164.166	0.058845	0.161669	-0.854730	-0.855978	-0.012808	13.8659	-0.854038	-2.428889E+11	5.273352E-14	NaN
174	1.000000	0.202971	7.36674e+06	-47339.1	955.817	-29766.8	0.000000	0.000000	6.202829	0.010321	NaN	0.000000	0.001653	0.001711	28.1325	0.048284	0.002043	23.6318	-147.417	-166.894	0.035960	0.201681	-0.814676	-0.815966	0.010321	23.6318	-0.815004	-7.185385E+10	-1.436355E-13	NaN
174	1.000000	0.242970	7.36674e+06	-47339.1	955.817	-29766.8	0.000000	0.000000	6.242826	-0.025668	NaN	0.000000	0.001643	0.001692	28.1335	0.037252	0.002096	17.7738	-178.872	-167.658	0.067263	0.241616	-0.774677	-0.776031	-0.025668	17.7738	-0.773594	-1.968630E+10	1.303835E-12	NaN
174	1.000000	0.282992	7.36674e+06	-47339.1	955.817	-29766.8	0.000000	0.000000	6.282851	0.027762	NaN	0.000000	0.001662	0.001708	28.1323	0.063943	0.002109	30.313	-1.431641	-163.804	0.084167	0.281663	-0.734655	-0.735983	0.027762	30.313	-0.735341	-5.937378E+9	-4.675757E-12	NaN
174	1.000000	0.323013	7.36674e+06	-47339.1	955.817	-29766.8	0.000000	0.000000	6.322873	0.045911	NaN	0.000000	0.001658	0.001711	28.134	0.134924	0.001924	70.1444	45.9714	-163.532	-0.021727	0.321687	-0.694634	-0.695960	0.045911	70.1444	-0.695125	-1.678564E+9	-2.735115E-11	NaN
174	1.000000	0.363032	7.36674e+06	-47339.1	955.819	-29766.8	0.000000	0.000000	6.362888	-0.044893	NaN	0.000000	0.001695	0.001707	28.1315	0.116880	0.001923	60.7685	-164.21	-167.693	-0.083144	0.361696	-0.654615	-0.655951	-0.044893	60.7685	-0.654061	-4.603557E+8	9.751699E-11	NaN
174	1.000000	0.403062	7.36674e+06	-47339.1	955.818	-29766.8	0.000000	0.000000	6.402922	0.057795	NaN	0.000000	0.001671	0.001677	28.1326	0.195734	0.001985	98.5847	118.736	-169.409	0.079260	0.401752	-0.614585	-0.615895	0.057795	98.5847	-0.615025	-1.340379E+8	-4.311817E-10	NaN
174	1.000000	0.443049	7.36674e+06	-47339.1	955.818	-29766.8	0.000000	0.000000	6.442908	0.041821	NaN	0.000000	0.001707	0.001684	28.1318	0.082462	0.002049	40.2499	-80.5609	-166.796	-0.004441	0.441775	-0.574598	-0.575872	0.041821	40.2499	-0.575377	-3.809840E+7	-1.097722E-9	NaN
174	1.000000	0.483074	7.36674e+06	-47339.1	955.819	-29766.8	0.000000	0.000000	6.482931	-0.023993	NaN	0.000000	0.001682	0.001729	28.1343	0.022601	0.002003	11.2826	-67.5929	-166.569	-0.076937	0.481766	-0.534573	-0.535881	-0.023993	11.2826	-0.532978	-9.86104e+06	2.433096E-9	NaN
174	1.000000	0.523107	7.36674e+06	-47339.1	955.818	-29766.8	0.000000	0.000000	6.522963	-0.021353	NaN	0.000000	0.001705	0.001785	28.1329	0.093242	0.001998	46.6627	-168.777	-167.092	-0.025206	0.521782	-0.494540	-0.495865	-0.021353	46.6627	-0.494197	-2.84461e+06	7.506507E-9	NaN
174	1.000000	0.563119	7.36674e+06	-47339.1	955.818	-29766.8	0.000000	0.000000	6.562978	0.035735	NaN	0.000000	0.001704	0.001736	28.1344	0.064796	0.002059	31.4657	-172.317	-160.983	0.003307	0.561825	-0.454528	-0.455822	0.035735	31.4657	-0.455380	-812943	-4.395802E-8	NaN
174	1.000000	0.603157	7.36674e+06	-47339.1	955.818	-29766.8	0.000000	0.000000	6.603013	-0.045050	NaN	0.000000	0.001626	0.001705	28.1333	0.072717	0.001971	36.8948	15.6004	-167.029	-0.011446	0.601810	-0.414490	-0.415837	-0.045050	36.8948	-0.413574	-208546	2.160175E-7	NaN
174	1.000000	0.643115	7.36674e+06	-47339.1	955.817	-29766.8	0.000000	0.000000	6.642974	0.041420	NaN	0.000000	0.001634	0.001712	28.133	0.102183	0.001842	55.4605	-38.4876	-162.466	0.025388	0.641841	-0.374532	-0.375806	0.041420	55.4605	-0.375092	-58802.4	-7.043939E-7	NaN
174	1.000000	0.683171	7.36674e+06	-47339.1	955.818	-29766.8	0.000000	0.000000	6.683029	0.010351	NaN	0.000000	0.001692	0.001704	28.1323	0.123029	0.001832	67.1532	162.38	-167.091	0.079290	0.681851	-0.334476	-0.335796	0.010351	67.1532	-0.334592	-15227.3	-6.797730E-7	NaN
174	1.000000	0.723148	7.36674e+06	-47339.1	955.818	-29766.8	0.000000	0.000000	6.723005	0.005472	NaN	0.000000	0.001703	0.001731	28.133	0.043881	0.001918	22.8839	109.368	-167.767	-0.019038	0.721909	-0.294499	-0.295738	0.005472	22.8839	-0.294679	-3920.01	-1.395947E-6	NaN
174	1.000000	0.763195	7.36674e+06	-47339.1	955.818	-29766.8	0.000000	0.000000	6.763053	-0.002093	NaN	0.000000	0.001700	0.001711	28.134	0.139677	0.002008	69.5477	3.316358	-167.408	0.025435	0.761900	-0.254451	-0.255747	-0.002093	69.5477	-0.254429	-962.324	2.174577E-6	NaN
174	1.000000	0.803227	7.36674e+06	-47339.1	955.817	-29766.9	0.000000	0.000000	6.803082	-0.055711	NaN	0.000000	0.001653	0.001718	28.1354	0.033898	0.001903	17.8097	-174.96	-165.662	-0.123710	0.801887	-0.214420	-0.215760	-0.055711	17.8097	-0.212074	-207.187	0.000269	NaN
174	1.000000	0.843229	7.36674e+06	-47339.1	955.818	-29766.9	0.000000	0.000000	6.843088	0.031126	NaN	0.000000	0.001617	0.001712	28.1337	0.036247	0.002009	18.0443	-158.556	-165.444	0.016567	0.841928	-0.174418	-0.175719	0.031126	18.0443	-0.175711	-51.5458	-0.000604	NaN
174	1.000000	0.883254	7.36674e+06	-47339.1	955.818	-29766.9	0.000000	0.000000	6.883112	0.009781	NaN	0.000000	0.001663	0.001732	28.1352	0.105039	0.002072	50.6963	30.7678	-166.453	-0.020755	0.881927	-0.134392	-0.135720	0.009781	50.6963	-0.134537	-9.320661	-0.001049	NaN
174	1.000000	0.923252	7.36674e+06	-47339.1	955.817	-29766.9	0.000000	0.000000	6.923107	-0.052118	NaN	0.000000	0.001677	0.001777	28.1322	0.101441	0.001920	52.8349	-20.7052	-166.796	-0.056061	0.921980	-0.094395	-0.095667	-0.052118	52.8349	-0.093655	-1.314165	0.039658	NaN
174	1.000000	0.963290	7.36674e+06	-47339.1	955.818	-29766.9	0.000000	0.000000	6.963147	-0.021193	NaN	0.000000	0.001672	0.001716	28.1335	0.060693	0.001883	32.238	-39.0296	-167.968	0.002246	0.961934	-0.054357	-0.055713	-0.021193	32.238	-0.053864	-0.119167	0.177843	NaN
174	1.000000	1.003266	7.36674e+06	-47339.1	955.817	-29766.9	0.000000	0.000000	7.003122	-0.016248	NaN	0.000000	0.001673	0.001728	28.1325	0.091483	0.002021	45.256	-32.9859	-164.249	-0.033597	1.002017	-0.014381	-0.015630	-0.016248	45.256	-0.014112	-0.008749	1.857095	NaN
174	2.000000	1.030786	7.36674e+06	-47339.1	955.817	-29766.9	0.000000	0.000000	7.031270	15.2552	NaN	0.000000	0.001657	0.001736	28.1348	13.1828	0.001671	7888.38	7.540725	-178.61	13.6547	1.030551	0.013139	0.012904	15.2552	7888.38	0.011688	0.011119	1372	68348.7
174	2.000000	1.040729	7.36674e+06	-47339.1	955.818	-29766.9	0.000000	0.000000	7.041981	33.9343	NaN	0.000000	0.001623	0.001781	28.1337	23.6705	0.001779	13308.4	4.532132	-179.114	31.8903	1.040487	0.023082	0.022841	33.9343	13308.4	0.021170	0.024414	1389.98	77818.7
174	2.000000	1.050761	7.36674e+06	-47339.1	955.818	-29766.9	0.000000	0.000000	7.053271	64.5073	NaN	0.000000	0.001622	0.001723	28.1347	32.8579	0.001700	19324.8	2.424543	-179.562	64.4739	1.050490	0.033114	0.032843	64.5073	19324.8	0.030611	0.042019	1535.2	86132.3
174	2.000000	1.060735	7.36674e+06	-47339.1	955.819	-29766.9	0.000000	0.000000	7.064737	100.816	NaN	0.000000	0.001654	0.001711	28.1324	43.3948	0.001858	23355.5	8.111336	173.927	101.239	1.060422	0.043088	0.042775	100.816	23355.5	0.039850	0.063642	1584.11	84584.3
174	2.000000	1.070638	7.36674e+06	-47339.1	955.818	-29766.9	0.000000	0.000000	7.076850	154.583	NaN	0.000000	0.001656	0.001747	28.1335	51.9397	0.001748	29719.9	3.846719	176.299	151.703	1.070366	0.052991	0.052719	154.583	29719.9	0.049090	0.089620	1724.87	90702.3
174	2.000000	1.080575	7.36674e+06	-47339.1	955.816	-29766.9	0.000000	0.000000	7.089019	208.836	NaN	0.000000	0.001632	0.001707	28.1323	62.742	0.001883	33321.6	5.647692	173.274	202.333	1.080392	0.062928	0.062745	208.836	33321.6	0.058228	0.119531	1747.13	88056
174	2.000000	1.090626	7.36674e+06	-47339.1	955.818	-29766.9	0.000000	0.000000	7.101691	272.601	NaN	0.000000	0.001604	0.001750	28.1337	73.0262	0.001789	40815.6	6.762367	170.541	270.198	1.090325	0.072979	0.072678	272.601	40815.6	0.067970	0.155929	1748.24	94435.5
174	2.000000	1.100602	7.36674e+06	-47339.1	955.817	-29766.9	0.000000	0.000000	7.114837	349.712	NaN	0.000000	0.001612	0.001683	28.1337	81.6286	0.001744	46809.2	3.770736	172.776	345.39	1.100311	0.082956	0.082665	349.712	46809.2	0.077352	0.195276	1790.87	96778.9
174	2.000000	1.110568	7.36674e+06	-47339.1	955.818	-29766.9	0.000000	0.000000	7.127749	421.378	NaN	0.000000	0.001677	0.001701	28.1347	90.9807	0.001820	49997.3	0.296104	175.984	416.254	1.110442	0.092921	0.092795	421.378	49997.3	0.086600	0.238094	1769.8	93615
174	2.000000	1.120560	7.36674e+06	-47339.1	955.817	-29766.9	0.000000	0.000000	7.141671	516.953	NaN	0.000000	0.001622	0.001693	28.1338	101.62	0.001812	56087.6	2.447645	173.245	510.766	1.120260	0.102913	0.102613	516.953	56087.6	0.096001	0.285659	1809.69	95877.4
174	2.000000	1.125194	7.36674e+06	-47339.1	955.818	-29766.9	0.000000	0.000000	7.148316	565.89	NaN	0.000000	0.001617	0.001702	28.0994	105.471	0.001753	60173.7	2.690290	-7.710188	565.901	1.124810	0.107547	0.107164	565.89	60173.7	0.100494	0.309819	1826.52	98770.2