File: remote_trans/data/nanoindenter/0828-1/data/Data_2025-08-06,11h17m57s/2025-07-22_16-23-58_1_537.txt
2025-07-22, 16:23:58, 1
Index	Phase	Displacement	Time	Pos X	Pos Y	Pos Z	Rot A	Rot B	Piezo Z	Force A	Force B	Gripper	Voltage A	Voltage B	Temperature	Amplitude force	Amplitude pos	Stiffness	Phase shift	Phase excitation	Force A raw	Displacement raw	HMax	HMax raw	Real Force	Real Stiffness	Contact Depth	Area	Hardness	Reduced Mod.
[#]	[#]	[um]	[s]	[um]	[um]	[um]	[m°]	[m°]	[um]	[uN]	[uN]	[V]	[V]	[V]	[°C]	[uN]	[um]	[N/m]	[°]	[°]	[uN]	[um]	[um]	[um]	[uN]	[N/m]	[um]	[um^2]	[MPa]	[MPa]
537	1.000000	0.002515	7.3703e+06	-50239.1	1005.82	-29756.5	0.000000	0.000000	6.002807	0.004193	NaN	0.000000	0.001610	0.001755	28.0805	0.068175	0.001007	67.683	55.0651	-166.314	0.051177	0.001252	-0.949000	-0.950263	0.004193	67.683	-0.949047	-4.668415E+12	-8.981757E-16	NaN
537	1.000000	0.040484	7.3703e+06	-50239.1	1005.82	-29756.5	0.000000	0.000000	6.040775	-0.047811	NaN	0.000000	0.001570	0.001757	28.0807	0.135864	0.002050	66.2612	-86.7749	13.0118	-0.101514	0.039152	-0.911030	-0.912363	-0.047811	66.2612	-0.910489	-1.408544E+12	3.394367E-14	NaN
537	1.000000	0.078447	7.3703e+06	-50239.1	1005.82	-29756.5	0.000000	0.000000	6.078739	-0.004390	NaN	0.000000	0.001550	0.001694	28.0817	0.069404	0.002060	33.6953	139.585	-165.335	-0.036561	0.077177	-0.873068	-0.874337	-0.004390	33.6953	-0.872970	-4.381574E+11	1.001904E-14	NaN
537	1.000000	0.116475	7.3703e+06	-50239.1	1005.82	-29756.5	0.000000	0.000000	6.116767	0.007245	NaN	0.000000	0.001571	0.001741	28.0817	0.026265	0.002032	12.9234	-107.139	15.5975	0.006321	0.115112	-0.835040	-0.836402	0.007245	12.9234	-0.835461	-1.360780E+11	-5.323945E-14	NaN
537	1.000000	0.154510	7.3703e+06	-50239.1	1005.82	-29756.5	0.000000	0.000000	6.154803	-0.001922	NaN	0.000000	0.001576	0.001732	28.0817	0.083507	0.001980	42.1838	-20.2076	-166.025	-0.063243	0.153190	-0.797005	-0.798324	-0.001922	42.1838	-0.796970	-4.090097E+10	4.700164E-14	NaN
537	1.000000	0.192499	7.3703e+06	-50239.1	1005.82	-29756.5	0.000000	0.000000	6.192791	-0.014116	NaN	0.000000	0.001575	0.001751	28.0814	0.054815	0.002009	27.2843	78.0279	12.6252	-0.008390	0.191125	-0.759015	-0.760390	-0.014116	27.2843	-0.758627	-1.232052E+10	1.145735E-12	NaN
537	1.000000	0.230561	7.3703e+06	-50239.1	1005.82	-29756.5	0.000000	0.000000	6.230851	-0.046802	NaN	0.000000	0.001605	0.001759	28.0804	0.220403	0.002016	109.332	-128.314	-166.319	-0.041671	0.229249	-0.720954	-0.722266	-0.046802	109.332	-0.720633	-3.741990E+9	1.250737E-11	NaN
537	1.000000	0.268558	7.3703e+06	-50239.1	1005.82	-29756.5	0.000000	0.000000	6.268852	0.028512	NaN	0.000000	0.001601	0.001725	28.0805	0.044365	0.002062	21.5164	-132.415	11.3612	0.062046	0.267174	-0.682957	-0.684340	0.028512	21.5164	-0.683951	-1.180936E+9	-2.414348E-11	NaN
537	1.000000	0.306576	7.3703e+06	-50239.1	1005.82	-29756.5	0.000000	0.000000	6.306870	0.037462	NaN	0.000000	0.001568	0.001751	28.0805	0.024404	0.002140	11.4048	134.446	-168.202	-0.024888	0.305242	-0.644938	-0.646273	0.037462	11.4048	-0.647402	-3.730932E+8	-1.004103E-10	NaN
537	1.000000	0.344573	7.3703e+06	-50239.1	1005.82	-29756.5	0.000000	0.000000	6.344865	-0.004425	NaN	0.000000	0.001638	0.001743	28.0819	0.029729	0.002046	14.5316	73.9146	13.9564	0.064261	0.343224	-0.606942	-0.608291	-0.004425	14.5316	-0.606713	-1.030114E+8	4.296081E-11	NaN
537	1.000000	0.382625	7.3703e+06	-50239.1	1005.82	-29756.5	0.000000	0.000000	6.382916	-0.021596	NaN	0.000000	0.001568	0.001737	28.0818	0.083502	0.001907	43.7898	-8.351649	-164.703	-0.035823	0.381288	-0.568890	-0.570227	-0.021596	43.7898	-0.568520	-3.063268E+7	7.049964E-10	NaN
537	1.000000	0.420617	7.3703e+06	-50239.1	1005.82	-29756.5	0.000000	0.000000	6.420912	0.044859	NaN	0.000000	0.001565	0.001740	28.0821	0.065373	0.002022	32.3336	-110.437	10.1977	-0.002439	0.419228	-0.530898	-0.532287	0.044859	32.3336	-0.531938	-9.53864e+06	-4.702868E-9	NaN
537	1.000000	0.458616	7.3703e+06	-50239.1	1005.82	-29756.5	0.000000	0.000000	6.458906	-0.065275	NaN	0.000000	0.001534	0.001752	28.0818	0.043238	0.002097	20.6227	-135.282	-167.294	-0.068507	0.457294	-0.492899	-0.494221	-0.065275	20.6227	-0.490525	-2.52771e+06	2.582382E-8	NaN
537	1.000000	0.496624	7.3703e+06	-50239.1	1005.82	-29756.5	0.000000	0.000000	6.496915	-0.038700	NaN	0.000000	0.001542	0.001744	28.0806	0.047370	0.001940	24.4216	-14.4953	9.179550	-0.037165	0.495236	-0.454891	-0.456278	-0.038700	24.4216	-0.453703	-769950	5.026277E-8	NaN
537	1.000000	0.534680	7.3703e+06	-50239.1	1005.82	-29756.5	0.000000	0.000000	6.534969	-0.093065	NaN	0.000000	0.001555	0.001759	28.0807	0.049130	0.002039	24.0912	-129.842	-163.27	-0.056159	0.533383	-0.416835	-0.418132	-0.093065	24.0912	-0.413937	-211038	4.409879E-7	NaN
537	1.000000	0.572668	7.3703e+06	-50239.1	1005.82	-29756.5	0.000000	0.000000	6.572956	-0.099705	NaN	0.000000	0.001588	0.001767	28.0807	0.029111	0.002054	14.1717	84.7288	11.078	0.037460	0.571340	-0.378847	-0.380174	-0.099705	14.1717	-0.373570	-55912.4	1.783235E-6	NaN
537	1.000000	0.610683	7.3703e+06	-50239.1	1005.82	-29756.5	0.000000	0.000000	6.610975	-0.013349	NaN	0.000000	0.001605	0.001730	28.0806	0.042517	0.002012	21.1367	82.0312	-167.93	-0.064962	0.609337	-0.340832	-0.342178	-0.013349	21.1367	-0.340358	-18482.9	7.222446E-7	NaN
537	1.000000	0.648681	7.37031e+06	-50239.1	1005.82	-29756.5	0.000000	0.000000	6.648974	0.015735	NaN	0.000000	0.001560	0.001731	28.0818	0.127083	0.001982	64.103	-69.3122	12.4926	-0.024540	0.647325	-0.302834	-0.304190	0.015735	64.103	-0.303018	-5218.25	-3.015397E-6	NaN
537	1.000000	0.686714	7.37031e+06	-50239.1	1005.82	-29756.5	0.000000	0.000000	6.687006	-0.010272	NaN	0.000000	0.001581	0.001757	28.0819	0.090324	0.002086	43.3082	-158.338	-167.284	0.030640	0.685441	-0.264801	-0.266073	-0.010272	43.3082	-0.264623	-1379.22	7.447789E-6	NaN
537	1.000000	0.724739	7.37031e+06	-50239.1	1005.82	-29756.5	0.000000	0.000000	6.725028	-0.076230	NaN	0.000000	0.001567	0.001770	28.0819	0.100723	0.002039	49.4084	-36.2121	13.0659	-0.088663	0.723420	-0.226776	-0.228095	-0.076230	49.4084	-0.225619	-341.316	0.000223	NaN
537	1.000000	0.762764	7.37031e+06	-50239.1	1005.82	-29756.5	0.000000	0.000000	6.763054	-0.056873	NaN	0.000000	0.001603	0.001807	28.0806	0.101935	0.001895	53.7793	-54.7573	-165.697	-0.079272	0.761437	-0.188751	-0.190078	-0.056873	53.7793	-0.187957	-83.1469	0.000684	NaN
537	1.000000	0.800783	7.37031e+06	-50239.1	1005.82	-29756.5	0.000000	0.000000	6.801075	-0.018210	NaN	0.000000	0.001594	0.001763	28.0805	0.107134	0.002000	53.5555	-134.31	12.3846	0.043085	0.799408	-0.150731	-0.152107	-0.018210	53.5555	-0.150476	-18.4794	0.000985	NaN
537	1.000000	0.838793	7.37031e+06	-50239.1	1005.82	-29756.5	0.000000	0.000000	6.839088	0.049736	NaN	0.000000	0.001562	0.001768	28.0807	0.015007	0.002116	7.090734	-168.409	-166.232	0.017363	0.837488	-0.112722	-0.114026	0.049736	7.090734	-0.117982	-4.397310	-0.011311	NaN
537	1.000000	0.876805	7.37031e+06	-50239.1	1005.82	-29756.5	0.000000	0.000000	6.877098	0.006401	NaN	0.000000	0.001538	0.001731	28.0806	0.079183	0.001857	42.6334	31.1033	12.971	0.055799	0.875409	-0.074710	-0.076106	0.006401	42.6334	-0.074822	-0.457007	-0.014007	NaN
537	1.000000	0.914827	7.37031e+06	-50239.1	1005.82	-29756.5	0.000000	0.000000	6.915120	0.014012	NaN	0.000000	0.001538	0.001749	28.0823	0.085540	0.001872	45.6946	-25.3261	-166.714	-0.006014	0.913528	-0.036688	-0.037986	0.014012	45.6946	-0.036918	-0.036509	-0.383803	NaN
537	1.000000	0.952781	7.37031e+06	-50239.1	1005.82	-29756.5	0.000000	0.000000	6.953211	3.344884	NaN	0.000000	0.001564	0.001767	28.0816	3.923556	0.001780	2204.2	3.087898	15.8172	1.718725	0.951447	0.001266	-6.781945E-5	3.344884	2204.2	0.000128	9.562401E-5	34979.5	205940
537	2.000000	0.966312	7.37031e+06	-50239.1	1005.82	-29756.5	0.000000	0.000000	6.967339	17.8873	NaN	0.000000	0.001573	0.001764	28.0821	17.1152	0.001821	9401.32	5.416331	-176.18	16.6887	0.965968	0.014797	0.014453	17.8873	9401.32	0.013370	0.013172	1357.93	74839
537	2.000000	0.975794	7.37031e+06	-50239.1	1005.82	-29756.5	0.000000	0.000000	6.977435	32.7889	NaN	0.000000	0.001597	0.001773	28.0809	25.4816	0.001922	13258	7.432493	0.104293	31.903	0.975491	0.024279	0.023976	32.7889	13258	0.022424	0.026496	1237.5	74414.9
537	2.000000	0.985284	7.37031e+06	-50239.1	1005.82	-29756.5	0.000000	0.000000	6.987918	56.9314	NaN	0.000000	0.001543	0.001778	28.0806	34.5688	0.001735	19920	7.026616	176.249	55.6375	0.985017	0.033769	0.033502	56.9314	19920	0.031626	0.044181	1288.59	86585.5
537	2.000000	0.994719	7.37031e+06	-50239.1	1005.82	-29756.5	0.000000	0.000000	6.998787	91.8313	NaN	0.000000	0.001558	0.001767	28.0807	43.3203	0.001708	25365.5	6.851416	-5.662485	87.9348	0.994379	0.043204	0.042864	91.8313	25365.5	0.040488	0.065297	1406.37	90692.2
537	2.000000	1.004210	7.37031e+06	-50239.1	1005.82	-29756.5	0.000000	0.000000	7.009811	129.108	NaN	0.000000	0.001564	0.001801	28.0805	52.2578	0.001759	29703.1	4.840056	175.195	127.346	1.003963	0.052695	0.052448	129.108	29703.1	0.049435	0.090675	1423.85	90121.8
537	2.000000	1.013632	7.37031e+06	-50239.1	1005.82	-29756.5	0.000000	0.000000	7.020753	166.06	NaN	0.000000	0.001560	0.001744	28.0818	61.5919	0.001706	36111.8	4.856128	-7.088291	160.258	1.013418	0.062117	0.061903	166.06	36111.8	0.058668	0.121076	1371.54	94818.7
537	2.000000	1.023266	7.37031e+06	-50239.1	1005.82	-29756.5	0.000000	0.000000	7.032797	224.673	NaN	0.000000	0.001592	0.001811	28.0818	71.8755	0.001925	37333.4	5.216227	173.829	227.292	1.022821	0.071751	0.071306	224.673	37333.4	0.067237	0.153032	1468.14	87192.5
537	2.000000	1.032650	7.37031e+06	-50239.1	1005.82	-29756.5	0.000000	0.000000	7.044224	274.356	NaN	0.000000	0.001609	0.001785	28.0821	80.0683	0.001780	44971.7	4.113385	-7.715625	268.144	1.032363	0.081135	0.080848	274.356	44971.7	0.076559	0.191789	1430.51	93821.1
537	2.000000	1.042278	7.37031e+06	-50239.1	1005.82	-29756.5	0.000000	0.000000	7.056247	332.588	NaN	0.000000	0.001590	0.001788	28.0817	87.763	0.001822	48155.4	7.237195	170.256	337.336	1.041879	0.090764	0.090365	332.588	48155.4	0.085584	0.233194	1426.23	91108.6
537	2.000000	1.051764	7.37031e+06	-50239.1	1005.82	-29756.5	0.000000	0.000000	7.068359	396.437	NaN	0.000000	0.001541	0.001836	28.0805	98.2743	0.001762	55771.8	9.248780	-13.41	399.765	1.051417	0.100250	0.099902	396.437	55771.8	0.094918	0.279977	1415.96	96300
537	2.000000	1.056649	7.37031e+06	-50239.1	1005.82	-29756.5	0.000000	0.000000	7.074673	431.212	NaN	0.000000	0.001537	0.001760	28.0807	100.759	0.001798	56038.6	6.150586	-10.5618	426.888	1.056220	0.105134	0.104705	431.212	56038.6	0.099363	0.303650	1420.1	92912.5