File: remote_trans/data/nanoindenter/0828-1/data/Data_2025-08-06,11h17m57s/2025-07-22_16-23-58_1_1086.txt
2025-07-22, 16:23:58, 1
Index	Phase	Displacement	Time	Pos X	Pos Y	Pos Z	Rot A	Rot B	Piezo Z	Force A	Force B	Gripper	Voltage A	Voltage B	Temperature	Amplitude force	Amplitude pos	Stiffness	Phase shift	Phase excitation	Force A raw	Displacement raw	HMax	HMax raw	Real Force	Real Stiffness	Contact Depth	Area	Hardness	Reduced Mod.
[#]	[#]	[um]	[s]	[um]	[um]	[um]	[m°]	[m°]	[um]	[uN]	[uN]	[V]	[V]	[V]	[°C]	[uN]	[um]	[N/m]	[°]	[°]	[uN]	[um]	[um]	[um]	[uN]	[N/m]	[um]	[um^2]	[MPa]	[MPa]
1086	1.000000	0.002655	7.37568e+06	-54439.1	1055.82	-29743.7	0.000000	0.000000	6.002814	0.019687	NaN	0.000000	0.001548	0.001782	28.0821	0.112614	0.001006	111.969	175.202	-168.31	-0.030865	0.001380	-0.938796	-0.940070	0.019687	111.969	-0.938928	-3.409335E+12	-5.774425E-15	NaN
1086	1.000000	0.040580	7.37568e+06	-54439.1	1055.82	-29743.7	0.000000	0.000000	6.040738	-0.029063	NaN	0.000000	0.001544	0.001807	28.0833	0.032480	0.001923	16.8866	-133.801	12.7949	-0.004017	0.039234	-0.900870	-0.902217	-0.029063	16.8866	-0.899580	-1.003198E+12	2.897039E-14	NaN
1086	1.000000	0.078584	7.37568e+06	-54439.1	1055.82	-29743.7	0.000000	0.000000	6.078743	0.005705	NaN	0.000000	0.001581	0.001805	28.0827	0.080243	0.002028	39.5622	31.362	-166.275	-0.097176	0.077352	-0.862866	-0.864098	0.005705	39.5622	-0.862975	-3.209072E+11	-1.777725E-14	NaN
1086	1.000000	0.116615	7.37568e+06	-54439.1	1055.82	-29743.7	0.000000	0.000000	6.116771	-0.065051	NaN	0.000000	0.001554	0.001798	28.083	0.085324	0.002065	41.3138	-64.9681	13.4181	-0.043770	0.115188	-0.824835	-0.826263	-0.065051	41.3138	-0.823655	-9.413803E+10	6.910135E-13	NaN
1086	1.000000	0.154634	7.37568e+06	-54439.1	1055.82	-29743.7	0.000000	0.000000	6.154789	-0.066682	NaN	0.000000	0.001573	0.001813	28.0829	0.102866	0.001872	54.9363	151.818	-165.06	0.029886	0.153289	-0.786817	-0.788162	-0.066682	54.9363	-0.785907	-2.893905E+10	2.304233E-12	NaN
1086	1.000000	0.192635	7.37568e+06	-54439.1	1055.82	-29743.7	0.000000	0.000000	6.192795	0.035260	NaN	0.000000	0.001576	0.001831	28.0818	0.050046	0.001988	25.177	90.6815	15.9928	-0.059343	0.191261	-0.748815	-0.750190	0.035260	25.177	-0.749866	-9.362500E+9	-3.766118E-12	NaN
1086	1.000000	0.230654	7.37568e+06	-54439.1	1055.82	-29743.7	0.000000	0.000000	6.230810	-0.063629	NaN	0.000000	0.001592	0.001831	28.082	0.064412	0.002024	31.8199	-30.7099	-165.995	-0.118373	0.229325	-0.710797	-0.712125	-0.063629	31.8199	-0.709297	-2.620941E+9	2.427726E-11	NaN
1086	1.000000	0.268684	7.37568e+06	-54439.1	1055.82	-29743.7	0.000000	0.000000	6.268841	-0.036439	NaN	0.000000	0.001590	0.001845	28.0819	0.039366	0.002082	18.9119	-73.4184	12.3792	-0.049215	0.267305	-0.672767	-0.674146	-0.036439	18.9119	-0.671322	-7.933832E+8	4.592922E-11	NaN
1086	1.000000	0.306659	7.37568e+06	-54439.1	1055.82	-29743.7	0.000000	0.000000	6.306817	-0.012275	NaN	0.000000	0.001603	0.001824	28.0819	0.070385	0.002017	34.9044	-38.1214	-169.234	0.039836	0.305386	-0.634792	-0.636064	-0.012275	34.9044	-0.634528	-2.484262E+8	4.941279E-11	NaN
1086	1.000000	0.344705	7.37568e+06	-54439.1	1055.82	-29743.7	0.000000	0.000000	6.344863	-0.007083	NaN	0.000000	0.001605	0.001857	28.0832	0.117095	0.002155	54.3439	-88.4879	13.1059	-0.051583	0.343321	-0.596746	-0.598130	-0.007083	54.3439	-0.596648	-7.486694E+7	9.460302E-11	NaN
1086	1.000000	0.382731	7.37568e+06	-54439.1	1055.82	-29743.7	0.000000	0.000000	6.382889	-0.025503	NaN	0.000000	0.001569	0.001794	28.0833	0.187936	0.002117	88.7757	-112.291	-166.68	0.026603	0.381395	-0.558719	-0.560056	-0.025503	88.7757	-0.558504	-2.226792E+7	1.145278E-9	NaN
1086	1.000000	0.420772	7.37568e+06	-54439.1	1055.82	-29743.7	0.000000	0.000000	6.420930	-0.031184	NaN	0.000000	0.001564	0.001825	28.0833	0.141995	0.002031	69.9183	-105.43	10.0753	-0.024207	0.419368	-0.520678	-0.522083	-0.031184	69.9183	-0.520344	-6.58235e+06	4.737503E-9	NaN
1086	1.000000	0.458732	7.37568e+06	-54439.1	1055.82	-29743.7	0.000000	0.000000	6.458888	-0.062015	NaN	0.000000	0.001647	0.001817	28.0819	0.066875	0.002007	33.323	-47.1922	-170.066	0.005793	0.457449	-0.482718	-0.484002	-0.062015	33.323	-0.481323	-1.8795e+06	3.299526E-8	NaN
1086	1.000000	0.496774	7.37568e+06	-54439.1	1055.82	-29743.7	0.000000	0.000000	6.496933	0.014946	NaN	0.000000	0.001636	0.001740	28.0821	0.033339	0.002159	15.4448	102.314	14.1712	0.036736	0.495427	-0.444677	-0.446024	0.014946	15.4448	-0.445402	-588254	-2.540764E-8	NaN
1086	1.000000	0.534783	7.37568e+06	-54439.1	1055.82	-29743.7	0.000000	0.000000	6.534940	-0.027585	NaN	0.000000	0.001683	0.001677	28.0816	0.082414	0.001976	41.7016	49.3921	-166.454	-0.091072	0.533500	-0.406668	-0.407950	-0.027585	41.7016	-0.406172	-163655	1.685570E-7	NaN
1086	1.000000	0.572836	7.37568e+06	-54439.1	1055.82	-29743.7	0.000000	0.000000	6.572994	-0.011266	NaN	0.000000	0.001664	0.001635	28.0818	0.096248	0.002047	47.0088	-148.718	11.4496	-0.015208	0.571474	-0.368615	-0.369976	-0.011266	47.0088	-0.368435	-47161.4	2.388745E-7	NaN
1086	1.000000	0.610848	7.37568e+06	-54439.1	1055.82	-29743.7	0.000000	0.000000	6.611004	-0.047424	NaN	0.000000	0.001646	0.001684	28.0829	0.138554	0.002054	67.4494	136.625	-167.059	-0.029693	0.609499	-0.330603	-0.331952	-0.047424	67.4494	-0.330076	-13078.5	3.626086E-6	NaN
1086	1.000000	0.648834	7.37568e+06	-54439.1	1055.82	-29743.7	0.000000	0.000000	6.648991	-0.041919	NaN	0.000000	0.001624	0.001697	28.0829	0.057121	0.002061	27.7116	89.9423	12.8587	0.033806	0.647490	-0.292617	-0.293960	-0.041919	27.7116	-0.291482	-3511.55	1.193746E-5	NaN
1086	1.000000	0.686848	7.37568e+06	-54439.1	1055.82	-29743.7	0.000000	0.000000	6.687004	-0.055456	NaN	0.000000	0.001622	0.001677	28.0831	0.036278	0.001873	19.3656	113.765	-168.956	0.040785	0.685596	-0.254603	-0.255854	-0.055456	19.3656	-0.252455	-897.211	6.180905E-5	NaN
1086	1.000000	0.724875	7.37568e+06	-54439.1	1055.82	-29743.7	0.000000	0.000000	6.725032	-0.035506	NaN	0.000000	0.001599	0.001665	28.0817	0.019831	0.002071	9.577045	35.6487	9.115912	-0.102415	0.723491	-0.216576	-0.217960	-0.035506	9.577045	-0.213795	-220.861	0.000161	NaN
1086	1.000000	0.762891	7.37568e+06	-54439.1	1055.82	-29743.7	0.000000	0.000000	6.763048	-0.051862	NaN	0.000000	0.001611	0.001659	28.0817	0.077614	0.002009	38.6288	124.166	-168.603	-0.102072	0.761587	-0.178559	-0.179864	-0.051862	38.6288	-0.177552	-55.4274	0.000936	NaN
1086	1.000000	0.800889	7.37568e+06	-54439.1	1055.82	-29743.7	0.000000	0.000000	6.801045	-0.065472	NaN	0.000000	0.001601	0.001658	28.0822	0.076611	0.002133	35.9235	139.089	11.7992	-0.150384	0.799578	-0.140562	-0.141873	-0.065472	35.9235	-0.139195	-11.4243	0.005731	NaN
1086	1.000000	0.838932	7.37568e+06	-54439.1	1055.82	-29743.7	0.000000	0.000000	6.839089	-0.025978	NaN	0.000000	0.001565	0.001633	28.0823	0.119413	0.002100	56.8618	46.2066	-166.072	-0.076777	0.837634	-0.102519	-0.103817	-0.025978	56.8618	-0.102176	-2.040488	0.012731	NaN
1086	1.000000	0.876929	7.37568e+06	-54439.1	1055.82	-29743.7	0.000000	0.000000	6.877088	-0.005159	NaN	0.000000	0.001567	0.001643	28.0831	0.036433	0.001932	18.8572	9.592980	10.9558	-0.044060	0.875547	-0.064521	-0.065903	-0.005159	18.8572	-0.064316	-0.238541	0.021629	NaN
1086	1.000000	0.914974	7.37568e+06	-54439.1	1055.82	-29743.7	0.000000	0.000000	6.915132	-0.020969	NaN	0.000000	0.001540	0.001671	28.083	0.065817	0.001900	34.6345	-1.120087	-165.199	-0.001715	0.913598	-0.026477	-0.027853	-0.020969	34.6345	-0.026023	-0.017947	1.168358	NaN
1086	2.000000	0.948022	7.37568e+06	-54439.1	1055.82	-29743.7	0.000000	0.000000	6.948563	9.293175	NaN	0.000000	0.001588	0.001662	28.083	10.3276	0.001786	5783.75	9.457788	6.196163	8.404264	0.947764	0.006572	0.006314	9.293175	5783.75	0.005366	0.004470	2078.88	79034.3
1086	2.000000	0.957515	7.37568e+06	-54439.1	1055.82	-29743.7	0.000000	0.000000	6.958643	23.5674	NaN	0.000000	0.001583	0.001655	28.0828	20.1399	0.001759	11448.8	5.356344	-176.451	24.1119	0.957191	0.016065	0.015741	23.5674	11448.8	0.014521	0.014652	1608.5	86415
1086	2.000000	0.966972	7.37568e+06	-54439.1	1055.82	-29743.7	0.000000	0.000000	6.969041	46.426	NaN	0.000000	0.001598	0.001655	28.0822	29.9457	0.001885	15886.9	6.100479	-0.901588	45.3753	0.966662	0.025522	0.025212	46.426	15886.9	0.023330	0.028047	1655.27	86669.4
1086	2.000000	0.976460	7.37568e+06	-54439.1	1055.82	-29743.7	0.000000	0.000000	6.979929	80.4613	NaN	0.000000	0.001570	0.001693	28.0821	39.0396	0.001761	22173	6.289748	176.854	80.0982	0.976092	0.035010	0.034641	80.4613	22173	0.032288	0.045620	1763.73	94846.3
1086	2.000000	0.985983	7.37568e+06	-54439.1	1055.82	-29743.7	0.000000	0.000000	6.991099	120.512	NaN	0.000000	0.001605	0.001642	28.0823	46.2493	0.001657	27907.4	4.211153	-3.590503	121.309	0.985531	0.044532	0.044080	120.512	27907.4	0.041294	0.067415	1787.62	98201.1
1086	2.000000	0.995461	7.37568e+06	-54439.1	1055.82	-29743.7	0.000000	0.000000	7.002339	163.357	NaN	0.000000	0.001578	0.001610	28.0833	56.9293	0.001803	31580.4	4.621169	175.11	163.621	0.995024	0.054010	0.053573	163.357	31580.4	0.050131	0.092818	1759.97	94705.6
1086	2.000000	1.004928	7.37568e+06	-54439.1	1055.82	-29743.7	0.000000	0.000000	7.014124	219.699	NaN	0.000000	0.001566	0.001639	28.0834	66.6988	0.001697	39295	5.328488	-7.831760	219.416	1.004524	0.063477	0.063073	219.699	39295	0.059284	0.123253	1782.51	102262
1086	2.000000	1.014342	7.37568e+06	-54439.1	1055.82	-29743.7	0.000000	0.000000	7.026142	283.016	NaN	0.000000	0.001628	0.001683	28.0831	76.5395	0.001802	42483.4	4.624535	172.679	278.708	1.013985	0.072891	0.072534	283.016	42483.4	0.067894	0.155628	1818.54	98389.3
1086	2.000000	1.023844	7.37568e+06	-54439.1	1055.82	-29743.7	0.000000	0.000000	7.037924	338.437	NaN	0.000000	0.001609	0.001674	28.0831	86.1667	0.001826	47187.6	4.843952	-9.332950	334.311	1.023723	0.082393	0.082272	338.437	47187.6	0.077014	0.193784	1746.47	97936
1086	2.000000	1.033395	7.37568e+06	-54439.1	1055.82	-29743.7	0.000000	0.000000	7.051206	429.136	NaN	0.000000	0.001633	0.001668	28.0816	94.9446	0.001819	52199.9	1.358380	174.752	431.297	1.033080	0.091944	0.091629	429.136	52199.9	0.085778	0.234128	1832.91	98563.5
1086	2.000000	1.042756	7.37568e+06	-54439.1	1055.82	-29743.7	0.000000	0.000000	7.064122	515.566	NaN	0.000000	0.001588	0.001674	28.0819	103.545	0.001775	58334.6	2.906488	-7.195118	507.36	1.042274	0.101305	0.100823	515.566	58334.6	0.094677	0.278715	1849.8	100953
1086	2.000000	1.044735	7.37568e+06	-54439.1	1055.82	-29743.7	0.000000	0.000000	7.066429	523.547	NaN	0.000000	0.001593	0.001700	28.0816	106.015	0.001885	56237.7	3.598785	-8.153010	514.129	1.044430	0.103284	0.102980	523.547	56237.7	0.096302	0.287249	1822.62	95867.5