File: remote_trans/data/nanoindenter/0828-1/data/Data_2025-08-06,11h17m57s/2025-07-22_16-23-58_1_449.txt
2025-07-22, 16:23:58, 1
Index	Phase	Displacement	Time	Pos X	Pos Y	Pos Z	Rot A	Rot B	Piezo Z	Force A	Force B	Gripper	Voltage A	Voltage B	Temperature	Amplitude force	Amplitude pos	Stiffness	Phase shift	Phase excitation	Force A raw	Displacement raw	HMax	HMax raw	Real Force	Real Stiffness	Contact Depth	Area	Hardness	Reduced Mod.
[#]	[#]	[um]	[s]	[um]	[um]	[um]	[m°]	[m°]	[um]	[uN]	[uN]	[V]	[V]	[V]	[°C]	[uN]	[um]	[N/m]	[°]	[°]	[uN]	[um]	[um]	[um]	[uN]	[N/m]	[um]	[um^2]	[MPa]	[MPa]
449	1.000000	0.001741	7.36945e+06	-54639.1	1005.82	-29743.2	0.000000	0.000000	6.002802	-0.042767	NaN	0.000000	0.001634	0.001753	28.0824	0.105330	0.000879	119.801	-128.049	-168.386	-0.010997	0.000518	-1.055615	-1.056838	-0.042767	119.801	-1.055347	-1.259751E+14	3.394856E-16	NaN
449	1.000000	0.041692	7.36945e+06	-54639.1	1005.82	-29743.2	0.000000	0.000000	6.042753	-0.009597	NaN	0.000000	0.001606	0.001747	28.0812	0.062887	0.001908	32.9522	73.5303	-161.633	0.020396	0.040415	-1.015664	-1.016941	-0.009597	32.9522	-1.015446	-3.661597E+13	2.621107E-16	NaN
449	1.000000	0.081725	7.36945e+06	-54639.1	1005.82	-29743.2	0.000000	0.000000	6.082784	-0.057226	NaN	0.000000	0.001552	0.001748	28.0811	0.133187	0.002023	65.8305	153.622	-164.009	-0.003412	0.080332	-0.975631	-0.977024	-0.057226	65.8305	-0.974979	-1.044149E+13	5.480600E-15	NaN
449	1.000000	0.121711	7.36945e+06	-54639.1	1005.82	-29743.2	0.000000	0.000000	6.122772	-0.022465	NaN	0.000000	0.001540	0.001740	28.0809	0.059387	0.002075	28.6181	17.688	-167.669	-0.026511	0.120416	-0.935645	-0.936940	-0.022465	28.6181	-0.935057	-3.022996E+12	7.431359E-15	NaN
449	1.000000	0.161731	7.36945e+06	-54639.1	1005.82	-29743.2	0.000000	0.000000	6.162794	0.032692	NaN	0.000000	0.001564	0.001730	28.0812	0.021124	0.001916	11.0264	138.376	-165.896	-0.007798	0.160449	-0.895626	-0.896907	0.032692	11.0264	-0.897849	-9.506098E+11	-3.439053E-14	NaN
449	1.000000	0.201772	7.36945e+06	-54639.1	1005.82	-29743.3	0.000000	0.000000	6.202831	-0.057271	NaN	0.000000	0.001574	0.001723	28.082	0.052239	0.002030	25.733	-120.664	-167.379	-0.047141	0.200402	-0.855585	-0.856954	-0.057271	25.733	-0.853915	-2.419647E+11	2.366923E-13	NaN
449	1.000000	0.241742	7.36945e+06	-54639.1	1005.82	-29743.3	0.000000	0.000000	6.242804	0.004681	NaN	0.000000	0.001655	0.001785	28.0818	0.016732	0.002011	8.319566	-132.268	-163.868	-0.050614	0.240453	-0.815614	-0.816903	0.004681	8.319566	-0.816036	-7.420796E+10	-6.308235E-14	NaN
449	1.000000	0.281765	7.36945e+06	-54639.1	1005.82	-29743.3	0.000000	0.000000	6.282827	-0.000468	NaN	0.000000	0.001587	0.001694	28.082	0.019634	0.001982	9.906336	-19.1941	-161.035	-0.092083	0.280487	-0.775591	-0.776869	-0.000468	9.906336	-0.775556	-2.093300E+10	2.236682E-14	NaN
449	1.000000	0.321805	7.36945e+06	-54639.1	1005.82	-29743.3	0.000000	0.000000	6.322867	-0.008587	NaN	0.000000	0.001621	0.001731	28.081	0.031319	0.002051	15.2677	121.758	-166.386	0.051343	0.320477	-0.735551	-0.736880	-0.008587	15.2677	-0.735129	-5.897927E+9	1.455946E-12	NaN
449	1.000000	0.361806	7.36945e+06	-54639.1	1005.82	-29743.3	0.000000	0.000000	6.362866	-0.056672	NaN	0.000000	0.001568	0.001667	28.081	0.031162	0.002057	15.1478	53.271	-165.266	0.007473	0.360480	-0.695550	-0.696876	-0.056672	15.1478	-0.692744	-1.557436E+9	3.638819E-11	NaN
449	1.000000	0.401840	7.36945e+06	-54639.1	1005.82	-29743.3	0.000000	0.000000	6.402900	-0.040275	NaN	0.000000	0.001540	0.001729	28.0806	0.041738	0.002031	20.5499	-3.428704	-163.614	-0.080070	0.400574	-0.655516	-0.656782	-0.040275	20.5499	-0.654046	-4.601495E+8	8.752628E-11	NaN
449	1.000000	0.441876	7.36945e+06	-54639.1	1005.82	-29743.3	0.000000	0.000000	6.442938	-0.009730	NaN	0.000000	0.001653	0.001716	28.0808	0.051688	0.001974	26.1793	-38.0975	-162.481	0.011358	0.440578	-0.615480	-0.616778	-0.009730	26.1793	-0.615201	-1.347900E+8	7.218675E-11	NaN
449	1.000000	0.481863	7.36945e+06	-54639.1	1005.82	-29743.3	0.000000	0.000000	6.482925	0.013512	NaN	0.000000	0.001670	0.001757	28.082	0.034061	0.001867	18.2394	88.8241	-161.992	-0.013772	0.480535	-0.575493	-0.576821	0.013512	18.2394	-0.576049	-3.892075E+7	-3.471556E-10	NaN
449	1.000000	0.521857	7.36945e+06	-54639.1	1005.82	-29743.3	0.000000	0.000000	6.522919	0.001693	NaN	0.000000	0.001664	0.001759	28.0819	0.136627	0.001950	70.0685	-141.735	-165.121	0.016173	0.520525	-0.535499	-0.536831	0.001693	70.0685	-0.535518	-1.069481E+7	-1.582772E-10	NaN
449	1.000000	0.561867	7.36945e+06	-54639.1	1005.82	-29743.3	0.000000	0.000000	6.562925	-0.076823	NaN	0.000000	0.001562	0.001796	28.082	0.068072	0.001945	34.9894	23.4326	-161.217	-0.114583	0.560590	-0.495489	-0.496766	-0.076823	34.9894	-0.493843	-2.81238e+06	2.731595E-8	NaN
449	1.000000	0.601918	7.36945e+06	-54639.1	1005.82	-29743.3	0.000000	0.000000	6.602978	-0.044351	NaN	0.000000	0.001540	0.001793	28.0809	0.162292	0.002092	77.5923	-138.193	-162.282	2.650901E-5	0.600601	-0.455438	-0.456755	-0.044351	77.5923	-0.455009	-803245	5.521416E-8	NaN
449	1.000000	0.641939	7.36945e+06	-54639.1	1005.82	-29743.3	0.000000	0.000000	6.642997	-0.084967	NaN	0.000000	0.001588	0.001787	28.0809	0.060967	0.002015	30.2522	-94.8016	-168.184	-0.050147	0.640645	-0.415417	-0.416711	-0.084967	30.2522	-0.413311	-206755	4.109524E-7	NaN
449	1.000000	0.681932	7.36945e+06	-54639.1	1005.82	-29743.3	0.000000	0.000000	6.682992	-0.046415	NaN	0.000000	0.001537	0.001789	28.0809	0.035133	0.002042	17.2042	172.474	-159.159	-0.030379	0.680635	-0.375424	-0.376721	-0.046415	17.2042	-0.373401	-55600.5	8.347885E-7	NaN
449	1.000000	0.721952	7.36945e+06	-54639.1	1005.82	-29743.3	0.000000	0.000000	6.723011	-0.064579	NaN	0.000000	0.001586	0.001768	28.0824	0.092091	0.001982	46.4753	-25.5753	-165.791	-0.056566	0.720679	-0.335404	-0.336677	-0.064579	46.4753	-0.334362	-15110	4.273951E-6	NaN
449	1.000000	0.761977	7.36945e+06	-54639.1	1005.82	-29743.3	0.000000	0.000000	6.763037	-0.029723	NaN	0.000000	0.001533	0.001785	28.0824	0.040957	0.002045	20.0316	-5.128466	-162.6	0.003355	0.760679	-0.295380	-0.296677	-0.029723	20.0316	-0.294267	-3864.87	7.690551E-6	NaN
449	1.000000	0.801978	7.36945e+06	-54639.1	1005.82	-29743.3	0.000000	0.000000	6.803040	0.005954	NaN	0.000000	0.001626	0.001785	28.0821	0.049441	0.001969	25.1083	74.8474	-166.023	-0.010410	0.800719	-0.255378	-0.256637	0.005954	25.1083	-0.255556	-1001.55	-5.945077E-6	NaN
449	1.000000	0.842026	7.36945e+06	-54639.1	1005.82	-29743.3	0.000000	0.000000	6.843088	0.001905	NaN	0.000000	0.001622	0.001776	28.0822	0.158554	0.001965	80.6923	27.8378	-165.279	-0.004404	0.840647	-0.215330	-0.216709	0.001905	80.6923	-0.215348	-233.94	-8.143251E-6	NaN
449	1.000000	0.882019	7.36945e+06	-54639.1	1005.82	-29743.3	0.000000	0.000000	6.883081	0.016803	NaN	0.000000	0.001564	0.001748	28.0806	0.092139	0.002069	44.5403	140.39	-163.638	-0.005598	0.880687	-0.175337	-0.176669	0.016803	44.5403	-0.175620	-51.3611	-0.000327	NaN
449	1.000000	0.922025	7.36945e+06	-54639.1	1005.82	-29743.3	0.000000	0.000000	6.923086	-0.009154	NaN	0.000000	0.001556	0.001778	28.0808	0.057739	0.002015	28.648	-102.118	-164.881	-0.002141	0.920761	-0.135331	-0.136595	-0.009154	28.648	-0.135092	-9.550758	0.000958	NaN
449	1.000000	0.962025	7.36945e+06	-54639.1	1005.82	-29743.3	0.000000	0.000000	6.963087	-0.015015	NaN	0.000000	0.001559	0.001779	28.0809	0.127392	0.002011	63.3456	2.989649	-167.755	-0.003635	0.960782	-0.095331	-0.096574	-0.015015	63.3456	-0.095153	-1.421994	0.010559	NaN
449	1.000000	1.002099	7.36945e+06	-54639.1	1005.82	-29743.3	0.000000	0.000000	7.003164	0.063600	NaN	0.000000	0.001586	0.001782	28.0821	0.052700	0.002227	23.661	178.671	-161.505	0.140245	1.000762	-0.055257	-0.056594	0.063600	23.661	-0.057273	-0.150175	-0.423507	NaN
449	1.000000	1.042095	7.36945e+06	-54639.1	1005.82	-29743.3	0.000000	0.000000	7.043154	-0.083701	NaN	0.000000	0.001569	0.001759	28.0824	0.030111	0.001908	15.7787	8.327489	-165.273	-0.151319	1.040771	-0.015261	-0.016585	-0.083701	15.7787	-0.011282	-0.007119	11.7573	NaN
449	2.000000	1.072643	7.36945e+06	-54639.1	1005.82	-29743.3	0.000000	0.000000	7.074327	15.1083	NaN	0.000000	0.001590	0.001720	28.0824	12.7045	0.001719	7391.66	3.410256	-169.905	14.0752	1.072320	0.015287	0.014964	15.1083	7391.66	0.013754	0.013660	1106.02	57781.3
449	2.000000	1.082617	7.36945e+06	-54639.1	1005.82	-29743.3	0.000000	0.000000	7.085002	32.188	NaN	0.000000	0.001550	0.001701	28.0823	22.1818	0.001701	13042.9	4.151211	-176.18	32.2698	1.082329	0.025260	0.024973	32.188	13042.9	0.023410	0.028186	1142	70979.6
449	2.000000	1.092526	7.36946e+06	-54639.1	1005.82	-29743.3	0.000000	0.000000	7.095977	58.0774	NaN	0.000000	0.001558	0.001698	28.0812	32.4715	0.001803	18013.6	2.881049	-176.959	56.6613	1.092199	0.035170	0.034843	58.0774	18013.6	0.032752	0.046641	1245.2	76206.1
449	2.000000	1.102535	7.36946e+06	-54639.1	1005.82	-29743.3	0.000000	0.000000	7.107389	92.1813	NaN	0.000000	0.001607	0.001690	28.081	41.4137	0.001828	22655	1.154992	-176.876	91.4804	1.102210	0.045179	0.044854	92.1813	22655	0.042128	0.069643	1323.63	78433
449	2.000000	1.112534	7.36946e+06	-54639.1	1005.82	-29743.3	0.000000	0.000000	7.118802	126.549	NaN	0.000000	0.001550	0.001704	28.0807	52.124	0.001885	27651.6	7.149538	175.078	125.577	1.112217	0.055178	0.054861	126.549	27651.6	0.051746	0.097886	1292.83	80748.6
449	2.000000	1.122473	7.36946e+06	-54639.1	1005.82	-29743.3	0.000000	0.000000	7.130790	176.383	NaN	0.000000	0.001582	0.001729	28.0821	61.3463	0.001827	33575.2	7.414114	172.889	176.032	1.122210	0.065117	0.064854	176.383	33575.2	0.061177	0.130061	1356.16	85058.7
449	2.000000	1.132398	7.36946e+06	-54639.1	1005.82	-29743.3	0.000000	0.000000	7.143307	239.386	NaN	0.000000	0.001607	0.001777	28.082	70.0344	0.001862	37614.7	5.406090	174.18	235.047	1.132100	0.075042	0.074744	239.386	37614.7	0.070269	0.165182	1449.22	84557
449	2.000000	1.142480	7.36946e+06	-54639.1	1005.82	-29743.3	0.000000	0.000000	7.156349	311.334	NaN	0.000000	0.001588	0.001701	28.0823	80.2301	0.001722	46591.5	7.317478	170.609	310.99	1.142179	0.085124	0.084823	311.334	46591.5	0.080112	0.207639	1499.4	93416.8
449	2.000000	1.152444	7.36946e+06	-54639.1	1005.82	-29743.3	0.000000	0.000000	7.169809	396.337	NaN	0.000000	0.001560	0.001720	28.0813	90.9584	0.001845	49288.3	4.308590	173.331	393.883	1.152143	0.095088	0.094787	396.337	49288.3	0.089057	0.250135	1584.49	90038.9
449	2.000000	1.162464	7.36946e+06	-54639.1	1005.82	-29743.3	0.000000	0.000000	7.184075	499.562	NaN	0.000000	0.001663	0.001716	28.0811	101.461	0.001766	57466.1	5.641458	171.081	499.559	1.162128	0.105108	0.104772	499.562	57466.1	0.098588	0.299459	1668.21	95943.6
449	2.000000	1.167917	7.36946e+06	-54639.1	1005.82	-29743.3	0.000000	0.000000	7.191415	545.442	NaN	0.000000	0.001575	0.001723	28.0811	106.574	0.001861	57260.2	4.907573	-8.279473	541.187	1.167501	0.110561	0.110145	545.442	57260.2	0.103416	0.326027	1672.99	91621.8