File: remote_trans/data/nanoindenter/0828-1/data/Data_2025-08-06,11h17m57s/2025-07-22_16-23-58_1_415.txt
2025-07-22, 16:23:58, 1
Index	Phase	Displacement	Time	Pos X	Pos Y	Pos Z	Rot A	Rot B	Piezo Z	Force A	Force B	Gripper	Voltage A	Voltage B	Temperature	Amplitude force	Amplitude pos	Stiffness	Phase shift	Phase excitation	Force A raw	Displacement raw	HMax	HMax raw	Real Force	Real Stiffness	Contact Depth	Area	Hardness	Reduced Mod.
[#]	[#]	[um]	[s]	[um]	[um]	[um]	[m°]	[m°]	[um]	[uN]	[uN]	[V]	[V]	[V]	[°C]	[uN]	[um]	[N/m]	[°]	[°]	[uN]	[um]	[um]	[um]	[uN]	[N/m]	[um]	[um^2]	[MPa]	[MPa]
415	1.000000	0.002900	7.36912e+06	-56339.1	1005.82	-29739.4	0.000000	0.000000	6.002815	0.047283	NaN	0.000000	0.001663	0.001743	28.079	0.111611	0.001045	106.788	-63.5897	-164.017	-0.006681	0.001641	-1.109005	-1.110265	0.047283	106.788	-1.109338	-6.689557E+14	-7.068111E-17	NaN
415	1.000000	0.044829	7.36912e+06	-56339.1	1005.82	-29739.4	0.000000	0.000000	6.044742	-0.008415	NaN	0.000000	0.001666	0.001642	28.0791	0.015478	0.001894	8.172294	151.423	14.3151	-0.083158	0.043438	-1.067076	-1.068467	-0.008415	8.172294	-1.066304	-1.768178E+14	4.759110E-17	NaN
415	1.000000	0.086821	7.36912e+06	-56339.1	1005.82	-29739.4	0.000000	0.000000	6.086733	-0.036666	NaN	0.000000	0.001636	0.001668	28.079	0.069355	0.002000	34.6709	-121.504	-164.586	-0.021864	0.085559	-1.025084	-1.026347	-0.036666	34.6709	-1.024291	-4.815937E+13	7.613441E-16	NaN
415	1.000000	0.128861	7.36912e+06	-56339.1	1005.82	-29739.4	0.000000	0.000000	6.128775	0.014438	NaN	0.000000	0.001660	0.001634	28.0802	0.045550	0.002000	22.773	-8.776474	16.1086	0.035461	0.127487	-0.983044	-0.984419	0.014438	22.773	-0.983520	-1.360913E+13	-1.060915E-15	NaN
415	1.000000	0.170862	7.36912e+06	-56339.1	1005.82	-29739.4	0.000000	0.000000	6.170776	0.013088	NaN	0.000000	0.001626	0.001641	28.0803	0.066003	0.001916	34.4403	-12.5934	-164.221	0.044025	0.169528	-0.941043	-0.942378	0.013088	34.4403	-0.941328	-3.673300E+12	-3.562950E-15	NaN
415	1.000000	0.212911	7.36912e+06	-56339.1	1005.82	-29739.4	0.000000	0.000000	6.212825	0.028355	NaN	0.000000	0.001681	0.001668	28.08	0.021156	0.001889	11.2	168.784	15.1478	0.027709	0.211579	-0.898995	-0.900327	0.028355	11.2	-0.900893	-1.045049E+12	-2.713295E-14	NaN
415	1.000000	0.254919	7.36912e+06	-56339.1	1005.82	-29739.4	0.000000	0.000000	6.254832	-0.009914	NaN	0.000000	0.001653	0.001664	28.08	0.033947	0.002052	16.5467	98.5305	-164.333	-0.084519	0.253613	-0.856986	-0.858292	-0.009914	16.5467	-0.856537	-2.625695E+11	3.775799E-14	NaN
415	1.000000	0.296986	7.36912e+06	-56339.1	1005.82	-29739.4	0.000000	0.000000	6.296899	0.002073	NaN	0.000000	0.001727	0.001679	28.0791	0.042259	0.002016	20.9597	-113.239	14.749	0.055946	0.295522	-0.814919	-0.816383	0.002073	20.9597	-0.814993	-7.183068E+10	-2.885596E-14	NaN
415	1.000000	0.338965	7.36912e+06	-56339.1	1005.82	-29739.4	0.000000	0.000000	6.338876	-0.051707	NaN	0.000000	0.001663	0.001654	28.0789	0.017880	0.001886	9.479358	-135.526	-166.775	0.018186	0.337630	-0.772941	-0.774275	-0.051707	9.479358	-0.768850	-1.696928E+10	3.047103E-12	NaN
415	1.000000	0.380975	7.36912e+06	-56339.1	1005.82	-29739.4	0.000000	0.000000	6.380889	0.001549	NaN	0.000000	0.001692	0.001656	28.0793	0.095386	0.002115	45.0905	140.951	17.6566	-0.015118	0.379597	-0.730930	-0.732309	0.001549	45.0905	-0.730956	-5.174090E+9	-2.993023E-13	NaN
415	1.000000	0.423007	7.36912e+06	-56339.1	1005.82	-29739.4	0.000000	0.000000	6.422922	0.050678	NaN	0.000000	0.001693	0.001662	28.0802	0.072184	0.001930	37.3956	-156.355	-166.237	0.046330	0.421716	-0.688899	-0.690189	0.050678	37.3956	-0.689915	-1.424814E+9	-3.556849E-11	NaN
415	1.000000	0.465018	7.36912e+06	-56339.1	1005.82	-29739.4	0.000000	0.000000	6.464933	0.029018	NaN	0.000000	0.001684	0.001722	28.0802	0.125763	0.001953	64.3945	8.040270	14.085	0.016124	0.463642	-0.646887	-0.648263	0.029018	64.3945	-0.647225	-3.710157E+8	-7.821196E-11	NaN
415	1.000000	0.507026	7.36912e+06	-56339.1	1005.82	-29739.4	0.000000	0.000000	6.506938	-0.016888	NaN	0.000000	0.001642	0.001673	28.0803	0.055462	0.002016	27.5088	-158.127	-166.518	-0.001113	0.505692	-0.604880	-0.606213	-0.016888	27.5088	-0.604419	-9.578790E+7	1.763036E-10	NaN
415	1.000000	0.549049	7.36912e+06	-56339.1	1005.82	-29739.4	0.000000	0.000000	6.548963	0.013231	NaN	0.000000	0.001649	0.001715	28.079	0.031947	0.002035	15.7	43.2949	14.5376	0.009465	0.547632	-0.562856	-0.564273	0.013231	15.7	-0.563488	-2.609890E+7	-5.069563E-10	NaN
415	1.000000	0.591048	7.36912e+06	-56339.1	1005.82	-29739.4	0.000000	0.000000	6.590963	0.064694	NaN	0.000000	0.001663	0.001718	28.0792	0.051365	0.001927	26.6614	-155.51	-163.382	-0.012906	0.589747	-0.520858	-0.522159	0.064694	26.6614	-0.522678	-7.09299e+06	-9.120792E-9	NaN
415	1.000000	0.633075	7.36912e+06	-56339.1	1005.82	-29739.4	0.000000	0.000000	6.632988	0.004737	NaN	0.000000	0.001716	0.001706	28.0826	0.080295	0.002020	39.7415	28.8663	16.8699	-0.072976	0.631740	-0.478830	-0.480165	0.004737	39.7415	-0.478920	-1.73942e+06	-2.723039E-9	NaN
415	1.000000	0.675126	7.36912e+06	-56339.1	1005.82	-29739.4	0.000000	0.000000	6.675040	0.015753	NaN	0.000000	0.001679	0.001689	28.0801	0.089994	0.001956	46.001	142.515	-165.139	0.021190	0.673825	-0.436780	-0.438080	0.015753	46.001	-0.437036	-448252	-3.514303E-8	NaN
415	1.000000	0.717122	7.36912e+06	-56339.1	1005.82	-29739.4	0.000000	0.000000	6.717036	0.021913	NaN	0.000000	0.001729	0.001678	28.0801	0.102562	0.001999	51.3089	-14.8176	13.1628	0.072457	0.715774	-0.394784	-0.396131	0.021913	51.3089	-0.395104	-113794	-1.925657E-7	NaN
415	1.000000	0.759107	7.36912e+06	-56339.1	1005.82	-29739.4	0.000000	0.000000	6.759019	-0.012174	NaN	0.000000	0.001752	0.001685	28.0799	0.092045	0.002040	45.11	146.526	-164.998	0.020020	0.757877	-0.352799	-0.354029	-0.012174	45.11	-0.352596	-27839.7	4.373028E-7	NaN
415	1.000000	0.801169	7.36912e+06	-56339.1	1005.82	-29739.4	0.000000	0.000000	6.801084	0.051281	NaN	0.000000	0.001706	0.001709	28.0801	0.073168	0.001957	37.3971	153.27	14.5955	-0.004925	0.799733	-0.310737	-0.312172	0.051281	37.3971	-0.311765	-7033.4	-7.291016E-6	NaN
415	1.000000	0.843162	7.36912e+06	-56339.1	1005.82	-29739.4	0.000000	0.000000	6.843078	0.058992	NaN	0.000000	0.001759	0.001711	28.0785	0.067606	0.001957	34.545	-101.436	-166.981	0.081983	0.841858	-0.268743	-0.270047	0.058992	34.545	-0.270024	-1666.91	-3.539015E-5	NaN
415	1.000000	0.885180	7.36912e+06	-56339.1	1005.82	-29739.4	0.000000	0.000000	6.885091	-0.067473	NaN	0.000000	0.001722	0.001700	28.0784	0.055803	0.001824	30.5964	-106.938	14.3597	-0.066745	0.883889	-0.226725	-0.228016	-0.067473	30.5964	-0.225071	-334.554	0.000202	NaN
415	1.000000	0.927187	7.36912e+06	-56339.1	1005.82	-29739.4	0.000000	0.000000	6.927100	0.010301	NaN	0.000000	0.001715	0.001747	28.0786	0.078265	0.001880	41.6216	111.071	-163.769	-0.066819	0.925877	-0.184719	-0.186028	0.010301	41.6216	-0.184904	-73.8783	-0.000139	NaN
415	1.000000	0.969200	7.36912e+06	-56339.1	1005.82	-29739.4	0.000000	0.000000	6.969111	-0.042735	NaN	0.000000	0.001768	0.001766	28.0798	0.125971	0.001865	67.5598	-105.247	14.4793	-0.012707	0.967883	-0.142705	-0.144022	-0.042735	67.5598	-0.142231	-13.0236	0.003281	NaN
415	1.000000	1.011226	7.36912e+06	-56339.1	1005.82	-29739.4	0.000000	0.000000	7.011140	0.027223	NaN	0.000000	0.001779	0.001764	28.0795	0.103207	0.002031	50.8086	171.993	-164.068	0.110992	1.009891	-0.100679	-0.102014	0.027223	50.8086	-0.101081	-1.930495	-0.014102	NaN
415	1.000000	1.053290	7.36912e+06	-56339.1	1005.82	-29739.4	0.000000	0.000000	7.053205	0.054792	NaN	0.000000	0.001778	0.001711	28.0797	0.017863	0.001835	9.733731	68.4444	15.4049	-0.010715	1.051817	-0.058615	-0.060088	0.054792	9.733731	-0.062837	-0.216837	-0.252688	NaN
415	1.000000	1.095269	7.36912e+06	-56339.1	1005.82	-29739.4	0.000000	0.000000	7.095183	0.016893	NaN	0.000000	0.001743	0.001766	28.0782	0.063051	0.001978	31.8723	110.167	-163.293	0.046304	1.093948	-0.016636	-0.017957	0.016893	31.8723	-0.017034	-0.010532	-1.603922	NaN
415	2.000000	1.124306	7.36912e+06	-56339.1	1005.82	-29739.4	0.000000	0.000000	7.124962	18.0551	NaN	0.000000	0.001725	0.001688	28.0783	14.1075	0.001742	8099.98	2.678054	8.109856	17.7481	1.123936	0.012401	0.012031	18.0551	8099.98	0.010729	0.010003	1804.98	73993.6
415	2.000000	1.134780	7.36913e+06	-56339.1	1005.82	-29739.4	0.000000	0.000000	7.136106	34.3341	NaN	0.000000	0.001750	0.001726	28.0784	24.7484	0.001757	14088	8.158826	179.524	35.0323	1.134395	0.022875	0.022489	34.3341	14088	0.021047	0.024215	1417.91	82715.1
415	2.000000	1.145226	7.36913e+06	-56339.1	1005.82	-29739.4	0.000000	0.000000	7.147671	61.5331	NaN	0.000000	0.001648	0.001719	28.0799	34.6733	0.001851	18733	3.954029	0.063210	59.5742	1.144859	0.033321	0.032954	61.5331	18733	0.030857	0.042539	1446.5	82982.3
415	2.000000	1.155617	7.36913e+06	-56339.1	1005.82	-29739.4	0.000000	0.000000	7.159656	100.284	NaN	0.000000	0.001683	0.001729	28.0798	44.5784	0.001846	24154	3.952299	178.603	96.4329	1.155376	0.043711	0.043470	100.284	24154	0.040597	0.065582	1529.15	86172.9
415	2.000000	1.166130	7.36913e+06	-56339.1	1005.82	-29739.4	0.000000	0.000000	7.172077	146.67	NaN	0.000000	0.001663	0.001717	28.0796	54.8553	0.001720	31885.3	2.765381	-3.031238	141.782	1.165824	0.054224	0.053919	146.67	31885.3	0.050774	0.094822	1546.8	94604.2
415	2.000000	1.176704	7.36913e+06	-56339.1	1005.82	-29739.4	0.000000	0.000000	7.184725	197.075	NaN	0.000000	0.001669	0.001687	28.0798	64.9073	0.001729	37542.5	3.617194	175.022	196.868	1.176319	0.064798	0.064414	197.075	37542.5	0.060861	0.128915	1528.73	95531.2
415	2.000000	1.187149	7.36913e+06	-56339.1	1005.82	-29739.4	0.000000	0.000000	7.197430	252.003	NaN	0.000000	0.001656	0.001718	28.0785	76.1519	0.001828	41659.9	0.352315	-2.208023	250.432	1.186808	0.075244	0.074903	252.003	41659.9	0.070707	0.166975	1509.23	93146.3
415	2.000000	1.197545	7.36913e+06	-56339.1	1005.82	-29739.4	0.000000	0.000000	7.210402	314.631	NaN	0.000000	0.001678	0.001728	28.0786	85.0607	0.001730	49159.4	0.472096	176.556	308.992	1.197412	0.085639	0.085506	314.631	49159.4	0.080839	0.210954	1491.47	97788.1
415	2.000000	1.208123	7.36913e+06	-56339.1	1005.82	-29739.4	0.000000	0.000000	7.224334	396.144	NaN	0.000000	0.001590	0.001723	28.0783	95.7607	0.001773	54016.4	4.424243	-8.296418	394.986	1.207805	0.096218	0.095900	396.144	54016.4	0.090718	0.258429	1532.89	97079.7
415	2.000000	1.218667	7.36913e+06	-56339.1	1005.82	-29739.4	0.000000	0.000000	7.238043	473.079	NaN	0.000000	0.001633	0.001728	28.0796	105.625	0.001818	58099.7	9.366062	166.951	476.293	1.218334	0.106761	0.106429	473.079	58099.7	0.100655	0.310701	1522.62	95230.5