File: remote_trans/data/nanoindenter/0828-1/data/Data_2025-08-06,11h17m57s/2025-07-22_16-23-58_1_1095.txt
2025-07-22, 16:23:58, 1
Index	Phase	Displacement	Time	Pos X	Pos Y	Pos Z	Rot A	Rot B	Piezo Z	Force A	Force B	Gripper	Voltage A	Voltage B	Temperature	Amplitude force	Amplitude pos	Stiffness	Phase shift	Phase excitation	Force A raw	Displacement raw	HMax	HMax raw	Real Force	Real Stiffness	Contact Depth	Area	Hardness	Reduced Mod.
[#]	[#]	[um]	[s]	[um]	[um]	[um]	[m°]	[m°]	[um]	[uN]	[uN]	[V]	[V]	[V]	[°C]	[uN]	[um]	[N/m]	[°]	[°]	[uN]	[um]	[um]	[um]	[uN]	[N/m]	[um]	[um^2]	[MPa]	[MPa]
1095	1.000000	0.002800	7.37576e+06	-54889.1	1055.82	-29742	0.000000	0.000000	6.002802	-0.003911	NaN	0.000000	0.001624	0.001763	28.083	0.079368	0.001018	77.9818	147.128	-159.44	-0.013194	0.001562	-1.729995	-1.731233	-0.003911	77.9818	-1.729958	-1.271564E+23	3.075902E-26	NaN
1095	1.000000	0.060733	7.37576e+06	-54889.1	1055.82	-29742	0.000000	0.000000	6.060735	-0.018038	NaN	0.000000	0.001605	0.001706	28.0829	0.081439	0.002020	40.3147	-147.287	11.1986	-0.035251	0.059393	-1.672062	-1.673402	-0.018038	40.3147	-1.671726	-2.141793E+22	8.421820E-25	NaN
1095	1.000000	0.118777	7.37576e+06	-54889.1	1055.82	-29742	0.000000	0.000000	6.118780	0.019372	NaN	0.000000	0.001625	0.001721	28.0817	0.141489	0.002054	68.8767	33.008	-167.943	0.024407	0.117417	-1.614018	-1.615378	0.019372	68.8767	-1.614229	-3.685199E+21	-5.256636E-24	NaN
1095	1.000000	0.176790	7.37576e+06	-54889.1	1055.82	-29742	0.000000	0.000000	6.176792	0.000401	NaN	0.000000	0.001719	0.001753	28.0815	0.041159	0.002127	19.3508	-100.902	16.1924	-0.028919	0.175463	-1.556005	-1.557332	0.000401	19.3508	-1.556020	-6.196110E+20	-6.466230E-25	NaN
1095	1.000000	0.234831	7.37576e+06	-54889.1	1055.82	-29742	0.000000	0.000000	6.234833	0.002698	NaN	0.000000	0.001696	0.001718	28.0831	0.100104	0.001987	50.3848	-130.52	-165.302	0.104923	0.233495	-1.497964	-1.499300	0.002698	50.3848	-1.498004	-1.046484E+20	-2.577838E-23	NaN
1095	1.000000	0.292843	7.37576e+06	-54889.1	1055.82	-29742	0.000000	0.000000	6.292844	-0.026413	NaN	0.000000	0.001696	0.001697	28.083	0.148813	0.001976	75.2921	42.6607	14.1372	-0.093432	0.291501	-1.439952	-1.441294	-0.026413	75.2921	-1.439689	-1.748672E+19	1.510471E-21	NaN
1095	1.000000	0.350874	7.37576e+06	-54889.1	1055.82	-29742	0.000000	0.000000	6.350875	-0.035808	NaN	0.000000	0.001632	0.001723	28.0818	0.069957	0.001976	35.3965	-45.4128	-164.598	-0.037895	0.349578	-1.381921	-1.383217	-0.035808	35.3965	-1.381162	-2.898349E+18	1.235448E-20	NaN
1095	1.000000	0.408916	7.37576e+06	-54889.1	1055.82	-29742	0.000000	0.000000	6.408919	-0.001246	NaN	0.000000	0.001653	0.001745	28.0815	0.056773	0.001945	29.1846	99.056	13.8467	-0.026197	0.407543	-1.323879	-1.325252	-0.001246	29.1846	-1.323847	-4.977213E+17	2.502848E-21	NaN
1095	1.000000	0.466896	7.37576e+06	-54889.1	1055.82	-29742	0.000000	0.000000	6.466897	-0.014092	NaN	0.000000	0.001576	0.001710	28.0817	0.007442	0.001992	3.736771	-135.401	-166.853	-0.005044	0.465606	-1.265899	-1.267189	-0.014092	3.736771	-1.263071	-7.669003E+16	1.837573E-19	NaN
1095	1.000000	0.524966	7.37577e+06	-54889.1	1055.82	-29742	0.000000	0.000000	6.524968	-0.005413	NaN	0.000000	0.001697	0.001770	28.083	0.109568	0.001803	60.7796	-48.1062	12.521	-0.014401	0.523633	-1.207829	-1.209162	-0.005413	60.7796	-1.207762	-1.395352E+16	3.879049E-19	NaN
1095	1.000000	0.582976	7.37577e+06	-54889.1	1055.82	-29742	0.000000	0.000000	6.582982	0.089988	NaN	0.000000	0.001702	0.001741	28.083	0.102209	0.002055	49.7248	-56.3861	-165.991	0.070248	0.581628	-1.149819	-1.151167	0.089988	49.7248	-1.151176	-2.435494E+15	-3.694843E-17	NaN
1095	1.000000	0.641024	7.37577e+06	-54889.1	1055.82	-29742	0.000000	0.000000	6.641027	0.018512	NaN	0.000000	0.001637	0.001721	28.0816	0.039296	0.002031	19.3506	63.7408	11.0007	-0.030242	0.639633	-1.091771	-1.093162	0.018512	19.3506	-1.092488	-3.973955E+14	-4.658405E-17	NaN
1095	1.000000	0.698972	7.37577e+06	-54889.1	1055.82	-29742	0.000000	0.000000	6.698974	0.003133	NaN	0.000000	0.001672	0.001704	28.0816	0.032138	0.001999	16.0763	158.825	-166.664	0.000872	0.697708	-1.033823	-1.035087	0.003133	16.0763	-1.033970	-6.499368E+13	-4.819973E-17	NaN
1095	1.000000	0.757027	7.37577e+06	-54889.1	1055.82	-29742	0.000000	0.000000	6.757031	0.034825	NaN	0.000000	0.001566	0.001758	28.083	0.106411	0.001973	53.9459	-114.664	12.3087	0.002138	0.755663	-0.975768	-0.977132	0.034825	53.9459	-0.976252	-1.086200E+13	-3.206178E-15	NaN
1095	1.000000	0.815084	7.37577e+06	-54889.1	1055.82	-29742	0.000000	0.000000	6.815087	-0.002722	NaN	0.000000	0.001629	0.001723	28.083	0.045589	0.002061	22.1181	79.5221	-163.141	-0.022840	0.813716	-0.917711	-0.919079	-0.002722	22.1181	-0.917618	-1.758110E+12	1.548434E-15	NaN
1095	1.000000	0.873075	7.37577e+06	-54889.1	1055.82	-29742	0.000000	0.000000	6.873079	0.024572	NaN	0.000000	0.001515	0.001757	28.0832	0.089450	0.002063	43.3567	134.561	16.6555	-0.056999	0.871711	-0.859720	-0.861084	0.024572	43.3567	-0.860145	-2.938212E+11	-8.362821E-14	NaN
1095	1.000000	0.931111	7.37577e+06	-54889.1	1055.82	-29742	0.000000	0.000000	6.931110	-0.064384	NaN	0.000000	0.001546	0.001730	28.0818	0.062697	0.002080	30.1396	-37.8312	-162.682	-0.002983	0.929826	-0.801684	-0.802969	-0.064384	30.1396	-0.800082	-4.507949E+10	1.428231E-12	NaN
1095	1.000000	0.989140	7.37577e+06	-54889.1	1055.82	-29742	0.000000	0.000000	6.989140	-0.071514	NaN	0.000000	0.001564	0.001748	28.0819	0.172147	0.001880	91.5515	-75.3659	14.0314	-0.072234	0.987815	-0.743655	-0.744980	-0.071514	91.5515	-0.743069	-7.565714E+9	9.452396E-12	NaN
1095	1.000000	1.047148	7.37577e+06	-54889.1	1055.82	-29742	0.000000	0.000000	7.047149	-0.035198	NaN	0.000000	0.001531	0.001763	28.0833	0.026405	0.002095	12.6025	148.682	-164.274	0.000426	1.045846	-0.685647	-0.686949	-0.035198	12.6025	-0.683552	-1.166216E+9	3.018101E-11	NaN
1095	1.000000	1.105188	7.37577e+06	-54889.1	1055.82	-29742	0.000000	0.000000	7.105190	-0.016617	NaN	0.000000	0.001591	0.001732	28.0839	0.039085	0.002060	18.9743	11.107	14.3507	-0.042567	1.103803	-0.627607	-0.628992	-0.016617	18.9743	-0.626950	-1.954936E+8	8.500238E-11	NaN
1095	1.000000	1.163191	7.37577e+06	-54889.1	1055.82	-29742	0.000000	0.000000	7.163193	-0.003191	NaN	0.000000	0.001624	0.001765	28.0819	0.042200	0.001857	22.7282	-109.713	-167.771	-0.027189	1.161884	-0.569604	-0.570911	-0.003191	22.7282	-0.569499	-3.160123E+7	1.009706E-10	NaN
1095	1.000000	1.221235	7.37577e+06	-54889.1	1055.82	-29742	0.000000	0.000000	7.221237	-0.021611	NaN	0.000000	0.001594	0.001766	28.0821	0.012500	0.002033	6.149851	72.7075	13.7056	-0.095625	1.219850	-0.511560	-0.512945	-0.021611	6.149851	-0.508924	-4.56488e+06	4.734181E-9	NaN
1095	1.000000	1.279278	7.37577e+06	-54889.1	1055.82	-29742	0.000000	0.000000	7.279277	-0.075186	NaN	0.000000	0.001571	0.001712	28.0818	0.110321	0.001962	56.2291	-148.824	-160.911	-0.084050	1.277929	-0.453517	-0.454866	-0.075186	56.2291	-0.452514	-740871	1.014835E-7	NaN
1095	1.000000	1.337302	7.37577e+06	-54889.1	1055.82	-29742	0.000000	0.000000	7.337304	-0.011523	NaN	0.000000	0.001586	0.001700	28.0828	0.036549	0.001879	19.4559	-157.127	14.7067	0.094257	1.335921	-0.395493	-0.396874	-0.011523	19.4559	-0.395049	-113588	1.014492E-7	NaN
1095	1.000000	1.395325	7.37577e+06	-54889.1	1055.82	-29742	0.000000	0.000000	7.395326	-0.027589	NaN	0.000000	0.001577	0.001699	28.0827	0.038843	0.002070	18.7616	14.3021	-167.956	0.036815	1.394018	-0.337470	-0.338777	-0.027589	18.7616	-0.336367	-16164.2	1.706778E-6	NaN
1095	1.000000	1.453308	7.37577e+06	-54889.1	1055.82	-29742	0.000000	0.000000	7.453310	-0.004239	NaN	0.000000	0.001619	0.001660	28.0814	0.071350	0.002025	35.2319	167.151	16.0726	-0.094561	1.451940	-0.279487	-0.280855	-0.004239	35.2319	-0.279397	-2311.37	1.833800E-6	NaN
1095	1.000000	1.511368	7.37577e+06	-54889.1	1055.82	-29742	0.000000	0.000000	7.511368	-0.050186	NaN	0.000000	0.001623	0.001666	28.0815	0.011506	0.002041	5.638518	53.2338	-164.673	-0.051368	1.510065	-0.221427	-0.222730	-0.050186	5.638518	-0.214752	-228.832	0.000219	NaN
1095	1.000000	1.569407	7.37577e+06	-54889.1	1055.82	-29742	0.000000	0.000000	7.569405	-0.107321	NaN	0.000000	0.001587	0.001666	28.0827	0.049204	0.001985	24.7848	158.625	15.3431	-0.041487	1.568004	-0.163388	-0.164791	-0.107321	24.7848	-0.160141	-27.5732	0.003892	NaN
1095	1.000000	1.627364	7.37577e+06	-54889.1	1055.82	-29742	0.000000	0.000000	7.627366	-0.031843	NaN	0.000000	0.001562	0.001687	28.0828	0.110862	0.002012	55.1006	152.715	-166.194	0.000964	1.626119	-0.105431	-0.106676	-0.031843	55.1006	-0.104997	-2.350240	0.013549	NaN
1095	1.000000	1.685423	7.37577e+06	-54889.1	1055.82	-29742	0.000000	0.000000	7.685424	-0.024781	NaN	0.000000	0.001619	0.001672	28.083	0.064282	0.001943	33.0798	-120.594	14.6149	0.087886	1.684071	-0.047372	-0.048724	-0.024781	33.0798	-0.046811	-0.072998	0.339471	NaN
1095	2.000000	1.738066	7.37577e+06	-54889.1	1055.82	-29742	0.000000	0.000000	7.738514	10.8424	NaN	0.000000	0.001579	0.001681	28.082	10.6244	0.001595	6659.5	5.735230	-172.283	10.591	1.737702	0.005271	0.004907	10.8424	6659.5	0.004050	0.003282	3303.13	106198
1095	2.000000	1.752460	7.37577e+06	-54889.1	1055.82	-29742	0.000000	0.000000	7.753922	35.4911	NaN	0.000000	0.001526	0.001684	28.0818	24.9823	0.001863	13408.1	3.641273	6.246146	34.6434	1.752113	0.019665	0.019318	35.4911	13408.1	0.017680	0.019027	1865.33	88809.3
1095	2.000000	1.766980	7.37577e+06	-54889.1	1055.82	-29742	0.000000	0.000000	7.769897	70.8624	NaN	0.000000	0.001556	0.001694	28.083	38.6709	0.001756	22024.9	7.220633	176.948	73.9374	1.766630	0.034185	0.033835	70.8624	22024.9	0.031772	0.044496	1592.54	95394.6
1095	2.000000	1.781443	7.37577e+06	-54889.1	1055.82	-29742	0.000000	0.000000	7.786992	134.837	NaN	0.000000	0.001622	0.001678	28.0829	54.7183	0.001806	30302.1	7.361610	-4.939192	136.731	1.780936	0.048648	0.048141	134.837	30302.1	0.045311	0.078472	1718.29	98830.3
1095	2.000000	1.795839	7.37577e+06	-54889.1	1055.82	-29742	0.000000	0.000000	7.805738	240.599	NaN	0.000000	0.001628	0.001681	28.0818	70.9339	0.001782	39812	4.082355	174.913	239.51	1.795561	0.063044	0.062766	240.599	39812	0.058511	0.120523	1996.29	104774
1095	2.000000	1.810309	7.37577e+06	-54889.1	1055.82	-29742	0.000000	0.000000	7.825710	374.337	NaN	0.000000	0.001652	0.001676	28.0813	84.7499	0.001768	47948.5	4.001569	-6.775630	368.33	1.810050	0.077514	0.077255	374.337	47948.5	0.071659	0.170900	2190.38	105969
1095	2.000000	1.824808	7.37577e+06	-54889.1	1055.82	-29742	0.000000	0.000000	7.846502	527.309	NaN	0.000000	0.001628	0.001659	28.0816	97.9505	0.001758	55727.3	4.763621	171.707	524.095	1.824482	0.092013	0.091687	527.309	55727.3	0.084916	0.230002	2292.63	106164
1095	2.000000	1.834843	7.37577e+06	-54889.1	1055.82	-29742	0.000000	0.000000	7.860659	627.532	NaN	0.000000	0.001634	0.001631	28.0828	106.185	0.001794	59178.6	7.231076	168.682	626.29	1.834497	0.102048	0.101702	627.532	59178.6	0.094095	0.275689	2276.23	102974