File: remote_trans/data/nanoindenter/0828-1/data/Data_2025-08-06,11h17m57s/2025-07-22_16-23-58_1_540.txt
2025-07-22, 16:23:58, 1
Index	Phase	Displacement	Time	Pos X	Pos Y	Pos Z	Rot A	Rot B	Piezo Z	Force A	Force B	Gripper	Voltage A	Voltage B	Temperature	Amplitude force	Amplitude pos	Stiffness	Phase shift	Phase excitation	Force A raw	Displacement raw	HMax	HMax raw	Real Force	Real Stiffness	Contact Depth	Area	Hardness	Reduced Mod.
[#]	[#]	[um]	[s]	[um]	[um]	[um]	[m°]	[m°]	[um]	[uN]	[uN]	[V]	[V]	[V]	[°C]	[uN]	[um]	[N/m]	[°]	[°]	[uN]	[um]	[um]	[um]	[uN]	[N/m]	[um]	[um^2]	[MPa]	[MPa]
540	1.000000	0.002264	7.37033e+06	-50089.1	1005.82	-29756.9	0.000000	0.000000	6.002798	-0.082282	NaN	0.000000	0.001599	0.001805	28.0822	0.168456	0.001077	156.407	110.961	-168.049	-0.136307	0.001057	-1.089995	-1.091202	-0.082282	156.407	-1.089601	-3.634530E+14	2.263896E-16	NaN
540	1.000000	0.044176	7.37033e+06	-50089.1	1005.82	-29756.9	0.000000	0.000000	6.044711	-0.075806	NaN	0.000000	0.001630	0.001792	28.0821	0.064129	0.001999	32.0818	66.3252	19.5462	-0.060223	0.042865	-1.048083	-1.049394	-0.075806	32.0818	-1.046311	-9.523981E+13	7.959461E-16	NaN
540	1.000000	0.086240	7.37033e+06	-50089.1	1005.82	-29756.9	0.000000	0.000000	6.086776	-0.033761	NaN	0.000000	0.001607	0.001795	28.0833	0.064380	0.002070	31.0963	12.8742	-161.505	-0.027287	0.084954	-1.006020	-1.007305	-0.033761	31.0963	-1.005205	-2.665905E+13	1.266418E-15	NaN
540	1.000000	0.128223	7.37033e+06	-50089.1	1005.82	-29756.9	0.000000	0.000000	6.128758	-0.049237	NaN	0.000000	0.001620	0.001830	28.083	0.047536	0.002048	23.2074	-157.372	15.3515	-0.053778	0.126923	-0.964036	-0.965336	-0.049237	23.2074	-0.962445	-7.076760E+12	6.957495E-15	NaN
540	1.000000	0.170243	7.37033e+06	-50089.1	1005.82	-29756.9	0.000000	0.000000	6.170780	-0.017651	NaN	0.000000	0.001613	0.001802	28.0832	0.009658	0.001878	5.141562	19.8681	-168.446	-0.033149	0.168937	-0.922016	-0.923322	-0.017651	5.141562	-0.919441	-1.860630E+12	9.486380E-15	NaN
540	1.000000	0.212252	7.37033e+06	-50089.1	1005.82	-29756.9	0.000000	0.000000	6.212785	-0.096451	NaN	0.000000	0.001686	0.001764	28.0817	0.036422	0.002104	17.3119	-120.973	12.783	-0.128715	0.210848	-0.880008	-0.881411	-0.096451	17.3119	-0.875829	-4.789572E+11	2.013779E-13	NaN
540	1.000000	0.254278	7.37033e+06	-50089.1	1005.82	-29756.9	0.000000	0.000000	6.254816	0.017619	NaN	0.000000	0.001627	0.001772	28.0817	0.092823	0.001968	47.1581	-174.718	-162.961	0.047354	0.252963	-0.837981	-0.839296	0.017619	47.1581	-0.838261	-1.485038E+11	-1.186445E-13	NaN
540	1.000000	0.296297	7.37033e+06	-50089.1	1005.82	-29756.9	0.000000	0.000000	6.296834	-0.018332	NaN	0.000000	0.001583	0.001780	28.0815	0.032578	0.002054	15.8596	179.808	13.4414	-0.054205	0.294984	-0.795962	-0.797275	-0.018332	15.8596	-0.795095	-3.857179E+10	4.752731E-13	NaN
540	1.000000	0.338358	7.37033e+06	-50089.1	1005.82	-29756.9	0.000000	0.000000	6.338894	-0.062134	NaN	0.000000	0.001570	0.001805	28.0818	0.044039	0.002000	22.0235	-24.1332	-163.715	-0.024044	0.337000	-0.753901	-0.755259	-0.062134	22.0235	-0.751785	-9.942909E+9	6.249083E-12	NaN
540	1.000000	0.380348	7.37033e+06	-50089.1	1005.82	-29756.9	0.000000	0.000000	6.380884	-0.054909	NaN	0.000000	0.001543	0.001811	28.083	0.022395	0.002014	11.1213	-174.151	12.6145	-0.072247	0.379004	-0.711911	-0.713255	-0.054909	11.1213	-0.708208	-2.532725E+9	2.167999E-11	NaN
540	1.000000	0.422395	7.37033e+06	-50089.1	1005.82	-29756.9	0.000000	0.000000	6.422928	-0.113941	NaN	0.000000	0.001582	0.001796	28.083	0.068061	0.002079	32.7372	-14.7462	-160.789	-0.041185	0.421038	-0.669864	-0.671221	-0.113941	32.7372	-0.667253	-6.979014E+8	1.632616E-10	NaN
540	1.000000	0.464385	7.37033e+06	-50089.1	1005.82	-29756.9	0.000000	0.000000	6.464921	-0.055763	NaN	0.000000	0.001558	0.001804	28.083	0.081973	0.002000	40.9933	-147.382	13.4476	-0.004951	0.463075	-0.627874	-0.629184	-0.055763	40.9933	-0.626854	-1.948986E+8	2.861143E-10	NaN
540	1.000000	0.506425	7.37033e+06	-50089.1	1005.82	-29756.9	0.000000	0.000000	6.506960	-0.062954	NaN	0.000000	0.001639	0.001816	28.0813	0.031153	0.001876	16.6098	-87.3796	-163.437	-0.033965	0.505095	-0.585834	-0.587164	-0.062954	16.6098	-0.582992	-4.852982E+7	1.297223E-9	NaN
540	1.000000	0.548446	7.37033e+06	-50089.1	1005.82	-29756.9	0.000000	0.000000	6.548982	-0.050344	NaN	0.000000	0.001590	0.001824	28.0811	0.095976	0.002033	47.2067	112.6	14.1677	-0.077119	0.547046	-0.543813	-0.545213	-0.050344	47.2067	-0.543013	-1.358747E+7	3.705148E-9	NaN
540	1.000000	0.590411	7.37033e+06	-50089.1	1005.82	-29756.9	0.000000	0.000000	6.590948	-0.027503	NaN	0.000000	0.001580	0.001809	28.0813	0.076685	0.002122	36.1443	28.3312	-164.035	-0.057433	0.589120	-0.501848	-0.503139	-0.027503	36.1443	-0.501277	-3.57137e+06	7.701094E-9	NaN
540	1.000000	0.632477	7.37033e+06	-50089.1	1005.82	-29756.9	0.000000	0.000000	6.633012	-0.069828	NaN	0.000000	0.001637	0.001786	28.0826	0.121989	0.001973	61.8306	-34.9871	14.3705	0.017480	0.631124	-0.459782	-0.461135	-0.069828	61.8306	-0.458935	-912128	7.655481E-8	NaN
540	1.000000	0.674448	7.37033e+06	-50089.1	1005.82	-29756.9	0.000000	0.000000	6.674984	-0.047956	NaN	0.000000	0.001623	0.001760	28.0825	0.060159	0.001997	30.1307	-143.474	-164.882	-0.018398	0.673181	-0.417811	-0.419078	-0.047956	30.1307	-0.416618	-230369	2.081695E-7	NaN
540	1.000000	0.716517	7.37033e+06	-50089.1	1005.82	-29756.9	0.000000	0.000000	6.717051	-0.089581	NaN	0.000000	0.001582	0.001828	28.0827	0.145503	0.002019	72.075	131.643	17.7614	-0.125649	0.715125	-0.375742	-0.377134	-0.089581	72.075	-0.374810	-58255.4	1.537735E-6	NaN
540	1.000000	0.758496	7.37033e+06	-50089.1	1005.82	-29756.9	0.000000	0.000000	6.759035	0.016657	NaN	0.000000	0.001654	0.001801	28.0812	0.053525	0.001933	27.6858	-109.156	-162.702	0.042414	0.757229	-0.333763	-0.335030	0.016657	27.6858	-0.334214	-15035	-1.107851E-6	NaN
540	1.000000	0.800534	7.37033e+06	-50089.1	1005.82	-29756.9	0.000000	0.000000	6.801070	-0.041235	NaN	0.000000	0.001619	0.001829	28.0815	0.046620	0.002035	22.904	112.519	14.3495	-0.092925	0.799137	-0.291726	-0.293122	-0.041235	22.904	-0.290375	-3380.05	1.219949E-5	NaN
540	1.000000	0.842525	7.37033e+06	-50089.1	1005.82	-29756.9	0.000000	0.000000	6.843062	-0.026193	NaN	0.000000	0.001663	0.001818	28.0814	0.058829	0.002020	29.1205	121.375	-162.243	-0.108708	0.841273	-0.249734	-0.250987	-0.026193	29.1205	-0.249059	-795.076	3.294350E-5	NaN
540	1.000000	0.884563	7.37033e+06	-50089.1	1005.82	-29756.9	0.000000	0.000000	6.885101	-0.003792	NaN	0.000000	0.001573	0.001824	28.0814	0.052621	0.001999	26.3207	-53.0979	14.7229	-0.020368	0.883171	-0.207696	-0.209088	-0.003792	26.3207	-0.207588	-175.263	2.163513E-5	NaN
540	1.000000	0.926574	7.37034e+06	-50089.1	1005.82	-29756.9	0.000000	0.000000	6.927107	-0.117211	NaN	0.000000	0.001655	0.001806	28.0829	0.068241	0.002063	33.0834	-83.3605	-165.868	-0.095884	0.925294	-0.165685	-0.166966	-0.117211	33.0834	-0.163028	-31.0171	0.003779	NaN
540	1.000000	0.968613	7.37034e+06	-50089.1	1005.82	-29756.9	0.000000	0.000000	6.969153	0.057711	NaN	0.000000	0.001651	0.001821	28.0827	0.095947	0.001975	48.5846	96.8755	12.1503	0.085128	0.967294	-0.123646	-0.124965	0.057711	48.5846	-0.124537	-5.954250	-0.009692	NaN
540	1.000000	1.010600	7.37034e+06	-50089.1	1005.82	-29756.9	0.000000	0.000000	7.011139	0.024263	NaN	0.000000	0.001616	0.001821	28.0828	0.035574	0.002064	17.2358	4.393968	-167.512	0.003500	1.009287	-0.081659	-0.082972	0.024263	17.2358	-0.082715	-0.722698	-0.033572	NaN
540	1.000000	1.052658	7.37034e+06	-50089.1	1005.82	-29756.9	0.000000	0.000000	7.053195	-0.013163	NaN	0.000000	0.001602	0.001789	28.0816	0.059215	0.002059	28.7573	114.573	13.473	-0.031484	1.051226	-0.039601	-0.041034	-0.013163	28.7573	-0.039258	-0.042938	0.306553	NaN
540	1.000000	1.094627	7.37034e+06	-50089.1	1005.82	-29756.9	0.000000	0.000000	7.095425	6.334632	NaN	0.000000	0.001700	0.001790	28.0815	7.082427	0.001783	3972.59	8.530819	-165.958	5.618274	1.093354	0.002368	0.001095	6.334632	3972.59	0.001172	0.000896	7069.53	121250
540	2.000000	1.106573	7.37034e+06	-50089.1	1005.82	-29756.9	0.000000	0.000000	7.108074	23.4093	NaN	0.000000	0.001707	0.001841	28.0821	20.252	0.001777	11394.5	4.585555	4.554842	20.5554	1.106257	0.014314	0.013998	23.4093	11394.5	0.012773	0.012429	1883.37	93377.6
540	2.000000	1.117095	7.37034e+06	-50089.1	1005.82	-29756.9	0.000000	0.000000	7.119546	46.5385	NaN	0.000000	0.001601	0.001840	28.0835	29.639	0.001835	16153.3	6.847325	-179.969	46.1686	1.116771	0.024836	0.024511	46.5385	16153.3	0.022675	0.026921	1728.69	89946.7
540	2.000000	1.127544	7.37034e+06	-50089.1	1005.82	-29756.9	0.000000	0.000000	7.131452	81.9679	NaN	0.000000	0.001587	0.001818	28.0829	39.9241	0.001622	24615.5	5.442376	-3.521760	78.6294	1.127209	0.035285	0.034950	81.9679	24615.5	0.032787	0.046720	1754.47	104048
540	2.000000	1.138057	7.37034e+06	-50089.1	1005.82	-29756.9	0.000000	0.000000	7.143819	127.06	NaN	0.000000	0.001590	0.001811	28.0827	49.4641	0.001756	28174	4.742148	176.84	127.974	1.137676	0.045798	0.045416	127.06	28174	0.042415	0.070419	1804.35	97001.1
540	2.000000	1.148516	7.37034e+06	-50089.1	1005.82	-29756.9	0.000000	0.000000	7.156218	174.225	NaN	0.000000	0.001615	0.001783	28.0815	59.8321	0.001748	34227.1	5.870876	-6.050990	171.973	1.148235	0.056257	0.055976	174.225	34227.1	0.052440	0.100103	1740.46	98837.4
540	2.000000	1.159004	7.37034e+06	-50089.1	1005.82	-29756.9	0.000000	0.000000	7.168914	227.922	NaN	0.000000	0.001615	0.001806	28.0815	69.7522	0.001826	38204.1	7.372875	172.911	225.154	1.158543	0.066745	0.066284	227.922	38204.1	0.062271	0.134076	1699.94	95325
540	2.000000	1.169502	7.37034e+06	-50089.1	1005.82	-29756.9	0.000000	0.000000	7.181853	287.286	NaN	0.000000	0.001660	0.001777	28.0817	80.8577	0.001796	45033.2	3.529730	-6.333476	283.915	1.169180	0.077243	0.076921	287.286	45033.2	0.072459	0.174233	1648.86	98569.3
540	2.000000	1.179909	7.37034e+06	-50089.1	1005.82	-29756.9	0.000000	0.000000	7.195505	366.197	NaN	0.000000	0.001631	0.001803	28.0817	89.6822	0.001739	51573.4	5.639237	170.609	361.141	1.179633	0.087650	0.087374	366.197	51573.4	0.082324	0.217803	1681.32	100964
540	2.000000	1.190563	7.37034e+06	-50089.1	1005.82	-29756.9	0.000000	0.000000	7.209048	436.445	NaN	0.000000	0.001598	0.001801	28.0832	99.0129	0.001669	59332.1	2.894486	-7.357539	437.565	1.190218	0.098304	0.097959	436.445	59332.1	0.092787	0.268943	1622.81	104528
540	2.000000	1.194934	7.37034e+06	-50089.1	1005.82	-29756.9	0.000000	0.000000	7.215098	477.277	NaN	0.000000	0.001612	0.001756	28.083	104.665	0.001848	56642	6.269527	169.779	475.165	1.194583	0.102675	0.102324	477.277	56642	0.096355	0.287532	1659.91	96509.1