File: remote_trans/data/nanoindenter/0828-1/data/Data_2025-08-06,11h17m57s/2025-07-22_16-23-58_1_427.txt
2025-07-22, 16:23:58, 1
Index	Phase	Displacement	Time	Pos X	Pos Y	Pos Z	Rot A	Rot B	Piezo Z	Force A	Force B	Gripper	Voltage A	Voltage B	Temperature	Amplitude force	Amplitude pos	Stiffness	Phase shift	Phase excitation	Force A raw	Displacement raw	HMax	HMax raw	Real Force	Real Stiffness	Contact Depth	Area	Hardness	Reduced Mod.
[#]	[#]	[um]	[s]	[um]	[um]	[um]	[m°]	[m°]	[um]	[uN]	[uN]	[V]	[V]	[V]	[°C]	[uN]	[um]	[N/m]	[°]	[°]	[uN]	[um]	[um]	[um]	[uN]	[N/m]	[um]	[um^2]	[MPa]	[MPa]
427	1.000000	0.002488	7.36923e+06	-55739.1	1005.82	-29740.9	0.000000	0.000000	6.002827	0.050726	NaN	0.000000	0.001690	0.001764	28.0786	0.023514	0.000886	26.533	139.655	-163.291	0.034637	0.001222	-1.138691	-1.139957	0.050726	26.533	-1.140124	-1.731439E+15	-2.929714E-17	NaN
427	1.000000	0.044425	7.36923e+06	-55739.1	1005.82	-29740.9	0.000000	0.000000	6.044759	-0.075631	NaN	0.000000	0.001665	0.001760	28.0793	0.068978	0.001920	35.9225	-162.905	12.4925	-0.049583	0.043080	-1.096754	-1.098098	-0.075631	35.9225	-1.095175	-4.318080E+14	1.751501E-16	NaN
427	1.000000	0.086416	7.36923e+06	-55739.1	1005.82	-29740.9	0.000000	0.000000	6.086756	0.066788	NaN	0.000000	0.001651	0.001775	28.0794	0.051770	0.002104	24.6039	-55.0478	-163.972	0.057579	0.085123	-1.054763	-1.056055	0.066788	24.6039	-1.056799	-1.317643E+14	-5.068711E-16	NaN
427	1.000000	0.128439	7.36923e+06	-55739.1	1005.82	-29740.9	0.000000	0.000000	6.128778	0.069912	NaN	0.000000	0.001666	0.001768	28.0791	0.036270	0.002027	17.8956	124.72	11.2873	0.116026	0.127083	-1.012740	-1.014095	0.069912	17.8956	-1.015670	-3.687141E+13	-1.896111E-15	NaN
427	1.000000	0.170460	7.36924e+06	-55739.1	1005.82	-29740.9	0.000000	0.000000	6.170796	-0.040748	NaN	0.000000	0.001665	0.001742	28.0793	0.079057	0.001941	40.7376	61.9973	-169.495	-0.028456	0.169169	-0.970718	-0.972009	-0.040748	40.7376	-0.969968	-8.937846E+12	4.559072E-15	NaN
427	1.000000	0.212479	7.36924e+06	-55739.1	1005.82	-29740.9	0.000000	0.000000	6.212814	-0.058487	NaN	0.000000	0.001693	0.001761	28.078	0.042612	0.001951	21.8459	26.6889	14.8155	-0.083831	0.211106	-0.928699	-0.930072	-0.058487	21.8459	-0.926691	-2.330972E+12	2.509119E-14	NaN
427	1.000000	0.254518	7.36924e+06	-55739.1	1005.82	-29740.9	0.000000	0.000000	6.254854	-0.007615	NaN	0.000000	0.001652	0.001709	28.0779	0.052253	0.002003	26.0843	-115.27	-163.994	-0.055530	0.253210	-0.886661	-0.887969	-0.007615	26.0843	-0.886442	-6.665256E+11	1.142483E-14	NaN
427	1.000000	0.296528	7.36924e+06	-55739.1	1005.82	-29740.9	0.000000	0.000000	6.296863	-0.042518	NaN	0.000000	0.001651	0.001762	28.078	0.062826	0.002034	30.8926	42.6393	14.3912	0.083394	0.295158	-0.844651	-0.846021	-0.042518	30.8926	-0.843619	-1.755141E+11	2.422472E-13	NaN
427	1.000000	0.338550	7.36924e+06	-55739.1	1005.82	-29740.9	0.000000	0.000000	6.338886	-0.006248	NaN	0.000000	0.001633	0.001734	28.0791	0.106979	0.002131	50.2123	-9.580440	-167.574	0.046566	0.337239	-0.802629	-0.803939	-0.006248	50.2123	-0.802536	-4.867210E+10	1.283704E-13	NaN
427	1.000000	0.380537	7.36924e+06	-55739.1	1005.82	-29740.9	0.000000	0.000000	6.380875	0.036258	NaN	0.000000	0.001651	0.001734	28.0791	0.069070	0.002011	34.3491	170.965	11.8404	0.014889	0.379171	-0.760642	-0.762008	0.036258	34.3491	-0.761433	-1.345248E+10	-2.695263E-12	NaN
427	1.000000	0.422562	7.36924e+06	-55739.1	1005.82	-29740.9	0.000000	0.000000	6.422897	-0.040904	NaN	0.000000	0.001638	0.001713	28.0795	0.080254	0.001962	40.8996	-109.711	-168.886	-0.064818	0.421260	-0.718616	-0.719919	-0.040904	40.8996	-0.717866	-3.430626E+9	1.192319E-11	NaN
427	1.000000	0.464560	7.36924e+06	-55739.1	1005.82	-29740.9	0.000000	0.000000	6.464896	-0.018171	NaN	0.000000	0.001615	0.001770	28.0782	0.078304	0.001933	40.5054	31.428	16.7621	-0.024916	0.463208	-0.676619	-0.677971	-0.018171	40.5054	-0.676282	-9.275877E+8	1.958901E-11	NaN
427	1.000000	0.506611	7.36924e+06	-55739.1	1005.82	-29740.9	0.000000	0.000000	6.506947	-0.035117	NaN	0.000000	0.001660	0.001739	28.078	0.021532	0.001990	10.8193	84.2629	-166.73	0.038539	0.505265	-0.634567	-0.635914	-0.035117	10.8193	-0.632133	-2.303088E+8	1.524765E-10	NaN
427	1.000000	0.548626	7.36924e+06	-55739.1	1005.82	-29740.9	0.000000	0.000000	6.548961	-0.039940	NaN	0.000000	0.001702	0.001732	28.0781	0.119872	0.002067	57.9985	-137.432	15.8299	-0.061155	0.547320	-0.592553	-0.593859	-0.039940	57.9985	-0.592036	-6.467515E+7	6.175426E-10	NaN
427	1.000000	0.590631	7.36924e+06	-55739.1	1005.82	-29740.9	0.000000	0.000000	6.590968	0.006719	NaN	0.000000	0.001745	0.001707	28.0794	0.076691	0.002109	36.3633	-164.691	-167.105	-0.019897	0.589307	-0.550548	-0.551871	0.006719	36.3633	-0.550686	-1.735656E+7	-3.871330E-10	NaN
427	1.000000	0.632660	7.36924e+06	-55739.1	1005.82	-29740.9	0.000000	0.000000	6.632996	-0.028700	NaN	0.000000	0.001749	0.001742	28.0795	0.033584	0.002002	16.7777	-74.043	12.8038	0.049902	0.631274	-0.508519	-0.509905	-0.028700	16.7777	-0.507236	-4.3242e+06	6.636990E-9	NaN
427	1.000000	0.674699	7.36924e+06	-55739.1	1005.82	-29740.9	0.000000	0.000000	6.675037	0.007735	NaN	0.000000	0.001752	0.001736	28.0796	0.035784	0.001976	18.1069	132.741	-164.313	0.061646	0.673409	-0.466479	-0.467770	0.007735	18.1069	-0.466800	-1.17628e+06	-6.576027E-9	NaN
427	1.000000	0.716697	7.36924e+06	-55739.1	1005.82	-29740.9	0.000000	0.000000	6.717036	0.044022	NaN	0.000000	0.001866	0.001746	28.0796	0.079040	0.001910	41.3928	-27.0401	15.685	0.093107	0.715319	-0.424481	-0.425859	0.044022	41.3928	-0.425279	-305655	-1.440244E-7	NaN
427	1.000000	0.758701	7.36924e+06	-55739.1	1005.82	-29740.9	0.000000	0.000000	6.759039	0.031363	NaN	0.000000	0.001849	0.001734	28.0783	0.086011	0.002054	41.8684	116.429	-167.87	-0.016212	0.757406	-0.382478	-0.383773	0.031363	41.8684	-0.383040	-76469.9	-4.101376E-7	NaN
427	1.000000	0.800721	7.36924e+06	-55739.1	1005.82	-29740.9	0.000000	0.000000	6.801056	-0.054182	NaN	0.000000	0.001761	0.001769	28.0779	0.078537	0.002024	38.8076	16.3975	13.4973	0.046751	0.799399	-0.340457	-0.341779	-0.054182	38.8076	-0.339410	-17904.2	3.026222E-6	NaN
427	1.000000	0.842759	7.36924e+06	-55739.1	1005.82	-29740.9	0.000000	0.000000	6.843101	0.102588	NaN	0.000000	0.001746	0.001772	28.078	0.023337	0.001944	12.0037	-91.4883	-165.927	0.047284	0.841410	-0.298419	-0.299768	0.102588	12.0037	-0.304829	-5551.58	-1.847900E-5	NaN
427	1.000000	0.884756	7.36924e+06	-55739.1	1005.82	-29740.9	0.000000	0.000000	6.885091	-0.068274	NaN	0.000000	0.001748	0.001745	28.0793	0.083858	0.002104	39.8476	-144.378	11.3538	-0.040181	0.883377	-0.256422	-0.257801	-0.068274	39.8476	-0.255137	-986.797	6.918769E-5	NaN
427	1.000000	0.926816	7.36924e+06	-55739.1	1005.82	-29740.9	0.000000	0.000000	6.927155	0.045838	NaN	0.000000	0.001739	0.001750	28.0792	0.054274	0.001925	28.188	172.717	-165.146	0.049679	0.925443	-0.214362	-0.215736	0.045838	28.188	-0.215582	-235.977	-0.000194	NaN
427	1.000000	0.968796	7.36924e+06	-55739.1	1005.82	-29740.9	0.000000	0.000000	6.969133	0.007587	NaN	0.000000	0.001691	0.001785	28.0792	0.051239	0.002009	25.5048	-148.479	13.4512	0.049303	0.967419	-0.172383	-0.173760	0.007587	25.5048	-0.172606	-45.5759	-0.000166	NaN
427	1.000000	1.010796	7.36924e+06	-55739.1	1005.82	-29740.9	0.000000	0.000000	7.011132	-0.005344	NaN	0.000000	0.001727	0.001750	28.0781	0.035161	0.002080	16.9049	-150.461	-167.221	0.016666	1.009501	-0.130383	-0.131677	-0.005344	16.9049	-0.130146	-7.670873	0.000697	NaN
427	1.000000	1.052842	7.36924e+06	-55739.1	1005.82	-29740.9	0.000000	0.000000	7.053177	-0.058565	NaN	0.000000	0.001759	0.001777	28.0779	0.075093	0.002096	35.8345	133.716	15.0008	0.076630	1.051520	-0.088336	-0.089659	-0.058565	35.8345	-0.087111	-0.923463	0.063419	NaN
427	1.000000	1.094852	7.36924e+06	-55739.1	1005.82	-29740.9	0.000000	0.000000	7.095188	-0.007943	NaN	0.000000	0.001777	0.001771	28.078	0.054754	0.002000	27.3827	-163.82	-165.458	0.072526	1.093558	-0.046327	-0.047620	-0.007943	27.3827	-0.046110	-0.069488	0.114313	NaN
427	1.000000	1.136830	7.36924e+06	-55739.1	1005.82	-29740.9	0.000000	0.000000	7.137358	4.643910	NaN	0.000000	0.001749	0.001787	28.0795	1.769730	0.001874	944.233	10.1468	10.6271	3.924319	1.135473	-0.004349	-0.005705	4.643910	944.233	-0.008038	-0.005254	-883.922	NaN
427	2.000000	1.162452	7.36924e+06	-55739.1	1005.82	-29740.9	0.000000	0.000000	7.163330	13.1511	NaN	0.000000	0.001733	0.001753	28.0795	13.3087	0.001773	7507.7	4.958848	-172.265	13.8009	1.162129	0.021273	0.020950	13.1511	7507.7	0.019959	0.022479	585.05	45750.4
427	2.000000	1.172797	7.36924e+06	-55739.1	1005.82	-29740.9	0.000000	0.000000	7.174254	27.2173	NaN	0.000000	0.001713	0.001780	28.0795	22.5604	0.001752	12875.4	6.869261	0.962658	24.8501	1.172552	0.031619	0.031373	27.2173	12875.4	0.030033	0.040812	666.888	58228.9
427	2.000000	1.183416	7.36924e+06	-55739.1	1005.82	-29740.9	0.000000	0.000000	7.185784	49.3703	NaN	0.000000	0.001744	0.001763	28.0794	32.4264	0.001792	18091.7	6.534434	178.879	51.3315	1.183001	0.042237	0.041822	49.3703	18091.7	0.040191	0.064522	765.174	65072.7
427	2.000000	1.193759	7.36924e+06	-55739.1	1005.82	-29740.9	0.000000	0.000000	7.197487	82.4267	NaN	0.000000	0.001735	0.001719	28.0782	42.468	0.001746	24327.3	5.392284	-3.510348	77.0098	1.193422	0.052581	0.052243	82.4267	24327.3	0.050039	0.092535	890.763	73065.7
427	2.000000	1.204371	7.36924e+06	-55739.1	1005.82	-29740.9	0.000000	0.000000	7.209551	117.712	NaN	0.000000	0.001761	0.001761	28.0784	52.9582	0.001831	28921.8	5.396958	175.647	117.91	1.203961	0.063193	0.062783	117.712	28921.8	0.060140	0.126312	931.918	74349.2
427	2.000000	1.214757	7.36924e+06	-55739.1	1005.82	-29740.9	0.000000	0.000000	7.221819	163.465	NaN	0.000000	0.001739	0.001803	28.0781	62.747	0.001663	37733.6	2.291689	-4.628867	158.161	1.214438	0.073578	0.073260	163.465	37733.6	0.070329	0.165430	988.122	84760.5
427	2.000000	1.225289	7.36924e+06	-55739.1	1005.82	-29740.9	0.000000	0.000000	7.235573	241.805	NaN	0.000000	0.001720	0.001716	28.0801	73.4361	0.001743	42138.5	4.139630	173.365	239.701	1.224992	0.084110	0.083814	241.805	42138.5	0.079806	0.206251	1172.39	84772.5
427	2.000000	1.235812	7.36924e+06	-55739.1	1005.82	-29740.9	0.000000	0.000000	7.249659	328.386	NaN	0.000000	0.001718	0.001758	28.0797	85.5047	0.001892	45190.9	6.458066	-9.370518	327.899	1.235346	0.094634	0.094167	328.386	45190.9	0.089184	0.250763	1309.55	82450.5
427	2.000000	1.246166	7.36924e+06	-55739.1	1005.82	-29740.9	0.000000	0.000000	7.264432	435.83	NaN	0.000000	0.001781	0.001743	28.0795	93.7421	0.001838	50993.6	3.094652	172.816	429.788	1.245931	0.104987	0.104752	435.83	50993.6	0.098577	0.299401	1455.68	85145.6
427	2.000000	1.255133	7.36924e+06	-55739.1	1005.82	-29740.9	0.000000	0.000000	7.277419	533.531	NaN	0.000000	0.001740	0.001770	28.0784	102.43	0.001763	58089.4	1.989735	173.091	526.4	1.254880	0.113955	0.113702	533.531	58089.4	0.107066	0.346811	1538.39	90120.5