File: remote_trans/data/nanoindenter/0828-1/data/Data_2025-08-06,11h17m57s/2025-07-22_16-23-58_1_354.txt
2025-07-22, 16:23:58, 1
Index	Phase	Displacement	Time	Pos X	Pos Y	Pos Z	Rot A	Rot B	Piezo Z	Force A	Force B	Gripper	Voltage A	Voltage B	Temperature	Amplitude force	Amplitude pos	Stiffness	Phase shift	Phase excitation	Force A raw	Displacement raw	HMax	HMax raw	Real Force	Real Stiffness	Contact Depth	Area	Hardness	Reduced Mod.
[#]	[#]	[um]	[s]	[um]	[um]	[um]	[m°]	[m°]	[um]	[uN]	[uN]	[V]	[V]	[V]	[°C]	[uN]	[um]	[N/m]	[°]	[°]	[uN]	[um]	[um]	[um]	[uN]	[N/m]	[um]	[um^2]	[MPa]	[MPa]
354	1.000000	0.002457	7.36852e+06	-56339.1	955.817	-29739.5	0.000000	0.000000	6.002852	0.050629	NaN	0.000000	0.001580	0.001697	28.0854	0.066779	0.000968	68.9756	-72.9678	-164.562	-0.024350	0.001186	-1.051906	-1.053178	0.050629	68.9756	-1.052457	-1.151969E+14	-4.394955E-16	NaN
354	1.000000	0.042362	7.36852e+06	-56339.1	955.818	-29739.5	0.000000	0.000000	6.042758	0.085688	NaN	0.000000	0.001600	0.001664	28.0806	0.065850	0.002091	31.4863	159.772	-168.896	0.122562	0.041068	-1.012002	-1.013296	0.085688	31.4863	-1.014043	-3.505833E+13	-2.444166E-15	NaN
354	1.000000	0.082381	7.36852e+06	-56339.1	955.818	-29739.5	0.000000	0.000000	6.082776	0.047516	NaN	0.000000	0.001576	0.001691	28.0804	0.141970	0.001984	71.5665	-4.071225	-163.735	0.111041	0.081056	-0.971982	-0.973307	0.047516	71.5665	-0.972480	-9.662480E+12	-4.917556E-15	NaN
354	1.000000	0.122409	7.36852e+06	-56339.1	955.817	-29739.5	0.000000	0.000000	6.122803	0.011026	NaN	0.000000	0.001589	0.001743	28.0801	0.078534	0.001940	40.4769	-145.337	-168.137	0.075605	0.121064	-0.931954	-0.933299	0.011026	40.4769	-0.932158	-2.762640E+12	-3.991044E-15	NaN
354	1.000000	0.162402	7.36852e+06	-56339.1	955.818	-29739.5	0.000000	0.000000	6.162796	0.033777	NaN	0.000000	0.001607	0.001684	28.0805	0.051190	0.002157	23.7372	-153.399	-164.956	-0.029963	0.161102	-0.891961	-0.893261	0.033777	23.7372	-0.893028	-8.181808E+11	-4.128347E-14	NaN
354	1.000000	0.202460	7.36852e+06	-56339.1	955.817	-29739.5	0.000000	0.000000	6.202858	0.137594	NaN	0.000000	0.001542	0.001717	28.0812	0.036233	0.002077	17.4452	24.2842	-166.315	0.103087	0.201124	-0.851903	-0.853239	0.137594	17.4452	-0.857819	-2.732730E+11	-5.035046E-13	NaN
354	1.000000	0.242429	7.36852e+06	-56339.1	955.817	-29739.6	0.000000	0.000000	6.242827	0.122612	NaN	0.000000	0.001554	0.001704	28.0811	0.066306	0.001917	34.5861	69.0206	-166.634	0.125542	0.241117	-0.811934	-0.813247	0.122612	34.5861	-0.814593	-7.093796E+10	-1.728437E-12	NaN
354	1.000000	0.282461	7.36852e+06	-56339.1	955.818	-29739.6	0.000000	0.000000	6.282857	0.073276	NaN	0.000000	0.001584	0.001714	28.0807	0.046883	0.002005	23.3885	-166.576	-163.6	-0.002380	0.281103	-0.771902	-0.773260	0.073276	23.3885	-0.774252	-2.009580E+10	-3.646330E-12	NaN
354	1.000000	0.322477	7.36852e+06	-56339.1	955.817	-29739.6	0.000000	0.000000	6.322870	0.017008	NaN	0.000000	0.001621	0.001682	28.0798	0.044260	0.001934	22.8826	24.6644	-165.181	-0.019295	0.321164	-0.731887	-0.733199	0.017008	22.8826	-0.732444	-5.421456E+9	-3.137184E-12	NaN
354	1.000000	0.362486	7.36852e+06	-56339.1	955.818	-29739.6	0.000000	0.000000	6.362882	0.084966	NaN	0.000000	0.001614	0.001690	28.08	0.045273	0.002011	22.5151	179.097	-162.081	0.046414	0.361185	-0.691877	-0.693179	0.084966	22.5151	-0.694708	-1.656699E+9	-5.128635E-11	NaN
354	1.000000	0.402501	7.36852e+06	-56339.1	955.819	-29739.6	0.000000	0.000000	6.402895	0.028869	NaN	0.000000	0.001632	0.001673	28.0797	0.046280	0.002012	23.0062	90.9051	-167.508	0.025319	0.401206	-0.651862	-0.653157	0.028869	23.0062	-0.652803	-4.424437E+8	-6.524785E-11	NaN
354	1.000000	0.442543	7.36852e+06	-56339.1	955.817	-29739.6	0.000000	0.000000	6.442936	0.003149	NaN	0.000000	0.001629	0.001654	28.0815	0.055474	0.001966	28.221	-90.8231	-166.159	-0.074399	0.441269	-0.611820	-0.613094	0.003149	28.221	-0.611904	-1.214232E+8	-2.593336E-11	NaN
354	1.000000	0.482524	7.36852e+06	-56339.1	955.818	-29739.6	0.000000	0.000000	6.482916	-0.037015	NaN	0.000000	0.001624	0.001659	28.0815	0.056749	0.001847	30.7247	104.402	-163.912	-0.052809	0.481223	-0.571839	-0.573140	-0.037015	30.7247	-0.570935	-3.307925E+7	1.118991E-9	NaN
354	1.000000	0.522551	7.36852e+06	-56339.1	955.819	-29739.6	0.000000	0.000000	6.522947	0.076961	NaN	0.000000	0.001668	0.001685	28.0815	0.133109	0.002039	65.2811	105.443	-165.684	0.038403	0.521261	-0.531813	-0.533103	0.076961	65.2811	-0.532697	-9.77286e+06	-7.874957E-9	NaN
354	1.000000	0.562555	7.36853e+06	-56339.1	955.818	-29739.6	0.000000	0.000000	6.562952	0.096420	NaN	0.000000	0.001661	0.001622	28.0816	0.048243	0.001836	26.2743	-5.658746	-159.766	0.082886	0.561264	-0.491808	-0.493100	0.096420	26.2743	-0.494560	-2.87803e+06	-3.350226E-8	NaN
354	1.000000	0.602596	7.36853e+06	-56339.1	955.818	-29739.6	0.000000	0.000000	6.602990	0.034998	NaN	0.000000	0.001647	0.001666	28.0804	0.066172	0.001991	33.2354	-152.132	-162.742	0.006925	0.601330	-0.451767	-0.453033	0.034998	33.2354	-0.452557	-741899	-4.717335E-8	NaN
354	1.000000	0.642605	7.36853e+06	-56339.1	955.818	-29739.6	0.000000	0.000000	6.643000	0.069253	NaN	0.000000	0.001569	0.001684	28.0801	0.122288	0.001880	65.0477	-51.8801	-165.172	0.087032	0.641334	-0.411759	-0.413029	0.069253	65.0477	-0.412557	-201722	-3.433097E-7	NaN
354	1.000000	0.682611	7.36853e+06	-56339.1	955.818	-29739.6	0.000000	0.000000	6.683006	0.064860	NaN	0.000000	0.001540	0.001685	28.0801	0.088772	0.002073	42.8301	90.93	-166.964	0.099837	0.681345	-0.371752	-0.373019	0.064860	42.8301	-0.372888	-54663.6	-1.186525E-6	NaN
354	1.000000	0.722644	7.36853e+06	-56339.1	955.818	-29739.6	0.000000	0.000000	6.723036	-0.030325	NaN	0.000000	0.001555	0.001660	28.081	0.080652	0.001979	40.7519	42.322	-165.299	0.005399	0.721367	-0.331719	-0.332996	-0.030325	40.7519	-0.331161	-13565.9	2.235420E-6	NaN
354	1.000000	0.762651	7.36853e+06	-56339.1	955.818	-29739.6	0.000000	0.000000	6.763047	0.065213	NaN	0.000000	0.001579	0.001779	28.0809	0.088172	0.002158	40.8587	169.997	-167.151	0.055035	0.761365	-0.291712	-0.292998	0.065213	40.8587	-0.292909	-3688.43	-1.768034E-5	NaN
354	1.000000	0.802682	7.36853e+06	-56339.1	955.817	-29739.6	0.000000	0.000000	6.803076	0.017645	NaN	0.000000	0.001558	0.001714	28.0808	0.044191	0.001870	23.631	-140.765	-165.454	-0.016418	0.801343	-0.251681	-0.253020	0.017645	23.631	-0.252241	-890.417	-1.981710E-5	NaN
354	1.000000	0.842692	7.36853e+06	-56339.1	955.818	-29739.6	0.000000	0.000000	6.843089	0.110781	NaN	0.000000	0.001541	0.001754	28.081	0.055502	0.001920	28.9117	-84.6189	-164.123	0.068997	0.841415	-0.211672	-0.212948	0.110781	28.9117	-0.214545	-227.09	-0.000488	NaN
354	1.000000	0.882707	7.36853e+06	-56339.1	955.818	-29739.6	0.000000	0.000000	6.883103	0.062685	NaN	0.000000	0.001568	0.001755	28.0799	0.058531	0.001958	29.8876	88.3907	-167.307	0.073367	0.881467	-0.171656	-0.172896	0.062685	29.8876	-0.173229	-46.7192	-0.001342	NaN
354	1.000000	0.922706	7.36853e+06	-56339.1	955.818	-29739.6	0.000000	0.000000	6.923100	0.045603	NaN	0.000000	0.001558	0.001768	28.0799	0.080807	0.001964	41.14	16.4611	-163.42	0.018780	0.921423	-0.131658	-0.132941	0.045603	41.14	-0.132489	-8.514266	-0.005356	NaN
354	1.000000	0.962762	7.36853e+06	-56339.1	955.819	-29739.6	0.000000	0.000000	6.963156	0.041808	NaN	0.000000	0.001576	0.001803	28.0802	0.110506	0.002019	54.7354	-118.571	-166.904	-0.003868	0.961495	-0.091602	-0.092868	0.041808	54.7354	-0.092175	-1.214808	-0.034415	NaN
354	1.000000	1.002743	7.36853e+06	-56339.1	955.819	-29739.6	0.000000	0.000000	7.003140	0.089039	NaN	0.000000	0.001537	0.001735	28.0815	0.020560	0.002077	9.900290	-71.0928	-167.996	0.020416	1.001459	-0.051620	-0.052904	0.089039	9.900290	-0.058365	-0.161569	-0.551090	NaN
354	1.000000	1.042753	7.36853e+06	-56339.1	955.821	-29739.6	0.000000	0.000000	7.043148	0.052098	NaN	0.000000	0.001640	0.001744	28.081	0.042723	0.002053	20.8111	99.8788	-167.28	0.026326	1.041481	-0.011610	-0.012882	0.052098	20.8111	-0.013488	-0.008384	-6.213619	NaN
354	2.000000	1.069224	7.36853e+06	-56339.1	955.821	-29739.6	0.000000	0.000000	7.070582	23.4607	NaN	0.000000	0.001633	0.001822	28.0807	13.2326	0.001795	7373.78	6.143045	-173.002	22.4639	1.068897	0.014861	0.014533	23.4607	7373.78	0.012475	0.012064	1944.76	61337.4
354	2.000000	1.079153	7.36853e+06	-56339.1	955.82	-29739.6	0.000000	0.000000	7.082177	63.9537	NaN	0.000000	0.001552	0.001749	28.0799	22.6928	0.001822	12456	4.075449	-175.391	62.7673	1.078843	0.024790	0.024480	63.9537	12456	0.020939	0.024040	2660.32	73398
354	2.000000	1.089179	7.36853e+06	-56339.1	955.82	-29739.6	0.000000	0.000000	7.094392	117.157	NaN	0.000000	0.001577	0.001735	28.0799	32.1466	0.001807	17793	4.277824	-179.107	117.167	1.088869	0.034816	0.034505	117.157	17793	0.029878	0.040490	2893.46	80788.2
354	2.000000	1.099069	7.36853e+06	-56339.1	955.82	-29739.6	0.000000	0.000000	7.106296	166.105	NaN	0.000000	0.001560	0.001731	28.0799	40.8216	0.001831	22299.8	5.574593	177.807	163.419	1.098876	0.044706	0.044513	166.105	22299.8	0.039119	0.061772	2689.02	81974.4
354	2.000000	1.109079	7.36853e+06	-56339.1	955.82	-29739.6	0.000000	0.000000	7.119050	232.806	NaN	0.000000	0.001592	0.001663	28.08	50.3503	0.001786	28187.3	3.704860	177.801	229.029	1.108810	0.054716	0.054447	232.806	28187.3	0.048522	0.087899	2648.58	86863.2
354	2.000000	1.119080	7.36853e+06	-56339.1	955.82	-29739.6	0.000000	0.000000	7.131464	291.45	NaN	0.000000	0.001578	0.001688	28.0811	60.2182	0.001683	35774.8	3.541752	176.149	288.919	1.118806	0.064717	0.064443	291.45	35774.8	0.058607	0.120860	2411.47	94017.7
354	2.000000	1.129128	7.36853e+06	-56339.1	955.82	-29739.6	0.000000	0.000000	7.144943	374.873	NaN	0.000000	0.001593	0.001734	28.0811	72.8667	0.001700	42852.9	5.847570	172.273	374.35	1.128748	0.074764	0.074385	374.873	42852.9	0.068203	0.156856	2389.91	98855.9
354	2.000000	1.139120	7.36853e+06	-56339.1	955.82	-29739.6	0.000000	0.000000	7.157839	445.453	NaN	0.000000	0.001575	0.001740	28.0814	81.9812	0.001805	45428.7	1.548845	176.571	446.042	1.138874	0.084756	0.084511	445.453	45428.7	0.077402	0.195496	2278.57	93871.6
354	2.000000	1.149032	7.36853e+06	-56339.1	955.821	-29739.6	0.000000	0.000000	7.171908	546.501	NaN	0.000000	0.001615	0.001748	28.08	93.0208	0.001793	51880.8	2.143528	174.904	542.254	1.148694	0.094668	0.094331	546.501	51880.8	0.086768	0.238908	2287.5	96976.1
354	2.000000	1.158962	7.36853e+06	-56339.1	955.82	-29739.6	0.000000	0.000000	7.182745	568.536	NaN	0.000000	0.001558	0.001748	28.0798	103.905	0.001704	60967.8	2.519124	173.317	560.976	1.158817	0.104599	0.104454	568.536	60967.8	0.097605	0.294181	1932.61	102699
354	2.000000	1.162970	7.36853e+06	-56339.1	955.821	-29739.6	0.000000	0.000000	7.191687	688.467	NaN	0.000000	0.001621	0.001773	28.0796	108.065	0.001919	56311.2	3.610452	173.629	683.31	1.162641	0.108607	0.108278	688.467	56311.2	0.099437	0.304056	2264.28	93302