File: remote_trans/data/nanoindenter/0828-1/data/Data_2025-08-06,11h17m57s/2025-07-22_16-23-58_1_806.txt
2025-07-22, 16:23:58, 1
Index	Phase	Displacement	Time	Pos X	Pos Y	Pos Z	Rot A	Rot B	Piezo Z	Force A	Force B	Gripper	Voltage A	Voltage B	Temperature	Amplitude force	Amplitude pos	Stiffness	Phase shift	Phase excitation	Force A raw	Displacement raw	HMax	HMax raw	Real Force	Real Stiffness	Contact Depth	Area	Hardness	Reduced Mod.
[#]	[#]	[um]	[s]	[um]	[um]	[um]	[m°]	[m°]	[um]	[uN]	[uN]	[V]	[V]	[V]	[°C]	[uN]	[um]	[N/m]	[°]	[°]	[uN]	[um]	[um]	[um]	[uN]	[N/m]	[um]	[um^2]	[MPa]	[MPa]
806	1.000000	0.002519	7.37294e+06	-40439.1	1055.82	-29790	0.000000	0.000000	6.002788	-0.024631	NaN	0.000000	0.001658	0.001749	28.0832	0.057063	0.000970	58.829	84.2758	-169.566	0.032207	0.001292	-1.058818	-1.060046	-0.024631	58.829	-1.058504	-1.389046E+14	1.773215E-16	NaN
806	1.000000	0.042469	7.37294e+06	-40439.1	1055.82	-29790	0.000000	0.000000	6.042740	0.030238	NaN	0.000000	0.001690	0.001759	28.0835	0.053851	0.001920	28.0476	111.083	-166.506	0.077905	0.041190	-1.018869	-1.020147	0.030238	28.0476	-1.019677	-4.174538E+13	-7.243408E-16	NaN
806	1.000000	0.082448	7.37294e+06	-40439.1	1055.82	-29790	0.000000	0.000000	6.082717	-0.040553	NaN	0.000000	0.001641	0.001751	28.0831	0.055884	0.001827	30.5958	-170.036	-162.228	-0.039066	0.081108	-0.978889	-0.980229	-0.040553	30.5958	-0.977895	-1.143006E+13	3.547918E-15	NaN
806	1.000000	0.122498	7.37294e+06	-40439.1	1055.82	-29790	0.000000	0.000000	6.122767	-0.037448	NaN	0.000000	0.001645	0.001727	28.082	0.055487	0.001967	28.2162	-79.2121	-165.717	-0.104265	0.121203	-0.938839	-0.940134	-0.037448	28.2162	-0.937844	-3.296432E+12	1.136019E-14	NaN
806	1.000000	0.162524	7.37294e+06	-40439.1	1055.82	-29790	0.000000	0.000000	6.162790	-0.091758	NaN	0.000000	0.001613	0.001749	28.0816	0.039870	0.001992	20.0112	-32.6663	-169.083	-0.092590	0.161225	-0.898814	-0.900112	-0.091758	20.0112	-0.895375	-8.801580E+11	1.042522E-13	NaN
806	1.000000	0.202532	7.37294e+06	-40439.1	1055.82	-29790	0.000000	0.000000	6.202801	-0.018460	NaN	0.000000	0.001638	0.001746	28.0818	0.072104	0.002077	34.7219	-46.8463	-162.363	-0.066284	0.201206	-0.858806	-0.860131	-0.018460	34.7219	-0.858407	-2.783288E+11	6.632395E-14	NaN
806	1.000000	0.242548	7.37294e+06	-40439.1	1055.82	-29790	0.000000	0.000000	6.242817	-0.039341	NaN	0.000000	0.001659	0.001715	28.0832	0.049818	0.002185	22.8015	9.299461	-167.061	-0.010735	0.241230	-0.818789	-0.820107	-0.039341	22.8015	-0.817495	-7.766789E+10	5.065311E-13	NaN
806	1.000000	0.282560	7.37294e+06	-40439.1	1055.82	-29790	0.000000	0.000000	6.282828	-0.051152	NaN	0.000000	0.001690	0.001737	28.0834	0.057626	0.002124	27.1251	-104.717	-165.929	-0.082124	0.281210	-0.778777	-0.780127	-0.051152	27.1251	-0.777363	-2.215090E+10	2.309252E-12	NaN
806	1.000000	0.322641	7.37294e+06	-40439.1	1055.82	-29790	0.000000	0.000000	6.322909	-0.069936	NaN	0.000000	0.001652	0.001765	28.0834	0.106475	0.001947	54.6831	-51.4721	-164.793	-0.056801	0.321300	-0.738696	-0.740037	-0.069936	54.6831	-0.737737	-6.400671E+9	1.092633E-11	NaN
806	1.000000	0.362622	7.37294e+06	-40439.1	1055.82	-29790	0.000000	0.000000	6.362893	0.024355	NaN	0.000000	0.001689	0.001767	28.0832	0.053883	0.001986	27.1304	-107.317	-169.326	0.007559	0.361315	-0.698715	-0.700023	0.024355	27.1304	-0.699389	-1.919474E+9	-1.268859E-11	NaN
806	1.000000	0.402627	7.37294e+06	-40439.1	1055.82	-29790	0.000000	0.000000	6.402896	-0.008334	NaN	0.000000	0.001694	0.001720	28.0822	0.018303	0.001950	9.387360	-106.537	-159.78	0.028933	0.401289	-0.658711	-0.660049	-0.008334	9.387360	-0.658045	-5.220181E+8	1.596482E-11	NaN
806	1.000000	0.442654	7.37294e+06	-40439.1	1055.82	-29790	0.000000	0.000000	6.442922	-0.059893	NaN	0.000000	0.001615	0.001773	28.0821	0.102521	0.001864	54.9983	-58.3422	-166.055	-0.072457	0.441318	-0.618683	-0.620019	-0.059893	54.9983	-0.617866	-1.466565E+8	4.083890E-10	NaN
806	1.000000	0.482641	7.37294e+06	-40439.1	1055.82	-29790	0.000000	0.000000	6.482911	0.005461	NaN	0.000000	0.001609	0.001738	28.0823	0.076606	0.001893	40.4735	-141.295	-159.928	0.002598	0.481328	-0.578696	-0.580009	0.005461	40.4735	-0.578798	-4.247452E+7	-1.285690E-10	NaN
806	1.000000	0.522684	7.37294e+06	-40439.1	1055.82	-29790	0.000000	0.000000	6.522953	-0.020335	NaN	0.000000	0.001636	0.001751	28.0831	0.028697	0.001994	14.391	87.6386	-162.792	-0.015085	0.521402	-0.538653	-0.539936	-0.020335	14.391	-0.537593	-1.142818E+7	1.779379E-9	NaN
806	1.000000	0.562691	7.37294e+06	-40439.1	1055.82	-29790	0.000000	0.000000	6.562962	0.024079	NaN	0.000000	0.001613	0.001812	28.0829	0.043983	0.001970	22.3278	-126.981	-166.579	0.044015	0.561406	-0.498647	-0.499932	0.024079	22.3278	-0.499455	-3.36837e+06	-7.148704E-9	NaN
806	1.000000	0.602706	7.37294e+06	-40439.1	1055.82	-29790	0.000000	0.000000	6.602976	0.010469	NaN	0.000000	0.001619	0.001767	28.0836	0.021088	0.002018	10.4499	145.114	-166.065	0.141895	0.601331	-0.458631	-0.460007	0.010469	10.4499	-0.459383	-925431	-1.131240E-8	NaN
806	1.000000	0.642748	7.37294e+06	-40439.1	1055.82	-29790	0.000000	0.000000	6.643018	-0.003434	NaN	0.000000	0.001609	0.001727	28.0832	0.122679	0.002092	58.6548	-111.746	-167.103	-0.048000	0.641412	-0.418589	-0.419925	-0.003434	58.6548	-0.418545	-245344	1.399650E-8	NaN
806	1.000000	0.682752	7.37294e+06	-40439.1	1055.82	-29790	0.000000	0.000000	6.683021	-0.019747	NaN	0.000000	0.001614	0.001755	28.0821	0.082239	0.001986	41.409	-16.2002	-164.245	-0.017578	0.681459	-0.378585	-0.379878	-0.019747	41.409	-0.378228	-65229.6	3.027234E-7	NaN
806	1.000000	0.722766	7.37294e+06	-40439.1	1055.82	-29790	0.000000	0.000000	6.723038	0.024925	NaN	0.000000	0.001600	0.001750	28.0821	0.052674	0.001911	27.5568	-159.486	-163.308	-0.059972	0.721463	-0.338571	-0.339874	0.024925	27.5568	-0.339249	-17807.7	-1.399705E-6	NaN
806	1.000000	0.762759	7.37294e+06	-40439.1	1055.82	-29790	0.000000	0.000000	6.763027	-0.042372	NaN	0.000000	0.001601	0.001787	28.0819	0.030421	0.001979	15.3744	149.855	-168.033	-0.100407	0.761437	-0.298579	-0.299900	-0.042372	15.3744	-0.296512	-4174.95	1.014913E-5	NaN
806	1.000000	0.802813	7.37294e+06	-40439.1	1055.82	-29790	0.000000	0.000000	6.803083	0.009802	NaN	0.000000	0.001641	0.001716	28.0831	0.057813	0.001884	30.6839	-154.032	-163.099	-0.033156	0.801486	-0.258525	-0.259851	0.009802	30.6839	-0.258764	-1121.94	-8.736294E-6	NaN
806	1.000000	0.842795	7.37294e+06	-40439.1	1055.82	-29790	0.000000	0.000000	6.843065	-0.003977	NaN	0.000000	0.001611	0.001744	28.083	0.118876	0.001948	61.0389	-177.112	-166.107	-0.048675	0.841479	-0.218542	-0.219858	-0.003977	61.0389	-0.218493	-262.766	1.513467E-5	NaN
806	1.000000	0.882854	7.37294e+06	-40439.1	1055.82	-29790	0.000000	0.000000	6.883122	-0.058004	NaN	0.000000	0.001657	0.001727	28.0831	0.229483	0.002040	112.504	-156.517	-162.244	-0.104817	0.881514	-0.178483	-0.179824	-0.058004	112.504	-0.178097	-56.6273	0.001024	NaN
806	1.000000	0.922836	7.37294e+06	-40439.1	1055.82	-29790	0.000000	0.000000	6.923106	0.002575	NaN	0.000000	0.001710	0.001770	28.0818	0.052207	0.002049	25.4814	109.118	-167.964	-0.003080	0.921462	-0.138502	-0.139875	0.002575	25.4814	-0.138577	-11.1221	-0.000231	NaN
806	1.000000	0.962855	7.37294e+06	-40439.1	1055.82	-29790	0.000000	0.000000	6.963126	0.014872	NaN	0.000000	0.001639	0.001751	28.082	0.055177	0.002008	27.4852	-33.2359	-165.129	0.008857	0.961576	-0.098482	-0.099761	0.014872	27.4852	-0.098888	-1.726010	-0.008616	NaN
806	1.000000	1.002880	7.37294e+06	-40439.1	1055.82	-29790	0.000000	0.000000	7.003150	0.017622	NaN	0.000000	0.001656	0.001713	28.0823	0.115997	0.002049	56.6201	96.9017	-166.671	-0.004470	1.001563	-0.058458	-0.059774	0.017622	56.6201	-0.058691	-0.165118	-0.106727	NaN
806	1.000000	1.042866	7.37294e+06	-40439.1	1055.82	-29790	0.000000	0.000000	7.043135	-0.020436	NaN	0.000000	0.001649	0.001703	28.0821	0.097289	0.002130	45.6749	142.317	-161.642	0.064107	1.041567	-0.018471	-0.019770	-0.020436	45.6749	-0.018136	-0.011253	1.815960	NaN
806	2.000000	1.069450	7.37294e+06	-40439.1	1055.82	-29790	0.000000	0.000000	7.070290	13.8546	NaN	0.000000	0.001648	0.001703	28.0831	14.017	0.001740	8057.47	0.699977	-168.742	13.447	1.069039	0.008113	0.007702	13.8546	8057.47	0.006823	0.005860	2364.35	96168
806	2.000000	1.079367	7.37294e+06	-40439.1	1055.82	-29790	0.000000	0.000000	7.081090	35.3674	NaN	0.000000	0.001640	0.001729	28.0833	24.8596	0.001855	13398.7	5.694215	-176.344	35.5603	1.079025	0.018029	0.017688	35.3674	13398.7	0.016050	0.016711	2116.46	94697.7
806	2.000000	1.089352	7.37294e+06	-40439.1	1055.82	-29790	0.000000	0.000000	7.092359	66.5941	NaN	0.000000	0.001623	0.001710	28.0833	35.8337	0.001851	19354.6	5.990849	178.726	67.112	1.089038	0.028015	0.027701	66.5941	19354.6	0.025434	0.031810	2093.47	99145.3
806	2.000000	1.099403	7.37294e+06	-40439.1	1055.82	-29790	0.000000	0.000000	7.104178	109.621	NaN	0.000000	0.001619	0.001722	28.0824	45.055	0.001778	25343.3	4.906347	178.928	114.197	1.099021	0.038066	0.037684	109.621	25343.3	0.034822	0.051332	2135.54	102198
806	2.000000	1.109258	7.37294e+06	-40439.1	1055.82	-29790	0.000000	0.000000	7.116032	158.243	NaN	0.000000	0.001615	0.001746	28.0842	54.9057	0.001757	31246.5	3.371138	176.656	155.171	1.109047	0.047921	0.047710	158.243	31246.5	0.044123	0.075117	2106.62	104161
806	2.000000	1.119241	7.37294e+06	-40439.1	1055.82	-29790	0.000000	0.000000	7.128486	218.382	NaN	0.000000	0.001635	0.001689	28.0819	65.7228	0.001805	36418	0.673718	178.533	215.278	1.119085	0.057904	0.057747	218.382	36418	0.053407	0.103233	2115.43	103557
806	2.000000	1.129305	7.37294e+06	-40439.1	1055.82	-29790	0.000000	0.000000	7.141489	289.919	NaN	0.000000	0.001630	0.001683	28.0817	75.512	0.001729	43673.6	6.703131	172.174	290.55	1.128855	0.067967	0.067518	289.919	43673.6	0.062989	0.136743	2120.18	107905
806	2.000000	1.139255	7.37294e+06	-40439.1	1055.82	-29790	0.000000	0.000000	7.154670	368.531	NaN	0.000000	0.001591	0.001727	28.0829	85.331	0.001893	45075.1	3.878871	174.302	367.46	1.138857	0.077918	0.077520	368.531	45075.1	0.071786	0.171428	2149.77	99464.7
806	2.000000	1.149233	7.37294e+06	-40439.1	1055.82	-29790	0.000000	0.000000	7.168110	452.784	NaN	0.000000	0.001603	0.001707	28.0831	94.5641	0.001733	54577.3	3.178698	173.021	449.285	1.149047	0.087896	0.087709	452.784	54577.3	0.081674	0.214789	2108.04	107592
806	2.000000	1.159135	7.37294e+06	-40439.1	1055.82	-29790	0.000000	0.000000	7.182099	552.229	NaN	0.000000	0.001639	0.001724	28.0833	105.01	0.001794	58538.9	3.149510	172.883	545.74	1.158710	0.097798	0.097373	552.229	58538.9	0.090722	0.258454	2136.66	105203
806	2.000000	1.163179	7.37294e+06	-40439.1	1055.82	-29790	0.000000	0.000000	7.187605	587.785	NaN	0.000000	0.001549	0.001700	28.0831	109.361	0.001816	60225.2	7.597224	168.501	585.222	1.162768	0.101842	0.101431	587.785	60225.2	0.094522	0.277912	2115.01	104375