File: remote_trans/data/nanoindenter/0828-1/data/Data_2025-08-06,11h17m57s/2025-07-22_16-23-58_1_1108.txt
2025-07-22, 16:23:58, 1
Index	Phase	Displacement	Time	Pos X	Pos Y	Pos Z	Rot A	Rot B	Piezo Z	Force A	Force B	Gripper	Voltage A	Voltage B	Temperature	Amplitude force	Amplitude pos	Stiffness	Phase shift	Phase excitation	Force A raw	Displacement raw	HMax	HMax raw	Real Force	Real Stiffness	Contact Depth	Area	Hardness	Reduced Mod.
[#]	[#]	[um]	[s]	[um]	[um]	[um]	[m°]	[m°]	[um]	[uN]	[uN]	[V]	[V]	[V]	[°C]	[uN]	[um]	[N/m]	[°]	[°]	[uN]	[um]	[um]	[um]	[uN]	[N/m]	[um]	[um^2]	[MPa]	[MPa]
1108	1.000000	0.002550	7.37588e+06	-55539.1	1055.82	-29741.2	0.000000	0.000000	6.002754	0.002975	NaN	0.000000	0.001598	0.001680	28.0836	0.060999	0.001046	58.3307	117.07	-164.356	0.121748	0.001323	-1.137950	-1.139177	0.002975	58.3307	-1.137988	-1.620912E+15	-1.835110E-18	NaN
1108	1.000000	0.044550	7.37589e+06	-55539.1	1055.82	-29741.2	0.000000	0.000000	6.044750	-0.063730	NaN	0.000000	0.001601	0.001638	28.0834	0.070475	0.001972	35.7396	97.6172	14.0652	-0.113766	0.043187	-1.095951	-1.097313	-0.063730	35.7396	-1.094613	-4.243785E+14	1.501732E-16	NaN
1108	1.000000	0.086571	7.37589e+06	-55539.1	1055.82	-29741.2	0.000000	0.000000	6.086774	-0.003341	NaN	0.000000	0.001553	0.001656	28.0833	0.117397	0.001999	58.7388	-16.9607	-162.95	-0.051135	0.085277	-1.053930	-1.055223	-0.003341	58.7388	-1.053887	-1.204106E+14	2.774469E-17	NaN
1108	1.000000	0.128539	7.37589e+06	-55539.1	1055.82	-29741.2	0.000000	0.000000	6.128741	-0.020434	NaN	0.000000	0.001581	0.001699	28.084	0.088454	0.001992	44.4071	112.96	11.9961	-0.071632	0.127229	-1.011962	-1.013271	-0.020434	44.4071	-1.011617	-3.251930E+13	6.283598E-16	NaN
1108	1.000000	0.170585	7.37589e+06	-55539.1	1055.82	-29741.2	0.000000	0.000000	6.170788	-0.005069	NaN	0.000000	0.001598	0.001701	28.0824	0.057618	0.002044	28.1891	34.6859	-163.271	0.039773	0.169265	-0.969915	-0.971235	-0.005069	28.1891	-0.969781	-8.885981E+12	5.704513E-16	NaN
1108	1.000000	0.212587	7.37589e+06	-55539.1	1055.82	-29741.2	0.000000	0.000000	6.212790	-0.021932	NaN	0.000000	0.001584	0.001686	28.0827	0.031958	0.001912	16.7134	145.893	11.3366	0.006385	0.211297	-0.927913	-0.929203	-0.021932	16.7134	-0.926929	-2.348241E+12	9.339927E-15	NaN
1108	1.000000	0.254637	7.37589e+06	-55539.1	1055.82	-29741.2	0.000000	0.000000	6.254841	0.021244	NaN	0.000000	0.001555	0.001639	28.0827	0.067329	0.002002	33.6273	-99.4574	-164.419	0.084138	0.253248	-0.885863	-0.887252	0.021244	33.6273	-0.886337	-6.643429E+11	-3.197765E-14	NaN
1108	1.000000	0.296657	7.37589e+06	-55539.1	1055.82	-29741.2	0.000000	0.000000	6.296860	-0.006111	NaN	0.000000	0.001621	0.001689	28.0839	0.037362	0.002096	17.8249	102.55	15.3933	-0.058706	0.295247	-0.843843	-0.845254	-0.006111	17.8249	-0.843586	-1.753356E+11	3.485485E-14	NaN
1108	1.000000	0.338682	7.37589e+06	-55539.1	1055.82	-29741.2	0.000000	0.000000	6.338885	-0.013941	NaN	0.000000	0.001620	0.001654	28.0839	0.005007	0.002046	2.446546	34.0221	-169.665	0.036272	0.337338	-0.801818	-0.803162	-0.013941	2.446546	-0.797545	-4.164207E+10	3.347773E-13	NaN
1108	1.000000	0.380675	7.37589e+06	-55539.1	1055.82	-29741.2	0.000000	0.000000	6.380878	-0.014081	NaN	0.000000	0.001624	0.001676	28.0839	0.028099	0.002075	13.5415	59.817	15.2976	-0.052509	0.379297	-0.759825	-0.761203	-0.014081	13.5415	-0.759045	-1.248277E+10	1.128006E-12	NaN
1108	1.000000	0.422693	7.37589e+06	-55539.1	1055.82	-29741.2	0.000000	0.000000	6.422894	-0.072194	NaN	0.000000	0.001581	0.001689	28.0827	0.135112	0.001981	68.2	95.5504	-167.823	-0.114476	0.421399	-0.717807	-0.719101	-0.072194	68.2	-0.717013	-3.339908E+9	2.161554E-11	NaN
1108	1.000000	0.464720	7.37589e+06	-55539.1	1055.82	-29741.2	0.000000	0.000000	6.464921	-0.051548	NaN	0.000000	0.001585	0.001661	28.0828	0.021774	0.001929	11.2855	-160.268	14.6794	-0.098064	0.463380	-0.675781	-0.677120	-0.051548	11.2855	-0.672355	-8.196349E+8	6.289165E-11	NaN
1108	1.000000	0.506727	7.37589e+06	-55539.1	1055.82	-29741.2	0.000000	0.000000	6.506931	0.009339	NaN	0.000000	0.001586	0.001722	28.0827	0.054153	0.001975	27.4255	-178.517	-168.238	0.000752	0.505453	-0.633773	-0.635048	0.009339	27.4255	-0.634029	-2.445334E+8	-3.819101E-11	NaN
1108	1.000000	0.548744	7.37589e+06	-55539.1	1055.82	-29741.2	0.000000	0.000000	6.548946	-0.032574	NaN	0.000000	0.001589	0.001717	28.0838	0.094549	0.002004	47.1815	-54.1251	17.7132	-0.016580	0.547413	-0.591757	-0.593087	-0.032574	47.1815	-0.591239	-6.305847E+7	5.165723E-10	NaN
1108	1.000000	0.590795	7.37589e+06	-55539.1	1055.82	-29741.2	0.000000	0.000000	6.590997	-0.023735	NaN	0.000000	0.001559	0.001718	28.084	0.081557	0.002023	40.3065	-84.9568	-167.719	-0.037926	0.589486	-0.549705	-0.551014	-0.023735	40.3065	-0.549264	-1.658665E+7	1.430970E-9	NaN
1108	1.000000	0.632799	7.37589e+06	-55539.1	1055.82	-29741.2	0.000000	0.000000	6.632998	-0.101413	NaN	0.000000	0.001586	0.001732	28.0838	0.134508	0.001870	71.9256	-60.8327	11.9292	-0.064543	0.631501	-0.507701	-0.508999	-0.101413	71.9256	-0.506644	-4.24282e+06	2.390234E-8	NaN
1108	1.000000	0.674795	7.37589e+06	-55539.1	1055.82	-29741.2	0.000000	0.000000	6.674996	-0.039274	NaN	0.000000	0.001639	0.001728	28.0836	0.096385	0.002022	47.6797	169.652	-163.967	-0.072413	0.673522	-0.465706	-0.466978	-0.039274	47.6797	-0.465088	-1.11297e+06	3.528789E-8	NaN
1108	1.000000	0.716813	7.37589e+06	-55539.1	1055.82	-29741.2	0.000000	0.000000	6.717013	-0.068955	NaN	0.000000	0.001606	0.001745	28.0826	0.131091	0.001969	66.5669	-67.8504	13.283	-0.040756	0.715451	-0.423688	-0.425049	-0.068955	66.5669	-0.422911	-282933	2.437145E-7	NaN
1108	1.000000	0.758819	7.37589e+06	-55539.1	1055.82	-29741.2	0.000000	0.000000	6.759022	-0.008792	NaN	0.000000	0.001611	0.001707	28.0824	0.101054	0.001859	54.3706	52.6492	-166.617	-0.018485	0.757589	-0.381681	-0.382911	-0.008792	54.3706	-0.381560	-72823.9	1.207235E-7	NaN
1108	1.000000	0.800897	7.37589e+06	-55539.1	1055.82	-29741.2	0.000000	0.000000	6.801099	-0.037957	NaN	0.000000	0.001606	0.001750	28.0825	0.100782	0.001924	52.3843	147.607	18.9223	0.001670	0.799546	-0.339603	-0.340955	-0.037957	52.3843	-0.339060	-17694.7	2.145090E-6	NaN
1108	1.000000	0.842904	7.37589e+06	-55539.1	1055.82	-29741.2	0.000000	0.000000	6.843106	-0.022192	NaN	0.000000	0.001608	0.001739	28.0837	0.069669	0.002107	33.0664	21.1756	-167.072	0.000991	0.841635	-0.297597	-0.298865	-0.022192	33.0664	-0.297093	-4259.19	5.210321E-6	NaN
1108	1.000000	0.884910	7.37589e+06	-55539.1	1055.82	-29741.2	0.000000	0.000000	6.885111	-0.060770	NaN	0.000000	0.001613	0.001726	28.0839	0.085875	0.002022	42.4698	153.251	13.3654	-0.063023	0.883541	-0.255590	-0.256959	-0.060770	42.4698	-0.254517	-965.342	6.295178E-5	NaN
1108	1.000000	0.926925	7.37589e+06	-55539.1	1055.82	-29741.2	0.000000	0.000000	6.927125	-0.080616	NaN	0.000000	0.001562	0.001756	28.0839	0.147505	0.001919	76.8536	-142.696	-164.504	0.034532	0.925614	-0.213576	-0.214887	-0.080616	76.8536	-0.212789	-212.763	0.000379	NaN
1108	1.000000	0.968925	7.37589e+06	-55539.1	1055.82	-29741.2	0.000000	0.000000	6.969127	-0.032988	NaN	0.000000	0.001548	0.001728	28.0821	0.051006	0.001846	27.6324	-93.9003	13.887	-0.051400	0.967568	-0.171576	-0.172932	-0.032988	27.6324	-0.170680	-42.2102	0.000782	NaN
1108	1.000000	1.010948	7.37589e+06	-55539.1	1055.82	-29741.2	0.000000	0.000000	7.011150	-0.025267	NaN	0.000000	0.001603	0.001773	28.0822	0.043199	0.001860	23.2295	-43.1176	-165.042	-0.088209	1.009621	-0.129552	-0.130880	-0.025267	23.2295	-0.128736	-7.201273	0.003509	NaN
1108	1.000000	1.052949	7.37589e+06	-55539.1	1055.82	-29741.2	0.000000	0.000000	7.053150	-0.063005	NaN	0.000000	0.001623	0.001746	28.0822	0.040440	0.002053	19.7023	73.8263	12.4361	-0.046354	1.051624	-0.087551	-0.088876	-0.063005	19.7023	-0.085153	-0.828668	0.076031	NaN
1108	1.000000	1.094965	7.37589e+06	-55539.1	1055.82	-29741.2	0.000000	0.000000	7.095168	0.014068	NaN	0.000000	0.001591	0.001765	28.0833	0.052854	0.002037	25.9506	-96.4487	-165.887	-0.043806	1.093740	-0.045536	-0.046760	0.014068	25.9506	-0.045942	-0.068675	-0.204843	NaN
1108	1.000000	1.136978	7.37589e+06	-55539.1	1055.82	-29741.2	0.000000	0.000000	7.137182	0.032950	NaN	0.000000	0.001616	0.001714	28.0838	0.031404	0.002077	15.1218	-39.9713	13.9	0.042207	1.135689	-0.003522	-0.004811	0.032950	15.1218	-0.005157	-0.003515	-9.374569	NaN
1108	2.000000	1.153524	7.37589e+06	-55539.1	1055.82	-29741.2	0.000000	0.000000	7.155124	33.9574	NaN	0.000000	0.001598	0.001719	28.0842	20.0557	0.001834	10936.3	8.764187	-179.648	33.156	1.153200	0.013023	0.012700	33.9574	10936.3	0.010694	0.009964	3408.17	100101
1108	2.000000	1.163976	7.37589e+06	-55539.1	1055.82	-29741.2	0.000000	0.000000	7.167917	90.8616	NaN	0.000000	0.001611	0.001740	28.0836	30.9194	0.001759	17573.9	5.496051	-0.313426	89.2458	1.163625	0.023476	0.023125	90.8616	17573.9	0.019598	0.021915	4146.1	108461
1108	2.000000	1.174419	7.37589e+06	-55539.1	1055.82	-29741.2	0.000000	0.000000	7.181098	157.4	NaN	0.000000	0.001653	0.001690	28.0822	40.8442	0.001680	24315.7	-0.768636	-177.574	154.342	1.174184	0.033919	0.033684	157.4	24315.7	0.029064	0.038826	4053.96	112745
1108	2.000000	1.184898	7.37589e+06	-55539.1	1055.82	-29741.2	0.000000	0.000000	7.195319	248.383	NaN	0.000000	0.001586	0.001701	28.0822	52.0183	0.001700	30596.1	1.131222	-1.134915	243.016	1.184519	0.044397	0.044018	248.383	30596.1	0.038309	0.059730	4158.4	114378
1108	2.000000	1.195368	7.37589e+06	-55539.1	1055.82	-29741.2	0.000000	0.000000	7.209522	339.115	NaN	0.000000	0.001573	0.001762	28.0821	63.5066	0.001844	34433.6	5.058381	173.946	333.444	1.195153	0.054868	0.054652	339.115	34433.6	0.047481	0.084788	3999.59	108041
1108	2.000000	1.205907	7.37589e+06	-55539.1	1055.82	-29741.2	0.000000	0.000000	7.225553	472.641	NaN	0.000000	0.001560	0.001734	28.0837	74.0138	0.001762	42007.7	1.560833	-3.687816	468.623	1.205618	0.065406	0.065118	472.641	42007.7	0.056968	0.115160	4104.21	113097
1108	2.000000	1.216194	7.37589e+06	-55539.1	1055.82	-29741.2	0.000000	0.000000	7.241598	612.586	NaN	0.000000	0.001536	0.001742	28.0837	83.6085	0.001815	46068.2	2.663635	174.72	600.979	1.215927	0.075693	0.075426	612.586	46068.2	0.065720	0.147116	4163.95	109735
1108	2.000000	1.226649	7.37589e+06	-55539.1	1055.82	-29741.2	0.000000	0.000000	7.257130	736.006	NaN	0.000000	0.001537	0.001762	28.0845	92.5006	0.001705	54247	0.577290	-4.597036	721.895	1.226361	0.086148	0.085861	736.006	54247	0.075972	0.189228	3889.52	113935
1108	2.000000	1.237144	7.37589e+06	-55539.1	1055.82	-29741.2	0.000000	0.000000	7.275387	924.679	NaN	0.000000	0.001605	0.001729	28.0822	104.281	0.001781	58553.8	1.578238	174.354	909.758	1.236839	0.096644	0.096338	924.679	58553.8	0.084800	0.229448	4030.02	111683
1108	2.000000	1.243844	7.37589e+06	-55539.1	1055.82	-29741.2	0.000000	0.000000	7.286283	1026.68	NaN	0.000000	0.001635	0.001713	28.0833	110.414	0.001770	62383.4	0.717822	-4.926303	1022.2	1.243480	0.103344	0.102980	1026.68	62383.4	0.091001	0.259857	3950.92	111808