File: remote_trans/data/nanoindenter/0828-1/data/Data_2025-08-06,11h17m57s/2025-07-22_16-23-58_1_365.txt
2025-07-22, 16:23:58, 1
Index	Phase	Displacement	Time	Pos X	Pos Y	Pos Z	Rot A	Rot B	Piezo Z	Force A	Force B	Gripper	Voltage A	Voltage B	Temperature	Amplitude force	Amplitude pos	Stiffness	Phase shift	Phase excitation	Force A raw	Displacement raw	HMax	HMax raw	Real Force	Real Stiffness	Contact Depth	Area	Hardness	Reduced Mod.
[#]	[#]	[um]	[s]	[um]	[um]	[um]	[m°]	[m°]	[um]	[uN]	[uN]	[V]	[V]	[V]	[°C]	[uN]	[um]	[N/m]	[°]	[°]	[uN]	[um]	[um]	[um]	[uN]	[N/m]	[um]	[um^2]	[MPa]	[MPa]
365	1.000000	0.002082	7.36863e+06	-56889.1	955.817	-29738.2	0.000000	0.000000	6.002774	-0.050384	NaN	0.000000	0.001719	0.001676	28.0804	0.039913	0.001044	38.2457	-153.223	-163.554	-0.083528	0.000848	-1.009297	-1.010532	-0.050384	38.2457	-1.008309	-2.935104E+13	1.716603E-15	NaN
365	1.000000	0.042083	7.36863e+06	-56889.1	955.819	-29738.2	0.000000	0.000000	6.042778	0.035124	NaN	0.000000	0.001707	0.001647	28.0802	0.046670	0.001974	23.6445	-22.0726	-168.226	-0.009509	0.040763	-0.969297	-0.970616	0.035124	23.6445	-0.970411	-9.061499E+12	-3.876171E-15	NaN
365	1.000000	0.082054	7.36863e+06	-56889.1	955.818	-29738.2	0.000000	0.000000	6.082745	-0.061113	NaN	0.000000	0.001714	0.001695	28.0802	0.024107	0.001967	12.2575	133.717	-167.94	-0.149056	0.080800	-0.929326	-0.930580	-0.061113	12.2575	-0.925586	-2.252282E+12	2.713397E-14	NaN
365	1.000000	0.122113	7.36863e+06	-56889.1	955.818	-29738.2	0.000000	0.000000	6.122808	0.017833	NaN	0.000000	0.001638	0.001717	28.0806	0.033172	0.002064	16.0699	-45.8798	-167.159	-0.002128	0.120775	-0.889266	-0.890604	0.017833	16.0699	-0.890099	-7.468749E+11	-2.387684E-14	NaN
365	1.000000	0.162139	7.36863e+06	-56889.1	955.817	-29738.2	0.000000	0.000000	6.162832	-0.006391	NaN	0.000000	0.001611	0.001685	28.0818	0.065684	0.002010	32.6852	171.197	-164.133	-0.065247	0.160793	-0.849241	-0.850586	-0.006391	32.6852	-0.849094	-2.081942E+11	3.069779E-14	NaN
365	1.000000	0.202127	7.36863e+06	-56889.1	955.818	-29738.2	0.000000	0.000000	6.202821	0.012741	NaN	0.000000	0.001685	0.001675	28.0819	0.149872	0.002081	72.0019	53.0441	-165.745	0.000280	0.200845	-0.809253	-0.810534	0.012741	72.0019	-0.809385	-6.028792E+10	-2.113361E-13	NaN
365	1.000000	0.242123	7.36863e+06	-56889.1	955.819	-29738.2	0.000000	0.000000	6.242818	0.020923	NaN	0.000000	0.001717	0.001680	28.0823	0.073449	0.002069	35.501	-26.9835	-161.128	-0.010296	0.240874	-0.769256	-0.770505	0.020923	35.501	-0.769698	-1.742626E+10	-1.200680E-12	NaN
365	1.000000	0.282171	7.36863e+06	-56889.1	955.818	-29738.2	0.000000	0.000000	6.282862	-0.065067	NaN	0.000000	0.001661	0.001730	28.081	0.046095	0.002034	22.6637	143.086	-164.407	-0.104595	0.280837	-0.729208	-0.730542	-0.065067	22.6637	-0.727055	-4.577888E+9	1.421332E-11	NaN
365	1.000000	0.322181	7.36863e+06	-56889.1	955.818	-29738.2	0.000000	0.000000	6.322874	-0.027447	NaN	0.000000	0.001710	0.001661	28.0808	0.090524	0.001971	45.9163	-102.315	-164.657	0.065077	0.320841	-0.689198	-0.690538	-0.027447	45.9163	-0.688750	-1.373523E+9	1.998274E-11	NaN
365	1.000000	0.362175	7.36863e+06	-56889.1	955.818	-29738.2	0.000000	0.000000	6.362868	-0.027234	NaN	0.000000	0.001731	0.001708	28.0804	0.055022	0.002125	25.8909	34.8663	-161.178	-0.062027	0.360922	-0.649204	-0.650457	-0.027234	25.8909	-0.648415	-3.852209E+8	7.069595E-11	NaN
365	1.000000	0.402194	7.36863e+06	-56889.1	955.819	-29738.2	0.000000	0.000000	6.402888	-0.001825	NaN	0.000000	0.001654	0.001709	28.0803	0.084312	0.001905	44.249	153.291	-164.917	0.033692	0.400908	-0.609185	-0.610471	-0.001825	44.249	-0.609154	-1.112944E+8	1.640007E-11	NaN
365	1.000000	0.442239	7.36863e+06	-56889.1	955.819	-29738.2	0.000000	0.000000	6.442934	0.027639	NaN	0.000000	0.001660	0.001670	28.0816	0.077574	0.002137	36.296	-176.149	-164.277	0.012376	0.440909	-0.569140	-0.570470	0.027639	36.296	-0.569712	-3.181606E+7	-8.687238E-10	NaN
365	1.000000	0.482245	7.36863e+06	-56889.1	955.818	-29738.2	0.000000	0.000000	6.482936	-0.082851	NaN	0.000000	0.001682	0.001632	28.0817	0.015150	0.002067	7.330866	-72.3961	-164.582	-0.087976	0.480934	-0.529134	-0.530445	-0.082851	7.330866	-0.520658	-6.64882e+06	1.246094E-8	NaN
365	1.000000	0.522247	7.36863e+06	-56889.1	955.818	-29738.2	0.000000	0.000000	6.522942	0.039143	NaN	0.000000	0.001642	0.001688	28.0815	0.012597	0.001897	6.641252	61.5038	-163.821	0.000336	0.520956	-0.489133	-0.490423	0.039143	6.641252	-0.493553	-2.78632e+06	-1.404815E-8	NaN
365	1.000000	0.562267	7.36863e+06	-56889.1	955.819	-29738.2	0.000000	0.000000	6.562959	-0.032238	NaN	0.000000	0.001631	0.001673	28.0804	0.077067	0.002000	38.5239	73.3436	-166.012	-0.017845	0.560938	-0.449113	-0.450442	-0.032238	38.5239	-0.448485	-650140	4.958634E-8	NaN
365	1.000000	0.602285	7.36863e+06	-56889.1	955.818	-29738.2	0.000000	0.000000	6.602977	-0.045715	NaN	0.000000	0.001645	0.001673	28.0805	0.123207	0.001928	63.8896	179.592	-164.271	-0.000264	0.601007	-0.409094	-0.410372	-0.045715	63.8896	-0.408558	-176964	2.583263E-7	NaN
365	1.000000	0.642318	7.36863e+06	-56889.1	955.82	-29738.2	0.000000	0.000000	6.643010	-0.039315	NaN	0.000000	0.001661	0.001672	28.0806	0.039446	0.001999	19.7329	-39.4046	-165.47	-0.030545	0.641014	-0.369062	-0.370366	-0.039315	19.7329	-0.367568	-45822.7	8.579817E-7	NaN
365	1.000000	0.682322	7.36864e+06	-56889.1	955.819	-29738.2	0.000000	0.000000	6.683017	0.010359	NaN	0.000000	0.001605	0.001723	28.0818	0.077409	0.001977	39.1452	146.059	-164.002	0.048926	0.680965	-0.329057	-0.330415	0.010359	39.1452	-0.329255	-12721.7	-8.143180E-7	NaN
365	1.000000	0.722326	7.36864e+06	-56889.1	955.818	-29738.2	0.000000	0.000000	6.723022	0.050775	NaN	0.000000	0.001658	0.001694	28.0819	0.064903	0.001949	33.305	-177.388	-166.517	-0.017035	0.720998	-0.289053	-0.290382	0.050775	33.305	-0.290197	-3359.28	-1.511474E-5	NaN
365	1.000000	0.762364	7.36864e+06	-56889.1	955.818	-29738.2	0.000000	0.000000	6.763058	-0.010502	NaN	0.000000	0.001685	0.001684	28.0822	0.167513	0.002056	81.4614	82.3478	-164.819	-0.052779	0.761056	-0.249015	-0.250323	-0.010502	81.4614	-0.248918	-791.099	1.327461E-5	NaN
365	1.000000	0.802381	7.36864e+06	-56889.1	955.818	-29738.2	0.000000	0.000000	6.803076	0.020221	NaN	0.000000	0.001647	0.001732	28.082	0.049139	0.002133	23.0351	-29.6309	-168.188	-0.018735	0.801072	-0.208998	-0.210307	0.020221	23.0351	-0.209657	-189.346	-0.000107	NaN
365	1.000000	0.842380	7.36864e+06	-56889.1	955.817	-29738.2	0.000000	0.000000	6.843074	0.003062	NaN	0.000000	0.001650	0.001736	28.0807	0.149103	0.001998	74.6406	85.9085	-165.073	0.000664	0.841060	-0.169000	-0.170319	0.003062	74.6406	-0.169031	-39.5149	-7.748208E-5	NaN
365	1.000000	0.882401	7.36864e+06	-56889.1	955.818	-29738.2	0.000000	0.000000	6.883095	0.009092	NaN	0.000000	0.001625	0.001693	28.0807	0.054885	0.002127	25.7989	-151.73	-164.919	0.042034	0.881132	-0.128979	-0.130247	0.009092	25.7989	-0.129243	-7.366927	-0.001234	NaN
365	1.000000	0.922389	7.36864e+06	-56889.1	955.819	-29738.2	0.000000	0.000000	6.923080	-0.077227	NaN	0.000000	0.001645	0.001708	28.0808	0.022182	0.002142	10.3556	130.783	-164.485	-0.036050	0.921085	-0.088990	-0.090294	-0.077227	10.3556	-0.083397	-0.751074	0.102822	NaN
365	1.000000	0.962446	7.36864e+06	-56889.1	955.82	-29738.2	0.000000	0.000000	6.963139	-0.027929	NaN	0.000000	0.001647	0.001694	28.0819	0.087606	0.002048	42.7692	0.333876	-167.785	0.024233	0.961146	-0.048933	-0.050233	-0.027929	42.7692	-0.048443	-0.081852	0.341217	NaN
365	1.000000	1.002443	7.36864e+06	-56889.1	955.82	-29738.2	0.000000	0.000000	7.003135	-0.044269	NaN	0.000000	0.001670	0.001672	28.082	0.021500	0.002057	10.4538	-12.0425	-163.274	-0.006937	1.001165	-0.008936	-0.010214	-0.044269	10.4538	-0.005760	-0.003889	11.3825	NaN
365	2.000000	1.025976	7.36864e+06	-56889.1	955.818	-29738.2	0.000000	0.000000	7.027277	14.7412	NaN	0.000000	0.001723	0.001697	28.0818	15.5784	0.001821	8556.11	13.3846	-179.354	15.3213	1.025656	0.014597	0.014276	14.7412	8556.11	0.013305	0.013091	1126.07	68322.7
365	2.000000	1.035953	7.36864e+06	-56889.1	955.819	-29738.2	0.000000	0.000000	7.038152	36.5744	NaN	0.000000	0.001740	0.001662	28.0816	25.0997	0.001839	13646.1	7.236281	-178.172	37.3408	1.035591	0.024574	0.024212	36.5744	13646.1	0.022564	0.026732	1368.2	76255
365	2.000000	1.045874	7.36864e+06	-56889.1	955.818	-29738.2	0.000000	0.000000	7.049063	60.6519	NaN	0.000000	0.001711	0.001712	28.0803	34.9417	0.001909	18304.2	6.135904	179.776	59.2267	1.045600	0.034494	0.034221	60.6519	18304.2	0.032009	0.045011	1347.5	78825.5
365	2.000000	1.055863	7.36864e+06	-56889.1	955.82	-29738.2	0.000000	0.000000	7.060410	93.654	NaN	0.000000	0.001672	0.001647	28.0802	44.4405	0.001767	25144.3	2.260805	-179.252	95.0579	1.055598	0.044483	0.044218	93.654	25144.3	0.041690	0.068469	1367.84	87794.4
365	2.000000	1.065910	7.36864e+06	-56889.1	955.818	-29738.2	0.000000	0.000000	7.072114	133.944	NaN	0.000000	0.001699	0.001673	28.0804	53.5629	0.001684	31814.2	2.503275	177.141	134.458	1.065605	0.054530	0.054225	133.944	31814.2	0.051373	0.096703	1385.11	93470.7
365	2.000000	1.075812	7.36864e+06	-56889.1	955.82	-29738.2	0.000000	0.000000	7.083961	181.207	NaN	0.000000	0.001685	0.001658	28.0816	63.984	0.001888	33881.2	5.353461	174.777	179.412	1.075570	0.064433	0.064191	181.207	33881.2	0.060421	0.127324	1423.2	86751.5
365	2.000000	1.085861	7.36864e+06	-56889.1	955.82	-29738.2	0.000000	0.000000	7.096373	238.62	NaN	0.000000	0.001660	0.001711	28.0817	73.4789	0.001872	39257.9	8.049024	171.763	239.656	1.085431	0.074482	0.074052	238.62	39257.9	0.069923	0.163775	1457	88629.1
365	2.000000	1.095863	7.36864e+06	-56889.1	955.821	-29738.2	0.000000	0.000000	7.108520	290.78	NaN	0.000000	0.001709	0.001612	28.0816	84.2743	0.001819	46317.9	6.067295	171.765	290.52	1.095424	0.084484	0.084045	290.78	46317.9	0.079775	0.206109	1410.81	93212.3
365	2.000000	1.105688	7.36864e+06	-56889.1	955.819	-29738.2	0.000000	0.000000	7.121213	360.461	NaN	0.000000	0.001657	0.001684	28.0806	91.143	0.001896	48082.6	3.100943	174.662	355.266	1.105436	0.094309	0.094057	360.461	48082.6	0.088687	0.248301	1451.71	88160.1
365	2.000000	1.115832	7.36864e+06	-56889.1	955.821	-29738.2	0.000000	0.000000	7.134219	430.048	NaN	0.000000	0.001664	0.001660	28.081	100.361	0.001858	54022.4	5.565703	171.832	429.992	1.115459	0.104452	0.104079	430.048	54022.4	0.098482	0.298887	1438.83	90280.4
365	2.000000	1.118728	7.36864e+06	-56889.1	955.821	-29738.2	0.000000	0.000000	7.138020	452.039	NaN	0.000000	0.001687	0.001646	28.0804	103.083	0.001796	57394.3	4.204645	172.666	447.376	1.118447	0.107349	0.107068	452.039	57394.3	0.101442	0.315034	1434.89	93425