File: remote_trans/data/nanoindenter/0828-1/data/Data_2025-08-06,11h17m57s/2025-07-22_16-23-58_1_380.txt
2025-07-22, 16:23:58, 1
Index	Phase	Displacement	Time	Pos X	Pos Y	Pos Z	Rot A	Rot B	Piezo Z	Force A	Force B	Gripper	Voltage A	Voltage B	Temperature	Amplitude force	Amplitude pos	Stiffness	Phase shift	Phase excitation	Force A raw	Displacement raw	HMax	HMax raw	Real Force	Real Stiffness	Contact Depth	Area	Hardness	Reduced Mod.
[#]	[#]	[um]	[s]	[um]	[um]	[um]	[m°]	[m°]	[um]	[uN]	[uN]	[V]	[V]	[V]	[°C]	[uN]	[um]	[N/m]	[°]	[°]	[uN]	[um]	[um]	[um]	[uN]	[N/m]	[um]	[um^2]	[MPa]	[MPa]
380	1.000000	0.002598	7.36878e+06	-57639.1	955.818	-29736.9	0.000000	0.000000	6.002788	-0.051482	NaN	0.000000	0.001597	0.001705	28.0815	0.003480	0.000834	4.173829	-54.8235	-164.467	-0.055867	0.001376	-1.081084	-1.082306	-0.051482	4.173829	-1.071833	-2.098042E+14	2.453796E-16	NaN
380	1.000000	0.044559	7.36878e+06	-57639.1	955.819	-29736.9	0.000000	0.000000	6.044750	-0.024006	NaN	0.000000	0.001687	0.001692	28.0815	0.052604	0.002038	25.8088	39.922	17.2077	0.005417	0.043218	-1.039123	-1.040464	-0.024006	25.8088	-1.038425	-7.460951E+13	3.217490E-16	NaN
380	1.000000	0.086560	7.36878e+06	-57639.1	955.818	-29736.9	0.000000	0.000000	6.086751	-0.037745	NaN	0.000000	0.001659	0.001687	28.0814	0.041277	0.002016	20.4756	-117.963	-164.132	-0.015188	0.085280	-0.997122	-0.998402	-0.037745	20.4756	-0.995739	-1.987928E+13	1.898693E-15	NaN
380	1.000000	0.128572	7.36878e+06	-57639.1	955.819	-29736.9	0.000000	0.000000	6.128763	-0.017373	NaN	0.000000	0.001653	0.001715	28.0813	0.017624	0.001968	8.955713	-86.5519	18.8213	-0.022523	0.127257	-0.955110	-0.956426	-0.017373	8.955713	-0.953655	-5.386720E+12	3.225062E-15	NaN
380	1.000000	0.170620	7.36878e+06	-57639.1	955.818	-29736.9	0.000000	0.000000	6.170809	-0.083739	NaN	0.000000	0.001577	0.001687	28.0805	0.062389	0.001965	31.7467	-74.4943	-163.709	-0.063245	0.169309	-0.913062	-0.914374	-0.083739	31.7467	-0.911084	-1.434835E+12	5.836174E-14	NaN
380	1.000000	0.212591	7.36878e+06	-57639.1	955.819	-29736.9	0.000000	0.000000	6.212784	0.037346	NaN	0.000000	0.001596	0.001683	28.0813	0.085451	0.002003	42.6607	1.661635	14.2839	0.026033	0.211263	-0.871092	-0.872419	0.037346	42.6607	-0.871748	-4.217888E+11	-8.854184E-14	NaN
380	1.000000	0.254623	7.36878e+06	-57639.1	955.819	-29736.9	0.000000	0.000000	6.254816	0.019999	NaN	0.000000	0.001675	0.001655	28.0803	0.080112	0.002053	39.0283	-38.3048	-165.713	-0.004598	0.253327	-0.829059	-0.830355	0.019999	39.0283	-0.829443	-1.127821E+11	-1.773244E-13	NaN
380	1.000000	0.296670	7.36878e+06	-57639.1	955.818	-29736.9	0.000000	0.000000	6.296861	-0.009898	NaN	0.000000	0.001610	0.001671	28.0811	0.077745	0.001948	39.9064	-31.4604	11.106	0.019730	0.295316	-0.787013	-0.788367	-0.009898	39.9064	-0.786827	-2.978381E+10	3.323272E-13	NaN
380	1.000000	0.338659	7.36878e+06	-57639.1	955.818	-29736.9	0.000000	0.000000	6.338850	-0.028988	NaN	0.000000	0.001755	0.001655	28.081	0.049228	0.002054	23.9645	174.727	-162.401	-0.033623	0.337375	-0.745023	-0.746307	-0.028988	23.9645	-0.744116	-7.818245E+9	3.707722E-12	NaN
380	1.000000	0.380684	7.36878e+06	-57639.1	955.818	-29736.9	0.000000	0.000000	6.380872	-0.093754	NaN	0.000000	0.001698	0.001672	28.0811	0.053644	0.001964	27.3111	-141.44	21.1111	-0.077905	0.379352	-0.702998	-0.704330	-0.093754	27.3111	-0.700424	-1.982981E+9	4.727942E-11	NaN
380	1.000000	0.422701	7.36878e+06	-57639.1	955.818	-29736.9	0.000000	0.000000	6.422893	0.013306	NaN	0.000000	0.001633	0.001697	28.08	0.133222	0.002119	62.8754	170.592	-165.413	-0.041210	0.421437	-0.660981	-0.662246	0.013306	62.8754	-0.661140	-5.755503E+8	-2.311805E-11	NaN
380	1.000000	0.464711	7.36878e+06	-57639.1	955.818	-29736.9	0.000000	0.000000	6.464901	-0.037316	NaN	0.000000	0.001661	0.001709	28.0804	0.081649	0.001880	43.4402	111.753	14.8682	-0.013349	0.463362	-0.618972	-0.620320	-0.037316	43.4402	-0.618327	-1.488129E+8	2.507595E-10	NaN
380	1.000000	0.506702	7.36878e+06	-57639.1	955.819	-29736.9	0.000000	0.000000	6.506894	0.004977	NaN	0.000000	0.001609	0.001667	28.0802	0.083528	0.002139	39.0489	169.035	-162.447	-0.032606	0.505446	-0.576980	-0.578236	0.004977	39.0489	-0.577076	-4.021215E+7	-1.237678E-10	NaN
380	1.000000	0.548780	7.36878e+06	-57639.1	955.818	-29736.9	0.000000	0.000000	6.548970	-0.038314	NaN	0.000000	0.001575	0.001664	28.0812	0.044470	0.001920	23.1608	-6.884748	14.9896	-0.090255	0.547406	-0.534902	-0.536276	-0.038314	23.1608	-0.533662	-1.007898E+7	3.801362E-9	NaN
380	1.000000	0.590787	7.36878e+06	-57639.1	955.818	-29736.9	0.000000	0.000000	6.590977	-0.054471	NaN	0.000000	0.001644	0.001628	28.0812	0.031008	0.002071	14.9709	154.631	-161.033	-0.073201	0.589480	-0.492895	-0.494202	-0.054471	14.9709	-0.490166	-2.49868e+06	2.179981E-8	NaN
380	1.000000	0.632802	7.36878e+06	-57639.1	955.818	-29736.9	0.000000	0.000000	6.632993	-0.016316	NaN	0.000000	0.001724	0.001605	28.0813	0.109584	0.001981	55.3248	-50.1275	17.8202	-0.055343	0.631431	-0.450880	-0.452251	-0.016316	55.3248	-0.450659	-697630	2.338781E-8	NaN
380	1.000000	0.674830	7.36878e+06	-57639.1	955.819	-29736.9	0.000000	0.000000	6.675023	0.018455	NaN	0.000000	0.001688	0.001638	28.0812	0.038586	0.001950	19.7901	27.1523	-165.458	0.044541	0.673545	-0.408852	-0.410137	0.018455	19.7901	-0.409551	-182818	-1.009477E-7	NaN
380	1.000000	0.716826	7.36878e+06	-57639.1	955.818	-29736.9	0.000000	0.000000	6.717019	0.036076	NaN	0.000000	0.001665	0.001663	28.0805	0.120175	0.002044	58.7796	97.6125	13.9288	0.081652	0.715442	-0.366857	-0.368240	0.036076	58.7796	-0.367317	-45443.2	-7.938785E-7	NaN
380	1.000000	0.758859	7.36878e+06	-57639.1	955.817	-29736.9	0.000000	0.000000	6.759047	-0.099457	NaN	0.000000	0.001678	0.001662	28.08	0.081295	0.001892	42.9642	57.2268	-165.834	-0.099966	0.757503	-0.324823	-0.326180	-0.099457	42.9642	-0.323087	-10328.7	9.629194E-6	NaN
380	1.000000	0.800862	7.36878e+06	-57639.1	955.818	-29736.9	0.000000	0.000000	6.801047	-0.176753	NaN	0.000000	0.001663	0.001631	28.0801	0.043627	0.002072	21.053	-9.516322	12.3427	-0.130475	0.799485	-0.282820	-0.284197	-0.176753	21.053	-0.276523	-2091.48	8.451100E-5	NaN
380	1.000000	0.842862	7.36878e+06	-57639.1	955.819	-29736.9	0.000000	0.000000	6.843054	-0.003059	NaN	0.000000	0.001621	0.001634	28.0815	0.090899	0.001837	49.4847	143.003	-166.126	-0.080428	0.841575	-0.240820	-0.242107	-0.003059	49.4847	-0.240773	-591.055	5.175814E-6	NaN
380	1.000000	0.884912	7.36878e+06	-57639.1	955.818	-29736.9	0.000000	0.000000	6.885103	-0.017937	NaN	0.000000	0.001624	0.001596	28.0812	0.086896	0.002042	42.5639	94.7471	13.4146	0.060598	0.883553	-0.198770	-0.200130	-0.017937	42.5639	-0.198454	-124.239	0.000144	NaN
380	1.000000	0.926930	7.36878e+06	-57639.1	955.818	-29736.9	0.000000	0.000000	6.927122	0.008926	NaN	0.000000	0.001649	0.001654	28.0814	0.083742	0.002020	41.453	88.4782	-164.926	-0.015512	0.925676	-0.156753	-0.158006	0.008926	41.453	-0.156914	-24.1512	-0.000370	NaN
380	1.000000	0.968977	7.36878e+06	-57639.1	955.817	-29736.9	0.000000	0.000000	6.969166	-0.084680	NaN	0.000000	0.001616	0.001627	28.0798	0.070250	0.002049	34.2778	141.511	13.8974	-0.032008	0.967640	-0.114705	-0.116042	-0.084680	34.2778	-0.112852	-3.448381	0.024556	NaN
380	1.000000	1.010959	7.36878e+06	-57639.1	955.818	-29736.9	0.000000	0.000000	7.011149	-0.052456	NaN	0.000000	0.001610	0.001624	28.0798	0.036610	0.001936	18.9077	-174.832	-166.521	-0.046615	1.009671	-0.072723	-0.074011	-0.052456	18.9077	-0.070642	-0.354855	0.147823	NaN
380	1.000000	1.052972	7.36878e+06	-57639.1	955.819	-29736.9	0.000000	0.000000	7.053166	0.049115	NaN	0.000000	0.001598	0.001614	28.0799	0.056076	0.002062	27.1946	52.4945	17.2516	-0.020676	1.051645	-0.030710	-0.032038	0.049115	27.1946	-0.032064	-0.026318	-1.866227	NaN
380	2.000000	1.093594	7.36878e+06	-57639.1	955.818	-29736.9	0.000000	0.000000	7.094177	9.517490	NaN	0.000000	0.001620	0.001612	28.082	7.685678	0.001821	4220.96	12.4827	-171.213	9.356573	1.093150	0.009911	0.009468	9.517490	4220.96	0.008220	0.007270	1309.16	45229.3
380	2.000000	1.103958	7.36878e+06	-57639.1	955.817	-29736.9	0.000000	0.000000	7.106055	46.2893	NaN	0.000000	0.001576	0.001609	28.0812	21.1123	0.001882	11219.1	7.436864	2.036307	44.4754	1.103647	0.020276	0.019964	46.2893	11219.1	0.017182	0.018306	2528.68	75759.6
380	2.000000	1.114504	7.36878e+06	-57639.1	955.818	-29736.9	0.000000	0.000000	7.119399	114.288	NaN	0.000000	0.001627	0.001631	28.081	30.8435	0.001864	16549.2	6.451786	178.981	113.064	1.114091	0.030822	0.030409	114.288	16549.2	0.025643	0.032195	3549.85	84266.7
380	2.000000	1.124979	7.36878e+06	-57639.1	955.817	-29736.9	0.000000	0.000000	7.132808	185.604	NaN	0.000000	0.001611	0.001639	28.0811	38.6706	0.001891	20452.9	5.400324	-2.424409	184.409	1.124657	0.041297	0.040975	185.604	20452.9	0.034491	0.050567	3670.49	83099.2
380	2.000000	1.135445	7.36878e+06	-57639.1	955.818	-29736.9	0.000000	0.000000	7.146783	270.885	NaN	0.000000	0.001701	0.001658	28.0798	45.7	0.001796	25448.5	4.594666	176.795	269.408	1.135081	0.051763	0.051399	270.885	25448.5	0.043779	0.074160	3652.72	85378.9
380	2.000000	1.145884	7.36878e+06	-57639.1	955.817	-29736.9	0.000000	0.000000	7.160666	354.589	NaN	0.000000	0.001695	0.001717	28.0799	53.0063	0.001852	28622.1	1.382813	-1.210135	350.482	1.145558	0.062202	0.061875	354.589	28622.1	0.052910	0.101621	3489.33	82031.8
380	2.000000	1.156520	7.36879e+06	-57639.1	955.816	-29736.9	0.000000	0.000000	7.174882	441.606	NaN	0.000000	0.001657	0.001678	28.0799	61.6134	0.001728	35657.6	4.556941	175.294	444.258	1.156049	0.072837	0.072367	441.606	35657.6	0.063549	0.138841	3180.66	87431.2
380	2.000000	1.167020	7.36879e+06	-57639.1	955.817	-29736.9	0.000000	0.000000	7.188046	506.355	NaN	0.000000	0.001672	0.001734	28.0814	69.28	0.001699	40784.5	3.355206	-6.387318	510.998	1.166801	0.083338	0.083119	506.355	40784.5	0.074026	0.180851	2799.85	87621
380	2.000000	1.177340	7.36879e+06	-57639.1	955.818	-29736.9	0.000000	0.000000	7.201656	586.297	NaN	0.000000	0.001675	0.001721	28.081	78.1793	0.001968	39725.4	3.968800	174.16	582.626	1.177039	0.093658	0.093357	586.297	39725.4	0.082589	0.219035	2676.73	77550.6
380	2.000000	1.187842	7.36879e+06	-57639.1	955.817	-29736.9	0.000000	0.000000	7.215045	656.482	NaN	0.000000	0.001686	0.001659	28.0814	84.2026	0.001829	46031	3.130259	-5.938267	654.479	1.187576	0.104160	0.103894	656.482	46031	0.093464	0.272424	2409.78	80575.1
380	2.000000	1.191833	7.36879e+06	-57639.1	955.816	-29736.9	0.000000	0.000000	7.219843	676.095	NaN	0.000000	0.001586	0.001678	28.0819	88.1868	0.001847	47749.8	5.982228	-9.592140	671.274	1.191592	0.108151	0.107910	676.095	47749.8	0.097531	0.293787	2301.31	80487.5