File: remote_trans/data/nanoindenter/0828-1/data/Data_2025-08-06,11h17m57s/2025-07-22_16-23-58_1_191.txt
2025-07-22, 16:23:58, 1
Index	Phase	Displacement	Time	Pos X	Pos Y	Pos Z	Rot A	Rot B	Piezo Z	Force A	Force B	Gripper	Voltage A	Voltage B	Temperature	Amplitude force	Amplitude pos	Stiffness	Phase shift	Phase excitation	Force A raw	Displacement raw	HMax	HMax raw	Real Force	Real Stiffness	Contact Depth	Area	Hardness	Reduced Mod.
[#]	[#]	[um]	[s]	[um]	[um]	[um]	[m°]	[m°]	[um]	[uN]	[uN]	[V]	[V]	[V]	[°C]	[uN]	[um]	[N/m]	[°]	[°]	[uN]	[um]	[um]	[um]	[uN]	[N/m]	[um]	[um^2]	[MPa]	[MPa]
191	1.000000	0.003176	7.36691e+06	-48189.1	955.818	-29763.7	0.000000	0.000000	6.002823	0.021631	NaN	0.000000	0.001670	0.001764	28.0791	0.068238	0.001029	66.3101	-22.2833	-164.944	-0.106829	0.001899	-1.091642	-1.092920	0.021631	66.3101	-1.091887	-3.900775E+14	-5.545381E-17	NaN
191	1.000000	0.045077	7.36691e+06	-48189.1	955.818	-29763.7	0.000000	0.000000	6.044723	0.031516	NaN	0.000000	0.001681	0.001694	28.079	0.107108	0.001923	55.6896	92.9736	14.3731	-0.084502	0.043809	-1.049742	-1.051010	0.031516	55.6896	-1.050167	-1.073133E+14	-2.936806E-16	NaN
191	1.000000	0.087130	7.36691e+06	-48189.1	955.817	-29763.7	0.000000	0.000000	6.086779	0.084768	NaN	0.000000	0.001672	0.001703	28.0787	0.037206	0.001853	20.0765	83.0084	-166.267	0.046097	0.085797	-1.007689	-1.009022	0.084768	20.0765	-1.010855	-3.176090E+13	-2.668931E-15	NaN
191	1.000000	0.129116	7.36691e+06	-48189.1	955.818	-29763.7	0.000000	0.000000	6.128762	0.027918	NaN	0.000000	0.001698	0.001690	28.0789	0.073254	0.002052	35.693	-105.629	17.4936	-0.029604	0.127782	-0.965703	-0.967036	0.027918	35.693	-0.966290	-7.973659E+12	-3.501281E-15	NaN
191	1.000000	0.171124	7.36691e+06	-48189.1	955.819	-29763.7	0.000000	0.000000	6.170770	0.011023	NaN	0.000000	0.001636	0.001729	28.0799	0.028923	0.001985	14.5722	-165.445	-165.341	-0.028057	0.169817	-0.923695	-0.925001	0.011023	14.5722	-0.924262	-2.161479E+12	-5.099886E-15	NaN
191	1.000000	0.213154	7.36691e+06	-48189.1	955.819	-29763.7	0.000000	0.000000	6.212802	0.061934	NaN	0.000000	0.001657	0.001711	28.0801	0.049290	0.001893	26.0445	107.034	13.5254	0.105913	0.211797	-0.881665	-0.883022	0.061934	26.0445	-0.883449	-6.072132E+11	-1.019966E-13	NaN
191	1.000000	0.255183	7.36691e+06	-48189.1	955.818	-29763.7	0.000000	0.000000	6.254832	0.082567	NaN	0.000000	0.001658	0.001734	28.0803	0.049795	0.002021	24.6393	162.802	-166.363	0.069725	0.253945	-0.839636	-0.840874	0.082567	24.6393	-0.842149	-1.676505E+11	-4.924957E-13	NaN
191	1.000000	0.297184	7.36691e+06	-48189.1	955.819	-29763.7	0.000000	0.000000	6.296830	0.024021	NaN	0.000000	0.001618	0.001781	28.0791	0.092005	0.002038	45.1341	-176.404	14.3448	0.071157	0.295865	-0.797635	-0.798954	0.024021	45.1341	-0.798034	-4.228430E+10	-5.680929E-13	NaN
191	1.000000	0.339224	7.36691e+06	-48189.1	955.819	-29763.7	0.000000	0.000000	6.338869	0.000722	NaN	0.000000	0.001622	0.001789	28.0787	0.145363	0.001972	73.7153	152.654	-165.135	-0.001243	0.337942	-0.755595	-0.756877	0.000722	73.7153	-0.755602	-1.120638E+10	-6.442453E-14	NaN
191	1.000000	0.381229	7.36691e+06	-48189.1	955.818	-29763.7	0.000000	0.000000	6.380875	0.016173	NaN	0.000000	0.001631	0.001777	28.0788	0.027143	0.002011	13.4962	-88.6975	17.5504	0.027087	0.379898	-0.713590	-0.714920	0.016173	13.4962	-0.714489	-3.085295E+9	-5.241811E-12	NaN
191	1.000000	0.423304	7.36691e+06	-48189.1	955.818	-29763.7	0.000000	0.000000	6.422950	0.015882	NaN	0.000000	0.001599	0.001754	28.0799	0.129407	0.002050	63.1289	145.698	-168.49	0.118153	0.421933	-0.671515	-0.672886	0.015882	63.1289	-0.671704	-8.029863E+8	-1.977817E-11	NaN
191	1.000000	0.465275	7.36691e+06	-48189.1	955.817	-29763.7	0.000000	0.000000	6.464924	0.078172	NaN	0.000000	0.001617	0.001776	28.0799	0.029897	0.001985	15.06	-27.3316	15.41	0.058151	0.463856	-0.629544	-0.630963	0.078172	15.06	-0.633437	-2.400021E+8	-3.257140E-10	NaN
191	1.000000	0.507300	7.36691e+06	-48189.1	955.817	-29763.7	0.000000	0.000000	6.506949	0.082632	NaN	0.000000	0.001619	0.001760	28.0802	0.110451	0.002019	54.7187	-61.9825	-164.129	0.103988	0.505961	-0.587519	-0.588858	0.082632	54.7187	-0.588651	-5.808612E+7	-1.422586E-9	NaN
191	1.000000	0.549329	7.36691e+06	-48189.1	955.818	-29763.7	0.000000	0.000000	6.548976	0.018065	NaN	0.000000	0.001618	0.001773	28.079	0.060895	0.002077	29.3196	122.783	15.9313	0.016492	0.547968	-0.545489	-0.546851	0.018065	29.3196	-0.545951	-1.492328E+7	-1.210507E-9	NaN
191	1.000000	0.591346	7.36691e+06	-48189.1	955.818	-29763.7	0.000000	0.000000	6.590993	0.041658	NaN	0.000000	0.001588	0.001784	28.0788	0.068309	0.002063	33.1069	-84.2876	-166.296	0.010901	0.590038	-0.503473	-0.504780	0.041658	33.1069	-0.504416	-3.95012e+06	-1.054611E-8	NaN
191	1.000000	0.633353	7.36691e+06	-48189.1	955.817	-29763.7	0.000000	0.000000	6.632997	-0.014279	NaN	0.000000	0.001615	0.001807	28.0788	0.061845	0.002054	30.1054	70.7155	13.7074	-0.021080	0.632023	-0.461466	-0.462796	-0.014279	30.1054	-0.461111	-978638	1.459022E-8	NaN
191	1.000000	0.675372	7.36691e+06	-48189.1	955.817	-29763.7	0.000000	0.000000	6.675024	0.136807	NaN	0.000000	0.001568	0.001802	28.0787	0.047875	0.001934	24.7568	-172.321	-162.283	0.078359	0.674056	-0.419446	-0.420763	0.136807	24.7568	-0.423591	-289281	-4.729215E-7	NaN
191	1.000000	0.717405	7.36691e+06	-48189.1	955.818	-29763.7	0.000000	0.000000	6.717054	0.075447	NaN	0.000000	0.001616	0.001745	28.0801	0.132592	0.001898	69.8749	-67.5374	16.7744	0.017351	0.716036	-0.377413	-0.378782	0.075447	69.8749	-0.378223	-65220.4	-1.156807E-6	NaN
191	1.000000	0.759399	7.36692e+06	-48189.1	955.818	-29763.7	0.000000	0.000000	6.759047	0.043763	NaN	0.000000	0.001619	0.001646	28.08	0.032970	0.002099	15.7042	154.876	-166.863	0.015304	0.758100	-0.335419	-0.336718	0.043763	15.7042	-0.337509	-16796.9	-2.605450E-6	NaN
191	1.000000	0.801438	7.36692e+06	-48189.1	955.818	-29763.7	0.000000	0.000000	6.801086	0.075853	NaN	0.000000	0.001614	0.001704	28.08	0.102697	0.001987	51.6783	0.409517	13.7861	0.141702	0.800040	-0.293381	-0.294778	0.075853	51.6783	-0.294482	-3893.6	-1.948145E-5	NaN
191	1.000000	0.843456	7.36692e+06	-48189.1	955.818	-29763.7	0.000000	0.000000	6.843100	-0.030810	NaN	0.000000	0.001559	0.001747	28.0788	0.120557	0.002059	58.5558	147.475	-164.95	0.009301	0.842164	-0.251363	-0.252654	-0.030810	58.5558	-0.250968	-851.011	3.620426E-5	NaN
191	1.000000	0.885485	7.36692e+06	-48189.1	955.818	-29763.7	0.000000	0.000000	6.885129	-0.020603	NaN	0.000000	0.001586	0.001698	28.0787	0.072742	0.001926	37.7635	163.485	13.0315	0.022813	0.884096	-0.209334	-0.210723	-0.020603	37.7635	-0.208925	-184.246	0.000112	NaN
191	1.000000	0.927483	7.36692e+06	-48189.1	955.818	-29763.7	0.000000	0.000000	6.927131	0.056708	NaN	0.000000	0.001591	0.001689	28.0787	0.015768	0.001988	7.932880	97.4373	-167.058	0.134312	0.926145	-0.167335	-0.168673	0.056708	7.932880	-0.172697	-45.7413	-0.001240	NaN
191	1.000000	0.969496	7.36692e+06	-48189.1	955.819	-29763.7	0.000000	0.000000	6.969140	-0.044640	NaN	0.000000	0.001620	0.001686	28.0801	0.060147	0.001873	32.1137	105.453	13.5755	0.009288	0.968153	-0.125322	-0.126666	-0.044640	32.1137	-0.124280	-5.884663	0.007586	NaN
191	1.000000	1.011515	7.36692e+06	-48189.1	955.818	-29763.7	0.000000	0.000000	7.011163	0.070254	NaN	0.000000	0.001555	0.001701	28.0802	0.064332	0.002031	31.6811	-5.483097	-165.494	-0.010624	1.010143	-0.083304	-0.084675	0.070254	31.6811	-0.084967	-0.820135	-0.085662	NaN
191	1.000000	1.053549	7.36692e+06	-48189.1	955.817	-29763.7	0.000000	0.000000	7.053192	-0.053982	NaN	0.000000	0.001641	0.001674	28.0795	0.131266	0.002009	65.3398	-79.9941	15.8797	0.092867	1.052203	-0.041270	-0.042616	-0.053982	65.3398	-0.040650	-0.047328	1.140585	NaN
191	1.000000	1.095534	7.36692e+06	-48189.1	955.818	-29763.7	0.000000	0.000000	7.095191	0.278094	NaN	0.000000	0.001629	0.001727	28.0784	0.451450	0.001957	230.697	14.4299	-169.388	-0.008811	1.094136	0.000715	-0.000683	0.278094	230.697	-0.000189	-0.000141	-1977.37	NaN
191	2.000000	1.112479	7.36692e+06	-48189.1	955.82	-29763.7	0.000000	0.000000	7.112953	20.1338	NaN	0.000000	0.001616	0.001697	28.0786	18.3052	0.001814	10092.2	5.561121	4.499271	18.5597	1.112182	0.017661	0.017363	20.1338	10092.2	0.016164	0.016869	1193.51	70992
191	2.000000	1.122986	7.36692e+06	-48189.1	955.818	-29763.7	0.000000	0.000000	7.124339	41.5291	NaN	0.000000	0.001609	0.001668	28.0785	28.4366	0.001876	15161.7	7.278111	-179.993	41.3834	1.122643	0.028167	0.027825	41.5291	15161.7	0.026113	0.033072	1255.73	76171.7
191	2.000000	1.133479	7.36692e+06	-48189.1	955.82	-29763.7	0.000000	0.000000	7.136063	71.4722	NaN	0.000000	0.001623	0.001744	28.0787	36.9631	0.001750	21124.3	5.764204	-1.612071	69.3381	1.133075	0.038660	0.038257	71.4722	21124.3	0.036123	0.054393	1314	82753.3
191	2.000000	1.143934	7.36692e+06	-48189.1	955.819	-29763.7	0.000000	0.000000	7.148042	108.531	NaN	0.000000	0.001574	0.001691	28.0798	48.2351	0.001624	29708.4	9.176835	170.781	107.426	1.143615	0.049116	0.048796	108.531	29708.4	0.046376	0.081541	1331	95052.5
191	2.000000	1.154411	7.36692e+06	-48189.1	955.82	-29763.7	0.000000	0.000000	7.160507	156.877	NaN	0.000000	0.001602	0.001727	28.0797	56.0047	0.001681	33311	3.548420	-3.719801	153.096	1.153974	0.059593	0.059155	156.877	33311	0.056061	0.112062	1399.9	90914.1
191	2.000000	1.164900	7.36692e+06	-48189.1	955.819	-29763.7	0.000000	0.000000	7.173331	213.696	NaN	0.000000	0.001567	0.001727	28.0796	66.5005	0.001719	38692.4	2.914803	176.361	211.075	1.164516	0.070081	0.069697	213.696	38692.4	0.065939	0.147961	1444.28	91902.3
191	2.000000	1.175331	7.36692e+06	-48189.1	955.82	-29763.7	0.000000	0.000000	7.186420	278.327	NaN	0.000000	0.001594	0.001728	28.0781	75.346	0.001753	42985.1	1.497413	-3.151195	272.494	1.175035	0.080513	0.080216	278.327	42985.1	0.075656	0.187855	1481.6	90610.8
191	2.000000	1.185852	7.36692e+06	-48189.1	955.819	-29763.7	0.000000	0.000000	7.199638	343.913	NaN	0.000000	0.001666	0.001711	28.0782	86.151	0.001813	47505.8	4.320153	172.678	340.572	1.185568	0.091033	0.090749	343.913	47505.8	0.085604	0.233291	1474.18	89861
191	2.000000	1.196378	7.36692e+06	-48189.1	955.819	-29763.7	0.000000	0.000000	7.213530	425.815	NaN	0.000000	0.001607	0.001730	28.0783	95.6531	0.001785	53574.8	6.486291	-10.0496	423.435	1.195925	0.101559	0.101106	425.815	53574.8	0.095598	0.283538	1501.79	91923.9
191	2.000000	1.202762	7.36692e+06	-48189.1	955.819	-29763.7	0.000000	0.000000	7.221765	470.808	NaN	0.000000	0.001627	0.001731	28.0784	102.534	0.001892	54202.6	1.894800	174.741	464.233	1.202524	0.107943	0.107705	470.808	54202.6	0.101429	0.314961	1494.81	88239.9