File: remote_trans/data/nanoindenter/0828-1/data/Data_2025-08-06,11h17m57s/2025-07-22_16-23-58_1_61.txt
2025-07-22, 16:23:58, 1
Index	Phase	Displacement	Time	Pos X	Pos Y	Pos Z	Rot A	Rot B	Piezo Z	Force A	Force B	Gripper	Voltage A	Voltage B	Temperature	Amplitude force	Amplitude pos	Stiffness	Phase shift	Phase excitation	Force A raw	Displacement raw	HMax	HMax raw	Real Force	Real Stiffness	Contact Depth	Area	Hardness	Reduced Mod.
[#]	[#]	[um]	[s]	[um]	[um]	[um]	[m°]	[m°]	[um]	[uN]	[uN]	[V]	[V]	[V]	[°C]	[uN]	[um]	[N/m]	[°]	[°]	[uN]	[um]	[um]	[um]	[uN]	[N/m]	[um]	[um^2]	[MPa]	[MPa]
61	1.000000	0.002752	7.36564e+06	-41689.1	955.819	-29786	0.000000	0.000000	6.002778	0.018328	NaN	0.000000	0.001584	0.001674	28.0973	0.105192	0.000945	111.369	-168.565	-168.564	-0.060334	0.001555	-1.087154	-1.088351	0.018328	111.369	-1.087277	-3.382597E+14	-5.418334E-17	NaN
61	1.000000	0.042727	7.36564e+06	-41689.1	955.817	-29786	0.000000	0.000000	6.042756	0.093329	NaN	0.000000	0.001655	0.001634	28.0983	0.050971	0.001904	26.7699	54.5897	-167.389	-0.007508	0.041431	-1.047179	-1.048475	0.093329	26.7699	-1.049794	-1.060820E+14	-8.797774E-16	NaN
61	1.000000	0.082736	7.36564e+06	-41689.1	955.819	-29786	0.000000	0.000000	6.082761	0.013343	NaN	0.000000	0.001657	0.001661	28.0991	0.021333	0.001903	11.209	-154.981	-168.401	0.075721	0.081414	-1.007170	-1.008492	0.013343	11.209	-1.008063	-2.912792E+13	-4.580863E-16	NaN
61	1.000000	0.122761	7.36564e+06	-41689.1	955.817	-29786	0.000000	0.000000	6.122786	0.017978	NaN	0.000000	0.001674	0.001691	28.0992	0.074913	0.002042	36.6901	-51.4718	-167.227	0.091759	0.121460	-0.967146	-0.968446	0.017978	36.6901	-0.967513	-8.282189E+12	-2.170740E-15	NaN
61	1.000000	0.162811	7.36564e+06	-41689.1	955.817	-29786	0.000000	0.000000	6.162834	-0.026728	NaN	0.000000	0.001659	0.001633	28.0983	0.173664	0.002107	82.417	-122.39	-165.486	-0.014828	0.161465	-0.927095	-0.928441	-0.026728	82.417	-0.926852	-2.342669E+12	1.140901E-14	NaN
61	1.000000	0.202774	7.36564e+06	-41689.1	955.818	-29786	0.000000	0.000000	6.202800	0.030874	NaN	0.000000	0.001611	0.001668	28.0982	0.078157	0.001996	39.1582	-83.9897	-162.093	0.062854	0.201448	-0.887132	-0.888458	0.030874	39.1582	-0.887723	-6.936439E+11	-4.450983E-14	NaN
61	1.000000	0.242785	7.36564e+06	-41689.1	955.819	-29786	0.000000	0.000000	6.242811	0.026288	NaN	0.000000	0.001677	0.001639	28.0965	0.058750	0.002030	28.9365	119.414	-164.913	0.024337	0.241496	-0.847121	-0.848410	0.026288	28.9365	-0.847802	-1.999757E+11	-1.314553E-13	NaN
61	1.000000	0.282814	7.36564e+06	-41689.1	955.818	-29786	0.000000	0.000000	6.282840	0.031030	NaN	0.000000	0.001687	0.001655	28.0975	0.039064	0.001886	20.7105	12.3749	-162.894	-0.025724	0.281550	-0.807092	-0.808356	0.031030	20.7105	-0.808216	-5.812559E+10	-5.338487E-13	NaN
61	1.000000	0.322845	7.36564e+06	-41689.1	955.818	-29786	0.000000	0.000000	6.322872	0.053891	NaN	0.000000	0.001655	0.001693	28.096	0.067437	0.001989	33.9063	-128.07	-167.311	0.021659	0.321532	-0.767061	-0.768374	0.053891	33.9063	-0.768253	-1.665519E+10	-3.235675E-12	NaN
61	1.000000	0.362849	7.36564e+06	-41689.1	955.818	-29786	0.000000	0.000000	6.362872	-0.023033	NaN	0.000000	0.001611	0.001781	28.0984	0.046838	0.002008	23.3235	169.953	-165.203	0.030630	0.361605	-0.727058	-0.728301	-0.023033	23.3235	-0.726317	-4.473077E+9	5.149181E-12	NaN
61	1.000000	0.402898	7.36564e+06	-41689.1	955.819	-29786	0.000000	0.000000	6.402922	-0.003926	NaN	0.000000	0.001619	0.001677	28.0972	0.081112	0.002002	40.5102	-159.997	-164.369	0.046262	0.401526	-0.687008	-0.688380	-0.003926	40.5102	-0.686936	-1.297289E+9	3.026573E-12	NaN
61	1.000000	0.442907	7.36564e+06	-41689.1	955.819	-29786	0.000000	0.000000	6.442932	-0.004204	NaN	0.000000	0.001614	0.001795	28.0981	0.014398	0.002007	7.174447	-84.4151	-166.478	0.031788	0.441581	-0.646999	-0.648325	-0.004204	7.174447	-0.646560	-3.632996E+8	1.157150E-11	NaN
61	1.000000	0.482932	7.36564e+06	-41689.1	955.819	-29786	0.000000	0.000000	6.482957	0.019371	NaN	0.000000	0.001618	0.001739	28.0964	0.077616	0.001978	39.2336	-119.716	-164.993	0.061717	0.481626	-0.606974	-0.608280	0.019371	39.2336	-0.607345	-1.050932E+8	-1.843181E-10	NaN
61	1.000000	0.522914	7.36564e+06	-41689.1	955.82	-29786	0.000000	0.000000	6.522941	0.065631	NaN	0.000000	0.001632	0.001756	28.0971	0.024924	0.002109	11.8151	-31.5399	-162.574	0.028357	0.521624	-0.566993	-0.568282	0.065631	11.8151	-0.571159	-3.331505E+7	-1.970022E-9	NaN
61	1.000000	0.562955	7.36564e+06	-41689.1	955.818	-29786	0.000000	0.000000	6.562981	0.044088	NaN	0.000000	0.001613	0.001760	28.0939	0.063683	0.002016	31.5816	90.0258	-164.793	-0.032855	0.561621	-0.526951	-0.528286	0.044088	31.5816	-0.527998	-8.40957e+06	-5.242643E-9	NaN
61	1.000000	0.602941	7.36564e+06	-41689.1	955.819	-29786	0.000000	0.000000	6.602968	0.054052	NaN	0.000000	0.001672	0.001719	28.0959	0.008249	0.001912	4.314960	-87.7492	-163.228	0.038721	0.601665	-0.486965	-0.488241	0.054052	4.314960	-0.496360	-3.04943e+06	-1.772510E-8	NaN
61	1.000000	0.642984	7.36564e+06	-41689.1	955.818	-29786	0.000000	0.000000	6.643009	0.001201	NaN	0.000000	0.001670	0.001708	28.0956	0.045570	0.002040	22.341	-13.6948	-166.915	0.036009	0.641680	-0.446922	-0.448227	0.001201	22.341	-0.446962	-618804	-1.940271E-9	NaN
61	1.000000	0.683014	7.36564e+06	-41689.1	955.819	-29786	0.000000	0.000000	6.683039	0.017602	NaN	0.000000	0.001632	0.001717	28.0965	0.068927	0.002038	33.8125	173.602	-166.699	-0.019308	0.681706	-0.406893	-0.408201	0.017602	33.8125	-0.407283	-169726	-1.037100E-7	NaN
61	1.000000	0.723001	7.36564e+06	-41689.1	955.819	-29786	0.000000	0.000000	6.723030	0.086566	NaN	0.000000	0.001622	0.001704	28.0966	0.067009	0.002071	32.362	168.148	-165.17	0.096929	0.721721	-0.366905	-0.368185	0.086566	32.362	-0.368911	-47911.6	-1.806793E-6	NaN
61	1.000000	0.763045	7.36564e+06	-41689.1	955.818	-29786	0.000000	0.000000	6.763073	0.078288	NaN	0.000000	0.001608	0.001703	28.0951	0.105825	0.002065	51.249	-12.93	-166.305	0.092874	0.761706	-0.326861	-0.328201	0.078288	51.249	-0.328007	-12196.9	-6.418666E-6	NaN
61	1.000000	0.803066	7.36564e+06	-41689.1	955.818	-29786	0.000000	0.000000	6.803092	0.027957	NaN	0.000000	0.001590	0.001726	28.095	0.072294	0.002028	35.6438	-43.9015	-165.252	-0.014071	0.801758	-0.286840	-0.288148	0.027957	35.6438	-0.287428	-3053.1	-9.157040E-6	NaN
61	1.000000	0.843057	7.36564e+06	-41689.1	955.818	-29786	0.000000	0.000000	6.843087	0.131443	NaN	0.000000	0.001598	0.001709	28.0949	0.036029	0.001902	18.9391	170.62	-160.866	0.082062	0.841753	-0.246849	-0.248154	0.131443	18.9391	-0.252054	-884.519	-0.000149	NaN
61	1.000000	0.883075	7.36564e+06	-41689.1	955.817	-29786	0.000000	0.000000	6.883102	0.049631	NaN	0.000000	0.001621	0.001719	28.0981	0.014658	0.002008	7.299367	-126.995	-167.837	0.067210	0.881793	-0.206831	-0.208113	0.049631	7.299367	-0.211930	-206.082	-0.000241	NaN
61	1.000000	0.923061	7.36564e+06	-41689.1	955.818	-29786	0.000000	0.000000	6.923088	0.039988	NaN	0.000000	0.001617	0.001734	28.0965	0.020950	0.002011	10.4198	-126.16	-165.184	0.020971	0.921797	-0.166845	-0.168109	0.039988	10.4198	-0.169723	-40.6261	-0.000984	NaN
61	1.000000	0.963115	7.36564e+06	-41689.1	955.817	-29786	0.000000	0.000000	6.963139	0.000244	NaN	0.000000	0.001617	0.001707	28.095	0.044780	0.001980	22.6206	-116.375	-164.907	-0.001970	0.961812	-0.126792	-0.128094	0.000244	22.6206	-0.126800	-6.599058	-3.692999E-5	NaN
61	1.000000	1.003114	7.36564e+06	-41689.1	955.819	-29786	0.000000	0.000000	7.003138	-0.016366	NaN	0.000000	0.001619	0.001658	28.096	0.039806	0.002041	19.5059	125.914	-164.543	0.057658	1.001812	-0.086793	-0.088095	-0.016366	19.5059	-0.086163	-0.876460	0.018672	NaN
61	1.000000	1.043128	7.36564e+06	-41689.1	955.82	-29786	0.000000	0.000000	7.043154	0.049202	NaN	0.000000	0.001638	0.001674	28.0924	0.032287	0.002004	16.1121	44.8431	-163.891	0.022467	1.041846	-0.046779	-0.048060	0.049202	16.1121	-0.049069	-0.085514	-0.575371	NaN
61	1.000000	1.083177	7.36564e+06	-41689.1	955.818	-29786	0.000000	0.000000	7.083204	0.059911	NaN	0.000000	0.001634	0.001666	28.0939	0.074705	0.002005	37.2509	168.531	-166.546	0.033848	1.081892	-0.006729	-0.008014	0.059911	37.2509	-0.007936	-0.005194	-11.5347	NaN
61	2.000000	1.104652	7.36564e+06	-41689.1	955.817	-29786	0.000000	0.000000	7.105501	20.073	NaN	0.000000	0.001647	0.001684	28.0928	15.7654	0.001702	9262.31	1.113859	-170.859	19.4321	1.104323	0.014745	0.014417	20.073	9262.31	0.013120	0.012859	1560.96	74624.6
61	2.000000	1.114651	7.36564e+06	-41689.1	955.818	-29786	0.000000	0.000000	7.116405	42.0796	NaN	0.000000	0.001635	0.001675	28.096	25.9125	0.001815	14279.9	6.707799	-178.778	43.3226	1.114302	0.024745	0.024396	42.0796	14279.9	0.022535	0.026682	1577.05	79870.5
61	2.000000	1.124571	7.36564e+06	-41689.1	955.818	-29786	0.000000	0.000000	7.127586	72.7508	NaN	0.000000	0.001612	0.001660	28.0934	34.9071	0.001836	19014.6	4.198530	-178.896	72.3217	1.124241	0.034665	0.034335	72.7508	19014.6	0.031795	0.044547	1633.13	82309.8
61	2.000000	1.134633	7.36564e+06	-41689.1	955.817	-29786	0.000000	0.000000	7.138965	104.8	NaN	0.000000	0.001598	0.001674	28.0949	44.0711	0.001803	24445.8	5.122152	177.611	105.89	1.134305	0.044727	0.044398	104.8	24445.8	0.041512	0.067994	1541.3	85652.9
61	2.000000	1.144576	7.36564e+06	-41689.1	955.818	-29786	0.000000	0.000000	7.150674	147.773	NaN	0.000000	0.001572	0.001666	28.0941	53.2975	0.001878	28375.9	1.721251	179.47	148.595	1.144274	0.054670	0.054368	147.773	28375.9	0.050764	0.094790	1558.95	84205.5
61	2.000000	1.154544	7.36564e+06	-41689.1	955.82	-29786	0.000000	0.000000	7.162708	198.043	NaN	0.000000	0.001634	0.001674	28.0946	61.7355	0.001899	32514.9	6.272878	175.387	197.609	1.154104	0.064638	0.064198	198.043	32514.9	0.060070	0.126060	1571.03	83669.7
61	2.000000	1.164543	7.36564e+06	-41689.1	955.818	-29786	0.000000	0.000000	7.174865	250.568	NaN	0.000000	0.001613	0.001674	28.0917	71.6846	0.001839	38975.9	5.834682	173.386	251.843	1.164276	0.074636	0.074370	250.568	38975.9	0.069815	0.163335	1534.07	88110.9
61	2.000000	1.174511	7.36564e+06	-41689.1	955.819	-29786	0.000000	0.000000	7.187171	307.445	NaN	0.000000	0.001587	0.001691	28.0929	80.9181	0.001684	48062.1	0.138222	176.845	307.181	1.174345	0.084605	0.084439	307.445	48062.1	0.079807	0.206255	1490.61	96688.4
61	2.000000	1.184531	7.36565e+06	-41689.1	955.818	-29786	0.000000	0.000000	7.200099	378.198	NaN	0.000000	0.001545	0.001675	28.093	91.1928	0.001811	50362.4	6.273792	171.344	377.763	1.184150	0.094625	0.094244	378.198	50362.4	0.088993	0.249815	1513.91	92059.9
61	2.000000	1.194475	7.36565e+06	-41689.1	955.818	-29786	0.000000	0.000000	7.212857	446.667	NaN	0.000000	0.001581	0.001655	28.0948	98.4704	0.001785	55177.1	1.839784	174.212	444.289	1.194232	0.104569	0.104326	446.667	55177.1	0.098498	0.298973	1494	92196.9
61	2.000000	1.196960	7.36565e+06	-41689.1	955.819	-29786	0.000000	0.000000	7.216563	476.388	NaN	0.000000	0.001656	0.001699	28.131	100.374	0.001850	54252	3.505411	-6.621979	470.118	1.196529	0.107054	0.106623	476.388	54252	0.100468	0.309678	1538.33	89070.6