File: remote_trans/data/nanoindenter/0828-1/data/Data_2025-08-06,11h17m57s/2025-07-22_16-23-58_1_167.txt
2025-07-22, 16:23:58, 1
Index	Phase	Displacement	Time	Pos X	Pos Y	Pos Z	Rot A	Rot B	Piezo Z	Force A	Force B	Gripper	Voltage A	Voltage B	Temperature	Amplitude force	Amplitude pos	Stiffness	Phase shift	Phase excitation	Force A raw	Displacement raw	HMax	HMax raw	Real Force	Real Stiffness	Contact Depth	Area	Hardness	Reduced Mod.
[#]	[#]	[um]	[s]	[um]	[um]	[um]	[m°]	[m°]	[um]	[uN]	[uN]	[V]	[V]	[V]	[°C]	[uN]	[um]	[N/m]	[°]	[°]	[uN]	[um]	[um]	[um]	[uN]	[N/m]	[um]	[um^2]	[MPa]	[MPa]
167	1.000000	0.002565	7.36667e+06	-46989.1	955.817	-29767.9	0.000000	0.000000	6.002803	0.026169	NaN	0.000000	0.001640	0.001784	28.0908	0.040216	0.000941	42.7589	49.5393	-172.194	-0.067517	0.001301	-1.079501	-1.080765	0.026169	42.7589	-1.079960	-2.697616E+14	-9.700948E-17	NaN
167	1.000000	0.042514	7.36667e+06	-46989.1	955.818	-29767.9	0.000000	0.000000	6.042752	0.027024	NaN	0.000000	0.001599	0.001785	28.0909	0.027483	0.001841	14.9254	61.1203	-168.428	0.057627	0.041233	-1.039552	-1.040833	0.027024	14.9254	-1.040910	-8.057617E+13	-3.353860E-16	NaN
167	1.000000	0.082523	7.36667e+06	-46989.1	955.818	-29767.9	0.000000	0.000000	6.082762	0.057459	NaN	0.000000	0.001667	0.001760	28.089	0.029702	0.001933	15.3682	-151.403	-164.452	0.061887	0.081182	-0.999543	-1.000884	0.057459	15.3682	-1.002347	-2.439870E+13	-2.354989E-15	NaN
167	1.000000	0.122533	7.36667e+06	-46989.1	955.817	-29767.9	0.000000	0.000000	6.122770	0.009579	NaN	0.000000	0.001696	0.001788	28.0895	0.013515	0.001933	6.993356	-106.778	-164.945	-0.047042	0.121215	-0.959533	-0.960851	0.009579	6.993356	-0.960560	-6.674566E+12	-1.435201E-15	NaN
167	1.000000	0.162566	7.36667e+06	-46989.1	955.819	-29767.9	0.000000	0.000000	6.162804	0.022089	NaN	0.000000	0.001598	0.001772	28.0896	0.026538	0.001993	13.3152	115.658	-166.158	-0.089919	0.161274	-0.919500	-0.920792	0.022089	13.3152	-0.920744	-1.937527E+12	-1.140049E-14	NaN
167	1.000000	0.202575	7.36667e+06	-46989.1	955.817	-29767.9	0.000000	0.000000	6.202810	-0.029158	NaN	0.000000	0.001634	0.001787	28.0883	0.133352	0.001980	67.3666	-172.859	-165.618	-0.017185	0.201281	-0.879491	-0.880785	-0.029158	67.3666	-0.879167	-5.314195E+11	5.486781E-14	NaN
167	1.000000	0.242597	7.36667e+06	-46989.1	955.817	-29767.9	0.000000	0.000000	6.242835	0.019174	NaN	0.000000	0.001613	0.001821	28.0905	0.082234	0.002022	40.663	-96.1541	-166.295	-0.012906	0.241209	-0.839469	-0.840857	0.019174	40.663	-0.839822	-1.559136E+11	-1.229772E-13	NaN
167	1.000000	0.282613	7.36667e+06	-46989.1	955.818	-29767.9	0.000000	0.000000	6.282849	-0.007292	NaN	0.000000	0.001665	0.001750	28.0907	0.084469	0.001726	48.9477	-112.492	-164.173	0.015598	0.281364	-0.799453	-0.800702	-0.007292	48.9477	-0.799342	-4.404792E+10	1.655522E-13	NaN
167	1.000000	0.322617	7.36667e+06	-46989.1	955.817	-29767.9	0.000000	0.000000	6.322852	-0.026304	NaN	0.000000	0.001663	0.001774	28.0894	0.037355	0.002019	18.4989	-65.4209	-167.656	0.036555	0.321325	-0.759449	-0.760741	-0.026304	18.4989	-0.758383	-1.222642E+10	2.151414E-12	NaN
167	1.000000	0.362653	7.36667e+06	-46989.1	955.819	-29767.9	0.000000	0.000000	6.362889	-0.029844	NaN	0.000000	0.001628	0.001780	28.0882	0.073992	0.001894	39.0659	-46.2191	-164.315	-0.071436	0.361391	-0.719413	-0.720675	-0.029844	39.0659	-0.718840	-3.537101E+9	8.437361E-12	NaN
167	1.000000	0.402634	7.36667e+06	-46989.1	955.818	-29767.9	0.000000	0.000000	6.402871	0.009400	NaN	0.000000	0.001602	0.001735	28.0884	0.024209	0.001905	12.7089	-85.1173	-166.923	-0.024975	0.401345	-0.679432	-0.680721	0.009400	12.7089	-0.679987	-1.042392E+9	-9.018043E-12	NaN
167	1.000000	0.442702	7.36667e+06	-46989.1	955.818	-29767.9	0.000000	0.000000	6.442935	-0.086262	NaN	0.000000	0.001594	0.001760	28.0881	0.072411	0.001976	36.6379	-34.3728	-166.979	-0.114915	0.441361	-0.639364	-0.640705	-0.086262	36.6379	-0.637598	-2.737360E+8	3.151281E-10	NaN
167	1.000000	0.482695	7.36667e+06	-46989.1	955.818	-29767.9	0.000000	0.000000	6.482929	-0.052024	NaN	0.000000	0.001594	0.001748	28.0873	0.046151	0.002038	22.6481	125.187	-165.468	-0.000677	0.481398	-0.599371	-0.600668	-0.052024	22.6481	-0.597648	-7.728010E+7	6.731839E-10	NaN
167	1.000000	0.522739	7.36667e+06	-46989.1	955.818	-29767.9	0.000000	0.000000	6.522974	-0.037807	NaN	0.000000	0.001569	0.001810	28.0892	0.112479	0.002026	55.5124	-153.903	-167.488	0.005825	0.521381	-0.559327	-0.560685	-0.037807	55.5124	-0.558816	-2.249072E+7	1.681021E-9	NaN
167	1.000000	0.562706	7.36667e+06	-46989.1	955.818	-29767.9	0.000000	0.000000	6.562944	0.030281	NaN	0.000000	0.001611	0.001768	28.0881	0.109621	0.001894	57.8914	30.182	-170.515	0.048198	0.561404	-0.519360	-0.520662	0.030281	57.8914	-0.519752	-6.45872e+06	-4.688417E-9	NaN
167	1.000000	0.602755	7.36667e+06	-46989.1	955.817	-29767.9	0.000000	0.000000	6.602990	-0.020200	NaN	0.000000	0.001686	0.001745	28.0887	0.049342	0.002053	24.0337	123.587	-166.926	0.016643	0.601416	-0.479312	-0.480650	-0.020200	24.0337	-0.478681	-1.72609e+06	1.170279E-8	NaN
167	1.000000	0.642775	7.36667e+06	-46989.1	955.818	-29767.9	0.000000	0.000000	6.643007	-0.109469	NaN	0.000000	0.001659	0.001754	28.0864	0.045447	0.001972	23.0426	88.8425	-166.263	-0.065965	0.641470	-0.439291	-0.440596	-0.109469	23.0426	-0.435728	-429572	2.548332E-7	NaN
167	1.000000	0.682783	7.36667e+06	-46989.1	955.818	-29767.9	0.000000	0.000000	6.683017	-0.055575	NaN	0.000000	0.001604	0.001716	28.0876	0.074080	0.001989	37.2393	-178.104	-168.67	-0.074024	0.681462	-0.399283	-0.400604	-0.055575	37.2393	-0.398164	-125835	4.416523E-7	NaN
167	1.000000	0.722811	7.36667e+06	-46989.1	955.818	-29767.9	0.000000	0.000000	6.723048	0.015702	NaN	0.000000	0.001545	0.001748	28.0861	0.010031	0.002042	4.911273	150.075	-168.967	-0.058009	0.721539	-0.359255	-0.360527	0.015702	4.911273	-0.361653	-37647.3	-4.170704E-7	NaN
167	1.000000	0.762779	7.36667e+06	-46989.1	955.818	-29767.9	0.000000	0.000000	6.763016	0.013274	NaN	0.000000	0.001598	0.001764	28.0873	0.063781	0.001995	31.9643	-130.028	-161.976	0.015133	0.761519	-0.319287	-0.320547	0.013274	31.9643	-0.319599	-9177.65	-1.446373E-6	NaN
167	1.000000	0.802828	7.36667e+06	-46989.1	955.818	-29767.9	0.000000	0.000000	6.803063	-0.048647	NaN	0.000000	0.001598	0.001728	28.0875	0.116762	0.001925	60.6431	-5.030486	-168.776	-0.025089	0.801470	-0.279238	-0.280596	-0.048647	60.6431	-0.278636	-2251.04	2.161079E-5	NaN
167	1.000000	0.842846	7.36667e+06	-46989.1	955.817	-29767.9	0.000000	0.000000	6.843082	-0.030947	NaN	0.000000	0.001550	0.001766	28.0888	0.027533	0.002004	13.7411	-37.9738	-168.342	0.023408	0.841577	-0.239220	-0.240489	-0.030947	13.7411	-0.237531	-525.933	5.884298E-5	NaN
167	1.000000	0.882878	7.36668e+06	-46989.1	955.819	-29767.9	0.000000	0.000000	6.883111	-0.069284	NaN	0.000000	0.001577	0.001732	28.0874	0.039241	0.002096	18.7184	-109.734	-165.915	-0.056149	0.881570	-0.199188	-0.200496	-0.069284	18.7184	-0.196412	-114.967	0.000603	NaN
167	1.000000	0.922858	7.36668e+06	-46989.1	955.818	-29767.9	0.000000	0.000000	6.923095	-0.006798	NaN	0.000000	0.001600	0.001736	28.0878	0.076098	0.001890	40.2545	-79.176	-165.629	-0.011030	0.921570	-0.159208	-0.160496	-0.006798	40.2545	-0.159081	-26.402	0.000257	NaN
167	1.000000	0.962901	7.36668e+06	-46989.1	955.818	-29767.9	0.000000	0.000000	6.963135	-0.059245	NaN	0.000000	0.001559	0.001719	28.0862	0.081757	0.001954	41.8354	6.465274	-165.656	-0.015335	0.961607	-0.119165	-0.120459	-0.059245	41.8354	-0.118103	-4.422256	0.013397	NaN
167	1.000000	1.002923	7.36668e+06	-46989.1	955.819	-29767.9	0.000000	0.000000	7.003159	-0.011628	NaN	0.000000	0.001591	0.001716	28.0872	0.015056	0.001948	7.729526	159.36	-166.507	-0.075040	1.001592	-0.079143	-0.080474	-0.011628	7.729526	-0.078014	-0.551700	0.021077	NaN
167	1.000000	1.042951	7.36668e+06	-46989.1	955.817	-29767.9	0.000000	0.000000	7.043188	0.021412	NaN	0.000000	0.001557	0.001732	28.0861	0.078655	0.002111	37.2528	-102.172	-168.626	0.031117	1.041621	-0.039115	-0.040445	0.021412	37.2528	-0.039546	-0.043811	-0.488734	NaN
167	1.000000	1.082906	7.36668e+06	-46989.1	955.818	-29767.9	0.000000	0.000000	7.083159	0.403957	NaN	0.000000	0.001538	0.001753	28.0886	0.597640	0.001916	311.867	2.936419	-169.532	0.054138	1.081615	0.000840	-0.000451	0.403957	311.867	-0.000131	-9.796872E-5	-4123.33	NaN
167	2.000000	1.098502	7.36668e+06	-46989.1	955.817	-29767.9	0.000000	0.000000	7.099630	21.6784	NaN	0.000000	0.001564	0.001741	28.0872	15.7234	0.001717	9157.56	-1.585249	-170.779	20.5724	1.098250	0.016436	0.016184	21.6784	9157.56	0.014661	0.014836	1461.21	68690.3
167	2.000000	1.108498	7.36668e+06	-46989.1	955.816	-29767.9	0.000000	0.000000	7.110515	43.2989	NaN	0.000000	0.001573	0.001787	28.0872	26.3237	0.001868	14094.7	8.095591	177.576	43.2538	1.108209	0.026432	0.026143	43.2989	14094.7	0.024128	0.029448	1470.35	75041.5
167	2.000000	1.118460	7.36668e+06	-46989.1	955.818	-29767.9	0.000000	0.000000	7.121734	73.8992	NaN	0.000000	0.001556	0.001735	28.0847	34.3544	0.001877	18303.1	3.528547	179.849	71.5566	1.118130	0.036394	0.036064	73.8992	18303.1	0.033366	0.048009	1539.29	76320
167	2.000000	1.128497	7.36668e+06	-46989.1	955.817	-29767.9	0.000000	0.000000	7.133105	106.345	NaN	0.000000	0.001573	0.001766	28.0866	43.912	0.001880	23355.9	5.228368	176.176	108.133	1.128197	0.046431	0.046131	106.345	23355.9	0.043016	0.072054	1475.92	79495.4
167	2.000000	1.138450	7.36668e+06	-46989.1	955.819	-29767.9	0.000000	0.000000	7.145026	154.199	NaN	0.000000	0.001528	0.001754	28.085	53.5823	0.001900	28193.9	6.264167	173.822	154.969	1.138211	0.056384	0.056145	154.199	28193.9	0.052282	0.099597	1548.23	81621.5
167	2.000000	1.148415	7.36668e+06	-46989.1	955.817	-29767.9	0.000000	0.000000	7.156995	202.931	NaN	0.000000	0.001535	0.001762	28.0864	61.2469	0.001725	35499.2	0.950565	176.816	202.116	1.148236	0.066349	0.066170	202.931	35499.2	0.062062	0.133306	1522.3	88831.6
167	2.000000	1.158429	7.36668e+06	-46989.1	955.818	-29767.9	0.000000	0.000000	7.170148	279.289	NaN	0.000000	0.001561	0.001742	28.086	72.5869	0.001803	40266.6	6.058326	171.006	279.653	1.158044	0.076363	0.075978	279.289	40266.6	0.071161	0.168844	1654.13	89531.4
167	2.000000	1.168420	7.36668e+06	-46989.1	955.818	-29767.9	0.000000	0.000000	7.182688	341.289	NaN	0.000000	0.001558	0.001712	28.0857	79.3273	0.001873	42344.9	-1.360831	177.872	339.593	1.168189	0.086354	0.086123	341.289	42344.9	0.080309	0.208535	1636.6	84719.7
167	2.000000	1.178307	7.36668e+06	-46989.1	955.817	-29767.9	0.000000	0.000000	7.195636	415.757	NaN	0.000000	0.001605	0.001724	28.0854	89.2849	0.001848	48301.5	2.199196	173.714	410.217	1.178140	0.096241	0.096074	415.757	48301.5	0.089785	0.253756	1638.41	87604.3
167	2.000000	1.188295	7.36668e+06	-46989.1	955.817	-29767.9	0.000000	0.000000	7.208810	493.243	NaN	0.000000	0.001577	0.001730	28.0864	97.1839	0.001887	51510.3	4.320086	170.748	489.903	1.188020	0.106229	0.105954	493.243	51510.3	0.099048	0.301942	1633.57	85645.6
167	2.000000	1.188746	7.36668e+06	-46989.1	955.818	-29767.9	0.000000	0.000000	7.209715	504.282	NaN	0.000000	0.001561	0.001754	28.1247	96.8153	0.001800	53783.1	5.417462	-9.783057	494.876	1.188382	0.106680	0.106316	504.282	53783.1	0.099648	0.305201	1652.29	88945.9