File: remote_trans/data/nanoindenter/0828-1/data/Data_2025-08-06,11h17m57s/2025-07-22_16-23-58_1_1110.txt
2025-07-22, 16:23:58, 1
Index	Phase	Displacement	Time	Pos X	Pos Y	Pos Z	Rot A	Rot B	Piezo Z	Force A	Force B	Gripper	Voltage A	Voltage B	Temperature	Amplitude force	Amplitude pos	Stiffness	Phase shift	Phase excitation	Force A raw	Displacement raw	HMax	HMax raw	Real Force	Real Stiffness	Contact Depth	Area	Hardness	Reduced Mod.
[#]	[#]	[um]	[s]	[um]	[um]	[um]	[m°]	[m°]	[um]	[uN]	[uN]	[V]	[V]	[V]	[°C]	[uN]	[um]	[N/m]	[°]	[°]	[uN]	[um]	[um]	[um]	[uN]	[N/m]	[um]	[um^2]	[MPa]	[MPa]
1110	1.000000	0.002880	7.3759e+06	-55639.1	1055.82	-29741	0.000000	0.000000	6.002791	-0.052098	NaN	0.000000	0.001537	0.001719	28.083	0.033530	0.001062	31.579	169.716	-175.382	0.012883	0.001659	-1.099882	-1.101103	-0.052098	31.579	-1.098645	-4.807045E+14	1.083780E-16	NaN
1110	1.000000	0.044893	7.3759e+06	-55639.1	1055.82	-29741	0.000000	0.000000	6.044805	-0.017199	NaN	0.000000	0.001523	0.001682	28.0823	0.091549	0.002061	44.4252	96.9851	17.551	-0.008179	0.043512	-1.057870	-1.059251	-0.017199	44.4252	-1.057580	-1.349879E+14	1.274121E-16	NaN
1110	1.000000	0.086857	7.37591e+06	-55639.1	1055.82	-29741	0.000000	0.000000	6.086770	0.000545	NaN	0.000000	0.001514	0.001681	28.0819	0.060271	0.002051	29.3918	-48.619	-163.953	-0.054743	0.085513	-1.015905	-1.017250	0.000545	29.3918	-1.015919	-3.715717E+13	-1.465742E-17	NaN
1110	1.000000	0.128862	7.37591e+06	-55639.1	1055.82	-29741	0.000000	0.000000	6.128774	-0.019523	NaN	0.000000	0.001519	0.001721	28.082	0.036948	0.002095	17.6389	54.2612	14.4612	-0.042191	0.127490	-0.973901	-0.975273	-0.019523	17.6389	-0.973071	-9.841089E+12	1.983838E-15	NaN
1110	1.000000	0.170905	7.37591e+06	-55639.1	1055.82	-29741	0.000000	0.000000	6.170817	-0.015089	NaN	0.000000	0.001559	0.001669	28.0833	0.060207	0.002131	28.2538	113.469	-165.858	-0.009713	0.169558	-0.931858	-0.933205	-0.015089	28.2538	-0.931457	-2.703115E+12	5.582049E-15	NaN
1110	1.000000	0.212882	7.37591e+06	-55639.1	1055.82	-29741	0.000000	0.000000	6.212795	-0.009084	NaN	0.000000	0.001543	0.001681	28.0831	0.099241	0.001968	50.4191	-45.7011	11.43	-0.048168	0.211487	-0.889881	-0.891276	-0.009084	50.4191	-0.889746	-7.387165E+11	1.229748E-14	NaN
1110	1.000000	0.254935	7.37591e+06	-55639.1	1055.82	-29741	0.000000	0.000000	6.254847	-0.036222	NaN	0.000000	0.001574	0.001690	28.0832	0.113616	0.002218	51.2234	100.089	-163.172	-0.007414	0.253637	-0.847827	-0.849125	-0.036222	51.2234	-0.847297	-1.968477E+11	1.840116E-13	NaN
1110	1.000000	0.296954	7.37591e+06	-55639.1	1055.82	-29741	0.000000	0.000000	6.296867	0.013476	NaN	0.000000	0.001584	0.001651	28.082	0.130027	0.001861	69.8592	157.703	14.1549	0.034274	0.295604	-0.805809	-0.807159	0.013476	69.8592	-0.805954	-5.415856E+10	-2.488172E-13	NaN
1110	1.000000	0.338980	7.37591e+06	-55639.1	1055.82	-29741	0.000000	0.000000	6.338895	0.051661	NaN	0.000000	0.001557	0.001672	28.0824	0.074570	0.001885	39.5609	61.648	-160.713	-0.003548	0.337635	-0.763783	-0.765128	0.051661	39.5609	-0.764762	-1.493068E+10	-3.460043E-12	NaN
1110	1.000000	0.380975	7.37591e+06	-55639.1	1055.82	-29741	0.000000	0.000000	6.380890	0.037975	NaN	0.000000	0.001520	0.001674	28.0818	0.103143	0.002012	51.2515	-111.024	13.2826	0.001051	0.379638	-0.721788	-0.723125	0.037975	51.2515	-0.722343	-3.948487E+9	-9.617592E-12	NaN
1110	1.000000	0.422988	7.37591e+06	-55639.1	1055.82	-29741	0.000000	0.000000	6.422901	-0.023723	NaN	0.000000	0.001532	0.001707	28.0819	0.075329	0.001956	38.5204	-36.1936	-164.997	-0.016840	0.421688	-0.679774	-0.681074	-0.023723	38.5204	-0.679312	-1.020467E+9	2.324737E-11	NaN
1110	1.000000	0.465001	7.37591e+06	-55639.1	1055.82	-29741	0.000000	0.000000	6.464911	-0.065591	NaN	0.000000	0.001572	0.001724	28.083	0.043994	0.002033	21.6355	137.037	14.3082	-0.000596	0.463647	-0.637762	-0.639116	-0.065591	21.6355	-0.635488	-2.560794E+8	2.561359E-10	NaN
1110	1.000000	0.507016	7.37591e+06	-55639.1	1055.82	-29741	0.000000	0.000000	6.506927	-0.063235	NaN	0.000000	0.001533	0.001692	28.083	0.079594	0.001865	42.6802	68.6654	-168.124	-0.093445	0.505777	-0.595746	-0.596986	-0.063235	42.6802	-0.594635	-7.023491E+7	9.003367E-10	NaN
1110	1.000000	0.549031	7.37591e+06	-55639.1	1055.82	-29741	0.000000	0.000000	6.548941	-0.059558	NaN	0.000000	0.001563	0.001703	28.0832	0.118074	0.001908	61.8705	-115.968	15.5977	-0.086773	0.547626	-0.553732	-0.555137	-0.059558	61.8705	-0.553010	-1.869128E+7	3.186411E-9	NaN
1110	1.000000	0.591048	7.37591e+06	-55639.1	1055.82	-29741	0.000000	0.000000	6.590957	-0.105319	NaN	0.000000	0.001560	0.001757	28.0819	0.063241	0.001837	34.4261	-79.6374	-164.32	-0.107660	0.589780	-0.511715	-0.512982	-0.105319	34.4261	-0.509420	-4.63813e+06	2.270719E-8	NaN
1110	1.000000	0.633068	7.37591e+06	-55639.1	1055.82	-29741	0.000000	0.000000	6.632981	-0.011672	NaN	0.000000	0.001589	0.001719	28.0818	0.076577	0.002095	36.5591	-69.7748	17.1005	-0.003885	0.631756	-0.469695	-0.471006	-0.011672	36.5591	-0.469455	-1.28164e+06	9.107350E-9	NaN
1110	1.000000	0.675081	7.37591e+06	-55639.1	1055.82	-29741	0.000000	0.000000	6.674992	-0.041293	NaN	0.000000	0.001539	0.001753	28.0815	0.046094	0.002137	21.5692	-177.471	-165.427	-0.061184	0.673786	-0.427682	-0.428976	-0.041293	21.5692	-0.426246	-315450	1.309009E-7	NaN
1110	1.000000	0.717130	7.37591e+06	-55639.1	1055.82	-29741	0.000000	0.000000	6.717042	-0.014953	NaN	0.000000	0.001655	0.001701	28.0829	0.074170	0.002019	36.7297	46.0289	15.1894	0.079818	0.715708	-0.385633	-0.387054	-0.014953	36.7297	-0.385328	-82467.3	1.813160E-7	NaN
1110	1.000000	0.759121	7.37591e+06	-55639.1	1055.82	-29741	0.000000	0.000000	6.759032	-0.048520	NaN	0.000000	0.001639	0.001736	28.0831	0.073598	0.001932	38.0876	-59.1392	-165.053	-0.030700	0.757852	-0.343642	-0.344910	-0.048520	38.0876	-0.342686	-19984.3	2.427888E-6	NaN
1110	1.000000	0.801147	7.37591e+06	-55639.1	1055.82	-29741	0.000000	0.000000	6.801063	0.064500	NaN	0.000000	0.001584	0.001733	28.0828	0.043177	0.001945	22.2013	16.6724	12.3776	-0.019794	0.799769	-0.301616	-0.302993	0.064500	22.2013	-0.303795	-5358.71	-1.203649E-5	NaN
1110	1.000000	0.843173	7.37591e+06	-55639.1	1055.82	-29741	0.000000	0.000000	6.843086	-0.010014	NaN	0.000000	0.001580	0.001702	28.0817	0.018173	0.001991	9.129091	-21.9975	-171.481	0.032905	0.841801	-0.259590	-0.260961	-0.010014	9.129091	-0.258767	-1122.05	8.924515E-6	NaN
1110	1.000000	0.885166	7.37591e+06	-55639.1	1055.82	-29741	0.000000	0.000000	6.885078	-0.045235	NaN	0.000000	0.001557	0.001725	28.0817	0.066372	0.001961	33.848	160.079	12.965	-0.074413	0.883799	-0.217596	-0.218964	-0.045235	33.848	-0.216594	-244.976	0.000185	NaN
1110	1.000000	0.927224	7.37591e+06	-55639.1	1055.82	-29741	0.000000	0.000000	6.927134	-0.079543	NaN	0.000000	0.001557	0.001724	28.0817	0.082607	0.001947	42.4191	-69.6032	-164.5	-0.009720	0.925888	-0.175539	-0.176875	-0.079543	42.4191	-0.174132	-48.4238	0.001643	NaN
1110	1.000000	0.969220	7.37591e+06	-55639.1	1055.82	-29741	0.000000	0.000000	6.969132	-0.023781	NaN	0.000000	0.001548	0.001708	28.0817	0.093182	0.001852	50.3249	83.9185	16.235	-0.065106	0.967887	-0.133543	-0.134875	-0.023781	50.3249	-0.133188	-8.782048	0.002708	NaN
1110	1.000000	1.011239	7.37591e+06	-55639.1	1055.82	-29741	0.000000	0.000000	7.011151	-0.019668	NaN	0.000000	0.001582	0.001673	28.0832	0.050100	0.002045	24.4965	-112.794	-168.417	-0.010594	1.009964	-0.091524	-0.092799	-0.019668	24.4965	-0.090922	-1.136003	0.017313	NaN
1110	1.000000	1.053232	7.37591e+06	-55639.1	1055.82	-29741	0.000000	0.000000	7.053146	0.003316	NaN	0.000000	0.001605	0.001710	28.0828	0.047490	0.002078	22.8544	-69.7641	14.0455	0.016696	1.051879	-0.049530	-0.050884	0.003316	22.8544	-0.049639	-0.088984	-0.037263	NaN
1110	1.000000	1.095259	7.37591e+06	-55639.1	1055.82	-29741	0.000000	0.000000	7.095172	-0.008769	NaN	0.000000	0.001593	0.001733	28.0831	0.076052	0.001992	38.1736	174.542	-169.294	-0.026141	1.094005	-0.007503	-0.008758	-0.008769	38.1736	-0.007331	-0.004838	1.812676	NaN
1110	2.000000	1.117393	7.37591e+06	-55639.1	1055.82	-29741	0.000000	0.000000	7.117977	16.2964	NaN	0.000000	0.001622	0.001702	28.0816	15.4668	0.001702	9089.94	4.845750	5.106188	15.7114	1.117013	0.014631	0.014251	16.2964	9089.94	0.013286	0.013068	1247.08	72650.2
1110	2.000000	1.127829	7.37591e+06	-55639.1	1055.82	-29741	0.000000	0.000000	7.129385	39.9297	NaN	0.000000	0.001617	0.001698	28.0819	25.7342	0.001837	14010.2	6.806957	179.285	39.4731	1.127546	0.025067	0.024784	39.9297	14010.2	0.022929	0.027356	1459.63	77391
1110	2.000000	1.138309	7.37591e+06	-55639.1	1055.82	-29741	0.000000	0.000000	7.140897	65.0207	NaN	0.000000	0.001558	0.001728	28.082	35.3045	0.001822	19381.5	1.082434	2.133381	63.733	1.138001	0.035547	0.035239	65.0207	19381.5	0.033031	0.047260	1375.82	81454.7
1110	2.000000	1.148798	7.37591e+06	-55639.1	1055.82	-29741	0.000000	0.000000	7.152997	104.175	NaN	0.000000	0.001612	0.001760	28.0831	43.8115	0.001739	25197.7	7.945621	172.531	104.305	1.148518	0.046035	0.045755	104.175	25197.7	0.042935	0.071832	1450.25	85896.1
1110	2.000000	1.159282	7.37591e+06	-55639.1	1055.82	-29741	0.000000	0.000000	7.164994	140.955	NaN	0.000000	0.001604	0.001711	28.0831	54.6699	0.001702	32113.8	6.366872	-8.626425	139.277	1.159114	0.056519	0.056351	140.955	32113.8	0.053227	0.102649	1373.18	91577.5
1110	2.000000	1.169831	7.37591e+06	-55639.1	1055.82	-29741	0.000000	0.000000	7.177792	195.617	NaN	0.000000	0.001556	0.001748	28.0833	64.9525	0.001784	36407.4	9.773664	169.057	197.883	1.169340	0.067068	0.066577	195.617	36407.4	0.063039	0.136930	1428.59	89890.6
1110	2.000000	1.180226	7.37591e+06	-55639.1	1055.82	-29741	0.000000	0.000000	7.190593	254.096	NaN	0.000000	0.001567	0.001753	28.0817	74.9044	0.001855	40384.3	5.684455	-8.586004	251.12	1.179932	0.077464	0.077170	254.096	40384.3	0.072745	0.175432	1448.4	88090.9
1110	2.000000	1.190678	7.37591e+06	-55639.1	1055.82	-29741	0.000000	0.000000	7.204401	335.691	NaN	0.000000	0.001502	0.001739	28.0821	84.1867	0.001763	47753.7	4.906544	170.805	331.635	1.190352	0.087915	0.087590	335.691	47753.7	0.082643	0.219287	1530.83	93169.6
1110	2.000000	1.201077	7.37591e+06	-55639.1	1055.82	-29741	0.000000	0.000000	7.218149	417.105	NaN	0.000000	0.001514	0.001731	28.0819	94.408	0.001811	52133.2	3.437672	-8.064406	407.847	1.200764	0.098314	0.098002	417.105	52133.2	0.092314	0.266521	1565	92261.7
1110	2.000000	1.209257	7.37591e+06	-55639.1	1055.82	-29741	0.000000	0.000000	7.229176	486.309	NaN	0.000000	0.001553	0.001725	28.0824	102.232	0.001828	55934.6	6.608496	-11.8551	485.403	1.208963	0.106495	0.106200	486.309	55934.6	0.099974	0.306977	1584.19	92236