File: remote_trans/data/nanoindenter/0828-1/data/Data_2025-08-06,11h17m57s/2025-07-22_16-23-58_1_1190.txt
2025-07-22, 16:23:58, 1
Index	Phase	Displacement	Time	Pos X	Pos Y	Pos Z	Rot A	Rot B	Piezo Z	Force A	Force B	Gripper	Voltage A	Voltage B	Temperature	Amplitude force	Amplitude pos	Stiffness	Phase shift	Phase excitation	Force A raw	Displacement raw	HMax	HMax raw	Real Force	Real Stiffness	Contact Depth	Area	Hardness	Reduced Mod.
[#]	[#]	[um]	[s]	[um]	[um]	[um]	[m°]	[m°]	[um]	[uN]	[uN]	[V]	[V]	[V]	[°C]	[uN]	[um]	[N/m]	[°]	[°]	[uN]	[um]	[um]	[um]	[uN]	[N/m]	[um]	[um^2]	[MPa]	[MPa]
1190	1.000000	0.002453	7.37668e+06	-56089.1	1105.82	-29739.8	0.000000	0.000000	6.002804	0.062258	NaN	0.000000	0.001672	0.001672	28.0827	0.081658	0.001037	78.7809	-119.562	-171.072	0.078940	0.001195	-1.065514	-1.066773	0.062258	78.7809	-1.066107	-1.757439E+14	-3.542523E-16	NaN
1190	1.000000	0.042425	7.37668e+06	-56089.1	1105.82	-29739.8	0.000000	0.000000	6.042771	-0.042480	NaN	0.000000	0.001595	0.001663	28.0822	0.044546	0.002011	22.1547	140.785	-165.037	-0.103997	0.041108	-1.025542	-1.026859	-0.042480	22.1547	-1.024104	-4.788203E+13	8.871842E-16	NaN
1190	1.000000	0.082391	7.37668e+06	-56089.1	1105.82	-29739.8	0.000000	0.000000	6.082738	-0.020665	NaN	0.000000	0.001598	0.001650	28.0835	0.050021	0.001952	25.6305	54.2308	-169.111	0.002014	0.081055	-0.985577	-0.986912	-0.020665	25.6305	-0.984972	-1.423611E+13	1.451589E-15	NaN
1190	1.000000	0.122439	7.37668e+06	-56089.1	1105.82	-29739.8	0.000000	0.000000	6.122785	-0.038130	NaN	0.000000	0.001642	0.001614	28.0844	0.032307	0.001970	16.4033	-97.1896	-163.677	-0.062387	0.121112	-0.945529	-0.946855	-0.038130	16.4033	-0.943785	-3.964641E+12	9.617501E-15	NaN
1190	1.000000	0.162446	7.37668e+06	-56089.1	1105.82	-29739.8	0.000000	0.000000	6.162794	-0.013725	NaN	0.000000	0.001608	0.001613	28.0833	0.014847	0.001939	7.658859	-101.281	-165.827	0.003723	0.161111	-0.905521	-0.906857	-0.013725	7.658859	-0.904177	-1.157465E+12	1.185753E-14	NaN
1190	1.000000	0.202460	7.37668e+06	-56089.1	1105.82	-29739.8	0.000000	0.000000	6.202807	-0.035558	NaN	0.000000	0.001581	0.001633	28.082	0.054481	0.001944	28.0242	-73.0046	-163.585	0.116041	0.201117	-0.865507	-0.866850	-0.035558	28.0242	-0.864555	-3.371113E+11	1.054794E-13	NaN
1190	1.000000	0.242469	7.37668e+06	-56089.1	1105.82	-29739.8	0.000000	0.000000	6.242818	0.031717	NaN	0.000000	0.001604	0.001678	28.0819	0.018820	0.001993	9.442939	140.798	-166.398	0.024654	0.241166	-0.825499	-0.826802	0.031717	9.442939	-0.828018	-1.078740E+11	-2.940150E-13	NaN
1190	1.000000	0.282498	7.37668e+06	-56089.1	1105.82	-29739.8	0.000000	0.000000	6.282848	0.045403	NaN	0.000000	0.001598	0.001723	28.0819	0.062028	0.002078	29.8553	117.321	-165.356	0.078608	0.281230	-0.785470	-0.786738	0.045403	29.8553	-0.786610	-2.958292E+10	-1.534781E-12	NaN
1190	1.000000	0.322536	7.37669e+06	-56089.1	1105.82	-29739.8	0.000000	0.000000	6.322886	0.046611	NaN	0.000000	0.001631	0.001703	28.0822	0.008375	0.001966	4.259555	20.4247	-167.624	0.072941	0.321172	-0.745431	-0.746795	0.046611	4.259555	-0.753638	-1.053761E+10	-4.423265E-12	NaN
1190	1.000000	0.362531	7.37669e+06	-56089.1	1105.82	-29739.8	0.000000	0.000000	6.362879	-0.010612	NaN	0.000000	0.001705	0.001636	28.0834	0.077161	0.001934	39.887	-103.515	-163.85	-0.012967	0.361205	-0.705436	-0.706762	-0.010612	39.887	-0.705237	-2.306921E+9	4.600007E-12	NaN
1190	1.000000	0.402526	7.37669e+06	-56089.1	1105.82	-29739.8	0.000000	0.000000	6.402873	-0.021446	NaN	0.000000	0.001650	0.001644	28.0833	0.079663	0.002058	38.7124	-85.7278	-164.83	0.070707	0.401255	-0.665442	-0.666713	-0.021446	38.7124	-0.665026	-6.505817E+8	3.296460E-11	NaN
1190	1.000000	0.442570	7.37669e+06	-56089.1	1105.82	-29739.8	0.000000	0.000000	6.442918	0.010623	NaN	0.000000	0.001605	0.001664	28.0834	0.126649	0.001868	67.812	-68.1698	-164.237	0.040315	0.441301	-0.625398	-0.626667	0.010623	67.812	-0.625515	-1.868203E+8	-5.686054E-11	NaN
1190	1.000000	0.482582	7.37669e+06	-56089.1	1105.82	-29739.8	0.000000	0.000000	6.482930	0.004523	NaN	0.000000	0.001599	0.001629	28.0821	0.085765	0.002077	41.2883	-45.5371	-162.424	0.158194	0.481315	-0.585385	-0.586653	0.004523	41.2883	-0.585468	-5.250067E+7	-8.615457E-11	NaN
1190	1.000000	0.522611	7.37669e+06	-56089.1	1105.82	-29739.8	0.000000	0.000000	6.522961	0.038224	NaN	0.000000	0.001606	0.001638	28.0823	0.022438	0.001863	12.0418	15.5224	-164.268	0.032976	0.521321	-0.545356	-0.546646	0.038224	12.0418	-0.547737	-1.579801E+7	-2.419551E-9	NaN
1190	1.000000	0.562618	7.37669e+06	-56089.1	1105.82	-29739.8	0.000000	0.000000	6.562964	-0.050036	NaN	0.000000	0.001604	0.001616	28.0824	0.115357	0.002152	53.6056	155.416	-165.278	0.001550	0.561292	-0.505349	-0.506676	-0.050036	53.6056	-0.504649	-3.97974e+06	1.257275E-8	NaN
1190	1.000000	0.602658	7.37669e+06	-56089.1	1105.82	-29739.8	0.000000	0.000000	6.603008	0.045117	NaN	0.000000	0.001677	0.001621	28.0826	0.102224	0.002009	50.8828	97.495	-168.531	0.052627	0.601340	-0.465309	-0.466627	0.045117	50.8828	-0.465974	-1.14532e+06	-3.939243E-8	NaN
1190	1.000000	0.642637	7.37669e+06	-56089.1	1105.82	-29739.8	0.000000	0.000000	6.642987	0.042616	NaN	0.000000	0.001675	0.001617	28.0838	0.048754	0.002058	23.6893	-130.917	-161.679	0.047088	0.641319	-0.425330	-0.426649	0.042616	23.6893	-0.426680	-319940	-1.332010E-7	NaN
1190	1.000000	0.682651	7.37669e+06	-56089.1	1105.82	-29739.8	0.000000	0.000000	6.682998	-0.023708	NaN	0.000000	0.001603	0.001627	28.0836	0.100376	0.002015	49.8067	-97.1925	-166.153	0.002373	0.681460	-0.385316	-0.386507	-0.023708	49.8067	-0.384959	-81471.4	2.909971E-7	NaN
1190	1.000000	0.722675	7.37669e+06	-56089.1	1105.82	-29739.8	0.000000	0.000000	6.723021	-0.043273	NaN	0.000000	0.001583	0.001617	28.0837	0.109748	0.002100	52.2685	105.689	-165.541	-0.079802	0.721374	-0.345293	-0.346594	-0.043273	52.2685	-0.344672	-21359.1	2.025989E-6	NaN
1190	1.000000	0.762673	7.37669e+06	-56089.1	1105.82	-29739.8	0.000000	0.000000	6.763021	0.003003	NaN	0.000000	0.001618	0.001625	28.0824	0.072971	0.002043	35.7107	-114.908	-162.31	-0.024882	0.761413	-0.305294	-0.306554	0.003003	35.7107	-0.305358	-5652.76	-5.312194E-7	NaN
1190	1.000000	0.802701	7.37669e+06	-56089.1	1105.82	-29739.8	0.000000	0.000000	6.803048	-0.023807	NaN	0.000000	0.001649	0.001611	28.0822	0.010562	0.002004	5.269983	171.664	-164.974	-0.003296	0.801387	-0.265266	-0.266581	-0.023807	5.269983	-0.261878	-1252.21	1.901211E-5	NaN
1190	1.000000	0.842745	7.37669e+06	-56089.1	1105.82	-29739.8	0.000000	0.000000	6.843094	0.012075	NaN	0.000000	0.001657	0.001636	28.0821	0.168779	0.002067	81.6678	-110.285	-167.616	0.038257	0.841430	-0.225222	-0.226537	0.012075	81.6678	-0.225333	-337.77	-3.574886E-5	NaN
1190	1.000000	0.882748	7.37669e+06	-56089.1	1105.82	-29739.8	0.000000	0.000000	6.883097	0.032441	NaN	0.000000	0.001645	0.001657	28.0836	0.162525	0.001951	83.3113	14.763	-163.6	0.070356	0.881500	-0.185220	-0.186468	0.032441	83.3113	-0.185512	-75.6401	-0.000429	NaN
1190	1.000000	0.922777	7.37669e+06	-56089.1	1105.82	-29739.8	0.000000	0.000000	6.923125	-0.003106	NaN	0.000000	0.001651	0.001663	28.0839	0.082669	0.002056	40.2088	-12.9001	-169.092	0.015496	0.921455	-0.145190	-0.146513	-0.003106	40.2088	-0.145132	-14.7441	0.000211	NaN
1190	1.000000	0.962754	7.37669e+06	-56089.1	1105.82	-29739.8	0.000000	0.000000	6.963102	-0.002928	NaN	0.000000	0.001608	0.001640	28.0836	0.146502	0.001891	77.4922	-139.906	-165.276	-0.019111	0.961459	-0.105213	-0.106509	-0.002928	77.4922	-0.105185	-2.372247	0.001234	NaN
1190	1.000000	1.002764	7.37669e+06	-56089.1	1105.82	-29739.8	0.000000	0.000000	7.003111	-0.037390	NaN	0.000000	0.001559	0.001662	28.0837	0.048775	0.001946	25.0689	146.847	-167.358	-0.042651	1.001477	-0.065203	-0.066490	-0.037390	25.0689	-0.064085	-0.235023	0.159092	NaN
1190	1.000000	1.042789	7.37669e+06	-56089.1	1105.82	-29739.8	0.000000	0.000000	7.043134	-0.084783	NaN	0.000000	0.001542	0.001600	28.0824	0.086708	0.002034	42.6325	153.581	-166.214	-0.052631	1.041473	-0.025178	-0.026494	-0.084783	42.6325	-0.023687	-0.015597	5.435699	NaN
1190	2.000000	1.076413	7.37669e+06	-56089.1	1105.82	-29739.8	0.000000	0.000000	7.077223	11.2204	NaN	0.000000	0.001562	0.001589	28.0823	10.7221	0.001678	6388.51	5.895262	-171.576	11.0993	1.076048	0.008446	0.008081	11.2204	6388.51	0.007129	0.006161	1821.07	74358.7
1190	2.000000	1.086353	7.37669e+06	-56089.1	1105.82	-29739.8	0.000000	0.000000	7.088021	32.0798	NaN	0.000000	0.001564	0.001621	28.0824	21.8383	0.001788	12210.9	3.438172	-174.982	32.2092	1.085989	0.018386	0.018022	32.0798	12210.9	0.016416	0.017220	1862.98	85017.4
1190	2.000000	1.096315	7.37669e+06	-56089.1	1105.82	-29739.8	0.000000	0.000000	7.099269	63.3408	NaN	0.000000	0.001558	0.001586	28.0836	31.4547	0.001819	17294	0.937626	-174.455	62.5992	1.096020	0.028347	0.028052	63.3408	17294	0.025600	0.032117	1972.19	88166.1
1190	2.000000	1.106286	7.37669e+06	-56089.1	1105.82	-29739.8	0.000000	0.000000	7.110526	94.5972	NaN	0.000000	0.001547	0.001613	28.0835	41.8522	0.001785	23446.9	5.535113	178.681	94.098	1.106007	0.038318	0.038039	94.5972	23446.9	0.035293	0.052429	1804.28	93555.9
1190	2.000000	1.116314	7.37669e+06	-56089.1	1105.82	-29739.8	0.000000	0.000000	7.122365	138.611	NaN	0.000000	0.001582	0.001591	28.0836	51.048	0.001813	28155.4	9.452555	173.96	140.445	1.115934	0.048347	0.047966	138.611	28155.4	0.044655	0.076610	1809.3	92937.7
1190	2.000000	1.126249	7.37669e+06	-56089.1	1105.82	-29739.8	0.000000	0.000000	7.134468	191.312	NaN	0.000000	0.001559	0.001581	28.0835	62.368	0.001764	35346.8	5.720646	173.675	190.03	1.125892	0.058282	0.057924	191.312	35346.8	0.054223	0.105910	1806.36	99232.8
1190	2.000000	1.136315	7.37669e+06	-56089.1	1105.82	-29739.8	0.000000	0.000000	7.146771	245.69	NaN	0.000000	0.001559	0.001597	28.0824	71.1692	0.001832	38851.7	4.800876	175.211	249.233	1.135935	0.068348	0.067968	245.69	38851.7	0.063605	0.139052	1766.89	95190.7
1190	2.000000	1.146210	7.37669e+06	-56089.1	1105.82	-29739.8	0.000000	0.000000	7.159046	303.549	NaN	0.000000	0.001545	0.001580	28.0822	81.701	0.001715	47625.3	5.570328	171.784	300.811	1.145987	0.078243	0.078020	303.549	47625.3	0.073462	0.178457	1700.96	103002
1190	2.000000	1.156190	7.37669e+06	-56089.1	1105.82	-29739.8	0.000000	0.000000	7.172082	377.815	NaN	0.000000	0.001567	0.001593	28.0824	92.4185	0.001832	50447.4	9.810660	167.561	376.611	1.155840	0.088223	0.087872	377.815	50447.4	0.082606	0.219113	1724.29	98464.1
1190	2.000000	1.166171	7.37669e+06	-56089.1	1105.82	-29739.8	0.000000	0.000000	7.185410	459.184	NaN	0.000000	0.001548	0.001586	28.0836	101.213	0.001814	55810.4	4.594738	172.122	456.612	1.165982	0.098204	0.098014	459.184	55810.4	0.092033	0.265091	1732.18	99035.4
1190	2.000000	1.172694	7.37669e+06	-56089.1	1105.82	-29739.8	0.000000	0.000000	7.194079	511.357	NaN	0.000000	0.001487	0.001602	28.0835	106.37	0.001785	59588.6	3.936283	-7.240663	508.898	1.172312	0.104727	0.104345	511.357	59588.6	0.098290	0.297857	1716.79	99754.5