File: remote_trans/data/nanoindenter/0828-1/data/Data_2025-08-06,11h17m57s/2025-07-22_16-23-58_1_332.txt
2025-07-22, 16:23:58, 1
Index	Phase	Displacement	Time	Pos X	Pos Y	Pos Z	Rot A	Rot B	Piezo Z	Force A	Force B	Gripper	Voltage A	Voltage B	Temperature	Amplitude force	Amplitude pos	Stiffness	Phase shift	Phase excitation	Force A raw	Displacement raw	HMax	HMax raw	Real Force	Real Stiffness	Contact Depth	Area	Hardness	Reduced Mod.
[#]	[#]	[um]	[s]	[um]	[um]	[um]	[m°]	[m°]	[um]	[uN]	[uN]	[V]	[V]	[V]	[°C]	[uN]	[um]	[N/m]	[°]	[°]	[uN]	[um]	[um]	[um]	[uN]	[N/m]	[um]	[um^2]	[MPa]	[MPa]
332	1.000000	0.002620	7.36831e+06	-55239.1	955.817	-29742.2	0.000000	0.000000	6.002803	0.048137	NaN	0.000000	0.001591	0.001717	28.0783	0.062581	0.000978	63.9713	147.998	-168.796	0.007420	0.001355	-1.108838	-1.110104	0.048137	63.9713	-1.109403	-6.703045E+14	-7.181329E-17	NaN
332	1.000000	0.044535	7.36831e+06	-55239.1	955.819	-29742.2	0.000000	0.000000	6.044715	-0.023176	NaN	0.000000	0.001585	0.001702	28.0781	0.069858	0.001970	35.4601	-48.6692	15.5768	-0.083784	0.043255	-1.066924	-1.068204	-0.023176	35.4601	-1.066434	-1.775313E+14	1.305435E-16	NaN
332	1.000000	0.086609	7.36831e+06	-55239.1	955.818	-29742.2	0.000000	0.000000	6.086791	0.018698	NaN	0.000000	0.001578	0.001720	28.0792	0.122750	0.002159	56.8522	-78.0329	-171.633	-0.071290	0.085273	-1.024849	-1.026186	0.018698	56.8522	-1.025096	-4.937581E+13	-3.786895E-16	NaN
332	1.000000	0.128607	7.36831e+06	-55239.1	955.819	-29742.2	0.000000	0.000000	6.128787	-0.018483	NaN	0.000000	0.001536	0.001724	28.0793	0.081268	0.001972	41.2037	-2.796979	14.4322	-0.021770	0.127231	-0.982852	-0.984227	-0.018483	41.2037	-0.982515	-1.319148E+13	1.401111E-15	NaN
332	1.000000	0.170631	7.36831e+06	-55239.1	955.818	-29742.2	0.000000	0.000000	6.170812	0.006921	NaN	0.000000	0.001606	0.001734	28.0794	0.035904	0.002048	17.531	88.1211	-166.291	0.035854	0.169285	-0.940827	-0.942174	0.006921	17.531	-0.941124	-3.650017E+12	-1.896239E-15	NaN
332	1.000000	0.212615	7.36831e+06	-55239.1	955.818	-29742.2	0.000000	0.000000	6.212796	0.002861	NaN	0.000000	0.001553	0.001689	28.0781	0.053199	0.002054	25.897	-123.666	11.3256	-0.047178	0.211273	-0.898843	-0.900186	0.002861	25.897	-0.898926	-9.830053E+11	-2.910029E-15	NaN
332	1.000000	0.254684	7.36831e+06	-55239.1	955.819	-29742.2	0.000000	0.000000	6.254867	0.035483	NaN	0.000000	0.001549	0.001684	28.0781	0.070576	0.002037	34.6407	81.3317	-166.521	0.041514	0.253367	-0.856774	-0.858092	0.035483	34.6407	-0.857543	-2.709295E+11	-1.309691E-13	NaN
332	1.000000	0.296697	7.36831e+06	-55239.1	955.819	-29742.2	0.000000	0.000000	6.296878	-0.015650	NaN	0.000000	0.001560	0.001692	28.078	0.076760	0.002080	36.9026	64.0046	16.5492	0.018105	0.295351	-0.814761	-0.816107	-0.015650	36.9026	-0.814443	-7.060675E+10	2.216468E-13	NaN
332	1.000000	0.338697	7.36831e+06	-55239.1	955.818	-29742.2	0.000000	0.000000	6.338879	0.024178	NaN	0.000000	0.001557	0.001701	28.0799	0.027419	0.001928	14.2243	-120.764	-163.003	-0.019321	0.337334	-0.772762	-0.774124	0.024178	14.2243	-0.774036	-1.996086E+10	-1.211254E-12	NaN
332	1.000000	0.380730	7.36831e+06	-55239.1	955.819	-29742.2	0.000000	0.000000	6.380910	-0.015648	NaN	0.000000	0.001526	0.001737	28.0794	0.031111	0.001995	15.5951	173.504	14.3822	-0.000258	0.379379	-0.730729	-0.732080	-0.015648	15.5951	-0.729976	-5.017429E+9	3.118811E-12	NaN
332	1.000000	0.422723	7.36831e+06	-55239.1	955.818	-29742.2	0.000000	0.000000	6.422904	-0.005023	NaN	0.000000	0.001552	0.001738	28.0792	0.075448	0.002056	36.6924	13.026	-167.459	-0.000496	0.421414	-0.688735	-0.690044	-0.005023	36.6924	-0.688633	-1.368452E+9	3.670534E-12	NaN
332	1.000000	0.464758	7.36831e+06	-55239.1	955.819	-29742.2	0.000000	0.000000	6.464941	0.063100	NaN	0.000000	0.001537	0.001660	28.0793	0.042182	0.001962	21.5051	-137.181	17.2174	0.079669	0.463375	-0.646701	-0.648084	0.063100	21.5051	-0.648902	-3.911814E+8	-1.613055E-10	NaN
332	1.000000	0.506790	7.36831e+06	-55239.1	955.818	-29742.2	0.000000	0.000000	6.506969	-0.062782	NaN	0.000000	0.001556	0.001706	28.0782	0.067545	0.002004	33.7001	-146.347	-164.149	-0.032552	0.505412	-0.604668	-0.606046	-0.062782	33.7001	-0.603271	-9.236431E+7	6.797176E-10	NaN
332	1.000000	0.548764	7.36831e+06	-55239.1	955.819	-29742.2	0.000000	0.000000	6.548945	0.010522	NaN	0.000000	0.001564	0.001679	28.0781	0.148600	0.002025	73.3687	32.425	15.5921	0.035604	0.547409	-0.562694	-0.564049	0.010522	73.3687	-0.562802	-2.553489E+7	-4.120657E-10	NaN
332	1.000000	0.590773	7.36831e+06	-55239.1	955.818	-29742.2	0.000000	0.000000	6.590954	0.001784	NaN	0.000000	0.001579	0.001717	28.0782	0.053795	0.001994	26.9746	-158.418	-163.11	0.002906	0.589450	-0.520686	-0.522008	0.001784	26.9746	-0.520735	-6.66533e+06	-2.677173E-10	NaN
332	1.000000	0.632842	7.36831e+06	-55239.1	955.817	-29742.2	0.000000	0.000000	6.633019	-0.105992	NaN	0.000000	0.001699	0.001718	28.0795	0.071785	0.001936	37.0716	-5.068305	13.3422	-0.084788	0.631434	-0.478617	-0.480024	-0.105992	37.0716	-0.476472	-1.60741e+06	6.593982E-8	NaN
332	1.000000	0.674825	7.36831e+06	-55239.1	955.819	-29742.2	0.000000	0.000000	6.675005	-0.005296	NaN	0.000000	0.001673	0.001788	28.0794	0.112767	0.002150	52.4525	81.7404	-162.83	-0.029819	0.673567	-0.436634	-0.437892	-0.005296	52.4525	-0.436558	-441336	1.199918E-8	NaN
332	1.000000	0.716858	7.36831e+06	-55239.1	955.819	-29742.2	0.000000	0.000000	6.717037	-0.058432	NaN	0.000000	0.001611	0.001784	28.0797	0.099861	0.001940	51.469	-152.646	14.912	0.045946	0.715503	-0.394600	-0.395956	-0.058432	51.469	-0.393749	-108833	5.368991E-7	NaN
332	1.000000	0.758852	7.36831e+06	-55239.1	955.818	-29742.2	0.000000	0.000000	6.759033	-0.009197	NaN	0.000000	0.001631	0.001767	28.0787	0.130737	0.001938	67.4681	101.881	-162.095	-0.013593	0.757612	-0.352606	-0.353847	-0.009197	67.4681	-0.352504	-27754.2	3.313870E-7	NaN
332	1.000000	0.800887	7.36832e+06	-55239.1	955.818	-29742.2	0.000000	0.000000	6.801071	0.062971	NaN	0.000000	0.001578	0.001759	28.0783	0.169513	0.002019	83.9539	171.287	16.7151	0.057351	0.799545	-0.310571	-0.311914	0.062971	83.9539	-0.311134	-6883.82	-9.147699E-6	NaN
332	1.000000	0.842882	7.36832e+06	-55239.1	955.818	-29742.2	0.000000	0.000000	6.843061	-0.049405	NaN	0.000000	0.001589	0.001733	28.0782	0.057324	0.002055	27.8897	19.5792	-166.259	-0.047816	0.841598	-0.268577	-0.269861	-0.049405	27.8897	-0.267248	-1512.42	3.266649E-5	NaN
332	1.000000	0.884918	7.36832e+06	-55239.1	955.819	-29742.2	0.000000	0.000000	6.885102	0.056689	NaN	0.000000	0.001578	0.001752	28.0794	0.093717	0.002010	46.6314	-144.582	16.0563	0.060322	0.883570	-0.226540	-0.227888	0.056689	46.6314	-0.227452	-364.942	-0.000155	NaN
332	1.000000	0.926954	7.36832e+06	-55239.1	955.819	-29742.2	0.000000	0.000000	6.927136	0.016210	NaN	0.000000	0.001605	0.001742	28.0794	0.047809	0.002028	23.5743	-126.71	-160.406	0.032334	0.925622	-0.184504	-0.185836	0.016210	23.5743	-0.185020	-74.2117	-0.000218	NaN
332	1.000000	0.968981	7.36832e+06	-55239.1	955.818	-29742.2	0.000000	0.000000	6.969162	-0.002884	NaN	0.000000	0.001596	0.001782	28.0794	0.040469	0.002030	19.9397	-155.898	15.3375	-0.033179	0.967618	-0.142478	-0.143841	-0.002884	19.9397	-0.142369	-13.1011	0.000220	NaN
332	1.000000	1.010941	7.36832e+06	-55239.1	955.819	-29742.2	0.000000	0.000000	7.011121	-0.018168	NaN	0.000000	0.001565	0.001799	28.0798	0.122114	0.001885	64.7824	144.133	-166.625	-0.011726	1.009638	-0.100518	-0.101820	-0.018168	64.7824	-0.100307	-1.856016	0.009789	NaN
332	1.000000	1.052991	7.36832e+06	-55239.1	955.819	-29742.2	0.000000	0.000000	7.053172	-0.001147	NaN	0.000000	0.001522	0.001766	28.0782	0.070222	0.001995	35.2027	20.4807	15.0452	-0.023285	1.051609	-0.058467	-0.059849	-0.001147	35.2027	-0.058443	-0.162409	0.007059	NaN
332	1.000000	1.095005	7.36832e+06	-55239.1	955.819	-29742.2	0.000000	0.000000	7.095186	-0.016002	NaN	0.000000	0.001557	0.001795	28.0782	0.022761	0.001947	11.6923	-51.9268	-166.037	0.052130	1.093677	-0.016453	-0.017782	-0.016002	11.6923	-0.015427	-0.009533	1.678700	NaN
332	2.000000	1.125063	7.36832e+06	-55239.1	955.818	-29742.2	0.000000	0.000000	7.125780	13.0191	NaN	0.000000	0.001575	0.001731	28.0791	13.0718	0.001803	7249.3	8.501984	5.121404	12.2223	1.124734	0.013604	0.013275	13.0191	7249.3	0.012258	0.011800	1103.31	60971.7
332	2.000000	1.135499	7.36832e+06	-55239.1	955.817	-29742.2	0.000000	0.000000	7.137072	33.8507	NaN	0.000000	0.001565	0.001733	28.0796	23.8663	0.001883	12674	3.372833	-174.561	32.2276	1.135207	0.024040	0.023748	33.8507	12674	0.022037	0.025845	1309.75	72027.3
332	2.000000	1.145998	7.36832e+06	-55239.1	955.819	-29742.2	0.000000	0.000000	7.148662	60.3699	NaN	0.000000	0.001673	0.001695	28.0794	34.6039	0.001794	19292.5	4.948278	-0.786462	58.4086	1.145555	0.034540	0.034097	60.3699	19292.5	0.032193	0.045411	1329.41	82714.4
332	2.000000	1.156474	7.36832e+06	-55239.1	955.818	-29742.2	0.000000	0.000000	7.160735	99.1868	NaN	0.000000	0.001609	0.001717	28.0802	42.9917	0.001770	24284	2.226382	-179.291	97.6472	1.156182	0.045015	0.044723	99.1868	24284	0.041952	0.069170	1433.95	84359.4
332	2.000000	1.166914	7.36832e+06	-55239.1	955.818	-29742.2	0.000000	0.000000	7.172792	138.509	NaN	0.000000	0.001617	0.001761	28.0792	53.575	0.001767	30312.9	5.834580	-5.580475	135.507	1.166629	0.055455	0.055170	138.509	30312.9	0.052028	0.098784	1402.14	88116.3
332	2.000000	1.177431	7.36832e+06	-55239.1	955.82	-29742.2	0.000000	0.000000	7.185229	185.169	NaN	0.000000	0.001543	0.001734	28.0782	64.1324	0.001771	36218.1	6.684289	172.984	181.841	1.176972	0.065972	0.065513	185.169	36218.1	0.062138	0.133585	1386.15	90535.6
332	2.000000	1.187953	7.36832e+06	-55239.1	955.819	-29742.2	0.000000	0.000000	7.197804	235.061	NaN	0.000000	0.001562	0.001737	28.0781	73.7769	0.001815	40645.2	5.290087	-6.534872	233.978	1.187744	0.076494	0.076285	235.061	40645.2	0.072157	0.172973	1358.94	89288
332	2.000000	1.198478	7.36832e+06	-55239.1	955.82	-29742.2	0.000000	0.000000	7.210571	289.587	NaN	0.000000	0.001619	0.001715	28.0796	81.5547	0.001698	48027.6	1.963539	174.969	289.01	1.198298	0.087019	0.086839	289.587	48027.6	0.082497	0.218606	1324.7	93849.8
332	2.000000	1.208854	7.36832e+06	-55239.1	955.819	-29742.2	0.000000	0.000000	7.224757	382.176	NaN	0.000000	0.001512	0.001698	28.0796	91.685	0.001830	50097.7	4.213222	-6.392516	377.719	1.208431	0.097396	0.096972	382.176	50097.7	0.091674	0.263266	1451.67	89206
332	2.000000	1.219354	7.36832e+06	-55239.1	955.819	-29742.2	0.000000	0.000000	7.238379	458.076	NaN	0.000000	0.001594	0.001743	28.0797	101.291	0.001711	59185	8.898825	167.552	454.783	1.219000	0.107896	0.107541	458.076	59185	0.102091	0.318628	1437.65	95795