File: remote_trans/data/nanoindenter/0828-1/data/Data_2025-08-06,11h17m57s/2025-07-22_16-23-58_1_703.txt
2025-07-22, 16:23:58, 1
Index	Phase	Displacement	Time	Pos X	Pos Y	Pos Z	Rot A	Rot B	Piezo Z	Force A	Force B	Gripper	Voltage A	Voltage B	Temperature	Amplitude force	Amplitude pos	Stiffness	Phase shift	Phase excitation	Force A raw	Displacement raw	HMax	HMax raw	Real Force	Real Stiffness	Contact Depth	Area	Hardness	Reduced Mod.
[#]	[#]	[um]	[s]	[um]	[um]	[um]	[m°]	[m°]	[um]	[uN]	[uN]	[V]	[V]	[V]	[°C]	[uN]	[um]	[N/m]	[°]	[°]	[uN]	[um]	[um]	[um]	[uN]	[N/m]	[um]	[um^2]	[MPa]	[MPa]
703	1.000000	0.002516	7.37193e+06	-41939.1	1005.82	-29784.4	0.000000	0.000000	6.002797	0.001577	NaN	0.000000	0.001811	0.001675	28.0841	0.101961	0.000946	107.775	143.24	-155.797	0.042756	0.001204	-1.144859	-1.146171	0.001577	107.775	-1.144870	-2.004658E+15	-7.866768E-19	NaN
703	1.000000	0.044452	7.37193e+06	-41939.1	1005.82	-29784.4	0.000000	0.000000	6.044734	0.015731	NaN	0.000000	0.001808	0.001701	28.0837	0.058476	0.002072	28.2158	-52.9196	10.5276	0.004902	0.043099	-1.102923	-1.104275	0.015731	28.2158	-1.103341	-5.557957E+14	-2.830335E-17	NaN
703	1.000000	0.086482	7.37193e+06	-41939.1	1005.82	-29784.4	0.000000	0.000000	6.086763	0.010416	NaN	0.000000	0.001666	0.001700	28.0838	0.115745	0.001945	59.4943	166.945	-165.051	0.081244	0.085114	-1.060893	-1.062260	0.010416	59.4943	-1.061024	-1.501702E+14	-6.936106E-17	NaN
703	1.000000	0.128517	7.37193e+06	-41939.1	1005.82	-29784.4	0.000000	0.000000	6.128797	-0.045285	NaN	0.000000	0.001671	0.001682	28.0826	0.124872	0.001844	67.7339	-167.783	14.5884	0.080995	0.127129	-1.018857	-1.020245	-0.045285	67.7339	-1.018356	-4.007088E+13	1.130111E-15	NaN
703	1.000000	0.170519	7.37193e+06	-41939.1	1005.82	-29784.4	0.000000	0.000000	6.170801	0.026668	NaN	0.000000	0.001669	0.001719	28.0823	0.033482	0.002099	15.952	171.696	-167.09	0.009877	0.169252	-0.976856	-0.978122	0.026668	15.952	-0.978109	-1.150641E+13	-2.317652E-15	NaN
703	1.000000	0.212515	7.37193e+06	-41939.1	1005.82	-29784.4	0.000000	0.000000	6.212800	0.087299	NaN	0.000000	0.001649	0.001661	28.0823	0.070896	0.001870	37.9129	179.137	13.4712	0.081563	0.211139	-0.934860	-0.936235	0.087299	37.9129	-0.936587	-3.170176E+12	-2.753747E-14	NaN
703	1.000000	0.254556	7.37193e+06	-41939.1	1005.82	-29784.4	0.000000	0.000000	6.254837	-0.013943	NaN	0.000000	0.001662	0.001721	28.0828	0.077136	0.002005	38.4787	-112.124	-165.445	-0.071697	0.253243	-0.892819	-0.894132	-0.013943	38.4787	-0.892547	-8.060130E+11	1.729924E-14	NaN
703	1.000000	0.296578	7.37193e+06	-41939.1	1005.82	-29784.4	0.000000	0.000000	6.296859	0.006053	NaN	0.000000	0.001628	0.001695	28.0833	0.078198	0.002071	37.7677	25.8238	13.111	0.035240	0.295178	-0.850797	-0.852196	0.006053	37.7677	-0.850917	-2.203724E+11	-2.746533E-14	NaN
703	1.000000	0.338602	7.37193e+06	-41939.1	1005.82	-29784.4	0.000000	0.000000	6.338884	0.026767	NaN	0.000000	0.001616	0.001704	28.0833	0.048649	0.001978	24.5908	144.286	-167.69	0.059841	0.337343	-0.808773	-0.810031	0.026767	24.5908	-0.809589	-6.067295E+10	-4.411702E-13	NaN
703	1.000000	0.380636	7.37193e+06	-41939.1	1005.82	-29784.4	0.000000	0.000000	6.380918	0.004639	NaN	0.000000	0.001593	0.001688	28.0832	0.048226	0.001915	25.1843	-174.953	9.911178	-0.050238	0.379282	-0.766738	-0.768092	0.004639	25.1843	-0.766876	-1.595253E+10	-2.908022E-13	NaN
703	1.000000	0.422615	7.37193e+06	-41939.1	1005.82	-29784.4	0.000000	0.000000	6.422898	0.038308	NaN	0.000000	0.001674	0.001698	28.082	0.060379	0.001920	31.4505	-140.761	-164.499	-0.002008	0.421275	-0.724760	-0.726100	0.038308	31.4505	-0.725673	-4.383590E+9	-8.738919E-12	NaN
703	1.000000	0.464643	7.37193e+06	-41939.1	1005.82	-29784.4	0.000000	0.000000	6.464924	-0.013879	NaN	0.000000	0.001694	0.001657	28.0819	0.056396	0.001865	30.2332	-33.721	14.1509	-0.023246	0.463306	-0.682731	-0.684069	-0.013879	30.2332	-0.682387	-1.124213E+9	1.234560E-11	NaN
703	1.000000	0.506627	7.37193e+06	-41939.1	1005.82	-29784.4	0.000000	0.000000	6.506906	-0.042309	NaN	0.000000	0.001622	0.001717	28.0822	0.035288	0.002143	16.4675	-25.2445	-163.444	0.001330	0.505362	-0.640748	-0.642013	-0.042309	16.4675	-0.638821	-2.845203E+8	1.487024E-10	NaN
703	1.000000	0.548676	7.37193e+06	-41939.1	1005.82	-29784.4	0.000000	0.000000	6.548958	0.029441	NaN	0.000000	0.001609	0.001714	28.0836	0.044718	0.002015	22.1936	-25.8567	15.5524	-0.021335	0.547322	-0.598699	-0.600053	0.029441	22.1936	-0.599694	-8.246021E+7	-3.570282E-10	NaN
703	1.000000	0.590699	7.37193e+06	-41939.1	1005.82	-29784.4	0.000000	0.000000	6.590982	0.042501	NaN	0.000000	0.001686	0.001665	28.0835	0.028771	0.001926	14.9364	55.6618	-169.616	-0.036020	0.589351	-0.556676	-0.558024	0.042501	14.9364	-0.558810	-2.248586E+7	-1.890104E-9	NaN
703	1.000000	0.632707	7.37193e+06	-41939.1	1005.82	-29784.4	0.000000	0.000000	6.632986	-0.037914	NaN	0.000000	0.001672	0.001691	28.0834	0.065407	0.001977	33.0854	163.231	14.5734	-0.012527	0.631360	-0.514668	-0.516015	-0.037914	33.0854	-0.513808	-5.33884e+06	7.101535E-9	NaN
703	1.000000	0.674702	7.37193e+06	-41939.1	1005.82	-29784.4	0.000000	0.000000	6.674985	0.043150	NaN	0.000000	0.001675	0.001690	28.0823	0.066909	0.001966	34.0324	-144.731	-162.988	0.015499	0.673464	-0.472672	-0.473911	0.043150	34.0324	-0.473623	-1.46624e+06	-2.942874E-8	NaN
703	1.000000	0.716758	7.37193e+06	-41939.1	1005.82	-29784.4	0.000000	0.000000	6.717039	-0.017029	NaN	0.000000	0.001690	0.001684	28.0837	0.067810	0.002055	32.9901	84.9323	13.7083	-0.009052	0.715414	-0.430617	-0.431961	-0.017029	32.9901	-0.430229	-359175	4.741265E-8	NaN
703	1.000000	0.758762	7.37193e+06	-41939.1	1005.82	-29784.4	0.000000	0.000000	6.759041	-0.036041	NaN	0.000000	0.001685	0.001670	28.0825	0.057634	0.002048	28.141	-119.045	-164.586	-0.055111	0.757445	-0.388613	-0.389929	-0.036041	28.141	-0.387652	-89037.7	4.047783E-7	NaN
703	1.000000	0.800800	7.37193e+06	-41939.1	1005.82	-29784.4	0.000000	0.000000	6.801080	-0.017931	NaN	0.000000	0.001688	0.001684	28.0827	0.027381	0.001869	14.6498	-4.627623	13.2832	-0.023675	0.799437	-0.346575	-0.347938	-0.017931	14.6498	-0.345657	-22075.4	8.122660E-7	NaN
703	1.000000	0.842813	7.37193e+06	-41939.1	1005.82	-29784.4	0.000000	0.000000	6.843095	0.016464	NaN	0.000000	0.001701	0.001609	28.0836	0.148613	0.001928	77.0951	52.3756	-166.109	-0.025533	0.841531	-0.304561	-0.305844	0.016464	77.0951	-0.304721	-5531.21	-2.976521E-6	NaN
703	1.000000	0.884830	7.37193e+06	-41939.1	1005.82	-29784.4	0.000000	0.000000	6.885111	-0.000314	NaN	0.000000	0.001697	0.001655	28.0837	0.026957	0.002054	13.1267	141.089	12.5104	-0.026299	0.883474	-0.262545	-0.263901	-0.000314	13.1267	-0.262527	-1281.15	2.454130E-7	NaN
703	1.000000	0.926813	7.37193e+06	-41939.1	1005.82	-29784.4	0.000000	0.000000	6.927093	-0.021674	NaN	0.000000	0.001684	0.001647	28.0837	0.053563	0.001985	26.9843	140.303	-164.895	-0.052328	0.925510	-0.220562	-0.221865	-0.021674	26.9843	-0.219960	-277.351	7.814738E-5	NaN
703	1.000000	0.968864	7.37193e+06	-41939.1	1005.82	-29784.4	0.000000	0.000000	6.969147	0.043337	NaN	0.000000	0.001645	0.001670	28.0827	0.126968	0.001991	63.7597	-110.087	13.3612	-0.035584	0.967480	-0.178511	-0.179895	0.043337	63.7597	-0.179020	-58.7198	-0.000738	NaN
703	1.000000	1.010857	7.37193e+06	-41939.1	1005.82	-29784.4	0.000000	0.000000	7.011136	-0.048833	NaN	0.000000	0.001642	0.001729	28.0826	0.037401	0.002087	17.921	86.3324	-165.246	-0.011334	1.009619	-0.136517	-0.137755	-0.048833	17.921	-0.134474	-9.294626	0.005254	NaN
703	1.000000	1.052912	7.37193e+06	-41939.1	1005.82	-29784.4	0.000000	0.000000	7.053192	-0.014772	NaN	0.000000	0.001608	0.001727	28.0822	0.073911	0.001935	38.2057	6.551564	13.1139	0.046109	1.051507	-0.094463	-0.095867	-0.014772	38.2057	-0.094173	-1.350600	0.010938	NaN
703	1.000000	1.094882	7.37193e+06	-41939.1	1005.82	-29784.4	0.000000	0.000000	7.095160	-0.054675	NaN	0.000000	0.001626	0.001704	28.0836	0.089534	0.001809	49.4947	-68.3668	-168.145	-0.053620	1.093564	-0.052493	-0.053811	-0.054675	49.4947	-0.051665	-0.102427	0.533795	NaN
703	1.000000	1.136918	7.37193e+06	-41939.1	1005.82	-29784.4	0.000000	0.000000	7.137199	-0.010469	NaN	0.000000	0.001637	0.001726	28.0836	0.068748	0.001961	35.0641	42.0814	14.0438	0.000259	1.135493	-0.010457	-0.011882	-0.010469	35.0641	-0.010233	-0.006520	1.605603	NaN
703	2.000000	1.160401	7.37193e+06	-41939.1	1005.82	-29784.4	0.000000	0.000000	7.161378	16.9322	NaN	0.000000	0.001680	0.001764	28.0838	15.3931	0.001805	8529.7	5.710620	-175.872	16.306	1.160121	0.013026	0.012747	16.9322	8529.7	0.011538	0.010941	1547.6	74504
703	2.000000	1.170904	7.37193e+06	-41939.1	1005.82	-29784.4	0.000000	0.000000	7.172745	37.9523	NaN	0.000000	0.001652	0.001730	28.083	24.4899	0.001702	14388.1	7.784079	-1.021829	37.3614	1.170553	0.023530	0.023178	37.9523	14388.1	0.021551	0.025039	1515.72	83074.5
703	2.000000	1.181306	7.37193e+06	-41939.1	1005.82	-29784.4	0.000000	0.000000	7.184283	65.5978	NaN	0.000000	0.001627	0.001747	28.083	34.3278	0.001769	19407.1	2.634455	-179.728	63.6382	1.181008	0.033932	0.033633	65.5978	19407.1	0.031397	0.043688	1501.51	84830.6
703	2.000000	1.191784	7.37193e+06	-41939.1	1005.82	-29784.4	0.000000	0.000000	7.196316	103.418	NaN	0.000000	0.001625	0.001726	28.0827	44.0902	0.001734	25428.4	7.189088	-7.406759	100.282	1.191509	0.044409	0.044135	103.418	25428.4	0.041359	0.067588	1530.13	89362.8
703	2.000000	1.202339	7.37193e+06	-41939.1	1005.82	-29784.4	0.000000	0.000000	7.208918	153.227	NaN	0.000000	0.001604	0.001770	28.0829	54.4801	0.001747	31187.2	4.055577	175.282	151.934	1.202028	0.054965	0.054653	153.227	31187.2	0.051280	0.096410	1589.32	91767.3
703	2.000000	1.212833	7.37193e+06	-41939.1	1005.82	-29784.4	0.000000	0.000000	7.221475	203.429	NaN	0.000000	0.001614	0.001756	28.084	64.4821	0.001734	37183.1	2.345568	-4.270190	203.773	1.212476	0.065459	0.065102	203.429	37183.1	0.061355	0.130713	1556.3	93963.5
703	2.000000	1.223327	7.37193e+06	-41939.1	1005.82	-29784.4	0.000000	0.000000	7.234714	270.236	NaN	0.000000	0.001611	0.001778	28.0839	73.4622	0.001715	42822.8	5.354755	171.773	269.901	1.222919	0.075952	0.075545	270.236	42822.8	0.071219	0.169083	1598.24	95147.7
703	2.000000	1.233745	7.37193e+06	-41939.1	1005.82	-29784.4	0.000000	0.000000	7.247945	338.682	NaN	0.000000	0.001654	0.001744	28.0843	83.8409	0.001863	44999.2	5.050928	-8.625798	334.779	1.233377	0.086370	0.086003	338.682	44999.2	0.080725	0.210432	1609.46	89623.5
703	2.000000	1.244209	7.37193e+06	-41939.1	1005.82	-29784.4	0.000000	0.000000	7.261510	414.133	NaN	0.000000	0.001660	0.001730	28.0833	91.4241	0.001798	50852.3	3.027681	172.579	410.516	1.243958	0.096834	0.096584	414.133	50852.3	0.090726	0.258473	1602.23	91385.2
703	2.000000	1.252740	7.37193e+06	-41939.1	1005.82	-29784.4	0.000000	0.000000	7.272672	478.125	NaN	0.000000	0.001622	0.001765	28.0828	101.841	0.001888	53942.8	2.758145	-7.946319	473.669	1.252347	0.105366	0.104973	478.125	53942.8	0.098718	0.300162	1592.89	89955.8