File: remote_trans/data/nanoindenter/0828-1/data/Data_2025-08-06,11h17m57s/2025-07-22_16-23-58_1_221.txt
2025-07-22, 16:23:58, 1
Index	Phase	Displacement	Time	Pos X	Pos Y	Pos Z	Rot A	Rot B	Piezo Z	Force A	Force B	Gripper	Voltage A	Voltage B	Temperature	Amplitude force	Amplitude pos	Stiffness	Phase shift	Phase excitation	Force A raw	Displacement raw	HMax	HMax raw	Real Force	Real Stiffness	Contact Depth	Area	Hardness	Reduced Mod.
[#]	[#]	[um]	[s]	[um]	[um]	[um]	[m°]	[m°]	[um]	[uN]	[uN]	[V]	[V]	[V]	[°C]	[uN]	[um]	[N/m]	[°]	[°]	[uN]	[um]	[um]	[um]	[uN]	[N/m]	[um]	[um^2]	[MPa]	[MPa]
221	1.000000	0.002409	7.36721e+06	-49689.1	955.819	-29758.3	0.000000	0.000000	6.002804	0.056810	NaN	0.000000	0.001633	0.001723	28.0779	0.061317	0.001055	58.1373	25.9305	-167.591	0.060051	0.001114	-1.161161	-1.162457	0.056810	58.1373	-1.161894	-3.390434E+15	-1.675611E-17	NaN
221	1.000000	0.046351	7.36721e+06	-49689.1	955.818	-29758.3	0.000000	0.000000	6.046745	0.027242	NaN	0.000000	0.001603	0.001729	28.0798	0.069305	0.002040	33.9689	-52.4319	-164.765	-0.027934	0.045081	-1.117220	-1.118490	0.027242	33.9689	-1.117821	-8.694452E+14	-3.133284E-17	NaN
221	1.000000	0.090366	7.36721e+06	-49689.1	955.818	-29758.3	0.000000	0.000000	6.090763	0.093055	NaN	0.000000	0.001601	0.001721	28.079	0.065431	0.001961	33.3639	-60.9675	-166.433	0.078307	0.089091	-1.073205	-1.074480	0.093055	33.3639	-1.075296	-2.335286E+14	-3.984720E-16	NaN
221	1.000000	0.134389	7.36721e+06	-49689.1	955.819	-29758.4	0.000000	0.000000	6.134781	-0.035035	NaN	0.000000	0.001651	0.001699	28.0791	0.030973	0.001957	15.8288	174.116	-165.029	-0.054616	0.133070	-1.029181	-1.030501	-0.035035	15.8288	-1.027521	-5.322776E+13	6.582018E-16	NaN
221	1.000000	0.178396	7.36721e+06	-49689.1	955.818	-29758.4	0.000000	0.000000	6.178790	0.035112	NaN	0.000000	0.001609	0.001658	28.0792	0.071243	0.001941	36.6981	111.718	-166.067	0.069163	0.177128	-0.985174	-0.986443	0.035112	36.6981	-0.985892	-1.464811E+13	-2.397053E-15	NaN
221	1.000000	0.222444	7.36721e+06	-49689.1	955.818	-29758.4	0.000000	0.000000	6.222834	-0.058400	NaN	0.000000	0.001735	0.001665	28.0777	0.104835	0.002016	51.9947	41.979	-164.659	-0.082826	0.221157	-0.941126	-0.942414	-0.058400	51.9947	-0.940284	-3.556065E+12	1.642269E-14	NaN
221	1.000000	0.266444	7.36721e+06	-49689.1	955.818	-29758.4	0.000000	0.000000	6.266834	-0.049929	NaN	0.000000	0.001706	0.001717	28.0775	0.105345	0.001931	54.5522	-141.173	-163.052	-0.015756	0.265129	-0.897127	-0.898442	-0.049929	54.5522	-0.896441	-9.098431E+11	5.487617E-14	NaN
221	1.000000	0.310449	7.36721e+06	-49689.1	955.818	-29758.4	0.000000	0.000000	6.310843	0.016580	NaN	0.000000	0.001633	0.001653	28.0774	0.057075	0.001968	28.9947	-32.742	-166.749	0.009749	0.309101	-0.853121	-0.854470	0.016580	28.9947	-0.853550	-2.392250E+11	-6.930613E-14	NaN
221	1.000000	0.354491	7.36721e+06	-49689.1	955.819	-29758.4	0.000000	0.000000	6.354888	0.106497	NaN	0.000000	0.001627	0.001710	28.0789	0.025292	0.001906	13.2699	-63.4432	-165.258	0.023531	0.353149	-0.809080	-0.810422	0.106497	13.2699	-0.815099	-7.206773E+10	-1.477733E-12	NaN
221	1.000000	0.398500	7.36721e+06	-49689.1	955.818	-29758.4	0.000000	0.000000	6.398894	0.046262	NaN	0.000000	0.001608	0.001684	28.0789	0.049237	0.002025	24.3185	111.457	-162.691	-0.024268	0.397178	-0.765071	-0.766392	0.046262	24.3185	-0.766498	-1.576452E+10	-2.934565E-12	NaN
221	1.000000	0.442511	7.36721e+06	-49689.1	955.818	-29758.4	0.000000	0.000000	6.442907	0.091615	NaN	0.000000	0.001614	0.001674	28.0781	0.014409	0.001958	7.358705	-67.5113	-167.548	-0.013231	0.441210	-0.721060	-0.722360	0.091615	7.358705	-0.730397	-5.084234E+9	-1.801948E-11	NaN
221	1.000000	0.486555	7.36721e+06	-49689.1	955.819	-29758.4	0.000000	0.000000	6.486947	-0.030021	NaN	0.000000	0.001604	0.001676	28.0789	0.106920	0.001996	53.5749	171.856	-166.792	-0.063355	0.485245	-0.677015	-0.678325	-0.030021	53.5749	-0.676595	-9.367642E+8	3.204736E-11	NaN
221	1.000000	0.530553	7.36721e+06	-49689.1	955.819	-29758.4	0.000000	0.000000	6.530944	-0.048113	NaN	0.000000	0.001599	0.001693	28.0776	0.132661	0.002031	65.3254	127.787	-169.278	-0.057631	0.529257	-0.633017	-0.634314	-0.048113	65.3254	-0.632465	-2.327392E+8	2.067269E-10	NaN
221	1.000000	0.574586	7.36721e+06	-49689.1	955.818	-29758.4	0.000000	0.000000	6.574978	-0.016182	NaN	0.000000	0.001641	0.001723	28.0775	0.081868	0.002063	39.6832	104.29	-162.802	0.004091	0.573309	-0.588985	-0.590261	-0.016182	39.6832	-0.588679	-5.813708E+7	2.783380E-10	NaN
221	1.000000	0.618631	7.36721e+06	-49689.1	955.818	-29758.4	0.000000	0.000000	6.619023	-0.001104	NaN	0.000000	0.001607	0.001705	28.0788	0.134350	0.002104	63.8577	82.3713	-164.506	-0.005495	0.617255	-0.544940	-0.546316	-0.001104	63.8577	-0.544927	-1.444339E+7	7.643035E-11	NaN
221	1.000000	0.662613	7.36721e+06	-49689.1	955.817	-29758.4	0.000000	0.000000	6.663005	0.004103	NaN	0.000000	0.001582	0.001686	28.0786	0.115939	0.002001	57.9322	6.032848	-166.225	0.042829	0.661301	-0.500958	-0.502270	0.004103	57.9322	-0.501011	-3.54098e+06	-1.158610E-9	NaN
221	1.000000	0.706632	7.36721e+06	-49689.1	955.818	-29758.4	0.000000	0.000000	6.707025	0.008023	NaN	0.000000	0.001610	0.001641	28.0786	0.137108	0.002030	67.5296	-135.137	-166.156	0.012778	0.705357	-0.456939	-0.458214	0.008023	67.5296	-0.457028	-857508	-9.355680E-9	NaN
221	1.000000	0.750646	7.36721e+06	-49689.1	955.818	-29758.4	0.000000	0.000000	6.751040	0.044725	NaN	0.000000	0.001577	0.001675	28.0779	0.116034	0.001994	58.1913	168.54	-166.016	-0.032476	0.749374	-0.412925	-0.414197	0.044725	58.1913	-0.413501	-208050	-2.149746E-7	NaN
221	1.000000	0.794664	7.36721e+06	-49689.1	955.818	-29758.4	0.000000	0.000000	6.795057	-0.001977	NaN	0.000000	0.001551	0.001666	28.0778	0.110197	0.001915	57.5435	93.9505	-165.967	0.058026	0.793356	-0.368907	-0.370215	-0.001977	57.5435	-0.368881	-47863.9	4.130950E-8	NaN
221	1.000000	0.838692	7.36721e+06	-49689.1	955.818	-29758.4	0.000000	0.000000	6.839085	0.003416	NaN	0.000000	0.001561	0.001714	28.0775	0.078768	0.001802	43.7157	147.852	-166.047	-0.037622	0.837417	-0.324878	-0.326154	0.003416	43.7157	-0.324937	-10995.4	-3.107198E-7	NaN
221	1.000000	0.882727	7.36721e+06	-49689.1	955.817	-29758.4	0.000000	0.000000	6.883122	0.063063	NaN	0.000000	0.001575	0.001696	28.0787	0.075143	0.002058	36.513	-159.135	-163.781	-0.006825	0.881409	-0.280844	-0.282161	0.063063	36.513	-0.282139	-2542.26	-2.480573E-5	NaN
221	1.000000	0.926742	7.36721e+06	-49689.1	955.818	-29758.4	0.000000	0.000000	6.927134	-0.030853	NaN	0.000000	0.001633	0.001675	28.0789	0.011119	0.001966	5.656223	81.6453	-164.648	0.032398	0.925390	-0.236828	-0.238181	-0.030853	5.656223	-0.232737	-442.255	6.976321E-5	NaN
221	1.000000	0.970722	7.36721e+06	-49689.1	955.817	-29758.4	0.000000	0.000000	6.971116	0.015660	NaN	0.000000	0.001556	0.001669	28.0789	0.050753	0.001999	25.384	-171.608	-169.491	-0.013008	0.969491	-0.192848	-0.194079	0.015660	25.384	-0.193311	-102.136	-0.000153	NaN
221	1.000000	1.014798	7.36721e+06	-49689.1	955.817	-29758.4	0.000000	0.000000	7.015192	0.025795	NaN	0.000000	0.001568	0.001726	28.0774	0.086968	0.002013	43.1962	158.987	-163.744	0.047737	1.013483	-0.148773	-0.150087	0.025795	43.1962	-0.149220	-17.5295	-0.001472	NaN
221	1.000000	1.058781	7.36721e+06	-49689.1	955.818	-29758.4	0.000000	0.000000	7.059174	0.014499	NaN	0.000000	0.001556	0.001742	28.0775	0.035933	0.001932	18.5998	-63.3009	-164.66	0.063263	1.057449	-0.104789	-0.106122	0.014499	18.5998	-0.105374	-2.394679	-0.006055	NaN
221	1.000000	1.102803	7.36721e+06	-49689.1	955.817	-29758.4	0.000000	0.000000	7.103195	-0.002454	NaN	0.000000	0.001564	0.001649	28.0774	0.151921	0.001960	77.5239	-140.248	-165.071	0.018338	1.101530	-0.060768	-0.062041	-0.002454	77.5239	-0.060744	-0.189144	0.012976	NaN
221	1.000000	1.146819	7.36721e+06	-49689.1	955.817	-29758.4	0.000000	0.000000	7.147209	-0.080051	NaN	0.000000	0.001557	0.001662	28.0789	0.062430	0.001919	32.527	149.181	-165.641	-0.021873	1.145548	-0.016751	-0.018022	-0.080051	32.527	-0.014905	-0.009219	8.683439	NaN
221	2.000000	1.179333	7.36721e+06	-49689.1	955.818	-29758.4	0.000000	0.000000	7.180285	13.6084	NaN	0.000000	0.001641	0.001669	28.0787	12.4597	0.001638	7605.26	4.279510	-171.662	13.5752	1.179086	0.015762	0.015516	13.6084	7605.26	0.014420	0.014520	937.192	57663.2
221	2.000000	1.190292	7.36721e+06	-49689.1	955.817	-29758.4	0.000000	0.000000	7.192381	41.246	NaN	0.000000	0.001570	0.001681	28.0789	25.4436	0.001811	14046.3	8.310518	179.073	41.287	1.189892	0.026722	0.026321	41.246	14046.3	0.024519	0.030147	1368.16	73911.6
221	2.000000	1.201197	7.36721e+06	-49689.1	955.817	-29758.4	0.000000	0.000000	7.204922	81.0317	NaN	0.000000	0.001578	0.001688	28.0778	34.5406	0.001684	20511.1	3.424267	-178.583	78.3745	1.200846	0.037627	0.037276	81.0317	20511.1	0.034664	0.050965	1589.93	83009
221	2.000000	1.212168	7.36721e+06	-49689.1	955.818	-29758.4	0.000000	0.000000	7.217647	123.71	NaN	0.000000	0.001570	0.001670	28.078	46.0411	0.001703	27034.7	1.379885	-179.408	120.573	1.211931	0.048597	0.048361	123.71	27034.7	0.045165	0.078056	1584.89	88407.7
221	2.000000	1.223207	7.36721e+06	-49689.1	955.818	-29758.4	0.000000	0.000000	7.230604	170.339	NaN	0.000000	0.001582	0.001743	28.0782	57.7341	0.001827	31606.8	2.060797	178.811	167.436	1.222919	0.059636	0.059349	170.339	31606.8	0.055594	0.110485	1541.74	86876.3
221	2.000000	1.234105	7.36721e+06	-49689.1	955.819	-29758.4	0.000000	0.000000	7.244297	238.311	NaN	0.000000	0.001572	0.001745	28.079	67.5437	0.001854	36438.9	2.458803	177.66	232.401	1.233839	0.070534	0.070268	238.311	36438.9	0.065629	0.146765	1623.76	86901.6
221	2.000000	1.245128	7.36721e+06	-49689.1	955.818	-29758.4	0.000000	0.000000	7.258438	314.136	NaN	0.000000	0.001541	0.001718	28.0793	80.0757	0.001660	48233.2	6.147679	172.128	310.472	1.244771	0.081558	0.081200	314.136	48233.2	0.076673	0.192288	1633.68	100495
221	2.000000	1.256194	7.36721e+06	-49689.1	955.819	-29758.4	0.000000	0.000000	7.272624	390.01	NaN	0.000000	0.001550	0.001714	28.0794	91.1607	0.001833	49734.9	3.745873	173.835	391.7	1.255916	0.092624	0.092345	390.01	49734.9	0.086742	0.238783	1633.32	92989.1
221	2.000000	1.267217	7.36721e+06	-49689.1	955.82	-29758.4	0.000000	0.000000	7.287431	482.061	NaN	0.000000	0.001554	0.001670	28.0791	100.422	0.001790	56115.2	4.486463	172.119	483.779	1.266948	0.103646	0.103377	482.061	56115.2	0.097203	0.292034	1650.7	94871.7
221	2.000000	1.274154	7.36721e+06	-49689.1	955.819	-29758.4	0.000000	0.000000	7.297117	548.9	NaN	0.000000	0.001548	0.001673	28.0779	108.405	0.001838	58966.8	7.684481	169.22	547.95	1.273740	0.110583	0.110170	548.9	58966.8	0.103602	0.327067	1678.25	94202.5