File: remote_trans/data/nanoindenter/0828-1/data/Data_2025-08-06,11h17m57s/2025-07-22_16-23-58_1_618.txt
2025-07-22, 16:23:58, 1
Index	Phase	Displacement	Time	Pos X	Pos Y	Pos Z	Rot A	Rot B	Piezo Z	Force A	Force B	Gripper	Voltage A	Voltage B	Temperature	Amplitude force	Amplitude pos	Stiffness	Phase shift	Phase excitation	Force A raw	Displacement raw	HMax	HMax raw	Real Force	Real Stiffness	Contact Depth	Area	Hardness	Reduced Mod.
[#]	[#]	[um]	[s]	[um]	[um]	[um]	[m°]	[m°]	[um]	[uN]	[uN]	[V]	[V]	[V]	[°C]	[uN]	[um]	[N/m]	[°]	[°]	[uN]	[um]	[um]	[um]	[uN]	[N/m]	[um]	[um^2]	[MPa]	[MPa]
618	1.000000	0.003129	7.3711e+06	-46189.1	1005.82	-29770	0.000000	0.000000	6.002810	0.050026	NaN	0.000000	0.001519	0.001678	28.0817	0.117500	0.000969	121.26	-135.048	-170.786	-0.046546	0.001895	-1.149851	-1.151085	0.050026	121.26	-1.150160	-2.360318E+15	-2.119462E-17	NaN
618	1.000000	0.045050	7.3711e+06	-46189.1	1005.82	-29770	0.000000	0.000000	6.044730	0.007931	NaN	0.000000	0.001551	0.001721	28.0815	0.095726	0.001966	48.683	96.641	15.2567	-0.017444	0.043721	-1.107930	-1.109259	0.007931	48.683	-1.108052	-6.429028E+14	-1.233611E-17	NaN
618	1.000000	0.087079	7.3711e+06	-46189.1	1005.82	-29770	0.000000	0.000000	6.086758	-0.001093	NaN	0.000000	0.001543	0.001649	28.0825	0.042383	0.001909	22.205	-155.16	-165.536	0.060433	0.085749	-1.065901	-1.067231	-0.001093	22.205	-1.065864	-1.744303E+14	6.266598E-18	NaN
618	1.000000	0.129053	7.3711e+06	-46189.1	1005.82	-29770	0.000000	0.000000	6.128732	-0.009411	NaN	0.000000	0.001485	0.001697	28.0825	0.103990	0.001976	52.63	-131.563	11.5986	0.024779	0.127759	-1.023927	-1.025221	-0.009411	52.63	-1.023793	-4.742190E+13	1.984571E-16	NaN
618	1.000000	0.171141	7.3711e+06	-46189.1	1005.82	-29770	0.000000	0.000000	6.170821	0.031453	NaN	0.000000	0.001520	0.001666	28.0823	0.108969	0.002011	54.1809	-147.127	-166.031	0.038639	0.169807	-0.981839	-0.983173	0.031453	54.1809	-0.982275	-1.309351E+13	-2.402197E-15	NaN
618	1.000000	0.213155	7.3711e+06	-46189.1	1005.82	-29770	0.000000	0.000000	6.212835	0.021224	NaN	0.000000	0.001622	0.001648	28.0808	0.016702	0.002120	7.878019	-162.867	17.9807	0.021518	0.211830	-0.939825	-0.941151	0.021224	7.878019	-0.941846	-3.732849E+12	-5.685709E-15	NaN
618	1.000000	0.255161	7.3711e+06	-46189.1	1005.82	-29770	0.000000	0.000000	6.254842	0.042004	NaN	0.000000	0.001568	0.001656	28.081	0.066819	0.002004	33.3418	-14.697	-166.237	0.058177	0.253836	-0.897819	-0.899144	0.042004	33.3418	-0.898764	-9.780444E+11	-4.294656E-14	NaN
618	1.000000	0.297171	7.3711e+06	-46189.1	1005.82	-29770	0.000000	0.000000	6.296851	0.025523	NaN	0.000000	0.001573	0.001687	28.0808	0.037325	0.001986	18.7921	-136.404	14.4894	0.027127	0.295783	-0.855809	-0.857197	0.025523	18.7921	-0.856827	-2.649580E+11	-9.632818E-14	NaN
618	1.000000	0.339184	7.3711e+06	-46189.1	1005.82	-29770	0.000000	0.000000	6.338869	0.125454	NaN	0.000000	0.001642	0.001647	28.0823	0.095263	0.001988	47.9232	-54.5759	-167.463	0.018277	0.337886	-0.813796	-0.815095	0.125454	47.9232	-0.815759	-7.356908E+10	-1.705260E-12	NaN
618	1.000000	0.381203	7.3711e+06	-46189.1	1005.82	-29770	0.000000	0.000000	6.380886	0.081135	NaN	0.000000	0.001657	0.001688	28.0823	0.020920	0.001831	11.4271	-59.1722	12.1911	0.011206	0.379869	-0.771777	-0.773111	0.081135	11.4271	-0.777102	-2.197098E+10	-3.692824E-12	NaN
618	1.000000	0.423253	7.3711e+06	-46189.1	1005.82	-29770	0.000000	0.000000	6.422935	0.070342	NaN	0.000000	0.001668	0.001715	28.082	0.068636	0.002048	33.5101	41.6935	-166.3	0.040397	0.421905	-0.729727	-0.731075	0.070342	33.5101	-0.731302	-5.230579E+9	-1.344813E-11	NaN
618	1.000000	0.465263	7.3711e+06	-46189.1	1005.82	-29770	0.000000	0.000000	6.464941	-0.021519	NaN	0.000000	0.001596	0.001690	28.0823	0.063549	0.002062	30.8225	100.877	14.3658	0.053993	0.463899	-0.687717	-0.689081	-0.021519	30.8225	-0.687194	-1.307867E+9	1.645348E-11	NaN
618	1.000000	0.507245	7.3711e+06	-46189.1	1005.82	-29770	0.000000	0.000000	6.506924	0.019307	NaN	0.000000	0.001589	0.001609	28.081	0.039831	0.002109	18.8892	132.249	-169.132	-0.132828	0.505963	-0.645735	-0.647017	0.019307	18.8892	-0.646502	-3.626404E+8	-5.323875E-11	NaN
618	1.000000	0.549273	7.3711e+06	-46189.1	1005.82	-29770	0.000000	0.000000	6.548953	0.003748	NaN	0.000000	0.001589	0.001652	28.0811	0.095721	0.001927	49.6692	-51.0632	15.8245	0.032851	0.547986	-0.603707	-0.604994	0.003748	49.6692	-0.603763	-9.381650E+7	-3.994604E-11	NaN
618	1.000000	0.591269	7.3711e+06	-46189.1	1005.82	-29770	0.000000	0.000000	6.590951	0.087198	NaN	0.000000	0.001588	0.001662	28.0813	0.096813	0.001960	49.3979	156.223	-166.966	0.090562	0.590013	-0.561711	-0.562967	0.087198	49.3979	-0.563035	-2.572534E+7	-3.389584E-9	NaN
618	1.000000	0.633318	7.3711e+06	-46189.1	1005.82	-29770	0.000000	0.000000	6.632998	0.015242	NaN	0.000000	0.001582	0.001670	28.0823	0.086838	0.001966	44.1602	-179.311	12.2519	-0.020678	0.631885	-0.519662	-0.521095	0.015242	44.1602	-0.519921	-6.49376e+06	-2.347229E-9	NaN
618	1.000000	0.675332	7.3711e+06	-46189.1	1005.82	-29770	0.000000	0.000000	6.675013	0.058830	NaN	0.000000	0.001569	0.001671	28.0824	0.029479	0.001814	16.254	59.418	-166.903	0.023574	0.674012	-0.477648	-0.478968	0.058830	16.254	-0.480363	-1.82226e+06	-3.228398E-8	NaN
618	1.000000	0.717357	7.3711e+06	-46189.1	1005.82	-29770	0.000000	0.000000	6.717037	0.023698	NaN	0.000000	0.001544	0.001665	28.0824	0.049482	0.001932	25.6056	-119.036	13.1406	0.008645	0.715959	-0.435623	-0.437021	0.023698	25.6056	-0.436317	-437887	-5.411813E-8	NaN
618	1.000000	0.759401	7.3711e+06	-46189.1	1005.82	-29770	0.000000	0.000000	6.759082	0.053610	NaN	0.000000	0.001495	0.001658	28.0809	0.012142	0.002072	5.859573	-85.333	-167.377	0.012416	0.758046	-0.393580	-0.394934	0.053610	5.859573	-0.400441	-135609	-3.953262E-7	NaN
618	1.000000	0.801388	7.3711e+06	-46189.1	1005.82	-29770	0.000000	0.000000	6.801069	0.066018	NaN	0.000000	0.001481	0.001654	28.0813	0.026063	0.001972	13.2154	40.436	13.3859	0.010566	0.799985	-0.351592	-0.352995	0.066018	13.2154	-0.355339	-30507.6	-2.163990E-6	NaN
618	1.000000	0.843413	7.3711e+06	-46189.1	1005.82	-29770	0.000000	0.000000	6.843095	0.067927	NaN	0.000000	0.001554	0.001668	28.0816	0.066869	0.002095	31.9191	176.923	-164.892	0.126785	0.842108	-0.309567	-0.310872	0.067927	31.9191	-0.311163	-6890.73	-9.857794E-6	NaN
618	1.000000	0.885411	7.3711e+06	-46189.1	1005.82	-29770	0.000000	0.000000	6.885090	0.002288	NaN	0.000000	0.001552	0.001641	28.083	0.065885	0.002077	31.7262	22.7723	14.4959	-0.010753	0.884090	-0.267569	-0.268890	0.002288	31.7262	-0.267623	-1532.42	-1.492988E-6	NaN
618	1.000000	0.927438	7.3711e+06	-46189.1	1005.82	-29770	0.000000	0.000000	6.927117	-0.000582	NaN	0.000000	0.001529	0.001672	28.0824	0.105031	0.001848	56.8487	9.537287	-164.601	-0.064492	0.926067	-0.225542	-0.226913	-0.000582	56.8487	-0.225534	-340.266	1.709678E-6	NaN
618	1.000000	0.969439	7.3711e+06	-46189.1	1005.82	-29770	0.000000	0.000000	6.969117	-0.019825	NaN	0.000000	0.001559	0.001680	28.0822	0.028462	0.001970	14.4451	170.951	15.3592	0.010874	0.968087	-0.183541	-0.184893	-0.019825	14.4451	-0.182512	-67.3131	0.000295	NaN
618	1.000000	1.011469	7.3711e+06	-46189.1	1005.82	-29770	0.000000	0.000000	7.011152	0.079688	NaN	0.000000	0.001550	0.001681	28.0822	0.065466	0.002031	32.2288	48.1018	-166.289	0.072128	1.010195	-0.141511	-0.142785	0.079688	32.2288	-0.143365	-13.6726	-0.005828	NaN
618	1.000000	1.053489	7.3711e+06	-46189.1	1005.82	-29770	0.000000	0.000000	7.053171	0.085333	NaN	0.000000	0.001557	0.001663	28.0812	0.059016	0.002007	29.4095	-126.539	15.0122	-0.007179	1.052160	-0.099492	-0.100820	0.085333	29.4095	-0.101668	-1.988746	-0.042908	NaN
618	1.000000	1.095518	7.3711e+06	-46189.1	1005.82	-29770	0.000000	0.000000	7.095198	0.028032	NaN	0.000000	0.001514	0.001639	28.0809	0.074079	0.001946	38.0696	131.499	-167.942	0.075773	1.094175	-0.057462	-0.058805	0.028032	38.0696	-0.058014	-0.157825	-0.177615	NaN
618	1.000000	1.137526	7.3711e+06	-46189.1	1005.82	-29770	0.000000	0.000000	7.137206	0.031095	NaN	0.000000	0.001551	0.001660	28.081	0.061943	0.001980	31.2837	62.312	18.9883	0.048718	1.136166	-0.015454	-0.016814	0.031095	31.2837	-0.016200	-0.010007	-3.107413	NaN
618	2.000000	1.166045	7.3711e+06	-46189.1	1005.82	-29770	0.000000	0.000000	7.166370	15.707	NaN	0.000000	0.001586	0.001633	28.0859	13.7282	0.001672	8209.92	2.333770	-172.098	16.3243	1.165729	0.013065	0.012749	15.707	8209.92	0.011630	0.011050	1421.44	71355.8
618	2.000000	1.176519	7.3711e+06	-46189.1	1005.82	-29770	0.000000	0.000000	7.177577	33.5413	NaN	0.000000	0.001595	0.001628	28.0819	23.5793	0.001775	13281.9	6.821617	0.817318	33.5354	1.176082	0.023539	0.023102	33.5413	13281.9	0.021645	0.025193	1331.37	76452.9
618	2.000000	1.186984	7.3711e+06	-46189.1	1005.82	-29770	0.000000	0.000000	7.189290	63.9055	NaN	0.000000	0.001583	0.001656	28.0821	33.8906	0.001730	19594.6	9.091823	175.639	64.2743	1.186571	0.034004	0.033591	63.9055	19594.6	0.031558	0.044034	1451.28	85313
618	2.000000	1.197462	7.3711e+06	-46189.1	1005.82	-29770	0.000000	0.000000	7.201215	99.1117	NaN	0.000000	0.001509	0.001651	28.0811	43.3067	0.001806	23981.9	6.488731	-4.145967	98.7618	1.197022	0.044482	0.044042	99.1117	23981.9	0.041382	0.067649	1465.08	84241.3
618	2.000000	1.207921	7.3711e+06	-46189.1	1005.82	-29770	0.000000	0.000000	7.213611	146.214	NaN	0.000000	0.001530	0.001656	28.0816	53.0089	0.001728	30680.9	6.424474	173.625	144.444	1.207563	0.054941	0.054583	146.214	30680.9	0.051366	0.096684	1512.29	90150
618	2.000000	1.218377	7.3711e+06	-46189.1	1005.82	-29770	0.000000	0.000000	7.226037	194.137	NaN	0.000000	0.001565	0.001608	28.0812	62.7465	0.001915	32769.2	3.620704	-3.568030	190.975	1.218096	0.065397	0.065116	194.137	32769.2	0.060954	0.129251	1502.02	83276.7
618	2.000000	1.228875	7.3711e+06	-46189.1	1005.82	-29770	0.000000	0.000000	7.238980	253.6	NaN	0.000000	0.001541	0.001648	28.0824	70.9005	0.001831	38729.6	3.644408	175.063	251.719	1.228556	0.075895	0.075575	253.6	38729.6	0.070984	0.168115	1508.49	86300.5
618	2.000000	1.239374	7.3711e+06	-46189.1	1005.82	-29770	0.000000	0.000000	7.252215	320.157	NaN	0.000000	0.001542	0.001625	28.0823	81.3171	0.001796	45269.7	4.575266	-6.886981	316.488	1.238977	0.086394	0.085997	320.157	45269.7	0.081090	0.212103	1509.44	89806.5
618	2.000000	1.249907	7.3711e+06	-46189.1	1005.82	-29770	0.000000	0.000000	7.265737	392.87	NaN	0.000000	0.001607	0.001585	28.0824	91.1007	0.001739	52384	4.426472	172.337	395.58	1.249639	0.096927	0.096659	392.87	52384	0.091302	0.261380	1503.06	93613
618	2.000000	1.259755	7.3711e+06	-46189.1	1005.82	-29770	0.000000	0.000000	7.278841	472.079	NaN	0.000000	0.001549	0.001679	28.0823	100.14	0.001742	57487.5	1.571489	174.833	466.89	1.259486	0.106775	0.106506	472.079	57487.5	0.100616	0.310490	1520.43	94259