File: remote_trans/data/nanoindenter/0828-1/data/Data_2025-08-06,11h17m57s/2025-07-22_16-23-58_1_1077.txt
2025-07-22, 16:23:58, 1
Index	Phase	Displacement	Time	Pos X	Pos Y	Pos Z	Rot A	Rot B	Piezo Z	Force A	Force B	Gripper	Voltage A	Voltage B	Temperature	Amplitude force	Amplitude pos	Stiffness	Phase shift	Phase excitation	Force A raw	Displacement raw	HMax	HMax raw	Real Force	Real Stiffness	Contact Depth	Area	Hardness	Reduced Mod.
[#]	[#]	[um]	[s]	[um]	[um]	[um]	[m°]	[m°]	[um]	[uN]	[uN]	[V]	[V]	[V]	[°C]	[uN]	[um]	[N/m]	[°]	[°]	[uN]	[um]	[um]	[um]	[uN]	[N/m]	[um]	[um^2]	[MPa]	[MPa]
1077	1.000000	0.002112	7.37558e+06	-53989.1	1055.82	-29744.7	0.000000	0.000000	6.002805	-0.015934	NaN	0.000000	0.001611	0.001674	28.0832	0.057754	0.000934	61.8579	-25.7127	-164.406	0.113367	0.000829	-1.156668	-1.157951	-0.015934	61.8579	-1.156475	-2.868248E+15	5.555413E-18	NaN
1077	1.000000	0.046051	7.37558e+06	-53989.1	1055.82	-29744.6	0.000000	0.000000	6.046749	0.088436	NaN	0.000000	0.001654	0.001633	28.0839	0.100812	0.002120	47.563	148.446	-164.873	-0.001624	0.044749	-1.112728	-1.114030	0.088436	47.563	-1.114123	-7.755536E+14	-1.140298E-16	NaN
1077	1.000000	0.090048	7.37559e+06	-53989.1	1055.82	-29744.6	0.000000	0.000000	6.090742	-0.001088	NaN	0.000000	0.001697	0.001653	28.0839	0.050618	0.002079	24.3448	63.5592	-168.028	0.035981	0.088769	-1.068731	-1.070011	-0.001088	24.3448	-1.068697	-1.904101E+14	5.712069E-18	NaN
1077	1.000000	0.134078	7.37559e+06	-53989.1	1055.82	-29744.6	0.000000	0.000000	6.134772	0.007122	NaN	0.000000	0.001595	0.001683	28.0835	0.090292	0.002013	44.8466	-104.418	-165.428	0.039824	0.132770	-1.024702	-1.026010	0.007122	44.8466	-1.024821	-4.895671E+13	-1.454721E-16	NaN
1077	1.000000	0.178132	7.37559e+06	-53989.1	1055.82	-29744.6	0.000000	0.000000	6.178825	-0.017754	NaN	0.000000	0.001642	0.001653	28.0824	0.042877	0.002122	20.2097	110.856	-165.859	-0.004644	0.176778	-0.980647	-0.982002	-0.017754	20.2097	-0.979988	-1.219697E+13	1.455639E-15	NaN
1077	1.000000	0.222133	7.37559e+06	-53989.1	1055.82	-29744.6	0.000000	0.000000	6.222833	0.144613	NaN	0.000000	0.001621	0.001682	28.0824	0.124854	0.001981	63.0383	104.26	-165.999	0.146039	0.220806	-0.936646	-0.937974	0.144613	63.0383	-0.938367	-3.350461E+12	-4.316207E-14	NaN
1077	1.000000	0.266144	7.37559e+06	-53989.1	1055.82	-29744.6	0.000000	0.000000	6.266840	0.037684	NaN	0.000000	0.001666	0.001663	28.083	0.067692	0.002022	33.477	-124.662	-163.894	0.004500	0.264843	-0.892635	-0.893936	0.037684	33.477	-0.893479	-8.297488E+11	-4.541644E-14	NaN
1077	1.000000	0.310152	7.37559e+06	-53989.1	1055.82	-29744.6	0.000000	0.000000	6.310845	-0.016358	NaN	0.000000	0.001584	0.001644	28.0838	0.083619	0.002040	40.9879	10.3873	-165.556	0.024400	0.308835	-0.848628	-0.849944	-0.016358	40.9879	-0.848328	-2.032829E+11	8.046728E-14	NaN
1077	1.000000	0.354178	7.37559e+06	-53989.1	1055.82	-29744.6	0.000000	0.000000	6.354875	0.089082	NaN	0.000000	0.001569	0.001699	28.0835	0.121406	0.001957	62.0248	57.7249	-165.402	0.143075	0.352883	-0.804602	-0.805896	0.089082	62.0248	-0.805679	-5.369533E+10	-1.659019E-12	NaN
1077	1.000000	0.398219	7.37559e+06	-53989.1	1055.82	-29744.6	0.000000	0.000000	6.398913	-0.010886	NaN	0.000000	0.001533	0.001617	28.0838	0.107895	0.002021	53.378	140.056	-165.294	-0.015395	0.396909	-0.760560	-0.761870	-0.010886	53.378	-0.760407	-1.302694E+10	8.356734E-13	NaN
1077	1.000000	0.442193	7.37559e+06	-53989.1	1055.82	-29744.6	0.000000	0.000000	6.442885	-0.033622	NaN	0.000000	0.001579	0.001619	28.0825	0.107946	0.001979	54.5441	-133.328	-164.734	0.023017	0.440861	-0.716587	-0.717919	-0.033622	54.5441	-0.716124	-3.247961E+9	1.035181E-11	NaN
1077	1.000000	0.486257	7.37559e+06	-53989.1	1055.82	-29744.6	0.000000	0.000000	6.486953	0.061952	NaN	0.000000	0.001586	0.001693	28.0826	0.060451	0.002118	28.5422	-157.537	-164.527	0.070059	0.484937	-0.672522	-0.673842	0.061952	28.5422	-0.674150	-8.673345E+8	-7.142757E-11	NaN
1077	1.000000	0.530272	7.37559e+06	-53989.1	1055.82	-29744.6	0.000000	0.000000	6.530969	0.084493	NaN	0.000000	0.001530	0.001695	28.0824	0.011378	0.001969	5.778162	-58.026	-164.826	0.104855	0.528914	-0.628508	-0.629865	0.084493	5.778162	-0.639475	-2.904579E+8	-2.908954E-10	NaN
1077	1.000000	0.574253	7.37559e+06	-53989.1	1055.82	-29744.6	0.000000	0.000000	6.574946	-0.013516	NaN	0.000000	0.001581	0.001701	28.084	0.139692	0.001995	70.0319	-35.3742	-163.636	-0.038860	0.572969	-0.584527	-0.585810	-0.013516	70.0319	-0.584382	-5.072098E+7	2.664703E-10	NaN
1077	1.000000	0.618280	7.37559e+06	-53989.1	1055.82	-29744.6	0.000000	0.000000	6.618973	-0.025874	NaN	0.000000	0.001572	0.001651	28.0834	0.060337	0.001967	30.6787	-164.174	-165.314	-0.061629	0.616972	-0.540499	-0.541808	-0.025874	30.6787	-0.539867	-1.228879E+7	2.105523E-9	NaN
1077	1.000000	0.662333	7.37559e+06	-53989.1	1055.82	-29744.6	0.000000	0.000000	6.663030	0.095913	NaN	0.000000	0.001598	0.001648	28.0838	0.085834	0.002058	41.7101	-89.4448	-165.396	0.068248	0.661054	-0.496447	-0.497725	0.095913	41.7101	-0.498171	-3.23225e+06	-2.967387E-8	NaN
1077	1.000000	0.706303	7.37559e+06	-53989.1	1055.82	-29744.6	0.000000	0.000000	6.706996	-0.033711	NaN	0.000000	0.001648	0.001647	28.0824	0.030537	0.001921	15.8958	60.8966	-163	-0.035740	0.705012	-0.452476	-0.453768	-0.033711	15.8958	-0.450886	-702771	4.796872E-8	NaN
1077	1.000000	0.750360	7.37559e+06	-53989.1	1055.82	-29744.6	0.000000	0.000000	6.751054	0.007988	NaN	0.000000	0.001583	0.001648	28.0823	0.091113	0.001909	47.7344	-12.6754	-162.943	-0.052245	0.749100	-0.408419	-0.409679	0.007988	47.7344	-0.408545	-176890	-4.515565E-8	NaN
1077	1.000000	0.794337	7.37559e+06	-53989.1	1055.82	-29744.6	0.000000	0.000000	6.795032	0.009757	NaN	0.000000	0.001577	0.001628	28.0825	0.072682	0.001988	36.5531	66.492	-167.345	-0.078320	0.793085	-0.364442	-0.365695	0.009757	36.5531	-0.364642	-41580.8	-2.346623E-7	NaN
1077	1.000000	0.838373	7.37559e+06	-53989.1	1055.82	-29744.6	0.000000	0.000000	6.839067	0.001597	NaN	0.000000	0.001611	0.001586	28.084	0.138450	0.002027	68.3157	15.0557	-163.086	-0.000640	0.837054	-0.320407	-0.321725	0.001597	68.3157	-0.320424	-9438.01	-1.691900E-7	NaN
1077	1.000000	0.882399	7.37559e+06	-53989.1	1055.82	-29744.6	0.000000	0.000000	6.883094	0.034029	NaN	0.000000	0.001575	0.001592	28.0842	0.099374	0.001957	50.7915	85.2675	-163.877	-0.124509	0.881061	-0.276381	-0.277718	0.034029	50.7915	-0.276883	-2117.84	-1.606773E-5	NaN
1077	1.000000	0.926435	7.37559e+06	-53989.1	1055.82	-29744.6	0.000000	0.000000	6.927128	-0.017660	NaN	0.000000	0.001524	0.001613	28.084	0.025498	0.001948	13.0863	-170.094	-166.741	-0.035382	0.925157	-0.232344	-0.233622	-0.017660	13.0863	-0.231332	-420.278	4.201968E-5	NaN
1077	1.000000	0.970447	7.37559e+06	-53989.1	1055.82	-29744.6	0.000000	0.000000	6.971143	0.060692	NaN	0.000000	0.001562	0.001668	28.0828	0.019522	0.001939	10.0672	-143.212	-165.224	-0.043932	0.969156	-0.188333	-0.189623	0.060692	10.0672	-0.192854	-100.367	-0.000605	NaN
1077	1.000000	1.014464	7.37559e+06	-53989.1	1055.82	-29744.6	0.000000	0.000000	7.015156	-0.041179	NaN	0.000000	0.001559	0.001703	28.0829	0.083732	0.001930	43.3894	95.3946	-160.242	-0.007438	1.013154	-0.144315	-0.145626	-0.041179	43.3894	-0.143604	-13.8128	0.002981	NaN
1077	1.000000	1.058461	7.37559e+06	-53989.1	1055.82	-29744.6	0.000000	0.000000	7.059156	0.018694	NaN	0.000000	0.001612	0.001725	28.0829	0.012308	0.002097	5.870755	-112.615	-162.342	-0.023077	1.057158	-0.100319	-0.101621	0.018694	5.870755	-0.102707	-2.095784	-0.008920	NaN
1077	1.000000	1.102534	7.37559e+06	-53989.1	1055.82	-29744.6	0.000000	0.000000	7.103227	-0.018462	NaN	0.000000	0.001582	0.001694	28.0839	0.048677	0.002005	24.275	158.242	-165.288	-0.081656	1.101179	-0.056245	-0.057601	-0.018462	24.275	-0.055675	-0.134820	0.136940	NaN
1077	1.000000	1.146507	7.37559e+06	-53989.1	1055.82	-29744.6	0.000000	0.000000	7.147199	-0.050140	NaN	0.000000	0.001541	0.001718	28.084	0.024161	0.001913	12.6324	-97.6038	-166.118	-0.021624	1.145211	-0.012272	-0.013568	-0.050140	12.6324	-0.009295	-0.005983	8.380132	NaN
1077	2.000000	1.172071	7.37559e+06	-53989.1	1055.82	-29744.6	0.000000	0.000000	7.173439	16.3972	NaN	0.000000	0.001535	0.001726	28.0841	15.7169	0.001865	8428.04	8.489775	-175.664	16.3142	1.171748	0.013291	0.012968	16.3972	8428.04	0.011832	0.011290	1452.41	72470.1
1077	2.000000	1.182984	7.37559e+06	-53989.1	1055.82	-29744.6	0.000000	0.000000	7.185377	41.3096	NaN	0.000000	0.001567	0.001686	28.0826	26.2952	0.001778	14789.4	6.846392	-179.009	40.4875	1.182699	0.024205	0.023919	41.3096	14789.4	0.022110	0.025967	1590.85	83852
1077	2.000000	1.193988	7.37559e+06	-53989.1	1055.82	-29744.6	0.000000	0.000000	7.197817	76.2134	NaN	0.000000	0.001562	0.001705	28.0827	36.4758	0.001699	21471.3	5.937321	177.919	74.1946	1.193682	0.035209	0.034902	76.2134	21471.3	0.032547	0.046187	1650.09	91278.7
1077	2.000000	1.205029	7.37559e+06	-53989.1	1055.82	-29744.6	0.000000	0.000000	7.210442	114.714	NaN	0.000000	0.001518	0.001697	28.0827	48.6823	0.001855	26249.4	5.553287	176.276	115.318	1.204742	0.046250	0.045962	114.714	26249.4	0.042972	0.071935	1594.69	89417.2
1077	2.000000	1.216016	7.37559e+06	-53989.1	1055.82	-29744.6	0.000000	0.000000	7.223372	161.976	NaN	0.000000	0.001570	0.001687	28.0826	58.6571	0.001802	32549.7	9.181249	171.088	164.955	1.215641	0.057236	0.056861	161.976	32549.7	0.053504	0.103552	1564.21	92414.8
1077	2.000000	1.226874	7.37559e+06	-53989.1	1055.82	-29744.6	0.000000	0.000000	7.237019	229.793	NaN	0.000000	0.001596	0.001649	28.0839	64.9223	0.001740	37308.7	1.222071	178.287	225.345	1.226543	0.068094	0.067764	229.793	37308.7	0.063475	0.138562	1658.41	91571.5
1077	2.000000	1.238045	7.37559e+06	-53989.1	1055.82	-29744.6	0.000000	0.000000	7.250512	286.205	NaN	0.000000	0.001566	0.001703	28.0841	78.5827	0.001807	43482	6.944387	171.618	294.095	1.237677	0.079266	0.078898	286.205	43482	0.074329	0.182143	1571.32	93084.2
1077	2.000000	1.248818	7.37559e+06	-53989.1	1055.82	-29744.6	0.000000	0.000000	7.264396	361.844	NaN	0.000000	0.001565	0.001691	28.084	87.2489	0.001783	48940.8	1.596098	175.415	356.278	1.248661	0.090039	0.089881	361.844	48940.8	0.084494	0.227993	1587.09	93644.8
1077	2.000000	1.259897	7.37559e+06	-53989.1	1055.82	-29744.6	0.000000	0.000000	7.278961	446.608	NaN	0.000000	0.001564	0.001715	28.0831	98.3121	0.001888	52064.4	5.783601	171.048	445.14	1.259653	0.101118	0.100874	446.608	52064.4	0.094684	0.278755	1602.15	90095.3
1077	2.000000	1.264509	7.37559e+06	-53989.1	1055.82	-29744.6	0.000000	0.000000	7.284556	470.499	NaN	0.000000	0.001578	0.001662	28.0828	102.642	0.001793	57237.3	6.606386	-9.467381	474.254	1.263920	0.105730	0.105141	470.499	57237.3	0.099565	0.304749	1543.89	94728.6