File: remote_trans/data/nanoindenter/0828-1/data/Data_2025-08-06,11h17m57s/2025-07-22_16-23-58_1_1075.txt
2025-07-22, 16:23:58, 1
Index	Phase	Displacement	Time	Pos X	Pos Y	Pos Z	Rot A	Rot B	Piezo Z	Force A	Force B	Gripper	Voltage A	Voltage B	Temperature	Amplitude force	Amplitude pos	Stiffness	Phase shift	Phase excitation	Force A raw	Displacement raw	HMax	HMax raw	Real Force	Real Stiffness	Contact Depth	Area	Hardness	Reduced Mod.
[#]	[#]	[um]	[s]	[um]	[um]	[um]	[m°]	[m°]	[um]	[uN]	[uN]	[V]	[V]	[V]	[°C]	[uN]	[um]	[N/m]	[°]	[°]	[uN]	[um]	[um]	[um]	[uN]	[N/m]	[um]	[um^2]	[MPa]	[MPa]
1075	1.000000	0.002543	7.37556e+06	-53889.1	1055.82	-29744.8	0.000000	0.000000	6.002836	0.026023	NaN	0.000000	0.001609	0.001737	28.0844	0.004027	0.001010	3.986245	-11.6287	-162.474	0.003322	0.001225	-1.235370	-1.236688	0.026023	3.986245	-1.240266	-3.799346E+16	-6.849234E-19	NaN
1075	1.000000	0.048459	7.37557e+06	-53889.1	1055.82	-29744.8	0.000000	0.000000	6.048751	-0.011903	NaN	0.000000	0.001566	0.001684	28.0829	0.039006	0.002011	19.3978	-92.8951	14.4502	0.039063	0.047056	-1.189454	-1.190857	-0.011903	19.3978	-1.188994	-7.822568E+15	1.521632E-18	NaN
1075	1.000000	0.094476	7.37557e+06	-53889.1	1055.82	-29744.8	0.000000	0.000000	6.094767	-0.048376	NaN	0.000000	0.001547	0.001726	28.0828	0.059829	0.001905	31.4112	91.0565	-166.7	-0.017453	0.093141	-1.143437	-1.144772	-0.048376	31.4112	-1.142282	-1.850691E+15	2.613953E-17	NaN
1075	1.000000	0.140486	7.37557e+06	-53889.1	1055.82	-29744.8	0.000000	0.000000	6.140777	-0.032491	NaN	0.000000	0.001479	0.001715	28.0828	0.061549	0.002057	29.9284	-179.802	15.8821	-0.002111	0.139160	-1.097427	-1.098753	-0.032491	29.9284	-1.096612	-4.514314E+14	7.197317E-17	NaN
1075	1.000000	0.186521	7.37557e+06	-53889.1	1055.82	-29744.8	0.000000	0.000000	6.186809	-0.088948	NaN	0.000000	0.001567	0.001719	28.0843	0.064782	0.001923	33.6964	157.893	-166.09	-0.075914	0.185196	-1.051392	-1.052717	-0.088948	33.6964	-1.049413	-1.048381E+14	8.484353E-16	NaN
1075	1.000000	0.232507	7.37557e+06	-53889.1	1055.82	-29744.8	0.000000	0.000000	6.232799	-0.008158	NaN	0.000000	0.001590	0.001706	28.0847	0.060992	0.001976	30.8727	20.2326	15.6194	-0.041244	0.231203	-1.005406	-1.006710	-0.008158	30.8727	-1.005208	-2.666104E+13	3.059918E-16	NaN
1075	1.000000	0.278547	7.37557e+06	-53889.1	1055.82	-29744.8	0.000000	0.000000	6.278838	-0.039308	NaN	0.000000	0.001573	0.001725	28.0849	0.072069	0.002028	35.5441	113.02	-169.428	-0.039325	0.277247	-0.959366	-0.960666	-0.039308	35.5441	-0.958536	-6.268061E+12	6.271124E-15	NaN
1075	1.000000	0.324556	7.37557e+06	-53889.1	1055.82	-29744.8	0.000000	0.000000	6.324847	-0.030348	NaN	0.000000	0.001582	0.001703	28.0834	0.049511	0.001890	26.2	127.565	14.4708	0.014754	0.323176	-0.913357	-0.914737	-0.030348	26.2	-0.912488	-1.498892E+12	2.024720E-14	NaN
1075	1.000000	0.370566	7.37557e+06	-53889.1	1055.82	-29744.8	0.000000	0.000000	6.370858	-0.018673	NaN	0.000000	0.001564	0.001662	28.0833	0.034675	0.002020	17.1631	-179.576	-164.655	-0.026049	0.369234	-0.867347	-0.868679	-0.018673	17.1631	-0.866531	-3.585144E+11	5.208444E-14	NaN
1075	1.000000	0.416644	7.37557e+06	-53889.1	1055.82	-29744.8	0.000000	0.000000	6.416936	-0.019008	NaN	0.000000	0.001542	0.001700	28.0844	0.008086	0.002127	3.801790	-126.089	11.5079	-0.003640	0.415230	-0.821269	-0.822683	-0.019008	3.801790	-0.817519	-7.772631E+10	2.445491E-13	NaN
1075	1.000000	0.462634	7.37557e+06	-53889.1	1055.82	-29744.8	0.000000	0.000000	6.462931	0.112345	NaN	0.000000	0.001571	0.001698	28.0848	0.042256	0.001943	21.7515	-178.703	-164.895	0.088385	0.461303	-0.775279	-0.776610	0.112345	21.7515	-0.779153	-2.342698E+10	-4.795545E-12	NaN
1075	1.000000	0.508656	7.37557e+06	-53889.1	1055.82	-29744.8	0.000000	0.000000	6.508948	-0.006519	NaN	0.000000	0.001539	0.001689	28.0846	0.061004	0.001929	31.6231	-145.172	14.4945	-0.036912	0.507285	-0.729257	-0.730628	-0.006519	31.6231	-0.729102	-4.881735E+9	1.335470E-12	NaN
1075	1.000000	0.554684	7.37557e+06	-53889.1	1055.82	-29744.8	0.000000	0.000000	6.554976	0.010664	NaN	0.000000	0.001517	0.001680	28.0838	0.032322	0.001861	17.3688	25.0017	-165.669	0.037934	0.553392	-0.683229	-0.684521	0.010664	17.3688	-0.683690	-1.171284E+9	-9.104186E-12	NaN
1075	1.000000	0.600690	7.37557e+06	-53889.1	1055.82	-29744.8	0.000000	0.000000	6.600983	0.006383	NaN	0.000000	0.001574	0.001641	28.0838	0.044557	0.001985	22.4483	-174.398	15.9062	0.020183	0.599314	-0.637223	-0.638599	0.006383	22.4483	-0.637436	-2.723394E+8	-2.343778E-11	NaN
1075	1.000000	0.646700	7.37557e+06	-53889.1	1055.82	-29744.8	0.000000	0.000000	6.646993	0.014416	NaN	0.000000	0.001534	0.001623	28.0837	0.030059	0.002017	14.904	39.448	-164.206	-0.038193	0.645380	-0.591213	-0.592533	0.014416	14.904	-0.591938	-6.447438E+7	-2.235991E-10	NaN
1075	1.000000	0.692711	7.37557e+06	-53889.1	1055.82	-29744.8	0.000000	0.000000	6.693007	0.086938	NaN	0.000000	0.001553	0.001634	28.0845	0.022874	0.002071	11.0446	79.506	12.9727	-0.005561	0.691375	-0.545202	-0.546538	0.086938	11.0446	-0.551105	-1.758996E+7	-4.942457E-9	NaN
1075	1.000000	0.738749	7.37557e+06	-53889.1	1055.82	-29744.8	0.000000	0.000000	6.739039	-0.073021	NaN	0.000000	0.001528	0.001654	28.0846	0.136182	0.001947	69.9501	-112.301	-166.439	-0.035335	0.737424	-0.499164	-0.500489	-0.073021	69.9501	-0.498381	-3.25405e+06	2.244006E-8	NaN
1075	1.000000	0.784798	7.37557e+06	-53889.1	1055.82	-29744.8	0.000000	0.000000	6.785088	-0.053555	NaN	0.000000	0.001532	0.001661	28.0848	0.051964	0.001927	26.9646	9.439201	11.7016	0.010742	0.783386	-0.453115	-0.454527	-0.053555	26.9646	-0.451626	-719830	7.440003E-8	NaN
1075	1.000000	0.830768	7.37557e+06	-53889.1	1055.82	-29744.8	0.000000	0.000000	6.831061	0.027706	NaN	0.000000	0.001564	0.001650	28.0835	0.065135	0.002042	31.8982	172.352	-166.985	0.009296	0.829441	-0.407145	-0.408472	0.027706	31.8982	-0.407797	-172607	-1.605164E-7	NaN
1075	1.000000	0.876810	7.37557e+06	-53889.1	1055.82	-29744.8	0.000000	0.000000	6.877102	-0.004417	NaN	0.000000	0.001537	0.001651	28.0832	0.094031	0.001992	47.2	-139.056	16.6932	-0.053801	0.875424	-0.361103	-0.362489	-0.004417	47.2	-0.361033	-36878.2	1.197616E-7	NaN
1075	1.000000	0.922823	7.37557e+06	-53889.1	1055.82	-29744.8	0.000000	0.000000	6.923119	0.086757	NaN	0.000000	0.001505	0.001650	28.0832	0.070071	0.002029	34.5299	172.86	-163.19	0.052472	0.921572	-0.315090	-0.316341	0.086757	34.5299	-0.316974	-8395.84	-1.033328E-5	NaN
1075	1.000000	0.968826	7.37557e+06	-53889.1	1055.82	-29744.8	0.000000	0.000000	6.969117	-0.035015	NaN	0.000000	0.001550	0.001661	28.084	0.036032	0.002022	17.8223	-79.6407	15.4074	0.023448	0.967491	-0.269087	-0.270422	-0.035015	17.8223	-0.267614	-1531.92	2.285702E-5	NaN
1075	1.000000	1.014868	7.37557e+06	-53889.1	1055.82	-29744.8	0.000000	0.000000	7.015160	-0.008140	NaN	0.000000	0.001527	0.001676	28.0843	0.032341	0.001991	16.2451	130.452	-168.443	-0.021401	1.013517	-0.223045	-0.224396	-0.008140	16.2451	-0.222669	-306.384	2.656849E-5	NaN
1075	1.000000	1.060879	7.37557e+06	-53889.1	1055.82	-29744.8	0.000000	0.000000	7.061171	-0.002745	NaN	0.000000	0.001535	0.001664	28.0843	0.043339	0.002119	20.4568	-84.1198	14.4726	-0.004096	1.059533	-0.177034	-0.178380	-0.002745	20.4568	-0.176934	-54.0932	5.073930E-5	NaN
1075	1.000000	1.106892	7.37557e+06	-53889.1	1055.82	-29744.8	0.000000	0.000000	7.107183	-0.029623	NaN	0.000000	0.001550	0.001680	28.0828	0.017643	0.002093	8.429692	-44.6377	-165.375	0.012015	1.105546	-0.131021	-0.132367	-0.029623	8.429692	-0.128386	-7.088606	0.004179	NaN
1075	1.000000	1.152918	7.37557e+06	-53889.1	1055.82	-29744.8	0.000000	0.000000	7.153211	0.006596	NaN	0.000000	0.001504	0.001689	28.0831	0.083563	0.002006	41.655	-90.7143	8.695819	-0.092883	1.151462	-0.084995	-0.086451	0.006596	41.655	-0.085113	-0.826844	-0.007977	NaN
1075	1.000000	1.198942	7.37557e+06	-53889.1	1055.82	-29744.8	0.000000	0.000000	7.199233	-0.036186	NaN	0.000000	0.001545	0.001649	28.0836	0.048659	0.001949	24.9666	52.9777	-167.776	-0.064567	1.197640	-0.038971	-0.040273	-0.036186	24.9666	-0.037884	-0.039028	0.927162	NaN
1075	2.000000	1.241931	7.37557e+06	-53889.1	1055.82	-29744.8	0.000000	0.000000	7.242559	8.150607	NaN	0.000000	0.001581	0.001663	28.0849	8.981162	0.001631	5507.27	0.321288	13.0893	7.540799	1.241705	0.004018	0.003792	8.150607	5507.27	0.002908	0.002303	3539.08	104848
1075	2.000000	1.253327	7.37557e+06	-53889.1	1055.82	-29744.8	0.000000	0.000000	7.254836	29.5714	NaN	0.000000	0.001618	0.001647	28.0848	22.1983	0.001839	12069	5.338593	-176.263	28.6713	1.253026	0.015414	0.015113	29.5714	12069	0.013577	0.013434	2201.23	95135.1
1075	2.000000	1.264808	7.37557e+06	-53889.1	1055.82	-29744.8	0.000000	0.000000	7.267567	59.9622	NaN	0.000000	0.001627	0.001656	28.0849	34.1143	0.001883	18121.5	5.915957	-1.648981	56.5868	1.264507	0.026895	0.026594	59.9622	18121.5	0.024413	0.029957	2001.61	95657.4
1075	2.000000	1.276244	7.37557e+06	-53889.1	1055.82	-29744.8	0.000000	0.000000	7.280584	98.3951	NaN	0.000000	0.001599	0.001679	28.0843	44.8418	0.001747	25674	1.105424	-179.592	94.1999	1.275981	0.038331	0.038069	98.3951	25674	0.035457	0.052816	1862.99	102067
1075	2.000000	1.287776	7.37557e+06	-53889.1	1055.82	-29744.8	0.000000	0.000000	7.294508	156.565	NaN	0.000000	0.001556	0.001644	28.0833	59.4934	0.001793	33190.1	6.766905	-7.275843	153.957	1.287474	0.049863	0.049561	156.565	33190.1	0.046325	0.081394	1923.55	106289
1075	2.000000	1.299180	7.37557e+06	-53889.1	1055.82	-29744.8	0.000000	0.000000	7.308625	222.528	NaN	0.000000	0.001613	0.001652	28.0833	69.4712	0.001774	39153.9	4.817829	173.931	217.49	1.298887	0.061267	0.060974	222.528	39153.9	0.057004	0.115285	1930.24	105357
1075	2.000000	1.310860	7.37557e+06	-53889.1	1055.82	-29744.8	0.000000	0.000000	7.323154	291.783	NaN	0.000000	0.001591	0.001681	28.0851	82.141	0.001773	46319.3	5.099773	-7.162860	294.246	1.310348	0.072947	0.072435	291.783	46319.3	0.068223	0.156933	1859.28	106826
1075	2.000000	1.322265	7.37557e+06	-53889.1	1055.82	-29744.8	0.000000	0.000000	7.338273	382.089	NaN	0.000000	0.001633	0.001631	28.0848	91.7974	0.001699	54029.8	6.499904	169.611	381.092	1.321786	0.084352	0.083873	382.089	54029.8	0.079048	0.202828	1883.81	109608
1075	2.000000	1.333750	7.37557e+06	-53889.1	1055.82	-29744.8	0.000000	0.000000	7.353509	473.272	NaN	0.000000	0.001523	0.001681	28.0845	103.816	0.001893	54837.6	3.535282	-7.111659	469.957	1.333488	0.095837	0.095575	473.272	54837.6	0.089364	0.251659	1880.6	99872.4
1075	2.000000	1.339241	7.37557e+06	-53889.1	1055.82	-29744.8	0.000000	0.000000	7.361358	530.582	NaN	0.000000	0.001528	0.001662	28.0847	108.976	0.001812	60132.9	5.325574	170.206	531.734	1.338964	0.101328	0.101051	530.582	60132.9	0.094711	0.278893	1902.46	104032