File: remote_trans/data/nanoindenter/0828-1/data/Data_2025-08-06,11h17m57s/2025-07-22_16-23-58_1_554.txt
2025-07-22, 16:23:58, 1
Index	Phase	Displacement	Time	Pos X	Pos Y	Pos Z	Rot A	Rot B	Piezo Z	Force A	Force B	Gripper	Voltage A	Voltage B	Temperature	Amplitude force	Amplitude pos	Stiffness	Phase shift	Phase excitation	Force A raw	Displacement raw	HMax	HMax raw	Real Force	Real Stiffness	Contact Depth	Area	Hardness	Reduced Mod.
[#]	[#]	[um]	[s]	[um]	[um]	[um]	[m°]	[m°]	[um]	[uN]	[uN]	[V]	[V]	[V]	[°C]	[uN]	[um]	[N/m]	[°]	[°]	[uN]	[um]	[um]	[um]	[uN]	[N/m]	[um]	[um^2]	[MPa]	[MPa]
554	1.000000	0.002634	7.37047e+06	-49389.1	1005.82	-29759.2	0.000000	0.000000	6.002812	-0.074984	NaN	0.000000	0.001642	0.001780	28.0812	0.024016	0.001008	23.8201	26.0661	-166.009	-0.013082	0.001337	-1.084963	-1.086260	-0.074984	23.8201	-1.082602	-2.927296E+14	2.561541E-16	NaN
554	1.000000	0.042562	7.37047e+06	-49389.1	1005.82	-29759.2	0.000000	0.000000	6.042746	0.082184	NaN	0.000000	0.001641	0.001751	28.0808	0.072757	0.002067	35.208	17.4891	-167.795	0.092738	0.041265	-1.045035	-1.046332	0.082184	35.208	-1.046786	-9.665025E+13	-8.503277E-16	NaN
554	1.000000	0.082561	7.37047e+06	-49389.1	1005.82	-29759.2	0.000000	0.000000	6.082743	0.046469	NaN	0.000000	0.001609	0.001772	28.0808	0.031116	0.002071	15.0264	102.853	-167.755	-0.004931	0.081306	-1.005036	-1.006291	0.046469	15.0264	-1.007356	-2.849645E+13	-1.630691E-15	NaN
554	1.000000	0.122600	7.37047e+06	-49389.1	1005.82	-29759.2	0.000000	0.000000	6.122782	0.019318	NaN	0.000000	0.001618	0.001731	28.0797	0.023062	0.001956	11.7932	102.107	-166.189	0.036453	0.121277	-0.964997	-0.966320	0.019318	11.7932	-0.966225	-7.957652E+12	-2.427564E-15	NaN
554	1.000000	0.162638	7.37047e+06	-49389.1	1005.82	-29759.2	0.000000	0.000000	6.162817	-0.047877	NaN	0.000000	0.001638	0.001767	28.0797	0.061553	0.002049	30.0364	-11.1568	-163.853	0.024759	0.161297	-0.924959	-0.926300	-0.047877	30.0364	-0.923763	-2.128200E+12	2.249654E-14	NaN
554	1.000000	0.202640	7.37047e+06	-49389.1	1005.82	-29759.2	0.000000	0.000000	6.202820	-0.017405	NaN	0.000000	0.001611	0.001759	28.0797	0.043167	0.002044	21.1165	-75.2058	-170.706	0.032844	0.201356	-0.884957	-0.886241	-0.017405	21.1165	-0.884339	-6.242861E+11	2.787919E-14	NaN
554	1.000000	0.242682	7.37047e+06	-49389.1	1005.82	-29759.2	0.000000	0.000000	6.242862	-0.001656	NaN	0.000000	0.001632	0.001735	28.081	0.040001	0.002041	19.6008	-76.1861	-164.247	0.012011	0.241361	-0.844915	-0.846236	-0.001656	19.6008	-0.844852	-1.823978E+11	9.078244E-15	NaN
554	1.000000	0.282672	7.37047e+06	-49389.1	1005.82	-29759.2	0.000000	0.000000	6.282852	-0.003170	NaN	0.000000	0.001629	0.001740	28.0812	0.122659	0.002060	59.5394	-113.142	-169.276	-0.002978	0.281354	-0.804925	-0.806243	-0.003170	59.5394	-0.804885	-5.238072E+10	6.052098E-14	NaN
554	1.000000	0.322703	7.37047e+06	-49389.1	1005.82	-29759.2	0.000000	0.000000	6.322885	0.023701	NaN	0.000000	0.001593	0.001794	28.0814	0.085811	0.001978	43.3793	-77.7512	-166.816	0.005937	0.321400	-0.764894	-0.766197	0.023701	43.3793	-0.765304	-1.518593E+10	-1.560736E-12	NaN
554	1.000000	0.362685	7.37047e+06	-49389.1	1005.82	-29759.2	0.000000	0.000000	6.362865	-0.013966	NaN	0.000000	0.001604	0.001723	28.0812	0.013675	0.002061	6.634101	101.151	-167.343	-0.026784	0.361407	-0.724912	-0.726190	-0.013966	6.634101	-0.723333	-4.073131E+9	3.428778E-12	NaN
554	1.000000	0.402693	7.37047e+06	-49389.1	1005.82	-29759.2	0.000000	0.000000	6.402873	-0.035119	NaN	0.000000	0.001571	0.001788	28.0802	0.047113	0.002030	23.2113	-97.9323	-168.409	-0.016855	0.401427	-0.684904	-0.686170	-0.035119	23.2113	-0.683769	-1.174203E+9	2.990919E-11	NaN
554	1.000000	0.442716	7.37047e+06	-49389.1	1005.82	-29759.2	0.000000	0.000000	6.442900	0.055119	NaN	0.000000	0.001567	0.001745	28.0797	0.061972	0.002081	29.7745	-42.0383	-164.452	-0.013621	0.441443	-0.644880	-0.646153	0.055119	29.7745	-0.646269	-3.599807E+8	-1.531155E-10	NaN
554	1.000000	0.482739	7.37047e+06	-49389.1	1005.82	-29759.2	0.000000	0.000000	6.482922	0.054199	NaN	0.000000	0.001623	0.001735	28.0798	0.035189	0.001962	17.9385	27.2883	-166.199	0.063334	0.481413	-0.604858	-0.606184	0.054199	17.9385	-0.607124	-1.043612E+8	-5.193391E-10	NaN
554	1.000000	0.522781	7.37047e+06	-49389.1	1005.82	-29759.2	0.000000	0.000000	6.522960	-0.025501	NaN	0.000000	0.001609	0.001707	28.081	0.019005	0.002076	9.152590	11.1607	-163.357	0.075763	0.521479	-0.564816	-0.566118	-0.025501	9.152590	-0.562727	-2.547361E+7	1.001092E-9	NaN
554	1.000000	0.562800	7.37047e+06	-49389.1	1005.82	-29759.2	0.000000	0.000000	6.562978	-0.065685	NaN	0.000000	0.001553	0.001724	28.0811	0.169412	0.002002	84.6134	118.662	-166.974	-0.071496	0.561412	-0.524797	-0.526185	-0.065685	84.6134	-0.524215	-7.45073e+06	8.815899E-9	NaN
554	1.000000	0.602823	7.37047e+06	-49389.1	1005.82	-29759.2	0.000000	0.000000	6.603003	-0.039492	NaN	0.000000	0.001583	0.001744	28.0813	0.041568	0.002056	20.2218	132.253	-167.579	-0.047546	0.601432	-0.484773	-0.486165	-0.039492	20.2218	-0.483309	-2.0037e+06	1.970966E-8	NaN
554	1.000000	0.642810	7.37047e+06	-49389.1	1005.82	-29759.2	0.000000	0.000000	6.642991	-0.005608	NaN	0.000000	0.001601	0.001704	28.0814	0.077241	0.002155	35.8473	-21.549	-166.085	0.020965	0.641487	-0.444786	-0.446110	-0.005608	35.8473	-0.444669	-574418	9.762574E-9	NaN
554	1.000000	0.682813	7.37047e+06	-49389.1	1005.82	-29759.2	0.000000	0.000000	6.682992	-0.046576	NaN	0.000000	0.001679	0.001697	28.0799	0.014773	0.002084	7.089436	149.856	-167.301	0.032104	0.681520	-0.404784	-0.406077	-0.046576	7.089436	-0.399857	-133031	3.501155E-7	NaN
554	1.000000	0.722854	7.37047e+06	-49389.1	1005.82	-29759.2	0.000000	0.000000	6.723034	-0.011621	NaN	0.000000	0.001661	0.001749	28.0802	0.043153	0.001927	22.3961	-66.0605	-163.646	-0.031773	0.721556	-0.364743	-0.366041	-0.011621	22.3961	-0.364354	-41184.1	2.821682E-7	NaN
554	1.000000	0.762853	7.37047e+06	-49389.1	1005.82	-29759.2	0.000000	0.000000	6.763035	0.016635	NaN	0.000000	0.001654	0.001720	28.0803	0.023627	0.002024	11.6725	-163.738	-165.231	-0.050706	0.761564	-0.324744	-0.326033	0.016635	11.6725	-0.325813	-11325.7	-1.468806E-6	NaN
554	1.000000	0.802900	7.37047e+06	-49389.1	1005.82	-29759.2	0.000000	0.000000	6.803079	-0.049120	NaN	0.000000	0.001653	0.001721	28.0813	0.047201	0.002060	22.9143	26.1774	-167.211	-0.076307	0.801557	-0.284697	-0.286040	-0.049120	22.9143	-0.283090	-2627.41	1.869533E-5	NaN
554	1.000000	0.842886	7.37047e+06	-49389.1	1005.82	-29759.2	0.000000	0.000000	6.843069	0.040175	NaN	0.000000	0.001603	0.001748	28.0812	0.058821	0.002070	28.4201	119.134	-166.024	-0.021861	0.841591	-0.244711	-0.246005	0.040175	28.4201	-0.245771	-707.014	-5.682356E-5	NaN
554	1.000000	0.882914	7.37047e+06	-49389.1	1005.82	-29759.2	0.000000	0.000000	6.883095	0.012695	NaN	0.000000	0.001650	0.001687	28.0811	0.034215	0.001911	17.8995	-0.405185	-166.679	-0.006831	0.881632	-0.204683	-0.205965	0.012695	17.8995	-0.205215	-160.349	-7.916969E-5	NaN
554	1.000000	0.922932	7.37047e+06	-49389.1	1005.82	-29759.2	0.000000	0.000000	6.923113	0.001223	NaN	0.000000	0.001687	0.001736	28.0801	0.022786	0.002047	11.1318	-115.582	-166.242	-0.062426	0.921621	-0.164665	-0.165976	0.001223	11.1318	-0.164748	-33.2562	-3.676268E-5	NaN
554	1.000000	0.962966	7.37047e+06	-49389.1	1005.82	-29759.2	0.000000	0.000000	6.963150	0.058986	NaN	0.000000	0.001713	0.001692	28.0801	0.072574	0.001913	37.9378	-89.2396	-168.389	-0.015675	0.961658	-0.124630	-0.125939	0.058986	37.9378	-0.125797	-6.305684	-0.009354	NaN
554	1.000000	1.002931	7.37047e+06	-49389.1	1005.82	-29759.2	0.000000	0.000000	7.003113	0.018675	NaN	0.000000	0.001646	0.001681	28.0798	0.028985	0.002076	13.9594	-77.647	-162.795	-0.040266	1.001626	-0.084666	-0.085971	0.018675	13.9594	-0.085669	-0.852796	-0.021899	NaN
554	1.000000	1.042979	7.37047e+06	-49389.1	1005.82	-29759.2	0.000000	0.000000	7.043158	-0.056926	NaN	0.000000	0.001631	0.001694	28.0798	0.061160	0.002019	30.285	-105.085	-167.435	0.037932	1.041698	-0.044618	-0.045899	-0.056926	30.285	-0.043208	-0.056648	1.004915	NaN
554	1.000000	1.082995	7.37047e+06	-49389.1	1005.82	-29759.2	0.000000	0.000000	7.083186	0.240861	NaN	0.000000	0.001635	0.001643	28.081	0.420903	0.001862	226.029	20.1889	-172.335	0.026749	1.081631	-0.004602	-0.005966	0.240861	226.029	-0.005401	-0.003667	-65.6769	NaN
554	2.000000	1.099618	7.37047e+06	-49389.1	1005.82	-29759.2	0.000000	0.000000	7.100714	22.2627	NaN	0.000000	0.001598	0.001684	28.0811	17.0017	0.001737	9786.73	6.910214	-176.032	23.4544	1.099250	0.012021	0.011653	22.2627	9786.73	0.010315	0.009533	2335.22	91576.9
554	2.000000	1.109581	7.37047e+06	-49389.1	1005.82	-29759.2	0.000000	0.000000	7.111579	44.1819	NaN	0.000000	0.001627	0.001659	28.0811	26.1453	0.001739	15038.6	4.865808	-179.421	44.9403	1.109194	0.021984	0.021597	44.1819	15038.6	0.019781	0.022199	1990.28	92218.3
554	2.000000	1.119472	7.37047e+06	-49389.1	1005.82	-29759.2	0.000000	0.000000	7.122604	71.7801	NaN	0.000000	0.001634	0.001692	28.0799	35.742	0.001837	19454.6	5.237806	178.226	69.6289	1.119259	0.031875	0.031662	71.7801	19454.6	0.029108	0.038914	1844.57	90103.1
554	2.000000	1.129466	7.37047e+06	-49389.1	1005.82	-29759.2	0.000000	0.000000	7.134416	115.983	NaN	0.000000	0.001639	0.001662	28.0798	45.0231	0.001726	26082.7	5.256014	175.001	113.72	1.129139	0.041869	0.041542	115.983	26082.7	0.038534	0.060294	1923.61	97048.2
554	2.000000	1.139480	7.37047e+06	-49389.1	1005.82	-29759.2	0.000000	0.000000	7.145974	153.55	NaN	0.000000	0.001597	0.001620	28.0802	54.9557	0.001714	32058.4	7.072319	170.717	151.109	1.139194	0.051883	0.051598	153.55	32058.4	0.048290	0.087202	1760.85	99186.3
554	2.000000	1.149469	7.37047e+06	-49389.1	1005.82	-29759.2	0.000000	0.000000	7.158184	207.554	NaN	0.000000	0.001598	0.001686	28.0801	61.9678	0.001645	37674.4	1.377987	175.837	206.763	1.149212	0.061872	0.061615	207.554	37674.4	0.057740	0.117830	1761.48	100275
554	2.000000	1.159411	7.37047e+06	-49389.1	1005.82	-29759.2	0.000000	0.000000	7.170609	267.928	NaN	0.000000	0.001621	0.001682	28.0809	72.0494	0.001769	40720.4	3.721403	173.406	264.821	1.159189	0.071814	0.071592	267.928	40720.4	0.066879	0.151626	1767.04	95543
554	2.000000	1.169498	7.37047e+06	-49389.1	1005.82	-29759.2	0.000000	0.000000	7.183456	335.058	NaN	0.000000	0.001568	0.001682	28.0809	81.5009	0.001824	44672.7	7.061718	169.429	334.751	1.169184	0.081901	0.081587	335.058	44672.7	0.076276	0.190552	1758.36	93499.5
554	2.000000	1.179521	7.37047e+06	-49389.1	1005.82	-29759.2	0.000000	0.000000	7.196442	407.129	NaN	0.000000	0.001586	0.001715	28.0812	91.4121	0.001696	53893.9	4.261731	170.951	412.845	1.179165	0.091924	0.091568	407.129	53893.9	0.086258	0.236442	1721.9	101263
554	2.000000	1.189444	7.37047e+06	-49389.1	1005.82	-29759.2	0.000000	0.000000	7.209485	483.002	NaN	0.000000	0.001581	0.001689	28.0797	102.704	0.001830	56137.8	5.357647	168.868	481.228	1.189250	0.101847	0.101653	483.002	56137.8	0.095394	0.282467	1709.94	96503.9
554	2.000000	1.190410	7.37047e+06	-49389.1	1005.82	-29759.2	0.000000	0.000000	7.211160	500.259	NaN	0.000000	0.001583	0.001688	28.0798	102.867	0.001825	56368.3	3.526571	170.936	500.189	1.190023	0.102813	0.102426	500.259	56368.3	0.096156	0.286482	1746.22	96218.7