File: remote_trans/data/nanoindenter/0828-1/data/Data_2025-08-06,11h17m57s/2025-07-22_16-23-58_1_337.txt
2025-07-22, 16:23:58, 1
Index	Phase	Displacement	Time	Pos X	Pos Y	Pos Z	Rot A	Rot B	Piezo Z	Force A	Force B	Gripper	Voltage A	Voltage B	Temperature	Amplitude force	Amplitude pos	Stiffness	Phase shift	Phase excitation	Force A raw	Displacement raw	HMax	HMax raw	Real Force	Real Stiffness	Contact Depth	Area	Hardness	Reduced Mod.
[#]	[#]	[um]	[s]	[um]	[um]	[um]	[m°]	[m°]	[um]	[uN]	[uN]	[V]	[V]	[V]	[°C]	[uN]	[um]	[N/m]	[°]	[°]	[uN]	[um]	[um]	[um]	[uN]	[N/m]	[um]	[um^2]	[MPa]	[MPa]
337	1.000000	0.002445	7.36836e+06	-55489.1	955.817	-29741.8	0.000000	0.000000	6.002805	0.015458	NaN	0.000000	0.001514	0.001734	28.0782	0.044606	0.000907	49.1715	-174.474	-171.846	-0.019246	0.001192	-1.013341	-1.014593	0.015458	49.1715	-1.013576	-3.455527E+13	-4.473405E-16	NaN
337	1.000000	0.042386	7.36836e+06	-55489.1	955.819	-29741.8	0.000000	0.000000	6.042743	-0.050566	NaN	0.000000	0.001530	0.001713	28.0795	0.038928	0.001973	19.7342	42.0354	-162.813	-0.071925	0.041016	-0.973399	-0.974770	-0.050566	19.7342	-0.971478	-9.366515E+12	5.398617E-15	NaN
337	1.000000	0.082384	7.36836e+06	-55489.1	955.818	-29741.8	0.000000	0.000000	6.082744	0.003180	NaN	0.000000	0.001516	0.001723	28.0794	0.015008	0.001967	7.629256	-55.4549	-164.976	-0.011264	0.081066	-0.933401	-0.934720	0.003180	7.629256	-0.933714	-2.899472E+12	-1.096806E-15	NaN
337	1.000000	0.122420	7.36836e+06	-55489.1	955.818	-29741.8	0.000000	0.000000	6.122779	-0.024758	NaN	0.000000	0.001530	0.001700	28.0794	0.026365	0.001925	13.6984	122.512	-166.071	0.012759	0.121182	-0.893365	-0.894604	-0.024758	13.6984	-0.892010	-7.926474E+11	3.123398E-14	NaN
337	1.000000	0.162432	7.36836e+06	-55489.1	955.818	-29741.8	0.000000	0.000000	6.162789	-0.066292	NaN	0.000000	0.001521	0.001759	28.0783	0.113793	0.002063	55.1662	30.5317	-167.593	-0.043694	0.161141	-0.853353	-0.854645	-0.066292	55.1662	-0.852452	-2.311750E+11	2.867606E-13	NaN
337	1.000000	0.202456	7.36836e+06	-55489.1	955.818	-29741.8	0.000000	0.000000	6.202812	-0.070553	NaN	0.000000	0.001510	0.001736	28.0782	0.041340	0.001986	20.8144	-77.4509	-166.087	-0.062593	0.201097	-0.813330	-0.814689	-0.070553	20.8144	-0.810788	-6.298802E+10	1.120095E-12	NaN
337	1.000000	0.242459	7.36836e+06	-55489.1	955.818	-29741.8	0.000000	0.000000	6.242819	0.032870	NaN	0.000000	0.001516	0.001744	28.078	0.028026	0.002133	13.1364	4.675632	-161.958	0.029561	0.241167	-0.773327	-0.774619	0.032870	13.1364	-0.775204	-2.070363E+10	-1.587639E-12	NaN
337	1.000000	0.282502	7.36836e+06	-55489.1	955.819	-29741.8	0.000000	0.000000	6.282860	-0.038845	NaN	0.000000	0.001515	0.001720	28.0791	0.009592	0.001970	4.867689	85.3805	-163.552	-0.055658	0.281148	-0.733283	-0.734637	-0.038845	4.867689	-0.727298	-4.612947E+9	8.420919E-12	NaN
337	1.000000	0.322487	7.36836e+06	-55489.1	955.819	-29741.8	0.000000	0.000000	6.322848	0.025374	NaN	0.000000	0.001496	0.001721	28.0793	0.035910	0.002127	16.8835	-19.2665	-164.185	0.078016	0.321229	-0.693298	-0.694557	0.025374	16.8835	-0.694425	-1.642049E+9	-1.545255E-11	NaN
337	1.000000	0.362533	7.36836e+06	-55489.1	955.819	-29741.8	0.000000	0.000000	6.362892	-0.022147	NaN	0.000000	0.001553	0.001670	28.0793	0.130746	0.001904	68.667	-168.745	-166.148	0.065598	0.361209	-0.653252	-0.654577	-0.022147	68.667	-0.653011	-4.453514E+8	4.972874E-11	NaN
337	1.000000	0.402535	7.36836e+06	-55489.1	955.819	-29741.8	0.000000	0.000000	6.402894	-0.011802	NaN	0.000000	0.001614	0.001709	28.0794	0.078916	0.001967	40.1104	166.758	-165.764	-0.057224	0.401231	-0.613251	-0.614555	-0.011802	40.1104	-0.613030	-1.258333E+8	9.378778E-11	NaN
337	1.000000	0.442531	7.36836e+06	-55489.1	955.819	-29741.8	0.000000	0.000000	6.442892	0.044082	NaN	0.000000	0.001529	0.001715	28.0781	0.036422	0.002102	17.3258	23.2096	-163.187	0.163102	0.441148	-0.573254	-0.574637	0.044082	17.3258	-0.575163	-3.783952E+7	-1.164973E-9	NaN
337	1.000000	0.482582	7.36836e+06	-55489.1	955.819	-29741.8	0.000000	0.000000	6.482942	0.023106	NaN	0.000000	0.001506	0.001717	28.078	0.127206	0.001980	64.248	-158.765	-161.163	0.026798	0.481253	-0.533203	-0.534533	0.023106	64.248	-0.533473	-1.001839E+7	-2.306373E-9	NaN
337	1.000000	0.522601	7.36836e+06	-55489.1	955.818	-29741.8	0.000000	0.000000	6.522961	0.023073	NaN	0.000000	0.001583	0.001753	28.0778	0.101449	0.002018	50.2788	-121.948	-166.833	0.075401	0.521253	-0.493185	-0.494533	0.023073	50.2788	-0.493529	-2.78416e+06	-8.287083E-9	NaN
337	1.000000	0.562607	7.36836e+06	-55489.1	955.818	-29741.8	0.000000	0.000000	6.562967	0.009672	NaN	0.000000	0.001548	0.001738	28.0791	0.082396	0.002045	40.2948	155.271	-165.766	0.055780	0.561297	-0.453178	-0.454488	0.009672	40.2948	-0.453359	-761415	-1.270239E-8	NaN
337	1.000000	0.602616	7.36836e+06	-55489.1	955.818	-29741.8	0.000000	0.000000	6.602970	-0.120988	NaN	0.000000	0.001524	0.001732	28.0792	0.046374	0.001919	24.1668	-95.8537	-167.085	-0.107245	0.601258	-0.413170	-0.414528	-0.120988	24.1668	-0.409415	-182003	6.647562E-7	NaN
337	1.000000	0.642631	7.36836e+06	-55489.1	955.818	-29741.8	0.000000	0.000000	6.642991	0.006701	NaN	0.000000	0.001522	0.001677	28.0793	0.052623	0.002124	24.7752	-62.4751	-162.905	-0.022098	0.641322	-0.373154	-0.374464	0.006701	24.7752	-0.373357	-55519.9	-1.206988E-7	NaN
337	1.000000	0.682651	7.36836e+06	-55489.1	955.819	-29741.8	0.000000	0.000000	6.683009	-0.020010	NaN	0.000000	0.001492	0.001694	28.0793	0.069993	0.001919	36.4658	-149.803	-167.448	-0.005645	0.681361	-0.333135	-0.334425	-0.020010	36.4658	-0.332723	-14299	1.399387E-6	NaN
337	1.000000	0.722666	7.36836e+06	-55489.1	955.819	-29741.8	0.000000	0.000000	6.723025	-0.013852	NaN	0.000000	0.001498	0.001690	28.0779	0.094181	0.002071	45.4853	-38.979	-164.945	-0.159893	0.721390	-0.293120	-0.294395	-0.013852	45.4853	-0.292891	-3686.18	3.757869E-6	NaN
337	1.000000	0.762693	7.36836e+06	-55489.1	955.818	-29741.8	0.000000	0.000000	6.763054	0.055338	NaN	0.000000	0.001458	0.001715	28.0778	0.029845	0.002016	14.8012	40.9966	-167.088	0.010413	0.761377	-0.253093	-0.254409	0.055338	14.8012	-0.255897	-1013.73	-5.458901E-5	NaN
337	1.000000	0.802715	7.36836e+06	-55489.1	955.819	-29741.8	0.000000	0.000000	6.803071	-0.058601	NaN	0.000000	0.001514	0.001728	28.0779	0.085870	0.002044	42.0015	11.551	-168.213	-0.048038	0.801392	-0.213071	-0.214393	-0.058601	42.0015	-0.212025	-206.805	0.000283	NaN
337	1.000000	0.842698	7.36836e+06	-55489.1	955.819	-29741.8	0.000000	0.000000	6.843057	-0.023882	NaN	0.000000	0.001510	0.001779	28.0794	0.122160	0.002063	59.2083	19.7568	-167.922	-0.010148	0.841443	-0.173087	-0.174342	-0.023882	59.2083	-0.172785	-45.9017	0.000520	NaN
337	1.000000	0.882728	7.36836e+06	-55489.1	955.819	-29741.8	0.000000	0.000000	6.883087	0.000209	NaN	0.000000	0.001519	0.001780	28.0796	0.030920	0.001990	15.5378	179.087	-166.02	0.012972	0.881413	-0.133058	-0.134372	0.000209	15.5378	-0.133068	-8.735479	-2.396577E-5	NaN
337	1.000000	0.922772	7.36836e+06	-55489.1	955.819	-29741.8	0.000000	0.000000	6.923132	0.015894	NaN	0.000000	0.001526	0.001803	28.0791	0.091689	0.001986	46.1614	176.457	-164.329	-0.007971	0.921442	-0.093014	-0.094344	0.015894	46.1614	-0.093272	-1.287789	-0.012342	NaN
337	1.000000	0.962759	7.36836e+06	-55489.1	955.818	-29741.8	0.000000	0.000000	6.963118	-0.006985	NaN	0.000000	0.001495	0.001736	28.0782	0.024205	0.001946	12.4366	176.988	-162.301	-0.043714	0.961459	-0.053027	-0.054326	-0.006985	12.4366	-0.052605	-0.109300	0.063905	NaN
337	1.000000	1.002827	7.36836e+06	-55489.1	955.817	-29741.8	0.000000	0.000000	7.003187	0.006941	NaN	0.000000	0.001524	0.001700	28.0778	0.086200	0.002124	40.588	178.723	-165.249	-0.005734	1.001432	-0.012958	-0.014353	0.006941	40.588	-0.013087	-0.008152	-0.851388	NaN
337	2.000000	1.031356	7.36836e+06	-55489.1	955.818	-29741.8	0.000000	0.000000	7.032219	12.2378	NaN	0.000000	0.001557	0.001712	28.0778	12.5246	0.001718	7291.83	6.673356	-173.02	11.6416	1.031094	0.015571	0.015308	12.2378	7291.83	0.014312	0.014379	851.097	55558.2
337	2.000000	1.041263	7.36836e+06	-55489.1	955.818	-29741.8	0.000000	0.000000	7.042876	30.4798	NaN	0.000000	0.001600	0.001732	28.0776	22.6825	0.001794	12645.6	6.029649	-178.256	28.6482	1.041049	0.025477	0.025263	30.4798	12645.6	0.023669	0.028640	1064.26	68269.7
337	2.000000	1.051241	7.36836e+06	-55489.1	955.819	-29741.8	0.000000	0.000000	7.054020	58.8094	NaN	0.000000	0.001496	0.001763	28.079	32.2706	0.001735	18604.6	4.662024	-179.724	56.7751	1.051011	0.035456	0.035225	58.8094	18604.6	0.033085	0.047381	1241.2	78089.3
337	2.000000	1.061173	7.36837e+06	-55489.1	955.819	-29741.8	0.000000	0.000000	7.065406	94.1708	NaN	0.000000	0.001521	0.001751	28.0791	42.0692	0.001746	24092.3	3.348657	179.384	89.6309	1.060904	0.045387	0.045119	94.1708	24092.3	0.042456	0.070529	1335.21	82883.8
337	2.000000	1.071265	7.36837e+06	-55489.1	955.818	-29741.8	0.000000	0.000000	7.077446	141.503	NaN	0.000000	0.001494	0.001729	28.079	51.9018	0.001851	28037.7	8.398014	174.07	141.561	1.070815	0.055480	0.055029	141.503	28037.7	0.051695	0.097723	1448	81943.8
337	2.000000	1.081250	7.36837e+06	-55489.1	955.818	-29741.8	0.000000	0.000000	7.089553	193.108	NaN	0.000000	0.001493	0.001733	28.078	62.4377	0.001802	34639.6	6.377682	174.145	193.739	1.080832	0.065464	0.065046	193.108	34639.6	0.061283	0.130449	1480.34	87624.7
337	2.000000	1.091259	7.36837e+06	-55489.1	955.819	-29741.8	0.000000	0.000000	7.102072	254.121	NaN	0.000000	0.001492	0.001737	28.078	72.3397	0.001831	39512.5	5.719235	173.927	253.725	1.090803	0.075473	0.075018	254.121	39512.5	0.070650	0.166741	1524.04	88406.9
337	2.000000	1.101155	7.36837e+06	-55489.1	955.82	-29741.8	0.000000	0.000000	7.114977	327.256	NaN	0.000000	0.001486	0.001767	28.0779	81.9653	0.001748	46903	2.798455	175.413	322.751	1.100834	0.085369	0.085049	327.256	46903	0.080136	0.207747	1575.26	94017.1
337	2.000000	1.111070	7.36837e+06	-55489.1	955.819	-29741.8	0.000000	0.000000	7.128085	404.89	NaN	0.000000	0.001478	0.001821	28.0782	91.4374	0.001786	51185.8	2.243311	175.117	396.867	1.110834	0.095284	0.095049	404.89	51185.8	0.089352	0.251597	1609.28	93233.2
337	2.000000	1.121208	7.36837e+06	-55489.1	955.818	-29741.8	0.000000	0.000000	7.141800	491.817	NaN	0.000000	0.001494	0.001723	28.0795	102.017	0.001859	54873.7	5.217707	172.127	494.55	1.120843	0.105423	0.105057	491.817	54873.7	0.098700	0.300066	1639.03	91522.7
337	2.000000	1.126216	7.36837e+06	-55489.1	955.82	-29741.8	0.000000	0.000000	7.148747	538.947	NaN	0.000000	0.001539	0.001777	28.0795	104.272	0.001875	55615.6	5.319151	171.619	540.5	1.125855	0.110431	0.110070	538.947	55615.6	0.103163	0.324605	1660.32	89185