File: remote_trans/data/nanoindenter/0828-1/data/Data_2025-08-06,11h17m57s/2025-07-22_16-23-58_1_536.txt
2025-07-22, 16:23:58, 1
Index	Phase	Displacement	Time	Pos X	Pos Y	Pos Z	Rot A	Rot B	Piezo Z	Force A	Force B	Gripper	Voltage A	Voltage B	Temperature	Amplitude force	Amplitude pos	Stiffness	Phase shift	Phase excitation	Force A raw	Displacement raw	HMax	HMax raw	Real Force	Real Stiffness	Contact Depth	Area	Hardness	Reduced Mod.
[#]	[#]	[um]	[s]	[um]	[um]	[um]	[m°]	[m°]	[um]	[uN]	[uN]	[V]	[V]	[V]	[°C]	[uN]	[um]	[N/m]	[°]	[°]	[uN]	[um]	[um]	[um]	[uN]	[N/m]	[um]	[um^2]	[MPa]	[MPa]
536	1.000000	0.003399	7.37029e+06	-50289.1	1005.82	-29756.2	0.000000	0.000000	6.002820	-0.019351	NaN	0.000000	0.001643	0.001815	28.0804	0.060996	0.000813	75.0517	-0.602311	-166.308	0.007451	0.002120	-1.112553	-1.113832	-0.019351	75.0517	-1.112360	-7.344418E+14	2.634780E-17	NaN
536	1.000000	0.045334	7.37029e+06	-50289.1	1005.82	-29756.2	0.000000	0.000000	6.044757	0.004528	NaN	0.000000	0.001639	0.001769	28.0804	0.077635	0.002071	37.4841	116.222	13.5595	0.110325	0.044012	-1.070618	-1.071940	0.004528	37.4841	-1.070709	-2.026321E+14	-2.234779E-17	NaN
536	1.000000	0.087339	7.37029e+06	-50289.1	1005.82	-29756.2	0.000000	0.000000	6.086760	-0.024645	NaN	0.000000	0.001580	0.001818	28.0802	0.038376	0.001915	20.0434	-154.657	-168.16	0.035112	0.086031	-1.028613	-1.029921	-0.024645	20.0434	-1.027691	-5.350816E+13	4.605881E-16	NaN
536	1.000000	0.129374	7.37029e+06	-50289.1	1005.82	-29756.2	0.000000	0.000000	6.128795	-0.025639	NaN	0.000000	0.001643	0.001822	28.0816	0.087001	0.001976	44.0353	102.326	11.9466	-0.001235	0.128014	-0.986578	-0.987938	-0.025639	44.0353	-0.986141	-1.476185E+13	1.736849E-15	NaN
536	1.000000	0.171377	7.37029e+06	-50289.1	1005.82	-29756.2	0.000000	0.000000	6.170800	0.022053	NaN	0.000000	0.001629	0.001820	28.0813	0.016312	0.001885	8.654135	-165.929	-167.084	-0.025337	0.169990	-0.944575	-0.945962	0.022053	8.654135	-0.946486	-4.311582E+12	-5.114819E-15	NaN
536	1.000000	0.213397	7.37029e+06	-50289.1	1005.82	-29756.2	0.000000	0.000000	6.212821	0.045636	NaN	0.000000	0.001614	0.001834	28.0811	0.072063	0.001981	36.3749	112.174	12.2102	-0.070897	0.212025	-0.902555	-0.903927	0.045636	36.3749	-0.903496	-1.133200E+12	-4.027172E-14	NaN
536	1.000000	0.255410	7.37029e+06	-50289.1	1005.82	-29756.2	0.000000	0.000000	6.254832	-0.004293	NaN	0.000000	0.001611	0.001805	28.0811	0.029888	0.001890	15.81	-135.297	-165.036	0.009401	0.254156	-0.860542	-0.861797	-0.004293	15.81	-0.860339	-2.956018E+11	1.452205E-14	NaN
536	1.000000	0.297437	7.37029e+06	-50289.1	1005.82	-29756.2	0.000000	0.000000	6.296857	-0.041927	NaN	0.000000	0.001598	0.001805	28.0799	0.044375	0.002006	22.1222	-108.73	15.1706	0.036338	0.296053	-0.818515	-0.819899	-0.041927	22.1222	-0.817094	-7.670095E+10	5.466329E-13	NaN
536	1.000000	0.339453	7.37029e+06	-50289.1	1005.82	-29756.2	0.000000	0.000000	6.338876	0.002555	NaN	0.000000	0.001601	0.001785	28.0801	0.111945	0.001809	61.8709	26.8485	-166.725	-0.011211	0.338175	-0.776499	-0.777777	0.002555	61.8709	-0.776530	-2.158081E+10	-1.184064E-13	NaN
536	1.000000	0.381477	7.37029e+06	-50289.1	1005.82	-29756.2	0.000000	0.000000	6.380898	-0.051035	NaN	0.000000	0.001655	0.001788	28.0801	0.049268	0.002021	24.3825	163.369	16.4437	-0.125516	0.380090	-0.734475	-0.735862	-0.051035	24.3825	-0.732905	-5.500391E+9	9.278433E-12	NaN
536	1.000000	0.423494	7.37029e+06	-50289.1	1005.82	-29756.2	0.000000	0.000000	6.422917	0.018447	NaN	0.000000	0.001606	0.001779	28.0813	0.086852	0.001999	43.451	41.7128	-162.782	-0.041689	0.422133	-0.692458	-0.693819	0.018447	43.451	-0.692777	-1.559047E+9	-1.183229E-11	NaN
536	1.000000	0.465502	7.37029e+06	-50289.1	1005.82	-29756.2	0.000000	0.000000	6.464924	-0.007138	NaN	0.000000	0.001551	0.001740	28.0813	0.122953	0.001942	63.3215	-57.4317	11.7651	-0.045860	0.464167	-0.650450	-0.651785	-0.007138	63.3215	-0.650366	-4.096879E+8	1.742222E-11	NaN
536	1.000000	0.507543	7.37029e+06	-50289.1	1005.82	-29756.2	0.000000	0.000000	6.506969	0.089191	NaN	0.000000	0.001585	0.001754	28.0815	0.028194	0.001967	14.3302	14.6754	-163.565	0.035959	0.506212	-0.608409	-0.609740	0.089191	14.3302	-0.613077	-1.260214E+8	-7.077460E-10	NaN
536	1.000000	0.549541	7.37029e+06	-50289.1	1005.82	-29756.2	0.000000	0.000000	6.548963	-0.022376	NaN	0.000000	0.001592	0.001812	28.0801	0.073180	0.002049	35.7149	-179.733	17.2034	-0.069253	0.548175	-0.566411	-0.567777	-0.022376	35.7149	-0.565941	-2.821862E+7	7.929532E-10	NaN
536	1.000000	0.591557	7.37029e+06	-50289.1	1005.82	-29756.2	0.000000	0.000000	6.590979	-0.024897	NaN	0.000000	0.001613	0.001776	28.0801	0.047699	0.002062	23.1321	152.807	-166.314	0.033216	0.590240	-0.524395	-0.525712	-0.024897	23.1321	-0.523588	-7.30265e+06	3.409362E-9	NaN
536	1.000000	0.633568	7.3703e+06	-50289.1	1005.82	-29756.2	0.000000	0.000000	6.632990	-0.016405	NaN	0.000000	0.001613	0.001829	28.0801	0.050059	0.001895	26.4126	-147.234	14.5053	0.034145	0.632202	-0.482384	-0.483750	-0.016405	26.4126	-0.481918	-1.91593e+06	8.562455E-9	NaN
536	1.000000	0.675571	7.3703e+06	-50289.1	1005.82	-29756.2	0.000000	0.000000	6.674992	-0.035136	NaN	0.000000	0.001616	0.001764	28.0814	0.011533	0.001923	5.995936	60.6615	-166.812	-0.165766	0.674280	-0.440381	-0.441672	-0.035136	5.995936	-0.435986	-433202	8.110792E-8	NaN
536	1.000000	0.717629	7.3703e+06	-50289.1	1005.82	-29756.2	0.000000	0.000000	6.717051	0.002887	NaN	0.000000	0.001598	0.001783	28.0812	0.045270	0.002007	22.5612	152.611	16.2527	-0.039967	0.716302	-0.398323	-0.399650	0.002887	22.5612	-0.398419	-126896	-2.275489E-8	NaN
536	1.000000	0.759632	7.3703e+06	-50289.1	1005.82	-29756.2	0.000000	0.000000	6.759052	-0.060012	NaN	0.000000	0.001583	0.001802	28.0812	0.083971	0.002056	40.8379	160.849	-162.465	-0.107408	0.758309	-0.356320	-0.357643	-0.060012	40.8379	-0.355218	-30384.6	1.975070E-6	NaN
536	1.000000	0.801664	7.3703e+06	-50289.1	1005.82	-29756.2	0.000000	0.000000	6.801085	-0.025450	NaN	0.000000	0.001610	0.001749	28.081	0.063997	0.001944	32.9269	84.7005	13.192	-0.041683	0.800266	-0.314288	-0.315686	-0.025450	32.9269	-0.313709	-7514.21	3.386920E-6	NaN
536	1.000000	0.843671	7.3703e+06	-50289.1	1005.82	-29756.2	0.000000	0.000000	6.843099	0.128390	NaN	0.000000	0.001622	0.001742	28.08	0.097338	0.001924	50.5917	38.832	-164.597	-0.007896	0.842341	-0.272281	-0.273611	0.128390	50.5917	-0.274184	-1927.74	-6.660120E-5	NaN
536	1.000000	0.885634	7.3703e+06	-50289.1	1005.82	-29756.2	0.000000	0.000000	6.885060	0.091014	NaN	0.000000	0.001640	0.001765	28.0798	0.106354	0.002091	50.8602	-115.454	13.664	0.061390	0.884311	-0.230318	-0.231641	0.091014	50.8602	-0.231660	-425.312	-0.000214	NaN
536	1.000000	0.927683	7.3703e+06	-50289.1	1005.82	-29756.2	0.000000	0.000000	6.927106	-0.002177	NaN	0.000000	0.001567	0.001744	28.08	0.120668	0.002001	60.3006	122.399	-164.526	0.030174	0.926473	-0.188269	-0.189479	-0.002177	60.3006	-0.188242	-84.064	2.589918E-5	NaN
536	1.000000	0.969690	7.3703e+06	-50289.1	1005.82	-29756.2	0.000000	0.000000	6.969112	-0.005877	NaN	0.000000	0.001582	0.001738	28.0809	0.097891	0.001906	51.3707	76.4795	16.9289	0.019066	0.968371	-0.146262	-0.147581	-0.005877	51.3707	-0.146176	-15.4131	0.000381	NaN
536	1.000000	1.011750	7.3703e+06	-50289.1	1005.82	-29756.2	0.000000	0.000000	7.011170	-0.067020	NaN	0.000000	0.001591	0.001792	28.0812	0.072538	0.001898	38.2253	50.9216	-165.772	0.003907	1.010358	-0.104202	-0.105594	-0.067020	38.2253	-0.102887	-2.114834	0.031691	NaN
536	1.000000	1.053751	7.3703e+06	-50289.1	1005.82	-29756.2	0.000000	0.000000	7.053172	-0.054795	NaN	0.000000	0.001571	0.001803	28.0813	0.010846	0.002081	5.211408	-30.5905	15.2362	-0.141168	1.052384	-0.062201	-0.063568	-0.054795	5.211408	-0.054315	-0.122899	0.445853	NaN
536	1.000000	1.095760	7.3703e+06	-50289.1	1005.82	-29756.2	0.000000	0.000000	7.095184	0.024071	NaN	0.000000	0.001560	0.001790	28.0805	0.022250	0.001988	11.1947	-4.347303	-166.371	-0.015255	1.094412	-0.020192	-0.021540	0.024071	11.1947	-0.021804	-0.013960	-1.724317	NaN
536	2.000000	1.125819	7.3703e+06	-50289.1	1005.82	-29756.2	0.000000	0.000000	7.125780	13.0942	NaN	0.000000	0.001550	0.001774	28.0805	12.8185	0.001728	7419.64	1.289023	11.2986	12.1623	1.125486	0.009867	0.009534	13.0942	7419.64	0.008544	0.007607	1721.24	77721
536	2.000000	1.136252	7.3703e+06	-50289.1	1005.82	-29756.2	0.000000	0.000000	7.136985	31.8809	NaN	0.000000	0.001540	0.001839	28.0799	23.5606	0.001799	13099.9	2.724921	-174.342	30.1358	1.135940	0.020300	0.019988	31.8809	13099.9	0.018474	0.020201	1578.15	84207
536	2.000000	1.146763	7.3703e+06	-50289.1	1005.82	-29756.2	0.000000	0.000000	7.148839	64.513	NaN	0.000000	0.001539	0.001791	28.0813	34.611	0.001730	20001.9	4.693823	-0.180206	63.4991	1.146441	0.030811	0.030489	64.513	20001.9	0.028392	0.037478	1721.37	94397
536	2.000000	1.157226	7.3703e+06	-50289.1	1005.82	-29756.2	0.000000	0.000000	7.161053	107.115	NaN	0.000000	0.001612	0.001768	28.0814	44.3384	0.001811	24479.2	0.408346	-177.787	104.994	1.156912	0.041274	0.040960	107.115	24479.2	0.037992	0.058941	1817.32	92121.6
536	2.000000	1.167731	7.3703e+06	-50289.1	1005.82	-29756.2	0.000000	0.000000	7.173384	151.519	NaN	0.000000	0.001583	0.001753	28.0811	54.1986	0.001762	30753.8	3.825369	-2.609454	150.662	1.167283	0.051779	0.051331	151.519	30753.8	0.048084	0.086582	1749.99	95489.8
536	2.000000	1.178234	7.3703e+06	-50289.1	1005.82	-29756.2	0.000000	0.000000	7.185968	202.12	NaN	0.000000	0.001569	0.001823	28.0811	64.8065	0.001818	35656.6	4.876912	175.416	201.805	1.177819	0.062282	0.061867	202.12	35656.6	0.058031	0.118842	1700.75	94499.2
536	2.000000	1.188739	7.3703e+06	-50289.1	1005.82	-29756.2	0.000000	0.000000	7.198661	255.334	NaN	0.000000	0.001613	0.001784	28.0795	74.5373	0.001870	39859.4	5.845855	-7.380587	255.317	1.188466	0.072787	0.072514	255.334	39859.4	0.067983	0.155979	1636.97	92208.3
536	2.000000	1.199153	7.3703e+06	-50289.1	1005.82	-29756.2	0.000000	0.000000	7.211720	319.653	NaN	0.000000	0.001602	0.001781	28.0799	84.0598	0.001891	44459.8	3.929668	173.713	315.688	1.198896	0.083201	0.082943	319.653	44459.8	0.077809	0.197295	1620.18	91449.9
536	2.000000	1.209562	7.3703e+06	-50289.1	1005.82	-29756.2	0.000000	0.000000	7.225528	402.324	NaN	0.000000	0.001601	0.001799	28.0798	92.7697	0.001791	51787.1	4.300514	-7.391967	393.761	1.209219	0.093610	0.093267	402.324	51787.1	0.087783	0.243857	1649.84	95813.6
536	2.000000	1.220072	7.3703e+06	-50289.1	1005.82	-29756.2	0.000000	0.000000	7.239992	498.469	NaN	0.000000	0.001576	0.001777	28.0812	100.899	0.001807	55824.7	-0.559848	177.561	492.32	1.219785	0.104120	0.103833	498.469	55824.7	0.097423	0.293208	1700.05	94191.5