File: remote_trans/data/nanoindenter/0828-1/data/Data_2025-08-06,11h17m57s/2025-07-22_16-23-58_1_670.txt
2025-07-22, 16:23:58, 1
Index	Phase	Displacement	Time	Pos X	Pos Y	Pos Z	Rot A	Rot B	Piezo Z	Force A	Force B	Gripper	Voltage A	Voltage B	Temperature	Amplitude force	Amplitude pos	Stiffness	Phase shift	Phase excitation	Force A raw	Displacement raw	HMax	HMax raw	Real Force	Real Stiffness	Contact Depth	Area	Hardness	Reduced Mod.
[#]	[#]	[um]	[s]	[um]	[um]	[um]	[m°]	[m°]	[um]	[uN]	[uN]	[V]	[V]	[V]	[°C]	[uN]	[um]	[N/m]	[°]	[°]	[uN]	[um]	[um]	[um]	[uN]	[N/m]	[um]	[um^2]	[MPa]	[MPa]
670	1.000000	0.002707	7.3716e+06	-43589.1	1005.82	-29778.5	0.000000	0.000000	6.002798	-0.012862	NaN	0.000000	0.001695	0.001735	28.0835	0.038600	0.000854	45.2128	-136.258	-167.871	-0.006801	0.001482	-1.145380	-1.146605	-0.012862	45.2128	-1.145166	-2.023075E+15	6.357871E-18	NaN
670	1.000000	0.044673	7.3716e+06	-43589.1	1005.82	-29778.5	0.000000	0.000000	6.044763	-0.050707	NaN	0.000000	0.001664	0.001765	28.0829	0.042171	0.001944	21.6944	-55.7574	14.5975	-0.036898	0.043312	-1.103413	-1.104774	-0.050707	21.6944	-1.101660	-5.276562E+14	9.609938E-17	NaN
670	1.000000	0.086667	7.3716e+06	-43589.1	1005.82	-29778.5	0.000000	0.000000	6.086757	-0.039470	NaN	0.000000	0.001638	0.001773	28.0815	0.037915	0.001969	19.253	-142.381	-166.586	-0.042655	0.085352	-1.061419	-1.062734	-0.039470	19.253	-1.059882	-1.449535E+14	2.722929E-16	NaN
670	1.000000	0.128675	7.3716e+06	-43589.1	1005.82	-29778.5	0.000000	0.000000	6.128763	-0.079780	NaN	0.000000	0.001657	0.001736	28.082	0.091876	0.002001	45.9103	-94.8653	15.0909	0.016930	0.127307	-1.019412	-1.020780	-0.079780	45.9103	-1.018109	-3.976523E+13	2.006264E-15	NaN
670	1.000000	0.170725	7.3716e+06	-43589.1	1005.82	-29778.5	0.000000	0.000000	6.170813	-0.072804	NaN	0.000000	0.001624	0.001714	28.0815	0.029295	0.002097	13.9728	-87.5834	-168.171	-0.035196	0.169391	-0.977362	-0.978695	-0.072804	13.9728	-0.973454	-9.958932E+12	7.310376E-15	NaN
670	1.000000	0.212728	7.3716e+06	-43589.1	1005.82	-29778.5	0.000000	0.000000	6.212818	-0.041177	NaN	0.000000	0.001588	0.001727	28.0827	0.065117	0.001878	34.6803	-87.1265	13.7848	-0.012653	0.211334	-0.935359	-0.936752	-0.041177	34.6803	-0.934468	-2.968245E+12	1.387262E-14	NaN
670	1.000000	0.254750	7.3716e+06	-43589.1	1005.82	-29778.5	0.000000	0.000000	6.254842	-0.009687	NaN	0.000000	0.001677	0.001749	28.0829	0.038477	0.001987	19.3616	-145.77	-167.581	0.073443	0.253427	-0.893336	-0.894660	-0.009687	19.3616	-0.892961	-8.164642E+11	1.186480E-14	NaN
670	1.000000	0.296725	7.37161e+06	-43589.1	1005.82	-29778.5	0.000000	0.000000	6.296813	-0.095332	NaN	0.000000	0.001659	0.001784	28.0828	0.010411	0.002037	5.111793	-169.732	14.8996	-0.060661	0.295390	-0.851362	-0.852696	-0.095332	5.111793	-0.837375	-1.444516E+11	6.599614E-13	NaN
670	1.000000	0.338770	7.37161e+06	-43589.1	1005.82	-29778.5	0.000000	0.000000	6.338860	-0.035413	NaN	0.000000	0.001734	0.001845	28.0816	0.110557	0.001928	57.3317	-15.9078	-165.979	-0.036745	0.337450	-0.809316	-0.810636	-0.035413	57.3317	-0.808853	-5.929382E+10	5.972519E-13	NaN
670	1.000000	0.380801	7.37161e+06	-43589.1	1005.82	-29778.5	0.000000	0.000000	6.380892	-0.018391	NaN	0.000000	0.001714	0.001814	28.0819	0.070671	0.002023	34.9397	131.451	12.8794	0.051368	0.379457	-0.767286	-0.768629	-0.018391	34.9397	-0.766891	-1.595977E+10	1.152353E-12	NaN
670	1.000000	0.422792	7.37161e+06	-43589.1	1005.82	-29778.5	0.000000	0.000000	6.422882	-0.031829	NaN	0.000000	0.001659	0.001823	28.0817	0.036439	0.002033	17.9235	-65.244	-166.471	-0.022884	0.421527	-0.725294	-0.726560	-0.031829	17.9235	-0.723963	-4.154395E+9	7.661439E-12	NaN
670	1.000000	0.464848	7.37161e+06	-43589.1	1005.82	-29778.5	0.000000	0.000000	6.464941	0.016536	NaN	0.000000	0.001672	0.001782	28.083	0.021402	0.001886	11.3497	147.081	15.8504	0.062610	0.463473	-0.683238	-0.684614	0.016536	11.3497	-0.684331	-1.195161E+9	-1.383596E-11	NaN
670	1.000000	0.506812	7.37161e+06	-43589.1	1005.82	-29778.5	0.000000	0.000000	6.506903	-0.017752	NaN	0.000000	0.001644	0.001735	28.0831	0.076713	0.001935	39.6528	96.1545	-164.761	-0.047827	0.505502	-0.641274	-0.642585	-0.017752	39.6528	-0.640938	-3.042032E+8	5.835723E-11	NaN
670	1.000000	0.548871	7.37161e+06	-43589.1	1005.82	-29778.5	0.000000	0.000000	6.548963	0.029093	NaN	0.000000	0.001705	0.001767	28.0829	0.020932	0.002034	10.2895	-89.4191	13.1131	0.019330	0.547477	-0.599216	-0.600609	0.029093	10.2895	-0.601336	-8.686917E+7	-3.349084E-10	NaN
670	1.000000	0.590864	7.37161e+06	-43589.1	1005.82	-29778.5	0.000000	0.000000	6.590954	-0.045345	NaN	0.000000	0.001706	0.001721	28.083	0.092072	0.002039	45.1561	-126.663	-160.348	-0.045184	0.589588	-0.557222	-0.558499	-0.045345	45.1561	-0.556469	-2.087008E+7	2.172714E-9	NaN
670	1.000000	0.632881	7.37161e+06	-43589.1	1005.82	-29778.5	0.000000	0.000000	6.632972	-0.013677	NaN	0.000000	0.001669	0.001754	28.0815	0.079796	0.001935	41.2372	138.333	13.408	0.006093	0.631554	-0.515206	-0.516532	-0.013677	41.2372	-0.514957	-5.53906e+06	2.469134E-9	NaN
670	1.000000	0.674934	7.37161e+06	-43589.1	1005.82	-29778.5	0.000000	0.000000	6.675027	0.039319	NaN	0.000000	0.001698	0.001766	28.0817	0.094033	0.001932	48.6772	-114.911	-166.23	-0.036140	0.673639	-0.473153	-0.474448	0.039319	48.6772	-0.473759	-1.47266e+06	-2.669942E-8	NaN
670	1.000000	0.716928	7.37161e+06	-43589.1	1005.82	-29778.5	0.000000	0.000000	6.717018	-0.023369	NaN	0.000000	0.001617	0.001791	28.0821	0.120518	0.002003	60.1603	158.034	13.7839	0.027718	0.715586	-0.431159	-0.432500	-0.023369	60.1603	-0.430867	-366717	6.372364E-8	NaN
670	1.000000	0.758952	7.37161e+06	-43589.1	1005.82	-29778.5	0.000000	0.000000	6.759043	-0.019184	NaN	0.000000	0.001620	0.001761	28.083	0.038672	0.001885	20.5186	100.709	-166.904	-0.070534	0.757586	-0.389135	-0.390501	-0.019184	20.5186	-0.388433	-91359.1	2.099870E-7	NaN
670	1.000000	0.801008	7.37161e+06	-43589.1	1005.82	-29778.5	0.000000	0.000000	6.801100	0.008168	NaN	0.000000	0.001640	0.001739	28.083	0.111503	0.001997	55.8435	-163.898	12.534	0.011782	0.799634	-0.347078	-0.348452	0.008168	55.8435	-0.347188	-23236.1	-3.515115E-7	NaN
670	1.000000	0.842998	7.37161e+06	-43589.1	1005.82	-29778.5	0.000000	0.000000	6.843088	-0.037676	NaN	0.000000	0.001678	0.001721	28.083	0.064629	0.002113	30.5822	149.52	-166.824	-0.002523	0.841660	-0.305089	-0.306426	-0.037676	30.5822	-0.304165	-5426.97	6.942304E-6	NaN
670	1.000000	0.885005	7.37161e+06	-43589.1	1005.82	-29778.5	0.000000	0.000000	6.885094	-0.066613	NaN	0.000000	0.001671	0.001742	28.0824	0.053762	0.001972	27.2647	-36.7554	16.2488	0.007036	0.883630	-0.263081	-0.264457	-0.066613	27.2647	-0.261249	-1224.76	5.438900E-5	NaN
670	1.000000	0.927005	7.37161e+06	-43589.1	1005.82	-29778.5	0.000000	0.000000	6.927094	-0.064809	NaN	0.000000	0.001620	0.001765	28.0819	0.052514	0.002086	25.1774	-55.5773	-170.339	-0.111678	0.925740	-0.221082	-0.222346	-0.064809	25.1774	-0.219151	-269.219	0.000241	NaN
670	1.000000	0.969051	7.37161e+06	-43589.1	1005.82	-29778.5	0.000000	0.000000	6.969142	-0.014452	NaN	0.000000	0.001641	0.001810	28.0818	0.037970	0.001967	19.3057	49.0351	11.6717	-0.066513	0.967729	-0.179036	-0.180358	-0.014452	19.3057	-0.178474	-57.4737	0.000251	NaN
670	1.000000	1.011053	7.37161e+06	-43589.1	1005.82	-29778.5	0.000000	0.000000	7.011141	-0.094082	NaN	0.000000	0.001637	0.001791	28.083	0.171780	0.001905	90.1625	63.8826	-168.797	-0.042616	1.009734	-0.137033	-0.138353	-0.094082	90.1625	-0.136251	-10.0488	0.009362	NaN
670	1.000000	1.053051	7.37161e+06	-43589.1	1005.82	-29778.5	0.000000	0.000000	7.053142	-0.027215	NaN	0.000000	0.001621	0.001750	28.0828	0.031237	0.001954	15.9862	-18.3754	10.9514	0.085094	1.051777	-0.095035	-0.096309	-0.027215	15.9862	-0.093758	-1.321353	0.020597	NaN
670	1.000000	1.095054	7.37161e+06	-43589.1	1005.82	-29778.5	0.000000	0.000000	7.095147	0.030949	NaN	0.000000	0.001620	0.001756	28.0829	0.046534	0.001989	23.3995	-5.363752	-166.674	0.062175	1.093750	-0.053032	-0.054337	0.030949	23.3995	-0.054024	-0.120482	-0.256872	NaN
670	1.000000	1.137093	7.37161e+06	-43589.1	1005.82	-29778.5	0.000000	0.000000	7.137184	-0.024746	NaN	0.000000	0.001618	0.001771	28.0826	0.023330	0.001932	12.0738	71.3914	14.3214	-0.003004	1.135759	-0.010993	-0.012328	-0.024746	12.0738	-0.009456	-0.006075	4.073042	NaN
670	2.000000	1.158649	7.37161e+06	-43589.1	1005.82	-29778.5	0.000000	0.000000	7.159498	18.425	NaN	0.000000	0.001613	0.001785	28.0814	16.3395	0.001861	8781.62	6.103232	-174.783	16.6943	1.158323	0.010563	0.010237	18.425	8781.62	0.008989	0.008079	2280.47	89259.8
670	2.000000	1.169187	7.37161e+06	-43589.1	1005.82	-29778.5	0.000000	0.000000	7.170994	41.7382	NaN	0.000000	0.001625	0.001793	28.0814	27.8701	0.001811	15391.9	4.832427	1.437257	41.7754	1.168767	0.021100	0.020680	41.7382	15391.9	0.019066	0.021096	1978.45	96818.7
670	2.000000	1.179653	7.37161e+06	-43589.1	1005.82	-29778.5	0.000000	0.000000	7.182959	78.2165	NaN	0.000000	0.001576	0.001736	28.0814	37.8931	0.001899	19953.3	4.902574	179.532	78.0289	1.179315	0.031566	0.031229	78.2165	19953.3	0.028626	0.037945	2061.34	93586.5
670	2.000000	1.190087	7.37161e+06	-43589.1	1005.82	-29778.5	0.000000	0.000000	7.195118	120.166	NaN	0.000000	0.001606	0.001737	28.0826	47.9545	0.001691	28352.9	4.777928	-5.563155	117.295	1.189859	0.042000	0.041773	120.166	28352.9	0.038822	0.061018	1969.34	104867
670	2.000000	1.200656	7.37161e+06	-43589.1	1005.82	-29778.5	0.000000	0.000000	7.207521	164.796	NaN	0.000000	0.001634	0.001742	28.0824	57.3517	0.001784	32149.9	4.593466	174.116	164.091	1.200357	0.052570	0.052270	164.796	32149.9	0.048725	0.088514	1861.8	98729.4
670	2.000000	1.211153	7.37161e+06	-43589.1	1005.82	-29778.5	0.000000	0.000000	7.220201	217.885	NaN	0.000000	0.001697	0.001736	28.0825	69.5051	0.001949	35655.5	10.0767	-12.0612	218.374	1.210804	0.063067	0.062718	217.885	35655.5	0.058484	0.120428	1809.26	93872.1
670	2.000000	1.221512	7.37161e+06	-43589.1	1005.82	-29778.5	0.000000	0.000000	7.233435	287.844	NaN	0.000000	0.001631	0.001719	28.0817	77.1829	0.001750	44104.1	4.865894	171.329	284.261	1.221311	0.073426	0.073225	287.844	44104.1	0.068531	0.158164	1819.91	101321
670	2.000000	1.231960	7.37161e+06	-43589.1	1005.82	-29778.5	0.000000	0.000000	7.246868	360.466	NaN	0.000000	0.001555	0.001744	28.0816	85.8573	0.001880	45671.2	6.512054	-10.0694	353.788	1.231688	0.083874	0.083602	360.466	45671.2	0.077955	0.197943	1821.07	93787.6
670	2.000000	1.242503	7.37161e+06	-43589.1	1005.82	-29778.5	0.000000	0.000000	7.260846	444.058	NaN	0.000000	0.001626	0.001737	28.0814	93.5915	0.001827	51237.9	3.960513	171.548	439.305	1.242125	0.094416	0.094038	444.058	51237.9	0.087916	0.244509	1816.12	94670.9
670	2.000000	1.250602	7.37161e+06	-43589.1	1005.82	-29778.5	0.000000	0.000000	7.271442	504.781	NaN	0.000000	0.001650	0.001735	28.0813	102.079	0.001718	59432.4	6.193683	168.733	506.514	1.250176	0.102516	0.102090	504.781	59432.4	0.096146	0.286425	1762.35	101459