File: remote_trans/data/nanoindenter/0828-1/data/Data_2025-08-06,11h17m57s/2025-07-22_16-23-58_1_381.txt
2025-07-22, 16:23:58, 1
Index	Phase	Displacement	Time	Pos X	Pos Y	Pos Z	Rot A	Rot B	Piezo Z	Force A	Force B	Gripper	Voltage A	Voltage B	Temperature	Amplitude force	Amplitude pos	Stiffness	Phase shift	Phase excitation	Force A raw	Displacement raw	HMax	HMax raw	Real Force	Real Stiffness	Contact Depth	Area	Hardness	Reduced Mod.
[#]	[#]	[um]	[s]	[um]	[um]	[um]	[m°]	[m°]	[um]	[uN]	[uN]	[V]	[V]	[V]	[°C]	[uN]	[um]	[N/m]	[°]	[°]	[uN]	[um]	[um]	[um]	[uN]	[N/m]	[um]	[um^2]	[MPa]	[MPa]
381	1.000000	0.002740	7.36879e+06	-57689.1	955.82	-29736.9	0.000000	0.000000	6.002811	0.041790	NaN	0.000000	0.001604	0.001731	28.0799	0.132838	0.000950	139.776	29.1678	-161.155	0.042313	0.001504	-0.994884	-0.996120	0.041790	139.776	-0.995109	-1.949429E+13	-2.143708E-15	NaN
381	1.000000	0.040700	7.36879e+06	-57689.1	955.819	-29736.9	0.000000	0.000000	6.040772	0.048079	NaN	0.000000	0.001615	0.001739	28.08	0.067170	0.002019	33.2693	137.233	13.8509	0.035264	0.039356	-0.956924	-0.958268	0.048079	33.2693	-0.958008	-6.166053E+12	-7.797321E-15	NaN
381	1.000000	0.078695	7.36879e+06	-57689.1	955.82	-29736.9	0.000000	0.000000	6.078766	0.043894	NaN	0.000000	0.001575	0.001702	28.0795	0.082251	0.002054	40.0491	179.653	-168.672	0.038568	0.077438	-0.918929	-0.920186	0.043894	40.0491	-0.919751	-1.878655E+12	-2.336469E-14	NaN
381	1.000000	0.116710	7.36879e+06	-57689.1	955.819	-29736.9	0.000000	0.000000	6.116783	0.099624	NaN	0.000000	0.001626	0.001717	28.0794	0.057448	0.001953	29.4112	87.2639	12.4712	0.125624	0.115318	-0.880914	-0.882307	0.099624	29.4112	-0.883455	-6.073267E+11	-1.640369E-13	NaN
381	1.000000	0.154729	7.36879e+06	-57689.1	955.818	-29736.9	0.000000	0.000000	6.154797	-0.022997	NaN	0.000000	0.001608	0.001713	28.0782	0.024423	0.001972	12.3845	29.9858	-165.379	-0.032485	0.153416	-0.842895	-0.844208	-0.022997	12.3845	-0.841502	-1.643030E+11	1.399649E-13	NaN
381	1.000000	0.192737	7.36879e+06	-57689.1	955.818	-29736.9	0.000000	0.000000	6.192808	0.034218	NaN	0.000000	0.001625	0.001754	28.0784	0.034370	0.001896	18.1252	27.9958	12.1396	0.008174	0.191384	-0.804887	-0.806240	0.034218	18.1252	-0.806303	-5.475258E+10	-6.249487E-13	NaN
381	1.000000	0.230769	7.36879e+06	-57689.1	955.819	-29736.9	0.000000	0.000000	6.230840	0.044522	NaN	0.000000	0.001671	0.001713	28.0781	0.062673	0.001913	32.7635	25.7712	-166.198	0.093974	0.229487	-0.766855	-0.768137	0.044522	32.7635	-0.767874	-1.645896E+10	-2.705043E-12	NaN
381	1.000000	0.268758	7.36879e+06	-57689.1	955.818	-29736.9	0.000000	0.000000	6.268827	0.000429	NaN	0.000000	0.001602	0.001720	28.0795	0.052237	0.002015	25.9203	-178.36	13.2992	-0.004269	0.267381	-0.728866	-0.730243	0.000429	25.9203	-0.728879	-4.847586E+9	-8.854150E-14	NaN
381	1.000000	0.306767	7.36879e+06	-57689.1	955.817	-29736.9	0.000000	0.000000	6.306841	0.097458	NaN	0.000000	0.001586	0.001751	28.0798	0.041007	0.002129	19.2567	-67.7516	-166.022	0.004141	0.305490	-0.690857	-0.692134	0.097458	19.2567	-0.694653	-1.653832E+9	-5.892879E-11	NaN
381	1.000000	0.344784	7.36879e+06	-57689.1	955.819	-29736.9	0.000000	0.000000	6.344858	0.096839	NaN	0.000000	0.001600	0.001710	28.0799	0.112546	0.002079	54.1457	52.9457	15.1492	0.111447	0.343384	-0.652840	-0.654240	0.096839	54.1457	-0.654181	-4.621096E+8	-2.095591E-10	NaN
381	1.000000	0.382803	7.36879e+06	-57689.1	955.818	-29736.9	0.000000	0.000000	6.382873	0.009355	NaN	0.000000	0.001617	0.001685	28.0796	0.019468	0.001998	9.745990	-0.942078	-168.573	-0.072538	0.381509	-0.614821	-0.616115	0.009355	9.745990	-0.615541	-1.362482E+8	-6.866002E-11	NaN
381	1.000000	0.420836	7.36879e+06	-57689.1	955.819	-29736.9	0.000000	0.000000	6.420907	0.039205	NaN	0.000000	0.001710	0.001651	28.0783	0.011764	0.001982	5.935598	153.942	14.2792	0.059536	0.419503	-0.576788	-0.578121	0.039205	5.935598	-0.581741	-4.663992E+7	-8.405806E-10	NaN
381	1.000000	0.458854	7.36879e+06	-57689.1	955.818	-29736.9	0.000000	0.000000	6.458924	0.031018	NaN	0.000000	0.001693	0.001733	28.0782	0.046771	0.001865	25.0745	91.8739	-169.896	-0.035893	0.457541	-0.538770	-0.540083	0.031018	25.0745	-0.539698	-1.222280E+7	-2.537757E-9	NaN
381	1.000000	0.496861	7.36879e+06	-57689.1	955.819	-29736.9	0.000000	0.000000	6.496932	0.029457	NaN	0.000000	0.001611	0.001716	28.0783	0.078308	0.001944	40.2865	-134.765	15.4466	0.064407	0.495547	-0.500763	-0.502077	0.029457	40.2865	-0.501311	-3.57527e+06	-8.239140E-9	NaN
381	1.000000	0.534870	7.36879e+06	-57689.1	955.819	-29736.9	0.000000	0.000000	6.534943	0.083751	NaN	0.000000	0.001659	0.001681	28.0786	0.041746	0.001944	21.4752	143.554	-171.794	0.091223	0.533549	-0.462754	-0.464075	0.083751	21.4752	-0.465679	-1.13443e+06	-7.382662E-8	NaN
381	1.000000	0.572900	7.36879e+06	-57689.1	955.819	-29736.9	0.000000	0.000000	6.572973	0.085174	NaN	0.000000	0.001586	0.001711	28.0795	0.025318	0.001985	12.7562	178.173	15.733	0.139856	0.571562	-0.424724	-0.426062	0.085174	12.7562	-0.429731	-353397	-2.410143E-7	NaN
381	1.000000	0.610925	7.36879e+06	-57689.1	955.819	-29736.9	0.000000	0.000000	6.610996	0.031985	NaN	0.000000	0.001624	0.001689	28.0796	0.021707	0.001883	11.5258	26.095	-169.258	-0.024671	0.609695	-0.386699	-0.387929	0.031985	11.5258	-0.388780	-92410	-3.461194E-7	NaN
381	1.000000	0.648927	7.36879e+06	-57689.1	955.819	-29736.9	0.000000	0.000000	6.648997	0.014968	NaN	0.000000	0.001605	0.001746	28.0794	0.118817	0.002083	57.0401	22.1925	13.241	0.020738	0.647592	-0.348697	-0.350032	0.014968	57.0401	-0.348894	-24600.8	-6.084181E-7	NaN
381	1.000000	0.686954	7.36879e+06	-57689.1	955.818	-29736.9	0.000000	0.000000	6.687025	0.032095	NaN	0.000000	0.001636	0.001715	28.0784	0.046193	0.002023	22.839	-57.1777	-163.831	0.033322	0.685625	-0.310670	-0.311999	0.032095	22.839	-0.311724	-7023.55	-4.569674E-6	NaN
381	1.000000	0.724975	7.36879e+06	-57689.1	955.818	-29736.9	0.000000	0.000000	6.725044	-0.003487	NaN	0.000000	0.001615	0.001706	28.0783	0.028880	0.002073	13.9344	-116.025	12.7845	-0.035810	0.723556	-0.272649	-0.274068	-0.003487	13.9344	-0.272462	-1815.21	1.920732E-6	NaN
381	1.000000	0.762987	7.36879e+06	-57689.1	955.818	-29736.9	0.000000	0.000000	6.763057	0.021868	NaN	0.000000	0.001643	0.001734	28.0783	0.143043	0.001840	77.7199	126.496	-169.538	-0.045942	0.761663	-0.234637	-0.235961	0.021868	77.7199	-0.234848	-477.381	-4.580897E-5	NaN
381	1.000000	0.801000	7.36879e+06	-57689.1	955.819	-29736.9	0.000000	0.000000	6.801069	-0.015605	NaN	0.000000	0.001623	0.001705	28.0783	0.064579	0.001937	33.3464	-72.039	14.1571	0.054724	0.799641	-0.196624	-0.197983	-0.015605	33.3464	-0.196273	-114.358	0.000136	NaN
381	1.000000	0.839013	7.36879e+06	-57689.1	955.82	-29736.9	0.000000	0.000000	6.839082	-0.003134	NaN	0.000000	0.001614	0.001685	28.0792	0.069485	0.001898	36.6043	-57.9398	-168.607	0.080328	0.837674	-0.158611	-0.159950	-0.003134	36.6043	-0.158547	-25.8297	0.000121	NaN
381	1.000000	0.876978	7.36879e+06	-57689.1	955.818	-29736.9	0.000000	0.000000	6.877048	0.013728	NaN	0.000000	0.001669	0.001706	28.0795	0.069521	0.001874	37.097	-75.8376	13.5961	0.007604	0.875644	-0.120646	-0.121980	0.013728	37.097	-0.120924	-5.043046	-0.002722	NaN
381	1.000000	0.915033	7.36879e+06	-57689.1	955.819	-29736.9	0.000000	0.000000	6.915105	0.066838	NaN	0.000000	0.001598	0.001680	28.0797	0.015964	0.001814	8.798990	-103.345	-164.755	0.111996	0.913713	-0.082592	-0.083911	0.066838	8.798990	-0.088289	-0.985040	-0.067853	NaN
381	1.000000	0.953039	7.36879e+06	-57689.1	955.818	-29736.9	0.000000	0.000000	6.953111	0.064656	NaN	0.000000	0.001605	0.001721	28.0782	0.047189	0.001817	25.9641	-123.162	11.0217	0.060014	0.951663	-0.044585	-0.045961	0.064656	25.9641	-0.046453	-0.071184	-0.908288	NaN
381	1.000000	0.991056	7.36879e+06	-57689.1	955.82	-29736.9	0.000000	0.000000	6.991127	0.055517	NaN	0.000000	0.001608	0.001700	28.0782	0.068568	0.001987	34.5015	-167.066	-169.908	0.012432	0.989762	-0.006568	-0.007862	0.055517	34.5015	-0.007775	-0.005100	-10.8862	NaN
381	2.000000	1.012219	7.36879e+06	-57689.1	955.82	-29736.9	0.000000	0.000000	7.012765	11.581	NaN	0.000000	0.001594	0.001669	28.0781	13.76	0.002061	6675.88	13.5004	2.087987	11.6369	1.011918	0.014595	0.014293	11.581	6675.88	0.013294	0.013077	885.615	53337.3
381	2.000000	1.021670	7.36879e+06	-57689.1	955.821	-29736.9	0.000000	0.000000	7.022963	29.7415	NaN	0.000000	0.001583	0.001658	28.0788	22.8167	0.001709	13347	7.322266	179.665	30.5517	1.021374	0.024046	0.023750	29.7415	13347	0.022375	0.026413	1126.04	75033
381	2.000000	1.031085	7.36879e+06	-57689.1	955.821	-29736.9	0.000000	0.000000	7.033203	49.7727	NaN	0.000000	0.001636	0.001715	28.0796	31.1753	0.001733	17984.5	5.584362	-2.325127	46.8963	1.030709	0.033461	0.033085	49.7727	17984.5	0.031386	0.043665	1139.89	78633.3
381	2.000000	1.040563	7.36879e+06	-57689.1	955.82	-29736.9	0.000000	0.000000	7.043897	79.3538	NaN	0.000000	0.001613	0.001691	28.0794	40.4389	0.001677	24117.5	3.960357	177.24	79.1103	1.040327	0.042938	0.042703	79.3538	24117.5	0.040471	0.065251	1216.14	86260.8
381	2.000000	1.050098	7.36879e+06	-57689.1	955.82	-29736.9	0.000000	0.000000	7.054658	109.155	NaN	0.000000	0.001729	0.001729	28.0795	50.6996	0.001688	30042.9	3.439896	-4.001107	109.252	1.049749	0.052474	0.052125	109.155	30042.9	0.049749	0.091638	1191.16	90672.8
381	2.000000	1.059525	7.36879e+06	-57689.1	955.821	-29736.9	0.000000	0.000000	7.065958	154.664	NaN	0.000000	0.001642	0.001765	28.0783	61.8181	0.001805	34246.8	4.602654	173.612	153.415	1.059186	0.061901	0.061562	154.664	34246.8	0.058514	0.120534	1283.15	90123.5
381	2.000000	1.069006	7.36879e+06	-57689.1	955.821	-29736.9	0.000000	0.000000	7.077501	204.763	NaN	0.000000	0.001686	0.001705	28.0782	70.5313	0.001812	38922.5	2.232330	-5.517177	198.772	1.068649	0.071382	0.071025	204.763	38922.5	0.067436	0.153816	1331.22	90671.9
381	2.000000	1.078581	7.36879e+06	-57689.1	955.821	-29736.9	0.000000	0.000000	7.089255	257.744	NaN	0.000000	0.001655	0.001723	28.0782	80.7562	0.001743	46342.3	6.894687	170.039	257.885	1.078107	0.080957	0.080483	257.744	46342.3	0.076786	0.192782	1336.97	96431.3
381	2.000000	1.088143	7.36879e+06	-57689.1	955.821	-29736.9	0.000000	0.000000	7.100942	309.365	NaN	0.000000	0.001664	0.001721	28.0783	88.8976	0.001735	51242.2	5.078983	-9.791775	311.405	1.087939	0.090519	0.090315	309.365	51242.2	0.085991	0.235153	1315.59	96544.2
381	2.000000	1.097488	7.36879e+06	-57689.1	955.82	-29736.9	0.000000	0.000000	7.113316	382.981	NaN	0.000000	0.001663	0.001736	28.0794	95.7181	0.001740	54995	5.614991	169.563	381.379	1.097174	0.099864	0.099550	382.981	54995	0.094641	0.278531	1375.01	95205
381	2.000000	1.105030	7.3688e+06	-57689.1	955.821	-29736.9	0.000000	0.000000	7.122837	431.099	NaN	0.000000	0.001658	0.001730	28.0801	105.052	0.001824	57587.3	1.188679	-6.603564	427.083	1.104749	0.107406	0.107125	431.099	57587.3	0.101791	0.316967	1360.07	93452.9