File: remote_trans/data/nanoindenter/0828-1/data/Data_2025-08-06,11h17m57s/2025-07-22_16-23-58_1_330.txt
2025-07-22, 16:23:58, 1
Index	Phase	Displacement	Time	Pos X	Pos Y	Pos Z	Rot A	Rot B	Piezo Z	Force A	Force B	Gripper	Voltage A	Voltage B	Temperature	Amplitude force	Amplitude pos	Stiffness	Phase shift	Phase excitation	Force A raw	Displacement raw	HMax	HMax raw	Real Force	Real Stiffness	Contact Depth	Area	Hardness	Reduced Mod.
[#]	[#]	[um]	[s]	[um]	[um]	[um]	[m°]	[m°]	[um]	[uN]	[uN]	[V]	[V]	[V]	[°C]	[uN]	[um]	[N/m]	[°]	[°]	[uN]	[um]	[um]	[um]	[uN]	[N/m]	[um]	[um^2]	[MPa]	[MPa]
330	1.000000	0.002929	7.36829e+06	-55139.1	955.818	-29742.5	0.000000	0.000000	6.002808	-0.014155	NaN	0.000000	0.001676	0.001669	28.0801	0.115746	0.001159	99.9085	37.6383	-167.126	0.017459	0.001655	-1.000857	-1.002131	-0.014155	99.9085	-1.000750	-2.322041E+13	6.095889E-16	NaN
330	1.000000	0.040878	7.36829e+06	-55139.1	955.818	-29742.5	0.000000	0.000000	6.040758	0.022869	NaN	0.000000	0.001670	0.001704	28.0799	0.038556	0.001963	19.6402	177.903	15.3656	0.126090	0.039501	-0.962908	-0.964284	0.022869	19.6402	-0.963781	-7.376384E+12	-3.100331E-15	NaN
330	1.000000	0.078870	7.36829e+06	-55139.1	955.818	-29742.5	0.000000	0.000000	6.078747	-0.069225	NaN	0.000000	0.001659	0.001674	28.0808	0.104866	0.002006	52.264	-128.279	-162.093	-0.003963	0.077615	-0.924916	-0.926171	-0.069225	52.264	-0.923922	-2.138740E+12	3.236707E-14	NaN
330	1.000000	0.116881	7.36829e+06	-55139.1	955.818	-29742.5	0.000000	0.000000	6.116763	0.060507	NaN	0.000000	0.001702	0.001698	28.081	0.022396	0.002038	10.9882	62.6238	12.2105	-0.000795	0.115553	-0.886905	-0.888233	0.060507	10.9882	-0.891035	-7.689608E+11	-7.868707E-14	NaN
330	1.000000	0.154880	7.36829e+06	-55139.1	955.819	-29742.5	0.000000	0.000000	6.154763	0.069153	NaN	0.000000	0.001679	0.001702	28.0815	0.058390	0.001968	29.6767	12.4156	-164.564	0.000651	0.153624	-0.848905	-0.850162	0.069153	29.6767	-0.850653	-2.185656E+11	-3.163968E-13	NaN
330	1.000000	0.192946	7.36829e+06	-55139.1	955.818	-29742.5	0.000000	0.000000	6.192825	-0.013167	NaN	0.000000	0.001692	0.001705	28.0814	0.086742	0.001968	44.0796	124.54	12.2754	-0.058618	0.191621	-0.810840	-0.812165	-0.013167	44.0796	-0.810616	-6.265076E+10	2.101719E-13	NaN
330	1.000000	0.230962	7.36829e+06	-55139.1	955.819	-29742.5	0.000000	0.000000	6.230842	0.019423	NaN	0.000000	0.001694	0.001713	28.0799	0.102863	0.002045	50.2891	48.9181	-166.094	-0.031346	0.229644	-0.772824	-0.774142	0.019423	50.2891	-0.773114	-1.939266E+10	-1.001540E-12	NaN
330	1.000000	0.268945	7.36829e+06	-55139.1	955.819	-29742.5	0.000000	0.000000	6.268824	-0.032560	NaN	0.000000	0.001666	0.001716	28.0801	0.077116	0.001961	39.3188	-175.659	13.1568	-0.046381	0.267590	-0.734840	-0.736195	-0.032560	39.3188	-0.734219	-5.731991E+9	5.680405E-12	NaN
330	1.000000	0.306965	7.36829e+06	-55139.1	955.818	-29742.5	0.000000	0.000000	6.306845	0.013216	NaN	0.000000	0.001692	0.001715	28.0798	0.084905	0.001933	43.9129	-54.0139	-168.445	0.072549	0.305650	-0.696821	-0.698135	0.013216	43.9129	-0.697046	-1.783163E+9	-7.411763E-12	NaN
330	1.000000	0.344972	7.36829e+06	-55139.1	955.818	-29742.5	0.000000	0.000000	6.344849	-0.068454	NaN	0.000000	0.001669	0.001676	28.0811	0.047139	0.001924	24.5014	-124.144	14.1288	-0.017462	0.343687	-0.658813	-0.660099	-0.068454	24.5014	-0.656718	-5.006154E+8	1.367403E-10	NaN
330	1.000000	0.383026	7.36829e+06	-55139.1	955.819	-29742.5	0.000000	0.000000	6.382904	-0.061002	NaN	0.000000	0.001668	0.001666	28.0813	0.089284	0.001959	45.5855	12.3324	-168.227	-0.053424	0.381708	-0.620759	-0.622077	-0.061002	45.5855	-0.619756	-1.556950E+8	3.918064E-10	NaN
330	1.000000	0.421037	7.36829e+06	-55139.1	955.817	-29742.5	0.000000	0.000000	6.420915	-0.042893	NaN	0.000000	0.001691	0.001630	28.0814	0.109696	0.002027	54.1134	-157.891	13.4887	-0.085052	0.419661	-0.582749	-0.584125	-0.042893	54.1134	-0.582154	-4.725580E+7	9.076696E-10	NaN
330	1.000000	0.459038	7.36829e+06	-55139.1	955.819	-29742.5	0.000000	0.000000	6.458920	0.047704	NaN	0.000000	0.001726	0.001707	28.0816	0.038185	0.002021	18.8917	-130.707	-164.254	0.024379	0.457727	-0.544748	-0.546059	0.047704	18.8917	-0.546641	-1.525550E+7	-3.126999E-9	NaN
330	1.000000	0.497103	7.36829e+06	-55139.1	955.818	-29742.5	0.000000	0.000000	6.496981	-0.045505	NaN	0.000000	0.001711	0.001726	28.0805	0.013282	0.002017	6.584289	50.8385	12.3381	0.092434	0.495676	-0.506683	-0.508109	-0.045505	6.584289	-0.501499	-3.59695e+06	1.265100E-8	NaN
330	1.000000	0.535090	7.36829e+06	-55139.1	955.818	-29742.5	0.000000	0.000000	6.534971	0.032975	NaN	0.000000	0.001699	0.001756	28.0806	0.047814	0.002042	23.4112	48.6392	-164.597	-0.023501	0.533806	-0.468696	-0.469980	0.032975	23.4112	-0.469752	-1.29399e+06	-2.548293E-8	NaN
330	1.000000	0.573088	7.36829e+06	-55139.1	955.818	-29742.5	0.000000	0.000000	6.572967	-0.022875	NaN	0.000000	0.001673	0.001718	28.0803	0.040901	0.001895	21.5878	109.893	16.048	-0.074285	0.571765	-0.430697	-0.432020	-0.022875	21.5878	-0.429903	-355373	6.436806E-8	NaN
330	1.000000	0.611125	7.3683e+06	-55139.1	955.818	-29742.5	0.000000	0.000000	6.611007	0.061989	NaN	0.000000	0.001647	0.001743	28.0816	0.128489	0.002072	62.0236	-176.065	-164.102	0.013721	0.609805	-0.392661	-0.393980	0.061989	62.0236	-0.393410	-107627	-5.759640E-7	NaN
330	1.000000	0.649103	7.3683e+06	-55139.1	955.818	-29742.5	0.000000	0.000000	6.648984	0.022915	NaN	0.000000	0.001647	0.001703	28.0815	0.083546	0.002002	41.7262	-34.8086	14.896	-0.024982	0.647792	-0.354682	-0.355994	0.022915	41.7262	-0.355094	-30259.5	-7.572997E-7	NaN
330	1.000000	0.687140	7.3683e+06	-55139.1	955.819	-29742.6	0.000000	0.000000	6.687021	0.014479	NaN	0.000000	0.001647	0.001705	28.0817	0.075009	0.001954	38.3919	179.981	-168.311	-0.025213	0.685852	-0.316645	-0.317934	0.014479	38.3919	-0.316928	-8382.8	-1.727285E-6	NaN
330	1.000000	0.725157	7.3683e+06	-55139.1	955.819	-29742.6	0.000000	0.000000	6.725038	0.040250	NaN	0.000000	0.001598	0.001673	28.0816	0.070308	0.002009	34.99	-145.286	16.4489	0.050879	0.723795	-0.278629	-0.279991	0.040250	34.99	-0.279491	-2318.98	-1.735677E-5	NaN
330	1.000000	0.763171	7.3683e+06	-55139.1	955.818	-29742.6	0.000000	0.000000	6.763050	-0.013274	NaN	0.000000	0.001611	0.001681	28.0803	0.038054	0.002029	18.758	141.02	-166.347	-0.032488	0.761834	-0.240615	-0.241951	-0.013274	18.758	-0.240084	-576.587	2.302129E-5	NaN
330	1.000000	0.801188	7.3683e+06	-55139.1	955.818	-29742.6	0.000000	0.000000	6.801068	0.002861	NaN	0.000000	0.001637	0.001691	28.0803	0.116594	0.002127	54.8096	-29.7343	14.4321	-0.053580	0.799863	-0.202598	-0.203922	0.002861	54.8096	-0.202637	-145.528	-1.965706E-5	NaN
330	1.000000	0.839187	7.3683e+06	-55139.1	955.818	-29742.6	0.000000	0.000000	6.839064	-0.059038	NaN	0.000000	0.001658	0.001719	28.0801	0.172454	0.002004	86.034	7.521392	-168.067	-0.093191	0.837912	-0.164599	-0.165874	-0.059038	86.034	-0.164084	-32.375	0.001824	NaN
330	1.000000	0.877206	7.3683e+06	-55139.1	955.818	-29742.6	0.000000	0.000000	6.877084	-0.039670	NaN	0.000000	0.001597	0.001674	28.0804	0.049054	0.002062	23.7883	29.6172	16.8963	-0.058572	0.875842	-0.126580	-0.127944	-0.039670	23.7883	-0.125329	-6.173087	0.006426	NaN
330	1.000000	0.915269	7.3683e+06	-55139.1	955.819	-29742.6	0.000000	0.000000	6.915148	0.000572	NaN	0.000000	0.001732	0.001694	28.0812	0.055388	0.002111	26.2405	165.045	-162.999	0.025244	0.913925	-0.088517	-0.089861	0.000572	26.2405	-0.088533	-0.998277	-0.000573	NaN
330	1.000000	0.953245	7.3683e+06	-55139.1	955.818	-29742.6	0.000000	0.000000	6.953124	-0.030169	NaN	0.000000	0.001755	0.001669	28.0811	0.071720	0.001964	36.5121	167.254	17.5879	-0.010629	0.951915	-0.050540	-0.051871	-0.030169	36.5121	-0.049921	-0.090748	0.332447	NaN
330	1.000000	0.991247	7.3683e+06	-55139.1	955.819	-29742.6	0.000000	0.000000	6.991127	0.001528	NaN	0.000000	0.001670	0.001684	28.0814	0.024250	0.002049	11.834	-92.7487	-164.882	-0.006556	0.989955	-0.012538	-0.013830	0.001528	11.834	-0.012635	-0.007892	-0.193657	NaN
330	2.000000	1.019349	7.3683e+06	-55139.1	955.818	-29742.6	0.000000	0.000000	7.019728	12.1546	NaN	0.000000	0.001627	0.001686	28.0799	12.5457	0.001744	7195.12	4.342619	9.749768	12.0006	1.019061	0.015563	0.015275	12.1546	7195.12	0.014296	0.014358	846.523	54860.5
330	2.000000	1.028855	7.3683e+06	-55139.1	955.819	-29742.6	0.000000	0.000000	7.030123	33.7422	NaN	0.000000	0.001639	0.001682	28.08	23.0185	0.001837	12532.6	6.372759	-175.449	34.4793	1.028390	0.025069	0.024605	33.7422	12532.6	0.023050	0.027564	1224.15	68967.6
330	2.000000	1.038214	7.3683e+06	-55139.1	955.819	-29742.6	0.000000	0.000000	7.040476	57.9167	NaN	0.000000	0.001648	0.001720	28.0797	32.883	0.001759	18690.6	6.726491	-1.578102	55.1211	1.037907	0.034428	0.034122	57.9167	18690.6	0.032104	0.045218	1280.83	80304.4
330	2.000000	1.047760	7.3683e+06	-55139.1	955.817	-29742.6	0.000000	0.000000	7.051212	86.8318	NaN	0.000000	0.001653	0.001683	28.0801	42.0166	0.001786	23523.7	6.351322	176.881	87.766	1.047401	0.043974	0.043615	86.8318	23523.7	0.041206	0.067182	1292.49	82918.7
330	2.000000	1.057190	7.3683e+06	-55139.1	955.819	-29742.6	0.000000	0.000000	7.062360	128.598	NaN	0.000000	0.001649	0.001726	28.0811	51.379	0.001884	27267.9	4.736432	-1.818995	126.402	1.056856	0.053404	0.053071	128.598	27267.9	0.049867	0.092003	1397.76	82134.2
330	2.000000	1.066736	7.3683e+06	-55139.1	955.818	-29742.6	0.000000	0.000000	7.073557	168.753	NaN	0.000000	0.001711	0.001662	28.0815	62.2147	0.001799	34573.5	7.418429	172.103	170.761	1.066421	0.062950	0.062636	168.753	34573.5	0.059289	0.123272	1368.94	89967
330	2.000000	1.076116	7.3683e+06	-55139.1	955.817	-29742.6	0.000000	0.000000	7.085199	223.725	NaN	0.000000	0.001651	0.001656	28.081	71.1858	0.001906	37341.4	3.411596	-3.955055	219.023	1.075825	0.072331	0.072039	223.725	37341.4	0.067837	0.155401	1439.66	86544
330	2.000000	1.085644	7.3683e+06	-55139.1	955.818	-29742.6	0.000000	0.000000	7.097262	285.34	NaN	0.000000	0.001647	0.001706	28.0798	80.9523	0.001737	46613.3	3.905054	173.869	282.355	1.085493	0.081858	0.081708	285.34	46613.3	0.077267	0.194901	1464.02	96466.5
330	2.000000	1.095131	7.3683e+06	-55139.1	955.818	-29742.6	0.000000	0.000000	7.109689	356.826	NaN	0.000000	0.001665	0.001654	28.08	90.4437	0.001760	51384.3	4.654935	-7.660089	350.154	1.094899	0.091345	0.091114	356.826	51384.3	0.086137	0.235855	1512.9	96667.6
330	2.000000	1.104631	7.3683e+06	-55139.1	955.819	-29742.6	0.000000	0.000000	7.122402	434.909	NaN	0.000000	0.001610	0.001675	28.08	99.47	0.001638	60723.3	5.096157	170.743	433.066	1.104359	0.100846	0.100574	434.909	60723.3	0.095474	0.282889	1537.39	104309
330	2.000000	1.114116	7.3683e+06	-55139.1	955.818	-29742.6	0.000000	0.000000	7.135386	519.974	NaN	0.000000	0.001733	0.001724	28.0799	109.352	0.001705	64143.8	5.001237	-9.608482	513.751	1.113788	0.110330	0.110002	519.974	64143.8	0.104251	0.330724	1572.23	101905
330	2.000000	1.114657	7.3683e+06	-55139.1	955.819	-29742.6	0.000000	0.000000	7.136159	525.631	NaN	0.000000	0.001744	0.001735	28.0805	109.915	0.001778	61822	6.731762	169.691	523.751	1.114265	0.110871	0.110479	525.631	61822	0.104495	0.332104	1582.73	98012