File: remote_trans/data/nanoindenter/0828-1/data/Data_2025-08-06,11h17m57s/2025-07-22_16-23-58_1_623.txt
2025-07-22, 16:23:58, 1
Index	Phase	Displacement	Time	Pos X	Pos Y	Pos Z	Rot A	Rot B	Piezo Z	Force A	Force B	Gripper	Voltage A	Voltage B	Temperature	Amplitude force	Amplitude pos	Stiffness	Phase shift	Phase excitation	Force A raw	Displacement raw	HMax	HMax raw	Real Force	Real Stiffness	Contact Depth	Area	Hardness	Reduced Mod.
[#]	[#]	[um]	[s]	[um]	[um]	[um]	[m°]	[m°]	[um]	[uN]	[uN]	[V]	[V]	[V]	[°C]	[uN]	[um]	[N/m]	[°]	[°]	[uN]	[um]	[um]	[um]	[uN]	[N/m]	[um]	[um^2]	[MPa]	[MPa]
623	1.000000	0.002295	7.37115e+06	-45939.1	1005.82	-29770.8	0.000000	0.000000	6.002812	0.042019	NaN	0.000000	0.001601	0.001739	28.0812	0.094311	0.000917	102.816	156.974	-166.546	0.046581	0.001036	-1.074615	-1.075875	0.042019	102.816	-1.074922	-2.308387E+14	-1.820270E-16	NaN
623	1.000000	0.042267	7.37115e+06	-45939.1	1005.82	-29770.8	0.000000	0.000000	6.042780	-0.055369	NaN	0.000000	0.001610	0.001729	28.0798	0.049350	0.002140	23.0628	-14.5644	-167.443	-0.004488	0.040926	-1.034643	-1.035985	-0.055369	23.0628	-1.032843	-6.276493E+13	8.821643E-16	NaN
623	1.000000	0.082233	7.37115e+06	-45939.1	1005.82	-29770.8	0.000000	0.000000	6.082749	0.001309	NaN	0.000000	0.001563	0.001743	28.0798	0.058678	0.002040	28.7702	-101.284	-161.081	0.030207	0.080916	-0.994677	-0.995995	0.001309	28.7702	-0.994711	-1.925569E+13	-6.797726E-17	NaN
623	1.000000	0.122258	7.37115e+06	-45939.1	1005.82	-29770.8	0.000000	0.000000	6.122777	0.081323	NaN	0.000000	0.001585	0.001770	28.0809	0.073519	0.002027	36.2681	-164.999	-165.769	0.037224	0.120953	-0.954652	-0.955958	0.081323	36.2681	-0.956334	-5.853852E+12	-1.389226E-14	NaN
623	1.000000	0.162265	7.37115e+06	-45939.1	1005.82	-29770.8	0.000000	0.000000	6.162780	-0.011756	NaN	0.000000	0.001640	0.001739	28.0796	0.076843	0.001916	40.0967	-23.0956	-163.953	0.076952	0.160990	-0.914645	-0.915920	-0.011756	40.0967	-0.914425	-1.591960E+12	7.384498E-15	NaN
623	1.000000	0.202295	7.37115e+06	-45939.1	1005.82	-29770.8	0.000000	0.000000	6.202812	0.039127	NaN	0.000000	0.001612	0.001766	28.0809	0.070735	0.001969	35.9279	120.594	-161.14	0.023545	0.200983	-0.874615	-0.875928	0.039127	35.9279	-0.875432	-4.730736E+11	-8.270839E-14	NaN
623	1.000000	0.242328	7.37115e+06	-45939.1	1005.82	-29770.8	0.000000	0.000000	6.242844	-0.002405	NaN	0.000000	0.001604	0.001686	28.0809	0.061614	0.002036	30.2667	-143.953	-162.183	0.102064	0.240963	-0.834582	-0.835948	-0.002405	30.2667	-0.834523	-1.321534E+11	1.819794E-14	NaN
623	1.000000	0.282335	7.37115e+06	-45939.1	1005.82	-29770.8	0.000000	0.000000	6.282852	0.036043	NaN	0.000000	0.001590	0.001742	28.0811	0.019661	0.002103	9.348041	113.204	-166.294	0.072963	0.281022	-0.794575	-0.795888	0.036043	9.348041	-0.797467	-4.154101E+10	-8.676466E-13	NaN
623	1.000000	0.322348	7.37115e+06	-45939.1	1005.82	-29770.8	0.000000	0.000000	6.322865	0.036925	NaN	0.000000	0.001610	0.001724	28.0798	0.030868	0.001977	15.6101	-145.754	-164.669	0.024967	0.321043	-0.754563	-0.755868	0.036925	15.6101	-0.756337	-1.146738E+10	-3.220027E-12	NaN
623	1.000000	0.362378	7.37115e+06	-45939.1	1005.82	-29770.8	0.000000	0.000000	6.362893	-0.012617	NaN	0.000000	0.001586	0.001740	28.0796	0.061917	0.002045	30.2698	70.9141	-162.979	0.022227	0.361069	-0.714533	-0.715841	-0.012617	30.2698	-0.714220	-3.059368E+9	4.123927E-12	NaN
623	1.000000	0.402381	7.37115e+06	-45939.1	1005.82	-29770.8	0.000000	0.000000	6.402897	0.000577	NaN	0.000000	0.001574	0.001741	28.0798	0.089031	0.001984	44.8788	-173.382	-162.389	0.044219	0.401081	-0.674529	-0.675829	0.000577	44.8788	-0.674539	-8.780165E+8	-6.568150E-13	NaN
623	1.000000	0.442387	7.37115e+06	-45939.1	1005.82	-29770.8	0.000000	0.000000	6.442903	0.014534	NaN	0.000000	0.001580	0.001703	28.081	0.064324	0.001946	33.0614	14.811	-163.929	0.092968	0.441085	-0.634523	-0.635825	0.014534	33.0614	-0.634853	-2.509874E+8	-5.790857E-11	NaN
623	1.000000	0.482416	7.37115e+06	-45939.1	1005.82	-29770.8	0.000000	0.000000	6.482930	-0.030111	NaN	0.000000	0.001583	0.001745	28.0814	0.141150	0.002036	69.3339	-134.655	-162.881	-0.038248	0.481153	-0.594495	-0.595757	-0.030111	69.3339	-0.594169	-6.920428E+7	4.351010E-10	NaN
623	1.000000	0.522431	7.37115e+06	-45939.1	1005.82	-29770.8	0.000000	0.000000	6.522951	0.107650	NaN	0.000000	0.001612	0.001735	28.0815	0.107048	0.002020	52.983	-144.767	-165.165	0.068001	0.521169	-0.554479	-0.555742	0.107650	52.983	-0.556003	-2.056237E+7	-5.235310E-9	NaN
623	1.000000	0.562455	7.37115e+06	-45939.1	1005.82	-29770.8	0.000000	0.000000	6.562971	0.004562	NaN	0.000000	0.001593	0.001745	28.0817	0.099045	0.001999	49.551	94.8845	-163.421	0.009685	0.561144	-0.514456	-0.515767	0.004562	49.551	-0.514525	-5.4628e+06	-8.350368E-10	NaN
623	1.000000	0.602483	7.37115e+06	-45939.1	1005.82	-29770.8	0.000000	0.000000	6.602999	0.030894	NaN	0.000000	0.001628	0.001694	28.0799	0.163969	0.001905	86.0894	13.8243	-164.472	-0.011893	0.601153	-0.474428	-0.475757	0.030894	86.0894	-0.474697	-1.51795e+06	-2.035228E-8	NaN
623	1.000000	0.642497	7.37115e+06	-45939.1	1005.82	-29770.8	0.000000	0.000000	6.643010	-0.055463	NaN	0.000000	0.001584	0.001743	28.0798	0.162459	0.002146	75.6969	137.433	-167.241	0.095947	0.641195	-0.434414	-0.435715	-0.055463	75.6969	-0.433864	-404300	1.371821E-7	NaN
623	1.000000	0.682476	7.37115e+06	-45939.1	1005.82	-29770.8	0.000000	0.000000	6.682994	0.048297	NaN	0.000000	0.001594	0.001720	28.0798	0.074492	0.001970	37.8075	178.754	-164.392	0.042656	0.681191	-0.394434	-0.395719	0.048297	37.8075	-0.395393	-114879	-4.204185E-7	NaN
623	1.000000	0.722529	7.37115e+06	-45939.1	1005.82	-29770.8	0.000000	0.000000	6.723046	0.052409	NaN	0.000000	0.001626	0.001730	28.0811	0.109723	0.002025	54.1772	83.5582	-167.118	-0.027892	0.721215	-0.354382	-0.355696	0.052409	54.1772	-0.355107	-30272.7	-1.731228E-6	NaN
623	1.000000	0.762541	7.37115e+06	-45939.1	1005.82	-29770.8	0.000000	0.000000	6.763056	-0.002025	NaN	0.000000	0.001605	0.001678	28.0811	0.045051	0.001898	23.7409	-147.961	-162.399	0.010931	0.761250	-0.314370	-0.315661	-0.002025	23.7409	-0.314306	-7668.32	2.640221E-7	NaN
623	1.000000	0.802544	7.37115e+06	-45939.1	1005.82	-29770.8	0.000000	0.000000	6.803054	-0.115760	NaN	0.000000	0.001611	0.001793	28.0812	0.046426	0.001987	23.3707	38.6219	-167.087	-0.079606	0.801256	-0.274367	-0.275654	-0.115760	23.3707	-0.270652	-1703.94	6.793663E-5	NaN
623	1.000000	0.842595	7.37115e+06	-45939.1	1005.82	-29770.8	0.000000	0.000000	6.843110	-0.025675	NaN	0.000000	0.001554	0.001765	28.0811	0.074799	0.001989	37.5997	-174.527	-161.732	0.017133	0.841264	-0.234315	-0.235647	-0.025675	37.5997	-0.233803	-459.666	5.585479E-5	NaN
623	1.000000	0.882564	7.37115e+06	-45939.1	1005.82	-29770.8	0.000000	0.000000	6.883079	-0.007391	NaN	0.000000	0.001607	0.001720	28.0799	0.076315	0.002088	36.5529	48.9392	-166.39	-0.017412	0.881340	-0.194347	-0.195570	-0.007391	36.5529	-0.194195	-105.648	6.995556E-5	NaN
623	1.000000	0.922644	7.37115e+06	-45939.1	1005.82	-29770.8	0.000000	0.000000	6.923158	-0.022661	NaN	0.000000	0.001552	0.001746	28.08	0.090719	0.002063	43.9818	143.779	-164.912	-0.024753	0.921291	-0.154267	-0.155619	-0.022661	43.9818	-0.153880	-21.3012	0.001064	NaN
623	1.000000	0.962652	7.37115e+06	-45939.1	1005.82	-29770.8	0.000000	0.000000	6.963168	0.026141	NaN	0.000000	0.001556	0.001761	28.0798	0.095453	0.001876	50.8755	55.7628	-161.945	0.077603	0.961296	-0.114259	-0.115614	0.026141	50.8755	-0.114644	-3.756315	-0.006959	NaN
623	1.000000	1.002613	7.37115e+06	-45939.1	1005.82	-29770.8	0.000000	0.000000	7.003132	0.078848	NaN	0.000000	0.001649	0.001738	28.0816	0.034660	0.002040	16.9933	-66.7194	-164.398	0.075660	1.001317	-0.074298	-0.075593	0.078848	16.9933	-0.077778	-0.544126	-0.144908	NaN
623	1.000000	1.042635	7.37115e+06	-45939.1	1005.82	-29770.8	0.000000	0.000000	7.043151	0.001241	NaN	0.000000	0.001576	0.001719	28.0814	0.048466	0.001798	26.9575	-23.6362	-165.232	0.019126	1.041323	-0.034275	-0.035587	0.001241	26.9575	-0.034310	-0.030565	-0.040617	NaN
623	2.000000	1.082084	7.37115e+06	-45939.1	1005.82	-29770.8	0.000000	0.000000	7.083006	9.880873	NaN	0.000000	0.001573	0.001710	28.0811	9.016895	0.001610	5601.6	11.3758	-168.821	10.0654	1.081210	0.005173	0.004300	9.880873	5601.6	0.003850	0.003108	3178.95	91797.3
623	2.000000	1.092104	7.37115e+06	-45939.1	1005.82	-29770.8	0.000000	0.000000	7.093850	29.9273	NaN	0.000000	0.001570	0.001722	28.0802	20.4929	0.001734	11815.2	5.576530	-177.382	28.616	1.091820	0.015193	0.014910	29.9273	11815.2	0.013294	0.013077	2288.56	94397.3
623	2.000000	1.102164	7.37115e+06	-45939.1	1005.82	-29770.8	0.000000	0.000000	7.104497	44.2185	NaN	0.000000	0.001587	0.001730	28.0803	29.4731	0.001851	15925.2	7.147153	-179.391	46.3687	1.101875	0.025253	0.024965	44.2185	15925.2	0.023171	0.027772	1592.2	87308
623	2.000000	1.112074	7.37115e+06	-45939.1	1005.82	-29770.8	0.000000	0.000000	7.115832	78.8667	NaN	0.000000	0.001606	0.001747	28.0801	37.6034	0.001765	21299.3	-0.772863	-175.297	77.6575	1.111728	0.035164	0.034818	78.8667	21299.3	0.032387	0.045836	1720.62	90893.8
623	2.000000	1.122025	7.37115e+06	-45939.1	1005.82	-29770.8	0.000000	0.000000	7.127287	115.46	NaN	0.000000	0.001602	0.001768	28.0802	47.0349	0.001781	26408.9	5.737519	176.92	112.927	1.121741	0.045114	0.044830	115.46	26408.9	0.041835	0.068858	1676.79	91948.8
623	2.000000	1.132132	7.37115e+06	-45939.1	1005.82	-29770.8	0.000000	0.000000	7.139087	156.63	NaN	0.000000	0.001602	0.001760	28.0814	55.62	0.001751	31766	2.638988	178.016	158.623	1.131763	0.055222	0.054852	156.63	31766	0.051524	0.097181	1611.73	93098.9
623	2.000000	1.142009	7.37115e+06	-45939.1	1005.82	-29770.8	0.000000	0.000000	7.150707	199.058	NaN	0.000000	0.001653	0.001736	28.0813	66.164	0.001751	37777.3	4.576282	174.819	194.86	1.141822	0.065098	0.064912	199.058	37777.3	0.061146	0.129950	1531.8	95744.9
623	2.000000	1.152041	7.37115e+06	-45939.1	1005.82	-29770.8	0.000000	0.000000	7.163239	259.862	NaN	0.000000	0.001606	0.001757	28.0813	75.111	0.001865	40275.4	5.975496	174.402	261.363	1.151708	0.075130	0.074798	259.862	40275.4	0.070291	0.165274	1572.32	90513.1
623	2.000000	1.161957	7.37115e+06	-45939.1	1005.82	-29770.8	0.000000	0.000000	7.175795	324.078	NaN	0.000000	0.001594	0.001779	28.0802	86.3713	0.001839	46956	2.941281	174.657	320.686	1.161871	0.085046	0.084960	324.078	46956	0.079870	0.206539	1569.09	94398.3
623	2.000000	1.171973	7.37115e+06	-45939.1	1005.82	-29770.8	0.000000	0.000000	7.188748	395.516	NaN	0.000000	0.001542	0.001734	28.0804	94.9815	0.001831	51887.3	5.803779	171.986	393.214	1.171607	0.095062	0.094696	395.516	51887.3	0.089345	0.251566	1572.21	94516.6
623	2.000000	1.180451	7.37115e+06	-45939.1	1005.82	-29770.8	0.000000	0.000000	7.200039	463.973	NaN	0.000000	0.001630	0.001680	28.0804	100.801	0.001831	55054.7	1.215089	-4.096504	458.285	1.180158	0.103540	0.103247	463.973	55054.7	0.097219	0.292122	1588.28	93064.8