File: remote_trans/data/nanoindenter/0828-1/data/Data_2025-08-06,11h17m57s/2025-07-22_16-23-58_1_599.txt
2025-07-22, 16:23:58, 1
Index	Phase	Displacement	Time	Pos X	Pos Y	Pos Z	Rot A	Rot B	Piezo Z	Force A	Force B	Gripper	Voltage A	Voltage B	Temperature	Amplitude force	Amplitude pos	Stiffness	Phase shift	Phase excitation	Force A raw	Displacement raw	HMax	HMax raw	Real Force	Real Stiffness	Contact Depth	Area	Hardness	Reduced Mod.
[#]	[#]	[um]	[s]	[um]	[um]	[um]	[m°]	[m°]	[um]	[uN]	[uN]	[V]	[V]	[V]	[°C]	[uN]	[um]	[N/m]	[°]	[°]	[uN]	[um]	[um]	[um]	[uN]	[N/m]	[um]	[um^2]	[MPa]	[MPa]
599	1.000000	0.002941	7.37091e+06	-47139.1	1005.82	-29767	0.000000	0.000000	6.002765	-0.000988	NaN	0.000000	0.001509	0.001774	28.0796	0.121158	0.001088	111.331	166.444	-167.637	0.028492	0.001714	-1.029977	-1.031205	-0.000988	111.331	-1.029971	-5.742288E+13	1.721066E-17	NaN
599	1.000000	0.042906	7.37091e+06	-47139.1	1005.82	-29767	0.000000	0.000000	6.042729	-0.043762	NaN	0.000000	0.001524	0.001755	28.0794	0.046981	0.001857	25.3002	123.272	-166.667	-0.080566	0.041682	-0.990012	-0.991237	-0.043762	25.3002	-0.988715	-1.598838E+13	2.737136E-15	NaN
599	1.000000	0.082925	7.37091e+06	-47139.1	1005.82	-29767	0.000000	0.000000	6.082749	-0.007670	NaN	0.000000	0.001490	0.001749	28.0806	0.093069	0.001993	46.7069	-116.393	-163.408	-0.074829	0.081654	-0.949993	-0.951264	-0.007670	46.7069	-0.949870	-4.789326E+12	1.601483E-15	NaN
599	1.000000	0.122955	7.37091e+06	-47139.1	1005.82	-29767	0.000000	0.000000	6.122782	0.074369	NaN	0.000000	0.001495	0.001774	28.0807	0.012228	0.001953	6.262109	-26.6957	-164.783	0.055939	0.121612	-0.909964	-0.911306	0.074369	6.262109	-0.918871	-1.827936E+12	-4.068496E-14	NaN
599	1.000000	0.162977	7.37091e+06	-47139.1	1005.82	-29767	0.000000	0.000000	6.162801	-0.015192	NaN	0.000000	0.001483	0.001757	28.0806	0.086689	0.002039	42.5226	-157.932	-166.186	-0.014987	0.161633	-0.869941	-0.871286	-0.015192	42.5226	-0.869673	-3.953874E+11	3.842229E-14	NaN
599	1.000000	0.202972	7.37091e+06	-47139.1	1005.82	-29767	0.000000	0.000000	6.202795	-0.014130	NaN	0.000000	0.001588	0.001775	28.0796	0.040481	0.002057	19.6809	-12.1527	-164.057	-0.069628	0.201723	-0.829947	-0.831195	-0.014130	19.6809	-0.829408	-1.126586E+11	1.254274E-13	NaN
599	1.000000	0.242982	7.37091e+06	-47139.1	1005.82	-29767	0.000000	0.000000	6.242806	-0.020125	NaN	0.000000	0.001578	0.001749	28.0795	0.026467	0.002084	12.6973	-51.7154	-166.165	-0.048482	0.241703	-0.789936	-0.791216	-0.020125	12.6973	-0.788747	-3.162799E+10	6.363182E-13	NaN
599	1.000000	0.283027	7.37091e+06	-47139.1	1005.82	-29767	0.000000	0.000000	6.282849	-0.037731	NaN	0.000000	0.001600	0.001793	28.0794	0.032748	0.002187	14.9737	142.322	-163.9	0.024996	0.281720	-0.749892	-0.751198	-0.037731	14.9737	-0.748002	-8.831244E+9	4.272449E-12	NaN
599	1.000000	0.323039	7.37091e+06	-47139.1	1005.82	-29767	0.000000	0.000000	6.322863	-0.009346	NaN	0.000000	0.001629	0.001766	28.0798	0.056847	0.001987	28.6085	24.6184	-163.58	-0.018176	0.321781	-0.709879	-0.711137	-0.009346	28.6085	-0.709634	-2.648845E+9	3.528204E-12	NaN
599	1.000000	0.363060	7.37091e+06	-47139.1	1005.82	-29767	0.000000	0.000000	6.362885	0.023048	NaN	0.000000	0.001526	0.001779	28.0813	0.126825	0.001918	66.1338	-146.594	-170.862	0.030353	0.361712	-0.669858	-0.671207	0.023048	66.1338	-0.670120	-7.638885E+8	-3.017151E-11	NaN
599	1.000000	0.403047	7.37091e+06	-47139.1	1005.82	-29767	0.000000	0.000000	6.402869	-0.058148	NaN	0.000000	0.001531	0.001740	28.0809	0.084232	0.001952	43.1559	31.9242	-162.744	-0.076735	0.401789	-0.629871	-0.631130	-0.058148	43.1559	-0.628861	-2.076717E+8	2.799976E-10	NaN
599	1.000000	0.443086	7.37091e+06	-47139.1	1005.82	-29767	0.000000	0.000000	6.442910	-0.000652	NaN	0.000000	0.001552	0.001792	28.0804	0.030197	0.001910	15.8142	-58.7726	-166.729	0.037191	0.441835	-0.589832	-0.591084	-0.000652	15.8142	-0.589801	-6.024570E+7	1.082485E-11	NaN
599	1.000000	0.483076	7.37091e+06	-47139.1	1005.82	-29767	0.000000	0.000000	6.482901	0.008184	NaN	0.000000	0.001564	0.001759	28.0795	0.084331	0.002040	41.3483	-168.664	-168.555	-0.072385	0.481755	-0.549842	-0.551164	0.008184	41.3483	-0.549991	-1.697575E+7	-4.820811E-10	NaN
599	1.000000	0.523145	7.37091e+06	-47139.1	1005.82	-29767	0.000000	0.000000	6.522971	0.043070	NaN	0.000000	0.001559	0.001837	28.0794	0.039738	0.002036	19.5131	81.0294	-165.768	0.132633	0.521810	-0.509773	-0.511108	0.043070	19.5131	-0.511429	-4.94667e+06	-8.706779E-9	NaN
599	1.000000	0.563143	7.37091e+06	-47139.1	1005.82	-29767	0.000000	0.000000	6.562965	-0.039958	NaN	0.000000	0.001533	0.001775	28.0793	0.050482	0.002030	24.8629	-123.99	-164.274	-0.070356	0.561851	-0.469776	-0.471067	-0.039958	24.8629	-0.468570	-1.24553e+06	3.208136E-8	NaN
599	1.000000	0.603185	7.37091e+06	-47139.1	1005.82	-29767	0.000000	0.000000	6.603009	-0.005929	NaN	0.000000	0.001572	0.001752	28.08	0.073819	0.001929	38.27	-3.194834	-165.562	0.024682	0.601834	-0.429734	-0.431085	-0.005929	38.27	-0.429617	-352085	1.684026E-8	NaN
599	1.000000	0.643185	7.37091e+06	-47139.1	1005.82	-29767	0.000000	0.000000	6.643008	-0.011692	NaN	0.000000	0.001537	0.001776	28.0805	0.045892	0.001908	24.0481	-115.738	-167.417	-0.029197	0.641843	-0.389734	-0.391076	-0.011692	24.0481	-0.389369	-94219.7	1.240913E-7	NaN
599	1.000000	0.683173	7.37091e+06	-47139.1	1005.82	-29767	0.000000	0.000000	6.682997	-0.002410	NaN	0.000000	0.001559	0.001778	28.0805	0.121193	0.001887	64.2375	-143.498	-166.009	-0.015251	0.681898	-0.349745	-0.351020	-0.002410	64.2375	-0.349717	-25286.8	9.532185E-8	NaN
599	1.000000	0.723194	7.37091e+06	-47139.1	1005.82	-29767	0.000000	0.000000	6.723015	-0.050394	NaN	0.000000	0.001575	0.001769	28.0805	0.029784	0.002016	14.773	-42.1924	-165.228	-0.007867	0.721860	-0.309725	-0.311058	-0.050394	14.773	-0.307167	-6013.01	8.380792E-6	NaN
599	1.000000	0.763236	7.37091e+06	-47139.1	1005.82	-29767	0.000000	0.000000	6.763059	-0.019137	NaN	0.000000	0.001511	0.001781	28.0792	0.023839	0.002057	11.5877	-117.362	-168.338	0.001619	0.761915	-0.269682	-0.271004	-0.019137	11.5877	-0.268444	-1577.16	1.213379E-5	NaN
599	1.000000	0.803244	7.37091e+06	-47139.1	1005.82	-29767	0.000000	0.000000	6.803069	0.023310	NaN	0.000000	0.001551	0.001797	28.0791	0.009003	0.001825	4.932059	-96.5563	-168.487	0.012079	0.801938	-0.229675	-0.230981	0.023310	4.932059	-0.233219	-450.051	-5.179325E-5	NaN
599	1.000000	0.843227	7.37091e+06	-47139.1	1005.82	-29767	0.000000	0.000000	6.843052	0.025057	NaN	0.000000	0.001532	0.001773	28.0793	0.014122	0.002045	6.906014	-68.4013	-164.513	0.011947	0.841966	-0.189692	-0.190952	0.025057	6.906014	-0.192413	-98.6851	-0.000254	NaN
599	1.000000	0.883276	7.37091e+06	-47139.1	1005.82	-29767	0.000000	0.000000	6.883099	-0.018394	NaN	0.000000	0.001556	0.001765	28.0806	0.032456	0.002019	16.0756	-121.614	-168.254	-0.001241	0.881918	-0.149643	-0.151000	-0.018394	16.0756	-0.148785	-17.211	0.001069	NaN
599	1.000000	0.923295	7.37091e+06	-47139.1	1005.82	-29767	0.000000	0.000000	6.923117	-0.062588	NaN	0.000000	0.001548	0.001805	28.0806	0.106905	0.001912	55.8984	90.1497	-163.691	-0.062604	0.921964	-0.109623	-0.110954	-0.062588	55.8984	-0.108784	-2.832393	0.022097	NaN
599	1.000000	0.963308	7.37091e+06	-47139.1	1005.82	-29767	0.000000	0.000000	6.963132	-0.017962	NaN	0.000000	0.001564	0.001792	28.0807	0.074851	0.001960	38.1858	-164.015	-163.607	-0.021595	0.961970	-0.069610	-0.070949	-0.017962	38.1858	-0.069257	-0.325797	0.055132	NaN
599	1.000000	1.003316	7.37091e+06	-47139.1	1005.82	-29767	0.000000	0.000000	7.003140	0.005752	NaN	0.000000	0.001531	0.001796	28.0806	0.078402	0.001938	40.4472	90.0934	-166.331	-0.008588	1.001983	-0.029603	-0.030936	0.005752	40.4472	-0.029709	-0.022588	-0.254652	NaN
599	2.000000	1.042743	7.37091e+06	-47139.1	1005.82	-29767	0.000000	0.000000	7.042920	8.589013	NaN	0.000000	0.001551	0.001797	28.0791	8.456940	0.001491	5670.88	14.7636	-178.764	8.160541	1.041958	0.009825	0.009039	8.589013	5670.88	0.008689	0.007760	1106.79	58814.6
599	2.000000	1.052857	7.37091e+06	-47139.1	1005.82	-29767	0.000000	0.000000	7.053633	23.1488	NaN	0.000000	0.001566	0.001755	28.0793	18.5193	0.001663	11137.5	7.969944	179.837	22.9112	1.052512	0.019939	0.019594	23.1488	11137.5	0.018380	0.020060	1153.97	71844.4
599	2.000000	1.062855	7.37092e+06	-47139.1	1005.82	-29767	0.000000	0.000000	7.064565	45.8797	NaN	0.000000	0.001544	0.001771	28.0801	30.1451	0.001881	16023	6.512816	178.947	46.6162	1.062508	0.029936	0.029589	45.8797	16023	0.027789	0.036285	1264.43	76852.1
599	2.000000	1.072799	7.37092e+06	-47139.1	1005.82	-29767	0.000000	0.000000	7.075644	73.4713	NaN	0.000000	0.001594	0.001781	28.0809	39.076	0.001825	21411.3	5.226468	177.314	72.1641	1.072501	0.039881	0.039583	73.4713	21411.3	0.037307	0.057255	1283.23	81754.2
599	2.000000	1.082817	7.37092e+06	-47139.1	1005.82	-29767	0.000000	0.000000	7.087429	116.467	NaN	0.000000	0.001542	0.001787	28.0808	46.7971	0.001777	26340.6	5.896468	175.799	117.295	1.082406	0.049898	0.049487	116.467	26340.6	0.046582	0.082142	1417.88	83968.6
599	2.000000	1.092811	7.37092e+06	-47139.1	1005.82	-29767	0.000000	0.000000	7.099087	156.928	NaN	0.000000	0.001561	0.001805	28.0804	57.6349	0.001924	29954.9	5.507642	174.391	158.624	1.092469	0.059893	0.059551	156.928	29954.9	0.055964	0.111733	1404.48	81874.7
599	2.000000	1.102743	7.37092e+06	-47139.1	1005.82	-29767	0.000000	0.000000	7.111143	208.616	NaN	0.000000	0.001627	0.001804	28.0804	65.2584	0.001868	34932	1.103642	176.836	206.959	1.102526	0.069824	0.069607	208.616	34932	0.065345	0.145669	1432.12	83620.5
599	2.000000	1.112678	7.37092e+06	-47139.1	1005.82	-29767	0.000000	0.000000	7.123556	268.862	NaN	0.000000	0.001548	0.001777	28.0791	74.8133	0.001854	40358.6	2.070075	175.164	264.905	1.112400	0.079760	0.079482	268.862	40358.6	0.074763	0.184002	1461.19	85960.3
599	2.000000	1.122666	7.37092e+06	-47139.1	1005.82	-29767	0.000000	0.000000	7.136187	333.183	NaN	0.000000	0.001577	0.001805	28.0793	83.023	0.001817	45686.6	3.028251	173.344	329.973	1.122475	0.089747	0.089556	333.183	45686.6	0.084277	0.226967	1467.98	87615.4
599	2.000000	1.132717	7.37092e+06	-47139.1	1005.82	-29767	0.000000	0.000000	7.149146	403.903	NaN	0.000000	0.001556	0.001786	28.0793	92.2561	0.001779	51860.2	5.761895	169.919	401.976	1.132363	0.099798	0.099444	403.903	51860.2	0.093957	0.274974	1468.88	90357
599	2.000000	1.141124	7.37092e+06	-47139.1	1005.82	-29767	0.000000	0.000000	7.160208	468.477	NaN	0.000000	0.001528	0.001800	28.0803	96.5952	0.001678	57567.2	-1.883123	-3.203682	462.967	1.140900	0.108205	0.107982	468.477	57567.2	0.102102	0.318688	1470.02	93167.7