File: remote_trans/data/nanoindenter/0828-1/data/Data_2025-08-06,11h17m57s/2025-07-22_16-23-58_1_226.txt
2025-07-22, 16:23:58, 1
Index	Phase	Displacement	Time	Pos X	Pos Y	Pos Z	Rot A	Rot B	Piezo Z	Force A	Force B	Gripper	Voltage A	Voltage B	Temperature	Amplitude force	Amplitude pos	Stiffness	Phase shift	Phase excitation	Force A raw	Displacement raw	HMax	HMax raw	Real Force	Real Stiffness	Contact Depth	Area	Hardness	Reduced Mod.
[#]	[#]	[um]	[s]	[um]	[um]	[um]	[m°]	[m°]	[um]	[uN]	[uN]	[V]	[V]	[V]	[°C]	[uN]	[um]	[N/m]	[°]	[°]	[uN]	[um]	[um]	[um]	[uN]	[N/m]	[um]	[um^2]	[MPa]	[MPa]
226	1.000000	0.002641	7.36726e+06	-49939.1	955.819	-29757.6	0.000000	0.000000	6.002831	-0.047689	NaN	0.000000	0.001591	0.001696	28.0803	0.019053	0.000956	19.9234	99.9976	-159.919	-0.019902	0.001396	-1.076210	-1.077456	-0.047689	19.9234	-1.074415	-2.272489E+14	2.098546E-16	NaN
226	1.000000	0.042546	7.36726e+06	-49939.1	955.817	-29757.6	0.000000	0.000000	6.042734	-0.089349	NaN	0.000000	0.001554	0.001735	28.0788	0.077898	0.002072	37.602	-83.6852	-166.594	-0.027903	0.041276	-1.036306	-1.037576	-0.089349	37.602	-1.034524	-6.611876E+13	1.351334E-15	NaN
226	1.000000	0.082582	7.36726e+06	-49939.1	955.819	-29757.6	0.000000	0.000000	6.082772	-0.039485	NaN	0.000000	0.001564	0.001739	28.0792	0.051182	0.001943	26.3404	6.997240	-162.538	0.029703	0.081321	-0.996270	-0.997530	-0.039485	26.3404	-0.995146	-1.951674E+13	2.023139E-15	NaN
226	1.000000	0.122595	7.36726e+06	-49939.1	955.818	-29757.6	0.000000	0.000000	6.122785	-0.059984	NaN	0.000000	0.001587	0.001738	28.0797	0.053845	0.002017	26.6981	72.1236	-165.334	-0.125003	0.121241	-0.956257	-0.957611	-0.059984	26.6981	-0.954571	-5.542121E+12	1.082331E-14	NaN
226	1.000000	0.162644	7.36726e+06	-49939.1	955.818	-29757.6	0.000000	0.000000	6.162833	-0.085358	NaN	0.000000	0.001565	0.001714	28.0808	0.143847	0.001925	74.7325	-54.0353	-163.704	0.052175	0.161250	-0.916207	-0.917602	-0.085358	74.7325	-0.915351	-1.638430E+12	5.209715E-14	NaN
226	1.000000	0.202630	7.36726e+06	-49939.1	955.818	-29757.6	0.000000	0.000000	6.202823	0.030200	NaN	0.000000	0.001571	0.001740	28.0807	0.105293	0.001974	53.3333	-28.621	-166.187	0.017740	0.201233	-0.876221	-0.877619	0.030200	53.3333	-0.876646	-4.913030E+11	-6.146906E-14	NaN
226	1.000000	0.242623	7.36726e+06	-49939.1	955.818	-29757.6	0.000000	0.000000	6.242812	-0.083580	NaN	0.000000	0.001575	0.001752	28.0803	0.095861	0.001925	49.8093	172.743	-166.102	0.009454	0.241309	-0.836228	-0.837543	-0.083580	49.8093	-0.834970	-1.340092E+11	6.236888E-13	NaN
226	1.000000	0.282657	7.36726e+06	-49939.1	955.819	-29757.6	0.000000	0.000000	6.282847	-0.035059	NaN	0.000000	0.001592	0.001734	28.0804	0.032797	0.001979	16.5723	-150.444	-166.897	-0.078843	0.281398	-0.796195	-0.797454	-0.035059	16.5723	-0.794608	-3.798916E+10	9.228601E-13	NaN
226	1.000000	0.322634	7.36726e+06	-49939.1	955.819	-29757.6	0.000000	0.000000	6.322824	-0.050913	NaN	0.000000	0.001602	0.001715	28.0791	0.084318	0.002002	42.1078	-97.9359	-162.891	-0.066214	0.321351	-0.756217	-0.757501	-0.050913	42.1078	-0.755310	-1.110434E+10	4.584992E-12	NaN
226	1.000000	0.362679	7.36726e+06	-49939.1	955.819	-29757.7	0.000000	0.000000	6.362871	-0.011823	NaN	0.000000	0.001559	0.001689	28.0792	0.070157	0.001955	35.8838	-11.7741	-166.136	0.006393	0.361445	-0.716172	-0.717407	-0.011823	35.8838	-0.715925	-3.227720E+9	3.662931E-12	NaN
226	1.000000	0.402706	7.36726e+06	-49939.1	955.819	-29757.7	0.000000	0.000000	6.402895	-0.062496	NaN	0.000000	0.001603	0.001678	28.0788	0.031103	0.001843	16.8776	-82.0946	-164.027	0.012197	0.401410	-0.676146	-0.677441	-0.062496	16.8776	-0.673369	-8.462341E+8	7.385183E-11	NaN
226	1.000000	0.442724	7.36726e+06	-49939.1	955.819	-29757.7	0.000000	0.000000	6.442916	-0.008551	NaN	0.000000	0.001569	0.001674	28.0798	0.062769	0.001975	31.7781	31.8933	-164.746	-0.053957	0.441390	-0.636127	-0.637461	-0.008551	31.7781	-0.635926	-2.596436E+8	3.293408E-11	NaN
226	1.000000	0.482723	7.36726e+06	-49939.1	955.819	-29757.7	0.000000	0.000000	6.482910	-0.119718	NaN	0.000000	0.001552	0.001662	28.0798	0.144490	0.001956	73.8629	28.1214	-165.967	-0.044917	0.481475	-0.596129	-0.597377	-0.119718	73.8629	-0.594913	-7.085797E+7	1.689544E-9	NaN
226	1.000000	0.522774	7.36726e+06	-49939.1	955.818	-29757.7	0.000000	0.000000	6.522965	-0.031084	NaN	0.000000	0.001567	0.001695	28.0801	0.068228	0.001987	34.3415	83.5369	-166.06	-0.044375	0.521397	-0.556078	-0.557455	-0.031084	34.3415	-0.555399	-2.017015E+7	1.541086E-9	NaN
226	1.000000	0.562783	7.36726e+06	-49939.1	955.817	-29757.7	0.000000	0.000000	6.562973	-0.045244	NaN	0.000000	0.001581	0.001666	28.0805	0.076387	0.002029	37.6478	-120.48	-166.967	-0.092980	0.561520	-0.516069	-0.517332	-0.045244	37.6478	-0.515167	-5.5765e+06	8.113330E-9	NaN
226	1.000000	0.602796	7.36726e+06	-49939.1	955.818	-29757.7	0.000000	0.000000	6.602988	0.006078	NaN	0.000000	0.001634	0.001702	28.0792	0.059735	0.001982	30.1462	157.631	-166.568	0.009029	0.601444	-0.476056	-0.477407	0.006078	30.1462	-0.476207	-1.59371e+06	-3.814036E-9	NaN
226	1.000000	0.642810	7.36726e+06	-49939.1	955.818	-29757.7	0.000000	0.000000	6.643002	-0.018667	NaN	0.000000	0.001645	0.001704	28.0797	0.091483	0.002021	45.2667	-82.0236	-163.258	-0.010862	0.641464	-0.436041	-0.437387	-0.018667	45.2667	-0.435732	-429631	4.344799E-8	NaN
226	1.000000	0.682827	7.36726e+06	-49939.1	955.818	-29757.7	0.000000	0.000000	6.683018	-0.016827	NaN	0.000000	0.001617	0.001663	28.0789	0.029672	0.001922	15.4374	-138.947	-163.441	-0.044019	0.681490	-0.396025	-0.397361	-0.016827	15.4374	-0.395207	-114181	1.473739E-7	NaN
226	1.000000	0.722855	7.36726e+06	-49939.1	955.818	-29757.7	0.000000	0.000000	6.723047	-0.013674	NaN	0.000000	0.001642	0.001659	28.0803	0.021316	0.001974	10.8011	62.7956	-168.634	-0.033271	0.721509	-0.355996	-0.357342	-0.013674	10.8011	-0.355047	-30211.6	4.526079E-7	NaN
226	1.000000	0.762864	7.36726e+06	-49939.1	955.819	-29757.7	0.000000	0.000000	6.763054	-0.046217	NaN	0.000000	0.001637	0.001632	28.0804	0.119269	0.002028	58.7983	-6.014299	-168.817	-0.066179	0.761573	-0.315988	-0.317278	-0.046217	58.7983	-0.315398	-7958.42	5.807280E-6	NaN
226	1.000000	0.802862	7.36726e+06	-49939.1	955.819	-29757.7	0.000000	0.000000	6.803053	-0.038628	NaN	0.000000	0.001625	0.001637	28.0805	0.064689	0.002035	31.794	73.5958	-164.867	-0.057104	0.801528	-0.275989	-0.277324	-0.038628	31.794	-0.275078	-1988.77	1.942287E-5	NaN
226	1.000000	0.842882	7.36726e+06	-49939.1	955.819	-29757.7	0.000000	0.000000	6.843071	-0.068405	NaN	0.000000	0.001567	0.001667	28.0791	0.057342	0.001904	30.1136	-2.519275	-166.098	-0.040469	0.841615	-0.235970	-0.237237	-0.068405	30.1136	-0.234266	-467.438	0.000146	NaN
226	1.000000	0.882898	7.36726e+06	-49939.1	955.819	-29757.7	0.000000	0.000000	6.883088	-0.042405	NaN	0.000000	0.001627	0.001684	28.0789	0.096142	0.002082	46.1704	75.8873	-163.431	-0.016950	0.881587	-0.195953	-0.197265	-0.042405	46.1704	-0.195265	-110.048	0.000385	NaN
226	1.000000	0.922938	7.36726e+06	-49939.1	955.818	-29757.7	0.000000	0.000000	6.923129	-0.028320	NaN	0.000000	0.001566	0.001614	28.079	0.065159	0.002106	30.9408	-72.0674	-168.275	-0.031409	0.921613	-0.155914	-0.157238	-0.028320	30.9408	-0.155227	-22.5251	0.001257	NaN
226	1.000000	0.962989	7.36726e+06	-49939.1	955.818	-29757.7	0.000000	0.000000	6.963181	-0.001585	NaN	0.000000	0.001587	0.001692	28.0789	0.090070	0.001923	46.8365	42.3473	-167.784	0.030609	0.961650	-0.115863	-0.117202	-0.001585	46.8365	-0.115838	-3.975037	0.000399	NaN
226	1.000000	1.002947	7.36726e+06	-49939.1	955.818	-29757.7	0.000000	0.000000	7.003137	-0.041855	NaN	0.000000	0.001567	0.001725	28.0802	0.030775	0.002071	14.8602	-153.224	-166.145	-0.003876	1.001614	-0.075905	-0.077237	-0.041855	14.8602	-0.073792	-0.429681	0.097411	NaN
226	1.000000	1.042972	7.36726e+06	-49939.1	955.818	-29757.7	0.000000	0.000000	7.043163	-0.045007	NaN	0.000000	0.001598	0.001707	28.0802	0.032877	0.001942	16.9289	158.786	-165.984	-0.093491	1.041684	-0.035879	-0.037167	-0.045007	16.9289	-0.033885	-0.029704	1.515188	NaN
226	1.000000	1.082970	7.36726e+06	-49939.1	955.817	-29757.7	0.000000	0.000000	7.083223	1.471167	NaN	0.000000	0.001617	0.001731	28.0802	2.360666	0.001973	1196.57	21.391	-165.976	0.954105	1.081714	0.004119	0.002863	1.471167	1196.57	0.003196	0.002546	577.848	21666.3
226	2.000000	1.097499	7.36726e+06	-49939.1	955.819	-29757.7	0.000000	0.000000	7.098816	27.3776	NaN	0.000000	0.001639	0.001725	28.0816	18.1035	0.001870	9682	4.613180	-173.404	26.3705	1.097233	0.018647	0.018382	27.3776	9682	0.016526	0.017375	1575.71	67108.7
226	2.000000	1.107440	7.36726e+06	-49939.1	955.817	-29757.7	0.000000	0.000000	7.110497	69.6716	NaN	0.000000	0.001652	0.001728	28.0788	28.9968	0.001731	16751.5	3.331817	-178.74	67.4627	1.107203	0.028588	0.028352	69.6716	16751.5	0.025469	0.031874	2185.81	85724.6
226	2.000000	1.117422	7.36726e+06	-49939.1	955.819	-29757.7	0.000000	0.000000	7.122660	122.699	NaN	0.000000	0.001650	0.001684	28.0791	38.9509	0.001894	20569.8	5.909630	177.707	120.649	1.117117	0.038571	0.038265	122.699	20569.8	0.034097	0.049664	2470.56	84329.9
226	2.000000	1.127443	7.36726e+06	-49939.1	955.818	-29757.7	0.000000	0.000000	7.135571	192.994	NaN	0.000000	0.001653	0.001641	28.079	48.4885	0.001797	26977.2	2.506703	178.312	192.402	1.127225	0.048591	0.048373	192.994	26977.2	0.043226	0.072630	2657.21	91455.9
226	2.000000	1.137356	7.36726e+06	-49939.1	955.818	-29757.7	0.000000	0.000000	7.149090	280.701	NaN	0.000000	0.001556	0.001701	28.0802	58.3872	0.001874	31155.1	4.866787	174.829	276.22	1.137080	0.058504	0.058228	280.701	31155.1	0.051747	0.097889	2867.55	90977.9
226	2.000000	1.147425	7.36726e+06	-49939.1	955.82	-29757.7	0.000000	0.000000	7.162945	372.755	NaN	0.000000	0.001531	0.001709	28.0801	66.9182	0.001785	37499.5	2.135477	176.57	371.441	1.147030	0.068573	0.068178	372.755	37499.5	0.061118	0.129849	2870.68	95077.9
226	2.000000	1.157416	7.36726e+06	-49939.1	955.819	-29757.7	0.000000	0.000000	7.176688	464.007	NaN	0.000000	0.001533	0.001741	28.0804	77.1982	0.001766	43704.7	2.376689	175.586	464.969	1.157111	0.078564	0.078260	464.007	43704.7	0.070601	0.166543	2786.12	97844.9
226	2.000000	1.167357	7.36726e+06	-49939.1	955.82	-29757.7	0.000000	0.000000	7.191213	575.489	NaN	0.000000	0.001545	0.001691	28.0793	86.4725	0.001751	49374.8	3.756010	173.015	573.326	1.167086	0.088505	0.088234	575.489	49374.8	0.079764	0.206057	2792.86	99376.8
226	2.000000	1.177402	7.36726e+06	-49939.1	955.819	-29757.7	0.000000	0.000000	7.205446	677.353	NaN	0.000000	0.001564	0.001724	28.0801	96.619	0.001794	53845	4.729223	171.274	676.297	1.177079	0.098550	0.098228	677.353	53845	0.089115	0.250424	2704.83	98306.2
226	2.000000	1.187383	7.36726e+06	-49939.1	955.818	-29757.7	0.000000	0.000000	7.219681	780.799	NaN	0.000000	0.001562	0.001710	28.0791	104.463	0.001717	60832.3	2.188817	173.332	779.751	1.187294	0.108531	0.108443	780.799	60832.3	0.098905	0.301169	2592.56	101275
226	2.000000	1.187803	7.36726e+06	-49939.1	955.818	-29757.7	0.000000	0.000000	7.220515	790.857	NaN	0.000000	0.001526	0.001689	28.0793	104.851	0.001741	60215.5	3.065715	-7.598357	782.714	1.187457	0.108951	0.108606	790.857	60215.5	0.099101	0.302231	2616.73	100072