File: remote_trans/data/nanoindenter/0828-1/data/Data_2025-08-06,11h17m57s/2025-07-22_16-23-58_1_51.txt
2025-07-22, 16:23:58, 1
Index	Phase	Displacement	Time	Pos X	Pos Y	Pos Z	Rot A	Rot B	Piezo Z	Force A	Force B	Gripper	Voltage A	Voltage B	Temperature	Amplitude force	Amplitude pos	Stiffness	Phase shift	Phase excitation	Force A raw	Displacement raw	HMax	HMax raw	Real Force	Real Stiffness	Contact Depth	Area	Hardness	Reduced Mod.
[#]	[#]	[um]	[s]	[um]	[um]	[um]	[m°]	[m°]	[um]	[uN]	[uN]	[V]	[V]	[V]	[°C]	[uN]	[um]	[N/m]	[°]	[°]	[uN]	[um]	[um]	[um]	[uN]	[N/m]	[um]	[um^2]	[MPa]	[MPa]
51	1.000000	0.002273	7.36554e+06	-41189.1	955.818	-29787.7	0.000000	0.000000	6.002776	-0.023102	NaN	0.000000	0.001729	0.001663	28.1095	0.005389	0.000892	6.039878	-153.702	-168.109	0.022252	0.001075	-1.167475	-1.168673	-0.023102	6.039878	-1.164606	-3.686442E+15	6.266749E-18	NaN
51	1.000000	0.046263	7.36554e+06	-41189.1	955.819	-29787.7	0.000000	0.000000	6.046768	0.011223	NaN	0.000000	0.001659	0.001678	28.0887	0.025342	0.001964	12.905	152.299	-164.9	-0.032690	0.044980	-1.123485	-1.124768	0.011223	12.905	-1.124137	-1.056753E+15	-1.061983E-17	NaN
51	1.000000	0.090246	7.36554e+06	-41189.1	955.818	-29787.7	0.000000	0.000000	6.090749	-0.015314	NaN	0.000000	0.001690	0.001706	28.1076	0.090058	0.002052	43.8937	123.751	-165.22	0.031937	0.089016	-1.079502	-1.080732	-0.015314	43.8937	-1.079240	-2.638241E+14	5.804527E-17	NaN
51	1.000000	0.134292	7.36554e+06	-41189.1	955.818	-29787.7	0.000000	0.000000	6.134796	0.002618	NaN	0.000000	0.001620	0.001714	28.0884	0.075569	0.002017	37.4598	-78.1308	-164.297	-0.050373	0.132910	-1.035456	-1.036838	0.002618	37.4598	-1.035508	-6.816547E+13	-3.841218E-17	NaN
51	1.000000	0.178292	7.36554e+06	-41189.1	955.819	-29787.7	0.000000	0.000000	6.178797	0.012734	NaN	0.000000	0.001643	0.001685	28.1079	0.090878	0.002141	42.4553	-79.7946	-165.044	-0.005964	0.176992	-0.991456	-0.992756	0.012734	42.4553	-0.991680	-1.752847E+13	-7.264668E-16	NaN
51	1.000000	0.222315	7.36554e+06	-41189.1	955.818	-29787.7	0.000000	0.000000	6.222814	-0.114314	NaN	0.000000	0.001659	0.001687	28.0903	0.026728	0.002055	13.0041	-143.639	-166.361	-0.082971	0.221053	-0.947433	-0.948694	-0.114314	13.0041	-0.940840	-3.618011E+12	3.159588E-14	NaN
51	1.000000	0.266332	7.36554e+06	-41189.1	955.819	-29787.7	0.000000	0.000000	6.266836	-0.010084	NaN	0.000000	0.001659	0.001702	28.1075	0.109184	0.002009	54.3451	-153.453	-168.723	-0.031927	0.265031	-0.903415	-0.904716	-0.010084	54.3451	-0.903276	-1.125464E+12	8.959546E-15	NaN
51	1.000000	0.310354	7.36554e+06	-41189.1	955.819	-29787.7	0.000000	0.000000	6.310856	-0.057221	NaN	0.000000	0.001652	0.001708	28.0896	0.023000	0.001931	11.9107	149.717	-168.748	-0.084740	0.309052	-0.859394	-0.860696	-0.057221	11.9107	-0.855791	-2.565324E+11	2.230548E-13	NaN
51	1.000000	0.354380	7.36554e+06	-41189.1	955.819	-29787.7	0.000000	0.000000	6.354885	0.002925	NaN	0.000000	0.001585	0.001704	28.1048	0.083278	0.002261	36.8358	94.0423	-161.853	-0.036400	0.353103	-0.815367	-0.816645	0.002925	36.8358	-0.815427	-7.280958E+10	-4.016754E-14	NaN
51	1.000000	0.398408	7.36555e+06	-41189.1	955.818	-29787.7	0.000000	0.000000	6.398912	-0.026015	NaN	0.000000	0.001675	0.001689	28.0906	0.105231	0.001928	54.5687	165.63	-164.373	0.043397	0.397058	-0.771339	-0.772690	-0.026015	54.5687	-0.770982	-1.814069E+10	1.434064E-12	NaN
51	1.000000	0.442407	7.36555e+06	-41189.1	955.818	-29787.7	0.000000	0.000000	6.442911	0.011563	NaN	0.000000	0.001691	0.001678	28.1062	0.136342	0.002007	67.9259	-175.285	-167.481	-0.040575	0.441068	-0.727341	-0.728680	0.011563	67.9259	-0.727469	-4.637730E+9	-2.493216E-12	NaN
51	1.000000	0.486417	7.36555e+06	-41189.1	955.819	-29787.7	0.000000	0.000000	6.486922	0.018626	NaN	0.000000	0.001654	0.001711	28.0923	0.099149	0.002070	47.8872	153.569	-160.024	-0.043163	0.485129	-0.683330	-0.684619	0.018626	47.8872	-0.683622	-1.168785E+9	-1.593601E-11	NaN
51	1.000000	0.530442	7.36555e+06	-41189.1	955.819	-29787.7	0.000000	0.000000	6.530945	-0.019755	NaN	0.000000	0.001631	0.001735	28.1059	0.080521	0.002073	38.8393	-89.61	-160.476	-0.016100	0.529152	-0.639306	-0.640595	-0.019755	38.8393	-0.638924	-2.854494E+8	6.920710E-11	NaN
51	1.000000	0.574473	7.36555e+06	-41189.1	955.818	-29787.7	0.000000	0.000000	6.574975	-0.051966	NaN	0.000000	0.001634	0.001702	28.0912	0.074889	0.002005	37.3434	-6.474179	-165.761	0.005077	0.573119	-0.595275	-0.596629	-0.051966	37.3434	-0.594231	-6.934115E+7	7.494184E-10	NaN
51	1.000000	0.618474	7.36555e+06	-41189.1	955.818	-29787.7	0.000000	0.000000	6.618979	0.010161	NaN	0.000000	0.001670	0.001703	28.1033	0.072551	0.002057	35.2631	-56.3988	-162.894	-0.017957	0.617209	-0.551274	-0.552539	0.010161	35.2631	-0.551490	-1.780703E+7	-5.706276E-10	NaN
51	1.000000	0.662511	7.36555e+06	-41189.1	955.819	-29787.7	0.000000	0.000000	6.663014	-0.042587	NaN	0.000000	0.001647	0.001694	28.0916	0.007887	0.001954	4.035799	-126.353	-165.395	-0.097808	0.661190	-0.507237	-0.508558	-0.042587	4.035799	-0.499322	-3.35401e+06	1.269748E-8	NaN
51	1.000000	0.706503	7.36555e+06	-41189.1	955.818	-29787.7	0.000000	0.000000	6.707009	0.043672	NaN	0.000000	0.001637	0.001722	28.1043	0.087827	0.002041	43.023	43.0696	-164.49	-0.002291	0.705198	-0.463245	-0.464550	0.043672	43.023	-0.464006	-1.07472e+06	-4.063547E-8	NaN
51	1.000000	0.750522	7.36555e+06	-41189.1	955.818	-29787.7	0.000000	0.000000	6.751025	-0.037612	NaN	0.000000	0.001633	0.001654	28.0935	0.075736	0.002045	37.0436	-91.8366	-165.27	-0.065385	0.749236	-0.419225	-0.420512	-0.037612	37.0436	-0.418464	-244693	1.537105E-7	NaN
51	1.000000	0.794580	7.36555e+06	-41189.1	955.818	-29787.7	0.000000	0.000000	6.795085	0.010369	NaN	0.000000	0.001644	0.001716	28.1051	0.089365	0.001946	45.9222	71.2157	-166.056	0.010494	0.793263	-0.375167	-0.376485	0.010369	45.9222	-0.375337	-59280.3	-1.749133E-7	NaN
51	1.000000	0.838572	7.36555e+06	-41189.1	955.818	-29787.7	0.000000	0.000000	6.839079	0.057646	NaN	0.000000	0.001662	0.001718	28.0915	0.129213	0.001870	69.0954	-159.615	-163.987	-0.000633	0.837250	-0.331175	-0.332497	0.057646	69.0954	-0.331801	-13861.6	-4.158678E-6	NaN
51	1.000000	0.882570	7.36555e+06	-41189.1	955.819	-29787.7	0.000000	0.000000	6.883076	0.034799	NaN	0.000000	0.001684	0.001715	28.1034	0.085924	0.001982	43.3565	-34.6342	-164.007	-0.003722	0.881296	-0.287178	-0.288451	0.034799	43.3565	-0.287780	-3090.39	-1.126051E-5	NaN
51	1.000000	0.926626	7.36555e+06	-41189.1	955.818	-29787.7	0.000000	0.000000	6.927126	-0.085000	NaN	0.000000	0.001666	0.001731	28.0915	0.165251	0.002071	79.79	-115.086	-168.389	-0.037617	0.925328	-0.243122	-0.244420	-0.085000	79.79	-0.242323	-624.878	0.000136	NaN
51	1.000000	0.970635	7.36555e+06	-41189.1	955.818	-29787.7	0.000000	0.000000	6.971138	-0.027938	NaN	0.000000	0.001643	0.001684	28.1033	0.047710	0.001918	24.8728	151.606	-164.494	-0.028086	0.969358	-0.199113	-0.200390	-0.027938	24.8728	-0.198271	-123.379	0.000226	NaN
51	1.000000	1.014645	7.36555e+06	-41189.1	955.818	-29787.7	0.000000	0.000000	7.015149	-0.001627	NaN	0.000000	0.001616	0.001731	28.0937	0.045226	0.001988	22.7554	-134.162	-164.439	-0.053305	1.013362	-0.155103	-0.156385	-0.001627	22.7554	-0.155049	-22.3597	7.278341E-5	NaN
51	1.000000	1.058708	7.36555e+06	-41189.1	955.818	-29787.7	0.000000	0.000000	7.059212	0.013292	NaN	0.000000	0.001609	0.001721	28.1041	0.063800	0.002032	31.3959	-146.543	-164.43	0.026572	1.057362	-0.111040	-0.112385	0.013292	31.3959	-0.111358	-3.209287	-0.004142	NaN
51	1.000000	1.102692	7.36555e+06	-41189.1	955.819	-29787.7	0.000000	0.000000	7.103197	0.007306	NaN	0.000000	0.001607	0.001735	28.0935	0.074261	0.002137	34.7581	98.731	-161.867	-0.039292	1.101390	-0.067055	-0.068357	0.007306	34.7581	-0.067213	-0.286744	-0.025478	NaN
51	1.000000	1.146722	7.36555e+06	-41189.1	955.818	-29787.7	0.000000	0.000000	7.147226	-0.005476	NaN	0.000000	0.001634	0.001700	28.1018	0.127307	0.001913	66.5439	-15.3461	-164.077	0.052360	1.145398	-0.023026	-0.024349	-0.005476	66.5439	-0.022964	-0.014945	0.366406	NaN
51	2.000000	1.182333	7.36555e+06	-41189.1	955.818	-29787.7	0.000000	0.000000	7.183264	10.4034	NaN	0.000000	0.001601	0.001697	28.0928	10.7353	0.001694	6338.13	6.784455	-172.504	10.4943	1.181947	0.012585	0.012199	10.4034	6338.13	0.011354	0.010725	970.007	55915.7
51	2.000000	1.193186	7.36555e+06	-41189.1	955.818	-29787.7	0.000000	0.000000	7.194990	31.6196	NaN	0.000000	0.001608	0.001671	28.1008	21.1197	0.001669	12653.9	3.870020	-176.036	30.3593	1.192921	0.023438	0.023173	31.6196	12653.9	0.021564	0.025060	1261.77	73031.4
51	2.000000	1.204168	7.36555e+06	-41189.1	955.818	-29787.7	0.000000	0.000000	7.207017	57.0698	NaN	0.000000	0.001560	0.001709	28.0955	32.2596	0.001883	17131.3	6.089171	-179.106	55.3904	1.203854	0.034420	0.034107	57.0698	17131.3	0.031921	0.044820	1273.3	73931.1
51	2.000000	1.215151	7.36555e+06	-41189.1	955.817	-29787.7	0.000000	0.000000	7.219528	94.2433	NaN	0.000000	0.001619	0.001720	28.1017	43.0464	0.001877	22927.9	5.609790	177.635	93.2872	1.214978	0.045403	0.045230	94.2433	22927.9	0.042320	0.070162	1343.22	79083.5
51	2.000000	1.226108	7.36555e+06	-41189.1	955.818	-29787.7	0.000000	0.000000	7.232501	143.274	NaN	0.000000	0.001627	0.001667	28.097	52.3496	0.001752	29872.7	4.535975	175.9	139.325	1.225740	0.056361	0.055993	143.274	29872.7	0.052763	0.101146	1416.51	85817.2
51	2.000000	1.237123	7.36555e+06	-41189.1	955.818	-29787.7	0.000000	0.000000	7.246027	204.409	NaN	0.000000	0.001644	0.001715	28.1004	62.8125	0.001832	34287.1	6.968621	173.202	201.541	1.236824	0.067375	0.067077	204.409	34287.1	0.062904	0.136425	1498.32	84811.7
51	2.000000	1.248160	7.36555e+06	-41189.1	955.818	-29787.7	0.000000	0.000000	7.260074	277.62	NaN	0.000000	0.001665	0.001709	28.096	74.4114	0.001805	41234.5	8.462481	170.298	277.608	1.247713	0.078412	0.077965	277.62	41234.5	0.073363	0.178035	1559.35	89285.4
51	2.000000	1.259077	7.36555e+06	-41189.1	955.818	-29787.7	0.000000	0.000000	7.274284	357.758	NaN	0.000000	0.001643	0.001648	28.0984	84.1492	0.001837	45815.4	3.263740	174.798	353.21	1.258699	0.089329	0.088951	357.758	45815.4	0.083472	0.223169	1603.08	88606.9
51	2.000000	1.270079	7.36555e+06	-41189.1	955.819	-29787.7	0.000000	0.000000	7.288512	436.245	NaN	0.000000	0.001617	0.001711	28.0963	94.522	0.001836	51485.7	5.753769	171.278	434.573	1.269803	0.100331	0.100055	436.245	51485.7	0.093977	0.275076	1585.91	89687.8
51	2.000000	1.278255	7.36555e+06	-41189.1	955.818	-29787.7	0.000000	0.000000	7.299412	502.527	NaN	0.000000	0.001604	0.001696	28.0964	103.573	0.001773	58415.6	6.415142	169.819	511.18	1.277915	0.108508	0.108168	502.527	58415.6	0.102056	0.318433	1578.13	94578.7