File: remote_trans/data/nanoindenter/0828-1/data/Data_2025-08-06,11h17m57s/2025-07-22_16-23-58_1_1168.txt
2025-07-22, 16:23:58, 1
Index	Phase	Displacement	Time	Pos X	Pos Y	Pos Z	Rot A	Rot B	Piezo Z	Force A	Force B	Gripper	Voltage A	Voltage B	Temperature	Amplitude force	Amplitude pos	Stiffness	Phase shift	Phase excitation	Force A raw	Displacement raw	HMax	HMax raw	Real Force	Real Stiffness	Contact Depth	Area	Hardness	Reduced Mod.
[#]	[#]	[um]	[s]	[um]	[um]	[um]	[m°]	[m°]	[um]	[uN]	[uN]	[V]	[V]	[V]	[°C]	[uN]	[um]	[N/m]	[°]	[°]	[uN]	[um]	[um]	[um]	[uN]	[N/m]	[um]	[um^2]	[MPa]	[MPa]
1168	1.000000	0.002548	7.37647e+06	-57189.1	1105.82	-29737.2	0.000000	0.000000	6.002794	-0.032657	NaN	0.000000	0.001609	0.001705	28.0827	0.067756	0.001009	67.1214	55.1725	-160.109	0.019838	0.001284	-1.050274	-1.051537	-0.032657	67.1214	-1.049909	-1.064598E+14	3.067530E-16	NaN
1168	1.000000	0.042492	7.37647e+06	-57189.1	1105.82	-29737.2	0.000000	0.000000	6.042740	0.008491	NaN	0.000000	0.001609	0.001752	28.0826	0.023505	0.001961	11.9889	11.1248	-167.931	-0.000593	0.041197	-1.010330	-1.011624	0.008491	11.9889	-1.010861	-3.176634E+13	-2.672839E-16	NaN
1168	1.000000	0.082526	7.37647e+06	-57189.1	1105.82	-29737.2	0.000000	0.000000	6.082773	-0.004314	NaN	0.000000	0.001674	0.001746	28.0812	0.028404	0.002050	13.857	-27.8478	-166.805	-0.009766	0.081170	-0.970296	-0.971651	-0.004314	13.857	-0.970062	-8.964032E+12	4.812723E-16	NaN
1168	1.000000	0.122512	7.37647e+06	-57189.1	1105.82	-29737.2	0.000000	0.000000	6.122761	0.016105	NaN	0.000000	0.001656	0.001682	28.0813	0.103209	0.001897	54.3952	149.646	-166.541	-0.092498	0.121248	-0.930309	-0.931574	0.016105	54.3952	-0.930531	-2.626431E+12	-6.132042E-15	NaN
1168	1.000000	0.162554	7.37647e+06	-57189.1	1105.82	-29737.2	0.000000	0.000000	6.162799	-0.060204	NaN	0.000000	0.001695	0.001702	28.0812	0.090912	0.002033	44.7191	175.609	-168.057	-0.077934	0.161261	-0.890268	-0.891560	-0.060204	44.7191	-0.889258	-7.275880E+11	8.274422E-14	NaN
1168	1.000000	0.202559	7.37647e+06	-57189.1	1105.82	-29737.2	0.000000	0.000000	6.202806	-0.011756	NaN	0.000000	0.001644	0.001712	28.0811	0.093057	0.002023	46.0087	-78.7279	-168.449	0.026979	0.201242	-0.850262	-0.851579	-0.011756	46.0087	-0.850071	-2.146331E+11	5.477031E-14	NaN
1168	1.000000	0.242584	7.37647e+06	-57189.1	1105.82	-29737.2	0.000000	0.000000	6.242832	0.011221	NaN	0.000000	0.001667	0.001716	28.0825	0.080026	0.001947	41.0968	-87.5454	-164.426	-0.028689	0.241297	-0.810237	-0.811524	0.011221	41.0968	-0.810442	-6.231128E+10	-1.800780E-13	NaN
1168	1.000000	0.282605	7.37648e+06	-57189.1	1105.82	-29737.2	0.000000	0.000000	6.282852	-0.022713	NaN	0.000000	0.001674	0.001737	28.0825	0.125623	0.001971	63.7294	130.004	-165.154	-0.019195	0.281298	-0.770216	-0.771523	-0.022713	63.7294	-0.769949	-1.756361E+10	1.293186E-12	NaN
1168	1.000000	0.322629	7.37648e+06	-57189.1	1105.82	-29737.2	0.000000	0.000000	6.322876	-0.028310	NaN	0.000000	0.001674	0.001675	28.0823	0.047157	0.001935	24.3748	115.209	-167.067	-0.076952	0.321338	-0.730192	-0.731483	-0.028310	24.3748	-0.729321	-4.915315E+9	5.759614E-12	NaN
1168	1.000000	0.362612	7.37648e+06	-57189.1	1105.82	-29737.2	0.000000	0.000000	6.362860	0.001644	NaN	0.000000	0.001614	0.001682	28.0813	0.066216	0.001991	33.2541	-38.5307	-166.4	-0.073891	0.361364	-0.690209	-0.691458	0.001644	33.2541	-0.690247	-1.439752E+9	-1.141819E-12	NaN
1168	1.000000	0.402653	7.37648e+06	-57189.1	1105.82	-29737.2	0.000000	0.000000	6.402904	0.072789	NaN	0.000000	0.001643	0.001702	28.0815	0.095210	0.002091	45.5394	54.4205	-168.128	0.039473	0.401313	-0.650168	-0.651509	0.072789	45.5394	-0.651367	-4.228364E+8	-1.721438E-10	NaN
1168	1.000000	0.442654	7.37648e+06	-57189.1	1105.82	-29737.2	0.000000	0.000000	6.442903	0.031404	NaN	0.000000	0.001691	0.001730	28.0816	0.107573	0.001945	55.3214	158.232	-162.877	0.050067	0.441344	-0.610168	-0.611478	0.031404	55.3214	-0.610594	-1.164879E+8	-2.695889E-10	NaN
1168	1.000000	0.482688	7.37648e+06	-57189.1	1105.82	-29737.2	0.000000	0.000000	6.482934	-0.042828	NaN	0.000000	0.001659	0.001733	28.0812	0.104338	0.001933	53.9649	-178.875	-168.833	-0.043350	0.481352	-0.570134	-0.571469	-0.042828	53.9649	-0.569539	-3.164142E+7	1.353557E-9	NaN
1168	1.000000	0.522673	7.37648e+06	-57189.1	1105.82	-29737.2	0.000000	0.000000	6.522920	-0.011238	NaN	0.000000	0.001661	0.001755	28.0827	0.047077	0.002076	22.6777	-144.501	-164.396	-0.064814	0.521390	-0.530148	-0.531431	-0.011238	22.6777	-0.529777	-8.90172e+06	1.262410E-9	NaN
1168	1.000000	0.562721	7.37648e+06	-57189.1	1105.82	-29737.2	0.000000	0.000000	6.562966	-0.069901	NaN	0.000000	0.001687	0.001752	28.0824	0.112325	0.002136	52.5911	135.454	-167.657	-0.075384	0.561398	-0.490100	-0.491423	-0.069901	52.5911	-0.489103	-2.4147e+06	2.894825E-8	NaN
1168	1.000000	0.602734	7.37648e+06	-57189.1	1105.82	-29737.2	0.000000	0.000000	6.602982	0.004478	NaN	0.000000	0.001695	0.001701	28.0826	0.053926	0.001980	27.2318	125.895	-168.978	-0.069538	0.601398	-0.450088	-0.451424	0.004478	27.2318	-0.450211	-687568	-6.512798E-9	NaN
1168	1.000000	0.642750	7.37648e+06	-57189.1	1105.82	-29737.2	0.000000	0.000000	6.642997	-0.024237	NaN	0.000000	0.001675	0.001720	28.0812	0.053420	0.002076	25.7373	46.8164	-168.357	-0.039744	0.641508	-0.410072	-0.411313	-0.024237	25.7373	-0.409365	-181708	1.333838E-7	NaN
1168	1.000000	0.682756	7.37648e+06	-57189.1	1105.82	-29737.2	0.000000	0.000000	6.683004	0.010048	NaN	0.000000	0.001656	0.001692	28.0812	0.061025	0.002034	30.0058	123.909	-166.317	0.007378	0.681442	-0.370065	-0.371380	0.010048	30.0058	-0.370316	-50197.8	-2.001751E-7	NaN
1168	1.000000	0.722795	7.37648e+06	-57189.1	1105.82	-29737.2	0.000000	0.000000	6.723043	0.006100	NaN	0.000000	0.001684	0.001686	28.0811	0.051463	0.002132	24.1436	-63.5599	-166.016	-0.017621	0.721444	-0.330026	-0.331378	0.006100	24.1436	-0.330216	-13140.4	-4.642090E-7	NaN
1168	1.000000	0.762811	7.37648e+06	-57189.1	1105.82	-29737.2	0.000000	0.000000	6.763055	-0.085020	NaN	0.000000	0.001661	0.001737	28.0816	0.121211	0.001978	61.2815	22.7874	-169.288	-0.066729	0.761496	-0.290010	-0.291326	-0.085020	61.2815	-0.288970	-3220.05	2.640320E-5	NaN
1168	1.000000	0.802821	7.37648e+06	-57189.1	1105.82	-29737.2	0.000000	0.000000	6.803069	0.004506	NaN	0.000000	0.001690	0.001738	28.0825	0.104785	0.001969	53.2173	100.589	-166.038	-0.023311	0.801560	-0.250000	-0.251261	0.004506	53.2173	-0.250064	-824.049	-5.468525E-6	NaN
1168	1.000000	0.842843	7.37648e+06	-57189.1	1105.82	-29737.2	0.000000	0.000000	6.843090	-0.016465	NaN	0.000000	0.001641	0.001780	28.0824	0.071493	0.001928	37.0896	112.473	-165.821	-0.084508	0.841573	-0.209978	-0.211248	-0.016465	37.0896	-0.209645	-189.267	8.699557E-5	NaN
1168	1.000000	0.882867	7.37648e+06	-57189.1	1105.82	-29737.2	0.000000	0.000000	6.883112	-0.071006	NaN	0.000000	0.001605	0.001768	28.0827	0.057897	0.001851	31.2747	20.1603	-163.948	-0.019714	0.881602	-0.169954	-0.171219	-0.071006	31.2747	-0.168251	-38.2994	0.001854	NaN
1168	1.000000	0.922847	7.37648e+06	-57189.1	1105.82	-29737.2	0.000000	0.000000	6.923093	-0.034357	NaN	0.000000	0.001595	0.001746	28.0813	0.021239	0.001905	11.1489	-76.7465	-161.877	-0.080384	0.921490	-0.129975	-0.131331	-0.034357	11.1489	-0.127663	-6.861718	0.005007	NaN
1168	1.000000	0.962871	7.37648e+06	-57189.1	1105.82	-29737.2	0.000000	0.000000	6.963113	-0.129420	NaN	0.000000	0.001564	0.001709	28.0814	0.033699	0.002029	16.6065	-101.628	-166.947	-0.183405	0.961551	-0.089950	-0.091271	-0.129420	16.6065	-0.084105	-0.781564	0.165591	NaN
1168	1.000000	1.002902	7.37648e+06	-57189.1	1105.82	-29737.2	0.000000	0.000000	7.003148	-0.038975	NaN	0.000000	0.001615	0.001691	28.0811	0.047053	0.001854	25.382	30.2661	-166.6	-0.065909	1.001548	-0.049919	-0.051273	-0.038975	25.382	-0.048768	-0.083731	0.465474	NaN
1168	1.000000	1.042892	7.37648e+06	-57189.1	1105.82	-29737.2	0.000000	0.000000	7.043138	-0.042136	NaN	0.000000	0.001545	0.001727	28.0827	0.204603	0.001921	106.51	74.1955	-167.685	0.005592	1.041618	-0.009929	-0.011203	-0.042136	106.51	-0.009632	-0.006177	6.821593	NaN
1168	2.000000	1.065441	7.37648e+06	-57189.1	1105.82	-29737.2	0.000000	0.000000	7.066243	13.4713	NaN	0.000000	0.001573	0.001725	28.0824	14.2143	0.001766	8048.76	6.537425	-174.063	14.5507	1.065153	0.012620	0.012331	13.4713	8048.76	0.011365	0.010738	1254.56	70964.6
1168	2.000000	1.075356	7.37648e+06	-57189.1	1105.82	-29737.2	0.000000	0.000000	7.077241	39.7869	NaN	0.000000	0.001656	0.001717	28.0826	25.2952	0.001902	13302.7	3.081738	-175.111	38.1341	1.074991	0.022535	0.022169	39.7869	13302.7	0.020292	0.023003	1729.63	80134.7
1168	2.000000	1.085387	7.37648e+06	-57189.1	1105.82	-29737.2	0.000000	0.000000	7.088902	79.4114	NaN	0.000000	0.001586	0.001695	28.0829	34.8765	0.001759	19825.4	4.504514	178.958	79.7618	1.085073	0.032565	0.032252	79.4114	19825.4	0.029561	0.039839	1993.31	90749
1168	2.000000	1.095305	7.37648e+06	-57189.1	1105.82	-29737.2	0.000000	0.000000	7.100756	126.457	NaN	0.000000	0.001630	0.001700	28.0821	43.7153	0.001864	23450.9	5.119769	177.399	124.521	1.094999	0.042484	0.042178	126.457	23450.9	0.038440	0.060058	2105.59	87427.4
1168	2.000000	1.105294	7.37648e+06	-57189.1	1105.82	-29737.2	0.000000	0.000000	7.112787	176.09	NaN	0.000000	0.001627	0.001691	28.0814	53.6586	0.001943	27614.3	5.760059	175.561	174.653	1.104996	0.052472	0.052175	176.09	27614.3	0.047690	0.085407	2061.78	86329.9
1168	2.000000	1.115337	7.37648e+06	-57189.1	1105.82	-29737.2	0.000000	0.000000	7.125220	234.181	NaN	0.000000	0.001600	0.001716	28.0813	62.9349	0.001880	33484.9	5.665265	174.494	233.917	1.114955	0.062516	0.062133	234.181	33484.9	0.057271	0.116204	2015.25	89745.1
1168	2.000000	1.125411	7.37648e+06	-57189.1	1105.82	-29737.2	0.000000	0.000000	7.137551	289.035	NaN	0.000000	0.001627	0.001697	28.0827	73.6924	0.001726	42691.5	8.335711	170.401	292.472	1.125057	0.072590	0.072236	289.035	42691.5	0.067512	0.154116	1875.45	99355.5
1168	2.000000	1.135213	7.37648e+06	-57189.1	1105.82	-29737.2	0.000000	0.000000	7.150146	356.934	NaN	0.000000	0.001604	0.001700	28.0825	81.0686	0.001716	47254.8	6.202007	170.478	351.567	1.134968	0.082391	0.082147	356.934	47254.8	0.076726	0.192520	1854.01	98396.7
1168	2.000000	1.145406	7.37648e+06	-57189.1	1105.82	-29737.2	0.000000	0.000000	7.161947	396.007	NaN	0.000000	0.001612	0.001736	28.0826	92.7605	0.001856	49984.9	6.072834	170.212	399.925	1.145345	0.092585	0.092524	396.007	49984.9	0.086643	0.238300	1661.8	93551.3
1168	2.000000	1.155357	7.37648e+06	-57189.1	1105.82	-29737.2	0.000000	0.000000	7.175808	491.021	NaN	0.000000	0.001611	0.001723	28.0828	101.043	0.001899	53205.1	6.017232	170.375	495.63	1.155161	0.102536	0.102340	491.021	53205.1	0.095614	0.283625	1731.23	91275.5
1168	2.000000	1.158155	7.37648e+06	-57189.1	1105.82	-29737.2	0.000000	0.000000	7.179787	519.75	NaN	0.000000	0.001620	0.001706	28.0815	103.17	0.001850	55756.2	4.814323	171.299	513.486	1.157820	0.105334	0.104998	519.75	55756.2	0.098342	0.298136	1743.33	93295.2