File: remote_trans/data/nanoindenter/0828-1/data/Data_2025-08-06,11h17m57s/2025-07-22_16-23-58_1_662.txt
2025-07-22, 16:23:58, 1
Index	Phase	Displacement	Time	Pos X	Pos Y	Pos Z	Rot A	Rot B	Piezo Z	Force A	Force B	Gripper	Voltage A	Voltage B	Temperature	Amplitude force	Amplitude pos	Stiffness	Phase shift	Phase excitation	Force A raw	Displacement raw	HMax	HMax raw	Real Force	Real Stiffness	Contact Depth	Area	Hardness	Reduced Mod.
[#]	[#]	[um]	[s]	[um]	[um]	[um]	[m°]	[m°]	[um]	[uN]	[uN]	[V]	[V]	[V]	[°C]	[uN]	[um]	[N/m]	[°]	[°]	[uN]	[um]	[um]	[um]	[uN]	[N/m]	[um]	[um^2]	[MPa]	[MPa]
662	1.000000	0.002618	7.37153e+06	-43989.1	1005.82	-29777.2	0.000000	0.000000	6.002801	0.057569	NaN	0.000000	0.001608	0.001741	28.0838	0.039880	0.000955	41.739	-88.0538	-166.689	0.122919	0.001395	-1.038683	-1.039906	0.057569	41.739	-1.039718	-7.765507E+13	-7.413384E-16	NaN
662	1.000000	0.042543	7.37153e+06	-43989.1	1005.82	-29777.2	0.000000	0.000000	6.042726	0.036162	NaN	0.000000	0.001577	0.001722	28.0833	0.002847	0.002034	1.400157	-168.535	-169.624	-0.059900	0.041270	-0.998758	-1.000031	0.036162	1.400157	-1.018128	-3.978920E+13	-9.088297E-16	NaN
662	1.000000	0.082585	7.37153e+06	-43989.1	1005.82	-29777.2	0.000000	0.000000	6.082768	0.043251	NaN	0.000000	0.001610	0.001718	28.0835	0.093713	0.002029	46.1921	6.522835	-170.269	0.012153	0.081256	-0.958716	-0.960045	0.043251	46.1921	-0.959418	-6.442083E+12	-6.713754E-15	NaN
662	1.000000	0.122583	7.37153e+06	-43989.1	1005.82	-29777.2	0.000000	0.000000	6.122764	0.005384	NaN	0.000000	0.001566	0.001705	28.083	0.096309	0.001963	49.0627	-65.4301	-166.375	0.026174	0.121297	-0.918718	-0.920004	0.005384	49.0627	-0.918801	-1.823944E+12	-2.951746E-15	NaN
662	1.000000	0.162613	7.37153e+06	-43989.1	1005.82	-29777.2	0.000000	0.000000	6.162793	-0.038101	NaN	0.000000	0.001549	0.001682	28.0818	0.109120	0.001949	55.981	-11.4983	-168.61	-0.011354	0.161314	-0.878688	-0.879987	-0.038101	55.981	-0.878177	-5.152981E+11	7.393968E-14	NaN
662	1.000000	0.202679	7.37153e+06	-43989.1	1005.82	-29777.2	0.000000	0.000000	6.202859	-0.017975	NaN	0.000000	0.001579	0.001671	28.0818	0.055211	0.001954	28.261	-122.789	-166.786	-0.065666	0.201330	-0.838622	-0.839971	-0.017975	28.261	-0.838145	-1.479672E+11	1.214823E-13	NaN
662	1.000000	0.242635	7.37153e+06	-43989.1	1005.82	-29777.2	0.000000	0.000000	6.242815	-0.023103	NaN	0.000000	0.001558	0.001672	28.0815	0.074297	0.002101	35.3641	-176.875	-169.176	0.050013	0.241323	-0.798666	-0.799978	-0.023103	35.3641	-0.798176	-4.247200E+10	5.439573E-13	NaN
662	1.000000	0.282665	7.37153e+06	-43989.1	1005.82	-29777.2	0.000000	0.000000	6.282847	0.019834	NaN	0.000000	0.001523	0.001695	28.083	0.036559	0.002117	17.2723	133.075	-163.335	0.026215	0.281337	-0.758636	-0.759965	0.019834	17.2723	-0.759497	-1.266086E+10	-1.566580E-12	NaN
662	1.000000	0.322698	7.37153e+06	-43989.1	1005.82	-29777.2	0.000000	0.000000	6.322879	0.009741	NaN	0.000000	0.001566	0.001695	28.0829	0.076424	0.001963	38.9276	172.099	-167.031	-0.002033	0.321365	-0.718603	-0.719937	0.009741	38.9276	-0.718791	-3.531712E+9	-2.758279E-12	NaN
662	1.000000	0.362679	7.37153e+06	-43989.1	1005.82	-29777.2	0.000000	0.000000	6.362858	-0.028849	NaN	0.000000	0.001568	0.001714	28.0829	0.094456	0.002094	45.1103	138.796	-167.341	0.017880	0.361357	-0.678623	-0.679944	-0.028849	45.1103	-0.678143	-9.835693E+8	2.933109E-11	NaN
662	1.000000	0.402744	7.37153e+06	-43989.1	1005.82	-29777.2	0.000000	0.000000	6.402924	-0.011823	NaN	0.000000	0.001615	0.001696	28.0819	0.067526	0.002025	33.3425	126.04	-164.611	-0.147289	0.401419	-0.638557	-0.639882	-0.011823	33.3425	-0.638292	-2.797994E+8	4.225385E-11	NaN
662	1.000000	0.442731	7.37153e+06	-43989.1	1005.82	-29777.2	0.000000	0.000000	6.442911	-0.008684	NaN	0.000000	0.001610	0.001720	28.082	0.102650	0.002151	47.7299	131.99	-167.202	-0.046257	0.441452	-0.598570	-0.599849	-0.008684	47.7299	-0.598434	-7.923022E+7	1.095985E-10	NaN
662	1.000000	0.482741	7.37153e+06	-43989.1	1005.82	-29777.2	0.000000	0.000000	6.482921	-0.038756	NaN	0.000000	0.001582	0.001718	28.082	0.109344	0.002034	53.7713	110.428	-164.955	-0.017341	0.481459	-0.558560	-0.559842	-0.038756	53.7713	-0.558019	-2.192666E+7	1.767547E-9	NaN
662	1.000000	0.522762	7.37153e+06	-43989.1	1005.82	-29777.2	0.000000	0.000000	6.522941	-0.038619	NaN	0.000000	0.001566	0.001705	28.0817	0.080725	0.002060	39.1913	-16.7467	-166.442	0.019106	0.521459	-0.518539	-0.519842	-0.038619	39.1913	-0.517800	-6.06738e+06	6.365012E-9	NaN
662	1.000000	0.562754	7.37153e+06	-43989.1	1005.82	-29777.2	0.000000	0.000000	6.562935	-0.005568	NaN	0.000000	0.001609	0.001719	28.0831	0.088601	0.002006	44.1693	-97.49	-166.705	-0.000416	0.561480	-0.478547	-0.479821	-0.005568	44.1693	-0.478452	-1.71341e+06	3.249840E-9	NaN
662	1.000000	0.602787	7.37153e+06	-43989.1	1005.82	-29777.2	0.000000	0.000000	6.602964	-0.081880	NaN	0.000000	0.001604	0.001701	28.0831	0.116454	0.001991	58.4932	84.4457	-168.202	-0.114489	0.601492	-0.438514	-0.439809	-0.081880	58.4932	-0.437464	-454535	1.801397E-7	NaN
662	1.000000	0.642805	7.37153e+06	-43989.1	1005.82	-29777.2	0.000000	0.000000	6.642985	-0.018846	NaN	0.000000	0.001622	0.001697	28.0833	0.082674	0.002037	40.5889	102.946	-168.946	-0.050076	0.641458	-0.398496	-0.399844	-0.018846	40.5889	-0.398148	-125770	1.498444E-7	NaN
662	1.000000	0.682843	7.37153e+06	-43989.1	1005.82	-29777.2	0.000000	0.000000	6.683022	-0.062809	NaN	0.000000	0.001609	0.001704	28.082	0.058931	0.002019	29.1893	-90.5402	-165.358	-0.095108	0.681532	-0.358458	-0.359769	-0.062809	29.1893	-0.356844	-32077.2	1.958043E-6	NaN
662	1.000000	0.722823	7.37153e+06	-43989.1	1005.82	-29777.2	0.000000	0.000000	6.723003	-0.001950	NaN	0.000000	0.001614	0.001727	28.0821	0.047388	0.002071	22.8798	-98.3352	-165.904	0.059114	0.721513	-0.318479	-0.319788	-0.001950	22.8798	-0.318415	-8816.45	2.212081E-7	NaN
662	1.000000	0.762894	7.37153e+06	-43989.1	1005.82	-29777.2	0.000000	0.000000	6.763074	-0.009041	NaN	0.000000	0.001616	0.001715	28.0823	0.054287	0.002086	26.0188	-5.865376	-169.658	-0.046815	0.761528	-0.278407	-0.279774	-0.009041	26.0188	-0.278147	-2213.07	4.085281E-6	NaN
662	1.000000	0.802878	7.37153e+06	-43989.1	1005.82	-29777.2	0.000000	0.000000	6.803058	-0.002460	NaN	0.000000	0.001600	0.001728	28.0823	0.090624	0.002024	44.7664	-127.29	-163.476	-0.034448	0.801588	-0.238424	-0.239713	-0.002460	44.7664	-0.238382	-542.332	4.536071E-6	NaN
662	1.000000	0.842899	7.37153e+06	-43989.1	1005.82	-29777.2	0.000000	0.000000	6.843078	-0.032582	NaN	0.000000	0.001583	0.001752	28.0831	0.040724	0.001932	21.0754	-62.4384	-168.426	0.016629	0.841564	-0.198402	-0.199737	-0.032582	21.0754	-0.197243	-118.655	0.000275	NaN
662	1.000000	0.882905	7.37153e+06	-43989.1	1005.82	-29777.2	0.000000	0.000000	6.883084	-0.037479	NaN	0.000000	0.001538	0.001748	28.0829	0.031093	0.002044	15.2124	48.3929	-168.179	-0.031515	0.881634	-0.158396	-0.159667	-0.037479	15.2124	-0.156549	-23.7898	0.001575	NaN
662	1.000000	0.922938	7.37153e+06	-43989.1	1005.82	-29777.2	0.000000	0.000000	6.923120	0.014047	NaN	0.000000	0.001578	0.001708	28.083	0.137402	0.001880	73.0716	132.593	-167.951	0.022931	0.921648	-0.118363	-0.119653	0.014047	73.0716	-0.118507	-4.506715	-0.003117	NaN
662	1.000000	0.962934	7.37153e+06	-43989.1	1005.82	-29777.2	0.000000	0.000000	6.963115	0.008965	NaN	0.000000	0.001602	0.001732	28.0819	0.142963	0.001952	73.2472	168.737	-169.818	0.070760	0.961632	-0.078367	-0.079669	0.008965	73.2472	-0.078459	-0.566168	-0.015835	NaN
662	1.000000	1.002973	7.37153e+06	-43989.1	1005.82	-29777.2	0.000000	0.000000	7.003151	-0.074570	NaN	0.000000	0.001584	0.001741	28.0816	0.009848	0.001979	4.975747	46.4308	-168.677	-0.062884	1.001642	-0.038328	-0.039659	-0.074570	4.975747	-0.027088	-0.019159	3.892189	NaN
662	1.000000	1.042931	7.37153e+06	-43989.1	1005.82	-29777.2	0.000000	0.000000	7.043286	4.228033	NaN	0.000000	0.001585	0.001756	28.0814	5.302372	0.001822	2910.41	13.5075	-173.248	2.848529	1.041635	0.001630	0.000334	4.228033	2910.41	0.000540	0.000408	10364	131650
662	2.000000	1.055549	7.37153e+06	-43989.1	1005.82	-29777.2	0.000000	0.000000	7.056743	24.6595	NaN	0.000000	0.001595	0.001751	28.0828	19.1008	0.001738	10992.7	5.865543	-178.435	24.5794	1.055247	0.014248	0.013946	24.6595	10992.7	0.012565	0.012174	2025.6	91025.1
662	2.000000	1.065490	7.37153e+06	-43989.1	1005.82	-29777.2	0.000000	0.000000	7.067660	48.4027	NaN	0.000000	0.001556	0.001783	28.0828	29.1497	0.001799	16205	6.593860	178.286	49.9397	1.065187	0.024188	0.023886	48.4027	16205	0.021948	0.025697	1883.62	92360
662	2.000000	1.075512	7.37153e+06	-43989.1	1005.82	-29777.2	0.000000	0.000000	7.079143	83.9386	NaN	0.000000	0.001537	0.001772	28.0832	38.4832	0.001778	21643.9	8.042467	173.799	87.4414	1.075204	0.034211	0.033903	83.9386	21643.9	0.031303	0.043487	1930.21	94826.4
662	2.000000	1.085389	7.37153e+06	-43989.1	1005.82	-29777.2	0.000000	0.000000	7.090993	131.936	NaN	0.000000	0.001604	0.001737	28.0831	46.9843	0.001609	29205.6	3.309159	176.214	129.251	1.085023	0.044088	0.043722	131.936	29205.6	0.040700	0.065850	2003.57	103983
662	2.000000	1.095447	7.37153e+06	-43989.1	1005.82	-29777.2	0.000000	0.000000	7.103280	186.158	NaN	0.000000	0.001595	0.001755	28.0818	58.2227	0.001763	33018.3	1.787448	177.342	185.945	1.095118	0.054146	0.053817	186.158	33018.3	0.049917	0.092158	2019.99	99371.7
662	2.000000	1.105381	7.37153e+06	-43989.1	1005.82	-29777.2	0.000000	0.000000	7.115401	239.387	NaN	0.000000	0.001539	0.001754	28.0816	68.4141	0.001841	37166.5	-1.164106	178.209	236.736	1.105303	0.064080	0.064002	239.387	37166.5	0.059249	0.123129	1944.2	96770.9
662	2.000000	1.115331	7.37153e+06	-43989.1	1005.82	-29777.2	0.000000	0.000000	7.128338	312.033	NaN	0.000000	0.001546	0.001743	28.0817	77.9856	0.001693	46067.4	2.494587	173.217	308.422	1.115135	0.074030	0.073834	312.033	46067.4	0.068950	0.159843	1952.12	105274
662	2.000000	1.125366	7.37153e+06	-43989.1	1005.82	-29777.2	0.000000	0.000000	7.141455	387.036	NaN	0.000000	0.001580	0.001739	28.0829	86.865	0.001728	50255.3	3.103591	172.816	385.337	1.124995	0.084064	0.083694	387.036	50255.3	0.078288	0.199429	1940.72	102816
662	2.000000	1.135342	7.37153e+06	-43989.1	1005.82	-29777.3	0.000000	0.000000	7.154610	464.369	NaN	0.000000	0.001560	0.001746	28.0833	95.6012	0.001787	53501.3	4.812300	170.588	461.506	1.135043	0.094041	0.093742	464.369	53501.3	0.087531	0.242623	1913.95	99236.4
662	2.000000	1.144869	7.37153e+06	-43989.1	1005.82	-29777.3	0.000000	0.000000	7.167123	537.022	NaN	0.000000	0.001600	0.001720	28.083	105.596	0.001865	56626.3	4.496064	-9.193352	535.262	1.144562	0.103568	0.103261	537.022	56626.3	0.096455	0.288061	1864.26	96393.8