File: remote_trans/data/nanoindenter/0828-1/data/Data_2025-08-06,11h17m57s/2025-07-22_16-23-58_1_1139.txt
2025-07-22, 16:23:58, 1
Index	Phase	Displacement	Time	Pos X	Pos Y	Pos Z	Rot A	Rot B	Piezo Z	Force A	Force B	Gripper	Voltage A	Voltage B	Temperature	Amplitude force	Amplitude pos	Stiffness	Phase shift	Phase excitation	Force A raw	Displacement raw	HMax	HMax raw	Real Force	Real Stiffness	Contact Depth	Area	Hardness	Reduced Mod.
[#]	[#]	[um]	[s]	[um]	[um]	[um]	[m°]	[m°]	[um]	[uN]	[uN]	[V]	[V]	[V]	[°C]	[uN]	[um]	[N/m]	[°]	[°]	[uN]	[um]	[um]	[um]	[uN]	[N/m]	[um]	[um^2]	[MPa]	[MPa]
1139	1.000000	0.002959	7.37619e+06	-57089.1	1055.82	-29736.9	0.000000	0.000000	6.002798	0.109400	NaN	0.000000	0.001601	0.001727	28.0795	0.111102	0.000845	131.463	-71.7391	-171.046	0.215618	0.001726	-1.709515	-1.710748	0.109400	131.463	-1.710139	-6.936265E+22	-1.577211E-24	NaN
1139	1.000000	0.060909	7.3762e+06	-57089.1	1055.82	-29736.9	0.000000	0.000000	6.060746	0.037716	NaN	0.000000	0.001596	0.001733	28.0806	0.032336	0.002034	15.8956	-163.778	14.2832	0.141153	0.059590	-1.651565	-1.652885	0.037716	15.8956	-1.653344	-1.220348E+22	-3.090635E-24	NaN
1139	1.000000	0.118953	7.3762e+06	-57089.1	1055.82	-29736.9	0.000000	0.000000	6.118789	0.023948	NaN	0.000000	0.001606	0.001708	28.0807	0.129367	0.002012	64.2994	-121.286	-166.673	0.027371	0.117629	-1.593521	-1.594845	0.023948	64.2994	-1.593800	-1.971340E+21	-1.214793E-23	NaN
1139	1.000000	0.176968	7.3762e+06	-57089.1	1055.82	-29736.9	0.000000	0.000000	6.176803	0.017015	NaN	0.000000	0.001588	0.001706	28.0794	0.098576	0.002018	48.8406	-100.716	17.4657	0.028196	0.175641	-1.535507	-1.536833	0.017015	48.8406	-1.535768	-3.330890E+20	-5.108104E-23	NaN
1139	1.000000	0.235011	7.3762e+06	-57089.1	1055.82	-29736.9	0.000000	0.000000	6.234847	0.021567	NaN	0.000000	0.001600	0.001724	28.0796	0.079288	0.002002	39.6108	142.689	-166.153	0.009166	0.233704	-1.477463	-1.478771	0.021567	39.6108	-1.477872	-5.643538E+19	-3.821548E-22	NaN
1139	1.000000	0.293021	7.3762e+06	-57089.1	1055.82	-29736.9	0.000000	0.000000	6.292857	0.018202	NaN	0.000000	0.001601	0.001783	28.0802	0.144693	0.002032	71.2196	-130.545	16.4812	-0.034277	0.291671	-1.419453	-1.420803	0.018202	71.2196	-1.419645	-9.450792E+18	-1.925929E-21	NaN
1139	1.000000	0.351032	7.3762e+06	-57089.1	1055.82	-29736.9	0.000000	0.000000	6.350864	-0.083716	NaN	0.000000	0.001608	0.001745	28.0808	0.040835	0.001995	20.4658	54.1194	-168.045	-0.034954	0.349730	-1.361442	-1.362744	-0.083716	20.4658	-1.358374	-1.438876E+18	5.818135E-20	NaN
1139	1.000000	0.409037	7.3762e+06	-57089.1	1055.82	-29736.9	0.000000	0.000000	6.408873	0.025355	NaN	0.000000	0.001566	0.001699	28.081	0.100047	0.002149	46.5609	-136.097	17.5061	0.030308	0.407706	-1.303437	-1.304768	0.025355	46.5609	-1.303846	-2.690186E+17	-9.425084E-20	NaN
1139	1.000000	0.467097	7.3762e+06	-57089.1	1055.82	-29736.9	0.000000	0.000000	6.466932	0.004346	NaN	0.000000	0.001602	0.001720	28.0794	0.045324	0.001957	23.1649	75.2102	-165.619	4.500883E-5	0.465797	-1.245378	-1.246677	0.004346	23.1649	-1.245518	-4.466515E+16	-9.729716E-20	NaN
1139	1.000000	0.525097	7.3762e+06	-57089.1	1055.82	-29736.9	0.000000	0.000000	6.524934	0.049089	NaN	0.000000	0.001585	0.001745	28.0799	0.087827	0.002006	43.7746	75.4673	13.6607	-0.039670	0.523725	-1.187377	-1.188750	0.049089	43.7746	-1.188218	-7.637686E+15	-6.427189E-18	NaN
1139	1.000000	0.583111	7.3762e+06	-57089.1	1055.82	-29736.9	0.000000	0.000000	6.582945	-0.025388	NaN	0.000000	0.001598	0.001752	28.0808	0.084843	0.002190	38.7351	-142.502	-167.19	0.081248	0.581850	-1.129363	-1.130624	-0.025388	38.7351	-1.128871	-1.223162E+15	2.075617E-17	NaN
1139	1.000000	0.641186	7.3762e+06	-57089.1	1055.82	-29736.8	0.000000	0.000000	6.641021	0.019032	NaN	0.000000	0.001574	0.001771	28.0809	0.130467	0.001919	67.9819	-117.883	13.9579	-0.067244	0.639774	-1.071289	-1.072700	0.019032	67.9819	-1.071499	-2.076448E+14	-9.165479E-17	NaN
1139	1.000000	0.699200	7.3762e+06	-57089.1	1055.82	-29736.8	0.000000	0.000000	6.699036	0.008254	NaN	0.000000	0.001674	0.001734	28.0807	0.077174	0.001998	38.6291	-140.597	-167.258	0.001263	0.697920	-1.013274	-1.014554	0.008254	38.6291	-1.013434	-3.440331E+13	-2.399239E-16	NaN
1139	1.000000	0.757216	7.3762e+06	-57089.1	1055.82	-29736.8	0.000000	0.000000	6.757053	0.036111	NaN	0.000000	0.001570	0.001750	28.0795	0.026907	0.002004	13.4256	-178.945	12.5326	0.033237	0.755822	-0.955258	-0.956652	0.036111	13.4256	-0.957275	-6.027407E+12	-5.991090E-15	NaN
1139	1.000000	0.815228	7.3762e+06	-57089.1	1055.82	-29736.8	0.000000	0.000000	6.815065	0.049073	NaN	0.000000	0.001611	0.001781	28.0797	0.063521	0.002047	31.0271	-152.898	-164.063	0.054329	0.813878	-0.897246	-0.898596	0.049073	31.0271	-0.898432	-9.680081E+11	-5.069490E-14	NaN
1139	1.000000	0.873260	7.3762e+06	-57089.1	1055.82	-29736.8	0.000000	0.000000	6.873096	0.004128	NaN	0.000000	0.001613	0.001786	28.0809	0.027249	0.002032	13.4133	130.128	13.0714	-0.029038	0.871929	-0.839214	-0.840545	0.004128	13.4133	-0.839444	-1.540872E+11	-2.678748E-14	NaN
1139	1.000000	0.931282	7.3762e+06	-57089.1	1055.82	-29736.8	0.000000	0.000000	6.931118	0.014811	NaN	0.000000	0.001652	0.001752	28.0808	0.101577	0.002118	47.9639	173.813	-167.213	-0.020095	0.929952	-0.781192	-0.782522	0.014811	47.9639	-0.781424	-2.515243E+10	-5.888348E-13	NaN
1139	1.000000	0.989309	7.3762e+06	-57089.1	1055.82	-29736.8	0.000000	0.000000	6.989143	-0.030713	NaN	0.000000	0.001627	0.001784	28.0798	0.045608	0.002013	22.6575	-2.683745	15.3196	-0.047902	0.987982	-0.723165	-0.724492	-0.030713	22.6575	-0.722148	-3.924356E+9	7.826317E-12	NaN
1139	1.000000	1.047332	7.3762e+06	-57089.1	1055.82	-29736.8	0.000000	0.000000	7.047169	0.051016	NaN	0.000000	0.001608	0.001703	28.0797	0.023226	0.001992	11.6609	-140.467	-168.23	0.013628	1.046066	-0.665142	-0.666408	0.051016	11.6609	-0.668423	-7.241135E+8	-7.045331E-11	NaN
1139	1.000000	1.105342	7.3762e+06	-57089.1	1055.82	-29736.8	0.000000	0.000000	7.105177	-0.005297	NaN	0.000000	0.001610	0.001670	28.0799	0.065681	0.001952	33.6482	-127.784	13.6981	-0.065081	1.103938	-0.607132	-0.608536	-0.005297	33.6482	-0.607014	-1.039973E+8	5.093800E-11	NaN
1139	1.000000	1.163411	7.3762e+06	-57089.1	1055.82	-29736.8	0.000000	0.000000	7.163249	0.069653	NaN	0.000000	0.001657	0.001713	28.0811	0.066074	0.001864	35.4507	83.7573	-165.993	0.049068	1.162117	-0.549063	-0.550357	0.069653	35.4507	-0.550537	-1.727383E+7	-4.032271E-9	NaN
1139	1.000000	1.221401	7.3762e+06	-57089.1	1055.82	-29736.8	0.000000	0.000000	7.221236	0.001740	NaN	0.000000	0.001589	0.001731	28.0814	0.091502	0.001862	49.1401	-27.196	15.6197	-0.004235	1.220025	-0.491073	-0.492449	0.001740	49.1401	-0.491100	-2.57491e+06	-6.757895E-10	NaN
1139	1.000000	1.279406	7.3762e+06	-57089.1	1055.82	-29736.8	0.000000	0.000000	7.279242	0.023370	NaN	0.000000	0.001652	0.001726	28.0798	0.032724	0.001938	16.883	-154.629	-165.951	0.079303	1.278181	-0.433068	-0.434293	0.023370	16.883	-0.434106	-407495	-5.735127E-8	NaN
1139	1.000000	1.337425	7.3762e+06	-57089.1	1055.82	-29736.8	0.000000	0.000000	7.337261	0.014721	NaN	0.000000	0.001658	0.001717	28.0797	0.135400	0.002067	65.5113	-166.796	11.419	0.048415	1.336145	-0.375049	-0.376329	0.014721	65.5113	-0.375217	-59046.4	-2.493197E-7	NaN
1139	1.000000	1.395477	7.3762e+06	-57089.1	1055.82	-29736.8	0.000000	0.000000	7.395308	-0.092811	NaN	0.000000	0.001657	0.001754	28.0809	0.038127	0.002065	18.4655	-101.162	-169.28	-0.024612	1.394211	-0.316997	-0.318263	-0.092811	18.4655	-0.313228	-7392.26	1.255519E-5	NaN
1139	1.000000	1.453488	7.3762e+06	-57089.1	1055.82	-29736.8	0.000000	0.000000	7.453325	0.035298	NaN	0.000000	0.001705	0.001723	28.0812	0.098990	0.001919	51.5765	90.8676	14.6815	-0.022763	1.452133	-0.258986	-0.260342	0.035298	51.5765	-0.259499	-1151.43	-3.065567E-5	NaN
1139	1.000000	1.511534	7.3762e+06	-57089.1	1055.82	-29736.8	0.000000	0.000000	7.511370	0.001619	NaN	0.000000	0.001653	0.001712	28.0844	0.049593	0.002041	24.3034	-120.892	-165.378	-0.014221	1.510217	-0.200940	-0.202257	0.001619	24.3034	-0.200990	-136.757	-1.183731E-5	NaN
1139	1.000000	1.569563	7.3762e+06	-57089.1	1055.82	-29736.8	0.000000	0.000000	7.569397	-0.027543	NaN	0.000000	0.001680	0.001695	28.0799	0.066423	0.002074	32.0206	-35.1676	17.4148	0.034730	1.568205	-0.142911	-0.144269	-0.027543	32.0206	-0.142266	-13.0433	0.002112	NaN
1139	1.000000	1.627571	7.3762e+06	-57089.1	1055.82	-29736.8	0.000000	0.000000	7.627405	-0.038287	NaN	0.000000	0.001705	0.001643	28.08	0.156836	0.001931	81.2383	-52.7977	-165.6	0.065986	1.626257	-0.084903	-0.086217	-0.038287	81.2383	-0.084549	-0.801220	0.047786	NaN
1139	1.000000	1.685606	7.3762e+06	-57089.1	1055.82	-29736.8	0.000000	0.000000	7.685438	-0.067789	NaN	0.000000	0.001723	0.001731	28.0812	0.150085	0.001949	77.0096	-118.269	14.3803	0.001487	1.684233	-0.026868	-0.028241	-0.067789	77.0096	-0.026208	-0.018151	3.734689	NaN
1139	2.000000	1.724140	7.3762e+06	-57089.1	1055.82	-29736.8	0.000000	0.000000	7.724655	16.5375	NaN	0.000000	0.001729	0.001722	28.081	15.7965	0.001641	9623.56	10.0656	-178.944	17.0407	1.723805	0.011665	0.011331	16.5375	9623.56	0.010377	0.009603	1722.11	89723.1
1139	2.000000	1.738500	7.3762e+06	-57089.1	1055.82	-29736.8	0.000000	0.000000	7.740163	44.448	NaN	0.000000	0.001677	0.001714	28.0796	31.6795	0.001826	17349.5	6.343347	-0.708390	41.5493	1.738129	0.026026	0.025655	44.448	17349.5	0.024104	0.029406	1511.53	92436.3
1139	2.000000	1.752988	7.3762e+06	-57089.1	1055.82	-29736.8	0.000000	0.000000	7.756570	91.0665	NaN	0.000000	0.001754	0.001706	28.0797	43.8784	0.001792	24492	2.245866	-179.747	88.421	1.752687	0.040514	0.040213	91.0665	24492	0.037725	0.058281	1562.53	92690
1139	2.000000	1.767445	7.3762e+06	-57089.1	1055.82	-29736.8	0.000000	0.000000	7.773323	146.86	NaN	0.000000	0.001750	0.001648	28.0796	57.2555	0.001695	33775	4.030027	-4.395588	143.056	1.766999	0.054971	0.054525	146.86	33775	0.051710	0.097772	1502.08	98687.5
1139	2.000000	1.782078	7.3762e+06	-57089.1	1055.82	-29736.8	0.000000	0.000000	7.790839	216.937	NaN	0.000000	0.001711	0.001656	28.0806	71.6738	0.001800	39822.4	2.228807	176.846	221.48	1.781750	0.069604	0.069276	216.937	39822.4	0.065518	0.146337	1482.45	95109.4
1139	2.000000	1.796521	7.3762e+06	-57089.1	1055.82	-29736.8	0.000000	0.000000	7.808796	302.363	NaN	0.000000	0.001717	0.001666	28.0807	84.7272	0.001776	47703.4	5.086404	-7.659156	302.657	1.796155	0.084047	0.083681	302.363	47703.4	0.079293	0.203932	1482.67	96511.7
1139	2.000000	1.810958	7.37621e+06	-57089.1	1055.82	-29736.8	0.000000	0.000000	7.827602	408.528	NaN	0.000000	0.001727	0.001654	28.0796	96.0138	0.001880	51070	1.513935	175.922	408.114	1.810534	0.098484	0.098060	408.528	51070	0.092485	0.267396	1527.8	90232.2
1139	2.000000	1.816399	7.37621e+06	-57089.1	1055.82	-29736.8	0.000000	0.000000	7.834879	453.173	NaN	0.000000	0.001689	0.001696	28.0795	101.517	0.001779	57077.3	5.456174	-8.919973	449.275	1.815999	0.103924	0.103525	453.173	57077.3	0.097970	0.296134	1530.3	95828