File: remote_trans/data/nanoindenter/0828-1/data/Data_2025-08-06,11h17m57s/2025-07-22_16-23-58_1_1054.txt
2025-07-22, 16:23:58, 1
Index	Phase	Displacement	Time	Pos X	Pos Y	Pos Z	Rot A	Rot B	Piezo Z	Force A	Force B	Gripper	Voltage A	Voltage B	Temperature	Amplitude force	Amplitude pos	Stiffness	Phase shift	Phase excitation	Force A raw	Displacement raw	HMax	HMax raw	Real Force	Real Stiffness	Contact Depth	Area	Hardness	Reduced Mod.
[#]	[#]	[um]	[s]	[um]	[um]	[um]	[m°]	[m°]	[um]	[uN]	[uN]	[V]	[V]	[V]	[°C]	[uN]	[um]	[N/m]	[°]	[°]	[uN]	[um]	[um]	[um]	[uN]	[N/m]	[um]	[um^2]	[MPa]	[MPa]
1054	1.000000	0.002089	7.37535e+06	-52839.1	1055.82	-29748	0.000000	0.000000	6.002814	-0.047139	NaN	0.000000	0.001659	0.001721	28.0829	0.048548	0.000931	52.1292	-140.078	-160.858	-0.123214	0.000821	-1.127004	-1.128272	-0.047139	52.1292	-1.126326	-1.130664E+15	4.169150E-17	NaN
1054	1.000000	0.044009	7.37535e+06	-52839.1	1055.82	-29748	0.000000	0.000000	6.044738	0.049346	NaN	0.000000	0.001610	0.001713	28.0832	0.106824	0.001878	56.8887	133.579	13.7679	0.085505	0.042645	-1.085084	-1.086448	0.049346	56.8887	-1.085734	-3.225008E+14	-1.530093E-16	NaN
1054	1.000000	0.086029	7.37535e+06	-52839.1	1055.82	-29748	0.000000	0.000000	6.086755	-0.039008	NaN	0.000000	0.001601	0.001667	28.0832	0.029357	0.001911	15.3647	-140.881	-164.121	0.020524	0.084746	-1.043064	-1.044347	-0.039008	15.3647	-1.041160	-8.120114E+13	4.803911E-16	NaN
1054	1.000000	0.128042	7.37535e+06	-52839.1	1055.82	-29748	0.000000	0.000000	6.128766	-0.084666	NaN	0.000000	0.001611	0.001684	28.0843	0.012249	0.001883	6.505843	-149.959	18.6006	-0.057678	0.126740	-1.001050	-1.002353	-0.084666	6.505843	-0.991290	-1.731752E+13	4.889021E-15	NaN
1054	1.000000	0.170066	7.37535e+06	-52839.1	1055.82	-29748	0.000000	0.000000	6.170795	0.033777	NaN	0.000000	0.001601	0.001752	28.084	0.078989	0.001939	40.7268	114.29	-162.981	0.001492	0.168786	-0.959027	-0.960307	0.033777	40.7268	-0.959649	-6.488358E+12	-5.205847E-15	NaN
1054	1.000000	0.212089	7.37535e+06	-52839.1	1055.82	-29748	0.000000	0.000000	6.212813	-0.068590	NaN	0.000000	0.001581	0.001744	28.0841	0.035437	0.002049	17.2916	-110.559	17.081	-0.014254	0.210661	-0.917004	-0.918431	-0.068590	17.2916	-0.914029	-1.572450E+12	4.361952E-14	NaN
1054	1.000000	0.254097	7.37535e+06	-52839.1	1055.82	-29748	0.000000	0.000000	6.254824	-0.017511	NaN	0.000000	0.001520	0.001734	28.0826	0.010650	0.001943	5.480670	6.748789	-168.099	-0.038977	0.252789	-0.874996	-0.876303	-0.017511	5.480670	-0.872599	-4.331209E+11	4.043085E-14	NaN
1054	1.000000	0.296126	7.37535e+06	-52839.1	1055.82	-29748	0.000000	0.000000	6.296851	-0.058106	NaN	0.000000	0.001603	0.001736	28.0827	0.014066	0.002006	7.012082	179.306	12.7825	-0.014395	0.294765	-0.832967	-0.834328	-0.058106	7.012082	-0.826752	-1.036951E+11	5.603498E-13	NaN
1054	1.000000	0.338135	7.37535e+06	-52839.1	1055.82	-29748	0.000000	0.000000	6.338865	0.055158	NaN	0.000000	0.001533	0.001736	28.0825	0.147814	0.001994	74.13	172.296	-164.483	0.039843	0.336860	-0.790957	-0.792233	0.055158	74.13	-0.791515	-3.448777E+10	-1.599356E-12	NaN
1054	1.000000	0.380162	7.37535e+06	-52839.1	1055.82	-29748	0.000000	0.000000	6.380889	-0.028091	NaN	0.000000	0.001527	0.001747	28.0829	0.004917	0.001813	2.711864	55.732	19.2309	0.030908	0.378819	-0.748930	-0.750273	-0.028091	2.711864	-0.741161	-7.126476E+9	3.941787E-12	NaN
1054	1.000000	0.422189	7.37535e+06	-52839.1	1055.82	-29748	0.000000	0.000000	6.422914	-0.053265	NaN	0.000000	0.001542	0.001777	28.0839	0.031014	0.001966	15.772	148.231	-161.316	-0.037466	0.420869	-0.706904	-0.708224	-0.053265	15.772	-0.704371	-2.244994E+9	2.372595E-11	NaN
1054	1.000000	0.464173	7.37535e+06	-52839.1	1055.82	-29748	0.000000	0.000000	6.464901	0.008930	NaN	0.000000	0.001594	0.001690	28.0838	0.018815	0.002037	9.238920	-103.838	14.6828	-0.023822	0.462840	-0.664920	-0.666253	0.008930	9.238920	-0.665645	-6.633905E+8	-1.346070E-11	NaN
1054	1.000000	0.506209	7.37535e+06	-52839.1	1055.82	-29748	0.000000	0.000000	6.506935	-0.050870	NaN	0.000000	0.001517	0.001786	28.0841	0.059463	0.002013	29.5349	-53.5231	-168.189	0.000555	0.504988	-0.622883	-0.624105	-0.050870	29.5349	-0.621592	-1.650100E+8	3.082856E-10	NaN
1054	1.000000	0.548258	7.37535e+06	-52839.1	1055.82	-29748	0.000000	0.000000	6.548987	0.036527	NaN	0.000000	0.001581	0.001714	28.0831	0.031618	0.001903	16.612	-50.469	17.7325	-0.021854	0.546866	-0.580835	-0.582227	0.036527	16.612	-0.582484	-4.775329E+7	-7.649099E-10	NaN
1054	1.000000	0.590246	7.37535e+06	-52839.1	1055.82	-29748	0.000000	0.000000	6.590973	-0.001021	NaN	0.000000	0.001602	0.001745	28.0827	0.045161	0.001955	23.1048	132.842	-167.079	0.025935	0.588933	-0.538847	-0.540159	-0.001021	23.1048	-0.538813	-1.188231E+7	8.595610E-11	NaN
1054	1.000000	0.632227	7.37536e+06	-52839.1	1055.82	-29748	0.000000	0.000000	6.632953	-0.032609	NaN	0.000000	0.001655	0.001725	28.0827	0.042548	0.001877	22.6642	105.822	10.1407	0.015410	0.630933	-0.496866	-0.498160	-0.032609	22.6642	-0.495787	-2.99378e+06	1.089241E-8	NaN
1054	1.000000	0.674276	7.37536e+06	-52839.1	1055.82	-29748	0.000000	0.000000	6.675000	-0.064511	NaN	0.000000	0.001607	0.001709	28.0838	0.009132	0.002059	4.435385	-175.946	-164.285	-0.079868	0.672964	-0.454817	-0.456129	-0.064511	4.435385	-0.443909	-560408	1.151150E-7	NaN
1054	1.000000	0.716315	7.37536e+06	-52839.1	1055.82	-29748	0.000000	0.000000	6.717041	-0.015953	NaN	0.000000	0.001598	0.001735	28.0836	0.121368	0.002011	60.3494	16.6134	17.9302	-0.058189	0.714890	-0.412778	-0.414203	-0.015953	60.3494	-0.412580	-201872	7.902552E-8	NaN
1054	1.000000	0.758325	7.37536e+06	-52839.1	1055.82	-29748	0.000000	0.000000	6.759052	-0.008430	NaN	0.000000	0.001591	0.001737	28.0837	0.063399	0.001965	32.2593	133.368	-163.217	-0.026934	0.756972	-0.370768	-0.372121	-0.008430	32.2593	-0.370572	-50624.5	1.665199E-7	NaN
1054	1.000000	0.800374	7.37536e+06	-52839.1	1055.82	-29748	0.000000	0.000000	6.801102	0.012786	NaN	0.000000	0.001577	0.001752	28.0824	0.077457	0.002131	36.3519	151.795	12.3968	0.016585	0.798952	-0.328719	-0.330141	0.012786	36.3519	-0.328982	-12605.1	-1.014390E-6	NaN
1054	1.000000	0.842355	7.37536e+06	-52839.1	1055.82	-29748	0.000000	0.000000	6.843080	-0.042290	NaN	0.000000	0.001622	0.001757	28.0826	0.040505	0.002005	20.1997	-152.871	-166.336	0.001899	0.841046	-0.286738	-0.288047	-0.042290	20.1997	-0.285168	-2823.52	1.497781E-5	NaN
1054	1.000000	0.884383	7.37536e+06	-52839.1	1055.82	-29748	0.000000	0.000000	6.885108	-0.038684	NaN	0.000000	0.001555	0.001751	28.0825	0.054460	0.001884	28.906	-81.5813	16.849	-0.023998	0.883011	-0.244710	-0.246082	-0.038684	28.906	-0.243707	-656.656	5.891100E-5	NaN
1054	1.000000	0.926413	7.37536e+06	-52839.1	1055.82	-29748	0.000000	0.000000	6.927138	-0.056339	NaN	0.000000	0.001555	0.001701	28.0826	0.042688	0.001952	21.8725	-3.128390	-164.549	-0.113594	0.925094	-0.202680	-0.203999	-0.056339	21.8725	-0.200748	-135.514	0.000416	NaN
1054	1.000000	0.968417	7.37536e+06	-52839.1	1055.82	-29748	0.000000	0.000000	6.969143	-0.019949	NaN	0.000000	0.001525	0.001715	28.084	0.093388	0.002182	42.8	1.685077	15.1041	0.010582	0.966999	-0.160676	-0.162094	-0.019949	42.8	-0.160327	-27.7835	0.000718	NaN
1054	1.000000	1.010454	7.37536e+06	-52839.1	1055.82	-29748	0.000000	0.000000	7.011182	0.007142	NaN	0.000000	0.001607	0.001699	28.0839	0.061851	0.001943	31.8303	110.015	-169.252	-0.040511	1.009070	-0.118639	-0.120022	0.007142	31.8303	-0.118807	-4.570297	-0.001563	NaN
1054	1.000000	1.052439	7.37536e+06	-52839.1	1055.82	-29748	0.000000	0.000000	7.053165	-0.031728	NaN	0.000000	0.001612	0.001687	28.084	0.125313	0.001918	65.3509	-58.5299	16.7573	-0.021416	1.051076	-0.076653	-0.078017	-0.031728	65.3509	-0.076289	-0.498570	0.063638	NaN
1054	1.000000	1.094442	7.37536e+06	-52839.1	1055.82	-29748	0.000000	0.000000	7.095169	-0.020579	NaN	0.000000	0.001573	0.001676	28.0828	0.128861	0.001937	66.5363	-178.676	-164.971	0.055498	1.093176	-0.034650	-0.035917	-0.020579	66.5363	-0.034418	-0.030789	0.668378	NaN
1054	2.000000	1.134627	7.37536e+06	-52839.1	1055.82	-29748	0.000000	0.000000	7.135684	8.003634	NaN	0.000000	0.001578	0.001765	28.0829	8.795516	0.001628	5402.51	6.760948	9.615334	7.384333	1.134269	0.005535	0.005176	8.003634	5402.51	0.004424	0.003613	2214.98	82112.7
1054	2.000000	1.145007	7.37536e+06	-52839.1	1055.82	-29748	0.000000	0.000000	7.146663	22.5904	NaN	0.000000	0.001626	0.001730	28.083	19.3848	0.001757	11031.8	4.643395	-176.245	21.1411	1.144753	0.015914	0.015660	22.5904	11031.8	0.014378	0.014465	1561.69	83802.2
1054	2.000000	1.155500	7.37536e+06	-52839.1	1055.82	-29748	0.000000	0.000000	7.158142	46.5592	NaN	0.000000	0.001593	0.001699	28.0844	28.9405	0.001923	15046.5	5.084854	3.079876	45.5044	1.155152	0.026407	0.026059	46.5592	15046.5	0.024087	0.029375	1585.01	80208.8
1054	2.000000	1.165984	7.37536e+06	-52839.1	1055.82	-29748	0.000000	0.000000	7.169995	79.8521	NaN	0.000000	0.001630	0.001717	28.0843	39.3487	0.001836	21434.2	3.925858	179.694	79.3121	1.165663	0.036891	0.036571	79.8521	21434.2	0.034097	0.049664	1607.83	87873.5
1054	2.000000	1.176439	7.37536e+06	-52839.1	1055.82	-29748	0.000000	0.000000	7.182092	119.778	NaN	0.000000	0.001568	0.001732	28.0837	49.442	0.001741	28392.8	6.953847	-6.828968	117.159	1.176186	0.047346	0.047093	119.778	28392.8	0.044182	0.075282	1591.06	94544.3
1054	2.000000	1.186982	7.37536e+06	-52839.1	1055.82	-29748	0.000000	0.000000	7.194573	166.882	NaN	0.000000	0.001583	0.001733	28.0827	59.7027	0.001830	32621.1	9.132694	171.07	165.372	1.186581	0.057890	0.057488	166.882	32621.1	0.054053	0.105351	1584.06	91823.3
1054	2.000000	1.197455	7.37536e+06	-52839.1	1055.82	-29748	0.000000	0.000000	7.207177	218.689	NaN	0.000000	0.001626	0.001708	28.0825	69.4643	0.001741	39906.1	5.119728	-6.913724	217.421	1.197105	0.068362	0.068012	218.689	39906.1	0.064252	0.141496	1545.55	96926
1054	2.000000	1.207867	7.37536e+06	-52839.1	1055.82	-29748	0.000000	0.000000	7.220189	281.909	NaN	0.000000	0.001582	0.001735	28.0824	79.1356	0.001966	40244.5	2.376425	174.932	278.491	1.207587	0.078774	0.078494	281.909	40244.5	0.073520	0.178703	1577.53	86979
1054	2.000000	1.218458	7.37536e+06	-52839.1	1055.82	-29748	0.000000	0.000000	7.233819	355.791	NaN	0.000000	0.001598	0.001723	28.0824	88.5334	0.001813	48845.4	3.560762	-7.288352	355.08	1.218045	0.089366	0.088952	355.791	48845.4	0.083903	0.225195	1579.93	94041.2
1054	2.000000	1.228858	7.37536e+06	-52839.1	1055.82	-29748	0.000000	0.000000	7.247770	442.14	NaN	0.000000	0.001596	0.001738	28.084	99.272	0.001895	52389.2	7.945637	167.475	438.649	1.228599	0.099765	0.099506	442.14	52389.2	0.093436	0.272279	1623.85	91729.3
1054	2.000000	1.232388	7.37536e+06	-52839.1	1055.82	-29748	0.000000	0.000000	7.252801	478.645	NaN	0.000000	0.001597	0.001748	28.0838	101.556	0.001841	55162.7	5.723099	-10.5013	474.524	1.231983	0.103295	0.102891	478.645	55162.7	0.096787	0.289823	1651.51	93616.4