File: remote_trans/data/nanoindenter/0828-1/data/Data_2025-08-06,11h17m57s/2025-07-22_16-23-58_1_506.txt
2025-07-22, 16:23:58, 1
Index	Phase	Displacement	Time	Pos X	Pos Y	Pos Z	Rot A	Rot B	Piezo Z	Force A	Force B	Gripper	Voltage A	Voltage B	Temperature	Amplitude force	Amplitude pos	Stiffness	Phase shift	Phase excitation	Force A raw	Displacement raw	HMax	HMax raw	Real Force	Real Stiffness	Contact Depth	Area	Hardness	Reduced Mod.
[#]	[#]	[um]	[s]	[um]	[um]	[um]	[m°]	[m°]	[um]	[uN]	[uN]	[V]	[V]	[V]	[°C]	[uN]	[um]	[N/m]	[°]	[°]	[uN]	[um]	[um]	[um]	[uN]	[N/m]	[um]	[um^2]	[MPa]	[MPa]
506	1.000000	0.002001	7.37e+06	-51789.1	1005.82	-29751.1	0.000000	0.000000	6.002783	-0.020076	NaN	0.000000	0.001644	0.001740	28.0813	0.072290	0.000956	75.6017	59.4834	-161.145	0.057199	0.000764	-1.183303	-1.184540	-0.020076	75.6017	-1.183104	-6.523086E+15	3.077739E-18	NaN
506	1.000000	0.045993	7.37e+06	-51789.1	1005.82	-29751.1	0.000000	0.000000	6.046776	0.004594	NaN	0.000000	0.001615	0.001731	28.0809	0.085060	0.002004	42.4547	37.7288	-162.512	0.026055	0.044660	-1.139311	-1.140644	0.004594	42.4547	-1.139392	-1.692731E+15	-2.713792E-18	NaN
506	1.000000	0.090009	7.37e+06	-51789.1	1005.82	-29751.1	0.000000	0.000000	6.090793	0.020912	NaN	0.000000	0.001547	0.001754	28.0798	0.123305	0.001965	62.7468	-109.582	-167.844	0.034630	0.088664	-1.095294	-1.096639	0.020912	62.7468	-1.095544	-4.367703E+14	-4.787777E-17	NaN
506	1.000000	0.133989	7.37e+06	-51789.1	1005.82	-29751.1	0.000000	0.000000	6.134771	-0.035628	NaN	0.000000	0.001528	0.001713	28.0795	0.013316	0.001928	6.905059	101.932	-163.314	0.009568	0.132675	-1.051314	-1.052628	-0.035628	6.905059	-1.047445	-9.864168E+13	3.611874E-16	NaN
506	1.000000	0.178009	7.37e+06	-51789.1	1005.82	-29751.1	0.000000	0.000000	6.178790	-0.041051	NaN	0.000000	0.001551	0.001733	28.0799	0.072531	0.001901	38.1567	-95.4579	-165.956	0.003284	0.176698	-1.007295	-1.008606	-0.041051	38.1567	-1.006488	-2.774027E+13	1.479822E-15	NaN
506	1.000000	0.222023	7.37e+06	-51789.1	1005.82	-29751.1	0.000000	0.000000	6.222806	-0.005924	NaN	0.000000	0.001550	0.001724	28.0807	0.089549	0.001997	44.8312	-73.225	-167.844	-0.002166	0.220695	-0.963281	-0.964609	-0.005924	44.8312	-0.963182	-7.240349E+12	8.181373E-16	NaN
506	1.000000	0.266071	7.37e+06	-51789.1	1005.82	-29751.1	0.000000	0.000000	6.266855	0.036535	NaN	0.000000	0.001564	0.001719	28.0806	0.012673	0.001892	6.696422	-168.723	-170.332	-0.064374	0.264750	-0.919233	-0.920553	0.036535	6.696422	-0.923325	-2.099397E+12	-1.740285E-14	NaN
506	1.000000	0.310101	7.37e+06	-51789.1	1005.82	-29751.1	0.000000	0.000000	6.310884	0.004971	NaN	0.000000	0.001562	0.001748	28.0806	0.029392	0.002137	13.7537	-163.017	-166.1	-0.032337	0.308766	-0.875203	-0.876538	0.004971	13.7537	-0.875474	-4.736882E+11	-1.049325E-14	NaN
506	1.000000	0.354092	7.37e+06	-51789.1	1005.82	-29751.1	0.000000	0.000000	6.354877	0.038328	NaN	0.000000	0.001528	0.001732	28.0795	0.062521	0.001950	32.0622	40.6382	-166.782	-0.026382	0.352771	-0.831211	-0.832533	0.038328	32.0622	-0.832108	-1.225610E+11	-3.127260E-13	NaN
506	1.000000	0.398122	7.37e+06	-51789.1	1005.82	-29751.1	0.000000	0.000000	6.398905	-0.014112	NaN	0.000000	0.001580	0.001786	28.0799	0.050076	0.001955	25.6137	56.1249	-168.578	0.021906	0.396823	-0.787182	-0.788481	-0.014112	25.6137	-0.786768	-2.972968E+10	4.746713E-13	NaN
506	1.000000	0.442123	7.37e+06	-51789.1	1005.82	-29751.1	0.000000	0.000000	6.442906	0.003364	NaN	0.000000	0.001513	0.001717	28.0795	0.086239	0.001996	43.2069	115.05	-166.346	0.094515	0.440830	-0.743181	-0.744474	0.003364	43.2069	-0.743239	-7.606199E+9	-4.422290E-13	NaN
506	1.000000	0.486151	7.37e+06	-51789.1	1005.82	-29751.1	0.000000	0.000000	6.486935	0.008142	NaN	0.000000	0.001551	0.001726	28.0807	0.066623	0.001945	34.2446	-80.5937	-163.406	0.056617	0.484855	-0.699152	-0.700449	0.008142	34.2446	-0.699331	-1.915984E+9	-4.249511E-12	NaN
506	1.000000	0.530218	7.37e+06	-51789.1	1005.82	-29751.1	0.000000	0.000000	6.531000	-0.025252	NaN	0.000000	0.001547	0.001726	28.0806	0.030238	0.001998	15.1359	178.563	-169.297	0.042967	0.528872	-0.655085	-0.656432	-0.025252	15.1359	-0.653834	-4.570773E+8	5.524709E-11	NaN
506	1.000000	0.574205	7.37e+06	-51789.1	1005.82	-29751.1	0.000000	0.000000	6.574988	0.009739	NaN	0.000000	0.001548	0.001752	28.0807	0.111987	0.002177	51.4488	-82.3972	-166.499	0.007766	0.572826	-0.611099	-0.612478	0.009739	51.4488	-0.611241	-1.189004E+8	-8.190765E-11	NaN
506	1.000000	0.618170	7.37e+06	-51789.1	1005.82	-29751.1	0.000000	0.000000	6.618953	0.000475	NaN	0.000000	0.001540	0.001750	28.0793	0.049854	0.002086	23.8939	78.3697	-167.284	0.030811	0.616906	-0.567133	-0.568398	0.000475	23.8939	-0.567148	-2.932389E+7	-1.620992E-11	NaN
506	1.000000	0.662217	7.37e+06	-51789.1	1005.82	-29751.1	0.000000	0.000000	6.663001	0.004269	NaN	0.000000	0.001540	0.001721	28.0793	0.091219	0.002047	44.5693	-36.2678	-166.093	0.008392	0.660918	-0.523086	-0.524386	0.004269	44.5693	-0.523158	-7.20296e+06	-5.927221E-10	NaN
506	1.000000	0.706251	7.37e+06	-51789.1	1005.82	-29751.1	0.000000	0.000000	6.707033	-0.031887	NaN	0.000000	0.001571	0.001722	28.0797	0.035060	0.001944	18.0367	-103.054	-165.434	0.009756	0.704887	-0.479052	-0.480416	-0.031887	18.0367	-0.477726	-1.67375e+06	1.905130E-8	NaN
506	1.000000	0.750247	7.37e+06	-51789.1	1005.82	-29751.1	0.000000	0.000000	6.751029	-0.015856	NaN	0.000000	0.001531	0.001752	28.0808	0.059968	0.001932	31.0381	164.1	-170.589	0.019486	0.748882	-0.435057	-0.436422	-0.015856	31.0381	-0.434674	-415093	3.819935E-8	NaN
506	1.000000	0.794274	7.37e+06	-51789.1	1005.82	-29751.1	0.000000	0.000000	6.795059	0.047034	NaN	0.000000	0.001546	0.001712	28.0811	0.075185	0.001901	39.5449	-69.7874	-167.192	0.077848	0.792970	-0.391030	-0.392333	0.047034	39.5449	-0.391922	-102484	-4.589391E-7	NaN
506	1.000000	0.838318	7.37001e+06	-51789.1	1005.82	-29751.1	0.000000	0.000000	6.839100	-0.023122	NaN	0.000000	0.001510	0.001751	28.081	0.111706	0.002067	54.0376	132.654	-170.362	0.009634	0.836967	-0.346985	-0.348336	-0.023122	54.0376	-0.346664	-22832.6	1.012682E-6	NaN
506	1.000000	0.882335	7.37001e+06	-51789.1	1005.82	-29751.1	0.000000	0.000000	6.883121	0.052736	NaN	0.000000	0.001502	0.001787	28.0798	0.080286	0.002008	39.9785	92.804	-164.156	0.010097	0.881015	-0.302968	-0.304289	0.052736	39.9785	-0.303958	-5388.63	-9.786600E-6	NaN
506	1.000000	0.926324	7.37001e+06	-51789.1	1005.82	-29751.1	0.000000	0.000000	6.927109	0.054425	NaN	0.000000	0.001551	0.001738	28.0797	0.049476	0.001938	25.5362	101.319	-169.004	0.013545	0.925020	-0.258980	-0.260283	0.054425	25.5362	-0.260578	-1196.14	-4.550093E-5	NaN
506	1.000000	0.970361	7.37001e+06	-51789.1	1005.82	-29751.1	0.000000	0.000000	6.971143	-0.019343	NaN	0.000000	0.001550	0.001742	28.0799	0.060406	0.002048	29.4939	-15.355	-164.181	-0.017260	0.969027	-0.214943	-0.216277	-0.019343	29.4939	-0.214451	-226.298	8.547436E-5	NaN
506	1.000000	1.014322	7.37001e+06	-51789.1	1005.82	-29751.1	0.000000	0.000000	7.015104	-0.019985	NaN	0.000000	0.001551	0.001700	28.0812	0.098354	0.002000	49.1728	-20.7157	-168.029	-0.054725	1.013023	-0.170982	-0.172281	-0.019985	49.1728	-0.170677	-42.2047	0.000474	NaN
506	1.000000	1.058397	7.37001e+06	-51789.1	1005.82	-29751.1	0.000000	0.000000	7.059180	-0.001263	NaN	0.000000	0.001607	0.001720	28.0808	0.073804	0.002052	35.964	34.6077	-167.049	0.017988	1.057072	-0.126907	-0.128232	-0.001263	35.964	-0.126881	-6.623285	0.000191	NaN
506	1.000000	1.102419	7.37001e+06	-51789.1	1005.82	-29751.1	0.000000	0.000000	7.103203	0.039386	NaN	0.000000	0.001627	0.001762	28.0807	0.063224	0.001835	34.4617	79.1177	-167.247	0.012087	1.101085	-0.082885	-0.084219	0.039386	34.4617	-0.083742	-0.765800	-0.051431	NaN
506	1.000000	1.146417	7.37001e+06	-51789.1	1005.82	-29751.1	0.000000	0.000000	7.147201	0.021180	NaN	0.000000	0.001615	0.001725	28.0796	0.070684	0.002039	34.6743	65.793	-169.368	0.041437	1.145109	-0.038886	-0.040195	0.021180	34.6743	-0.039344	-0.043198	-0.490307	NaN
506	1.000000	1.190325	7.37001e+06	-51789.1	1005.82	-29751.1	0.000000	0.000000	7.191418	7.532944	NaN	0.000000	0.001600	0.001679	28.0799	7.712453	0.001634	4720.86	10.2959	-172.29	6.146531	1.189083	0.005021	0.003779	7.532944	4720.86	0.003825	0.003086	2441.23	77645.6
506	2.000000	1.201959	7.37001e+06	-51789.1	1005.82	-29751.1	0.000000	0.000000	7.203806	25.8708	NaN	0.000000	0.001628	0.001739	28.0798	21.0899	0.001796	11743.9	8.590166	-179.887	26.3707	1.201692	0.016656	0.016389	25.8708	11743.9	0.015003	0.015290	1692.02	86772.8
506	2.000000	1.212947	7.37001e+06	-51789.1	1005.82	-29751.1	0.000000	0.000000	7.216007	55.3699	NaN	0.000000	0.001630	0.001684	28.0808	32.8538	0.001816	18090.9	9.889160	175.161	55.2122	1.212571	0.027644	0.027267	55.3699	18090.9	0.025348	0.031652	1749.34	92904
506	2.000000	1.223872	7.37001e+06	-51789.1	1005.82	-29751.1	0.000000	0.000000	7.228315	89.0013	NaN	0.000000	0.001600	0.001701	28.0809	43.4805	0.001924	22604.3	1.427180	-179.478	87.0016	1.223632	0.038568	0.038328	89.0013	22604.3	0.035615	0.053189	1673.31	89547.6
506	2.000000	1.234838	7.37001e+06	-51789.1	1005.82	-29751.1	0.000000	0.000000	7.241157	134.596	NaN	0.000000	0.001600	0.001713	28.0818	52.9536	0.001768	29954.6	5.248198	174.681	130.726	1.234552	0.049535	0.049248	134.596	29954.6	0.046165	0.080928	1663.15	96202.7
506	2.000000	1.245821	7.37001e+06	-51789.1	1005.82	-29751.1	0.000000	0.000000	7.254427	190.22	NaN	0.000000	0.001616	0.001728	28.0809	62.1209	0.001662	37371.2	2.475711	174.692	187.719	1.245523	0.060517	0.060219	190.22	37371.2	0.056699	0.114240	1665.1	101019
506	2.000000	1.256811	7.37001e+06	-51789.1	1005.82	-29751.1	0.000000	0.000000	7.267978	252.49	NaN	0.000000	0.001569	0.001727	28.0795	73.7775	0.001721	42860.8	4.399574	172.274	249.284	1.256596	0.071507	0.071292	252.49	42860.8	0.067089	0.152448	1656.23	100293
506	2.000000	1.267808	7.37001e+06	-51789.1	1005.82	-29751.1	0.000000	0.000000	7.281798	321.123	NaN	0.000000	0.001642	0.001663	28.0794	83.0459	0.001759	47202.7	2.148522	174.105	316.88	1.267467	0.082505	0.082163	321.123	47202.7	0.077402	0.195496	1642.6	97537.3
506	2.000000	1.278806	7.37001e+06	-51789.1	1005.82	-29751.1	0.000000	0.000000	7.295798	394.151	NaN	0.000000	0.001586	0.001689	28.08	94.4759	0.001848	51129.9	4.422509	171.25	391.595	1.278595	0.093502	0.093291	394.151	51129.9	0.087720	0.243549	1618.36	94657.5
506	2.000000	1.289806	7.37001e+06	-51789.1	1005.82	-29751.1	0.000000	0.000000	7.310199	476.823	NaN	0.000000	0.001664	0.001688	28.0807	105.813	0.001910	55388	5.513694	169.741	477.604	1.289518	0.104502	0.104214	476.823	55388	0.098046	0.296543	1607.94	92927.7