File: remote_trans/data/nanoindenter/0828-1/data/Data_2025-08-06,11h17m57s/2025-07-22_16-23-58_1_1124.txt
2025-07-22, 16:23:58, 1
Index	Phase	Displacement	Time	Pos X	Pos Y	Pos Z	Rot A	Rot B	Piezo Z	Force A	Force B	Gripper	Voltage A	Voltage B	Temperature	Amplitude force	Amplitude pos	Stiffness	Phase shift	Phase excitation	Force A raw	Displacement raw	HMax	HMax raw	Real Force	Real Stiffness	Contact Depth	Area	Hardness	Reduced Mod.
[#]	[#]	[um]	[s]	[um]	[um]	[um]	[m°]	[m°]	[um]	[uN]	[uN]	[V]	[V]	[V]	[°C]	[uN]	[um]	[N/m]	[°]	[°]	[uN]	[um]	[um]	[um]	[uN]	[N/m]	[um]	[um^2]	[MPa]	[MPa]
1124	1.000000	0.002168	7.37605e+06	-56339.1	1055.82	-29739.1	0.000000	0.000000	6.002813	-0.101691	NaN	0.000000	0.001673	0.001665	28.0837	0.101807	0.000888	114.663	-168.438	-163.385	-0.024222	0.000913	-1.121469	-1.122724	-0.101691	114.663	-1.120804	-9.533731E+14	1.066649E-16	NaN
1124	1.000000	0.044089	7.37605e+06	-56339.1	1055.82	-29739.1	0.000000	0.000000	6.044734	-0.110724	NaN	0.000000	0.001701	0.001615	28.0823	0.027613	0.001888	14.6221	-127.388	9.884254	-0.089789	0.042713	-1.079548	-1.080924	-0.110724	14.6221	-1.073869	-2.234427E+14	4.955347E-16	NaN
1124	1.000000	0.086118	7.37605e+06	-56339.1	1055.82	-29739.1	0.000000	0.000000	6.086766	-0.030618	NaN	0.000000	0.001613	0.001671	28.0825	0.072482	0.001915	37.842	-85.0919	-164.536	-0.031123	0.084802	-1.037519	-1.038836	-0.030618	37.842	-1.036912	-7.119370E+13	4.300666E-16	NaN
1124	1.000000	0.128121	7.37605e+06	-56339.1	1055.82	-29739.1	0.000000	0.000000	6.128770	0.004295	NaN	0.000000	0.001630	0.001622	28.0823	0.075539	0.002062	36.6359	136.147	15.2915	-0.040893	0.126743	-0.995517	-0.996894	0.004295	36.6359	-0.995604	-1.979635E+13	-2.169824E-16	NaN
1124	1.000000	0.170154	7.37605e+06	-56339.1	1055.82	-29739.2	0.000000	0.000000	6.170800	-0.065070	NaN	0.000000	0.001600	0.001699	28.0821	0.136941	0.001993	68.7141	53.3595	-165.438	-0.011807	0.168797	-0.953483	-0.954840	-0.065070	68.7141	-0.952773	-5.241133E+12	1.241523E-14	NaN
1124	1.000000	0.212171	7.37605e+06	-56339.1	1055.82	-29739.2	0.000000	0.000000	6.212820	-0.008116	NaN	0.000000	0.001698	0.001618	28.0836	0.163575	0.002059	79.4512	-179.109	16.6987	0.044262	0.210794	-0.911466	-0.912843	-0.008116	79.4512	-0.911389	-1.448532E+12	5.602916E-15	NaN
1124	1.000000	0.254151	7.37605e+06	-56339.1	1055.82	-29739.2	0.000000	0.000000	6.254800	-0.013133	NaN	0.000000	0.001649	0.001682	28.0834	0.049980	0.002046	24.4248	78.8841	-168.049	0.015292	0.252848	-0.869486	-0.870790	-0.013133	24.4248	-0.869083	-3.881787E+11	3.383353E-14	NaN
1124	1.000000	0.296202	7.37605e+06	-56339.1	1055.82	-29739.2	0.000000	0.000000	6.296853	0.026429	NaN	0.000000	0.001652	0.001612	28.084	0.049191	0.002073	23.7311	8.357912	13.4646	-0.031205	0.294815	-0.827435	-0.828822	0.026429	23.7311	-0.828270	-1.087269E+11	-2.430796E-13	NaN
1124	1.000000	0.338218	7.37605e+06	-56339.1	1055.82	-29739.2	0.000000	0.000000	6.338863	-0.085419	NaN	0.000000	0.001664	0.001659	28.083	0.130463	0.002095	62.2595	-158.197	-162.912	0.003071	0.336931	-0.785419	-0.786706	-0.085419	62.2595	-0.784390	-2.759846E+10	3.095077E-12	NaN
1124	1.000000	0.380254	7.37605e+06	-56339.1	1055.82	-29739.2	0.000000	0.000000	6.380903	-0.012947	NaN	0.000000	0.001646	0.001663	28.0828	0.084999	0.002130	39.8965	175.901	15.0814	0.021687	0.378849	-0.743383	-0.744788	-0.012947	39.8965	-0.743139	-7.582457E+9	1.707506E-12	NaN
1124	1.000000	0.422235	7.37605e+06	-56339.1	1055.82	-29739.2	0.000000	0.000000	6.422884	0.009042	NaN	0.000000	0.001593	0.001701	28.0827	0.001135	0.001982	0.572699	75.2829	-164.773	0.015314	0.420897	-0.701403	-0.702740	0.009042	0.572699	-0.713244	-2.967001E+9	-3.047625E-12	NaN
1124	1.000000	0.464301	7.37605e+06	-56339.1	1055.82	-29739.2	0.000000	0.000000	6.464950	-0.022838	NaN	0.000000	0.001666	0.001705	28.0841	0.059595	0.001985	30.0285	-130.132	9.575770	-0.035138	0.462885	-0.659336	-0.660752	-0.022838	30.0285	-0.658765	-5.340195E+8	4.276691E-11	NaN
1124	1.000000	0.506272	7.37605e+06	-56339.1	1055.82	-29739.2	0.000000	0.000000	6.506921	3.492221E-5	NaN	0.000000	0.001624	0.001694	28.0839	0.156941	0.002016	77.8642	-106.947	-166.794	-0.048334	0.504957	-0.617365	-0.618680	3.492221E-5	77.8642	-0.617365	-1.443494E+8	-2.419284E-13	NaN
1124	1.000000	0.548328	7.37605e+06	-56339.1	1055.82	-29739.2	0.000000	0.000000	6.548977	-0.006995	NaN	0.000000	0.001619	0.001685	28.0841	0.162584	0.002092	77.7131	74.1467	12.9998	-0.048691	0.546937	-0.575310	-0.576700	-0.006995	77.7131	-0.575242	-3.793502E+7	1.843869E-10	NaN
1124	1.000000	0.590338	7.37605e+06	-56339.1	1055.82	-29739.2	0.000000	0.000000	6.590985	-0.055930	NaN	0.000000	0.001693	0.001723	28.0826	0.081426	0.002037	39.982	51.7212	-164.461	-0.140131	0.589071	-0.533299	-0.534566	-0.055930	39.982	-0.532250	-9.63422e+06	5.805321E-9	NaN
1124	1.000000	0.632352	7.37605e+06	-56339.1	1055.82	-29739.2	0.000000	0.000000	6.633000	-0.034430	NaN	0.000000	0.001680	0.001699	28.0825	0.083854	0.001997	41.9802	130.827	14.9643	-0.042861	0.630953	-0.491285	-0.492684	-0.034430	41.9802	-0.490669	-2.5395e+06	1.355795E-8	NaN
1124	1.000000	0.674339	7.37605e+06	-56339.1	1055.82	-29739.2	0.000000	0.000000	6.674988	-0.015815	NaN	0.000000	0.001662	0.001718	28.0825	0.107020	0.002028	52.7796	115.18	-166.502	0.003962	0.673028	-0.449298	-0.450609	-0.015815	52.7796	-0.449073	-662654	2.386636E-8	NaN
1124	1.000000	0.716374	7.37605e+06	-56339.1	1055.82	-29739.2	0.000000	0.000000	6.717022	-0.031418	NaN	0.000000	0.001680	0.001709	28.0827	0.091016	0.001948	46.7293	135.008	14.9658	-0.045478	0.715035	-0.407263	-0.408603	-0.031418	46.7293	-0.406759	-166836	1.883154E-7	NaN
1124	1.000000	0.758400	7.37605e+06	-56339.1	1055.82	-29739.2	0.000000	0.000000	6.759050	0.006355	NaN	0.000000	0.001612	0.001704	28.0843	0.028315	0.002032	13.9314	-169.757	-164.412	-0.030355	0.757031	-0.365237	-0.366606	0.006355	13.9314	-0.365579	-42894.9	-1.481548E-7	NaN
1124	1.000000	0.800406	7.37605e+06	-56339.1	1055.82	-29739.2	0.000000	0.000000	6.801055	-0.001150	NaN	0.000000	0.001688	0.001732	28.0844	0.120100	0.001901	63.1762	-140.338	14.3813	-0.124313	0.799043	-0.323231	-0.324594	-0.001150	63.1762	-0.323218	-10374.2	1.108205E-7	NaN
1124	1.000000	0.842427	7.37605e+06	-56339.1	1055.82	-29739.2	0.000000	0.000000	6.843076	0.001410	NaN	0.000000	0.001686	0.001660	28.0842	0.162116	0.002006	80.8105	-176.74	-161.596	-0.026510	0.841081	-0.281210	-0.282556	0.001410	80.8105	-0.281223	-2462.73	-5.727185E-7	NaN
1124	1.000000	0.884455	7.37605e+06	-56339.1	1055.82	-29739.2	0.000000	0.000000	6.885102	-0.052931	NaN	0.000000	0.001662	0.001686	28.0837	0.039391	0.002049	19.2269	-110.658	11.3913	-0.102113	0.883073	-0.239182	-0.240564	-0.052931	19.2269	-0.237118	-518.161	0.000102	NaN
1124	1.000000	0.926443	7.37605e+06	-56339.1	1055.82	-29739.2	0.000000	0.000000	6.927093	0.029372	NaN	0.000000	0.001610	0.001652	28.083	0.107961	0.002014	53.6159	-51.8804	-163.092	-0.080239	0.925163	-0.197195	-0.198474	0.029372	53.6159	-0.197605	-120.302	-0.000244	NaN
1124	1.000000	0.968482	7.37605e+06	-56339.1	1055.82	-29739.2	0.000000	0.000000	6.969130	-0.027273	NaN	0.000000	0.001590	0.001649	28.083	0.058689	0.001984	29.5799	-71.9213	14.7296	0.074935	0.967167	-0.155155	-0.156470	-0.027273	29.5799	-0.154464	-21.8234	0.001250	NaN
1124	1.000000	1.010516	7.37605e+06	-56339.1	1055.82	-29739.2	0.000000	0.000000	7.011166	0.020474	NaN	0.000000	0.001643	0.001691	28.0843	0.030873	0.002028	15.2231	-7.085724	-165.444	0.018395	1.009201	-0.113121	-0.114436	0.020474	15.2231	-0.114129	-3.665437	-0.005586	NaN
1124	1.000000	1.052507	7.37605e+06	-56339.1	1055.82	-29739.2	0.000000	0.000000	7.053156	-0.000927	NaN	0.000000	0.001597	0.001660	28.084	0.024277	0.002003	12.1217	163.982	13.2831	-0.026663	1.051124	-0.071131	-0.072513	-0.000927	12.1217	-0.071073	-0.364363	0.002543	NaN
1124	1.000000	1.094530	7.37605e+06	-56339.1	1055.82	-29739.2	0.000000	0.000000	7.095177	-0.048820	NaN	0.000000	0.001638	0.001708	28.084	0.028266	0.002016	14.0186	-27.6236	-166.785	-0.017147	1.093255	-0.029107	-0.030382	-0.048820	14.0186	-0.026495	-0.018473	2.642775	NaN
1124	2.000000	1.130534	7.37605e+06	-56339.1	1055.82	-29739.2	0.000000	0.000000	7.131686	12.2187	NaN	0.000000	0.001573	0.001680	28.0829	10.2725	0.001717	5981.59	10.1315	5.091113	12.1158	1.130150	0.006897	0.006513	12.2187	5981.59	0.005365	0.004469	2734.38	81753.6
1124	2.000000	1.140933	7.37605e+06	-56339.1	1055.82	-29739.2	0.000000	0.000000	7.142811	29.8528	NaN	0.000000	0.001620	0.001698	28.0824	21.4828	0.001860	11549.5	7.436833	179.306	29.1121	1.140688	0.017296	0.017051	29.8528	11549.5	0.015358	0.015765	1893.58	84040
1124	2.000000	1.151418	7.37605e+06	-56339.1	1055.82	-29739.2	0.000000	0.000000	7.154258	53.2602	NaN	0.000000	0.001611	0.001693	28.0827	30.8068	0.001896	16250.4	6.270853	-0.985825	50.3755	1.151084	0.027781	0.027447	53.2602	16250.4	0.025323	0.031606	1685.15	83513.3
1124	2.000000	1.161902	7.37605e+06	-56339.1	1055.82	-29739.2	0.000000	0.000000	7.166402	93.5869	NaN	0.000000	0.001610	0.001688	28.0838	39.7994	0.001824	21818.1	2.175414	179.978	91.0965	1.161530	0.038265	0.037893	93.5869	21818.1	0.035048	0.051858	1804.67	87534.8
1124	2.000000	1.172372	7.37605e+06	-56339.1	1055.82	-29739.2	0.000000	0.000000	7.178816	140.857	NaN	0.000000	0.001584	0.001659	28.084	49.4629	0.001902	26005.6	5.716415	-4.947927	138.658	1.172139	0.048735	0.048502	140.857	26005.6	0.044672	0.076660	1837.43	85813.6
1124	2.000000	1.182891	7.37605e+06	-56339.1	1055.82	-29739.2	0.000000	0.000000	7.191545	194.555	NaN	0.000000	0.001646	0.001673	28.084	59.7761	0.001746	34228.9	5.847427	172.862	192.155	1.182561	0.059254	0.058924	194.555	34228.9	0.054991	0.108462	1793.76	94956.9
1124	2.000000	1.193363	7.37605e+06	-56339.1	1055.82	-29739.2	0.000000	0.000000	7.204562	256.424	NaN	0.000000	0.001574	0.001705	28.0838	70.8138	0.001899	37287.5	5.248991	-7.374807	254.217	1.192959	0.069726	0.069322	256.424	37287.5	0.064568	0.142698	1796.97	90183.7
1124	2.000000	1.203797	7.37605e+06	-56339.1	1055.82	-29739.2	0.000000	0.000000	7.218027	330.104	NaN	0.000000	0.001606	0.001732	28.0829	78.2472	0.001738	45017.1	-2.795968	179.138	324.359	1.203546	0.080160	0.079909	330.104	45017.1	0.074660	0.183559	1798.35	95998.1
1124	2.000000	1.214419	7.37605e+06	-56339.1	1055.82	-29739.2	0.000000	0.000000	7.231698	404.221	NaN	0.000000	0.001605	0.001633	28.0828	90.55	0.001802	50261.7	3.909213	-8.673478	404.65	1.214126	0.090781	0.090488	404.221	50261.7	0.084750	0.229209	1763.54	95916.7
1124	2.000000	1.224827	7.37605e+06	-56339.1	1055.82	-29739.2	0.000000	0.000000	7.246379	508.079	NaN	0.000000	0.001654	0.001647	28.0829	99.7722	0.001815	54966.8	3.395501	172.182	507.015	1.224478	0.101190	0.100841	508.079	54966.8	0.094258	0.276534	1837.31	95499.1
1124	2.000000	1.226758	7.37605e+06	-56339.1	1055.82	-29739.2	0.000000	0.000000	7.249017	525.272	NaN	0.000000	0.001664	0.001663	28.0827	101.34	0.001748	57979.3	2.796065	172.152	522.699	1.226502	0.103121	0.102865	525.272	57979.3	0.096326	0.287377	1827.82	98814.5