File: remote_trans/data/nanoindenter/0828-1/data/Data_2025-08-06,11h17m57s/2025-07-22_16-23-58_1_625.txt
2025-07-22, 16:23:58, 1
Index	Phase	Displacement	Time	Pos X	Pos Y	Pos Z	Rot A	Rot B	Piezo Z	Force A	Force B	Gripper	Voltage A	Voltage B	Temperature	Amplitude force	Amplitude pos	Stiffness	Phase shift	Phase excitation	Force A raw	Displacement raw	HMax	HMax raw	Real Force	Real Stiffness	Contact Depth	Area	Hardness	Reduced Mod.
[#]	[#]	[um]	[s]	[um]	[um]	[um]	[m°]	[m°]	[um]	[uN]	[uN]	[V]	[V]	[V]	[°C]	[uN]	[um]	[N/m]	[°]	[°]	[uN]	[um]	[um]	[um]	[uN]	[N/m]	[um]	[um^2]	[MPa]	[MPa]
625	1.000000	0.002581	7.37116e+06	-45839.1	1005.82	-29771	0.000000	0.000000	6.002795	-0.014350	NaN	0.000000	0.001747	0.001668	28.0836	0.064712	0.000915	70.6923	158.319	-160.91	-0.075577	0.001367	-1.094804	-1.096017	-0.014350	70.6923	-1.094651	-4.248777E+14	3.377522E-17	NaN
625	1.000000	0.044542	7.37116e+06	-45839.1	1005.82	-29771	0.000000	0.000000	6.044760	0.066648	NaN	0.000000	0.001724	0.001685	28.0834	0.091814	0.002024	45.3715	9.648419	14.851	0.040228	0.043147	-1.052842	-1.054238	0.066648	45.3715	-1.053944	-1.206227E+14	-5.525352E-16	NaN
625	1.000000	0.086538	7.37116e+06	-45839.1	1005.82	-29771.1	0.000000	0.000000	6.086751	-0.031383	NaN	0.000000	0.001634	0.001682	28.0835	0.111092	0.001921	57.8447	-11.124	-167.066	0.000816	0.085207	-1.010846	-1.012178	-0.031383	57.8447	-1.010439	-3.135423E+13	1.000913E-15	NaN
625	1.000000	0.128558	7.37117e+06	-45839.1	1005.82	-29771.1	0.000000	0.000000	6.128771	-0.044839	NaN	0.000000	0.001657	0.001696	28.0845	0.097618	0.001980	49.3067	-81.3091	14.1894	-0.102933	0.127271	-0.968826	-0.970114	-0.044839	49.3067	-0.968144	-8.446050E+12	5.308890E-15	NaN
625	1.000000	0.170582	7.37117e+06	-45839.1	1005.82	-29771.1	0.000000	0.000000	6.170794	-0.047723	NaN	0.000000	0.001679	0.001696	28.0846	0.098356	0.002037	48.2878	-132.842	-162.953	-0.058796	0.169261	-0.926803	-0.928124	-0.047723	48.2878	-0.926062	-2.285795E+12	2.087796E-14	NaN
625	1.000000	0.212590	7.37117e+06	-45839.1	1005.82	-29771.1	0.000000	0.000000	6.212804	0.009043	NaN	0.000000	0.001548	0.001692	28.0842	0.024251	0.002065	11.745	133.119	12.6173	-0.000141	0.211247	-0.884795	-0.886138	0.009043	11.745	-0.885373	-6.447009E+11	-1.402743E-14	NaN
625	1.000000	0.254605	7.37117e+06	-45839.1	1005.82	-29771.1	0.000000	0.000000	6.254819	-0.000839	NaN	0.000000	0.001587	0.001678	28.0844	0.097685	0.001878	52.0224	-51.2474	-166.893	-0.035965	0.253316	-0.842780	-0.844068	-0.000839	52.0224	-0.842768	-1.709181E+11	4.907013E-15	NaN
625	1.000000	0.296667	7.37117e+06	-45839.1	1005.82	-29771.1	0.000000	0.000000	6.296880	-0.046950	NaN	0.000000	0.001567	0.001669	28.0835	0.024078	0.001854	12.9847	94.6384	16.2797	-0.050859	0.295304	-0.800717	-0.802081	-0.046950	12.9847	-0.798006	-4.224626E+10	1.111337E-12	NaN
625	1.000000	0.338649	7.37117e+06	-45839.1	1005.82	-29771.1	0.000000	0.000000	6.338860	-0.085378	NaN	0.000000	0.001544	0.001720	28.0833	0.055886	0.001888	29.596	-132.822	-163.561	-0.014772	0.337328	-0.758736	-0.760057	-0.085378	29.596	-0.756572	-1.155229E+10	7.390546E-12	NaN
625	1.000000	0.380662	7.37117e+06	-45839.1	1005.82	-29771.1	0.000000	0.000000	6.380876	-0.001986	NaN	0.000000	0.001537	0.001733	28.0837	0.051167	0.001968	26.0037	150.216	14.6068	-0.019413	0.379314	-0.716723	-0.718070	-0.001986	26.0037	-0.716665	-3.303630E+9	6.010342E-13	NaN
625	1.000000	0.422679	7.37117e+06	-45839.1	1005.82	-29771.1	0.000000	0.000000	6.422896	0.069149	NaN	0.000000	0.001597	0.001687	28.0849	0.094412	0.001998	47.2609	-127.448	-163.025	0.040475	0.421424	-0.674706	-0.675961	0.069149	47.2609	-0.675803	-9.136952E+8	-7.568025E-11	NaN
625	1.000000	0.464715	7.37117e+06	-45839.1	1005.82	-29771.1	0.000000	0.000000	6.464928	-0.020337	NaN	0.000000	0.001609	0.001727	28.0849	0.051587	0.002001	25.7773	161.325	18.4723	0.019674	0.463323	-0.632670	-0.634061	-0.020337	25.7773	-0.632078	-2.299123E+8	8.845376E-11	NaN
625	1.000000	0.506704	7.37117e+06	-45839.1	1005.82	-29771.1	0.000000	0.000000	6.506918	-0.020802	NaN	0.000000	0.001586	0.001702	28.0849	0.094127	0.001960	48.0313	-50.0255	-164.901	0.030302	0.505374	-0.590681	-0.592011	-0.020802	48.0313	-0.590356	-6.131548E+7	3.392691E-10	NaN
625	1.000000	0.548745	7.37117e+06	-45839.1	1005.82	-29771.1	0.000000	0.000000	6.548958	-0.033155	NaN	0.000000	0.001598	0.001752	28.0831	0.046203	0.002073	22.2886	-36.7231	16.2753	-0.065967	0.547405	-0.548640	-0.549980	-0.033155	22.2886	-0.547524	-1.569130E+7	2.112951E-9	NaN
625	1.000000	0.590769	7.37117e+06	-45839.1	1005.82	-29771.1	0.000000	0.000000	6.590982	-0.032554	NaN	0.000000	0.001601	0.001711	28.0833	0.004491	0.001979	2.269463	164.247	-166.486	0.056432	0.589416	-0.506616	-0.507969	-0.032554	2.269463	-0.495858	-3.00062e+06	1.084895E-8	NaN
625	1.000000	0.632781	7.37117e+06	-45839.1	1005.82	-29771.1	0.000000	0.000000	6.632996	0.009621	NaN	0.000000	0.001578	0.001695	28.0831	0.043596	0.002088	20.8767	-141.106	15.1671	0.044997	0.631451	-0.464603	-0.465934	0.009621	20.8767	-0.464949	-1.10798e+06	-8.683485E-9	NaN
625	1.000000	0.674815	7.37117e+06	-45839.1	1005.82	-29771.1	0.000000	0.000000	6.675030	0.016189	NaN	0.000000	0.001565	0.001708	28.0842	0.054849	0.001965	27.9076	-173.552	-161.771	-0.021518	0.673437	-0.422570	-0.423948	0.016189	27.9076	-0.423005	-283801	-5.704314E-8	NaN
625	1.000000	0.716797	7.37117e+06	-45839.1	1005.82	-29771.1	0.000000	0.000000	6.717010	-0.039189	NaN	0.000000	0.001677	0.001766	28.0843	0.050612	0.001963	25.7829	72.7269	19.4721	0.074719	0.715407	-0.380587	-0.381978	-0.039189	25.7829	-0.379448	-67914	5.770421E-7	NaN
625	1.000000	0.758809	7.37117e+06	-45839.1	1005.82	-29771.1	0.000000	0.000000	6.759023	-0.001275	NaN	0.000000	0.001574	0.001707	28.0839	0.038675	0.002004	19.2999	-13.763	-163.328	-0.104691	0.757540	-0.338576	-0.339844	-0.001275	19.2999	-0.338526	-17380.7	7.336951E-8	NaN
625	1.000000	0.800857	7.37117e+06	-45839.1	1005.82	-29771.1	0.000000	0.000000	6.801073	0.045915	NaN	0.000000	0.001534	0.001692	28.0839	0.039198	0.002013	19.4726	-165.868	14.8993	0.022136	0.799476	-0.296528	-0.297909	0.045915	19.4726	-0.298296	-4438.7	-1.034419E-5	NaN
625	1.000000	0.842866	7.37117e+06	-45839.1	1005.82	-29771.1	0.000000	0.000000	6.843079	-0.023556	NaN	0.000000	0.001633	0.001725	28.0829	0.048457	0.002030	23.8695	105.318	-165.313	-0.050686	0.841557	-0.254519	-0.255828	-0.023556	23.8695	-0.253779	-940.383	2.504892E-5	NaN
625	1.000000	0.884884	7.37117e+06	-45839.1	1005.82	-29771.1	0.000000	0.000000	6.885098	-0.025134	NaN	0.000000	0.001618	0.001733	28.083	0.057654	0.002042	28.2409	134.509	12.5044	-0.042433	0.883517	-0.212500	-0.213868	-0.025134	28.2409	-0.211833	-205.336	0.000122	NaN
625	1.000000	0.926867	7.37117e+06	-45839.1	1005.82	-29771.1	0.000000	0.000000	6.927081	9.010613E-5	NaN	0.000000	0.001604	0.001681	28.0832	0.063312	0.001983	31.9326	29.6981	-163.421	-0.071333	0.925588	-0.170518	-0.171796	9.010613E-5	31.9326	-0.170520	-41.9414	-2.148383E-6	NaN
625	1.000000	0.968893	7.37117e+06	-45839.1	1005.82	-29771.1	0.000000	0.000000	6.969108	0.011947	NaN	0.000000	0.001615	0.001708	28.0845	0.045648	0.001875	24.3448	65.6187	17.0367	-0.054508	0.967558	-0.128492	-0.129827	0.011947	24.3448	-0.128860	-7.241372	-0.001650	NaN
625	1.000000	1.010943	7.37117e+06	-45839.1	1005.82	-29771.1	0.000000	0.000000	7.011156	-0.025934	NaN	0.000000	0.001590	0.001738	28.0843	0.118882	0.001992	59.6794	161.967	-165.808	-0.025270	1.009612	-0.086442	-0.087772	-0.025934	59.6794	-0.086116	-0.874181	0.029666	NaN
625	1.000000	1.052955	7.37117e+06	-45839.1	1005.82	-29771.1	0.000000	0.000000	7.053169	-0.017921	NaN	0.000000	0.001634	0.001751	28.0842	0.040782	0.002014	20.2455	-46.6044	13.5772	-0.010027	1.051602	-0.044430	-0.045783	-0.017921	20.2455	-0.043766	-0.058918	0.304171	NaN
625	1.000000	1.094942	7.37117e+06	-45839.1	1005.82	-29771.1	0.000000	0.000000	7.095244	2.137384	NaN	0.000000	0.001637	0.001728	28.083	3.030529	0.001952	1552.86	9.790934	-167.676	0.894739	1.093590	-0.002443	-0.003795	2.137384	1552.86	-0.003475	-0.002436	-877.368	NaN
625	2.000000	1.109969	7.37117e+06	-45839.1	1005.82	-29771.1	0.000000	0.000000	7.111213	25.0494	NaN	0.000000	0.001597	0.001735	28.0829	19.9082	0.001891	10526.5	9.611506	0.110277	24.1865	1.109673	0.012585	0.012289	25.0494	10526.5	0.010800	0.010084	2484.08	95772.7
625	2.000000	1.120450	7.37117e+06	-45839.1	1005.82	-29771.1	0.000000	0.000000	7.122645	48.1808	NaN	0.000000	0.001602	0.001766	28.0832	30.0923	0.001717	17525.3	6.003143	178.343	47.288	1.120198	0.023065	0.022813	48.1808	17525.3	0.021003	0.024144	1995.59	103048
625	2.000000	1.130880	7.37117e+06	-45839.1	1005.82	-29771.1	0.000000	0.000000	7.134728	88.4056	NaN	0.000000	0.001591	0.001716	28.0841	40.0893	0.001743	22994.9	4.815643	-2.959243	84.4299	1.130582	0.033495	0.033197	88.4056	22994.9	0.030611	0.042021	2103.86	102488
625	2.000000	1.141366	7.37117e+06	-45839.1	1005.82	-29771.1	0.000000	0.000000	7.146983	131.421	NaN	0.000000	0.001598	0.001702	28.0842	49.2886	0.001804	27323.8	5.185594	176.178	128.431	1.141065	0.043981	0.043680	131.421	27323.8	0.040374	0.064998	2021.9	97918
625	2.000000	1.151964	7.37117e+06	-45839.1	1005.82	-29771.1	0.000000	0.000000	7.159587	180.217	NaN	0.000000	0.001610	0.001683	28.0842	58.4683	0.001699	34421.6	6.290877	-7.040137	181.736	1.151667	0.054579	0.054282	180.217	34421.6	0.050653	0.094441	1908.24	102335
625	2.000000	1.162512	7.37117e+06	-45839.1	1005.82	-29771.1	0.000000	0.000000	7.172422	235.879	NaN	0.000000	0.001678	0.001724	28.0841	71.1089	0.001829	38883.3	9.612982	169.028	241.328	1.162066	0.065127	0.064681	235.879	38883.3	0.060577	0.127886	1844.45	99340.3
625	2.000000	1.172972	7.37117e+06	-45839.1	1005.82	-29771.1	0.000000	0.000000	7.185635	302.817	NaN	0.000000	0.001599	0.001710	28.0833	80.4681	0.001785	45086.2	7.244887	-10.4573	305.228	1.172642	0.075588	0.075257	302.817	45086.2	0.070550	0.166334	1820.54	101001
625	2.000000	1.183360	7.37117e+06	-45839.1	1005.82	-29771.1	0.000000	0.000000	7.199167	379.308	NaN	0.000000	0.001604	0.001748	28.083	90.0262	0.001817	49553.2	5.951003	170.702	375.623	1.183082	0.085975	0.085698	379.308	49553.2	0.080234	0.208192	1821.92	99223.2
625	2.000000	1.193814	7.37117e+06	-45839.1	1005.82	-29771.1	0.000000	0.000000	7.213417	471.656	NaN	0.000000	0.001633	0.001699	28.0831	100.436	0.001735	57891.6	5.939864	-10.7397	465.612	1.193459	0.096429	0.096075	471.656	57891.6	0.090319	0.256427	1839.34	104450
625	2.000000	1.199351	7.37117e+06	-45839.1	1005.82	-29771.1	0.000000	0.000000	7.220888	518.704	NaN	0.000000	0.001620	0.001700	28.0844	106.871	0.001837	58182.8	4.235085	170.969	518.09	1.199108	0.101966	0.101723	518.704	58182.8	0.095280	0.281870	1840.23	100125