File: remote_trans/data/nanoindenter/0828-1/data/Data_2025-08-06,11h17m57s/2025-07-22_16-23-58_1_776.txt
2025-07-22, 16:23:58, 1
Index	Phase	Displacement	Time	Pos X	Pos Y	Pos Z	Rot A	Rot B	Piezo Z	Force A	Force B	Gripper	Voltage A	Voltage B	Temperature	Amplitude force	Amplitude pos	Stiffness	Phase shift	Phase excitation	Force A raw	Displacement raw	HMax	HMax raw	Real Force	Real Stiffness	Contact Depth	Area	Hardness	Reduced Mod.
[#]	[#]	[um]	[s]	[um]	[um]	[um]	[m°]	[m°]	[um]	[uN]	[uN]	[V]	[V]	[V]	[°C]	[uN]	[um]	[N/m]	[°]	[°]	[uN]	[um]	[um]	[um]	[uN]	[N/m]	[um]	[um^2]	[MPa]	[MPa]
776	1.000000	0.002648	7.37264e+06	-38939.1	1055.82	-29795.6	0.000000	0.000000	6.002805	-0.036847	NaN	0.000000	0.001589	0.001715	28.0821	0.081357	0.000848	95.9028	53.9199	-162.421	-0.057608	0.001324	-1.174530	-1.175853	-0.036847	95.9028	-1.174242	-4.962738E+15	7.424734E-18	NaN
776	1.000000	0.046562	7.37264e+06	-38939.1	1055.82	-29795.6	0.000000	0.000000	6.046718	-0.057378	NaN	0.000000	0.001575	0.001712	28.0823	0.069241	0.001887	36.6852	-56.1804	-162.837	-0.053245	0.045280	-1.130616	-1.131897	-0.057378	36.6852	-1.129443	-1.244953E+15	4.608828E-17	NaN
776	1.000000	0.090595	7.37265e+06	-38939.1	1055.82	-29795.6	0.000000	0.000000	6.090751	-0.051408	NaN	0.000000	0.001628	0.001705	28.0838	0.161378	0.002142	75.3497	110.02	-165.423	-0.042601	0.089286	-1.086583	-1.087891	-0.051408	75.3497	-1.086071	-3.258764E+14	1.577542E-16	NaN
776	1.000000	0.134640	7.37265e+06	-38939.1	1055.82	-29795.6	0.000000	0.000000	6.134796	-0.052357	NaN	0.000000	0.001609	0.001709	28.0834	0.029036	0.002035	14.2665	-164.498	-166.743	-0.106912	0.133342	-1.042538	-1.043835	-0.052357	14.2665	-1.039785	-7.781822E+13	6.728178E-16	NaN
776	1.000000	0.178638	7.37265e+06	-38939.1	1055.82	-29795.6	0.000000	0.000000	6.178792	-0.103305	NaN	0.000000	0.001628	0.001721	28.0834	0.044757	0.001965	22.7772	-35.735	-165.305	-0.114496	0.177299	-0.998540	-0.999879	-0.103305	22.7772	-0.995138	-1.951230E+13	5.294340E-15	NaN
776	1.000000	0.222652	7.37265e+06	-38939.1	1055.82	-29795.6	0.000000	0.000000	6.222811	0.005428	NaN	0.000000	0.001627	0.001706	28.0826	0.096835	0.002170	44.6267	-82.9737	-162.343	-0.026159	0.221340	-0.954526	-0.955838	0.005428	44.6267	-0.954617	-5.549982E+12	-9.780894E-16	NaN
776	1.000000	0.266665	7.37265e+06	-38939.1	1055.82	-29795.6	0.000000	0.000000	6.266822	-0.045498	NaN	0.000000	0.001591	0.001699	28.0823	0.008721	0.002024	4.309560	-12.0361	-165.708	-0.048480	0.265420	-0.910513	-0.911758	-0.045498	4.309560	-0.902594	-1.101847E+12	4.129253E-14	NaN
776	1.000000	0.310702	7.37265e+06	-38939.1	1055.82	-29795.6	0.000000	0.000000	6.310856	-0.090257	NaN	0.000000	0.001595	0.001702	28.0821	0.052976	0.001980	26.7576	-35.8309	-166.256	-0.106950	0.309425	-0.866476	-0.867752	-0.090257	26.7576	-0.863946	-3.307726E+11	2.728686E-13	NaN
776	1.000000	0.354701	7.37265e+06	-38939.1	1055.82	-29795.6	0.000000	0.000000	6.354859	-0.015645	NaN	0.000000	0.001590	0.001697	28.0819	0.097197	0.001971	49.3135	-134.574	-165.691	-0.024874	0.353400	-0.822476	-0.823778	-0.015645	49.3135	-0.822238	-9.006684E+10	1.737054E-13	NaN
776	1.000000	0.398754	7.37265e+06	-38939.1	1055.82	-29795.6	0.000000	0.000000	6.398911	-0.024005	NaN	0.000000	0.001651	0.001733	28.0829	0.021846	0.001867	11.7022	112.08	-167.335	0.026917	0.397461	-0.778424	-0.779717	-0.024005	11.7022	-0.776886	-2.182259E+10	1.099999E-12	NaN
776	1.000000	0.442765	7.37265e+06	-38939.1	1055.82	-29795.6	0.000000	0.000000	6.442922	-0.047515	NaN	0.000000	0.001580	0.001732	28.0832	0.076087	0.001965	38.7144	-32.1141	-160.281	-0.026398	0.441483	-0.734412	-0.735695	-0.047515	38.7144	-0.733492	-5.602660E+9	8.480870E-12	NaN
776	1.000000	0.486794	7.37265e+06	-38939.1	1055.82	-29795.6	0.000000	0.000000	6.486950	-0.061943	NaN	0.000000	0.001577	0.001760	28.0833	0.046032	0.002049	22.4661	168.834	-163.41	-0.102646	0.485485	-0.690384	-0.691693	-0.061943	22.4661	-0.688316	-1.354891E+9	4.571815E-11	NaN
776	1.000000	0.530811	7.37265e+06	-38939.1	1055.82	-29795.6	0.000000	0.000000	6.530967	-0.064998	NaN	0.000000	0.001610	0.001707	28.082	0.115880	0.001926	60.1755	109.976	-164.507	-0.022413	0.529489	-0.646366	-0.647689	-0.064998	60.1755	-0.645556	-3.519706E+8	1.846702E-10	NaN
776	1.000000	0.574831	7.37265e+06	-38939.1	1055.82	-29795.6	0.000000	0.000000	6.574992	0.044537	NaN	0.000000	0.001562	0.001741	28.0819	0.030715	0.001985	15.4733	-99.6442	-161.445	-0.015924	0.573507	-0.602346	-0.603671	0.044537	15.4733	-0.604505	-9.604829E+7	-4.636914E-10	NaN
776	1.000000	0.618848	7.37265e+06	-38939.1	1055.82	-29795.6	0.000000	0.000000	6.619005	-0.033552	NaN	0.000000	0.001594	0.001722	28.082	0.133603	0.002052	65.1209	143.428	-166.243	0.026945	0.617529	-0.558330	-0.559649	-0.033552	65.1209	-0.557944	-2.187397E+7	1.533897E-9	NaN
776	1.000000	0.662849	7.37265e+06	-38939.1	1055.82	-29795.6	0.000000	0.000000	6.663003	-0.102443	NaN	0.000000	0.001570	0.001738	28.0835	0.015271	0.002013	7.586184	-50.4589	-169.111	-0.071667	0.661512	-0.514329	-0.515666	-0.102443	7.586184	-0.504201	-3.92286e+06	2.611439E-8	NaN
776	1.000000	0.706866	7.37265e+06	-38939.1	1055.82	-29795.6	0.000000	0.000000	6.707023	-0.028701	NaN	0.000000	0.001583	0.001717	28.0839	0.052630	0.002092	25.1567	-86.8029	-164.059	-0.045572	0.705567	-0.470312	-0.471610	-0.028701	25.1567	-0.469456	-1.28169e+06	2.239308E-8	NaN
776	1.000000	0.750870	7.37265e+06	-38939.1	1055.82	-29795.6	0.000000	0.000000	6.751026	-0.064339	NaN	0.000000	0.001576	0.001718	28.0837	0.046857	0.002035	23.0277	118.554	-163.65	0.032728	0.749549	-0.426308	-0.427629	-0.064339	23.0277	-0.424212	-295203	2.179489E-7	NaN
776	1.000000	0.794902	7.37265e+06	-38939.1	1055.82	-29795.6	0.000000	0.000000	6.795059	-0.037426	NaN	0.000000	0.001568	0.001732	28.0823	0.050704	0.001971	25.7192	125.636	-164.855	0.005562	0.793589	-0.382276	-0.383588	-0.037426	25.7192	-0.381185	-71926.4	5.203324E-7	NaN
776	1.000000	0.838931	7.37265e+06	-38939.1	1055.82	-29795.6	0.000000	0.000000	6.839085	-0.109214	NaN	0.000000	0.001570	0.001703	28.0823	0.028897	0.001963	14.7247	-148.158	-163.488	-0.083484	0.837619	-0.338247	-0.339559	-0.109214	14.7247	-0.332684	-14280.3	7.647934E-6	NaN
776	1.000000	0.882948	7.37265e+06	-38939.1	1055.82	-29795.6	0.000000	0.000000	6.883105	-0.054691	NaN	0.000000	0.001545	0.001730	28.0822	0.048252	0.002067	23.3461	156.645	-166.731	0.010604	0.881593	-0.294230	-0.295584	-0.054691	23.3461	-0.292473	-3633.42	1.505228E-5	NaN
776	1.000000	0.926948	7.37265e+06	-38939.1	1055.82	-29795.6	0.000000	0.000000	6.927106	-0.021494	NaN	0.000000	0.001647	0.001724	28.0837	0.060701	0.002172	27.9405	104.737	-169.99	-0.028276	0.925661	-0.250230	-0.251517	-0.021494	27.9405	-0.249653	-812.075	2.646749E-5	NaN
776	1.000000	0.970969	7.37265e+06	-38939.1	1055.82	-29795.6	0.000000	0.000000	6.971124	-0.084181	NaN	0.000000	0.001553	0.001704	28.0836	0.057095	0.002006	28.4615	-161.152	-167.32	-0.040935	0.969656	-0.206208	-0.207522	-0.084181	28.4615	-0.203990	-153.135	0.000550	NaN
776	1.000000	1.014981	7.37265e+06	-38939.1	1055.82	-29795.6	0.000000	0.000000	7.015138	-0.035692	NaN	0.000000	0.001618	0.001739	28.0836	0.071648	0.001959	36.5811	26.314	-168.471	-0.074455	1.013704	-0.162196	-0.163474	-0.035692	36.5811	-0.161465	-29.1048	0.001226	NaN
776	1.000000	1.058997	7.37265e+06	-38939.1	1055.82	-29795.6	0.000000	0.000000	7.059154	-0.039037	NaN	0.000000	0.001582	0.001720	28.0822	0.072395	0.001947	37.1907	-82.982	-170.19	-0.093818	1.057732	-0.118181	-0.119446	-0.039037	37.1907	-0.117394	-4.277519	0.009126	NaN
776	1.000000	1.102991	7.37265e+06	-38939.1	1055.82	-29795.6	0.000000	0.000000	7.103146	-0.079083	NaN	0.000000	0.001649	0.001685	28.0823	0.061566	0.002017	30.5189	-71.15	-162.717	-0.080447	1.101704	-0.074187	-0.075473	-0.079083	30.5189	-0.072243	-0.391303	0.202103	NaN
776	1.000000	1.147043	7.37265e+06	-38939.1	1055.82	-29795.6	0.000000	0.000000	7.147196	-0.129331	NaN	0.000000	0.001642	0.001693	28.0824	0.078081	0.002072	37.6854	-111.962	-162.177	-0.097080	1.145728	-0.030135	-0.031450	-0.129331	37.6854	-0.027561	-0.019728	6.555557	NaN
776	2.000000	1.185633	7.37265e+06	-38939.1	1055.82	-29795.6	0.000000	0.000000	7.186346	13.4893	NaN	0.000000	0.001632	0.001697	28.0841	11.7858	0.001669	7062.58	3.753505	-171.2	13.5111	1.185286	0.008456	0.008108	13.4893	7062.58	0.007023	0.006057	2227.16	82911.9
776	2.000000	1.196482	7.37265e+06	-38939.1	1055.82	-29795.6	0.000000	0.000000	7.198089	35.2409	NaN	0.000000	0.001637	0.001736	28.0836	22.6949	0.001754	12942.5	6.174742	-177.823	33.5032	1.196179	0.019305	0.019001	35.2409	12942.5	0.017263	0.018422	1912.99	87121.4
776	2.000000	1.207467	7.37265e+06	-38939.1	1055.82	-29795.6	0.000000	0.000000	7.209991	57.565	NaN	0.000000	0.001576	0.001720	28.0834	31.9909	0.001784	17937	5.189644	-179.66	55.6294	1.207243	0.030289	0.030065	57.565	17937	0.027882	0.036468	1578.51	85816.1
776	2.000000	1.218447	7.37265e+06	-38939.1	1055.82	-29795.6	0.000000	0.000000	7.222340	90.8795	NaN	0.000000	0.001547	0.001735	28.0822	41.9332	0.001843	22751.7	4.574221	179.072	88.1958	1.218132	0.041269	0.040954	90.8795	22751.7	0.038273	0.059642	1523.76	85116.4
776	2.000000	1.229541	7.37265e+06	-38939.1	1055.82	-29795.6	0.000000	0.000000	7.235043	130.014	NaN	0.000000	0.001620	0.001722	28.0823	53.6187	0.001968	27238.5	8.104546	174.347	135.178	1.229104	0.052364	0.051926	130.014	27238.5	0.048784	0.088691	1465.91	83563.5
776	2.000000	1.240453	7.37265e+06	-38939.1	1055.82	-29795.6	0.000000	0.000000	7.248352	188.358	NaN	0.000000	0.001550	0.001734	28.0823	60.7092	0.001790	33920.4	3.687339	177.094	188.437	1.240166	0.063275	0.062988	188.358	33920.4	0.059111	0.122638	1535.88	88495.5
776	2.000000	1.251501	7.37265e+06	-38939.1	1055.82	-29795.6	0.000000	0.000000	7.261771	246.062	NaN	0.000000	0.001590	0.001738	28.0835	72.3849	0.001900	38103	6.645381	173.475	248.648	1.251115	0.074323	0.073937	246.062	38103	0.069480	0.161979	1519.1	86497.5
776	2.000000	1.262354	7.37265e+06	-38939.1	1055.82	-29795.6	0.000000	0.000000	7.275006	304.019	NaN	0.000000	0.001582	0.001694	28.0832	82.5677	0.001900	43445.9	5.017826	173.822	299.318	1.262056	0.085177	0.084879	304.019	43445.9	0.079929	0.206804	1470.08	87285.5
776	2.000000	1.273399	7.37265e+06	-38939.1	1055.82	-29795.6	0.000000	0.000000	7.289151	379.481	NaN	0.000000	0.001588	0.001759	28.0837	90.607	0.001810	50045.4	3.619039	174.606	379.376	1.272998	0.096221	0.095820	379.481	50045.4	0.090534	0.257506	1473.68	90104
776	2.000000	1.282283	7.37265e+06	-38939.1	1055.82	-29795.6	0.000000	0.000000	7.300914	449.551	NaN	0.000000	0.001560	0.001737	28.0832	99.5145	0.001775	56064.5	4.471241	172.943	440.994	1.281940	0.105105	0.104763	449.551	56064.5	0.099091	0.302178	1487.71	93181.6