File: remote_trans/data/nanoindenter/0828-1/data/Data_2025-08-06,11h17m57s/2025-07-22_16-23-58_1_694.txt
2025-07-22, 16:23:58, 1
Index	Phase	Displacement	Time	Pos X	Pos Y	Pos Z	Rot A	Rot B	Piezo Z	Force A	Force B	Gripper	Voltage A	Voltage B	Temperature	Amplitude force	Amplitude pos	Stiffness	Phase shift	Phase excitation	Force A raw	Displacement raw	HMax	HMax raw	Real Force	Real Stiffness	Contact Depth	Area	Hardness	Reduced Mod.
[#]	[#]	[um]	[s]	[um]	[um]	[um]	[m°]	[m°]	[um]	[uN]	[uN]	[V]	[V]	[V]	[°C]	[uN]	[um]	[N/m]	[°]	[°]	[uN]	[um]	[um]	[um]	[uN]	[N/m]	[um]	[um^2]	[MPa]	[MPa]
694	1.000000	0.002845	7.37184e+06	-42389.1	1005.82	-29782.8	0.000000	0.000000	6.002782	0.031574	NaN	0.000000	0.001699	0.001726	28.0809	0.096194	0.000928	103.68	125.33	-169.607	-0.011491	0.001575	-1.089900	-1.091170	0.031574	103.68	-1.090128	-3.694333E+14	-8.546678E-17	NaN
694	1.000000	0.044803	7.37184e+06	-42389.1	1005.82	-29782.8	0.000000	0.000000	6.044735	-0.071938	NaN	0.000000	0.001772	0.001738	28.0806	0.044247	0.001982	22.325	-39.5072	12.8331	-0.106512	0.043443	-1.047943	-1.049302	-0.071938	22.325	-1.045526	-9.295347E+13	7.739168E-16	NaN
694	1.000000	0.086825	7.37184e+06	-42389.1	1005.82	-29782.8	0.000000	0.000000	6.086762	0.024264	NaN	0.000000	0.001788	0.001743	28.0818	0.056182	0.002137	26.2891	84.4232	-165.085	-0.006992	0.085562	-1.005920	-1.007183	0.024264	26.2891	-1.006613	-2.784761E+13	-8.713012E-16	NaN
694	1.000000	0.128849	7.37184e+06	-42389.1	1005.82	-29782.8	0.000000	0.000000	6.128782	-0.043735	NaN	0.000000	0.001801	0.001719	28.0821	0.079220	0.002039	38.8434	30.8564	11.9228	-0.007782	0.127445	-0.963897	-0.965300	-0.043735	38.8434	-0.963052	-7.211365E+12	6.064667E-15	NaN
694	1.000000	0.170853	7.37184e+06	-42389.1	1005.82	-29782.8	0.000000	0.000000	6.170788	-0.005593	NaN	0.000000	0.001760	0.001676	28.0819	0.082618	0.002118	39.0091	-160.02	-166.211	-0.118492	0.169579	-0.921893	-0.923167	-0.005593	39.0091	-0.921785	-2.001289E+12	2.794910E-15	NaN
694	1.000000	0.212856	7.37184e+06	-42389.1	1005.82	-29782.8	0.000000	0.000000	6.212788	-0.082424	NaN	0.000000	0.001695	0.001715	28.0809	0.005247	0.002053	2.555739	-66.0185	11.7727	-0.111969	0.211498	-0.879889	-0.881247	-0.082424	2.555739	-0.855701	-2.558166E+11	3.222001E-13	NaN
694	1.000000	0.254896	7.37184e+06	-42389.1	1005.82	-29782.8	0.000000	0.000000	6.254831	-0.007364	NaN	0.000000	0.001716	0.001732	28.0809	0.117385	0.001953	60.0993	110.617	-166.946	-0.012211	0.253585	-0.837850	-0.839160	-0.007364	60.0993	-0.837758	-1.461884E+11	5.037082E-14	NaN
694	1.000000	0.296902	7.37184e+06	-42389.1	1005.82	-29782.8	0.000000	0.000000	6.296832	-0.120788	NaN	0.000000	0.001738	0.001683	28.0808	0.088944	0.002098	42.392	-25.7834	13.9425	-0.145257	0.295538	-0.795844	-0.797208	-0.120788	42.392	-0.793707	-3.693359E+10	3.270409E-12	NaN
694	1.000000	0.338937	7.37184e+06	-42389.1	1005.82	-29782.8	0.000000	0.000000	6.338870	-0.067379	NaN	0.000000	0.001710	0.001729	28.0811	0.018357	0.001982	9.261739	-63.252	-163.31	-0.108002	0.337629	-0.753809	-0.755116	-0.067379	9.261739	-0.748352	-8.928734E+9	7.546289E-12	NaN
694	1.000000	0.380955	7.37184e+06	-42389.1	1005.82	-29782.8	0.000000	0.000000	6.380892	0.019429	NaN	0.000000	0.001748	0.001696	28.0826	0.066981	0.001936	34.5987	31.8734	14.7524	-0.020799	0.379612	-0.711790	-0.713133	0.019429	34.5987	-0.712211	-2.872270E+9	-6.764428E-12	NaN
694	1.000000	0.422972	7.37184e+06	-42389.1	1005.82	-29782.8	0.000000	0.000000	6.422905	-0.056856	NaN	0.000000	0.001788	0.001725	28.0822	0.039206	0.002083	18.8252	-155.66	-168.16	-0.108490	0.421684	-0.669773	-0.671062	-0.056856	18.8252	-0.667508	-7.035254E+8	8.081591E-11	NaN
694	1.000000	0.464975	7.37184e+06	-42389.1	1005.82	-29782.8	0.000000	0.000000	6.464909	-0.043106	NaN	0.000000	0.001775	0.001698	28.0822	0.084552	0.002027	41.7171	-94.6756	12.6521	-0.119731	0.463602	-0.627770	-0.629143	-0.043106	41.7171	-0.626995	-1.957744E+8	2.201806E-10	NaN
694	1.000000	0.506983	7.37184e+06	-42389.1	1005.82	-29782.8	0.000000	0.000000	6.506915	-0.074351	NaN	0.000000	0.001787	0.001692	28.0809	0.158445	0.001927	82.2114	137.492	-164.635	-0.074114	0.505712	-0.585763	-0.587033	-0.074351	82.2114	-0.585085	-5.186590E+7	1.433521E-9	NaN
694	1.000000	0.549031	7.37184e+06	-42389.1	1005.82	-29782.8	0.000000	0.000000	6.548966	-0.013375	NaN	0.000000	0.001726	0.001720	28.081	0.026729	0.001971	13.5588	93.394	15.249	-0.006048	0.547647	-0.543714	-0.545098	-0.013375	13.5588	-0.542974	-1.357072E+7	9.856094E-10	NaN
694	1.000000	0.591003	7.37184e+06	-42389.1	1005.82	-29782.8	0.000000	0.000000	6.590939	0.028442	NaN	0.000000	0.001788	0.001726	28.0807	0.086656	0.001990	43.5424	30.2451	-167.694	-0.013543	0.589697	-0.501743	-0.503048	0.028442	43.5424	-0.502233	-3.68265e+06	-7.723187E-9	NaN
694	1.000000	0.633100	7.37184e+06	-42389.1	1005.82	-29782.8	0.000000	0.000000	6.633032	-0.078692	NaN	0.000000	0.001726	0.001762	28.0823	0.063228	0.001964	32.1883	0.471466	16.403	-0.017740	0.631770	-0.459645	-0.460975	-0.078692	32.1883	-0.457812	-879551	8.946827E-8	NaN
694	1.000000	0.675080	7.37184e+06	-42389.1	1005.82	-29782.8	0.000000	0.000000	6.675013	-0.081573	NaN	0.000000	0.001806	0.001722	28.0822	0.015988	0.002064	7.746737	3.404720	-165.428	-0.053925	0.673799	-0.417665	-0.418946	-0.081573	7.746737	-0.409768	-184118	4.430478E-7	NaN
694	1.000000	0.717092	7.37184e+06	-42389.1	1005.82	-29782.8	0.000000	0.000000	6.717027	-0.014291	NaN	0.000000	0.001770	0.001720	28.0816	0.028347	0.001947	14.5582	77.7488	15.049	-0.005772	0.715748	-0.375653	-0.376997	-0.014291	14.5582	-0.374917	-58462.7	2.444541E-7	NaN
694	1.000000	0.759109	7.37184e+06	-42389.1	1005.82	-29782.8	0.000000	0.000000	6.759043	-0.036552	NaN	0.000000	0.001705	0.001701	28.0814	0.056127	0.001916	29.2957	-177.077	-163.931	-0.037037	0.757748	-0.333637	-0.334997	-0.036552	29.2957	-0.332701	-14288.2	2.558226E-6	NaN
694	1.000000	0.801145	7.37184e+06	-42389.1	1005.82	-29782.8	0.000000	0.000000	6.801077	-0.090330	NaN	0.000000	0.001702	0.001712	28.0811	0.111569	0.001929	57.8265	-155.761	15.4992	-0.075967	0.799733	-0.291600	-0.293012	-0.090330	57.8265	-0.290429	-3386.28	2.667523E-5	NaN
694	1.000000	0.843128	7.37184e+06	-42389.1	1005.82	-29782.8	0.000000	0.000000	6.843063	-0.002101	NaN	0.000000	0.001731	0.001745	28.0812	0.078336	0.001938	40.431	20.523	-165.543	0.030441	0.841821	-0.249618	-0.250924	-0.002101	40.431	-0.249579	-809.939	2.594311E-6	NaN
694	1.000000	0.885182	7.37184e+06	-42389.1	1005.82	-29782.8	0.000000	0.000000	6.885117	-0.019086	NaN	0.000000	0.001743	0.001729	28.081	0.072522	0.002000	36.2644	79.5334	13.1156	-0.044569	0.883740	-0.207564	-0.209005	-0.019086	36.2644	-0.207169	-172.536	0.000111	NaN
694	1.000000	0.927183	7.37184e+06	-42389.1	1005.82	-29782.8	0.000000	0.000000	6.927117	-0.038665	NaN	0.000000	0.001751	0.001705	28.0822	0.070829	0.002188	32.3773	126.726	-167.5	0.029206	0.925873	-0.165562	-0.166873	-0.038665	32.3773	-0.164667	-33.1472	0.001166	NaN
694	1.000000	0.969196	7.37184e+06	-42389.1	1005.82	-29782.8	0.000000	0.000000	6.969131	-0.011667	NaN	0.000000	0.001719	0.001773	28.0823	0.010164	0.001813	5.606440	-169.845	13.6181	-0.066208	0.967842	-0.123550	-0.124903	-0.011667	5.606440	-0.121989	-5.297372	0.002202	NaN
694	1.000000	1.011232	7.37184e+06	-42389.1	1005.82	-29782.8	0.000000	0.000000	7.011165	-0.052912	NaN	0.000000	0.001660	0.001709	28.0822	0.107246	0.002150	49.8759	54.4978	-163.616	-0.017199	1.009893	-0.081513	-0.082852	-0.052912	49.8759	-0.080718	-0.645049	0.082028	NaN
694	1.000000	1.053240	7.37184e+06	-42389.1	1005.82	-29782.8	0.000000	0.000000	7.053173	-0.063943	NaN	0.000000	0.001716	0.001737	28.0809	0.090019	0.001945	46.2883	-12.1295	12.1354	0.003462	1.051858	-0.039505	-0.040888	-0.063943	46.2883	-0.038469	-0.040645	1.573201	NaN
694	1.000000	1.095202	7.37184e+06	-42389.1	1005.82	-29782.8	0.000000	0.000000	7.095215	1.886366	NaN	0.000000	0.001614	0.001739	28.0811	2.710761	0.001865	1453.53	4.520728	-166.357	0.643911	1.093933	0.002457	0.001187	1.886366	1453.53	0.001483	0.001141	1652.81	39309.4
694	2.000000	1.110179	7.37184e+06	-42389.1	1005.82	-29782.8	0.000000	0.000000	7.111114	24.3367	NaN	0.000000	0.001639	0.001741	28.0813	18.8819	0.001762	10716.8	8.491548	0.283003	23.0433	1.109797	0.017433	0.017051	24.3367	10716.8	0.015730	0.016271	1495.68	76758.9
694	2.000000	1.120612	7.37184e+06	-42389.1	1005.82	-29782.8	0.000000	0.000000	7.122713	52.7031	NaN	0.000000	0.001616	0.001752	28.0826	29.4793	0.001729	17045.4	2.015965	-177.726	50.5888	1.120282	0.027866	0.027536	52.7031	17045.4	0.025547	0.032019	1646	87031.8
694	2.000000	1.131083	7.37184e+06	-42389.1	1005.82	-29782.8	0.000000	0.000000	7.134719	90.0327	NaN	0.000000	0.001641	0.001720	28.0824	40.5869	0.001874	21657.4	6.269149	-3.561423	87.5233	1.130689	0.038338	0.037944	90.0327	21657.4	0.035220	0.052260	1722.79	86555.7
694	2.000000	1.141619	7.37184e+06	-42389.1	1005.82	-29782.8	0.000000	0.000000	7.147201	137.382	NaN	0.000000	0.001656	0.001722	28.0824	50.4506	0.001796	28095.7	6.842974	173.657	137.087	1.141254	0.048873	0.048509	137.382	28095.7	0.045206	0.078173	1757.4	91808.9
694	2.000000	1.152070	7.37184e+06	-42389.1	1005.82	-29782.8	0.000000	0.000000	7.159758	188.616	NaN	0.000000	0.001642	0.001772	28.0815	58.9023	0.001815	32446.5	2.035072	-2.427808	186.455	1.151864	0.059325	0.059119	188.616	32446.5	0.054965	0.108376	1740.39	90048.3
694	2.000000	1.162524	7.37184e+06	-42389.1	1005.82	-29782.8	0.000000	0.000000	7.172961	255.512	NaN	0.000000	0.001583	0.001693	28.0807	69.5902	0.001709	40726.3	1.877082	175.714	250.517	1.162213	0.069778	0.069467	255.512	40726.3	0.065073	0.144624	1766.73	97842.6
694	2.000000	1.173172	7.37184e+06	-42389.1	1005.82	-29782.8	0.000000	0.000000	7.186264	320.113	NaN	0.000000	0.001605	0.001731	28.0807	80.2893	0.001793	44768.6	4.780901	-7.569471	323.882	1.172837	0.080427	0.080091	320.113	44768.6	0.075064	0.185295	1727.59	95019.9
694	2.000000	1.183594	7.37184e+06	-42389.1	1005.82	-29782.8	0.000000	0.000000	7.199865	397.467	NaN	0.000000	0.001639	0.001741	28.0808	90.1699	0.001885	47836.3	6.276871	170.443	398.973	1.183267	0.090848	0.090521	397.467	47836.3	0.084617	0.228577	1738.88	91414.3
694	2.000000	1.193908	7.37185e+06	-42389.1	1005.82	-29782.8	0.000000	0.000000	7.213616	481.08	NaN	0.000000	0.001672	0.001759	28.0818	98.9452	0.001856	53307.7	4.685323	-8.428144	471.279	1.193530	0.101163	0.100785	481.08	53307.7	0.094395	0.277246	1735.21	92497.5
694	2.000000	1.199546	7.37185e+06	-42389.1	1005.82	-29782.8	0.000000	0.000000	7.221126	526.636	NaN	0.000000	0.001658	0.001743	28.0819	105.222	0.001859	56598.3	3.846347	171.879	525.343	1.199243	0.106800	0.106498	526.636	56598.3	0.099822	0.306146	1720.21	93457