File: remote_trans/data/nanoindenter/0828-1/data/Data_2025-08-06,11h17m57s/2025-07-22_16-23-58_1_169.txt
2025-07-22, 16:23:58, 1
Index	Phase	Displacement	Time	Pos X	Pos Y	Pos Z	Rot A	Rot B	Piezo Z	Force A	Force B	Gripper	Voltage A	Voltage B	Temperature	Amplitude force	Amplitude pos	Stiffness	Phase shift	Phase excitation	Force A raw	Displacement raw	HMax	HMax raw	Real Force	Real Stiffness	Contact Depth	Area	Hardness	Reduced Mod.
[#]	[#]	[um]	[s]	[um]	[um]	[um]	[m°]	[m°]	[um]	[uN]	[uN]	[V]	[V]	[V]	[°C]	[uN]	[um]	[N/m]	[°]	[°]	[uN]	[um]	[um]	[um]	[uN]	[N/m]	[um]	[um^2]	[MPa]	[MPa]
169	1.000000	0.002518	7.36669e+06	-47089.1	955.818	-29767.5	0.000000	0.000000	6.002834	0.046699	NaN	0.000000	0.001677	0.001763	28.1288	0.112616	0.000974	115.651	-52.7796	-168.429	-0.039581	0.001234	-1.089115	-1.090398	0.046699	115.651	-1.089417	-3.614017E+14	-1.292151E-16	NaN
169	1.000000	0.044422	7.36669e+06	-47089.1	955.819	-29767.5	0.000000	0.000000	6.044736	-0.015750	NaN	0.000000	0.001713	0.001733	28.0868	0.045295	0.001978	22.8996	86.7877	14.6917	0.015323	0.043070	-1.047211	-1.048562	-0.015750	22.8996	-1.046695	-9.637879E+13	1.634222E-16	NaN
169	1.000000	0.086430	7.36669e+06	-47089.1	955.82	-29767.5	0.000000	0.000000	6.086750	0.119951	NaN	0.000000	0.001731	0.001751	28.0804	0.042865	0.001952	21.9583	52.4203	-165.499	0.106329	0.085120	-1.005202	-1.006512	0.119951	21.9583	-1.009299	-3.026564E+13	-3.963264E-15	NaN
169	1.000000	0.128458	7.36669e+06	-47089.1	955.819	-29767.5	0.000000	0.000000	6.128777	0.117936	NaN	0.000000	0.001713	0.001776	28.1109	0.110124	0.001935	56.9072	1.241858	13.7033	0.094706	0.127107	-0.963175	-0.964525	0.117936	56.9072	-0.964729	-7.596600E+12	-1.552484E-14	NaN
169	1.000000	0.170453	7.36669e+06	-47089.1	955.819	-29767.5	0.000000	0.000000	6.170770	0.057941	NaN	0.000000	0.001746	0.001732	28.1284	0.120905	0.002095	57.7047	38.7137	-167.177	0.024664	0.169157	-0.921180	-0.922475	0.057941	57.7047	-0.921933	-2.010478E+12	-2.881958E-14	NaN
169	1.000000	0.212485	7.36669e+06	-47089.1	955.818	-29767.5	0.000000	0.000000	6.212799	-0.018478	NaN	0.000000	0.001732	0.001789	28.0894	0.017113	0.002003	8.542323	-20.9188	12.6048	0.000624	0.211147	-0.879148	-0.880485	-0.018478	8.542323	-0.877525	-5.049399E+11	3.659510E-14	NaN
169	1.000000	0.254526	7.36669e+06	-47089.1	955.819	-29767.5	0.000000	0.000000	6.254843	0.046011	NaN	0.000000	0.001742	0.001754	28.0822	0.065829	0.002010	32.7504	-141.418	-164.883	0.058773	0.253197	-0.837106	-0.838435	0.046011	32.7504	-0.838160	-1.480333E+11	-3.108129E-13	NaN
169	1.000000	0.296536	7.36669e+06	-47089.1	955.819	-29767.5	0.000000	0.000000	6.296851	0.002974	NaN	0.000000	0.001674	0.001789	28.1098	0.100977	0.002122	47.5809	170.303	13.3039	-0.020697	0.295155	-0.795096	-0.796477	0.002974	47.5809	-0.795143	-3.862999E+10	-7.698447E-14	NaN
169	1.000000	0.338545	7.36669e+06	-47089.1	955.819	-29767.5	0.000000	0.000000	6.338862	0.067968	NaN	0.000000	0.001717	0.001776	28.1283	0.082880	0.001897	43.6892	-113.971	-167.074	0.101773	0.337288	-0.753088	-0.754344	0.067968	43.6892	-0.754254	-1.074298E+10	-6.326779E-12	NaN
169	1.000000	0.380592	7.36669e+06	-47089.1	955.819	-29767.5	0.000000	0.000000	6.380908	0.027708	NaN	0.000000	0.001650	0.001753	28.0892	0.171295	0.002016	84.9608	-38.5469	12.474	0.101218	0.379240	-0.711041	-0.712393	0.027708	84.9608	-0.711285	-2.789891E+9	-9.931604E-12	NaN
169	1.000000	0.422576	7.36669e+06	-47089.1	955.819	-29767.5	0.000000	0.000000	6.422891	-0.003541	NaN	0.000000	0.001686	0.001775	28.0798	0.061801	0.002011	30.7327	152.052	-167.751	0.098397	0.421337	-0.669056	-0.670295	-0.003541	30.7327	-0.668970	-7.366974E+8	4.806540E-12	NaN
169	1.000000	0.464584	7.36669e+06	-47089.1	955.818	-29767.5	0.000000	0.000000	6.464902	0.100334	NaN	0.000000	0.001683	0.001709	28.1107	0.050752	0.001913	26.5268	165.027	10.3322	0.023310	0.463250	-0.627049	-0.628382	0.100334	26.5268	-0.629885	-2.145112E+8	-4.677310E-10	NaN
169	1.000000	0.506636	7.36669e+06	-47089.1	955.818	-29767.5	0.000000	0.000000	6.506954	0.061611	NaN	0.000000	0.001708	0.001721	28.1298	0.030387	0.001960	15.5073	44.2628	-164.11	0.103662	0.505329	-0.584996	-0.586303	0.061611	15.5073	-0.587976	-5.685333E+7	-1.083676E-9	NaN
169	1.000000	0.548664	7.36669e+06	-47089.1	955.818	-29767.5	0.000000	0.000000	6.548981	0.043526	NaN	0.000000	0.001644	0.001757	28.0895	0.072315	0.002089	34.6241	161.951	10.0806	0.040078	0.547258	-0.542968	-0.544374	0.043526	34.6241	-0.543911	-1.398238E+7	-3.112895E-9	NaN
169	1.000000	0.590635	7.36669e+06	-47089.1	955.818	-29767.5	0.000000	0.000000	6.590951	0.013937	NaN	0.000000	0.001647	0.001768	28.0813	0.069167	0.001959	35.3078	-5.844409	-165.537	0.098761	0.589360	-0.500997	-0.502272	0.013937	35.3078	-0.501293	-3.57319e+06	-3.900526E-9	NaN
169	1.000000	0.632685	7.36669e+06	-47089.1	955.819	-29767.5	0.000000	0.000000	6.633000	-0.000481	NaN	0.000000	0.001706	0.001739	28.1081	0.043523	0.002077	20.9536	-88.1102	16.8683	-0.006828	0.631310	-0.458947	-0.460323	-0.000481	20.9536	-0.458930	-911968	5.276819E-10	NaN
169	1.000000	0.674735	7.36669e+06	-47089.1	955.818	-29767.5	0.000000	0.000000	6.675051	0.042931	NaN	0.000000	0.001730	0.001723	28.1287	0.022820	0.002134	10.6927	-127.245	-164.339	0.016060	0.673450	-0.416898	-0.418182	0.042931	10.6927	-0.419909	-256520	-1.673603E-7	NaN
169	1.000000	0.716740	7.36669e+06	-47089.1	955.818	-29767.5	0.000000	0.000000	6.717056	0.023979	NaN	0.000000	0.001717	0.001690	28.092	0.123525	0.001948	63.4213	110.024	12.865	0.046774	0.715390	-0.374892	-0.376243	0.023979	63.4213	-0.375176	-58965.4	-4.066542E-7	NaN
169	1.000000	0.758728	7.36669e+06	-47089.1	955.818	-29767.5	0.000000	0.000000	6.759046	0.087580	NaN	0.000000	0.001660	0.001688	28.0814	0.020470	0.002085	9.818243	167.943	-166.517	0.111016	0.757424	-0.332904	-0.334209	0.087580	9.818243	-0.339595	-18015.4	-4.861415E-6	NaN
169	1.000000	0.800755	7.36669e+06	-47089.1	955.817	-29767.5	0.000000	0.000000	6.801073	0.076960	NaN	0.000000	0.001684	0.001662	28.108	0.025879	0.002014	12.848	124.302	13.2781	0.050976	0.799393	-0.290877	-0.292239	0.076960	12.848	-0.295370	-4014.27	-1.917155E-5	NaN
169	1.000000	0.842746	7.36669e+06	-47089.1	955.819	-29767.5	0.000000	0.000000	6.843064	0.074314	NaN	0.000000	0.001761	0.001676	28.1291	0.021143	0.002104	10.0468	41.221	-165.027	0.125774	0.841482	-0.248886	-0.250150	0.074314	10.0468	-0.254433	-962.48	-7.721136E-5	NaN
169	1.000000	0.884786	7.36669e+06	-47089.1	955.819	-29767.5	0.000000	0.000000	6.885102	0.037012	NaN	0.000000	0.001732	0.001643	28.0894	0.114658	0.002059	55.6949	-118.564	13.397	0.018239	0.883423	-0.206847	-0.208209	0.037012	55.6949	-0.207345	-173.678	-0.000213	NaN
169	1.000000	0.926820	7.36669e+06	-47089.1	955.819	-29767.5	0.000000	0.000000	6.927133	-0.026355	NaN	0.000000	0.001707	0.001687	28.0814	0.048241	0.002070	23.3091	151.744	-166.103	0.016888	0.925567	-0.164813	-0.166065	-0.026355	23.3091	-0.163965	-32.2184	0.000818	NaN
169	1.000000	0.968804	7.36669e+06	-47089.1	955.818	-29767.5	0.000000	0.000000	6.969120	0.024511	NaN	0.000000	0.001736	0.001616	28.1065	0.039968	0.001967	20.316	-119.633	13.8396	0.005763	0.967521	-0.122828	-0.124112	0.024511	20.316	-0.123733	-5.739359	-0.004271	NaN
169	1.000000	1.010819	7.3667e+06	-47089.1	955.82	-29767.5	0.000000	0.000000	7.011135	0.030852	NaN	0.000000	0.001721	0.001643	28.1319	0.064253	0.002147	29.9335	85.4097	-165.001	0.062580	1.009521	-0.080814	-0.082111	0.030852	29.9335	-0.081587	-0.677879	-0.045512	NaN
169	1.000000	1.052869	7.3667e+06	-47089.1	955.819	-29767.5	0.000000	0.000000	7.053190	0.139859	NaN	0.000000	0.001669	0.001663	28.0913	0.077126	0.001885	40.914	58.3988	14.9171	0.119642	1.051455	-0.038763	-0.040177	0.139859	40.914	-0.041327	-0.049628	-2.818142	NaN
169	1.000000	1.094857	7.3667e+06	-47089.1	955.819	-29767.5	0.000000	0.000000	7.095240	1.672271	NaN	0.000000	0.001666	0.001679	28.0801	2.490071	0.001934	1287.31	10.1837	-164.957	0.707147	1.093604	0.003224	0.001972	1.672271	1287.31	0.002250	0.001758	951.238	28050.9
169	2.000000	1.109887	7.3667e+06	-47089.1	955.82	-29767.5	0.000000	0.000000	7.111206	24.4201	NaN	0.000000	0.001671	0.001652	28.1039	19.5635	0.001792	10916.2	11.5227	-3.451243	22.8339	1.109550	0.018255	0.017917	24.4201	10916.2	0.016577	0.017447	1399.71	75507.6
169	2.000000	1.120341	7.3667e+06	-47089.1	955.82	-29767.5	0.000000	0.000000	7.122926	55.2264	NaN	0.000000	0.001722	0.001688	28.1315	29.6309	0.001731	17120.6	4.708232	-179.374	54.5504	1.119978	0.028708	0.028345	55.2264	17120.6	0.026289	0.033403	1653.35	85585.7
169	2.000000	1.130855	7.3667e+06	-47089.1	955.82	-29767.5	0.000000	0.000000	7.134881	90.2753	NaN	0.000000	0.001722	0.001645	28.0906	38.9306	0.001774	21943.7	5.704638	-2.254782	90.5328	1.130455	0.039223	0.038822	90.2753	21943.7	0.036137	0.054427	1658.64	85936.1
169	2.000000	1.141297	7.3667e+06	-47089.1	955.82	-29767.5	0.000000	0.000000	7.147320	138.851	NaN	0.000000	0.001690	0.001668	28.0824	49.3109	0.001834	26892.4	3.527290	177.917	137.416	1.140949	0.049665	0.049317	138.851	26892.4	0.045792	0.079852	1738.85	86947.8
169	2.000000	1.151795	7.3667e+06	-47089.1	955.82	-29767.5	0.000000	0.000000	7.160163	195.898	NaN	0.000000	0.001665	0.001705	28.1045	58.2899	0.001625	35865.9	4.769142	-6.521379	192.701	1.151470	0.060163	0.059838	195.898	35865.9	0.056066	0.112081	1747.82	97878.8
169	2.000000	1.162418	7.3667e+06	-47089.1	955.82	-29767.5	0.000000	0.000000	7.173295	256.895	NaN	0.000000	0.001648	0.001675	28.1328	69.0444	0.001786	38663.1	7.255148	172.478	259.764	1.161847	0.070786	0.070215	256.895	38663.1	0.065803	0.147435	1742.43	91996.3
169	2.000000	1.172751	7.3667e+06	-47089.1	955.82	-29767.5	0.000000	0.000000	7.186267	321.107	NaN	0.000000	0.001682	0.001637	28.0925	79.8899	0.001885	42387.9	2.673924	-5.112491	318.496	1.172518	0.081119	0.080885	321.107	42387.9	0.075437	0.186907	1718.01	89578.3
169	2.000000	1.183387	7.3667e+06	-47089.1	955.82	-29767.5	0.000000	0.000000	7.199754	390.453	NaN	0.000000	0.001674	0.001632	28.0809	89.0976	0.001801	49482	3.762210	173.121	394.915	1.182905	0.091755	0.091273	390.453	49482	0.085837	0.234410	1665.69	93375.4
169	2.000000	1.193661	7.3667e+06	-47089.1	955.821	-29767.5	0.000000	0.000000	7.213467	474.104	NaN	0.000000	0.001685	0.001675	28.1029	96.1411	0.001779	54045.2	1.366580	-4.910068	466.703	1.193408	0.102028	0.101776	474.104	54045.2	0.095449	0.282758	1676.71	92858.8
169	2.000000	1.199386	7.3667e+06	-47089.1	955.82	-29767.5	0.000000	0.000000	7.220881	515.174	NaN	0.000000	0.001663	0.001658	28.0809	103.964	0.001705	60968.6	6.006106	169.545	523.223	1.198853	0.107754	0.107220	515.174	60968.6	0.101417	0.314895	1636.02	99265.2