File: remote_trans/data/nanoindenter/0828-1/data/Data_2025-08-06,11h17m57s/2025-07-22_16-23-58_1_457.txt
2025-07-22, 16:23:58, 1
Index	Phase	Displacement	Time	Pos X	Pos Y	Pos Z	Rot A	Rot B	Piezo Z	Force A	Force B	Gripper	Voltage A	Voltage B	Temperature	Amplitude force	Amplitude pos	Stiffness	Phase shift	Phase excitation	Force A raw	Displacement raw	HMax	HMax raw	Real Force	Real Stiffness	Contact Depth	Area	Hardness	Reduced Mod.
[#]	[#]	[um]	[s]	[um]	[um]	[um]	[m°]	[m°]	[um]	[uN]	[uN]	[V]	[V]	[V]	[°C]	[uN]	[um]	[N/m]	[°]	[°]	[uN]	[um]	[um]	[um]	[uN]	[N/m]	[um]	[um^2]	[MPa]	[MPa]
457	1.000000	0.003299	7.36953e+06	-54239.1	1005.82	-29744.2	0.000000	0.000000	6.002765	-0.018707	NaN	0.000000	0.001621	0.001734	28.082	0.026513	0.000970	27.3205	-131.389	-166.846	-0.022844	0.002096	-1.072403	-1.073606	-0.018707	27.3205	-1.071890	-2.101725E+14	8.900574E-17	NaN
457	1.000000	0.043277	7.36953e+06	-54239.1	1005.82	-29744.2	0.000000	0.000000	6.042746	0.032968	NaN	0.000000	0.001610	0.001706	28.0821	0.032366	0.001803	17.9498	106.012	-164.179	-0.032507	0.041932	-1.032425	-1.033770	0.032968	17.9498	-1.033802	-6.465813E+13	-5.098819E-16	NaN
457	1.000000	0.083269	7.36953e+06	-54239.1	1005.82	-29744.2	0.000000	0.000000	6.082736	0.014699	NaN	0.000000	0.001629	0.001756	28.0809	0.017500	0.002030	8.619888	48.9969	-161.798	0.007801	0.082024	-0.992433	-0.993678	0.014699	8.619888	-0.993712	-1.866832E+13	-7.873623E-16	NaN
457	1.000000	0.123303	7.36953e+06	-54239.1	1005.82	-29744.2	0.000000	0.000000	6.122769	-0.004813	NaN	0.000000	0.001590	0.001674	28.0806	0.040925	0.001967	20.8037	85.7457	-161.245	0.012094	0.121988	-0.952400	-0.953714	-0.004813	20.8037	-0.952226	-5.152850E+12	9.340190E-16	NaN
457	1.000000	0.163330	7.36953e+06	-54239.1	1005.82	-29744.2	0.000000	0.000000	6.162796	-0.033372	NaN	0.000000	0.001613	0.001711	28.0808	0.064512	0.002028	31.8144	-79.9007	-164.022	0.019971	0.162013	-0.912372	-0.913689	-0.033372	31.8144	-0.911586	-1.457399E+12	2.289856E-14	NaN
457	1.000000	0.203325	7.36953e+06	-54239.1	1005.82	-29744.2	0.000000	0.000000	6.202792	0.006840	NaN	0.000000	0.001611	0.001768	28.0817	0.081958	0.001982	41.3476	-103.985	-162.95	0.050883	0.202018	-0.872377	-0.873684	0.006840	41.3476	-0.872501	-4.318002E+11	-1.584020E-14	NaN
457	1.000000	0.243365	7.36953e+06	-54239.1	1005.82	-29744.2	0.000000	0.000000	6.242832	0.005342	NaN	0.000000	0.001589	0.001766	28.0819	0.020523	0.002123	9.664597	93.0929	-164.532	0.006381	0.242066	-0.832337	-0.833636	0.005342	9.664597	-0.832752	-1.250494E+11	-4.271600E-14	NaN
457	1.000000	0.283419	7.36953e+06	-54239.1	1005.82	-29744.2	0.000000	0.000000	6.282883	-0.067619	NaN	0.000000	0.001636	0.001712	28.082	0.081377	0.001850	43.986	134.856	-162.527	-0.028610	0.282072	-0.792283	-0.793630	-0.067619	43.986	-0.791130	-3.407497E+10	1.984407E-12	NaN
457	1.000000	0.323387	7.36953e+06	-54239.1	1005.82	-29744.2	0.000000	0.000000	6.322854	-0.003395	NaN	0.000000	0.001662	0.001774	28.082	0.007940	0.002081	3.814993	-80.458	-167.747	-0.101822	0.322150	-0.752315	-0.753552	-0.003395	3.814993	-0.751647	-9.900145E+9	3.429423E-13	NaN
457	1.000000	0.363408	7.36953e+06	-54239.1	1005.82	-29744.2	0.000000	0.000000	6.362873	-0.047271	NaN	0.000000	0.001655	0.001771	28.081	0.058796	0.002095	28.0598	134.112	-167.072	-0.065344	0.362104	-0.712294	-0.713598	-0.047271	28.0598	-0.711031	-2.767678E+9	1.707973E-11	NaN
457	1.000000	0.403412	7.36953e+06	-54239.1	1005.82	-29744.2	0.000000	0.000000	6.402879	0.005568	NaN	0.000000	0.001648	0.001731	28.0809	0.044473	0.002024	21.9752	-73.3489	-164.573	0.047319	0.402092	-0.672290	-0.673611	0.005568	21.9752	-0.672480	-8.228696E+8	-6.766893E-12	NaN
457	1.000000	0.443435	7.36953e+06	-54239.1	1005.82	-29744.2	0.000000	0.000000	6.442901	-0.045301	NaN	0.000000	0.001673	0.001720	28.081	0.065733	0.002050	32.064	-150.314	-163.506	0.003970	0.442106	-0.632267	-0.633596	-0.045301	32.064	-0.631207	-2.236659E+8	2.025402E-10	NaN
457	1.000000	0.483483	7.36953e+06	-54239.1	1005.82	-29744.2	0.000000	0.000000	6.482949	-0.029276	NaN	0.000000	0.001638	0.001676	28.0822	0.021433	0.001828	11.7235	-120.404	-165.871	-0.084754	0.482111	-0.592219	-0.593591	-0.029276	11.7235	-0.590346	-6.129689E+7	4.776030E-10	NaN
457	1.000000	0.523487	7.36953e+06	-54239.1	1005.82	-29744.2	0.000000	0.000000	6.522953	-0.012642	NaN	0.000000	0.001666	0.001708	28.0821	0.076182	0.001963	38.8073	74.3165	-169.486	0.005772	0.522182	-0.552215	-0.553520	-0.012642	38.8073	-0.551971	-1.808230E+7	6.991312E-10	NaN
457	1.000000	0.563502	7.36953e+06	-54239.1	1005.82	-29744.2	0.000000	0.000000	6.562969	0.014614	NaN	0.000000	0.001641	0.001736	28.082	0.022615	0.001906	11.8648	-52.3676	-164.546	-0.013866	0.562174	-0.512200	-0.513528	0.014614	11.8648	-0.513124	-5.22302e+06	-2.797981E-9	NaN
457	1.000000	0.603518	7.36953e+06	-54239.1	1005.82	-29744.2	0.000000	0.000000	6.602984	-0.043778	NaN	0.000000	0.001658	0.001724	28.0807	0.083937	0.001902	44.1345	-79.1084	-164.372	-0.020474	0.602235	-0.472184	-0.473467	-0.043778	44.1345	-0.471440	-1.36646e+06	3.203753E-8	NaN
457	1.000000	0.643513	7.36953e+06	-54239.1	1005.82	-29744.2	0.000000	0.000000	6.642980	0.005339	NaN	0.000000	0.001615	0.001752	28.081	0.103741	0.001993	52.0534	-54.1674	-166.772	0.021585	0.642243	-0.432189	-0.433459	0.005339	52.0534	-0.432266	-383807	-1.391121E-8	NaN
457	1.000000	0.683546	7.36953e+06	-54239.1	1005.82	-29744.2	0.000000	0.000000	6.683010	-0.077098	NaN	0.000000	0.001655	0.001712	28.0812	0.047286	0.001919	24.6365	-159.207	-168.749	-0.050461	0.682263	-0.392156	-0.393439	-0.077098	24.6365	-0.389809	-95593.9	8.065118E-7	NaN
457	1.000000	0.723555	7.36953e+06	-54239.1	1005.82	-29744.2	0.000000	0.000000	6.723023	0.026396	NaN	0.000000	0.001618	0.001779	28.081	0.063896	0.001986	32.1775	-150.618	-165.664	0.048813	0.722254	-0.352147	-0.353448	0.026396	32.1775	-0.352762	-27994.4	-9.429167E-7	NaN
457	1.000000	0.763583	7.36953e+06	-54239.1	1005.82	-29744.2	0.000000	0.000000	6.763048	-0.056764	NaN	0.000000	0.001672	0.001665	28.0822	0.069974	0.002159	32.408	99.47	-162.216	-0.071729	0.762278	-0.312119	-0.313424	-0.056764	32.408	-0.310805	-6807.16	8.338839E-6	NaN
457	1.000000	0.803598	7.36953e+06	-54239.1	1005.82	-29744.2	0.000000	0.000000	6.803064	-0.036651	NaN	0.000000	0.001634	0.001733	28.0821	0.101889	0.002091	48.719	-135.789	-163.927	-0.022462	0.802298	-0.272104	-0.273404	-0.036651	48.719	-0.271539	-1757.64	2.085228E-5	NaN
457	1.000000	0.843635	7.36953e+06	-54239.1	1005.82	-29744.2	0.000000	0.000000	6.843101	-0.044373	NaN	0.000000	0.001640	0.001709	28.0821	0.098258	0.002060	47.7067	-57.1237	-162.877	-0.038563	0.842334	-0.232067	-0.233368	-0.044373	47.7067	-0.231369	-420.843	0.000105	NaN
457	1.000000	0.883639	7.36953e+06	-54239.1	1005.82	-29744.2	0.000000	0.000000	6.883102	-0.094631	NaN	0.000000	0.001601	0.001710	28.0809	0.146941	0.001997	73.5962	-81.4275	-165.505	-0.124014	0.882348	-0.192063	-0.193354	-0.094631	73.5962	-0.191099	-93.8357	0.001008	NaN
457	1.000000	0.923638	7.36953e+06	-54239.1	1005.82	-29744.2	0.000000	0.000000	6.923102	-0.075562	NaN	0.000000	0.001593	0.001704	28.0811	0.055993	0.001965	28.5007	-36.4214	-163.873	-0.146507	0.922312	-0.152064	-0.153390	-0.075562	28.5007	-0.150076	-18.1713	0.004158	NaN
457	1.000000	0.963635	7.36953e+06	-54239.1	1005.82	-29744.2	0.000000	0.000000	6.963096	-0.140886	NaN	0.000000	0.001628	0.001747	28.081	0.134526	0.002035	66.1051	114.5	-165.058	-0.113445	0.962368	-0.112068	-0.113334	-0.140886	66.1051	-0.110469	-3.074349	0.045826	NaN
457	1.000000	1.003707	7.36953e+06	-54239.1	1005.82	-29744.2	0.000000	0.000000	7.003172	-0.052113	NaN	0.000000	0.001617	0.001738	28.0811	0.053393	0.002138	24.9709	31.3863	-162.588	-0.023313	1.002369	-0.071995	-0.073333	-0.052113	24.9709	-0.070430	-0.350264	0.148782	NaN
457	1.000000	1.043697	7.36953e+06	-54239.1	1005.82	-29744.2	0.000000	0.000000	7.043164	-0.009431	NaN	0.000000	0.001603	0.001719	28.082	0.023314	0.002040	11.4263	-167.274	-162.888	0.035806	1.042384	-0.032005	-0.033318	-0.009431	11.4263	-0.031386	-0.025173	0.374656	NaN
457	1.000000	1.083714	7.36953e+06	-54239.1	1005.82	-29744.2	0.000000	0.000000	7.083459	6.770548	NaN	0.000000	0.001622	0.001682	28.082	7.395444	0.001811	4082.69	21.3539	-175.702	6.966794	1.082440	0.008012	0.006738	6.770548	4082.69	0.006768	0.005806	1166.22	48955.1
457	2.000000	1.095235	7.36953e+06	-54239.1	1005.82	-29744.2	0.000000	0.000000	7.095636	22.6972	NaN	0.000000	0.001634	0.001774	28.0821	19.2588	0.001784	10793.4	6.129901	-176.152	22.7162	1.094915	0.019533	0.019213	22.6972	10793.4	0.017956	0.019432	1168.03	70741.4
457	2.000000	1.105241	7.36953e+06	-54239.1	1005.82	-29744.2	0.000000	0.000000	7.106448	42.2963	NaN	0.000000	0.001636	0.001761	28.0808	27.8783	0.001780	15660.1	2.823870	-176.075	42.7037	1.104967	0.029539	0.029265	42.2963	15660.1	0.027514	0.035748	1183.19	75673.5
457	2.000000	1.115170	7.36953e+06	-54239.1	1005.82	-29744.2	0.000000	0.000000	7.117600	72.03	NaN	0.000000	0.001636	0.001777	28.0809	37.271	0.001831	20356.9	1.796911	-177.328	70.4998	1.114844	0.039468	0.039142	72.03	20356.9	0.036814	0.056054	1285.02	78556.5
457	2.000000	1.125130	7.36953e+06	-54239.1	1005.82	-29744.2	0.000000	0.000000	7.128958	106.034	NaN	0.000000	0.001683	0.001722	28.0807	48.1085	0.001853	25962.6	4.031201	177.546	102.708	1.124947	0.049428	0.049245	106.034	25962.6	0.046365	0.081508	1300.9	83084.4
457	2.000000	1.135107	7.36953e+06	-54239.1	1005.82	-29744.2	0.000000	0.000000	7.140733	149.725	NaN	0.000000	0.001629	0.001699	28.082	57.0509	0.001839	31014.8	3.265239	177.055	145.142	1.134904	0.059405	0.059202	149.725	31014.8	0.055784	0.111126	1347.34	85002.8
457	2.000000	1.145138	7.36953e+06	-54239.1	1005.82	-29744.2	0.000000	0.000000	7.152961	203.129	NaN	0.000000	0.001606	0.001760	28.0818	65.961	0.001789	36879.6	2.734053	176.599	201.329	1.144822	0.069436	0.069120	203.129	36879.6	0.065305	0.145516	1395.92	88329.2
457	2.000000	1.155132	7.36953e+06	-54239.1	1005.82	-29744.2	0.000000	0.000000	7.165224	258.312	NaN	0.000000	0.001644	0.001777	28.0819	74.9047	0.001766	42412.7	3.438816	174.917	258.794	1.154844	0.079429	0.079142	258.312	42412.7	0.074862	0.184425	1400.64	90231.8
457	2.000000	1.165100	7.36953e+06	-54239.1	1005.82	-29744.2	0.000000	0.000000	7.177737	320.178	NaN	0.000000	0.001665	0.001740	28.0821	85.3949	0.001735	49223.8	6.418902	170.663	316.15	1.164746	0.089398	0.089044	320.178	49223.8	0.084519	0.228114	1403.59	94161.3
457	2.000000	1.175128	7.36953e+06	-54239.1	1005.82	-29744.2	0.000000	0.000000	7.190539	387.608	NaN	0.000000	0.001630	0.001763	28.0806	94.9827	0.001866	50904.3	1.628236	175.513	385.682	1.174943	0.099426	0.099241	387.608	50904.3	0.093715	0.273721	1416.07	88894.2
457	2.000000	1.184102	7.36953e+06	-54239.1	1005.82	-29744.2	0.000000	0.000000	7.202865	469.121	NaN	0.000000	0.001645	0.001720	28.0805	101.585	0.001782	56995.4	4.320710	172.669	466.597	1.183703	0.108399	0.108001	469.121	56995.4	0.102226	0.319380	1468.85	92142.3