File: remote_trans/data/nanoindenter/0828-1/data/Data_2025-08-06,11h17m57s/2025-07-22_16-23-58_1_433.txt
2025-07-22, 16:23:58, 1
Index	Phase	Displacement	Time	Pos X	Pos Y	Pos Z	Rot A	Rot B	Piezo Z	Force A	Force B	Gripper	Voltage A	Voltage B	Temperature	Amplitude force	Amplitude pos	Stiffness	Phase shift	Phase excitation	Force A raw	Displacement raw	HMax	HMax raw	Real Force	Real Stiffness	Contact Depth	Area	Hardness	Reduced Mod.
[#]	[#]	[um]	[s]	[um]	[um]	[um]	[m°]	[m°]	[um]	[uN]	[uN]	[V]	[V]	[V]	[°C]	[uN]	[um]	[N/m]	[°]	[°]	[uN]	[um]	[um]	[um]	[uN]	[N/m]	[um]	[um^2]	[MPa]	[MPa]
433	1.000000	0.002569	7.36929e+06	-55439.1	1005.82	-29741.4	0.000000	0.000000	6.002793	-0.019758	NaN	0.000000	0.001614	0.001682	28.0811	0.057724	0.000989	58.3769	-5.471536	-164.747	0.007999	0.001262	-1.238204	-1.239511	-0.019758	58.3769	-1.237950	-3.537665E+16	5.585098E-19	NaN
433	1.000000	0.048550	7.36929e+06	-55439.1	1005.82	-29741.4	0.000000	0.000000	6.048778	0.073752	NaN	0.000000	0.001626	0.001642	28.0809	0.017208	0.001965	8.754971	14.3639	12.6274	0.013667	0.047164	-1.192223	-1.193609	0.073752	8.754971	-1.198541	-1.050046E+16	-7.023665E-18	NaN
433	1.000000	0.094547	7.36929e+06	-55439.1	1005.82	-29741.4	0.000000	0.000000	6.094778	0.138168	NaN	0.000000	0.001658	0.001698	28.0812	0.053138	0.001997	26.6062	87.7808	-165.088	0.102560	0.093226	-1.146226	-1.147547	0.138168	26.6062	-1.150121	-2.357412E+15	-5.861016E-17	NaN
433	1.000000	0.140549	7.36929e+06	-55439.1	1005.82	-29741.5	0.000000	0.000000	6.140775	0.005219	NaN	0.000000	0.001663	0.001693	28.0823	0.041450	0.001819	22.7916	112.473	14.4752	0.145464	0.139177	-1.100223	-1.101595	0.005219	22.7916	-1.100395	-5.074232E+14	-1.028441E-17	NaN
433	1.000000	0.186569	7.36929e+06	-55439.1	1005.82	-29741.5	0.000000	0.000000	6.186799	0.126354	NaN	0.000000	0.001643	0.001673	28.082	0.047490	0.002011	23.6205	149.76	-164.841	0.076129	0.185276	-1.054204	-1.055496	0.126354	23.6205	-1.058216	-1.376717E+14	-9.177924E-16	NaN
433	1.000000	0.232613	7.36929e+06	-55439.1	1005.82	-29741.5	0.000000	0.000000	6.232843	0.094907	NaN	0.000000	0.001648	0.001669	28.0819	0.053341	0.002001	26.6593	107.117	16.8075	0.109242	0.231273	-1.008159	-1.009499	0.094907	26.6593	-1.010829	-3.173534E+13	-2.990588E-15	NaN
433	1.000000	0.278608	7.36929e+06	-55439.1	1005.82	-29741.5	0.000000	0.000000	6.278836	0.040266	NaN	0.000000	0.001701	0.001726	28.0805	0.031650	0.001981	15.9801	21.2695	-164.478	0.003734	0.277280	-0.962164	-0.963492	0.040266	15.9801	-0.964054	-7.439101E+12	-5.412786E-15	NaN
433	1.000000	0.324657	7.36929e+06	-55439.1	1005.82	-29741.5	0.000000	0.000000	6.324888	0.125829	NaN	0.000000	0.001580	0.001677	28.0807	0.040521	0.002004	20.2189	81.804	15.3111	0.061312	0.323267	-0.916115	-0.917506	0.125829	20.2189	-0.920783	-1.939888E+12	-6.486430E-14	NaN
433	1.000000	0.370654	7.36929e+06	-55439.1	1005.82	-29741.5	0.000000	0.000000	6.370882	0.058888	NaN	0.000000	0.001639	0.001656	28.0808	0.036821	0.002101	17.5267	112.342	-165.643	0.007428	0.369391	-0.870119	-0.871381	0.058888	17.5267	-0.872639	-4.336536E+11	-1.357944E-13	NaN
433	1.000000	0.416673	7.36929e+06	-55439.1	1005.82	-29741.5	0.000000	0.000000	6.416903	0.109123	NaN	0.000000	0.001573	0.001627	28.0817	0.063035	0.002070	30.4477	-172.113	15.7719	0.125761	0.415359	-0.824100	-0.825414	0.109123	30.4477	-0.826788	-1.038102E+11	-1.051179E-12	NaN
433	1.000000	0.462712	7.36929e+06	-55439.1	1005.82	-29741.5	0.000000	0.000000	6.462936	-0.022940	NaN	0.000000	0.001673	0.001606	28.0818	0.094767	0.001973	48.0354	-158.404	-167.68	-0.071009	0.461362	-0.778061	-0.779411	-0.022940	48.0354	-0.777702	-2.238767E+10	1.024655E-12	NaN
433	1.000000	0.508705	7.3693e+06	-55439.1	1005.82	-29741.5	0.000000	0.000000	6.508932	0.036638	NaN	0.000000	0.001668	0.001638	28.0821	0.103287	0.001964	52.5952	-159.206	15.3731	0.055523	0.507305	-0.732067	-0.733468	0.036638	52.5952	-0.732590	-5.446281E+9	-6.727157E-12	NaN
433	1.000000	0.554716	7.3693e+06	-55439.1	1005.82	-29741.5	0.000000	0.000000	6.554945	0.103695	NaN	0.000000	0.001631	0.001631	28.0809	0.045597	0.002029	22.4714	24.174	-163.274	0.107839	0.553473	-0.686057	-0.687300	0.103695	22.4714	-0.689518	-1.407110E+9	-7.369335E-11	NaN
433	1.000000	0.600767	7.3693e+06	-55439.1	1005.82	-29741.5	0.000000	0.000000	6.600997	0.120891	NaN	0.000000	0.001614	0.001662	28.0808	0.078366	0.001852	42.3123	-142.934	15.2667	0.120975	0.599371	-0.640006	-0.641402	0.120891	42.3123	-0.642149	-3.160583E+8	-3.824975E-10	NaN
433	1.000000	0.646781	7.3693e+06	-55439.1	1005.82	-29741.5	0.000000	0.000000	6.647008	0.040458	NaN	0.000000	0.001631	0.001677	28.0811	0.036206	0.002012	17.9917	-179.797	-164.884	0.095457	0.645444	-0.593991	-0.595329	0.040458	17.9917	-0.595678	-7.259751E+7	-5.572968E-10	NaN
433	1.000000	0.692785	7.3693e+06	-55439.1	1005.82	-29741.5	0.000000	0.000000	6.693014	0.077394	NaN	0.000000	0.001558	0.001645	28.0818	0.116469	0.002052	56.7673	-46.6829	13.0186	0.103656	0.691417	-0.547988	-0.549355	0.077394	56.7673	-0.549010	-1.645299E+7	-4.703952E-9	NaN
433	1.000000	0.738811	7.3693e+06	-55439.1	1005.82	-29741.5	0.000000	0.000000	6.739039	0.056235	NaN	0.000000	0.001617	0.001646	28.0817	0.104741	0.002024	51.7467	-131.338	-165.669	0.031588	0.737494	-0.501961	-0.503278	0.056235	51.7467	-0.502776	-3.74751e+06	-1.500590E-8	NaN
433	1.000000	0.784826	7.3693e+06	-55439.1	1005.82	-29741.5	0.000000	0.000000	6.785054	0.046486	NaN	0.000000	0.001572	0.001654	28.0822	0.106159	0.001988	53.4107	172.39	14.4694	-0.055010	0.783529	-0.455946	-0.457243	0.046486	53.4107	-0.456599	-845688	-5.496774E-8	NaN
433	1.000000	0.830846	7.3693e+06	-55439.1	1005.82	-29741.5	0.000000	0.000000	6.831074	0.074664	NaN	0.000000	0.001614	0.001626	28.0804	0.056257	0.001913	29.4146	-138.912	-161.14	0.095591	0.829549	-0.409927	-0.411223	0.074664	29.4146	-0.411831	-196982	-3.790381E-7	NaN
433	1.000000	0.876852	7.3693e+06	-55439.1	1005.82	-29741.5	0.000000	0.000000	6.877082	0.123589	NaN	0.000000	0.001629	0.001623	28.0803	0.068577	0.002023	33.8976	-12.1058	13.1202	0.020165	0.875521	-0.363921	-0.365252	0.123589	33.8976	-0.366655	-44455.8	-2.780043E-6	NaN
433	1.000000	0.922884	7.3693e+06	-55439.1	1005.82	-29741.5	0.000000	0.000000	6.923112	0.064774	NaN	0.000000	0.001615	0.001617	28.0809	0.051726	0.001995	25.9232	-72.7341	-165.764	0.002971	0.921535	-0.317889	-0.319237	0.064774	25.9232	-0.319763	-9228.85	-7.018599E-6	NaN
433	1.000000	0.968928	7.3693e+06	-55439.1	1005.82	-29741.5	0.000000	0.000000	6.969155	0.047492	NaN	0.000000	0.001631	0.001638	28.0817	0.122072	0.001913	63.7957	102.432	14.2188	0.073893	0.967501	-0.271845	-0.273271	0.047492	63.7957	-0.272403	-1811.52	-2.621672E-5	NaN
433	1.000000	1.014919	7.3693e+06	-55439.1	1005.82	-29741.5	0.000000	0.000000	7.015149	0.107599	NaN	0.000000	0.001611	0.001650	28.0817	0.047945	0.001976	24.2596	-138.782	-165.911	0.099155	1.013581	-0.225853	-0.227191	0.107599	24.2596	-0.229180	-388.651	-0.000277	NaN
433	1.000000	1.060937	7.3693e+06	-55439.1	1005.82	-29741.5	0.000000	0.000000	7.061164	0.032267	NaN	0.000000	0.001620	0.001610	28.0817	0.131107	0.002023	64.8108	-10.3584	15.3523	0.000641	1.059586	-0.179835	-0.181186	0.032267	64.8108	-0.180209	-61.5203	-0.000525	NaN
433	1.000000	1.106960	7.3693e+06	-55439.1	1005.82	-29741.5	0.000000	0.000000	7.107188	0.058108	NaN	0.000000	0.001627	0.001668	28.0806	0.061716	0.001965	31.4119	88.5002	-163.049	0.035822	1.105629	-0.133812	-0.135144	0.058108	31.4119	-0.135200	-9.596181	-0.006055	NaN
433	1.000000	1.153002	7.3693e+06	-55439.1	1005.82	-29741.5	0.000000	0.000000	7.153230	0.057995	NaN	0.000000	0.001629	0.001680	28.0805	0.039789	0.001912	20.8155	-103.949	14.7988	0.074514	1.151618	-0.087770	-0.089154	0.057995	20.8155	-0.089860	-1.072826	-0.054058	NaN
433	1.000000	1.198986	7.3693e+06	-55439.1	1005.82	-29741.5	0.000000	0.000000	7.199215	0.086349	NaN	0.000000	0.001629	0.001651	28.0807	0.058355	0.001937	30.1306	28.6336	-165.322	-0.000488	1.197695	-0.041787	-0.043077	0.086349	30.1306	-0.043936	-0.059629	-1.448110	NaN
433	1.000000	1.245022	7.3693e+06	-55439.1	1005.82	-29741.5	0.000000	0.000000	7.245295	1.147579	NaN	0.000000	0.001632	0.001613	28.0817	1.733353	0.001965	882.207	8.929944	12.495	0.380105	1.243621	0.004250	0.002848	1.147579	882.207	0.003274	0.002612	439.346	15770.9
433	2.000000	1.262538	7.3693e+06	-55439.1	1005.82	-29741.5	0.000000	0.000000	7.263656	21.7087	NaN	0.000000	0.001658	0.001633	28.0822	18.6004	0.001687	11025.9	7.534931	-177.906	20.9211	1.262256	0.021765	0.021483	21.7087	11025.9	0.020288	0.022997	943.962	66427.5
433	2.000000	1.273985	7.3693e+06	-55439.1	1005.82	-29741.5	0.000000	0.000000	7.276186	48.0033	NaN	0.000000	0.001617	0.001654	28.0822	31.0958	0.001697	18321.8	2.430242	2.285590	45.8852	1.273745	0.033213	0.032972	48.0033	18321.8	0.031248	0.043370	1106.84	80379.8
433	2.000000	1.285476	7.3693e+06	-55439.1	1005.82	-29741.5	0.000000	0.000000	7.288929	78.4643	NaN	0.000000	0.001649	0.001673	28.0807	42.3494	0.001679	25220	5.726767	176.672	76.822	1.285222	0.044703	0.044449	78.4643	25220	0.042370	0.070296	1116.21	86906.8
433	2.000000	1.296957	7.3693e+06	-55439.1	1005.82	-29741.5	0.000000	0.000000	7.302263	123.496	NaN	0.000000	0.001708	0.001645	28.0805	55.4003	0.001931	28693.6	8.256339	-6.906804	121.235	1.296630	0.056185	0.055858	123.496	28693.6	0.052957	0.101772	1213.46	82175.9
433	2.000000	1.308423	7.3693e+06	-55439.1	1005.82	-29741.5	0.000000	0.000000	7.315933	177.076	NaN	0.000000	0.001601	0.001634	28.0805	65.0684	0.001868	34827.1	6.840411	173.188	176.721	1.308116	0.067650	0.067344	177.076	34827.1	0.063837	0.139925	1265.5	85063.3
433	2.000000	1.319963	7.3693e+06	-55439.1	1005.82	-29741.5	0.000000	0.000000	7.330394	248.071	NaN	0.000000	0.001659	0.001669	28.0821	76.1942	0.001735	43924.3	3.094977	-4.423439	245.709	1.319501	0.079191	0.078728	248.071	43924.3	0.074955	0.184826	1342.19	93346.1
433	2.000000	1.331430	7.3693e+06	-55439.1	1005.82	-29741.5	0.000000	0.000000	7.344491	312.017	NaN	0.000000	0.001601	0.001664	28.0817	86.9535	0.001816	47879	4.269447	172.724	310.786	1.331227	0.090657	0.090454	312.017	47879	0.085770	0.234086	1332.92	90412.9
433	2.000000	1.342868	7.3693e+06	-55439.1	1005.82	-29741.5	0.000000	0.000000	7.359229	392.241	NaN	0.000000	0.001644	0.001611	28.0817	97.7949	0.001680	58222.8	3.484749	-7.711064	385.885	1.342706	0.102095	0.101934	392.241	58222.8	0.097042	0.291179	1347.08	98579.4
433	2.000000	1.351440	7.3693e+06	-55439.1	1005.82	-29741.5	0.000000	0.000000	7.371077	471.86	NaN	0.000000	0.001581	0.001620	28.0807	105.968	0.001695	62521.4	7.068044	168.915	472.779	1.351028	0.110667	0.110256	471.86	62521.4	0.105007	0.335011	1408.49	98689.7