File: remote_trans/data/nanoindenter/0828-1/data/Data_2025-08-06,11h17m57s/2025-07-22_16-23-58_1_651.txt
2025-07-22, 16:23:58, 1
Index	Phase	Displacement	Time	Pos X	Pos Y	Pos Z	Rot A	Rot B	Piezo Z	Force A	Force B	Gripper	Voltage A	Voltage B	Temperature	Amplitude force	Amplitude pos	Stiffness	Phase shift	Phase excitation	Force A raw	Displacement raw	HMax	HMax raw	Real Force	Real Stiffness	Contact Depth	Area	Hardness	Reduced Mod.
[#]	[#]	[um]	[s]	[um]	[um]	[um]	[m°]	[m°]	[um]	[uN]	[uN]	[V]	[V]	[V]	[°C]	[uN]	[um]	[N/m]	[°]	[°]	[uN]	[um]	[um]	[um]	[uN]	[N/m]	[um]	[um^2]	[MPa]	[MPa]
651	1.000000	0.002397	7.37142e+06	-44539.1	1005.82	-29775.5	0.000000	0.000000	6.002810	-0.036874	NaN	0.000000	0.001651	0.001746	28.0823	0.133389	0.000932	143.072	156.932	-164.351	-0.110015	0.001117	-1.138940	-1.140219	-0.036874	143.072	-1.138746	-1.659308E+15	2.222273E-17	NaN
651	1.000000	0.044313	7.37142e+06	-44539.1	1005.82	-29775.5	0.000000	0.000000	6.044727	-0.008917	NaN	0.000000	0.001648	0.001752	28.0821	0.038308	0.002021	18.9504	-163.435	15.691	-0.005942	0.042927	-1.097024	-1.098410	-0.008917	18.9504	-1.096671	-4.522500E+14	1.971740E-17	NaN
651	1.000000	0.086351	7.37142e+06	-44539.1	1005.82	-29775.5	0.000000	0.000000	6.086764	-0.042005	NaN	0.000000	0.001648	0.001717	28.0831	0.091609	0.002109	43.4297	-155.319	-165.459	-0.083610	0.085080	-1.054986	-1.056257	-0.042005	43.4297	-1.054261	-1.218103E+14	3.448358E-16	NaN
651	1.000000	0.128354	7.37142e+06	-44539.1	1005.82	-29775.5	0.000000	0.000000	6.128769	-0.004684	NaN	0.000000	0.001622	0.001747	28.0832	0.066999	0.001911	35.0632	102.936	15.0963	0.021449	0.126951	-1.012982	-1.014385	-0.004684	35.0632	-1.012882	-3.381961E+13	1.385053E-16	NaN
651	1.000000	0.170404	7.37142e+06	-44539.1	1005.82	-29775.5	0.000000	0.000000	6.170819	-0.001123	NaN	0.000000	0.001618	0.001722	28.0832	0.083717	0.002126	39.3748	92.738	-165.196	0.038017	0.169039	-0.970933	-0.972298	-0.001123	39.3748	-0.970912	-9.203385E+12	1.220701E-16	NaN
651	1.000000	0.212398	7.37142e+06	-44539.1	1005.82	-29775.5	0.000000	0.000000	6.212810	-0.055919	NaN	0.000000	0.001625	0.001724	28.0822	0.065946	0.002005	32.8957	-134.143	16.3629	-0.062578	0.211072	-0.928939	-0.930265	-0.055919	32.8957	-0.927664	-2.402523E+12	2.327522E-14	NaN
651	1.000000	0.254411	7.37142e+06	-44539.1	1005.82	-29775.5	0.000000	0.000000	6.254826	0.007044	NaN	0.000000	0.001705	0.001687	28.0819	0.114459	0.001986	57.6376	-94.335	-164.931	-0.027797	0.253082	-0.886926	-0.888255	0.007044	57.6376	-0.887017	-6.785710E+11	-1.038043E-14	NaN
651	1.000000	0.296431	7.37142e+06	-44539.1	1005.82	-29775.5	0.000000	0.000000	6.296846	-0.004210	NaN	0.000000	0.001708	0.001686	28.0819	0.108016	0.001848	58.4547	1.070327	12.9498	-0.047755	0.294998	-0.844905	-0.846338	-0.004210	58.4547	-0.844851	-1.823937E+11	2.307997E-14	NaN
651	1.000000	0.338441	7.37142e+06	-44539.1	1005.82	-29775.5	0.000000	0.000000	6.338859	0.068236	NaN	0.000000	0.001649	0.001681	28.0819	0.136519	0.001860	73.394	-87.2223	-165.499	0.039333	0.337137	-0.802896	-0.804200	0.068236	73.394	-0.803593	-5.030735E+10	-1.356382E-12	NaN
651	1.000000	0.380458	7.37142e+06	-44539.1	1005.82	-29775.5	0.000000	0.000000	6.380875	0.048538	NaN	0.000000	0.001633	0.001694	28.0836	0.030212	0.001972	15.3241	-99.6184	12.6491	0.008914	0.379055	-0.760879	-0.762282	0.048538	15.3241	-0.763254	-1.424201E+10	-3.408115E-12	NaN
651	1.000000	0.422465	7.37142e+06	-44539.1	1005.82	-29775.5	0.000000	0.000000	6.422880	-0.008564	NaN	0.000000	0.001712	0.001703	28.0829	0.098980	0.001961	50.4796	145.141	-166.191	0.015294	0.421210	-0.718871	-0.720126	-0.008564	50.4796	-0.718744	-3.526522E+9	2.428558E-12	NaN
651	1.000000	0.464512	7.37142e+06	-44539.1	1005.82	-29775.5	0.000000	0.000000	6.464929	0.060662	NaN	0.000000	0.001720	0.001689	28.0831	0.059293	0.002053	28.8808	-96.9032	18.6146	0.028219	0.463125	-0.676825	-0.678212	0.060662	28.8808	-0.678400	-9.915680E+8	-6.117818E-11	NaN
651	1.000000	0.506542	7.37142e+06	-44539.1	1005.82	-29775.5	0.000000	0.000000	6.506957	-0.001614	NaN	0.000000	0.001686	0.001713	28.0818	0.059621	0.002131	27.9777	-179.235	-167.172	0.011743	0.505221	-0.634794	-0.636116	-0.001614	27.9777	-0.634751	-2.501789E+8	6.451067E-12	NaN
651	1.000000	0.548555	7.37142e+06	-44539.1	1005.82	-29775.5	0.000000	0.000000	6.548971	0.013078	NaN	0.000000	0.001619	0.001698	28.0815	0.136370	0.001908	71.4754	-110.854	18.7097	-0.014797	0.547261	-0.592781	-0.594075	0.013078	71.4754	-0.592919	-6.651155E+7	-1.966307E-10	NaN
651	1.000000	0.590569	7.37142e+06	-44539.1	1005.82	-29775.5	0.000000	0.000000	6.590983	-0.030490	NaN	0.000000	0.001622	0.001709	28.0817	0.076644	0.001975	38.8081	-12.5907	-164.292	0.010020	0.589239	-0.550767	-0.552097	-0.030490	38.8081	-0.550178	-1.707745E+7	1.785389E-9	NaN
651	1.000000	0.632577	7.37142e+06	-44539.1	1005.82	-29775.5	0.000000	0.000000	6.632994	0.040427	NaN	0.000000	0.001599	0.001665	28.0829	0.085929	0.002080	41.3181	-105.857	12.3939	-0.068106	0.631231	-0.508759	-0.510106	0.040427	41.3181	-0.509493	-4.64896e+06	-8.695846E-9	NaN
651	1.000000	0.674589	7.37142e+06	-44539.1	1005.82	-29775.5	0.000000	0.000000	6.675003	-0.029529	NaN	0.000000	0.001658	0.001719	28.0834	0.026901	0.001928	13.9539	-16.1954	-165.231	-0.022219	0.673268	-0.466748	-0.468069	-0.029529	13.9539	-0.465160	-1.11558e+06	2.646999E-8	NaN
651	1.000000	0.716623	7.37142e+06	-44539.1	1005.82	-29775.5	0.000000	0.000000	6.717038	-0.002000	NaN	0.000000	0.001620	0.001692	28.0832	0.054805	0.001943	28.2054	67.9639	12.4823	-0.070769	0.715268	-0.424714	-0.426069	-0.002000	28.2054	-0.424661	-299555	6.675060E-9	NaN
651	1.000000	0.758619	7.37142e+06	-44539.1	1005.82	-29775.5	0.000000	0.000000	6.759034	0.006743	NaN	0.000000	0.001546	0.001742	28.0819	0.046168	0.002029	22.7593	61.5839	-167.036	-0.006184	0.757307	-0.382718	-0.384030	0.006743	22.7593	-0.382940	-76219.2	-8.847218E-8	NaN
651	1.000000	0.800631	7.37142e+06	-44539.1	1005.82	-29775.5	0.000000	0.000000	6.801046	0.009193	NaN	0.000000	0.001646	0.001701	28.082	0.044169	0.001981	22.2972	-103.795	12.4294	-0.015214	0.799315	-0.340706	-0.342022	0.009193	22.2972	-0.341015	-18894.8	-4.865598E-7	NaN
651	1.000000	0.842645	7.37142e+06	-44539.1	1005.82	-29775.5	0.000000	0.000000	6.843062	0.046467	NaN	0.000000	0.001677	0.001719	28.0817	0.050847	0.002105	24.1502	-40.7638	-165.942	0.038146	0.841364	-0.298692	-0.299972	0.046467	24.1502	-0.300135	-4727.62	-9.828818E-6	NaN
651	1.000000	0.884705	7.37142e+06	-44539.1	1005.82	-29775.5	0.000000	0.000000	6.885119	-0.029212	NaN	0.000000	0.001670	0.001686	28.0818	0.109606	0.001894	57.8554	-104.033	16.8318	0.004673	0.883321	-0.256631	-0.258015	-0.029212	57.8554	-0.256252	-1026.56	2.845655E-5	NaN
651	1.000000	0.926699	7.37142e+06	-44539.1	1005.82	-29775.5	0.000000	0.000000	6.927114	-0.008825	NaN	0.000000	0.001659	0.001651	28.0835	0.100218	0.001954	51.2926	-144.447	-163.212	-0.023362	0.925404	-0.214637	-0.215932	-0.008825	51.2926	-0.214508	-226.778	3.891409E-5	NaN
651	1.000000	0.968724	7.37142e+06	-44539.1	1005.82	-29775.5	0.000000	0.000000	6.969138	-0.010446	NaN	0.000000	0.001695	0.001741	28.0834	0.044189	0.001851	23.8731	168.014	13.4902	-0.006282	0.967417	-0.172613	-0.173919	-0.010446	23.8731	-0.172285	-44.9975	0.000232	NaN
651	1.000000	1.010712	7.37142e+06	-44539.1	1005.82	-29775.5	0.000000	0.000000	7.011126	-0.048102	NaN	0.000000	0.001541	0.001685	28.0832	0.087328	0.001984	44.0253	-71.0393	-164.1	-0.032891	1.009441	-0.130624	-0.131896	-0.048102	44.0253	-0.129805	-7.554662	0.006367	NaN
651	1.000000	1.052780	7.37142e+06	-44539.1	1005.82	-29775.5	0.000000	0.000000	7.053191	-0.092562	NaN	0.000000	0.001596	0.001726	28.0822	0.084208	0.002016	41.769	154.55	16.8676	-0.044557	1.051426	-0.088556	-0.089910	-0.092562	41.769	-0.086894	-0.912541	0.101433	NaN
651	1.000000	1.094769	7.37142e+06	-44539.1	1005.82	-29775.5	0.000000	0.000000	7.095184	-0.024369	NaN	0.000000	0.001645	0.001712	28.082	0.066480	0.002023	32.8559	32.8002	-165.262	0.070441	1.093502	-0.046567	-0.047834	-0.024369	32.8559	-0.046011	-0.069007	0.353142	NaN
651	1.000000	1.136764	7.37142e+06	-44539.1	1005.82	-29775.5	0.000000	0.000000	7.137226	1.153398	NaN	0.000000	0.001633	0.001690	28.082	1.799042	0.001877	958.591	9.649842	12.5773	0.406007	1.135451	-0.004573	-0.005885	1.153398	958.591	-0.005475	-0.003713	-310.619	NaN
651	2.000000	1.152310	7.37142e+06	-44539.1	1005.82	-29775.5	0.000000	0.000000	7.153826	26.7978	NaN	0.000000	0.001603	0.001689	28.0846	19.0475	0.001707	11159.1	3.134356	-174.74	24.121	1.151988	0.010973	0.010651	26.7978	11159.1	0.009172	0.008276	3238.13	112072
651	2.000000	1.162824	7.37142e+06	-44539.1	1005.82	-29775.5	0.000000	0.000000	7.165402	52.6153	NaN	0.000000	0.001603	0.001676	28.0838	28.8672	0.001680	17184.4	4.557267	0.528945	52.337	1.162471	0.021488	0.021134	52.6153	17184.4	0.019191	0.021288	2471.63	107608
651	2.000000	1.173290	7.37142e+06	-44539.1	1005.82	-29775.5	0.000000	0.000000	7.177227	85.6789	NaN	0.000000	0.001617	0.001649	28.0836	38.9369	0.001788	21779.1	4.602641	179.326	83.7792	1.172979	0.031954	0.031642	85.6789	21779.1	0.029003	0.038703	2213.76	101144
651	2.000000	1.183776	7.37142e+06	-44539.1	1005.82	-29775.5	0.000000	0.000000	7.189520	129.649	NaN	0.000000	0.001587	0.001692	28.0819	48.4911	0.001753	27667.8	6.076754	-4.998685	127.211	1.183449	0.042439	0.042112	129.649	27667.8	0.038925	0.061279	2115.7	102115
651	2.000000	1.194288	7.37142e+06	-44539.1	1005.82	-29775.5	0.000000	0.000000	7.202106	180.107	NaN	0.000000	0.001586	0.001687	28.0819	58.2822	0.001761	33096.9	4.123400	176.767	179.098	1.193983	0.052951	0.052646	180.107	33096.9	0.048870	0.088952	2024.76	101387
651	2.000000	1.204777	7.37142e+06	-44539.1	1005.82	-29775.5	0.000000	0.000000	7.214642	229.907	NaN	0.000000	0.001577	0.001698	28.0818	69.0474	0.001914	36082.7	5.836244	-6.207314	230.884	1.204390	0.063440	0.063054	229.907	36082.7	0.058662	0.121053	1899.23	94751.2
651	2.000000	1.215208	7.37142e+06	-44539.1	1005.82	-29775.5	0.000000	0.000000	7.227693	293.63	NaN	0.000000	0.001572	0.001672	28.0816	75.9152	0.001771	42876.9	2.475637	175.119	291.161	1.214896	0.073872	0.073560	293.63	42876.9	0.068736	0.158982	1846.93	98247.6
651	2.000000	1.225649	7.37142e+06	-44539.1	1005.82	-29775.5	0.000000	0.000000	7.240807	358.682	NaN	0.000000	0.001589	0.001715	28.083	86.2196	0.001823	47306.8	4.632531	-7.426577	351.003	1.225374	0.084312	0.084038	358.682	47306.8	0.078626	0.200935	1785.07	96420.4
651	2.000000	1.236179	7.37142e+06	-44539.1	1005.82	-29775.5	0.000000	0.000000	7.254595	437.947	NaN	0.000000	0.001624	0.001718	28.0831	94.8231	0.001696	55905.7	1.089222	174.974	434.441	1.235906	0.094842	0.094570	437.947	55905.7	0.088967	0.249688	1753.98	102219
651	2.000000	1.242274	7.37142e+06	-44539.1	1005.82	-29775.5	0.000000	0.000000	7.262802	489.288	NaN	0.000000	0.001532	0.001724	28.0832	101.08	0.001651	61226.5	2.775756	172.866	492.219	1.241993	0.100938	0.100657	489.288	61226.5	0.094944	0.280113	1746.75	105693