File: remote_trans/data/nanoindenter/0828-1/data/Data_2025-08-06,11h17m57s/2025-07-22_16-23-58_1_364.txt
2025-07-22, 16:23:58, 1
Index	Phase	Displacement	Time	Pos X	Pos Y	Pos Z	Rot A	Rot B	Piezo Z	Force A	Force B	Gripper	Voltage A	Voltage B	Temperature	Amplitude force	Amplitude pos	Stiffness	Phase shift	Phase excitation	Force A raw	Displacement raw	HMax	HMax raw	Real Force	Real Stiffness	Contact Depth	Area	Hardness	Reduced Mod.
[#]	[#]	[um]	[s]	[um]	[um]	[um]	[m°]	[m°]	[um]	[uN]	[uN]	[V]	[V]	[V]	[°C]	[uN]	[um]	[N/m]	[°]	[°]	[uN]	[um]	[um]	[um]	[uN]	[N/m]	[um]	[um^2]	[MPa]	[MPa]
364	1.000000	0.002552	7.36862e+06	-56839.1	955.819	-29738.3	0.000000	0.000000	6.002800	0.015509	NaN	0.000000	0.001677	0.001709	28.0808	0.052726	0.001030	51.1999	-144.631	-169.064	-0.072894	0.001289	-1.095686	-1.096948	0.015509	51.1999	-1.095913	-4.417730E+14	-3.510523E-17	NaN
364	1.000000	0.044508	7.36862e+06	-56839.1	955.819	-29738.3	0.000000	0.000000	6.044752	-0.090150	NaN	0.000000	0.001654	0.001696	28.0804	0.129522	0.001916	67.6044	-75.529	10.4175	-0.037108	0.043131	-1.053730	-1.055107	-0.090150	67.6044	-1.052730	-1.161742E+14	7.759894E-16	NaN
364	1.000000	0.086482	7.36862e+06	-56839.1	955.819	-29738.3	0.000000	0.000000	6.086727	-0.064242	NaN	0.000000	0.001610	0.001678	28.0791	0.067588	0.001925	35.1098	-123.298	-168.663	-0.063684	0.085231	-1.011756	-1.013006	-0.064242	35.1098	-1.010383	-3.129994E+13	2.052468E-15	NaN
364	1.000000	0.128523	7.36862e+06	-56839.1	955.818	-29738.3	0.000000	0.000000	6.128769	-0.051710	NaN	0.000000	0.001688	0.001690	28.0796	0.102509	0.002056	49.8652	138.853	10.8711	-0.100208	0.127159	-0.969714	-0.971079	-0.051710	49.8652	-0.968936	-8.656250E+12	5.973686E-15	NaN
364	1.000000	0.170542	7.36862e+06	-56839.1	955.818	-29738.3	0.000000	0.000000	6.170790	-0.002745	NaN	0.000000	0.001695	0.001731	28.079	0.057454	0.002044	28.1033	18.7384	-166.571	-0.029755	0.169273	-0.927696	-0.928964	-0.002745	28.1033	-0.927622	-2.399416E+12	1.143841E-15	NaN
364	1.000000	0.212552	7.36862e+06	-56839.1	955.819	-29738.3	0.000000	0.000000	6.212797	-0.076369	NaN	0.000000	0.001645	0.001766	28.0805	0.059616	0.002020	29.5176	-134.964	14.4267	-0.016955	0.211212	-0.885686	-0.887025	-0.076369	29.5176	-0.883745	-6.128482E+11	1.246128E-13	NaN
364	1.000000	0.254556	7.36862e+06	-56839.1	955.818	-29738.3	0.000000	0.000000	6.254805	0.008745	NaN	0.000000	0.001599	0.001734	28.0805	0.032438	0.001911	16.9736	133.788	-164.855	-0.053420	0.253273	-0.843681	-0.844964	0.008745	16.9736	-0.844068	-1.779888E+11	-4.912990E-14	NaN
364	1.000000	0.296602	7.36862e+06	-56839.1	955.819	-29738.3	0.000000	0.000000	6.296848	-0.044178	NaN	0.000000	0.001604	0.001742	28.0803	0.071519	0.002002	35.7162	157.505	13.9325	-0.070029	0.295275	-0.801636	-0.802962	-0.044178	35.7162	-0.800708	-4.596972E+10	9.610235E-13	NaN
364	1.000000	0.338589	7.36862e+06	-56839.1	955.819	-29738.3	0.000000	0.000000	6.338834	-0.077852	NaN	0.000000	0.001651	0.001776	28.0792	0.115098	0.002040	56.4212	64.2513	-166.461	-0.088261	0.337335	-0.759649	-0.760903	-0.077852	56.4212	-0.758614	-1.231521E+10	6.321578E-12	NaN
364	1.000000	0.380683	7.36862e+06	-56839.1	955.818	-29738.3	0.000000	0.000000	6.380928	-0.074301	NaN	0.000000	0.001646	0.001715	28.0792	0.086158	0.001949	44.21	87.695	13.4887	-0.079448	0.379244	-0.717554	-0.718994	-0.074301	44.21	-0.716294	-3.265308E+9	2.275457E-11	NaN
364	1.000000	0.422683	7.36862e+06	-56839.1	955.818	-29738.3	0.000000	0.000000	6.422926	-0.114699	NaN	0.000000	0.001685	0.001720	28.0792	0.056993	0.002105	27.0756	22.7686	-163.591	-0.131806	0.421368	-0.675554	-0.676869	-0.114699	27.0756	-0.672377	-8.202072E+8	1.398415E-10	NaN
364	1.000000	0.464703	7.36862e+06	-56839.1	955.818	-29738.3	0.000000	0.000000	6.464949	-0.040682	NaN	0.000000	0.001671	0.001782	28.0803	0.103819	0.002021	51.3653	120.12	12.7811	-0.007887	0.463295	-0.633535	-0.634942	-0.040682	51.3653	-0.632941	-2.362665E+8	1.721867E-10	NaN
364	1.000000	0.506677	7.36862e+06	-56839.1	955.819	-29738.3	0.000000	0.000000	6.506920	-0.102017	NaN	0.000000	0.001673	0.001690	28.0801	0.034872	0.002016	17.2988	-158.492	-165.834	-0.073714	0.505415	-0.591561	-0.592822	-0.102017	17.2988	-0.587138	-5.536073E+7	1.842777E-9	NaN
364	1.000000	0.548722	7.36862e+06	-56839.1	955.818	-29738.3	0.000000	0.000000	6.548969	-0.017893	NaN	0.000000	0.001662	0.001713	28.0804	0.024770	0.002062	12.0151	95.5207	13.0367	0.007471	0.547357	-0.549515	-0.550880	-0.017893	12.0151	-0.548398	-1.613501E+7	1.108962E-9	NaN
364	1.000000	0.590752	7.36862e+06	-56839.1	955.817	-29738.3	0.000000	0.000000	6.590998	-0.030012	NaN	0.000000	0.001663	0.001726	28.0805	0.121431	0.001993	60.9427	-42.8367	-165.555	0.010066	0.589389	-0.507486	-0.508848	-0.030012	60.9427	-0.507116	-4.30767e+06	6.967023E-9	NaN
364	1.000000	0.632770	7.36863e+06	-56839.1	955.819	-29738.3	0.000000	0.000000	6.633015	-0.059355	NaN	0.000000	0.001751	0.001763	28.0793	0.118805	0.001886	62.9939	2.672520	15.3385	-0.095438	0.631384	-0.465468	-0.466853	-0.059355	62.9939	-0.464761	-1.10126e+06	5.389720E-8	NaN
364	1.000000	0.674783	7.36863e+06	-56839.1	955.817	-29738.3	0.000000	0.000000	6.675026	-0.114893	NaN	0.000000	0.001774	0.001712	28.0792	0.083255	0.002061	40.4027	132.317	-170.179	-0.077108	0.673474	-0.423455	-0.424763	-0.114893	40.4027	-0.421322	-268636	4.276892E-7	NaN
364	1.000000	0.716774	7.36863e+06	-56839.1	955.817	-29738.3	0.000000	0.000000	6.717019	-0.056738	NaN	0.000000	0.001745	0.001705	28.0793	0.050410	0.002009	25.0923	-80.4294	12.5546	-0.085742	0.715399	-0.381464	-0.382839	-0.056738	25.0923	-0.379768	-68637.1	8.266372E-7	NaN
364	1.000000	0.758819	7.36863e+06	-56839.1	955.819	-29738.3	0.000000	0.000000	6.759064	-0.068508	NaN	0.000000	0.001682	0.001706	28.08	0.030467	0.001950	15.6231	-127.53	-167.789	-0.060054	0.757429	-0.339418	-0.340809	-0.068508	15.6231	-0.336130	-16035.6	4.272252E-6	NaN
364	1.000000	0.800827	7.36863e+06	-56839.1	955.818	-29738.3	0.000000	0.000000	6.801073	-0.042789	NaN	0.000000	0.001666	0.001719	28.08	0.034206	0.002009	17.0232	111.377	11.7278	0.054769	0.799479	-0.297410	-0.298758	-0.042789	17.0232	-0.295525	-4035.79	1.060248E-5	NaN
364	1.000000	0.842830	7.36863e+06	-56839.1	955.818	-29738.3	0.000000	0.000000	6.843076	-0.041490	NaN	0.000000	0.001694	0.001674	28.0798	0.104650	0.001983	52.7779	142.941	-165.405	-0.081581	0.841502	-0.255408	-0.256736	-0.041490	52.7779	-0.254818	-975.703	4.252315E-5	NaN
364	1.000000	0.884816	7.36863e+06	-56839.1	955.819	-29738.3	0.000000	0.000000	6.885062	-0.062272	NaN	0.000000	0.001682	0.001649	28.0791	0.098044	0.002131	46.0179	-71.7411	14.3628	-0.104387	0.883525	-0.213421	-0.214713	-0.062272	46.0179	-0.212406	-209.759	0.000297	NaN
364	1.000000	0.926875	7.36863e+06	-56839.1	955.817	-29738.3	0.000000	0.000000	6.927120	-0.076362	NaN	0.000000	0.001716	0.001704	28.0794	0.199816	0.002056	97.1692	-86.543	-166.351	-0.012648	0.925564	-0.171363	-0.172674	-0.076362	97.1692	-0.170773	-42.3671	0.001802	NaN
364	1.000000	0.968915	7.36863e+06	-56839.1	955.818	-29738.3	0.000000	0.000000	6.969159	-0.093425	NaN	0.000000	0.001722	0.001673	28.0793	0.046486	0.002066	22.501	-116.621	9.299288	-0.140187	0.967542	-0.129322	-0.130696	-0.093425	22.501	-0.126208	-6.424678	0.014542	NaN
364	1.000000	1.010910	7.36863e+06	-56839.1	955.819	-29738.3	0.000000	0.000000	7.011157	0.001243	NaN	0.000000	0.001704	0.001747	28.0806	0.107573	0.001984	54.2274	-87.4599	-168.571	-0.033633	1.009521	-0.087328	-0.088716	0.001243	54.2274	-0.087345	-0.935444	-0.001329	NaN
364	1.000000	1.052914	7.36863e+06	-56839.1	955.818	-29738.3	0.000000	0.000000	7.053158	-0.072603	NaN	0.000000	0.001702	0.001718	28.0804	0.008840	0.001866	4.737024	-40.5601	13.6602	-0.014858	1.051516	-0.045324	-0.046721	-0.072603	4.737024	-0.033829	-0.029592	2.453492	NaN
364	1.000000	1.094935	7.36863e+06	-56839.1	955.818	-29738.3	0.000000	0.000000	7.095179	-0.086403	NaN	0.000000	0.001728	0.001715	28.0807	0.143328	0.001989	72.0737	179.483	-167.622	-0.061812	1.093689	-0.003302	-0.004548	-0.086403	72.0737	-0.002403	-0.001717	50.3265	NaN
364	2.000000	1.114838	7.36863e+06	-56839.1	955.818	-29738.3	0.000000	0.000000	7.115873	19.1132	NaN	0.000000	0.001661	0.001701	28.0804	16.3969	0.001776	9234.27	3.796119	7.409602	17.7993	1.114566	0.016601	0.016329	19.1132	9234.27	0.015048	0.015350	1245.15	68095.8
364	2.000000	1.125286	7.36863e+06	-56839.1	955.818	-29738.3	0.000000	0.000000	7.127237	41.3984	NaN	0.000000	0.001627	0.001728	28.0791	26.2954	0.001754	14994	3.889776	-178.487	38.6465	1.124971	0.027048	0.026733	41.3984	14994	0.024977	0.030974	1336.54	77837.5
364	2.000000	1.135821	7.36863e+06	-56839.1	955.819	-29738.3	0.000000	0.000000	7.139076	73.0951	NaN	0.000000	0.001631	0.001729	28.0794	35.8968	0.001716	20924.3	4.281933	-1.087073	71.5053	1.135376	0.037583	0.037138	73.0951	20924.3	0.034963	0.051661	1414.9	84109
364	2.000000	1.146282	7.36863e+06	-56839.1	955.819	-29738.3	0.000000	0.000000	7.151361	117.436	NaN	0.000000	0.001671	0.001695	28.0792	45.6226	0.001701	26828.3	4.580704	177.722	116.777	1.145913	0.048045	0.047675	117.436	26828.3	0.044762	0.076912	1526.89	88383.2
364	2.000000	1.156803	7.36863e+06	-56839.1	955.819	-29738.3	0.000000	0.000000	7.163593	159.021	NaN	0.000000	0.001634	0.001756	28.0805	56.2735	0.001836	30641.9	4.356359	-3.727391	158.67	1.156376	0.058565	0.058138	159.021	30641.9	0.054673	0.107402	1480.61	85424.5
364	2.000000	1.167264	7.36863e+06	-56839.1	955.819	-29738.3	0.000000	0.000000	7.176185	210.789	NaN	0.000000	0.001650	0.001728	28.0803	66.8749	0.001897	35247.1	5.659216	173.742	208.683	1.166958	0.069027	0.068721	210.789	35247.1	0.064542	0.142596	1478.23	85279.2
364	2.000000	1.177721	7.36863e+06	-56839.1	955.82	-29738.3	0.000000	0.000000	7.189453	279.115	NaN	0.000000	0.001673	0.001754	28.0803	74.971	0.001838	40789.6	4.189992	-6.073621	275.554	1.177457	0.079484	0.079219	279.115	40789.6	0.074352	0.182240	1531.58	87297.3
364	2.000000	1.188250	7.36863e+06	-56839.1	955.82	-29738.3	0.000000	0.000000	7.202567	341.96	NaN	0.000000	0.001596	0.001694	28.0794	85.158	0.001776	47941	3.334970	172.877	339.218	1.187927	0.090013	0.089690	341.96	47941	0.084663	0.228797	1494.6	91570.5
364	2.000000	1.198650	7.36863e+06	-56839.1	955.82	-29738.3	0.000000	0.000000	7.216218	420.971	NaN	0.000000	0.001666	0.001691	28.0791	93.3773	0.001730	53976.7	2.258845	-5.728176	414.766	1.198314	0.100413	0.100076	420.971	53976.7	0.094564	0.278126	1513.6	93510.2
364	2.000000	1.206223	7.36863e+06	-56839.1	955.821	-29738.3	0.000000	0.000000	7.225988	474.377	NaN	0.000000	0.001685	0.001676	28.0793	102.089	0.001762	57949.1	5.872243	169.86	472.656	1.205806	0.107986	0.107568	474.377	57949.1	0.101846	0.317270	1495.18	93995.2