File: remote_trans/data/nanoindenter/0828-1/data/Data_2025-08-06,11h17m57s/2025-07-22_16-23-58_1_100.txt
2025-07-22, 16:23:58, 1
Index	Phase	Displacement	Time	Pos X	Pos Y	Pos Z	Rot A	Rot B	Piezo Z	Force A	Force B	Gripper	Voltage A	Voltage B	Temperature	Amplitude force	Amplitude pos	Stiffness	Phase shift	Phase excitation	Force A raw	Displacement raw	HMax	HMax raw	Real Force	Real Stiffness	Contact Depth	Area	Hardness	Reduced Mod.
[#]	[#]	[um]	[s]	[um]	[um]	[um]	[m°]	[m°]	[um]	[uN]	[uN]	[V]	[V]	[V]	[°C]	[uN]	[um]	[N/m]	[°]	[°]	[uN]	[um]	[um]	[um]	[uN]	[N/m]	[um]	[um^2]	[MPa]	[MPa]
100	1.000000	0.002419	7.36602e+06	-43639.1	955.818	-29778.9	0.000000	0.000000	6.002833	-0.029603	NaN	0.000000	0.001657	0.001603	28.093	0.065779	0.000963	68.3263	-168.496	-164.463	0.030964	0.001115	-1.074832	-1.076136	-0.029603	68.3263	-1.074507	-2.278938E+14	1.298981E-16	NaN
100	1.000000	0.042345	7.36602e+06	-43639.1	955.819	-29778.9	0.000000	0.000000	6.042760	-0.009187	NaN	0.000000	0.001602	0.001666	28.0914	0.024891	0.001802	13.8155	151.599	-166.658	0.047780	0.041059	-1.034906	-1.036192	-0.009187	13.8155	-1.034407	-6.588080E+13	1.394489E-16	NaN
100	1.000000	0.082353	7.36602e+06	-43639.1	955.818	-29778.9	0.000000	0.000000	6.082765	-0.074026	NaN	0.000000	0.001613	0.001659	28.0913	0.112381	0.002026	55.479	81.4165	-164.655	-0.050045	0.081086	-0.994898	-0.996165	-0.074026	55.479	-0.993897	-1.877578E+13	3.942632E-15	NaN
100	1.000000	0.122398	7.36602e+06	-43639.1	955.818	-29778.9	0.000000	0.000000	6.122814	0.018931	NaN	0.000000	0.001559	0.001675	28.0902	0.088988	0.001961	45.3696	177.861	-163.389	-0.042631	0.121061	-0.954853	-0.956191	0.018931	45.3696	-0.955166	-5.645379E+12	-3.353412E-15	NaN
100	1.000000	0.162389	7.36602e+06	-43639.1	955.818	-29778.9	0.000000	0.000000	6.162804	0.011868	NaN	0.000000	0.001593	0.001653	28.0923	0.068878	0.002034	33.8636	-30.6095	-161.84	0.083048	0.161112	-0.914862	-0.916139	0.011868	33.8636	-0.915125	-1.626977E+12	-7.294355E-15	NaN
100	1.000000	0.202411	7.36602e+06	-43639.1	955.818	-29778.9	0.000000	0.000000	6.202824	-0.055542	NaN	0.000000	0.001584	0.001694	28.0917	0.027606	0.002078	13.2829	55.8667	-166.8	-0.090858	0.201093	-0.874840	-0.876158	-0.055542	13.2829	-0.871704	-4.212039E+11	1.318653E-13	NaN
100	1.000000	0.242424	7.36602e+06	-43639.1	955.818	-29778.9	0.000000	0.000000	6.242837	-0.062708	NaN	0.000000	0.001585	0.001680	28.0943	0.039132	0.001951	20.0553	-2.886366	-165.708	-0.083229	0.241134	-0.834827	-0.836117	-0.062708	20.0553	-0.832482	-1.239990E+11	5.057104E-13	NaN
100	1.000000	0.282438	7.36602e+06	-43639.1	955.817	-29778.9	0.000000	0.000000	6.282852	-0.019522	NaN	0.000000	0.001601	0.001658	28.0924	0.071646	0.002073	34.5676	-135.842	-163.918	-0.069074	0.281096	-0.794813	-0.796155	-0.019522	34.5676	-0.794390	-3.773092E+10	5.174004E-13	NaN
100	1.000000	0.322465	7.36602e+06	-43639.1	955.818	-29778.9	0.000000	0.000000	6.322879	-0.014739	NaN	0.000000	0.001566	0.001668	28.0941	0.050739	0.002021	25.1001	107.952	-168.469	-0.058684	0.321159	-0.754786	-0.756092	-0.014739	25.1001	-0.754346	-1.077384E+10	1.368049E-12	NaN
100	1.000000	0.362485	7.36602e+06	-43639.1	955.818	-29778.9	0.000000	0.000000	6.362900	0.007494	NaN	0.000000	0.001576	0.001667	28.0919	0.076542	0.001977	38.7246	9.927810	-159.706	0.076103	0.361098	-0.714766	-0.716153	0.007494	38.7246	-0.714911	-3.126540E+9	-2.396983E-12	NaN
100	1.000000	0.402497	7.36602e+06	-43639.1	955.818	-29778.9	0.000000	0.000000	6.402913	0.036593	NaN	0.000000	0.001529	0.001683	28.0917	0.085210	0.002132	39.9603	95.831	-166.053	0.027030	0.401192	-0.674754	-0.676059	0.036593	39.9603	-0.675441	-9.033253E+8	-4.050909E-11	NaN
100	1.000000	0.442485	7.36602e+06	-43639.1	955.818	-29778.9	0.000000	0.000000	6.442902	0.043915	NaN	0.000000	0.001572	0.001689	28.0929	0.100675	0.001935	52.0174	-137.766	-165.705	-0.004613	0.441172	-0.634766	-0.636079	0.043915	52.0174	-0.635399	-2.553564E+8	-1.719764E-10	NaN
100	1.000000	0.482537	7.36602e+06	-43639.1	955.818	-29778.9	0.000000	0.000000	6.482951	-0.033880	NaN	0.000000	0.001610	0.001665	28.0929	0.034618	0.002029	17.059	-62.4633	-167.205	0.022966	0.481244	-0.594714	-0.596008	-0.033880	17.059	-0.593224	-6.715969E+7	5.044624E-10	NaN
100	1.000000	0.522542	7.36602e+06	-43639.1	955.817	-29778.9	0.000000	0.000000	6.522958	0.030501	NaN	0.000000	0.001559	0.001672	28.0937	0.136663	0.001829	74.703	-114.555	-164.627	0.035072	0.521236	-0.554710	-0.556015	0.030501	74.703	-0.555016	-1.992539E+7	-1.530758E-9	NaN
100	1.000000	0.562570	7.36602e+06	-43639.1	955.819	-29778.9	0.000000	0.000000	6.562983	-0.032767	NaN	0.000000	0.001541	0.001643	28.0953	0.023873	0.002004	11.9139	-145.635	-166.739	-0.028969	0.561220	-0.514681	-0.516031	-0.032767	11.9139	-0.512619	-5.13907e+06	6.375965E-9	NaN
100	1.000000	0.602587	7.36602e+06	-43639.1	955.818	-29778.9	0.000000	0.000000	6.603002	0.007767	NaN	0.000000	0.001559	0.001645	28.0938	0.132111	0.001972	66.9771	99.243	-167.009	0.041527	0.601295	-0.474664	-0.475956	0.007767	66.9771	-0.474751	-1.5206e+06	-5.107704E-9	NaN
100	1.000000	0.642579	7.36602e+06	-43639.1	955.818	-29778.9	0.000000	0.000000	6.642996	0.041386	NaN	0.000000	0.001542	0.001647	28.0941	0.011614	0.001980	5.866010	-22.8105	-166.69	-0.023447	0.641234	-0.434672	-0.436017	0.041386	5.866010	-0.439963	-492998	-8.394801E-8	NaN
100	1.000000	0.682599	7.36602e+06	-43639.1	955.818	-29778.9	0.000000	0.000000	6.683013	-0.020712	NaN	0.000000	0.001567	0.001662	28.0931	0.005074	0.001991	2.548809	-10.2175	-160.877	-0.069006	0.681266	-0.394652	-0.395986	-0.020712	2.548809	-0.388557	-91732.7	2.257862E-7	NaN
100	1.000000	0.722632	7.36602e+06	-43639.1	955.818	-29778.9	0.000000	0.000000	6.723049	0.040953	NaN	0.000000	0.001563	0.001641	28.0949	0.028016	0.001982	14.1324	120.117	-162.076	0.060571	0.721308	-0.354619	-0.355943	0.040953	14.1324	-0.356793	-32022.2	-1.278903E-6	NaN
100	1.000000	0.762631	7.36602e+06	-43639.1	955.819	-29778.9	0.000000	0.000000	6.763049	0.063948	NaN	0.000000	0.001568	0.001678	28.0958	0.062526	0.001897	32.9613	77.9451	-168.828	0.042509	0.761344	-0.314620	-0.315907	0.063948	32.9613	-0.316075	-8143.47	-7.852670E-6	NaN
100	1.000000	0.802639	7.36602e+06	-43639.1	955.819	-29778.9	0.000000	0.000000	6.803055	0.021252	NaN	0.000000	0.001553	0.001682	28.0955	0.034154	0.002004	17.0467	133.505	-167.149	-0.000529	0.801312	-0.274612	-0.275939	0.021252	17.0467	-0.275547	-2021.53	-1.051305E-5	NaN
100	1.000000	0.842658	7.36602e+06	-43639.1	955.817	-29778.9	0.000000	0.000000	6.843073	-0.002228	NaN	0.000000	0.001598	0.001687	28.0957	0.056779	0.001967	28.8625	136.828	-161.945	0.070529	0.841385	-0.234593	-0.235866	-0.002228	28.8625	-0.234535	-472.002	4.720172E-6	NaN
100	1.000000	0.882676	7.36602e+06	-43639.1	955.818	-29778.9	0.000000	0.000000	6.883088	-0.075155	NaN	0.000000	0.001567	0.001667	28.0967	0.010690	0.002043	5.232964	94.7467	-166.852	-0.083088	0.881375	-0.194575	-0.195876	-0.075155	5.232964	-0.183803	-70.7853	0.001062	NaN
100	1.000000	0.922711	7.36602e+06	-43639.1	955.818	-29778.9	0.000000	0.000000	6.923128	0.028572	NaN	0.000000	0.001590	0.001711	28.0947	0.074991	0.001874	40.0183	27.3021	-161.853	-0.006561	0.921389	-0.154540	-0.155862	0.028572	40.0183	-0.155075	-22.3838	-0.001276	NaN
100	1.000000	0.962739	7.36602e+06	-43639.1	955.818	-29778.9	0.000000	0.000000	6.963155	0.022868	NaN	0.000000	0.001626	0.001612	28.0956	0.048141	0.001931	24.9288	-120.454	-166.697	0.084005	0.961361	-0.114512	-0.115890	0.022868	24.9288	-0.115200	-3.856782	-0.005929	NaN
100	1.000000	1.002741	7.36602e+06	-43639.1	955.818	-29778.9	0.000000	0.000000	7.003157	0.018155	NaN	0.000000	0.001615	0.001646	28.0949	0.023517	0.001979	11.8821	-98.5396	-164.521	0.012831	1.001344	-0.074510	-0.075907	0.018155	11.8821	-0.075656	-0.480242	-0.037803	NaN
100	1.000000	1.042755	7.36602e+06	-43639.1	955.818	-29778.9	0.000000	0.000000	7.043170	-0.007922	NaN	0.000000	0.001599	0.001645	28.0974	0.026219	0.001978	13.2549	163.491	-164.697	-0.031401	1.041435	-0.034496	-0.035816	-0.007922	13.2549	-0.034048	-0.030031	0.263801	NaN
100	1.000000	1.082722	7.36602e+06	-43639.1	955.819	-29778.9	0.000000	0.000000	7.083317	4.390055	NaN	0.000000	0.001583	0.001677	28.0966	5.072190	0.001953	2597.63	10.4629	-168.3	2.584297	1.081428	0.005471	0.004177	4.390055	2597.63	0.004203	0.003418	1284.41	40594.5
100	2.000000	1.096227	7.36602e+06	-43639.1	955.818	-29778.9	0.000000	0.000000	7.097482	20.4339	NaN	0.000000	0.001515	0.001634	28.0977	17.6784	0.001779	9935.36	3.738352	-173.801	19.3328	1.095969	0.018976	0.018718	20.4339	9935.36	0.017433	0.018668	1094.58	66436.2
100	2.000000	1.106196	7.36602e+06	-43639.1	955.818	-29778.9	0.000000	0.000000	7.108516	46.3519	NaN	0.000000	0.001541	0.001683	28.0969	27.724	0.001702	16286.7	3.821252	-178.156	45.1956	1.105913	0.028945	0.028662	46.3519	16286.7	0.026811	0.034392	1347.74	80237.4
100	2.000000	1.116147	7.36602e+06	-43639.1	955.818	-29778.9	0.000000	0.000000	7.119520	71.9635	NaN	0.000000	0.001538	0.001620	28.0967	37.759	0.001757	21489.9	2.465927	-179.518	69.8021	1.115969	0.038896	0.038718	71.9635	21489.9	0.036384	0.055019	1307.99	83705.5
100	2.000000	1.126172	7.36602e+06	-43639.1	955.819	-29778.9	0.000000	0.000000	7.131057	108.752	NaN	0.000000	0.001557	0.001646	28.0962	47.5823	0.001762	27006	6.280141	174.658	107.765	1.125938	0.048921	0.048687	108.752	27006	0.045901	0.080165	1356.6	87144.7
100	2.000000	1.136146	7.36602e+06	-43639.1	955.819	-29778.9	0.000000	0.000000	7.142837	152.689	NaN	0.000000	0.001593	0.001676	28.0964	55.9274	0.001772	31562	-3.098582	-176.785	150.582	1.135875	0.058895	0.058624	152.689	31562	0.055267	0.109384	1395.89	87188.8
100	2.000000	1.146058	7.36602e+06	-43639.1	955.819	-29778.9	0.000000	0.000000	7.154772	201.919	NaN	0.000000	0.001559	0.001687	28.0974	65.6883	0.001746	37620.7	2.915778	175.503	197.465	1.145804	0.068807	0.068553	201.919	37620.7	0.064781	0.143509	1407.01	90732
100	2.000000	1.156236	7.36602e+06	-43639.1	955.818	-29778.9	0.000000	0.000000	7.167239	257.602	NaN	0.000000	0.001619	0.001667	28.0987	75.0782	0.001774	42330.9	0.688334	177.291	261.105	1.155901	0.078985	0.078650	257.602	42330.9	0.074420	0.182533	1411.26	90523.1
100	2.000000	1.166071	7.36602e+06	-43639.1	955.819	-29778.9	0.000000	0.000000	7.179908	326.543	NaN	0.000000	0.001572	0.001699	28.0975	84.7906	0.001757	48256.4	2.489267	174.077	323.153	1.165785	0.088820	0.088534	326.543	48256.4	0.083745	0.224450	1454.85	93061.1
100	2.000000	1.176007	7.36602e+06	-43639.1	955.818	-29778.9	0.000000	0.000000	7.193017	403.763	NaN	0.000000	0.001592	0.001686	28.0987	95.6125	0.001824	52427.5	8.259065	168.612	397.116	1.175651	0.098756	0.098400	403.763	52427.5	0.092980	0.269932	1495.8	92194.6
100	2.000000	1.186098	7.36602e+06	-43639.1	955.818	-29778.9	0.000000	0.000000	7.206237	479.854	NaN	0.000000	0.001637	0.001631	28.0973	104.614	0.001873	55845	5.704839	170.137	480.665	1.185913	0.108847	0.108662	479.854	55845	0.102403	0.320362	1497.85	90144.1