File: remote_trans/data/nanoindenter/0828-1/data/Data_2025-08-06,11h17m57s/2025-07-22_16-23-58_1_377.txt
2025-07-22, 16:23:58, 1
Index	Phase	Displacement	Time	Pos X	Pos Y	Pos Z	Rot A	Rot B	Piezo Z	Force A	Force B	Gripper	Voltage A	Voltage B	Temperature	Amplitude force	Amplitude pos	Stiffness	Phase shift	Phase excitation	Force A raw	Displacement raw	HMax	HMax raw	Real Force	Real Stiffness	Contact Depth	Area	Hardness	Reduced Mod.
[#]	[#]	[um]	[s]	[um]	[um]	[um]	[m°]	[m°]	[um]	[uN]	[uN]	[V]	[V]	[V]	[°C]	[uN]	[um]	[N/m]	[°]	[°]	[uN]	[um]	[um]	[um]	[uN]	[N/m]	[um]	[um^2]	[MPa]	[MPa]
377	1.000000	0.002298	7.36875e+06	-57489.1	955.819	-29737.2	0.000000	0.000000	6.002801	-0.027882	NaN	0.000000	0.001608	0.001720	28.0805	0.108236	0.000981	110.306	-84.6685	-164.934	0.062767	0.001063	-1.022392	-1.023627	-0.027882	110.306	-1.022203	-4.514270E+13	6.176489E-16	NaN
377	1.000000	0.042263	7.36875e+06	-57489.1	955.819	-29737.2	0.000000	0.000000	6.042767	-0.001989	NaN	0.000000	0.001589	0.001699	28.0794	0.046033	0.001940	23.7256	-40.2003	-165.503	-0.023638	0.040904	-0.982428	-0.983787	-0.001989	23.7256	-0.982365	-1.313014E+13	1.514867E-16	NaN
377	1.000000	0.082259	7.36875e+06	-57489.1	955.818	-29737.2	0.000000	0.000000	6.082764	0.019558	NaN	0.000000	0.001621	0.001660	28.0793	0.036423	0.002015	18.0727	27.5872	-168.599	-0.017718	0.080970	-0.942431	-0.943720	0.019558	18.0727	-0.943243	-3.898415E+12	-5.016807E-15	NaN
377	1.000000	0.122274	7.36875e+06	-57489.1	955.819	-29737.2	0.000000	0.000000	6.122778	-0.001413	NaN	0.000000	0.001727	0.001669	28.0792	0.039231	0.002033	19.302	-108.739	-167.67	0.017266	0.120980	-0.902416	-0.903711	-0.001413	19.302	-0.902361	-1.093888E+12	1.291934E-15	NaN
377	1.000000	0.162274	7.36875e+06	-57489.1	955.818	-29737.2	0.000000	0.000000	6.162779	0.018408	NaN	0.000000	0.001677	0.001656	28.0807	0.042191	0.002018	20.9051	55.6275	-163.57	-0.069257	0.160938	-0.862416	-0.863753	0.018408	20.9051	-0.863076	-3.219283E+11	-5.718064E-14	NaN
377	1.000000	0.202293	7.36875e+06	-57489.1	955.82	-29737.2	0.000000	0.000000	6.202798	0.031897	NaN	0.000000	0.001657	0.001644	28.0804	0.057346	0.002019	28.3987	19.1966	-167.129	0.023926	0.201020	-0.822398	-0.823671	0.031897	28.3987	-0.823240	-9.292840E+10	-3.432383E-13	NaN
377	1.000000	0.242327	7.36875e+06	-57489.1	955.819	-29737.2	0.000000	0.000000	6.242833	0.041832	NaN	0.000000	0.001646	0.001675	28.0805	0.014642	0.001986	7.370924	119.91	-166.584	0.032043	0.240989	-0.782364	-0.783701	0.041832	7.370924	-0.786620	-2.959199E+10	-1.413635E-12	NaN
377	1.000000	0.282331	7.36875e+06	-57489.1	955.819	-29737.2	0.000000	0.000000	6.282833	-0.049486	NaN	0.000000	0.001634	0.001697	28.0806	0.104119	0.001966	52.9549	-119.565	-165.196	0.020885	0.281000	-0.742360	-0.743690	-0.049486	52.9549	-0.741659	-7.238552E+9	6.836512E-12	NaN
377	1.000000	0.322371	7.36875e+06	-57489.1	955.818	-29737.2	0.000000	0.000000	6.322876	-0.002563	NaN	0.000000	0.001623	0.001667	28.0794	0.069469	0.002062	33.6935	102.342	-166.642	-0.029899	0.321059	-0.702319	-0.703632	-0.002563	33.6935	-0.702262	-2.100964E+9	1.220048E-12	NaN
377	1.000000	0.362369	7.36875e+06	-57489.1	955.819	-29737.2	0.000000	0.000000	6.362874	0.018045	NaN	0.000000	0.001555	0.001674	28.0794	0.041170	0.001936	21.2627	78.8829	-169.945	-0.022036	0.361039	-0.662322	-0.663652	0.018045	21.2627	-0.662958	-6.095149E+8	-2.960598E-11	NaN
377	1.000000	0.402395	7.36875e+06	-57489.1	955.818	-29737.2	0.000000	0.000000	6.402900	0.009702	NaN	0.000000	0.001579	0.001673	28.0791	0.067525	0.001883	35.8535	-152.143	-166.561	0.054640	0.401030	-0.622295	-0.623661	0.009702	35.8535	-0.622498	-1.698125E+8	-5.713308E-11	NaN
377	1.000000	0.442401	7.36875e+06	-57489.1	955.817	-29737.2	0.000000	0.000000	6.442905	-0.017832	NaN	0.000000	0.001557	0.001675	28.0805	0.031950	0.001929	16.56	169.558	-165.547	0.043390	0.441064	-0.582289	-0.583627	-0.017832	16.56	-0.581482	-4.625669E+7	3.855083E-10	NaN
377	1.000000	0.482439	7.36875e+06	-57489.1	955.819	-29737.2	0.000000	0.000000	6.482942	-0.031535	NaN	0.000000	0.001563	0.001618	28.0804	0.084128	0.002152	39.0905	-135.842	-165.173	-0.031277	0.481096	-0.542252	-0.543594	-0.031535	39.0905	-0.541647	-1.300742E+7	2.424397E-9	NaN
377	1.000000	0.522453	7.36875e+06	-57489.1	955.819	-29737.2	0.000000	0.000000	6.522954	-0.076934	NaN	0.000000	0.001616	0.001634	28.0803	0.058658	0.001866	31.4379	7.448735	-164.62	-0.024098	0.521141	-0.502238	-0.503549	-0.076934	31.4379	-0.500403	-3.47243e+06	2.215571E-8	NaN
377	1.000000	0.562460	7.36875e+06	-57489.1	955.818	-29737.2	0.000000	0.000000	6.562963	-0.027064	NaN	0.000000	0.001557	0.001682	28.0803	0.045228	0.001910	23.6807	148.755	-165.322	0.012033	0.561117	-0.462231	-0.463573	-0.027064	23.6807	-0.461374	-987006	2.742059E-8	NaN
377	1.000000	0.602484	7.36875e+06	-57489.1	955.819	-29737.2	0.000000	0.000000	6.602990	0.039508	NaN	0.000000	0.001543	0.001679	28.0789	0.029700	0.002025	14.6646	22.2138	-166.675	-0.044332	0.601175	-0.422206	-0.423516	0.039508	14.6646	-0.424227	-295347	-1.337671E-7	NaN
377	1.000000	0.642504	7.36875e+06	-57489.1	955.82	-29737.2	0.000000	0.000000	6.643011	0.071401	NaN	0.000000	0.001590	0.001643	28.0792	0.006385	0.001946	3.281199	-104.67	-168.176	0.010072	0.641233	-0.382187	-0.383458	0.071401	3.281199	-0.398507	-127262	-5.610539E-7	NaN
377	1.000000	0.682521	7.36875e+06	-57489.1	955.818	-29737.2	0.000000	0.000000	6.683027	0.029427	NaN	0.000000	0.001612	0.001703	28.0793	0.055158	0.002097	26.2987	94.2073	-167.607	-0.004690	0.681204	-0.342169	-0.343487	0.029427	26.2987	-0.343008	-20201.2	-1.456707E-6	NaN
377	1.000000	0.722501	7.36875e+06	-57489.1	955.819	-29737.2	0.000000	0.000000	6.723006	-0.003162	NaN	0.000000	0.001618	0.001718	28.0807	0.092126	0.002019	45.6223	-10.6656	-162.946	-0.070499	0.721233	-0.302189	-0.303457	-0.003162	45.6223	-0.302137	-5063.22	6.245177E-7	NaN
377	1.000000	0.762558	7.36875e+06	-57489.1	955.818	-29737.2	0.000000	0.000000	6.763064	0.023961	NaN	0.000000	0.001625	0.001730	28.0804	0.042625	0.002095	20.3418	7.480294	-166.754	-0.012642	0.761236	-0.262132	-0.263454	0.023961	20.3418	-0.263015	-1303.39	-1.838359E-5	NaN
377	1.000000	0.802566	7.36875e+06	-57489.1	955.819	-29737.2	0.000000	0.000000	6.803070	-0.012544	NaN	0.000000	0.001652	0.001731	28.0803	0.102407	0.001917	53.4331	5.902989	-167.327	-0.014364	0.801206	-0.222124	-0.223484	-0.012544	53.4331	-0.221948	-298.382	4.203964E-5	NaN
377	1.000000	0.842561	7.36875e+06	-57489.1	955.82	-29737.2	0.000000	0.000000	6.843064	-0.041351	NaN	0.000000	0.001617	0.001737	28.0793	0.073789	0.001878	39.2981	-9.848529	-162.568	-0.099024	0.841301	-0.182129	-0.183389	-0.041351	39.2981	-0.181340	-64.3042	0.000643	NaN
377	1.000000	0.882622	7.36875e+06	-57489.1	955.818	-29737.2	0.000000	0.000000	6.883126	-0.004026	NaN	0.000000	0.001652	0.001751	28.0794	0.047478	0.002029	23.3989	-107.953	-167.115	0.024030	0.881290	-0.142069	-0.143400	-0.004026	23.3989	-0.141939	-12.8614	0.000313	NaN
377	1.000000	0.922605	7.36875e+06	-57489.1	955.819	-29737.2	0.000000	0.000000	6.923110	0.010753	NaN	0.000000	0.001666	0.001687	28.0793	0.073114	0.001966	37.1927	53.9126	-166.874	-0.044757	0.921272	-0.102085	-0.103419	0.010753	37.1927	-0.102302	-2.053485	-0.005236	NaN
377	1.000000	0.962637	7.36876e+06	-57489.1	955.82	-29737.2	0.000000	0.000000	6.963142	0.018496	NaN	0.000000	0.001635	0.001695	28.0793	0.079724	0.002022	39.4343	171.809	-160.578	0.149296	0.961331	-0.062053	-0.063360	0.018496	39.4343	-0.062405	-0.210835	-0.087727	NaN
377	1.000000	1.002643	7.36876e+06	-57489.1	955.82	-29737.2	0.000000	0.000000	7.003148	0.000856	NaN	0.000000	0.001624	0.001701	28.0806	0.129179	0.001929	66.9541	29.5094	-164.971	0.010240	1.001339	-0.022047	-0.023352	0.000856	66.9541	-0.022057	-0.014168	-0.060407	NaN
377	2.000000	1.036333	7.36876e+06	-57489.1	955.82	-29737.2	0.000000	0.000000	7.037239	9.747438	NaN	0.000000	0.001667	0.001727	28.0805	10.6832	0.001726	6190.37	9.292062	-175.308	9.397825	1.035999	0.011643	0.011308	9.747438	6190.37	0.010462	0.009699	1004.97	57427.7
377	2.000000	1.046265	7.36876e+06	-57489.1	955.821	-29737.2	0.000000	0.000000	7.047868	26.695	NaN	0.000000	0.001632	0.001731	28.081	20.3717	0.001803	11300.1	8.701575	-178.222	26.4085	1.045925	0.021574	0.021235	26.695	11300.1	0.019803	0.022233	1200.68	69239.8
377	2.000000	1.056239	7.36876e+06	-57489.1	955.82	-29737.2	0.000000	0.000000	7.058893	52.2551	NaN	0.000000	0.001583	0.001707	28.0794	29.9522	0.001913	15655	8.537036	178.933	51.7405	1.055892	0.031549	0.031201	52.2551	15655	0.029045	0.038788	1347.2	72623.9
377	2.000000	1.066220	7.36876e+06	-57489.1	955.82	-29737.2	0.000000	0.000000	7.070097	81.9619	NaN	0.000000	0.001563	0.001686	28.0805	39.0477	0.001762	22164.7	5.142656	178.162	81.7534	1.065991	0.041530	0.041300	81.9619	22164.7	0.038756	0.060854	1346.87	82090.2
377	2.000000	1.076216	7.36876e+06	-57489.1	955.82	-29737.2	0.000000	0.000000	7.081829	124.171	NaN	0.000000	0.001567	0.001738	28.0804	49.2474	0.001827	26950.4	8.899431	174.398	124.271	1.075803	0.051525	0.051113	124.171	26950.4	0.048070	0.086540	1434.85	83701.2
377	2.000000	1.086167	7.36876e+06	-57489.1	955.82	-29737.2	0.000000	0.000000	7.093704	170.926	NaN	0.000000	0.001540	0.001652	28.0799	58.8579	0.001788	32926.7	6.236820	173.383	170.189	1.085906	0.061477	0.061216	170.926	32926.7	0.057584	0.117286	1457.34	87840.9
377	2.000000	1.096202	7.36876e+06	-57489.1	955.82	-29737.2	0.000000	0.000000	7.106054	227.189	NaN	0.000000	0.001685	0.001737	28.0814	69.4082	0.001973	35185.5	3.370356	176.366	226.806	1.095902	0.071512	0.071211	227.189	35185.5	0.066669	0.150803	1506.54	82781.3
377	2.000000	1.106169	7.36876e+06	-57489.1	955.821	-29737.2	0.000000	0.000000	7.118659	291.306	NaN	0.000000	0.001618	0.001697	28.0811	77.4316	0.001773	43680.3	6.728746	171.524	290.795	1.105847	0.081478	0.081156	291.306	43680.3	0.076477	0.191428	1521.75	91212.9
377	2.000000	1.116057	7.36876e+06	-57489.1	955.821	-29737.2	0.000000	0.000000	7.131489	362.807	NaN	0.000000	0.001656	0.001680	28.0808	85.9656	0.001751	49083.7	4.268021	172.869	356.629	1.115717	0.091366	0.091026	362.807	49083.7	0.085823	0.234342	1548.19	92637.1
377	2.000000	1.126004	7.36876e+06	-57489.1	955.822	-29737.2	0.000000	0.000000	7.144513	437.588	NaN	0.000000	0.001627	0.001709	28.0792	95.8017	0.001860	51510	4.916600	171.991	430.712	1.125835	0.101314	0.101145	437.588	51510	0.094942	0.280102	1562.24	88921.4
377	2.000000	1.132677	7.36876e+06	-57489.1	955.821	-29737.2	0.000000	0.000000	7.153417	491.828	NaN	0.000000	0.001632	0.001746	28.0792	101.76	0.001721	59117.2	4.401433	-8.759662	490.233	1.132401	0.107986	0.107711	491.828	59117.2	0.101747	0.316720	1552.88	95973