File: remote_trans/data/nanoindenter/0828-1/data/Data_2025-08-06,11h17m57s/2025-07-22_16-23-58_1_733.txt
2025-07-22, 16:23:58, 1
Index	Phase	Displacement	Time	Pos X	Pos Y	Pos Z	Rot A	Rot B	Piezo Z	Force A	Force B	Gripper	Voltage A	Voltage B	Temperature	Amplitude force	Amplitude pos	Stiffness	Phase shift	Phase excitation	Force A raw	Displacement raw	HMax	HMax raw	Real Force	Real Stiffness	Contact Depth	Area	Hardness	Reduced Mod.
[#]	[#]	[um]	[s]	[um]	[um]	[um]	[m°]	[m°]	[um]	[uN]	[uN]	[V]	[V]	[V]	[°C]	[uN]	[um]	[N/m]	[°]	[°]	[uN]	[um]	[um]	[um]	[uN]	[N/m]	[um]	[um^2]	[MPa]	[MPa]
733	1.000000	0.002208	7.37222e+06	-40439.1	1005.82	-29789.9	0.000000	0.000000	6.002789	-0.031165	NaN	0.000000	0.001539	0.001728	28.0843	0.076194	0.000997	76.4268	68.7842	-165.646	-0.059113	0.000949	-1.111666	-1.112925	-0.031165	76.4268	-1.111360	-7.120942E+14	4.376516E-17	NaN
733	1.000000	0.044200	7.37222e+06	-40439.1	1005.82	-29789.9	0.000000	0.000000	6.044780	-0.050049	NaN	0.000000	0.001583	0.001695	28.0836	0.074892	0.002028	36.9209	72.2568	16.2937	0.011394	0.042833	-1.069674	-1.071041	-0.050049	36.9209	-1.068657	-1.901739E+14	2.631723E-16	NaN
733	1.000000	0.086176	7.37222e+06	-40439.1	1005.82	-29789.9	0.000000	0.000000	6.086756	-0.049021	NaN	0.000000	0.001517	0.001669	28.0839	0.079861	0.001974	40.4467	-20.3291	-166.007	-0.069926	0.084900	-1.027698	-1.028974	-0.049021	40.4467	-1.026789	-5.203398E+13	9.420958E-16	NaN
733	1.000000	0.128166	7.37222e+06	-40439.1	1005.82	-29789.9	0.000000	0.000000	6.128747	-0.034320	NaN	0.000000	0.001571	0.001727	28.0851	0.040965	0.002051	19.9694	-10.104	14.2952	-0.019801	0.126821	-0.985708	-0.987053	-0.034320	19.9694	-0.984419	-1.399384E+13	2.452515E-15	NaN
733	1.000000	0.170235	7.37222e+06	-40439.1	1005.82	-29789.9	0.000000	0.000000	6.170815	-0.049948	NaN	0.000000	0.001600	0.001758	28.0852	0.042979	0.002040	21.0723	-134.669	-163.878	-0.060494	0.168835	-0.943639	-0.945039	-0.049948	21.0723	-0.941862	-3.734662E+12	1.337421E-14	NaN
733	1.000000	0.212239	7.37223e+06	-40439.1	1005.82	-29789.9	0.000000	0.000000	6.212822	0.012233	NaN	0.000000	0.001590	0.001741	28.0852	0.102312	0.001909	53.5884	-122.497	12.2411	0.003234	0.210835	-0.901635	-0.903039	0.012233	53.5884	-0.901806	-1.075153E+12	-1.137756E-14	NaN
733	1.000000	0.254255	7.37223e+06	-40439.1	1005.82	-29789.9	0.000000	0.000000	6.254838	0.021525	NaN	0.000000	0.001649	0.001774	28.0841	0.104032	0.001972	52.7604	52.1628	-165.887	0.009465	0.252950	-0.859619	-0.860924	0.021525	52.7604	-0.859925	-2.918135E+11	-7.376448E-14	NaN
733	1.000000	0.296249	7.37223e+06	-40439.1	1005.82	-29789.9	0.000000	0.000000	6.296832	-0.007318	NaN	0.000000	0.001632	0.001766	28.0838	0.068522	0.001958	34.9979	-176.185	14.2602	-0.008563	0.294920	-0.817624	-0.818954	-0.007318	34.9979	-0.817468	-7.760098E+10	9.430213E-14	NaN
733	1.000000	0.338251	7.37223e+06	-40439.1	1005.82	-29789.9	0.000000	0.000000	6.338831	-0.037986	NaN	0.000000	0.001561	0.001695	28.0838	0.081853	0.001947	42.0404	140.509	-167.637	-0.085927	0.336984	-0.775623	-0.776889	-0.037986	42.0404	-0.774946	-2.053709E+10	1.849622E-12	NaN
733	1.000000	0.380324	7.37223e+06	-40439.1	1005.82	-29789.9	0.000000	0.000000	6.380908	0.054955	NaN	0.000000	0.001623	0.001737	28.0847	0.090202	0.002010	44.8664	103.032	18.9344	0.038152	0.379016	-0.733550	-0.734858	0.054955	44.8664	-0.734469	-5.777026E+9	-9.512684E-12	NaN
733	1.000000	0.422348	7.37223e+06	-40439.1	1005.82	-29789.9	0.000000	0.000000	6.422928	-0.038051	NaN	0.000000	0.001608	0.001748	28.0846	0.115397	0.002018	57.1867	-61.1345	-165.733	-0.038037	0.421036	-0.691526	-0.692838	-0.038051	57.1867	-0.691027	-1.475558E+9	2.578785E-11	NaN
733	1.000000	0.464352	7.37223e+06	-40439.1	1005.82	-29789.9	0.000000	0.000000	6.464934	-0.001180	NaN	0.000000	0.001578	0.001750	28.0846	0.017975	0.002052	8.758317	99.3865	14.3967	0.012883	0.462988	-0.649522	-0.650886	-0.001180	8.758317	-0.649421	-3.976488E+8	2.968340E-12	NaN
733	1.000000	0.506363	7.37223e+06	-40439.1	1005.82	-29789.9	0.000000	0.000000	6.506945	0.010580	NaN	0.000000	0.001618	0.001759	28.0835	0.086358	0.002041	42.3144	-122.955	-164.546	-0.010576	0.505021	-0.607511	-0.608853	0.010580	42.3144	-0.607699	-1.062790E+8	-9.954618E-11	NaN
733	1.000000	0.548408	7.37223e+06	-40439.1	1005.82	-29789.9	0.000000	0.000000	6.548992	0.036303	NaN	0.000000	0.001582	0.001742	28.0838	0.069298	0.001938	35.7614	121.328	11.6996	0.078533	0.547015	-0.565466	-0.566859	0.036303	35.7614	-0.566227	-2.847675E+7	-1.274825E-9	NaN
733	1.000000	0.590388	7.37223e+06	-40439.1	1005.82	-29789.9	0.000000	0.000000	6.590967	-0.088180	NaN	0.000000	0.001567	0.001745	28.0837	0.052042	0.002027	25.6808	115.998	-165.769	-0.047044	0.589082	-0.523485	-0.524792	-0.088180	25.6808	-0.520910	-6.70276e+06	1.315572E-8	NaN
733	1.000000	0.632414	7.37223e+06	-40439.1	1005.82	-29789.9	0.000000	0.000000	6.632995	-0.028524	NaN	0.000000	0.001578	0.001707	28.0841	0.059027	0.001926	30.6554	139.564	16.3879	-0.052308	0.631087	-0.481460	-0.482787	-0.028524	30.6554	-0.480762	-1.84582e+06	1.545343E-8	NaN
733	1.000000	0.674436	7.37223e+06	-40439.1	1005.82	-29789.9	0.000000	0.000000	6.675019	0.024685	NaN	0.000000	0.001665	0.001735	28.0851	0.081418	0.002093	38.8941	-135.474	-160.916	-0.031337	0.673107	-0.439438	-0.440767	0.024685	38.8941	-0.439914	-492207	-5.015098E-8	NaN
733	1.000000	0.716435	7.37223e+06	-40439.1	1005.82	-29789.9	0.000000	0.000000	6.717019	0.039126	NaN	0.000000	0.001598	0.001729	28.085	0.101312	0.002107	48.0919	173.815	13.3143	-0.015064	0.715051	-0.397439	-0.398823	0.039126	48.0919	-0.398049	-125363	-3.121037E-7	NaN
733	1.000000	0.758463	7.37223e+06	-40439.1	1005.82	-29789.9	0.000000	0.000000	6.759043	-0.069412	NaN	0.000000	0.001666	0.001751	28.0852	0.014739	0.001971	7.479543	173.479	-168.25	-0.098815	0.757157	-0.355410	-0.356716	-0.069412	7.479543	-0.348450	-24238.3	2.863721E-6	NaN
733	1.000000	0.800474	7.37223e+06	-40439.1	1005.82	-29789.9	0.000000	0.000000	6.801055	-0.038339	NaN	0.000000	0.001564	0.001736	28.0837	0.063328	0.002097	30.2002	62.2282	13.6793	-0.071500	0.799120	-0.313400	-0.314754	-0.038339	30.2002	-0.312447	-7198.65	5.325872E-6	NaN
733	1.000000	0.842471	7.37223e+06	-40439.1	1005.82	-29789.9	0.000000	0.000000	6.843051	-0.065057	NaN	0.000000	0.001560	0.001772	28.0837	0.132804	0.001995	66.5773	-168.688	-166.74	-0.021872	0.841245	-0.271403	-0.272628	-0.065057	66.5773	-0.270670	-1705.01	3.815645E-5	NaN
733	1.000000	0.884532	7.37223e+06	-40439.1	1005.82	-29789.9	0.000000	0.000000	6.885111	-0.094320	NaN	0.000000	0.001602	0.001752	28.084	0.060920	0.001949	31.2583	28.6735	15.901	-0.036624	0.883091	-0.229342	-0.230783	-0.094320	31.2583	-0.227078	-360.004	0.000262	NaN
733	1.000000	0.926541	7.37223e+06	-40439.1	1005.82	-29789.9	0.000000	0.000000	6.927120	-0.073268	NaN	0.000000	0.001574	0.001765	28.0853	0.101458	0.002085	48.6684	114.274	-165.163	-0.035713	0.925216	-0.187333	-0.188658	-0.073268	48.6684	-0.186204	-77.696	0.000943	NaN
733	1.000000	0.968552	7.37223e+06	-40439.1	1005.82	-29789.9	0.000000	0.000000	6.969134	-0.019923	NaN	0.000000	0.001538	0.001766	28.0857	0.047043	0.001999	23.5362	4.543735	15.1047	0.005702	0.967168	-0.145322	-0.146706	-0.019923	23.5362	-0.144687	-14.4667	0.001377	NaN
733	1.000000	1.010557	7.37223e+06	-40439.1	1005.82	-29789.9	0.000000	0.000000	7.011137	-0.059080	NaN	0.000000	0.001642	0.001745	28.0851	0.095915	0.001934	49.589	-116.269	-167.563	-0.100327	1.009231	-0.103316	-0.104643	-0.059080	49.589	-0.102423	-2.066040	0.028596	NaN
733	1.000000	1.052580	7.37223e+06	-40439.1	1005.82	-29789.9	0.000000	0.000000	7.053163	0.008607	NaN	0.000000	0.001634	0.001770	28.0844	0.127575	0.002061	61.9059	116.963	12.4131	-0.029746	1.051238	-0.061294	-0.062636	0.008607	61.9059	-0.061398	-0.197431	-0.043594	NaN
733	1.000000	1.094607	7.37223e+06	-40439.1	1005.82	-29789.9	0.000000	0.000000	7.095303	2.758570	NaN	0.000000	0.001575	0.001761	28.0842	1.535542	0.001902	807.445	17.0195	-167.707	2.979521	1.093296	-0.019267	-0.020578	2.758570	807.445	-0.021829	-0.013980	-197.318	NaN
733	2.000000	1.122664	7.37223e+06	-40439.1	1005.82	-29789.9	0.000000	0.000000	7.123871	15.2116	NaN	0.000000	0.001606	0.001786	28.0842	12.8987	0.001753	7360.07	3.281475	10.2009	15.7214	1.122280	0.008790	0.008406	15.2116	7360.07	0.007240	0.006272	2425.36	84909.3
733	2.000000	1.133057	7.37223e+06	-40439.1	1005.82	-29790	0.000000	0.000000	7.135094	35.3842	NaN	0.000000	0.001598	0.001753	28.084	25.4767	0.001850	13767.5	9.122197	178.44	34.5026	1.132742	0.019184	0.018868	35.3842	13767.5	0.017256	0.018413	1921.75	92698.3
733	2.000000	1.143577	7.37223e+06	-40439.1	1005.82	-29790	0.000000	0.000000	7.146681	61.3542	NaN	0.000000	0.001599	0.001768	28.0855	35.3793	0.001866	18956.1	8.659839	-3.495467	61.4883	1.143188	0.029703	0.029314	61.3542	18956.1	0.027276	0.035286	1738.75	92197.4
733	2.000000	1.154042	7.37223e+06	-40439.1	1005.82	-29790	0.000000	0.000000	7.158850	102.812	NaN	0.000000	0.001551	0.001763	28.0858	45.6917	0.001789	25538.2	6.756890	175.45	104.261	1.153747	0.040168	0.039873	102.812	25538.2	0.037149	0.056868	1807.9	97843
733	2.000000	1.164483	7.37223e+06	-40439.1	1005.82	-29790	0.000000	0.000000	7.171982	168.294	NaN	0.000000	0.001553	0.001764	28.086	55.3596	0.001726	32078.7	3.147180	-2.465913	167.18	1.164043	0.050609	0.050169	168.294	32078.7	0.046675	0.082413	2042.1	102092
733	2.000000	1.175078	7.37223e+06	-40439.1	1005.82	-29790	0.000000	0.000000	7.185256	233.501	NaN	0.000000	0.001624	0.001774	28.0841	67.4132	0.001831	36823.4	4.901475	174.342	234.49	1.174756	0.061204	0.060882	233.501	36823.4	0.056448	0.113381	2059.44	99914.3
733	2.000000	1.185532	7.37223e+06	-40439.1	1005.82	-29790	0.000000	0.000000	7.199600	328.158	NaN	0.000000	0.001612	0.001699	28.0841	79.5683	0.001822	43675	10.6476	-12.7008	329.544	1.185121	0.071658	0.071247	328.158	43675	0.066023	0.148288	2212.98	103622
733	2.000000	1.196031	7.37223e+06	-40439.1	1005.82	-29790	0.000000	0.000000	7.213813	418.543	NaN	0.000000	0.001568	0.001701	28.0842	86.5668	0.001866	46400.4	4.901244	172.809	420.378	1.195675	0.082157	0.081801	418.543	46400.4	0.075392	0.186709	2241.69	98109.9
733	2.000000	1.206511	7.37223e+06	-40439.1	1005.82	-29790	0.000000	0.000000	7.227686	501.088	NaN	0.000000	0.001683	0.001700	28.0851	96.1399	0.001888	50922.8	0.671995	-3.784366	501.324	1.206211	0.092637	0.092337	501.088	50922.8	0.085257	0.231629	2163.32	96669.3
733	2.000000	1.216356	7.37223e+06	-40439.1	1005.82	-29790	0.000000	0.000000	7.242104	612.363	NaN	0.000000	0.001629	0.001760	28.0851	106.005	0.001817	58349.2	2.311735	-6.580278	605.556	1.216049	0.102483	0.102175	612.363	58349.2	0.094611	0.278375	2199.77	101040