File: remote_trans/data/nanoindenter/0828-1/data/Data_2025-08-06,11h17m57s/2025-07-22_16-23-58_1_498.txt
2025-07-22, 16:23:58, 1
Index	Phase	Displacement	Time	Pos X	Pos Y	Pos Z	Rot A	Rot B	Piezo Z	Force A	Force B	Gripper	Voltage A	Voltage B	Temperature	Amplitude force	Amplitude pos	Stiffness	Phase shift	Phase excitation	Force A raw	Displacement raw	HMax	HMax raw	Real Force	Real Stiffness	Contact Depth	Area	Hardness	Reduced Mod.
[#]	[#]	[um]	[s]	[um]	[um]	[um]	[m°]	[m°]	[um]	[uN]	[uN]	[V]	[V]	[V]	[°C]	[uN]	[um]	[N/m]	[°]	[°]	[uN]	[um]	[um]	[um]	[uN]	[N/m]	[um]	[um^2]	[MPa]	[MPa]
498	1.000000	0.002506	7.36992e+06	-52189.1	1005.82	-29749.9	0.000000	0.000000	6.002798	-0.010928	NaN	0.000000	0.001586	0.001734	28.0834	0.047203	0.000896	52.658	-66.9343	-162.889	0.032217	0.001255	-1.059756	-1.061007	-0.010928	52.658	-1.059600	-1.436976E+14	7.604646E-17	NaN
498	1.000000	0.042453	7.36992e+06	-52189.1	1005.82	-29749.9	0.000000	0.000000	6.042750	0.110512	NaN	0.000000	0.001653	0.001702	28.082	0.132774	0.001933	68.6972	-80.5709	-160.262	0.101795	0.041087	-1.019809	-1.021175	0.110512	68.6972	-1.021015	-4.351229E+13	-2.539786E-15	NaN
498	1.000000	0.082467	7.36992e+06	-52189.1	1005.82	-29749.9	0.000000	0.000000	6.082763	0.072395	NaN	0.000000	0.001628	0.001733	28.0819	0.121065	0.002100	57.6463	-46.1271	-164.515	0.089309	0.081153	-0.979795	-0.981109	0.072395	57.6463	-0.980737	-1.248340E+13	-5.799314E-15	NaN
498	1.000000	0.122482	7.36992e+06	-52189.1	1005.82	-29750	0.000000	0.000000	6.122778	0.094791	NaN	0.000000	0.001636	0.001700	28.0819	0.043912	0.001948	22.5455	-128.129	-166.865	0.139965	0.121189	-0.939780	-0.941073	0.094791	22.5455	-0.942933	-3.861100E+12	-2.455033E-14	NaN
498	1.000000	0.162524	7.36992e+06	-52189.1	1005.82	-29750	0.000000	0.000000	6.162817	0.016722	NaN	0.000000	0.001662	0.001716	28.0819	0.071785	0.001997	35.9506	-160.476	-166.089	0.054708	0.161180	-0.899738	-0.901082	0.016722	35.9506	-0.900087	-1.019162E+12	-1.640782E-14	NaN
498	1.000000	0.202493	7.36992e+06	-52189.1	1005.82	-29750	0.000000	0.000000	6.202787	0.040849	NaN	0.000000	0.001646	0.001711	28.0831	0.046430	0.002045	22.7013	-171.014	-162.615	-0.028803	0.201188	-0.859769	-0.861074	0.040849	22.7013	-0.861118	-3.028724E+11	-1.348734E-13	NaN
498	1.000000	0.242552	7.36992e+06	-52189.1	1005.82	-29750	0.000000	0.000000	6.242844	-0.013098	NaN	0.000000	0.001639	0.001704	28.0833	0.020100	0.002031	9.895839	-13.1956	-163.624	0.043394	0.241249	-0.819710	-0.821013	-0.013098	9.895839	-0.818717	-8.068932E+10	1.623316E-13	NaN
498	1.000000	0.282532	7.36992e+06	-52189.1	1005.82	-29750	0.000000	0.000000	6.282827	0.066781	NaN	0.000000	0.001589	0.001740	28.0834	0.032905	0.002039	16.1347	-18.4816	-167.279	0.022805	0.281280	-0.779730	-0.780982	0.066781	16.1347	-0.782834	-2.628729E+10	-2.540438E-12	NaN
498	1.000000	0.322572	7.36992e+06	-52189.1	1005.82	-29750	0.000000	0.000000	6.322868	0.089378	NaN	0.000000	0.001635	0.001703	28.0827	0.077353	0.001952	39.634	-109.895	-166.36	0.020067	0.321252	-0.739690	-0.741010	0.089378	39.634	-0.741382	-7.175864E+9	-1.245530E-11	NaN
498	1.000000	0.362610	7.36992e+06	-52189.1	1005.82	-29750	0.000000	0.000000	6.362905	0.066902	NaN	0.000000	0.001643	0.001712	28.0825	0.047109	0.002003	23.5214	-133.119	-167.109	0.077942	0.361269	-0.699652	-0.700993	0.066902	23.5214	-0.701785	-2.069694E+9	-3.232441E-11	NaN
498	1.000000	0.402594	7.36993e+06	-52189.1	1005.82	-29750	0.000000	0.000000	6.402890	0.082355	NaN	0.000000	0.001640	0.001691	28.0827	0.035928	0.002082	17.2529	-47.6905	-163.051	0.106459	0.401323	-0.659668	-0.660939	0.082355	17.2529	-0.663248	-6.151154E+8	-1.338861E-10	NaN
498	1.000000	0.442634	7.36993e+06	-52189.1	1005.82	-29750	0.000000	0.000000	6.442927	0.024304	NaN	0.000000	0.001650	0.001671	28.0831	0.063575	0.002068	30.7441	113.97	-168.114	0.019033	0.441349	-0.619628	-0.620913	0.024304	30.7441	-0.620221	-1.580046E+8	-1.538198E-10	NaN
498	1.000000	0.482634	7.36993e+06	-52189.1	1005.82	-29750	0.000000	0.000000	6.482931	0.100813	NaN	0.000000	0.001661	0.001698	28.0837	0.065453	0.002100	31.1753	-71.1419	-166.985	0.132919	0.481302	-0.579628	-0.580960	0.100813	31.1753	-0.582053	-4.710397E+7	-2.140232E-9	NaN
498	1.000000	0.522650	7.36993e+06	-52189.1	1005.82	-29750	0.000000	0.000000	6.522944	0.032119	NaN	0.000000	0.001622	0.001754	28.0834	0.116412	0.001982	58.7415	-81.599	-162.136	0.008891	0.521294	-0.539612	-0.540968	0.032119	58.7415	-0.540022	-1.234982E+7	-2.600745E-9	NaN
498	1.000000	0.562673	7.36993e+06	-52189.1	1005.82	-29750	0.000000	0.000000	6.562967	0.049003	NaN	0.000000	0.001603	0.001690	28.0836	0.050944	0.001879	27.1146	-158.339	-166.963	0.073585	0.561400	-0.499589	-0.500862	0.049003	27.1146	-0.500945	-3.53342e+06	-1.386833E-8	NaN
498	1.000000	0.602682	7.36993e+06	-52189.1	1005.82	-29750	0.000000	0.000000	6.602977	0.070209	NaN	0.000000	0.001636	0.001719	28.0824	0.098688	0.001939	50.8963	-27.3353	-164.351	0.011303	0.601367	-0.459580	-0.460895	0.070209	50.8963	-0.460614	-963057	-7.290168E-8	NaN
498	1.000000	0.642701	7.36993e+06	-52189.1	1005.82	-29750	0.000000	0.000000	6.642993	-0.004969	NaN	0.000000	0.001624	0.001728	28.0823	0.109506	0.001822	60.1159	-19.3462	-164.811	0.061735	0.641415	-0.419561	-0.420847	-0.004969	60.1159	-0.419499	-253113	1.963187E-8	NaN
498	1.000000	0.682733	7.36993e+06	-52189.1	1005.82	-29750	0.000000	0.000000	6.683026	0.018834	NaN	0.000000	0.001687	0.001680	28.0823	0.100260	0.001947	51.4909	-154.562	-167.101	0.073120	0.681463	-0.379529	-0.380799	0.018834	51.4909	-0.379804	-68717.9	-2.740834E-7	NaN
498	1.000000	0.722741	7.36993e+06	-52189.1	1005.82	-29750	0.000000	0.000000	6.723037	0.088277	NaN	0.000000	0.001645	0.001653	28.0835	0.053759	0.001989	27.0323	62.3266	-163.946	0.025413	0.721467	-0.339521	-0.340795	0.088277	27.0323	-0.341970	-19509.8	-4.524750E-6	NaN
498	1.000000	0.762756	7.36993e+06	-52189.1	1005.82	-29750	0.000000	0.000000	6.763049	-0.000484	NaN	0.000000	0.001600	0.001718	28.0835	0.085325	0.001958	43.5709	-161.148	-165.82	0.088799	0.761456	-0.299506	-0.300806	-0.000484	43.5709	-0.299497	-4625.42	1.047130E-7	NaN
498	1.000000	0.802770	7.36993e+06	-52189.1	1005.82	-29750	0.000000	0.000000	6.803062	-0.008485	NaN	0.000000	0.001655	0.001713	28.0836	0.046197	0.002031	22.7443	-178.931	-165.649	-0.041061	0.801422	-0.259492	-0.260840	-0.008485	22.7443	-0.259213	-1139.84	7.444410E-6	NaN
498	1.000000	0.842797	7.36993e+06	-52189.1	1005.82	-29750	0.000000	0.000000	6.843091	0.043410	NaN	0.000000	0.001618	0.001732	28.0835	0.035360	0.001950	18.1332	-143.637	-168.861	0.024758	0.841459	-0.219465	-0.220803	0.043410	18.1332	-0.221260	-290.938	-0.000149	NaN
498	1.000000	0.882808	7.36993e+06	-52189.1	1005.82	-29750	0.000000	0.000000	6.883102	0.032519	NaN	0.000000	0.001679	0.001758	28.0823	0.046467	0.001971	23.5803	-159.707	-163.348	-0.006536	0.881467	-0.179454	-0.180795	0.032519	23.5803	-0.180488	-62.1972	-0.000523	NaN
498	1.000000	0.922819	7.36993e+06	-52189.1	1005.82	-29750	0.000000	0.000000	6.923112	0.011918	NaN	0.000000	0.001545	0.001741	28.0821	0.037138	0.001945	19.0901	36.2031	-166.283	0.015451	0.921525	-0.139443	-0.140737	0.011918	19.0901	-0.139911	-11.7841	-0.001011	NaN
498	1.000000	0.962838	7.36993e+06	-52189.1	1005.82	-29750	0.000000	0.000000	6.963134	0.093371	NaN	0.000000	0.001584	0.001779	28.0822	0.044010	0.002148	20.4849	-136.703	-164.805	0.023238	0.961512	-0.099424	-0.100750	0.093371	20.4849	-0.102843	-2.110179	-0.044248	NaN
498	1.000000	1.002830	7.36993e+06	-52189.1	1005.82	-29750	0.000000	0.000000	7.003123	0.029859	NaN	0.000000	0.001628	0.001764	28.0836	0.110868	0.001968	56.3491	26.1503	-163.494	-0.048774	1.001556	-0.059432	-0.060706	0.029859	56.3491	-0.059830	-0.178078	-0.167675	NaN
498	1.000000	1.042862	7.36993e+06	-52189.1	1005.82	-29750	0.000000	0.000000	7.043156	0.040224	NaN	0.000000	0.001536	0.001765	28.0835	0.240915	0.001951	123.473	-174.549	-162.622	-0.001078	1.041551	-0.019400	-0.020711	0.040224	123.473	-0.019645	-0.012302	-3.269726	NaN
498	2.000000	1.069478	7.36993e+06	-52189.1	1005.82	-29750	0.000000	0.000000	7.070457	16.7038	NaN	0.000000	0.001569	0.001765	28.0835	14.1777	0.001807	7843.95	9.516691	-177.069	16.6023	1.069196	0.007216	0.006934	16.7038	7843.95	0.005619	0.004705	3550.28	104479
498	2.000000	1.079440	7.36993e+06	-52189.1	1005.82	-29750	0.000000	0.000000	7.081461	42.0371	NaN	0.000000	0.001601	0.001746	28.0837	25.114	0.001772	14171.9	5.572315	-178.301	41.1597	1.079144	0.017178	0.016882	42.0371	14171.9	0.014953	0.015223	2761.34	104941
498	2.000000	1.089432	7.36993e+06	-52189.1	1005.82	-29750	0.000000	0.000000	7.092613	70.2466	NaN	0.000000	0.001560	0.001790	28.0824	35.9201	0.001881	19097.8	4.566203	179.72	69.7705	1.089190	0.027170	0.026928	70.2466	19097.8	0.024411	0.029953	2345.26	100818
498	2.000000	1.099356	7.36993e+06	-52189.1	1005.82	-29750	0.000000	0.000000	7.104033	106.607	NaN	0.000000	0.001583	0.001780	28.0825	44.2273	0.002008	22027.7	0.843253	-176.771	104.268	1.099064	0.037094	0.036802	106.607	22027.7	0.033464	0.048230	2210.38	91639.5
498	2.000000	1.109310	7.36993e+06	-52189.1	1005.82	-29750	0.000000	0.000000	7.115977	155.011	NaN	0.000000	0.001619	0.001778	28.0825	54.6566	0.001870	29230.4	3.837143	177.441	151.17	1.109124	0.047048	0.046862	155.011	29230.4	0.043070	0.072204	2146.85	99386.5
498	2.000000	1.119382	7.36993e+06	-52189.1	1005.82	-29750	0.000000	0.000000	7.128422	212.703	NaN	0.000000	0.001603	0.001780	28.0837	63.9552	0.001860	34390.2	4.756869	175.774	213.984	1.119060	0.057120	0.056798	212.703	34390.2	0.052481	0.100237	2122	99241.6
498	2.000000	1.129259	7.36993e+06	-52189.1	1005.82	-29750	0.000000	0.000000	7.140892	275.746	NaN	0.000000	0.001645	0.001825	28.0837	72.8237	0.001759	41397.1	2.160427	176.608	269.435	1.128994	0.066997	0.066732	275.746	41397.1	0.062002	0.133084	2071.97	103677
498	2.000000	1.139401	7.36993e+06	-52189.1	1005.82	-29750	0.000000	0.000000	7.153356	332.206	NaN	0.000000	0.001705	0.001783	28.0837	83.4602	0.001789	46641	2.597313	175.024	332.492	1.139193	0.077139	0.076931	332.206	46641	0.071797	0.171473	1937.37	102907
498	2.000000	1.149295	7.36993e+06	-52189.1	1005.82	-29750	0.000000	0.000000	7.166581	413.209	NaN	0.000000	0.001644	0.001718	28.0825	92.5698	0.001835	50440.6	4.196306	172.765	410.318	1.149113	0.087033	0.086851	413.209	50440.6	0.080889	0.211182	1956.65	100282
498	2.000000	1.159302	7.36993e+06	-52189.1	1005.82	-29750	0.000000	0.000000	7.180471	507.616	NaN	0.000000	0.001601	0.001758	28.0825	102.827	0.001799	57151.4	4.499629	172.238	506.087	1.158934	0.097040	0.096672	507.616	57151.4	0.090379	0.256727	1977.26	103054
498	2.000000	1.163332	7.36993e+06	-52189.1	1005.82	-29750	0.000000	0.000000	7.185426	530.088	NaN	0.000000	0.001597	0.001808	28.0825	104.985	0.001790	58648.7	1.123352	175.244	529.812	1.163202	0.101070	0.100940	530.088	58648.7	0.094291	0.276710	1915.68	101864