File: remote_trans/data/nanoindenter/0828-1/data/Data_2025-08-06,11h17m57s/2025-07-22_16-23-58_1_600.txt
2025-07-22, 16:23:58, 1
Index	Phase	Displacement	Time	Pos X	Pos Y	Pos Z	Rot A	Rot B	Piezo Z	Force A	Force B	Gripper	Voltage A	Voltage B	Temperature	Amplitude force	Amplitude pos	Stiffness	Phase shift	Phase excitation	Force A raw	Displacement raw	HMax	HMax raw	Real Force	Real Stiffness	Contact Depth	Area	Hardness	Reduced Mod.
[#]	[#]	[um]	[s]	[um]	[um]	[um]	[m°]	[m°]	[um]	[uN]	[uN]	[V]	[V]	[V]	[°C]	[uN]	[um]	[N/m]	[°]	[°]	[uN]	[um]	[um]	[um]	[uN]	[N/m]	[um]	[um^2]	[MPa]	[MPa]
600	1.000000	0.002792	7.37092e+06	-47089.1	1005.82	-29767.1	0.000000	0.000000	6.002785	0.039270	NaN	0.000000	0.001573	0.001802	28.0791	0.024987	0.000962	25.9836	167.686	-167.246	0.016345	0.001518	-1.129734	-1.131008	0.039270	25.9836	-1.130868	-1.300951E+15	-3.018548E-17	NaN
600	1.000000	0.044755	7.37092e+06	-47089.1	1005.82	-29767.1	0.000000	0.000000	6.044745	-0.025742	NaN	0.000000	0.001602	0.001775	28.0792	0.043428	0.001942	22.3587	137.118	15.3978	-0.007332	0.043411	-1.087771	-1.089115	-0.025742	22.3587	-1.086908	-3.344199E+14	7.697512E-17	NaN
600	1.000000	0.086750	7.37092e+06	-47089.1	1005.82	-29767.1	0.000000	0.000000	6.086739	-0.060624	NaN	0.000000	0.001558	0.001799	28.0794	0.102551	0.001955	52.452	-54.2179	-167.229	-0.028618	0.085457	-1.045776	-1.047070	-0.060624	52.452	-1.044910	-9.119694E+13	6.647538E-16	NaN
600	1.000000	0.128832	7.37092e+06	-47089.1	1005.82	-29767.1	0.000000	0.000000	6.128821	-0.040667	NaN	0.000000	0.001596	0.001796	28.0807	0.093854	0.002091	44.8927	69.7924	16.2271	-0.059450	0.127408	-1.003694	-1.005118	-0.040667	44.8927	-1.003015	-2.490921E+13	1.632600E-15	NaN
600	1.000000	0.170820	7.37092e+06	-47089.1	1005.82	-29767.1	0.000000	0.000000	6.170811	-0.003324	NaN	0.000000	0.001587	0.001748	28.0805	0.154755	0.002038	75.9481	-55.7953	-165.726	0.138246	0.169476	-0.961706	-0.963050	-0.003324	75.9481	-0.961673	-6.909204E+12	4.811312E-16	NaN
600	1.000000	0.212850	7.37092e+06	-47089.1	1005.82	-29767.1	0.000000	0.000000	6.212842	0.027095	NaN	0.000000	0.001550	0.001785	28.0804	0.081366	0.001947	41.7924	-128.978	15.6463	-0.032239	0.211440	-0.919676	-0.921086	0.027095	41.7924	-0.920162	-1.902826E+12	-1.423924E-14	NaN
600	1.000000	0.254832	7.37092e+06	-47089.1	1005.82	-29767.1	0.000000	0.000000	6.254822	-0.031551	NaN	0.000000	0.001579	0.001797	28.0792	0.062297	0.001904	32.7195	-110.057	-162.555	-0.034136	0.253540	-0.877694	-0.878986	-0.031551	32.7195	-0.876971	-4.962920E+11	6.357358E-14	NaN
600	1.000000	0.296873	7.37092e+06	-47089.1	1005.82	-29767.1	0.000000	0.000000	6.296863	-0.024759	NaN	0.000000	0.001564	0.001751	28.0792	0.038759	0.001976	19.618	-110.903	13.8148	-0.038378	0.295490	-0.835653	-0.837036	-0.024759	19.618	-0.834706	-1.329135E+11	1.862799E-13	NaN
600	1.000000	0.338836	7.37092e+06	-47089.1	1005.82	-29767.1	0.000000	0.000000	6.338827	-0.028002	NaN	0.000000	0.001555	0.001753	28.079	0.043984	0.002009	21.8897	-86.751	-164.358	-0.016073	0.337561	-0.793690	-0.794965	-0.028002	21.8897	-0.792730	-3.582305E+10	7.816647E-13	NaN
600	1.000000	0.380918	7.37092e+06	-47089.1	1005.82	-29767.1	0.000000	0.000000	6.380908	-0.040453	NaN	0.000000	0.001576	0.001799	28.0793	0.124357	0.001926	64.5768	-95.794	15.6662	0.046701	0.379522	-0.751608	-0.753004	-0.040453	64.5768	-0.751138	-9.743416E+9	4.151797E-12	NaN
600	1.000000	0.422904	7.37092e+06	-47089.1	1005.82	-29767.1	0.000000	0.000000	6.422896	0.024699	NaN	0.000000	0.001651	0.001805	28.0803	0.043551	0.001985	21.9401	-136.934	-168.263	0.007391	0.421580	-0.709622	-0.710946	0.024699	21.9401	-0.710467	-2.719055E+9	-9.083760E-12	NaN
600	1.000000	0.464926	7.37092e+06	-47089.1	1005.82	-29767.1	0.000000	0.000000	6.464915	-0.049565	NaN	0.000000	0.001620	0.001838	28.0805	0.061856	0.002012	30.7463	178.977	14.3361	-0.082962	0.463543	-0.667601	-0.668983	-0.049565	30.7463	-0.666391	-6.791951E+8	7.297572E-11	NaN
600	1.000000	0.506954	7.37092e+06	-47089.1	1005.82	-29767.1	0.000000	0.000000	6.506943	-0.051967	NaN	0.000000	0.001637	0.001775	28.0802	0.081360	0.001868	43.5614	-179.941	-168.144	-0.147901	0.505716	-0.625572	-0.626810	-0.051967	43.5614	-0.624677	-1.819337E+8	2.856364E-10	NaN
600	1.000000	0.548954	7.37092e+06	-47089.1	1005.82	-29767.1	0.000000	0.000000	6.548946	0.008299	NaN	0.000000	0.001634	0.001766	28.0792	0.041029	0.001975	20.7715	83.3762	18.0306	-0.012736	0.547574	-0.583572	-0.584952	0.008299	20.7715	-0.583872	-4.990550E+7	-1.662980E-10	NaN
600	1.000000	0.590985	7.37092e+06	-47089.1	1005.82	-29767.1	0.000000	0.000000	6.590978	0.033147	NaN	0.000000	0.001571	0.001815	28.0791	0.007439	0.002060	3.610944	96.471	-164.973	-0.026359	0.589671	-0.541541	-0.542855	0.033147	3.610944	-0.548426	-1.614926E+7	-2.052550E-9	NaN
600	1.000000	0.633005	7.37092e+06	-47089.1	1005.82	-29767.1	0.000000	0.000000	6.632996	0.002918	NaN	0.000000	0.001584	0.001817	28.0794	0.082024	0.001992	41.1834	-141.817	14.4107	0.055884	0.631710	-0.499521	-0.500816	0.002918	41.1834	-0.499575	-3.3813e+06	-8.630765E-10	NaN
600	1.000000	0.675028	7.37092e+06	-47089.1	1005.82	-29767.1	0.000000	0.000000	6.675020	0.035862	NaN	0.000000	0.001627	0.001820	28.0805	0.021118	0.002043	10.3346	-108.586	-168.093	0.091917	0.673675	-0.457499	-0.458851	0.035862	10.3346	-0.460101	-947196	-3.786171E-8	NaN
600	1.000000	0.717056	7.37092e+06	-47089.1	1005.82	-29767.1	0.000000	0.000000	6.717045	-0.064745	NaN	0.000000	0.001631	0.001826	28.0827	0.095952	0.002011	47.7203	-110.621	13.8086	-0.057976	0.715683	-0.415470	-0.416843	-0.064745	47.7203	-0.414452	-214624	3.016682E-7	NaN
600	1.000000	0.759083	7.37092e+06	-47089.1	1005.82	-29767.1	0.000000	0.000000	6.759074	-0.015019	NaN	0.000000	0.001627	0.001830	28.0805	0.062504	0.001920	32.5619	-67.174	-168.317	0.028515	0.757744	-0.373443	-0.374782	-0.015019	32.5619	-0.373097	-55043.6	2.728542E-7	NaN
600	1.000000	0.801055	7.37092e+06	-47089.1	1005.82	-29767.1	0.000000	0.000000	6.801047	0.012107	NaN	0.000000	0.001618	0.001810	28.0792	0.036982	0.002048	18.0535	-156.569	11.8543	-0.003471	0.799703	-0.331471	-0.332823	0.012107	18.0535	-0.331974	-13942.7	-8.683261E-7	NaN
600	1.000000	0.843079	7.37092e+06	-47089.1	1005.82	-29767.1	0.000000	0.000000	6.843071	0.008618	NaN	0.000000	0.001653	0.001754	28.0796	0.093470	0.001884	49.6073	-84.4653	-165.39	0.084541	0.841783	-0.289447	-0.290743	0.008618	49.6073	-0.289577	-3288.25	-2.620951E-6	NaN
600	1.000000	0.885154	7.37092e+06	-47089.1	1005.82	-29767.1	0.000000	0.000000	6.885146	0.031341	NaN	0.000000	0.001632	0.001762	28.0794	0.057471	0.002042	28.1408	-131.457	14.5246	0.063613	0.883741	-0.247372	-0.248785	0.031341	28.1408	-0.248208	-771.297	-4.063449E-5	NaN
600	1.000000	0.927109	7.37092e+06	-47089.1	1005.82	-29767.1	0.000000	0.000000	6.927101	0.025935	NaN	0.000000	0.001612	0.001708	28.0793	0.062130	0.001940	32.024	20.4063	-171.352	-0.039484	0.925765	-0.205418	-0.206761	0.025935	32.024	-0.206025	-165.296	-0.000157	NaN
600	1.000000	0.969140	7.37092e+06	-47089.1	1005.82	-29767.1	0.000000	0.000000	6.969131	-0.012922	NaN	0.000000	0.001600	0.001761	28.0805	0.113370	0.002038	55.6166	97.603	11.643	0.051713	0.967762	-0.163386	-0.164764	-0.012922	55.6166	-0.163211	-31.2488	0.000414	NaN
600	1.000000	1.011144	7.37092e+06	-47089.1	1005.82	-29767.1	0.000000	0.000000	7.011136	0.022956	NaN	0.000000	0.001630	0.001775	28.0804	0.101532	0.001856	54.6956	41.0173	-166.848	-0.031027	1.009838	-0.121382	-0.122688	0.022956	54.6956	-0.121697	-5.226610	-0.004392	NaN
600	1.000000	1.053194	7.37092e+06	-47089.1	1005.82	-29767.1	0.000000	0.000000	7.053186	0.017407	NaN	0.000000	0.001550	0.001835	28.0804	0.174205	0.002067	84.2811	53.7815	15.9524	-0.017969	1.051824	-0.079332	-0.080702	0.017407	84.2811	-0.079487	-0.600948	-0.028966	NaN
600	1.000000	1.095175	7.37092e+06	-47089.1	1005.82	-29767.1	0.000000	0.000000	7.095163	-0.088390	NaN	0.000000	0.001551	0.001838	28.0791	0.082326	0.002007	41.0127	94.3726	-167.535	-0.060434	1.093841	-0.037351	-0.038685	-0.088390	41.0127	-0.035734	-0.033665	2.625600	NaN
600	1.000000	1.137159	7.37092e+06	-47089.1	1005.82	-29767.1	0.000000	0.000000	7.137437	6.961845	NaN	0.000000	0.001555	0.001807	28.079	7.473379	0.001672	4470.98	13.7376	2.312745	5.177009	1.135861	0.004633	0.003335	6.961845	4470.98	0.003465	0.002775	2508.36	77537
600	2.000000	1.148695	7.37092e+06	-47089.1	1005.82	-29767.1	0.000000	0.000000	7.149748	25.8291	NaN	0.000000	0.001561	0.001828	28.079	20.0691	0.001861	10781.2	6.660759	-177.68	25.174	1.148397	0.016169	0.015871	25.8291	10781.2	0.014372	0.014457	1786.63	81922.8
600	2.000000	1.159200	7.37092e+06	-47089.1	1005.82	-29767.1	0.000000	0.000000	7.161354	52.6189	NaN	0.000000	0.001530	0.001817	28.0803	29.791	0.001772	16808.4	4.385878	0.939336	52.2766	1.158803	0.026673	0.026277	52.6189	16808.4	0.024325	0.029800	1765.74	88959.4
600	2.000000	1.169660	7.37093e+06	-47089.1	1005.82	-29767.1	0.000000	0.000000	7.173445	92.2903	NaN	0.000000	0.001588	0.001776	28.0804	40.1753	0.001687	23818.1	1.106674	-179.528	90.6669	1.169331	0.037134	0.036805	92.2903	23818.1	0.034227	0.049962	1847.2	97355.1
600	2.000000	1.180121	7.37093e+06	-47089.1	1005.82	-29767.1	0.000000	0.000000	7.185924	141.374	NaN	0.000000	0.001570	0.001771	28.0806	51.7879	0.001882	27513.9	8.309601	-7.511070	139.261	1.179672	0.047594	0.047146	141.374	27513.9	0.043741	0.074052	1909.1	92375.2
600	2.000000	1.190709	7.37093e+06	-47089.1	1005.82	-29767.1	0.000000	0.000000	7.198681	194.124	NaN	0.000000	0.001591	0.001728	28.0794	62.5156	0.001778	35165.1	6.038711	172.607	194.106	1.190384	0.058183	0.057858	194.124	35165.1	0.054043	0.105318	1843.22	98999.8
600	2.000000	1.201212	7.37093e+06	-47089.1	1005.82	-29767.1	0.000000	0.000000	7.211571	252.185	NaN	0.000000	0.001578	0.001726	28.0794	72.6867	0.001864	38994.5	2.532879	-5.111997	253.789	1.200973	0.068686	0.068446	252.185	38994.5	0.063836	0.139921	1802.34	95243.6
600	2.000000	1.211440	7.37093e+06	-47089.1	1005.82	-29767.1	0.000000	0.000000	7.224849	326.383	NaN	0.000000	0.001523	0.001749	28.0793	81.6128	0.001844	44269.7	2.251925	174.023	317.209	1.211289	0.078914	0.078762	326.383	44269.7	0.073384	0.178126	1832.31	95833.2
600	2.000000	1.222136	7.37093e+06	-47089.1	1005.82	-29767.1	0.000000	0.000000	7.238818	405.98	NaN	0.000000	0.001528	0.001767	28.0792	90.455	0.001724	52455.9	2.323411	-6.055650	406.275	1.221605	0.089610	0.089079	405.98	52455.9	0.083805	0.224735	1806.48	101096
600	2.000000	1.232544	7.37093e+06	-47089.1	1005.82	-29767.1	0.000000	0.000000	7.252483	485.231	NaN	0.000000	0.001615	0.001759	28.0805	99.8702	0.001918	52059.3	2.709123	173.712	482.596	1.232275	0.100017	0.099748	485.231	52059.3	0.093027	0.270175	1795.99	91506
600	2.000000	1.236980	7.37093e+06	-47089.1	1005.82	-29767.1	0.000000	0.000000	7.258352	520.066	NaN	0.000000	0.001522	0.001820	28.0803	101.963	0.001774	57463.3	-0.077155	-5.080714	509.566	1.236752	0.104454	0.104226	520.066	57463.3	0.097666	0.294507	1765.88	96742.1