File: remote_trans/data/nanoindenter/0828-1/data/Data_2025-08-06,11h17m57s/2025-07-22_16-23-58_1_781.txt
2025-07-22, 16:23:58, 1
Index	Phase	Displacement	Time	Pos X	Pos Y	Pos Z	Rot A	Rot B	Piezo Z	Force A	Force B	Gripper	Voltage A	Voltage B	Temperature	Amplitude force	Amplitude pos	Stiffness	Phase shift	Phase excitation	Force A raw	Displacement raw	HMax	HMax raw	Real Force	Real Stiffness	Contact Depth	Area	Hardness	Reduced Mod.
[#]	[#]	[um]	[s]	[um]	[um]	[um]	[m°]	[m°]	[um]	[uN]	[uN]	[V]	[V]	[V]	[°C]	[uN]	[um]	[N/m]	[°]	[°]	[uN]	[um]	[um]	[um]	[uN]	[N/m]	[um]	[um^2]	[MPa]	[MPa]
781	1.000000	0.002816	7.37269e+06	-39189.1	1055.82	-29794.8	0.000000	0.000000	6.002834	0.088773	NaN	0.000000	0.001709	0.001705	28.0832	0.030029	0.000918	32.7032	14.7088	-167.897	0.046611	0.001478	-1.063154	-1.064493	0.088773	32.7032	-1.065190	-1.708308E+14	-5.196553E-16	NaN
781	1.000000	0.042744	7.37269e+06	-39189.1	1055.82	-29794.8	0.000000	0.000000	6.042756	-0.047557	NaN	0.000000	0.001712	0.001702	28.0834	0.103316	0.001877	55.0385	-72.5107	-166.363	-0.039522	0.041446	-1.023226	-1.024524	-0.047557	55.0385	-1.022578	-4.567134E+13	1.041286E-15	NaN
781	1.000000	0.082729	7.37269e+06	-39189.1	1055.82	-29794.8	0.000000	0.000000	6.082738	-0.108406	NaN	0.000000	0.001676	0.001754	28.0834	0.141926	0.001964	72.2672	-147.456	-166.076	-0.034748	0.081412	-0.983242	-0.984559	-0.108406	72.2672	-0.982117	-1.302961E+13	8.319935E-15	NaN
781	1.000000	0.122744	7.37269e+06	-39189.1	1055.82	-29794.8	0.000000	0.000000	6.122756	-0.037353	NaN	0.000000	0.001730	0.001709	28.085	0.057858	0.001890	30.6176	55.0219	-169.475	0.068474	0.121487	-0.943226	-0.944483	-0.037353	30.6176	-0.942311	-3.787213E+12	9.862805E-15	NaN
781	1.000000	0.162791	7.37269e+06	-39189.1	1055.82	-29794.8	0.000000	0.000000	6.162806	0.049285	NaN	0.000000	0.001710	0.001729	28.0844	0.024230	0.002121	11.4212	23.9704	-166.393	-0.011005	0.161482	-0.903180	-0.904488	0.049285	11.4212	-0.906417	-1.240960E+12	-3.971556E-14	NaN
781	1.000000	0.202804	7.37269e+06	-39189.1	1055.82	-29794.8	0.000000	0.000000	6.202819	0.033974	NaN	0.000000	0.001689	0.001757	28.0844	0.031996	0.002118	15.1054	-96.9469	-162.549	0.024560	0.201500	-0.863167	-0.864470	0.033974	15.1054	-0.864854	-3.402581E+11	-9.984800E-14	NaN
781	1.000000	0.242818	7.37269e+06	-39189.1	1055.82	-29794.8	0.000000	0.000000	6.242832	0.011480	NaN	0.000000	0.001672	0.001702	28.0847	0.036950	0.002140	17.2668	-4.346664	-164.167	0.014686	0.241483	-0.823152	-0.824488	0.011480	17.2668	-0.823651	-9.412784E+10	-1.219634E-13	NaN
781	1.000000	0.282819	7.37269e+06	-39189.1	1055.82	-29794.8	0.000000	0.000000	6.282833	0.009514	NaN	0.000000	0.001657	0.001768	28.0831	0.099921	0.001923	51.9518	-26.3099	-167.506	0.022174	0.281507	-0.783151	-0.784463	0.009514	51.9518	-0.783289	-2.666360E+10	-3.568056E-13	NaN
781	1.000000	0.322856	7.37269e+06	-39189.1	1055.82	-29794.8	0.000000	0.000000	6.322867	-0.052943	NaN	0.000000	0.001627	0.001718	28.0829	0.100518	0.001834	54.8111	11.2587	-167.695	-0.113159	0.321546	-0.743115	-0.744425	-0.052943	54.8111	-0.742390	-7.406433E+9	7.148302E-12	NaN
781	1.000000	0.362849	7.37269e+06	-39189.1	1055.82	-29794.8	0.000000	0.000000	6.362863	-0.001407	NaN	0.000000	0.001634	0.001734	28.0829	0.052250	0.002003	26.0902	-105.001	-167.824	0.062541	0.361553	-0.703122	-0.704417	-0.001407	26.0902	-0.703081	-2.155775E+9	6.528001E-13	NaN
781	1.000000	0.402873	7.37269e+06	-39189.1	1055.82	-29794.8	0.000000	0.000000	6.402888	0.037324	NaN	0.000000	0.001692	0.001743	28.0844	0.148037	0.002042	72.4919	-129.402	-168.5	0.062894	0.401618	-0.663098	-0.664352	0.037324	72.4919	-0.663484	-6.197004E+8	-6.022960E-11	NaN
781	1.000000	0.442920	7.37269e+06	-39189.1	1055.82	-29794.8	0.000000	0.000000	6.442935	0.021781	NaN	0.000000	0.001695	0.001723	28.0843	0.061999	0.002041	30.3713	-10.5159	-165.203	0.019066	0.441539	-0.623050	-0.624431	0.021781	30.3713	-0.623588	-1.757702E+8	-1.239174E-10	NaN
781	1.000000	0.482923	7.37269e+06	-39189.1	1055.82	-29794.8	0.000000	0.000000	6.482934	-0.044361	NaN	0.000000	0.001726	0.001768	28.084	0.140161	0.001987	70.5357	-105.808	-164.058	0.045334	0.481620	-0.583048	-0.584351	-0.044361	70.5357	-0.582576	-4.789361E+7	9.262354E-10	NaN
781	1.000000	0.522920	7.37269e+06	-39189.1	1055.82	-29794.8	0.000000	0.000000	6.522933	-0.017457	NaN	0.000000	0.001721	0.001738	28.0826	0.096357	0.002073	46.4736	162.733	-165.331	-0.050845	0.521647	-0.543051	-0.544323	-0.017457	46.4736	-0.542769	-1.348195E+7	1.294847E-9	NaN
781	1.000000	0.562938	7.3727e+06	-39189.1	1055.82	-29794.8	0.000000	0.000000	6.562954	0.052159	NaN	0.000000	0.001760	0.001736	28.0827	0.064136	0.002027	31.6372	79.7395	-166.831	-0.015404	0.561693	-0.503033	-0.504277	0.052159	31.6372	-0.504269	-3.93147e+06	-1.326706E-8	NaN
781	1.000000	0.602981	7.3727e+06	-39189.1	1055.82	-29794.8	0.000000	0.000000	6.602993	-0.027011	NaN	0.000000	0.001703	0.001746	28.0827	0.093654	0.002085	44.9105	1.584508	-167.084	-0.048249	0.601679	-0.462990	-0.464292	-0.027011	44.9105	-0.462539	-1.02491e+06	2.635424E-8	NaN
781	1.000000	0.642983	7.3727e+06	-39189.1	1055.82	-29794.8	0.000000	0.000000	6.642996	-0.000876	NaN	0.000000	0.001712	0.001678	28.0836	0.070655	0.001938	36.4615	-65.206	-162.879	0.011168	0.641692	-0.422988	-0.424279	-0.000876	36.4615	-0.422970	-283479	3.091249E-9	NaN
781	1.000000	0.682994	7.3727e+06	-39189.1	1055.82	-29794.8	0.000000	0.000000	6.683011	0.085666	NaN	0.000000	0.001710	0.001702	28.0838	0.045325	0.002036	22.2575	-143.444	-163.963	0.028228	0.681637	-0.382977	-0.384334	0.085666	22.2575	-0.385863	-83936.9	-1.020601E-6	NaN
781	1.000000	0.723027	7.3727e+06	-39189.1	1055.82	-29794.8	0.000000	0.000000	6.723040	-0.013649	NaN	0.000000	0.001730	0.001714	28.0842	0.113390	0.001967	57.6522	127.714	-166.858	0.051272	0.721722	-0.342944	-0.344249	-0.013649	57.6522	-0.342766	-20037.8	6.811682E-7	NaN
781	1.000000	0.763032	7.3727e+06	-39189.1	1055.82	-29794.8	0.000000	0.000000	6.763045	-0.000820	NaN	0.000000	0.001685	0.001693	28.0845	0.050559	0.001871	27.0264	-11.9424	-168.81	-0.057735	0.761719	-0.302939	-0.304252	-0.000820	27.0264	-0.302916	-5200.06	1.576958E-7	NaN
781	1.000000	0.803049	7.3727e+06	-39189.1	1055.82	-29794.8	0.000000	0.000000	6.803065	0.060879	NaN	0.000000	0.001728	0.001738	28.0831	0.051002	0.002059	24.7758	102.629	-163.845	0.044210	0.801767	-0.262921	-0.264204	0.060879	24.7758	-0.264764	-1386.08	-4.392186E-5	NaN
781	1.000000	0.843039	7.3727e+06	-39189.1	1055.82	-29794.8	0.000000	0.000000	6.843051	-0.032579	NaN	0.000000	0.001763	0.001722	28.083	0.023664	0.001835	12.8971	5.814092	-168.066	-0.031045	0.841743	-0.222932	-0.224228	-0.032579	12.8971	-0.221037	-288.564	0.000113	NaN
781	1.000000	0.883069	7.3727e+06	-39189.1	1055.82	-29794.8	0.000000	0.000000	6.883080	-0.053730	NaN	0.000000	0.001797	0.001726	28.0827	0.133718	0.001939	68.9539	85.709	-165.843	-0.015051	0.881804	-0.182902	-0.184166	-0.053730	68.9539	-0.182317	-66.8043	0.000804	NaN
781	1.000000	0.923094	7.3727e+06	-39189.1	1055.82	-29794.8	0.000000	0.000000	6.923108	0.012603	NaN	0.000000	0.001691	0.001702	28.083	0.066382	0.001982	33.4954	144.354	-164.717	-0.025118	0.921772	-0.142877	-0.144198	0.012603	33.4954	-0.143159	-13.5523	-0.000930	NaN
781	1.000000	0.963111	7.3727e+06	-39189.1	1055.82	-29794.8	0.000000	0.000000	6.963121	-0.080710	NaN	0.000000	0.001673	0.001715	28.0844	0.056776	0.001983	28.6328	113.309	-165.577	-0.057682	0.961820	-0.102860	-0.104151	-0.080710	28.6328	-0.100746	-1.897894	0.042526	NaN
781	1.000000	1.003127	7.3727e+06	-39189.1	1055.82	-29794.8	0.000000	0.000000	7.003140	-0.013828	NaN	0.000000	0.001686	0.001703	28.084	0.048604	0.001985	24.4865	-130.492	-162.95	-0.030111	1.001818	-0.062844	-0.064153	-0.013828	24.4865	-0.062420	-0.211046	0.065519	NaN
781	1.000000	1.043132	7.3727e+06	-39189.1	1055.82	-29794.8	0.000000	0.000000	7.043146	0.021115	NaN	0.000000	0.001650	0.001698	28.0842	0.169972	0.001896	89.6502	-76.0803	-166.261	-0.041348	1.041839	-0.022839	-0.024132	0.021115	89.6502	-0.023015	-0.014990	-1.408597	NaN
781	2.000000	1.073643	7.3727e+06	-39189.1	1055.82	-29794.8	0.000000	0.000000	7.074256	14.5902	NaN	0.000000	0.001673	0.001730	28.0829	12.0809	0.001747	6914.65	5.060594	-174.339	13.4022	1.073307	0.007672	0.007337	14.5902	6914.65	0.006090	0.005150	2833.06	88032.1
781	2.000000	1.083598	7.3727e+06	-39189.1	1055.82	-29794.8	0.000000	0.000000	7.084986	33.4354	NaN	0.000000	0.001714	0.001751	28.0827	21.877	0.001944	11255.2	7.135477	-179.578	32.6101	1.083361	0.017628	0.017390	33.4354	11255.2	0.015400	0.015822	2113.24	81751.9
781	2.000000	1.093580	7.3727e+06	-39189.1	1055.82	-29794.8	0.000000	0.000000	7.095922	56.6697	NaN	0.000000	0.001698	0.001716	28.0832	30.488	0.001786	17074.2	6.171800	176.574	55.3682	1.093279	0.027609	0.027309	56.6697	17074.2	0.025120	0.031235	1814.32	88266.5
781	2.000000	1.103572	7.3727e+06	-39189.1	1055.82	-29794.8	0.000000	0.000000	7.107559	96.6936	NaN	0.000000	0.001688	0.001723	28.0841	39.0029	0.001800	21667.4	1.371387	-179.187	94.9984	1.103270	0.037601	0.037300	96.6936	21667.4	0.034254	0.050024	1932.94	88509.7
781	2.000000	1.113565	7.3727e+06	-39189.1	1055.82	-29794.8	0.000000	0.000000	7.119039	132.882	NaN	0.000000	0.001720	0.001715	28.0844	49.0718	0.001906	25746.3	2.964622	177.138	131.536	1.113314	0.047594	0.047343	132.882	25746.3	0.043723	0.074005	1795.6	86468.6
781	2.000000	1.123553	7.3727e+06	-39189.1	1055.82	-29794.8	0.000000	0.000000	7.131067	182.528	NaN	0.000000	0.001716	0.001713	28.0843	56.9387	0.001763	32289.3	-0.220452	179.376	180.699	1.123264	0.057583	0.057294	182.528	32289.3	0.053343	0.103026	1771.67	91909.2
781	2.000000	1.133601	7.3727e+06	-39189.1	1055.82	-29794.8	0.000000	0.000000	7.143287	235.393	NaN	0.000000	0.001729	0.001726	28.0841	66.3895	0.001696	39133.3	4.491997	172.254	237.597	1.133290	0.067630	0.067319	235.393	39133.3	0.063119	0.137229	1715.34	96515.6
781	2.000000	1.143481	7.3727e+06	-39189.1	1055.82	-29794.8	0.000000	0.000000	7.155767	298.636	NaN	0.000000	0.001694	0.001668	28.0829	77.7513	0.001809	42976.4	5.938844	170.763	295.099	1.143223	0.077511	0.077253	298.636	42976.4	0.072299	0.173565	1720.6	94247.9
781	2.000000	1.153471	7.3727e+06	-39189.1	1055.82	-29794.8	0.000000	0.000000	7.168784	372.304	NaN	0.000000	0.001791	0.001692	28.0832	85.8524	0.001869	45933.4	3.302322	173.631	368.401	1.153128	0.087501	0.087157	372.304	45933.4	0.081422	0.213629	1742.76	90797
781	2.000000	1.163467	7.3727e+06	-39189.1	1055.82	-29794.8	0.000000	0.000000	7.182090	452.854	NaN	0.000000	0.001750	0.001716	28.0835	95.4752	0.001790	53336	3.986631	171.918	449.722	1.163053	0.097496	0.097083	452.854	53336	0.091128	0.260501	1738.4	95474.9
781	2.000000	1.168955	7.3727e+06	-39189.1	1055.82	-29794.8	0.000000	0.000000	7.189325	495.379	NaN	0.000000	0.001720	0.001709	28.0832	99.6223	0.001754	56803.1	3.367333	-8.854984	490.395	1.168627	0.102984	0.102656	495.379	56803.1	0.096443	0.287998	1720.08	96705.3