File: remote_trans/data/nanoindenter/0828-1/data/Data_2025-08-06,11h17m57s/2025-07-22_16-23-58_1_578.txt
2025-07-22, 16:23:58, 1
Index	Phase	Displacement	Time	Pos X	Pos Y	Pos Z	Rot A	Rot B	Piezo Z	Force A	Force B	Gripper	Voltage A	Voltage B	Temperature	Amplitude force	Amplitude pos	Stiffness	Phase shift	Phase excitation	Force A raw	Displacement raw	HMax	HMax raw	Real Force	Real Stiffness	Contact Depth	Area	Hardness	Reduced Mod.
[#]	[#]	[um]	[s]	[um]	[um]	[um]	[m°]	[m°]	[um]	[uN]	[uN]	[V]	[V]	[V]	[°C]	[uN]	[um]	[N/m]	[°]	[°]	[uN]	[um]	[um]	[um]	[uN]	[N/m]	[um]	[um^2]	[MPa]	[MPa]
578	1.000000	0.002464	7.3707e+06	-48189.1	1005.82	-29763.3	0.000000	0.000000	6.002813	0.025746	NaN	0.000000	0.001640	0.001776	28.082	0.065506	0.000854	76.6784	106.251	-166.925	0.026369	0.001191	-1.089052	-1.090325	0.025746	76.6784	-1.089304	-3.601360E+14	-7.148999E-17	NaN
578	1.000000	0.044381	7.3707e+06	-48189.1	1005.82	-29763.3	0.000000	0.000000	6.044729	-0.002096	NaN	0.000000	0.001595	0.001817	28.0817	0.066496	0.001904	34.9244	-26.1321	14.9637	-0.114847	0.043063	-1.047135	-1.048452	-0.002096	34.9244	-1.047090	-9.756470E+13	2.148495E-17	NaN
578	1.000000	0.086393	7.3707e+06	-48189.1	1005.82	-29763.3	0.000000	0.000000	6.086741	0.004028	NaN	0.000000	0.001577	0.001765	28.0807	0.107184	0.001952	54.9127	-65.5803	-163.829	-0.061544	0.085104	-1.005123	-1.006411	0.004028	54.9127	-1.005178	-2.663641E+13	-1.512275E-16	NaN
578	1.000000	0.128418	7.3707e+06	-48189.1	1005.82	-29763.3	0.000000	0.000000	6.128766	0.005593	NaN	0.000000	0.001578	0.001778	28.0808	0.041501	0.002091	19.8467	63.4814	16.5394	0.029205	0.127115	-0.963098	-0.964401	0.005593	19.8467	-0.963310	-7.269192E+12	-7.693973E-16	NaN
578	1.000000	0.170459	7.3707e+06	-48189.1	1005.82	-29763.3	0.000000	0.000000	6.170806	-0.021657	NaN	0.000000	0.001560	0.001891	28.0806	0.256097	0.002090	122.536	-153.596	-161.918	-0.046543	0.169148	-0.921057	-0.922368	-0.021657	122.536	-0.920925	-1.948458E+12	1.111498E-14	NaN
578	1.000000	0.212497	7.3707e+06	-48189.1	1005.82	-29763.3	0.000000	0.000000	6.212843	-0.048787	NaN	0.000000	0.001575	0.001805	28.082	0.141154	0.001989	70.9592	-175.151	11.7962	0.015626	0.211109	-0.879019	-0.880407	-0.048787	70.9592	-0.878503	-5.205506E+11	9.372126E-14	NaN
578	1.000000	0.254470	7.3707e+06	-48189.1	1005.82	-29763.3	0.000000	0.000000	6.254819	0.004367	NaN	0.000000	0.001600	0.001770	28.0825	0.066613	0.002103	31.6822	-148.392	-164.517	0.021529	0.253168	-0.837046	-0.838348	0.004367	31.6822	-0.837149	-1.434389E+11	-3.044641E-14	NaN
578	1.000000	0.296499	7.3707e+06	-48189.1	1005.82	-29763.3	0.000000	0.000000	6.296844	-0.057758	NaN	0.000000	0.001542	0.001804	28.0823	0.050999	0.002060	24.7607	7.111604	12.0931	-0.060767	0.295191	-0.795017	-0.796325	-0.057758	24.7607	-0.793268	-3.643020E+10	1.585439E-12	NaN
578	1.000000	0.338537	7.3707e+06	-48189.1	1005.82	-29763.3	0.000000	0.000000	6.338887	0.064647	NaN	0.000000	0.001593	0.001799	28.0811	0.037824	0.002036	18.5784	146.852	-166.36	0.047224	0.337224	-0.752979	-0.754292	0.064647	18.5784	-0.755589	-1.120177E+10	-5.771100E-12	NaN
578	1.000000	0.380551	7.3707e+06	-48189.1	1005.82	-29763.3	0.000000	0.000000	6.380900	0.024364	NaN	0.000000	0.001600	0.001823	28.081	0.088840	0.002013	44.1429	174.724	14.0492	0.032116	0.379153	-0.710965	-0.712363	0.024364	44.1429	-0.711379	-2.798148E+9	-8.707162E-12	NaN
578	1.000000	0.422520	7.3707e+06	-48189.1	1005.82	-29763.3	0.000000	0.000000	6.422867	-0.030210	NaN	0.000000	0.001584	0.001765	28.0809	0.101759	0.002081	48.8894	-51.8902	-162.532	-0.059845	0.421212	-0.668996	-0.670304	-0.030210	48.8894	-0.668533	-7.266191E+8	4.157652E-11	NaN
578	1.000000	0.464593	7.3707e+06	-48189.1	1005.82	-29763.3	0.000000	0.000000	6.464942	0.022990	NaN	0.000000	0.001524	0.001717	28.0821	0.061603	0.001974	31.2011	-179.156	13.2683	0.053673	0.463177	-0.626923	-0.628339	0.022990	31.2011	-0.627475	-1.987691E+8	-1.156632E-10	NaN
578	1.000000	0.506565	7.3707e+06	-48189.1	1005.82	-29763.3	0.000000	0.000000	6.506913	-0.023926	NaN	0.000000	0.001533	0.001693	28.0821	0.057000	0.001991	28.6347	-17.2681	-170.35	-0.092889	0.505270	-0.584951	-0.586246	-0.023926	28.6347	-0.584324	-5.062765E+7	4.725907E-10	NaN
578	1.000000	0.548597	7.3707e+06	-48189.1	1005.82	-29763.3	0.000000	0.000000	6.548944	-0.006702	NaN	0.000000	0.001526	0.001748	28.082	0.082838	0.002133	38.8415	-118.914	15.3158	0.025206	0.547252	-0.542919	-0.544264	-0.006702	38.8415	-0.542790	-1.349103E+7	4.967621E-10	NaN
578	1.000000	0.590625	7.3707e+06	-48189.1	1005.82	-29763.3	0.000000	0.000000	6.590971	-0.058178	NaN	0.000000	0.001562	0.001731	28.0819	0.151677	0.002067	73.3837	148.387	-161.025	-0.027852	0.589272	-0.500891	-0.502244	-0.058178	73.3837	-0.500296	-3.46062e+06	1.681141E-8	NaN
578	1.000000	0.632624	7.3707e+06	-48189.1	1005.82	-29763.3	0.000000	0.000000	6.632972	-0.017691	NaN	0.000000	0.001581	0.001696	28.0805	0.081856	0.001942	42.1434	-40.4358	12.3731	-0.032334	0.631308	-0.458892	-0.460208	-0.017691	42.1434	-0.458577	-901604	1.962166E-8	NaN
578	1.000000	0.674649	7.3707e+06	-48189.1	1005.82	-29763.3	0.000000	0.000000	6.674995	-0.058607	NaN	0.000000	0.001607	0.001770	28.0806	0.103128	0.002050	50.3081	34.4583	-165.053	-0.072812	0.673394	-0.416867	-0.418121	-0.058607	50.3081	-0.415993	-225712	2.596551E-7	NaN
578	1.000000	0.716679	7.3707e+06	-48189.1	1005.82	-29763.3	0.000000	0.000000	6.717027	0.011762	NaN	0.000000	0.001594	0.001760	28.0811	0.082307	0.001900	43.3137	83.7878	14.9456	0.003111	0.715366	-0.374837	-0.376150	0.011762	43.3137	-0.375041	-58703	-2.003673E-7	NaN
578	1.000000	0.758690	7.37071e+06	-48189.1	1005.82	-29763.3	0.000000	0.000000	6.759037	-0.029098	NaN	0.000000	0.001511	0.001802	28.0819	0.051593	0.002001	25.7825	50.4191	-167.321	-0.055748	0.757413	-0.332826	-0.334103	-0.029098	25.7825	-0.331979	-13945.2	2.086613E-6	NaN
578	1.000000	0.800728	7.37071e+06	-48189.1	1005.82	-29763.3	0.000000	0.000000	6.801075	-0.026545	NaN	0.000000	0.001582	0.001731	28.0821	0.081802	0.002063	39.6516	-75.3887	11.7933	-0.028631	0.799288	-0.290788	-0.292227	-0.026545	39.6516	-0.290286	-3369.65	7.877562E-6	NaN
578	1.000000	0.842727	7.37071e+06	-48189.1	1005.82	-29763.3	0.000000	0.000000	6.843073	-0.062616	NaN	0.000000	0.001528	0.001748	28.0824	0.024141	0.002181	11.0684	-156.204	-164.094	-0.065754	0.841439	-0.248789	-0.250077	-0.062616	11.0684	-0.244546	-676.7	9.253063E-5	NaN
578	1.000000	0.884736	7.37071e+06	-48189.1	1005.82	-29763.3	0.000000	0.000000	6.885084	0.002702	NaN	0.000000	0.001564	0.001745	28.0807	0.091062	0.001973	46.1476	-166.431	13.6433	-0.011341	0.883381	-0.206780	-0.208135	0.002702	46.1476	-0.206824	-170.321	-1.586393E-5	NaN
578	1.000000	0.926795	7.37071e+06	-48189.1	1005.82	-29763.3	0.000000	0.000000	6.927143	-0.001271	NaN	0.000000	0.001605	0.001767	28.0807	0.187111	0.001971	94.9196	145.14	-165.528	0.015170	0.925462	-0.164721	-0.166054	-0.001271	94.9196	-0.164711	-33.2067	3.826686E-5	NaN
578	1.000000	0.968783	7.37071e+06	-48189.1	1005.82	-29763.3	0.000000	0.000000	6.969132	0.012512	NaN	0.000000	0.001635	0.001746	28.0808	0.061079	0.001846	33.0957	154.572	11.1476	0.075176	0.967408	-0.122733	-0.124108	0.012512	33.0957	-0.123016	-5.553790	-0.002253	NaN
578	1.000000	1.010798	7.37071e+06	-48189.1	1005.82	-29763.3	0.000000	0.000000	7.011145	-0.034037	NaN	0.000000	0.001613	0.001736	28.0821	0.050938	0.001916	26.5817	-71.3381	-165.387	-0.072730	1.009511	-0.080718	-0.082005	-0.034037	26.5817	-0.079758	-0.610412	0.055761	NaN
578	1.000000	1.052804	7.37071e+06	-48189.1	1005.82	-29763.3	0.000000	0.000000	7.053151	-0.036799	NaN	0.000000	0.001565	0.001744	28.0821	0.068785	0.002190	31.4108	153.234	13.1707	-0.020780	1.051493	-0.038712	-0.040023	-0.036799	31.4108	-0.037833	-0.038891	0.946192	NaN
578	1.000000	1.094826	7.37071e+06	-48189.1	1005.82	-29763.3	0.000000	0.000000	7.095454	6.804090	NaN	0.000000	0.001512	0.001715	28.0821	6.710873	0.001734	3870.05	10.1831	-170.94	5.210536	1.093529	0.003310	0.002013	6.804090	3870.05	0.001991	0.001548	4395.59	89869.6
578	2.000000	1.106798	7.37071e+06	-48189.1	1005.82	-29763.3	0.000000	0.000000	7.108267	27.2695	NaN	0.000000	0.001541	0.001706	28.082	19.7839	0.001871	10571.6	3.362632	4.652621	25.6385	1.106490	0.015282	0.014974	27.2695	10571.6	0.013347	0.013144	2074.6	84244.7
578	2.000000	1.117259	7.37071e+06	-48189.1	1005.82	-29763.3	0.000000	0.000000	7.119786	53.0149	NaN	0.000000	0.001562	0.001758	28.0806	29.2873	0.001823	16068.1	3.444963	-178.901	52.4801	1.116990	0.025743	0.025474	53.0149	16068.1	0.023268	0.027940	1897.45	87826
578	2.000000	1.127704	7.37071e+06	-48189.1	1005.82	-29763.3	0.000000	0.000000	7.131812	91.4481	NaN	0.000000	0.001560	0.001745	28.0809	38.1534	0.001662	22952.4	3.514923	-1.770860	88.5012	1.127361	0.036188	0.035845	91.4481	22952.4	0.033200	0.047638	1919.64	96077.9
578	2.000000	1.138193	7.37071e+06	-48189.1	1005.82	-29763.3	0.000000	0.000000	7.144040	133.745	NaN	0.000000	0.001523	0.001756	28.0812	47.6661	0.001651	28872.1	4.258388	174.466	129.829	1.137858	0.046677	0.046342	133.745	28872.1	0.043203	0.072567	1843.07	97922.7
578	2.000000	1.148771	7.37071e+06	-48189.1	1005.82	-29763.3	0.000000	0.000000	7.156814	187.138	NaN	0.000000	0.001575	0.001746	28.0818	58.226	0.001739	33488.1	7.502200	-8.891686	188.727	1.148383	0.057255	0.056867	187.138	33488.1	0.053064	0.102119	1832.55	95743.6
578	2.000000	1.159227	7.37071e+06	-48189.1	1005.82	-29763.3	0.000000	0.000000	7.170084	255.576	NaN	0.000000	0.001587	0.001748	28.082	69.3308	0.001874	36995.1	3.583937	175.74	254.106	1.158830	0.067712	0.067314	255.576	36995.1	0.062530	0.135038	1892.62	91979.2
578	2.000000	1.169699	7.37071e+06	-48189.1	1005.82	-29763.3	0.000000	0.000000	7.183506	327.344	NaN	0.000000	0.001553	0.001743	28.0821	79.2627	0.001786	44385.3	4.935580	-8.619710	325.253	1.169384	0.078183	0.077868	327.344	44385.3	0.072652	0.175044	1870.07	96925.6
578	2.000000	1.180143	7.37071e+06	-48189.1	1005.82	-29763.3	0.000000	0.000000	7.197567	415.321	NaN	0.000000	0.001607	0.001736	28.0808	88.2543	0.001826	48328.6	4.955638	171.499	411.811	1.179776	0.088627	0.088260	415.321	48328.6	0.082182	0.217143	1912.66	94755.6
578	2.000000	1.190642	7.37071e+06	-48189.1	1005.82	-29763.3	0.000000	0.000000	7.211684	503.313	NaN	0.000000	0.001595	0.001724	28.081	96.7802	0.001742	55554.9	4.236916	-9.331681	498.788	1.190312	0.099126	0.098796	503.313	55554.9	0.092331	0.266610	1887.83	98300.8
578	2.000000	1.195127	7.37071e+06	-48189.1	1005.82	-29763.3	0.000000	0.000000	7.217860	544.442	NaN	0.000000	0.001589	0.001733	28.0811	101.345	0.001753	57813.6	5.831773	169.021	542.319	1.194800	0.103611	0.103285	544.442	57813.6	0.096548	0.288554	1886.79	98330.9