File: remote_trans/data/nanoindenter/0828-1/data/Data_2025-08-06,11h17m57s/2025-07-22_16-23-58_1_1034.txt
2025-07-22, 16:23:58, 1
Index	Phase	Displacement	Time	Pos X	Pos Y	Pos Z	Rot A	Rot B	Piezo Z	Force A	Force B	Gripper	Voltage A	Voltage B	Temperature	Amplitude force	Amplitude pos	Stiffness	Phase shift	Phase excitation	Force A raw	Displacement raw	HMax	HMax raw	Real Force	Real Stiffness	Contact Depth	Area	Hardness	Reduced Mod.
[#]	[#]	[um]	[s]	[um]	[um]	[um]	[m°]	[m°]	[um]	[uN]	[uN]	[V]	[V]	[V]	[°C]	[uN]	[um]	[N/m]	[°]	[°]	[uN]	[um]	[um]	[um]	[uN]	[N/m]	[um]	[um^2]	[MPa]	[MPa]
1034	1.000000	0.002830	7.37516e+06	-51839.1	1055.82	-29750.8	0.000000	0.000000	6.002854	-0.022907	NaN	0.000000	0.001572	0.001602	28.0838	0.058005	0.000926	62.6151	10.0903	-160.942	-0.059282	0.001511	-1.101582	-1.102901	-0.022907	62.6151	-1.101308	-5.219468E+14	4.388680E-17	NaN
1034	1.000000	0.044730	7.37516e+06	-51839.1	1055.82	-29750.8	0.000000	0.000000	6.044752	-0.058930	NaN	0.000000	0.001592	0.001569	28.0837	0.057303	0.002129	26.9145	33.5961	16.5635	0.044515	0.043352	-1.059683	-1.061060	-0.058930	26.9145	-1.058041	-1.369266E+14	4.303747E-16	NaN
1034	1.000000	0.086715	7.37516e+06	-51839.1	1055.82	-29750.8	0.000000	0.000000	6.086740	0.010242	NaN	0.000000	0.001655	0.001582	28.0843	0.019597	0.002014	9.728806	-133.856	-164.048	0.015777	0.085527	-1.017697	-1.018885	0.010242	9.728806	-1.018486	-4.023341E+13	-2.545582E-16	NaN
1034	1.000000	0.128753	7.37516e+06	-51839.1	1055.82	-29750.8	0.000000	0.000000	6.128777	-0.022453	NaN	0.000000	0.001642	0.001619	28.0826	0.178442	0.002014	88.5802	-113.366	14.1741	0.078398	0.127433	-0.975659	-0.976979	-0.022453	88.5802	-0.975469	-1.060139E+13	2.117969E-15	NaN
1034	1.000000	0.170749	7.37516e+06	-51839.1	1055.82	-29750.8	0.000000	0.000000	6.170772	-0.037745	NaN	0.000000	0.001590	0.001601	28.0825	0.038524	0.002090	18.4314	-54.8637	-162.961	0.030208	0.169460	-0.933663	-0.934952	-0.037745	18.4314	-0.932127	-2.759992E+12	1.367573E-14	NaN
1034	1.000000	0.212794	7.37516e+06	-51839.1	1055.82	-29750.8	0.000000	0.000000	6.212817	-0.041702	NaN	0.000000	0.001655	0.001591	28.0825	0.102085	0.002050	49.7876	84.4702	15.4914	-0.008224	0.211424	-0.891618	-0.892988	-0.041702	49.7876	-0.890990	-7.678865E+11	5.430808E-14	NaN
1034	1.000000	0.254787	7.37516e+06	-51839.1	1055.82	-29750.8	0.000000	0.000000	6.254810	-0.040586	NaN	0.000000	0.001581	0.001569	28.0837	0.038490	0.001992	19.3244	-152.881	-162.001	-0.063099	0.253535	-0.849625	-0.850877	-0.040586	19.3244	-0.848050	-2.015245E+11	2.013926E-13	NaN
1034	1.000000	0.296819	7.37516e+06	-51839.1	1055.82	-29750.8	0.000000	0.000000	6.296839	-0.109022	NaN	0.000000	0.001565	0.001580	28.0835	0.069450	0.001970	35.2523	141.656	19.4669	-0.115062	0.295462	-0.807593	-0.808950	-0.109022	35.2523	-0.805274	-5.302059E+10	2.056218E-12	NaN
1034	1.000000	0.338844	7.37516e+06	-51839.1	1055.82	-29750.8	0.000000	0.000000	6.338867	-0.034361	NaN	0.000000	0.001589	0.001638	28.0834	0.088729	0.002123	41.7847	162.376	-163.206	0.027935	0.337545	-0.765568	-0.766867	-0.034361	41.7847	-0.764951	-1.501939E+10	2.287798E-12	NaN
1034	1.000000	0.380864	7.37516e+06	-51839.1	1055.82	-29750.8	0.000000	0.000000	6.380886	-0.055821	NaN	0.000000	0.001573	0.001626	28.0821	0.102749	0.002082	49.3595	-145.114	14.7266	-0.049598	0.379501	-0.723548	-0.724911	-0.055821	49.3595	-0.722700	-3.992963E+9	1.397973E-11	NaN
1034	1.000000	0.422887	7.37516e+06	-51839.1	1055.82	-29750.8	0.000000	0.000000	6.422910	-0.039481	NaN	0.000000	0.001560	0.001628	28.082	0.093879	0.002122	44.244	-45.1866	-165.76	-0.031845	0.421599	-0.681525	-0.682814	-0.039481	44.244	-0.680856	-1.071306E+9	3.685343E-11	NaN
1034	1.000000	0.464890	7.37516e+06	-51839.1	1055.82	-29750.8	0.000000	0.000000	6.464913	-0.046065	NaN	0.000000	0.001555	0.001561	28.0822	0.097552	0.002059	47.3701	144.754	13.6553	-0.119701	0.463548	-0.639522	-0.640864	-0.046065	47.3701	-0.638792	-2.842633E+8	1.620507E-10	NaN
1034	1.000000	0.506929	7.37516e+06	-51839.1	1055.82	-29750.8	0.000000	0.000000	6.506953	-0.024665	NaN	0.000000	0.001588	0.001588	28.0821	0.051972	0.001973	26.3355	-91.2907	-160.152	-0.068548	0.505622	-0.597483	-0.598790	-0.024665	26.3355	-0.596781	-7.518204E+7	3.280734E-10	NaN
1034	1.000000	0.548942	7.37516e+06	-51839.1	1055.82	-29750.8	0.000000	0.000000	6.548964	-0.068527	NaN	0.000000	0.001554	0.001637	28.0832	0.060306	0.002031	29.6885	-139.681	15.3146	-0.051037	0.547616	-0.555470	-0.556796	-0.068527	29.6885	-0.553739	-1.913097E+7	3.581973E-9	NaN
1034	1.000000	0.590974	7.37516e+06	-51839.1	1055.82	-29750.8	0.000000	0.000000	6.590996	-0.069765	NaN	0.000000	0.001590	0.001604	28.0831	0.146033	0.002106	69.3288	49.4562	-165.052	-0.057580	0.589647	-0.513438	-0.514765	-0.069765	69.3288	-0.512684	-5.14975e+06	1.354720E-8	NaN
1034	1.000000	0.632958	7.37516e+06	-51839.1	1055.82	-29750.8	0.000000	0.000000	6.632985	0.063638	NaN	0.000000	0.001560	0.001568	28.0829	0.056832	0.002019	28.1477	-136.667	13.4828	0.031172	0.631654	-0.471455	-0.472758	0.063638	28.1477	-0.473150	-1.44403e+06	-4.406981E-8	NaN
1034	1.000000	0.674974	7.37516e+06	-51839.1	1055.82	-29750.9	0.000000	0.000000	6.674999	-0.003454	NaN	0.000000	0.001588	0.001565	28.0823	0.112636	0.001910	58.9769	-29.1603	-164.366	0.011147	0.673675	-0.429438	-0.430737	-0.003454	58.9769	-0.429394	-349532	9.882365E-9	NaN
1034	1.000000	0.717011	7.37517e+06	-51839.1	1055.82	-29750.9	0.000000	0.000000	6.717035	-0.020484	NaN	0.000000	0.001577	0.001579	28.0821	0.062744	0.002027	30.959	36.6416	12.727	-0.011147	0.715617	-0.387401	-0.388795	-0.020484	30.959	-0.386905	-86870.3	2.357992E-7	NaN
1034	1.000000	0.759002	7.37517e+06	-51839.1	1055.82	-29750.9	0.000000	0.000000	6.759027	0.000716	NaN	0.000000	0.001557	0.001607	28.082	0.006433	0.002090	3.078427	-107.912	-164.624	-0.069180	0.757706	-0.345410	-0.346706	0.000716	3.078427	-0.345585	-22022.2	-3.252202E-8	NaN
1034	1.000000	0.801026	7.37517e+06	-51839.1	1055.82	-29750.9	0.000000	0.000000	6.801049	-0.043486	NaN	0.000000	0.001586	0.001586	28.0832	0.019111	0.002018	9.468266	72.7421	15.3011	-0.018524	0.799635	-0.303386	-0.304777	-0.043486	9.468266	-0.299941	-4696.36	9.259529E-6	NaN
1034	1.000000	0.843059	7.37517e+06	-51839.1	1055.82	-29750.9	0.000000	0.000000	6.843080	-0.090668	NaN	0.000000	0.001566	0.001595	28.0832	0.007390	0.002064	3.579668	-18.4311	-164.403	-0.103227	0.841744	-0.261353	-0.262668	-0.090668	3.579668	-0.242357	-625.638	0.000145	NaN
1034	1.000000	0.885082	7.37517e+06	-51839.1	1055.82	-29750.9	0.000000	0.000000	6.885107	0.003356	NaN	0.000000	0.001526	0.001574	28.0833	0.077428	0.001977	39.1619	-117.219	13.3489	-0.012335	0.883689	-0.219330	-0.220723	0.003356	39.1619	-0.219395	-271.643	-1.235448E-5	NaN
1034	1.000000	0.927075	7.37517e+06	-51839.1	1055.82	-29750.9	0.000000	0.000000	6.927102	0.040957	NaN	0.000000	0.001550	0.001560	28.0824	0.042511	0.001953	21.7713	91.0504	-169.022	0.003876	0.925703	-0.177337	-0.178710	0.040957	21.7713	-0.178748	-58.095	-0.000705	NaN
1034	1.000000	0.969088	7.37517e+06	-51839.1	1055.82	-29750.9	0.000000	0.000000	6.969112	-0.036932	NaN	0.000000	0.001577	0.001579	28.0821	0.081629	0.001975	41.323	103.075	16.1744	-0.065595	0.967724	-0.135324	-0.136688	-0.036932	41.323	-0.134653	-9.368502	0.003942	NaN
1034	1.000000	1.011101	7.37517e+06	-51839.1	1055.82	-29750.9	0.000000	0.000000	7.011121	-0.097958	NaN	0.000000	0.001579	0.001544	28.0827	0.018246	0.001917	9.518488	-150.635	-164.687	-0.045421	1.009813	-0.093312	-0.094599	-0.097958	9.518488	-0.085593	-0.849195	0.115354	NaN
1034	1.000000	1.053143	7.37517e+06	-51839.1	1055.82	-29750.9	0.000000	0.000000	7.053167	-0.010535	NaN	0.000000	0.001578	0.001572	28.0823	0.053658	0.002067	25.9619	124.402	18.5127	0.008820	1.051817	-0.051269	-0.052595	-0.010535	25.9619	-0.050965	-0.097582	0.107961	NaN
1034	1.000000	1.095174	7.37517e+06	-51839.1	1055.82	-29750.9	0.000000	0.000000	7.095198	-0.008575	NaN	0.000000	0.001622	0.001537	28.083	0.072616	0.001904	38.146	-25.7209	-164.816	-0.036476	1.093829	-0.009239	-0.010583	-0.008575	38.146	-0.009070	-0.005853	1.464925	NaN
1034	2.000000	1.121211	7.37517e+06	-51839.1	1055.82	-29750.9	0.000000	0.000000	7.121886	15.8166	NaN	0.000000	0.001598	0.001618	28.0833	13.8514	0.001835	7549.56	5.340886	5.699560	14.8457	1.120871	0.016799	0.016458	15.8166	7549.56	0.015228	0.015590	1014.51	55241.7
1034	2.000000	1.131703	7.37517e+06	-51839.1	1055.82	-29750.9	0.000000	0.000000	7.133316	38.639	NaN	0.000000	0.001562	0.001564	28.0834	24.2477	0.001663	14580.2	1.199026	-174.588	38.441	1.131371	0.027290	0.026959	38.639	14580.2	0.025303	0.031569	1223.96	74973.3
1034	2.000000	1.142130	7.37517e+06	-51839.1	1055.82	-29750.9	0.000000	0.000000	7.145113	71.9273	NaN	0.000000	0.001592	0.001580	28.0822	35.8662	0.001830	19602.6	1.890587	1.981247	69.9358	1.141814	0.037718	0.037402	71.9273	19602.6	0.034966	0.051666	1392.15	78792.1
1034	2.000000	1.152640	7.37517e+06	-51839.1	1055.82	-29750.9	0.000000	0.000000	7.157439	116.089	NaN	0.000000	0.001616	0.001614	28.0821	45.9486	0.001813	25337.5	9.429269	173.483	115.754	1.152188	0.048228	0.047776	116.089	25337.5	0.044791	0.076997	1507.72	83426
1034	2.000000	1.163120	7.37517e+06	-51839.1	1055.82	-29750.9	0.000000	0.000000	7.169987	166.396	NaN	0.000000	0.001621	0.001622	28.0819	55.3731	0.001867	29659.8	4.445025	-4.647279	164.794	1.162728	0.058707	0.058316	166.396	29659.8	0.054500	0.106827	1557.61	82908.8
1034	2.000000	1.173615	7.37517e+06	-51839.1	1055.82	-29750.9	0.000000	0.000000	7.182953	226.452	NaN	0.000000	0.001634	0.001632	28.0832	67.4506	0.001910	35323	7.063669	171.791	225.552	1.173274	0.069203	0.068861	226.452	35323	0.064395	0.142037	1594.32	85631
1034	2.000000	1.184078	7.37517e+06	-51839.1	1055.82	-29750.9	0.000000	0.000000	7.196421	299.529	NaN	0.000000	0.001642	0.001661	28.0829	76.8637	0.001843	41705.4	4.850456	-7.740357	296.476	1.183806	0.079665	0.079394	299.529	41705.4	0.074279	0.181928	1646.41	89333.6
1034	2.000000	1.194577	7.37517e+06	-51839.1	1055.82	-29750.9	0.000000	0.000000	7.210110	377.112	NaN	0.000000	0.001635	0.001637	28.0832	86.875	0.001913	45411.3	2.883505	173.133	376.136	1.194309	0.090164	0.089897	377.112	45411.3	0.083936	0.225353	1673.43	87398.8
1034	2.000000	1.205034	7.37517e+06	-51839.1	1055.82	-29750.9	0.000000	0.000000	7.224434	471.124	NaN	0.000000	0.001604	0.001704	28.0819	96.7216	0.001740	55586.4	2.917418	-8.107926	465.198	1.204640	0.100621	0.100228	471.124	55586.4	0.094265	0.276571	1703.44	96569.1
1034	2.000000	1.214501	7.37517e+06	-51839.1	1055.82	-29750.9	0.000000	0.000000	7.237228	552.019	NaN	0.000000	0.001566	0.001693	28.0823	106.976	0.001839	58185.3	5.882767	169.122	547.567	1.214130	0.110089	0.109718	552.019	58185.3	0.102974	0.323546	1706.15	93458.4