File: remote_trans/data/nanoindenter/0828-1/data/Data_2025-08-06,11h17m57s/2025-07-22_16-23-58_1_615.txt
2025-07-22, 16:23:58, 1
Index	Phase	Displacement	Time	Pos X	Pos Y	Pos Z	Rot A	Rot B	Piezo Z	Force A	Force B	Gripper	Voltage A	Voltage B	Temperature	Amplitude force	Amplitude pos	Stiffness	Phase shift	Phase excitation	Force A raw	Displacement raw	HMax	HMax raw	Real Force	Real Stiffness	Contact Depth	Area	Hardness	Reduced Mod.
[#]	[#]	[um]	[s]	[um]	[um]	[um]	[m°]	[m°]	[um]	[uN]	[uN]	[V]	[V]	[V]	[°C]	[uN]	[um]	[N/m]	[°]	[°]	[uN]	[um]	[um]	[um]	[uN]	[N/m]	[um]	[um^2]	[MPa]	[MPa]
615	1.000000	0.002353	7.37107e+06	-46339.1	1005.82	-29769.4	0.000000	0.000000	6.002812	-0.009720	NaN	0.000000	0.001472	0.001677	28.083	0.019782	0.000848	23.3328	149.648	-163.694	-0.107092	0.001089	-1.142208	-1.143471	-0.009720	23.3328	-1.141895	-1.828734E+15	5.315237E-18	NaN
615	1.000000	0.044308	7.37107e+06	-46339.1	1005.82	-29769.4	0.000000	0.000000	6.044768	-0.006645	NaN	0.000000	0.001520	0.001692	28.0823	0.077640	0.002036	38.137	-152.694	15.7354	0.019827	0.042973	-1.100252	-1.101587	-0.006645	38.137	-1.100121	-5.031449E+14	1.320695E-17	NaN
615	1.000000	0.086293	7.37107e+06	-46339.1	1005.82	-29769.4	0.000000	0.000000	6.086750	-0.054742	NaN	0.000000	0.001547	0.001674	28.0825	0.022203	0.001957	11.3439	79.8295	-163.566	-0.034490	0.084978	-1.058267	-1.059582	-0.054742	11.3439	-1.054648	-1.232787E+14	4.440508E-16	NaN
615	1.000000	0.128300	7.37107e+06	-46339.1	1005.82	-29769.4	0.000000	0.000000	6.128760	0.015408	NaN	0.000000	0.001489	0.001678	28.0813	0.070606	0.002038	34.6432	60.1983	12.1933	0.041667	0.126981	-1.016260	-1.017579	0.015408	34.6432	-1.016593	-3.794156E+13	-4.061017E-16	NaN
615	1.000000	0.170319	7.37107e+06	-46339.1	1005.82	-29769.4	0.000000	0.000000	6.170777	-0.043577	NaN	0.000000	0.001568	0.001672	28.0811	0.026953	0.001950	13.8248	30.1447	-165.477	-0.021891	0.169043	-0.974241	-0.975517	-0.043577	13.8248	-0.971877	-9.483280E+12	4.595178E-15	NaN
615	1.000000	0.212369	7.37107e+06	-46339.1	1005.82	-29769.4	0.000000	0.000000	6.212830	0.034307	NaN	0.000000	0.001546	0.001660	28.0812	0.066941	0.001963	34.101	-85.7132	12.7481	0.080574	0.210956	-0.932191	-0.933604	0.034307	34.101	-0.932946	-2.831062E+12	-1.211799E-14	NaN
615	1.000000	0.254363	7.37107e+06	-46339.1	1005.82	-29769.4	0.000000	0.000000	6.254823	0.030963	NaN	0.000000	0.001546	0.001689	28.0823	0.018930	0.001884	10.0484	-85.4766	-167.135	0.033275	0.253106	-0.890198	-0.891454	0.030963	10.0484	-0.892509	-8.050524E+11	-3.846090E-14	NaN
615	1.000000	0.296404	7.37107e+06	-46339.1	1005.82	-29769.4	0.000000	0.000000	6.296865	0.036005	NaN	0.000000	0.001536	0.001664	28.0826	0.048058	0.002022	23.7641	-94.7021	13.8746	-0.007891	0.294991	-0.848156	-0.849570	0.036005	23.7641	-0.849293	-2.094870E+11	-1.718720E-13	NaN
615	1.000000	0.338402	7.37107e+06	-46339.1	1005.82	-29769.4	0.000000	0.000000	6.338863	0.023813	NaN	0.000000	0.001510	0.001690	28.0825	0.064185	0.001967	32.6267	122.098	-165.491	-0.099498	0.337063	-0.806158	-0.807497	0.023813	32.6267	-0.806705	-5.544577E+10	-4.294807E-13	NaN
615	1.000000	0.380444	7.37107e+06	-46339.1	1005.82	-29769.4	0.000000	0.000000	6.380902	-0.061756	NaN	0.000000	0.001507	0.001682	28.0823	0.046730	0.001890	24.7288	-12.5621	15.6476	0.005797	0.379064	-0.764116	-0.765496	-0.061756	24.7288	-0.762243	-1.379782E+10	4.475779E-12	NaN
615	1.000000	0.422453	7.37107e+06	-46339.1	1005.82	-29769.4	0.000000	0.000000	6.422914	0.013559	NaN	0.000000	0.001516	0.001666	28.0812	0.037635	0.001945	19.3513	106.174	-163.061	0.064504	0.421109	-0.722107	-0.723451	0.013559	19.3513	-0.722632	-3.984433E+9	-3.403046E-12	NaN
615	1.000000	0.464442	7.37107e+06	-46339.1	1005.82	-29769.4	0.000000	0.000000	6.464902	0.029568	NaN	0.000000	0.001526	0.001686	28.0812	0.111953	0.002053	54.5436	-3.863103	15.6846	-0.013192	0.463168	-0.680119	-0.681392	0.029568	54.5436	-0.680525	-1.060197E+9	-2.788905E-11	NaN
615	1.000000	0.506501	7.37107e+06	-46339.1	1005.82	-29769.4	0.000000	0.000000	6.506961	0.008497	NaN	0.000000	0.001524	0.001667	28.0812	0.134080	0.001996	67.1759	-75.0851	-165.688	-0.013876	0.505190	-0.638059	-0.639370	0.008497	67.1759	-0.638154	-2.785866E+8	-3.050109E-11	NaN
615	1.000000	0.548493	7.37107e+06	-46339.1	1005.82	-29769.4	0.000000	0.000000	6.548953	0.006315	NaN	0.000000	0.001580	0.001688	28.0824	0.054072	0.001937	27.9189	-59.4339	13.5765	-0.074667	0.547159	-0.596067	-0.597401	0.006315	27.9189	-0.596237	-7.389569E+7	-8.545758E-11	NaN
615	1.000000	0.590511	7.37107e+06	-46339.1	1005.82	-29769.4	0.000000	0.000000	6.590972	0.024026	NaN	0.000000	0.001569	0.001682	28.0823	0.127152	0.001961	64.8524	-175.891	-162.548	0.080660	0.589182	-0.554049	-0.555378	0.024026	64.8524	-0.554327	-1.949263E+7	-1.232590E-9	NaN
615	1.000000	0.632527	7.37107e+06	-46339.1	1005.82	-29769.4	0.000000	0.000000	6.632990	0.089730	NaN	0.000000	0.001561	0.001645	28.0824	0.047676	0.001998	23.86	-53.5017	12.6708	0.059947	0.631219	-0.512033	-0.513341	0.089730	23.86	-0.514854	-5.52072e+06	-1.625336E-8	NaN
615	1.000000	0.674536	7.37107e+06	-46339.1	1005.82	-29769.4	0.000000	0.000000	6.674996	0.006628	NaN	0.000000	0.001520	0.001635	28.0812	0.024084	0.001907	12.6281	-148.899	-166.804	0.024045	0.673238	-0.470024	-0.471322	0.006628	12.6281	-0.470418	-1.32211e+06	-5.013155E-9	NaN
615	1.000000	0.716571	7.37107e+06	-46339.1	1005.82	-29769.4	0.000000	0.000000	6.717032	0.019444	NaN	0.000000	0.001523	0.001697	28.0812	0.041319	0.002008	20.5772	114.005	11.4941	0.032355	0.715263	-0.427989	-0.429297	0.019444	20.5772	-0.428698	-341690	-5.690596E-8	NaN
615	1.000000	0.758575	7.37107e+06	-46339.1	1005.82	-29769.4	0.000000	0.000000	6.759035	0.017163	NaN	0.000000	0.001604	0.001686	28.0813	0.108633	0.002089	52.0087	165.733	-169.597	-0.029551	0.757270	-0.385985	-0.387290	0.017163	52.0087	-0.386233	-84965.9	-2.020026E-7	NaN
615	1.000000	0.800591	7.37107e+06	-46339.1	1005.82	-29769.4	0.000000	0.000000	6.801050	-0.006763	NaN	0.000000	0.001500	0.001679	28.0827	0.175209	0.002059	85.1049	175.884	13.4761	0.039102	0.799267	-0.343969	-0.345293	-0.006763	85.1049	-0.343910	-20820.7	3.248446E-7	NaN
615	1.000000	0.842625	7.37107e+06	-46339.1	1005.82	-29769.4	0.000000	0.000000	6.843081	-0.098831	NaN	0.000000	0.001623	0.001646	28.0827	0.123219	0.001992	61.8576	-137.989	-168.621	-0.050816	0.841322	-0.301935	-0.303238	-0.098831	61.8576	-0.300737	-4826.15	2.047832E-5	NaN
615	1.000000	0.884666	7.37107e+06	-46339.1	1005.82	-29769.4	0.000000	0.000000	6.885127	0.031115	NaN	0.000000	0.001594	0.001692	28.0827	0.029733	0.002050	14.5035	-175.832	14.7553	0.020597	0.883220	-0.259894	-0.261340	0.031115	14.5035	-0.261503	-1235.78	-2.517864E-5	NaN
615	1.000000	0.926633	7.37107e+06	-46339.1	1005.82	-29769.4	0.000000	0.000000	6.927093	0.005275	NaN	0.000000	0.001499	0.001680	28.0827	0.073209	0.001967	37.2264	86.5475	-164.915	0.041104	0.925357	-0.217927	-0.219203	0.005275	37.2264	-0.218033	-258.348	-2.041741E-5	NaN
615	1.000000	0.968666	7.37107e+06	-46339.1	1005.82	-29769.4	0.000000	0.000000	6.969125	-0.020174	NaN	0.000000	0.001522	0.001684	28.0812	0.028632	0.001924	14.8843	-52.7133	13.3547	0.009382	0.967338	-0.175894	-0.177222	-0.020174	14.8843	-0.174877	-49.8738	0.000405	NaN
615	1.000000	1.010696	7.37107e+06	-46339.1	1005.82	-29769.4	0.000000	0.000000	7.011153	-0.063970	NaN	0.000000	0.001466	0.001681	28.0812	0.094911	0.002014	47.1318	-132.692	-167.875	-0.074871	1.009340	-0.133864	-0.135220	-0.063970	47.1318	-0.132846	-8.649912	0.007395	NaN
615	1.000000	1.052705	7.37107e+06	-46339.1	1005.82	-29769.4	0.000000	0.000000	7.053160	-0.111739	NaN	0.000000	0.001493	0.001727	28.0812	0.036975	0.002019	18.3164	-164.566	13.57	-0.069613	1.051392	-0.091855	-0.093168	-0.111739	18.3164	-0.087280	-0.932084	0.119881	NaN
615	1.000000	1.094718	7.37107e+06	-46339.1	1005.82	-29769.4	0.000000	0.000000	7.095178	0.009136	NaN	0.000000	0.001573	0.001681	28.0829	0.021196	0.001888	11.2254	-51.9504	-162.241	0.006411	1.093392	-0.049842	-0.051169	0.009136	11.2254	-0.050452	-0.094168	-0.097014	NaN
615	1.000000	1.136782	7.37107e+06	-46339.1	1005.82	-29769.4	0.000000	0.000000	7.137242	0.008841	NaN	0.000000	0.001561	0.001715	28.0828	0.033804	0.002085	16.2147	8.816912	13.2548	-0.038976	1.135380	-0.007778	-0.009180	0.008841	16.2147	-0.008187	-0.005341	-1.655136	NaN
615	2.000000	1.158322	7.37107e+06	-46339.1	1005.82	-29769.4	0.000000	0.000000	7.159551	18.7099	NaN	0.000000	0.001534	0.001671	28.0826	15.8958	0.001697	9367.94	8.062013	-177.428	18.6164	1.157981	0.013762	0.013421	18.7099	9367.94	0.012264	0.011808	1584.49	78763.6
615	2.000000	1.168773	7.37107e+06	-46339.1	1005.82	-29769.4	0.000000	0.000000	7.171022	43.5341	NaN	0.000000	0.001594	0.001696	28.0813	26.1406	0.001697	15403.3	5.470027	0.315907	42.0455	1.168448	0.024213	0.023888	43.5341	15403.3	0.022093	0.025938	1678.36	87380.3
615	2.000000	1.179249	7.37107e+06	-46339.1	1005.82	-29769.4	0.000000	0.000000	7.182908	77.8395	NaN	0.000000	0.001495	0.001682	28.0813	35.5578	0.001732	20527.8	4.594238	177.837	75.924	1.178948	0.034689	0.034388	77.8395	20527.8	0.031845	0.044654	1743.17	88753.8
615	2.000000	1.189670	7.37107e+06	-46339.1	1005.82	-29769.4	0.000000	0.000000	7.195295	125.671	NaN	0.000000	0.001548	0.001694	28.0814	45.5649	0.001675	27198.5	5.230317	-4.784443	119.573	1.189331	0.045109	0.044771	125.671	27198.5	0.041644	0.068346	1838.74	95051.9
615	2.000000	1.200189	7.37107e+06	-46339.1	1005.82	-29769.4	0.000000	0.000000	7.207864	175.512	NaN	0.000000	0.001507	0.001752	28.0826	57.1979	0.001950	29328.8	4.123508	176.23	173.257	1.199884	0.055629	0.055324	175.512	29328.8	0.051140	0.095971	1828.81	86496.5
615	2.000000	1.210726	7.37107e+06	-46339.1	1005.82	-29769.4	0.000000	0.000000	7.221047	239.895	NaN	0.000000	0.001511	0.001680	28.0828	67.3152	0.001830	36784.3	6.763384	-8.644209	238.049	1.210414	0.066165	0.065854	239.895	36784.3	0.061274	0.130417	1839.44	93061.2
615	2.000000	1.221042	7.37107e+06	-46339.1	1005.82	-29769.4	0.000000	0.000000	7.233867	300.776	NaN	0.000000	0.001517	0.001672	28.0828	75.57	0.001833	41227	2.319316	175.418	292.899	1.220924	0.076482	0.076364	300.776	41227	0.071010	0.168222	1787.97	91836.1
615	2.000000	1.231678	7.37107e+06	-46339.1	1005.82	-29769.4	0.000000	0.000000	7.247710	378.803	NaN	0.000000	0.001526	0.001637	28.0827	86.0143	0.001823	47175	3.925976	-7.444235	375.133	1.231434	0.087118	0.086873	378.803	47175	0.081095	0.212128	1785.73	93580.6
615	2.000000	1.242129	7.37107e+06	-46339.1	1005.82	-29769.4	0.000000	0.000000	7.261746	465.987	NaN	0.000000	0.001548	0.001689	28.0817	94.3833	0.001716	55002.5	5.561249	169.789	464.667	1.241837	0.097569	0.097276	465.987	55002.5	0.091215	0.260940	1785.8	98375.1
615	2.000000	1.250186	7.37107e+06	-46339.1	1005.82	-29769.4	0.000000	0.000000	7.272668	535.702	NaN	0.000000	0.001588	0.001678	28.0816	103.142	0.001771	58253.4	9.482010	165.48	534.21	1.249811	0.105626	0.105251	535.702	58253.4	0.098729	0.300219	1784.37	97134.9