File: remote_trans/data/nanoindenter/0828-1/data/Data_2025-08-06,11h17m57s/2025-07-22_16-23-58_1_771.txt
2025-07-22, 16:23:58, 1
Index	Phase	Displacement	Time	Pos X	Pos Y	Pos Z	Rot A	Rot B	Piezo Z	Force A	Force B	Gripper	Voltage A	Voltage B	Temperature	Amplitude force	Amplitude pos	Stiffness	Phase shift	Phase excitation	Force A raw	Displacement raw	HMax	HMax raw	Real Force	Real Stiffness	Contact Depth	Area	Hardness	Reduced Mod.
[#]	[#]	[um]	[s]	[um]	[um]	[um]	[m°]	[m°]	[um]	[uN]	[uN]	[V]	[V]	[V]	[°C]	[uN]	[um]	[N/m]	[°]	[°]	[uN]	[um]	[um]	[um]	[uN]	[N/m]	[um]	[um^2]	[MPa]	[MPa]
771	1.000000	0.003176	7.3726e+06	-38689.1	1055.82	-29796.5	0.000000	0.000000	6.002755	0.004773	NaN	0.000000	0.001734	0.001761	28.0815	0.139966	0.000977	143.252	-13.0495	-167.533	-0.073021	0.001961	-1.058642	-1.059857	0.004773	143.252	-1.058667	-1.396060E+14	-3.418745E-17	NaN
771	1.000000	0.043157	7.3726e+06	-38689.1	1055.82	-29796.6	0.000000	0.000000	6.042737	0.020472	NaN	0.000000	0.001740	0.001734	28.082	0.051595	0.001985	25.9928	178.085	-166.87	0.017212	0.041835	-1.018660	-1.019982	0.020472	25.9928	-1.019251	-4.119788E+13	-4.969217E-16	NaN
771	1.000000	0.083196	7.3726e+06	-38689.1	1055.82	-29796.6	0.000000	0.000000	6.082775	-0.004818	NaN	0.000000	0.001732	0.001741	28.0816	0.054179	0.001906	28.4274	-172.121	-167.87	0.022048	0.081914	-0.978621	-0.979903	-0.004818	28.4274	-0.978494	-1.164455E+13	4.137373E-16	NaN
771	1.000000	0.123200	7.3726e+06	-38689.1	1055.82	-29796.6	0.000000	0.000000	6.122776	-0.063256	NaN	0.000000	0.001727	0.001711	28.0818	0.059198	0.001996	29.6634	47.754	-165.082	0.047391	0.121934	-0.938618	-0.939884	-0.063256	29.6634	-0.937018	-3.212983E+12	1.968775E-14	NaN
771	1.000000	0.163189	7.3726e+06	-38689.1	1055.82	-29796.6	0.000000	0.000000	6.162769	0.035484	NaN	0.000000	0.001687	0.001737	28.0831	0.118022	0.002166	54.4863	160.237	-165.637	0.011691	0.161901	-0.898629	-0.899916	0.035484	54.4863	-0.899117	-9.888639E+11	-3.588408E-14	NaN
771	1.000000	0.203196	7.3726e+06	-38689.1	1055.82	-29796.6	0.000000	0.000000	6.202774	-0.006644	NaN	0.000000	0.001745	0.001724	28.0831	0.155703	0.002022	76.9898	113.874	-166.976	0.022252	0.202004	-0.858621	-0.859814	-0.006644	76.9898	-0.858557	-2.796305E+11	2.375854E-14	NaN
771	1.000000	0.243242	7.3726e+06	-38689.1	1055.82	-29796.6	0.000000	0.000000	6.242821	-0.005347	NaN	0.000000	0.001742	0.001743	28.0832	0.045810	0.002039	22.4648	-38.0652	-165.603	-0.082289	0.241900	-0.818575	-0.819918	-0.005347	22.4648	-0.818397	-7.988544E+10	6.693032E-14	NaN
771	1.000000	0.283258	7.3726e+06	-38689.1	1055.82	-29796.6	0.000000	0.000000	6.282837	0.002019	NaN	0.000000	0.001728	0.001749	28.0816	0.116434	0.001975	58.9543	-78.126	-168.787	-0.004126	0.281969	-0.778559	-0.779848	0.002019	58.9543	-0.778585	-2.301449E+10	-8.771144E-14	NaN
771	1.000000	0.323291	7.3726e+06	-38689.1	1055.82	-29796.6	0.000000	0.000000	6.322870	0.007527	NaN	0.000000	0.001704	0.001718	28.0817	0.096067	0.002040	47.0962	-105.154	-166.205	0.046906	0.321982	-0.738527	-0.739835	0.007527	47.0962	-0.738646	-6.585965E+9	-1.142822E-12	NaN
771	1.000000	0.363316	7.3726e+06	-38689.1	1055.82	-29796.6	0.000000	0.000000	6.362896	0.036575	NaN	0.000000	0.001693	0.001720	28.082	0.068134	0.001947	34.9947	-137.69	-167.817	0.021841	0.362008	-0.698502	-0.699810	0.036575	34.9947	-0.699286	-1.913270E+9	-1.911666E-11	NaN
771	1.000000	0.403291	7.3726e+06	-38689.1	1055.82	-29796.6	0.000000	0.000000	6.402870	0.004433	NaN	0.000000	0.001656	0.001732	28.0831	0.080465	0.001978	40.6841	155.602	-164.984	-0.031666	0.402017	-0.658526	-0.659800	0.004433	40.6841	-0.658608	-5.313723E+8	-8.342352E-12	NaN
771	1.000000	0.443319	7.3726e+06	-38689.1	1055.82	-29796.6	0.000000	0.000000	6.442897	-0.023838	NaN	0.000000	0.001657	0.001718	28.083	0.079906	0.001978	40.3884	132.891	-167.685	0.034620	0.442023	-0.618498	-0.619794	-0.023838	40.3884	-0.618056	-1.475391E+8	1.615736E-10	NaN
771	1.000000	0.483337	7.3726e+06	-38689.1	1055.82	-29796.6	0.000000	0.000000	6.482915	-0.014613	NaN	0.000000	0.001686	0.001711	28.0832	0.035703	0.002051	17.4062	8.822006	-169.502	-0.046511	0.482054	-0.578480	-0.579763	-0.014613	17.4062	-0.577851	-4.121517E+7	3.545579E-10	NaN
771	1.000000	0.523362	7.3726e+06	-38689.1	1055.82	-29796.6	0.000000	0.000000	6.522941	0.020540	NaN	0.000000	0.001712	0.001711	28.0831	0.076822	0.001990	38.6083	107.677	-168.606	0.050484	0.522077	-0.538456	-0.539740	0.020540	38.6083	-0.538855	-1.189800E+7	-1.726326E-9	NaN
771	1.000000	0.563415	7.3726e+06	-38689.1	1055.82	-29796.6	0.000000	0.000000	6.562995	0.036380	NaN	0.000000	0.001735	0.001676	28.0818	0.074439	0.001839	40.4835	-160.079	-167.907	0.146082	0.562056	-0.498403	-0.499761	0.036380	40.4835	-0.499077	-3.32767e+06	-1.093249E-8	NaN
771	1.000000	0.603385	7.3726e+06	-38689.1	1055.82	-29796.6	0.000000	0.000000	6.602967	0.090591	NaN	0.000000	0.001719	0.001739	28.0816	0.091823	0.001934	47.4672	119.895	-163.951	0.131990	0.602111	-0.458433	-0.459706	0.090591	47.4672	-0.459864	-939955	-9.637762E-8	NaN
771	1.000000	0.643435	7.3726e+06	-38689.1	1055.82	-29796.6	0.000000	0.000000	6.643015	0.016079	NaN	0.000000	0.001727	0.001712	28.0817	0.018059	0.001928	9.364671	-1.777875	-164.208	0.025584	0.642076	-0.418382	-0.419742	0.016079	9.364671	-0.419670	-254527	-6.317221E-8	NaN
771	1.000000	0.683456	7.3726e+06	-38689.1	1055.82	-29796.6	0.000000	0.000000	6.683036	0.027372	NaN	0.000000	0.001674	0.001733	28.083	0.094082	0.001968	47.7993	-56.7129	-164.959	0.057691	0.682159	-0.378362	-0.379658	0.027372	47.7993	-0.378791	-66456.4	-4.118774E-7	NaN
771	1.000000	0.723428	7.3726e+06	-38689.1	1055.82	-29796.6	0.000000	0.000000	6.723007	0.007409	NaN	0.000000	0.001652	0.001750	28.0832	0.066857	0.001904	35.1121	1.608382	-168.029	-0.005305	0.722164	-0.338389	-0.339654	0.007409	35.1121	-0.338547	-17393	-4.259968E-7	NaN
771	1.000000	0.763482	7.3726e+06	-38689.1	1055.82	-29796.6	0.000000	0.000000	6.763063	0.057452	NaN	0.000000	0.001638	0.001741	28.0831	0.129735	0.002016	64.3515	38.4297	-166.405	0.025346	0.762181	-0.298335	-0.299636	0.057452	64.3515	-0.299005	-4547.99	-1.263234E-5	NaN
771	1.000000	0.803468	7.3726e+06	-38689.1	1055.82	-29796.6	0.000000	0.000000	6.803051	0.083658	NaN	0.000000	0.001664	0.001698	28.0833	0.040880	0.001919	21.3003	137.394	-164.288	0.085161	0.802160	-0.258349	-0.259657	0.083658	21.3003	-0.261295	-1226.73	-6.819600E-5	NaN
771	1.000000	0.843494	7.3726e+06	-38689.1	1055.82	-29796.6	0.000000	0.000000	6.843073	0.007918	NaN	0.000000	0.001674	0.001726	28.0821	0.095540	0.002085	45.815	49.127	-165.335	0.103332	0.842210	-0.218323	-0.219607	0.007918	45.815	-0.218453	-262.377	-3.017627E-5	NaN
771	1.000000	0.883523	7.3726e+06	-38689.1	1055.82	-29796.6	0.000000	0.000000	6.883104	0.050117	NaN	0.000000	0.001674	0.001778	28.0819	0.093444	0.001856	50.3593	-5.335196	-166.13	0.062504	0.882226	-0.178294	-0.179592	0.050117	50.3593	-0.179041	-58.7668	-0.000853	NaN
771	1.000000	0.923543	7.3726e+06	-38689.1	1055.82	-29796.6	0.000000	0.000000	6.923122	0.009170	NaN	0.000000	0.001705	0.001737	28.0817	0.077645	0.002001	38.7944	8.246117	-171.571	-0.035155	0.922172	-0.138275	-0.139645	0.009170	38.7944	-0.138452	-11.0617	-0.000829	NaN
771	1.000000	0.963571	7.3726e+06	-38689.1	1055.82	-29796.6	0.000000	0.000000	6.963146	-0.099208	NaN	0.000000	0.001756	0.001753	28.0832	0.082650	0.002030	40.7167	164.008	-167.687	-0.095567	0.962242	-0.098246	-0.099576	-0.099208	40.7167	-0.096419	-1.519207	0.065302	NaN
771	1.000000	1.003572	7.3726e+06	-38689.1	1055.82	-29796.6	0.000000	0.000000	7.003151	0.008495	NaN	0.000000	0.001669	0.001729	28.0829	0.069487	0.002023	34.3475	-144.129	-167.863	0.055119	1.002297	-0.058246	-0.059521	0.008495	34.3475	-0.058431	-0.162285	-0.052344	NaN
771	1.000000	1.043571	7.3726e+06	-38689.1	1055.82	-29796.6	0.000000	0.000000	7.043152	0.053238	NaN	0.000000	0.001642	0.001746	28.0829	0.063020	0.001937	32.5413	-32.7471	-166.286	0.049360	1.042266	-0.018247	-0.019552	0.053238	32.5413	-0.019474	-0.012179	-4.371258	NaN
771	2.000000	1.071174	7.3726e+06	-38689.1	1055.82	-29796.6	0.000000	0.000000	7.071304	13.4226	NaN	0.000000	0.001640	0.001727	28.0821	12.0411	0.001822	6607.71	7.872405	-172.02	13.8359	1.070912	0.009356	0.009095	13.4226	6607.71	0.007833	0.006871	1953.49	72830.2
771	2.000000	1.081129	7.3726e+06	-38689.1	1055.82	-29796.6	0.000000	0.000000	7.082113	34.2049	NaN	0.000000	0.001681	0.001728	28.0816	22.4276	0.001706	13148.9	7.891603	-179.728	33.287	1.080814	0.019311	0.018996	34.2049	13148.9	0.017360	0.018563	1842.66	88174.2
771	2.000000	1.091104	7.3726e+06	-38689.1	1055.82	-29796.6	0.000000	0.000000	7.093085	58.4631	NaN	0.000000	0.001725	0.001743	28.0822	30.5447	0.001641	18612.2	4.136207	-179.882	57.5489	1.090824	0.029286	0.029006	58.4631	18612.2	0.026931	0.034622	1688.63	91389.4
771	2.000000	1.101110	7.3726e+06	-38689.1	1055.82	-29796.6	0.000000	0.000000	7.104538	93.6694	NaN	0.000000	0.001664	0.001685	28.0817	42.165	0.001820	23163.7	8.117098	176.363	93.7692	1.100797	0.039293	0.038979	93.6694	23163.7	0.036260	0.054720	1711.8	90470.9
771	2.000000	1.111057	7.3726e+06	-38689.1	1055.82	-29796.6	0.000000	0.000000	7.116370	139.546	NaN	0.000000	0.001719	0.001706	28.083	51.571	0.001789	28829	6.081515	175.642	136.942	1.110747	0.049240	0.048929	139.546	28829	0.045609	0.079326	1759.13	93517.8
771	2.000000	1.121006	7.3726e+06	-38689.1	1055.82	-29796.6	0.000000	0.000000	7.128207	185.495	NaN	0.000000	0.001731	0.001665	28.0831	60.4164	0.001881	32118.7	3.944555	177.639	182.182	1.120795	0.059188	0.058978	185.495	32118.7	0.054857	0.108014	1717.32	89287.7
771	2.000000	1.131036	7.3726e+06	-38689.1	1055.82	-29796.6	0.000000	0.000000	7.140765	247.034	NaN	0.000000	0.001640	0.001702	28.0832	69.7067	0.001789	38968.3	7.278534	171.683	243.751	1.130765	0.069218	0.068947	247.034	38968.3	0.064464	0.142299	1736.03	94380.9
771	2.000000	1.141015	7.3726e+06	-38689.1	1055.82	-29796.6	0.000000	0.000000	7.153315	309.572	NaN	0.000000	0.001645	0.001709	28.0817	77.4267	0.001946	39785	3.057437	176.45	306.928	1.140655	0.079198	0.078838	309.572	39785	0.073362	0.178031	1738.87	86147.8
771	2.000000	1.150978	7.3726e+06	-38689.1	1055.82	-29796.6	0.000000	0.000000	7.166130	378.989	NaN	0.000000	0.001632	0.001661	28.0818	86.1062	0.001790	48112.2	3.642034	174.344	375.116	1.150705	0.089161	0.088887	378.989	48112.2	0.083253	0.222138	1706.1	93264.7
771	2.000000	1.160990	7.3726e+06	-38689.1	1055.82	-29796.6	0.000000	0.000000	7.179160	452.44	NaN	0.000000	0.001644	0.001635	28.0818	95.9398	0.001908	50295	4.672367	172.717	449.739	1.160800	0.099173	0.098983	452.44	50295	0.092426	0.267095	1693.93	88913
771	2.000000	1.165490	7.3726e+06	-38689.1	1055.82	-29796.6	0.000000	0.000000	7.185319	492.817	NaN	0.000000	0.001582	0.001704	28.0818	98.3265	0.001825	53862.9	6.903987	-9.775763	490.037	1.165095	0.103672	0.103278	492.817	53862.9	0.096810	0.289943	1699.71	91391.8