File: remote_trans/data/nanoindenter/0828-1/data/Data_2025-08-06,11h17m57s/2025-07-22_16-23-58_1_659.txt
2025-07-22, 16:23:58, 1
Index	Phase	Displacement	Time	Pos X	Pos Y	Pos Z	Rot A	Rot B	Piezo Z	Force A	Force B	Gripper	Voltage A	Voltage B	Temperature	Amplitude force	Amplitude pos	Stiffness	Phase shift	Phase excitation	Force A raw	Displacement raw	HMax	HMax raw	Real Force	Real Stiffness	Contact Depth	Area	Hardness	Reduced Mod.
[#]	[#]	[um]	[s]	[um]	[um]	[um]	[m°]	[m°]	[um]	[uN]	[uN]	[V]	[V]	[V]	[°C]	[uN]	[um]	[N/m]	[°]	[°]	[uN]	[um]	[um]	[um]	[uN]	[N/m]	[um]	[um^2]	[MPa]	[MPa]
659	1.000000	0.002928	7.3715e+06	-44139.1	1005.82	-29776.7	0.000000	0.000000	6.002787	0.040493	NaN	0.000000	0.001551	0.001712	28.0823	0.060407	0.001000	60.4107	53.5168	-167.302	0.138662	0.001696	-1.044009	-1.045241	0.040493	60.4107	-1.044511	-9.007963E+13	-4.495274E-16	NaN
659	1.000000	0.042913	7.3715e+06	-44139.1	1005.82	-29776.7	0.000000	0.000000	6.042771	0.015222	NaN	0.000000	0.001617	0.001703	28.0834	0.045239	0.001904	23.7623	-84.6119	-167.612	0.046325	0.041535	-1.004024	-1.005401	0.015222	23.7623	-1.004505	-2.608621E+13	-5.835420E-16	NaN
659	1.000000	0.082894	7.3715e+06	-44139.1	1005.82	-29776.7	0.000000	0.000000	6.082754	0.056419	NaN	0.000000	0.001591	0.001701	28.0831	0.070701	0.001925	36.7186	36.101	-168.25	0.102081	0.081575	-0.964042	-0.965362	0.056419	36.7186	-0.965195	-7.707234E+12	-7.320255E-15	NaN
659	1.000000	0.122918	7.3715e+06	-44139.1	1005.82	-29776.7	0.000000	0.000000	6.122777	0.051685	NaN	0.000000	0.001636	0.001708	28.0833	0.151155	0.001929	78.3601	15.9857	-168.208	0.006906	0.121642	-0.924019	-0.925295	0.051685	78.3601	-0.924514	-2.178440E+12	-2.372551E-14	NaN
659	1.000000	0.162912	7.3715e+06	-44139.1	1005.82	-29776.7	0.000000	0.000000	6.162767	-0.053415	NaN	0.000000	0.001606	0.001705	28.0827	0.031445	0.001988	15.8163	163.727	-170.88	-0.048191	0.161608	-0.884025	-0.885328	-0.053415	15.8163	-0.881492	-5.713271E+11	9.349315E-14	NaN
659	1.000000	0.202939	7.3715e+06	-44139.1	1005.82	-29776.7	0.000000	0.000000	6.202801	0.105419	NaN	0.000000	0.001574	0.001686	28.0823	0.061487	0.002026	30.3458	-112.26	-164.597	0.047751	0.201641	-0.843998	-0.845296	0.105419	30.3458	-0.846603	-1.926352E+11	-5.472484E-13	NaN
659	1.000000	0.242943	7.3715e+06	-44139.1	1005.82	-29776.7	0.000000	0.000000	6.242803	0.065282	NaN	0.000000	0.001572	0.001713	28.0819	0.054530	0.001916	28.456	-58.1095	-166.168	-0.005324	0.241680	-0.803994	-0.805257	0.065282	28.456	-0.805715	-5.375537E+10	-1.214426E-12	NaN
659	1.000000	0.282986	7.3715e+06	-44139.1	1005.82	-29776.7	0.000000	0.000000	6.282843	0.003310	NaN	0.000000	0.001575	0.001694	28.0817	0.055755	0.002171	25.6866	-80.3497	-170.011	-0.067208	0.281697	-0.763951	-0.765240	0.003310	25.6866	-0.764048	-1.460030E+10	-2.267185E-13	NaN
659	1.000000	0.322995	7.3715e+06	-44139.1	1005.82	-29776.7	0.000000	0.000000	6.322855	0.066030	NaN	0.000000	0.001584	0.001698	28.0832	0.087023	0.001933	45.0143	7.030660	-167.557	0.070686	0.321662	-0.723942	-0.725275	0.066030	45.0143	-0.725042	-4.297565E+9	-1.536455E-11	NaN
659	1.000000	0.363016	7.3715e+06	-44139.1	1005.82	-29776.7	0.000000	0.000000	6.362874	0.023661	NaN	0.000000	0.001586	0.001719	28.0831	0.003554	0.002022	1.757419	-18.8026	-171.231	0.048582	0.361747	-0.683921	-0.685189	0.023661	1.757419	-0.694018	-1.621160E+9	-1.459511E-11	NaN
659	1.000000	0.403023	7.3715e+06	-44139.1	1005.82	-29776.7	0.000000	0.000000	6.402883	0.064698	NaN	0.000000	0.001594	0.001665	28.0836	0.032556	0.001975	16.4884	156.802	-165.935	0.072437	0.401764	-0.643913	-0.645173	0.064698	16.4884	-0.646856	-3.667198E+8	-1.764227E-10	NaN
659	1.000000	0.443016	7.3715e+06	-44139.1	1005.82	-29776.7	0.000000	0.000000	6.442874	0.008931	NaN	0.000000	0.001597	0.001646	28.0824	0.055874	0.002097	26.6486	-141.698	-165.08	-0.008902	0.441775	-0.603921	-0.605162	0.008931	26.6486	-0.604172	-9.503981E+7	-9.397262E-11	NaN
659	1.000000	0.483079	7.3715e+06	-44139.1	1005.82	-29776.7	0.000000	0.000000	6.482939	0.048640	NaN	0.000000	0.001671	0.001644	28.0823	0.102651	0.002091	49.0903	65.5012	-167.261	0.163177	0.481743	-0.563858	-0.565194	0.048640	49.0903	-0.564601	-2.703984E+7	-1.798830E-9	NaN
659	1.000000	0.523084	7.3715e+06	-44139.1	1005.82	-29776.7	0.000000	0.000000	6.522940	-0.029542	NaN	0.000000	0.001617	0.001665	28.0822	0.014383	0.001952	7.369888	37.7953	-165.294	0.058585	0.521789	-0.523853	-0.525148	-0.029542	7.369888	-0.520847	-6.6892e+06	4.416312E-9	NaN
659	1.000000	0.563117	7.3715e+06	-44139.1	1005.82	-29776.7	0.000000	0.000000	6.562976	0.026168	NaN	0.000000	0.001542	0.001607	28.082	0.072836	0.002016	36.1348	21.7053	-167.328	0.042898	0.561805	-0.483820	-0.485131	0.026168	36.1348	-0.484363	-2.0729e+06	-1.262382E-8	NaN
659	1.000000	0.603109	7.3715e+06	-44139.1	1005.82	-29776.7	0.000000	0.000000	6.602969	0.046438	NaN	0.000000	0.001561	0.001665	28.0838	0.033710	0.002004	16.8218	-141.293	-166.147	-0.001291	0.601804	-0.443827	-0.445133	0.046438	16.8218	-0.445898	-597788	-7.768292E-8	NaN
659	1.000000	0.643116	7.3715e+06	-44139.1	1005.82	-29776.7	0.000000	0.000000	6.642974	0.029199	NaN	0.000000	0.001570	0.001676	28.0834	0.024992	0.002009	12.4392	-136.843	-167.219	0.080403	0.641805	-0.403821	-0.405132	0.029199	12.4392	-0.405581	-160520	-1.819052E-7	NaN
659	1.000000	0.683180	7.3715e+06	-44139.1	1005.82	-29776.7	0.000000	0.000000	6.683039	0.042656	NaN	0.000000	0.001584	0.001646	28.0834	0.089874	0.002054	43.7588	174.119	-164.19	0.082721	0.681841	-0.363757	-0.365095	0.042656	43.7588	-0.364488	-41367.9	-1.031142E-6	NaN
659	1.000000	0.723171	7.3715e+06	-44139.1	1005.82	-29776.7	0.000000	0.000000	6.723029	0.020760	NaN	0.000000	0.001541	0.001649	28.0821	0.100671	0.001934	52.062	-108.102	-166.288	0.060522	0.721869	-0.323766	-0.325067	0.020760	52.062	-0.324065	-10676	-1.944528E-6	NaN
659	1.000000	0.763183	7.3715e+06	-44139.1	1005.82	-29776.7	0.000000	0.000000	6.763037	-0.064776	NaN	0.000000	0.001588	0.001629	28.0819	0.075229	0.002006	37.507	-105.128	-166.947	-0.073352	0.761907	-0.283754	-0.285030	-0.064776	37.507	-0.282459	-2570.58	2.519886E-5	NaN
659	1.000000	0.803192	7.3715e+06	-44139.1	1005.82	-29776.7	0.000000	0.000000	6.803052	0.066452	NaN	0.000000	0.001625	0.001696	28.0822	0.062280	0.002107	29.5562	87.9416	-167.122	0.070605	0.801840	-0.243745	-0.245097	0.066452	29.5562	-0.245431	-698.466	-9.513926E-5	NaN
659	1.000000	0.843210	7.3715e+06	-44139.1	1005.82	-29776.7	0.000000	0.000000	6.843067	-0.012473	NaN	0.000000	0.001633	0.001676	28.0818	0.048073	0.002087	23.0305	154.451	-162.53	-0.020697	0.841909	-0.203727	-0.205027	-0.012473	23.0305	-0.203321	-149.326	8.352787E-5	NaN
659	1.000000	0.883244	7.3715e+06	-44139.1	1005.82	-29776.7	0.000000	0.000000	6.883104	0.071443	NaN	0.000000	0.001630	0.001699	28.0828	0.119345	0.001975	60.4169	43.998	-166.971	0.114545	0.881974	-0.163693	-0.164963	0.071443	60.4169	-0.164580	-33.0311	-0.002163	NaN
659	1.000000	0.923252	7.3715e+06	-44139.1	1005.82	-29776.7	0.000000	0.000000	6.923108	-0.013650	NaN	0.000000	0.001595	0.001697	28.0833	0.107829	0.001907	56.5534	-124.516	-165.359	0.055017	0.921942	-0.123685	-0.124995	-0.013650	56.5534	-0.123504	-5.679502	0.002403	NaN
659	1.000000	0.963250	7.3715e+06	-44139.1	1005.82	-29776.7	0.000000	0.000000	6.963107	-0.023334	NaN	0.000000	0.001621	0.001689	28.0834	0.009845	0.002107	4.671991	-12.8448	-164.316	0.009078	0.961974	-0.083686	-0.084963	-0.023334	4.671991	-0.079941	-0.616878	0.037825	NaN
659	1.000000	1.003265	7.3715e+06	-44139.1	1005.82	-29776.7	0.000000	0.000000	7.003126	0.084516	NaN	0.000000	0.001606	0.001665	28.0824	0.025562	0.001969	12.98	76.6967	-167.324	-0.016675	1.001995	-0.043671	-0.044942	0.084516	12.98	-0.048555	-0.082494	-1.024510	NaN
659	1.000000	1.043310	7.3715e+06	-44139.1	1005.82	-29776.7	0.000000	0.000000	7.043168	-0.003083	NaN	0.000000	0.001628	0.001706	28.0821	0.028629	0.002079	13.7717	-16.9705	-164.937	-0.019408	1.041955	-0.003626	-0.004981	-0.003083	13.7717	-0.003458	-0.002425	1.271128	NaN
659	2.000000	1.061875	7.3715e+06	-44139.1	1005.82	-29776.7	0.000000	0.000000	7.062437	17.1348	NaN	0.000000	0.001554	0.001682	28.0822	14.6639	0.001732	8467.19	6.513936	-176.103	16.8303	1.061581	0.014938	0.014644	17.1348	8467.19	0.013421	0.013237	1294.51	67239.6
659	2.000000	1.071819	7.3715e+06	-44139.1	1005.82	-29776.7	0.000000	0.000000	7.073298	39.4567	NaN	0.000000	0.001582	0.001705	28.0833	25.1038	0.001850	13566.8	5.880070	-179.28	38.3289	1.071501	0.024882	0.024565	39.4567	13566.8	0.022701	0.026965	1463.24	75482.8
659	2.000000	1.081758	7.3715e+06	-44139.1	1005.82	-29776.7	0.000000	0.000000	7.084480	69.6956	NaN	0.000000	0.001586	0.001736	28.0831	34.7497	0.001831	18975.6	3.129251	179.915	67.1058	1.081502	0.034821	0.034565	69.6956	18975.6	0.032066	0.045136	1544.14	81603.5
659	2.000000	1.091770	7.3715e+06	-44139.1	1005.82	-29776.7	0.000000	0.000000	7.096343	114.716	NaN	0.000000	0.001561	0.001795	28.0831	45.4582	0.001831	24826.3	7.669156	173.128	114.252	1.091450	0.044833	0.044513	114.716	24826.3	0.041368	0.067611	1696.7	87232.1
659	2.000000	1.101701	7.3715e+06	-44139.1	1005.82	-29776.7	0.000000	0.000000	7.108156	160.496	NaN	0.000000	0.001565	0.001718	28.0829	54.0266	0.001839	29379.2	2.928141	176.248	157.598	1.101451	0.054765	0.054514	160.496	29379.2	0.050667	0.094487	1698.61	87322.8
659	2.000000	1.111768	7.3715e+06	-44139.1	1005.82	-29776.7	0.000000	0.000000	7.120615	218.7	NaN	0.000000	0.001569	0.001722	28.0818	63.5435	0.001844	34460.7	3.991900	175.829	218.898	1.111313	0.064831	0.064376	218.7	34460.7	0.060072	0.126065	1734.82	88674.8
659	2.000000	1.121693	7.3715e+06	-44139.1	1005.82	-29776.7	0.000000	0.000000	7.133130	281.715	NaN	0.000000	0.001580	0.001697	28.082	73.0878	0.001741	41992.2	5.834475	170.292	279.376	1.121531	0.074756	0.074594	281.715	41992.2	0.069725	0.162969	1728.64	95036.2
659	2.000000	1.131661	7.3715e+06	-44139.1	1005.82	-29776.7	0.000000	0.000000	7.146574	366.27	NaN	0.000000	0.001582	0.001710	28.0822	81.5561	0.001836	44419.8	-0.599721	177.112	362.383	1.131314	0.084725	0.084378	366.27	44419.8	0.078540	0.200554	1826.3	90622.1
659	2.000000	1.141655	7.3715e+06	-44139.1	1005.82	-29776.7	0.000000	0.000000	7.159805	445.03	NaN	0.000000	0.001589	0.001704	28.0836	90.5927	0.001774	51079.9	2.557309	173.014	441.041	1.141366	0.094718	0.094429	445.03	51079.9	0.088184	0.245823	1810.37	94126.5
659	2.000000	1.151680	7.3715e+06	-44139.1	1005.82	-29776.7	0.000000	0.000000	7.173343	530.499	NaN	0.000000	0.001579	0.001758	28.0834	101.724	0.001885	53976.7	6.058909	169.4	528.46	1.151305	0.104743	0.104368	530.499	53976.7	0.097372	0.292936	1810.97	91115.7
659	2.000000	1.153106	7.3715e+06	-44139.1	1005.82	-29776.7	0.000000	0.000000	7.175277	542.86	NaN	0.000000	0.001587	0.001741	28.0835	102.213	0.001900	53809.8	5.005069	-9.787521	536.266	1.152741	0.106169	0.105804	542.86	53809.8	0.098602	0.299538	1812.33	89827.4