File: remote_trans/data/nanoindenter/0828-1/data/Data_2025-08-06,11h17m57s/2025-07-22_16-23-58_1_313.txt
2025-07-22, 16:23:58, 1
Index	Phase	Displacement	Time	Pos X	Pos Y	Pos Z	Rot A	Rot B	Piezo Z	Force A	Force B	Gripper	Voltage A	Voltage B	Temperature	Amplitude force	Amplitude pos	Stiffness	Phase shift	Phase excitation	Force A raw	Displacement raw	HMax	HMax raw	Real Force	Real Stiffness	Contact Depth	Area	Hardness	Reduced Mod.
[#]	[#]	[um]	[s]	[um]	[um]	[um]	[m°]	[m°]	[um]	[uN]	[uN]	[V]	[V]	[V]	[°C]	[uN]	[um]	[N/m]	[°]	[°]	[uN]	[um]	[um]	[um]	[uN]	[N/m]	[um]	[um^2]	[MPa]	[MPa]
313	1.000000	0.002626	7.36813e+06	-54289.1	955.819	-29744.3	0.000000	0.000000	6.002785	0.008250	NaN	0.000000	0.001625	0.001701	28.0803	0.067050	0.000923	72.6332	165.349	-165.433	-0.064397	0.001424	-0.963380	-0.964582	0.008250	72.6332	-0.963466	-7.304454E+12	-1.129495E-15	NaN
313	1.000000	0.040578	7.36813e+06	-54289.1	955.819	-29744.4	0.000000	0.000000	6.040735	-0.040281	NaN	0.000000	0.001661	0.001694	28.0801	0.073299	0.002149	34.1089	64.5982	12.8352	-0.135568	0.039220	-0.925428	-0.926786	-0.040281	34.1089	-0.924542	-2.180342E+12	1.847481E-14	NaN
313	1.000000	0.078601	7.36813e+06	-54289.1	955.818	-29744.4	0.000000	0.000000	6.078759	-0.004177	NaN	0.000000	0.001725	0.001684	28.0798	0.073795	0.001971	37.4434	-159.227	-167.608	0.027408	0.077286	-0.887405	-0.888720	-0.004177	37.4434	-0.887322	-6.850250E+11	6.097472E-15	NaN
313	1.000000	0.116618	7.36813e+06	-54289.1	955.818	-29744.4	0.000000	0.000000	6.116780	0.076621	NaN	0.000000	0.001684	0.001746	28.0785	0.076092	0.002011	37.8309	-139.474	13.6191	0.100654	0.115216	-0.849388	-0.850790	0.076621	37.8309	-0.850907	-2.203032E+11	-3.477960E-13	NaN
313	1.000000	0.154637	7.36813e+06	-54289.1	955.818	-29744.4	0.000000	0.000000	6.154797	0.035465	NaN	0.000000	0.001703	0.001744	28.0787	0.027378	0.002186	12.5218	-176.8	-165.873	0.008870	0.153329	-0.811369	-0.812677	0.035465	12.5218	-0.813493	-6.854244E+10	-5.174185E-13	NaN
313	1.000000	0.192657	7.36813e+06	-54289.1	955.819	-29744.4	0.000000	0.000000	6.192817	0.037996	NaN	0.000000	0.001672	0.001716	28.0787	0.007987	0.001953	4.088618	12.3024	16.2178	0.123194	0.191301	-0.773349	-0.774705	0.037996	4.088618	-0.780319	-2.429798E+10	-1.563767E-12	NaN
313	1.000000	0.230674	7.36813e+06	-54289.1	955.818	-29744.4	0.000000	0.000000	6.230835	0.059581	NaN	0.000000	0.001642	0.001656	28.0786	0.044223	0.002000	22.1063	35.564	-167.056	0.045012	0.229379	-0.735332	-0.736627	0.059581	22.1063	-0.737353	-6.324112E+9	-9.421306E-12	NaN
313	1.000000	0.268692	7.36813e+06	-54289.1	955.819	-29744.4	0.000000	0.000000	6.268849	-0.047133	NaN	0.000000	0.001614	0.001705	28.0795	0.049560	0.001957	25.3279	15.3396	10.4407	-0.030470	0.267366	-0.697314	-0.698640	-0.047133	25.3279	-0.695918	-1.721009E+9	2.738678E-11	NaN
313	1.000000	0.306707	7.36813e+06	-54289.1	955.817	-29744.4	0.000000	0.000000	6.306866	-0.011514	NaN	0.000000	0.001613	0.001707	28.0801	0.057297	0.001949	29.4039	135.635	-167.849	0.093767	0.305391	-0.659299	-0.660615	-0.011514	29.4039	-0.659005	-5.380685E+8	2.139817E-11	NaN
313	1.000000	0.344730	7.36813e+06	-54289.1	955.819	-29744.4	0.000000	0.000000	6.344890	0.046098	NaN	0.000000	0.001604	0.001706	28.0797	0.123852	0.001849	66.9766	153.572	12.339	0.043562	0.343417	-0.621276	-0.622589	0.046098	66.9766	-0.621792	-1.660612E+8	-2.775939E-10	NaN
313	1.000000	0.382737	7.36813e+06	-54289.1	955.818	-29744.4	0.000000	0.000000	6.382897	0.039318	NaN	0.000000	0.001591	0.001707	28.0797	0.100242	0.001966	50.9989	-13.88	-165.868	0.026496	0.381400	-0.583270	-0.584606	0.039318	50.9989	-0.583848	-4.986770E+7	-7.884375E-10	NaN
313	1.000000	0.420734	7.36813e+06	-54289.1	955.818	-29744.4	0.000000	0.000000	6.420891	-0.044948	NaN	0.000000	0.001612	0.001735	28.0784	0.085624	0.001957	43.7622	175.034	15.7972	-0.049995	0.419377	-0.545272	-0.546629	-0.044948	43.7622	-0.544501	-1.424847E+7	3.154609E-9	NaN
313	1.000000	0.458754	7.36813e+06	-54289.1	955.818	-29744.4	0.000000	0.000000	6.458911	-0.028057	NaN	0.000000	0.001573	0.001725	28.0785	0.070255	0.001942	36.1685	9.735374	-163.537	-0.099719	0.457485	-0.507252	-0.508521	-0.028057	36.1685	-0.506671	-4.24649e+06	6.607176E-9	NaN
313	1.000000	0.496766	7.36813e+06	-54289.1	955.819	-29744.4	0.000000	0.000000	6.496926	0.027364	NaN	0.000000	0.001613	0.001763	28.0787	0.047411	0.001888	25.1174	-87.1745	10.5779	-0.034036	0.495410	-0.469240	-0.470597	0.027364	25.1174	-0.470057	-1.3068e+06	-2.093950E-8	NaN
313	1.000000	0.534806	7.36813e+06	-54289.1	955.818	-29744.4	0.000000	0.000000	6.534965	0.002486	NaN	0.000000	0.001569	0.001738	28.0799	0.063397	0.001904	33.3051	64.3204	-165.506	-0.038306	0.533471	-0.431200	-0.432535	0.002486	33.3051	-0.431256	-371386	-6.694877E-9	NaN
313	1.000000	0.572805	7.36813e+06	-54289.1	955.819	-29744.4	0.000000	0.000000	6.572965	0.049969	NaN	0.000000	0.001616	0.001747	28.08	0.035666	0.001918	18.5975	62.9615	14.6504	-0.090544	0.571400	-0.393201	-0.394606	0.049969	18.5975	-0.395217	-114216	-4.374944E-7	NaN
313	1.000000	0.610802	7.36813e+06	-54289.1	955.818	-29744.4	0.000000	0.000000	6.610961	0.019925	NaN	0.000000	0.001596	0.001771	28.0799	0.082593	0.002059	40.1228	69.7142	-167.785	0.026915	0.609532	-0.355204	-0.356474	0.019925	40.1228	-0.355577	-30750.2	-6.479775E-7	NaN
313	1.000000	0.648858	7.36813e+06	-54289.1	955.818	-29744.4	0.000000	0.000000	6.649018	0.032536	NaN	0.000000	0.001582	0.001759	28.08	0.078570	0.001970	39.8878	161.18	15.1383	0.065481	0.647474	-0.317148	-0.318532	0.032536	39.8878	-0.317760	-8622.85	-3.773234E-6	NaN
313	1.000000	0.686853	7.36813e+06	-54289.1	955.818	-29744.4	0.000000	0.000000	6.687013	0.041989	NaN	0.000000	0.001637	0.001725	28.0789	0.124555	0.002043	60.9796	29.6853	-167.383	-0.016215	0.685533	-0.279153	-0.280473	0.041989	60.9796	-0.279670	-2333.38	-1.799504E-5	NaN
313	1.000000	0.724879	7.36813e+06	-54289.1	955.818	-29744.4	0.000000	0.000000	6.725037	-0.013455	NaN	0.000000	0.001600	0.001718	28.0792	0.074517	0.001868	39.8865	-104.183	10.486	-0.037437	0.723506	-0.241127	-0.242500	-0.013455	39.8865	-0.240874	-593.206	2.268238E-5	NaN
313	1.000000	0.762893	7.36813e+06	-54289.1	955.818	-29744.4	0.000000	0.000000	6.763053	0.023358	NaN	0.000000	0.001685	0.001732	28.0787	0.052982	0.002023	26.1951	95.8519	-167.108	-0.017003	0.761620	-0.203113	-0.204386	0.023358	26.1951	-0.203782	-151.939	-0.000154	NaN
313	1.000000	0.800901	7.36813e+06	-54289.1	955.818	-29744.4	0.000000	0.000000	6.801059	-0.008569	NaN	0.000000	0.001646	0.001690	28.0801	0.060987	0.002056	29.6576	-164.72	12.0574	0.063153	0.799587	-0.165105	-0.166419	-0.008569	29.6576	-0.164888	-33.446	0.000256	NaN
313	1.000000	0.838881	7.36813e+06	-54289.1	955.818	-29744.4	0.000000	0.000000	6.839040	0.003619	NaN	0.000000	0.001636	0.001730	28.08	0.112310	0.002107	53.3037	-165.065	-164.282	0.078246	0.837608	-0.127125	-0.128398	0.003619	53.3037	-0.127176	-6.712257	-0.000539	NaN
313	1.000000	0.876953	7.36813e+06	-54289.1	955.818	-29744.4	0.000000	0.000000	6.877112	0.013603	NaN	0.000000	0.001630	0.001749	28.0801	0.060842	0.002087	29.1472	-90.083	17.049	0.052585	0.875586	-0.089053	-0.090420	0.013603	29.1472	-0.089403	-1.046604	-0.012997	NaN
313	1.000000	0.914941	7.36813e+06	-54289.1	955.818	-29744.4	0.000000	0.000000	6.915187	2.148696	NaN	0.000000	0.001612	0.001732	28.0801	1.121732	0.001968	569.866	16.4379	-166.755	2.026614	0.913596	-0.051065	-0.052410	2.148696	569.866	-0.053893	-0.119409	-17.9944	NaN
313	1.000000	0.952953	7.36813e+06	-54289.1	955.819	-29744.4	0.000000	0.000000	6.953274	3.957363	NaN	0.000000	0.001638	0.001760	28.0792	1.464416	0.002032	720.629	16.9665	14.5911	3.848744	0.951634	-0.013053	-0.014372	3.957363	720.629	-0.017172	-0.010621	-372.603	NaN
313	2.000000	0.977491	7.36813e+06	-54289.1	955.818	-29744.4	0.000000	0.000000	6.978189	13.1159	NaN	0.000000	0.001674	0.001727	28.0789	11.2075	0.001874	5980.15	7.671497	-172.735	13.1062	0.977180	0.011485	0.011174	13.1159	5980.15	0.009840	0.009005	1456.6	57577.8
313	2.000000	0.986945	7.36813e+06	-54289.1	955.82	-29744.4	0.000000	0.000000	6.988328	29.7556	NaN	0.000000	0.001641	0.001720	28.0789	21.2183	0.001808	11738.2	8.188054	0.551788	29.8807	0.986607	0.020939	0.020601	29.7556	11738.2	0.019038	0.021053	1413.35	73911.7
313	2.000000	0.996406	7.36813e+06	-54289.1	955.819	-29744.4	0.000000	0.000000	6.998702	51.9702	NaN	0.000000	0.001625	0.001766	28.0787	30.5477	0.001826	16730.6	7.745222	177.629	50.9989	0.996146	0.030400	0.030140	51.9702	16730.6	0.028070	0.036839	1410.74	79639.9
313	2.000000	1.005918	7.36813e+06	-54289.1	955.819	-29744.4	0.000000	0.000000	7.009654	86.989	NaN	0.000000	0.001657	0.001721	28.0803	39.0986	0.001724	22677.2	7.514290	-4.898219	87.0141	1.005446	0.039912	0.039440	86.989	22677.2	0.037035	0.056590	1537.18	87094.9
313	2.000000	1.015322	7.36813e+06	-54289.1	955.82	-29744.4	0.000000	0.000000	7.020684	126.505	NaN	0.000000	0.001603	0.001659	28.0798	48.4019	0.001703	28427.6	5.008734	175.346	124.378	1.015069	0.049316	0.049063	126.505	28427.6	0.045978	0.080388	1573.67	91604.3
313	2.000000	1.024878	7.36813e+06	-54289.1	955.818	-29744.4	0.000000	0.000000	7.031919	167.317	NaN	0.000000	0.001631	0.001689	28.0798	57.7344	0.001773	32557.4	3.275350	-4.513055	165.578	1.024601	0.058872	0.058595	167.317	32557.4	0.055018	0.108552	1541.36	90282.8
313	2.000000	1.034358	7.36813e+06	-54289.1	955.819	-29744.4	0.000000	0.000000	7.043443	217.008	NaN	0.000000	0.001706	0.001689	28.0783	67.6147	0.001793	37708.3	4.159256	173.23	215.481	1.034153	0.068352	0.068147	217.008	37708.3	0.064036	0.140678	1542.58	91853.8
313	2.000000	1.043770	7.36813e+06	-54289.1	955.819	-29744.4	0.000000	0.000000	7.055483	280.898	NaN	0.000000	0.001599	0.001681	28.0789	76.5441	0.001839	41615.2	2.675823	-5.699295	275.186	1.043434	0.077764	0.077428	280.898	41615.2	0.072702	0.175251	1602.83	90822.9
313	2.000000	1.053280	7.36813e+06	-54289.1	955.818	-29744.4	0.000000	0.000000	7.067940	352.55	NaN	0.000000	0.001679	0.001671	28.0788	85.8213	0.001739	49339.3	3.024193	172.575	349.302	1.052987	0.087274	0.086981	352.55	49339.3	0.081915	0.215905	1632.89	97014.1
313	2.000000	1.062821	7.36813e+06	-54289.1	955.821	-29744.4	0.000000	0.000000	7.080472	425.257	NaN	0.000000	0.001676	0.001675	28.0787	92.7465	0.001695	54732.6	2.209872	-6.928281	422.314	1.062471	0.096815	0.096465	425.257	54732.6	0.090987	0.259789	1636.93	98109
313	2.000000	1.071211	7.36813e+06	-54289.1	955.819	-29744.4	0.000000	0.000000	7.091866	498.288	NaN	0.000000	0.001648	0.001698	28.0797	101.693	0.001707	59581.2	4.497416	170.162	492.626	1.070867	0.105205	0.104861	498.288	59581.2	0.098932	0.301319	1653.69	99167.4