File: remote_trans/data/nanoindenter/0828-1/data/Data_2025-08-06,11h17m57s/2025-07-22_16-23-58_1_41.txt
2025-07-22, 16:23:58, 1
Index	Phase	Displacement	Time	Pos X	Pos Y	Pos Z	Rot A	Rot B	Piezo Z	Force A	Force B	Gripper	Voltage A	Voltage B	Temperature	Amplitude force	Amplitude pos	Stiffness	Phase shift	Phase excitation	Force A raw	Displacement raw	HMax	HMax raw	Real Force	Real Stiffness	Contact Depth	Area	Hardness	Reduced Mod.
[#]	[#]	[um]	[s]	[um]	[um]	[um]	[m°]	[m°]	[um]	[uN]	[uN]	[V]	[V]	[V]	[°C]	[uN]	[um]	[N/m]	[°]	[°]	[uN]	[um]	[um]	[um]	[uN]	[N/m]	[um]	[um^2]	[MPa]	[MPa]
41	1.000000	0.002492	7.36544e+06	-40689.1	955.819	-29789.1	0.000000	0.000000	6.002806	-0.029685	NaN	0.000000	0.001608	0.001731	28.0882	0.039350	0.001012	38.8725	107.015	-162.537	0.054940	0.001246	-1.721036	-1.722282	-0.029685	38.8725	-1.720463	-9.511372E+22	3.120965E-25	NaN
41	1.000000	0.060458	7.36544e+06	-40689.1	955.819	-29789.1	0.000000	0.000000	6.060777	0.098666	NaN	0.000000	0.001649	0.001682	28.1244	0.034434	0.002070	16.6374	-89.3779	18.0251	0.049125	0.059128	-1.663070	-1.664400	0.098666	16.6374	-1.667518	-1.883005E+22	-5.239830E-24	NaN
41	1.000000	0.118455	7.36544e+06	-40689.1	955.818	-29789.1	0.000000	0.000000	6.118767	-0.059146	NaN	0.000000	0.001633	0.001629	28.1111	0.075245	0.002097	35.8884	-139.437	-165.545	-0.025423	0.117161	-1.605073	-1.606366	-0.059146	35.8884	-1.603837	-2.680765E+21	2.206317E-23	NaN
41	1.000000	0.176510	7.36544e+06	-40689.1	955.819	-29789.1	0.000000	0.000000	6.176820	-0.099622	NaN	0.000000	0.001645	0.001586	28.0796	0.088889	0.001961	45.3228	89.5048	18.029	-0.025296	0.175192	-1.547018	-1.548335	-0.099622	45.3228	-1.545370	-4.470619E+20	2.228369E-22	NaN
41	1.000000	0.234522	7.36544e+06	-40689.1	955.818	-29789.1	0.000000	0.000000	6.234835	-0.033363	NaN	0.000000	0.001623	0.001613	28.0853	0.037994	0.001960	19.3822	18.1119	-164.566	-0.017734	0.233208	-1.489006	-1.490320	-0.033363	19.3822	-1.487715	-7.632828E+19	4.371027E-22	NaN
41	1.000000	0.292550	7.36544e+06	-40689.1	955.819	-29789.1	0.000000	0.000000	6.292866	0.032205	NaN	0.000000	0.001653	0.001599	28.1247	0.091111	0.002034	44.794	-108.912	15.3158	0.001030	0.291177	-1.430978	-1.432351	0.032205	44.794	-1.431517	-1.360697E+19	-2.366809E-21	NaN
41	1.000000	0.350585	7.36544e+06	-40689.1	955.818	-29789.1	0.000000	0.000000	6.350899	-0.010680	NaN	0.000000	0.001698	0.001605	28.1123	0.118027	0.002054	57.4707	93.2222	-165.685	0.082010	0.349230	-1.372943	-1.374298	-0.010680	57.4707	-1.372804	-2.241866E+18	4.763675E-21	NaN
41	1.000000	0.408586	7.36544e+06	-40689.1	955.818	-29789.1	0.000000	0.000000	6.408900	-0.028910	NaN	0.000000	0.001648	0.001615	28.0804	0.006121	0.002056	2.976718	107.674	12.9079	-0.051765	0.407256	-1.314941	-1.316272	-0.028910	2.976718	-1.307657	-3.024910E+17	9.557407E-20	NaN
41	1.000000	0.466644	7.36544e+06	-40689.1	955.818	-29789.1	0.000000	0.000000	6.466962	0.082740	NaN	0.000000	0.001637	0.001635	28.0839	0.115904	0.001929	60.0899	21.6973	-162.428	0.008313	0.465249	-1.256884	-1.258278	0.082740	60.0899	-1.257917	-6.543523E+16	-1.264450E-18	NaN
41	1.000000	0.524661	7.36544e+06	-40689.1	955.819	-29789.1	0.000000	0.000000	6.524974	-0.040105	NaN	0.000000	0.001641	0.001670	28.1225	0.146926	0.001938	75.8266	62.488	14.0711	0.075566	0.523313	-1.198867	-1.200214	-0.040105	75.8266	-1.198470	-1.047770E+16	3.827666E-18	NaN
41	1.000000	0.582690	7.36544e+06	-40689.1	955.817	-29789.1	0.000000	0.000000	6.583005	-0.009470	NaN	0.000000	0.001701	0.001700	28.1142	0.127896	0.001972	64.856	-19.1421	-165.823	-0.014451	0.581339	-1.140837	-1.142189	-0.009470	64.856	-1.140728	-1.763995E+15	5.368776E-18	NaN
41	1.000000	0.640714	7.36544e+06	-40689.1	955.818	-29789.1	0.000000	0.000000	6.641026	-0.066683	NaN	0.000000	0.001678	0.001687	28.0802	0.026394	0.002033	12.9823	51.9008	14.8356	-0.137245	0.639360	-1.082814	-1.084168	-0.066683	12.9823	-1.078961	-2.615575E+14	2.549448E-16	NaN
41	1.000000	0.698710	7.36544e+06	-40689.1	955.818	-29789.1	0.000000	0.000000	6.699024	-0.007344	NaN	0.000000	0.001703	0.001614	28.0824	0.086532	0.001972	43.8777	-7.241796	-163.958	0.029025	0.697420	-1.024818	-1.026108	-0.007344	43.8777	-1.024692	-4.876229E+13	1.506156E-16	NaN
41	1.000000	0.756761	7.36544e+06	-40689.1	955.818	-29789.1	0.000000	0.000000	6.757073	-0.046800	NaN	0.000000	0.001667	0.001685	28.1206	0.107016	0.002011	53.2042	13.8568	16.8343	-0.022323	0.755372	-0.966767	-0.968156	-0.046800	53.2042	-0.966108	-7.928681E+12	5.902680E-15	NaN
41	1.000000	0.814766	7.36544e+06	-40689.1	955.818	-29789.1	0.000000	0.000000	6.815079	-0.035182	NaN	0.000000	0.001706	0.001701	28.1163	0.088959	0.001906	46.6766	174.891	-164.167	-0.017156	0.813393	-0.908762	-0.910135	-0.035182	46.6766	-0.908197	-1.311616E+12	2.682341E-14	NaN
41	1.000000	0.872779	7.36544e+06	-40689.1	955.817	-29789.1	0.000000	0.000000	6.873097	0.072071	NaN	0.000000	0.001612	0.001672	28.0823	0.092034	0.002044	45.0243	-103.541	16.3923	0.053228	0.871429	-0.850749	-0.852099	0.072071	45.0243	-0.851949	-2.275805E+11	-3.166853E-13	NaN
41	1.000000	0.930793	7.36545e+06	-40689.1	955.818	-29789.1	0.000000	0.000000	6.931109	0.030548	NaN	0.000000	0.001651	0.001738	28.0815	0.048264	0.001937	24.9152	-61.4711	-167.091	-0.011301	0.929489	-0.792735	-0.794038	0.030548	24.9152	-0.793655	-3.687347E+10	-8.284616E-13	NaN
41	1.000000	0.988854	7.36545e+06	-40689.1	955.818	-29789.1	0.000000	0.000000	6.989162	-0.148655	NaN	0.000000	0.001659	0.001722	28.1206	0.112663	0.001961	57.4449	-84.6181	14.8429	-0.063376	0.987544	-0.734674	-0.735984	-0.148655	57.4449	-0.732733	-5.470895E+9	2.717197E-11	NaN
41	1.000000	1.046858	7.36545e+06	-40689.1	955.819	-29789.1	0.000000	0.000000	7.047174	0.030785	NaN	0.000000	0.001654	0.001732	28.1178	0.060450	0.001890	31.985	96.3991	-161.897	-0.050779	1.045575	-0.676670	-0.677953	0.030785	31.985	-0.677392	-9.605779E+8	-3.204886E-11	NaN
41	1.000000	1.104902	7.36545e+06	-40689.1	955.819	-29789.1	0.000000	0.000000	7.105218	0.029661	NaN	0.000000	0.001602	0.001737	28.0826	0.024232	0.002140	11.3233	71.2258	14.4462	-0.037249	1.103519	-0.618625	-0.620008	0.029661	11.3233	-0.620590	-1.598615E+8	-1.855420E-10	NaN
41	1.000000	1.162903	7.36545e+06	-40689.1	955.819	-29789	0.000000	0.000000	7.163218	-0.011834	NaN	0.000000	0.001585	0.001723	28.0824	0.078324	0.002026	38.6672	18.2633	-168.1	-0.056267	1.161606	-0.560624	-0.561921	-0.011834	38.6672	-0.560395	-2.365048E+7	5.003580E-10	NaN
41	1.000000	1.220935	7.36545e+06	-40689.1	955.821	-29789	0.000000	0.000000	7.221247	-0.059388	NaN	0.000000	0.001570	0.001714	28.1199	0.109692	0.002129	51.5136	42.5249	17.1617	-0.001776	1.219562	-0.502593	-0.503966	-0.059388	51.5136	-0.501728	-3.6235e+06	1.638974E-8	NaN
41	1.000000	1.278948	7.36545e+06	-40689.1	955.821	-29789	0.000000	0.000000	7.279262	-0.020643	NaN	0.000000	0.001600	0.001695	28.1178	0.049394	0.001940	25.467	121.515	-164.735	0.033313	1.277667	-0.444580	-0.445861	-0.020643	25.467	-0.443972	-561563	3.675958E-8	NaN
41	1.000000	1.336987	7.36545e+06	-40689.1	955.821	-29789	0.000000	0.000000	7.337301	-0.011401	NaN	0.000000	0.001608	0.001696	28.0811	0.073123	0.002028	36.0596	-56.7913	14.3389	-0.002441	1.335610	-0.386541	-0.387918	-0.011401	36.0596	-0.386304	-85166.2	1.338717E-7	NaN
41	1.000000	1.395015	7.36545e+06	-40689.1	955.82	-29789	0.000000	0.000000	7.395330	-0.005462	NaN	0.000000	0.001622	0.001668	28.0825	0.069624	0.002088	33.3427	-111.885	-163.021	-0.038346	1.393674	-0.328513	-0.329853	-0.005462	33.3427	-0.328390	-12355.5	4.420738E-7	NaN
41	1.000000	1.453018	7.36545e+06	-40689.1	955.821	-29789	0.000000	0.000000	7.453332	-0.026871	NaN	0.000000	0.001678	0.001711	28.1191	0.069768	0.002067	33.7611	-142.59	16.1222	-0.085321	1.451707	-0.270509	-0.271820	-0.026871	33.7611	-0.269913	-1660.41	1.618341E-5	NaN
41	1.000000	1.511058	7.36545e+06	-40689.1	955.821	-29789	0.000000	0.000000	7.511372	-0.021309	NaN	0.000000	0.001632	0.001680	28.1193	0.039889	0.002030	19.6496	-71.0103	-163.125	-0.085157	1.509711	-0.212470	-0.213817	-0.021309	19.6496	-0.211656	-203.992	0.000104	NaN
41	1.000000	1.569096	7.36545e+06	-40689.1	955.821	-29789	0.000000	0.000000	7.569409	-0.053555	NaN	0.000000	0.001584	0.001730	28.0822	0.087628	0.001983	44.1956	96.1809	13.3824	-0.078512	1.567713	-0.154432	-0.155815	-0.053555	44.1956	-0.153523	-20.9869	0.002552	NaN
41	1.000000	1.627126	7.36545e+06	-40689.1	955.82	-29789	0.000000	0.000000	7.627439	-0.046086	NaN	0.000000	0.001596	0.001770	28.0817	0.043504	0.001997	21.7841	-85.2345	-162.883	-0.088109	1.625882	-0.096402	-0.097646	-0.046086	21.7841	-0.094815	-1.397018	0.032989	NaN
41	1.000000	1.685132	7.36545e+06	-40689.1	955.822	-29789	0.000000	0.000000	7.685447	0.014763	NaN	0.000000	0.001571	0.001695	28.1197	0.049223	0.002116	23.2648	169.908	16.7267	0.018108	1.683804	-0.038396	-0.039724	0.014763	23.2648	-0.038872	-0.041799	-0.353178	NaN
41	2.000000	1.737771	7.36545e+06	-40689.1	955.823	-29789	0.000000	0.000000	7.738469	9.321935	NaN	0.000000	0.001592	0.001758	28.1196	9.797628	0.001548	6327.42	4.866141	-168.642	9.105079	1.737507	0.014243	0.013979	9.321935	6327.42	0.013138	0.012882	723.633	50933.8
41	2.000000	1.752160	7.36545e+06	-40689.1	955.822	-29789	0.000000	0.000000	7.753832	33.0097	NaN	0.000000	0.001577	0.001785	28.0818	24.6338	0.001823	13516.5	5.431995	3.372024	30.9399	1.751945	0.028632	0.028417	33.0097	13516.5	0.026801	0.034373	960.327	66607.7
41	2.000000	1.766708	7.36545e+06	-40689.1	955.822	-29789	0.000000	0.000000	7.769819	68.0449	NaN	0.000000	0.001644	0.001768	28.0813	37.0902	0.001811	20476.3	5.008744	-179.242	69.9726	1.766365	0.043181	0.042837	68.0449	20476.3	0.040688	0.065819	1033.82	72920.5
41	2.000000	1.781168	7.36545e+06	-40689.1	955.822	-29789	0.000000	0.000000	7.786274	116.597	NaN	0.000000	0.001635	0.001767	28.1182	49.1831	0.001793	27435.8	3.928821	-1.978329	116.402	1.780806	0.057640	0.057279	116.597	27435.8	0.054453	0.106671	1093.05	76748
41	2.000000	1.795737	7.36545e+06	-40689.1	955.823	-29789	0.000000	0.000000	7.803275	175.766	NaN	0.000000	0.001611	0.001738	28.1215	62.5443	0.001808	34596.2	3.896076	176.364	181.015	1.795473	0.072210	0.071945	175.766	34596.2	0.068399	0.157637	1115	79610.8
41	2.000000	1.810133	7.36545e+06	-40689.1	955.822	-29789	0.000000	0.000000	7.821129	259.917	NaN	0.000000	0.001593	0.001756	28.0815	73.8104	0.001809	40795.8	5.057761	-5.882898	258.09	1.809692	0.086605	0.086164	259.917	40795.8	0.081827	0.215498	1206.12	80291.1
41	2.000000	1.824586	7.36545e+06	-40689.1	955.823	-29789	0.000000	0.000000	7.839782	362.097	NaN	0.000000	0.001570	0.001765	28.0815	87.0116	0.001796	48451.9	7.132508	171.013	358.966	1.824236	0.101058	0.100708	362.097	48451.9	0.095453	0.282780	1280.49	83245.3
41	2.000000	1.834507	7.36545e+06	-40689.1	955.823	-29789	0.000000	0.000000	7.853018	442.773	NaN	0.000000	0.001593	0.001696	28.0794	96.7093	0.001765	54792	3.870853	173.509	439.127	1.834223	0.110979	0.110695	442.773	54792	0.104918	0.334507	1323.66	86554.1