File: remote_trans/data/nanoindenter/0828-1/data/Data_2025-08-06,11h17m57s/2025-07-22_16-23-58_1_54.txt
2025-07-22, 16:23:58, 1
Index	Phase	Displacement	Time	Pos X	Pos Y	Pos Z	Rot A	Rot B	Piezo Z	Force A	Force B	Gripper	Voltage A	Voltage B	Temperature	Amplitude force	Amplitude pos	Stiffness	Phase shift	Phase excitation	Force A raw	Displacement raw	HMax	HMax raw	Real Force	Real Stiffness	Contact Depth	Area	Hardness	Reduced Mod.
[#]	[#]	[um]	[s]	[um]	[um]	[um]	[m°]	[m°]	[um]	[uN]	[uN]	[V]	[V]	[V]	[°C]	[uN]	[um]	[N/m]	[°]	[°]	[uN]	[um]	[um]	[um]	[uN]	[N/m]	[um]	[um^2]	[MPa]	[MPa]
54	1.000000	0.002409	7.36557e+06	-41339.1	955.818	-29787.2	0.000000	0.000000	6.002787	-0.080306	NaN	0.000000	0.001624	0.001716	28.126	0.083549	0.000952	87.7266	-99.7704	-157.93	-0.068594	0.001169	-1.076559	-1.077799	-0.080306	87.7266	-1.075873	-2.377297E+14	3.378032E-16	NaN
54	1.000000	0.042357	7.36557e+06	-41339.1	955.818	-29787.2	0.000000	0.000000	6.042739	0.002602	NaN	0.000000	0.001594	0.001720	28.1266	0.100006	0.002001	49.9773	108.649	-164.383	-0.005641	0.041064	-1.036611	-1.037904	0.002602	49.9773	-1.036650	-7.061922E+13	-3.685232E-17	NaN
54	1.000000	0.082358	7.36557e+06	-41339.1	955.819	-29787.2	0.000000	0.000000	6.082736	-0.076806	NaN	0.000000	0.001562	0.001688	28.1253	0.110228	0.002075	53.11	3.328641	-166.603	-0.134443	0.081121	-0.996610	-0.997847	-0.076806	53.11	-0.995526	-1.974797E+13	3.889334E-15	NaN
54	1.000000	0.122414	7.36557e+06	-41339.1	955.82	-29787.2	0.000000	0.000000	6.122796	0.001295	NaN	0.000000	0.001617	0.001673	28.1251	0.048613	0.001991	24.4209	157.728	-164.532	-0.025142	0.121066	-0.956554	-0.957902	0.001295	24.4209	-0.956594	-5.901221E+12	-2.195174E-16	NaN
54	1.000000	0.162409	7.36557e+06	-41339.1	955.819	-29787.2	0.000000	0.000000	6.162791	0.011021	NaN	0.000000	0.001593	0.001735	28.1238	0.031178	0.002065	15.0959	30.9921	-163.632	0.033117	0.161049	-0.916559	-0.917919	0.011021	15.0959	-0.917106	-1.730353E+12	-6.369277E-15	NaN
54	1.000000	0.202432	7.36557e+06	-41339.1	955.818	-29787.2	0.000000	0.000000	6.202812	-0.059332	NaN	0.000000	0.001641	0.001716	28.1261	0.075573	0.001971	38.3345	69.2907	-164.827	-0.090590	0.201151	-0.876536	-0.877817	-0.059332	38.3345	-0.875375	-4.722315E+11	1.256422E-13	NaN
54	1.000000	0.242430	7.36557e+06	-41339.1	955.818	-29787.2	0.000000	0.000000	6.242809	-0.049298	NaN	0.000000	0.001625	0.001694	28.1252	0.115695	0.001953	59.2377	167.448	-165.89	-0.065208	0.241127	-0.836538	-0.837841	-0.049298	59.2377	-0.835914	-1.380172E+11	3.571855E-13	NaN
54	1.000000	0.282472	7.36557e+06	-41339.1	955.818	-29787.2	0.000000	0.000000	6.282851	-0.064129	NaN	0.000000	0.001626	0.001744	28.1251	0.145848	0.001978	73.7472	-93.2914	-164.633	0.004683	0.281174	-0.796497	-0.797795	-0.064129	73.7472	-0.795844	-3.948628E+10	1.624096E-12	NaN
54	1.000000	0.322454	7.36557e+06	-41339.1	955.818	-29787.2	0.000000	0.000000	6.322834	-0.041962	NaN	0.000000	0.001602	0.001740	28.1244	0.112324	0.002032	55.2749	91.1972	-164.37	0.064623	0.321192	-0.756514	-0.757776	-0.041962	55.2749	-0.755945	-1.132739E+10	3.704441E-12	NaN
54	1.000000	0.362505	7.36557e+06	-41339.1	955.82	-29787.2	0.000000	0.000000	6.362889	0.039517	NaN	0.000000	0.001606	0.001775	28.125	0.067680	0.002005	33.7547	-132.473	-163.803	0.014816	0.361146	-0.716463	-0.717822	0.039517	33.7547	-0.717341	-3.374447E+9	-1.171068E-11	NaN
54	1.000000	0.402542	7.36557e+06	-41339.1	955.818	-29787.2	0.000000	0.000000	6.402922	-0.029458	NaN	0.000000	0.001584	0.001735	28.1225	0.106850	0.002051	52.1024	-63.7887	-166.046	-0.059067	0.401185	-0.676426	-0.677783	-0.029458	52.1024	-0.676002	-9.194347E+8	3.203911E-11	NaN
54	1.000000	0.442523	7.36557e+06	-41339.1	955.818	-29787.2	0.000000	0.000000	6.442904	-0.001519	NaN	0.000000	0.001620	0.001719	28.1236	0.092958	0.002077	44.7534	59.5287	-165.365	0.006924	0.441245	-0.636445	-0.637723	-0.001519	44.7534	-0.636420	-2.637297E+8	5.761469E-12	NaN
54	1.000000	0.482573	7.36557e+06	-41339.1	955.819	-29787.2	0.000000	0.000000	6.482955	0.004513	NaN	0.000000	0.001593	0.001689	28.1223	0.035198	0.001978	17.797	-45.6064	-167.948	0.012500	0.481261	-0.596395	-0.597707	0.004513	17.797	-0.596586	-7.471847E+7	-6.040448E-11	NaN
54	1.000000	0.522559	7.36557e+06	-41339.1	955.819	-29787.2	0.000000	0.000000	6.522942	0.036896	NaN	0.000000	0.001603	0.001759	28.1246	0.081221	0.002025	40.1122	85.5941	-165.758	-0.018763	0.521279	-0.556409	-0.557689	0.036896	40.1122	-0.557099	-2.129291E+7	-1.732800E-9	NaN
54	1.000000	0.562560	7.36557e+06	-41339.1	955.819	-29787.2	0.000000	0.000000	6.562941	-0.020015	NaN	0.000000	0.001590	0.001760	28.1233	0.094393	0.001970	47.9038	-69.2446	-165.106	-0.028780	0.561321	-0.516408	-0.517647	-0.020015	47.9038	-0.516095	-5.74476e+06	3.484128E-9	NaN
54	1.000000	0.602619	7.36557e+06	-41339.1	955.818	-29787.2	0.000000	0.000000	6.602998	-0.060068	NaN	0.000000	0.001593	0.001773	28.1241	0.027612	0.002011	13.7287	-81.9332	-164.42	-0.054436	0.601285	-0.476349	-0.477683	-0.060068	13.7287	-0.473067	-1.44018e+06	4.170866E-8	NaN
54	1.000000	0.642606	7.36557e+06	-41339.1	955.819	-29787.2	0.000000	0.000000	6.642985	-0.084438	NaN	0.000000	0.001576	0.001733	28.1218	0.081708	0.002057	39.7146	150.607	-163.939	-0.036156	0.641298	-0.436362	-0.437670	-0.084438	39.7146	-0.434767	-416355	2.028032E-7	NaN
54	1.000000	0.682627	7.36557e+06	-41339.1	955.819	-29787.2	0.000000	0.000000	6.683006	-0.066018	NaN	0.000000	0.001595	0.001745	28.123	0.080353	0.002126	37.7905	-37.7598	-162.75	0.010022	0.681346	-0.396341	-0.397622	-0.066018	37.7905	-0.395031	-113521	5.815499E-7	NaN
54	1.000000	0.722665	7.36558e+06	-41339.1	955.818	-29787.2	0.000000	0.000000	6.723044	-0.067112	NaN	0.000000	0.001595	0.001767	28.1212	0.121636	0.001949	62.4218	-148.695	-165.714	-0.108245	0.721323	-0.356303	-0.357645	-0.067112	62.4218	-0.355497	-30668.4	2.188312E-6	NaN
54	1.000000	0.762675	7.36558e+06	-41339.1	955.818	-29787.2	0.000000	0.000000	6.763056	-0.006133	NaN	0.000000	0.001593	0.001760	28.1226	0.041414	0.002010	20.6084	-10.8776	-165.465	0.008884	0.761371	-0.316294	-0.317597	-0.006133	20.6084	-0.316070	-8142.14	7.532266E-7	NaN
54	1.000000	0.802682	7.36558e+06	-41339.1	955.818	-29787.2	0.000000	0.000000	6.803061	-0.063431	NaN	0.000000	0.001630	0.001696	28.1223	0.087603	0.002007	43.6468	31.7686	-165.614	-0.082461	0.801373	-0.276286	-0.277595	-0.063431	43.6468	-0.275196	-1996.96	3.176366E-5	NaN
54	1.000000	0.842690	7.36558e+06	-41339.1	955.818	-29787.2	0.000000	0.000000	6.843071	-0.006372	NaN	0.000000	0.001561	0.001752	28.123	0.048392	0.001999	24.2119	-2.375162	-163.121	-0.045501	0.841423	-0.236278	-0.237545	-0.006372	24.2119	-0.236081	-499.122	1.276698E-5	NaN
54	1.000000	0.882723	7.36558e+06	-41339.1	955.818	-29787.2	0.000000	0.000000	6.883107	0.041921	NaN	0.000000	0.001560	0.001741	28.1224	0.062407	0.001964	31.7807	86.7028	-166.575	-0.040339	0.881446	-0.196245	-0.197522	0.041921	31.7807	-0.197234	-118.617	-0.000353	NaN
54	1.000000	0.922752	7.36558e+06	-41339.1	955.818	-29787.2	0.000000	0.000000	6.923133	-0.026563	NaN	0.000000	0.001601	0.001736	28.1219	0.056046	0.002045	27.4013	-86.6093	-163.82	-0.071885	0.921399	-0.156216	-0.157569	-0.026563	27.4013	-0.155489	-22.7703	0.001167	NaN
54	1.000000	0.962755	7.36558e+06	-41339.1	955.818	-29787.2	0.000000	0.000000	6.963137	-0.004017	NaN	0.000000	0.001565	0.001769	28.1207	0.089453	0.002042	43.8062	-124.984	-165.671	-0.010379	0.961465	-0.116213	-0.117503	-0.004017	43.8062	-0.116144	-4.033017	0.000996	NaN
54	1.000000	1.002763	7.36558e+06	-41339.1	955.818	-29787.2	0.000000	0.000000	7.003145	0.020254	NaN	0.000000	0.001543	0.001745	28.121	0.055021	0.001975	27.8638	-89.453	-164.419	0.013740	1.001471	-0.076205	-0.077497	0.020254	27.8638	-0.076750	-0.512308	-0.039536	NaN
54	1.000000	1.042781	7.36558e+06	-41339.1	955.818	-29787.2	0.000000	0.000000	7.043161	-0.052306	NaN	0.000000	0.001565	0.001711	28.1197	0.069970	0.002002	34.9574	123.534	-164.325	0.002326	1.041464	-0.036187	-0.037504	-0.052306	34.9574	-0.035065	-0.032165	1.626181	NaN
54	1.000000	1.082763	7.36558e+06	-41339.1	955.818	-29787.2	0.000000	0.000000	7.083292	3.586703	NaN	0.000000	0.001544	0.001702	28.1218	4.215795	0.001885	2236.81	5.404335	-165.77	1.689726	1.081458	0.003795	0.002490	3.586703	2236.81	0.002592	0.002040	1758.53	45251.2
54	2.000000	1.096286	7.36558e+06	-41339.1	955.818	-29787.2	0.000000	0.000000	7.097526	20.875	NaN	0.000000	0.001567	0.001726	28.1206	17.5272	0.001819	9634.33	4.794373	-173.965	21.9113	1.096037	0.017318	0.017068	20.875	9634.33	0.015693	0.016221	1286.92	69112.5
54	2.000000	1.106252	7.36558e+06	-41339.1	955.818	-29787.2	0.000000	0.000000	7.108418	43.4177	NaN	0.000000	0.001541	0.001739	28.1214	28.1174	0.001676	16780.5	1.678118	-175.493	42.5277	1.105950	0.027284	0.026982	43.4177	16780.5	0.025344	0.031644	1372.08	86185.5
54	2.000000	1.116208	7.36558e+06	-41339.1	955.818	-29787.2	0.000000	0.000000	7.119670	74.9559	NaN	0.000000	0.001555	0.001718	28.1194	39.1285	0.001859	21046	7.424114	177.124	73.8715	1.115949	0.037240	0.036981	74.9559	21046	0.034569	0.050747	1477.04	85356.6
54	2.000000	1.126180	7.36558e+06	-41339.1	955.819	-29787.2	0.000000	0.000000	7.131155	111.766	NaN	0.000000	0.001604	0.001744	28.1201	47.3353	0.001839	25734.9	4.348713	178.999	109.621	1.125893	0.047212	0.046924	111.766	25734.9	0.043955	0.074647	1497.26	86057.7
54	2.000000	1.136244	7.36558e+06	-41339.1	955.819	-29787.2	0.000000	0.000000	7.143443	165.89	NaN	0.000000	0.001601	0.001720	28.1188	57.4462	0.001846	31115.5	5.973597	176.584	165.635	1.135783	0.057276	0.056815	165.89	31115.5	0.053277	0.102811	1613.54	88660.4
54	2.000000	1.146193	7.36558e+06	-41339.1	955.819	-29787.2	0.000000	0.000000	7.155616	220.007	NaN	0.000000	0.001617	0.001672	28.1212	67.7616	0.001824	37146.7	7.858581	172.837	220.522	1.145755	0.067225	0.066787	220.007	37146.7	0.062783	0.135975	1617.99	92037.2
54	2.000000	1.156147	7.36558e+06	-41339.1	955.818	-29787.2	0.000000	0.000000	7.168381	288.379	NaN	0.000000	0.001601	0.001724	28.1201	77.9622	0.001840	42374.3	4.309242	174.214	285.243	1.155824	0.077179	0.076856	288.379	42374.3	0.072075	0.172632	1670.49	93178.3
54	2.000000	1.166153	7.36558e+06	-41339.1	955.818	-29787.2	0.000000	0.000000	7.181423	362.252	NaN	0.000000	0.001564	0.001729	28.1212	87.4522	0.001754	49855.8	3.767690	173.943	361.667	1.165825	0.087185	0.086857	362.252	49855.8	0.081736	0.215077	1684.29	98218.2
54	2.000000	1.176114	7.36558e+06	-41339.1	955.817	-29787.2	0.000000	0.000000	7.194969	449.508	NaN	0.000000	0.001610	0.001760	28.1193	98.16	0.001798	54608.6	4.133631	172.699	446.662	1.175844	0.097146	0.096876	449.508	54608.6	0.090972	0.259712	1730.79	97901.2
54	2.000000	1.186121	7.36558e+06	-41339.1	955.819	-29787.2	0.000000	0.000000	7.209309	554.952	NaN	0.000000	0.001675	0.001737	28.1193	107.957	0.001914	56405.3	7.802123	170.161	554.013	1.185789	0.107152	0.106821	554.952	56405.3	0.099774	0.305884	1814.26	93178.2