File: remote_trans/data/nanoindenter/0828-1/data/Data_2025-08-06,11h17m57s/2025-07-22_16-23-58_1_203.txt
2025-07-22, 16:23:58, 1
Index	Phase	Displacement	Time	Pos X	Pos Y	Pos Z	Rot A	Rot B	Piezo Z	Force A	Force B	Gripper	Voltage A	Voltage B	Temperature	Amplitude force	Amplitude pos	Stiffness	Phase shift	Phase excitation	Force A raw	Displacement raw	HMax	HMax raw	Real Force	Real Stiffness	Contact Depth	Area	Hardness	Reduced Mod.
[#]	[#]	[um]	[s]	[um]	[um]	[um]	[m°]	[m°]	[um]	[uN]	[uN]	[V]	[V]	[V]	[°C]	[uN]	[um]	[N/m]	[°]	[°]	[uN]	[um]	[um]	[um]	[uN]	[N/m]	[um]	[um^2]	[MPa]	[MPa]
203	1.000000	0.002598	7.36703e+06	-48789.1	955.818	-29761.5	0.000000	0.000000	6.002790	0.005211	NaN	0.000000	0.001642	0.001724	28.0769	0.061055	0.000968	63.0651	-39.8573	-167.558	-0.016909	0.001332	-1.185055	-1.186320	0.005211	63.0651	-1.185117	-6.940874E+15	-7.507675E-19	NaN
203	1.000000	0.046570	7.36703e+06	-48789.1	955.818	-29761.5	0.000000	0.000000	6.046765	0.057341	NaN	0.000000	0.001597	0.001725	28.0767	0.199066	0.001987	100.191	7.844876	-166.917	-0.025894	0.045284	-1.141082	-1.142368	0.057341	100.191	-1.141511	-1.807174E+15	-3.172954E-17	NaN
203	1.000000	0.090597	7.36703e+06	-48789.1	955.818	-29761.5	0.000000	0.000000	6.090790	0.025627	NaN	0.000000	0.001665	0.001671	28.0779	0.101953	0.002074	49.1642	57.0813	-167.769	0.098468	0.089256	-1.097055	-1.098396	0.025627	49.1642	-1.097446	-4.632119E+14	-5.532491E-17	NaN
203	1.000000	0.134617	7.36703e+06	-48789.1	955.817	-29761.5	0.000000	0.000000	6.134812	0.066450	NaN	0.000000	0.001599	0.001660	28.078	0.137049	0.002205	62.1563	-64.3845	-169.636	0.043006	0.133300	-1.053035	-1.054352	0.066450	62.1563	-1.053837	-1.202241E+14	-5.527161E-16	NaN
203	1.000000	0.178618	7.36703e+06	-48789.1	955.818	-29761.5	0.000000	0.000000	6.178812	0.045923	NaN	0.000000	0.001588	0.001681	28.0779	0.034361	0.001988	17.2811	114.215	-162.662	0.024011	0.177289	-1.009034	-1.010364	0.045923	17.2811	-1.011027	-3.193034E+13	-1.438233E-15	NaN
203	1.000000	0.222608	7.36703e+06	-48789.1	955.819	-29761.5	0.000000	0.000000	6.222796	-0.094387	NaN	0.000000	0.001669	0.001636	28.0767	0.016917	0.001961	8.627329	156.96	-166.103	-0.040116	0.221341	-0.965045	-0.966311	-0.094387	8.627329	-0.956839	-5.946422E+12	1.587283E-14	NaN
203	1.000000	0.266648	7.36703e+06	-48789.1	955.819	-29761.4	0.000000	0.000000	6.266840	-0.002808	NaN	0.000000	0.001644	0.001655	28.0765	0.049429	0.001876	26.3502	175.438	-167.516	0.014714	0.265304	-0.921004	-0.922348	-0.002808	26.3502	-0.920924	-1.948421E+12	1.441237E-15	NaN
203	1.000000	0.310683	7.36703e+06	-48789.1	955.818	-29761.4	0.000000	0.000000	6.310878	0.067833	NaN	0.000000	0.001652	0.001667	28.0766	0.105223	0.002036	51.6813	-141.441	-170.976	0.077431	0.309354	-0.876969	-0.878298	0.067833	51.6813	-0.877954	-5.117197E+11	-1.325583E-13	NaN
203	1.000000	0.354693	7.36703e+06	-48789.1	955.819	-29761.4	0.000000	0.000000	6.354882	-0.071843	NaN	0.000000	0.001569	0.001696	28.0776	0.062002	0.002007	30.8867	-92.9252	-167.005	-0.038128	0.353406	-0.832959	-0.834246	-0.071843	30.8867	-0.831215	-1.191930E+11	6.027421E-13	NaN
203	1.000000	0.398700	7.36703e+06	-48789.1	955.819	-29761.4	0.000000	0.000000	6.398894	0.031598	NaN	0.000000	0.001592	0.001677	28.0778	0.053453	0.001896	28.1891	-67.7792	-166.44	0.065412	0.397362	-0.788952	-0.790291	0.031598	28.1891	-0.789793	-3.267899E+10	-9.669143E-13	NaN
203	1.000000	0.442692	7.36703e+06	-48789.1	955.819	-29761.4	0.000000	0.000000	6.442883	-0.014889	NaN	0.000000	0.001573	0.001708	28.0776	0.085494	0.001893	45.1645	141.846	-166.32	0.006779	0.441413	-0.744961	-0.746240	-0.014889	45.1645	-0.744713	-7.966094E+9	1.868998E-12	NaN
203	1.000000	0.486727	7.36703e+06	-48789.1	955.818	-29761.4	0.000000	0.000000	6.486919	0.015743	NaN	0.000000	0.001565	0.001708	28.0766	0.062206	0.002086	29.8145	-28.3638	-166.318	0.061361	0.485436	-0.700926	-0.702216	0.015743	29.8145	-0.701322	-2.039763E+9	-7.717922E-12	NaN
203	1.000000	0.530728	7.36703e+06	-48789.1	955.819	-29761.4	0.000000	0.000000	6.530922	0.049430	NaN	0.000000	0.001601	0.001704	28.0764	0.041776	0.001901	21.978	82.7557	-165.381	0.075300	0.529409	-0.656924	-0.658243	0.049430	21.978	-0.658611	-5.314219E+8	-9.301490E-11	NaN
203	1.000000	0.574778	7.36703e+06	-48789.1	955.818	-29761.4	0.000000	0.000000	6.574972	0.033549	NaN	0.000000	0.001577	0.001785	28.0767	0.079283	0.002067	38.3575	172.6	-162.643	0.077115	0.573501	-0.612874	-0.614151	0.033549	38.3575	-0.613530	-1.278414E+8	-2.624292E-10	NaN
203	1.000000	0.618774	7.36703e+06	-48789.1	955.819	-29761.4	0.000000	0.000000	6.618965	-0.020346	NaN	0.000000	0.001588	0.001794	28.078	0.114550	0.002009	57.026	91.4621	-169.676	0.079773	0.617499	-0.568878	-0.570153	-0.020346	57.026	-0.568611	-3.072075E+7	6.622971E-10	NaN
203	1.000000	0.662801	7.36703e+06	-48789.1	955.818	-29761.4	0.000000	0.000000	6.662992	-0.020285	NaN	0.000000	0.001611	0.001752	28.0778	0.154588	0.001871	82.6301	-46.2307	-168.675	-0.042033	0.661498	-0.524851	-0.526154	-0.020285	82.6301	-0.524667	-7.55938e+06	2.683458E-9	NaN
203	1.000000	0.706845	7.36703e+06	-48789.1	955.818	-29761.4	0.000000	0.000000	6.707037	-0.015011	NaN	0.000000	0.001603	0.001763	28.0777	0.057500	0.001805	31.8613	25.2771	-166.139	0.045387	0.705540	-0.480807	-0.482112	-0.015011	31.8613	-0.480454	-1.82759e+06	8.213667E-9	NaN
203	1.000000	0.750826	7.36703e+06	-48789.1	955.82	-29761.4	0.000000	0.000000	6.751017	-0.018577	NaN	0.000000	0.001604	0.001811	28.0767	0.037560	0.001950	19.2632	116.403	-170.703	0.009503	0.749533	-0.436826	-0.438119	-0.018577	19.2632	-0.436103	-434851	4.272035E-8	NaN
203	1.000000	0.794832	7.36703e+06	-48789.1	955.818	-29761.4	0.000000	0.000000	6.795023	-0.018660	NaN	0.000000	0.001554	0.001769	28.0766	0.060524	0.001900	31.8513	140.033	-168.707	-0.086876	0.793553	-0.392821	-0.394099	-0.018660	31.8513	-0.392381	-104044	1.793482E-7	NaN
203	1.000000	0.838923	7.36703e+06	-48789.1	955.819	-29761.4	0.000000	0.000000	6.839116	0.025173	NaN	0.000000	0.001647	0.001761	28.0765	0.076188	0.002002	38.0587	12.8443	-166.617	0.009178	0.837572	-0.348730	-0.350080	0.025173	38.0587	-0.349226	-24874.9	-1.011979E-6	NaN
203	1.000000	0.882887	7.36703e+06	-48789.1	955.819	-29761.4	0.000000	0.000000	6.883080	0.027646	NaN	0.000000	0.001679	0.001759	28.0777	0.035238	0.002083	16.9136	29.0737	-162.376	0.046367	0.881552	-0.304766	-0.306100	0.027646	16.9136	-0.305992	-5776.53	-4.785900E-6	NaN
203	1.000000	0.926936	7.36703e+06	-48789.1	955.817	-29761.4	0.000000	0.000000	6.927127	-0.014338	NaN	0.000000	0.001689	0.001770	28.0779	0.012316	0.002046	6.018701	4.504757	-165.503	-0.084969	0.925630	-0.260717	-0.262022	-0.014338	6.018701	-0.258930	-1128.52	1.270485E-5	NaN
203	1.000000	0.970927	7.36703e+06	-48789.1	955.816	-29761.4	0.000000	0.000000	6.971117	-0.028375	NaN	0.000000	0.001716	0.001725	28.0778	0.043706	0.001912	22.8574	-174.183	-168.392	-0.073091	0.969649	-0.216726	-0.218003	-0.028375	22.8574	-0.215795	-237.842	0.000119	NaN
203	1.000000	1.014968	7.36703e+06	-48789.1	955.817	-29761.4	0.000000	0.000000	7.015158	-0.039192	NaN	0.000000	0.001720	0.001742	28.0762	0.097249	0.001949	49.898	9.201439	-169.493	0.018086	1.013657	-0.172684	-0.173995	-0.039192	49.898	-0.172095	-44.6595	0.000878	NaN
203	1.000000	1.058971	7.36703e+06	-48789.1	955.817	-29761.4	0.000000	0.000000	7.059162	-0.014488	NaN	0.000000	0.001687	0.001687	28.0768	0.102670	0.001903	53.948	-121.381	-165.826	0.013889	1.057738	-0.128682	-0.129914	-0.014488	53.948	-0.128480	-7.118863	0.002035	NaN
203	1.000000	1.103006	7.36703e+06	-48789.1	955.817	-29761.4	0.000000	0.000000	7.103198	0.000975	NaN	0.000000	0.001688	0.001724	28.0768	0.043181	0.001950	22.1481	151.857	-167.271	0.051432	1.101682	-0.084646	-0.085970	0.000975	22.1481	-0.084679	-0.807074	-0.001208	NaN
203	1.000000	1.147004	7.36703e+06	-48789.1	955.817	-29761.4	0.000000	0.000000	7.147195	-0.016628	NaN	0.000000	0.001695	0.001744	28.0776	0.054866	0.002022	27.1405	123.422	-167.008	0.007671	1.145710	-0.040648	-0.041943	-0.016628	27.1405	-0.040189	-0.045823	0.362876	NaN
203	1.000000	1.191050	7.36703e+06	-48789.1	955.816	-29761.4	0.000000	0.000000	7.191301	1.433926	NaN	0.000000	0.001704	0.001763	28.0777	1.806085	0.001947	927.482	20.8072	-165.685	1.046369	1.189726	0.003398	0.002074	1.433926	927.482	0.002239	0.001749	819.979	20263.6
203	2.000000	1.207556	7.36703e+06	-48789.1	955.818	-29761.4	0.000000	0.000000	7.208904	28.1036	NaN	0.000000	0.001669	0.001740	28.0789	18.8966	0.001743	10841.1	7.642183	-179.576	27.1622	1.207200	0.019904	0.019548	28.1036	10841.1	0.017959	0.019437	1445.9	71045.1
203	2.000000	1.218536	7.36703e+06	-48789.1	955.819	-29761.4	0.000000	0.000000	7.221188	59.831	NaN	0.000000	0.001713	0.001755	28.0779	28.2352	0.001766	15984.7	5.971123	178.478	59.6192	1.218244	0.030884	0.030592	59.831	15984.7	0.028076	0.036851	1623.59	76077
203	2.000000	1.229495	7.36703e+06	-48789.1	955.817	-29761.4	0.000000	0.000000	7.233724	98.1903	NaN	0.000000	0.001680	0.001688	28.0771	39.835	0.001885	21137.6	6.956738	175.198	96.703	1.229168	0.041842	0.041516	98.1903	21137.6	0.038358	0.059855	1640.47	78936.9
203	2.000000	1.240468	7.36703e+06	-48789.1	955.818	-29761.4	0.000000	0.000000	7.246455	140.927	NaN	0.000000	0.001615	0.001735	28.0768	48.3749	0.001835	26368.9	6.692041	173.872	139.07	1.240241	0.052816	0.052589	140.927	26368.9	0.048808	0.088763	1587.68	80862.9
203	2.000000	1.251445	7.36703e+06	-48789.1	955.818	-29761.4	0.000000	0.000000	7.259491	191.034	NaN	0.000000	0.001630	0.001767	28.0768	56.0399	0.001822	30758.9	5.693542	174.501	189.023	1.251098	0.063792	0.063445	191.034	30758.9	0.059134	0.122723	1556.63	80219.8
203	2.000000	1.262547	7.36704e+06	-48789.1	955.818	-29761.4	0.000000	0.000000	7.272174	229.473	NaN	0.000000	0.001671	0.001713	28.0782	67.2183	0.001906	35260.1	6.302549	172.892	233.201	1.262154	0.074895	0.074502	229.473	35260.1	0.070014	0.164144	1398	79514.1
203	2.000000	1.273384	7.36704e+06	-48789.1	955.819	-29761.4	0.000000	0.000000	7.285411	287.822	NaN	0.000000	0.001678	0.001717	28.0781	76.4828	0.001946	39297.3	6.671851	170.338	284.17	1.273070	0.085732	0.085418	287.822	39297.3	0.080239	0.208214	1382.33	78682.9
203	2.000000	1.284469	7.36704e+06	-48789.1	955.819	-29761.4	0.000000	0.000000	7.299729	366.477	NaN	0.000000	0.001725	0.001726	28.0778	84.286	0.001866	45175.1	4.668794	172.14	367.627	1.284140	0.096817	0.096488	366.477	45175.1	0.090733	0.258506	1417.68	81177.8
203	2.000000	1.295469	7.36704e+06	-48789.1	955.819	-29761.4	0.000000	0.000000	7.313704	438.821	NaN	0.000000	0.001668	0.001708	28.0767	96.5549	0.001772	54497.2	7.667983	167.554	437.842	1.295063	0.107817	0.107410	438.821	54497.2	0.101778	0.316894	1384.76	88448.5
203	2.000000	1.296875	7.36704e+06	-48789.1	955.819	-29761.4	0.000000	0.000000	7.315728	453.85	NaN	0.000000	0.001674	0.001711	28.0769	96.7846	0.001774	54569.3	6.284314	-10.4942	449.606	1.296554	0.109223	0.108902	453.85	54569.3	0.102985	0.323611	1402.45	87641.4