File: remote_trans/data/nanoindenter/0828-1/data/Data_2025-08-06,11h17m57s/2025-07-22_16-23-58_1_792.txt
2025-07-22, 16:23:58, 1
Index	Phase	Displacement	Time	Pos X	Pos Y	Pos Z	Rot A	Rot B	Piezo Z	Force A	Force B	Gripper	Voltage A	Voltage B	Temperature	Amplitude force	Amplitude pos	Stiffness	Phase shift	Phase excitation	Force A raw	Displacement raw	HMax	HMax raw	Real Force	Real Stiffness	Contact Depth	Area	Hardness	Reduced Mod.
[#]	[#]	[um]	[s]	[um]	[um]	[um]	[m°]	[m°]	[um]	[uN]	[uN]	[V]	[V]	[V]	[°C]	[uN]	[um]	[N/m]	[°]	[°]	[uN]	[um]	[um]	[um]	[uN]	[N/m]	[um]	[um^2]	[MPa]	[MPa]
792	1.000000	0.002789	7.3728e+06	-39739.1	1055.82	-29792.7	0.000000	0.000000	6.002803	-0.008152	NaN	0.000000	0.001609	0.001761	28.0814	0.117713	0.000956	123.179	156.341	-171.734	-0.090979	0.001540	-1.133259	-1.134509	-0.008152	123.179	-1.133210	-1.398529E+15	5.828909E-18	NaN
792	1.000000	0.044730	7.3728e+06	-39739.1	1055.82	-29792.7	0.000000	0.000000	6.044743	-0.032886	NaN	0.000000	0.001633	0.001733	28.0815	0.030755	0.001905	16.1453	99.3041	14.8298	-0.009732	0.043343	-1.091318	-1.092705	-0.032886	16.1453	-1.089790	-3.655924E+14	8.995298E-17	NaN
792	1.000000	0.086741	7.3728e+06	-39739.1	1055.82	-29792.7	0.000000	0.000000	6.086756	0.034416	NaN	0.000000	0.001645	0.001752	28.0814	0.029687	0.001901	15.614	-94.4882	-169.39	-0.078811	0.085443	-1.049308	-1.050606	0.034416	15.614	-1.050961	-1.099848E+14	-3.129139E-16	NaN
792	1.000000	0.128756	7.3728e+06	-39739.1	1055.82	-29792.7	0.000000	0.000000	6.128770	0.023119	NaN	0.000000	0.001635	0.001767	28.083	0.159158	0.001972	80.7094	54.8765	15.9937	-0.027360	0.127391	-1.007293	-1.008657	0.023119	80.7094	-1.007508	-2.863101E+13	-8.074937E-16	NaN
792	1.000000	0.170794	7.3728e+06	-39739.1	1055.82	-29792.7	0.000000	0.000000	6.170805	-0.069644	NaN	0.000000	0.001692	0.001770	28.0829	0.097852	0.002024	48.3429	149.192	-165.367	-0.017139	0.169483	-0.965254	-0.966565	-0.069644	48.3429	-0.964174	-7.466855E+12	9.327081E-15	NaN
792	1.000000	0.212818	7.3728e+06	-39739.1	1055.82	-29792.7	0.000000	0.000000	6.212832	-0.005309	NaN	0.000000	0.001674	0.001763	28.0827	0.046155	0.001984	23.2623	0.555545	12.3252	-0.058202	0.211442	-0.923230	-0.924607	-0.005309	23.2623	-0.923059	-2.082115E+12	2.549713E-15	NaN
792	1.000000	0.254845	7.3728e+06	-39739.1	1055.82	-29792.7	0.000000	0.000000	6.254857	-0.031966	NaN	0.000000	0.001659	0.001781	28.0822	0.014915	0.002168	6.878267	-65.9021	-167.965	0.027948	0.253543	-0.881204	-0.882506	-0.031966	6.878267	-0.877718	-5.079800E+11	6.292764E-14	NaN
792	1.000000	0.296864	7.3728e+06	-39739.1	1055.82	-29792.7	0.000000	0.000000	6.296878	0.003519	NaN	0.000000	0.001599	0.001793	28.0821	0.038192	0.001960	19.4814	102.165	12.7519	0.023542	0.295504	-0.839184	-0.840544	0.003519	19.4814	-0.839320	-1.534880E+11	-2.292448E-14	NaN
792	1.000000	0.338851	7.3728e+06	-39739.1	1055.82	-29792.7	0.000000	0.000000	6.338863	-0.043109	NaN	0.000000	0.001665	0.001702	28.0819	0.129390	0.001908	67.826	-50.71	-167.146	0.047362	0.337486	-0.797197	-0.798563	-0.043109	67.826	-0.796721	-4.058296E+10	1.062248E-12	NaN
792	1.000000	0.380869	7.3728e+06	-39739.1	1055.82	-29792.7	0.000000	0.000000	6.380883	-0.012295	NaN	0.000000	0.001658	0.001743	28.0832	0.045419	0.002027	22.4027	39.6174	13.1091	-0.061370	0.379527	-0.755179	-0.756522	-0.012295	22.4027	-0.754767	-1.091709E+10	1.126200E-12	NaN
792	1.000000	0.422882	7.3728e+06	-39739.1	1055.82	-29792.7	0.000000	0.000000	6.422899	0.073663	NaN	0.000000	0.001636	0.001720	28.0831	0.072293	0.002023	35.7432	174.491	-167.074	0.029795	0.421553	-0.713167	-0.714495	0.073663	35.7432	-0.714712	-3.107033E+9	-2.370844E-11	NaN
792	1.000000	0.464901	7.3728e+06	-39739.1	1055.82	-29792.7	0.000000	0.000000	6.464911	-0.070498	NaN	0.000000	0.001569	0.001725	28.0832	0.051885	0.001991	26.065	-43.1388	9.915698	-0.060016	0.463521	-0.671148	-0.672527	-0.070498	26.065	-0.669119	-7.401789E+8	9.524476E-11	NaN
792	1.000000	0.506896	7.3728e+06	-39739.1	1055.82	-29792.7	0.000000	0.000000	6.506913	0.084358	NaN	0.000000	0.001576	0.001768	28.0829	0.029446	0.002078	14.1718	177.401	-170.833	-0.045481	0.505670	-0.629153	-0.630378	0.084358	14.1718	-0.633617	-2.413730E+8	-3.494906E-10	NaN
792	1.000000	0.548964	7.3728e+06	-39739.1	1055.82	-29792.7	0.000000	0.000000	6.548979	0.030305	NaN	0.000000	0.001596	0.001698	28.0814	0.091465	0.001939	47.1806	83.0142	10.9886	0.014447	0.547568	-0.587084	-0.588481	0.030305	47.1806	-0.587566	-5.611863E+7	-5.400155E-10	NaN
792	1.000000	0.590958	7.3728e+06	-39739.1	1055.82	-29792.7	0.000000	0.000000	6.590974	0.049472	NaN	0.000000	0.001625	0.001685	28.0818	0.037352	0.002035	18.3567	-119.136	-164.031	0.002281	0.589640	-0.545090	-0.546408	0.049472	18.3567	-0.547112	-1.548615E+7	-3.194595E-9	NaN
792	1.000000	0.632966	7.3728e+06	-39739.1	1055.82	-29792.7	0.000000	0.000000	6.632980	0.005927	NaN	0.000000	0.001610	0.001746	28.0815	0.101471	0.001987	51.0628	-12.4268	16.038	0.029735	0.631670	-0.503082	-0.504378	0.005927	51.0628	-0.503169	-3.79508e+06	-1.561710E-9	NaN
792	1.000000	0.675027	7.3728e+06	-39739.1	1055.82	-29792.7	0.000000	0.000000	6.675041	0.020526	NaN	0.000000	0.001608	0.001776	28.083	0.080965	0.001948	41.5546	-139.038	-164.069	-0.001479	0.673694	-0.461022	-0.462355	0.020526	41.5546	-0.461392	-987595	-2.078338E-8	NaN
792	1.000000	0.717030	7.37281e+06	-39739.1	1055.82	-29792.7	0.000000	0.000000	6.717043	-0.013166	NaN	0.000000	0.001613	0.001729	28.0828	0.054804	0.001935	28.3248	177.83	13.3453	-0.049030	0.715678	-0.419019	-0.420371	-0.013166	28.3248	-0.418670	-246348	5.344400E-8	NaN
792	1.000000	0.759010	7.37281e+06	-39739.1	1055.82	-29792.7	0.000000	0.000000	6.759024	-0.007949	NaN	0.000000	0.001605	0.001696	28.0831	0.099080	0.001943	50.9843	98.4841	-165.209	-0.013637	0.757697	-0.377038	-0.378352	-0.007949	50.9843	-0.376921	-62471.3	1.272445E-7	NaN
792	1.000000	0.801035	7.37281e+06	-39739.1	1055.82	-29792.7	0.000000	0.000000	6.801048	-0.008986	NaN	0.000000	0.001595	0.001706	28.0823	0.039581	0.001878	21.0712	-20.4118	12.085	-0.056984	0.799639	-0.335014	-0.336410	-0.008986	21.0712	-0.334694	-15279.8	5.880938E-7	NaN
792	1.000000	0.843089	7.37281e+06	-39739.1	1055.82	-29792.7	0.000000	0.000000	6.843102	-0.008308	NaN	0.000000	0.001615	0.001711	28.082	0.062446	0.001990	31.3724	-85.2963	-167.251	0.013457	0.841818	-0.292960	-0.294230	-0.008308	31.3724	-0.292761	-3669.73	2.264003E-6	NaN
792	1.000000	0.885081	7.37281e+06	-39739.1	1055.82	-29792.7	0.000000	0.000000	6.885093	-0.028496	NaN	0.000000	0.001652	0.001721	28.0817	0.113957	0.002019	56.4333	-37.067	15.1016	-0.060219	0.883754	-0.250968	-0.252295	-0.028496	56.4333	-0.250589	-839.6	3.393970E-5	NaN
792	1.000000	0.927116	7.37281e+06	-39739.1	1055.82	-29792.7	0.000000	0.000000	6.927131	0.026092	NaN	0.000000	0.001655	0.001672	28.0831	0.036811	0.002016	18.2569	101.692	-166.189	-0.025485	0.925772	-0.208932	-0.210277	0.026092	18.2569	-0.210004	-191.816	-0.000136	NaN
792	1.000000	0.969099	7.37281e+06	-39739.1	1055.82	-29792.7	0.000000	0.000000	6.969111	-0.036932	NaN	0.000000	0.001567	0.001750	28.0833	0.062910	0.002033	30.9486	-33.9098	11.5354	-0.052410	0.967731	-0.166950	-0.168317	-0.036932	30.9486	-0.166055	-35.0592	0.001053	NaN
792	1.000000	1.011145	7.37281e+06	-39739.1	1055.82	-29792.7	0.000000	0.000000	7.011158	-0.014535	NaN	0.000000	0.001596	0.001735	28.0831	0.051871	0.002055	25.2393	128.343	-167.22	0.028082	1.009822	-0.124903	-0.126227	-0.014535	25.2393	-0.124471	-5.936363	0.002448	NaN
792	1.000000	1.053150	7.37281e+06	-39739.1	1055.82	-29792.7	0.000000	0.000000	7.053161	-0.065412	NaN	0.000000	0.001600	0.001683	28.083	0.139872	0.001980	70.6324	16.3784	12.0707	-0.130756	1.051801	-0.082898	-0.084248	-0.065412	70.6324	-0.082204	-0.702085	0.093168	NaN
792	1.000000	1.095151	7.37281e+06	-39739.1	1055.82	-29792.7	0.000000	0.000000	7.095165	0.014012	NaN	0.000000	0.001590	0.001704	28.0819	0.063609	0.001980	32.1264	-30.1414	-166.04	0.022961	1.093804	-0.040898	-0.042245	0.014012	32.1264	-0.041225	-0.049275	-0.284374	NaN
792	1.000000	1.137140	7.37281e+06	-39739.1	1055.82	-29792.7	0.000000	0.000000	7.137348	4.723581	NaN	0.000000	0.001595	0.001775	28.0823	4.965658	0.001752	2833.49	8.392047	12.3561	3.309407	1.135804	0.001091	-0.000245	4.723581	2833.49	-0.000159	-0.000118	-39903.5	NaN
792	2.000000	1.150743	7.37281e+06	-39739.1	1055.82	-29792.7	0.000000	0.000000	7.151781	24.9322	NaN	0.000000	0.001596	0.001801	28.082	19.1298	0.001851	10335.5	7.917991	-177.632	26.0585	1.150429	0.014694	0.014380	24.9322	10335.5	0.012885	0.012567	1983.9	84233.7
792	2.000000	1.161155	7.37281e+06	-39739.1	1055.82	-29792.7	0.000000	0.000000	7.163260	50.9147	NaN	0.000000	0.001583	0.001768	28.0828	27.4076	0.001786	15347.9	1.714346	4.312018	49.2576	1.160802	0.025106	0.024753	50.9147	15347.9	0.022618	0.026824	1898.08	85616.6
792	2.000000	1.171625	7.37281e+06	-39739.1	1055.82	-29792.7	0.000000	0.000000	7.175268	88.3348	NaN	0.000000	0.001550	0.001776	28.0836	36.7025	0.001764	20808.2	7.499454	176.144	86.3916	1.171312	0.035576	0.035263	88.3348	20808.2	0.032392	0.045849	1926.66	88786
792	2.000000	1.182085	7.37281e+06	-39739.1	1055.82	-29792.7	0.000000	0.000000	7.187643	134.923	NaN	0.000000	0.001532	0.001801	28.0828	46.8276	0.001779	26328.6	2.540685	-2.177798	131.46	1.181752	0.046037	0.045703	134.923	26328.6	0.042193	0.069819	1932.45	91036
792	2.000000	1.192758	7.37281e+06	-39739.1	1055.82	-29792.7	0.000000	0.000000	7.200197	180.683	NaN	0.000000	0.001523	0.001714	28.0814	56.9772	0.001745	32659.6	6.864166	173.03	187.578	1.192371	0.056710	0.056322	180.683	32659.6	0.052561	0.100492	1797.99	94127.9
792	2.000000	1.203115	7.37281e+06	-39739.1	1055.82	-29792.7	0.000000	0.000000	7.213529	253.085	NaN	0.000000	0.001540	0.001742	28.0816	66.1796	0.001852	35731.3	3.315560	-4.824171	249.724	1.202762	0.067067	0.066713	253.085	35731.3	0.061754	0.132174	1914.79	89794.4
792	2.000000	1.213555	7.37281e+06	-39739.1	1055.82	-29792.7	0.000000	0.000000	7.227168	330.952	NaN	0.000000	0.001591	0.001716	28.0815	75.0137	0.001794	41804.1	3.768833	173.019	326.641	1.213325	0.077506	0.077277	330.952	41804.1	0.071569	0.170528	1940.75	92489.9
792	2.000000	1.224033	7.37281e+06	-39739.1	1055.82	-29792.7	0.000000	0.000000	7.241239	418.385	NaN	0.000000	0.001602	0.001709	28.0828	85.539	0.001757	48692.9	6.604502	-9.491726	411.794	1.223543	0.087984	0.087495	418.385	48692.9	0.081540	0.214173	1953.49	96129.5
792	2.000000	1.234591	7.37281e+06	-39739.1	1055.82	-29792.7	0.000000	0.000000	7.255259	502.631	NaN	0.000000	0.001548	0.001710	28.0832	95.3778	0.001738	54866.4	5.578922	170.15	501.651	1.234244	0.098542	0.098196	502.631	54866.4	0.091671	0.263251	1909.32	97700.1
792	2.000000	1.239539	7.37281e+06	-39739.1	1055.82	-29792.7	0.000000	0.000000	7.262108	548.873	NaN	0.000000	0.001600	0.001697	28.0831	102.428	0.001842	55593.2	6.999694	169.45	544.592	1.239103	0.103491	0.103055	548.873	55593.2	0.096086	0.286110	1918.4	94957.4