File: remote_trans/data/nanoindenter/0828-1/data/Data_2025-08-06,11h17m57s/2025-07-22_16-23-58_1_1182.txt
2025-07-22, 16:23:58, 1
Index	Phase	Displacement	Time	Pos X	Pos Y	Pos Z	Rot A	Rot B	Piezo Z	Force A	Force B	Gripper	Voltage A	Voltage B	Temperature	Amplitude force	Amplitude pos	Stiffness	Phase shift	Phase excitation	Force A raw	Displacement raw	HMax	HMax raw	Real Force	Real Stiffness	Contact Depth	Area	Hardness	Reduced Mod.
[#]	[#]	[um]	[s]	[um]	[um]	[um]	[m°]	[m°]	[um]	[uN]	[uN]	[V]	[V]	[V]	[°C]	[uN]	[um]	[N/m]	[°]	[°]	[uN]	[um]	[um]	[um]	[uN]	[N/m]	[um]	[um^2]	[MPa]	[MPa]
1182	1.000000	0.002635	7.37661e+06	-56489.1	1105.82	-29738.6	0.000000	0.000000	6.002839	0.021893	NaN	0.000000	0.001568	0.001734	28.084	0.138305	0.000960	144.107	127.484	-165.096	0.014539	0.001308	-1.163331	-1.164658	0.021893	144.107	-1.163445	-3.556642E+15	-6.155520E-18	NaN
1182	1.000000	0.046551	7.37661e+06	-56489.1	1105.82	-29738.6	0.000000	0.000000	6.046754	-0.025350	NaN	0.000000	0.001587	0.001736	28.0826	0.121496	0.002081	58.3816	-36.9066	-165.317	0.034257	0.045236	-1.119414	-1.120730	-0.025350	58.3816	-1.119089	-9.041622E+14	2.803744E-17	NaN
1182	1.000000	0.090577	7.37661e+06	-56489.1	1105.82	-29738.6	0.000000	0.000000	6.090782	0.035992	NaN	0.000000	0.001600	0.001701	28.0826	0.033559	0.001988	16.8805	-135.495	-168.119	0.066192	0.089247	-1.075389	-1.076719	0.035992	16.8805	-1.076988	-2.460717E+14	-1.462646E-16	NaN
1182	1.000000	0.134595	7.37661e+06	-56489.1	1105.82	-29738.6	0.000000	0.000000	6.134803	0.116127	NaN	0.000000	0.001598	0.001784	28.0829	0.115512	0.002153	53.6483	-141.998	-166.237	0.079242	0.133214	-1.031371	-1.032752	0.116127	53.6483	-1.032994	-6.306011E+13	-1.841522E-15	NaN
1182	1.000000	0.178589	7.37661e+06	-56489.1	1105.82	-29738.6	0.000000	0.000000	6.178792	0.002040	NaN	0.000000	0.001588	0.001726	28.0838	0.047684	0.002018	23.6289	-60.1871	-167.012	0.020987	0.177217	-0.987377	-0.988749	0.002040	23.6289	-0.987442	-1.536930E+13	-1.327365E-16	NaN
1182	1.000000	0.222638	7.37661e+06	-56489.1	1105.82	-29738.6	0.000000	0.000000	6.222842	0.010475	NaN	0.000000	0.001626	0.001696	28.0841	0.073545	0.002052	35.8402	114.741	-164.856	0.032168	0.221287	-0.943328	-0.944679	0.010475	35.8402	-0.943547	-3.935397E+12	-2.661720E-15	NaN
1182	1.000000	0.266648	7.37661e+06	-56489.1	1105.82	-29738.6	0.000000	0.000000	6.266850	-0.027313	NaN	0.000000	0.001625	0.001667	28.0838	0.082471	0.001864	44.2362	-153.881	-166.27	0.007756	0.265338	-0.899318	-0.900627	-0.027313	44.2362	-0.898854	-9.808141E+11	2.784732E-14	NaN
1182	1.000000	0.310641	7.37661e+06	-56489.1	1105.82	-29738.6	0.000000	0.000000	6.310846	0.040750	NaN	0.000000	0.001584	0.001685	28.0824	0.012763	0.001975	6.462216	87.1262	-166.649	0.082428	0.309409	-0.855325	-0.856557	0.040750	6.462216	-0.860054	-2.929893E+11	-1.390847E-13	NaN
1182	1.000000	0.354641	7.37661e+06	-56489.1	1105.82	-29738.6	0.000000	0.000000	6.354846	0.042985	NaN	0.000000	0.001555	0.001669	28.0826	0.081314	0.001928	42.1728	73.1752	-163.265	0.046895	0.353361	-0.811325	-0.812605	0.042985	42.1728	-0.812089	-6.560141E+10	-6.552426E-13	NaN
1182	1.000000	0.398699	7.37661e+06	-56489.1	1105.82	-29738.6	0.000000	0.000000	6.398902	0.002097	NaN	0.000000	0.001595	0.001725	28.0826	0.129704	0.002096	61.8836	104.817	-163.826	0.092985	0.397366	-0.767267	-0.768599	0.002097	61.8836	-0.767293	-1.616186E+10	-1.297732E-13	NaN
1182	1.000000	0.442725	7.37661e+06	-56489.1	1105.82	-29738.6	0.000000	0.000000	6.442929	0.024303	NaN	0.000000	0.001640	0.001679	28.0833	0.088835	0.002078	42.7568	165.644	-162.176	-0.025906	0.441388	-0.723241	-0.724578	0.024303	42.7568	-0.723667	-4.116054E+9	-5.904521E-12	NaN
1182	1.000000	0.486737	7.37661e+06	-56489.1	1105.82	-29738.6	0.000000	0.000000	6.486940	-0.008591	NaN	0.000000	0.001601	0.001682	28.0835	0.110429	0.002113	52.2573	-168.143	-164.894	0.031101	0.485360	-0.679229	-0.680606	-0.008591	52.2573	-0.679105	-1.013838E+9	8.473807E-12	NaN
1182	1.000000	0.530742	7.37661e+06	-56489.1	1105.82	-29738.6	0.000000	0.000000	6.530945	0.001598	NaN	0.000000	0.001599	0.001704	28.0835	0.079739	0.001923	41.4567	-44.1748	-166.24	0.078445	0.529445	-0.635224	-0.636521	0.001598	41.4567	-0.635253	-2.541782E+8	-6.287483E-12	NaN
1182	1.000000	0.574755	7.37661e+06	-56489.1	1105.82	-29738.6	0.000000	0.000000	6.574960	0.055525	NaN	0.000000	0.001640	0.001722	28.0841	0.054110	0.001915	28.2609	69.619	-167.357	0.054954	0.573463	-0.591211	-0.592503	0.055525	28.2609	-0.592684	-6.601922E+7	-8.410421E-10	NaN
1182	1.000000	0.618812	7.37661e+06	-56489.1	1105.82	-29738.6	0.000000	0.000000	6.619016	0.001398	NaN	0.000000	0.001649	0.001694	28.0828	0.043551	0.002113	20.6075	37.3741	-167.514	-0.010663	0.617489	-0.547153	-0.548477	0.001398	20.6075	-0.547204	-1.553194E+7	-8.999792E-11	NaN
1182	1.000000	0.662816	7.37661e+06	-56489.1	1105.82	-29738.6	0.000000	0.000000	6.663016	-0.065617	NaN	0.000000	0.001645	0.001675	28.0826	0.126426	0.001999	63.2503	148.574	-163.015	-0.085315	0.661521	-0.503150	-0.504445	-0.065617	63.2503	-0.502372	-3.69914e+06	1.773855E-8	NaN
1182	1.000000	0.706775	7.37661e+06	-56489.1	1105.82	-29738.6	0.000000	0.000000	6.706978	-0.002799	NaN	0.000000	0.001650	0.001694	28.0829	0.022148	0.002055	10.7799	-3.362489	-166.408	-0.085955	0.705489	-0.459191	-0.460477	-0.002799	10.7799	-0.458996	-913929	3.062217E-9	NaN
1182	1.000000	0.750842	7.37661e+06	-56489.1	1105.82	-29738.6	0.000000	0.000000	6.751048	0.082008	NaN	0.000000	0.001636	0.001666	28.0842	0.101127	0.001980	51.0632	-57.3727	-163.644	0.068245	0.749533	-0.415124	-0.416433	0.082008	51.0632	-0.416329	-228203	-3.593653E-7	NaN
1182	1.000000	0.794850	7.37661e+06	-56489.1	1105.82	-29738.6	0.000000	0.000000	6.795054	0.018004	NaN	0.000000	0.001596	0.001652	28.0841	0.133027	0.002050	64.899	-139.786	-164.14	0.045969	0.793581	-0.371116	-0.372385	0.018004	64.899	-0.371324	-51903.2	-3.468803E-7	NaN
1182	1.000000	0.838871	7.37661e+06	-56489.1	1105.82	-29738.6	0.000000	0.000000	6.839077	0.057645	NaN	0.000000	0.001615	0.001687	28.0842	0.047715	0.002185	21.838	-79.129	-164.789	0.090696	0.837601	-0.327095	-0.328364	0.057645	21.838	-0.329075	-12644.3	-4.559003E-6	NaN
1182	1.000000	0.882922	7.37661e+06	-56489.1	1105.82	-29738.6	0.000000	0.000000	6.883128	0.067296	NaN	0.000000	0.001625	0.001619	28.0828	0.094089	0.002062	45.6317	-4.169248	-165.028	0.034300	0.881628	-0.283044	-0.284338	0.067296	45.6317	-0.284150	-2725.75	-2.468893E-5	NaN
1182	1.000000	0.926891	7.37661e+06	-56489.1	1105.82	-29738.6	0.000000	0.000000	6.927094	-0.012786	NaN	0.000000	0.001606	0.001712	28.0828	0.144215	0.001905	75.701	-135.155	-162.412	0.017067	0.925551	-0.239075	-0.240415	-0.012786	75.701	-0.238948	-553.494	2.310005E-5	NaN
1182	1.000000	0.970945	7.37661e+06	-56489.1	1105.82	-29738.6	0.000000	0.000000	6.971149	0.017504	NaN	0.000000	0.001627	0.001664	28.0829	0.033860	0.002072	16.3452	-147.223	-167.067	0.013241	0.969667	-0.195021	-0.196298	0.017504	16.3452	-0.195824	-112.421	-0.000156	NaN
1182	1.000000	1.014921	7.37661e+06	-56489.1	1105.82	-29738.6	0.000000	0.000000	7.015123	-0.012667	NaN	0.000000	0.001599	0.001664	28.0841	0.040584	0.002016	20.1346	-106.383	-167.872	-0.008437	1.013659	-0.151045	-0.152307	-0.012667	20.1346	-0.150573	-18.5548	0.000683	NaN
1182	1.000000	1.058971	7.37661e+06	-56489.1	1105.82	-29738.6	0.000000	0.000000	7.059177	0.060198	NaN	0.000000	0.001580	0.001631	28.0842	0.050572	0.001873	27.0036	-75.3695	-162.145	0.131475	1.057609	-0.106995	-0.108357	0.060198	27.0036	-0.108667	-2.816277	-0.021375	NaN
1182	1.000000	1.102973	7.37661e+06	-56489.1	1105.82	-29738.6	0.000000	0.000000	7.103174	-0.052867	NaN	0.000000	0.001556	0.001668	28.0843	0.035845	0.001946	18.4206	-95.0706	-168.611	-0.022571	1.101660	-0.062993	-0.064305	-0.052867	18.4206	-0.060840	-0.190340	0.277752	NaN
1182	1.000000	1.146981	7.37661e+06	-56489.1	1105.82	-29738.6	0.000000	0.000000	7.147184	-0.005869	NaN	0.000000	0.001578	0.001675	28.0832	0.095391	0.002086	45.7222	-129.035	-168.052	0.068224	1.145654	-0.018985	-0.020312	-0.005869	45.7222	-0.018889	-0.011767	0.498735	NaN
1182	2.000000	1.178524	7.37662e+06	-56489.1	1105.82	-29738.6	0.000000	0.000000	7.179254	12.7991	NaN	0.000000	0.001568	0.001667	28.0828	12.2156	0.001730	7061.86	5.737899	-172.192	12.655	1.178252	0.012558	0.012286	12.7991	7061.86	0.011199	0.010544	1213.84	62832.3
1182	2.000000	1.189468	7.37662e+06	-56489.1	1105.82	-29738.6	0.000000	0.000000	7.190976	31.7147	NaN	0.000000	0.001660	0.001677	28.0829	22.5585	0.001771	12738.1	7.094651	-178.686	31.0614	1.189109	0.023503	0.023144	31.7147	12738.1	0.021635	0.025177	1259.66	73345.4
1182	2.000000	1.200485	7.37662e+06	-56489.1	1105.82	-29738.6	0.000000	0.000000	7.203115	58.986	NaN	0.000000	0.001676	0.001691	28.0843	32.3203	0.001710	18898.4	5.322660	178.479	59.9135	1.200124	0.034519	0.034158	58.986	18898.4	0.032178	0.045379	1299.85	81053.2
1182	2.000000	1.211358	7.37662e+06	-56489.1	1105.82	-29738.6	0.000000	0.000000	7.216005	108.016	NaN	0.000000	0.001640	0.001695	28.0841	44.3824	0.001824	24333.2	7.340157	175.168	105.102	1.211090	0.045392	0.045124	108.016	24333.2	0.042063	0.069468	1554.91	84349.2
1182	2.000000	1.222500	7.37662e+06	-56489.1	1105.82	-29738.6	0.000000	0.000000	7.229142	156.512	NaN	0.000000	0.001658	0.001675	28.0841	55.7926	0.001896	29421.1	8.938043	172.026	162.371	1.222149	0.056534	0.056183	156.512	29421.1	0.052545	0.100440	1558.26	84816.1
1182	2.000000	1.233462	7.37662e+06	-56489.1	1105.82	-29738.6	0.000000	0.000000	7.242609	217.393	NaN	0.000000	0.001599	0.001648	28.0829	64.9402	0.001658	39156.8	7.610045	170.036	222.312	1.233119	0.067496	0.067153	217.393	39156.8	0.063332	0.138028	1574.99	96293.6
1182	2.000000	1.244400	7.37662e+06	-56489.1	1105.82	-29738.6	0.000000	0.000000	7.256478	288.62	NaN	0.000000	0.001608	0.001631	28.0829	76.1556	0.001746	43611.2	6.529277	170.662	288.505	1.244060	0.078435	0.078094	288.62	43611.2	0.073471	0.178494	1616.97	94310.3
1182	2.000000	1.255278	7.37662e+06	-56489.1	1105.82	-29738.6	0.000000	0.000000	7.270176	357.171	NaN	0.000000	0.001606	0.001652	28.0828	87.4494	0.001889	46295.9	5.714006	170.564	351.851	1.255036	0.089312	0.089070	357.171	46295.9	0.083526	0.223421	1598.64	89485.7
1182	2.000000	1.266336	7.37662e+06	-56489.1	1105.82	-29738.6	0.000000	0.000000	7.285060	450.178	NaN	0.000000	0.001574	0.001665	28.0838	95.6747	0.001676	57079.8	3.426758	172.099	448.899	1.265858	0.100370	0.099892	450.178	57079.8	0.094455	0.277561	1621.91	98986.7
1182	2.000000	1.272808	7.37662e+06	-56489.1	1105.82	-29738.6	0.000000	0.000000	7.293530	498.753	NaN	0.000000	0.001571	0.001706	28.0841	102.97	0.001836	56076.9	3.764145	-8.615133	494.253	1.272520	0.106842	0.106554	498.753	56076.9	0.100171	0.308054	1619.04	92308.9