File: remote_trans/data/nanoindenter/0828-1/data/Data_2025-08-06,11h17m57s/2025-07-22_16-23-58_1_200.txt
2025-07-22, 16:23:58, 1
Index	Phase	Displacement	Time	Pos X	Pos Y	Pos Z	Rot A	Rot B	Piezo Z	Force A	Force B	Gripper	Voltage A	Voltage B	Temperature	Amplitude force	Amplitude pos	Stiffness	Phase shift	Phase excitation	Force A raw	Displacement raw	HMax	HMax raw	Real Force	Real Stiffness	Contact Depth	Area	Hardness	Reduced Mod.
[#]	[#]	[um]	[s]	[um]	[um]	[um]	[m°]	[m°]	[um]	[uN]	[uN]	[V]	[V]	[V]	[°C]	[uN]	[um]	[N/m]	[°]	[°]	[uN]	[um]	[um]	[um]	[uN]	[N/m]	[um]	[um^2]	[MPa]	[MPa]
200	1.000000	0.002368	7.367e+06	-48639.1	955.818	-29762.1	0.000000	0.000000	6.002818	0.048921	NaN	0.000000	0.001598	0.001662	28.0791	0.124891	0.001011	123.52	-166.1	-167.751	0.011882	0.001086	-0.220764	-0.222046	0.048921	123.52	-0.221061	-288.814	-0.000169	NaN
200	1.000000	0.022325	7.367e+06	-48639.1	955.818	-29762.1	0.000000	0.000000	6.022774	0.030061	NaN	0.000000	0.001614	0.001672	28.079	0.023572	0.001670	14.1185	-116.577	-163.481	0.048231	0.020955	-0.200807	-0.202177	0.030061	14.1185	-0.202404	-144.255	-0.000208	NaN
200	1.000000	0.042288	7.367e+06	-48639.1	955.818	-29762.1	0.000000	0.000000	6.042735	-0.029787	NaN	0.000000	0.001596	0.001672	28.079	0.093246	0.001950	47.8104	149.222	-166.721	0.001542	0.041025	-0.180844	-0.182107	-0.029787	47.8104	-0.180377	-61.9259	0.000481	NaN
200	1.000000	0.062288	7.367e+06	-48639.1	955.818	-29762.1	0.000000	0.000000	6.062739	0.058984	NaN	0.000000	0.001593	0.001713	28.0791	0.084381	0.002013	41.9248	-164.279	-166.621	-0.056138	0.060955	-0.160844	-0.162177	0.058984	41.9248	-0.161899	-29.6246	-0.001991	NaN
200	1.000000	0.082327	7.367e+06	-48639.1	955.819	-29762.1	0.000000	0.000000	6.082775	-0.016532	NaN	0.000000	0.001591	0.001699	28.0789	0.040413	0.001962	20.5974	-52.3696	-165.86	-0.092997	0.081037	-0.140804	-0.142095	-0.016532	20.5974	-0.140202	-11.9335	0.001385	NaN
200	1.000000	0.102291	7.367e+06	-48639.1	955.818	-29762.1	0.000000	0.000000	6.102737	-0.054547	NaN	0.000000	0.001593	0.001680	28.0787	0.060382	0.001949	30.984	-41.7046	-164.841	-0.102705	0.101049	-0.120840	-0.122082	-0.054547	30.984	-0.119520	-4.724803	0.011545	NaN
200	1.000000	0.122337	7.367e+06	-48639.1	955.818	-29762.1	0.000000	0.000000	6.122799	0.309760	NaN	0.000000	0.001565	0.001693	28.0776	0.120419	0.001970	61.1404	0.423647	-166.386	0.260689	0.121063	-0.100794	-0.102068	0.309760	61.1404	-0.104594	-2.303520	-0.134472	NaN
200	1.000000	0.142373	7.367e+06	-48639.1	955.819	-29762.1	0.000000	0.000000	6.142839	0.433506	NaN	0.000000	0.001571	0.001688	28.0777	0.274907	0.001939	141.778	27.502	-169.186	0.460039	0.140999	-0.080758	-0.082133	0.433506	141.778	-0.083052	-0.736596	-0.588526	NaN
200	1.000000	0.162344	7.367e+06	-48639.1	955.817	-29762.1	0.000000	0.000000	6.162834	1.019889	NaN	0.000000	0.001552	0.001722	28.0777	0.333284	0.002087	159.691	18.7981	-164.839	0.991223	0.161039	-0.060788	-0.062092	1.019889	159.691	-0.065578	-0.258565	-3.944419	NaN
200	1.000000	0.182352	7.367e+06	-48639.1	955.817	-29762.1	0.000000	0.000000	6.182864	1.553968	NaN	0.000000	0.001555	0.001692	28.0779	0.625550	0.002084	300.115	29.3951	-166.37	1.558771	0.181028	-0.040780	-0.042103	1.553968	300.115	-0.044663	-0.062762	-24.7597	NaN
200	1.000000	0.202360	7.367e+06	-48639.1	955.818	-29762.1	0.000000	0.000000	6.202900	2.221082	NaN	0.000000	0.001567	0.001684	28.0778	0.765802	0.001872	409.058	26.5272	-169.453	2.205327	0.201049	-0.020771	-0.022083	2.221082	409.058	-0.024843	-0.016712	-132.901	NaN
200	1.000000	0.222383	7.367e+06	-48639.1	955.818	-29762.1	0.000000	0.000000	6.222945	2.760018	NaN	0.000000	0.001576	0.001695	28.078	0.950622	0.001953	486.638	15.9623	-165.37	2.717536	0.221095	-0.000749	-0.002037	2.760018	486.638	-0.005002	-0.003418	-807.446	NaN
200	1.000000	0.242379	7.367e+06	-48639.1	955.818	-29762.1	0.000000	0.000000	6.242975	3.583293	NaN	0.000000	0.001578	0.001684	28.0776	1.060465	0.001974	537.217	19.3027	-167.522	3.573850	0.241139	0.019247	0.018007	3.583293	537.217	0.014245	0.014292	250.726	4105.65
200	1.000000	0.262330	7.367e+06	-48639.1	955.818	-29762.1	0.000000	0.000000	6.262967	4.590795	NaN	0.000000	0.001606	0.001701	28.079	1.360879	0.002025	672.108	19.0793	-167.927	4.384193	0.261095	0.039198	0.037963	4.590795	672.108	0.034076	0.049615	92.5276	2756.79
200	1.000000	0.282414	7.367e+06	-48639.1	955.818	-29762.1	0.000000	0.000000	6.283109	5.989634	NaN	0.000000	0.001605	0.001714	28.0789	1.649625	0.002003	823.424	16.785	-168.806	5.886735	0.281106	0.059282	0.057975	5.989634	823.424	0.053827	0.104608	57.2579	2326.03
200	1.000000	0.302371	7.367e+06	-48639.1	955.818	-29762.1	0.000000	0.000000	6.303132	7.609674	NaN	0.000000	0.001565	0.001715	28.079	1.980948	0.002133	928.661	19.528	-167.074	7.393952	0.301090	0.079239	0.077958	7.609674	928.661	0.073094	0.176899	43.017	2017.28
200	2.000000	0.320065	7.367e+06	-48639.1	955.818	-29762.1	0.000000	0.000000	6.320869	8.658633	NaN	0.000000	0.001571	0.001705	28.0788	2.311006	0.002055	1124.59	8.989704	-165.784	8.765314	0.319753	0.096933	0.096621	8.658633	1124.59	0.091159	0.260653	33.219	2012.5
200	2.000000	0.325025	7.367e+06	-48639.1	955.818	-29762.1	0.000000	0.000000	6.325827	8.588695	NaN	0.000000	0.001579	0.001712	28.079	2.445729	0.001919	1274.39	11.2918	-168.126	8.616690	0.324723	0.101893	0.101591	8.588695	1274.39	0.096839	0.290096	29.6064	2161.75
200	2.000000	0.329981	7.367e+06	-48639.1	955.818	-29762.1	0.000000	0.000000	6.330796	8.892437	NaN	0.000000	0.001609	0.001686	28.0788	2.625263	0.002137	1228.7	15.7354	-169.291	8.984531	0.329675	0.106850	0.106543	8.892437	1228.7	0.101422	0.314925	28.2367	2000.4
200	2.000000	0.334975	7.367e+06	-48639.1	955.818	-29762.1	0.000000	0.000000	6.335793	8.987663	NaN	0.000000	0.001643	0.001705	28.079	2.393036	0.002077	1152.02	14.2019	-170.743	9.028698	0.334667	0.111843	0.111536	8.987663	1152.02	0.105992	0.340632	26.3852	1803.39
200	2.000000	0.339932	7.367e+06	-48639.1	955.818	-29762.1	0.000000	0.000000	6.340752	9.033987	NaN	0.000000	0.001605	0.001678	28.0775	2.459801	0.002003	1227.87	15.0588	-169.791	8.952264	0.339682	0.116800	0.116550	9.033987	1227.87	0.111282	0.371571	24.3129	1840.36
200	2.000000	0.344951	7.367e+06	-48639.1	955.818	-29762.1	0.000000	0.000000	6.345783	9.312849	NaN	0.000000	0.001650	0.001701	28.0774	2.649872	0.002084	1271.69	17.4193	-169.445	9.268066	0.344632	0.121820	0.121500	9.312849	1271.69	0.116327	0.402261	23.1512	1831.89
200	2.000000	0.349944	7.367e+06	-48639.1	955.819	-29762.1	0.000000	0.000000	6.350779	9.397303	NaN	0.000000	0.001670	0.001689	28.0772	2.494420	0.001897	1315.25	11.578	-170.777	9.575164	0.349644	0.126812	0.126513	9.397303	1315.25	0.121454	0.434628	21.6215	1822.73
200	2.000000	0.354925	7.367e+06	-48639.1	955.819	-29762.1	0.000000	0.000000	6.355770	9.635633	NaN	0.000000	0.001628	0.001707	28.0774	2.580022	0.001983	1300.81	14.3671	-166.547	9.552363	0.354614	0.131794	0.131483	9.635633	1300.81	0.126238	0.465914	20.6811	1741.14
200	2.000000	0.359906	7.367e+06	-48639.1	955.818	-29762.1	0.000000	0.000000	6.360747	9.536948	NaN	0.000000	0.001601	0.001713	28.0773	2.492930	0.002144	1162.55	14.6141	-168.054	9.707927	0.359699	0.136775	0.136568	9.536948	1162.55	0.130622	0.495496	19.2473	1508.91
200	2.000000	0.364948	7.367e+06	-48639.1	955.818	-29762.1	0.000000	0.000000	6.365800	9.816254	NaN	0.000000	0.001584	0.001678	28.077	2.491575	0.001957	1272.87	14.8992	-167.435	9.822444	0.364629	0.141816	0.141498	9.816254	1272.87	0.136032	0.533218	18.4095	1592.59
200	2.000000	0.369919	7.367e+06	-48639.1	955.818	-29762.1	0.000000	0.000000	6.370772	9.829655	NaN	0.000000	0.001629	0.001716	28.0774	2.656199	0.002037	1304.08	9.648752	-167.977	9.954461	0.369653	0.146787	0.146522	9.829655	1304.08	0.141134	0.570018	17.2445	1578.1
200	2.000000	0.374907	7.367e+06	-48639.1	955.818	-29762.1	0.000000	0.000000	6.375771	10.1081	NaN	0.000000	0.001602	0.001657	28.0786	2.692877	0.002010	1339.87	15.6356	-170.188	9.957915	0.374565	0.151775	0.151434	10.1081	1339.87	0.146117	0.607121	16.6492	1571.08
200	2.000000	0.379892	7.36701e+06	-48639.1	955.818	-29762.1	0.000000	0.000000	6.380758	10.1687	NaN	0.000000	0.001596	0.001654	28.0788	2.782662	0.002110	1319.07	12.3291	-167.986	10.154	0.379628	0.156760	0.156496	10.1687	1319.07	0.150979	0.644431	15.7793	1501.25
200	2.000000	0.384926	7.36701e+06	-48639.1	955.818	-29762.1	0.000000	0.000000	6.385800	10.3438	NaN	0.000000	0.001599	0.001698	28.0788	2.766065	0.002082	1328.85	18.7579	-170.24	10.3604	0.384594	0.161795	0.161463	10.3438	1328.85	0.155957	0.683776	15.1274	1468.23
200	2.000000	0.389923	7.36701e+06	-48639.1	955.819	-29762.1	0.000000	0.000000	6.390795	10.2987	NaN	0.000000	0.001651	0.001652	28.0788	2.756326	0.001925	1432.12	15.2627	-170.111	10.2905	0.389580	0.166792	0.166449	10.2987	1432.12	0.161399	0.728118	14.1442	1533.39
200	2.000000	0.394910	7.36701e+06	-48639.1	955.817	-29762.1	0.000000	0.000000	6.395787	10.4238	NaN	0.000000	0.001654	0.001695	28.0786	2.860638	0.002035	1405.43	14.2599	-168.942	10.5213	0.394623	0.171778	0.171492	10.4238	1405.43	0.166216	0.768537	13.5631	1464.7
200	2.000000	0.399905	7.36701e+06	-48639.1	955.818	-29762.1	0.000000	0.000000	6.400787	10.5371	NaN	0.000000	0.001633	0.001658	28.0788	3.046669	0.002000	1523.68	15.5994	-172.307	10.5591	0.399601	0.176774	0.176469	10.5371	1523.68	0.171587	0.814903	12.9305	1542.11
200	2.000000	0.404858	7.36701e+06	-48639.1	955.818	-29762.1	0.000000	0.000000	6.405748	10.7481	NaN	0.000000	0.001624	0.001674	28.0773	3.011600	0.002087	1443.22	10.3184	-168.254	10.7113	0.404521	0.181726	0.181390	10.7481	1443.22	0.176141	0.855291	12.5666	1425.77
200	2.000000	0.409888	7.36701e+06	-48639.1	955.818	-29762.1	0.000000	0.000000	6.410785	10.9151	NaN	0.000000	0.001640	0.001693	28.0774	2.918156	0.002019	1445.51	13.1494	-167.078	10.8453	0.409586	0.186757	0.186454	10.9151	1445.51	0.181093	0.900346	12.1232	1391.84
200	2.000000	0.414891	7.36701e+06	-48639.1	955.818	-29762.1	0.000000	0.000000	6.415801	11.2294	NaN	0.000000	0.001669	0.001691	28.0772	2.992967	0.001999	1497.45	15.3311	-167.683	11.2292	0.414563	0.191759	0.191432	11.2294	1497.45	0.186135	0.947430	11.8525	1405.57
200	2.000000	0.417390	7.36701e+06	-48639.1	955.819	-29762.1	0.000000	0.000000	6.418303	11.3027	NaN	0.000000	0.001691	0.001661	28.0775	3.074752	0.001997	1539.54	13.108	12.2746	11.3719	0.417053	0.194258	0.193921	11.3027	1539.54	0.188752	0.972352	11.6241	1426.44