File: remote_trans/data/nanoindenter/0828-1/data/Data_2025-08-06,11h17m57s/2025-07-22_16-23-58_1_133.txt
2025-07-22, 16:23:58, 1
Index	Phase	Displacement	Time	Pos X	Pos Y	Pos Z	Rot A	Rot B	Piezo Z	Force A	Force B	Gripper	Voltage A	Voltage B	Temperature	Amplitude force	Amplitude pos	Stiffness	Phase shift	Phase excitation	Force A raw	Displacement raw	HMax	HMax raw	Real Force	Real Stiffness	Contact Depth	Area	Hardness	Reduced Mod.
[#]	[#]	[um]	[s]	[um]	[um]	[um]	[m°]	[m°]	[um]	[uN]	[uN]	[V]	[V]	[V]	[°C]	[uN]	[um]	[N/m]	[°]	[°]	[uN]	[um]	[um]	[um]	[uN]	[N/m]	[um]	[um^2]	[MPa]	[MPa]
133	1.000000	0.002649	7.36634e+06	-45289.1	955.819	-29773.4	0.000000	0.000000	6.002795	-0.046362	NaN	0.000000	0.001492	0.001688	28.1188	0.057746	0.000837	68.9821	139.321	-156.414	-0.033378	0.001384	-1.093957	-1.095223	-0.046362	68.9821	-1.093453	-4.094306E+14	1.132348E-16	NaN
133	1.000000	0.044610	7.36634e+06	-45289.1	955.818	-29773.4	0.000000	0.000000	6.044758	0.001507	NaN	0.000000	0.001565	0.001692	28.0811	0.056245	0.001893	29.7187	52.1929	14.5988	0.022288	0.043249	-1.051997	-1.053358	0.001507	29.7187	-1.052035	-1.137018E+14	-1.325648E-17	NaN
133	1.000000	0.086643	7.36634e+06	-45289.1	955.818	-29773.4	0.000000	0.000000	6.086791	0.005451	NaN	0.000000	0.001518	0.001683	28.0813	0.053909	0.001944	27.7302	-12.6897	-163.891	0.032061	0.085275	-1.009963	-1.011332	0.005451	27.7302	-1.010111	-3.103666E+13	-1.756372E-16	NaN
133	1.000000	0.128641	7.36634e+06	-45289.1	955.818	-29773.4	0.000000	0.000000	6.128787	-0.023009	NaN	0.000000	0.001562	0.001648	28.1162	0.037451	0.001870	20.0235	-27.3245	16.2289	-0.007341	0.127275	-0.967966	-0.969332	-0.023009	20.0235	-0.967104	-8.177830E+12	2.813596E-15	NaN
133	1.000000	0.170659	7.36634e+06	-45289.1	955.818	-29773.4	0.000000	0.000000	6.170805	-0.030732	NaN	0.000000	0.001538	0.001615	28.1187	0.102526	0.002141	47.8804	-152.744	-164.267	0.011775	0.169367	-0.925948	-0.927240	-0.030732	47.8804	-0.925467	-2.243936E+12	1.369575E-14	NaN
133	1.000000	0.212670	7.36634e+06	-45289.1	955.818	-29773.5	0.000000	0.000000	6.212816	-0.030080	NaN	0.000000	0.001522	0.001640	28.0813	0.036554	0.001973	18.5227	42.245	12.9965	-0.043973	0.211332	-0.883937	-0.885275	-0.030080	18.5227	-0.882719	-5.935728E+11	5.067665E-14	NaN
133	1.000000	0.254724	7.36634e+06	-45289.1	955.819	-29773.5	0.000000	0.000000	6.254870	-0.037827	NaN	0.000000	0.001527	0.001703	28.0812	0.061244	0.002106	29.0833	8.945897	-165.667	-0.005501	0.253385	-0.841883	-0.843221	-0.037827	29.0833	-0.840907	-1.612822E+11	2.345385E-13	NaN
133	1.000000	0.296701	7.36634e+06	-45289.1	955.818	-29773.5	0.000000	0.000000	6.296844	-0.102637	NaN	0.000000	0.001549	0.001734	28.1167	0.157410	0.001936	81.3197	-97.6241	15.4814	-0.042533	0.295340	-0.799906	-0.801267	-0.102637	81.3197	-0.798959	-4.352467E+10	2.358127E-12	NaN
133	1.000000	0.338753	7.36634e+06	-45289.1	955.819	-29773.5	0.000000	0.000000	6.338900	-0.021048	NaN	0.000000	0.001534	0.001726	28.1208	0.064057	0.001991	32.1796	-50.6554	-163.275	-0.041885	0.337460	-0.757854	-0.759147	-0.021048	32.1796	-0.757363	-1.184202E+10	1.777363E-12	NaN
133	1.000000	0.380741	7.36634e+06	-45289.1	955.819	-29773.5	0.000000	0.000000	6.380886	-0.047331	NaN	0.000000	0.001548	0.001745	28.0812	0.096630	0.002030	47.605	-19.9787	15.9567	-0.031807	0.379381	-0.715866	-0.717226	-0.047331	47.605	-0.715121	-3.147150E+9	1.503917E-11	NaN
133	1.000000	0.422752	7.36634e+06	-45289.1	955.818	-29773.5	0.000000	0.000000	6.422899	-0.020666	NaN	0.000000	0.001564	0.001720	28.0805	0.070167	0.002029	34.577	-124.756	-164.616	-0.042279	0.421409	-0.673854	-0.675198	-0.020666	34.577	-0.673406	-8.472356E+8	2.439198E-11	NaN
133	1.000000	0.464780	7.36634e+06	-45289.1	955.819	-29773.5	0.000000	0.000000	6.464927	-0.008732	NaN	0.000000	0.001496	0.001748	28.1146	0.079342	0.002112	37.563	-115.481	13.3819	-0.007683	0.463425	-0.631827	-0.633182	-0.008732	37.563	-0.631653	-2.268408E+8	3.849287E-11	NaN
133	1.000000	0.506795	7.36634e+06	-45289.1	955.819	-29773.5	0.000000	0.000000	6.506940	-0.059781	NaN	0.000000	0.001519	0.001768	28.12	0.020938	0.001839	11.3846	-148.809	-162.167	0.029819	0.505516	-0.589812	-0.591091	-0.059781	11.3846	-0.585873	-5.318141E+7	1.124103E-9	NaN
133	1.000000	0.548814	7.36634e+06	-45289.1	955.818	-29773.5	0.000000	0.000000	6.548962	0.025684	NaN	0.000000	0.001517	0.001729	28.0831	0.047263	0.002052	23.0361	101.224	16.0701	-0.004018	0.547494	-0.547793	-0.549113	0.025684	23.0361	-0.548629	-1.625432E+7	-1.580141E-9	NaN
133	1.000000	0.590837	7.36634e+06	-45289.1	955.819	-29773.5	0.000000	0.000000	6.590984	-0.007523	NaN	0.000000	0.001546	0.001748	28.0809	0.047745	0.002075	23.0073	165.836	-163.209	-0.024180	0.589540	-0.505770	-0.507067	-0.007523	23.0073	-0.505525	-4.09322e+06	1.837799E-9	NaN
133	1.000000	0.632843	7.36634e+06	-45289.1	955.818	-29773.5	0.000000	0.000000	6.632990	-0.006365	NaN	0.000000	0.001570	0.001727	28.115	0.037125	0.002105	17.6355	-16.2577	13.4917	-0.009104	0.631444	-0.463764	-0.465163	-0.006365	17.6355	-0.463494	-1.05705e+06	6.021321E-9	NaN
133	1.000000	0.674858	7.36634e+06	-45289.1	955.817	-29773.5	0.000000	0.000000	6.675007	0.034666	NaN	0.000000	0.001567	0.001736	28.119	0.086527	0.001995	43.3776	-111.93	-164.839	0.042773	0.673555	-0.421748	-0.423052	0.034666	43.3776	-0.422348	-277781	-1.247974E-7	NaN
133	1.000000	0.716886	7.36634e+06	-45289.1	955.819	-29773.5	0.000000	0.000000	6.717034	0.008293	NaN	0.000000	0.001562	0.001766	28.082	0.113552	0.001864	60.9051	-73.8056	14.9079	-0.097633	0.715505	-0.379721	-0.381102	0.008293	60.9051	-0.379823	-68762.6	-1.205969E-7	NaN
133	1.000000	0.758908	7.36634e+06	-45289.1	955.818	-29773.5	0.000000	0.000000	6.759054	-0.031324	NaN	0.000000	0.001541	0.001750	28.0785	0.099347	0.002062	48.1871	163.264	-164.267	-0.035433	0.757621	-0.337699	-0.338986	-0.031324	48.1871	-0.337211	-16629.3	1.883672E-6	NaN
133	1.000000	0.800912	7.36634e+06	-45289.1	955.817	-29773.5	0.000000	0.000000	6.801058	-0.044449	NaN	0.000000	0.001617	0.001744	28.1148	0.064542	0.002235	28.883	-98.7391	18.8193	0.031057	0.799583	-0.295695	-0.297024	-0.044449	28.883	-0.294541	-3901.47	1.139275E-5	NaN
133	1.000000	0.842949	7.36634e+06	-45289.1	955.818	-29773.5	0.000000	0.000000	6.843098	0.017474	NaN	0.000000	0.001615	0.001726	28.1214	0.072188	0.001991	36.2578	-130.577	-161.904	0.050253	0.841617	-0.253657	-0.254990	0.017474	36.2578	-0.254019	-948.431	-1.842363E-5	NaN
133	1.000000	0.884968	7.36634e+06	-45289.1	955.818	-29773.5	0.000000	0.000000	6.885113	-0.044134	NaN	0.000000	0.001647	0.001733	28.0831	0.080114	0.002111	37.9491	-160.28	17.8689	-0.105643	0.883612	-0.211639	-0.212995	-0.044134	37.9491	-0.210767	-197.349	0.000224	NaN
133	1.000000	0.926964	7.36634e+06	-45289.1	955.817	-29773.5	0.000000	0.000000	6.927111	-0.010472	NaN	0.000000	0.001638	0.001762	28.0782	0.015358	0.001852	8.292794	-20.3663	-167.099	-0.057515	0.925672	-0.169643	-0.170935	-0.010472	8.292794	-0.168696	-38.9883	0.000269	NaN
133	1.000000	0.968981	7.36634e+06	-45289.1	955.818	-29773.5	0.000000	0.000000	6.969128	-0.018158	NaN	0.000000	0.001559	0.001735	28.1127	0.045574	0.002042	22.3195	26.0795	15.764	-0.022018	0.967707	-0.127626	-0.128899	-0.018158	22.3195	-0.127016	-6.663893	0.002725	NaN
133	1.000000	1.011022	7.36634e+06	-45289.1	955.819	-29773.5	0.000000	0.000000	7.011167	-0.058110	NaN	0.000000	0.001587	0.001779	28.1209	0.035804	0.002105	17.0096	-69.7718	-165.543	-0.110688	1.009665	-0.085585	-0.086942	-0.058110	17.0096	-0.083023	-0.735403	0.079018	NaN
133	1.000000	1.053052	7.36634e+06	-45289.1	955.819	-29773.5	0.000000	0.000000	7.053197	-0.056972	NaN	0.000000	0.001575	0.001731	28.0844	0.041021	0.001926	21.3032	44.5558	13.6883	-0.072844	1.051633	-0.043555	-0.044974	-0.056972	21.3032	-0.041549	-0.050409	1.130197	NaN
133	1.000000	1.095075	7.36634e+06	-45289.1	955.82	-29773.5	0.000000	0.000000	7.095222	-0.000712	NaN	0.000000	0.001527	0.001735	28.0788	0.015821	0.001962	8.064310	-53.9967	-163.632	0.149538	1.093760	-0.001532	-0.002847	-0.000712	8.064310	-0.001466	-0.001065	0.668167	NaN
133	2.000000	1.115095	7.36634e+06	-45289.1	955.82	-29773.5	0.000000	0.000000	7.115913	16.3164	NaN	0.000000	0.001619	0.001746	28.1134	15.455	0.001941	7960.76	9.932097	4.806186	15.729	1.114778	0.018488	0.018171	16.3164	7960.76	0.016950	0.017975	907.731	54249.3
133	2.000000	1.125520	7.36634e+06	-45289.1	955.82	-29773.5	0.000000	0.000000	7.127338	40.6284	NaN	0.000000	0.001584	0.001747	28.1214	26.6951	0.001872	14261.2	6.989738	-178.319	39.7498	1.125256	0.028913	0.028649	40.6284	14261.2	0.026777	0.034327	1183.57	70325.2
133	2.000000	1.135997	7.36634e+06	-45289.1	955.82	-29773.5	0.000000	0.000000	7.139097	71.811	NaN	0.000000	0.001565	0.001736	28.0829	36.5136	0.001784	20469.1	4.496812	0.000983	69.8034	1.135681	0.039390	0.039074	71.811	20469.1	0.036759	0.055921	1284.14	79083.1
133	2.000000	1.146477	7.36635e+06	-45289.1	955.821	-29773.5	0.000000	0.000000	7.151079	108.377	NaN	0.000000	0.001623	0.001717	28.0782	47.7455	0.001869	25551.1	6.117700	177.49	106.298	1.146146	0.049870	0.049539	108.377	25551.1	0.046689	0.082454	1314.39	81297.3
133	2.000000	1.156968	7.36635e+06	-45289.1	955.821	-29773.5	0.000000	0.000000	7.163275	149.846	NaN	0.000000	0.001558	0.001735	28.1113	56.6595	0.001753	32327	5.641324	-5.019345	146.524	1.156705	0.060361	0.060098	149.846	32327	0.056885	0.114875	1304.43	87141.5
133	2.000000	1.167510	7.36635e+06	-45289.1	955.821	-29773.5	0.000000	0.000000	7.175980	202.476	NaN	0.000000	0.001563	0.001718	28.1234	66.4366	0.001665	39890.4	4.497426	175.645	201.121	1.167062	0.070903	0.070455	202.476	39890.4	0.067096	0.152476	1327.92	93334.2
133	2.000000	1.177963	7.36635e+06	-45289.1	955.821	-29773.5	0.000000	0.000000	7.188593	255.013	NaN	0.000000	0.001542	0.001767	28.0831	77.8186	0.001819	42787.5	6.953610	-8.822398	252.844	1.177682	0.081356	0.081075	255.013	42787.5	0.076886	0.193224	1319.78	88932.5
133	2.000000	1.188478	7.36635e+06	-45289.1	955.821	-29773.5	0.000000	0.000000	7.202043	326.41	NaN	0.000000	0.001519	0.001787	28.0803	87.2139	0.001802	48391.5	4.158566	173.785	328.043	1.188085	0.091871	0.091478	326.41	48391.5	0.086812	0.239123	1365.03	90413.2
133	2.000000	1.199014	7.36635e+06	-45289.1	955.821	-29773.5	0.000000	0.000000	7.215738	403.261	NaN	0.000000	0.001519	0.001761	28.1087	97.3182	0.001714	56780.2	7.179889	-10.2924	405.212	1.198576	0.102407	0.101969	403.261	56780.2	0.097080	0.291381	1383.96	96103.4
133	2.000000	1.206341	7.36635e+06	-45289.1	955.82	-29773.5	0.000000	0.000000	7.225169	454.445	NaN	0.000000	0.001505	0.001740	28.0777	103.17	0.001716	60131.9	6.205698	170.081	449.622	1.206134	0.109734	0.109527	454.445	60131.9	0.104066	0.329682	1378.43	95682.1