File: remote_trans/data/nanoindenter/0828-1/data/Data_2025-08-06,11h17m57s/2025-07-22_16-23-58_1_516.txt
2025-07-22, 16:23:58, 1
Index	Phase	Displacement	Time	Pos X	Pos Y	Pos Z	Rot A	Rot B	Piezo Z	Force A	Force B	Gripper	Voltage A	Voltage B	Temperature	Amplitude force	Amplitude pos	Stiffness	Phase shift	Phase excitation	Force A raw	Displacement raw	HMax	HMax raw	Real Force	Real Stiffness	Contact Depth	Area	Hardness	Reduced Mod.
[#]	[#]	[um]	[s]	[um]	[um]	[um]	[m°]	[m°]	[um]	[uN]	[uN]	[V]	[V]	[V]	[°C]	[uN]	[um]	[N/m]	[°]	[°]	[uN]	[um]	[um]	[um]	[uN]	[N/m]	[um]	[um^2]	[MPa]	[MPa]
516	1.000000	0.002316	7.3701e+06	-51289.1	1005.82	-29752.8	0.000000	0.000000	6.002775	0.000435	NaN	0.000000	0.001667	0.001695	28.0816	0.109400	0.000951	115.097	-150.025	-170.568	0.053106	0.001057	-1.087525	-1.088783	0.000435	115.097	-1.087528	-3.408922E+14	-1.275003E-18	NaN
516	1.000000	0.042270	7.3701e+06	-51289.1	1005.82	-29752.8	0.000000	0.000000	6.042729	-0.014432	NaN	0.000000	0.001650	0.001676	28.082	0.127070	0.002027	62.7035	-174.087	-167.539	0.048611	0.040994	-1.047571	-1.048846	-0.014432	62.7035	-1.047398	-9.850025E+13	1.465184E-16	NaN
516	1.000000	0.082301	7.3701e+06	-51289.1	1005.82	-29752.8	0.000000	0.000000	6.082760	-0.014030	NaN	0.000000	0.001682	0.001685	28.0827	0.034527	0.002073	16.6575	-93.2106	-166.698	-0.060940	0.080995	-1.007540	-1.008846	-0.014030	16.6575	-1.006908	-2.810377E+13	4.992181E-16	NaN
516	1.000000	0.122301	7.3701e+06	-51289.1	1005.82	-29752.8	0.000000	0.000000	6.122757	-0.080861	NaN	0.000000	0.001670	0.001691	28.0825	0.046530	0.001907	24.3937	116.446	-164.931	-0.075766	0.121025	-0.967540	-0.968816	-0.080861	24.3937	-0.965054	-7.673609E+12	1.053753E-14	NaN
516	1.000000	0.162339	7.3701e+06	-51289.1	1005.82	-29752.8	0.000000	0.000000	6.162797	-0.032115	NaN	0.000000	0.001670	0.001736	28.0825	0.074500	0.002093	35.5931	166.387	-169.143	-0.094041	0.161078	-0.927502	-0.928763	-0.032115	35.5931	-0.926825	-2.340694E+12	1.372021E-14	NaN
516	1.000000	0.202356	7.3701e+06	-51289.1	1005.82	-29752.8	0.000000	0.000000	6.202813	-0.055512	NaN	0.000000	0.001616	0.001637	28.0816	0.115112	0.002036	56.5285	-100.479	-166.962	0.059395	0.201010	-0.887485	-0.888831	-0.055512	56.5285	-0.886749	-6.729158E+11	8.249422E-14	NaN
516	1.000000	0.242369	7.3701e+06	-51289.1	1005.82	-29752.8	0.000000	0.000000	6.242826	-0.055609	NaN	0.000000	0.001618	0.001655	28.0816	0.034770	0.001780	19.529	18.8489	-166.788	-0.104806	0.241026	-0.847472	-0.848815	-0.055609	19.529	-0.845336	-1.851730E+11	3.003069E-13	NaN
516	1.000000	0.282381	7.3701e+06	-51289.1	1005.82	-29752.8	0.000000	0.000000	6.282840	-0.004667	NaN	0.000000	0.001611	0.001683	28.0813	0.088843	0.001974	45.0131	-167.697	-165.679	-0.027269	0.281089	-0.807460	-0.808752	-0.004667	45.0131	-0.807382	-5.663095E+10	8.241093E-14	NaN
516	1.000000	0.322420	7.3701e+06	-51289.1	1005.82	-29752.8	0.000000	0.000000	6.322879	-0.006440	NaN	0.000000	0.001585	0.001680	28.0813	0.067621	0.002065	32.7479	-94.7991	-166.896	-0.022743	0.321096	-0.767421	-0.768745	-0.006440	32.7479	-0.767274	-1.615232E+10	3.987325E-13	NaN
516	1.000000	0.362425	7.3701e+06	-51289.1	1005.82	-29752.8	0.000000	0.000000	6.362882	-0.074760	NaN	0.000000	0.001579	0.001700	28.0828	0.015126	0.001994	7.586734	96.3381	-165.921	-0.114453	0.361123	-0.727415	-0.728718	-0.074760	7.586734	-0.720025	-3.671234E+9	2.036372E-11	NaN
516	1.000000	0.402438	7.3701e+06	-51289.1	1005.82	-29752.8	0.000000	0.000000	6.402896	-0.039804	NaN	0.000000	0.001561	0.001712	28.0829	0.051141	0.001987	25.7328	-134.259	-164.377	0.051979	0.401122	-0.687402	-0.688718	-0.039804	25.7328	-0.686242	-1.269278E+9	3.135964E-11	NaN
516	1.000000	0.442461	7.3701e+06	-51289.1	1005.82	-29752.8	0.000000	0.000000	6.442916	-0.101199	NaN	0.000000	0.001613	0.001691	28.0833	0.033044	0.002027	16.2993	-113.868	-164.314	-0.017957	0.441176	-0.647380	-0.648665	-0.101199	16.2993	-0.642723	-3.218491E+8	3.144304E-10	NaN
516	1.000000	0.482446	7.3701e+06	-51289.1	1005.82	-29752.8	0.000000	0.000000	6.482908	0.041846	NaN	0.000000	0.001592	0.001731	28.0817	0.090835	0.001940	46.8294	158.476	-164.214	-0.031466	0.481161	-0.607394	-0.608679	0.041846	46.8294	-0.608065	-1.075188E+8	-3.891945E-10	NaN
516	1.000000	0.522503	7.3701e+06	-51289.1	1005.82	-29752.8	0.000000	0.000000	6.522961	-0.043339	NaN	0.000000	0.001550	0.001639	28.0814	0.048101	0.002065	23.2988	-121.7	-164.212	-0.022571	0.521182	-0.567338	-0.568659	-0.043339	23.2988	-0.565943	-2.822020E+7	1.535731E-9	NaN
516	1.000000	0.562520	7.3701e+06	-51289.1	1005.82	-29752.8	0.000000	0.000000	6.562979	-0.029310	NaN	0.000000	0.001626	0.001733	28.0817	0.010140	0.002031	4.993446	-145.509	-167.271	-0.039742	0.561186	-0.527321	-0.528655	-0.029310	4.993446	-0.522918	-7.14789e+06	4.100496E-9	NaN
516	1.000000	0.602548	7.3701e+06	-51289.1	1005.82	-29752.8	0.000000	0.000000	6.603004	-0.094927	NaN	0.000000	0.001646	0.001702	28.0832	0.120883	0.001958	61.7405	-52.8043	-165.292	-0.077187	0.601258	-0.487293	-0.488583	-0.094927	61.7405	-0.486139	-2.19496e+06	4.324774E-8	NaN
516	1.000000	0.642519	7.3701e+06	-51289.1	1005.82	-29752.8	0.000000	0.000000	6.642977	-0.052064	NaN	0.000000	0.001621	0.001673	28.0834	0.094445	0.001880	50.2474	79.0937	-164.576	-0.095712	0.641261	-0.447321	-0.448580	-0.052064	50.2474	-0.446544	-610462	8.528598E-8	NaN
516	1.000000	0.682568	7.3701e+06	-51289.1	1005.82	-29752.8	0.000000	0.000000	6.683029	0.036311	NaN	0.000000	0.001614	0.001723	28.083	0.021983	0.001976	11.1277	-89.7105	-164.543	-0.024799	0.681224	-0.407273	-0.408617	0.036311	11.1277	-0.409721	-183834	-1.975217E-7	NaN
516	1.000000	0.722535	7.3701e+06	-51289.1	1005.82	-29752.8	0.000000	0.000000	6.722992	-0.060143	NaN	0.000000	0.001579	0.001685	28.0829	0.066890	0.001985	33.6981	69.9633	-163.051	-0.103170	0.721287	-0.367306	-0.368554	-0.060143	33.6981	-0.365967	-43451.5	1.384133E-6	NaN
516	1.000000	0.762584	7.3701e+06	-51289.1	1005.82	-29752.8	0.000000	0.000000	6.763044	-0.001449	NaN	0.000000	0.001637	0.001663	28.0817	0.031012	0.002002	15.4926	155.835	-167.951	-0.067052	0.761272	-0.327256	-0.328569	-0.001449	15.4926	-0.327186	-11863.6	1.221242E-7	NaN
516	1.000000	0.802585	7.3701e+06	-51289.1	1005.82	-29752.8	0.000000	0.000000	6.803040	-0.111842	NaN	0.000000	0.001698	0.001673	28.0813	0.121377	0.002135	56.8412	-165.946	-164.637	0.014011	0.801308	-0.287256	-0.288533	-0.111842	56.8412	-0.285780	-2883.94	3.878112E-5	NaN
516	1.000000	0.842638	7.3701e+06	-51289.1	1005.82	-29752.9	0.000000	0.000000	6.843096	-0.034151	NaN	0.000000	0.001670	0.001696	28.0819	0.065011	0.002001	32.4882	-56.8377	-164.225	0.005655	0.841292	-0.247203	-0.248549	-0.034151	32.4882	-0.246415	-723.476	4.720348E-5	NaN
516	1.000000	0.882617	7.3701e+06	-51289.1	1005.82	-29752.9	0.000000	0.000000	6.883076	-0.020392	NaN	0.000000	0.001693	0.001705	28.0829	0.012252	0.002059	5.951068	-28.4352	-166.539	0.049264	0.881381	-0.207224	-0.208459	-0.020392	5.951068	-0.204654	-157.004	0.000130	NaN
516	1.000000	0.922647	7.3701e+06	-51289.1	1005.82	-29752.9	0.000000	0.000000	6.923103	-0.111004	NaN	0.000000	0.001690	0.001714	28.0829	0.064853	0.001908	33.9841	-28.8537	-163.616	-0.170599	0.921379	-0.167193	-0.168462	-0.111004	33.9841	-0.164744	-33.2507	0.003338	NaN
516	1.000000	0.962684	7.3701e+06	-51289.1	1005.82	-29752.9	0.000000	0.000000	6.963141	-0.067130	NaN	0.000000	0.001677	0.001713	28.0828	0.025840	0.002095	12.3325	0.342182	-165.165	0.008320	0.961358	-0.127156	-0.128483	-0.067130	12.3325	-0.123074	-5.568536	0.012055	NaN
516	1.000000	1.002670	7.3701e+06	-51289.1	1005.82	-29752.9	0.000000	0.000000	7.003129	-0.028162	NaN	0.000000	0.001614	0.001771	28.0831	0.093969	0.001981	47.4317	42.0067	-164.785	-0.066965	1.001364	-0.087170	-0.088476	-0.028162	47.4317	-0.086725	-0.904072	0.031150	NaN
516	1.000000	1.042704	7.3701e+06	-51289.1	1005.82	-29752.9	0.000000	0.000000	7.043160	-0.103881	NaN	0.000000	0.001635	0.001754	28.0819	0.097345	0.002069	47.0573	-128.744	-164.451	-0.045163	1.041337	-0.047137	-0.048504	-0.103881	47.0573	-0.045481	-0.066481	1.562561	NaN
516	1.000000	1.082719	7.3701e+06	-51289.1	1005.82	-29752.9	0.000000	0.000000	7.083182	0.097010	NaN	0.000000	0.001663	0.001768	28.0817	0.277536	0.002000	138.763	10.8205	-160.64	-0.035557	1.081405	-0.007122	-0.008436	0.097010	138.763	-0.007646	-0.005024	-19.3095	NaN
516	2.000000	1.100307	7.3701e+06	-51289.1	1005.82	-29752.9	0.000000	0.000000	7.101490	17.5924	NaN	0.000000	0.001645	0.001742	28.0814	16.3285	0.001783	9156.95	10.1534	-176.351	17.9169	1.100015	0.010466	0.010174	17.5924	9156.95	0.009025	0.008118	2167	92851.8
516	2.000000	1.110273	7.3701e+06	-51289.1	1005.82	-29752.9	0.000000	0.000000	7.112379	40.0285	NaN	0.000000	0.001642	0.001726	28.0829	26.1824	0.001785	14666.8	2.881381	-175.153	39.495	1.109967	0.020433	0.020127	40.0285	14666.8	0.018386	0.020069	1994.55	94590.4
516	2.000000	1.120225	7.3701e+06	-51289.1	1005.82	-29752.9	0.000000	0.000000	7.123385	65.6693	NaN	0.000000	0.001645	0.001737	28.0828	36.3186	0.001822	19933.3	5.823721	179.037	63.5114	1.119914	0.030384	0.030074	65.6693	19933.3	0.027913	0.036529	1797.71	95286.4
516	2.000000	1.130189	7.3701e+06	-51289.1	1005.82	-29752.9	0.000000	0.000000	7.134897	103.313	NaN	0.000000	0.001650	0.001682	28.0831	45.6961	0.001818	25139.8	4.564376	178.049	100.707	1.129847	0.040348	0.040006	103.313	25139.8	0.037266	0.057154	1807.62	96075.2
516	2.000000	1.140237	7.3701e+06	-51289.1	1005.82	-29752.9	0.000000	0.000000	7.146562	142.62	NaN	0.000000	0.001656	0.001680	28.0818	56.2934	0.001870	30109.3	4.406647	176.776	144.497	1.139903	0.050396	0.050062	142.62	30109.3	0.046844	0.082908	1720.22	95537.8
516	2.000000	1.150168	7.3701e+06	-51289.1	1005.82	-29752.9	0.000000	0.000000	7.158501	191.459	NaN	0.000000	0.001617	0.001729	28.0814	64.8452	0.001721	37686.4	2.149050	176.865	188.309	1.149918	0.060327	0.060077	191.459	37686.4	0.056517	0.113615	1685.15	102150
516	2.000000	1.160225	7.3701e+06	-51289.1	1005.82	-29752.9	0.000000	0.000000	7.170881	247.949	NaN	0.000000	0.001635	0.001706	28.0815	74.5374	0.001782	41831.4	4.087062	174.403	248.375	1.159915	0.070384	0.070074	247.949	41831.4	0.065938	0.147959	1675.79	99358.5
516	2.000000	1.170151	7.3701e+06	-51289.1	1005.82	-29752.9	0.000000	0.000000	7.183336	309.425	NaN	0.000000	0.001626	0.001687	28.0815	83.4198	0.001697	49158.4	6.060831	171.301	307.21	1.169859	0.080311	0.080018	309.425	49158.4	0.075590	0.187567	1649.67	103703
516	2.000000	1.180168	7.3701e+06	-51289.1	1005.82	-29752.9	0.000000	0.000000	7.196289	380.841	NaN	0.000000	0.001676	0.001707	28.0828	94.1627	0.001919	49080.6	10.0608	168.084	379.491	1.179635	0.090327	0.089794	380.841	49080.6	0.084507	0.228057	1669.94	93899
516	2.000000	1.190257	7.3701e+06	-51289.1	1005.82	-29752.9	0.000000	0.000000	7.209003	444.679	NaN	0.000000	0.001630	0.001695	28.0823	102.827	0.001845	55727.6	5.061031	171.546	451.311	1.189886	0.100416	0.100045	444.679	55727.6	0.094431	0.277437	1602.81	96663.2
516	2.000000	1.191040	7.3701e+06	-51289.1	1005.82	-29752.9	0.000000	0.000000	7.210506	462.158	NaN	0.000000	0.001609	0.001751	28.0825	103.752	0.001900	54612.4	7.484495	169.418	455.585	1.190659	0.101199	0.100818	462.158	54612.4	0.094852	0.279633	1652.73	94356.2