File: remote_trans/data/nanoindenter/0828-1/data/Data_2025-08-06,11h17m57s/2025-07-22_16-23-58_1_170.txt
2025-07-22, 16:23:58, 1
Index	Phase	Displacement	Time	Pos X	Pos Y	Pos Z	Rot A	Rot B	Piezo Z	Force A	Force B	Gripper	Voltage A	Voltage B	Temperature	Amplitude force	Amplitude pos	Stiffness	Phase shift	Phase excitation	Force A raw	Displacement raw	HMax	HMax raw	Real Force	Real Stiffness	Contact Depth	Area	Hardness	Reduced Mod.
[#]	[#]	[um]	[s]	[um]	[um]	[um]	[m°]	[m°]	[um]	[uN]	[uN]	[V]	[V]	[V]	[°C]	[uN]	[um]	[N/m]	[°]	[°]	[uN]	[um]	[um]	[um]	[uN]	[N/m]	[um]	[um^2]	[MPa]	[MPa]
170	1.000000	0.002480	7.3667e+06	-47139.1	955.818	-29767.3	0.000000	0.000000	6.002785	0.034266	NaN	0.000000	0.001674	0.001669	28.0972	0.051350	0.001044	49.1724	81.6606	-162.587	0.008016	0.001240	-1.079461	-1.080702	0.034266	49.1724	-1.079984	-2.699627E+14	-1.269278E-16	NaN
170	1.000000	0.042436	7.3667e+06	-47139.1	955.819	-29767.3	0.000000	0.000000	6.042741	0.026885	NaN	0.000000	0.001637	0.001657	28.0944	0.118800	0.001976	60.1098	-83.2531	-163.845	-0.016537	0.041142	-1.039505	-1.040800	0.026885	60.1098	-1.039841	-7.795187E+13	-3.448880E-16	NaN
170	1.000000	0.082442	7.3667e+06	-47139.1	955.818	-29767.3	0.000000	0.000000	6.082747	0.039783	NaN	0.000000	0.001645	0.001628	28.0957	0.027671	0.001945	14.2301	-51.9829	-162.918	0.059492	0.081179	-0.999500	-1.000762	0.039783	14.2301	-1.001597	-2.383792E+13	-1.668914E-15	NaN
170	1.000000	0.122470	7.3667e+06	-47139.1	955.819	-29767.3	0.000000	0.000000	6.122773	-0.006179	NaN	0.000000	0.001617	0.001664	28.0944	0.065968	0.002093	31.5207	-119.344	-167.735	0.051633	0.121107	-0.959472	-0.960835	-0.006179	31.5207	-0.959325	-6.423363E+12	9.619438E-16	NaN
170	1.000000	0.162467	7.3667e+06	-47139.1	955.818	-29767.3	0.000000	0.000000	6.162770	0.008247	NaN	0.000000	0.001597	0.001634	28.0981	0.059308	0.002043	29.0357	-19.6474	-165.96	0.033318	0.161205	-0.919475	-0.920737	0.008247	29.0357	-0.919688	-1.874980E+12	-4.398250E-15	NaN
170	1.000000	0.202500	7.3667e+06	-47139.1	955.818	-29767.3	0.000000	0.000000	6.202806	0.046174	NaN	0.000000	0.001596	0.001642	28.0966	0.027580	0.001905	14.4767	-97.9732	-161.692	0.064545	0.201180	-0.879441	-0.880761	0.046174	14.4767	-0.881833	-5.774328E+11	-7.996379E-14	NaN
170	1.000000	0.242519	7.3667e+06	-47139.1	955.819	-29767.3	0.000000	0.000000	6.242822	-0.003967	NaN	0.000000	0.001653	0.001601	28.0983	0.051162	0.001951	26.2259	115.761	-166.77	-0.041898	0.241171	-0.839423	-0.840770	-0.003967	26.2259	-0.839310	-1.534409E+11	2.585257E-14	NaN
170	1.000000	0.282524	7.3667e+06	-47139.1	955.818	-29767.3	0.000000	0.000000	6.282829	0.039335	NaN	0.000000	0.001626	0.001675	28.0963	0.040914	0.002046	19.9965	-1.667318	-166.275	0.058062	0.281246	-0.799418	-0.800696	0.039335	19.9965	-0.800893	-4.623617E+10	-8.507373E-13	NaN
170	1.000000	0.322581	7.3667e+06	-47139.1	955.818	-29767.3	0.000000	0.000000	6.322885	0.012287	NaN	0.000000	0.001654	0.001686	28.0975	0.045234	0.001965	23.0141	-128.064	-164.568	0.002938	0.321211	-0.759361	-0.760731	0.012287	23.0141	-0.759762	-1.276612E+10	-9.624916E-13	NaN
170	1.000000	0.362590	7.3667e+06	-47139.1	955.819	-29767.3	0.000000	0.000000	6.362894	0.004240	NaN	0.000000	0.001654	0.001630	28.0965	0.117539	0.002022	58.1195	33.3987	-165.674	-0.013107	0.361304	-0.719352	-0.720638	0.004240	58.1195	-0.719406	-3.600615E+9	-1.177448E-12	NaN
170	1.000000	0.402589	7.3667e+06	-47139.1	955.819	-29767.3	0.000000	0.000000	6.402893	0.026021	NaN	0.000000	0.001622	0.001632	28.0983	0.043505	0.001956	22.2467	129.793	-167.27	0.031557	0.401217	-0.679353	-0.680725	0.026021	22.2467	-0.680230	-1.050398E+9	-2.477280E-11	NaN
170	1.000000	0.442590	7.3667e+06	-47139.1	955.818	-29767.3	0.000000	0.000000	6.442894	0.021287	NaN	0.000000	0.001636	0.001669	28.0987	0.067399	0.002023	33.3188	82.8409	-166.117	-0.025754	0.441329	-0.639352	-0.640613	0.021287	33.3188	-0.639831	-2.937454E+8	-7.246781E-11	NaN
170	1.000000	0.482632	7.3667e+06	-47139.1	955.819	-29767.3	0.000000	0.000000	6.482934	-0.023441	NaN	0.000000	0.001633	0.001631	28.0988	0.053957	0.001870	28.8587	24.7654	-163.938	0.002108	0.481315	-0.599310	-0.600627	-0.023441	28.8587	-0.598701	-7.990354E+7	2.933670E-10	NaN
170	1.000000	0.522652	7.3667e+06	-47139.1	955.818	-29767.3	0.000000	0.000000	6.522955	-0.011427	NaN	0.000000	0.001644	0.001617	28.0985	0.079942	0.002137	37.4037	-62.3617	-163.055	-0.028846	0.521315	-0.559290	-0.560626	-0.011427	37.4037	-0.559061	-2.266654E+7	5.041175E-10	NaN
170	1.000000	0.562661	7.3667e+06	-47139.1	955.818	-29767.3	0.000000	0.000000	6.562966	0.015889	NaN	0.000000	0.001667	0.001703	28.0989	0.024666	0.001917	12.8639	-82.9315	-163.228	0.014163	0.561308	-0.519280	-0.520634	0.015889	12.8639	-0.520207	-6.55347e+06	-2.424527E-9	NaN
170	1.000000	0.602652	7.3667e+06	-47139.1	955.819	-29767.3	0.000000	0.000000	6.602958	0.070471	NaN	0.000000	0.001665	0.001686	28.0971	0.067169	0.001944	34.5503	-56.0488	-166.771	0.022124	0.601385	-0.479290	-0.480557	0.070471	34.5503	-0.480820	-1.84927e+06	-3.810765E-8	NaN
170	1.000000	0.642701	7.3667e+06	-47139.1	955.818	-29767.3	0.000000	0.000000	6.643007	0.051237	NaN	0.000000	0.001576	0.001650	28.0985	0.057976	0.001980	29.2809	-15.33	-164.649	0.084883	0.641375	-0.439241	-0.440567	0.051237	29.2809	-0.440553	-502539	-1.019556E-7	NaN
170	1.000000	0.682709	7.3667e+06	-47139.1	955.819	-29767.3	0.000000	0.000000	6.683012	-0.010167	NaN	0.000000	0.001749	0.001664	28.0984	0.081358	0.002028	40.1226	7.356237	-167.86	-0.050917	0.681469	-0.399232	-0.400473	-0.010167	40.1226	-0.399042	-129519	7.849720E-8	NaN
170	1.000000	0.722747	7.3667e+06	-47139.1	955.819	-29767.3	0.000000	0.000000	6.723052	0.037197	NaN	0.000000	0.001729	0.001663	28.0997	0.077428	0.002012	38.4886	108.55	-167.129	0.000107	0.721399	-0.359195	-0.360543	0.037197	38.4886	-0.359920	-35537.3	-1.046704E-6	NaN
170	1.000000	0.762717	7.3667e+06	-47139.1	955.818	-29767.3	0.000000	0.000000	6.763022	0.038592	NaN	0.000000	0.001719	0.001625	28.1002	0.074044	0.001860	39.8058	-10.9303	-165.39	-0.016622	0.761463	-0.319225	-0.320479	0.038592	39.8058	-0.319952	-9288.1	-4.154985E-6	NaN
170	1.000000	0.802745	7.3667e+06	-47139.1	955.818	-29767.3	0.000000	0.000000	6.803046	-0.066560	NaN	0.000000	0.001746	0.001678	28.1006	0.051719	0.001995	25.9287	-70.1573	-165.32	-0.067777	0.801500	-0.279197	-0.280441	-0.066560	25.9287	-0.277272	-2146.68	3.100581E-5	NaN
170	1.000000	0.842790	7.3667e+06	-47139.1	955.818	-29767.3	0.000000	0.000000	6.843095	0.034265	NaN	0.000000	0.001681	0.001708	28.099	0.026376	0.001936	13.6259	-26.8358	-169.241	0.001507	0.841453	-0.239151	-0.240489	0.034265	13.6259	-0.241037	-596.689	-5.742490E-5	NaN
170	1.000000	0.882766	7.3667e+06	-47139.1	955.819	-29767.3	0.000000	0.000000	6.883070	0.015085	NaN	0.000000	0.001675	0.001719	28.0997	0.063546	0.001934	32.8554	-71.2126	-169.487	-0.032254	0.881486	-0.199176	-0.200456	0.015085	32.8554	-0.199520	-129.363	-0.000117	NaN
170	1.000000	0.922806	7.3667e+06	-47139.1	955.818	-29767.3	0.000000	0.000000	6.923110	0.006459	NaN	0.000000	0.001683	0.001685	28.0991	0.156352	0.002062	75.8394	175.955	-166.434	-0.011088	0.921479	-0.159135	-0.160463	0.006459	75.8394	-0.159199	-26.5304	-0.000243	NaN
170	1.000000	0.962816	7.3667e+06	-47139.1	955.818	-29767.3	0.000000	0.000000	6.963120	0.011745	NaN	0.000000	0.001730	0.001710	28.1013	0.093773	0.002015	46.5306	-125.476	-165.015	-0.099075	0.961495	-0.119125	-0.120447	0.011745	46.5306	-0.119315	-4.679839	-0.002510	NaN
170	1.000000	1.002855	7.3667e+06	-47139.1	955.818	-29767.3	0.000000	0.000000	7.003162	0.072128	NaN	0.000000	0.001747	0.001707	28.1008	0.035908	0.001958	18.3351	-128.246	-167.839	-0.031446	1.001502	-0.079087	-0.080440	0.072128	18.3351	-0.082037	-0.695477	-0.103710	NaN
170	1.000000	1.042844	7.3667e+06	-47139.1	955.818	-29767.4	0.000000	0.000000	7.043147	-0.020634	NaN	0.000000	0.001670	0.001684	28.101	0.093101	0.001943	47.9076	16.2337	-163.821	-0.015441	1.041585	-0.039098	-0.040357	-0.020634	47.9076	-0.038775	-0.041517	0.497004	NaN
170	1.000000	1.082900	7.36671e+06	-47139.1	955.818	-29767.4	0.000000	0.000000	7.083205	0.038338	NaN	0.000000	0.001760	0.001704	28.1005	0.138665	0.002070	66.9725	15.845	-164.893	0.057838	1.081598	0.000958	-0.000344	0.038338	66.9725	0.000529	0.000399	96.0565	3062.81
170	2.000000	1.101501	7.36671e+06	-47139.1	955.818	-29767.4	0.000000	0.000000	7.102562	18.4168	NaN	0.000000	0.001727	0.001666	28.1005	16.2575	0.001685	9646.55	6.864082	-175.133	19.6372	1.101135	0.019560	0.019194	18.4168	9646.55	0.018128	0.019685	935.559	62816.5
170	2.000000	1.111384	7.36671e+06	-47139.1	955.818	-29767.4	0.000000	0.000000	7.113459	43.092	NaN	0.000000	0.001680	0.001674	28.1002	27.6634	0.001928	14346.4	4.466629	-176.841	41.3918	1.111084	0.029443	0.029142	43.092	14346.4	0.027190	0.035120	1226.99	69941.8
170	2.000000	1.121403	7.36671e+06	-47139.1	955.817	-29767.4	0.000000	0.000000	7.124932	78.4653	NaN	0.000000	0.001697	0.001715	28.1016	37.9055	0.001842	20578.4	7.180756	177.85	79.5448	1.121078	0.039461	0.039136	78.4653	20578.4	0.036601	0.055540	1412.77	79778
170	2.000000	1.131436	7.36671e+06	-47139.1	955.818	-29767.4	0.000000	0.000000	7.136545	116.895	NaN	0.000000	0.001691	0.001746	28.1021	46.5586	0.001800	25863.3	2.896230	178.545	117.794	1.131090	0.049494	0.049149	116.895	25863.3	0.046105	0.080754	1447.54	83152.3
170	2.000000	1.141354	7.36671e+06	-47139.1	955.818	-29767.4	0.000000	0.000000	7.148354	162.886	NaN	0.000000	0.001665	0.001708	28.1033	55.9156	0.001706	32781.8	2.815248	176.229	161.142	1.141115	0.059412	0.059173	162.886	32781.8	0.055685	0.110793	1470.19	89980.9
170	2.000000	1.151308	7.36671e+06	-47139.1	955.819	-29767.4	0.000000	0.000000	7.160607	218.815	NaN	0.000000	0.001664	0.001744	28.1026	65.278	0.001757	37150.2	1.466054	177.169	214.736	1.151113	0.069366	0.069171	218.815	37150.2	0.064949	0.144149	1517.98	89398.1
170	2.000000	1.161294	7.36671e+06	-47139.1	955.817	-29767.4	0.000000	0.000000	7.173271	283.936	NaN	0.000000	0.001705	0.001693	28.1041	75.9051	0.001900	39946.5	4.519114	173.759	281.757	1.161014	0.079353	0.079072	283.936	39946.5	0.074022	0.180831	1570.17	85825.2
170	2.000000	1.171326	7.36671e+06	-47139.1	955.818	-29767.4	0.000000	0.000000	7.186170	353.682	NaN	0.000000	0.001730	0.001711	28.102	84.9834	0.001815	46823.4	5.156888	172.604	353.138	1.171053	0.089384	0.089111	353.682	46823.4	0.083719	0.224330	1576.62	90321.9
170	2.000000	1.181354	7.36671e+06	-47139.1	955.817	-29767.4	0.000000	0.000000	7.199586	436.093	NaN	0.000000	0.001761	0.001696	28.1029	95.2221	0.001741	54691	4.443626	171.724	436.856	1.180960	0.099412	0.099018	436.093	54691	0.093432	0.272259	1601.75	95762.9
170	2.000000	1.191290	7.36671e+06	-47139.1	955.818	-29767.4	0.000000	0.000000	7.213042	521.693	NaN	0.000000	0.001679	0.001727	28.1019	104.799	0.001780	58884.4	3.571428	171.605	518.246	1.191123	0.109349	0.109182	521.693	58884.4	0.102704	0.322040	1619.96	94802.2
170	2.000000	1.192758	7.36671e+06	-47139.1	955.816	-29767.4	0.000000	0.000000	7.215545	546.893	NaN	0.000000	0.001703	0.001726	28.1317	104.718	0.001775	58994.3	5.017174	-8.975591	540.998	1.192431	0.110816	0.110490	546.893	58994.3	0.103863	0.328538	1664.62	94035.2