File: remote_trans/data/nanoindenter/0828-1/data/Data_2025-08-06,11h17m57s/2025-07-22_16-23-58_1_293.txt
2025-07-22, 16:23:58, 1
Index	Phase	Displacement	Time	Pos X	Pos Y	Pos Z	Rot A	Rot B	Piezo Z	Force A	Force B	Gripper	Voltage A	Voltage B	Temperature	Amplitude force	Amplitude pos	Stiffness	Phase shift	Phase excitation	Force A raw	Displacement raw	HMax	HMax raw	Real Force	Real Stiffness	Contact Depth	Area	Hardness	Reduced Mod.
[#]	[#]	[um]	[s]	[um]	[um]	[um]	[m°]	[m°]	[um]	[uN]	[uN]	[V]	[V]	[V]	[°C]	[uN]	[um]	[N/m]	[°]	[°]	[uN]	[um]	[um]	[um]	[uN]	[N/m]	[um]	[um^2]	[MPa]	[MPa]
293	1.000000	0.002621	7.36792e+06	-53289.1	955.819	-29746.5	0.000000	0.000000	6.002846	-0.003366	NaN	0.000000	0.001578	0.001694	28.0783	0.097384	0.001002	97.2102	146.953	-169.414	-0.001319	0.001360	-1.699305	-1.700565	-0.003366	97.2102	-1.699279	-4.975747E+22	6.765110E-26	NaN
293	1.000000	0.060522	7.36792e+06	-53289.1	955.819	-29746.5	0.000000	0.000000	6.060753	0.123627	NaN	0.000000	0.001602	0.001685	28.0796	0.062071	0.001990	31.1956	-10.909	15.7724	0.035790	0.059182	-1.641404	-1.642744	0.123627	31.1956	-1.644376	-9.274136E+21	-1.333031E-23	NaN
293	1.000000	0.118532	7.36792e+06	-53289.1	955.819	-29746.4	0.000000	0.000000	6.118760	0.063528	NaN	0.000000	0.001622	0.001668	28.0792	0.013337	0.001936	6.888748	-101.979	-165.804	0.050433	0.117219	-1.583394	-1.584707	0.063528	6.888748	-1.590310	-1.771495E+21	-3.586145E-23	NaN
293	1.000000	0.176577	7.36792e+06	-53289.1	955.819	-29746.4	0.000000	0.000000	6.176807	0.106943	NaN	0.000000	0.001588	0.001656	28.0779	0.022531	0.002043	11.0276	174.522	9.134591	0.157199	0.175164	-1.525349	-1.526761	0.106943	11.0276	-1.532622	-3.024695E+20	-3.535660E-22	NaN
293	1.000000	0.234611	7.36792e+06	-53289.1	955.818	-29746.4	0.000000	0.000000	6.234838	0.047628	NaN	0.000000	0.001608	0.001641	28.0782	0.031930	0.002020	15.8053	-133.313	-166.667	0.062775	0.233296	-1.467315	-1.468629	0.047628	15.8053	-1.469575	-4.375299E+19	-1.088556E-21	NaN
293	1.000000	0.292610	7.36792e+06	-53289.1	955.819	-29746.4	0.000000	0.000000	6.292836	0.024973	NaN	0.000000	0.001590	0.001648	28.0781	0.034978	0.002043	17.1233	-172.229	15.3224	-0.011724	0.291260	-1.409316	-1.410666	0.024973	17.1233	-1.410410	-7.117211E+18	-3.508774E-21	NaN
293	1.000000	0.350655	7.36792e+06	-53289.1	955.818	-29746.4	0.000000	0.000000	6.350881	0.031842	NaN	0.000000	0.001571	0.001651	28.0791	0.077012	0.002001	38.4791	-156.625	-165.763	0.037943	0.349322	-1.351271	-1.352604	0.031842	38.4791	-1.351892	-1.178919E+18	-2.700955E-20	NaN
293	1.000000	0.408665	7.36792e+06	-53289.1	955.818	-29746.4	0.000000	0.000000	6.408893	0.066281	NaN	0.000000	0.001611	0.001621	28.0791	0.033920	0.002120	16.0033	122.353	16.3718	0.060249	0.407355	-1.293260	-1.294570	0.066281	16.0033	-1.296367	-2.137196E+17	-3.101290E-19	NaN
293	1.000000	0.466713	7.36792e+06	-53289.1	955.819	-29746.4	0.000000	0.000000	6.466940	0.041258	NaN	0.000000	0.001632	0.001681	28.0781	0.052028	0.001965	26.4724	130.042	-166.555	-0.025348	0.465361	-1.235213	-1.236565	0.041258	26.4724	-1.236382	-3.370781E+16	-1.223977E-18	NaN
293	1.000000	0.524743	7.36792e+06	-53289.1	955.818	-29746.4	0.000000	0.000000	6.524974	0.114933	NaN	0.000000	0.001731	0.001643	28.0785	0.122339	0.001924	63.5773	-69.6276	14.9125	0.109930	0.523388	-1.177182	-1.178538	0.114933	63.5773	-1.178538	-5.666126E+15	-2.028420E-17	NaN
293	1.000000	0.582763	7.36793e+06	-53289.1	955.819	-29746.4	0.000000	0.000000	6.582989	0.032197	NaN	0.000000	0.001625	0.001627	28.0798	0.133201	0.002088	63.7897	160.814	-164.819	0.102011	0.581453	-1.119163	-1.120473	0.032197	63.7897	-1.119542	-9.169009E+14	-3.511454E-17	NaN
293	1.000000	0.640771	7.36793e+06	-53289.1	955.819	-29746.4	0.000000	0.000000	6.640996	0.003215	NaN	0.000000	0.001628	0.001643	28.0795	0.128859	0.002053	62.762	-61.7186	11.0972	-0.055373	0.639412	-1.061155	-1.062513	0.003215	62.762	-1.061193	-1.509584E+14	-2.129621E-17	NaN
293	1.000000	0.698788	7.36793e+06	-53289.1	955.819	-29746.4	0.000000	0.000000	6.699014	0.011678	NaN	0.000000	0.001611	0.001646	28.0793	0.125126	0.001936	64.6335	38.1941	-163.942	0.014872	0.697455	-1.003138	-1.004471	0.011678	64.6335	-1.003273	-2.510935E+13	-4.650985E-16	NaN
293	1.000000	0.756805	7.36793e+06	-53289.1	955.82	-29746.4	0.000000	0.000000	6.757030	-0.015099	NaN	0.000000	0.001612	0.001624	28.0785	0.051162	0.001869	27.374	161.724	11.9874	0.038341	0.755499	-0.945120	-0.946426	-0.015099	27.374	-0.944707	-4.079733E+12	3.701057E-15	NaN
293	1.000000	0.814864	7.36793e+06	-53289.1	955.818	-29746.4	0.000000	0.000000	6.815089	0.006526	NaN	0.000000	0.001644	0.001623	28.0782	0.052034	0.002080	25.0106	58.2542	-164.766	-0.019493	0.813521	-0.887062	-0.888404	0.006526	25.0106	-0.887258	-6.836672E+11	-9.545249E-15	NaN
293	1.000000	0.872835	7.36793e+06	-53289.1	955.818	-29746.4	0.000000	0.000000	6.873062	0.025677	NaN	0.000000	0.001624	0.001625	28.0795	0.063948	0.002035	31.4209	91.2568	15.9166	0.032222	0.871507	-0.829091	-0.830419	0.025677	31.4209	-0.829703	-1.137010E+11	-2.258292E-13	NaN
293	1.000000	0.930889	7.36793e+06	-53289.1	955.819	-29746.4	0.000000	0.000000	6.931116	0.043185	NaN	0.000000	0.001640	0.001625	28.0794	0.075468	0.001961	38.4767	23.0734	-165.182	0.022797	0.929551	-0.771037	-0.772374	0.043185	38.4767	-0.771879	-1.865715E+10	-2.314652E-12	NaN
293	1.000000	0.988908	7.36793e+06	-53289.1	955.818	-29746.4	0.000000	0.000000	6.989137	0.078223	NaN	0.000000	0.001651	0.001618	28.0787	0.088001	0.001965	44.7887	172.414	14.4391	0.093989	0.987533	-0.713018	-0.714393	0.078223	44.7887	-0.714327	-3.069705E+9	-2.548221E-11	NaN
293	1.000000	1.046947	7.36793e+06	-53289.1	955.818	-29746.4	0.000000	0.000000	7.047172	-0.006039	NaN	0.000000	0.001705	0.001629	28.0782	0.065470	0.002034	32.1859	102.069	-169.11	0.013809	1.045597	-0.654979	-0.656329	-0.006039	32.1859	-0.654838	-4.717949E+8	1.279906E-11	NaN
293	1.000000	1.104942	7.36793e+06	-53289.1	955.818	-29746.4	0.000000	0.000000	7.105166	-0.026780	NaN	0.000000	0.001640	0.001624	28.0781	0.029454	0.001898	15.5197	48.3662	9.925141	0.023642	1.103584	-0.596984	-0.598342	-0.026780	15.5197	-0.595690	-7.262485E+7	3.687385E-10	NaN
293	1.000000	1.162999	7.36793e+06	-53289.1	955.819	-29746.4	0.000000	0.000000	7.163226	0.023279	NaN	0.000000	0.001590	0.001608	28.0792	0.059998	0.001938	30.9523	167.673	-163.973	-0.028259	1.161674	-0.538927	-0.540251	0.023279	30.9523	-0.539491	-1.214211E+7	-1.917231E-9	NaN
293	1.000000	1.221018	7.36793e+06	-53289.1	955.819	-29746.4	0.000000	0.000000	7.221246	0.059062	NaN	0.000000	0.001597	0.001633	28.0797	0.084367	0.001879	44.9007	93.7757	12.4274	0.073792	1.219666	-0.480907	-0.482260	0.059062	44.9007	-0.481894	-1.91442e+06	-3.085130E-8	NaN
293	1.000000	1.279027	7.36793e+06	-53289.1	955.818	-29746.4	0.000000	0.000000	7.279252	-0.009438	NaN	0.000000	0.001619	0.001654	28.0784	0.084480	0.002014	41.9549	40.5666	-166.559	0.039358	1.277734	-0.422899	-0.424192	-0.009438	41.9549	-0.422730	-281267	3.355652E-8	NaN
293	1.000000	1.337066	7.36793e+06	-53289.1	955.82	-29746.4	0.000000	0.000000	7.337294	0.048727	NaN	0.000000	0.001613	0.001656	28.0782	0.090487	0.001944	46.5472	-133.456	11.2814	0.035270	1.335733	-0.364859	-0.366192	0.048727	46.5472	-0.365644	-42988.3	-1.133493E-6	NaN
293	1.000000	1.395090	7.36793e+06	-53289.1	955.819	-29746.4	0.000000	0.000000	7.395317	0.053747	NaN	0.000000	0.001609	0.001660	28.0781	0.049127	0.001830	26.8487	25.4191	-168.363	0.055949	1.393757	-0.306836	-0.308169	0.053747	26.8487	-0.308337	-6258.06	-8.588385E-6	NaN
293	1.000000	1.453121	7.36793e+06	-53289.1	955.818	-29746.4	0.000000	0.000000	7.453349	0.075999	NaN	0.000000	0.001589	0.001657	28.0797	0.096261	0.002013	47.8265	-135.998	14.1366	0.027716	1.451757	-0.248805	-0.250169	0.075999	47.8265	-0.249997	-822.091	-9.244585E-5	NaN
293	1.000000	1.511125	7.36793e+06	-53289.1	955.819	-29746.4	0.000000	0.000000	7.511351	-0.000885	NaN	0.000000	0.001591	0.001652	28.0793	0.083850	0.001971	42.5331	121.639	-167.582	0.001914	1.509889	-0.190801	-0.192036	-0.000885	42.5331	-0.190785	-92.7116	9.540574E-6	NaN
293	1.000000	1.569160	7.36793e+06	-53289.1	955.819	-29746.4	0.000000	0.000000	7.569389	0.075697	NaN	0.000000	0.001611	0.001684	28.0781	0.021802	0.001957	11.1411	127.114	14.118	0.076309	1.567794	-0.132765	-0.134131	0.075697	11.1411	-0.137861	-10.7809	-0.007021	NaN
293	1.000000	1.627175	7.36793e+06	-53289.1	955.82	-29746.4	0.000000	0.000000	7.627404	0.081072	NaN	0.000000	0.001618	0.001615	28.0783	0.040769	0.002003	20.3587	2.457994	-164.424	0.012672	1.625935	-0.074751	-0.075990	0.081072	20.3587	-0.077738	-0.542854	-0.149344	NaN
293	1.000000	1.685218	7.36793e+06	-53289.1	955.82	-29746.4	0.000000	0.000000	7.685446	0.078488	NaN	0.000000	0.001601	0.001633	28.0797	0.015406	0.002028	7.596483	-65.4676	14.2316	0.049979	1.683858	-0.016708	-0.018068	0.078488	7.596483	-0.024457	-0.016330	-4.806338	NaN
293	2.000000	1.725737	7.36793e+06	-53289.1	955.82	-29746.4	0.000000	0.000000	7.726585	15.1481	NaN	0.000000	0.001645	0.001628	28.0798	13.9682	0.001773	7877.2	7.905559	-176.425	14.7659	1.725386	0.023811	0.023460	15.1481	7877.2	0.022369	0.026402	573.746	44292.1
293	2.000000	1.740152	7.36793e+06	-53289.1	955.818	-29746.4	0.000000	0.000000	7.742393	49.0146	NaN	0.000000	0.001577	0.001673	28.0797	28.4507	0.001775	16030	7.170128	-1.496364	47.7324	1.739775	0.038226	0.037849	49.0146	16030	0.035933	0.053941	908.675	63059.1
293	2.000000	1.754587	7.36793e+06	-53289.1	955.82	-29746.4	0.000000	0.000000	7.758658	93.4823	NaN	0.000000	0.001633	0.001660	28.0784	40.2821	0.001773	22714.7	3.866780	177.896	91.2266	1.754306	0.052661	0.052381	93.4823	22714.7	0.049575	0.091103	1026.12	68756.4
293	2.000000	1.769132	7.36793e+06	-53289.1	955.818	-29746.4	0.000000	0.000000	7.775481	148.882	NaN	0.000000	0.001543	0.001708	28.0787	54.2619	0.001876	28919.1	7.022885	-7.575020	148.438	1.768790	0.067206	0.066864	148.882	28919.1	0.063345	0.138075	1078.27	71105
293	2.000000	1.783573	7.36793e+06	-53289.1	955.82	-29746.4	0.000000	0.000000	7.793060	225.167	NaN	0.000000	0.001592	0.001709	28.08	66.9946	0.001852	36182.7	3.531377	174.754	224.074	1.783310	0.081648	0.081384	225.167	36182.7	0.076980	0.193637	1162.83	75124.3
293	2.000000	1.798095	7.36793e+06	-53289.1	955.819	-29746.4	0.000000	0.000000	7.810866	305.019	NaN	0.000000	0.001607	0.001680	28.0799	79.2575	0.001636	48441.5	6.124364	-10.0055	303.537	1.797575	0.096169	0.095649	305.019	48441.5	0.091447	0.262112	1163.7	86446.5
293	2.000000	1.812545	7.36793e+06	-53289.1	955.819	-29746.4	0.000000	0.000000	7.829775	413.427	NaN	0.000000	0.001616	0.001712	28.0787	92.3562	0.001861	49621.6	3.694439	172.247	411.82	1.812221	0.110619	0.110295	413.427	49621.6	0.104370	0.331401	1247.51	78753
293	2.000000	1.818584	7.36793e+06	-53289.1	955.819	-29746.4	0.000000	0.000000	7.837827	462.357	NaN	0.000000	0.001633	0.001723	28.0783	97.4646	0.001628	59879	5.183493	169.97	462.508	1.818118	0.116659	0.116192	462.357	59879	0.110867	0.369101	1252.66	90048.3