File: remote_trans/data/nanoindenter/0828-1/data/Data_2025-08-06,11h17m57s/2025-07-22_16-23-58_1_1017.txt
2025-07-22, 16:23:58, 1
Index	Phase	Displacement	Time	Pos X	Pos Y	Pos Z	Rot A	Rot B	Piezo Z	Force A	Force B	Gripper	Voltage A	Voltage B	Temperature	Amplitude force	Amplitude pos	Stiffness	Phase shift	Phase excitation	Force A raw	Displacement raw	HMax	HMax raw	Real Force	Real Stiffness	Contact Depth	Area	Hardness	Reduced Mod.
[#]	[#]	[um]	[s]	[um]	[um]	[um]	[m°]	[m°]	[um]	[uN]	[uN]	[V]	[V]	[V]	[°C]	[uN]	[um]	[N/m]	[°]	[°]	[uN]	[um]	[um]	[um]	[uN]	[N/m]	[um]	[um^2]	[MPa]	[MPa]
1017	1.000000	0.002585	7.375e+06	-50989.1	1055.82	-29753.9	0.000000	0.000000	6.002778	0.016489	NaN	0.000000	0.001577	0.001675	28.0829	0.077348	0.000896	86.3088	150.319	-171.064	-0.005869	0.001369	-0.969394	-0.970609	0.016489	86.3088	-0.969537	-8.819086E+12	-1.869663E-15	NaN
1017	1.000000	0.040574	7.375e+06	-50989.1	1055.82	-29753.9	0.000000	0.000000	6.040766	-0.005716	NaN	0.000000	0.001564	0.001738	28.0829	0.114691	0.002131	53.8321	156.665	12.4191	-0.024531	0.039208	-0.931405	-0.932771	-0.005716	53.8321	-0.931325	-2.692048E+12	2.123365E-15	NaN
1017	1.000000	0.078571	7.375e+06	-50989.1	1055.82	-29753.9	0.000000	0.000000	6.078760	-0.081107	NaN	0.000000	0.001523	0.001655	28.0826	0.038278	0.001898	20.1626	77.4492	-165.645	-0.104001	0.077225	-0.893408	-0.894754	-0.081107	20.1626	-0.890391	-7.537046E+11	1.076105E-13	NaN
1017	1.000000	0.116597	7.375e+06	-50989.1	1055.82	-29753.9	0.000000	0.000000	6.116789	-0.014184	NaN	0.000000	0.001572	0.001720	28.0843	0.064755	0.001937	33.4227	-134.556	9.746078	0.014099	0.115225	-0.855381	-0.856753	-0.014184	33.4227	-0.855063	-2.507799E+11	5.655939E-14	NaN
1017	1.000000	0.154600	7.375e+06	-50989.1	1055.82	-29753.9	0.000000	0.000000	6.154792	0.002308	NaN	0.000000	0.001571	0.001719	28.0843	0.078087	0.002003	38.9821	11.2103	-164.407	0.108696	0.153242	-0.817379	-0.818736	0.002308	38.9821	-0.817423	-7.749355E+10	-2.977833E-14	NaN
1017	1.000000	0.192611	7.375e+06	-50989.1	1055.82	-29753.9	0.000000	0.000000	6.192802	-0.026403	NaN	0.000000	0.001609	0.001724	28.0841	0.084076	0.002058	40.846	111.27	13.6069	-0.057301	0.191290	-0.779368	-0.780689	-0.026403	40.846	-0.778883	-2.323037E+10	1.136582E-12	NaN
1017	1.000000	0.230624	7.375e+06	-50989.1	1055.82	-29753.9	0.000000	0.000000	6.230817	0.005577	NaN	0.000000	0.001622	0.001745	28.083	0.058523	0.001921	30.4687	-159.016	-166.617	-0.039794	0.229358	-0.741355	-0.742621	0.005577	30.4687	-0.741492	-7.200698E+9	-7.745361E-13	NaN
1017	1.000000	0.268659	7.375e+06	-50989.1	1055.82	-29753.9	0.000000	0.000000	6.268849	-0.051759	NaN	0.000000	0.001578	0.001662	28.0829	0.083482	0.002029	41.142	119.788	13.9923	-0.153789	0.267235	-0.703320	-0.704744	-0.051759	41.142	-0.702377	-2.108552E+9	2.454709E-11	NaN
1017	1.000000	0.306682	7.375e+06	-50989.1	1055.82	-29753.9	0.000000	0.000000	6.306876	0.036718	NaN	0.000000	0.001532	0.001706	28.0828	0.132374	0.001985	66.6946	-131.476	-166.926	0.040427	0.305356	-0.665297	-0.666623	0.036718	66.6946	-0.665710	-6.647527E+8	-5.523562E-11	NaN
1017	1.000000	0.344692	7.375e+06	-50989.1	1055.82	-29753.9	0.000000	0.000000	6.344885	0.031930	NaN	0.000000	0.001494	0.001750	28.0831	0.044280	0.001934	22.8912	-140.631	13.8256	0.060775	0.343316	-0.627287	-0.628663	0.031930	22.8912	-0.628333	-2.042372E+8	-1.563402E-10	NaN
1017	1.000000	0.382676	7.375e+06	-50989.1	1055.82	-29753.9	0.000000	0.000000	6.382866	-0.051544	NaN	0.000000	0.001539	0.001734	28.0838	0.017259	0.002019	8.548377	119.24	-165.427	0.004808	0.381390	-0.589303	-0.590589	-0.051544	8.548377	-0.584781	-5.136791E+7	1.003430E-9	NaN
1017	1.000000	0.420711	7.375e+06	-50989.1	1055.82	-29753.9	0.000000	0.000000	6.420901	-0.058412	NaN	0.000000	0.001504	0.001704	28.084	0.007258	0.002002	3.626220	-59.6044	15.1695	-0.052377	0.419308	-0.551268	-0.552671	-0.058412	3.626220	-0.539187	-1.202477E+7	4.857611E-9	NaN
1017	1.000000	0.458723	7.375e+06	-50989.1	1055.82	-29753.9	0.000000	0.000000	6.458912	-0.055356	NaN	0.000000	0.001529	0.001712	28.0841	0.088023	0.001988	44.2831	26.2601	-166.206	-0.136452	0.457426	-0.513256	-0.514553	-0.055356	44.2831	-0.512319	-5.08986e+06	1.087572E-8	NaN
1017	1.000000	0.496730	7.375e+06	-50989.1	1055.82	-29753.9	0.000000	0.000000	6.496919	-0.078943	NaN	0.000000	0.001570	0.001725	28.0838	0.054524	0.002139	25.4847	90.6682	17.9695	-0.006531	0.495390	-0.475249	-0.476589	-0.078943	25.4847	-0.472926	-1.4336e+06	5.506605E-8	NaN
1017	1.000000	0.534759	7.375e+06	-50989.1	1055.82	-29753.9	0.000000	0.000000	6.534952	0.029047	NaN	0.000000	0.001541	0.001678	28.0827	0.062351	0.001928	32.338	-51.2708	-167.985	0.045156	0.533445	-0.437220	-0.438533	0.029047	32.338	-0.437894	-460925	-6.301899E-8	NaN
1017	1.000000	0.572741	7.375e+06	-50989.1	1055.82	-29753.9	0.000000	0.000000	6.572932	-0.016871	NaN	0.000000	0.001556	0.001722	28.0823	0.061228	0.001967	31.1276	145.836	13.8196	-0.117975	0.571392	-0.399238	-0.400587	-0.016871	31.1276	-0.398831	-128625	1.311625E-7	NaN
1017	1.000000	0.610830	7.375e+06	-50989.1	1055.82	-29753.9	0.000000	0.000000	6.611021	-0.018928	NaN	0.000000	0.001563	0.001716	28.0825	0.040866	0.001991	20.5277	-125.471	-163.287	-0.104397	0.609453	-0.361149	-0.362526	-0.018928	20.5277	-0.360457	-36179.1	5.231762E-7	NaN
1017	1.000000	0.648803	7.375e+06	-50989.1	1055.82	-29753.9	0.000000	0.000000	6.648994	-0.033451	NaN	0.000000	0.001576	0.001767	28.0838	0.117012	0.002044	57.233	-39.6699	16.3315	-0.060274	0.647456	-0.323176	-0.324523	-0.033451	57.233	-0.322737	-10207	3.277202E-6	NaN
1017	1.000000	0.686838	7.375e+06	-50989.1	1055.82	-29753.9	0.000000	0.000000	6.687030	0.016335	NaN	0.000000	0.001545	0.001714	28.0836	0.075177	0.001907	39.4318	45.2737	-162.723	-0.071938	0.685538	-0.285141	-0.286441	0.016335	39.4318	-0.285452	-2851.41	-5.728856E-6	NaN
1017	1.000000	0.724833	7.375e+06	-50989.1	1055.82	-29753.9	0.000000	0.000000	6.725025	-0.012116	NaN	0.000000	0.001535	0.001678	28.0838	0.065658	0.002078	31.6005	-177.878	16.6925	-0.018926	0.723548	-0.247145	-0.248430	-0.012116	31.6005	-0.246858	-735.02	1.648382E-5	NaN
1017	1.000000	0.762843	7.375e+06	-50989.1	1055.82	-29753.9	0.000000	0.000000	6.763035	-0.001044	NaN	0.000000	0.001555	0.001695	28.0842	0.041249	0.002007	20.5482	64.4128	-165.002	-0.037361	0.761569	-0.209136	-0.210409	-0.001044	20.5482	-0.209098	-185.437	5.631640E-6	NaN
1017	1.000000	0.800830	7.375e+06	-50989.1	1055.82	-29753.9	0.000000	0.000000	6.801020	-0.057355	NaN	0.000000	0.001533	0.001701	28.0826	0.038674	0.001980	19.5301	-65.5873	12.9299	-0.020200	0.799509	-0.171148	-0.172470	-0.057355	19.5301	-0.168946	-39.3811	0.001456	NaN
1017	1.000000	0.838907	7.375e+06	-50989.1	1055.82	-29753.9	0.000000	0.000000	6.839098	-0.025126	NaN	0.000000	0.001489	0.001691	28.0826	0.060865	0.001970	30.8985	-108.917	-163.363	-0.049735	0.837621	-0.133072	-0.134358	-0.025126	30.8985	-0.132462	-8.503974	0.002955	NaN
1017	1.000000	0.876870	7.375e+06	-50989.1	1055.82	-29753.9	0.000000	0.000000	6.877061	-0.016209	NaN	0.000000	0.001543	0.001673	28.0824	0.134949	0.001929	69.9667	-121.111	18.3004	-0.078226	0.875580	-0.095109	-0.096399	-0.016209	69.9667	-0.094935	-1.405863	0.011530	NaN
1017	1.000000	0.914936	7.375e+06	-50989.1	1055.82	-29753.9	0.000000	0.000000	6.915128	-0.006091	NaN	0.000000	0.001562	0.001694	28.0842	0.060774	0.001992	30.5033	107.345	-163.583	-0.012094	0.913598	-0.057043	-0.058381	-0.006091	30.5033	-0.056893	-0.146384	0.041609	NaN
1017	1.000000	0.952960	7.375e+06	-50989.1	1055.82	-29753.9	0.000000	0.000000	6.953150	-0.047498	NaN	0.000000	0.001559	0.001618	28.084	0.129594	0.001992	65.0733	-16.8817	16.5229	-0.025189	0.951599	-0.019018	-0.020380	-0.047498	65.0733	-0.018471	-0.011480	4.137513	NaN
1017	2.000000	0.979454	7.375e+06	-50989.1	1055.82	-29753.9	0.000000	0.000000	6.980227	14.1388	NaN	0.000000	0.001548	0.001662	28.0843	12.8054	0.001594	8032.42	6.739570	-175.176	14.0792	0.979155	0.007475	0.007177	14.1388	8032.42	0.006155	0.005212	2712.75	101653
1017	2.000000	0.988838	7.375e+06	-50989.1	1055.82	-29753.9	0.000000	0.000000	6.990308	31.0885	NaN	0.000000	0.001614	0.001666	28.0845	23.6498	0.001822	12982.5	8.411756	0.468287	28.9889	0.988562	0.016859	0.016583	31.0885	12982.5	0.015063	0.015369	2022.77	95676
1017	2.000000	0.998425	7.375e+06	-50989.1	1055.82	-29753.9	0.000000	0.000000	7.000967	57.1616	NaN	0.000000	0.001642	0.001672	28.0827	31.6696	0.001690	18740.9	5.894331	179.73	56.7592	0.998009	0.026446	0.026031	57.1616	18740.9	0.024158	0.029502	1937.54	99687
1017	2.000000	1.007860	7.375e+06	-50989.1	1055.82	-29753.9	0.000000	0.000000	7.011851	92.3668	NaN	0.000000	0.001512	0.001682	28.0829	39.3811	0.001676	23496.4	4.927276	-0.874877	92.353	1.007410	0.035881	0.035431	92.3668	23496.4	0.032933	0.047043	1963.47	98975.7
1017	2.000000	1.017360	7.375e+06	-50989.1	1055.82	-29753.9	0.000000	0.000000	7.022935	130.882	NaN	0.000000	0.001531	0.001623	28.083	50.0034	0.001782	28067	6.382734	175.282	132.258	1.017020	0.045382	0.045042	130.882	28067	0.041884	0.068988	1897.15	97629.4
1017	2.000000	1.026779	7.375e+06	-50989.1	1055.82	-29753.9	0.000000	0.000000	7.034223	176.367	NaN	0.000000	0.001568	0.001658	28.0828	58.5029	0.001931	30300.2	3.769693	-2.811760	170.772	1.026464	0.054800	0.054485	176.367	30300.2	0.050434	0.093760	1881.04	90408.3
1017	2.000000	1.036372	7.375e+06	-50989.1	1055.82	-29753.9	0.000000	0.000000	7.045633	220.55	NaN	0.000000	0.001585	0.001653	28.0839	68.0984	0.001798	37868.1	3.546201	176.241	223.015	1.035993	0.064393	0.064014	220.55	37868.1	0.060025	0.125897	1751.84	97507.8
1017	2.000000	1.045777	7.375e+06	-50989.1	1055.82	-29753.9	0.000000	0.000000	7.057943	291.171	NaN	0.000000	0.001555	0.001658	28.0841	77.4391	0.001893	40897.8	3.536741	-4.876954	287.453	1.045470	0.073798	0.073491	291.171	40897.8	0.068459	0.157874	1844.32	94041
1017	2.000000	1.055420	7.375e+06	-50989.1	1055.82	-29753.9	0.000000	0.000000	7.070177	354.173	NaN	0.000000	0.001575	0.001637	28.0842	85.4319	0.001810	47197.4	8.038108	171.298	360.369	1.055021	0.083441	0.083043	354.173	47197.4	0.077813	0.197314	1794.97	97076.1
1017	2.000000	1.064806	7.375e+06	-50989.1	1055.82	-29753.9	0.000000	0.000000	7.082863	434.43	NaN	0.000000	0.001608	0.001681	28.086	93.4494	0.001981	47177.1	4.692654	-4.870935	430.619	1.064264	0.092827	0.092286	434.43	47177.1	0.085920	0.234812	1850.12	88949.6
1017	2.000000	1.074101	7.375e+06	-50989.1	1055.82	-29753.9	0.000000	0.000000	7.094878	500.583	NaN	0.000000	0.001653	0.001656	28.0827	100.649	0.001704	59049.6	5.606860	171.183	492.715	1.073898	0.102122	0.101919	500.583	59049.6	0.095764	0.284413	1760.06	101162