File: remote_trans/data/nanoindenter/0828-1/data/Data_2025-08-06,11h17m57s/2025-07-22_16-23-58_1_714.txt
2025-07-22, 16:23:58, 1
Index	Phase	Displacement	Time	Pos X	Pos Y	Pos Z	Rot A	Rot B	Piezo Z	Force A	Force B	Gripper	Voltage A	Voltage B	Temperature	Amplitude force	Amplitude pos	Stiffness	Phase shift	Phase excitation	Force A raw	Displacement raw	HMax	HMax raw	Real Force	Real Stiffness	Contact Depth	Area	Hardness	Reduced Mod.
[#]	[#]	[um]	[s]	[um]	[um]	[um]	[m°]	[m°]	[um]	[uN]	[uN]	[V]	[V]	[V]	[°C]	[uN]	[um]	[N/m]	[°]	[°]	[uN]	[um]	[um]	[um]	[uN]	[N/m]	[um]	[um^2]	[MPa]	[MPa]
714	1.000000	0.002837	7.37204e+06	-41389.1	1005.82	-29786.3	0.000000	0.000000	6.002829	0.023096	NaN	0.000000	0.001680	0.001667	28.0824	0.031498	0.000916	34.3999	59.3393	-171.339	0.015745	0.001567	-1.146881	-1.148151	0.023096	34.3999	-1.147385	-2.166505E+15	-1.066053E-17	NaN
714	1.000000	0.044744	7.37204e+06	-41389.1	1005.82	-29786.3	0.000000	0.000000	6.044734	-0.042742	NaN	0.000000	0.001575	0.001683	28.0822	0.070824	0.002006	35.3109	-65.8293	10.8135	-0.023372	0.043420	-1.104974	-1.106298	-0.042742	35.3109	-1.104066	-5.683921E+14	7.519870E-17	NaN
714	1.000000	0.086756	7.37204e+06	-41389.1	1005.82	-29786.3	0.000000	0.000000	6.086747	-0.010196	NaN	0.000000	0.001624	0.001673	28.0833	0.136711	0.002177	62.7997	124.742	-164.937	-0.039591	0.085475	-1.062962	-1.064243	-0.010196	62.7997	-1.062840	-1.588493E+14	6.418874E-17	NaN
714	1.000000	0.128785	7.37204e+06	-41389.1	1005.82	-29786.3	0.000000	0.000000	6.128773	-0.075203	NaN	0.000000	0.001613	0.001610	28.0834	0.045997	0.001881	24.4509	-52.3006	15.805	-0.086986	0.127472	-1.020933	-1.022246	-0.075203	24.4509	-1.018627	-4.040863E+13	1.861059E-15	NaN
714	1.000000	0.170787	7.37204e+06	-41389.1	1005.82	-29786.3	0.000000	0.000000	6.170778	-0.018197	NaN	0.000000	0.001646	0.001683	28.083	0.053203	0.002036	26.1249	88.3227	-168.504	0.042620	0.169481	-0.978931	-0.980237	-0.018197	26.1249	-0.978409	-1.161366E+13	1.566847E-15	NaN
714	1.000000	0.212819	7.37204e+06	-41389.1	1005.82	-29786.3	0.000000	0.000000	6.212810	-0.013976	NaN	0.000000	0.001611	0.001657	28.0822	0.004396	0.002048	2.146394	-11.5748	11.5276	0.009441	0.211424	-0.936899	-0.938294	-0.013976	2.146394	-0.932016	-2.750417E+12	5.081380E-15	NaN
714	1.000000	0.254861	7.37204e+06	-41389.1	1005.82	-29786.3	0.000000	0.000000	6.254849	-0.078389	NaN	0.000000	0.001628	0.001660	28.0818	0.102613	0.002016	50.8956	48.8102	-165.413	-0.137211	0.253482	-0.894857	-0.896236	-0.078389	50.8956	-0.893702	-8.355094E+11	9.382207E-14	NaN
714	1.000000	0.296876	7.37204e+06	-41389.1	1005.82	-29786.3	0.000000	0.000000	6.296861	-0.150039	NaN	0.000000	0.001616	0.001658	28.0821	0.094211	0.001944	48.452	12.6711	10.7897	-0.088787	0.295505	-0.852843	-0.854213	-0.150039	48.452	-0.850520	-2.176604E+11	6.893273E-13	NaN
714	1.000000	0.338888	7.37204e+06	-41389.1	1005.82	-29786.3	0.000000	0.000000	6.338877	-0.038542	NaN	0.000000	0.001576	0.001673	28.0835	0.046150	0.001882	24.5276	144.862	-166.358	0.007913	0.337544	-0.810830	-0.812174	-0.038542	24.5276	-0.809652	-6.079215E+10	6.340001E-13	NaN
714	1.000000	0.380892	7.37204e+06	-41389.1	1005.82	-29786.3	0.000000	0.000000	6.380881	-0.057200	NaN	0.000000	0.001628	0.001641	28.0834	0.065183	0.001979	32.9399	-12.8434	15.0278	-0.132598	0.379520	-0.768826	-0.770198	-0.057200	32.9399	-0.767524	-1.627934E+10	3.513679E-12	NaN
714	1.000000	0.422898	7.37204e+06	-41389.1	1005.82	-29786.3	0.000000	0.000000	6.422887	-0.037328	NaN	0.000000	0.001588	0.001714	28.0834	0.065756	0.002096	31.3779	-149.022	-164.687	-0.060241	0.421589	-0.726820	-0.728129	-0.037328	31.3779	-0.725928	-4.418815E+9	8.447541E-12	NaN
714	1.000000	0.464953	7.37204e+06	-41389.1	1005.82	-29786.3	0.000000	0.000000	6.464943	-0.036640	NaN	0.000000	0.001640	0.001719	28.0833	0.051542	0.002087	24.6982	-60.5066	13.5727	-0.068776	0.463579	-0.684765	-0.686139	-0.036640	24.6982	-0.683652	-1.169888E+9	3.131940E-11	NaN
714	1.000000	0.506958	7.37204e+06	-41389.1	1005.82	-29786.3	0.000000	0.000000	6.506944	-0.107791	NaN	0.000000	0.001673	0.001677	28.0821	0.048062	0.001921	25.0227	45.5537	-167.092	-0.107387	0.505708	-0.642760	-0.644010	-0.107791	25.0227	-0.639530	-2.909613E+8	3.704643E-10	NaN
714	1.000000	0.548975	7.37204e+06	-41389.1	1005.82	-29786.3	0.000000	0.000000	6.548965	-0.033633	NaN	0.000000	0.001592	0.001692	28.0823	0.035483	0.002056	17.2561	-33.3782	13.336	0.007481	0.547643	-0.600743	-0.602076	-0.033633	17.2561	-0.599281	-8.138802E+7	4.132473E-10	NaN
714	1.000000	0.590989	7.37204e+06	-41389.1	1005.82	-29786.3	0.000000	0.000000	6.590979	-0.042959	NaN	0.000000	0.001654	0.001676	28.0823	0.016401	0.001959	8.371511	159.823	-163.779	-0.038820	0.589665	-0.558729	-0.560053	-0.042959	8.371511	-0.554880	-1.983928E+7	2.165339E-9	NaN
714	1.000000	0.633009	7.37204e+06	-41389.1	1005.82	-29786.3	0.000000	0.000000	6.632998	-0.044784	NaN	0.000000	0.001642	0.001704	28.0838	0.126606	0.002034	62.2592	-48.0903	17.3773	-0.050692	0.631627	-0.516709	-0.518091	-0.044784	62.2592	-0.516169	-5.75849e+06	7.777104E-9	NaN
714	1.000000	0.675027	7.37204e+06	-41389.1	1005.82	-29786.3	0.000000	0.000000	6.675017	-0.028504	NaN	0.000000	0.001584	0.001672	28.0836	0.030475	0.001933	15.7663	75.4166	-168.097	0.009211	0.673722	-0.474691	-0.475996	-0.028504	15.7663	-0.473335	-1.45268e+06	1.962161E-8	NaN
714	1.000000	0.717023	7.37204e+06	-41389.1	1005.82	-29786.3	0.000000	0.000000	6.717012	-0.060322	NaN	0.000000	0.001636	0.001631	28.0833	0.112775	0.002112	53.4023	-13.7781	13.916	-0.038753	0.715693	-0.432695	-0.434025	-0.060322	53.4023	-0.431848	-378617	1.593212E-7	NaN
714	1.000000	0.759034	7.37204e+06	-41389.1	1005.82	-29786.3	0.000000	0.000000	6.759023	-0.044247	NaN	0.000000	0.001596	0.001682	28.0819	0.053417	0.001964	27.1911	73.4217	-168.362	0.005574	0.757809	-0.390684	-0.391909	-0.044247	27.1911	-0.389464	-94513.7	4.681555E-7	NaN
714	1.000000	0.801067	7.37204e+06	-41389.1	1005.82	-29786.3	0.000000	0.000000	6.801057	-0.039230	NaN	0.000000	0.001580	0.001681	28.0823	0.037502	0.001992	18.8283	123.087	13.1662	-0.137877	0.799710	-0.348651	-0.350008	-0.039230	18.8283	-0.347088	-23159	1.693957E-6	NaN
714	1.000000	0.843080	7.37204e+06	-41389.1	1005.82	-29786.3	0.000000	0.000000	6.843071	0.002397	NaN	0.000000	0.001590	0.001645	28.0821	0.033823	0.001934	17.4865	28.0938	-170.434	-0.058042	0.841818	-0.306638	-0.307900	0.002397	17.4865	-0.306741	-5926.3	-4.044867E-7	NaN
714	1.000000	0.885102	7.37204e+06	-41389.1	1005.82	-29786.3	0.000000	0.000000	6.885093	-0.010478	NaN	0.000000	0.001566	0.001634	28.0835	0.065978	0.002064	31.9635	73.1837	15.4277	0.071317	0.883740	-0.264616	-0.265978	-0.010478	31.9635	-0.264370	-1367.01	7.665148E-6	NaN
714	1.000000	0.927113	7.37204e+06	-41389.1	1005.82	-29786.3	0.000000	0.000000	6.927104	-0.003969	NaN	0.000000	0.001583	0.001707	28.0835	0.076619	0.001975	38.7946	165.505	-167.421	-0.030588	0.925804	-0.222605	-0.223914	-0.003969	38.7946	-0.222528	-304.798	1.302177E-5	NaN
714	1.000000	0.969147	7.37204e+06	-41389.1	1005.82	-29786.3	0.000000	0.000000	6.969134	-0.112670	NaN	0.000000	0.001563	0.001679	28.0835	0.024543	0.001986	12.3566	34.5991	16.2686	-0.097736	0.967792	-0.180571	-0.181926	-0.112670	12.3566	-0.173732	-47.6613	0.002364	NaN
714	1.000000	1.011160	7.37204e+06	-41389.1	1005.82	-29786.3	0.000000	0.000000	7.011151	0.005008	NaN	0.000000	0.001610	0.001663	28.0836	0.037339	0.002030	18.3941	-155.278	-163.724	0.041974	1.009865	-0.138558	-0.139853	0.005008	18.3941	-0.138763	-11.2119	-0.000447	NaN
714	1.000000	1.053176	7.37204e+06	-41389.1	1005.82	-29786.3	0.000000	0.000000	7.053166	-0.034715	NaN	0.000000	0.001607	0.001719	28.0825	0.200717	0.002002	100.243	3.845376	14.1517	-0.026142	1.051832	-0.096542	-0.097886	-0.034715	100.243	-0.096282	-1.508435	0.023014	NaN
714	1.000000	1.095212	7.37204e+06	-41389.1	1005.82	-29786.3	0.000000	0.000000	7.095202	-0.015960	NaN	0.000000	0.001581	0.001735	28.0824	0.023753	0.001977	12.0153	114.971	-168.608	-0.001562	1.093903	-0.054506	-0.055815	-0.015960	12.0153	-0.053510	-0.116314	0.137212	NaN
714	1.000000	1.137212	7.37204e+06	-41389.1	1005.82	-29786.3	0.000000	0.000000	7.137201	-0.048660	NaN	0.000000	0.001608	0.001694	28.0823	0.017801	0.002040	8.728052	36.8157	14.2946	-0.130504	1.135854	-0.012507	-0.013864	-0.048660	8.728052	-0.008325	-0.005422	8.975023	NaN
714	2.000000	1.159649	7.37204e+06	-41389.1	1005.82	-29786.3	0.000000	0.000000	7.160514	21.2423	NaN	0.000000	0.001608	0.001744	28.0835	16.9592	0.001736	9771.14	4.708057	-175.78	19.8838	1.159256	0.009931	0.009538	21.2423	9771.14	0.008301	0.007354	2888.68	104104
714	2.000000	1.170115	7.37204e+06	-41389.1	1005.82	-29786.3	0.000000	0.000000	7.172137	49.395	NaN	0.000000	0.001615	0.001727	28.0837	28.2997	0.001853	15274.3	7.318216	-1.585783	47.3924	1.169766	0.020397	0.020048	49.395	15274.3	0.017972	0.019455	2538.9	100050
714	2.000000	1.180624	7.37204e+06	-41389.1	1005.82	-29786.3	0.000000	0.000000	7.184090	84.5619	NaN	0.000000	0.001655	0.001711	28.0837	36.9248	0.001783	20713.6	7.025955	175.958	84.8751	1.180313	0.030906	0.030595	84.5619	20713.6	0.027844	0.036393	2323.55	99201.4
714	2.000000	1.191122	7.37204e+06	-41389.1	1005.82	-29786.3	0.000000	0.000000	7.196605	133.633	NaN	0.000000	0.001703	0.001723	28.0822	46.4623	0.001733	26814.8	3.761012	-2.168680	134.374	1.190655	0.041403	0.040937	133.633	26814.8	0.037666	0.058135	2298.65	101608
714	2.000000	1.201671	7.37204e+06	-41389.1	1005.82	-29786.3	0.000000	0.000000	7.209353	187.136	NaN	0.000000	0.001673	0.001775	28.082	59.5569	0.001881	31670.7	8.280988	171.447	190.684	1.201290	0.051952	0.051572	187.136	31670.7	0.047521	0.084905	2204.07	99303.7
714	2.000000	1.212155	7.37204e+06	-41389.1	1005.82	-29786.3	0.000000	0.000000	7.222246	245.76	NaN	0.000000	0.001688	0.001727	28.0826	69.7109	0.001902	36651.4	5.660356	-7.696300	247.505	1.211895	0.062437	0.062177	245.76	36651.4	0.057408	0.116678	2106.31	98032.3
714	2.000000	1.222528	7.37204e+06	-41389.1	1005.82	-29786.3	0.000000	0.000000	7.235958	327.008	NaN	0.000000	0.001694	0.001724	28.0837	77.5461	0.001812	42793.3	4.225118	173.146	326.117	1.222202	0.072810	0.072484	327.008	42793.3	0.067079	0.152407	2145.62	100149
714	2.000000	1.232976	7.37204e+06	-41389.1	1005.82	-29786.3	0.000000	0.000000	7.249546	403.409	NaN	0.000000	0.001702	0.001717	28.0838	87.6601	0.001839	47659.4	4.641641	-8.182842	397.784	1.232639	0.083258	0.082921	403.409	47659.4	0.076909	0.193325	2086.69	99032.5
714	2.000000	1.243567	7.37204e+06	-41389.1	1005.82	-29786.3	0.000000	0.000000	7.263666	489.269	NaN	0.000000	0.001668	0.001726	28.084	96.3077	0.001849	52089.1	6.577813	169.497	489.738	1.243185	0.093849	0.093467	489.269	52089.1	0.086804	0.239083	2046.43	97329.6
714	2.000000	1.251462	7.37204e+06	-41389.1	1005.82	-29786.3	0.000000	0.000000	7.274946	571.612	NaN	0.000000	0.001700	0.001723	28.0839	104.056	0.001758	59175.5	4.177028	171.44	567.093	1.251116	0.101744	0.101398	571.612	59175.5	0.094500	0.277794	2057.69	102578