File: remote_trans/data/nanoindenter/0828-1/data/Data_2025-08-06,11h17m57s/2025-07-22_16-23-58_1_248.txt
2025-07-22, 16:23:58, 1
Index	Phase	Displacement	Time	Pos X	Pos Y	Pos Z	Rot A	Rot B	Piezo Z	Force A	Force B	Gripper	Voltage A	Voltage B	Temperature	Amplitude force	Amplitude pos	Stiffness	Phase shift	Phase excitation	Force A raw	Displacement raw	HMax	HMax raw	Real Force	Real Stiffness	Contact Depth	Area	Hardness	Reduced Mod.
[#]	[#]	[um]	[s]	[um]	[um]	[um]	[m°]	[m°]	[um]	[uN]	[uN]	[V]	[V]	[V]	[°C]	[uN]	[um]	[N/m]	[°]	[°]	[uN]	[um]	[um]	[um]	[uN]	[N/m]	[um]	[um^2]	[MPa]	[MPa]
248	1.000000	0.002754	7.36747e+06	-51039.1	955.819	-29754.1	0.000000	0.000000	6.002834	-0.010112	NaN	0.000000	0.001645	0.001701	28.0785	0.080100	0.000994	80.6125	-72.3298	-162.592	-0.001205	0.001429	-0.979771	-0.981096	-0.010112	80.6125	-0.979676	-1.207958E+13	8.371522E-16	NaN
248	1.000000	0.040668	7.36747e+06	-51039.1	955.819	-29754.1	0.000000	0.000000	6.040752	0.093184	NaN	0.000000	0.001645	0.001658	28.0788	0.103572	0.002027	51.0991	-131.54	15.6072	0.079047	0.039361	-0.941857	-0.943164	0.093184	51.0991	-0.943225	-3.896181E+12	-2.391686E-14	NaN
248	1.000000	0.078714	7.36747e+06	-51039.1	955.818	-29754.1	0.000000	0.000000	6.078795	-0.005384	NaN	0.000000	0.001679	0.001679	28.0789	0.127332	0.001949	65.3413	134.369	-168.228	0.034714	0.077363	-0.903811	-0.905162	-0.005384	65.3413	-0.903749	-1.142134E+12	4.713895E-15	NaN
248	1.000000	0.116703	7.36748e+06	-51039.1	955.818	-29754.1	0.000000	0.000000	6.116782	-0.015660	NaN	0.000000	0.001659	0.001715	28.0786	0.054071	0.002042	26.4775	-88.4447	17.402	-0.027837	0.115365	-0.865822	-0.867160	-0.015660	26.4775	-0.865379	-3.458699E+11	4.527754E-14	NaN
248	1.000000	0.154695	7.36748e+06	-51039.1	955.818	-29754.1	0.000000	0.000000	6.154777	0.030762	NaN	0.000000	0.001691	0.001680	28.0778	0.013450	0.001873	7.182389	-155.004	-166.472	0.050767	0.153395	-0.827829	-0.829129	0.030762	7.182389	-0.831042	-1.185501E+11	-2.594844E-13	NaN
248	1.000000	0.192712	7.36748e+06	-51039.1	955.818	-29754.1	0.000000	0.000000	6.192794	0.025340	NaN	0.000000	0.001689	0.001712	28.0778	0.065866	0.001951	33.7557	-33.0463	15.1662	-0.000821	0.191339	-0.789812	-0.791186	0.025340	33.7557	-0.790375	-3.327997E+10	-7.614088E-13	NaN
248	1.000000	0.230700	7.36748e+06	-51039.1	955.817	-29754.1	0.000000	0.000000	6.230780	-0.026754	NaN	0.000000	0.001673	0.001726	28.0777	0.110792	0.001999	55.4213	-89.146	-163.894	0.021149	0.229439	-0.751825	-0.753085	-0.026754	55.4213	-0.751463	-9.843000E+9	2.718078E-12	NaN
248	1.000000	0.268736	7.36748e+06	-51039.1	955.817	-29754.1	0.000000	0.000000	6.268818	0.044059	NaN	0.000000	0.001624	0.001671	28.0779	0.109131	0.002123	51.4088	85.6867	13.6251	0.016964	0.267390	-0.713789	-0.715134	0.044059	51.4088	-0.714432	-3.079786E+9	-1.430593E-11	NaN
248	1.000000	0.306786	7.36748e+06	-51039.1	955.818	-29754.1	0.000000	0.000000	6.306867	0.021708	NaN	0.000000	0.001639	0.001678	28.0793	0.113640	0.002055	55.3097	82.253	-167.06	0.120271	0.305486	-0.675739	-0.677039	0.021708	55.3097	-0.676034	-9.203488E+8	-2.358702E-11	NaN
248	1.000000	0.344773	7.36748e+06	-51039.1	955.818	-29754.1	0.000000	0.000000	6.344854	0.009028	NaN	0.000000	0.001677	0.001690	28.0791	0.060931	0.001980	30.772	47.3214	16.8551	-0.077337	0.343463	-0.637752	-0.639062	0.009028	30.772	-0.637972	-2.769891E+8	-3.259425E-11	NaN
248	1.000000	0.382827	7.36748e+06	-51039.1	955.819	-29754.1	0.000000	0.000000	6.382906	-0.030637	NaN	0.000000	0.001582	0.001739	28.0787	0.073514	0.002025	36.3083	-120.177	-163.097	0.029611	0.381540	-0.599698	-0.600985	-0.030637	36.3083	-0.599065	-8.083271E+7	3.790158E-10	NaN
248	1.000000	0.420834	7.36748e+06	-51039.1	955.818	-29754.1	0.000000	0.000000	6.420914	-0.021082	NaN	0.000000	0.001642	0.001737	28.0776	0.064921	0.001873	34.6649	46.87	13.4632	-0.060382	0.419472	-0.561690	-0.563053	-0.021082	34.6649	-0.561234	-2.429129E+7	8.678879E-10	NaN
248	1.000000	0.458813	7.36748e+06	-51039.1	955.818	-29754.1	0.000000	0.000000	6.458895	0.023577	NaN	0.000000	0.001624	0.001682	28.0778	0.085344	0.001939	44.0209	-101.903	-162.743	0.051689	0.457520	-0.523712	-0.525005	0.023577	44.0209	-0.524113	-7.42653e+06	-3.174651E-9	NaN
248	1.000000	0.496864	7.36748e+06	-51039.1	955.818	-29754.1	0.000000	0.000000	6.496943	-0.021218	NaN	0.000000	0.001660	0.001666	28.0781	0.079250	0.002114	37.4907	6.862863	12.005	-0.038454	0.495514	-0.485661	-0.487010	-0.021218	37.4907	-0.485237	-2.13206e+06	9.951863E-9	NaN
248	1.000000	0.534882	7.36748e+06	-51039.1	955.817	-29754.1	0.000000	0.000000	6.534962	0.000386	NaN	0.000000	0.001687	0.001702	28.0777	0.013577	0.002082	6.520033	3.227271	-163.149	0.087161	0.533553	-0.447643	-0.448971	0.000386	6.520033	-0.447687	-633531	-6.090873E-10	NaN
248	1.000000	0.572883	7.36748e+06	-51039.1	955.817	-29754.1	0.000000	0.000000	6.572964	0.017997	NaN	0.000000	0.001644	0.001688	28.0789	0.034753	0.001978	17.573	-155.346	14.4659	0.030693	0.571542	-0.409642	-0.410983	0.017997	17.573	-0.410410	-188030	-9.571400E-8	NaN
248	1.000000	0.610929	7.36748e+06	-51039.1	955.818	-29754.1	0.000000	0.000000	6.611010	-0.000465	NaN	0.000000	0.001657	0.001668	28.0791	0.035106	0.002010	17.4643	-122.557	-164.021	-0.045479	0.609597	-0.371596	-0.372928	-0.000465	17.4643	-0.371576	-52337.4	8.886971E-9	NaN
248	1.000000	0.648887	7.36748e+06	-51039.1	955.819	-29754.1	0.000000	0.000000	6.648968	0.022136	NaN	0.000000	0.001665	0.001735	28.0791	0.079288	0.002009	39.4673	-70.4229	14.2587	0.040446	0.647566	-0.333638	-0.334959	0.022136	39.4673	-0.334058	-14956.4	-1.480019E-6	NaN
248	1.000000	0.686934	7.36748e+06	-51039.1	955.818	-29754.1	0.000000	0.000000	6.687014	-0.008011	NaN	0.000000	0.001627	0.001676	28.0777	0.041316	0.001930	21.4061	-43.4768	-164.006	-0.022683	0.685577	-0.295591	-0.296947	-0.008011	21.4061	-0.295310	-4006.1	1.999586E-6	NaN
248	1.000000	0.724971	7.36748e+06	-51039.1	955.819	-29754.1	0.000000	0.000000	6.725051	-0.018301	NaN	0.000000	0.001592	0.001675	28.0777	0.056115	0.001977	28.3814	-76.0554	12.7834	0.027574	0.723633	-0.257553	-0.258892	-0.018301	28.3814	-0.257070	-1056.69	1.731930E-5	NaN
248	1.000000	0.762982	7.36748e+06	-51039.1	955.817	-29754.1	0.000000	0.000000	6.763061	-0.043762	NaN	0.000000	0.001613	0.001619	28.0777	0.021094	0.001961	10.7547	22.1985	-164.971	0.005295	0.761699	-0.219543	-0.220826	-0.043762	10.7547	-0.216491	-244.047	0.000179	NaN
248	1.000000	0.801015	7.36748e+06	-51039.1	955.818	-29754.1	0.000000	0.000000	6.801096	0.014001	NaN	0.000000	0.001571	0.001691	28.0776	0.072819	0.002066	35.2394	174.124	16.2859	0.003712	0.799668	-0.181510	-0.182857	0.014001	35.2394	-0.181808	-65.4887	-0.000214	NaN
248	1.000000	0.839021	7.36748e+06	-51039.1	955.818	-29754.1	0.000000	0.000000	6.839101	-0.026108	NaN	0.000000	0.001582	0.001640	28.0787	0.039004	0.002091	18.6491	-50.6062	-164.39	0.012084	0.837655	-0.143503	-0.144870	-0.026108	18.6491	-0.142453	-13.1485	0.001986	NaN
248	1.000000	0.877026	7.36748e+06	-51039.1	955.817	-29754.1	0.000000	0.000000	6.877105	-0.037412	NaN	0.000000	0.001605	0.001633	28.0789	0.045336	0.001912	23.7122	-179.256	13.8822	0.002661	0.875641	-0.105499	-0.106884	-0.037412	23.7122	-0.104315	-2.271733	0.016468	NaN
248	1.000000	0.915030	7.36748e+06	-51039.1	955.818	-29754.1	0.000000	0.000000	6.915109	-0.025855	NaN	0.000000	0.001636	0.001679	28.0791	0.017937	0.002146	8.357915	-114.075	-164.637	-0.005668	0.913703	-0.067495	-0.068822	-0.025855	8.357915	-0.065175	-0.252016	0.102593	NaN
248	1.000000	0.953059	7.36748e+06	-51039.1	955.819	-29754.1	0.000000	0.000000	6.953140	0.024742	NaN	0.000000	0.001607	0.001638	28.0794	0.033707	0.001899	17.7518	114.69	11.4828	-0.075744	0.951710	-0.029466	-0.030815	0.024742	17.7518	-0.030511	-0.023783	-1.040307	NaN
248	1.000000	0.990942	7.36748e+06	-51039.1	955.819	-29754.1	0.000000	0.000000	6.991342	7.770264	NaN	0.000000	0.001636	0.001604	28.0778	8.263024	0.001747	4729.43	12.458	-174.049	6.487863	0.989730	0.008417	0.007205	7.770264	4729.43	0.007185	0.006218	1249.71	54798.6
248	2.000000	1.001114	7.36748e+06	-51039.1	955.818	-29754.1	0.000000	0.000000	7.002189	24.1701	NaN	0.000000	0.001678	0.001661	28.0776	19.9492	0.001971	10123.3	6.439467	2.723827	24.4036	1.000731	0.018589	0.018206	24.1701	10123.3	0.016799	0.017759	1360.97	69403.7
248	2.000000	1.010604	7.36748e+06	-51039.1	955.82	-29754.1	0.000000	0.000000	7.012627	47.2351	NaN	0.000000	0.001680	0.001643	28.0773	28.5306	0.001720	16585.1	4.784285	-179.976	48.2196	1.010219	0.028080	0.027694	47.2351	16585.1	0.025944	0.032755	1442.08	83724.6
248	2.000000	1.020028	7.36748e+06	-51039.1	955.819	-29754.1	0.000000	0.000000	7.023177	74.6156	NaN	0.000000	0.001619	0.001610	28.0786	36.4992	0.001785	20449.6	5.647550	-2.863280	72.7551	1.019751	0.037503	0.037226	74.6156	20449.6	0.034767	0.051204	1457.22	82567.1
248	2.000000	1.029531	7.36748e+06	-51039.1	955.819	-29754.1	0.000000	0.000000	7.034263	113.11	NaN	0.000000	0.001583	0.001634	28.0788	46.7102	0.001899	24602.3	5.667478	176.603	114.271	1.029209	0.047006	0.046684	113.11	24602.3	0.043558	0.073546	1537.95	82883.7
248	2.000000	1.039011	7.36748e+06	-51039.1	955.821	-29754.1	0.000000	0.000000	7.045463	154.923	NaN	0.000000	0.001567	0.001614	28.0786	54.4969	0.001717	31745	1.376006	-1.324587	152.925	1.038521	0.056487	0.055996	154.923	31745	0.052826	0.101349	1528.6	91104.1
248	2.000000	1.048426	7.36748e+06	-51039.1	955.82	-29754.1	0.000000	0.000000	7.057152	210.249	NaN	0.000000	0.001504	0.001606	28.0787	64.879	0.001758	36908.9	6.095543	171.645	206.341	1.048096	0.065901	0.065571	210.249	36908.9	0.061629	0.131713	1596.27	92916
248	2.000000	1.057922	7.36748e+06	-51039.1	955.82	-29754.1	0.000000	0.000000	7.068663	259.236	NaN	0.000000	0.001613	0.001635	28.0774	74.0755	0.001815	40815.4	1.441640	-4.123669	254.002	1.057713	0.075397	0.075188	259.236	40815.4	0.070634	0.166675	1555.34	91340.3
248	2.000000	1.067613	7.36748e+06	-51039.1	955.819	-29754.1	0.000000	0.000000	7.080958	322.562	NaN	0.000000	0.001572	0.001610	28.0776	84.007	0.001825	46028	3.501598	173.46	331.235	1.067249	0.085088	0.084724	322.562	46028	0.079832	0.206368	1563.05	92570.9
248	2.000000	1.076949	7.36748e+06	-51039.1	955.82	-29754.1	0.000000	0.000000	7.093515	400.865	NaN	0.000000	0.001567	0.001623	28.0775	91.4549	0.001929	47401.1	6.250778	-9.553825	397.982	1.076594	0.094424	0.094069	400.865	47401.1	0.088082	0.245322	1634.03	87436.5
248	2.000000	1.086505	7.36748e+06	-51039.1	955.82	-29754.1	0.000000	0.000000	7.105805	467.352	NaN	0.000000	0.001565	0.001632	28.0788	100.167	0.001812	55273.7	6.913540	168.903	468.704	1.086081	0.103980	0.103556	467.352	55273.7	0.097639	0.294361	1587.69	93079
248	2.000000	1.090382	7.36748e+06	-51039.1	955.821	-29754.1	0.000000	0.000000	7.110969	498.665	NaN	0.000000	0.001605	0.001601	28.0788	104.609	0.001734	60332.5	2.801755	172.045	492.871	1.089997	0.107857	0.107472	498.665	60332.5	0.101658	0.316231	1576.9	98021.7