File: remote_trans/data/nanoindenter/0828-1/data/Data_2025-08-06,11h17m57s/2025-07-22_16-23-58_1_584.txt
2025-07-22, 16:23:58, 1
Index	Phase	Displacement	Time	Pos X	Pos Y	Pos Z	Rot A	Rot B	Piezo Z	Force A	Force B	Gripper	Voltage A	Voltage B	Temperature	Amplitude force	Amplitude pos	Stiffness	Phase shift	Phase excitation	Force A raw	Displacement raw	HMax	HMax raw	Real Force	Real Stiffness	Contact Depth	Area	Hardness	Reduced Mod.
[#]	[#]	[um]	[s]	[um]	[um]	[um]	[m°]	[m°]	[um]	[uN]	[uN]	[V]	[V]	[V]	[°C]	[uN]	[um]	[N/m]	[°]	[°]	[uN]	[um]	[um]	[um]	[uN]	[N/m]	[um]	[um^2]	[MPa]	[MPa]
584	1.000000	0.002528	7.37076e+06	-47889.1	1005.82	-29764.3	0.000000	0.000000	6.002822	0.040989	NaN	0.000000	0.001525	0.001784	28.0808	0.076110	0.001011	75.2528	136.156	-167.95	0.035654	0.001246	-1.177627	-1.178909	0.040989	75.2528	-1.178036	-5.579032E+15	-7.346982E-18	NaN
584	1.000000	0.046443	7.37076e+06	-47889.1	1005.82	-29764.3	0.000000	0.000000	6.046732	-0.085745	NaN	0.000000	0.001615	0.001758	28.0806	0.109065	0.001968	55.4127	-145.273	-164.812	-0.099997	0.045158	-1.133712	-1.134997	-0.085745	55.4127	-1.132552	-1.370392E+15	6.256938E-17	NaN
584	1.000000	0.090481	7.37076e+06	-47889.1	1005.82	-29764.3	0.000000	0.000000	6.090774	0.010518	NaN	0.000000	0.001651	0.001768	28.0807	0.116796	0.001813	64.4209	-129.014	-169.454	-0.080334	0.089192	-1.089674	-1.090963	0.010518	64.4209	-1.089796	-3.656615E+14	-2.876419E-17	NaN
584	1.000000	0.134494	7.37076e+06	-47889.1	1005.82	-29764.3	0.000000	0.000000	6.134786	-0.005375	NaN	0.000000	0.001600	0.001751	28.0808	0.050256	0.002071	24.2657	145.423	-165.641	0.001734	0.133200	-1.045661	-1.046955	-0.005375	24.2657	-1.045495	-9.286543E+13	5.788431E-17	NaN
584	1.000000	0.178514	7.37076e+06	-47889.1	1005.82	-29764.3	0.000000	0.000000	6.178807	0.001261	NaN	0.000000	0.001609	0.001757	28.0795	0.007238	0.001801	4.019286	-143	-165.345	0.019842	0.177206	-1.001641	-1.002949	0.001261	4.019286	-1.001876	-2.404521E+13	-5.243562E-17	NaN
584	1.000000	0.222524	7.37076e+06	-47889.1	1005.82	-29764.3	0.000000	0.000000	6.222817	0.006310	NaN	0.000000	0.001579	0.001720	28.0806	0.053466	0.001936	27.6214	111.623	-168.619	0.016932	0.221281	-0.957631	-0.958874	0.006310	27.6214	-0.957802	-6.126807E+12	-1.029860E-15	NaN
584	1.000000	0.266560	7.37076e+06	-47889.1	1005.82	-29764.3	0.000000	0.000000	6.266852	0.004527	NaN	0.000000	0.001608	0.001704	28.0795	0.117607	0.002089	56.2891	-71.7906	-166.093	0.082879	0.265235	-0.913595	-0.914920	0.004527	56.2891	-0.913656	-1.554300E+12	-2.912677E-15	NaN
584	1.000000	0.310577	7.37076e+06	-47889.1	1005.82	-29764.3	0.000000	0.000000	6.310871	0.038258	NaN	0.000000	0.001578	0.001693	28.0805	0.095884	0.002083	46.0314	0.350053	-169.597	-0.043614	0.309191	-0.869578	-0.870964	0.038258	46.0314	-0.870201	-4.019441E+11	-9.518238E-14	NaN
584	1.000000	0.354627	7.37076e+06	-47889.1	1005.82	-29764.3	0.000000	0.000000	6.354918	-0.026788	NaN	0.000000	0.001630	0.001731	28.0806	0.142915	0.002097	68.1612	160.752	-164.639	0.001742	0.353215	-0.825528	-0.826940	-0.026788	68.1612	-0.825233	-9.889432E+10	2.708715E-13	NaN
584	1.000000	0.398598	7.37076e+06	-47889.1	1005.82	-29764.3	0.000000	0.000000	6.398889	-0.033987	NaN	0.000000	0.001577	0.001711	28.0805	0.024044	0.002024	11.8785	4.610293	-163.445	-0.054668	0.397314	-0.781557	-0.782841	-0.033987	11.8785	-0.779411	-2.361734E+10	1.439049E-12	NaN
584	1.000000	0.442632	7.37076e+06	-47889.1	1005.82	-29764.3	0.000000	0.000000	6.442922	-0.044960	NaN	0.000000	0.001557	0.001692	28.0794	0.082519	0.002024	40.7603	116.627	-166.942	-0.034951	0.441316	-0.737523	-0.738839	-0.044960	40.7603	-0.736696	-6.195139E+9	7.257341E-12	NaN
584	1.000000	0.486629	7.37076e+06	-47889.1	1005.82	-29764.3	0.000000	0.000000	6.486921	-0.013237	NaN	0.000000	0.001555	0.001677	28.0793	0.095646	0.001911	50.0503	-93.6345	-169.111	-0.010446	0.485349	-0.693526	-0.694806	-0.013237	50.0503	-0.693328	-1.586329E+9	8.344386E-12	NaN
584	1.000000	0.530665	7.37076e+06	-47889.1	1005.82	-29764.3	0.000000	0.000000	6.530957	-0.013322	NaN	0.000000	0.001578	0.001697	28.0793	0.113380	0.002032	55.8049	78.2011	-169.84	0.007062	0.529307	-0.649490	-0.650848	-0.013322	55.8049	-0.649311	-3.962690E+8	3.361748E-11	NaN
584	1.000000	0.574703	7.37076e+06	-47889.1	1005.82	-29764.3	0.000000	0.000000	6.574991	-0.107828	NaN	0.000000	0.001563	0.001660	28.0808	0.007671	0.001979	3.875310	75.5299	-165.03	-0.066512	0.573397	-0.605452	-0.606758	-0.107828	3.875310	-0.584584	-5.104693E+7	2.112335E-9	NaN
584	1.000000	0.618706	7.37076e+06	-47889.1	1005.82	-29764.3	0.000000	0.000000	6.618997	-0.039262	NaN	0.000000	0.001610	0.001676	28.0807	0.086872	0.002037	42.6519	-114.161	-163.345	0.002217	0.617412	-0.561449	-0.562743	-0.039262	42.6519	-0.560759	-2.392617E+7	1.640970E-9	NaN
584	1.000000	0.662716	7.37076e+06	-47889.1	1005.82	-29764.3	0.000000	0.000000	6.663009	0.008239	NaN	0.000000	0.001558	0.001710	28.0806	0.021277	0.002015	10.5608	-158.752	-169.2	-0.006803	0.661296	-0.517439	-0.518859	0.008239	10.5608	-0.518024	-6.11096e+06	-1.348239E-9	NaN
584	1.000000	0.706731	7.37076e+06	-47889.1	1005.82	-29764.3	0.000000	0.000000	6.707022	-0.010562	NaN	0.000000	0.001584	0.001730	28.0796	0.072934	0.002045	35.6577	-171.652	-164.636	0.041746	0.705411	-0.473424	-0.474744	-0.010562	35.6577	-0.473202	-1.44646e+06	7.301696E-9	NaN
584	1.000000	0.750736	7.37076e+06	-47889.1	1005.82	-29764.3	0.000000	0.000000	6.751027	-0.032647	NaN	0.000000	0.001607	0.001695	28.0796	0.036118	0.002010	17.9661	140.587	-164.488	-0.070204	0.749486	-0.429419	-0.430669	-0.032647	17.9661	-0.428056	-334624	9.756347E-8	NaN
584	1.000000	0.794760	7.37076e+06	-47889.1	1005.82	-29764.3	0.000000	0.000000	6.795052	-0.002938	NaN	0.000000	0.001609	0.001715	28.0795	0.041072	0.002010	20.4316	-54.6443	-167.998	0.069400	0.793454	-0.385395	-0.386701	-0.002938	20.4316	-0.385287	-82357.8	3.567692E-8	NaN
584	1.000000	0.838779	7.37076e+06	-47889.1	1005.82	-29764.3	0.000000	0.000000	6.839068	-0.070244	NaN	0.000000	0.001596	0.001675	28.081	0.055497	0.002105	26.3646	1.794944	-165.928	-0.006522	0.837456	-0.341376	-0.342699	-0.070244	26.3646	-0.339378	-17884.9	3.927577E-6	NaN
584	1.000000	0.882812	7.37076e+06	-47889.1	1005.82	-29764.3	0.000000	0.000000	6.883103	-0.037241	NaN	0.000000	0.001552	0.001665	28.0813	0.091371	0.001900	48.0775	55.3573	-163.611	-0.081795	0.881490	-0.297343	-0.298665	-0.037241	48.0775	-0.296762	-4211.03	8.843643E-6	NaN
584	1.000000	0.926840	7.37076e+06	-47889.1	1005.82	-29764.3	0.000000	0.000000	6.927130	-0.072057	NaN	0.000000	0.001526	0.001685	28.0809	0.071600	0.001810	39.5561	-31.6861	-169.398	-0.050075	0.925524	-0.253315	-0.254631	-0.072057	39.5561	-0.251948	-881.193	8.177247E-5	NaN
584	1.000000	0.970836	7.37076e+06	-47889.1	1005.82	-29764.3	0.000000	0.000000	6.971127	-0.045650	NaN	0.000000	0.001598	0.001688	28.0794	0.075599	0.001938	39.0067	-100.226	-172.363	-0.073092	0.969541	-0.209319	-0.210614	-0.045650	39.0067	-0.208441	-180.945	0.000252	NaN
584	1.000000	1.014858	7.37076e+06	-47889.1	1005.82	-29764.3	0.000000	0.000000	7.015152	0.052787	NaN	0.000000	0.001622	0.001652	28.0796	0.061861	0.001978	31.2812	-55.8884	-167.895	0.014184	1.013550	-0.165297	-0.166605	0.052787	31.2812	-0.166563	-35.7853	-0.001475	NaN
584	1.000000	1.058862	7.37076e+06	-47889.1	1005.82	-29764.3	0.000000	0.000000	7.059156	0.032181	NaN	0.000000	0.001557	0.001734	28.0796	0.125416	0.001988	63.0865	-57.0074	-164.421	0.005471	1.057554	-0.121293	-0.122601	0.032181	63.0865	-0.121676	-5.221410	-0.006163	NaN
584	1.000000	1.102890	7.37077e+06	-47889.1	1005.82	-29764.3	0.000000	0.000000	7.103184	0.045982	NaN	0.000000	0.001577	0.001697	28.0813	0.008704	0.001994	4.365150	-31.3936	-166.638	0.042048	1.101671	-0.077265	-0.078484	0.045982	4.365150	-0.085166	-0.829247	-0.055450	NaN
584	1.000000	1.146904	7.37077e+06	-47889.1	1005.82	-29764.3	0.000000	0.000000	7.147194	-0.049668	NaN	0.000000	0.001537	0.001686	28.0809	0.074026	0.002037	36.3391	163.253	-166.816	-0.010428	1.145615	-0.033251	-0.034540	-0.049668	36.3391	-0.032226	-0.026599	1.867260	NaN
584	2.000000	1.187499	7.37077e+06	-47889.1	1005.82	-29764.3	0.000000	0.000000	7.188178	9.387834	NaN	0.000000	0.001531	0.001697	28.081	9.835512	0.001542	6380.33	4.589688	-172.641	8.602918	1.187205	0.007344	0.007050	9.387834	6380.33	0.006241	0.005294	1773.19	80114.4
584	2.000000	1.198470	7.37077e+06	-47889.1	1005.82	-29764.3	0.000000	0.000000	7.199895	27.558	NaN	0.000000	0.001596	0.001704	28.0796	21.1759	0.001730	12243.4	3.363994	-176.092	27.5265	1.198102	0.018315	0.017947	27.558	12243.4	0.016627	0.017516	1573.3	84519.9
584	2.000000	1.209446	7.37077e+06	-47889.1	1005.82	-29764.3	0.000000	0.000000	7.212035	55.8416	NaN	0.000000	0.001660	0.001712	28.0795	32.4702	0.001734	18727.6	6.800237	177.049	56.0169	1.209064	0.029291	0.028909	55.8416	18727.6	0.027055	0.034861	1601.85	91640.2
584	2.000000	1.220435	7.37077e+06	-47889.1	1005.82	-29764.3	0.000000	0.000000	7.224496	91.6492	NaN	0.000000	0.001677	0.001691	28.0798	43.5956	0.001808	24107.7	8.093740	173.103	92.2224	1.220068	0.040280	0.039913	91.6492	24107.7	0.037429	0.057553	1592.43	91810.9
584	2.000000	1.231332	7.37077e+06	-47889.1	1005.82	-29764.3	0.000000	0.000000	7.237280	137.565	NaN	0.000000	0.001633	0.001691	28.0809	53.3268	0.001847	28872.3	7.415620	172.773	134.633	1.231029	0.051177	0.050874	137.565	28872.3	0.047604	0.085150	1615.55	90398.6
584	2.000000	1.242388	7.37077e+06	-47889.1	1005.82	-29764.3	0.000000	0.000000	7.250627	193.283	NaN	0.000000	0.001602	0.001743	28.0808	61.8184	0.001726	35822.6	3.676515	174.62	193.927	1.242044	0.062233	0.061889	193.283	35822.6	0.058187	0.119387	1618.96	94722.4
584	2.000000	1.253494	7.37077e+06	-47889.1	1005.82	-29764.3	0.000000	0.000000	7.264271	255.035	NaN	0.000000	0.001524	0.001691	28.0808	74.5849	0.001771	42124.7	0.823978	176.695	263.796	1.253087	0.073339	0.072932	255.035	42124.7	0.068798	0.159232	1601.65	96448.3
584	2.000000	1.264373	7.37077e+06	-47889.1	1005.82	-29764.3	0.000000	0.000000	7.278338	332.542	NaN	0.000000	0.001567	0.001683	28.0809	85.666	0.001714	49988.7	5.099225	170.936	334.43	1.263867	0.084218	0.083712	332.542	49988.7	0.079229	0.203644	1632.96	101207
584	2.000000	1.275299	7.37077e+06	-47889.1	1005.82	-29764.3	0.000000	0.000000	7.292590	413.461	NaN	0.000000	0.001560	0.001734	28.0799	95.1378	0.001811	52525.7	7.723534	168.882	410.754	1.274863	0.095144	0.094708	413.461	52525.7	0.089240	0.251042	1646.98	95779.2
584	2.000000	1.284720	7.37077e+06	-47889.1	1005.82	-29764.3	0.000000	0.000000	7.305072	487.904	NaN	0.000000	0.001580	0.001702	28.0795	102.404	0.001842	55593.7	2.788984	-7.172815	481.449	1.284392	0.104565	0.104237	487.904	55593.7	0.097983	0.296203	1647.2	93326.3