File: remote_trans/data/nanoindenter/0828-1/data/Data_2025-08-06,11h17m57s/2025-07-22_16-23-58_1_188.txt
2025-07-22, 16:23:58, 1
Index	Phase	Displacement	Time	Pos X	Pos Y	Pos Z	Rot A	Rot B	Piezo Z	Force A	Force B	Gripper	Voltage A	Voltage B	Temperature	Amplitude force	Amplitude pos	Stiffness	Phase shift	Phase excitation	Force A raw	Displacement raw	HMax	HMax raw	Real Force	Real Stiffness	Contact Depth	Area	Hardness	Reduced Mod.
[#]	[#]	[um]	[s]	[um]	[um]	[um]	[m°]	[m°]	[um]	[uN]	[uN]	[V]	[V]	[V]	[°C]	[uN]	[um]	[N/m]	[°]	[°]	[uN]	[um]	[um]	[um]	[uN]	[N/m]	[um]	[um^2]	[MPa]	[MPa]
188	1.000000	0.002745	7.36688e+06	-48039.1	955.819	-29764.3	0.000000	0.000000	6.002792	0.011925	NaN	0.000000	0.001702	0.001692	28.0789	0.099911	0.000970	103.024	9.390780	-163.144	0.000567	0.001493	-1.042903	-1.044155	0.011925	103.024	-1.042990	-8.593446E+13	-1.387711E-16	NaN
188	1.000000	0.042716	7.36688e+06	-48039.1	955.819	-29764.3	0.000000	0.000000	6.042767	0.111266	NaN	0.000000	0.001732	0.001696	28.0804	0.099395	0.001887	52.6723	119.644	-164.745	0.141486	0.041394	-1.002932	-1.004254	0.111266	52.6723	-1.004516	-2.609582E+13	-4.263751E-15	NaN
188	1.000000	0.082712	7.36688e+06	-48039.1	955.819	-29764.3	0.000000	0.000000	6.082761	0.038857	NaN	0.000000	0.001676	0.001626	28.0803	0.075517	0.001992	37.9049	-58.3065	-165.609	0.032219	0.081421	-0.962935	-0.964226	0.038857	37.9049	-0.963704	-7.358744E+12	-5.280410E-15	NaN
188	1.000000	0.122725	7.36688e+06	-48039.1	955.819	-29764.3	0.000000	0.000000	6.122773	0.020028	NaN	0.000000	0.001625	0.001677	28.0803	0.060847	0.001983	30.6804	-103.451	-166.038	0.019472	0.121427	-0.922922	-0.924221	0.020028	30.6804	-0.923412	-2.105076E+12	-9.514320E-15	NaN
188	1.000000	0.162759	7.36688e+06	-48039.1	955.819	-29764.3	0.000000	0.000000	6.162808	0.038507	NaN	0.000000	0.001682	0.001694	28.0792	0.008571	0.002120	4.042385	-77.6195	-160.86	0.003512	0.161387	-0.882888	-0.884261	0.038507	4.042385	-0.890033	-7.453480E+11	-5.166372E-14	NaN
188	1.000000	0.202790	7.36688e+06	-48039.1	955.818	-29764.3	0.000000	0.000000	6.202839	0.056582	NaN	0.000000	0.001682	0.001671	28.0788	0.039998	0.001891	21.1528	-24.463	-166.238	0.009411	0.201462	-0.842858	-0.844186	0.056582	21.1528	-0.844864	-1.824660E+11	-3.100968E-13	NaN
188	1.000000	0.242785	7.36688e+06	-48039.1	955.819	-29764.3	0.000000	0.000000	6.242833	0.005726	NaN	0.000000	0.001682	0.001671	28.079	0.048676	0.001980	24.5776	-125.854	-169.384	0.077154	0.241495	-0.802862	-0.804153	0.005726	24.5776	-0.803037	-4.944052E+10	-1.158100E-13	NaN
188	1.000000	0.282796	7.36688e+06	-48039.1	955.818	-29764.3	0.000000	0.000000	6.282846	0.070620	NaN	0.000000	0.001678	0.001664	28.0791	0.062360	0.002059	30.2898	128.025	-166.54	0.009890	0.281467	-0.762851	-0.764180	0.070620	30.2898	-0.764600	-1.485498E+10	-4.753939E-12	NaN
188	1.000000	0.322821	7.36688e+06	-48039.1	955.818	-29764.3	0.000000	0.000000	6.322869	0.019308	NaN	0.000000	0.001665	0.001659	28.0803	0.025013	0.002074	12.0578	-3.137627	-165.208	0.036133	0.321469	-0.722827	-0.724179	0.019308	12.0578	-0.724028	-4.162885E+9	-4.638173E-12	NaN
188	1.000000	0.362817	7.36688e+06	-48039.1	955.819	-29764.3	0.000000	0.000000	6.362864	-0.009129	NaN	0.000000	0.001650	0.001723	28.0803	0.072684	0.001948	37.3197	162.702	-165.373	0.004648	0.361562	-0.682830	-0.684086	-0.009129	37.3197	-0.682647	-1.133443E+9	8.054358E-12	NaN
188	1.000000	0.402874	7.36688e+06	-48039.1	955.819	-29764.3	0.000000	0.000000	6.402922	0.028469	NaN	0.000000	0.001666	0.001697	28.0801	0.031413	0.001951	16.0972	35.6114	-163.694	0.082194	0.401531	-0.642774	-0.644117	0.028469	16.0972	-0.644100	-3.361535E+8	-8.468901E-11	NaN
188	1.000000	0.442879	7.36688e+06	-48039.1	955.819	-29764.3	0.000000	0.000000	6.442925	-0.006866	NaN	0.000000	0.001629	0.001667	28.0793	0.071243	0.002063	34.526	72.4892	-164.85	-0.034923	0.441602	-0.602769	-0.604045	-0.006866	34.526	-0.602620	-9.047705E+7	7.588578E-11	NaN
188	1.000000	0.482859	7.36688e+06	-48039.1	955.818	-29764.3	0.000000	0.000000	6.482909	0.080106	NaN	0.000000	0.001670	0.001700	28.0792	0.148437	0.002012	73.7778	42.3244	-162.713	0.066307	0.481594	-0.562789	-0.564054	0.080106	73.7778	-0.563603	-2.619481E+7	-3.058102E-9	NaN
188	1.000000	0.522883	7.36688e+06	-48039.1	955.819	-29764.3	0.000000	0.000000	6.522933	0.072619	NaN	0.000000	0.001647	0.001668	28.079	0.056643	0.001930	29.355	178.471	-162.494	0.109800	0.521547	-0.522764	-0.524101	0.072619	29.355	-0.524620	-7.54791e+06	-9.621085E-9	NaN
188	1.000000	0.562935	7.36688e+06	-48039.1	955.819	-29764.3	0.000000	0.000000	6.562982	-0.004749	NaN	0.000000	0.001689	0.001669	28.0797	0.138958	0.001955	71.0607	-78.7444	-164.92	0.050034	0.561631	-0.482713	-0.484016	-0.004749	71.0607	-0.482663	-1.96243e+06	2.420011E-9	NaN
188	1.000000	0.602936	7.36688e+06	-48039.1	955.818	-29764.3	0.000000	0.000000	6.602985	0.040069	NaN	0.000000	0.001631	0.001657	28.0798	0.119415	0.001982	60.2453	10.4836	-162.512	0.121039	0.601577	-0.442711	-0.444070	0.040069	60.2453	-0.443210	-547838	-7.313940E-8	NaN
188	1.000000	0.642948	7.36688e+06	-48039.1	955.818	-29764.3	0.000000	0.000000	6.642994	-0.035793	NaN	0.000000	0.001662	0.001751	28.0798	0.041891	0.001936	21.6351	-43.331	-167.618	0.001726	0.641641	-0.402699	-0.404006	-0.035793	21.6351	-0.401459	-140213	2.552717E-7	NaN
188	1.000000	0.682972	7.36688e+06	-48039.1	955.818	-29764.3	0.000000	0.000000	6.683019	0.013170	NaN	0.000000	0.001666	0.001683	28.08	0.116973	0.002060	56.7801	-115.921	-163.81	0.024997	0.681679	-0.362676	-0.363968	0.013170	56.7801	-0.362850	-39176	-3.361706E-7	NaN
188	1.000000	0.722983	7.36688e+06	-48039.1	955.817	-29764.3	0.000000	0.000000	6.723029	-0.027207	NaN	0.000000	0.001671	0.001752	28.0792	0.018994	0.001982	9.584552	81.3074	-166.262	-0.050255	0.721678	-0.322665	-0.323970	-0.027207	9.584552	-0.320536	-9473.79	2.871787E-6	NaN
188	1.000000	0.762989	7.36688e+06	-48039.1	955.818	-29764.3	0.000000	0.000000	6.763035	-0.036591	NaN	0.000000	0.001659	0.001717	28.0788	0.052893	0.001996	26.5033	-66.1154	-166.668	0.055968	0.761704	-0.282658	-0.283944	-0.036591	26.5033	-0.281623	-2497.11	1.465347E-5	NaN
188	1.000000	0.803010	7.36688e+06	-48039.1	955.818	-29764.3	0.000000	0.000000	6.803057	0.004545	NaN	0.000000	0.001680	0.001714	28.0789	0.060262	0.001976	30.4953	130.637	-167.27	-0.003169	0.801718	-0.242638	-0.243929	0.004545	30.4953	-0.242749	-634.505	-7.163571E-6	NaN
188	1.000000	0.843031	7.36688e+06	-48039.1	955.818	-29764.3	0.000000	0.000000	6.843074	-0.095700	NaN	0.000000	0.001646	0.001684	28.0799	0.080495	0.001991	40.4205	-169.743	-163.851	-0.045333	0.841704	-0.202617	-0.203944	-0.095700	40.4205	-0.200841	-135.993	0.000704	NaN
188	1.000000	0.883068	7.36688e+06	-48039.1	955.817	-29764.3	0.000000	0.000000	6.883119	0.077476	NaN	0.000000	0.001705	0.001710	28.0799	0.060041	0.002004	29.9621	-64.5267	-161.454	0.119838	0.881724	-0.162579	-0.163923	0.077476	29.9621	-0.164519	-32.9493	-0.002351	NaN
188	1.000000	0.923070	7.36688e+06	-48039.1	955.819	-29764.3	0.000000	0.000000	6.923118	0.002944	NaN	0.000000	0.001689	0.001650	28.0799	0.010801	0.001892	5.709712	19.4256	-164.208	0.015921	0.921773	-0.122577	-0.123874	0.002944	5.709712	-0.122964	-5.540473	-0.000531	NaN
188	1.000000	0.963084	7.36688e+06	-48039.1	955.819	-29764.3	0.000000	0.000000	6.963131	0.008392	NaN	0.000000	0.001711	0.001704	28.08	0.033738	0.002000	16.8689	-2.244223	-165.874	0.000734	0.961750	-0.082564	-0.083898	0.008392	16.8689	-0.082937	-0.731842	-0.011467	NaN
188	1.000000	1.003088	7.36688e+06	-48039.1	955.818	-29764.3	0.000000	0.000000	7.003134	-0.040210	NaN	0.000000	0.001699	0.001658	28.0791	0.067551	0.002044	33.0487	71.0032	-165.992	-0.009374	1.001771	-0.042559	-0.043876	-0.040210	33.0487	-0.041647	-0.050756	0.792215	NaN
188	1.000000	1.043125	7.36688e+06	-48039.1	955.818	-29764.3	0.000000	0.000000	7.043170	-0.051882	NaN	0.000000	0.001707	0.001700	28.0791	0.038526	0.002091	18.4227	-143.708	-165.326	-0.030993	1.041824	-0.002523	-0.003823	-0.051882	18.4227	-0.000411	-0.000305	170.364	NaN
188	2.000000	1.063602	7.36688e+06	-48039.1	955.818	-29764.3	0.000000	0.000000	7.064396	18.164	NaN	0.000000	0.001654	0.001695	28.0791	13.3377	0.001820	7328.52	8.103747	-175.076	17.7846	1.063340	0.017955	0.017693	18.164	7328.52	0.016096	0.016774	1082.85	51697.3
188	2.000000	1.073584	7.36688e+06	-48039.1	955.818	-29764.3	0.000000	0.000000	7.074906	31.0082	NaN	0.000000	0.001710	0.001707	28.0801	23.1147	0.001870	12359.1	9.011344	-179.522	31.2823	1.073318	0.027936	0.027670	31.0082	12359.1	0.026055	0.032962	940.716	62194.3
188	2.000000	1.083583	7.36688e+06	-48039.1	955.819	-29764.3	0.000000	0.000000	7.085770	52.0503	NaN	0.000000	0.001668	0.001691	28.08	31.1485	0.001732	17989.3	5.557070	-179.11	52.9581	1.083245	0.037935	0.037598	52.0503	17989.3	0.035765	0.053543	972.117	71029
188	2.000000	1.093578	7.36689e+06	-48039.1	955.819	-29764.3	0.000000	0.000000	7.097048	83.2397	NaN	0.000000	0.001685	0.001739	28.08	40.9972	0.001782	23010.8	2.869409	-179.111	86.7678	1.093281	0.047931	0.047633	83.2397	23010.8	0.045218	0.078207	1064.36	75176.7
188	2.000000	1.103589	7.36689e+06	-48039.1	955.819	-29764.3	0.000000	0.000000	7.108075	107.953	NaN	0.000000	0.001651	0.001754	28.0792	51.2036	0.001795	28532.8	4.165281	178.212	112.581	1.103260	0.057942	0.057612	107.953	28532.8	0.055104	0.108840	991.854	79017.5
188	2.000000	1.113485	7.36689e+06	-48039.1	955.818	-29764.3	0.000000	0.000000	7.120170	161.441	NaN	0.000000	0.001667	0.001727	28.0789	60.4096	0.001890	31962.8	4.734457	176.543	159.503	1.113108	0.067838	0.067460	161.441	31962.8	0.064049	0.140728	1147.19	77844.6
188	2.000000	1.123504	7.36689e+06	-48039.1	955.818	-29764.3	0.000000	0.000000	7.132101	207.968	NaN	0.000000	0.001661	0.001713	28.0788	69.9623	0.001893	36966.8	3.678397	175.729	207.356	1.123270	0.077856	0.077623	207.968	36966.8	0.073637	0.179196	1160.56	79784.9
188	2.000000	1.133496	7.36689e+06	-48039.1	955.819	-29764.3	0.000000	0.000000	7.144478	265.979	NaN	0.000000	0.001633	0.001701	28.0786	78.5658	0.001709	45976.7	5.642681	172.927	266.539	1.133090	0.087848	0.087442	265.979	45976.7	0.083509	0.223342	1190.91	88884.6
188	2.000000	1.143418	7.36689e+06	-48039.1	955.819	-29764.3	0.000000	0.000000	7.157273	335.831	NaN	0.000000	0.001689	0.001750	28.0801	88.6248	0.001773	49978.5	3.806323	173.677	332.635	1.143065	0.097771	0.097417	335.831	49978.5	0.092731	0.268657	1250.04	88096.3
188	2.000000	1.153416	7.36689e+06	-48039.1	955.818	-29764.3	0.000000	0.000000	7.170154	405.951	NaN	0.000000	0.001637	0.001694	28.0801	97.3808	0.001728	56345.5	7.376780	169.668	402.288	1.153010	0.107768	0.107362	405.951	56345.5	0.102365	0.320151	1268	90981.8
188	2.000000	1.155288	7.36689e+06	-48039.1	955.818	-29764.3	0.000000	0.000000	7.172834	425.601	NaN	0.000000	0.001616	0.001714	28.0802	97.4459	0.001937	50301.9	2.950408	174.582	416.163	1.155005	0.109641	0.109357	425.601	50301.9	0.103295	0.325345	1308.15	80572.2