File: remote_trans/data/nanoindenter/0828-1/data/Data_2025-08-06,11h17m57s/2025-07-22_16-23-58_1_710.txt
2025-07-22, 16:23:58, 1
Index	Phase	Displacement	Time	Pos X	Pos Y	Pos Z	Rot A	Rot B	Piezo Z	Force A	Force B	Gripper	Voltage A	Voltage B	Temperature	Amplitude force	Amplitude pos	Stiffness	Phase shift	Phase excitation	Force A raw	Displacement raw	HMax	HMax raw	Real Force	Real Stiffness	Contact Depth	Area	Hardness	Reduced Mod.
[#]	[#]	[um]	[s]	[um]	[um]	[um]	[m°]	[m°]	[um]	[uN]	[uN]	[V]	[V]	[V]	[°C]	[uN]	[um]	[N/m]	[°]	[°]	[uN]	[um]	[um]	[um]	[uN]	[N/m]	[um]	[um^2]	[MPa]	[MPa]
710	1.000000	0.002902	7.372e+06	-41589.1	1005.82	-29785.7	0.000000	0.000000	6.002782	0.021134	NaN	0.000000	0.001586	0.001712	28.0811	0.068043	0.001063	64.0226	-147.417	-163.537	0.069065	0.001637	-1.089164	-1.090429	0.021134	64.0226	-1.089412	-3.613360E+14	-5.848807E-17	NaN
710	1.000000	0.042868	7.372e+06	-41589.1	1005.82	-29785.7	0.000000	0.000000	6.042750	0.058112	NaN	0.000000	0.001626	0.001754	28.0828	0.059845	0.001953	30.6405	-177.526	-165.249	0.087259	0.041562	-1.049198	-1.050504	0.058112	30.6405	-1.050620	-1.088312E+14	-5.339616E-16	NaN
710	1.000000	0.082871	7.372e+06	-41589.1	1005.82	-29785.7	0.000000	0.000000	6.082750	-0.008352	NaN	0.000000	0.001614	0.001675	28.0826	0.173046	0.002039	84.8654	-59.777	-164.137	0.035344	0.081573	-1.009195	-1.010493	-0.008352	84.8654	-1.009121	-3.009935E+13	2.774851E-16	NaN
710	1.000000	0.122889	7.372e+06	-41589.1	1005.82	-29785.7	0.000000	0.000000	6.122770	0.039394	NaN	0.000000	0.001618	0.001702	28.0823	0.053004	0.002116	25.0491	12.8324	-163.299	-0.025676	0.121579	-0.969177	-0.970487	0.039394	25.0491	-0.970357	-9.046327E+12	-4.354650E-15	NaN
710	1.000000	0.162904	7.372e+06	-41589.1	1005.82	-29785.7	0.000000	0.000000	6.162783	-0.006479	NaN	0.000000	0.001629	0.001690	28.0819	0.037946	0.002083	18.221	176.196	-164.721	0.032780	0.161569	-0.929162	-0.930497	-0.006479	18.221	-0.928895	-2.496256E+12	2.595523E-15	NaN
710	1.000000	0.202937	7.372e+06	-41589.1	1005.82	-29785.7	0.000000	0.000000	6.202816	-0.027810	NaN	0.000000	0.001618	0.001674	28.081	0.128432	0.001889	67.9997	-125.263	-164.981	0.068688	0.201627	-0.889129	-0.890438	-0.027810	67.9997	-0.888822	-7.177760E+11	3.874465E-14	NaN
710	1.000000	0.242935	7.372e+06	-41589.1	1005.82	-29785.7	0.000000	0.000000	6.242815	-0.010055	NaN	0.000000	0.001576	0.001742	28.081	0.127299	0.002017	63.1167	-102.419	-165.362	-0.059727	0.241666	-0.849130	-0.850400	-0.010055	63.1167	-0.849011	-2.076556E+11	4.842297E-14	NaN
710	1.000000	0.282972	7.372e+06	-41589.1	1005.82	-29785.7	0.000000	0.000000	6.282849	-0.076033	NaN	0.000000	0.001546	0.001712	28.081	0.074581	0.002025	36.8295	78.5104	-166.101	0.007564	0.281630	-0.809094	-0.810436	-0.076033	36.8295	-0.807545	-5.692012E+10	1.335788E-12	NaN
710	1.000000	0.322999	7.372e+06	-41589.1	1005.82	-29785.7	0.000000	0.000000	6.322880	0.037966	NaN	0.000000	0.001534	0.001720	28.0824	0.015657	0.002008	7.798798	156.798	-165.643	0.008422	0.321739	-0.769067	-0.770327	0.037966	7.798798	-0.772718	-1.915418E+10	-1.982131E-12	NaN
710	1.000000	0.362994	7.372e+06	-41589.1	1005.82	-29785.7	0.000000	0.000000	6.362876	0.062711	NaN	0.000000	0.001509	0.001745	28.0826	0.035691	0.002070	17.245	-16.6887	-163.739	-0.003256	0.361685	-0.729072	-0.730381	0.062711	17.245	-0.731799	-5.312862E+9	-1.180361E-11	NaN
710	1.000000	0.403007	7.372e+06	-41589.1	1005.82	-29785.7	0.000000	0.000000	6.402885	-0.026842	NaN	0.000000	0.001541	0.001749	28.0828	0.088770	0.002026	43.8134	-111.439	-166.023	-0.016558	0.401704	-0.689059	-0.690362	-0.026842	43.8134	-0.688600	-1.367031E+9	1.963505E-11	NaN
710	1.000000	0.443010	7.372e+06	-41589.1	1005.82	-29785.7	0.000000	0.000000	6.442886	-0.094973	NaN	0.000000	0.001554	0.001734	28.0816	0.081481	0.001982	41.1077	17.5465	-164.643	-0.085303	0.441728	-0.649056	-0.650338	-0.094973	41.1077	-0.647323	-3.721683E+8	2.551881E-10	NaN
710	1.000000	0.483072	7.372e+06	-41589.1	1005.82	-29785.7	0.000000	0.000000	6.482949	-0.056995	NaN	0.000000	0.001598	0.001775	28.0815	0.034313	0.002020	16.9903	61.2846	-165.202	-0.001101	0.481772	-0.608994	-0.610294	-0.056995	16.9903	-0.606478	-1.022466E+8	5.574305E-10	NaN
710	1.000000	0.523107	7.372e+06	-41589.1	1005.82	-29785.7	0.000000	0.000000	6.522985	-0.036357	NaN	0.000000	0.001573	0.001760	28.0817	0.056428	0.002134	26.4473	75.1901	-169.128	0.052116	0.521748	-0.568959	-0.570318	-0.036357	26.4473	-0.567928	-3.006047E+7	1.209479E-9	NaN
710	1.000000	0.563097	7.372e+06	-41589.1	1005.82	-29785.7	0.000000	0.000000	6.562974	-0.067134	NaN	0.000000	0.001581	0.001772	28.0813	0.147403	0.002014	73.199	-99.3042	-166.848	-0.074424	0.561723	-0.528969	-0.530343	-0.067134	73.199	-0.528281	-8.48589e+06	7.911248E-9	NaN
710	1.000000	0.603107	7.372e+06	-41589.1	1005.82	-29785.7	0.000000	0.000000	6.602986	-0.017332	NaN	0.000000	0.001617	0.001782	28.0827	0.060177	0.001972	30.514	88.1421	-164.969	0.001356	0.601796	-0.488959	-0.490270	-0.017332	30.514	-0.488533	-2.37077e+06	7.310597E-9	NaN
710	1.000000	0.643114	7.372e+06	-41589.1	1005.82	-29785.7	0.000000	0.000000	6.642992	-0.035776	NaN	0.000000	0.001609	0.001809	28.083	0.104069	0.002060	50.5248	-97.469	-166.552	-0.031296	0.641800	-0.448952	-0.450265	-0.035776	50.5248	-0.448421	-648790	5.514340E-8	NaN
710	1.000000	0.683109	7.372e+06	-41589.1	1005.82	-29785.7	0.000000	0.000000	6.682991	0.061579	NaN	0.000000	0.001629	0.001769	28.0826	0.090026	0.002171	41.4605	-83.4181	-167.953	0.042825	0.681866	-0.408957	-0.410200	0.061579	41.4605	-0.410071	-185956	-3.311512E-7	NaN
710	1.000000	0.723164	7.372e+06	-41589.1	1005.82	-29785.7	0.000000	0.000000	6.723044	0.000190	NaN	0.000000	0.001618	0.001744	28.0813	0.064466	0.002006	32.1313	-35.5933	-165.875	0.051954	0.721846	-0.368901	-0.370220	0.000190	32.1313	-0.368906	-47903.5	-3.963760E-9	NaN
710	1.000000	0.763169	7.372e+06	-41589.1	1005.82	-29785.7	0.000000	0.000000	6.763048	-0.027262	NaN	0.000000	0.001637	0.001747	28.0814	0.099346	0.001893	52.4772	126.685	-168.688	-0.090849	0.761890	-0.328897	-0.330176	-0.027262	52.4772	-0.328507	-12404.5	2.197735E-6	NaN
710	1.000000	0.803191	7.372e+06	-41589.1	1005.82	-29785.7	0.000000	0.000000	6.803072	0.047986	NaN	0.000000	0.001658	0.001764	28.0813	0.072638	0.001983	36.6216	170.621	-168.498	0.023304	0.801867	-0.288875	-0.290199	0.047986	36.6216	-0.289858	-3320.26	-1.445245E-5	NaN
710	1.000000	0.843203	7.372e+06	-41589.1	1005.82	-29785.7	0.000000	0.000000	6.843082	-0.024549	NaN	0.000000	0.001697	0.001696	28.0812	0.042301	0.002018	20.9575	49.3582	-165.966	-0.005792	0.841915	-0.248863	-0.250150	-0.024549	20.9575	-0.247984	-765.177	3.208310E-5	NaN
710	1.000000	0.883180	7.372e+06	-41589.1	1005.82	-29785.7	0.000000	0.000000	6.883062	0.057713	NaN	0.000000	0.001610	0.001733	28.0826	0.060152	0.002074	29.0027	93.2444	-166.472	-0.019410	0.881936	-0.208886	-0.210129	0.057713	29.0027	-0.210378	-194.512	-0.000297	NaN
710	1.000000	0.923234	7.372e+06	-41589.1	1005.82	-29785.7	0.000000	0.000000	6.923117	0.073619	NaN	0.000000	0.001635	0.001773	28.0836	0.061303	0.001917	31.9836	39.3947	-165.369	0.095473	0.921892	-0.168832	-0.170174	0.073619	31.9836	-0.170558	-42.0046	-0.001753	NaN
710	1.000000	0.963254	7.372e+06	-41589.1	1005.82	-29785.7	0.000000	0.000000	6.963134	-0.009380	NaN	0.000000	0.001603	0.001722	28.083	0.071611	0.001953	36.6641	42.9813	-170.664	0.016412	0.961969	-0.128812	-0.130097	-0.009380	36.6641	-0.128620	-7.163633	0.001309	NaN
710	1.000000	1.003285	7.372e+06	-41589.1	1005.82	-29785.7	0.000000	0.000000	7.003166	0.033968	NaN	0.000000	0.001601	0.001761	28.0812	0.138426	0.001954	70.8279	176.681	-167.581	0.047300	1.001909	-0.088781	-0.090157	0.033968	70.8279	-0.089141	-1.031826	-0.032920	NaN
710	1.000000	1.043306	7.372e+06	-41589.1	1005.82	-29785.7	0.000000	0.000000	7.043186	0.011384	NaN	0.000000	0.001608	0.001699	28.0813	0.038821	0.002028	19.1444	-11.5145	-165.695	0.024404	1.041978	-0.048760	-0.050087	0.011384	19.1444	-0.049206	-0.086335	-0.131855	NaN
710	1.000000	1.083293	7.372e+06	-41589.1	1005.82	-29785.7	0.000000	0.000000	7.083172	-0.012062	NaN	0.000000	0.001588	0.001739	28.0814	0.093765	0.002057	45.5898	-128.873	-165.816	-0.007061	1.081977	-0.008773	-0.010089	-0.012062	45.5898	-0.008575	-0.005567	2.166814	NaN
710	2.000000	1.102901	7.372e+06	-41589.1	1005.82	-29785.7	0.000000	0.000000	7.103551	18.7445	NaN	0.000000	0.001584	0.001728	28.0826	16.8414	0.001871	9002.58	5.888988	-175.792	18.1855	1.102579	0.010835	0.010513	18.7445	9002.58	0.009274	0.008385	2235.41	89821.9
710	2.000000	1.112860	7.372e+06	-41589.1	1005.82	-29785.7	0.000000	0.000000	7.114461	41.8767	NaN	0.000000	0.001561	0.001743	28.0826	26.6834	0.001810	14738.5	6.867474	179.492	42.0055	1.112516	0.020794	0.020450	41.8767	14738.5	0.018663	0.020485	2044.27	94082.5
710	2.000000	1.122763	7.372e+06	-41589.1	1005.82	-29785.7	0.000000	0.000000	7.125625	72.5808	NaN	0.000000	0.001635	0.001740	28.0825	36.4431	0.001886	19322.1	6.684010	176.089	69.2663	1.122498	0.030697	0.030432	72.5808	19322.1	0.027880	0.036463	1990.51	92448
710	2.000000	1.132775	7.372e+06	-41589.1	1005.82	-29785.7	0.000000	0.000000	7.137197	110.522	NaN	0.000000	0.001683	0.001713	28.0824	45.3921	0.001792	25333.1	3.492913	176.556	107.25	1.132476	0.040709	0.040411	110.522	25333.1	0.037437	0.057573	1919.68	96460.8
710	2.000000	1.142754	7.372e+06	-41589.1	1005.82	-29785.7	0.000000	0.000000	7.149040	155.881	NaN	0.000000	0.001625	0.001717	28.0815	55.4888	0.001845	30068.8	6.811001	172.534	153.774	1.142501	0.050688	0.050435	155.881	30068.8	0.046800	0.082780	1883.07	95482.9
710	2.000000	1.152752	7.372e+06	-41589.1	1005.82	-29785.7	0.000000	0.000000	7.161070	205.309	NaN	0.000000	0.001624	0.001709	28.0816	64.3093	0.001770	36334.1	2.513190	175.449	204.995	1.152553	0.060687	0.060487	205.309	36334.1	0.056449	0.113383	1810.77	98585.7
710	2.000000	1.162733	7.372e+06	-41589.1	1005.82	-29785.7	0.000000	0.000000	7.173526	265.543	NaN	0.000000	0.001584	0.001705	28.0814	73.8001	0.001853	39834.4	4.623209	172.317	262.706	1.162462	0.070668	0.070396	265.543	39834.4	0.065668	0.146914	1807.48	94951.2
710	2.000000	1.172721	7.372e+06	-41589.1	1005.82	-29785.7	0.000000	0.000000	7.186375	335.144	NaN	0.000000	0.001610	0.001709	28.0827	83.4009	0.001791	46556.9	1.952036	174.434	332.483	1.172376	0.080655	0.080311	335.144	46556.9	0.075257	0.186126	1800.63	98594.9
710	2.000000	1.182766	7.372e+06	-41589.1	1005.82	-29785.7	0.000000	0.000000	7.199687	414.641	NaN	0.000000	0.001647	0.001726	28.0828	92.1205	0.001700	54199.1	1.543831	173.699	415.296	1.182578	0.090700	0.090512	414.641	54199.1	0.084962	0.230223	1801.04	103203
710	2.000000	1.192736	7.37201e+06	-41589.1	1005.82	-29785.7	0.000000	0.000000	7.213052	497.255	NaN	0.000000	0.001619	0.001754	28.0827	103.079	0.001936	53232.5	6.754443	169.79	497.512	1.192330	0.100671	0.100264	497.255	53232.5	0.093665	0.273462	1818.37	93004
710	2.000000	1.194615	7.37201e+06	-41589.1	1005.82	-29785.7	0.000000	0.000000	7.215620	514.028	NaN	0.000000	0.001647	0.001732	28.0833	103.1	0.001832	56291.7	5.273569	170.449	507.259	1.194296	0.102549	0.102231	514.028	56291.7	0.095700	0.284077	1809.46	96493.8