File: remote_trans/data/nanoindenter/0828-1/data/Data_2025-08-06,11h17m57s/2025-07-22_16-23-58_1_1070.txt
2025-07-22, 16:23:58, 1
Index	Phase	Displacement	Time	Pos X	Pos Y	Pos Z	Rot A	Rot B	Piezo Z	Force A	Force B	Gripper	Voltage A	Voltage B	Temperature	Amplitude force	Amplitude pos	Stiffness	Phase shift	Phase excitation	Force A raw	Displacement raw	HMax	HMax raw	Real Force	Real Stiffness	Contact Depth	Area	Hardness	Reduced Mod.
[#]	[#]	[um]	[s]	[um]	[um]	[um]	[m°]	[m°]	[um]	[uN]	[uN]	[V]	[V]	[V]	[°C]	[uN]	[um]	[N/m]	[°]	[°]	[uN]	[um]	[um]	[um]	[uN]	[N/m]	[um]	[um^2]	[MPa]	[MPa]
1070	1.000000	0.002824	7.37551e+06	-53639.1	1055.82	-29745.7	0.000000	0.000000	6.002825	-0.034676	NaN	0.000000	0.001583	0.001664	28.0828	0.058970	0.000901	65.44	159.895	-166.161	0.032355	0.001518	-1.067072	-1.068378	-0.034676	65.44	-1.066675	-1.788592E+14	1.938747E-16	NaN
1070	1.000000	0.042753	7.37551e+06	-53639.1	1055.82	-29745.7	0.000000	0.000000	6.042753	-0.074397	NaN	0.000000	0.001586	0.001701	28.0819	0.107471	0.001846	58.2291	-16.2947	-165.748	-0.057434	0.041387	-1.027142	-1.028509	-0.074397	58.2291	-1.026184	-5.106804E+13	1.456812E-15	NaN
1070	1.000000	0.082764	7.37551e+06	-53639.1	1055.82	-29745.7	0.000000	0.000000	6.082765	-0.035357	NaN	0.000000	0.001569	0.001723	28.0817	0.055379	0.001972	28.0836	60.4688	-163.024	-0.049008	0.081388	-0.987132	-0.988507	-0.035357	28.0836	-0.986188	-1.478306E+13	2.391700E-15	NaN
1070	1.000000	0.122785	7.37551e+06	-53639.1	1055.82	-29745.7	0.000000	0.000000	6.122786	-0.015640	NaN	0.000000	0.001542	0.001680	28.0819	0.077106	0.001944	39.6717	-92.7117	-165.271	0.018011	0.121487	-0.947111	-0.948408	-0.015640	39.6717	-0.946815	-4.355859E+12	3.590537E-15	NaN
1070	1.000000	0.162793	7.37551e+06	-53639.1	1055.82	-29745.7	0.000000	0.000000	6.162793	-0.055608	NaN	0.000000	0.001549	0.001670	28.0831	0.104982	0.002044	51.3625	-147.778	-165.15	-0.037652	0.161510	-0.907103	-0.908386	-0.055608	51.3625	-0.906291	-1.236117E+12	4.498588E-14	NaN
1070	1.000000	0.202779	7.37551e+06	-53639.1	1055.82	-29745.7	0.000000	0.000000	6.202780	-0.022610	NaN	0.000000	0.001611	0.001705	28.0832	0.030966	0.002041	15.1747	83.4766	-165.42	-0.023344	0.201463	-0.867117	-0.868432	-0.022610	15.1747	-0.866000	-3.526271E+11	6.412001E-14	NaN
1070	1.000000	0.242809	7.37551e+06	-53639.1	1055.82	-29745.7	0.000000	0.000000	6.242809	-0.079000	NaN	0.000000	0.001541	0.001717	28.0834	0.038030	0.002052	18.5311	-34.4154	-164.455	0.010461	0.241497	-0.827086	-0.828399	-0.079000	18.5311	-0.823889	-9.482935E+10	8.330731E-13	NaN
1070	1.000000	0.282857	7.37551e+06	-53639.1	1055.82	-29745.7	0.000000	0.000000	6.282860	0.012405	NaN	0.000000	0.001537	0.001723	28.0837	0.016121	0.002043	7.889138	-64.5353	-165.831	0.038112	0.281469	-0.787038	-0.788427	0.012405	7.889138	-0.788218	-3.110821E+10	-3.987733E-13	NaN
1070	1.000000	0.322842	7.37551e+06	-53639.1	1055.82	-29745.7	0.000000	0.000000	6.322848	0.094153	NaN	0.000000	0.001527	0.001687	28.0821	0.089138	0.001942	45.9081	-110.165	-166.569	0.038203	0.321496	-0.747054	-0.748399	0.094153	45.9081	-0.748592	-8.996051E+9	-1.046600E-11	NaN
1070	1.000000	0.362894	7.37551e+06	-53639.1	1055.82	-29745.7	0.000000	0.000000	6.362897	0.007794	NaN	0.000000	0.001535	0.001734	28.0818	0.083515	0.002002	41.7166	-162.923	-164.215	-0.062672	0.361547	-0.707001	-0.708348	0.007794	41.7166	-0.707141	-2.449238E+9	-3.182280E-12	NaN
1070	1.000000	0.402905	7.37551e+06	-53639.1	1055.82	-29745.7	0.000000	0.000000	6.402906	-0.037872	NaN	0.000000	0.001554	0.001754	28.0814	0.057663	0.001910	30.185	-131.236	-162.214	-0.056264	0.401555	-0.666990	-0.668340	-0.037872	30.185	-0.666049	-6.719072E+8	5.636453E-11	NaN
1070	1.000000	0.442900	7.37552e+06	-53639.1	1055.82	-29745.7	0.000000	0.000000	6.442902	-0.019844	NaN	0.000000	0.001549	0.001749	28.0828	0.081886	0.002014	40.649	57.889	-164.253	0.018862	0.441591	-0.626995	-0.628305	-0.019844	40.649	-0.626629	-1.935199E+8	1.025439E-10	NaN
1070	1.000000	0.482949	7.37552e+06	-53639.1	1055.82	-29745.7	0.000000	0.000000	6.482950	-0.023280	NaN	0.000000	0.001603	0.001733	28.0828	0.021695	0.001889	11.4829	-56.5065	-162.11	0.008065	0.481639	-0.586947	-0.588257	-0.023280	11.4829	-0.585427	-5.243223E+7	4.439969E-10	NaN
1070	1.000000	0.522991	7.37552e+06	-53639.1	1055.82	-29745.7	0.000000	0.000000	6.522993	-0.004664	NaN	0.000000	0.001564	0.001716	28.0829	0.040919	0.002046	19.9976	73.5525	-167.358	-0.018635	0.521658	-0.546905	-0.548238	-0.004664	19.9976	-0.546730	-1.529861E+7	3.048356E-10	NaN
1070	1.000000	0.562952	7.37552e+06	-53639.1	1055.82	-29745.7	0.000000	0.000000	6.562953	-0.031347	NaN	0.000000	0.001581	0.001683	28.0831	0.041418	0.002076	19.9526	150.69	-164.356	0.035974	0.561681	-0.506944	-0.508215	-0.031347	19.9526	-0.505766	-4.12494e+06	7.599325E-9	NaN
1070	1.000000	0.602991	7.37552e+06	-53639.1	1055.82	-29745.7	0.000000	0.000000	6.602995	0.021709	NaN	0.000000	0.001543	0.001664	28.0818	0.123217	0.002032	60.6416	-75.7061	-168.014	-0.060845	0.601714	-0.466904	-0.468182	0.021709	60.6416	-0.467173	-1.19054e+06	-1.823424E-8	NaN
1070	1.000000	0.643001	7.37552e+06	-53639.1	1055.82	-29745.7	0.000000	0.000000	6.643004	-0.002801	NaN	0.000000	0.001613	0.001696	28.0819	0.047204	0.002022	23.3451	-164.956	-165.194	-0.014006	0.641651	-0.426894	-0.428245	-0.002801	23.3451	-0.426804	-321244	8.717930E-9	NaN
1070	1.000000	0.683015	7.37552e+06	-53639.1	1055.82	-29745.7	0.000000	0.000000	6.683021	0.071845	NaN	0.000000	0.001599	0.001706	28.0822	0.012579	0.002082	6.041212	-102.789	-165.261	0.023965	0.681618	-0.386880	-0.388278	0.071845	6.041212	-0.395799	-116426	-6.170813E-7	NaN
1070	1.000000	0.723006	7.37552e+06	-53639.1	1055.82	-29745.7	0.000000	0.000000	6.723010	0.027126	NaN	0.000000	0.001543	0.001714	28.0832	0.086592	0.002002	43.2432	45.244	-162.735	0.034906	0.721745	-0.346889	-0.348150	0.027126	43.2432	-0.347360	-23370.1	-1.160701E-6	NaN
1070	1.000000	0.763039	7.37552e+06	-53639.1	1055.82	-29745.7	0.000000	0.000000	6.763044	0.055889	NaN	0.000000	0.001506	0.001660	28.0833	0.073845	0.002072	35.6337	-45.5185	-166.213	-0.003949	0.761719	-0.306856	-0.308176	0.055889	35.6337	-0.308032	-6193.31	-9.024078E-6	NaN
1070	1.000000	0.803054	7.37552e+06	-53639.1	1055.82	-29745.7	0.000000	0.000000	6.803056	-0.009364	NaN	0.000000	0.001536	0.001670	28.0832	0.023916	0.001975	12.1107	-57.2032	-167.597	0.003518	0.801681	-0.266842	-0.268214	-0.009364	12.1107	-0.266262	-1460.97	6.409208E-6	NaN
1070	1.000000	0.843102	7.37552e+06	-53639.1	1055.82	-29745.7	0.000000	0.000000	6.843103	-0.036549	NaN	0.000000	0.001557	0.001705	28.0832	0.037927	0.002026	18.7232	23.5993	-163.266	-0.072948	0.841768	-0.226793	-0.228128	-0.036549	18.7232	-0.225329	-337.724	0.000108	NaN
1070	1.000000	0.883080	7.37552e+06	-53639.1	1055.82	-29745.7	0.000000	0.000000	6.883080	-0.037239	NaN	0.000000	0.001660	0.001681	28.0822	0.099016	0.001940	51.0493	-76.0589	-165.976	0.105868	0.881764	-0.186816	-0.188132	-0.037239	51.0493	-0.186269	-77.8924	0.000478	NaN
1070	1.000000	0.923111	7.37552e+06	-53639.1	1055.82	-29745.7	0.000000	0.000000	6.923113	-0.009659	NaN	0.000000	0.001638	0.001713	28.082	0.078334	0.001999	39.1872	-111.849	-164.108	-0.055067	0.921799	-0.146785	-0.148097	-0.009659	39.1872	-0.146600	-15.6928	0.000615	NaN
1070	1.000000	0.963133	7.37552e+06	-53639.1	1055.82	-29745.7	0.000000	0.000000	6.963133	-0.049422	NaN	0.000000	0.001642	0.001696	28.0821	0.040638	0.002118	19.1898	121.878	-162.739	-0.002189	0.961890	-0.106763	-0.108005	-0.049422	19.1898	-0.104831	-2.330890	0.021203	NaN
1070	1.000000	1.003141	7.37552e+06	-53639.1	1055.82	-29745.7	0.000000	0.000000	7.003144	0.001773	NaN	0.000000	0.001629	0.001714	28.0833	0.060669	0.001927	31.4874	70.3019	-166.343	-0.034176	1.001874	-0.066754	-0.068021	0.001773	31.4874	-0.066797	-0.279321	-0.006346	NaN
1070	1.000000	1.043163	7.37552e+06	-53639.1	1055.82	-29745.7	0.000000	0.000000	7.043167	0.025880	NaN	0.000000	0.001627	0.001681	28.0832	0.036350	0.002012	18.0661	-178.45	-166.388	0.057730	1.041868	-0.026732	-0.028028	0.025880	18.0661	-0.027807	-0.020032	-1.291914	NaN
1070	2.000000	1.077659	7.37552e+06	-53639.1	1055.82	-29745.7	0.000000	0.000000	7.078139	11.6018	NaN	0.000000	0.001672	0.001655	28.0836	11.8429	0.001631	7261.18	8.989001	-176.394	11.7808	1.077336	0.007764	0.007440	11.6018	7261.18	0.006565	0.005608	2068.9	88590.8
1070	2.000000	1.087593	7.37552e+06	-53639.1	1055.82	-29745.7	0.000000	0.000000	7.088768	28.5183	NaN	0.000000	0.001656	0.001708	28.0822	22.6772	0.001749	12968	2.449764	-174.599	27.6767	1.087317	0.017697	0.017422	28.5183	12968	0.016048	0.016708	1706.83	91659.7
1070	2.000000	1.097522	7.37552e+06	-53639.1	1055.82	-29745.7	0.000000	0.000000	7.099750	54.1198	NaN	0.000000	0.001592	0.001701	28.082	32.8179	0.001715	19136.5	4.126395	-179.276	51.8464	1.097210	0.027626	0.027314	54.1198	19136.5	0.025505	0.031941	1694.35	97827.3
1070	2.000000	1.107504	7.37552e+06	-53639.1	1055.82	-29745.7	0.000000	0.000000	7.111054	86.2467	NaN	0.000000	0.001570	0.001712	28.0819	42.5857	0.001827	23312	5.208043	178.514	84.6125	1.107121	0.037608	0.037225	86.2467	23312	0.034834	0.051359	1679.29	93982
1070	2.000000	1.117533	7.37552e+06	-53639.1	1055.82	-29745.7	0.000000	0.000000	7.122598	123.094	NaN	0.000000	0.001633	0.001689	28.0819	51.8217	0.001655	31304.1	2.403415	178.194	122.774	1.117127	0.047637	0.047231	123.094	31304.1	0.044688	0.076704	1604.8	103268
1070	2.000000	1.127429	7.37552e+06	-53639.1	1055.82	-29745.7	0.000000	0.000000	7.134277	166.444	NaN	0.000000	0.001669	0.001713	28.0833	60.7326	0.001646	36886.2	5.137867	174.211	161.198	1.127197	0.057533	0.057302	166.444	36886.2	0.054149	0.105667	1575.17	103673
1070	2.000000	1.137486	7.37552e+06	-53639.1	1055.82	-29745.7	0.000000	0.000000	7.146380	216.186	NaN	0.000000	0.001651	0.001665	28.0833	70.6407	0.001815	38926.1	3.273959	175.781	213.491	1.137192	0.067590	0.067296	216.186	38926.1	0.063425	0.138375	1562.32	95605.9
1070	2.000000	1.147489	7.37552e+06	-53639.1	1055.82	-29745.7	0.000000	0.000000	7.158509	267.872	NaN	0.000000	0.001592	0.001683	28.0832	79.8055	0.001750	45611.4	2.949703	175.026	266.501	1.147239	0.077593	0.077343	267.872	45611.4	0.073189	0.177300	1510.84	98967.4
1070	2.000000	1.157490	7.37552e+06	-53639.1	1055.82	-29745.7	0.000000	0.000000	7.171191	333.037	NaN	0.000000	0.001671	0.001706	28.082	90.521	0.001851	48899.4	7.666950	170.066	332.374	1.157169	0.087594	0.087273	333.037	48899.4	0.082486	0.218557	1523.8	95564.2
1070	2.000000	1.167570	7.37552e+06	-53639.1	1055.82	-29745.7	0.000000	0.000000	7.184404	409.203	NaN	0.000000	0.001584	0.001740	28.0822	98.9002	0.001856	53276.9	3.514894	173.97	412.236	1.167152	0.097675	0.097256	409.203	53276.9	0.091914	0.264486	1547.16	94648
1070	2.000000	1.174438	7.37552e+06	-53639.1	1055.82	-29745.7	0.000000	0.000000	7.193433	461.742	NaN	0.000000	0.001594	0.001683	28.0822	105.129	0.001831	57410.2	5.691343	171.545	459.07	1.174084	0.104542	0.104188	461.742	57410.2	0.098510	0.299041	1544.08	95917.4