File: remote_trans/data/nanoindenter/0828-1/data/Data_2025-08-06,11h17m57s/2025-07-22_16-23-58_1_268.txt
2025-07-22, 16:23:58, 1
Index	Phase	Displacement	Time	Pos X	Pos Y	Pos Z	Rot A	Rot B	Piezo Z	Force A	Force B	Gripper	Voltage A	Voltage B	Temperature	Amplitude force	Amplitude pos	Stiffness	Phase shift	Phase excitation	Force A raw	Displacement raw	HMax	HMax raw	Real Force	Real Stiffness	Contact Depth	Area	Hardness	Reduced Mod.
[#]	[#]	[um]	[s]	[um]	[um]	[um]	[m°]	[m°]	[um]	[uN]	[uN]	[V]	[V]	[V]	[°C]	[uN]	[um]	[N/m]	[°]	[°]	[uN]	[um]	[um]	[um]	[uN]	[N/m]	[um]	[um^2]	[MPa]	[MPa]
268	1.000000	0.002808	7.36767e+06	-52039.1	955.819	-29750.8	0.000000	0.000000	6.002776	-0.019671	NaN	0.000000	0.001615	0.001685	28.0795	0.050952	0.000961	53.0115	147.32	-163.015	-0.095403	0.001542	-0.989908	-0.991175	-0.019671	53.0115	-0.989630	-1.644867E+13	1.195923E-15	NaN
268	1.000000	0.040804	7.36767e+06	-52039.1	955.819	-29750.8	0.000000	0.000000	6.040774	0.011684	NaN	0.000000	0.001681	0.001668	28.0784	0.051538	0.001915	26.9069	-159.791	9.493689	0.013026	0.039458	-0.951912	-0.953258	0.011684	26.9069	-0.952238	-5.154732E+12	-2.266748E-15	NaN
268	1.000000	0.078759	7.36767e+06	-52039.1	955.818	-29750.8	0.000000	0.000000	6.078726	-0.031737	NaN	0.000000	0.001583	0.001697	28.0781	0.030349	0.002057	14.7557	40.1571	-166.379	-0.011941	0.077472	-0.913958	-0.915245	-0.031737	14.7557	-0.912344	-1.492201E+12	2.126837E-14	NaN
268	1.000000	0.116793	7.36767e+06	-52039.1	955.818	-29750.8	0.000000	0.000000	6.116762	0.000657	NaN	0.000000	0.001592	0.001716	28.0781	0.037175	0.002019	18.4113	-34.6487	12.0378	0.084110	0.115520	-0.875923	-0.877196	0.000657	18.4113	-0.875950	-4.807596E+11	-1.367256E-15	NaN
268	1.000000	0.154820	7.36768e+06	-52039.1	955.819	-29750.8	0.000000	0.000000	6.154788	-0.013970	NaN	0.000000	0.001573	0.001707	28.0782	0.062191	0.002092	29.7306	-22.101	-167.853	-0.060747	0.153506	-0.837896	-0.839211	-0.013970	29.7306	-0.837544	-1.452169E+11	9.620150E-14	NaN
268	1.000000	0.192826	7.36768e+06	-52039.1	955.818	-29750.8	0.000000	0.000000	6.192797	0.034557	NaN	0.000000	0.001643	0.001688	28.0792	0.090597	0.002037	44.4757	90.4428	13.6877	-0.043188	0.191510	-0.799890	-0.801206	0.034557	44.4757	-0.800473	-4.563309E+10	-7.572724E-13	NaN
268	1.000000	0.230865	7.36768e+06	-52039.1	955.818	-29750.8	0.000000	0.000000	6.230834	-4.689949E-5	NaN	0.000000	0.001635	0.001640	28.0791	0.109018	0.001821	59.8599	-2.317396	-160.169	-0.092661	0.229556	-0.761851	-0.763160	-4.689949E-5	59.8599	-0.761851	-1.362948E+10	3.441034E-15	NaN
268	1.000000	0.268879	7.36768e+06	-52039.1	955.818	-29750.8	0.000000	0.000000	6.268846	-0.047101	NaN	0.000000	0.001648	0.001651	28.0789	0.091846	0.001957	46.9428	-4.934102	14.5194	-0.050661	0.267506	-0.723837	-0.725210	-0.047101	46.9428	-0.723085	-4.041447E+9	1.165440E-11	NaN
268	1.000000	0.306871	7.36768e+06	-52039.1	955.818	-29750.8	0.000000	0.000000	6.306838	-0.042456	NaN	0.000000	0.001666	0.001680	28.0776	0.024450	0.002101	11.6382	-77.9797	-167.278	-0.044195	0.305622	-0.685845	-0.687094	-0.042456	11.6382	-0.683109	-1.150069E+9	3.691644E-11	NaN
268	1.000000	0.344916	7.36768e+06	-52039.1	955.818	-29750.8	0.000000	0.000000	6.344887	0.049668	NaN	0.000000	0.001637	0.001715	28.0777	0.099059	0.001981	50.0003	18.413	13.6278	0.005634	0.343536	-0.647800	-0.649181	0.049668	50.0003	-0.648545	-3.868049E+8	-1.284058E-10	NaN
268	1.000000	0.382931	7.36768e+06	-52039.1	955.818	-29750.8	0.000000	0.000000	6.382904	0.093557	NaN	0.000000	0.001649	0.001671	28.078	0.062720	0.001981	31.6631	172.155	-163.577	0.085459	0.381576	-0.609785	-0.611140	0.093557	31.6631	-0.612001	-1.217998E+8	-7.681180E-10	NaN
268	1.000000	0.420913	7.36768e+06	-52039.1	955.819	-29750.8	0.000000	0.000000	6.420884	0.059817	NaN	0.000000	0.001663	0.001675	28.0778	0.071664	0.001965	36.4634	-69.7861	17.3598	0.038794	0.419585	-0.571803	-0.573131	0.059817	36.4634	-0.573034	-3.536227E+7	-1.691553E-9	NaN
268	1.000000	0.458926	7.36768e+06	-52039.1	955.818	-29750.8	0.000000	0.000000	6.458896	0.023066	NaN	0.000000	0.001626	0.001638	28.0792	0.100431	0.002050	48.9933	-65.2646	-166.051	0.023653	0.457680	-0.533790	-0.535036	0.023066	48.9933	-0.534143	-1.023524E+7	-2.253572E-9	NaN
268	1.000000	0.496957	7.36768e+06	-52039.1	955.818	-29750.8	0.000000	0.000000	6.496927	0.034864	NaN	0.000000	0.001505	0.001674	28.0792	0.068223	0.001907	35.7743	-143.846	16.2171	-0.029195	0.495655	-0.495759	-0.497061	0.034864	35.7743	-0.496490	-3.06224e+06	-1.138515E-8	NaN
268	1.000000	0.535002	7.36768e+06	-52039.1	955.818	-29750.8	0.000000	0.000000	6.534969	-0.047623	NaN	0.000000	0.001568	0.001672	28.0792	0.083042	0.001991	41.7081	13.4296	-166.133	-0.015636	0.533703	-0.457714	-0.459013	-0.047623	41.7081	-0.456858	-852807	5.584285E-8	NaN
268	1.000000	0.573010	7.36768e+06	-52039.1	955.819	-29750.8	0.000000	0.000000	6.572978	-0.038801	NaN	0.000000	0.001546	0.001689	28.0794	0.027067	0.002007	13.4893	-61.2008	15.8155	-0.030112	0.571690	-0.419706	-0.421026	-0.038801	13.4893	-0.417549	-237486	1.633832E-7	NaN
268	1.000000	0.611009	7.36768e+06	-52039.1	955.818	-29750.8	0.000000	0.000000	6.610975	-0.054103	NaN	0.000000	0.001554	0.001709	28.0781	0.059438	0.001992	29.8447	61.1586	-164.922	-0.033644	0.609708	-0.381708	-0.383008	-0.054103	29.8447	-0.380348	-69965.1	7.732914E-7	NaN
268	1.000000	0.649049	7.36768e+06	-52039.1	955.818	-29750.8	0.000000	0.000000	6.649019	0.024805	NaN	0.000000	0.001602	0.001732	28.0781	0.049817	0.001969	25.3052	82.7989	14.1041	-0.093583	0.647629	-0.343667	-0.345087	0.024805	25.3052	-0.344403	-21167.3	-1.171843E-6	NaN
268	1.000000	0.687044	7.36768e+06	-52039.1	955.818	-29750.8	0.000000	0.000000	6.687010	-0.069006	NaN	0.000000	0.001627	0.001698	28.0776	0.069636	0.001967	35.4099	-86.3736	-166.528	0.012127	0.685709	-0.305672	-0.307007	-0.069006	35.4099	-0.304210	-5435.43	1.269565E-5	NaN
268	1.000000	0.725063	7.36768e+06	-52039.1	955.819	-29750.8	0.000000	0.000000	6.725032	0.006878	NaN	0.000000	0.001605	0.001627	28.079	0.057621	0.002012	28.6385	56.7852	14.706	-0.034823	0.723686	-0.267653	-0.269030	0.006878	28.6385	-0.267833	-1543.76	-4.455155E-6	NaN
268	1.000000	0.763072	7.36768e+06	-52039.1	955.819	-29750.8	0.000000	0.000000	6.763040	-0.023696	NaN	0.000000	0.001571	0.001689	28.0793	0.050321	0.001911	26.3366	149.806	-164.052	0.053889	0.761813	-0.229644	-0.230904	-0.023696	26.3366	-0.228969	-385.687	6.143933E-5	NaN
268	1.000000	0.801083	7.36768e+06	-52039.1	955.819	-29750.8	0.000000	0.000000	6.801053	0.020247	NaN	0.000000	0.001614	0.001698	28.0792	0.090273	0.001982	45.5542	-69.704	14.6453	0.000692	0.799763	-0.191633	-0.192953	0.020247	45.5542	-0.191967	-97.0123	-0.000209	NaN
268	1.000000	0.839102	7.36768e+06	-52039.1	955.818	-29750.8	0.000000	0.000000	6.839072	0.017910	NaN	0.000000	0.001550	0.001665	28.0791	0.099101	0.002090	47.4123	90.8882	-164.867	0.017529	0.837771	-0.153614	-0.154946	0.017910	47.4123	-0.153898	-21.3165	-0.000840	NaN
268	1.000000	0.877118	7.36768e+06	-52039.1	955.818	-29750.8	0.000000	0.000000	6.877087	-0.002020	NaN	0.000000	0.001579	0.001691	28.0779	0.011769	0.001926	6.110250	-84.6631	14.5555	0.006722	0.875796	-0.115598	-0.116920	-0.002020	6.110250	-0.115350	-3.884334	0.000520	NaN
268	1.000000	0.915138	7.36768e+06	-52039.1	955.819	-29750.8	0.000000	0.000000	6.915109	0.043232	NaN	0.000000	0.001589	0.001672	28.0781	0.069467	0.001945	35.7077	41.1189	-170.725	-0.034658	0.913787	-0.077578	-0.078929	0.043232	35.7077	-0.078486	-0.567067	-0.076238	NaN
268	1.000000	0.953135	7.36768e+06	-52039.1	955.819	-29750.8	0.000000	0.000000	6.953103	-0.024389	NaN	0.000000	0.001586	0.001675	28.0781	0.038304	0.001871	20.4673	-126.789	16.0117	0.099492	0.951846	-0.039581	-0.040870	-0.024389	20.4673	-0.038688	-0.041267	0.590999	NaN
268	1.000000	0.991149	7.36768e+06	-52039.1	955.818	-29750.8	0.000000	0.000000	6.991118	0.006819	NaN	0.000000	0.001571	0.001699	28.0792	0.068385	0.001996	34.2632	-39.6979	-166.855	-0.100389	0.989901	-0.001567	-0.002815	0.006819	34.2632	-0.001717	-0.001242	-5.490536	NaN
268	2.000000	1.009228	7.36768e+06	-52039.1	955.818	-29750.8	0.000000	0.000000	7.009913	17.4237	NaN	0.000000	0.001658	0.001613	28.0794	16.8526	0.001791	9408.64	6.879444	3.267315	15.9355	1.008914	0.016511	0.016197	17.4237	9408.64	0.015123	0.015449	1127.81	69159
268	2.000000	1.018681	7.36768e+06	-52039.1	955.818	-29750.8	0.000000	0.000000	7.020133	36.0623	NaN	0.000000	0.001618	0.001635	28.0793	25.1518	0.001729	14550.6	2.314821	-175.22	35.5938	1.018420	0.025965	0.025703	36.0623	14550.6	0.024106	0.029409	1226.23	77519.9
268	2.000000	1.028210	7.36768e+06	-52039.1	955.818	-29750.8	0.000000	0.000000	7.030753	62.5902	NaN	0.000000	0.001671	0.001681	28.0797	35.3367	0.001800	19626.3	8.682483	-3.993587	65.0199	1.027774	0.035494	0.035058	62.5902	19626.3	0.033102	0.047419	1319.93	82344.5
268	2.000000	1.037595	7.36768e+06	-52039.1	955.82	-29750.8	0.000000	0.000000	7.041734	101.412	NaN	0.000000	0.001617	0.001655	28.0795	43.0604	0.001652	26059	2.704947	178.827	99.6218	1.037326	0.044879	0.044610	101.412	26059	0.041960	0.069191	1465.68	90511.9
268	2.000000	1.047109	7.36768e+06	-52039.1	955.818	-29750.8	0.000000	0.000000	7.052771	138.431	NaN	0.000000	0.001609	0.001657	28.0781	52.5972	0.001720	30582	2.533237	-2.542037	135.815	1.046763	0.054392	0.054047	138.431	30582	0.050997	0.095521	1449.21	90404.5
268	2.000000	1.056570	7.36768e+06	-52039.1	955.817	-29750.8	0.000000	0.000000	7.063797	176.487	NaN	0.000000	0.001563	0.001653	28.078	61.9587	0.001800	34418.1	1.889047	176.983	174.165	1.056356	0.063854	0.063640	176.487	34418.1	0.060008	0.125837	1402.51	88645.4
268	2.000000	1.066075	7.36768e+06	-52039.1	955.818	-29750.8	0.000000	0.000000	7.075597	232.279	NaN	0.000000	0.001583	0.001655	28.078	71.0456	0.001741	40812.3	2.503650	-4.921733	229.053	1.065772	0.073359	0.073055	232.279	40812.3	0.069091	0.160408	1448.05	93100.5
268	2.000000	1.075549	7.36768e+06	-52039.1	955.819	-29750.8	0.000000	0.000000	7.087410	289.152	NaN	0.000000	0.001642	0.001684	28.0795	78.1034	0.001883	41480.7	1.375541	176.602	286.613	1.075305	0.082833	0.082589	289.152	41480.7	0.077604	0.196390	1472.34	85518.3
268	2.000000	1.085043	7.36768e+06	-52039.1	955.819	-29750.8	0.000000	0.000000	7.098794	335.106	NaN	0.000000	0.001591	0.001673	28.0797	85.9173	0.001716	50061.4	1.682190	-5.212394	328.831	1.084862	0.092327	0.092146	335.106	50061.4	0.087307	0.241528	1387.44	93066.3
268	2.000000	1.094620	7.36768e+06	-52039.1	955.819	-29750.8	0.000000	0.000000	7.111573	412.96	NaN	0.000000	0.001556	0.001721	28.0794	94.5395	0.001759	53732.9	0.893166	175.529	414.243	1.094334	0.101904	0.101618	412.96	53732.9	0.096140	0.286394	1441.93	91734.1
268	2.000000	1.101040	7.36768e+06	-52039.1	955.82	-29750.8	0.000000	0.000000	7.120443	472.542	NaN	0.000000	0.001611	0.001658	28.0787	102.22	0.001809	56503.2	3.194507	-6.690285	467.816	1.100593	0.108323	0.107877	472.542	56503.2	0.102051	0.318407	1484.08	91486.1