File: remote_trans/data/nanoindenter/0828-1/data/Data_2025-08-06,11h17m57s/2025-07-22_16-23-58_1_756.txt
2025-07-22, 16:23:58, 1
Index	Phase	Displacement	Time	Pos X	Pos Y	Pos Z	Rot A	Rot B	Piezo Z	Force A	Force B	Gripper	Voltage A	Voltage B	Temperature	Amplitude force	Amplitude pos	Stiffness	Phase shift	Phase excitation	Force A raw	Displacement raw	HMax	HMax raw	Real Force	Real Stiffness	Contact Depth	Area	Hardness	Reduced Mod.
[#]	[#]	[um]	[s]	[um]	[um]	[um]	[m°]	[m°]	[um]	[uN]	[uN]	[V]	[V]	[V]	[°C]	[uN]	[um]	[N/m]	[°]	[°]	[uN]	[um]	[um]	[um]	[uN]	[N/m]	[um]	[um^2]	[MPa]	[MPa]
756	1.000000	0.002748	7.37245e+06	-39289.1	1005.82	-29794.4	0.000000	0.000000	6.002818	0.008903	NaN	0.000000	0.001697	0.001683	28.0801	0.120639	0.000965	125.025	86.5409	-164.446	0.005558	0.001444	-1.112829	-1.114132	0.008903	125.025	-1.112882	-7.463851E+14	-1.192831E-17	NaN
756	1.000000	0.044654	7.37245e+06	-39289.1	1005.82	-29794.4	0.000000	0.000000	6.044723	-0.012659	NaN	0.000000	0.001637	0.001768	28.0799	0.011029	0.002192	5.032068	33.3718	15.868	-0.012041	0.043323	-1.070922	-1.072253	-0.012659	5.032068	-1.069036	-1.924124E+14	6.579056E-17	NaN
756	1.000000	0.086711	7.37245e+06	-39289.1	1005.82	-29794.4	0.000000	0.000000	6.086780	-0.003782	NaN	0.000000	0.001624	0.001774	28.0812	0.101767	0.002001	50.8622	77.3519	-168.44	0.008563	0.085358	-1.028866	-1.030218	-0.003782	50.8622	-1.028810	-5.539537E+13	6.828092E-17	NaN
756	1.000000	0.128713	7.37245e+06	-39289.1	1005.82	-29794.4	0.000000	0.000000	6.128782	0.008337	NaN	0.000000	0.001600	0.001777	28.0809	0.072377	0.002100	34.4652	-71.2718	14.6291	0.026599	0.127296	-0.986864	-0.988281	0.008337	34.4652	-0.987045	-1.518161E+13	-5.491716E-16	NaN
756	1.000000	0.170760	7.37245e+06	-39289.1	1005.82	-29794.3	0.000000	0.000000	6.170826	-0.071596	NaN	0.000000	0.001605	0.001770	28.0811	0.088151	0.001868	47.1987	135.301	-165.531	-0.054044	0.169428	-0.944817	-0.946148	-0.071596	47.1987	-0.943679	-3.951599E+12	1.811811E-14	NaN
756	1.000000	0.212763	7.37245e+06	-39289.1	1005.82	-29794.4	0.000000	0.000000	6.212833	0.031561	NaN	0.000000	0.001572	0.001812	28.0801	0.068966	0.001917	35.9774	113.485	13.7535	-0.015982	0.211338	-0.902814	-0.904238	0.031561	35.9774	-0.903472	-1.132330E+12	-2.787243E-14	NaN
756	1.000000	0.254777	7.37245e+06	-39289.1	1005.82	-29794.4	0.000000	0.000000	6.254848	0.043974	NaN	0.000000	0.001583	0.001799	28.0801	0.073881	0.001954	37.814	-104.186	-168.031	0.025218	0.253437	-0.860799	-0.862140	0.043974	37.814	-0.861671	-3.081365E+11	-1.427108E-13	NaN
756	1.000000	0.296775	7.37245e+06	-39289.1	1005.82	-29794.4	0.000000	0.000000	6.296845	0.023245	NaN	0.000000	0.001613	0.001837	28.0801	0.118322	0.002018	58.6333	-179.652	10.8334	-0.049805	0.295380	-0.818802	-0.820197	0.023245	58.6333	-0.819099	-8.165705E+10	-2.846688E-13	NaN
756	1.000000	0.338795	7.37245e+06	-39289.1	1005.82	-29794.3	0.000000	0.000000	6.338866	0.042866	NaN	0.000000	0.001593	0.001821	28.0812	0.063939	0.002079	30.7513	81.953	-165.875	2.489326E-5	0.337472	-0.776781	-0.778104	0.042866	30.7513	-0.777827	-2.247499E+10	-1.907283E-12	NaN
756	1.000000	0.380806	7.37245e+06	-39289.1	1005.82	-29794.4	0.000000	0.000000	6.380876	0.007510	NaN	0.000000	0.001619	0.001893	28.0812	0.051651	0.001920	26.8961	11.47	13.2712	0.004559	0.379420	-0.734770	-0.736156	0.007510	26.8961	-0.734980	-5.870396E+9	-1.279285E-12	NaN
756	1.000000	0.422847	7.37245e+06	-39289.1	1005.82	-29794.4	0.000000	0.000000	6.422915	-0.025631	NaN	0.000000	0.001616	0.001854	28.081	0.035900	0.002006	17.8978	95.0764	-165.839	-0.021051	0.421513	-0.692730	-0.694064	-0.025631	17.8978	-0.691656	-1.505031E+9	1.702991E-11	NaN
756	1.000000	0.464863	7.37245e+06	-39289.1	1005.82	-29794.4	0.000000	0.000000	6.464934	0.041284	NaN	0.000000	0.001650	0.001880	28.08	0.054523	0.002086	26.1331	178.256	11.7271	0.019138	0.463495	-0.650714	-0.652081	0.041284	26.1331	-0.651899	-4.299954E+8	-9.601017E-11	NaN
756	1.000000	0.506896	7.37245e+06	-39289.1	1005.82	-29794.4	0.000000	0.000000	6.506965	0.007349	NaN	0.000000	0.001662	0.001849	28.0802	0.041648	0.002026	20.5591	-150.327	-168.931	0.024723	0.505566	-0.608681	-0.610010	0.007349	20.5591	-0.608949	-1.105733E+8	-6.645979E-11	NaN
756	1.000000	0.548880	7.37245e+06	-39289.1	1005.82	-29794.4	0.000000	0.000000	6.548946	-0.061168	NaN	0.000000	0.001617	0.001853	28.0798	0.049393	0.002034	24.2885	-36.0087	12.4214	-0.025545	0.547528	-0.566697	-0.568048	-0.061168	24.2885	-0.564808	-2.721902E+7	2.247264E-9	NaN
756	1.000000	0.590903	7.37245e+06	-39289.1	1005.82	-29794.3	0.000000	0.000000	6.590971	-0.030370	NaN	0.000000	0.001665	0.001858	28.0799	0.097313	0.002010	48.419	-134.413	-168.628	-0.000820	0.589595	-0.524673	-0.525981	-0.030370	48.419	-0.524203	-7.44788e+06	4.077678E-9	NaN
756	1.000000	0.632909	7.37245e+06	-39289.1	1005.82	-29794.4	0.000000	0.000000	6.632978	-0.007155	NaN	0.000000	0.001660	0.001804	28.0811	0.103168	0.001963	52.5686	11.3451	12.8341	-0.064203	0.631622	-0.482668	-0.483954	-0.007155	52.5686	-0.482566	-1.95631e+06	3.657398E-9	NaN
756	1.000000	0.674905	7.37245e+06	-39289.1	1005.82	-29794.4	0.000000	0.000000	6.674971	-0.069193	NaN	0.000000	0.001588	0.001784	28.0813	0.075808	0.001979	38.302	-157.257	-164.539	-0.044764	0.673600	-0.440672	-0.441977	-0.069193	38.302	-0.439317	-482749	1.433314E-7	NaN
756	1.000000	0.716950	7.37245e+06	-39289.1	1005.82	-29794.4	0.000000	0.000000	6.717016	-0.081158	NaN	0.000000	0.001642	0.001820	28.0809	0.048976	0.002086	23.4836	65.0774	14.8387	-0.139494	0.715633	-0.398626	-0.399943	-0.081158	23.4836	-0.396034	-117329	6.917134E-7	NaN
756	1.000000	0.758996	7.37245e+06	-39289.1	1005.82	-29794.4	0.000000	0.000000	6.759065	0.001315	NaN	0.000000	0.001636	0.001811	28.08	0.052621	0.002114	24.8862	-152.549	-164.079	-0.038398	0.757661	-0.356581	-0.357916	0.001315	24.8862	-0.356621	-31839.2	-4.130459E-8	NaN
756	1.000000	0.800971	7.37245e+06	-39289.1	1005.82	-29794.4	0.000000	0.000000	6.801039	-0.036719	NaN	0.000000	0.001646	0.001811	28.0798	0.069745	0.001873	37.2303	108.83	14.4326	0.001174	0.799622	-0.314606	-0.315954	-0.036719	37.2303	-0.313866	-7554.52	4.860552E-6	NaN
756	1.000000	0.842999	7.37245e+06	-39289.1	1005.82	-29794.3	0.000000	0.000000	6.843069	0.003376	NaN	0.000000	0.001678	0.001811	28.0799	0.041937	0.001915	21.8941	-92.9283	-167.768	-0.017505	0.841735	-0.272577	-0.273841	0.003376	21.8941	-0.272693	-1829.95	-1.845107E-6	NaN
756	1.000000	0.885003	7.37245e+06	-39289.1	1005.82	-29794.3	0.000000	0.000000	6.885072	-0.011860	NaN	0.000000	0.001639	0.001808	28.0814	0.055464	0.002064	26.8772	28.4597	12.9453	-0.003200	0.883660	-0.230573	-0.231916	-0.011860	26.8772	-0.230243	-403.967	2.935809E-5	NaN
756	1.000000	0.927058	7.37245e+06	-39289.1	1005.82	-29794.4	0.000000	0.000000	6.927130	0.061134	NaN	0.000000	0.001659	0.001801	28.0813	0.023697	0.001919	12.3477	-89.1337	-163.952	0.093729	0.925797	-0.188518	-0.189780	0.061134	12.3477	-0.192232	-98.0028	-0.000624	NaN
756	1.000000	0.969066	7.37245e+06	-39289.1	1005.82	-29794.4	0.000000	0.000000	6.969136	0.014299	NaN	0.000000	0.001646	0.001824	28.0812	0.063236	0.002079	30.4113	-156.55	12.4839	-0.070216	0.967723	-0.146510	-0.147853	0.014299	30.4113	-0.146863	-15.8686	-0.000901	NaN
756	1.000000	1.011071	7.37245e+06	-39289.1	1005.82	-29794.4	0.000000	0.000000	7.011141	0.016768	NaN	0.000000	0.001592	0.001868	28.08	0.094502	0.002116	44.6657	-55.4302	-166.582	-0.048251	1.009754	-0.104505	-0.105822	0.016768	44.6657	-0.104787	-2.325771	-0.007210	NaN
756	1.000000	1.053078	7.37245e+06	-39289.1	1005.82	-29794.4	0.000000	0.000000	7.053146	-0.032097	NaN	0.000000	0.001622	0.001812	28.0797	0.080294	0.001975	40.6587	-154.129	15.2827	-0.026618	1.051693	-0.062498	-0.063883	-0.032097	40.6587	-0.061906	-0.204100	0.157262	NaN
756	1.000000	1.095127	7.37245e+06	-39289.1	1005.82	-29794.4	0.000000	0.000000	7.095197	0.013593	NaN	0.000000	0.001618	0.001817	28.0799	0.064034	0.002094	30.5814	68.8261	-168.619	0.138291	1.093816	-0.020450	-0.021760	0.013593	30.5814	-0.020783	-0.013150	-1.033693	NaN
756	2.000000	1.124133	7.37245e+06	-39289.1	1005.82	-29794.4	0.000000	0.000000	7.124794	14.4141	NaN	0.000000	0.001624	0.001817	28.0801	12.2186	0.001699	7191.58	7.191899	5.000141	13.7427	1.123794	0.008556	0.008218	14.4141	7191.58	0.007053	0.006086	2368.3	84221.3
756	2.000000	1.134615	7.37245e+06	-39289.1	1005.82	-29794.4	0.000000	0.000000	7.136007	32.1824	NaN	0.000000	0.001650	0.001812	28.082	21.4505	0.001933	11098.8	10.3339	178.609	31.7683	1.134296	0.019038	0.018719	32.1824	11098.8	0.016864	0.017851	1802.79	75895
756	2.000000	1.145046	7.37245e+06	-39289.1	1005.82	-29794.3	0.000000	0.000000	7.147688	62.6157	NaN	0.000000	0.001640	0.001819	28.0819	29.6154	0.001830	16178.9	7.101032	-1.269620	61.4041	1.144745	0.029469	0.029168	62.6157	16178.9	0.026567	0.033927	1845.57	80250.1
756	2.000000	1.155515	7.37245e+06	-39289.1	1005.82	-29794.4	0.000000	0.000000	7.159709	100.373	NaN	0.000000	0.001618	0.001810	28.0811	38.2005	0.001819	21006.5	3.987189	179.374	99.5657	1.155205	0.039938	0.039629	100.373	21006.5	0.036355	0.054947	1826.72	81875.7
756	2.000000	1.166053	7.37245e+06	-39289.1	1005.82	-29794.4	0.000000	0.000000	7.171613	133.608	NaN	0.000000	0.001663	0.001792	28.0797	46.4154	0.001774	26159.4	3.250931	-1.895996	133.282	1.165685	0.050477	0.050108	133.608	26159.4	0.046646	0.082329	1622.85	83296
756	2.000000	1.176501	7.37245e+06	-39289.1	1005.82	-29794.4	0.000000	0.000000	7.184013	181.123	NaN	0.000000	0.001602	0.001835	28.0798	57.1162	0.001833	31152.3	6.453227	173.7	179.431	1.176172	0.060924	0.060596	181.123	31152.3	0.056564	0.113775	1591.94	84379.8
756	2.000000	1.187010	7.37246e+06	-39289.1	1005.82	-29794.4	0.000000	0.000000	7.196429	227.54	NaN	0.000000	0.001630	0.001805	28.0799	67.0714	0.001801	37242.5	5.459135	-7.063835	226.65	1.186679	0.071433	0.071102	227.54	37242.5	0.066851	0.151513	1501.79	87415.1
756	2.000000	1.197375	7.37246e+06	-39289.1	1005.82	-29794.4	0.000000	0.000000	7.209150	284.845	NaN	0.000000	0.001659	0.001843	28.0813	76.5094	0.001912	40011.6	3.960476	173.668	277.632	1.197097	0.081799	0.081520	284.845	40011.6	0.076459	0.191352	1488.59	83568.5
756	2.000000	1.207943	7.37246e+06	-39289.1	1005.82	-29794.4	0.000000	0.000000	7.222164	344.376	NaN	0.000000	0.001621	0.001815	28.0818	84.8089	0.001800	47105.7	-0.173922	-3.121077	341.642	1.207746	0.092366	0.092169	344.376	47105.7	0.086883	0.239467	1438.09	87947.5
756	2.000000	1.218433	7.37246e+06	-39289.1	1005.82	-29794.3	0.000000	0.000000	7.235626	416.691	NaN	0.000000	0.001635	0.001729	28.0815	95.246	0.001663	57281.6	2.702219	172.572	415.674	1.218177	0.102857	0.102601	416.691	57281.6	0.097401	0.293089	1421.72	96669.2