File: remote_trans/data/nanoindenter/0828-1/data/Data_2025-08-06,11h17m57s/2025-07-22_16-23-58_1_436.txt
2025-07-22, 16:23:58, 1
Index	Phase	Displacement	Time	Pos X	Pos Y	Pos Z	Rot A	Rot B	Piezo Z	Force A	Force B	Gripper	Voltage A	Voltage B	Temperature	Amplitude force	Amplitude pos	Stiffness	Phase shift	Phase excitation	Force A raw	Displacement raw	HMax	HMax raw	Real Force	Real Stiffness	Contact Depth	Area	Hardness	Reduced Mod.
[#]	[#]	[um]	[s]	[um]	[um]	[um]	[m°]	[m°]	[um]	[uN]	[uN]	[V]	[V]	[V]	[°C]	[uN]	[um]	[N/m]	[°]	[°]	[uN]	[um]	[um]	[um]	[uN]	[N/m]	[um]	[um^2]	[MPa]	[MPa]
436	1.000000	0.002695	7.36932e+06	-55289.1	1005.82	-29742	0.000000	0.000000	6.002801	0.058079	NaN	0.000000	0.001584	0.001701	28.0795	0.092207	0.000925	99.7046	98.2916	-167.22	0.022331	0.001402	-1.095644	-1.096938	0.058079	99.7046	-1.096081	-4.440785E+14	-1.307844E-16	NaN
436	1.000000	0.044650	7.36932e+06	-55289.1	1005.82	-29742	0.000000	0.000000	6.044753	0.015061	NaN	0.000000	0.001544	0.001757	28.0798	0.099202	0.002035	48.7415	139.836	14.1165	-0.031275	0.043299	-1.053690	-1.055041	0.015061	48.7415	-1.053921	-1.205386E+14	-1.249447E-16	NaN
436	1.000000	0.086669	7.36932e+06	-55289.1	1005.82	-29742	0.000000	0.000000	6.086772	0.016621	NaN	0.000000	0.001613	0.001645	28.0806	0.078414	0.002116	37.0647	-59.1526	-167.475	0.070897	0.085348	-1.011671	-1.012991	0.016621	37.0647	-1.012007	-3.291532E+13	-5.049630E-16	NaN
436	1.000000	0.128673	7.36932e+06	-55289.1	1005.82	-29742	0.000000	0.000000	6.128775	-0.019228	NaN	0.000000	0.001605	0.001687	28.0805	0.052736	0.001950	27.0447	30.8239	10.1491	-0.065360	0.127291	-0.969666	-0.971049	-0.019228	27.0447	-0.969133	-8.709251E+12	2.207812E-15	NaN
436	1.000000	0.170693	7.36932e+06	-55289.1	1005.82	-29742	0.000000	0.000000	6.170795	-0.009672	NaN	0.000000	0.001609	0.001716	28.0805	0.125685	0.001865	67.3907	36.7212	-168.553	-0.003393	0.169366	-0.927647	-0.928974	-0.009672	67.3907	-0.927539	-2.393217E+12	4.041355E-15	NaN
436	1.000000	0.212714	7.36932e+06	-55289.1	1005.82	-29742	0.000000	0.000000	6.212817	-0.001525	NaN	0.000000	0.001623	0.001738	28.0796	0.083941	0.002076	40.4374	167.79	12.8808	0.059930	0.211311	-0.885625	-0.887029	-0.001525	40.4374	-0.885597	-6.492175E+11	2.348337E-15	NaN
436	1.000000	0.254746	7.36932e+06	-55289.1	1005.82	-29742	0.000000	0.000000	6.254848	-0.013691	NaN	0.000000	0.001602	0.001753	28.0797	0.019886	0.002081	9.556886	140.409	-167.936	-0.017613	0.253356	-0.843594	-0.844984	-0.013691	9.556886	-0.842520	-1.696003E+11	8.072619E-14	NaN
436	1.000000	0.296745	7.36932e+06	-55289.1	1005.82	-29742	0.000000	0.000000	6.296847	-0.006234	NaN	0.000000	0.001625	0.001726	28.0795	0.045890	0.002012	22.8095	-141.998	14.6655	-0.039256	0.295397	-0.801595	-0.802942	-0.006234	22.8095	-0.801390	-4.696026E+10	1.327439E-13	NaN
436	1.000000	0.338765	7.36932e+06	-55289.1	1005.82	-29742	0.000000	0.000000	6.338866	-0.028362	NaN	0.000000	0.001628	0.001697	28.0806	0.111476	0.002021	55.1505	169.809	-165.902	-0.063695	0.337458	-0.759575	-0.760882	-0.028362	55.1505	-0.759189	-1.253936E+10	2.261818E-12	NaN
436	1.000000	0.380807	7.36932e+06	-55289.1	1005.82	-29742	0.000000	0.000000	6.380911	0.035117	NaN	0.000000	0.001540	0.001695	28.0805	0.105436	0.002075	50.8112	178.159	15.1057	0.074370	0.379454	-0.717533	-0.718886	0.035117	50.8112	-0.718051	-3.450609E+9	-1.017705E-11	NaN
436	1.000000	0.422789	7.36933e+06	-55289.1	1005.82	-29742	0.000000	0.000000	6.422892	0.021598	NaN	0.000000	0.001583	0.001701	28.0806	0.113015	0.001896	59.6103	-90.521	-165.197	-0.009429	0.421433	-0.675551	-0.676906	0.021598	59.6103	-0.675823	-9.142575E+8	-2.362361E-11	NaN
436	1.000000	0.464828	7.36933e+06	-55289.1	1005.82	-29742	0.000000	0.000000	6.464930	-0.009930	NaN	0.000000	0.001622	0.001702	28.079	0.026389	0.002100	12.566	-59.2816	15.6816	0.046770	0.463433	-0.633512	-0.634906	-0.009930	12.566	-0.632919	-2.361077E+8	4.205698E-11	NaN
436	1.000000	0.506855	7.36933e+06	-55289.1	1005.82	-29742	0.000000	0.000000	6.506957	-0.021948	NaN	0.000000	0.001653	0.001701	28.0791	0.104860	0.001939	54.074	-145.95	-166.785	0.052956	0.505523	-0.591484	-0.592816	-0.021948	54.074	-0.591180	-6.294109E+7	3.487064E-10	NaN
436	1.000000	0.548848	7.36933e+06	-55289.1	1005.82	-29742	0.000000	0.000000	6.548952	0.014037	NaN	0.000000	0.001654	0.001659	28.0792	0.118483	0.001907	62.1173	-112.17	16.3715	-0.060060	0.547491	-0.549491	-0.550848	0.014037	62.1173	-0.549661	-1.679806E+7	-8.356109E-10	NaN
436	1.000000	0.590877	7.36933e+06	-55289.1	1005.82	-29742	0.000000	0.000000	6.590980	-0.004536	NaN	0.000000	0.001599	0.001690	28.0791	0.038608	0.002124	18.179	56.1655	-164.771	-0.079511	0.589521	-0.507463	-0.508818	-0.004536	18.179	-0.507276	-4.32972e+06	1.047739E-9	NaN
436	1.000000	0.632898	7.36933e+06	-55289.1	1005.82	-29742	0.000000	0.000000	6.632998	-0.056584	NaN	0.000000	0.001599	0.001760	28.0804	0.093967	0.001862	50.4747	-121.518	9.896280	-0.023339	0.631561	-0.465442	-0.466779	-0.056584	50.4747	-0.464601	-1.0956e+06	5.164680E-8	NaN
436	1.000000	0.674913	7.36933e+06	-55289.1	1005.82	-29742	0.000000	0.000000	6.675015	-0.003096	NaN	0.000000	0.001595	0.001686	28.0806	0.055445	0.002007	27.6308	-175.99	-166.337	-0.062010	0.673543	-0.423427	-0.424797	-0.003096	27.6308	-0.423343	-286952	1.078778E-8	NaN
436	1.000000	0.716920	7.36933e+06	-55289.1	1005.82	-29742	0.000000	0.000000	6.717022	-0.014578	NaN	0.000000	0.001658	0.001716	28.0806	0.013890	0.002055	6.757591	-42.3059	13.7321	0.018175	0.715620	-0.381420	-0.382720	-0.014578	6.757591	-0.379802	-68714.8	2.121455E-7	NaN
436	1.000000	0.758974	7.36933e+06	-55289.1	1005.82	-29742	0.000000	0.000000	6.759080	0.087582	NaN	0.000000	0.001634	0.001682	28.0795	0.064055	0.001920	33.3699	33.3402	-165.244	0.093602	0.757598	-0.339366	-0.340742	0.087582	33.3699	-0.341334	-19098.4	-4.585816E-6	NaN
436	1.000000	0.800954	7.36933e+06	-55289.1	1005.82	-29742	0.000000	0.000000	6.801055	-0.022481	NaN	0.000000	0.001576	0.001715	28.0794	0.089505	0.001958	45.7229	103.397	12.1373	0.094094	0.799632	-0.297386	-0.298707	-0.022481	45.7229	-0.297017	-4248.09	5.291916E-6	NaN
436	1.000000	0.842996	7.36933e+06	-55289.1	1005.82	-29742	0.000000	0.000000	6.843097	-0.048232	NaN	0.000000	0.001575	0.001706	28.0794	0.068022	0.002012	33.8015	18.4699	-165.699	-0.012953	0.841689	-0.255344	-0.256651	-0.048232	33.8015	-0.254274	-957.045	5.039702E-5	NaN
436	1.000000	0.884994	7.36933e+06	-55289.1	1005.82	-29742	0.000000	0.000000	6.885098	0.010711	NaN	0.000000	0.001630	0.001699	28.0806	0.061275	0.002019	30.3443	-50.7525	11.4831	-0.044079	0.883594	-0.213345	-0.214745	0.010711	30.3443	-0.213610	-219.348	-4.882911E-5	NaN
436	1.000000	0.926993	7.36933e+06	-55289.1	1005.82	-29742	0.000000	0.000000	6.927095	-0.016259	NaN	0.000000	0.001659	0.001692	28.0808	0.033159	0.002072	16.0033	160.023	-164.607	0.003016	0.925709	-0.171347	-0.172630	-0.016259	16.0033	-0.170585	-42.05	0.000387	NaN
436	1.000000	0.969044	7.36933e+06	-55289.1	1005.82	-29742	0.000000	0.000000	6.969145	-0.057945	NaN	0.000000	0.001704	0.001679	28.0807	0.046986	0.002005	23.4304	-160.7	17.5851	-0.075407	0.967710	-0.129295	-0.130629	-0.057945	23.4304	-0.127440	-6.793019	0.008530	NaN
436	1.000000	1.011047	7.36933e+06	-55289.1	1005.82	-29742	0.000000	0.000000	7.011150	0.000776	NaN	0.000000	0.001628	0.001707	28.0797	0.056898	0.002171	26.204	45.4585	-168.382	-0.062984	1.009715	-0.087292	-0.088625	0.000776	26.204	-0.087315	-0.933875	-0.000831	NaN
436	1.000000	1.053057	7.36933e+06	-55289.1	1005.82	-29742	0.000000	0.000000	7.053160	0.002139	NaN	0.000000	0.001635	0.001648	28.0792	0.041996	0.002080	20.1887	-81.8625	14.4105	0.008180	1.051757	-0.045283	-0.046583	0.002139	20.1887	-0.045362	-0.065928	-0.032439	NaN
436	1.000000	1.095059	7.36933e+06	-55289.1	1005.82	-29742	0.000000	0.000000	7.095202	0.980403	NaN	0.000000	0.001617	0.001689	28.0793	1.042224	0.002003	520.438	29.4761	-167.101	0.880612	1.093782	-0.003281	-0.004557	0.980403	520.438	-0.004694	-0.003223	-304.159	NaN
436	2.000000	1.118102	7.36933e+06	-55289.1	1005.82	-29742	0.000000	0.000000	7.119179	23.6799	NaN	0.000000	0.001652	0.001694	28.0792	18.6545	0.001803	10346.4	6.660783	4.121395	22.0161	1.117764	0.019762	0.019424	23.6799	10346.4	0.018046	0.019564	1210.37	67582.5
436	2.000000	1.128547	7.36933e+06	-55289.1	1005.82	-29742	0.000000	0.000000	7.132296	88.6512	NaN	0.000000	0.001640	0.001706	28.0807	31.3271	0.001617	19374.3	1.333019	-177.539	86.481	1.128258	0.030207	0.029918	88.6512	19374.3	0.026775	0.034324	2582.76	95543
436	2.000000	1.139013	7.36933e+06	-55289.1	1005.82	-29742	0.000000	0.000000	7.145820	162.976	NaN	0.000000	0.001695	0.001669	28.0808	43.0694	0.001811	23783.3	2.713971	-0.490270	159.408	1.138659	0.040673	0.040319	162.976	23783.3	0.035534	0.052996	3075.27	94389.8
436	2.000000	1.149516	7.36933e+06	-55289.1	1005.82	-29742	0.000000	0.000000	7.159325	235.942	NaN	0.000000	0.001597	0.001680	28.0801	51.6931	0.001726	29954.6	1.985690	177.596	233.867	1.149313	0.051177	0.050973	235.942	29954.6	0.045269	0.078353	3011.27	97770.7
436	2.000000	1.160024	7.36933e+06	-55289.1	1005.82	-29742	0.000000	0.000000	7.172820	308.548	NaN	0.000000	0.001633	0.001701	28.0791	60.1551	0.001839	32713	4.631290	-4.805338	306.147	1.159601	0.061684	0.061261	308.548	32713	0.054611	0.107195	2878.38	91286.6
436	2.000000	1.170417	7.36933e+06	-55289.1	1005.82	-29742	0.000000	0.000000	7.185927	374.536	NaN	0.000000	0.001630	0.001679	28.0791	69.2491	0.001802	38425	5.862822	171.445	367.214	1.170192	0.072077	0.071853	374.536	38425	0.064766	0.143453	2610.86	92689.8
436	2.000000	1.180962	7.36933e+06	-55289.1	1005.82	-29742	0.000000	0.000000	7.200466	471.611	NaN	0.000000	0.001631	0.001669	28.079	78.5215	0.001905	41211.7	6.535073	-9.070350	466.833	1.180586	0.082622	0.082246	471.611	41211.7	0.074040	0.180908	2606.91	88524.7
436	2.000000	1.191618	7.36933e+06	-55289.1	1005.82	-29742	0.000000	0.000000	7.213595	531.729	NaN	0.000000	0.001582	0.001681	28.0805	90.2633	0.001871	48249.2	9.077469	168.273	536.522	1.191129	0.093278	0.092789	531.729	48249.2	0.085013	0.230463	2307.22	91825.2
436	2.000000	1.201771	7.36933e+06	-55289.1	1005.82	-29742	0.000000	0.000000	7.226999	610.766	NaN	0.000000	0.001583	0.001724	28.0809	96.1502	0.001801	53394.1	3.326652	-7.421000	597.251	1.201415	0.103432	0.103076	610.766	53394.1	0.094853	0.279633	2184.17	92251.3
436	2.000000	1.210459	7.36933e+06	-55289.1	1005.82	-29742	0.000000	0.000000	7.239453	702.334	NaN	0.000000	0.001566	0.001679	28.0805	104.336	0.001793	58199	2.453326	173.234	699.371	1.210097	0.112119	0.111757	702.334	58199	0.103068	0.324075	2167.2	93404.1