File: remote_trans/data/nanoindenter/0828-1/data/Data_2025-08-06,11h17m57s/2025-07-22_16-23-58_1_1019.txt
2025-07-22, 16:23:58, 1
Index	Phase	Displacement	Time	Pos X	Pos Y	Pos Z	Rot A	Rot B	Piezo Z	Force A	Force B	Gripper	Voltage A	Voltage B	Temperature	Amplitude force	Amplitude pos	Stiffness	Phase shift	Phase excitation	Force A raw	Displacement raw	HMax	HMax raw	Real Force	Real Stiffness	Contact Depth	Area	Hardness	Reduced Mod.
[#]	[#]	[um]	[s]	[um]	[um]	[um]	[m°]	[m°]	[um]	[uN]	[uN]	[V]	[V]	[V]	[°C]	[uN]	[um]	[N/m]	[°]	[°]	[uN]	[um]	[um]	[um]	[uN]	[N/m]	[um]	[um^2]	[MPa]	[MPa]
1019	1.000000	0.002547	7.37502e+06	-51089.1	1055.82	-29753.4	0.000000	0.000000	6.002773	0.010425	NaN	0.000000	0.001539	0.001694	28.0833	0.122057	0.000916	133.205	-95.4923	-165.863	0.034278	0.001303	-1.071792	-1.073036	0.010425	133.205	-1.071851	-2.099217E+14	-4.966171E-17	NaN
1019	1.000000	0.042546	7.37502e+06	-51089.1	1055.82	-29753.4	0.000000	0.000000	6.042772	0.010882	NaN	0.000000	0.001515	0.001719	28.0845	0.056236	0.002051	27.4199	-85.9149	-167.708	-0.065490	0.041197	-1.031793	-1.033143	0.010882	27.4199	-1.032090	-6.131938E+13	-1.774700E-16	NaN
1019	1.000000	0.082536	7.37502e+06	-51089.1	1055.82	-29753.4	0.000000	0.000000	6.082761	-0.028249	NaN	0.000000	0.001524	0.001666	28.0846	0.089014	0.002001	44.4861	-172.986	-165.552	0.020587	0.081228	-0.991803	-0.993111	-0.028249	44.4861	-0.991327	-1.733716E+13	1.629392E-15	NaN
1019	1.000000	0.122547	7.37502e+06	-51089.1	1055.82	-29753.4	0.000000	0.000000	6.122774	0.039144	NaN	0.000000	0.001556	0.001715	28.0845	0.022195	0.002145	10.3451	-42.3633	-168.51	0.108856	0.121246	-0.951792	-0.953093	0.039144	10.3451	-0.954630	-5.552209E+12	-7.050131E-15	NaN
1019	1.000000	0.162592	7.37502e+06	-51089.1	1055.82	-29753.4	0.000000	0.000000	6.162817	-0.019255	NaN	0.000000	0.001543	0.001737	28.0849	0.070457	0.001992	35.3623	-23.0224	-167.391	-0.050603	0.161221	-0.911747	-0.913118	-0.019255	35.3623	-0.911339	-1.446261E+12	1.331365E-14	NaN
1019	1.000000	0.202572	7.37502e+06	-51089.1	1055.82	-29753.4	0.000000	0.000000	6.202797	-0.016523	NaN	0.000000	0.001539	0.001695	28.0833	0.028104	0.002089	13.4562	-102.433	-166.358	-0.075299	0.201292	-0.871767	-0.873047	-0.016523	13.4562	-0.870846	-4.100977E+11	4.029145E-14	NaN
1019	1.000000	0.242591	7.37502e+06	-51089.1	1055.82	-29753.4	0.000000	0.000000	6.242814	-0.051118	NaN	0.000000	0.001538	0.001731	28.0838	0.063103	0.001990	31.7056	152.645	-165.794	0.034502	0.241302	-0.831748	-0.833038	-0.051118	31.7056	-0.830539	-1.167053E+11	4.380084E-13	NaN
1019	1.000000	0.282642	7.37502e+06	-51089.1	1055.82	-29753.4	0.000000	0.000000	6.282867	-0.010522	NaN	0.000000	0.001541	0.001709	28.0832	0.019492	0.001980	9.844492	-82.9835	-165.092	0.047568	0.281267	-0.791697	-0.793073	-0.010522	9.844492	-0.790896	-3.382601E+10	3.110486E-13	NaN
1019	1.000000	0.322638	7.37502e+06	-51089.1	1055.82	-29753.4	0.000000	0.000000	6.322863	-0.014925	NaN	0.000000	0.001568	0.001678	28.0845	0.061519	0.001999	30.782	-101.356	-164.972	-0.043014	0.321345	-0.751702	-0.752994	-0.014925	30.782	-0.751338	-9.804629E+9	1.522259E-12	NaN
1019	1.000000	0.362648	7.37502e+06	-51089.1	1055.82	-29753.4	0.000000	0.000000	6.362875	0.027489	NaN	0.000000	0.001544	0.001613	28.0846	0.059508	0.002092	28.444	-24.7057	-166.975	0.056395	0.361383	-0.711691	-0.712956	0.027489	28.444	-0.712416	-2.890776E+9	-9.509326E-12	NaN
1019	1.000000	0.402659	7.37502e+06	-51089.1	1055.82	-29753.4	0.000000	0.000000	6.402883	-0.055574	NaN	0.000000	0.001593	0.001634	28.0846	0.117453	0.001989	59.0567	-46.179	-166.808	-0.129176	0.401348	-0.671680	-0.672991	-0.055574	59.0567	-0.670974	-7.847338E+8	7.081901E-11	NaN
1019	1.000000	0.442703	7.37502e+06	-51089.1	1055.82	-29753.4	0.000000	0.000000	6.442927	-0.035044	NaN	0.000000	0.001617	0.001728	28.0834	0.042446	0.002106	20.1519	83.1841	-164.227	-0.036501	0.441345	-0.631637	-0.632994	-0.035044	20.1519	-0.630332	-2.175640E+8	1.610761E-10	NaN
1019	1.000000	0.482688	7.37502e+06	-51089.1	1055.82	-29753.5	0.000000	0.000000	6.482915	0.016667	NaN	0.000000	0.001602	0.001721	28.0836	0.080340	0.001971	40.7631	-80.8343	-165.238	-0.000309	0.481367	-0.591651	-0.592973	0.016667	40.7631	-0.591957	-6.451337E+7	-2.583513E-10	NaN
1019	1.000000	0.522708	7.37502e+06	-51089.1	1055.82	-29753.5	0.000000	0.000000	6.522933	-0.000130	NaN	0.000000	0.001578	0.001685	28.0838	0.025688	0.002117	12.1364	-38.8941	-163.751	0.003634	0.521427	-0.551631	-0.552913	-0.000130	12.1364	-0.551623	-1.788287E+7	7.254243E-12	NaN
1019	1.000000	0.562723	7.37502e+06	-51089.1	1055.82	-29753.5	0.000000	0.000000	6.562947	-0.024780	NaN	0.000000	0.001581	0.001723	28.0836	0.019571	0.001945	10.0635	48.6422	-166.669	-0.017603	0.561420	-0.511616	-0.512920	-0.024780	10.0635	-0.509770	-4.69036e+06	5.283220E-9	NaN
1019	1.000000	0.602759	7.37502e+06	-51089.1	1055.82	-29753.5	0.000000	0.000000	6.602983	-0.025156	NaN	0.000000	0.001613	0.001694	28.0844	0.025872	0.001927	13.428	70.5567	-162.917	-0.082596	0.601400	-0.471580	-0.472939	-0.025156	13.428	-0.470175	-1.31179e+06	1.917690E-8	NaN
1019	1.000000	0.642781	7.37502e+06	-51089.1	1055.82	-29753.5	0.000000	0.000000	6.643009	0.045924	NaN	0.000000	0.001573	0.001708	28.0846	0.033523	0.001931	17.3601	171.047	-164.986	-0.048516	0.641480	-0.431558	-0.432859	0.045924	17.3601	-0.433542	-400082	-1.147864E-7	NaN
1019	1.000000	0.682806	7.37502e+06	-51089.1	1055.82	-29753.5	0.000000	0.000000	6.683031	-0.016278	NaN	0.000000	0.001597	0.001717	28.0846	0.109374	0.002070	52.8391	-102.709	-165.398	-0.036979	0.681456	-0.391533	-0.392883	-0.016278	52.8391	-0.391302	-100411	1.621113E-7	NaN
1019	1.000000	0.722805	7.37502e+06	-51089.1	1055.82	-29753.5	0.000000	0.000000	6.723028	-0.062533	NaN	0.000000	0.001584	0.001682	28.0833	0.063526	0.001954	32.5052	-56.8616	-162.105	0.006349	0.721507	-0.351534	-0.352832	-0.062533	32.5052	-0.350091	-25605.2	2.442204E-6	NaN
1019	1.000000	0.762803	7.37502e+06	-51089.1	1055.82	-29753.5	0.000000	0.000000	6.763025	-0.083960	NaN	0.000000	0.001586	0.001710	28.0834	0.165302	0.002039	81.0717	-172.065	-165.902	-0.066094	0.761516	-0.311537	-0.312823	-0.083960	81.0717	-0.310760	-6796.72	1.235307E-5	NaN
1019	1.000000	0.802820	7.37502e+06	-51089.1	1055.82	-29753.5	0.000000	0.000000	6.803045	-0.001746	NaN	0.000000	0.001565	0.001704	28.0834	0.091795	0.001858	49.3993	124.24	-162.239	-0.016616	0.801494	-0.271519	-0.272845	-0.001746	49.3993	-0.271493	-1754.79	9.948980E-7	NaN
1019	1.000000	0.842854	7.37502e+06	-51089.1	1055.82	-29753.5	0.000000	0.000000	6.843081	0.022714	NaN	0.000000	0.001553	0.001706	28.0833	0.092787	0.001864	49.7795	-87.2059	-165.459	0.028372	0.841629	-0.231485	-0.232710	0.022714	49.7795	-0.231827	-427.9	-5.308188E-5	NaN
1019	1.000000	0.882869	7.37502e+06	-51089.1	1055.82	-29753.5	0.000000	0.000000	6.883092	-0.057993	NaN	0.000000	0.001555	0.001664	28.0845	0.105375	0.002017	52.2369	111.01	-165.532	-0.064211	0.881551	-0.191470	-0.192788	-0.057993	52.2369	-0.190637	-92.1874	0.000629	NaN
1019	1.000000	0.922890	7.37502e+06	-51089.1	1055.82	-29753.5	0.000000	0.000000	6.923113	-0.047827	NaN	0.000000	0.001574	0.001667	28.0845	0.113307	0.001998	56.7128	164.468	-163.198	-0.058712	0.921553	-0.151449	-0.152787	-0.047827	56.7128	-0.150817	-18.7451	0.002551	NaN
1019	1.000000	0.962903	7.37502e+06	-51089.1	1055.82	-29753.5	0.000000	0.000000	6.963126	-0.062438	NaN	0.000000	0.001597	0.001688	28.0846	0.077588	0.002106	36.8327	-147.956	-162.497	-0.015733	0.961570	-0.111436	-0.112769	-0.062438	36.8327	-0.110164	-3.029285	0.020611	NaN
1019	1.000000	1.002915	7.37502e+06	-51089.1	1055.82	-29753.5	0.000000	0.000000	7.003138	-0.053320	NaN	0.000000	0.001570	0.001746	28.0832	0.047711	0.001935	24.6511	-150.126	-163.748	-0.077630	1.001615	-0.071424	-0.072724	-0.053320	24.6511	-0.069802	-0.336960	0.158240	NaN
1019	1.000000	1.042906	7.37502e+06	-51089.1	1055.82	-29753.5	0.000000	0.000000	7.043132	0.006627	NaN	0.000000	0.001593	0.001702	28.0839	0.074161	0.002096	35.3741	121.883	-162.594	0.046560	1.041650	-0.031433	-0.032689	0.006627	35.3741	-0.031574	-0.025483	-0.260048	NaN
1019	1.000000	1.082928	7.37502e+06	-51089.1	1055.82	-29753.5	0.000000	0.000000	7.083379	5.479088	NaN	0.000000	0.001560	0.001690	28.0836	6.442006	0.001728	3727.08	11.9343	-168.805	4.153194	1.081614	0.008589	0.007275	5.479088	3727.08	0.007486	0.006520	840.415	42173
1019	2.000000	1.095435	7.37502e+06	-51089.1	1055.82	-29753.5	0.000000	0.000000	7.096694	25.1369	NaN	0.000000	0.001575	0.001692	28.0848	19.9593	0.001792	11138.8	6.774305	-176.529	24.6773	1.095135	0.021096	0.020796	25.1369	11138.8	0.019403	0.021613	1163.02	69222.7
1019	2.000000	1.105390	7.37502e+06	-51089.1	1055.82	-29753.5	0.000000	0.000000	7.107938	56.4901	NaN	0.000000	0.001673	0.001683	28.0848	31.2952	0.001763	17753.3	4.835367	-177.947	56.1195	1.105028	0.031050	0.030689	56.4901	17753.3	0.028664	0.038020	1485.8	83185
1019	2.000000	1.115406	7.37502e+06	-51089.1	1055.82	-29753.5	0.000000	0.000000	7.119471	93.3666	NaN	0.000000	0.001655	0.001682	28.0847	41.9671	0.001929	21756.7	5.982129	179.361	93.3885	1.115065	0.041067	0.040726	93.3666	21756.7	0.037849	0.058587	1593.65	82123.5
1019	2.000000	1.125301	7.37502e+06	-51089.1	1055.82	-29753.5	0.000000	0.000000	7.131297	140.307	NaN	0.000000	0.001570	0.001730	28.0847	51.3317	0.001759	29181.9	5.099950	175.804	136.733	1.125089	0.050962	0.050750	140.307	29181.9	0.047356	0.084416	1662.08	91764
1019	2.000000	1.135315	7.37502e+06	-51089.1	1055.82	-29753.5	0.000000	0.000000	7.143365	190.279	NaN	0.000000	0.001536	0.001699	28.0835	61.5577	0.001898	32430.2	4.260651	176.18	186.875	1.135019	0.060976	0.060680	190.279	32430.2	0.056575	0.113815	1671.83	87826.3
1019	2.000000	1.145321	7.37502e+06	-51089.1	1055.82	-29753.5	0.000000	0.000000	7.155455	240.957	NaN	0.000000	0.001549	0.001681	28.0836	70.2042	0.001668	42079.8	5.064236	173.113	238.794	1.145073	0.070982	0.070734	240.957	42079.8	0.066687	0.150872	1597.09	98978.9
1019	2.000000	1.155285	7.37502e+06	-51089.1	1055.82	-29753.5	0.000000	0.000000	7.167993	303.543	NaN	0.000000	0.001610	0.001720	28.0836	80.5573	0.001836	43867.8	0.727460	177.447	300.769	1.155023	0.080946	0.080684	303.543	43867.8	0.075756	0.188288	1612.13	92365.1
1019	2.000000	1.165302	7.37502e+06	-51089.1	1055.82	-29753.5	0.000000	0.000000	7.180974	375.601	NaN	0.000000	0.001528	0.001690	28.0848	90.3382	0.001805	50037	11.2679	166.784	373	1.164880	0.090963	0.090541	375.601	50037	0.085333	0.231993	1619.02	94913.3
1019	2.000000	1.175355	7.37502e+06	-51089.1	1055.82	-29753.5	0.000000	0.000000	7.194245	453.87	NaN	0.000000	0.001613	0.001669	28.0846	98.4884	0.001769	55682.1	2.355318	174.01	454.673	1.175072	0.101016	0.100732	453.87	55682.1	0.094902	0.279894	1621.58	96159.5
1019	2.000000	1.184814	7.37502e+06	-51089.1	1055.82	-29753.5	0.000000	0.000000	7.207307	541.483	NaN	0.000000	0.001530	0.001660	28.0846	108.402	0.001708	63470.4	6.678315	-10.6543	539.654	1.184443	0.110474	0.110104	541.483	63470.4	0.104076	0.329738	1642.16	100986