File: remote_trans/data/nanoindenter/0828-1/data/Data_2025-08-06,11h17m57s/2025-07-22_16-23-58_1_116.txt
2025-07-22, 16:23:58, 1
Index	Phase	Displacement	Time	Pos X	Pos Y	Pos Z	Rot A	Rot B	Piezo Z	Force A	Force B	Gripper	Voltage A	Voltage B	Temperature	Amplitude force	Amplitude pos	Stiffness	Phase shift	Phase excitation	Force A raw	Displacement raw	HMax	HMax raw	Real Force	Real Stiffness	Contact Depth	Area	Hardness	Reduced Mod.
[#]	[#]	[um]	[s]	[um]	[um]	[um]	[m°]	[m°]	[um]	[uN]	[uN]	[V]	[V]	[V]	[°C]	[uN]	[um]	[N/m]	[°]	[°]	[uN]	[um]	[um]	[um]	[uN]	[N/m]	[um]	[um^2]	[MPa]	[MPa]
116	1.000000	0.001910	7.36617e+06	-44439.1	955.819	-29776.3	0.000000	0.000000	6.002790	-0.093980	NaN	0.000000	0.001630	0.001761	28.0845	0.135041	0.000946	142.706	-54.3321	-163.776	-0.054417	0.000690	-1.091556	-1.092776	-0.093980	142.706	-1.091062	-3.802538E+14	2.471501E-16	NaN
116	1.000000	0.043888	7.36617e+06	-44439.1	955.818	-29776.3	0.000000	0.000000	6.044771	-0.025853	NaN	0.000000	0.001646	0.001768	28.0849	0.099626	0.001885	52.8554	133.575	6.647359	0.039624	0.042514	-1.049578	-1.050952	-0.025853	52.8554	-1.049211	-1.041871E+14	2.481362E-16	NaN
116	1.000000	0.085875	7.36617e+06	-44439.1	955.818	-29776.3	0.000000	0.000000	6.086757	-0.039688	NaN	0.000000	0.001648	0.001766	28.1188	0.100464	0.002005	50.1066	31.2141	-162.419	-0.133772	0.084577	-1.007591	-1.008889	-0.039688	50.1066	-1.006997	-2.818139E+13	1.408305E-15	NaN
116	1.000000	0.127910	7.36617e+06	-44439.1	955.818	-29776.3	0.000000	0.000000	6.128793	-0.019386	NaN	0.000000	0.001603	0.001747	28.1247	0.073485	0.001894	38.7941	15.3114	14.8385	0.000745	0.126541	-0.965556	-0.966925	-0.019386	38.7941	-0.965181	-7.704034E+12	2.516385E-15	NaN
116	1.000000	0.169926	7.36617e+06	-44439.1	955.819	-29776.3	0.000000	0.000000	6.170807	-0.051837	NaN	0.000000	0.001639	0.001742	28.0856	0.030769	0.001998	15.4005	-89.3476	-163.514	0.006933	0.168617	-0.923541	-0.924850	-0.051837	15.4005	-0.921016	-1.954001E+12	2.652840E-14	NaN
116	1.000000	0.211956	7.36617e+06	-44439.1	955.818	-29776.3	0.000000	0.000000	6.212838	-0.035357	NaN	0.000000	0.001638	0.001735	28.0828	0.142552	0.002027	70.3303	-161.765	14.4069	-0.011699	0.210579	-0.881511	-0.882887	-0.035357	70.3303	-0.881134	-5.649925E+11	6.257963E-14	NaN
116	1.000000	0.253958	7.36617e+06	-44439.1	955.818	-29776.3	0.000000	0.000000	6.254841	-0.018976	NaN	0.000000	0.001624	0.001779	28.1166	0.062125	0.002094	29.6639	-149.519	-163.841	-0.040722	0.252582	-0.839508	-0.840884	-0.018976	29.6639	-0.839029	-1.521010E+11	1.247607E-13	NaN
116	1.000000	0.295963	7.36617e+06	-44439.1	955.819	-29776.3	0.000000	0.000000	6.296846	-0.014324	NaN	0.000000	0.001608	0.001803	28.1244	0.046609	0.002016	23.1151	-121.752	13.7301	-0.054988	0.294605	-0.797503	-0.798861	-0.014324	23.1151	-0.797038	-4.098800E+10	3.494773E-13	NaN
116	1.000000	0.338006	7.36617e+06	-44439.1	955.818	-29776.3	0.000000	0.000000	6.338888	-0.042739	NaN	0.000000	0.001609	0.001815	28.0847	0.055902	0.002014	27.7539	103.735	-167.432	-0.046726	0.336694	-0.755460	-0.756772	-0.042739	27.7539	-0.754305	-1.076015E+10	3.972009E-12	NaN
116	1.000000	0.380028	7.36617e+06	-44439.1	955.818	-29776.3	0.000000	0.000000	6.380912	0.025214	NaN	0.000000	0.001601	0.001818	28.0829	0.124479	0.001873	66.4575	38.195	17.1432	0.065051	0.378644	-0.713439	-0.714823	0.025214	66.4575	-0.713723	-3.012004E+9	-8.371294E-12	NaN
116	1.000000	0.422031	7.36617e+06	-44439.1	955.818	-29776.3	0.000000	0.000000	6.422909	-0.132598	NaN	0.000000	0.001617	0.001796	28.1161	0.017135	0.002009	8.529733	84.1045	-163.106	-0.071190	0.420684	-0.671436	-0.672783	-0.132598	8.529733	-0.659777	-5.513288E+8	2.405064E-10	NaN
116	1.000000	0.464015	7.36617e+06	-44439.1	955.818	-29776.3	0.000000	0.000000	6.464896	-0.042651	NaN	0.000000	0.001641	0.001780	28.1246	0.095166	0.002001	47.5703	143.474	11.2852	-0.043175	0.462671	-0.629452	-0.630796	-0.042651	47.5703	-0.628779	-2.071387E+8	2.059056E-10	NaN
116	1.000000	0.506044	7.36617e+06	-44439.1	955.818	-29776.3	0.000000	0.000000	6.506927	-0.003537	NaN	0.000000	0.001599	0.001775	28.0847	0.054331	0.002040	26.6374	-69.9383	-166.125	0.034149	0.504772	-0.587423	-0.588695	-0.003537	26.6374	-0.587323	-5.568779E+7	6.351003E-11	NaN
116	1.000000	0.548077	7.36617e+06	-44439.1	955.818	-29776.3	0.000000	0.000000	6.548960	-0.004891	NaN	0.000000	0.001625	0.001734	28.0826	0.035817	0.002115	16.9375	-83.2543	16.9946	-0.040735	0.546710	-0.545390	-0.546756	-0.004891	16.9375	-0.545173	-1.455727E+7	3.359719E-10	NaN
116	1.000000	0.590088	7.36617e+06	-44439.1	955.817	-29776.3	0.000000	0.000000	6.590970	-0.042454	NaN	0.000000	0.001581	0.001755	28.114	0.064111	0.001917	33.4476	-177.812	-164.632	-0.079938	0.588821	-0.503378	-0.504646	-0.042454	33.4476	-0.502426	-3.70561e+06	1.145654E-8	NaN
116	1.000000	0.632136	7.36617e+06	-44439.1	955.818	-29776.3	0.000000	0.000000	6.633019	-0.013692	NaN	0.000000	0.001590	0.001774	28.1265	0.068762	0.002016	34.1112	-119.184	13.4065	0.016015	0.630761	-0.461330	-0.462705	-0.013692	34.1112	-0.461029	-976071	1.402792E-8	NaN
116	1.000000	0.674127	7.36618e+06	-44439.1	955.818	-29776.3	0.000000	0.000000	6.675009	-0.028089	NaN	0.000000	0.001698	0.001744	28.0866	0.041183	0.001839	22.3897	-119.53	-164.431	0.009080	0.672838	-0.419340	-0.420628	-0.028089	22.3897	-0.418399	-244176	1.150374E-7	NaN
116	1.000000	0.716179	7.36618e+06	-44439.1	955.819	-29776.3	0.000000	0.000000	6.717062	-0.003651	NaN	0.000000	0.001625	0.001751	28.0832	0.030684	0.002038	15.0563	165.875	13.1006	0.007786	0.714826	-0.377287	-0.378641	-0.003651	15.0563	-0.377106	-62853.6	5.808383E-8	NaN
116	1.000000	0.758198	7.36618e+06	-44439.1	955.818	-29776.3	0.000000	0.000000	6.759079	-0.046966	NaN	0.000000	0.001615	0.001770	28.114	0.014776	0.002027	7.290606	-54.6253	-165.83	-0.027096	0.756886	-0.335269	-0.336581	-0.046966	7.290606	-0.330437	-13239	3.547558E-6	NaN
116	1.000000	0.800171	7.36618e+06	-44439.1	955.818	-29776.3	0.000000	0.000000	6.801053	-0.020742	NaN	0.000000	0.001555	0.001745	28.1256	0.102192	0.001925	53.08	58.4097	15.5449	0.057469	0.798822	-0.293296	-0.294644	-0.020742	53.08	-0.293003	-3700.38	5.605342E-6	NaN
116	1.000000	0.842165	7.36618e+06	-44439.1	955.818	-29776.3	0.000000	0.000000	6.843047	-0.033899	NaN	0.000000	0.001620	0.001741	28.0866	0.060941	0.001955	31.1695	88.2175	-164.988	-0.011265	0.840874	-0.251302	-0.252593	-0.033899	31.1695	-0.250486	-836.528	4.052339E-5	NaN
116	1.000000	0.884220	7.36618e+06	-44439.1	955.818	-29776.3	0.000000	0.000000	6.885103	-0.011484	NaN	0.000000	0.001603	0.001736	28.0813	0.099702	0.001997	49.9206	-89.2306	15.8601	-0.010183	0.882869	-0.209247	-0.210597	-0.011484	49.9206	-0.209074	-185.276	6.198406E-5	NaN
116	1.000000	0.926239	7.36618e+06	-44439.1	955.818	-29776.3	0.000000	0.000000	6.927119	-0.089385	NaN	0.000000	0.001616	0.001733	28.1145	0.038569	0.002010	19.1837	-141.518	-163.438	-0.084022	0.924935	-0.167227	-0.168532	-0.089385	19.1837	-0.163733	-31.9166	0.002801	NaN
116	1.000000	0.968265	7.36618e+06	-44439.1	955.819	-29776.3	0.000000	0.000000	6.969149	0.008160	NaN	0.000000	0.001694	0.001708	28.1273	0.049086	0.001946	25.2234	-82.6544	14.1711	-0.048506	0.966841	-0.125202	-0.126626	0.008160	25.2234	-0.125444	-6.205543	-0.001315	NaN
116	1.000000	1.010274	7.36618e+06	-44439.1	955.819	-29776.3	0.000000	0.000000	7.011156	-0.032225	NaN	0.000000	0.001684	0.001744	28.0865	0.050783	0.002057	24.6855	-155.648	-166.46	-0.054923	1.008948	-0.083192	-0.084519	-0.032225	24.6855	-0.082213	-0.702469	0.045875	NaN
116	1.000000	1.052305	7.36618e+06	-44439.1	955.818	-29776.3	0.000000	0.000000	7.053186	-0.072813	NaN	0.000000	0.001697	0.001734	28.0814	0.097679	0.001979	49.3582	-148.187	12.1814	-0.038888	1.050917	-0.041161	-0.042549	-0.072813	49.3582	-0.040055	-0.045396	1.603963	NaN
116	1.000000	1.094282	7.36618e+06	-44439.1	955.818	-29776.3	0.000000	0.000000	7.095190	0.581593	NaN	0.000000	0.001636	0.001760	28.1124	1.021816	0.002003	510.109	15.6886	-165.91	0.164720	1.092976	0.000816	-0.000491	0.581593	510.109	-3.945617E-5	-2.946349E-5	-19739.5	NaN
116	2.000000	1.110396	7.36618e+06	-44439.1	955.818	-29776.3	0.000000	0.000000	7.112271	24.1301	NaN	0.000000	0.001645	0.001689	28.127	15.829	0.001773	8929	3.715660	7.847361	23.4165	1.110076	0.016930	0.016609	24.1301	8929	0.014903	0.015156	1592.13	66265.1
116	2.000000	1.120840	7.36618e+06	-44439.1	955.819	-29776.3	0.000000	0.000000	7.124036	56.2608	NaN	0.000000	0.001599	0.001712	28.0898	27.2012	0.001844	14749.4	5.293369	-178.371	55.4909	1.120542	0.027374	0.027075	56.2608	14749.4	0.024513	0.030136	1866.91	77626.2
116	2.000000	1.131307	7.36618e+06	-44439.1	955.819	-29776.3	0.000000	0.000000	7.136556	106.209	NaN	0.000000	0.001655	0.001689	28.0814	38.4752	0.001892	20339.9	4.279409	-0.227910	104.683	1.131057	0.037841	0.037590	106.209	20339.9	0.033924	0.049271	2155.62	83719.5
116	2.000000	1.141728	7.36618e+06	-44439.1	955.818	-29776.3	0.000000	0.000000	7.149690	172.188	NaN	0.000000	0.001600	0.001692	28.1136	47.3806	0.001768	26805.4	0.450651	-178.394	168.602	1.141447	0.048262	0.047980	172.188	26805.4	0.043444	0.073232	2351.26	90499.2
116	2.000000	1.152326	7.36618e+06	-44439.1	955.819	-29776.3	0.000000	0.000000	7.163903	260.144	NaN	0.000000	0.001681	0.001761	28.1268	60.3017	0.001951	30912.1	7.961491	-7.302850	260.177	1.151881	0.058860	0.058414	260.144	30912.1	0.052548	0.100451	2589.76	89109.6
116	2.000000	1.162701	7.36618e+06	-44439.1	955.821	-29776.3	0.000000	0.000000	7.178209	355.77	NaN	0.000000	0.001718	0.001713	28.0883	68.0398	0.001757	38720	3.901141	174.984	349.511	1.162428	0.069235	0.068961	355.77	38720	0.062344	0.134346	2648.16	96515.2
116	2.000000	1.173295	7.36618e+06	-44439.1	955.82	-29776.3	0.000000	0.000000	7.193363	466.735	NaN	0.000000	0.001667	0.001711	28.081	80.127	0.001846	43408.6	7.073887	-9.646123	464.96	1.172948	0.079828	0.079481	466.735	43408.6	0.071764	0.171338	2724.07	95812.5
116	2.000000	1.183690	7.36618e+06	-44439.1	955.82	-29776.3	0.000000	0.000000	7.207608	560.388	NaN	0.000000	0.001691	0.001755	28.112	86.9078	0.001817	47827.3	2.300693	174.764	555.092	1.183371	0.090224	0.089904	560.388	47827.3	0.081436	0.213694	2622.39	94526.5
116	2.000000	1.194210	7.36618e+06	-44439.1	955.819	-29776.3	0.000000	0.000000	7.222299	661.871	NaN	0.000000	0.001657	0.001741	28.1286	95.1196	0.001737	54751.3	4.477632	-8.066723	655.684	1.193873	0.100743	0.100406	661.871	54751.3	0.091677	0.263278	2513.97	97490.2
116	2.000000	1.200229	7.36618e+06	-44439.1	955.82	-29776.3	0.000000	0.000000	7.230878	724.135	NaN	0.000000	0.001661	0.001777	28.1294	101.865	0.001793	56820.3	3.682066	-7.390744	721.178	1.199953	0.106762	0.106487	724.135	56820.3	0.097204	0.292040	2479.57	96062.9