File: remote_trans/data/nanoindenter/0828-1/data/Data_2025-08-06,11h17m57s/2025-07-22_16-23-58_1_763.txt
2025-07-22, 16:23:58, 1
Index	Phase	Displacement	Time	Pos X	Pos Y	Pos Z	Rot A	Rot B	Piezo Z	Force A	Force B	Gripper	Voltage A	Voltage B	Temperature	Amplitude force	Amplitude pos	Stiffness	Phase shift	Phase excitation	Force A raw	Displacement raw	HMax	HMax raw	Real Force	Real Stiffness	Contact Depth	Area	Hardness	Reduced Mod.
[#]	[#]	[um]	[s]	[um]	[um]	[um]	[m°]	[m°]	[um]	[uN]	[uN]	[V]	[V]	[V]	[°C]	[uN]	[um]	[N/m]	[°]	[°]	[uN]	[um]	[um]	[um]	[uN]	[N/m]	[um]	[um^2]	[MPa]	[MPa]
763	1.000000	0.002137	7.37252e+06	-38939.1	1005.82	-29795.6	0.000000	0.000000	6.002810	0.041289	NaN	0.000000	0.001830	0.001806	28.0823	0.039821	0.000970	41.0418	80.3045	-166.888	0.015591	0.000845	-1.105658	-1.106950	0.041289	41.0418	-1.106413	-6.111461E+14	-6.755953E-17	NaN
763	1.000000	0.044101	7.37252e+06	-38939.1	1005.82	-29795.6	0.000000	0.000000	6.044772	-0.009725	NaN	0.000000	0.001841	0.001716	28.0834	0.109457	0.001977	55.3736	10.1781	14.4662	0.024176	0.042754	-1.063694	-1.065041	-0.009725	55.3736	-1.063563	-1.624409E+14	5.986989E-17	NaN
763	1.000000	0.086082	7.37252e+06	-38939.1	1005.82	-29795.6	0.000000	0.000000	6.086753	-0.007710	NaN	0.000000	0.001750	0.001771	28.0836	0.046001	0.002167	21.2234	132.492	-166.221	0.048984	0.084748	-1.021713	-1.023047	-0.007710	21.2234	-1.021440	-4.408924E+13	1.748693E-16	NaN
763	1.000000	0.128111	7.37252e+06	-38939.1	1005.82	-29795.6	0.000000	0.000000	6.128781	-0.041284	NaN	0.000000	0.001736	0.001769	28.0838	0.009332	0.002084	4.479043	67.557	13.1588	-0.085973	0.126711	-0.979684	-0.981084	-0.041284	4.479043	-0.972771	-9.750047E+12	4.234215E-15	NaN
763	1.000000	0.170119	7.37252e+06	-38939.1	1005.82	-29795.6	0.000000	0.000000	6.170791	-0.002463	NaN	0.000000	0.001809	0.001738	28.0837	0.057105	0.001990	28.6916	-69.128	-169.207	-0.014103	0.168826	-0.937675	-0.938969	-0.002463	28.6916	-0.937611	-3.272700E+12	7.524795E-16	NaN
763	1.000000	0.212172	7.37252e+06	-38939.1	1005.82	-29795.6	0.000000	0.000000	6.212844	-0.005211	NaN	0.000000	0.001670	0.001799	28.0825	0.049315	0.001973	24.9937	-169.41	12.5755	0.023398	0.210766	-0.895623	-0.897029	-0.005211	24.9937	-0.895466	-8.826736E+11	5.903320E-15	NaN
763	1.000000	0.254137	7.37252e+06	-38939.1	1005.82	-29795.6	0.000000	0.000000	6.254807	-0.044490	NaN	0.000000	0.001713	0.001776	28.0827	0.053939	0.002017	26.7474	73.6178	-167.461	-0.038137	0.252895	-0.853658	-0.854900	-0.044490	26.7474	-0.852411	-2.308762E+11	1.926985E-13	NaN
763	1.000000	0.296195	7.37252e+06	-38939.1	1005.82	-29795.6	0.000000	0.000000	6.296868	0.024520	NaN	0.000000	0.001790	0.001756	28.0824	0.062975	0.002009	31.3422	-144.722	14.8803	0.027403	0.294823	-0.811599	-0.812972	0.024520	31.3422	-0.812186	-6.580081E+10	-3.726358E-13	NaN
763	1.000000	0.338207	7.37252e+06	-38939.1	1005.82	-29795.6	0.000000	0.000000	6.338880	0.016379	NaN	0.000000	0.001720	0.001788	28.0835	0.079405	0.002074	38.2808	66.2361	-164.177	-0.006784	0.336915	-0.769587	-0.770880	0.016379	38.2808	-0.769908	-1.754119E+10	-9.337311E-13	NaN
763	1.000000	0.380205	7.37252e+06	-38939.1	1005.82	-29795.6	0.000000	0.000000	6.380874	-0.054187	NaN	0.000000	0.001775	0.001700	28.0834	0.081976	0.001835	44.6808	169.572	13.8008	-0.053171	0.378839	-0.727590	-0.728956	-0.054187	44.6808	-0.726681	-4.524452E+9	1.197643E-11	NaN
763	1.000000	0.422225	7.37252e+06	-38939.1	1005.82	-29795.6	0.000000	0.000000	6.422899	0.063716	NaN	0.000000	0.001774	0.001744	28.0835	0.071693	0.002139	33.5117	-93.2836	-167.793	-0.009110	0.420895	-0.685570	-0.686900	0.063716	33.5117	-0.686996	-1.299748E+9	-4.902148E-11	NaN
763	1.000000	0.464252	7.37252e+06	-38939.1	1005.82	-29795.6	0.000000	0.000000	6.464920	-0.081315	NaN	0.000000	0.001776	0.001751	28.0825	0.042498	0.001951	21.788	-102.468	17.1243	-0.027477	0.462909	-0.643543	-0.644886	-0.081315	21.788	-0.640744	-3.023407E+8	2.689526E-10	NaN
763	1.000000	0.506285	7.37252e+06	-38939.1	1005.82	-29795.6	0.000000	0.000000	6.506957	0.034110	NaN	0.000000	0.001713	0.001779	28.0828	0.024176	0.002031	11.9045	65.9743	-165.059	-0.015422	0.504977	-0.601510	-0.602818	0.034110	11.9045	-0.603659	-9.350813E+7	-3.647838E-10	NaN
763	1.000000	0.548304	7.37252e+06	-38939.1	1005.82	-29795.6	0.000000	0.000000	6.548975	-0.022430	NaN	0.000000	0.001718	0.001793	28.0828	0.078672	0.002056	38.2591	79.9204	15.99	-0.014182	0.546911	-0.559490	-0.560884	-0.022430	38.2591	-0.559051	-2.265929E+7	9.898676E-10	NaN
763	1.000000	0.590307	7.37252e+06	-38939.1	1005.82	-29795.6	0.000000	0.000000	6.590980	0.036567	NaN	0.000000	0.001692	0.001754	28.0837	0.111455	0.002112	52.7791	-108.978	-166.368	0.015845	0.589012	-0.517488	-0.518783	0.036567	52.7791	-0.518008	-6.10785e+06	-5.986883E-9	NaN
763	1.000000	0.632304	7.37252e+06	-38939.1	1005.82	-29795.6	0.000000	0.000000	6.632977	0.033309	NaN	0.000000	0.001664	0.001753	28.0839	0.135119	0.002035	66.4091	-43.7272	15.4669	-0.030082	0.630976	-0.475491	-0.476819	0.033309	66.4091	-0.475867	-1.57635e+06	-2.113078E-8	NaN
763	1.000000	0.674356	7.37252e+06	-38939.1	1005.82	-29795.6	0.000000	0.000000	6.675029	0.042451	NaN	0.000000	0.001707	0.001755	28.0841	0.145502	0.001942	74.9149	171.141	-167.069	0.029830	0.673018	-0.433439	-0.434777	0.042451	74.9149	-0.433864	-404297	-1.049999E-7	NaN
763	1.000000	0.716373	7.37252e+06	-38939.1	1005.82	-29795.6	0.000000	0.000000	6.717046	0.024871	NaN	0.000000	0.001699	0.001761	28.0839	0.073555	0.002018	36.457	90.2049	16.5985	-0.068607	0.714989	-0.391421	-0.392806	0.024871	36.457	-0.391933	-102520	-2.425945E-7	NaN
763	1.000000	0.758389	7.37252e+06	-38939.1	1005.82	-29795.6	0.000000	0.000000	6.759062	0.026026	NaN	0.000000	0.001714	0.001781	28.0824	0.038426	0.001874	20.5017	165.598	-165.11	0.021896	0.757065	-0.349406	-0.350729	0.026026	20.5017	-0.350358	-25834.4	-1.007418E-6	NaN
763	1.000000	0.800382	7.37252e+06	-38939.1	1005.82	-29795.6	0.000000	0.000000	6.801055	0.043840	NaN	0.000000	0.001677	0.001744	28.0824	0.057209	0.002096	27.289	111.652	18.066	0.086209	0.799054	-0.307413	-0.308740	0.043840	27.289	-0.308618	-6318.27	-6.938549E-6	NaN
763	1.000000	0.842433	7.37252e+06	-38939.1	1005.82	-29795.6	0.000000	0.000000	6.843105	0.014158	NaN	0.000000	0.001698	0.001731	28.0824	0.087882	0.002000	43.9399	-95.8134	-166.044	-0.031143	0.841081	-0.265362	-0.266714	0.014158	43.9399	-0.265604	-1427.58	-9.917705E-6	NaN
763	1.000000	0.884395	7.37252e+06	-38939.1	1005.82	-29795.6	0.000000	0.000000	6.885065	-0.021206	NaN	0.000000	0.001674	0.001758	28.0838	0.060725	0.002075	29.2684	13.0272	14.8907	0.003113	0.883091	-0.223400	-0.224704	-0.021206	29.2684	-0.222857	-308.496	6.873978E-5	NaN
763	1.000000	0.926450	7.37252e+06	-38939.1	1005.82	-29795.6	0.000000	0.000000	6.927122	0.008398	NaN	0.000000	0.001670	0.001760	28.0838	0.019978	0.002169	9.208558	-36.3128	-166.404	0.091614	0.925134	-0.181345	-0.182661	0.008398	9.208558	-0.182029	-66.0567	-0.000127	NaN
763	1.000000	0.968475	7.37252e+06	-38939.1	1005.82	-29795.6	0.000000	0.000000	6.969144	-0.060468	NaN	0.000000	0.001729	0.001806	28.0837	0.094667	0.002013	47.0304	121.972	14.361	-0.021389	0.967089	-0.139320	-0.140706	-0.060468	47.0304	-0.138356	-11.0154	0.005489	NaN
763	1.000000	1.010453	7.37252e+06	-38939.1	1005.82	-29795.6	0.000000	0.000000	7.011122	-0.049256	NaN	0.000000	0.001727	0.001713	28.0823	0.068184	0.001887	36.1359	-122.025	-165.784	-0.045133	1.009196	-0.097342	-0.098599	-0.049256	36.1359	-0.096320	-1.511406	0.032590	NaN
763	1.000000	1.052452	7.37252e+06	-38939.1	1005.82	-29795.6	0.000000	0.000000	7.053123	-0.008199	NaN	0.000000	0.001805	0.001698	28.0823	0.063093	0.001962	32.1518	-66.7425	14.288	0.020741	1.051090	-0.055343	-0.056705	-0.008199	32.1518	-0.055152	-0.130114	0.063012	NaN
763	1.000000	1.094505	7.37252e+06	-38939.1	1005.82	-29795.6	0.000000	0.000000	7.095178	0.026727	NaN	0.000000	0.001688	0.001757	28.0822	0.062168	0.001934	32.1384	-160.667	-164.469	0.039529	1.093210	-0.013290	-0.014585	0.026727	32.1384	-0.013914	-0.008633	-3.095930	NaN
763	2.000000	1.118488	7.37252e+06	-38939.1	1005.82	-29795.6	0.000000	0.000000	7.119779	15.0845	NaN	0.000000	0.001701	0.001748	28.0836	15.8337	0.001713	9243.75	5.697999	5.376061	14.4358	1.118194	0.010693	0.010400	15.0845	9243.75	0.009469	0.008597	1754.52	91082.7
763	2.000000	1.128995	7.37252e+06	-38939.1	1005.82	-29795.6	0.000000	0.000000	7.131052	33.7286	NaN	0.000000	0.001753	0.001718	28.0836	27.2275	0.001904	14296.9	9.339257	178.41	35.3238	1.128709	0.021200	0.020914	33.7286	14296.9	0.019431	0.021655	1557.52	88763
763	2.000000	1.139466	7.37252e+06	-38939.1	1005.82	-29795.6	0.000000	0.000000	7.142859	66.2171	NaN	0.000000	0.001735	0.001725	28.084	35.6123	0.001749	20358.6	4.589700	-1.372509	66.1204	1.139067	0.031671	0.031272	66.2171	20358.6	0.029232	0.039166	1690.67	93986.5
763	2.000000	1.149939	7.37252e+06	-38939.1	1005.82	-29795.6	0.000000	0.000000	7.154810	102.201	NaN	0.000000	0.001720	0.001739	28.084	45.9824	0.001711	26869.7	4.890440	175.833	101.755	1.149653	0.042144	0.041859	102.201	26869.7	0.039292	0.062210	1642.83	98425
763	2.000000	1.160351	7.37252e+06	-38939.1	1005.82	-29795.6	0.000000	0.000000	7.167606	160.212	NaN	0.000000	0.001769	0.001775	28.0821	55.5531	0.001751	31730.1	4.280400	-4.075109	154.986	1.159971	0.052556	0.052176	160.212	31730.1	0.048769	0.088646	1807.33	97367.9
763	2.000000	1.171007	7.37252e+06	-38939.1	1005.82	-29795.6	0.000000	0.000000	7.180428	212.92	NaN	0.000000	0.001696	0.001775	28.0823	65.7562	0.001829	35952.7	3.522093	175.616	214.882	1.170601	0.063212	0.062806	212.92	35952.7	0.058770	0.121436	1753.36	94261
763	2.000000	1.181351	7.37252e+06	-38939.1	1005.82	-29795.6	0.000000	0.000000	7.193603	281.806	NaN	0.000000	0.001695	0.001796	28.0824	77.2181	0.001803	42832.3	6.840357	-9.171388	278.737	1.180935	0.073556	0.073140	281.806	42832.3	0.068622	0.158526	1777.67	98286.7
763	2.000000	1.191831	7.37252e+06	-38939.1	1005.82	-29795.6	0.000000	0.000000	7.207024	353.394	NaN	0.000000	0.001692	0.001775	28.0837	86.4742	0.001684	51348.6	3.590541	172.246	349.38	1.191569	0.084036	0.083774	353.394	51348.6	0.078874	0.202049	1749.05	104369
763	2.000000	1.202257	7.37252e+06	-38939.1	1005.82	-29795.6	0.000000	0.000000	7.221042	440.788	NaN	0.000000	0.001695	0.001771	28.0841	95.7608	0.001789	53538.9	3.278695	-7.522939	432.764	1.201823	0.094462	0.094028	440.788	53538.9	0.088288	0.246334	1789.39	98555.4
763	2.000000	1.210829	7.37252e+06	-38939.1	1005.82	-29795.6	0.000000	0.000000	7.232629	514.179	NaN	0.000000	0.001766	0.001786	28.0838	104.652	0.001846	56700.1	6.921451	169.201	509.42	1.210462	0.103034	0.102667	514.179	56700.1	0.096233	0.286885	1792.28	96716.9