File: remote_trans/data/nanoindenter/0828-1/data/Data_2025-08-06,11h17m57s/2025-07-22_16-23-58_1_431.txt
2025-07-22, 16:23:58, 1
Index	Phase	Displacement	Time	Pos X	Pos Y	Pos Z	Rot A	Rot B	Piezo Z	Force A	Force B	Gripper	Voltage A	Voltage B	Temperature	Amplitude force	Amplitude pos	Stiffness	Phase shift	Phase excitation	Force A raw	Displacement raw	HMax	HMax raw	Real Force	Real Stiffness	Contact Depth	Area	Hardness	Reduced Mod.
[#]	[#]	[um]	[s]	[um]	[um]	[um]	[m°]	[m°]	[um]	[uN]	[uN]	[V]	[V]	[V]	[°C]	[uN]	[um]	[N/m]	[°]	[°]	[uN]	[um]	[um]	[um]	[uN]	[N/m]	[um]	[um^2]	[MPa]	[MPa]
431	1.000000	0.002181	7.36927e+06	-55539.1	1005.82	-29741.4	0.000000	0.000000	6.002808	-0.007689	NaN	0.000000	0.001631	0.001690	28.0812	0.015274	0.000907	16.8332	72.832	-162.721	-0.044284	0.000919	-1.098579	-1.099841	-0.007689	16.8332	-1.098236	-4.746670E+14	1.619947E-17	NaN
431	1.000000	0.044122	7.36927e+06	-55539.1	1005.82	-29741.4	0.000000	0.000000	6.044751	0.066455	NaN	0.000000	0.001628	0.001670	28.0797	0.084256	0.002034	41.4234	-105.706	14.4949	0.096876	0.042784	-1.056638	-1.057975	0.066455	41.4234	-1.057841	-1.360852E+14	-4.883367E-16	NaN
431	1.000000	0.086144	7.36927e+06	-55539.1	1005.82	-29741.4	0.000000	0.000000	6.086770	-0.011951	NaN	0.000000	0.001637	0.001715	28.0795	0.045099	0.002030	22.2134	-5.402375	-164.936	0.008780	0.084823	-1.014616	-1.015936	-0.011951	22.2134	-1.014212	-3.524295E+13	3.391157E-16	NaN
431	1.000000	0.128139	7.36927e+06	-55539.1	1005.82	-29741.4	0.000000	0.000000	6.128768	0.039475	NaN	0.000000	0.001625	0.001625	28.0799	0.053208	0.001980	26.8724	-97.2606	11.3534	0.120226	0.126805	-0.972621	-0.973955	0.039475	26.8724	-0.973722	-1.004211E+13	-3.930917E-15	NaN
431	1.000000	0.170176	7.36927e+06	-55539.1	1005.82	-29741.4	0.000000	0.000000	6.170803	-0.004029	NaN	0.000000	0.001623	0.001641	28.0807	0.008863	0.002150	4.122914	48.3665	-166.522	0.002121	0.168845	-0.930583	-0.931914	-0.004029	4.122914	-0.929850	-2.571439E+12	1.566965E-15	NaN
431	1.000000	0.212170	7.36927e+06	-55539.1	1005.82	-29741.4	0.000000	0.000000	6.212795	-0.028129	NaN	0.000000	0.001670	0.001698	28.0806	0.118607	0.002039	58.162	121.182	13.7943	-0.015644	0.210856	-0.888590	-0.889903	-0.028129	58.162	-0.888227	-7.046141E+11	3.992159E-14	NaN
431	1.000000	0.254212	7.36927e+06	-55539.1	1005.82	-29741.4	0.000000	0.000000	6.254840	0.013873	NaN	0.000000	0.001676	0.001660	28.0805	0.101077	0.002067	48.9017	9.769923	-164.888	-0.000867	0.252833	-0.846547	-0.847926	0.013873	48.9017	-0.846760	-1.935805E+11	-7.166312E-14	NaN
431	1.000000	0.296227	7.36927e+06	-55539.1	1005.82	-29741.4	0.000000	0.000000	6.296854	0.010638	NaN	0.000000	0.001670	0.001652	28.0792	0.155166	0.001945	79.7635	-170.021	14.3922	0.031818	0.294905	-0.804533	-0.805855	0.010638	79.7635	-0.804633	-5.196942E+10	-2.047053E-13	NaN
431	1.000000	0.338233	7.36927e+06	-55539.1	1005.82	-29741.4	0.000000	0.000000	6.338859	-0.032233	NaN	0.000000	0.001623	0.001671	28.0792	0.056709	0.001934	29.3166	-36.6814	-166.508	-0.005472	0.336920	-0.762527	-0.763840	-0.032233	29.3166	-0.761702	-1.356617E+10	2.375990E-12	NaN
431	1.000000	0.380251	7.36928e+06	-55539.1	1005.82	-29741.4	0.000000	0.000000	6.380878	0.007026	NaN	0.000000	0.001624	0.001637	28.0798	0.093276	0.002007	46.4833	-142.187	12.4185	-0.051423	0.378918	-0.720509	-0.721841	0.007026	46.4833	-0.720622	-3.740753E+9	-1.878256E-12	NaN
431	1.000000	0.422290	7.36928e+06	-55539.1	1005.82	-29741.4	0.000000	0.000000	6.422914	-0.075319	NaN	0.000000	0.001658	0.001626	28.0792	0.140913	0.001993	70.7035	-148.418	-166.31	-0.030058	0.420974	-0.678470	-0.679786	-0.075319	70.7035	-0.677671	-9.690550E+8	7.772420E-11	NaN
431	1.000000	0.464286	7.36928e+06	-55539.1	1005.82	-29741.4	0.000000	0.000000	6.464913	-0.017097	NaN	0.000000	0.001634	0.001661	28.0804	0.070588	0.002041	34.589	90.4327	13.5435	-0.027493	0.462957	-0.636473	-0.637803	-0.017097	34.589	-0.636103	-2.610991E+8	6.548202E-11	NaN
431	1.000000	0.506297	7.36928e+06	-55539.1	1005.82	-29741.4	0.000000	0.000000	6.506925	0.031637	NaN	0.000000	0.001633	0.001644	28.0804	0.088358	0.001895	46.6269	125.935	-163.41	0.023829	0.504994	-0.594463	-0.595765	0.031637	46.6269	-0.594971	-7.098848E+7	-4.456620E-10	NaN
431	1.000000	0.548357	7.36928e+06	-55539.1	1005.82	-29741.4	0.000000	0.000000	6.548981	-0.063875	NaN	0.000000	0.001638	0.001617	28.0805	0.043058	0.002059	20.9079	29.2795	15.2758	-0.020235	0.546914	-0.552403	-0.553846	-0.063875	20.9079	-0.550112	-1.704123E+7	3.748250E-9	NaN
431	1.000000	0.590352	7.36928e+06	-55539.1	1005.82	-29741.4	0.000000	0.000000	6.590978	-0.016976	NaN	0.000000	0.001649	0.001625	28.0794	0.150150	0.001953	76.895	-13.0021	-169.603	0.037716	0.589078	-0.510408	-0.511682	-0.016976	76.895	-0.510243	-4.76206e+06	3.564845E-9	NaN
431	1.000000	0.632359	7.36928e+06	-55539.1	1005.82	-29741.4	0.000000	0.000000	6.632988	0.054057	NaN	0.000000	0.001585	0.001622	28.0792	0.148025	0.002072	71.4467	-139.617	14.0456	0.056320	0.631009	-0.468401	-0.469751	0.054057	71.4467	-0.468969	-1.26165e+06	-4.284621E-8	NaN
431	1.000000	0.674378	7.36928e+06	-55539.1	1005.82	-29741.4	0.000000	0.000000	6.675002	-0.071626	NaN	0.000000	0.001606	0.001621	28.0791	0.120134	0.001918	62.6436	-166.934	-168.216	0.005044	0.673074	-0.426382	-0.427686	-0.071626	62.6436	-0.425525	-308115	2.324644E-7	NaN
431	1.000000	0.716392	7.36928e+06	-55539.1	1005.82	-29741.4	0.000000	0.000000	6.717019	-0.006232	NaN	0.000000	0.001578	0.001615	28.0804	0.060505	0.002054	29.4533	159.94	16.178	0.030682	0.715034	-0.384368	-0.385726	-0.006232	29.4533	-0.384209	-79478.6	7.841147E-8	NaN
431	1.000000	0.758434	7.36928e+06	-55539.1	1005.82	-29741.4	0.000000	0.000000	6.759059	-0.028747	NaN	0.000000	0.001571	0.001631	28.0802	0.019272	0.001966	9.802206	-84.6688	-166.539	0.000593	0.757157	-0.342326	-0.343603	-0.028747	9.802206	-0.340126	-18339.9	1.567479E-6	NaN
431	1.000000	0.800454	7.36928e+06	-55539.1	1005.82	-29741.4	0.000000	0.000000	6.801083	0.027766	NaN	0.000000	0.001628	0.001652	28.0804	0.066610	0.001992	33.431	-50.6845	10.9114	0.019755	0.799084	-0.300305	-0.301676	0.027766	33.431	-0.300928	-4857.9	-5.715637E-6	NaN
431	1.000000	0.842449	7.36928e+06	-55539.1	1005.82	-29741.4	0.000000	0.000000	6.843077	0.013576	NaN	0.000000	0.001651	0.001654	28.0793	0.052611	0.001984	26.5203	-137.563	-165.986	-0.007248	0.841130	-0.258310	-0.259630	0.013576	26.5203	-0.258694	-1119.17	-1.213068E-5	NaN
431	1.000000	0.884450	7.36928e+06	-55539.1	1005.82	-29741.4	0.000000	0.000000	6.885078	0.026533	NaN	0.000000	0.001570	0.001616	28.0791	0.128400	0.002045	62.7733	-109.46	15.2834	0.000293	0.883092	-0.216310	-0.217667	0.026533	62.7733	-0.216627	-245.277	-0.000108	NaN
431	1.000000	0.926510	7.36928e+06	-55539.1	1005.82	-29741.4	0.000000	0.000000	6.927139	0.066010	NaN	0.000000	0.001551	0.001632	28.0799	0.048680	0.002000	24.3431	13.7019	-168.155	0.018015	0.925148	-0.174250	-0.175611	0.066010	24.3431	-0.176284	-52.7241	-0.001252	NaN
431	1.000000	0.968508	7.36928e+06	-55539.1	1005.82	-29741.4	0.000000	0.000000	6.969136	0.010001	NaN	0.000000	0.001587	0.001641	28.0792	0.086747	0.001984	43.727	-25.2379	13.4691	0.042670	0.967151	-0.132251	-0.133609	0.010001	43.727	-0.132423	-8.489314	-0.001178	NaN
431	1.000000	1.010550	7.36928e+06	-55539.1	1005.82	-29741.4	0.000000	0.000000	7.011177	0.013393	NaN	0.000000	0.001669	0.001645	28.0802	0.025274	0.001954	12.9342	-173.906	-164.283	-0.054827	1.009215	-0.090210	-0.091545	0.013393	12.9342	-0.090987	-1.139983	-0.011748	NaN
431	1.000000	1.052528	7.36928e+06	-55539.1	1005.82	-29741.4	0.000000	0.000000	7.053154	-0.026598	NaN	0.000000	0.001645	0.001701	28.0803	0.032758	0.001965	16.6752	-59.6232	15.1953	-0.064045	1.051177	-0.048231	-0.049582	-0.026598	16.6752	-0.047035	-0.074157	0.358666	NaN
431	1.000000	1.094557	7.36928e+06	-55539.1	1005.82	-29741.4	0.000000	0.000000	7.095185	0.006508	NaN	0.000000	0.001598	0.001690	28.0804	0.068751	0.002068	33.2391	137.682	-168.635	0.061579	1.093277	-0.006202	-0.007483	0.006508	33.2391	-0.006349	-0.004249	-1.531778	NaN
431	2.000000	1.119563	7.36928e+06	-55539.1	1005.82	-29741.4	0.000000	0.000000	7.120751	13.642	NaN	0.000000	0.001592	0.001685	28.079	14.6475	0.001712	8554.65	6.806151	3.425626	12.744	1.119264	0.018803	0.018505	13.642	8554.65	0.017607	0.018921	720.995	56820.3
431	2.000000	1.130004	7.36928e+06	-55539.1	1005.82	-29741.4	0.000000	0.000000	7.131914	31.1764	NaN	0.000000	0.001606	0.001676	28.0791	25.5058	0.001809	14103	7.657452	179.199	31.6349	1.129683	0.029244	0.028923	31.1764	14103	0.027587	0.035890	868.672	68014
431	2.000000	1.140469	7.36928e+06	-55539.1	1005.82	-29741.4	0.000000	0.000000	7.143782	65.3034	NaN	0.000000	0.001619	0.001684	28.0789	34.8519	0.001591	21901.1	4.683352	-1.993006	61.9172	1.140087	0.039709	0.039327	65.3034	21901.1	0.037473	0.057661	1132.55	83329.5
431	2.000000	1.150933	7.36928e+06	-55539.1	1005.82	-29741.4	0.000000	0.000000	7.155655	99.5301	NaN	0.000000	0.001559	0.001724	28.0804	46.2486	0.001731	26714.8	6.796316	173.625	97.456	1.150691	0.050174	0.049931	99.5301	26714.8	0.047379	0.084486	1178.07	83972
431	2.000000	1.161454	7.36928e+06	-55539.1	1005.82	-29741.4	0.000000	0.000000	7.168188	148.452	NaN	0.000000	0.001586	0.001764	28.0804	55.9857	0.001644	34050.5	6.461747	-7.958725	146.613	1.161189	0.060694	0.060429	148.452	34050.5	0.057425	0.116736	1271.69	91053.1
431	2.000000	1.172017	7.36928e+06	-55539.1	1005.82	-29741.4	0.000000	0.000000	7.180909	200.913	NaN	0.000000	0.001610	0.001698	28.0806	66.2474	0.001774	37340.6	6.651482	172.819	201.957	1.171561	0.071257	0.070801	200.913	37340.6	0.067222	0.152970	1313.42	87227.2
431	2.000000	1.182584	7.36928e+06	-55539.1	1005.82	-29741.4	0.000000	0.000000	7.193317	245.652	NaN	0.000000	0.001608	0.001750	28.0791	76.5827	0.001732	44218.3	0.518589	-4.002406	251.573	1.182355	0.081825	0.081595	245.652	44218.3	0.077658	0.196627	1249.33	91107.4
431	2.000000	1.192949	7.36928e+06	-55539.1	1005.82	-29741.4	0.000000	0.000000	7.207354	334.915	NaN	0.000000	0.001607	0.001759	28.0791	88.0199	0.001771	49708.6	4.736239	171.472	334.615	1.192566	0.092190	0.091806	334.915	49708.6	0.087136	0.240698	1391.43	92569.6
431	2.000000	1.203349	7.36928e+06	-55539.1	1005.82	-29741.4	0.000000	0.000000	7.221024	414.421	NaN	0.000000	0.001613	0.001713	28.0794	97.7855	0.001793	54543.6	6.455533	-10.6731	408.617	1.203022	0.102589	0.102262	414.421	54543.6	0.096891	0.290372	1427.2	92478.3
431	2.000000	1.212513	7.36928e+06	-55539.1	1005.82	-29741.4	0.000000	0.000000	7.233075	484.569	NaN	0.000000	0.001627	0.001752	28.079	106.906	0.001767	60514.1	4.753756	-9.814087	487.618	1.212127	0.111754	0.111367	484.569	60514.1	0.105748	0.339236	1428.41	94924.6