File: remote_trans/data/nanoindenter/0828-1/data/Data_2025-08-06,11h17m57s/2025-07-22_16-23-58_1_643.txt
2025-07-22, 16:23:58, 1
Index	Phase	Displacement	Time	Pos X	Pos Y	Pos Z	Rot A	Rot B	Piezo Z	Force A	Force B	Gripper	Voltage A	Voltage B	Temperature	Amplitude force	Amplitude pos	Stiffness	Phase shift	Phase excitation	Force A raw	Displacement raw	HMax	HMax raw	Real Force	Real Stiffness	Contact Depth	Area	Hardness	Reduced Mod.
[#]	[#]	[um]	[s]	[um]	[um]	[um]	[m°]	[m°]	[um]	[uN]	[uN]	[V]	[V]	[V]	[°C]	[uN]	[um]	[N/m]	[°]	[°]	[uN]	[um]	[um]	[um]	[uN]	[N/m]	[um]	[um^2]	[MPa]	[MPa]
643	1.000000	0.002699	7.37134e+06	-44939.1	1005.82	-29774.1	0.000000	0.000000	6.002769	0.003070	NaN	0.000000	0.001775	0.001655	28.0841	0.135603	0.000891	152.17	178.022	-171.249	-0.005041	0.001465	-1.089566	-1.090800	0.003070	152.17	-1.089581	-3.632332E+14	-8.453012E-18	NaN
643	1.000000	0.044670	7.37134e+06	-44939.1	1005.82	-29774.1	0.000000	0.000000	6.044738	-0.040402	NaN	0.000000	0.001830	0.001704	28.0839	0.086002	0.001871	45.9602	-11.225	13.0774	-0.054648	0.043291	-1.047595	-1.048974	-0.040402	45.9602	-1.046936	-9.710027E+13	4.160829E-16	NaN
643	1.000000	0.086670	7.37134e+06	-44939.1	1005.82	-29774.1	0.000000	0.000000	6.086739	-0.014898	NaN	0.000000	0.001764	0.001721	28.0824	0.039741	0.002070	19.1959	-173.098	-163.976	-0.054105	0.085344	-1.005595	-1.006921	-0.014898	19.1959	-1.005013	-2.650061E+13	5.621693E-16	NaN
643	1.000000	0.128706	7.37134e+06	-44939.1	1005.82	-29774.1	0.000000	0.000000	6.128777	0.033096	NaN	0.000000	0.001791	0.001705	28.0825	0.024958	0.002063	12.096	69.5668	14.131	0.007480	0.127376	-0.963559	-0.964889	0.033096	12.096	-0.965611	-7.807385E+12	-4.239013E-15	NaN
643	1.000000	0.170750	7.37134e+06	-44939.1	1005.82	-29774.1	0.000000	0.000000	6.170820	0.007518	NaN	0.000000	0.001824	0.001675	28.0823	0.082725	0.001976	41.8655	140.77	-166.271	0.073399	0.169432	-0.921515	-0.922833	0.007518	41.8655	-0.921650	-1.992878E+12	-3.772295E-15	NaN
643	1.000000	0.212700	7.37134e+06	-44939.1	1005.82	-29774.1	0.000000	0.000000	6.212771	0.042149	NaN	0.000000	0.001695	0.001737	28.0822	0.131952	0.001987	66.4009	157.295	15.2901	-0.013298	0.211421	-0.879565	-0.880844	0.042149	66.4009	-0.880041	-5.460843E+11	-7.718335E-14	NaN
643	1.000000	0.254793	7.37134e+06	-44939.1	1005.82	-29774.1	0.000000	0.000000	6.254863	0.019262	NaN	0.000000	0.001759	0.001660	28.0835	0.074716	0.002040	36.6251	168.033	-168.328	0.123081	0.253503	-0.837473	-0.838762	0.019262	36.6251	-0.837867	-1.466877E+11	-1.313145E-13	NaN
643	1.000000	0.296755	7.37134e+06	-44939.1	1005.82	-29774.2	0.000000	0.000000	6.296824	-0.011392	NaN	0.000000	0.001737	0.001699	28.0836	0.075922	0.002066	36.7424	109.201	15.5077	0.031069	0.295397	-0.795510	-0.796868	-0.011392	36.7424	-0.795277	-3.879207E+10	2.936719E-13	NaN
643	1.000000	0.338793	7.37134e+06	-44939.1	1005.82	-29774.2	0.000000	0.000000	6.338861	-0.021169	NaN	0.000000	0.001696	0.001698	28.0834	0.025450	0.001935	13.1489	-20.877	-165.811	-0.035269	0.337543	-0.753472	-0.754722	-0.021169	13.1489	-0.752265	-1.009355E+10	2.097259E-12	NaN
643	1.000000	0.380823	7.37134e+06	-44939.1	1005.82	-29774.2	0.000000	0.000000	6.380895	0.052145	NaN	0.000000	0.001711	0.001714	28.0819	0.029938	0.001949	15.3639	-126.607	12.7101	0.036613	0.379489	-0.711442	-0.712776	0.052145	15.3639	-0.713987	-3.037054E+9	-1.716972E-11	NaN
643	1.000000	0.422813	7.37134e+06	-44939.1	1005.82	-29774.2	0.000000	0.000000	6.422883	0.006867	NaN	0.000000	0.001706	0.001683	28.0818	0.022331	0.002064	10.8216	-77.6313	-167.459	-0.049114	0.421480	-0.669452	-0.670785	0.006867	10.8216	-0.669928	-7.592766E+8	-9.043941E-12	NaN
643	1.000000	0.464897	7.37134e+06	-44939.1	1005.82	-29774.2	0.000000	0.000000	6.464963	-0.058363	NaN	0.000000	0.001714	0.001708	28.0819	0.047219	0.001941	24.3332	-110.168	13.6801	0.041541	0.463479	-0.627369	-0.628786	-0.058363	24.3332	-0.625570	-1.871416E+8	3.118664E-10	NaN
643	1.000000	0.506880	7.37134e+06	-44939.1	1005.82	-29774.2	0.000000	0.000000	6.506948	-0.031725	NaN	0.000000	0.001708	0.001719	28.083	0.090941	0.001966	46.247	27.3366	-167.474	0.053310	0.505575	-0.585385	-0.586690	-0.031725	46.247	-0.584870	-5.151409E+7	6.158479E-10	NaN
643	1.000000	0.548922	7.37134e+06	-44939.1	1005.82	-29774.2	0.000000	0.000000	6.548989	-0.041430	NaN	0.000000	0.001713	0.001712	28.083	0.010597	0.002154	4.920501	-7.967447	12.6168	-0.060244	0.547518	-0.543343	-0.544747	-0.041430	4.920501	-0.537029	-1.122377E+7	3.691268E-9	NaN
643	1.000000	0.590897	7.37134e+06	-44939.1	1005.82	-29774.2	0.000000	0.000000	6.590965	-0.028622	NaN	0.000000	0.001775	0.001693	28.0832	0.110176	0.002050	53.7436	109.452	-165.662	0.013565	0.589648	-0.501368	-0.502617	-0.028622	53.7436	-0.500969	-3.53619e+06	8.093892E-9	NaN
643	1.000000	0.632928	7.37134e+06	-44939.1	1005.82	-29774.2	0.000000	0.000000	6.632996	-0.031313	NaN	0.000000	0.001776	0.001717	28.0817	0.014174	0.001981	7.155064	-23.139	15.47	-0.034517	0.631606	-0.459337	-0.460659	-0.031313	7.155064	-0.456055	-830909	3.768512E-8	NaN
643	1.000000	0.674971	7.37134e+06	-44939.1	1005.82	-29774.2	0.000000	0.000000	6.675039	-0.052501	NaN	0.000000	0.001796	0.001703	28.0819	0.056360	0.002154	26.1682	-92.465	-166.381	-0.032003	0.673640	-0.417294	-0.418625	-0.052501	26.1682	-0.415789	-224212	2.341578E-7	NaN
643	1.000000	0.716959	7.37134e+06	-44939.1	1005.82	-29774.2	0.000000	0.000000	6.717025	-0.089830	NaN	0.000000	0.001678	0.001692	28.0835	0.039791	0.002030	19.6039	42.3366	13.6698	-0.149647	0.715553	-0.375306	-0.376712	-0.089830	19.6039	-0.371869	-52849.6	1.699723E-6	NaN
643	1.000000	0.758962	7.37134e+06	-44939.1	1005.82	-29774.2	0.000000	0.000000	6.759030	-0.045103	NaN	0.000000	0.001724	0.001720	28.0821	0.072471	0.002058	35.209	45.3627	-164.684	-0.028813	0.757680	-0.333303	-0.334585	-0.045103	35.209	-0.332342	-14116.6	3.194993E-6	NaN
643	1.000000	0.800966	7.37134e+06	-44939.1	1005.82	-29774.2	0.000000	0.000000	6.801035	-0.029191	NaN	0.000000	0.001752	0.001698	28.0841	0.075406	0.001992	37.8525	-159.608	14.0312	-0.002231	0.799580	-0.291299	-0.292685	-0.029191	37.8525	-0.290720	-3420.5	8.534038E-6	NaN
643	1.000000	0.843000	7.37134e+06	-44939.1	1005.82	-29774.2	0.000000	0.000000	6.843072	0.063262	NaN	0.000000	0.001723	0.001688	28.0842	0.108582	0.001970	55.1111	-115.839	-164.032	-0.001400	0.841716	-0.249265	-0.250549	0.063262	55.1111	-0.250126	-825.867	-7.660016E-5	NaN
643	1.000000	0.884999	7.37134e+06	-44939.1	1005.82	-29774.2	0.000000	0.000000	6.885070	0.038619	NaN	0.000000	0.001769	0.001714	28.0833	0.104123	0.002023	51.468	90.421	13.9115	0.076011	0.883690	-0.207266	-0.208575	0.038619	51.468	-0.207828	-176.847	-0.000218	NaN
643	1.000000	0.927040	7.37134e+06	-44939.1	1005.82	-29774.2	0.000000	0.000000	6.927111	0.043127	NaN	0.000000	0.001741	0.001715	28.082	0.124669	0.002038	61.1626	-78.9105	-164.568	0.094070	0.925717	-0.165225	-0.166548	0.043127	61.1626	-0.165754	-34.6365	-0.001245	NaN
643	1.000000	0.969057	7.37134e+06	-44939.1	1005.82	-29774.2	0.000000	0.000000	6.969126	-0.006663	NaN	0.000000	0.001711	0.001727	28.082	0.036225	0.002081	17.4046	92.5988	16.0097	-0.077730	0.967700	-0.123208	-0.124565	-0.006663	17.4046	-0.122921	-5.529456	0.001205	NaN
643	1.000000	1.011043	7.37134e+06	-44939.1	1005.82	-29774.2	0.000000	0.000000	7.011113	0.011310	NaN	0.000000	0.001732	0.001712	28.0821	0.063076	0.001908	33.0557	43.3228	-163.897	-0.033960	1.009723	-0.081222	-0.082542	0.011310	33.0557	-0.081479	-0.673714	-0.016788	NaN
643	1.000000	1.053072	7.37134e+06	-44939.1	1005.82	-29774.2	0.000000	0.000000	7.053142	0.026553	NaN	0.000000	0.001716	0.001695	28.0834	0.051488	0.002116	24.3379	-155.278	15.0656	0.020417	1.051747	-0.039193	-0.040518	0.026553	24.3379	-0.040011	-0.045258	-0.586716	NaN
643	1.000000	1.095101	7.37134e+06	-44939.1	1005.82	-29774.2	0.000000	0.000000	7.095403	5.665334	NaN	0.000000	0.001629	0.001739	28.083	6.581501	0.001943	3386.76	15.806	-172.974	4.348261	1.093745	0.002836	0.001480	5.665334	3386.76	0.001581	0.001219	4647.03	88620.1
643	2.000000	1.107243	7.37134e+06	-44939.1	1005.82	-29774.2	0.000000	0.000000	7.108430	27.1754	NaN	0.000000	0.001616	0.001759	28.0831	19.9539	0.001795	11113.8	7.335994	0.127874	25.8607	1.106918	0.014978	0.014653	27.1754	11113.8	0.013145	0.012890	2108.23	89435.1
643	2.000000	1.117705	7.37134e+06	-44939.1	1005.82	-29774.2	0.000000	0.000000	7.120147	57.7123	NaN	0.000000	0.001643	0.001719	28.0818	30.4655	0.001751	17394.4	3.960444	-179.937	56.6672	1.117407	0.025440	0.025142	57.7123	17394.4	0.022952	0.027395	2106.7	96017.4
643	2.000000	1.128156	7.37134e+06	-44939.1	1005.82	-29774.2	0.000000	0.000000	7.132261	98.1769	NaN	0.000000	0.001661	0.001743	28.0818	40.6005	0.001741	23326.8	5.061804	-4.020028	95.467	1.127866	0.035891	0.035601	98.1769	23326.8	0.032734	0.046601	2106.73	98725.3
643	2.000000	1.138601	7.37135e+06	-44939.1	1005.82	-29774.2	0.000000	0.000000	7.145030	154.733	NaN	0.000000	0.001679	0.001737	28.0819	51.3689	0.001782	28823.4	4.030693	176.228	151.48	1.138362	0.046336	0.046097	154.733	28823.4	0.042309	0.070133	2206.29	99439.4
643	2.000000	1.149157	7.37135e+06	-44939.1	1005.82	-29774.2	0.000000	0.000000	7.158521	226.116	NaN	0.000000	0.001708	0.001735	28.0819	61.3029	0.001768	34681.6	7.425355	-8.956262	224.596	1.148729	0.056892	0.056464	226.116	34681.6	0.052003	0.098703	2290.86	100857
643	2.000000	1.159663	7.37135e+06	-44939.1	1005.82	-29774.2	0.000000	0.000000	7.172377	307.593	NaN	0.000000	0.001669	0.001821	28.0833	73.8859	0.001899	38914.8	1.574608	176.1	306.57	1.159372	0.067398	0.067107	307.593	38914.8	0.061470	0.131133	2345.66	98182.1
643	2.000000	1.170143	7.37135e+06	-44939.1	1005.82	-29774.2	0.000000	0.000000	7.186772	402.855	NaN	0.000000	0.001622	0.001787	28.0832	84.8732	0.001932	43937.8	6.840388	-9.857018	400.096	1.169774	0.077878	0.077509	402.855	43937.8	0.071001	0.168185	2395.31	97885.4
643	2.000000	1.180610	7.37135e+06	-44939.1	1005.82	-29774.2	0.000000	0.000000	7.201582	508.493	NaN	0.000000	0.001655	0.001738	28.0834	92.8859	0.001722	53940.7	2.296630	173.013	504.943	1.180252	0.088345	0.087987	508.493	53940.7	0.081275	0.212953	2387.82	106794
643	2.000000	1.191101	7.37135e+06	-44939.1	1005.82	-29774.2	0.000000	0.000000	7.216697	621.002	NaN	0.000000	0.001640	0.001760	28.0821	103.977	0.001731	60068.5	8.169415	-13.2319	617.428	1.190637	0.098835	0.098372	621.002	60068.5	0.091082	0.260266	2386.03	107575
643	2.000000	1.196093	7.37135e+06	-44939.1	1005.82	-29774.2	0.000000	0.000000	7.224249	683.278	NaN	0.000000	0.001625	0.001758	28.0821	109.092	0.001857	58757.1	7.813837	-12.8136	679.374	1.195673	0.103828	0.103408	683.278	58757.1	0.095107	0.280961	2431.93	101277