File: remote_trans/data/nanoindenter/0828-1/data/Data_2025-08-06,11h17m57s/2025-07-22_16-23-58_1_783.txt
2025-07-22, 16:23:58, 1
Index	Phase	Displacement	Time	Pos X	Pos Y	Pos Z	Rot A	Rot B	Piezo Z	Force A	Force B	Gripper	Voltage A	Voltage B	Temperature	Amplitude force	Amplitude pos	Stiffness	Phase shift	Phase excitation	Force A raw	Displacement raw	HMax	HMax raw	Real Force	Real Stiffness	Contact Depth	Area	Hardness	Reduced Mod.
[#]	[#]	[um]	[s]	[um]	[um]	[um]	[m°]	[m°]	[um]	[uN]	[uN]	[V]	[V]	[V]	[°C]	[uN]	[um]	[N/m]	[°]	[°]	[uN]	[um]	[um]	[um]	[uN]	[N/m]	[um]	[um^2]	[MPa]	[MPa]
783	1.000000	0.002538	7.37271e+06	-39289.1	1055.82	-29794.3	0.000000	0.000000	6.002819	-0.006270	NaN	0.000000	0.001737	0.001672	28.0838	0.086425	0.000925	93.4074	-33.492	-168.166	-0.017909	0.001228	-1.092611	-1.093920	-0.006270	93.4074	-1.092561	-3.982829E+14	1.574239E-17	NaN
783	1.000000	0.044464	7.37271e+06	-39289.1	1055.82	-29794.3	0.000000	0.000000	6.044746	0.007021	NaN	0.000000	0.001660	0.001625	28.0829	0.018625	0.001918	9.709181	51.3196	15.7797	0.013464	0.043078	-1.050684	-1.052070	0.007021	9.709181	-1.051227	-1.108929E+14	-6.331753E-17	NaN
783	1.000000	0.086462	7.37271e+06	-39289.1	1055.82	-29794.3	0.000000	0.000000	6.086743	-0.024605	NaN	0.000000	0.001624	0.001664	28.0826	0.073295	0.002003	36.5949	162.861	-167.695	0.000358	0.085209	-1.008686	-1.009939	-0.024605	36.5949	-1.008182	-2.923547E+13	8.416022E-16	NaN
783	1.000000	0.128487	7.37271e+06	-39289.1	1055.82	-29794.3	0.000000	0.000000	6.128771	0.079300	NaN	0.000000	0.001689	0.001658	28.0826	0.040676	0.002023	20.1109	-104.047	15.1529	0.003904	0.127157	-0.966662	-0.967991	0.079300	20.1109	-0.969619	-8.841598E+12	-8.968934E-15	NaN
783	1.000000	0.170520	7.37271e+06	-39289.1	1055.82	-29794.4	0.000000	0.000000	6.170798	-0.071865	NaN	0.000000	0.001619	0.001676	28.0838	0.044404	0.002085	21.3005	-36.7288	-162.432	-0.042504	0.169150	-0.924629	-0.925999	-0.071865	21.3005	-0.922098	-2.020856E+12	3.556175E-14	NaN
783	1.000000	0.212533	7.37271e+06	-39289.1	1055.82	-29794.4	0.000000	0.000000	6.212815	0.008043	NaN	0.000000	0.001601	0.001653	28.0835	0.081685	0.002060	39.6604	-175.643	16.4986	-0.031513	0.211168	-0.882615	-0.883980	0.008043	39.6604	-0.882767	-5.944667E+11	-1.353004E-14	NaN
783	1.000000	0.254552	7.37271e+06	-39289.1	1055.82	-29794.4	0.000000	0.000000	6.254834	0.010779	NaN	0.000000	0.001618	0.001633	28.0833	0.061899	0.001948	31.7814	-24.9404	-166.167	0.107817	0.253258	-0.840596	-0.841891	0.010779	31.7814	-0.840851	-1.609967E+11	-6.695008E-14	NaN
783	1.000000	0.296586	7.37271e+06	-39289.1	1055.82	-29794.4	0.000000	0.000000	6.296867	-0.004671	NaN	0.000000	0.001584	0.001634	28.0821	0.095599	0.001895	50.4575	153.165	15.9195	0.008054	0.295207	-0.798562	-0.799941	-0.004671	50.4575	-0.798493	-4.289479E+10	1.088880E-13	NaN
783	1.000000	0.338581	7.37271e+06	-39289.1	1055.82	-29794.4	0.000000	0.000000	6.338861	-0.024730	NaN	0.000000	0.001611	0.001675	28.0819	0.103167	0.002055	50.2086	82.0628	-166.094	0.051232	0.337308	-0.756567	-0.757840	-0.024730	50.2086	-0.756198	-1.141755E+10	2.165967E-12	NaN
783	1.000000	0.380592	7.37271e+06	-39289.1	1055.82	-29794.4	0.000000	0.000000	6.380870	-0.065602	NaN	0.000000	0.001626	0.001675	28.0824	0.088718	0.002056	43.1525	137.463	16.1927	0.007453	0.379282	-0.714557	-0.715867	-0.065602	43.1525	-0.713417	-2.983118E+9	2.199111E-11	NaN
783	1.000000	0.422616	7.37271e+06	-39289.1	1055.82	-29794.4	0.000000	0.000000	6.422899	0.039847	NaN	0.000000	0.001626	0.001626	28.0835	0.009584	0.001945	4.928130	-54.5741	-164.198	0.042285	0.421333	-0.672533	-0.673815	0.039847	4.928130	-0.678597	-9.977395E+8	-3.993751E-11	NaN
783	1.000000	0.464619	7.37271e+06	-39289.1	1055.82	-29794.4	0.000000	0.000000	6.464901	0.011824	NaN	0.000000	0.001658	0.001667	28.0836	0.113565	0.001926	58.9684	160.841	11.0195	-0.008199	0.463292	-0.630529	-0.631856	0.011824	58.9684	-0.630679	-2.199653E+8	-5.375482E-11	NaN
783	1.000000	0.506645	7.37271e+06	-39289.1	1055.82	-29794.4	0.000000	0.000000	6.506924	-0.051203	NaN	0.000000	0.001640	0.001679	28.0837	0.071726	0.001963	36.5377	-9.652894	-164.898	-0.050771	0.505349	-0.588503	-0.589799	-0.051203	36.5377	-0.587452	-5.591582E+7	9.157177E-10	NaN
783	1.000000	0.548679	7.37271e+06	-39289.1	1055.82	-29794.4	0.000000	0.000000	6.548962	0.057117	NaN	0.000000	0.001669	0.001704	28.0837	0.076762	0.002010	38.1952	7.741558	17.8991	-0.041405	0.547281	-0.546470	-0.547867	0.057117	38.1952	-0.547591	-1.572490E+7	-3.632257E-9	NaN
783	1.000000	0.590675	7.37271e+06	-39289.1	1055.82	-29794.4	0.000000	0.000000	6.590954	-0.054047	NaN	0.000000	0.001673	0.001723	28.0829	0.128712	0.002008	64.093	35.1436	-164.64	-0.012414	0.589392	-0.504474	-0.505757	-0.054047	64.093	-0.503841	-3.87783e+06	1.393734E-8	NaN
783	1.000000	0.632740	7.37271e+06	-39289.1	1055.82	-29794.4	0.000000	0.000000	6.633023	0.022366	NaN	0.000000	0.001643	0.001732	28.0828	0.094723	0.001972	48.0278	88.2949	17.6895	-0.091250	0.631374	-0.462408	-0.463775	0.022366	48.0278	-0.462757	-1.03218e+06	-2.166890E-8	NaN
783	1.000000	0.674736	7.37271e+06	-39289.1	1055.82	-29794.4	0.000000	0.000000	6.675017	-0.010875	NaN	0.000000	0.001658	0.001730	28.0826	0.032421	0.001920	16.8881	-108.407	-168.39	-0.059602	0.673429	-0.420412	-0.421719	-0.010875	16.8881	-0.419929	-256692	4.236581E-8	NaN
783	1.000000	0.716739	7.37271e+06	-39289.1	1055.82	-29794.4	0.000000	0.000000	6.717022	0.053835	NaN	0.000000	0.001655	0.001750	28.0839	0.058521	0.001904	30.7314	21.7268	14.3308	0.043331	0.715358	-0.378410	-0.379790	0.053835	30.7314	-0.379724	-68536.6	-7.854890E-7	NaN
783	1.000000	0.758753	7.37271e+06	-39289.1	1055.82	-29794.4	0.000000	0.000000	6.759036	0.036688	NaN	0.000000	0.001613	0.001779	28.0838	0.039828	0.001927	20.6662	-25.0347	-164.186	0.044603	0.757411	-0.336395	-0.337737	0.036688	20.6662	-0.337727	-16920	-2.168334E-6	NaN
783	1.000000	0.800791	7.37272e+06	-39289.1	1055.82	-29794.4	0.000000	0.000000	6.801074	0.055851	NaN	0.000000	0.001648	0.001738	28.0837	0.016727	0.001834	9.118282	103.448	13.3462	0.057376	0.799371	-0.294358	-0.295778	0.055851	9.118282	-0.298952	-4539.66	-1.230294E-5	NaN
783	1.000000	0.842800	7.37272e+06	-39289.1	1055.82	-29794.4	0.000000	0.000000	6.843080	-0.024290	NaN	0.000000	0.001732	0.001804	28.0826	0.024202	0.002005	12.0718	28.2121	-167.57	-0.040775	0.841520	-0.252348	-0.253629	-0.024290	12.0718	-0.250839	-847.111	2.867438E-5	NaN
783	1.000000	0.884780	7.37272e+06	-39289.1	1055.82	-29794.4	0.000000	0.000000	6.885065	0.088270	NaN	0.000000	0.001726	0.001727	28.0829	0.104304	0.001918	54.3759	69.7897	10.6582	0.056969	0.883426	-0.210368	-0.211723	0.088270	54.3759	-0.211586	-203.456	-0.000434	NaN
783	1.000000	0.926859	7.37272e+06	-39289.1	1055.82	-29794.4	0.000000	0.000000	6.927139	-0.007358	NaN	0.000000	0.001736	0.001696	28.0828	0.067776	0.001995	33.9661	-149.524	-171.17	0.024847	0.925587	-0.168290	-0.169561	-0.007358	33.9661	-0.168127	-38.1092	0.000193	NaN
783	1.000000	0.968834	7.37272e+06	-39289.1	1055.82	-29794.4	0.000000	0.000000	6.969115	-0.019794	NaN	0.000000	0.001609	0.001723	28.0839	0.111544	0.002144	52.0318	58.3301	12.9302	-0.014777	0.967502	-0.126314	-0.127647	-0.019794	52.0318	-0.126029	-6.372489	0.003106	NaN
783	1.000000	1.010847	7.37272e+06	-39289.1	1055.82	-29794.4	0.000000	0.000000	7.011131	0.065525	NaN	0.000000	0.001571	0.001710	28.084	0.058532	0.002000	29.2666	41.77	-167.503	0.114046	1.009555	-0.084302	-0.085594	0.065525	29.2666	-0.085981	-0.867658	-0.075520	NaN
783	1.000000	1.052898	7.37272e+06	-39289.1	1055.82	-29794.4	0.000000	0.000000	7.053179	-0.011034	NaN	0.000000	0.001680	0.001692	28.0838	0.071513	0.002005	35.6652	-151.643	15.2686	0.020136	1.051495	-0.042251	-0.043654	-0.011034	35.6652	-0.042019	-0.052100	0.211782	NaN
783	1.000000	1.094859	7.37272e+06	-39289.1	1055.82	-29794.4	0.000000	0.000000	7.095262	2.952666	NaN	0.000000	0.001590	0.001759	28.0838	3.674534	0.001850	1985.87	13.5994	-169.053	1.851785	1.093563	-0.000289	-0.001585	2.952666	1985.87	-0.001405	-0.001022	-2889.09	NaN
783	2.000000	1.109868	7.37272e+06	-39289.1	1055.82	-29794.4	0.000000	0.000000	7.111048	21.8691	NaN	0.000000	0.001634	0.001757	28.0831	19.0005	0.001965	9671.84	7.275208	4.080458	21.6216	1.109582	0.014720	0.014433	21.8691	9671.84	0.013024	0.012740	1716.56	78288
783	2.000000	1.120303	7.37272e+06	-39289.1	1055.82	-29794.4	0.000000	0.000000	7.122538	47.5447	NaN	0.000000	0.001619	0.001756	28.083	29.3495	0.001706	17206.1	3.609937	-179.405	45.5993	1.119973	0.025155	0.024825	47.5447	17206.1	0.023082	0.027619	1721.43	94590.6
783	2.000000	1.130791	7.37272e+06	-39289.1	1055.82	-29794.4	0.000000	0.000000	7.134259	77.5645	NaN	0.000000	0.001617	0.001740	28.0827	39.5245	0.001950	20265.3	6.072972	-1.779623	74.7211	1.130495	0.035642	0.035347	77.5645	20265.3	0.032772	0.046685	1661.45	85691.8
783	2.000000	1.141300	7.37272e+06	-39289.1	1055.82	-29794.4	0.000000	0.000000	7.146611	122.4	NaN	0.000000	0.001684	0.001758	28.0839	48.7685	0.001680	29026.4	4.712014	175.232	123.043	1.140941	0.046151	0.045792	122.4	29026.4	0.042989	0.071980	1700.46	98846
783	2.000000	1.151807	7.37272e+06	-39289.1	1055.82	-29794.4	0.000000	0.000000	7.159221	173.594	NaN	0.000000	0.001711	0.001767	28.0839	60.0399	0.001754	34232.1	7.501726	-7.818455	171.996	1.151305	0.056658	0.056157	173.594	34232.1	0.052855	0.101441	1711.28	98197.5
783	2.000000	1.162307	7.37272e+06	-39289.1	1055.82	-29794.4	0.000000	0.000000	7.172199	233.866	NaN	0.000000	0.001725	0.001764	28.0837	70.9035	0.001846	38399.4	7.867607	170.898	232.776	1.161854	0.067159	0.066706	233.866	38399.4	0.062591	0.135263	1728.97	95391.3
783	2.000000	1.172796	7.37272e+06	-39289.1	1055.82	-29794.4	0.000000	0.000000	7.185238	295.948	NaN	0.000000	0.001705	0.001795	28.0826	82.4402	0.001750	47098.6	5.369629	-9.266046	295.479	1.172473	0.077647	0.077325	295.948	47098.6	0.072934	0.176229	1679.34	102504
783	2.000000	1.183201	7.37272e+06	-39289.1	1055.82	-29794.4	0.000000	0.000000	7.199761	396.153	NaN	0.000000	0.001715	0.001755	28.0827	93.3106	0.001757	53094.9	5.629032	169.955	392.743	1.182961	0.088052	0.087812	396.153	53094.9	0.082456	0.218417	1813.75	103796
783	2.000000	1.193778	7.37272e+06	-39289.1	1055.82	-29794.4	0.000000	0.000000	7.214418	495.433	NaN	0.000000	0.001715	0.001753	28.0827	103.706	0.001827	56761	6.441012	-11.2338	493.701	1.193286	0.098629	0.098137	495.433	56761	0.092083	0.265345	1867.13	100674
783	2.000000	1.199342	7.37272e+06	-39289.1	1055.82	-29794.4	0.000000	0.000000	7.222214	549.745	NaN	0.000000	0.001695	0.001714	28.0829	110.137	0.001837	59961.7	6.671983	168.258	554.915	1.198962	0.104194	0.103813	549.745	59961.7	0.097317	0.292644	1878.54	101269