File: remote_trans/data/nanoindenter/0828-1/data/Data_2025-08-06,11h17m57s/2025-07-22_16-23-58_1_566.txt
2025-07-22, 16:23:58, 1
Index	Phase	Displacement	Time	Pos X	Pos Y	Pos Z	Rot A	Rot B	Piezo Z	Force A	Force B	Gripper	Voltage A	Voltage B	Temperature	Amplitude force	Amplitude pos	Stiffness	Phase shift	Phase excitation	Force A raw	Displacement raw	HMax	HMax raw	Real Force	Real Stiffness	Contact Depth	Area	Hardness	Reduced Mod.
[#]	[#]	[um]	[s]	[um]	[um]	[um]	[m°]	[m°]	[um]	[uN]	[uN]	[V]	[V]	[V]	[°C]	[uN]	[um]	[N/m]	[°]	[°]	[uN]	[um]	[um]	[um]	[uN]	[N/m]	[um]	[um^2]	[MPa]	[MPa]
566	1.000000	0.002235	7.37058e+06	-48789.1	1005.82	-29761.2	0.000000	0.000000	6.002797	0.042247	NaN	0.000000	0.001548	0.001648	28.0833	0.055553	0.001018	54.5603	-151.119	-160.146	0.058179	0.000958	-1.051126	-1.052403	0.042247	54.5603	-1.051707	-1.125528E+14	-3.753530E-16	NaN
566	1.000000	0.042188	7.37058e+06	-48789.1	1005.82	-29761.2	0.000000	0.000000	6.042751	0.054001	NaN	0.000000	0.001535	0.001657	28.0829	0.116860	0.001962	59.5753	147.365	-162.796	-0.020245	0.040812	-1.011173	-1.012549	0.054001	59.5753	-1.011852	-3.275769E+13	-1.648511E-15	NaN
566	1.000000	0.082224	7.37058e+06	-48789.1	1005.82	-29761.2	0.000000	0.000000	6.082785	0.023770	NaN	0.000000	0.001526	0.001714	28.0815	0.039340	0.001988	19.7895	-149.918	-166.285	0.052189	0.080915	-0.971137	-0.972446	0.023770	19.7895	-0.972038	-9.530644E+12	-2.494026E-15	NaN
566	1.000000	0.122209	7.37058e+06	-48789.1	1005.82	-29761.2	0.000000	0.000000	6.122770	0.033089	NaN	0.000000	0.001535	0.001667	28.0817	0.017715	0.002029	8.731596	114.046	-166.204	0.056607	0.120925	-0.931152	-0.932436	0.033089	8.731596	-0.933994	-2.924846E+12	-1.131295E-14	NaN
566	1.000000	0.162222	7.37058e+06	-48789.1	1005.82	-29761.2	0.000000	0.000000	6.162782	0.006538	NaN	0.000000	0.001573	0.001659	28.0816	0.070149	0.002034	34.4924	-96.9305	-163.28	-0.054648	0.160910	-0.891139	-0.892451	0.006538	34.4924	-0.891281	-7.748724E+11	-8.437205E-15	NaN
566	1.000000	0.202262	7.37058e+06	-48789.1	1005.82	-29761.2	0.000000	0.000000	6.202823	0.023662	NaN	0.000000	0.001551	0.001672	28.0826	0.010257	0.002038	5.033516	107.19	-164.014	0.035485	0.200978	-0.851099	-0.852383	0.023662	5.033516	-0.854625	-2.473773E+11	-9.565292E-14	NaN
566	1.000000	0.242294	7.37058e+06	-48789.1	1005.82	-29761.2	0.000000	0.000000	6.242854	-0.009787	NaN	0.000000	0.001547	0.001697	28.0827	0.046432	0.002052	22.6327	79.7191	-165.155	-0.089046	0.240924	-0.811067	-0.812437	-0.009787	22.6327	-0.810743	-6.289923E+10	1.556054E-13	NaN
566	1.000000	0.282284	7.37059e+06	-48789.1	1005.82	-29761.2	0.000000	0.000000	6.282846	0.033399	NaN	0.000000	0.001555	0.001669	28.0827	0.115795	0.002043	56.6748	95.3177	-169.574	0.025464	0.280976	-0.771076	-0.772385	0.033399	56.6748	-0.771518	-1.844805E+10	-1.810454E-12	NaN
566	1.000000	0.322286	7.37059e+06	-48789.1	1005.82	-29761.2	0.000000	0.000000	6.322848	0.070324	NaN	0.000000	0.001534	0.001681	28.0828	0.040562	0.001953	20.7719	-60.2993	-162.531	0.119671	0.321019	-0.731075	-0.732342	0.070324	20.7719	-0.733615	-5.624255E+9	-1.250378E-11	NaN
566	1.000000	0.362326	7.37059e+06	-48789.1	1005.82	-29761.2	0.000000	0.000000	6.362884	-0.044550	NaN	0.000000	0.001564	0.001654	28.0814	0.094376	0.002017	46.8013	-13.3216	-163.174	0.020102	0.361012	-0.691035	-0.692348	-0.044550	46.8013	-0.690321	-1.443136E+9	3.087007E-11	NaN
566	1.000000	0.402337	7.37059e+06	-48789.1	1005.82	-29761.2	0.000000	0.000000	6.402900	0.069427	NaN	0.000000	0.001516	0.001670	28.0816	0.034949	0.002019	17.3109	149.611	-165.415	0.028707	0.401017	-0.651024	-0.652344	0.069427	17.3109	-0.654032	-4.599401E+8	-1.509482E-10	NaN
566	1.000000	0.442393	7.37059e+06	-48789.1	1005.82	-29761.2	0.000000	0.000000	6.442951	-0.044380	NaN	0.000000	0.001549	0.001679	28.0817	0.016937	0.001926	8.793280	82.0487	-166.11	-0.008511	0.441082	-0.610968	-0.612279	-0.044380	8.793280	-0.607183	-1.045565E+8	4.244590E-10	NaN
566	1.000000	0.482371	7.37059e+06	-48789.1	1005.82	-29761.2	0.000000	0.000000	6.482933	0.050452	NaN	0.000000	0.001549	0.001695	28.0831	0.068679	0.001871	36.6981	165.921	-162.8	0.083487	0.481028	-0.570990	-0.572332	0.050452	36.6981	-0.572021	-3.424144E+7	-1.473430E-9	NaN
566	1.000000	0.522385	7.37059e+06	-48789.1	1005.82	-29761.2	0.000000	0.000000	6.522947	0.047367	NaN	0.000000	0.001547	0.001716	28.0834	0.090822	0.001917	47.3812	72.8807	-167.853	0.004660	0.521110	-0.530976	-0.532251	0.047367	47.3812	-0.531726	-9.47407e+06	-4.999663E-9	NaN
566	1.000000	0.562411	7.37059e+06	-48789.1	1005.82	-29761.2	0.000000	0.000000	6.562971	0.011789	NaN	0.000000	0.001533	0.001716	28.0831	0.106321	0.002001	53.1309	-125.381	-166.03	0.018165	0.561067	-0.490950	-0.492294	0.011789	53.1309	-0.491116	-2.57627e+06	-4.576149E-9	NaN
566	1.000000	0.602424	7.37059e+06	-48789.1	1005.82	-29761.2	0.000000	0.000000	6.602987	0.073813	NaN	0.000000	0.001512	0.001650	28.0829	0.012279	0.001791	6.854945	31.0665	-167.969	0.023864	0.601054	-0.450937	-0.452307	0.073813	6.854945	-0.459013	-914417	-8.072134E-8	NaN
566	1.000000	0.642413	7.37059e+06	-48789.1	1005.82	-29761.2	0.000000	0.000000	6.642974	0.013663	NaN	0.000000	0.001589	0.001615	28.0816	0.031405	0.001858	16.9005	153.866	-164.349	0.067469	0.641093	-0.410948	-0.412268	0.013663	16.9005	-0.411554	-195207	-6.999480E-8	NaN
566	1.000000	0.682417	7.37059e+06	-48789.1	1005.82	-29761.2	0.000000	0.000000	6.682974	-0.077747	NaN	0.000000	0.001578	0.001626	28.0815	0.048546	0.001993	24.3605	91.9472	-163.729	-0.033234	0.681161	-0.370944	-0.372200	-0.077747	24.3605	-0.368550	-47341.3	1.642266E-6	NaN
566	1.000000	0.722460	7.37059e+06	-48789.1	1005.82	-29761.2	0.000000	0.000000	6.723021	0.009423	NaN	0.000000	0.001601	0.001679	28.0817	0.130965	0.001947	67.2622	138.807	-165.398	-0.020387	0.721172	-0.330900	-0.332189	0.009423	67.2622	-0.331006	-13495	-6.982844E-7	NaN
566	1.000000	0.762511	7.37059e+06	-48789.1	1005.82	-29761.2	0.000000	0.000000	6.763072	0.028430	NaN	0.000000	0.001636	0.001666	28.0831	0.082194	0.002078	39.5623	-3.608145	-168.918	0.019091	0.761177	-0.290850	-0.292184	0.028430	39.5623	-0.291389	-3500.23	-8.122427E-6	NaN
566	1.000000	0.802502	7.37059e+06	-48789.1	1005.82	-29761.2	0.000000	0.000000	6.803065	0.056068	NaN	0.000000	0.001567	0.001645	28.0831	0.065933	0.001955	33.7321	60.6902	-167.593	0.021539	0.801202	-0.250859	-0.252159	0.056068	33.7321	-0.252105	-886.124	-6.327335E-5	NaN
566	1.000000	0.842541	7.37059e+06	-48789.1	1005.82	-29761.2	0.000000	0.000000	6.843104	0.080579	NaN	0.000000	0.001570	0.001642	28.083	0.052522	0.001989	26.4054	-4.525281	-165.426	0.127193	0.841214	-0.210820	-0.212147	0.080579	26.4054	-0.213109	-215.307	-0.000374	NaN
566	1.000000	0.882528	7.37059e+06	-48789.1	1005.82	-29761.2	0.000000	0.000000	6.883091	0.075167	NaN	0.000000	0.001583	0.001619	28.0818	0.059340	0.002088	28.4164	175.131	-165.048	0.130593	0.881197	-0.170833	-0.172164	0.075167	28.4164	-0.172817	-45.9601	-0.001635	NaN
566	1.000000	0.922559	7.37059e+06	-48789.1	1005.82	-29761.2	0.000000	0.000000	6.923121	0.049571	NaN	0.000000	0.001537	0.001650	28.0819	0.047658	0.002060	23.1293	-48.7174	-168.218	0.042380	0.921276	-0.130802	-0.132085	0.049571	23.1293	-0.132409	-8.484136	-0.005843	NaN
566	1.000000	0.962576	7.37059e+06	-48789.1	1005.82	-29761.2	0.000000	0.000000	6.963136	0.016758	NaN	0.000000	0.001588	0.001636	28.0819	0.011787	0.002006	5.875811	174.58	-167.272	-0.026304	0.961307	-0.090785	-0.092054	0.016758	5.875811	-0.092924	-1.264254	-0.013255	NaN
566	1.000000	1.002590	7.37059e+06	-48789.1	1005.82	-29761.2	0.000000	0.000000	7.003151	0.026884	NaN	0.000000	0.001584	0.001595	28.0818	0.034532	0.001841	18.7615	137.264	-166.888	-0.070864	1.001262	-0.050771	-0.052098	0.026884	18.7615	-0.051845	-0.103717	-0.259208	NaN
566	1.000000	1.042605	7.37059e+06	-48789.1	1005.82	-29761.2	0.000000	0.000000	7.043168	0.070183	NaN	0.000000	0.001543	0.001639	28.0829	0.047392	0.002084	22.7425	-20.8773	-168.029	0.042313	1.041310	-0.010756	-0.012051	0.070183	22.7425	-0.013070	-0.008143	-8.619120	NaN
566	2.000000	1.063077	7.37059e+06	-48789.1	1005.82	-29761.2	0.000000	0.000000	7.064298	16.0869	NaN	0.000000	0.001581	0.001633	28.0829	16.5884	0.001993	8322.72	11.2102	-178.312	15.9737	1.062847	0.009716	0.009486	16.0869	8322.72	0.008266	0.007318	2198.38	88890.3
566	2.000000	1.073053	7.37059e+06	-48789.1	1005.82	-29761.2	0.000000	0.000000	7.075157	37.5683	NaN	0.000000	0.001574	0.001617	28.0829	26.7106	0.001718	15544.9	4.931990	-179.48	37.5268	1.072746	0.019692	0.019385	37.5683	15544.9	0.017879	0.019319	1944.67	102182
566	2.000000	1.083046	7.37059e+06	-48789.1	1005.82	-29761.2	0.000000	0.000000	7.086146	61.7726	NaN	0.000000	0.001590	0.001621	28.0817	36.8759	0.001779	20731.6	4.030507	178.596	60.758	1.082800	0.029685	0.029439	61.7726	20731.6	0.027451	0.035625	1733.96	100352
566	2.000000	1.093031	7.37059e+06	-48789.1	1005.82	-29761.2	0.000000	0.000000	7.097825	102.975	NaN	0.000000	0.001603	0.001577	28.0817	46.7151	0.001758	26573.7	4.586228	176.306	103.902	1.092743	0.039670	0.039382	102.975	26573.7	0.036764	0.055932	1841.06	102658
566	2.000000	1.102981	7.37059e+06	-48789.1	1005.82	-29761.2	0.000000	0.000000	7.109730	150.541	NaN	0.000000	0.001605	0.001577	28.0817	56.5942	0.001856	30488.2	5.479879	174.556	147.106	1.102645	0.049620	0.049284	150.541	30488.2	0.045917	0.080211	1876.82	98353.3
566	2.000000	1.112950	7.37059e+06	-48789.1	1005.82	-29761.2	0.000000	0.000000	7.121987	206.171	NaN	0.000000	0.001568	0.001594	28.0817	65.025	0.001831	35513.1	2.082877	176.398	202.506	1.112756	0.059589	0.059395	206.171	35513.1	0.055235	0.109279	1886.64	98150.6
566	2.000000	1.122935	7.37059e+06	-48789.1	1005.82	-29761.2	0.000000	0.000000	7.134273	262.138	NaN	0.000000	0.001550	0.001639	28.0829	74.2871	0.001752	42392.8	5.591139	172.362	260	1.122561	0.069574	0.069200	262.138	42392.8	0.064936	0.144102	1819.11	102030
566	2.000000	1.132947	7.37059e+06	-48789.1	1005.82	-29761.2	0.000000	0.000000	7.146913	326.04	NaN	0.000000	0.001564	0.001653	28.083	83.0846	0.001651	50337.8	4.025173	172.175	326.171	1.132746	0.079587	0.079385	326.04	50337.8	0.074729	0.183854	1773.36	107258
566	2.000000	1.142936	7.37059e+06	-48789.1	1005.82	-29761.2	0.000000	0.000000	7.159945	400.047	NaN	0.000000	0.001567	0.001645	28.0828	92.07	0.001853	49690	6.065542	170.226	398.89	1.142607	0.089575	0.089246	400.047	49690	0.083537	0.223472	1790.14	96035.1
566	2.000000	1.152921	7.37059e+06	-48789.1	1005.82	-29761.2	0.000000	0.000000	7.173090	476.916	NaN	0.000000	0.001573	0.001633	28.0818	102.599	0.001708	60063.6	5.412003	169.775	473.547	1.152522	0.099560	0.099161	476.916	60063.6	0.093605	0.273155	1745.96	104998
566	2.000000	1.154948	7.37059e+06	-48789.1	1005.82	-29761.2	0.000000	0.000000	7.175598	488.602	NaN	0.000000	0.001551	0.001621	28.0821	103.598	0.001719	60263.4	7.956544	167.289	488.071	1.154548	0.101587	0.101187	488.602	60263.4	0.095506	0.283058	1726.16	103488