File: remote_trans/data/nanoindenter/0828-1/data/Data_2025-08-06,11h17m57s/2025-07-22_16-23-58_1_118.txt
2025-07-22, 16:23:58, 1
Index	Phase	Displacement	Time	Pos X	Pos Y	Pos Z	Rot A	Rot B	Piezo Z	Force A	Force B	Gripper	Voltage A	Voltage B	Temperature	Amplitude force	Amplitude pos	Stiffness	Phase shift	Phase excitation	Force A raw	Displacement raw	HMax	HMax raw	Real Force	Real Stiffness	Contact Depth	Area	Hardness	Reduced Mod.
[#]	[#]	[um]	[s]	[um]	[um]	[um]	[m°]	[m°]	[um]	[uN]	[uN]	[V]	[V]	[V]	[°C]	[uN]	[um]	[N/m]	[°]	[°]	[uN]	[um]	[um]	[um]	[uN]	[N/m]	[um]	[um^2]	[MPa]	[MPa]
118	1.000000	0.002916	7.36619e+06	-44539.1	955.819	-29775.9	0.000000	0.000000	6.002796	0.005705	NaN	0.000000	0.001584	0.001675	28.0991	0.064908	0.000840	77.3129	95.4472	-170.722	0.038581	0.001670	-1.077055	-1.078301	0.005705	77.3129	-1.077111	-2.470072E+14	-2.309660E-17	NaN
118	1.000000	0.042856	7.36619e+06	-44539.1	955.818	-29776	0.000000	0.000000	6.042735	-0.002851	NaN	0.000000	0.001608	0.001661	28.0997	0.019953	0.001965	10.1564	104.833	-162.893	-0.038271	0.041593	-1.037115	-1.038378	-0.002851	10.1564	-1.036905	-7.117779E+13	4.005041E-17	NaN
118	1.000000	0.082871	7.36619e+06	-44539.1	955.818	-29776	0.000000	0.000000	6.082749	-0.035768	NaN	0.000000	0.001595	0.001665	28.101	0.104822	0.001974	53.1019	134.111	-166.768	0.023897	0.081568	-0.997100	-0.998403	-0.035768	53.1019	-0.996595	-2.041384E+13	1.752137E-15	NaN
118	1.000000	0.122895	7.36619e+06	-44539.1	955.818	-29776	0.000000	0.000000	6.122773	-0.037636	NaN	0.000000	0.001596	0.001640	28.0997	0.057267	0.002078	27.5623	-81.131	-162.122	-0.015681	0.121541	-0.957076	-0.958430	-0.037636	27.5623	-0.956052	-5.802880E+12	6.485773E-15	NaN
118	1.000000	0.162921	7.36619e+06	-44539.1	955.818	-29776	0.000000	0.000000	6.162803	0.052073	NaN	0.000000	0.001604	0.001706	28.0993	0.060002	0.001978	30.3388	82.8699	-165.762	0.014602	0.161603	-0.917049	-0.918367	0.052073	30.3388	-0.918337	-1.797832E+12	-2.896443E-14	NaN
118	1.000000	0.202912	7.36619e+06	-44539.1	955.818	-29776	0.000000	0.000000	6.202789	-0.068119	NaN	0.000000	0.001615	0.001708	28.0973	0.088260	0.002256	39.1218	-146.195	-163.929	-0.045710	0.201659	-0.877059	-0.878312	-0.068119	39.1218	-0.875753	-4.778307E+11	1.425588E-13	NaN
118	1.000000	0.242956	7.36619e+06	-44539.1	955.819	-29776	0.000000	0.000000	6.242833	-0.046697	NaN	0.000000	0.001635	0.001678	28.0986	0.032379	0.002011	16.1035	114.862	-166.112	-0.104666	0.241633	-0.837015	-0.838338	-0.046697	16.1035	-0.834840	-1.334703E+11	3.498715E-13	NaN
118	1.000000	0.282948	7.36619e+06	-44539.1	955.818	-29776	0.000000	0.000000	6.282828	-0.015115	NaN	0.000000	0.001664	0.001686	28.0969	0.138264	0.002016	68.5832	-152.742	-162.896	-0.052918	0.281658	-0.797023	-0.798313	-0.015115	68.5832	-0.796857	-4.075665E+10	3.708660E-13	NaN
118	1.000000	0.322968	7.36619e+06	-44539.1	955.818	-29776	0.000000	0.000000	6.322847	-0.007603	NaN	0.000000	0.001625	0.001684	28.0987	0.093116	0.001949	47.7833	-34.2052	-166.324	-0.008477	0.321713	-0.757003	-0.758258	-0.007603	47.7833	-0.756884	-1.166555E+10	6.517893E-13	NaN
118	1.000000	0.362978	7.36619e+06	-44539.1	955.819	-29776	0.000000	0.000000	6.362856	-0.048325	NaN	0.000000	0.001596	0.001699	28.0986	0.002318	0.002073	1.117959	-83.6479	-166.733	-0.061621	0.361723	-0.716993	-0.718248	-0.048325	1.117959	-0.684573	-1.204320E+9	4.012643E-11	NaN
118	1.000000	0.403006	7.36619e+06	-44539.1	955.818	-29776	0.000000	0.000000	6.402887	0.040162	NaN	0.000000	0.001677	0.001706	28.0986	0.044557	0.002059	21.6379	157.695	-167.511	0.036910	0.401702	-0.676965	-0.678269	0.040162	21.6379	-0.678357	-9.902351E+8	-4.055814E-11	NaN
118	1.000000	0.443046	7.36619e+06	-44539.1	955.818	-29776	0.000000	0.000000	6.442926	-0.009888	NaN	0.000000	0.001628	0.001695	28.0987	0.085301	0.002147	39.7259	-50.0592	-163.116	0.021281	0.441701	-0.636925	-0.638270	-0.009888	39.7259	-0.636738	-2.663940E+8	3.711680E-11	NaN
118	1.000000	0.483032	7.36619e+06	-44539.1	955.819	-29776	0.000000	0.000000	6.482913	0.015691	NaN	0.000000	0.001646	0.001718	28.0966	0.055685	0.001923	28.9563	153.93	-164.521	-0.119474	0.481722	-0.596939	-0.598249	0.015691	28.9563	-0.597345	-7.654035E+7	-2.050085E-10	NaN
118	1.000000	0.523048	7.36619e+06	-44539.1	955.818	-29776	0.000000	0.000000	6.522925	-0.063337	NaN	0.000000	0.001640	0.001691	28.0958	0.073129	0.001974	37.0486	102.341	-161.966	0.045996	0.521794	-0.556923	-0.558177	-0.063337	37.0486	-0.555641	-2.032641E+7	3.116000E-9	NaN
118	1.000000	0.563070	7.36619e+06	-44539.1	955.819	-29776	0.000000	0.000000	6.562950	0.012680	NaN	0.000000	0.001584	0.001731	28.0965	0.092459	0.002000	46.2389	74.6947	-162.675	0.016167	0.561826	-0.516901	-0.518145	0.012680	46.2389	-0.517107	-5.93407e+06	-2.136757E-9	NaN
118	1.000000	0.603139	7.36619e+06	-44539.1	955.818	-29776	0.000000	0.000000	6.603018	-0.032656	NaN	0.000000	0.001578	0.001800	28.0964	0.022495	0.001892	11.8892	-175.652	-163.399	0.002408	0.601838	-0.476832	-0.478133	-0.032656	11.8892	-0.474772	-1.52161e+06	2.146124E-8	NaN
118	1.000000	0.643150	7.36619e+06	-44539.1	955.818	-29776	0.000000	0.000000	6.643030	0.019422	NaN	0.000000	0.001592	0.001711	28.0968	0.023492	0.001947	12.0683	-21.959	-164.066	0.036106	0.641806	-0.436821	-0.438165	0.019422	12.0683	-0.438028	-462946	-4.195285E-8	NaN
118	1.000000	0.683116	7.36619e+06	-44539.1	955.818	-29776	0.000000	0.000000	6.682995	-0.012382	NaN	0.000000	0.001607	0.001674	28.0962	0.020912	0.002033	10.2867	114.219	-165.474	-0.059690	0.681839	-0.396855	-0.398132	-0.012382	10.2867	-0.395952	-117013	1.058209E-7	NaN
118	1.000000	0.723174	7.36619e+06	-44539.1	955.818	-29776	0.000000	0.000000	6.723052	-0.034074	NaN	0.000000	0.001603	0.001706	28.0969	0.125374	0.001968	63.6934	44.948	-162.432	-0.046093	0.721855	-0.356797	-0.358115	-0.034074	63.6934	-0.356396	-31601.7	1.078232E-6	NaN
118	1.000000	0.763163	7.36619e+06	-44539.1	955.819	-29776	0.000000	0.000000	6.763041	-0.036688	NaN	0.000000	0.001601	0.001697	28.0939	0.016235	0.001958	8.292336	133.087	-163.461	-0.083096	0.761855	-0.316808	-0.318116	-0.036688	8.292336	-0.313490	-7458.42	4.919039E-6	NaN
118	1.000000	0.803209	7.36619e+06	-44539.1	955.819	-29776	0.000000	0.000000	6.803091	0.063540	NaN	0.000000	0.001611	0.001715	28.0946	0.073376	0.001976	37.1396	162.902	-163.023	0.020065	0.801880	-0.276762	-0.278091	0.063540	37.1396	-0.278045	-2205.27	-2.881294E-5	NaN
118	1.000000	0.843212	7.3662e+06	-44539.1	955.819	-29776	0.000000	0.000000	6.843090	-0.052549	NaN	0.000000	0.001590	0.001711	28.0946	0.054801	0.002017	27.1715	-82.2469	-164.289	-0.023261	0.841924	-0.236759	-0.238047	-0.052549	27.1715	-0.235308	-485.384	0.000108	NaN
118	1.000000	0.883210	7.3662e+06	-44539.1	955.818	-29776	0.000000	0.000000	6.883087	-0.051577	NaN	0.000000	0.001677	0.001755	28.0964	0.077970	0.002014	38.7043	-77.2798	-164.705	-0.080496	0.881897	-0.196761	-0.198074	-0.051577	38.7043	-0.195762	-112.155	0.000460	NaN
118	1.000000	0.923234	7.3662e+06	-44539.1	955.818	-29776	0.000000	0.000000	6.923112	-0.032622	NaN	0.000000	0.001627	0.001737	28.095	0.089425	0.001966	45.4952	175.628	-165.246	-0.017559	0.921973	-0.156737	-0.157997	-0.032622	45.4952	-0.156199	-23.4491	0.001391	NaN
118	1.000000	0.963238	7.3662e+06	-44539.1	955.818	-29776	0.000000	0.000000	6.963118	0.005601	NaN	0.000000	0.001634	0.001701	28.0968	0.061284	0.001869	32.7948	-131.026	-163.365	0.001546	0.961887	-0.116733	-0.118084	0.005601	32.7948	-0.116861	-4.171802	-0.001343	NaN
118	1.000000	1.003306	7.3662e+06	-44539.1	955.818	-29776	0.000000	0.000000	7.003185	-0.007330	NaN	0.000000	0.001617	0.001763	28.0934	0.165447	0.001876	88.2018	63.8216	-164.486	-0.069757	1.001965	-0.076665	-0.078006	-0.007330	88.2018	-0.076603	-0.507883	0.014433	NaN
118	1.000000	1.043286	7.3662e+06	-44539.1	955.817	-29776	0.000000	0.000000	7.043295	3.126833	NaN	0.000000	0.001648	0.001711	28.0937	2.434694	0.002046	1190.07	21.0311	-166.795	3.278721	1.041998	-0.036684	-0.037973	3.126833	1190.07	-0.038655	-0.041173	-75.9439	NaN
118	2.000000	1.062870	7.3662e+06	-44539.1	955.817	-29776	0.000000	0.000000	7.063730	23.8581	NaN	0.000000	0.001601	0.001752	28.0927	15.9608	0.001810	8816.82	6.047309	-173.453	22.8815	1.062598	-0.017101	-0.017373	23.8581	8816.82	-0.019131	-0.011936	-1998.84	NaN
118	2.000000	1.072800	7.3662e+06	-44539.1	955.817	-29776	0.000000	0.000000	7.075779	75.4014	NaN	0.000000	0.001596	0.001682	28.095	26.4315	0.001846	14316.2	5.808912	-177.273	73.9242	1.072446	-0.007171	-0.007524	75.4014	14316.2	-0.011121	-0.007027	-10730.1	NaN
118	2.000000	1.082738	7.3662e+06	-44539.1	955.818	-29776	0.000000	0.000000	7.089326	163.194	NaN	0.000000	0.001597	0.001701	28.0937	37.3686	0.001800	20761.9	6.809445	177.885	159.175	1.082393	0.002767	0.002422	163.194	20761.9	-0.003128	-0.002206	-73974.4	NaN
118	2.000000	1.092702	7.3662e+06	-44539.1	955.817	-29776	0.000000	0.000000	7.104065	279.36	NaN	0.000000	0.001619	0.001728	28.0941	46.6979	0.001753	26644.1	0.545159	-179.149	274.442	1.092444	0.012731	0.012473	279.36	26644.1	0.004868	0.004013	69614.9	384276
118	2.000000	1.102814	7.3662e+06	-44539.1	955.817	-29776	0.000000	0.000000	7.119933	419.389	NaN	0.000000	0.001599	0.001738	28.094	59.3282	0.001817	32647.9	6.439763	173.717	420.903	1.102451	0.022843	0.022480	419.389	32647.9	0.013209	0.012970	32334.9	261912
118	2.000000	1.112780	7.3662e+06	-44539.1	955.817	-29776	0.000000	0.000000	7.137025	592.768	NaN	0.000000	0.001576	0.001726	28.0928	68.9101	0.001863	36988.7	4.909116	174.274	590.789	1.112492	0.032809	0.032521	592.768	36988.7	0.020790	0.023798	24908	219063
118	2.000000	1.122713	7.3662e+06	-44539.1	955.818	-29776	0.000000	0.000000	7.154917	786.399	NaN	0.000000	0.001606	0.001744	28.0933	76.6589	0.001729	44336.1	4.811191	173.106	783.236	1.122425	0.042742	0.042455	786.399	44336.1	0.029439	0.039589	19864.1	203584
118	2.000000	1.132624	7.3662e+06	-44539.1	955.817	-29776	0.000000	0.000000	7.173537	998.253	NaN	0.000000	0.001614	0.001713	28.093	84.8704	0.002058	41240.8	3.696344	174.874	990.749	1.132367	0.052653	0.052396	998.253	41240.8	0.034499	0.050586	19733.7	167527
118	2.000000	1.142539	7.3662e+06	-44539.1	955.817	-29776	0.000000	0.000000	7.192063	1207.75	NaN	0.000000	0.001587	0.001738	28.0923	90.9736	0.001842	49400.3	0.793845	176.175	1196.04	1.142304	0.062568	0.062333	1207.75	49400.3	0.044232	0.075421	16013.4	164344
118	2.000000	1.152778	7.3662e+06	-44539.1	955.819	-29776	0.000000	0.000000	7.210538	1408.12	NaN	0.000000	0.001610	0.001730	28.0941	99.5697	0.001906	52232.5	1.979955	175.054	1408.77	1.152369	0.072807	0.072398	1408.12	52232.5	0.052588	0.100581	13999.9	150473
118	2.000000	1.154523	7.3662e+06	-44539.1	955.818	-29776	0.000000	0.000000	7.215301	1481.53	NaN	0.000000	0.001597	0.001707	28.0937	99.7814	0.001900	52526.8	2.584980	174.03	1469.03	1.154112	0.074552	0.074141	1481.53	52526.8	0.053398	0.103206	14355	149383