File: remote_trans/data/nanoindenter/0828-1/data/Data_2025-08-06,11h17m57s/2025-07-22_16-23-58_1_367.txt
2025-07-22, 16:23:58, 1
Index	Phase	Displacement	Time	Pos X	Pos Y	Pos Z	Rot A	Rot B	Piezo Z	Force A	Force B	Gripper	Voltage A	Voltage B	Temperature	Amplitude force	Amplitude pos	Stiffness	Phase shift	Phase excitation	Force A raw	Displacement raw	HMax	HMax raw	Real Force	Real Stiffness	Contact Depth	Area	Hardness	Reduced Mod.
[#]	[#]	[um]	[s]	[um]	[um]	[um]	[m°]	[m°]	[um]	[uN]	[uN]	[V]	[V]	[V]	[°C]	[uN]	[um]	[N/m]	[°]	[°]	[uN]	[um]	[um]	[um]	[uN]	[N/m]	[um]	[um^2]	[MPa]	[MPa]
367	1.000000	0.002443	7.36865e+06	-56989.1	955.819	-29738	0.000000	0.000000	6.002793	0.043078	NaN	0.000000	0.001708	0.001768	28.0825	0.034880	0.000831	41.9711	65.0338	-163.851	0.022625	0.001210	-1.085965	-1.087198	0.043078	41.9711	-1.086734	-3.326309E+14	-1.295062E-16	NaN
367	1.000000	0.044421	7.36865e+06	-56989.1	955.818	-29738	0.000000	0.000000	6.044769	-0.008344	NaN	0.000000	0.001617	0.001759	28.0811	0.018346	0.001897	9.673291	-31.1533	19.8342	0.030455	0.043058	-1.043987	-1.045350	-0.008344	9.673291	-1.043340	-8.687272E+13	9.604641E-17	NaN
367	1.000000	0.086418	7.36865e+06	-56989.1	955.82	-29738	0.000000	0.000000	6.086768	0.062645	NaN	0.000000	0.001632	0.001753	28.0809	0.043205	0.002163	19.9708	-112.362	-166.21	0.078148	0.085085	-1.001990	-1.003324	0.062645	19.9708	-1.004343	-2.595595E+13	-2.413492E-15	NaN
367	1.000000	0.128432	7.36865e+06	-56989.1	955.819	-29738	0.000000	0.000000	6.128782	0.053652	NaN	0.000000	0.001657	0.001807	28.081	0.061811	0.001976	31.2756	135.525	16.8126	0.095260	0.127108	-0.959977	-0.961300	0.053652	31.2756	-0.961263	-6.821812E+12	-7.864792E-15	NaN
367	1.000000	0.170432	7.36865e+06	-56989.1	955.818	-29738	0.000000	0.000000	6.170782	0.045181	NaN	0.000000	0.001729	0.001847	28.0808	0.106243	0.001993	53.3079	149.909	-164.262	0.038529	0.169137	-0.917976	-0.919271	0.045181	53.3079	-0.918612	-1.813257E+12	-2.491693E-14	NaN
367	1.000000	0.212483	7.36865e+06	-56989.1	955.819	-29737.9	0.000000	0.000000	6.212832	0.017325	NaN	0.000000	0.001718	0.001814	28.082	0.029039	0.002177	13.3367	-91.8223	15.0969	0.006550	0.211127	-0.875925	-0.877282	0.017325	13.3367	-0.876899	-4.951932E+11	-3.498711E-14	NaN
367	1.000000	0.254492	7.36865e+06	-56989.1	955.818	-29737.9	0.000000	0.000000	6.254840	-0.014230	NaN	0.000000	0.001764	0.001777	28.0823	0.039998	0.002129	18.7878	173.842	-164.881	-0.025358	0.253189	-0.833916	-0.835219	-0.014230	18.7878	-0.833348	-1.273979E+11	1.116939E-13	NaN
367	1.000000	0.296520	7.36865e+06	-56989.1	955.817	-29737.9	0.000000	0.000000	6.296870	0.031474	NaN	0.000000	0.001699	0.001715	28.0822	0.083750	0.001989	42.1096	-162.004	18.1753	0.020615	0.295131	-0.791888	-0.793278	0.031474	42.1096	-0.792448	-3.550854E+10	-8.863804E-13	NaN
367	1.000000	0.338557	7.36865e+06	-56989.1	955.818	-29737.9	0.000000	0.000000	6.338906	0.033508	NaN	0.000000	0.001713	0.001752	28.0807	0.085939	0.002088	41.1598	71.6863	-163.195	-0.073351	0.337185	-0.749851	-0.751223	0.033508	41.1598	-0.750462	-9.539073E+9	-3.512690E-12	NaN
367	1.000000	0.380540	7.36865e+06	-56989.1	955.818	-29737.9	0.000000	0.000000	6.380892	0.105672	NaN	0.000000	0.001708	0.001745	28.0809	0.051934	0.001928	26.9436	-110.402	16.2425	0.108721	0.379164	-0.707868	-0.709244	0.105672	26.9436	-0.710810	-2.748533E+9	-3.844672E-11	NaN
367	1.000000	0.422522	7.36865e+06	-56989.1	955.818	-29737.9	0.000000	0.000000	6.422873	0.071189	NaN	0.000000	0.001687	0.001710	28.0811	0.143869	0.001999	71.9597	151.601	-165.793	0.045439	0.421276	-0.665886	-0.667132	0.071189	71.9597	-0.666628	-6.842726E+8	-1.040361E-10	NaN
367	1.000000	0.464561	7.36865e+06	-56989.1	955.818	-29737.9	0.000000	0.000000	6.464909	-0.009881	NaN	0.000000	0.001701	0.001726	28.0825	0.131523	0.001983	66.319	-38.7012	16.3624	0.102520	0.463223	-0.623847	-0.625185	-0.009881	66.319	-0.623735	-1.765890E+8	5.595762E-11	NaN
367	1.000000	0.506641	7.36865e+06	-56989.1	955.818	-29737.9	0.000000	0.000000	6.506992	0.080494	NaN	0.000000	0.001676	0.001730	28.0825	0.039294	0.002058	19.0976	112.799	-168.625	-0.036792	0.505268	-0.581767	-0.583141	0.080494	19.0976	-0.584929	-5.160948E+7	-1.559670E-9	NaN
367	1.000000	0.548614	7.36865e+06	-56989.1	955.817	-29737.9	0.000000	0.000000	6.548963	0.006030	NaN	0.000000	0.001691	0.001761	28.0822	0.017568	0.001964	8.942729	-61.4849	18.2208	0.067447	0.547257	-0.539794	-0.541151	0.006030	8.942729	-0.540299	-1.245980E+7	-4.839376E-10	NaN
367	1.000000	0.590600	7.36865e+06	-56989.1	955.818	-29737.9	0.000000	0.000000	6.590949	0.032431	NaN	0.000000	0.001686	0.001733	28.0812	0.024674	0.001859	13.2698	139.746	-163.853	0.074241	0.589358	-0.497808	-0.499050	0.032431	13.2698	-0.499641	-3.38855e+06	-9.570827E-9	NaN
367	1.000000	0.632646	7.36865e+06	-56989.1	955.817	-29737.9	0.000000	0.000000	6.632996	0.042283	NaN	0.000000	0.001724	0.001750	28.0811	0.072247	0.002091	34.5466	-153.643	12.259	0.040690	0.631276	-0.455762	-0.457132	0.042283	34.5466	-0.456680	-847896	-4.986841E-8	NaN
367	1.000000	0.674661	7.36865e+06	-56989.1	955.819	-29737.9	0.000000	0.000000	6.675012	0.057063	NaN	0.000000	0.001702	0.001740	28.0812	0.018068	0.002038	8.864813	-61.6495	-166.313	-0.012747	0.673359	-0.413747	-0.415049	0.057063	8.864813	-0.418575	-245582	-2.323591E-7	NaN
367	1.000000	0.716674	7.36865e+06	-56989.1	955.818	-29737.9	0.000000	0.000000	6.717025	0.074541	NaN	0.000000	0.001741	0.001811	28.0814	0.062172	0.002034	30.5601	177.574	17.281	0.103976	0.715289	-0.371735	-0.373119	0.074541	30.5601	-0.373564	-55901.3	-1.333439E-6	NaN
367	1.000000	0.758697	7.36865e+06	-56989.1	955.817	-29737.9	0.000000	0.000000	6.759050	0.110304	NaN	0.000000	0.001730	0.001721	28.0821	0.036781	0.001923	19.128	-112.166	-165.733	0.084525	0.757430	-0.329711	-0.330978	0.110304	19.128	-0.334036	-14945.2	-7.380602E-6	NaN
367	1.000000	0.800689	7.36865e+06	-56989.1	955.819	-29737.9	0.000000	0.000000	6.801039	0.040594	NaN	0.000000	0.001706	0.001746	28.0819	0.106511	0.001866	57.07	-111.503	14.3856	0.110001	0.799369	-0.287719	-0.289039	0.040594	57.07	-0.288252	-3141.25	-1.292298E-5	NaN
367	1.000000	0.842726	7.36865e+06	-56989.1	955.819	-29737.9	0.000000	0.000000	6.843079	0.115130	NaN	0.000000	0.001685	0.001758	28.082	0.012062	0.001973	6.114189	-118.807	-166.435	0.106229	0.841376	-0.245682	-0.247032	0.115130	6.114189	-0.259805	-1163.91	-9.891590E-5	NaN
367	1.000000	0.884758	7.36865e+06	-56989.1	955.818	-29737.9	0.000000	0.000000	6.885105	-0.021921	NaN	0.000000	0.001757	0.001725	28.0811	0.103786	0.001892	54.8493	-14.754	19.7153	0.008876	0.883379	-0.203650	-0.205030	-0.021921	54.8493	-0.203350	-149.493	0.000147	NaN
367	1.000000	0.926783	7.36866e+06	-56989.1	955.819	-29737.9	0.000000	0.000000	6.927133	0.039699	NaN	0.000000	0.001759	0.001727	28.0808	0.047249	0.002006	23.5567	152.692	-162.202	0.009577	0.925463	-0.161625	-0.162946	0.039699	23.5567	-0.162889	-30.8417	-0.001287	NaN
367	1.000000	0.968800	7.36866e+06	-56989.1	955.818	-29737.9	0.000000	0.000000	6.969149	0.026080	NaN	0.000000	0.001769	0.001754	28.0809	0.032344	0.002028	15.9487	-26.0302	15.7982	0.032246	0.967408	-0.119608	-0.121000	0.026080	15.9487	-0.120835	-5.022304	-0.005193	NaN
367	1.000000	1.010821	7.36866e+06	-56989.1	955.819	-29737.9	0.000000	0.000000	7.011169	-0.004376	NaN	0.000000	0.001760	0.001774	28.0822	0.060877	0.002027	30.0388	-106.832	-168.162	0.025423	1.009497	-0.077587	-0.078911	-0.004376	30.0388	-0.077478	-0.534660	0.008185	NaN
367	1.000000	1.052816	7.36866e+06	-56989.1	955.818	-29737.9	0.000000	0.000000	7.053168	0.097012	NaN	0.000000	0.001772	0.001791	28.0821	0.078183	0.002078	37.6319	100.394	13.6922	0.117196	1.051493	-0.035592	-0.036916	0.097012	37.6319	-0.037526	-0.038072	-2.548119	NaN
367	1.000000	1.094797	7.36866e+06	-56989.1	955.819	-29737.9	0.000000	0.000000	7.095378	5.647753	NaN	0.000000	0.001749	0.001758	28.082	5.427858	0.001701	3191.13	9.888288	-170.567	4.346585	1.093480	0.006389	0.005072	5.647753	3191.13	0.005062	0.004190	1347.99	45042.7
367	2.000000	1.107781	7.36866e+06	-56989.1	955.818	-29737.9	0.000000	0.000000	7.108869	17.9884	NaN	0.000000	0.001661	0.001794	28.0811	18.7162	0.001974	9482.63	9.510019	3.204888	16.3212	1.107485	0.019373	0.019077	17.9884	9482.63	0.017950	0.019423	926.149	62165
367	2.000000	1.118238	7.36866e+06	-56989.1	955.819	-29737.9	0.000000	0.000000	7.120312	41.9667	NaN	0.000000	0.001657	0.001779	28.0808	29.0267	0.001772	16376.9	3.505070	-176.562	40.9124	1.117941	0.029829	0.029533	41.9667	16376.9	0.027907	0.036518	1149.2	78298.1
367	2.000000	1.128824	7.36866e+06	-56989.1	955.819	-29737.9	0.000000	0.000000	7.132569	82.5587	NaN	0.000000	0.001618	0.001758	28.0812	39.9245	0.001851	21574.6	7.139433	-2.324035	84.0365	1.128369	0.040416	0.039960	82.5587	21574.6	0.037546	0.057841	1427.34	81959.3
367	2.000000	1.139214	7.36866e+06	-56989.1	955.818	-29737.9	0.000000	0.000000	7.145020	132.645	NaN	0.000000	0.001670	0.001721	28.081	50.652	0.001765	28697.5	6.977334	173.771	129.987	1.138952	0.050806	0.050544	132.645	28697.5	0.047339	0.084367	1572.23	90267.2
367	2.000000	1.149645	7.36866e+06	-56989.1	955.817	-29737.9	0.000000	0.000000	7.158655	210.538	NaN	0.000000	0.001648	0.001714	28.082	60.3951	0.001685	35847.6	3.935067	-4.407380	204.489	1.149328	0.061237	0.060920	210.538	35847.6	0.056832	0.114693	1835.66	96708.4
367	2.000000	1.160201	7.36866e+06	-56989.1	955.817	-29737.9	0.000000	0.000000	7.172359	287.037	NaN	0.000000	0.001587	0.001711	28.0818	71.4467	0.001820	39246.1	2.248478	176.821	283.839	1.159994	0.071793	0.071586	287.037	39246.1	0.066308	0.149393	1921.36	92769.6
367	2.000000	1.170771	7.36866e+06	-56989.1	955.819	-29737.9	0.000000	0.000000	7.186732	379.48	NaN	0.000000	0.001619	0.001754	28.082	81.5707	0.001765	46216.9	5.085186	-7.526780	380.839	1.170610	0.082363	0.082202	379.48	46216.9	0.076205	0.190239	1994.75	96810.8
367	2.000000	1.181239	7.36866e+06	-56989.1	955.817	-29737.9	0.000000	0.000000	7.201638	487.322	NaN	0.000000	0.001616	0.001680	28.0808	91.7494	0.001820	50417.1	6.045437	170.842	487.597	1.180865	0.092831	0.092457	487.322	50417.1	0.085582	0.233186	2089.85	95389.5
367	2.000000	1.191588	7.36866e+06	-56989.1	955.818	-29737.9	0.000000	0.000000	7.216712	602.176	NaN	0.000000	0.001600	0.001673	28.081	100.85	0.001859	54253.8	5.186141	-8.653918	592.965	1.191255	0.103180	0.102847	602.176	54253.8	0.094855	0.279648	2153.33	93734
367	2.000000	1.196608	7.36866e+06	-56989.1	955.818	-29737.9	0.000000	0.000000	7.222968	632.246	NaN	0.000000	0.001612	0.001720	28.0811	104.545	0.001887	55407.1	2.018243	-5.453136	623.946	1.196189	0.108200	0.107780	632.246	55407.1	0.099641	0.305165	2071.82	91637.2