File: remote_trans/data/nanoindenter/0828-1/data/Data_2025-08-06,11h17m57s/2025-07-22_16-23-58_1_1152.txt
2025-07-22, 16:23:58, 1
Index	Phase	Displacement	Time	Pos X	Pos Y	Pos Z	Rot A	Rot B	Piezo Z	Force A	Force B	Gripper	Voltage A	Voltage B	Temperature	Amplitude force	Amplitude pos	Stiffness	Phase shift	Phase excitation	Force A raw	Displacement raw	HMax	HMax raw	Real Force	Real Stiffness	Contact Depth	Area	Hardness	Reduced Mod.
[#]	[#]	[um]	[s]	[um]	[um]	[um]	[m°]	[m°]	[um]	[uN]	[uN]	[V]	[V]	[V]	[°C]	[uN]	[um]	[N/m]	[°]	[°]	[uN]	[um]	[um]	[um]	[uN]	[N/m]	[um]	[um^2]	[MPa]	[MPa]
1152	1.000000	0.002534	7.37632e+06	-57739.1	1055.82	-29736.5	0.000000	0.000000	6.002804	0.010822	NaN	0.000000	0.001572	0.001714	28.0808	0.060725	0.000916	66.2915	91.146	-166.946	-0.074367	0.001266	-1.012340	-1.013607	0.010822	66.2915	-1.012462	-3.338251E+13	-3.241723E-16	NaN
1152	1.000000	0.042492	7.37632e+06	-57739.1	1055.82	-29736.5	0.000000	0.000000	6.042760	-0.055416	NaN	0.000000	0.001607	0.001681	28.0809	0.159218	0.001841	86.4677	43.3235	-163.515	-0.025929	0.041194	-0.972381	-0.973679	-0.055416	86.4677	-0.971900	-9.490121E+12	5.839339E-15	NaN
1152	1.000000	0.082485	7.37632e+06	-57739.1	1055.82	-29736.5	0.000000	0.000000	6.082753	-0.040985	NaN	0.000000	0.001585	0.001688	28.0821	0.045741	0.001990	22.9858	60.5286	-162.42	-0.032536	0.081207	-0.932389	-0.933666	-0.040985	22.9858	-0.931051	-2.669238E+12	1.535442E-14	NaN
1152	1.000000	0.122505	7.37632e+06	-57739.1	1055.82	-29736.5	0.000000	0.000000	6.122770	-0.135879	NaN	0.000000	0.001543	0.001680	28.0817	0.018535	0.002221	8.343945	112.053	-164.482	-0.041253	0.121247	-0.892368	-0.893626	-0.135879	8.343945	-0.880155	-5.480257E+11	2.479423E-13	NaN
1152	1.000000	0.162487	7.37633e+06	-57739.1	1055.82	-29736.5	0.000000	0.000000	6.162754	-0.069297	NaN	0.000000	0.001606	0.001689	28.0819	0.143007	0.001859	76.9382	-146.673	-168.623	-0.053343	0.161190	-0.852387	-0.853683	-0.069297	76.9382	-0.851711	-2.258959E+11	3.067644E-13	NaN
1152	1.000000	0.202528	7.37633e+06	-57739.1	1055.82	-29736.5	0.000000	0.000000	6.202795	-0.055614	NaN	0.000000	0.001551	0.001673	28.0816	0.086750	0.001932	44.8947	-140.772	-166.768	-0.076254	0.201259	-0.812346	-0.813615	-0.055614	44.8947	-0.811417	-6.423796E+10	8.657422E-13	NaN
1152	1.000000	0.242543	7.37633e+06	-57739.1	1055.82	-29736.5	0.000000	0.000000	6.242809	-0.110467	NaN	0.000000	0.001541	0.001685	28.0808	0.063053	0.001984	31.7795	-97.6528	-160.76	-0.116783	0.241256	-0.772330	-0.773617	-0.110467	31.7795	-0.769723	-1.743967E+10	6.334261E-12	NaN
1152	1.000000	0.282571	7.37633e+06	-57739.1	1055.82	-29736.5	0.000000	0.000000	6.282837	-0.114469	NaN	0.000000	0.001572	0.001714	28.0807	0.065509	0.002041	32.0933	-145.803	-166.049	-0.152300	0.281279	-0.732302	-0.733594	-0.114469	32.0933	-0.729627	-4.962759E+9	2.306565E-11	NaN
1152	1.000000	0.322593	7.37633e+06	-57739.1	1055.82	-29736.5	0.000000	0.000000	6.322860	-0.069387	NaN	0.000000	0.001515	0.001656	28.0808	0.034283	0.001896	18.0826	-7.645279	-167.074	-0.085736	0.321291	-0.692280	-0.693582	-0.069387	18.0826	-0.689402	-1.401999E+9	4.949129E-11	NaN
1152	1.000000	0.362598	7.37633e+06	-57739.1	1055.82	-29736.5	0.000000	0.000000	6.362865	-0.082008	NaN	0.000000	0.001536	0.001715	28.082	0.037273	0.001951	19.1053	-15.334	-166.061	-0.050729	0.361375	-0.652275	-0.653498	-0.082008	19.1053	-0.649056	-3.930888E+8	2.086237E-10	NaN
1152	1.000000	0.402660	7.37633e+06	-57739.1	1055.82	-29736.5	0.000000	0.000000	6.402928	-0.058306	NaN	0.000000	0.001568	0.001643	28.0821	0.082939	0.001960	42.3092	-97.201	-165.466	-0.081413	0.401307	-0.612213	-0.613567	-0.058306	42.3092	-0.611180	-1.186703E+8	4.913269E-10	NaN
1152	1.000000	0.442637	7.37633e+06	-57739.1	1055.82	-29736.5	0.000000	0.000000	6.442906	-0.025238	NaN	0.000000	0.001538	0.001670	28.0827	0.081889	0.002031	40.3115	24.5511	-164.113	0.004440	0.441321	-0.572236	-0.573553	-0.025238	40.3115	-0.571767	-3.396577E+7	7.430373E-10	NaN
1152	1.000000	0.482641	7.37633e+06	-57739.1	1055.82	-29736.5	0.000000	0.000000	6.482908	-0.071291	NaN	0.000000	0.001554	0.001691	28.0812	0.020023	0.002046	9.786680	-70.6156	-164.977	-0.005446	0.481375	-0.532232	-0.533498	-0.071291	9.786680	-0.526769	-8.08527e+06	8.817427E-9	NaN
1152	1.000000	0.522712	7.37633e+06	-57739.1	1055.82	-29736.5	0.000000	0.000000	6.522978	-0.105104	NaN	0.000000	0.001533	0.001694	28.0814	0.088022	0.001978	44.4956	114.554	-165.801	-0.066260	0.521371	-0.492161	-0.493502	-0.105104	44.4956	-0.490390	-2.51673e+06	4.176231E-8	NaN
1152	1.000000	0.562699	7.37633e+06	-57739.1	1055.82	-29736.5	0.000000	0.000000	6.562966	-0.073435	NaN	0.000000	0.001552	0.001688	28.0808	0.036871	0.001999	18.4437	-1.118966	-165.408	-0.132049	0.561393	-0.452175	-0.453481	-0.073435	18.4437	-0.449188	-665138	1.104057E-7	NaN
1152	1.000000	0.602709	7.37633e+06	-57739.1	1055.82	-29736.5	0.000000	0.000000	6.602975	-0.101515	NaN	0.000000	0.001505	0.001765	28.0808	0.060696	0.002106	28.8144	-84.2375	-166.171	-0.149158	0.601411	-0.412164	-0.413462	-0.101515	28.8144	-0.409522	-182641	5.558173E-7	NaN
1152	1.000000	0.642745	7.37633e+06	-57739.1	1055.82	-29736.5	0.000000	0.000000	6.643013	-0.041891	NaN	0.000000	0.001520	0.001748	28.0819	0.035438	0.001985	17.8509	-160.535	-162.158	-0.081815	0.641411	-0.372129	-0.373462	-0.041891	17.8509	-0.370369	-50284.8	8.330652E-7	NaN
1152	1.000000	0.682736	7.37633e+06	-57739.1	1055.82	-29736.5	0.000000	0.000000	6.683003	-0.064004	NaN	0.000000	0.001558	0.001774	28.0819	0.068633	0.002060	33.3094	-29.0762	-166.877	-0.094019	0.681463	-0.332137	-0.333410	-0.064004	33.3094	-0.330696	-13355.1	4.792509E-6	NaN
1152	1.000000	0.722739	7.37633e+06	-57739.1	1055.82	-29736.5	0.000000	0.000000	6.723004	-0.121700	NaN	0.000000	0.001555	0.001752	28.082	0.083578	0.001938	43.1298	99.832	-167.213	-0.058534	0.721460	-0.292134	-0.293414	-0.121700	43.1298	-0.290018	-3338.68	3.645155E-5	NaN
1152	1.000000	0.762761	7.37633e+06	-57739.1	1055.82	-29736.5	0.000000	0.000000	6.763027	-0.093758	NaN	0.000000	0.001555	0.001821	28.0808	0.159749	0.002076	76.9519	-12.3731	-165.915	-0.085460	0.761499	-0.252112	-0.253374	-0.093758	76.9519	-0.251199	-858.013	0.000109	NaN
1152	1.000000	0.802807	7.37633e+06	-57739.1	1055.82	-29736.5	0.000000	0.000000	6.803073	-0.085982	NaN	0.000000	0.001576	0.001850	28.0812	0.105418	0.002065	51.0578	120.462	-165.318	-0.071744	0.801483	-0.212067	-0.213391	-0.085982	51.0578	-0.210804	-197.619	0.000435	NaN
1152	1.000000	0.842798	7.37633e+06	-57739.1	1055.82	-29736.5	0.000000	0.000000	6.843065	-0.071215	NaN	0.000000	0.001540	0.001821	28.0811	0.094664	0.002058	46.0018	58.4168	-165.012	-0.050622	0.841504	-0.172075	-0.173369	-0.071215	46.0018	-0.170914	-42.6062	0.001671	NaN
1152	1.000000	0.882834	7.37633e+06	-57739.1	1055.82	-29736.5	0.000000	0.000000	6.883098	-0.153373	NaN	0.000000	0.001512	0.001840	28.0811	0.100973	0.001942	51.9892	-166.978	-166.492	-0.147723	0.881531	-0.132040	-0.133343	-0.153373	51.9892	-0.129827	-7.562225	0.020281	NaN
1152	1.000000	0.922847	7.37633e+06	-57739.1	1055.82	-29736.5	0.000000	0.000000	6.923113	-0.083721	NaN	0.000000	0.001532	0.001830	28.0824	0.030931	0.002036	15.1914	-93.0575	-166.192	-0.027760	0.921525	-0.092027	-0.093349	-0.083721	15.1914	-0.087893	-0.963984	0.086848	NaN
1152	1.000000	0.962895	7.37633e+06	-57739.1	1055.82	-29736.5	0.000000	0.000000	6.963161	-0.079885	NaN	0.000000	0.001554	0.001757	28.0821	0.107329	0.002035	52.7435	163.757	-166.342	-0.049705	0.961550	-0.051979	-0.053323	-0.079885	52.7435	-0.050843	-0.096757	0.825629	NaN
1152	1.000000	1.002872	7.37633e+06	-57739.1	1055.82	-29736.5	0.000000	0.000000	7.003135	-0.188085	NaN	0.000000	0.001564	0.001730	28.0819	0.050390	0.001997	25.2292	-95.0958	-164.735	-0.190296	1.001545	-0.012001	-0.013328	-0.188085	25.2292	-0.006410	-0.004286	43.8882	NaN
1152	2.000000	1.027370	7.37633e+06	-57739.1	1055.82	-29736.5	0.000000	0.000000	7.028370	17.7508	NaN	0.000000	0.001545	0.001788	28.0813	14.7989	0.001769	8365.84	6.190354	-176.46	16.5429	1.027109	0.012497	0.012235	17.7508	8365.84	0.010905	0.010205	1739.42	75661.8
1152	2.000000	1.037310	7.37633e+06	-57739.1	1055.82	-29736.5	0.000000	0.000000	7.039110	37.1721	NaN	0.000000	0.001529	0.001795	28.0811	24.1967	0.001859	13017.2	7.152675	179.878	36.6345	1.037066	0.022437	0.022193	37.1721	13017.2	0.020295	0.023008	1615.58	78405.6
1152	2.000000	1.047266	7.37633e+06	-57739.1	1055.82	-29736.5	0.000000	0.000000	7.050426	70.2452	NaN	0.000000	0.001536	0.001763	28.0824	33.7183	0.001900	17749	5.311846	179.432	68.4662	1.046958	0.032392	0.032085	70.2452	17749	0.029424	0.039558	1775.74	81532.2
1152	2.000000	1.057276	7.37633e+06	-57739.1	1055.82	-29736.5	0.000000	0.000000	7.062042	109.266	NaN	0.000000	0.001506	0.001779	28.0832	44.023	0.001798	24480.8	6.072629	174.399	107.811	1.057058	0.042403	0.042184	109.266	24480.8	0.039055	0.061609	1773.52	90110.6
1152	2.000000	1.067209	7.37633e+06	-57739.1	1055.82	-29736.5	0.000000	0.000000	7.074175	162.723	NaN	0.000000	0.001521	0.001757	28.0823	54.1011	0.001786	30286	3.872879	175.282	160.057	1.066991	0.052336	0.052118	162.723	30286	0.048306	0.087250	1865.01	93676.7
1152	2.000000	1.077269	7.37633e+06	-57739.1	1055.82	-29736.5	0.000000	0.000000	7.087082	231.933	NaN	0.000000	0.001516	0.001777	28.0823	64.9099	0.001946	33361.9	5.465091	173.39	230.943	1.076935	0.062396	0.062062	231.933	33361.9	0.057182	0.115896	2001.21	89534.3
1152	2.000000	1.087306	7.37633e+06	-57739.1	1055.82	-29736.5	0.000000	0.000000	7.099576	291.646	NaN	0.000000	0.001560	0.001765	28.0824	74.7345	0.001859	40191.1	3.044898	174.009	290.991	1.087167	0.072432	0.072294	291.646	40191.1	0.066990	0.152059	1917.98	94166.6
1152	2.000000	1.097257	7.37633e+06	-57739.1	1055.82	-29736.5	0.000000	0.000000	7.113609	390.859	NaN	0.000000	0.001553	0.001737	28.0821	83.4029	0.001766	47240.3	6.774666	168.648	390.134	1.096984	0.082384	0.082111	390.859	47240.3	0.076178	0.190126	2055.79	98984.1
1152	2.000000	1.107209	7.37633e+06	-57739.1	1055.82	-29736.5	0.000000	0.000000	7.127368	483.396	NaN	0.000000	0.001555	0.001753	28.081	93.3943	0.001803	51802	2.122520	173.119	480.904	1.106955	0.092335	0.092082	483.396	51802	0.085337	0.232010	2083.52	98257.7
1152	2.000000	1.117205	7.37633e+06	-57739.1	1055.82	-29736.5	0.000000	0.000000	7.141770	590.442	NaN	0.000000	0.001576	0.001766	28.081	102.227	0.001886	54205.7	4.721080	171	588.636	1.116766	0.102332	0.101893	590.442	54205.7	0.094163	0.276041	2138.96	94260.8
1152	2.000000	1.120641	7.37633e+06	-57739.1	1055.82	-29736.5	0.000000	0.000000	7.146452	620.751	NaN	0.000000	0.001625	0.001738	28.081	104.156	0.001864	55878.8	1.927093	-7.437034	614.815	1.120373	0.105768	0.105500	620.751	55878.8	0.097436	0.293278	2116.59	94271.4