File: remote_trans/data/nanoindenter/0828-1/data/Data_2025-08-06,11h17m57s/2025-07-22_16-23-58_1_530.txt
2025-07-22, 16:23:58, 1
Index	Phase	Displacement	Time	Pos X	Pos Y	Pos Z	Rot A	Rot B	Piezo Z	Force A	Force B	Gripper	Voltage A	Voltage B	Temperature	Amplitude force	Amplitude pos	Stiffness	Phase shift	Phase excitation	Force A raw	Displacement raw	HMax	HMax raw	Real Force	Real Stiffness	Contact Depth	Area	Hardness	Reduced Mod.
[#]	[#]	[um]	[s]	[um]	[um]	[um]	[m°]	[m°]	[um]	[uN]	[uN]	[V]	[V]	[V]	[°C]	[uN]	[um]	[N/m]	[°]	[°]	[uN]	[um]	[um]	[um]	[uN]	[N/m]	[um]	[um^2]	[MPa]	[MPa]
530	1.000000	0.001971	7.37023e+06	-50589.1	1005.82	-29755.3	0.000000	0.000000	6.002808	-0.043821	NaN	0.000000	0.001589	0.001648	28.0825	0.028864	0.000929	31.0638	-84.6668	-170.943	-0.018100	0.000720	-1.058138	-1.059389	-0.043821	31.0638	-1.057080	-1.329166E+14	3.296876E-16	NaN
530	1.000000	0.041898	7.37023e+06	-50589.1	1005.82	-29755.3	0.000000	0.000000	6.042737	0.005818	NaN	0.000000	0.001612	0.001692	28.0823	0.132160	0.002025	65.2534	-81.2391	-167.53	-0.039163	0.040629	-1.018211	-1.019480	0.005818	65.2534	-1.018278	-3.997459E+13	-1.455461E-16	NaN
530	1.000000	0.081923	7.37023e+06	-50589.1	1005.82	-29755.2	0.000000	0.000000	6.082764	0.041028	NaN	0.000000	0.001620	0.001671	28.0826	0.029778	0.001910	15.5933	50.454	-166.59	0.060522	0.080628	-0.978186	-0.979481	0.041028	15.5933	-0.980159	-1.226179E+13	-3.346033E-15	NaN
530	1.000000	0.121928	7.37023e+06	-50589.1	1005.82	-29755.2	0.000000	0.000000	6.122765	-0.048292	NaN	0.000000	0.001610	0.001679	28.0834	0.017886	0.001910	9.366196	57.3365	-166.187	0.030210	0.120628	-0.938181	-0.939481	-0.048292	9.366196	-0.934314	-2.954019E+12	1.634804E-14	NaN
530	1.000000	0.161931	7.37023e+06	-50589.1	1005.82	-29755.3	0.000000	0.000000	6.162771	0.005819	NaN	0.000000	0.001570	0.001698	28.0834	0.051666	0.002087	24.7512	-0.776748	-163.151	-0.008279	0.160650	-0.898177	-0.899458	0.005819	24.7512	-0.898354	-9.656503E+11	-6.026497E-15	NaN
530	1.000000	0.201999	7.37023e+06	-50589.1	1005.82	-29755.2	0.000000	0.000000	6.202835	-0.060920	NaN	0.000000	0.001598	0.001645	28.0834	0.024524	0.001874	13.089	167.182	-169.585	-0.099792	0.200680	-0.858110	-0.859429	-0.060920	13.089	-0.854619	-2.473348E+11	2.463064E-13	NaN
530	1.000000	0.241964	7.37023e+06	-50589.1	1005.82	-29755.2	0.000000	0.000000	6.242802	-0.020446	NaN	0.000000	0.001635	0.001728	28.0835	0.086935	0.002093	41.5364	172.137	-169.049	-0.082112	0.240713	-0.818144	-0.819396	-0.020446	41.5364	-0.817775	-7.834996E+10	2.609598E-13	NaN
530	1.000000	0.282018	7.37023e+06	-50589.1	1005.82	-29755.2	0.000000	0.000000	6.282854	-0.071620	NaN	0.000000	0.001620	0.001700	28.0821	0.078658	0.002027	38.8038	51.37	-166.93	-0.034352	0.280735	-0.778091	-0.779374	-0.071620	38.8038	-0.776707	-2.170067E+10	3.300344E-12	NaN
530	1.000000	0.322041	7.37023e+06	-50589.1	1005.82	-29755.2	0.000000	0.000000	6.322879	-0.038011	NaN	0.000000	0.001693	0.001667	28.0821	0.065848	0.002041	32.2577	-115.569	-164.966	-0.023458	0.320756	-0.738067	-0.739353	-0.038011	32.2577	-0.737184	-6.290589E+9	6.042592E-12	NaN
530	1.000000	0.362056	7.37024e+06	-50589.1	1005.82	-29755.2	0.000000	0.000000	6.362896	0.031266	NaN	0.000000	0.001612	0.001701	28.0821	0.036032	0.002026	17.7816	62.5246	-165.751	-0.046646	0.360720	-0.698053	-0.699389	0.031266	17.7816	-0.699372	-1.918444E+9	-1.629741E-11	NaN
530	1.000000	0.402068	7.37024e+06	-50589.1	1005.82	-29755.2	0.000000	0.000000	6.402906	-0.021116	NaN	0.000000	0.001615	0.001711	28.0832	0.111211	0.001826	60.9117	-86.9626	-168.047	-0.081311	0.400708	-0.658041	-0.659400	-0.021116	60.9117	-0.657781	-5.176912E+8	4.078946E-11	NaN
530	1.000000	0.442077	7.37024e+06	-50589.1	1005.82	-29755.2	0.000000	0.000000	6.442915	-0.028780	NaN	0.000000	0.001608	0.001695	28.0831	0.132046	0.002007	65.7879	-114.266	-167.414	-0.044387	0.440804	-0.618031	-0.619304	-0.028780	65.7879	-0.617703	-1.459017E+8	1.972537E-10	NaN
530	1.000000	0.482092	7.37024e+06	-50589.1	1005.82	-29755.2	0.000000	0.000000	6.482928	-0.077760	NaN	0.000000	0.001584	0.001681	28.0832	0.103841	0.002020	51.4167	101.3	-171.579	-0.059030	0.480760	-0.578016	-0.579349	-0.077760	51.4167	-0.576882	-3.996569E+7	1.945666E-9	NaN
530	1.000000	0.522121	7.37024e+06	-50589.1	1005.82	-29755.2	0.000000	0.000000	6.522962	0.043285	NaN	0.000000	0.001613	0.001649	28.0833	0.083245	0.002079	40.0467	-153.279	-163.968	0.017786	0.520803	-0.537987	-0.539305	0.043285	40.0467	-0.538798	-1.187644E+7	-3.644616E-9	NaN
530	1.000000	0.562126	7.37024e+06	-50589.1	1005.82	-29755.2	0.000000	0.000000	6.562965	0.005951	NaN	0.000000	0.001618	0.001674	28.0821	0.071213	0.001828	38.9604	70.2446	-163.73	-0.006040	0.560809	-0.497983	-0.499299	0.005951	38.9604	-0.498098	-3.22459e+06	-1.845392E-9	NaN
530	1.000000	0.602145	7.37024e+06	-50589.1	1005.82	-29755.2	0.000000	0.000000	6.602984	0.009025	NaN	0.000000	0.001597	0.001624	28.0821	0.026140	0.001904	13.7301	130.004	-168.259	-0.055210	0.600833	-0.457964	-0.459276	0.009025	13.7301	-0.458457	-898109	-1.004907E-8	NaN
530	1.000000	0.642149	7.37024e+06	-50589.1	1005.82	-29755.2	0.000000	0.000000	6.642991	0.056138	NaN	0.000000	0.001627	0.001648	28.0818	0.013030	0.001918	6.793132	-150.503	-164.193	0.015214	0.640816	-0.417959	-0.419293	0.056138	6.793132	-0.424157	-294675	-1.905067E-7	NaN
530	1.000000	0.682169	7.37024e+06	-50589.1	1005.82	-29755.2	0.000000	0.000000	6.683007	-0.030897	NaN	0.000000	0.001573	0.001656	28.0834	0.124411	0.002030	61.2844	-130.979	-164.366	-0.013927	0.680891	-0.377940	-0.379218	-0.030897	61.2844	-0.377562	-63808.7	4.842090E-7	NaN
530	1.000000	0.722205	7.37024e+06	-50589.1	1005.82	-29755.2	0.000000	0.000000	6.723042	-0.038450	NaN	0.000000	0.001658	0.001658	28.0835	0.091614	0.002022	45.3038	35.5438	-162.079	-0.081733	0.720835	-0.337904	-0.339274	-0.038450	45.3038	-0.337267	-16660.8	2.307790E-6	NaN
530	1.000000	0.762193	7.37024e+06	-50589.1	1005.82	-29755.2	0.000000	0.000000	6.763030	-0.040454	NaN	0.000000	0.001637	0.001644	28.0833	0.024186	0.001890	12.7969	-100.717	-167.725	-0.023221	0.760907	-0.297916	-0.299202	-0.040454	12.7969	-0.295545	-4038.58	1.001687E-5	NaN
530	1.000000	0.802216	7.37024e+06	-50589.1	1005.82	-29755.2	0.000000	0.000000	6.803051	-0.088235	NaN	0.000000	0.001610	0.001661	28.0824	0.097396	0.002082	46.7702	176.717	-167.521	-0.021348	0.800969	-0.257893	-0.259140	-0.088235	46.7702	-0.256478	-1034.8	8.526812E-5	NaN
530	1.000000	0.842245	7.37024e+06	-50589.1	1005.82	-29755.2	0.000000	0.000000	6.843083	-0.038226	NaN	0.000000	0.001617	0.001651	28.0824	0.041580	0.001946	21.3642	54.3291	-166.685	-0.027345	0.840961	-0.217863	-0.219148	-0.038226	21.3642	-0.216521	-244.321	0.000156	NaN
530	1.000000	0.882254	7.37024e+06	-50589.1	1005.82	-29755.2	0.000000	0.000000	6.883092	-0.015407	NaN	0.000000	0.001581	0.001666	28.0823	0.033056	0.002019	16.374	99.7381	-165.287	-0.001790	0.880935	-0.177855	-0.179174	-0.015407	16.374	-0.177149	-54.5536	0.000282	NaN
530	1.000000	0.922251	7.37024e+06	-50589.1	1005.82	-29755.2	0.000000	0.000000	6.923087	-0.075092	NaN	0.000000	0.001600	0.001641	28.0823	0.050930	0.001951	26.1042	73.5372	-168.808	-0.073946	0.920919	-0.137857	-0.139190	-0.075092	26.1042	-0.135700	-9.809304	0.007655	NaN
530	1.000000	0.962313	7.37024e+06	-50589.1	1005.82	-29755.2	0.000000	0.000000	6.963150	-0.032204	NaN	0.000000	0.001602	0.001607	28.0835	0.038764	0.002037	19.0317	-174.817	-165.291	-0.079104	0.960924	-0.097796	-0.099185	-0.032204	19.0317	-0.096527	-1.527775	0.021079	NaN
530	1.000000	1.002304	7.37024e+06	-50589.1	1005.82	-29755.2	0.000000	0.000000	7.003140	-0.062019	NaN	0.000000	0.001646	0.001683	28.0834	0.025873	0.001952	13.2559	-11.8543	-167.211	-0.006937	1.001020	-0.057805	-0.059088	-0.062019	13.2559	-0.054296	-0.122741	0.505284	NaN
530	1.000000	1.042296	7.37024e+06	-50589.1	1005.82	-29755.3	0.000000	0.000000	7.043132	-0.066141	NaN	0.000000	0.001615	0.001693	28.0831	0.094373	0.001856	50.8528	160.236	-168.295	-0.022467	1.040958	-0.017813	-0.019151	-0.066141	50.8528	-0.016837	-0.010407	6.355557	NaN
530	2.000000	1.068909	7.37024e+06	-50589.1	1005.82	-29755.2	0.000000	0.000000	7.070245	12.096	NaN	0.000000	0.001612	0.001669	28.0824	12.2819	0.001827	6722.66	10.3233	-176.029	12.1092	1.068614	0.008800	0.008506	12.096	6722.66	0.007450	0.006483	1865.77	76282
530	2.000000	1.078854	7.37024e+06	-50589.1	1005.82	-29755.2	0.000000	0.000000	7.080898	29.3048	NaN	0.000000	0.001560	0.001699	28.0821	23.4483	0.001878	12483.5	5.793150	-178.661	28.4097	1.078544	0.018745	0.018435	29.3048	12483.5	0.016985	0.018024	1625.88	84954.2
530	2.000000	1.088796	7.37024e+06	-50589.1	1005.82	-29755.2	0.000000	0.000000	7.091980	57.0304	NaN	0.000000	0.001613	0.001709	28.0824	32.4032	0.001765	18356.1	5.174696	179.016	55.466	1.088408	0.028687	0.028299	57.0304	18356.1	0.026357	0.033531	1700.83	91586.5
530	2.000000	1.098745	7.37024e+06	-50589.1	1005.82	-29755.3	0.000000	0.000000	7.103253	89.2213	NaN	0.000000	0.001564	0.001674	28.0822	42.3996	0.001936	21899.7	2.269570	179.821	86.9668	1.098557	0.038636	0.038448	89.2213	21899.7	0.035581	0.053107	1680.03	86823.1
530	2.000000	1.108717	7.37024e+06	-50589.1	1005.82	-29755.3	0.000000	0.000000	7.114948	131.128	NaN	0.000000	0.001659	0.001650	28.083	51.7077	0.001759	29394.3	2.340781	176.493	126.938	1.108430	0.048609	0.048321	131.128	29394.3	0.045263	0.078335	1673.92	95952.8
530	2.000000	1.118729	7.37024e+06	-50589.1	1005.82	-29755.2	0.000000	0.000000	7.126917	178.719	NaN	0.000000	0.001559	0.001645	28.0833	62.3451	0.001900	32812.9	6.120361	172.084	175.872	1.118461	0.058620	0.058352	178.719	32812.9	0.054535	0.106946	1671.12	91671.8
530	2.000000	1.128755	7.37024e+06	-50589.1	1005.82	-29755.2	0.000000	0.000000	7.139378	237.932	NaN	0.000000	0.001594	0.001676	28.0834	71.0362	0.001817	39098.6	5.083870	171.939	235.42	1.128412	0.068646	0.068303	237.932	39098.6	0.064082	0.140852	1689.23	95181.7
530	2.000000	1.138804	7.37024e+06	-50589.1	1005.82	-29755.2	0.000000	0.000000	7.151890	297.834	NaN	0.000000	0.001593	0.001679	28.0818	80.0305	0.001698	47135.9	6.814066	169.575	301.266	1.138393	0.078695	0.078285	297.834	47135.9	0.073956	0.180552	1649.57	101350
530	2.000000	1.148658	7.37024e+06	-50589.1	1005.82	-29755.3	0.000000	0.000000	7.164730	370.45	NaN	0.000000	0.001580	0.001699	28.0823	88.7378	0.001710	51882.1	3.398017	171.563	367.111	1.148373	0.088549	0.088264	370.45	51882.1	0.083194	0.221860	1669.74	100635
530	2.000000	1.158783	7.37024e+06	-50589.1	1005.82	-29755.3	0.000000	0.000000	7.177414	432.691	NaN	0.000000	0.001551	0.001667	28.0824	98.3445	0.001729	56867	4.328777	170.501	434.854	1.158487	0.098674	0.098379	432.691	56867	0.092967	0.269868	1603.35	100013
530	2.000000	1.162792	7.37024e+06	-50589.1	1005.82	-29755.2	0.000000	0.000000	7.182857	467.547	NaN	0.000000	0.001586	0.001691	28.0824	103.094	0.001904	54159.4	7.603654	167.843	471.294	1.162316	0.102683	0.102207	467.547	54159.4	0.096209	0.286757	1630.47	92403.8