File: remote_trans/data/nanoindenter/0828-1/data/Data_2025-08-06,11h17m57s/2025-07-22_16-23-58_1_1098.txt
2025-07-22, 16:23:58, 1
Index	Phase	Displacement	Time	Pos X	Pos Y	Pos Z	Rot A	Rot B	Piezo Z	Force A	Force B	Gripper	Voltage A	Voltage B	Temperature	Amplitude force	Amplitude pos	Stiffness	Phase shift	Phase excitation	Force A raw	Displacement raw	HMax	HMax raw	Real Force	Real Stiffness	Contact Depth	Area	Hardness	Reduced Mod.
[#]	[#]	[um]	[s]	[um]	[um]	[um]	[m°]	[m°]	[um]	[uN]	[uN]	[V]	[V]	[V]	[°C]	[uN]	[um]	[N/m]	[°]	[°]	[uN]	[um]	[um]	[um]	[uN]	[N/m]	[um]	[um^2]	[MPa]	[MPa]
1098	1.000000	0.002100	7.3758e+06	-55039.1	1055.82	-29741.4	0.000000	0.000000	6.002783	0.002729	NaN	0.000000	0.001707	0.001709	28.0827	0.030318	0.000916	33.0894	26.3167	-158.508	0.005995	0.000860	-1.991683	-1.992924	0.002729	33.0894	-1.991745	-3.769850E+26	-7.238719E-30	NaN
1098	1.000000	0.068075	7.3758e+06	-55039.1	1055.82	-29741.4	0.000000	0.000000	6.068760	0.040948	NaN	0.000000	0.001690	0.001695	28.0821	0.047430	0.002002	23.6964	-143.017	14.1717	-0.106129	0.066707	-1.925708	-1.927077	0.040948	23.6964	-1.927004	-5.229677E+25	-7.829988E-28	NaN
1098	1.000000	0.134077	7.3758e+06	-55039.1	1055.82	-29741.4	0.000000	0.000000	6.134762	0.052865	NaN	0.000000	0.001701	0.001696	28.0807	0.048204	0.001989	24.235	159.11	-162.656	-0.003933	0.132792	-1.859707	-1.860992	0.052865	24.235	-1.861343	-7.045669E+24	-7.503260E-27	NaN
1098	1.000000	0.200109	7.3758e+06	-55039.1	1055.82	-29741.4	0.000000	0.000000	6.200790	-0.049123	NaN	0.000000	0.001703	0.001686	28.0808	0.091581	0.001959	46.7416	155.197	11.2708	-0.035051	0.198759	-1.793675	-1.795025	-0.049123	46.7416	-1.792886	-8.704516E+23	5.643419E-26	NaN
1098	1.000000	0.266144	7.3758e+06	-55039.1	1055.82	-29741.4	0.000000	0.000000	6.266830	0.081662	NaN	0.000000	0.001686	0.001677	28.0834	0.087463	0.002124	41.1737	-168.072	-166.873	-0.029449	0.264819	-1.727640	-1.728965	0.081662	41.1737	-1.729128	-1.239692E+23	-6.587307E-25	NaN
1098	1.000000	0.332201	7.3758e+06	-55039.1	1055.82	-29741.4	0.000000	0.000000	6.332883	-0.030453	NaN	0.000000	0.001716	0.001680	28.082	0.080251	0.001997	40.1846	-40.6598	15.4865	-0.018301	0.330832	-1.661582	-1.662951	-0.030453	40.1846	-1.661014	-1.543188E+22	1.973391E-24	NaN
1098	1.000000	0.398241	7.3758e+06	-55039.1	1055.82	-29741.4	0.000000	0.000000	6.398925	0.026685	NaN	0.000000	0.001690	0.001708	28.081	0.102949	0.001948	52.8596	-78.1897	-163.069	-0.094635	0.396912	-1.595543	-1.596872	0.026685	52.8596	-1.595922	-2.103680E+21	-1.268480E-23	NaN
1098	1.000000	0.464219	7.3758e+06	-55039.1	1055.82	-29741.4	0.000000	0.000000	6.464903	0.041006	NaN	0.000000	0.001743	0.001695	28.0813	0.018433	0.002000	9.214725	-65.2064	12.6471	-0.003060	0.462860	-1.529565	-1.530924	0.041006	9.214725	-1.532903	-3.050832E+20	-1.344101E-22	NaN
1098	1.000000	0.530258	7.3758e+06	-55039.1	1055.82	-29741.4	0.000000	0.000000	6.530941	0.005723	NaN	0.000000	0.001762	0.001687	28.0823	0.090863	0.001914	47.4666	35.699	-168.461	0.065756	0.528954	-1.463525	-1.464829	0.005723	47.4666	-1.463616	-3.644212E+19	-1.570455E-22	NaN
1098	1.000000	0.596321	7.3758e+06	-55039.1	1055.82	-29741.4	0.000000	0.000000	6.597005	0.022255	NaN	0.000000	0.001727	0.001711	28.082	0.080823	0.002017	40.0783	-117.32	11.9716	0.104950	0.594905	-1.397463	-1.398878	0.022255	40.0783	-1.397879	-4.843704E+18	-4.594726E-21	NaN
1098	1.000000	0.662323	7.3758e+06	-55039.1	1055.82	-29741.4	0.000000	0.000000	6.663008	0.039567	NaN	0.000000	0.001705	0.001715	28.0807	0.068509	0.001961	34.9359	-111.968	-166.743	-0.075890	0.660973	-1.331460	-1.332811	0.039567	34.9359	-1.332310	-6.456823E+17	-6.127992E-20	NaN
1098	1.000000	0.728366	7.3758e+06	-55039.1	1055.82	-29741.4	0.000000	0.000000	6.729049	0.013488	NaN	0.000000	0.001692	0.001718	28.0808	0.058426	0.002079	28.0965	107.543	12.1835	0.034571	0.726941	-1.265418	-1.266843	0.013488	28.0965	-1.265778	-8.335676E+16	-1.618102E-19	NaN
1098	1.000000	0.794360	7.3758e+06	-55039.1	1055.82	-29741.4	0.000000	0.000000	6.795043	-0.005990	NaN	0.000000	0.001723	0.001723	28.0821	0.103976	0.001878	55.3579	-78.9279	-168.226	-0.065412	0.793077	-1.199424	-1.200707	-0.005990	55.3579	-1.199343	-1.076327E+16	5.565055E-19	NaN
1098	1.000000	0.860437	7.3758e+06	-55039.1	1055.82	-29741.4	0.000000	0.000000	6.861120	-0.013362	NaN	0.000000	0.001731	0.001674	28.0823	0.037393	0.001873	19.9661	84.126	15.3345	-0.022190	0.859104	-1.133346	-1.134680	-0.013362	19.9661	-1.132844	-1.382842E+15	9.662588E-18	NaN
1098	1.000000	0.926455	7.3758e+06	-55039.1	1055.82	-29741.4	0.000000	0.000000	6.927138	0.018335	NaN	0.000000	0.001669	0.001715	28.0807	0.030232	0.002114	14.3035	-68.6409	-168.073	0.042933	0.925114	-1.067329	-1.068670	0.018335	14.3035	-1.068290	-1.880253E+14	-9.751445E-17	NaN
1098	1.000000	0.992454	7.3758e+06	-55039.1	1055.82	-29741.4	0.000000	0.000000	6.993136	-0.004342	NaN	0.000000	0.001684	0.001699	28.0808	0.039261	0.002015	19.4812	-55.4605	13.2945	-0.013055	0.991105	-1.001330	-1.002679	-0.004342	19.4812	-1.001163	-2.351943E+13	1.846054E-16	NaN
1098	1.000000	1.058484	7.3758e+06	-55039.1	1055.82	-29741.4	0.000000	0.000000	7.059169	0.055146	NaN	0.000000	0.001723	0.001711	28.082	0.046228	0.002184	21.1651	-92.1766	-165.032	-0.006912	1.057201	-0.935300	-0.936583	0.055146	21.1651	-0.937254	-3.236556E+12	-1.703860E-14	NaN
1098	1.000000	1.124503	7.3758e+06	-55039.1	1055.82	-29741.4	0.000000	0.000000	7.125186	-0.009607	NaN	0.000000	0.001739	0.001697	28.0822	0.069263	0.002127	32.5587	-179.829	8.665057	0.090893	1.123120	-0.869280	-0.870664	-0.009607	32.5587	-0.869059	-3.878938E+11	2.476641E-14	NaN
1098	1.000000	1.190541	7.3758e+06	-55039.1	1055.82	-29741.4	0.000000	0.000000	7.191222	-0.026580	NaN	0.000000	0.001711	0.001683	28.082	0.061928	0.002007	30.8613	-85.0692	-166.303	0.016891	1.189173	-0.803243	-0.804610	-0.026580	30.8613	-0.802597	-4.876555E+10	5.450587E-13	NaN
1098	1.000000	1.256605	7.3758e+06	-55039.1	1055.82	-29741.4	0.000000	0.000000	7.257285	-0.054624	NaN	0.000000	0.001753	0.001667	28.0809	0.084961	0.001887	45.0267	36.8051	12.2243	-0.007122	1.255252	-0.737179	-0.738532	-0.054624	45.0267	-0.736269	-6.112681E+9	8.936124E-12	NaN
1098	1.000000	1.322602	7.3758e+06	-55039.1	1055.82	-29741.4	0.000000	0.000000	7.323287	0.045331	NaN	0.000000	0.001660	0.001686	28.0807	0.060106	0.001969	30.5223	-105.9	-163.283	0.082253	1.321280	-0.671182	-0.672503	0.045331	30.5223	-0.672295	-8.180965E+8	-5.541093E-11	NaN
1098	1.000000	1.388648	7.3758e+06	-55039.1	1055.82	-29741.4	0.000000	0.000000	7.389329	-0.043978	NaN	0.000000	0.001674	0.001671	28.0821	0.019500	0.002004	9.730916	-26.7438	17.1197	-0.007059	1.387268	-0.605135	-0.606516	-0.043978	9.730916	-0.601746	-8.800402E+7	4.997229E-10	NaN
1098	1.000000	1.454657	7.3758e+06	-55039.1	1055.82	-29741.4	0.000000	0.000000	7.455340	0.006805	NaN	0.000000	0.001647	0.001717	28.0819	0.120247	0.002022	59.4784	-98.2484	-167.754	-0.040543	1.453379	-0.539127	-0.540405	0.006805	59.4784	-0.539213	-1.203479E+7	-5.654130E-10	NaN
1098	1.000000	1.520690	7.3758e+06	-55039.1	1055.82	-29741.4	0.000000	0.000000	7.521371	-0.019582	NaN	0.000000	0.001679	0.001692	28.0806	0.096065	0.001908	50.3402	111.434	13.8941	-0.032172	1.519302	-0.473094	-0.474482	-0.019582	50.3402	-0.472802	-1.42791e+06	1.371369E-8	NaN
1098	1.000000	1.586700	7.3758e+06	-55039.1	1055.82	-29741.4	0.000000	0.000000	7.587383	0.005897	NaN	0.000000	0.001703	0.001704	28.0808	0.105096	0.001950	53.8819	-35.3601	-167.144	-0.036006	1.585390	-0.407084	-0.408394	0.005897	53.8819	-0.407166	-169078	-3.487498E-8	NaN
1098	1.000000	1.652742	7.3758e+06	-55039.1	1055.82	-29741.4	0.000000	0.000000	7.653423	-0.045701	NaN	0.000000	0.001706	0.001717	28.0819	0.103056	0.001930	53.4001	163.541	13.3146	-0.053234	1.651446	-0.341042	-0.342338	-0.045701	53.4001	-0.340400	-18509	2.469145E-6	NaN
1098	1.000000	1.718813	7.3758e+06	-55039.1	1055.82	-29741.4	0.000000	0.000000	7.719496	0.010373	NaN	0.000000	0.001713	0.001724	28.082	0.030573	0.001975	15.4773	-122.654	-165.544	0.023952	1.717470	-0.274971	-0.276313	0.010373	15.4773	-0.275473	-2016.36	-5.144308E-6	NaN
1098	1.000000	1.784799	7.3758e+06	-55039.1	1055.82	-29741.4	0.000000	0.000000	7.785485	0.079398	NaN	0.000000	0.001692	0.001651	28.0807	0.069843	0.002077	33.6275	51.1004	11.972	0.098808	1.783427	-0.208985	-0.210357	0.079398	33.6275	-0.210756	-197.266	-0.000402	NaN
1098	1.000000	1.850820	7.3758e+06	-55039.1	1055.82	-29741.4	0.000000	0.000000	7.851499	-0.071115	NaN	0.000000	0.001672	0.001664	28.0805	0.078325	0.002061	38.0036	111.085	-164.08	-0.092090	1.849496	-0.142964	-0.144288	-0.071115	38.0036	-0.141561	-12.6535	0.005620	NaN
1098	1.000000	1.916888	7.3758e+06	-55039.1	1055.82	-29741.4	0.000000	0.000000	7.917574	0.081315	NaN	0.000000	0.001701	0.001682	28.0819	0.050391	0.002003	25.1521	-170.336	14.4924	0.073268	1.915505	-0.076895	-0.078279	0.081315	25.1521	-0.079320	-0.595178	-0.136623	NaN
1098	1.000000	1.982908	7.3758e+06	-55039.1	1055.82	-29741.4	0.000000	0.000000	7.983594	0.083142	NaN	0.000000	0.001651	0.001631	28.0817	0.080377	0.002049	39.2258	45.804	-167.956	0.047541	1.981613	-0.010876	-0.012170	0.083142	39.2258	-0.012465	-0.007795	-10.6663	NaN
1098	2.000000	2.010966	7.37581e+06	-55039.1	1055.82	-29741.4	0.000000	0.000000	8.012912	30.7246	NaN	0.000000	0.001723	0.001682	28.0807	21.6323	0.001773	12199.5	2.285216	6.455043	28.8462	2.010602	0.017182	0.016819	30.7246	12199.5	0.015293	0.015678	1959.68	89015.7
1098	2.000000	2.027437	7.37581e+06	-55039.1	1055.82	-29741.4	0.000000	0.000000	8.031312	77.6064	NaN	0.000000	0.001722	0.001724	28.0815	37.8032	0.001753	21560.2	0.693530	-177.789	77.8454	2.027064	0.033653	0.033281	77.6064	21560.2	0.030953	0.042743	1815.65	95278.1
1098	2.000000	2.043881	7.37581e+06	-55039.1	1055.82	-29741.4	0.000000	0.000000	8.050394	141.741	NaN	0.000000	0.001736	0.001696	28.0819	54.012	0.001825	29597	7.049710	-6.387093	139.295	2.043502	0.050097	0.049718	141.741	29597	0.046506	0.081919	1730.27	94477.7
1098	2.000000	2.060350	7.37581e+06	-55039.1	1055.82	-29741.4	0.000000	0.000000	8.070489	229.863	NaN	0.000000	0.001697	0.001751	28.0819	68.8991	0.001906	36142.7	4.466897	174.603	227.519	2.059987	0.066567	0.066203	229.863	36142.7	0.061797	0.132330	1737.04	90774.5
1098	2.000000	2.076843	7.37581e+06	-55039.1	1055.82	-29741.4	0.000000	0.000000	8.091383	336.867	NaN	0.000000	0.001685	0.001726	28.0807	84.7812	0.001751	48430.3	6.114752	-8.932033	333.492	2.076390	0.083059	0.082606	336.867	48430.3	0.077843	0.197446	1706.12	99578.8
1098	2.000000	2.093297	7.37581e+06	-55039.1	1055.82	-29741.4	0.000000	0.000000	8.112816	457.903	NaN	0.000000	0.001762	0.001703	28.0807	100.004	0.001803	55464.7	3.343542	172.286	454.927	2.093065	0.099513	0.099281	457.903	55464.7	0.093322	0.271692	1685.38	97219.1
1098	2.000000	2.096787	7.37581e+06	-55039.1	1055.82	-29741.4	0.000000	0.000000	8.117853	495.51	NaN	0.000000	0.001734	0.001752	28.0809	104.007	0.001809	57506.2	5.646191	-10.0358	489.454	2.096307	0.103003	0.102523	495.51	57506.2	0.096541	0.288514	1717.46	97814.7