File: remote_trans/data/nanoindenter/0828-1/data/Data_2025-08-06,11h17m57s/2025-07-22_16-23-58_1_608.txt
2025-07-22, 16:23:58, 1
Index	Phase	Displacement	Time	Pos X	Pos Y	Pos Z	Rot A	Rot B	Piezo Z	Force A	Force B	Gripper	Voltage A	Voltage B	Temperature	Amplitude force	Amplitude pos	Stiffness	Phase shift	Phase excitation	Force A raw	Displacement raw	HMax	HMax raw	Real Force	Real Stiffness	Contact Depth	Area	Hardness	Reduced Mod.
[#]	[#]	[um]	[s]	[um]	[um]	[um]	[m°]	[m°]	[um]	[uN]	[uN]	[V]	[V]	[V]	[°C]	[uN]	[um]	[N/m]	[°]	[°]	[uN]	[um]	[um]	[um]	[uN]	[N/m]	[um]	[um^2]	[MPa]	[MPa]
608	1.000000	0.002945	7.371e+06	-46689.1	1005.82	-29768.4	0.000000	0.000000	6.002825	0.006487	NaN	0.000000	0.001593	0.001766	28.0818	0.063599	0.001023	62.1474	45.1639	-159.221	0.026117	0.001651	-1.130379	-1.131672	0.006487	62.1474	-1.130457	-1.284556E+15	-5.049881E-18	NaN
608	1.000000	0.044839	7.371e+06	-46689.1	1005.82	-29768.4	0.000000	0.000000	6.044722	0.061026	NaN	0.000000	0.001543	0.001735	28.0814	0.059296	0.001954	30.3397	-25.4464	16.9803	0.027148	0.043495	-1.088484	-1.089828	0.061026	30.3397	-1.089993	-3.678880E+14	-1.658827E-16	NaN
608	1.000000	0.086908	7.371e+06	-46689.1	1005.82	-29768.4	0.000000	0.000000	6.086791	0.078422	NaN	0.000000	0.001556	0.001774	28.0801	0.094591	0.002003	47.2285	-63.4436	-165.547	0.060739	0.085538	-1.046415	-1.047786	0.078422	47.2285	-1.047661	-9.930401E+13	-7.897193E-16	NaN
608	1.000000	0.128890	7.371e+06	-46689.1	1005.82	-29768.4	0.000000	0.000000	6.128771	0.027832	NaN	0.000000	0.001558	0.001771	28.0803	0.132094	0.001979	66.7504	-86.9708	12.1135	0.009789	0.127507	-1.004433	-1.005817	0.027832	66.7504	-1.004746	-2.628231E+13	-1.058948E-15	NaN
608	1.000000	0.170904	7.371e+06	-46689.1	1005.82	-29768.4	0.000000	0.000000	6.170786	0.057516	NaN	0.000000	0.001555	0.001784	28.0802	0.047428	0.002068	22.9298	98.9296	-166.926	0.081668	0.169564	-0.962419	-0.963759	0.057516	22.9298	-0.964300	-7.496233E+12	-7.672621E-15	NaN
608	1.000000	0.212928	7.371e+06	-46689.1	1005.82	-29768.4	0.000000	0.000000	6.212810	0.063340	NaN	0.000000	0.001521	0.001785	28.0802	0.005908	0.001910	3.092851	-171.55	13.5611	0.043788	0.211566	-0.920396	-0.921757	0.063340	3.092851	-0.935755	-3.089338E+12	-2.050285E-14	NaN
608	1.000000	0.254948	7.371e+06	-46689.1	1005.82	-29768.4	0.000000	0.000000	6.254828	-0.001119	NaN	0.000000	0.001555	0.001774	28.0814	0.067606	0.001985	34.063	-132.314	-167.231	0.011969	0.253656	-0.878376	-0.879667	-0.001119	34.063	-0.878351	-5.180900E+11	2.160566E-15	NaN
608	1.000000	0.296958	7.371e+06	-46689.1	1005.82	-29768.4	0.000000	0.000000	6.296842	0.092840	NaN	0.000000	0.001506	0.001805	28.0815	0.084641	0.002136	39.622	14.9442	13.1865	0.097292	0.295629	-0.836365	-0.837695	0.092840	39.622	-0.838123	-1.478632E+11	-6.278767E-13	NaN
608	1.000000	0.338970	7.371e+06	-46689.1	1005.82	-29768.4	0.000000	0.000000	6.338852	0.046966	NaN	0.000000	0.001552	0.001760	28.0814	0.092344	0.002051	45.0283	-114.852	-163.744	0.076323	0.337653	-0.794354	-0.795670	0.046966	45.0283	-0.795136	-3.862137E+10	-1.216055E-12	NaN
608	1.000000	0.381003	7.371e+06	-46689.1	1005.82	-29768.4	0.000000	0.000000	6.380883	0.022132	NaN	0.000000	0.001550	0.001759	28.0803	0.077899	0.001877	41.4967	7.515718	8.189480	0.062502	0.379668	-0.752321	-0.753655	0.022132	41.4967	-0.752721	-1.023889E+10	-2.161595E-12	NaN
608	1.000000	0.423030	7.371e+06	-46689.1	1005.82	-29768.4	0.000000	0.000000	6.422910	0.000490	NaN	0.000000	0.001540	0.001731	28.08	0.018617	0.002063	9.025719	-139.381	-168.38	0.008755	0.421742	-0.710294	-0.711582	0.000490	9.025719	-0.710334	-2.707768E+9	-1.808617E-13	NaN
608	1.000000	0.465023	7.371e+06	-46689.1	1005.82	-29768.4	0.000000	0.000000	6.464902	-0.018274	NaN	0.000000	0.001544	0.001765	28.08	0.063912	0.001874	34.1033	1.964087	11.6984	0.021842	0.463702	-0.668301	-0.669621	-0.018274	34.1033	-0.667899	-7.122506E+8	2.565674E-11	NaN
608	1.000000	0.507043	7.371e+06	-46689.1	1005.82	-29768.4	0.000000	0.000000	6.506927	0.098576	NaN	0.000000	0.001511	0.001729	28.0813	0.116917	0.002063	56.6732	-32.7049	-161.141	0.090703	0.505736	-0.626280	-0.627588	0.098576	56.6732	-0.627585	-1.994595E+8	-4.942172E-10	NaN
608	1.000000	0.549066	7.371e+06	-46689.1	1005.82	-29768.4	0.000000	0.000000	6.548946	-0.002207	NaN	0.000000	0.001522	0.001722	28.081	0.101193	0.002090	48.4097	174.567	12.5964	0.098857	0.547699	-0.584258	-0.585624	-0.002207	48.4097	-0.584223	-5.046632E+7	4.374052E-11	NaN
608	1.000000	0.591096	7.371e+06	-46689.1	1005.82	-29768.4	0.000000	0.000000	6.590978	0.044173	NaN	0.000000	0.001486	0.001716	28.0816	0.048265	0.001897	25.4362	-160.722	-166.475	0.133552	0.589846	-0.542228	-0.543478	0.044173	25.4362	-0.543530	-1.381353E+7	-3.197837E-9	NaN
608	1.000000	0.633112	7.371e+06	-46689.1	1005.82	-29768.4	0.000000	0.000000	6.632992	0.002762	NaN	0.000000	0.001547	0.001726	28.0799	0.081761	0.002016	40.5622	-142.269	11.5742	-0.032921	0.631759	-0.500211	-0.501565	0.002762	40.5622	-0.500262	-3.45681e+06	-7.990624E-10	NaN
608	1.000000	0.675150	7.371e+06	-46689.1	1005.82	-29768.4	0.000000	0.000000	6.675032	0.035463	NaN	0.000000	0.001643	0.001698	28.0799	0.025905	0.002088	12.4046	112.566	-167.653	0.077172	0.673824	-0.458173	-0.459500	0.035463	12.4046	-0.460317	-953843	-3.717939E-8	NaN
608	1.000000	0.717111	7.371e+06	-46689.1	1005.82	-29768.4	0.000000	0.000000	6.716993	0.048486	NaN	0.000000	0.001549	0.001783	28.0802	0.063851	0.002023	31.5613	59.9622	16.0884	0.018090	0.715773	-0.416213	-0.417551	0.048486	31.5613	-0.417365	-236064	-2.053934E-7	NaN
608	1.000000	0.759117	7.371e+06	-46689.1	1005.82	-29768.4	0.000000	0.000000	6.758997	-0.000892	NaN	0.000000	0.001541	0.001755	28.0806	0.029689	0.002010	14.7682	62.3342	-165.171	0.096061	0.757810	-0.374206	-0.375514	-0.000892	14.7682	-0.374161	-57017.6	1.564775E-8	NaN
608	1.000000	0.801186	7.371e+06	-46689.1	1005.82	-29768.4	0.000000	0.000000	6.801065	-0.024180	NaN	0.000000	0.001523	0.001779	28.0814	0.115333	0.002153	53.5564	-126.618	15.7386	-0.018357	0.799856	-0.332138	-0.333467	-0.024180	53.5564	-0.331799	-13860.8	1.744521E-6	NaN
608	1.000000	0.843208	7.371e+06	-46689.1	1005.82	-29768.4	0.000000	0.000000	6.843087	-0.026512	NaN	0.000000	0.001512	0.001728	28.082	0.081176	0.002148	37.7922	127.532	-169.639	-0.009471	0.841866	-0.290115	-0.291457	-0.026512	37.7922	-0.289589	-3289.64	8.059305E-6	NaN
608	1.000000	0.885198	7.371e+06	-46689.1	1005.82	-29768.4	0.000000	0.000000	6.885080	0.059303	NaN	0.000000	0.001558	0.001731	28.0816	0.018635	0.002042	9.126248	-116.33	17.0337	0.040761	0.883856	-0.248126	-0.249468	0.059303	9.126248	-0.252999	-914.714	-6.483186E-5	NaN
608	1.000000	0.927236	7.371e+06	-46689.1	1005.82	-29768.4	0.000000	0.000000	6.927118	0.039671	NaN	0.000000	0.001503	0.001715	28.0803	0.104311	0.001933	53.9753	-178.224	-168.581	0.096184	0.925933	-0.206087	-0.207391	0.039671	53.9753	-0.206639	-169.143	-0.000235	NaN
608	1.000000	0.969274	7.371e+06	-46689.1	1005.82	-29768.4	0.000000	0.000000	6.969152	-0.043659	NaN	0.000000	0.001534	0.001746	28.0802	0.020380	0.001985	10.2659	-114.671	16.0481	0.073871	0.967899	-0.164049	-0.165424	-0.043659	10.2659	-0.160860	-28.3952	0.001538	NaN
608	1.000000	1.011285	7.371e+06	-46689.1	1005.82	-29768.4	0.000000	0.000000	7.011164	-0.014207	NaN	0.000000	0.001536	0.001691	28.0801	0.087668	0.001902	46.0814	92.2411	-165.953	0.021225	1.009938	-0.122039	-0.123386	-0.014207	46.0814	-0.121807	-5.253265	0.002704	NaN
608	1.000000	1.053264	7.371e+06	-46689.1	1005.82	-29768.4	0.000000	0.000000	7.053147	0.083707	NaN	0.000000	0.001572	0.001743	28.0811	0.081421	0.002001	40.6833	0.556291	11.8499	0.025304	1.051924	-0.080060	-0.081400	0.083707	40.6833	-0.081603	-0.678510	-0.123369	NaN
608	1.000000	1.095301	7.371e+06	-46689.1	1005.82	-29768.4	0.000000	0.000000	7.095183	0.064962	NaN	0.000000	0.001546	0.001714	28.0815	0.069760	0.001946	35.8449	70.828	-164.84	0.102622	1.093969	-0.038023	-0.039355	0.064962	35.8449	-0.039382	-0.043312	-1.499858	NaN
608	1.000000	1.137309	7.371e+06	-46689.1	1005.82	-29768.4	0.000000	0.000000	7.137236	1.146548	NaN	0.000000	0.001563	0.001768	28.0814	1.644076	0.002024	812.175	11.0833	13.0657	0.452038	1.135960	0.003985	0.002637	1.146548	812.175	0.002926	0.002318	494.627	15412.2
608	2.000000	1.152871	7.371e+06	-46689.1	1005.82	-29768.4	0.000000	0.000000	7.153630	21.3876	NaN	0.000000	0.001506	0.001773	28.0802	16.9991	0.001841	9232.18	9.509198	-179.047	20.4993	1.152585	0.019547	0.019261	21.3876	9232.18	0.017810	0.019217	1112.95	60846.4
608	2.000000	1.163317	7.371e+06	-46689.1	1005.82	-29768.4	0.000000	0.000000	7.165101	46.3358	NaN	0.000000	0.001552	0.001780	28.0801	27.2496	0.001749	15579.5	3.850600	2.020301	43.9596	1.163000	0.029993	0.029676	46.3358	15579.5	0.027762	0.036234	1278.8	74777.7
608	2.000000	1.173840	7.371e+06	-46689.1	1005.82	-29768.4	0.000000	0.000000	7.177158	83.6365	NaN	0.000000	0.001524	0.001796	28.0801	36.9026	0.001721	21439.1	1.496695	-178.817	81.6582	1.173503	0.040517	0.040180	83.6365	21439.1	0.037591	0.057950	1443.25	81367.8
608	2.000000	1.184282	7.371e+06	-46689.1	1005.82	-29768.4	0.000000	0.000000	7.189449	128.603	NaN	0.000000	0.001564	0.001760	28.08	46.6633	0.001670	27943.5	2.479064	-2.511358	125.709	1.184004	0.050959	0.050681	128.603	27943.5	0.047507	0.084864	1515.41	87638
608	2.000000	1.194783	7.371e+06	-46689.1	1005.82	-29768.4	0.000000	0.000000	7.202192	183.136	NaN	0.000000	0.001535	0.001750	28.0813	58.1929	0.001792	32480	2.911518	176.304	180.526	1.194539	0.061460	0.061215	183.136	32480	0.057231	0.116066	1577.86	87103.6
608	2.000000	1.205300	7.371e+06	-46689.1	1005.82	-29768.4	0.000000	0.000000	7.215440	249.562	NaN	0.000000	0.001526	0.001758	28.0818	68.5308	0.001923	35636.2	5.776307	-6.511470	247.924	1.204883	0.071977	0.071560	249.562	35636.2	0.066725	0.151019	1652.52	83781.6
608	2.000000	1.215760	7.371e+06	-46689.1	1005.82	-29768.4	0.000000	0.000000	7.228858	321.539	NaN	0.000000	0.001594	0.001811	28.0812	77.4233	0.001817	42603.7	7.081489	170.335	320.411	1.215438	0.082436	0.082114	321.539	42603.7	0.076776	0.192738	1668.27	88661.9
608	2.000000	1.226220	7.371e+06	-46689.1	1005.82	-29768.4	0.000000	0.000000	7.242741	404.804	NaN	0.000000	0.001621	0.001796	28.0801	86.548	0.001766	49018.8	4.319984	-7.676149	398.051	1.225856	0.092896	0.092532	404.804	49018.8	0.086702	0.238590	1696.65	91687.5
608	2.000000	1.236827	7.371e+06	-46689.1	1005.82	-29768.4	0.000000	0.000000	7.256745	487.417	NaN	0.000000	0.001540	0.001803	28.0803	96.7877	0.001796	53876.8	-0.645271	176.264	487.207	1.236555	0.103504	0.103232	487.417	53876.8	0.096719	0.289458	1683.89	91491.9
608	2.000000	1.242655	7.37101e+06	-46689.1	1005.82	-29768.4	0.000000	0.000000	7.265125	549.503	NaN	0.000000	0.001580	0.001804	28.0802	102.814	0.001862	55222.5	3.359642	172.53	543.334	1.242346	0.109332	0.109023	549.503	55222.5	0.101869	0.317395	1731.29	89554.9