File: remote_trans/data/nanoindenter/0828-1/data/Data_2025-08-06,11h17m57s/2025-07-22_16-23-58_1_448.txt
2025-07-22, 16:23:58, 1
Index	Phase	Displacement	Time	Pos X	Pos Y	Pos Z	Rot A	Rot B	Piezo Z	Force A	Force B	Gripper	Voltage A	Voltage B	Temperature	Amplitude force	Amplitude pos	Stiffness	Phase shift	Phase excitation	Force A raw	Displacement raw	HMax	HMax raw	Real Force	Real Stiffness	Contact Depth	Area	Hardness	Reduced Mod.
[#]	[#]	[um]	[s]	[um]	[um]	[um]	[m°]	[m°]	[um]	[uN]	[uN]	[V]	[V]	[V]	[°C]	[uN]	[um]	[N/m]	[°]	[°]	[uN]	[um]	[um]	[um]	[uN]	[N/m]	[um]	[um^2]	[MPa]	[MPa]
448	1.000000	0.002600	7.36944e+06	-54689.1	1005.82	-29743.1	0.000000	0.000000	6.002790	-0.056050	NaN	0.000000	0.001608	0.001703	28.0804	0.224271	0.000952	235.639	-120.146	-162.732	-0.008352	0.001351	-1.137849	-1.139098	-0.056050	235.639	-1.137670	-1.605073E+15	3.492025E-17	NaN
448	1.000000	0.044566	7.36944e+06	-54689.1	1005.82	-29743.1	0.000000	0.000000	6.044759	0.026822	NaN	0.000000	0.001619	0.001682	28.0804	0.089237	0.001827	48.8495	-87.0514	13.8899	0.049045	0.043195	-1.095883	-1.097254	0.026822	48.8495	-1.096295	-4.470172E+14	-6.000320E-17	NaN
448	1.000000	0.086584	7.36944e+06	-54689.1	1005.82	-29743.1	0.000000	0.000000	6.086776	0.017972	NaN	0.000000	0.001585	0.001692	28.0807	0.032623	0.002146	15.2007	80.544	-164.096	-0.028033	0.085227	-1.053865	-1.055222	0.017972	15.2007	-1.054752	-1.236774E+14	-1.453165E-16	NaN
448	1.000000	0.128622	7.36944e+06	-54689.1	1005.82	-29743.1	0.000000	0.000000	6.128814	0.007812	NaN	0.000000	0.001614	0.001662	28.0796	0.061093	0.002028	30.1214	-40.0713	13.9785	-0.001165	0.127215	-1.011827	-1.013233	0.007812	30.1214	-1.012021	-3.292967E+13	-2.372229E-16	NaN
448	1.000000	0.170611	7.36944e+06	-54689.1	1005.82	-29743.1	0.000000	0.000000	6.170804	0.025663	NaN	0.000000	0.001577	0.001714	28.0796	0.014446	0.002001	7.218916	159.549	-169.257	0.028241	0.169299	-0.969838	-0.971150	0.025663	7.218916	-0.972505	-9.669754E+12	-2.653947E-15	NaN
448	1.000000	0.212594	7.36944e+06	-54689.1	1005.82	-29743.1	0.000000	0.000000	6.212785	-0.023608	NaN	0.000000	0.001571	0.001710	28.0793	0.061249	0.001832	33.4407	98.4644	14.8338	-0.005047	0.211291	-0.927855	-0.929158	-0.023608	33.4407	-0.927325	-2.377358E+12	9.930508E-15	NaN
448	1.000000	0.254658	7.36944e+06	-54689.1	1005.82	-29743.1	0.000000	0.000000	6.254850	-0.001282	NaN	0.000000	0.001594	0.001685	28.0806	0.061530	0.001873	32.8477	47.5267	-170.768	0.065970	0.253346	-0.885790	-0.887103	-0.001282	32.8477	-0.885761	-6.525426E+11	1.964645E-15	NaN
448	1.000000	0.296666	7.36944e+06	-54689.1	1005.82	-29743.1	0.000000	0.000000	6.296861	0.065861	NaN	0.000000	0.001555	0.001681	28.0806	0.114547	0.002016	56.8158	161.262	14.4413	0.138001	0.295321	-0.843783	-0.845128	0.065861	56.8158	-0.844652	-1.812651E+11	-3.633423E-13	NaN
448	1.000000	0.338665	7.36944e+06	-54689.1	1005.82	-29743.1	0.000000	0.000000	6.338860	0.064996	NaN	0.000000	0.001553	0.001719	28.0807	0.085526	0.002009	42.5641	177.942	-165.306	0.046650	0.337410	-0.801783	-0.803039	0.064996	42.5641	-0.802929	-4.927357E+10	-1.319094E-12	NaN
448	1.000000	0.380705	7.36944e+06	-54689.1	1005.82	-29743.1	0.000000	0.000000	6.380894	-0.059745	NaN	0.000000	0.001583	0.001719	28.0791	0.082744	0.002150	38.4927	155.277	15.1007	-0.013494	0.379324	-0.759744	-0.761125	-0.059745	38.4927	-0.758580	-1.230218E+10	4.856452E-12	NaN
448	1.000000	0.422704	7.36944e+06	-54689.1	1005.82	-29743.1	0.000000	0.000000	6.422898	0.056540	NaN	0.000000	0.001563	0.001700	28.0792	0.078832	0.001921	41.0411	83.1285	-166.025	-0.032056	0.421391	-0.717745	-0.719058	0.056540	41.0411	-0.718778	-3.530282E+9	-1.601579E-11	NaN
448	1.000000	0.464747	7.36944e+06	-54689.1	1005.82	-29743.1	0.000000	0.000000	6.464937	-0.039575	NaN	0.000000	0.001590	0.001705	28.0791	0.058014	0.002062	28.1412	-177.074	13.1116	-0.053084	0.463402	-0.675702	-0.677047	-0.039575	28.1412	-0.674647	-8.810214E+8	4.491959E-11	NaN
448	1.000000	0.506745	7.36944e+06	-54689.1	1005.82	-29743.1	0.000000	0.000000	6.506937	-0.022778	NaN	0.000000	0.001562	0.001707	28.0802	0.061591	0.001931	31.8915	-140.966	-165.462	-0.044610	0.505382	-0.633703	-0.635067	-0.022778	31.8915	-0.633168	-2.379678E+8	9.571760E-11	NaN
448	1.000000	0.548765	7.36944e+06	-54689.1	1005.82	-29743.1	0.000000	0.000000	6.548956	-0.032477	NaN	0.000000	0.001592	0.001709	28.0806	0.029525	0.002066	14.2941	147.943	16.0398	-0.027384	0.547351	-0.591684	-0.593098	-0.032477	14.2941	-0.589979	-6.058760E+7	5.360407E-10	NaN
448	1.000000	0.590803	7.36944e+06	-54689.1	1005.82	-29743.1	0.000000	0.000000	6.590997	0.049300	NaN	0.000000	0.001590	0.001724	28.0815	0.117626	0.002017	58.3144	-99.3158	-163.422	0.037486	0.589466	-0.549646	-0.550983	0.049300	58.3144	-0.550280	-1.713308E+7	-2.877474E-9	NaN
448	1.000000	0.632781	7.36944e+06	-54689.1	1005.82	-29743.1	0.000000	0.000000	6.632971	-0.052386	NaN	0.000000	0.001534	0.001710	28.0802	0.036551	0.001887	19.3744	-107.083	13.4654	-0.107260	0.631461	-0.507668	-0.508988	-0.052386	19.3744	-0.505640	-4.10829e+06	1.275121E-8	NaN
448	1.000000	0.674830	7.36944e+06	-54689.1	1005.82	-29743.1	0.000000	0.000000	6.675022	-0.003159	NaN	0.000000	0.001561	0.001741	28.079	0.024184	0.002062	11.7292	-90.9678	-169.048	0.026463	0.673552	-0.465619	-0.466897	-0.003159	11.7292	-0.465417	-1.12487e+06	2.808100E-9	NaN
448	1.000000	0.716837	7.36944e+06	-54689.1	1005.82	-29743.1	0.000000	0.000000	6.717032	0.094484	NaN	0.000000	0.001509	0.001756	28.0789	0.057730	0.002095	27.5525	48.3554	16.0797	0.064890	0.715455	-0.423612	-0.424994	0.094484	27.5525	-0.426184	-314814	-3.001252E-7	NaN
448	1.000000	0.758851	7.36944e+06	-54689.1	1005.82	-29743.1	0.000000	0.000000	6.759044	0.035293	NaN	0.000000	0.001569	0.001736	28.0791	0.044651	0.001964	22.7355	86.026	-166.214	0.023193	0.757490	-0.381598	-0.382959	0.035293	22.7355	-0.382762	-75772.9	-4.657701E-7	NaN
448	1.000000	0.800876	7.36944e+06	-54689.1	1005.82	-29743.1	0.000000	0.000000	6.801067	-0.026625	NaN	0.000000	0.001596	0.001719	28.0805	0.047727	0.001874	25.4746	173.444	13.109	-0.001201	0.799431	-0.339573	-0.341018	-0.026625	25.4746	-0.338789	-17534.6	1.518419E-6	NaN
448	1.000000	0.842880	7.36944e+06	-54689.1	1005.82	-29743.1	0.000000	0.000000	6.843071	-0.030689	NaN	0.000000	0.001685	0.001714	28.0803	0.021515	0.001934	11.1245	99.0554	-165.783	-0.028291	0.841560	-0.297569	-0.298889	-0.030689	11.1245	-0.295500	-4032.26	7.610762E-6	NaN
448	1.000000	0.884905	7.36944e+06	-54689.1	1005.82	-29743.1	0.000000	0.000000	6.885100	0.065856	NaN	0.000000	0.001674	0.001776	28.0807	0.161337	0.002013	80.1327	-45.5155	11.6345	0.055639	0.883507	-0.255544	-0.256942	0.065856	80.1327	-0.256160	-1023.22	-6.436116E-5	NaN
448	1.000000	0.926906	7.36944e+06	-54689.1	1005.82	-29743.1	0.000000	0.000000	6.927099	0.011443	NaN	0.000000	0.001657	0.001782	28.0796	0.064681	0.001999	32.355	60.6391	-169.562	0.032887	0.925623	-0.213543	-0.214826	0.011443	32.355	-0.213808	-220.965	-5.178774E-5	NaN
448	1.000000	0.968926	7.36944e+06	-54689.1	1005.82	-29743.1	0.000000	0.000000	6.969119	0.014028	NaN	0.000000	0.001651	0.001696	28.0796	0.070962	0.002124	33.4097	-128.114	13.9313	0.104397	0.967574	-0.171522	-0.172875	0.014028	33.4097	-0.171837	-44.2036	-0.000317	NaN
448	1.000000	1.010959	7.36944e+06	-54689.1	1005.82	-29743.1	0.000000	0.000000	7.011153	0.037993	NaN	0.000000	0.001634	0.001763	28.0796	0.112525	0.001963	57.3146	177.413	-161.194	-0.014397	1.009675	-0.129489	-0.130774	0.037993	57.3146	-0.129987	-7.616422	-0.004988	NaN
448	1.000000	1.052946	7.36944e+06	-54689.1	1005.82	-29743.1	0.000000	0.000000	7.053140	0.048113	NaN	0.000000	0.001600	0.001724	28.0808	0.055480	0.002009	27.6171	-115.332	11.8977	0.041885	1.051588	-0.087503	-0.088861	0.048113	27.6171	-0.088809	-1.013402	-0.047476	NaN
448	1.000000	1.094999	7.36944e+06	-54689.1	1005.82	-29743.1	0.000000	0.000000	7.095189	-0.030131	NaN	0.000000	0.001624	0.001736	28.0805	0.139083	0.001970	70.5903	-42.9182	-163.669	-0.080531	1.093729	-0.045450	-0.046720	-0.030131	70.5903	-0.045130	-0.064859	0.464554	NaN
448	1.000000	1.137015	7.36945e+06	-54689.1	1005.82	-29743.1	0.000000	0.000000	7.137208	0.015161	NaN	0.000000	0.001593	0.001786	28.0806	0.096269	0.002036	47.2895	79.0314	12.9357	0.015230	1.135598	-0.003434	-0.004851	0.015161	47.2895	-0.003674	-0.002567	-5.906657	NaN
448	2.000000	1.161577	7.36945e+06	-54689.1	1005.82	-29743.1	0.000000	0.000000	7.162367	14.5182	NaN	0.000000	0.001544	0.001788	28.0806	15.6086	0.001739	8974.7	10.5728	-177.274	15.113	1.161283	0.021129	0.020835	14.5182	8974.7	0.019915	0.022409	647.865	54774.5
448	2.000000	1.172029	7.36945e+06	-54689.1	1005.82	-29743.1	0.000000	0.000000	7.173571	32.8238	NaN	0.000000	0.001560	0.001769	28.0793	25.8355	0.001769	14606.8	6.991477	-0.533667	32.7493	1.171729	0.031580	0.031280	32.8238	14606.8	0.029895	0.040526	809.95	66292.5
448	2.000000	1.182502	7.36945e+06	-54689.1	1005.82	-29743.1	0.000000	0.000000	7.185187	60.6044	NaN	0.000000	0.001579	0.001687	28.0793	35.6299	0.001771	20116.1	4.081644	179.859	60.1118	1.182185	0.042053	0.041736	60.6044	20116.1	0.039794	0.063496	954.458	72936.1
448	2.000000	1.192932	7.36945e+06	-54689.1	1005.82	-29743.1	0.000000	0.000000	7.197055	95.5574	NaN	0.000000	0.001557	0.001703	28.0792	45.1181	0.001704	26479.3	2.701647	-1.144116	91.636	1.192634	0.052484	0.052185	95.5574	26479.3	0.049777	0.091725	1041.78	79879.6
448	2.000000	1.203575	7.36945e+06	-54689.1	1005.82	-29743.1	0.000000	0.000000	7.209200	132.061	NaN	0.000000	0.001537	0.001729	28.0809	55.619	0.001907	29163.8	5.077822	176.47	136.18	1.203119	0.063127	0.062670	132.061	29163.8	0.059730	0.124843	1057.82	75411.1
448	2.000000	1.213957	7.36945e+06	-54689.1	1005.82	-29743.1	0.000000	0.000000	7.221742	184.595	NaN	0.000000	0.001611	0.001696	28.0806	65.0631	0.001760	36958.7	1.768791	-3.363508	182.594	1.213685	0.073508	0.073236	184.595	36958.7	0.069762	0.163120	1131.65	83605.8
448	2.000000	1.224396	7.36945e+06	-54689.1	1005.82	-29743.1	0.000000	0.000000	7.234548	242.131	NaN	0.000000	0.001569	0.001716	28.0806	76.0597	0.001810	42010.6	8.293539	169.581	241.394	1.224102	0.083947	0.083653	242.131	42010.6	0.079624	0.205427	1178.67	84684.3
448	2.000000	1.234917	7.36945e+06	-54689.1	1005.82	-29743.1	0.000000	0.000000	7.247599	303.623	NaN	0.000000	0.001625	0.001692	28.0793	84.967	0.001821	46668.4	5.676655	-8.167699	302.446	1.234599	0.094468	0.094150	303.623	46668.4	0.089589	0.252777	1201.15	84806.1
448	2.000000	1.245370	7.36945e+06	-54689.1	1005.82	-29743.1	0.000000	0.000000	7.261110	377.991	NaN	0.000000	0.001589	0.001711	28.0792	94.166	0.001789	52632.7	6.623951	169.564	374.56	1.245073	0.104921	0.104625	377.991	52632.7	0.099535	0.304585	1241	87131.4
448	2.000000	1.254363	7.36945e+06	-54689.1	1005.82	-29743.1	0.000000	0.000000	7.272590	438.438	NaN	0.000000	0.001589	0.001703	28.0792	102.954	0.001759	58525.1	3.842274	171.827	435.288	1.254028	0.113914	0.113580	438.438	58525.1	0.108295	0.353947	1238.71	89876.6