File: remote_trans/data/nanoindenter/0828-1/data/Data_2025-08-06,11h17m57s/2025-07-22_16-23-58_1_47.txt
2025-07-22, 16:23:58, 1
Index	Phase	Displacement	Time	Pos X	Pos Y	Pos Z	Rot A	Rot B	Piezo Z	Force A	Force B	Gripper	Voltage A	Voltage B	Temperature	Amplitude force	Amplitude pos	Stiffness	Phase shift	Phase excitation	Force A raw	Displacement raw	HMax	HMax raw	Real Force	Real Stiffness	Contact Depth	Area	Hardness	Reduced Mod.
[#]	[#]	[um]	[s]	[um]	[um]	[um]	[m°]	[m°]	[um]	[uN]	[uN]	[V]	[V]	[V]	[°C]	[uN]	[um]	[N/m]	[°]	[°]	[uN]	[um]	[um]	[um]	[uN]	[N/m]	[um]	[um^2]	[MPa]	[MPa]
47	1.000000	0.002462	7.3655e+06	-40989.1	955.819	-29788.4	0.000000	0.000000	6.002798	-0.026993	NaN	0.000000	0.001638	0.001589	28.1285	0.022495	0.001019	22.0816	-92.0657	-163.738	-0.070304	0.001178	-1.115389	-1.116673	-0.026993	22.0816	-1.114472	-7.839672E+14	3.443177E-17	NaN
47	1.000000	0.044449	7.3655e+06	-40989.1	955.818	-29788.4	0.000000	0.000000	6.044786	-0.011800	NaN	0.000000	0.001612	0.001644	28.0871	0.076827	0.001898	40.4718	94.0204	13.078	0.076007	0.043075	-1.073402	-1.074776	-0.011800	40.4718	-1.073183	-2.187541E+14	5.394172E-17	NaN
47	1.000000	0.086430	7.3655e+06	-40989.1	955.818	-29788.4	0.000000	0.000000	6.086766	-0.032621	NaN	0.000000	0.001587	0.001609	28.0818	0.070385	0.002003	35.1454	-76.0568	-163.703	0.012951	0.085164	-1.031421	-1.032687	-0.032621	35.1454	-1.030725	-5.877961E+13	5.549671E-16	NaN
47	1.000000	0.128439	7.3655e+06	-40989.1	955.817	-29788.4	0.000000	0.000000	6.128776	0.012916	NaN	0.000000	0.001565	0.001588	28.1081	0.081147	0.002018	40.2158	-82.0422	16.3977	-0.061979	0.127059	-0.989412	-0.990793	0.012916	40.2158	-0.989653	-1.646049E+13	-7.846741E-16	NaN
47	1.000000	0.170454	7.3655e+06	-40989.1	955.818	-29788.4	0.000000	0.000000	6.170790	-0.028277	NaN	0.000000	0.001613	0.001602	28.1296	0.017405	0.001989	8.749142	-105.612	-165.227	-0.004215	0.169181	-0.947397	-0.948671	-0.028277	8.749142	-0.944973	-4.113660E+12	6.873888E-15	NaN
47	1.000000	0.212469	7.3655e+06	-40989.1	955.818	-29788.4	0.000000	0.000000	6.212806	-0.022161	NaN	0.000000	0.001608	0.001586	28.0893	0.008567	0.002061	4.157212	-88.3009	9.056219	-0.095661	0.211104	-0.905382	-0.906747	-0.022161	4.157212	-0.901384	-1.061116E+12	2.088424E-14	NaN
47	1.000000	0.254469	7.3655e+06	-40989.1	955.818	-29788.4	0.000000	0.000000	6.254806	-0.006156	NaN	0.000000	0.001625	0.001603	28.0809	0.132752	0.002016	65.849	125.347	-166.125	-0.046863	0.253201	-0.863382	-0.864650	-0.006156	65.849	-0.863312	-3.243014E+11	1.898341E-14	NaN
47	1.000000	0.296528	7.3655e+06	-40989.1	955.818	-29788.4	0.000000	0.000000	6.296866	0.021629	NaN	0.000000	0.001586	0.001593	28.1055	0.026701	0.001941	13.7547	77.6747	15.1021	-0.062304	0.295192	-0.821323	-0.822659	0.021629	13.7547	-0.822503	-9.081285E+10	-2.381749E-13	NaN
47	1.000000	0.338553	7.3655e+06	-40989.1	955.819	-29788.4	0.000000	0.000000	6.338891	0.032195	NaN	0.000000	0.001604	0.001595	28.129	0.051379	0.001803	28.5031	140.781	-167.483	-0.026021	0.337250	-0.779298	-0.780601	0.032195	28.5031	-0.780145	-2.416616E+10	-1.332217E-12	NaN
47	1.000000	0.380562	7.3655e+06	-40989.1	955.818	-29788.4	0.000000	0.000000	6.380900	0.027194	NaN	0.000000	0.001578	0.001621	28.0892	0.094186	0.001834	51.356	-119.309	13.1346	0.058017	0.379206	-0.737289	-0.738646	0.027194	51.356	-0.737686	-6.390578E+9	-4.255390E-12	NaN
47	1.000000	0.422571	7.3655e+06	-40989.1	955.818	-29788.4	0.000000	0.000000	6.422908	0.006456	NaN	0.000000	0.001561	0.001634	28.0813	0.045499	0.002133	21.3291	49.3404	-167.099	0.032725	0.421280	-0.695280	-0.696571	0.006456	21.3291	-0.695507	-1.698894E+9	-3.800097E-12	NaN
47	1.000000	0.464599	7.3655e+06	-40989.1	955.817	-29788.4	0.000000	0.000000	6.464938	0.057475	NaN	0.000000	0.001678	0.001617	28.1071	0.097621	0.002170	44.9838	-25.7869	13.639	0.046113	0.463244	-0.653252	-0.654607	0.057475	44.9838	-0.654211	-4.625414E+8	-1.242600E-10	NaN
47	1.000000	0.506572	7.3655e+06	-40989.1	955.819	-29788.4	0.000000	0.000000	6.506911	0.035732	NaN	0.000000	0.001685	0.001657	28.1283	0.057475	0.001971	29.167	-175.409	-167.63	0.042538	0.505345	-0.611279	-0.612506	0.035732	29.167	-0.612198	-1.225592E+8	-2.915450E-10	NaN
47	1.000000	0.548623	7.3655e+06	-40989.1	955.818	-29788.4	0.000000	0.000000	6.548960	-0.018765	NaN	0.000000	0.001691	0.001621	28.0909	0.035955	0.002013	17.863	-37.2239	16.1978	0.014488	0.547257	-0.569228	-0.570594	-0.018765	17.863	-0.568440	-3.055438E+7	6.141600E-10	NaN
47	1.000000	0.590652	7.3655e+06	-40989.1	955.819	-29788.4	0.000000	0.000000	6.590987	-0.036633	NaN	0.000000	0.001631	0.001591	28.0797	0.086320	0.002097	41.1663	50.8174	-164.893	-0.080311	0.589399	-0.527200	-0.528452	-0.036633	41.1663	-0.526532	-8.02422e+06	4.565251E-9	NaN
47	1.000000	0.632671	7.3655e+06	-40989.1	955.819	-29788.4	0.000000	0.000000	6.633010	0.030384	NaN	0.000000	0.001596	0.001664	28.1072	0.093419	0.002021	46.22	-50.3381	16.97	0.039960	0.631330	-0.485180	-0.486521	0.030384	46.22	-0.485673	-2.16222e+06	-1.405221E-8	NaN
47	1.000000	0.674672	7.3655e+06	-40989.1	955.818	-29788.4	0.000000	0.000000	6.675007	-0.050420	NaN	0.000000	0.001608	0.001680	28.1297	0.086186	0.002076	41.525	130.213	-162.603	-0.004553	0.673375	-0.443179	-0.444476	-0.050420	41.525	-0.442269	-531340	9.489236E-8	NaN
47	1.000000	0.716704	7.3655e+06	-40989.1	955.818	-29788.4	0.000000	0.000000	6.717041	0.015434	NaN	0.000000	0.001624	0.001686	28.0929	0.049392	0.001999	24.7087	-95.9707	15.119	0.092670	0.715305	-0.401147	-0.402546	0.015434	24.7087	-0.401616	-140940	-1.095101E-7	NaN
47	1.000000	0.758686	7.36551e+06	-40989.1	955.819	-29788.4	0.000000	0.000000	6.759016	-0.149772	NaN	0.000000	0.001633	0.001654	28.0805	0.030072	0.001942	15.4831	-18.8556	-163.536	-0.021910	0.757404	-0.359166	-0.360447	-0.149772	15.4831	-0.351911	-27209.6	5.504363E-6	NaN
47	1.000000	0.800725	7.36551e+06	-40989.1	955.819	-29788.4	0.000000	0.000000	6.801061	-0.031007	NaN	0.000000	0.001651	0.001645	28.1047	0.108277	0.002015	53.7382	134.409	15.4421	-0.008956	0.799411	-0.317126	-0.318440	-0.031007	53.7382	-0.316693	-8316.26	3.728437E-6	NaN
47	1.000000	0.842767	7.36551e+06	-40989.1	955.817	-29788.4	0.000000	0.000000	6.843101	-0.073325	NaN	0.000000	0.001625	0.001723	28.1298	0.106548	0.002012	52.9586	-135.675	-163.725	0.059436	0.841429	-0.275084	-0.276422	-0.073325	52.9586	-0.274045	-1918.4	3.822221E-5	NaN
47	1.000000	0.884756	7.36551e+06	-40989.1	955.819	-29788.4	0.000000	0.000000	6.885092	-0.033833	NaN	0.000000	0.001621	0.001651	28.0915	0.066008	0.002010	32.8436	-177.638	14.3629	-0.004213	0.883387	-0.233095	-0.234464	-0.033833	32.8436	-0.232322	-435.651	7.766136E-5	NaN
47	1.000000	0.926785	7.36551e+06	-40989.1	955.818	-29788.4	0.000000	0.000000	6.927121	-0.023233	NaN	0.000000	0.001675	0.001661	28.0805	0.102991	0.002098	49.08	138.944	-161.6	-0.037943	0.925502	-0.191066	-0.192349	-0.023233	49.08	-0.190711	-92.4485	0.000251	NaN
47	1.000000	0.968777	7.36551e+06	-40989.1	955.817	-29788.4	0.000000	0.000000	6.969114	-0.007331	NaN	0.000000	0.001610	0.001632	28.1055	0.027453	0.002001	13.7173	-109.537	14.3861	-0.040784	0.967404	-0.149074	-0.150447	-0.007331	13.7173	-0.148673	-17.1304	0.000428	NaN
47	1.000000	1.010833	7.36551e+06	-40989.1	955.819	-29788.4	0.000000	0.000000	7.011167	-0.065468	NaN	0.000000	0.001596	0.001658	28.1307	0.042086	0.001940	21.6971	-38.5634	-169.941	-0.025165	1.009457	-0.107018	-0.108394	-0.065468	21.6971	-0.104755	-2.322097	0.028194	NaN
47	1.000000	1.052839	7.36551e+06	-40989.1	955.818	-29788.4	0.000000	0.000000	7.053171	-0.120081	NaN	0.000000	0.001594	0.001673	28.0932	0.063754	0.001961	32.506	-176.16	15.6257	-0.062083	1.051476	-0.065012	-0.066375	-0.120081	32.506	-0.062242	-0.208612	0.575618	NaN
47	1.000000	1.094837	7.36551e+06	-40989.1	955.817	-29788.4	0.000000	0.000000	7.095173	-0.016588	NaN	0.000000	0.001607	0.001645	28.0788	0.150161	0.001945	77.1962	-125.112	-162.966	0.017072	1.093554	-0.023015	-0.024297	-0.016588	77.1962	-0.022853	-0.014848	1.117189	NaN
47	1.000000	1.136851	7.36551e+06	-40989.1	955.817	-29788.4	0.000000	0.000000	7.137417	5.575180	NaN	0.000000	0.001610	0.001636	28.103	3.728844	0.001931	1930.71	14.7994	8.600634	4.893228	1.135491	0.019000	0.017640	5.575180	1930.71	0.016834	0.017810	313.04	13217.9
47	2.000000	1.151523	7.36551e+06	-40989.1	955.818	-29788.4	0.000000	0.000000	7.152328	11.3771	NaN	0.000000	0.001637	0.001629	28.1311	7.609607	0.001789	4253.54	9.216267	-169.676	12.2034	1.151174	0.033672	0.033323	11.3771	4253.54	0.031666	0.044268	257.005	18470.6
47	2.000000	1.161971	7.36551e+06	-40989.1	955.819	-29788.4	0.000000	0.000000	7.163180	21.1997	NaN	0.000000	0.001644	0.001660	28.0957	14.8049	0.001976	7491.29	6.222692	7.247598	20.6454	1.161536	0.044120	0.043685	21.1997	7491.29	0.041998	0.069293	305.941	26000.6
47	2.000000	1.172406	7.36551e+06	-40989.1	955.817	-29788.4	0.000000	0.000000	7.174375	39.725	NaN	0.000000	0.001654	0.001678	28.0807	23.9783	0.001858	12902.6	7.748376	179.989	38.1753	1.172142	0.054554	0.054291	39.725	12902.6	0.052245	0.099479	399.33	37375.3
47	2.000000	1.182938	7.36551e+06	-40989.1	955.818	-29788.4	0.000000	0.000000	7.186179	70.6627	NaN	0.000000	0.001698	0.001645	28.1029	32.6189	0.001769	18441	4.799825	1.264354	70.4761	1.182542	0.065087	0.064691	70.6627	18441	0.062213	0.133865	527.865	46049.5
47	2.000000	1.193389	7.36551e+06	-40989.1	955.818	-29788.4	0.000000	0.000000	7.197987	103.673	NaN	0.000000	0.001639	0.001654	28.1307	42.6462	0.001851	23039.7	1.931919	-178.542	99.684	1.193030	0.075538	0.075179	103.673	23039.7	0.072163	0.172999	599.269	50609
47	2.000000	1.203902	7.36551e+06	-40989.1	955.819	-29788.4	0.000000	0.000000	7.210061	141.673	NaN	0.000000	0.001633	0.001633	28.0928	52.5276	0.001808	29051.6	5.357490	-4.930673	139.147	1.203631	0.086051	0.085779	141.673	29051.6	0.082393	0.218124	649.51	56831.9
47	2.000000	1.214304	7.36551e+06	-40989.1	955.82	-29788.4	0.000000	0.000000	7.222341	187.361	NaN	0.000000	0.001624	0.001630	28.0817	61.7241	0.001930	31977.2	5.592140	174.548	181.535	1.214011	0.096453	0.096160	187.361	31977.2	0.092059	0.265221	706.435	56729.7
47	2.000000	1.224812	7.36551e+06	-40989.1	955.817	-29788.4	0.000000	0.000000	7.235795	259.063	NaN	0.000000	0.001643	0.001626	28.1017	70.7626	0.001845	38355.4	4.609853	-5.065080	254.746	1.224397	0.106961	0.106546	259.063	38355.4	0.101895	0.317541	815.841	62187.1
47	2.000000	1.235310	7.36551e+06	-40989.1	955.818	-29788.4	0.000000	0.000000	7.248528	313.415	NaN	0.000000	0.001632	0.001623	28.1321	79.7308	0.001808	44094.2	2.902883	175.339	309.791	1.234968	0.117459	0.117117	313.415	44094.2	0.112128	0.376638	832.14	65643.7
47	2.000000	1.240774	7.36551e+06	-40989.1	955.817	-29788.4	0.000000	0.000000	7.255425	348.297	NaN	0.000000	0.001658	0.001661	28.1032	85.4028	0.001739	49105.7	3.365759	-6.239517	343.026	1.240565	0.122923	0.122714	348.297	49105.7	0.117604	0.410209	849.072	70049.2