File: remote_trans/data/nanoindenter/0828-1/data/Data_2025-08-06,11h17m57s/2025-07-22_16-23-58_1_26.txt
2025-07-22, 16:23:58, 1
Index	Phase	Displacement	Time	Pos X	Pos Y	Pos Z	Rot A	Rot B	Piezo Z	Force A	Force B	Gripper	Voltage A	Voltage B	Temperature	Amplitude force	Amplitude pos	Stiffness	Phase shift	Phase excitation	Force A raw	Displacement raw	HMax	HMax raw	Real Force	Real Stiffness	Contact Depth	Area	Hardness	Reduced Mod.
[#]	[#]	[um]	[s]	[um]	[um]	[um]	[m°]	[m°]	[um]	[uN]	[uN]	[V]	[V]	[V]	[°C]	[uN]	[um]	[N/m]	[°]	[°]	[uN]	[um]	[um]	[um]	[uN]	[N/m]	[um]	[um^2]	[MPa]	[MPa]
26	1.000000	0.002772	7.36529e+06	-39939.1	955.819	-29792.6	0.000000	0.000000	6.002809	0.020325	NaN	0.000000	0.001555	0.001600	28.105	0.097568	0.000961	101.558	22.731	-161.592	0.092978	0.001531	-1.057200	-1.058441	0.020325	101.558	-1.057350	-1.340329E+14	-1.516407E-16	NaN
26	1.000000	0.042728	7.36529e+06	-39939.1	955.818	-29792.6	0.000000	0.000000	6.042768	0.112966	NaN	0.000000	0.001532	0.001607	28.1055	0.068786	0.001974	34.8437	-179.062	-166.081	0.147812	0.041422	-1.017244	-1.018551	0.112966	34.8437	-1.019676	-4.174389E+13	-2.706159E-15	NaN
26	1.000000	0.082743	7.36529e+06	-39939.1	955.818	-29792.6	0.000000	0.000000	6.082782	0.053289	NaN	0.000000	0.001543	0.001599	28.1024	0.073320	0.002082	35.2088	138.063	-168.245	0.111181	0.081393	-0.977229	-0.978579	0.053289	35.2088	-0.978364	-1.159760E+13	-4.594792E-15	NaN
26	1.000000	0.122730	7.36529e+06	-39939.1	955.817	-29792.6	0.000000	0.000000	6.122768	0.032965	NaN	0.000000	0.001519	0.001592	28.1032	0.101325	0.002014	50.3051	-95.6992	-166.906	0.030483	0.121422	-0.937242	-0.938550	0.032965	50.3051	-0.937733	-3.285145E+12	-1.003462E-14	NaN
26	1.000000	0.162775	7.36529e+06	-39939.1	955.819	-29792.6	0.000000	0.000000	6.162814	0.077758	NaN	0.000000	0.001495	0.001565	28.1024	0.036289	0.002093	17.3421	127.817	-164.109	0.023742	0.161408	-0.897197	-0.898564	0.077758	17.3421	-0.900560	-1.034265E+12	-7.518149E-14	NaN
26	1.000000	0.202765	7.36529e+06	-39939.1	955.818	-29792.6	0.000000	0.000000	6.202805	0.115201	NaN	0.000000	0.001556	0.001630	28.1041	0.019876	0.001962	10.1283	4.077953	-168.623	0.096145	0.201448	-0.857208	-0.858524	0.115201	10.1283	-0.865738	-3.497688E+11	-3.293620E-13	NaN
26	1.000000	0.242786	7.36529e+06	-39939.1	955.818	-29792.6	0.000000	0.000000	6.242822	0.016566	NaN	0.000000	0.001551	0.001597	28.102	0.009670	0.001905	5.077288	27.2733	-167.079	-0.018061	0.241514	-0.817187	-0.818458	0.016566	5.077288	-0.819634	-8.303223E+10	-1.995168E-13	NaN
26	1.000000	0.282819	7.36529e+06	-39939.1	955.818	-29792.6	0.000000	0.000000	6.282857	0.061952	NaN	0.000000	0.001512	0.001647	28.103	0.047927	0.002075	23.0972	-105.782	-168.824	0.148455	0.281501	-0.777153	-0.778471	0.061952	23.0972	-0.779165	-2.343600E+10	-2.643450E-12	NaN
26	1.000000	0.322869	7.36529e+06	-39939.1	955.818	-29792.6	0.000000	0.000000	6.322903	-0.058991	NaN	0.000000	0.001540	0.001555	28.1024	0.084647	0.001916	44.1735	102.608	-164.82	-0.111857	0.321512	-0.737103	-0.738460	-0.058991	44.1735	-0.736101	-6.080643E+9	9.701424E-12	NaN
26	1.000000	0.362867	7.36529e+06	-39939.1	955.818	-29792.6	0.000000	0.000000	6.362904	0.006439	NaN	0.000000	0.001569	0.001598	28.1018	0.026622	0.001817	14.6498	31.4538	-166.074	0.035604	0.361427	-0.697105	-0.698545	0.006439	14.6498	-0.697435	-1.805065E+9	-3.567242E-12	NaN
26	1.000000	0.402859	7.3653e+06	-39939.1	955.818	-29792.6	0.000000	0.000000	6.402897	0.035097	NaN	0.000000	0.001533	0.001605	28.1009	0.069608	0.001979	35.17	125.001	-166.532	0.058275	0.401564	-0.657113	-0.658409	0.035097	35.17	-0.657861	-5.190049E+8	-6.762319E-11	NaN
26	1.000000	0.442888	7.3653e+06	-39939.1	955.818	-29792.6	0.000000	0.000000	6.442926	0.063959	NaN	0.000000	0.001574	0.001571	28.1019	0.059866	0.002046	29.2566	166.06	-170.703	0.027609	0.441586	-0.617084	-0.618386	0.063959	29.2566	-0.618724	-1.506934E+8	-4.244292E-10	NaN
26	1.000000	0.482918	7.3653e+06	-39939.1	955.819	-29792.6	0.000000	0.000000	6.482955	0.031440	NaN	0.000000	0.001588	0.001629	28.1013	0.019138	0.001972	9.706547	-178.057	-165.779	0.037305	0.481655	-0.577054	-0.578317	0.031440	9.706547	-0.579484	-4.341076E+7	-7.242414E-10	NaN
26	1.000000	0.522923	7.3653e+06	-39939.1	955.818	-29792.6	0.000000	0.000000	6.522961	0.062523	NaN	0.000000	0.001543	0.001596	28.1027	0.045932	0.001931	23.7902	-134.058	-166.34	0.136077	0.521586	-0.537050	-0.538386	0.062523	23.7902	-0.539021	-1.196119E+7	-5.227115E-9	NaN
26	1.000000	0.562928	7.3653e+06	-39939.1	955.818	-29792.6	0.000000	0.000000	6.562963	-0.015182	NaN	0.000000	0.001560	0.001643	28.1012	0.066951	0.001969	34.003	-26.9793	-166.365	-0.022359	0.561619	-0.497044	-0.498353	-0.015182	34.003	-0.496709	-3.08389e+06	4.923009E-9	NaN
26	1.000000	0.602954	7.3653e+06	-39939.1	955.817	-29792.6	0.000000	0.000000	6.602992	0.059636	NaN	0.000000	0.001541	0.001652	28.1016	0.035167	0.001938	18.1447	143.633	-166.975	0.100760	0.601679	-0.457019	-0.458294	0.059636	18.1447	-0.459484	-928459	-6.423137E-8	NaN
26	1.000000	0.642986	7.3653e+06	-39939.1	955.818	-29792.6	0.000000	0.000000	6.643025	0.076000	NaN	0.000000	0.001512	0.001632	28.1	0.034332	0.002116	16.2238	-12.3203	-166.69	0.079077	0.641636	-0.416986	-0.418336	0.076000	16.2238	-0.420499	-261514	-2.906158E-7	NaN
26	1.000000	0.682969	7.3653e+06	-39939.1	955.82	-29792.7	0.000000	0.000000	6.683007	0.041889	NaN	0.000000	0.001518	0.001630	28.1007	0.020253	0.002053	9.866498	-154.677	-166.481	-0.028114	0.681640	-0.377003	-0.378332	0.041889	9.866498	-0.380187	-69594.6	-6.018987E-7	NaN
26	1.000000	0.723014	7.3653e+06	-39939.1	955.816	-29792.7	0.000000	0.000000	6.723052	0.061332	NaN	0.000000	0.001552	0.001629	28.0993	0.090138	0.001934	46.6002	-67.6182	-168.292	0.006750	0.721736	-0.336959	-0.338236	0.061332	46.6002	-0.337946	-17045	-3.598230E-6	NaN
26	1.000000	0.763032	7.3653e+06	-39939.1	955.818	-29792.7	0.000000	0.000000	6.763069	0.019086	NaN	0.000000	0.001563	0.001626	28.1014	0.088584	0.002090	42.3824	-70.4096	-166.254	0.073994	0.761690	-0.296940	-0.298282	0.019086	42.3824	-0.297278	-4286.31	-4.452719E-6	NaN
26	1.000000	0.803080	7.3653e+06	-39939.1	955.818	-29792.7	0.000000	0.000000	6.803117	0.032942	NaN	0.000000	0.001549	0.001597	28.0996	0.091409	0.002076	44.0379	-53.2894	-166.38	0.029910	0.801705	-0.256892	-0.258267	0.032942	44.0379	-0.257453	-1071.12	-3.075441E-5	NaN
26	1.000000	0.843019	7.3653e+06	-39939.1	955.818	-29792.7	0.000000	0.000000	6.843057	0.060520	NaN	0.000000	0.001584	0.001593	28.1013	0.116058	0.002124	54.6455	-48.8543	-166.3	0.060213	0.841702	-0.216953	-0.218270	0.060520	54.6455	-0.217784	-255.982	-0.000236	NaN
26	1.000000	0.883047	7.3653e+06	-39939.1	955.817	-29792.7	0.000000	0.000000	6.883084	0.043450	NaN	0.000000	0.001561	0.001582	28.0982	0.063885	0.001988	32.1348	-174.443	-167.561	0.040859	0.881757	-0.176926	-0.178216	0.043450	32.1348	-0.177940	-56.2785	-0.000772	NaN
26	1.000000	0.923082	7.3653e+06	-39939.1	955.818	-29792.7	0.000000	0.000000	6.923118	0.013091	NaN	0.000000	0.001690	0.001558	28.0985	0.084166	0.002044	41.1828	-121.433	-167.386	0.000600	0.921744	-0.136891	-0.138228	0.013091	41.1828	-0.137129	-10.4422	-0.001254	NaN
26	1.000000	0.963128	7.3653e+06	-39939.1	955.818	-29792.7	0.000000	0.000000	6.963166	0.038459	NaN	0.000000	0.001596	0.001577	28.0986	0.122597	0.001953	62.781	92.7371	-167.357	0.078057	0.961801	-0.096844	-0.098171	0.038459	62.781	-0.097304	-1.590617	-0.024179	NaN
26	1.000000	1.003098	7.3653e+06	-39939.1	955.817	-29792.7	0.000000	0.000000	7.003134	-0.014192	NaN	0.000000	0.001525	0.001604	28.0986	0.056107	0.001950	28.7702	-120.675	-166.435	-0.013577	1.001797	-0.056874	-0.058175	-0.014192	28.7702	-0.056504	-0.142596	0.099524	NaN
26	1.000000	1.043130	7.3653e+06	-39939.1	955.818	-29792.7	0.000000	0.000000	7.043169	0.068283	NaN	0.000000	0.001567	0.001604	28.0996	0.020960	0.002007	10.4429	93.1961	-164.023	0.076012	1.041797	-0.016842	-0.018175	0.068283	10.4429	-0.021746	-0.013912	-4.908033	NaN
26	2.000000	1.071761	7.3653e+06	-39939.1	955.819	-29792.7	0.000000	0.000000	7.072355	13.5692	NaN	0.000000	0.001539	0.001540	28.1002	12.4139	0.001741	7128.37	8.413265	-177.801	13.3942	1.071409	0.011789	0.011437	13.5692	7128.37	0.010361	0.009586	1415.54	66519.5
26	2.000000	1.081719	7.3653e+06	-39939.1	955.818	-29792.7	0.000000	0.000000	7.083132	33.5158	NaN	0.000000	0.001556	0.001574	28.0986	22.6386	0.001691	13389.8	-0.511224	-172.744	34.8266	1.081395	0.021747	0.021423	33.5158	13389.8	0.019870	0.022338	1500.42	81852.1
26	2.000000	1.091643	7.3653e+06	-39939.1	955.818	-29792.7	0.000000	0.000000	7.094488	68.3462	NaN	0.000000	0.001569	0.001536	28.0987	33.0909	0.001751	18901	4.703436	177.101	66.5764	1.091418	0.031671	0.031446	68.3462	18901	0.028959	0.038613	1770.01	87879.5
26	2.000000	1.101659	7.3653e+06	-39939.1	955.818	-29792.7	0.000000	0.000000	7.106102	107.242	NaN	0.000000	0.001544	0.001566	28.0967	44.6569	0.001879	23760.3	7.533034	173.456	107.986	1.101417	0.041687	0.041445	107.242	23760.3	0.038302	0.059713	1795.95	88836.2
26	2.000000	1.111568	7.3653e+06	-39939.1	955.82	-29792.7	0.000000	0.000000	7.118141	159.074	NaN	0.000000	0.001535	0.001540	28.0974	52.7722	0.001862	28338.6	4.199240	175.829	153.851	1.111274	0.051596	0.051302	159.074	28338.6	0.047386	0.084504	1882.45	89066.3
26	2.000000	1.121628	7.3653e+06	-39939.1	955.818	-29792.7	0.000000	0.000000	7.130396	212.48	NaN	0.000000	0.001499	0.001589	28.0969	61.7796	0.001856	33293.9	8.380108	170.193	211.33	1.121233	0.061656	0.061261	212.48	33293.9	0.056870	0.114823	1850.5	89768.4
26	2.000000	1.131627	7.3653e+06	-39939.1	955.818	-29792.7	0.000000	0.000000	7.143031	276.638	NaN	0.000000	0.001521	0.001596	28.099	71.3045	0.001788	39868.7	6.116440	171.72	276.758	1.131299	0.071654	0.071326	276.638	39868.7	0.066450	0.149949	1844.89	94066.3
26	2.000000	1.141636	7.3653e+06	-39939.1	955.82	-29792.7	0.000000	0.000000	7.155746	342.484	NaN	0.000000	0.001502	0.001556	28.0966	80.7282	0.001677	48144.8	3.891128	171.548	343.033	1.141289	0.081664	0.081317	342.484	48144.8	0.076329	0.190782	1795.16	100706
26	2.000000	1.151554	7.3653e+06	-39939.1	955.818	-29792.7	0.000000	0.000000	7.168936	422.113	NaN	0.000000	0.001533	0.001581	28.0982	90.4162	0.001778	50853.7	5.521923	169.625	420.281	1.151371	0.091581	0.091399	422.113	50853.7	0.085356	0.232103	1818.65	96439.6
26	2.000000	1.161591	7.3653e+06	-39939.1	955.819	-29792.7	0.000000	0.000000	7.182656	511.739	NaN	0.000000	0.001557	0.001588	28.0966	99.7448	0.001734	57528.4	2.140007	172.67	512.343	1.161311	0.101619	0.101339	511.739	57528.4	0.094947	0.280127	1826.81	99306.6
26	2.000000	1.166606	7.3653e+06	-39939.1	955.819	-29792.7	0.000000	0.000000	7.189446	554.92	NaN	0.000000	0.001512	0.001648	28.0977	103.9	0.001881	55225.2	6.883671	169.286	554.345	1.166145	0.106634	0.106173	554.92	55225.2	0.099098	0.302214	1836.19	91781.1