File: remote_trans/data/nanoindenter/0828-1/data/Data_2025-08-06,11h17m57s/2025-07-22_16-23-58_1_1130.txt
2025-07-22, 16:23:58, 1
Index	Phase	Displacement	Time	Pos X	Pos Y	Pos Z	Rot A	Rot B	Piezo Z	Force A	Force B	Gripper	Voltage A	Voltage B	Temperature	Amplitude force	Amplitude pos	Stiffness	Phase shift	Phase excitation	Force A raw	Displacement raw	HMax	HMax raw	Real Force	Real Stiffness	Contact Depth	Area	Hardness	Reduced Mod.
[#]	[#]	[um]	[s]	[um]	[um]	[um]	[m°]	[m°]	[um]	[uN]	[uN]	[V]	[V]	[V]	[°C]	[uN]	[um]	[N/m]	[°]	[°]	[uN]	[um]	[um]	[um]	[uN]	[N/m]	[um]	[um^2]	[MPa]	[MPa]
1130	1.000000	0.002542	7.3761e+06	-56639.1	1055.82	-29738.5	0.000000	0.000000	6.002831	-0.088788	NaN	0.000000	0.001557	0.001660	28.0812	0.111498	0.000962	115.891	68.5392	-167.043	-0.076268	0.001294	-1.023942	-1.025190	-0.088788	115.891	-1.023368	-4.680146E+13	1.897130E-15	NaN
1130	1.000000	0.042480	7.3761e+06	-56639.1	1055.82	-29738.5	0.000000	0.000000	6.042774	0.049972	NaN	0.000000	0.001579	0.001694	28.0826	0.030999	0.001934	16.0316	-53.5468	-162.435	0.035846	0.041135	-0.984005	-0.985349	0.049972	16.0316	-0.986343	-1.485439E+13	-3.364148E-15	NaN
1130	1.000000	0.082463	7.37611e+06	-56639.1	1055.82	-29738.5	0.000000	0.000000	6.082758	0.066046	NaN	0.000000	0.001561	0.001676	28.0825	0.017464	0.002009	8.694154	6.884870	-163.563	0.059640	0.081120	-0.944022	-0.945364	0.066046	8.694154	-0.949719	-4.766978E+12	-1.385495E-14	NaN
1130	1.000000	0.122493	7.37611e+06	-56639.1	1055.82	-29738.5	0.000000	0.000000	6.122784	-0.033586	NaN	0.000000	0.001528	0.001742	28.0824	0.032733	0.002113	15.49	14.2172	-168.681	0.001963	0.121207	-0.903991	-0.905278	-0.033586	15.49	-0.902365	-1.094013E+12	3.069949E-14	NaN
1130	1.000000	0.162507	7.37611e+06	-56639.1	1055.82	-29738.5	0.000000	0.000000	6.162798	-0.017602	NaN	0.000000	0.001572	0.001684	28.0815	0.021195	0.001952	10.8567	43.2673	-167.611	-0.080030	0.161169	-0.863978	-0.865315	-0.017602	10.8567	-0.862762	-3.187876E+11	5.521608E-14	NaN
1130	1.000000	0.202519	7.37611e+06	-56639.1	1055.82	-29738.5	0.000000	0.000000	6.202811	-0.013190	NaN	0.000000	0.001551	0.001666	28.0811	0.068355	0.001982	34.4954	163.661	-167.602	-0.049173	0.201190	-0.823965	-0.825295	-0.013190	34.4954	-0.823679	-9.420872E+10	1.400105E-13	NaN
1130	1.000000	0.242543	7.37611e+06	-56639.1	1055.82	-29738.5	0.000000	0.000000	6.242835	-0.010928	NaN	0.000000	0.001582	0.001697	28.081	0.094719	0.001928	49.1407	146.882	-170.919	-0.028389	0.241238	-0.783942	-0.785247	-0.010928	49.1407	-0.783775	-2.707217E+10	4.036722E-13	NaN
1130	1.000000	0.282575	7.37611e+06	-56639.1	1055.82	-29738.5	0.000000	0.000000	6.282864	-0.082829	NaN	0.000000	0.001569	0.001720	28.0812	0.054803	0.002005	27.3367	-60.2874	-166.479	-0.059841	0.281204	-0.743910	-0.745281	-0.082829	27.3367	-0.741637	-7.233667E+9	1.145045E-11	NaN
1130	1.000000	0.322550	7.37611e+06	-56639.1	1055.82	-29738.5	0.000000	0.000000	6.322839	-0.060896	NaN	0.000000	0.001538	0.001741	28.0826	0.034531	0.001892	18.2479	-25.7333	-164.711	-0.097653	0.321243	-0.703935	-0.705242	-0.060896	18.2479	-0.701432	-2.046858E+9	2.975091E-11	NaN
1130	1.000000	0.362605	7.37611e+06	-56639.1	1055.82	-29738.5	0.000000	0.000000	6.362897	-0.008158	NaN	0.000000	0.001584	0.001747	28.0827	0.081021	0.002110	38.3977	57.7314	-165.435	0.058237	0.361286	-0.663880	-0.665198	-0.008158	38.3977	-0.663720	-6.243386E+8	1.306636E-11	NaN
1130	1.000000	0.402610	7.37611e+06	-56639.1	1055.82	-29738.5	0.000000	0.000000	6.402900	-0.056264	NaN	0.000000	0.001589	0.001739	28.0826	0.150255	0.002082	72.1655	121.194	-164.793	-0.037644	0.401274	-0.623875	-0.625210	-0.056264	72.1655	-0.623290	-1.741197E+8	3.231359E-10	NaN
1130	1.000000	0.442624	7.37611e+06	-56639.1	1055.82	-29738.5	0.000000	0.000000	6.442914	-0.057597	NaN	0.000000	0.001566	0.001729	28.0813	0.115422	0.002019	57.1785	154.147	-168.026	-0.051447	0.441336	-0.583860	-0.585148	-0.057597	57.1785	-0.583105	-4.870474E+7	1.182579E-9	NaN
1130	1.000000	0.482582	7.37611e+06	-56639.1	1055.82	-29738.5	0.000000	0.000000	6.482872	-0.055343	NaN	0.000000	0.001521	0.001721	28.0811	0.147335	0.002077	70.9481	81.6757	-163.727	-0.018984	0.481281	-0.543903	-0.545203	-0.055343	70.9481	-0.543318	-1.372032E+7	4.033622E-9	NaN
1130	1.000000	0.522661	7.37611e+06	-56639.1	1055.82	-29738.5	0.000000	0.000000	6.522951	-0.054248	NaN	0.000000	0.001612	0.001728	28.0812	0.061391	0.002057	29.845	-87.2884	-165.576	-0.034456	0.521324	-0.503824	-0.505160	-0.054248	29.845	-0.502461	-3.70969e+06	1.462326E-8	NaN
1130	1.000000	0.562685	7.37611e+06	-56639.1	1055.82	-29738.5	0.000000	0.000000	6.562975	-0.058999	NaN	0.000000	0.001584	0.001679	28.0811	0.123336	0.002149	57.3953	111.857	-163.041	-0.116016	0.561319	-0.463799	-0.465166	-0.058999	57.3953	-0.463028	-1.04127e+06	5.666111E-8	NaN
1130	1.000000	0.602692	7.37611e+06	-56639.1	1055.82	-29738.5	0.000000	0.000000	6.602983	-0.038696	NaN	0.000000	0.001582	0.001697	28.0824	0.096975	0.002090	46.4041	48.8184	-163.621	-0.043893	0.601365	-0.423792	-0.425119	-0.038696	46.4041	-0.423167	-285307	1.356281E-7	NaN
1130	1.000000	0.642684	7.37611e+06	-56639.1	1055.82	-29738.5	0.000000	0.000000	6.642974	-0.073072	NaN	0.000000	0.001582	0.001695	28.0823	0.100548	0.001975	50.8991	22.5913	-165.801	-0.047233	0.641368	-0.383800	-0.385116	-0.073072	50.8991	-0.382723	-75675.6	9.655943E-7	NaN
1130	1.000000	0.682715	7.37611e+06	-56639.1	1055.82	-29738.5	0.000000	0.000000	6.683005	-0.041834	NaN	0.000000	0.001583	0.001706	28.0823	0.108844	0.002039	53.3932	54.2736	-163.041	-0.050312	0.681446	-0.343770	-0.345039	-0.041834	53.3932	-0.343182	-20319.2	2.058855E-6	NaN
1130	1.000000	0.722733	7.37611e+06	-56639.1	1055.82	-29738.5	0.000000	0.000000	6.723026	0.001105	NaN	0.000000	0.001594	0.001713	28.0811	0.061838	0.001889	32.7433	123.863	-168.795	-0.025046	0.721430	-0.303751	-0.305055	0.001105	32.7433	-0.303777	-5355.42	-2.063216E-7	NaN
1130	1.000000	0.762773	7.37611e+06	-56639.1	1055.82	-29738.5	0.000000	0.000000	6.763062	-0.074840	NaN	0.000000	0.001643	0.001656	28.081	0.050335	0.001934	26.0267	25.5031	-165.497	-0.155613	0.761419	-0.263712	-0.265065	-0.074840	26.0267	-0.261555	-1238.06	6.044920E-5	NaN
1130	1.000000	0.802797	7.37611e+06	-56639.1	1055.82	-29738.5	0.000000	0.000000	6.803088	-0.047092	NaN	0.000000	0.001624	0.001618	28.0814	0.065565	0.001872	35.03	-95.0054	-163.974	0.057363	0.801456	-0.223687	-0.225029	-0.047092	35.03	-0.222679	-306.489	0.000154	NaN
1130	1.000000	0.842791	7.37611e+06	-56639.1	1055.82	-29738.5	0.000000	0.000000	6.843080	-0.080713	NaN	0.000000	0.001618	0.001612	28.082	0.116535	0.002047	56.9269	79.1524	-164.14	-0.065098	0.841467	-0.183694	-0.185018	-0.080713	56.9269	-0.182631	-67.6254	0.001194	NaN
1130	1.000000	0.882773	7.37611e+06	-56639.1	1055.82	-29738.5	0.000000	0.000000	6.883065	-0.022260	NaN	0.000000	0.001640	0.001635	28.0824	0.040461	0.001899	21.3014	-165.013	-164.774	-0.015218	0.881497	-0.143711	-0.144987	-0.022260	21.3014	-0.142927	-13.4185	0.001659	NaN
1130	1.000000	0.922825	7.37611e+06	-56639.1	1055.82	-29738.5	0.000000	0.000000	6.923114	-0.079280	NaN	0.000000	0.001570	0.001664	28.0824	0.023282	0.001900	12.2524	158.349	-167.799	-0.050518	0.921518	-0.103660	-0.104967	-0.079280	12.2524	-0.098807	-1.718885	0.046123	NaN
1130	1.000000	0.962828	7.37611e+06	-56639.1	1055.82	-29738.5	0.000000	0.000000	6.963121	0.012874	NaN	0.000000	0.001537	0.001669	28.0827	0.121627	0.002043	59.5337	0.330009	-165.148	-0.071271	0.961507	-0.063656	-0.064978	0.012874	59.5337	-0.063819	-0.231030	-0.055726	NaN
1130	1.000000	1.002881	7.37611e+06	-56639.1	1055.82	-29738.5	0.000000	0.000000	7.003246	1.756615	NaN	0.000000	0.001540	0.001661	28.0813	0.806115	0.002037	395.792	26.5311	-165.245	1.625393	1.001481	-0.023603	-0.025004	1.756615	395.792	-0.026932	-0.018975	-92.5734	NaN
1130	2.000000	1.034423	7.37611e+06	-56639.1	1055.82	-29738.5	0.000000	0.000000	7.035227	12.4405	NaN	0.000000	0.001559	0.001645	28.0822	9.454196	0.001862	5076.56	5.980662	-170.385	11.675	1.034085	0.007939	0.007600	12.4405	5076.56	0.006101	0.005160	2410.77	64565.6
1130	2.000000	1.044348	7.37611e+06	-56639.1	1055.82	-29738.5	0.000000	0.000000	7.045897	30.5657	NaN	0.000000	0.001588	0.001666	28.0812	19.9509	0.001736	11492.7	2.120376	-172.674	28.7453	1.044023	0.017863	0.017538	30.5657	11492.7	0.015868	0.016461	1856.88	81841.1
1130	2.000000	1.054360	7.37611e+06	-56639.1	1055.82	-29738.5	0.000000	0.000000	7.056756	51.1295	NaN	0.000000	0.001556	0.001673	28.0827	29.6541	0.001796	16509.3	2.934228	-175.362	51.2891	1.053978	0.027875	0.027494	51.1295	16509.3	0.025553	0.032028	1596.38	84281.8
1130	2.000000	1.064311	7.37611e+06	-56639.1	1055.82	-29738.5	0.000000	0.000000	7.067788	77.4159	NaN	0.000000	0.001648	0.001678	28.0826	38.9381	0.001839	21176.2	6.154975	178.273	75.3646	1.063958	0.037826	0.037474	77.4159	21176.2	0.035084	0.051943	1490.41	84890.5
1130	2.000000	1.074373	7.37611e+06	-56639.1	1055.82	-29738.5	0.000000	0.000000	7.079079	107.269	NaN	0.000000	0.001595	0.001641	28.0827	47.0737	0.001724	27298.5	6.059897	177.227	109.61	1.073996	0.047889	0.047511	107.269	27298.5	0.044942	0.077422	1385.51	89635.6
1130	2.000000	1.084265	7.37611e+06	-56639.1	1055.82	-29738.5	0.000000	0.000000	7.090955	155.515	NaN	0.000000	0.001571	0.001699	28.0827	60.095	0.001856	32372.6	6.427153	173.85	153.706	1.084078	0.057780	0.057594	155.515	32372.6	0.054177	0.105761	1470.45	90947
1130	2.000000	1.094270	7.37611e+06	-56639.1	1055.82	-29738.5	0.000000	0.000000	7.103207	210.108	NaN	0.000000	0.001592	0.001718	28.0812	68.7749	0.001779	38659.5	8.139889	170.934	208.166	1.094023	0.067786	0.067539	210.108	38659.5	0.063710	0.139446	1506.73	94585.9
1130	2.000000	1.104257	7.37611e+06	-56639.1	1055.82	-29738.5	0.000000	0.000000	7.115324	261.891	NaN	0.000000	0.001562	0.001776	28.0813	76.9459	0.001841	41799.1	0.980234	177.374	259.662	1.104008	0.077772	0.077523	261.891	41799.1	0.073073	0.176813	1481.18	90820.4
1130	2.000000	1.114303	7.37611e+06	-56639.1	1055.82	-29738.5	0.000000	0.000000	7.127960	324.827	NaN	0.000000	0.001568	0.001802	28.0812	88.3621	0.001792	49305.3	8.711808	169.353	324.515	1.114014	0.087819	0.087530	324.827	49305.3	0.082878	0.220382	1473.92	95957.3
1130	2.000000	1.124144	7.37611e+06	-56639.1	1055.82	-29738.5	0.000000	0.000000	7.140649	394.07	NaN	0.000000	0.001592	0.001756	28.0824	96.1	0.001724	55744.8	-0.112703	176.79	387.882	1.123959	0.097659	0.097474	394.07	55744.8	0.092357	0.266743	1477.34	98612.2
1130	2.000000	1.130277	7.37611e+06	-56639.1	1055.82	-29738.5	0.000000	0.000000	7.148784	442.738	NaN	0.000000	0.001558	0.001752	28.0821	101.907	0.001741	58541.4	3.565358	173.229	440.341	1.129801	0.103792	0.103316	442.738	58541.4	0.098120	0.296942	1490.99	98152.3