File: remote_trans/data/nanoindenter/0828-1/data/Data_2025-08-06,11h17m57s/2025-07-22_16-23-58_1_646.txt
2025-07-22, 16:23:58, 1
Index	Phase	Displacement	Time	Pos X	Pos Y	Pos Z	Rot A	Rot B	Piezo Z	Force A	Force B	Gripper	Voltage A	Voltage B	Temperature	Amplitude force	Amplitude pos	Stiffness	Phase shift	Phase excitation	Force A raw	Displacement raw	HMax	HMax raw	Real Force	Real Stiffness	Contact Depth	Area	Hardness	Reduced Mod.
[#]	[#]	[um]	[s]	[um]	[um]	[um]	[m°]	[m°]	[um]	[uN]	[uN]	[V]	[V]	[V]	[°C]	[uN]	[um]	[N/m]	[°]	[°]	[uN]	[um]	[um]	[um]	[uN]	[N/m]	[um]	[um^2]	[MPa]	[MPa]
646	1.000000	0.002683	7.37137e+06	-44789.1	1005.82	-29774.7	0.000000	0.000000	6.002807	-0.025845	NaN	0.000000	0.001655	0.001748	28.0835	0.075285	0.000938	80.2792	76.9281	-162.888	-0.024997	0.001417	-1.161209	-1.162476	-0.025845	80.2792	-1.160968	-3.294900E+15	7.843947E-18	NaN
646	1.000000	0.046632	7.37137e+06	-44789.1	1005.82	-29774.6	0.000000	0.000000	6.046758	0.019740	NaN	0.000000	0.001694	0.001706	28.0834	0.031473	0.001955	16.1011	176.429	-162.205	-0.018110	0.045257	-1.117260	-1.118636	0.019740	16.1011	-1.118180	-8.791254E+14	-2.245390E-17	NaN
646	1.000000	0.090635	7.37137e+06	-44789.1	1005.82	-29774.6	0.000000	0.000000	6.090761	0.028266	NaN	0.000000	0.001686	0.001698	28.0833	0.036779	0.001873	19.6378	-94.9409	-163.608	0.048977	0.089358	-1.073258	-1.074535	0.028266	19.6378	-1.074338	-2.267059E+14	-1.246829E-16	NaN
646	1.000000	0.134662	7.37137e+06	-44789.1	1005.82	-29774.6	0.000000	0.000000	6.134790	0.060577	NaN	0.000000	0.001644	0.001699	28.0825	0.029638	0.002036	14.5586	-161.933	-164.932	0.058072	0.133354	-1.029231	-1.030538	0.060577	14.5586	-1.032351	-6.181672E+13	-9.799532E-16	NaN
646	1.000000	0.178678	7.37137e+06	-44789.1	1005.82	-29774.6	0.000000	0.000000	6.178806	0.075603	NaN	0.000000	0.001755	0.001724	28.0826	0.019355	0.002050	9.442735	160.483	-166.967	0.025063	0.177341	-0.985215	-0.986552	0.075603	9.442735	-0.991219	-1.727962E+13	-4.375265E-15	NaN
646	1.000000	0.222731	7.37137e+06	-44789.1	1005.82	-29774.6	0.000000	0.000000	6.222855	-0.027490	NaN	0.000000	0.001677	0.001707	28.0824	0.074276	0.002037	36.4718	-3.589852	-162.624	-0.030857	0.221395	-0.941162	-0.942497	-0.027490	36.4718	-0.940596	-3.590743E+12	7.655706E-15	NaN
646	1.000000	0.266711	7.37137e+06	-44789.1	1005.82	-29774.6	0.000000	0.000000	6.266835	-0.039989	NaN	0.000000	0.001662	0.001690	28.0837	0.048263	0.002006	24.0584	-15.7285	-163.641	-0.044332	0.265473	-0.897181	-0.898419	-0.039989	24.0584	-0.895935	-8.956354E+11	4.464925E-14	NaN
646	1.000000	0.310738	7.37137e+06	-44789.1	1005.82	-29774.6	0.000000	0.000000	6.310866	0.051482	NaN	0.000000	0.001691	0.001682	28.0836	0.051825	0.001936	26.7748	-85.0015	-167.99	0.091068	0.309459	-0.853154	-0.854434	0.051482	26.7748	-0.854596	-2.471570E+11	-2.082972E-13	NaN
646	1.000000	0.354741	7.37137e+06	-44789.1	1005.82	-29774.6	0.000000	0.000000	6.354867	0.014923	NaN	0.000000	0.001645	0.001688	28.0836	0.070986	0.002111	33.6232	85.0459	-167.839	-0.016810	0.353465	-0.809152	-0.810428	0.014923	33.6232	-0.809485	-6.047551E+10	-2.467583E-13	NaN
646	1.000000	0.398777	7.37137e+06	-44789.1	1005.82	-29774.6	0.000000	0.000000	6.398900	-0.037002	NaN	0.000000	0.001657	0.001709	28.0825	0.042684	0.002053	20.7888	-161.631	-164.7	0.027445	0.397427	-0.765116	-0.766466	-0.037002	20.7888	-0.763781	-1.447886E+10	2.555587E-12	NaN
646	1.000000	0.442805	7.37137e+06	-44789.1	1005.82	-29774.6	0.000000	0.000000	6.442931	0.026732	NaN	0.000000	0.001672	0.001709	28.0824	0.144382	0.002012	71.7763	2.349304	-165.528	0.099047	0.441467	-0.721088	-0.722426	0.026732	71.7763	-0.721367	-3.829322E+9	-6.980816E-12	NaN
646	1.000000	0.486790	7.37137e+06	-44789.1	1005.82	-29774.6	0.000000	0.000000	6.486917	0.052018	NaN	0.000000	0.001692	0.001680	28.0834	0.019837	0.001945	10.1988	-54.6694	-168.063	0.014367	0.485486	-0.677103	-0.678406	0.052018	10.1988	-0.680928	-1.073745E+9	-4.844498E-11	NaN
646	1.000000	0.530827	7.37137e+06	-44789.1	1005.82	-29774.6	0.000000	0.000000	6.530951	-0.010017	NaN	0.000000	0.001664	0.001686	28.0828	0.169901	0.001939	87.623	60.9669	-167.225	-0.052477	0.529560	-0.633066	-0.634333	-0.010017	87.623	-0.632980	-2.365636E+8	4.234571E-11	NaN
646	1.000000	0.574840	7.37137e+06	-44789.1	1005.82	-29774.6	0.000000	0.000000	6.574966	0.022491	NaN	0.000000	0.001685	0.001730	28.0834	0.056060	0.001956	28.6649	-7.811607	-168.49	0.053710	0.573509	-0.589052	-0.590384	0.022491	28.6649	-0.589641	-5.993963E+7	-3.752224E-10	NaN
646	1.000000	0.618877	7.37137e+06	-44789.1	1005.82	-29774.6	0.000000	0.000000	6.619002	0.013075	NaN	0.000000	0.001671	0.001687	28.0836	0.009061	0.002111	4.292122	-132.375	-164.584	0.008581	0.617559	-0.545016	-0.546334	0.013075	4.292122	-0.547301	-1.557977E+7	-8.392025E-10	NaN
646	1.000000	0.662908	7.37137e+06	-44789.1	1005.82	-29774.6	0.000000	0.000000	6.663033	-0.002513	NaN	0.000000	0.001681	0.001678	28.0835	0.082923	0.002040	40.6529	168.705	-162.65	0.048665	0.661580	-0.500985	-0.502313	-0.002513	40.6529	-0.500938	-3.5327e+06	7.112199E-10	NaN
646	1.000000	0.706873	7.37137e+06	-44789.1	1005.82	-29774.6	0.000000	0.000000	6.707001	0.070473	NaN	0.000000	0.001692	0.001641	28.082	0.135053	0.001909	70.7412	56.5277	-166.995	0.021800	0.705614	-0.457020	-0.458279	0.070473	70.7412	-0.457767	-878267	-8.024078E-8	NaN
646	1.000000	0.750914	7.37137e+06	-44789.1	1005.82	-29774.6	0.000000	0.000000	6.751039	-0.003256	NaN	0.000000	0.001572	0.001644	28.0821	0.047439	0.002009	23.6096	-109.089	-163.394	-0.006830	0.749604	-0.412978	-0.414289	-0.003256	23.6096	-0.412875	-203829	1.597329E-8	NaN
646	1.000000	0.794930	7.37137e+06	-44789.1	1005.82	-29774.6	0.000000	0.000000	6.795056	0.014095	NaN	0.000000	0.001587	0.001622	28.0821	0.073479	0.001885	38.9884	-45.7547	-166.362	-0.055865	0.793610	-0.368963	-0.370283	0.014095	38.9884	-0.369234	-48427.2	-2.910483E-7	NaN
646	1.000000	0.838948	7.37137e+06	-44789.1	1005.82	-29774.6	0.000000	0.000000	6.839074	0.011914	NaN	0.000000	0.001659	0.001682	28.0833	0.115676	0.001953	59.2412	79.8053	-168.747	0.019929	0.837627	-0.324944	-0.326265	0.011914	59.2412	-0.325095	-11054.3	-1.077729E-6	NaN
646	1.000000	0.882965	7.37137e+06	-44789.1	1005.82	-29774.6	0.000000	0.000000	6.883090	-0.008666	NaN	0.000000	0.001666	0.001674	28.0835	0.033800	0.002112	16.0009	-98.7707	-166.35	0.069775	0.881665	-0.280927	-0.282228	-0.008666	16.0009	-0.280521	-2403.43	3.605865E-6	NaN
646	1.000000	0.926969	7.37137e+06	-44789.1	1005.82	-29774.6	0.000000	0.000000	6.927096	0.063558	NaN	0.000000	0.001673	0.001638	28.0833	0.049582	0.002000	24.7946	145.11	-166.932	0.027294	0.925706	-0.236924	-0.238187	0.063558	24.7946	-0.238847	-551.476	-0.000115	NaN
646	1.000000	0.971019	7.37137e+06	-44789.1	1005.82	-29774.6	0.000000	0.000000	6.971143	-0.020854	NaN	0.000000	0.001635	0.001635	28.0823	0.061685	0.002008	30.7192	-158.056	-162.636	-0.105126	0.969725	-0.192874	-0.194168	-0.020854	30.7192	-0.192365	-98.5028	0.000212	NaN
646	1.000000	1.015002	7.37137e+06	-44789.1	1005.82	-29774.6	0.000000	0.000000	7.015129	0.036439	NaN	0.000000	0.001659	0.001611	28.0822	0.073665	0.001927	38.2182	-150.263	-165.911	-0.022818	1.013669	-0.148890	-0.150224	0.036439	38.2182	-0.149605	-17.8158	-0.002045	NaN
646	1.000000	1.059045	7.37137e+06	-44789.1	1005.82	-29774.6	0.000000	0.000000	7.059169	-0.020856	NaN	0.000000	0.001623	0.001593	28.0824	0.113775	0.002085	54.5798	-51.6077	-164.908	-0.099885	1.057683	-0.104848	-0.106210	-0.020856	54.5798	-0.104561	-2.299791	0.009068	NaN
646	1.000000	1.103058	7.37137e+06	-44789.1	1005.82	-29774.6	0.000000	0.000000	7.103183	-0.007766	NaN	0.000000	0.001606	0.001632	28.0834	0.071680	0.001937	37.0137	93.1666	-165.618	-0.056531	1.101729	-0.060835	-0.062163	-0.007766	37.0137	-0.060677	-0.188315	0.041242	NaN
646	1.000000	1.147045	7.37137e+06	-44789.1	1005.82	-29774.6	0.000000	0.000000	7.147164	-0.149151	NaN	0.000000	0.001650	0.001583	28.0836	0.044631	0.001927	23.1595	126.854	-167.085	-0.118110	1.145769	-0.016848	-0.018124	-0.149151	23.1595	-0.012017	-0.007539	19.7852	NaN
646	2.000000	1.174515	7.37137e+06	-44789.1	1005.82	-29774.6	0.000000	0.000000	7.175363	17.6018	NaN	0.000000	0.001650	0.001570	28.0835	16.0554	0.001799	8923.41	5.421957	-177.324	16.5175	1.174198	0.010622	0.010305	17.6018	8923.41	0.009142	0.008244	2135.12	89791.8
646	2.000000	1.185496	7.37137e+06	-44789.1	1005.82	-29774.6	0.000000	0.000000	7.187137	36.8761	NaN	0.000000	0.001577	0.001567	28.0824	26.385	0.001811	14572	4.490226	-178.894	37.4616	1.185150	0.021603	0.021257	36.8761	14572	0.019705	0.022081	1670.06	89595.1
646	2.000000	1.196478	7.37137e+06	-44789.1	1005.82	-29774.6	0.000000	0.000000	7.199544	71.5393	NaN	0.000000	0.001623	0.001600	28.0824	35.4256	0.001768	20038.3	2.778315	-179.994	70.5504	1.196177	0.032586	0.032284	71.5393	20038.3	0.029908	0.040553	1764.08	90911.9
646	2.000000	1.207406	7.37138e+06	-44789.1	1005.82	-29774.6	0.000000	0.000000	7.212367	117.658	NaN	0.000000	0.001595	0.001684	28.0826	47.1815	0.001733	27232.5	6.691059	174.004	115.728	1.207120	0.043513	0.043227	117.658	27232.5	0.040273	0.064735	1817.54	97789.6
646	2.000000	1.218338	7.37138e+06	-44789.1	1005.82	-29774.6	0.000000	0.000000	7.225808	178.692	NaN	0.000000	0.001596	0.001676	28.0834	58.0131	0.001826	31762.4	7.332601	171.572	174.305	1.218107	0.054445	0.054214	178.692	31762.4	0.050226	0.093112	1919.1	95100.7
646	2.000000	1.229370	7.37138e+06	-44789.1	1005.82	-29774.6	0.000000	0.000000	7.239213	236.428	NaN	0.000000	0.001637	0.001639	28.0834	67.2269	0.001790	37555.1	1.334520	175.703	234.122	1.229133	0.065477	0.065241	236.428	37555.1	0.060756	0.128531	1839.46	95705.6
646	2.000000	1.240400	7.37138e+06	-44789.1	1005.82	-29774.6	0.000000	0.000000	7.253234	309.168	NaN	0.000000	0.001600	0.001642	28.0834	78.7799	0.001869	42156.1	5.763183	171.285	309.459	1.240047	0.076508	0.076154	309.168	42156.1	0.071007	0.168210	1837.99	93909.2
646	2.000000	1.251395	7.37138e+06	-44789.1	1005.82	-29774.6	0.000000	0.000000	7.267331	384.64	NaN	0.000000	0.001591	0.001629	28.082	87.6106	0.001889	46384.2	4.472755	171.483	383.283	1.251086	0.087502	0.087194	384.64	46384.2	0.081283	0.212990	1805.91	91825.6
646	2.000000	1.262276	7.37138e+06	-44789.1	1005.82	-29774.6	0.000000	0.000000	7.281566	466.258	NaN	0.000000	0.001575	0.001681	28.0824	98.8363	0.001815	54445.7	8.739410	165.766	460.432	1.262035	0.098383	0.098143	466.258	54445.7	0.091960	0.264719	1761.33	96681.7
646	2.000000	1.267388	7.37138e+06	-44789.1	1005.82	-29774.6	0.000000	0.000000	7.288439	509.071	NaN	0.000000	0.001675	0.001700	28.0818	103.44	0.001858	55674.3	2.828078	171.763	509.119	1.267146	0.103495	0.103253	509.071	55674.3	0.096637	0.289027	1761.33	94614.7