File: remote_trans/data/nanoindenter/0828-1/data/Data_2025-08-06,11h17m57s/2025-07-22_16-23-58_1_371.txt
2025-07-22, 16:23:58, 1
Index	Phase	Displacement	Time	Pos X	Pos Y	Pos Z	Rot A	Rot B	Piezo Z	Force A	Force B	Gripper	Voltage A	Voltage B	Temperature	Amplitude force	Amplitude pos	Stiffness	Phase shift	Phase excitation	Force A raw	Displacement raw	HMax	HMax raw	Real Force	Real Stiffness	Contact Depth	Area	Hardness	Reduced Mod.
[#]	[#]	[um]	[s]	[um]	[um]	[um]	[m°]	[m°]	[um]	[uN]	[uN]	[V]	[V]	[V]	[°C]	[uN]	[um]	[N/m]	[°]	[°]	[uN]	[um]	[um]	[um]	[uN]	[N/m]	[um]	[um^2]	[MPa]	[MPa]
371	1.000000	0.002365	7.36869e+06	-57189.1	955.819	-29737.6	0.000000	0.000000	6.002791	-1.823295E-5	NaN	0.000000	0.001589	0.001644	28.0815	0.091202	0.000990	92.1327	-91.8041	-165.534	-0.040059	0.001133	-1.077505	-1.078737	-1.823295E-5	92.1327	-1.077505	-2.500369E+14	7.292106E-20	NaN
371	1.000000	0.042309	7.36869e+06	-57189.1	955.818	-29737.6	0.000000	0.000000	6.042737	0.058596	NaN	0.000000	0.001643	0.001656	28.0809	0.053845	0.001939	27.7687	122.652	-166.116	0.031430	0.041014	-1.037561	-1.038855	0.058596	27.7687	-1.039143	-7.628634E+13	-7.681093E-16	NaN
371	1.000000	0.082340	7.36869e+06	-57189.1	955.818	-29737.6	0.000000	0.000000	6.082764	-0.056298	NaN	0.000000	0.001649	0.001620	28.0798	0.099704	0.001941	51.3801	-86.3287	-165.656	-0.070387	0.081033	-0.997529	-0.998837	-0.056298	51.3801	-0.996708	-2.048514E+13	2.748230E-15	NaN
371	1.000000	0.122354	7.36869e+06	-57189.1	955.819	-29737.6	0.000000	0.000000	6.122782	0.033979	NaN	0.000000	0.001651	0.001656	28.0801	0.047256	0.002048	23.0734	65.1617	-166.666	0.083355	0.121054	-0.957515	-0.958816	0.033979	23.0734	-0.958620	-6.284382E+12	-5.406823E-15	NaN
371	1.000000	0.162392	7.36869e+06	-57189.1	955.819	-29737.6	0.000000	0.000000	6.162820	0.037891	NaN	0.000000	0.001652	0.001639	28.0798	0.030867	0.001992	15.4993	-22.1032	-164.345	0.044408	0.161066	-0.917477	-0.918803	0.037891	15.4993	-0.919310	-1.853089E+12	-2.044762E-14	NaN
371	1.000000	0.202376	7.36869e+06	-57189.1	955.818	-29737.6	0.000000	0.000000	6.202802	-0.006606	NaN	0.000000	0.001647	0.001689	28.0813	0.023680	0.002236	10.592	-148.128	-163.542	-0.088141	0.201106	-0.877494	-0.878764	-0.006606	10.592	-0.877026	-4.971469E+11	1.328790E-14	NaN
371	1.000000	0.242407	7.36869e+06	-57189.1	955.819	-29737.6	0.000000	0.000000	6.242833	-0.006055	NaN	0.000000	0.001641	0.001678	28.0812	0.071380	0.001911	37.3455	-24.679	-166.099	0.038827	0.241100	-0.837462	-0.838769	-0.006055	37.3455	-0.837340	-1.442980E+11	4.196177E-14	NaN
371	1.000000	0.282426	7.36869e+06	-57189.1	955.819	-29737.6	0.000000	0.000000	6.282851	-0.027370	NaN	0.000000	0.001648	0.001693	28.0812	0.059715	0.001964	30.3984	37.6294	-163.553	-0.043818	0.281136	-0.797443	-0.798734	-0.027370	30.3984	-0.796768	-4.064298E+10	6.734369E-13	NaN
371	1.000000	0.322443	7.36869e+06	-57189.1	955.818	-29737.6	0.000000	0.000000	6.322871	0.040454	NaN	0.000000	0.001750	0.001695	28.0812	0.075097	0.002162	34.7424	160.243	-164.959	0.047846	0.321124	-0.757426	-0.758746	0.040454	34.7424	-0.758299	-1.219449E+10	-3.317423E-12	NaN
371	1.000000	0.362437	7.36869e+06	-57189.1	955.819	-29737.6	0.000000	0.000000	6.362860	-0.079639	NaN	0.000000	0.001686	0.001669	28.0802	0.070469	0.001937	36.3723	150.252	-165.761	-0.120139	0.361125	-0.717433	-0.718744	-0.079639	36.3723	-0.715790	-3.214068E+9	2.477823E-11	NaN
371	1.000000	0.402454	7.36869e+06	-57189.1	955.818	-29737.6	0.000000	0.000000	6.402880	-0.013643	NaN	0.000000	0.001664	0.001681	28.0805	0.142729	0.001991	71.7007	-101.075	-162.758	-0.025152	0.401191	-0.677415	-0.678679	-0.013643	71.7007	-0.677273	-9.569758E+8	1.425625E-11	NaN
371	1.000000	0.442514	7.3687e+06	-57189.1	955.819	-29737.6	0.000000	0.000000	6.442943	0.056767	NaN	0.000000	0.001648	0.001666	28.0806	0.087053	0.002087	41.7029	-60.3356	-164.793	0.058875	0.441205	-0.637355	-0.638665	0.056767	41.7029	-0.638376	-2.805466E+8	-2.023433E-10	NaN
371	1.000000	0.482471	7.3687e+06	-57189.1	955.818	-29737.6	0.000000	0.000000	6.482896	-0.030543	NaN	0.000000	0.001637	0.001694	28.0816	0.112463	0.001955	57.5188	-121.761	-166.599	-0.022221	0.481192	-0.597398	-0.598677	-0.030543	57.5188	-0.597000	-7.570667E+7	4.034370E-10	NaN
371	1.000000	0.522538	7.3687e+06	-57189.1	955.818	-29737.6	0.000000	0.000000	6.522964	-0.009550	NaN	0.000000	0.001675	0.001686	28.0817	0.079787	0.002124	37.569	0.119814	-162.52	-0.058084	0.521243	-0.557331	-0.558627	-0.009550	37.569	-0.557141	-2.132139E+7	4.479173E-10	NaN
371	1.000000	0.562553	7.3687e+06	-57189.1	955.817	-29737.6	0.000000	0.000000	6.562978	-0.031233	NaN	0.000000	0.001691	0.001655	28.0816	0.108810	0.002051	53.059	28.8153	-163.251	-0.032922	0.561204	-0.517316	-0.518665	-0.031233	53.059	-0.516875	-5.89007e+06	5.302667E-9	NaN
371	1.000000	0.602530	7.3687e+06	-57189.1	955.818	-29737.6	0.000000	0.000000	6.602956	-2.763618E-5	NaN	0.000000	0.001680	0.001677	28.0801	0.141313	0.001975	71.5494	-157.892	-161.404	-0.031924	0.601259	-0.477340	-0.478611	-2.763618E-5	71.5494	-0.477340	-1.65301e+06	1.671870E-11	NaN
371	1.000000	0.642575	7.3687e+06	-57189.1	955.818	-29737.6	0.000000	0.000000	6.643002	0.022279	NaN	0.000000	0.001686	0.001666	28.08	0.100078	0.002132	46.939	-171.48	-165.921	0.021217	0.641268	-0.437294	-0.438601	0.022279	46.939	-0.437650	-457291	-4.871966E-8	NaN
371	1.000000	0.682576	7.3687e+06	-57189.1	955.817	-29737.6	0.000000	0.000000	6.683001	-0.022873	NaN	0.000000	0.001636	0.001637	28.0799	0.062015	0.002152	28.8111	-174.252	-164.831	-0.035631	0.681238	-0.397294	-0.398631	-0.022873	28.8111	-0.396698	-119919	1.907358E-7	NaN
371	1.000000	0.722650	7.3687e+06	-57189.1	955.818	-29737.6	0.000000	0.000000	6.723077	0.011418	NaN	0.000000	0.001632	0.001628	28.0797	0.049720	0.001971	25.2226	40.1006	-163.744	0.036301	0.721316	-0.357219	-0.358553	0.011418	25.2226	-0.357559	-32850.3	-3.475736E-7	NaN
371	1.000000	0.762640	7.3687e+06	-57189.1	955.819	-29737.6	0.000000	0.000000	6.763065	-0.023222	NaN	0.000000	0.001690	0.001596	28.0811	0.098527	0.002062	47.7875	154.331	-167.516	-0.046126	0.761354	-0.317229	-0.318516	-0.023222	47.7875	-0.316865	-8364.84	2.776155E-6	NaN
371	1.000000	0.802661	7.3687e+06	-57189.1	955.818	-29737.6	0.000000	0.000000	6.803087	-0.013249	NaN	0.000000	0.001709	0.001643	28.0812	0.081530	0.002003	40.7084	-8.376260	-166.486	-0.058989	0.801336	-0.277208	-0.278533	-0.013249	40.7084	-0.276964	-2123.84	6.238115E-6	NaN
371	1.000000	0.842654	7.3687e+06	-57189.1	955.818	-29737.6	0.000000	0.000000	6.843078	-0.059689	NaN	0.000000	0.001619	0.001689	28.0813	0.042225	0.001990	21.2169	-151.321	-165.676	-0.010773	0.841337	-0.237215	-0.238533	-0.059689	21.2169	-0.235105	-481.837	0.000124	NaN
371	1.000000	0.882691	7.3687e+06	-57189.1	955.818	-29737.6	0.000000	0.000000	6.883119	0.033737	NaN	0.000000	0.001615	0.001667	28.08	0.059778	0.001848	32.3489	168.167	-166.018	-0.035851	0.881295	-0.197178	-0.198574	0.033737	32.3489	-0.197960	-121.934	-0.000277	NaN
371	1.000000	0.922673	7.3687e+06	-57189.1	955.818	-29737.6	0.000000	0.000000	6.923098	-0.006588	NaN	0.000000	0.001656	0.001676	28.0804	0.045909	0.001882	24.3952	-0.150263	-164.588	0.075144	0.921374	-0.157197	-0.158496	-0.006588	24.3952	-0.156994	-24.2313	0.000272	NaN
371	1.000000	0.962701	7.3687e+06	-57189.1	955.819	-29737.6	0.000000	0.000000	6.963128	0.007606	NaN	0.000000	0.001668	0.001658	28.0807	0.056585	0.002068	27.3651	144.03	-164.136	0.031160	0.961349	-0.117168	-0.118520	0.007606	27.3651	-0.117376	-4.274094	-0.001780	NaN
371	1.000000	1.002722	7.3687e+06	-57189.1	955.819	-29737.6	0.000000	0.000000	7.003148	0.003614	NaN	0.000000	0.001729	0.001629	28.0804	0.064142	0.001913	33.5231	9.170544	-166.442	-0.060944	1.001382	-0.077148	-0.078488	0.003614	33.5231	-0.077229	-0.526907	-0.006859	NaN
371	1.000000	1.042741	7.3687e+06	-57189.1	955.819	-29737.6	0.000000	0.000000	7.043166	-0.030098	NaN	0.000000	0.001708	0.001633	28.0817	0.085711	0.002020	42.4213	-71.6904	-164.101	-0.027892	1.041372	-0.037128	-0.038497	-0.030098	42.4213	-0.036596	-0.035710	0.842838	NaN
371	1.000000	1.082707	7.3687e+06	-57189.1	955.818	-29737.6	0.000000	0.000000	7.083239	2.553472	NaN	0.000000	0.001695	0.001730	28.0815	3.189019	0.001749	1823.03	1.007578	-163.478	1.042129	1.081426	0.002838	0.001557	2.553472	1823.03	0.001788	0.001384	1845.37	44775.8
371	2.000000	1.097168	7.3687e+06	-57189.1	955.819	-29737.6	0.000000	0.000000	7.098634	25.2678	NaN	0.000000	0.001682	0.001676	28.0812	18.5613	0.001823	10182.5	4.654852	-174.986	23.9176	1.096904	0.017298	0.017035	25.2678	10182.5	0.015437	0.015873	1591.9	73841.9
371	2.000000	1.107157	7.3687e+06	-57189.1	955.817	-29737.6	0.000000	0.000000	7.109616	49.4104	NaN	0.000000	0.001583	0.001719	28.0802	29.0079	0.001973	14703.1	7.912175	-179.839	49.3336	1.106887	0.027288	0.027017	49.4104	14703.1	0.024767	0.030594	1615.04	76800.8
371	2.000000	1.117201	7.3687e+06	-57189.1	955.818	-29737.6	0.000000	0.000000	7.120716	75.0677	NaN	0.000000	0.001635	0.001747	28.0802	37.0744	0.001773	20905.2	4.688831	-179.965	77.2243	1.116873	0.037332	0.037003	75.0677	20905.2	0.034638	0.050908	1474.59	84651.7
371	2.000000	1.127092	7.3687e+06	-57189.1	955.818	-29737.6	0.000000	0.000000	7.132259	115.226	NaN	0.000000	0.001612	0.001722	28.0804	47.102	0.001803	26128.5	6.506009	175.342	113.584	1.126809	0.047222	0.046940	115.226	26128.5	0.043915	0.074536	1545.91	87438.6
371	2.000000	1.137062	7.3687e+06	-57189.1	955.817	-29737.6	0.000000	0.000000	7.143894	155.693	NaN	0.000000	0.001602	0.001723	28.0804	55.9685	0.001773	31574.4	1.913179	178.608	153.145	1.136840	0.057192	0.056970	155.693	31574.4	0.053494	0.103519	1504.01	89660.2
371	2.000000	1.147095	7.3687e+06	-57189.1	955.817	-29737.6	0.000000	0.000000	7.156308	213.543	NaN	0.000000	0.001652	0.001765	28.0814	65.4631	0.001870	35002.1	4.972773	174.791	211.582	1.146723	0.067226	0.066854	213.543	35002.1	0.062650	0.135484	1576.16	86880.9
371	2.000000	1.157091	7.3687e+06	-57189.1	955.818	-29737.6	0.000000	0.000000	7.168586	269.02	NaN	0.000000	0.001615	0.001726	28.0814	74.0028	0.001766	41895.2	3.107372	174.804	268.244	1.156852	0.077221	0.076983	269.02	41895.2	0.072405	0.174011	1546	91759.2
371	2.000000	1.167044	7.3687e+06	-57189.1	955.817	-29737.6	0.000000	0.000000	7.181276	335.561	NaN	0.000000	0.001600	0.001741	28.0812	83.2492	0.001743	47749.9	2.951050	174.152	333.475	1.166692	0.087174	0.086823	335.561	47749.9	0.081904	0.215852	1554.58	93900.5
371	2.000000	1.177002	7.3687e+06	-57189.1	955.816	-29737.6	0.000000	0.000000	7.194555	416.267	NaN	0.000000	0.001663	0.001754	28.0795	92.2488	0.001710	53945	3.965276	172.295	413.807	1.176649	0.097132	0.096780	416.267	53945	0.091345	0.261597	1591.25	96362.4
371	2.000000	1.187127	7.3687e+06	-57189.1	955.817	-29737.6	0.000000	0.000000	7.207764	491.217	NaN	0.000000	0.001672	0.001728	28.0794	103.497	0.001807	57263.8	2.801242	173.814	494.886	1.186856	0.107257	0.106987	491.217	57263.8	0.100824	0.311629	1576.29	93720.4