File: remote_trans/data/nanoindenter/0828-1/data/Data_2025-08-06,11h17m57s/2025-07-22_16-23-58_1_484.txt
2025-07-22, 16:23:58, 1
Index	Phase	Displacement	Time	Pos X	Pos Y	Pos Z	Rot A	Rot B	Piezo Z	Force A	Force B	Gripper	Voltage A	Voltage B	Temperature	Amplitude force	Amplitude pos	Stiffness	Phase shift	Phase excitation	Force A raw	Displacement raw	HMax	HMax raw	Real Force	Real Stiffness	Contact Depth	Area	Hardness	Reduced Mod.
[#]	[#]	[um]	[s]	[um]	[um]	[um]	[m°]	[m°]	[um]	[uN]	[uN]	[V]	[V]	[V]	[°C]	[uN]	[um]	[N/m]	[°]	[°]	[uN]	[um]	[um]	[um]	[uN]	[N/m]	[um]	[um^2]	[MPa]	[MPa]
484	1.000000	0.002810	7.36979e+06	-52889.1	1005.82	-29748	0.000000	0.000000	6.002786	-0.101605	NaN	0.000000	0.001596	0.001726	28.0806	0.099839	0.000926	107.856	157.425	-170.467	-0.060138	0.001561	-1.074845	-1.076094	-0.101605	107.856	-1.074138	-2.253110E+14	4.509547E-16	NaN
484	1.000000	0.042741	7.36979e+06	-52889.1	1005.82	-29748	0.000000	0.000000	6.042725	0.092853	NaN	0.000000	0.001524	0.001736	28.0805	0.108787	0.001954	55.6603	-66.2778	-165.837	0.110165	0.041450	-1.034914	-1.036205	0.092853	55.6603	-1.036165	-6.956555E+13	-1.334761E-15	NaN
484	1.000000	0.082770	7.36979e+06	-52889.1	1005.82	-29748	0.000000	0.000000	6.082752	0.045826	NaN	0.000000	0.001565	0.001745	28.0802	0.033798	0.002116	15.969	73.1617	-165.06	0.012129	0.081509	-0.994886	-0.996146	0.045826	15.969	-0.997038	-2.069602E+13	-2.214240E-15	NaN
484	1.000000	0.122798	7.36979e+06	-52889.1	1005.82	-29748	0.000000	0.000000	6.122780	0.030237	NaN	0.000000	0.001620	0.001704	28.0811	0.035685	0.001808	19.7326	5.833649	-163.364	0.003519	0.121414	-0.954857	-0.956241	0.030237	19.7326	-0.956006	-5.794579E+12	-5.218142E-15	NaN
484	1.000000	0.162799	7.36979e+06	-52889.1	1005.82	-29748	0.000000	0.000000	6.162781	0.033080	NaN	0.000000	0.001629	0.001712	28.0816	0.086440	0.002048	42.2135	-168.412	-163.732	-9.568862E-5	0.161512	-0.914856	-0.916143	0.033080	42.2135	-0.915444	-1.643175E+12	-2.013195E-14	NaN
484	1.000000	0.202844	7.36979e+06	-52889.1	1005.82	-29748	0.000000	0.000000	6.202824	0.002189	NaN	0.000000	0.001655	0.001711	28.0814	0.100711	0.002127	47.3486	-171.891	-158.008	-0.009530	0.201519	-0.874811	-0.876136	0.002189	47.3486	-0.874846	-4.645113E+11	-4.712532E-15	NaN
484	1.000000	0.242841	7.36979e+06	-52889.1	1005.82	-29748	0.000000	0.000000	6.242821	0.017674	NaN	0.000000	0.001634	0.001713	28.0812	0.068547	0.002057	33.3239	83.9038	-167.118	0.027811	0.241581	-0.834815	-0.836074	0.017674	33.3239	-0.835212	-1.350279E+11	-1.308928E-13	NaN
484	1.000000	0.282852	7.36979e+06	-52889.1	1005.82	-29748	0.000000	0.000000	6.282830	-0.052905	NaN	0.000000	0.001561	0.001682	28.0803	0.074905	0.001974	37.9458	75.5678	-165.996	0.011168	0.281546	-0.794803	-0.796109	-0.052905	37.9458	-0.793758	-3.699242E+10	1.430166E-12	NaN
484	1.000000	0.322909	7.36979e+06	-52889.1	1005.82	-29748	0.000000	0.000000	6.322890	0.017634	NaN	0.000000	0.001572	0.001675	28.0799	0.067535	0.001985	34.0255	-44.7223	-166.184	-0.018341	0.321560	-0.754746	-0.756095	0.017634	34.0255	-0.755135	-1.104351E+10	-1.596737E-12	NaN
484	1.000000	0.362893	7.36979e+06	-52889.1	1005.82	-29748	0.000000	0.000000	6.362875	0.049414	NaN	0.000000	0.001557	0.001714	28.08	0.051931	0.002004	25.9151	-103.44	-166.494	0.007913	0.361605	-0.714762	-0.716050	0.049414	25.9151	-0.716192	-3.254903E+9	-1.518129E-11	NaN
484	1.000000	0.402944	7.36979e+06	-52889.1	1005.82	-29748	0.000000	0.000000	6.402924	0.016179	NaN	0.000000	0.001593	0.001712	28.0816	0.017072	0.002046	8.343140	61.379	-166.109	0.015417	0.401527	-0.674711	-0.676128	0.016179	8.343140	-0.676166	-9.241904E+8	-1.750610E-11	NaN
484	1.000000	0.442944	7.36979e+06	-52889.1	1005.82	-29748	0.000000	0.000000	6.442925	0.033824	NaN	0.000000	0.001588	0.001752	28.0815	0.087764	0.001928	45.5116	-111.37	-165.327	0.016979	0.441660	-0.634711	-0.635995	0.033824	45.5116	-0.635269	-2.543087E+8	-1.330052E-10	NaN
484	1.000000	0.482939	7.36979e+06	-52889.1	1005.82	-29748	0.000000	0.000000	6.482917	-0.058948	NaN	0.000000	0.001614	0.001715	28.0812	0.078163	0.001901	41.1157	-150.368	-165.889	0.002918	0.481644	-0.594716	-0.596011	-0.058948	41.1157	-0.593641	-6.805306E+7	8.662103E-10	NaN
484	1.000000	0.522958	7.36979e+06	-52889.1	1005.82	-29748	0.000000	0.000000	6.522937	-0.042766	NaN	0.000000	0.001601	0.001683	28.0814	0.057319	0.002041	28.0822	-135.983	-164.406	-0.072795	0.521655	-0.554697	-0.556000	-0.042766	28.0822	-0.553555	-1.901875E+7	2.248634E-9	NaN
484	1.000000	0.562979	7.36979e+06	-52889.1	1005.82	-29748	0.000000	0.000000	6.562959	0.004350	NaN	0.000000	0.001593	0.001690	28.0801	0.041926	0.002037	20.5861	-150.569	-164.048	-0.041976	0.561661	-0.514676	-0.515994	0.004350	20.5861	-0.514835	-5.51739e+06	-7.884977E-10	NaN
484	1.000000	0.603021	7.36979e+06	-52889.1	1005.82	-29748	0.000000	0.000000	6.603002	0.008766	NaN	0.000000	0.001609	0.001682	28.0802	0.075849	0.001868	40.6031	-40.329	-167.42	0.065199	0.601674	-0.474634	-0.475981	0.008766	40.6031	-0.474796	-1.5228e+06	-5.756721E-9	NaN
484	1.000000	0.643045	7.36979e+06	-52889.1	1005.82	-29748	0.000000	0.000000	6.643023	-0.053687	NaN	0.000000	0.001559	0.001702	28.0802	0.084392	0.001958	43.1007	128.796	-168.561	-0.050055	0.641741	-0.434610	-0.435914	-0.053687	43.1007	-0.433676	-401824	1.336086E-7	NaN
484	1.000000	0.683034	7.36979e+06	-52889.1	1005.82	-29748	0.000000	0.000000	6.683012	-0.041320	NaN	0.000000	0.001634	0.001703	28.081	0.042929	0.001955	21.9553	19.9756	-167.523	-0.064987	0.681710	-0.394621	-0.395945	-0.041320	21.9553	-0.393210	-106920	3.864553E-7	NaN
484	1.000000	0.723034	7.36979e+06	-52889.1	1005.82	-29748	0.000000	0.000000	6.723012	-0.041236	NaN	0.000000	0.001578	0.001782	28.0808	0.056661	0.001947	29.0954	-102.113	-162.619	-0.066588	0.721730	-0.354622	-0.355925	-0.041236	29.0954	-0.353559	-28748.4	1.434381E-6	NaN
484	1.000000	0.763047	7.36979e+06	-52889.1	1005.82	-29748	0.000000	0.000000	6.763025	-0.053381	NaN	0.000000	0.001566	0.001712	28.0807	0.106576	0.002065	51.5987	150.59	-162.991	0.000651	0.761712	-0.314608	-0.315944	-0.053381	51.5987	-0.313832	-7545.79	7.074219E-6	NaN
484	1.000000	0.803097	7.36979e+06	-52889.1	1005.82	-29748	0.000000	0.000000	6.803075	-0.049932	NaN	0.000000	0.001597	0.001721	28.0809	0.051972	0.002053	25.3132	34.4799	-166	0.029113	0.801770	-0.274559	-0.275885	-0.049932	25.3132	-0.273079	-1854.78	2.692089E-5	NaN
484	1.000000	0.843103	7.36979e+06	-52889.1	1005.82	-29748	0.000000	0.000000	6.843083	-0.024149	NaN	0.000000	0.001589	0.001752	28.0802	0.102420	0.001906	53.7495	122.452	-161.798	-0.003347	0.841793	-0.234552	-0.235862	-0.024149	53.7495	-0.234215	-466.565	5.175910E-5	NaN
484	1.000000	0.883116	7.36979e+06	-52889.1	1005.82	-29748	0.000000	0.000000	6.883096	-0.004171	NaN	0.000000	0.001536	0.001731	28.0802	0.104702	0.001916	54.6502	159.272	-165.849	0.026290	0.881812	-0.194539	-0.195843	-0.004171	54.6502	-0.194482	-106.811	3.904675E-5	NaN
484	1.000000	0.923129	7.36979e+06	-52889.1	1005.82	-29748	0.000000	0.000000	6.923112	0.064571	NaN	0.000000	0.001575	0.001713	28.0802	0.019688	0.002006	9.816751	177.668	-165.57	0.014591	0.921809	-0.154526	-0.155847	0.064571	9.816751	-0.159459	-26.8145	-0.002408	NaN
484	1.000000	0.963152	7.36979e+06	-52889.1	1005.82	-29748	0.000000	0.000000	6.963130	-0.047812	NaN	0.000000	0.001577	0.001701	28.0814	0.072574	0.002107	34.4445	-139.459	-171.505	-0.006921	0.961825	-0.114503	-0.115830	-0.047812	34.4445	-0.113462	-3.550604	0.013466	NaN
484	1.000000	1.003154	7.36979e+06	-52889.1	1005.82	-29748	0.000000	0.000000	7.003135	0.026475	NaN	0.000000	0.001554	0.001719	28.0815	0.046148	0.001910	24.1602	-22.1439	-165.696	-0.015426	1.001871	-0.074502	-0.075784	0.026475	24.1602	-0.075323	-0.470845	-0.056230	NaN
484	1.000000	1.043174	7.36979e+06	-52889.1	1005.82	-29748	0.000000	0.000000	7.043151	-0.075803	NaN	0.000000	0.001548	0.001713	28.0811	0.045508	0.002031	22.4032	-41.9715	-165.135	-0.056668	1.041883	-0.034482	-0.035772	-0.075803	22.4032	-0.031944	-0.026110	2.903222	NaN
484	2.000000	1.082660	7.36979e+06	-52889.1	1005.82	-29748	0.000000	0.000000	7.082984	8.370061	NaN	0.000000	0.001548	0.001733	28.0802	8.317859	0.001529	5441.31	4.026163	-169.124	7.520153	1.081815	0.005004	0.004160	8.370061	5441.31	0.003851	0.003108	2692.64	89166.5
484	2.000000	1.092770	7.36979e+06	-52889.1	1005.82	-29748	0.000000	0.000000	7.093682	22.6675	NaN	0.000000	0.001614	0.001700	28.0805	19.6047	0.001745	11237	2.935924	-174.353	22.2675	1.092490	0.015114	0.014835	22.6675	11237	0.013601	0.013465	1683.38	88473.8
484	2.000000	1.102696	7.36979e+06	-52889.1	1005.82	-29748	0.000000	0.000000	7.104851	52.8736	NaN	0.000000	0.001617	0.001665	28.0806	31.1145	0.001663	18712.6	5.411611	178.232	50.951	1.102476	0.025041	0.024820	52.8736	18712.6	0.022922	0.027343	1933.71	103392
484	2.000000	1.112715	7.36979e+06	-52889.1	1005.82	-29748	0.000000	0.000000	7.116300	87.6385	NaN	0.000000	0.001606	0.001700	28.0803	41.7203	0.001775	23509.1	5.020179	176.83	86.2638	1.112352	0.035060	0.034696	87.6385	23509.1	0.032264	0.045568	1923.26	100619
484	2.000000	1.122713	7.36979e+06	-52889.1	1005.82	-29748	0.000000	0.000000	7.127928	127.27	NaN	0.000000	0.001588	0.001641	28.0819	50.4668	0.001802	28012.7	8.295858	171.571	127.484	1.122407	0.045058	0.044752	127.27	28012.7	0.041650	0.068363	1861.67	97885.3
484	2.000000	1.132689	7.36979e+06	-52889.1	1005.82	-29748	0.000000	0.000000	7.139753	172.226	NaN	0.000000	0.001594	0.001697	28.0819	58.6631	0.001761	33314.5	2.905524	175.98	171.174	1.132433	0.055034	0.054777	172.226	33314.5	0.051157	0.096023	1793.59	98224.3
484	2.000000	1.142665	7.36979e+06	-52889.1	1005.82	-29748	0.000000	0.000000	7.151743	221.212	NaN	0.000000	0.001541	0.001716	28.0817	68.1178	0.001792	38012.3	4.088742	174.147	221.125	1.142363	0.065010	0.064708	221.212	38012.3	0.060645	0.128132	1726.44	97021.5
484	2.000000	1.152662	7.36979e+06	-52889.1	1005.82	-29748	0.000000	0.000000	7.163947	274.86	NaN	0.000000	0.001544	0.001667	28.0802	78.0915	0.001730	45142.7	4.520344	171.747	273.374	1.152388	0.075007	0.074733	274.86	45142.7	0.070440	0.165882	1656.95	101265
484	2.000000	1.162616	7.36979e+06	-52889.1	1005.82	-29748	0.000000	0.000000	7.176331	333.953	NaN	0.000000	0.001534	0.001636	28.0802	87.7839	0.001946	45103.1	6.449640	170.73	330.83	1.162326	0.084961	0.084671	333.953	45103.1	0.079408	0.204449	1633.43	91135.4
484	2.000000	1.172671	7.36979e+06	-52889.1	1005.82	-29748	0.000000	0.000000	7.189591	411.876	NaN	0.000000	0.001591	0.001624	28.0805	96.6743	0.001807	53511.8	4.176900	171.121	411.635	1.172334	0.095016	0.094679	411.876	53511.8	0.089243	0.251058	1640.56	97574.4
484	2.000000	1.181023	7.36979e+06	-52889.1	1005.82	-29748	0.000000	0.000000	7.201372	495.255	NaN	0.000000	0.001625	0.001632	28.0805	101.882	0.001791	56897.3	5.733457	-10.7061	486.919	1.180711	0.103368	0.103056	495.255	56897.3	0.096839	0.290099	1707.2	96514.4