File: remote_trans/data/nanoindenter/0828-1/data/Data_2025-08-06,11h17m57s/2025-07-22_16-23-58_1_660.txt
2025-07-22, 16:23:58, 1
Index	Phase	Displacement	Time	Pos X	Pos Y	Pos Z	Rot A	Rot B	Piezo Z	Force A	Force B	Gripper	Voltage A	Voltage B	Temperature	Amplitude force	Amplitude pos	Stiffness	Phase shift	Phase excitation	Force A raw	Displacement raw	HMax	HMax raw	Real Force	Real Stiffness	Contact Depth	Area	Hardness	Reduced Mod.
[#]	[#]	[um]	[s]	[um]	[um]	[um]	[m°]	[m°]	[um]	[uN]	[uN]	[V]	[V]	[V]	[°C]	[uN]	[um]	[N/m]	[°]	[°]	[uN]	[um]	[um]	[um]	[uN]	[N/m]	[um]	[um^2]	[MPa]	[MPa]
660	1.000000	0.002500	7.37151e+06	-44089.1	1005.82	-29776.8	0.000000	0.000000	6.002816	0.043227	NaN	0.000000	0.001549	0.001720	28.0826	0.016320	0.000907	17.9839	21.6756	-164.498	0.064562	0.001205	-1.144853	-1.146148	0.043227	17.9839	-1.146655	-2.118251E+15	-2.040713E-17	NaN
660	1.000000	0.044442	7.37151e+06	-44089.1	1005.82	-29776.8	0.000000	0.000000	6.044759	0.054571	NaN	0.000000	0.001557	0.001697	28.0827	0.100571	0.002007	50.1048	159.891	12.2851	0.010237	0.043013	-1.102910	-1.104339	0.054571	50.1048	-1.103727	-5.624605E+14	-9.702248E-17	NaN
660	1.000000	0.086481	7.37151e+06	-44089.1	1005.82	-29776.8	0.000000	0.000000	6.086796	-0.006337	NaN	0.000000	0.001617	0.001692	28.0826	0.035798	0.002080	17.2092	-154.079	-163.911	-0.045940	0.085147	-1.060871	-1.062206	-0.006337	17.2092	-1.060595	-1.481894E+14	4.276096E-17	NaN
660	1.000000	0.128464	7.37151e+06	-44089.1	1005.82	-29776.8	0.000000	0.000000	6.128777	-0.017128	NaN	0.000000	0.001581	0.001643	28.0814	0.111289	0.001994	55.8158	120.488	11.0804	0.032691	0.127066	-1.018889	-1.020286	-0.017128	55.8158	-1.018659	-4.044861E+13	4.234584E-16	NaN
660	1.000000	0.170472	7.37151e+06	-44089.1	1005.82	-29776.8	0.000000	0.000000	6.170784	-0.070637	NaN	0.000000	0.001596	0.001696	28.0813	0.040247	0.001947	20.6683	114.703	-164.863	-0.021605	0.169137	-0.976880	-0.978215	-0.070637	20.6683	-0.974317	-1.022901E+13	6.905537E-15	NaN
660	1.000000	0.212522	7.37151e+06	-44089.1	1005.82	-29776.8	0.000000	0.000000	6.212836	-0.009518	NaN	0.000000	0.001550	0.001726	28.0811	0.057150	0.002071	27.5968	-174.9	10.4553	-0.101220	0.211133	-0.934830	-0.936219	-0.009518	27.5968	-0.934571	-2.977763E+12	3.196431E-15	NaN
660	1.000000	0.254522	7.37151e+06	-44089.1	1005.82	-29776.8	0.000000	0.000000	6.254834	-0.056319	NaN	0.000000	0.001526	0.001683	28.0825	0.071262	0.002011	35.4311	38.9081	-166.58	-0.074220	0.253184	-0.892830	-0.894168	-0.056319	35.4311	-0.891638	-7.835350E+11	7.187786E-14	NaN
660	1.000000	0.296518	7.37151e+06	-44089.1	1005.82	-29776.8	0.000000	0.000000	6.296832	0.004653	NaN	0.000000	0.001570	0.001732	28.0824	0.184831	0.002067	89.4109	-169.361	11.8364	-0.024613	0.295147	-0.850835	-0.852205	0.004653	89.4109	-0.850874	-2.200746E+11	-2.114196E-14	NaN
660	1.000000	0.338550	7.37151e+06	-44089.1	1005.82	-29776.8	0.000000	0.000000	6.338867	0.045348	NaN	0.000000	0.001598	0.001723	28.0827	0.032650	0.002028	16.0986	58.0547	-167.316	-0.003418	0.337258	-0.808802	-0.810094	0.045348	16.0986	-0.810915	-6.323880E+10	-7.170870E-13	NaN
660	1.000000	0.380565	7.37151e+06	-44089.1	1005.82	-29776.8	0.000000	0.000000	6.380881	0.045702	NaN	0.000000	0.001560	0.001685	28.0814	0.042643	0.001895	22.4987	-67.0235	12.0889	0.012909	0.379153	-0.766787	-0.768199	0.045702	22.4987	-0.768311	-1.668551E+10	-2.739017E-12	NaN
660	1.000000	0.422592	7.37151e+06	-44089.1	1005.82	-29776.8	0.000000	0.000000	6.422905	-0.024260	NaN	0.000000	0.001560	0.001736	28.0817	0.072254	0.001987	36.371	6.638618	-165.615	0.013604	0.421293	-0.724760	-0.726059	-0.024260	36.371	-0.724260	-4.193395E+9	5.785210E-12	NaN
660	1.000000	0.464615	7.37151e+06	-44089.1	1005.82	-29776.8	0.000000	0.000000	6.464929	-0.011979	NaN	0.000000	0.001542	0.001741	28.0817	0.065876	0.002021	32.5907	-95.621	14.2719	0.002757	0.463249	-0.682737	-0.684104	-0.011979	32.5907	-0.682462	-1.126860E+9	1.063013E-11	NaN
660	1.000000	0.506599	7.37151e+06	-44089.1	1005.82	-29776.8	0.000000	0.000000	6.506911	-0.075540	NaN	0.000000	0.001571	0.001713	28.0817	0.023091	0.002212	10.4398	3.021990	-168.565	-0.044134	0.505327	-0.640753	-0.642026	-0.075540	10.4398	-0.635326	-2.547709E+8	2.965035E-10	NaN
660	1.000000	0.548632	7.37151e+06	-44089.1	1005.82	-29776.8	0.000000	0.000000	6.548947	0.007076	NaN	0.000000	0.001678	0.001778	28.0828	0.082139	0.002055	39.9772	-167.094	11.5864	0.014854	0.547280	-0.598720	-0.600073	0.007076	39.9772	-0.598853	-8.029083E+7	-8.812669E-11	NaN
660	1.000000	0.590680	7.37151e+06	-44089.1	1005.82	-29776.8	0.000000	0.000000	6.590994	-0.023209	NaN	0.000000	0.001635	0.001724	28.0829	0.071689	0.001968	36.4307	-79.08	-169.458	0.029500	0.589408	-0.556672	-0.557944	-0.023209	36.4307	-0.556195	-2.068823E+7	1.121823E-9	NaN
660	1.000000	0.632658	7.37151e+06	-44089.1	1005.82	-29776.8	0.000000	0.000000	6.632971	-0.038812	NaN	0.000000	0.001564	0.001696	28.0825	0.005677	0.001864	3.045817	17.048	11.7751	-0.071617	0.631356	-0.514695	-0.515996	-0.038812	3.045817	-0.505137	-4.0426e+06	9.600869E-9	NaN
660	1.000000	0.674690	7.37151e+06	-44089.1	1005.82	-29776.8	0.000000	0.000000	6.675003	-0.048766	NaN	0.000000	0.001595	0.001710	28.0814	0.075800	0.002114	35.8481	-16.6351	-163.817	-0.014131	0.673341	-0.472662	-0.474011	-0.048766	35.8481	-0.471642	-1.37542e+06	3.545569E-8	NaN
660	1.000000	0.716726	7.37151e+06	-44089.1	1005.82	-29776.8	0.000000	0.000000	6.717039	-0.053625	NaN	0.000000	0.001598	0.001682	28.0814	0.061609	0.002011	30.6359	-86.9265	12.8003	-0.035979	0.715366	-0.430626	-0.431987	-0.053625	30.6359	-0.429313	-348615	1.538233E-7	NaN
660	1.000000	0.758688	7.37151e+06	-44089.1	1005.82	-29776.8	0.000000	0.000000	6.759002	-0.030514	NaN	0.000000	0.001579	0.001681	28.0815	0.038623	0.001904	20.2876	14.0625	-167.625	-0.024428	0.757365	-0.388664	-0.389988	-0.030514	20.2876	-0.387536	-88696.9	3.440208E-7	NaN
660	1.000000	0.800738	7.37151e+06	-44089.1	1005.82	-29776.8	0.000000	0.000000	6.801052	-0.002610	NaN	0.000000	0.001579	0.001699	28.0826	0.057743	0.002098	27.5175	152.683	12.6435	-0.049838	0.799350	-0.346615	-0.348002	-0.002610	27.5175	-0.346544	-22740.5	1.147680E-7	NaN
660	1.000000	0.842745	7.37151e+06	-44089.1	1005.82	-29776.8	0.000000	0.000000	6.843057	-0.057766	NaN	0.000000	0.001628	0.001700	28.083	0.064196	0.002077	30.912	19.7543	-166.18	-0.041817	0.841468	-0.304608	-0.305885	-0.057766	30.912	-0.303206	-5251.89	1.099915E-5	NaN
660	1.000000	0.884792	7.37151e+06	-44089.1	1005.82	-29776.8	0.000000	0.000000	6.885109	0.055964	NaN	0.000000	0.001539	0.001697	28.0826	0.061023	0.002070	29.484	81.783	8.540272	0.079301	0.883419	-0.262560	-0.263933	0.055964	29.484	-0.263984	-1348.58	-4.149867E-5	NaN
660	1.000000	0.926782	7.37151e+06	-44089.1	1005.82	-29776.8	0.000000	0.000000	6.927096	-0.009815	NaN	0.000000	0.001564	0.001679	28.081	0.031021	0.002054	15.1059	58.9238	-163.266	0.047402	0.925508	-0.220571	-0.221845	-0.009815	15.1059	-0.220083	-278.617	3.522897E-5	NaN
660	1.000000	0.968787	7.37151e+06	-44089.1	1005.82	-29776.8	0.000000	0.000000	6.969099	-0.070672	NaN	0.000000	0.001565	0.001673	28.0811	0.066317	0.001968	33.7054	-159.616	14.3046	-0.088172	0.967434	-0.178565	-0.179918	-0.070672	33.7054	-0.176993	-54.2187	0.001303	NaN
660	1.000000	1.010858	7.37151e+06	-44089.1	1005.82	-29776.8	0.000000	0.000000	7.011172	-0.030933	NaN	0.000000	0.001560	0.001690	28.0811	0.062903	0.002095	30.0236	-31.6506	-169.884	-0.056722	1.009507	-0.136494	-0.137845	-0.030933	30.0236	-0.135721	-9.818429	0.003151	NaN
660	1.000000	1.052854	7.37151e+06	-44089.1	1005.82	-29776.8	0.000000	0.000000	7.053166	-0.058863	NaN	0.000000	0.001586	0.001614	28.0811	0.109178	0.001949	56.0203	83.8256	12.0403	-0.013362	1.051455	-0.094499	-0.095897	-0.058863	56.0203	-0.093711	-1.318033	0.044660	NaN
660	1.000000	1.094853	7.37151e+06	-44089.1	1005.82	-29776.8	0.000000	0.000000	7.095165	-0.051351	NaN	0.000000	0.001597	0.001618	28.0824	0.131585	0.001910	68.8901	84.5675	-167.569	-0.023417	1.093579	-0.052499	-0.053773	-0.051351	68.8901	-0.051940	-0.104399	0.491868	NaN
660	1.000000	1.136876	7.37151e+06	-44089.1	1005.82	-29776.8	0.000000	0.000000	7.137190	-0.028602	NaN	0.000000	0.001513	0.001616	28.0827	0.065278	0.001991	32.7908	-158.99	14.8656	0.057205	1.135513	-0.010476	-0.011840	-0.028602	32.7908	-0.009822	-0.006286	4.550456	NaN
660	2.000000	1.159460	7.37151e+06	-44089.1	1005.82	-29776.8	0.000000	0.000000	7.160567	19.2837	NaN	0.000000	0.001584	0.001596	28.0824	16.6814	0.001772	9414.51	6.049078	-176.961	19.166	1.159114	0.012108	0.011761	19.2837	9414.51	0.010572	0.009824	1962.98	86782.8
660	2.000000	1.169890	7.37151e+06	-44089.1	1005.82	-29776.8	0.000000	0.000000	7.172040	44.6531	NaN	0.000000	0.001585	0.001630	28.0813	27.4121	0.001770	15485.7	7.751871	-2.535053	44.0713	1.169547	0.022538	0.022195	44.6531	15485.7	0.020375	0.023135	1930.1	93018.1
660	2.000000	1.180298	7.37151e+06	-44089.1	1005.82	-29776.8	0.000000	0.000000	7.183830	78.2699	NaN	0.000000	0.001545	0.001620	28.0811	37.5483	0.001791	20970.1	7.297782	175.343	74.8223	1.179948	0.032946	0.032595	78.2699	20970.1	0.030147	0.041048	1906.77	94563.8
660	2.000000	1.190877	7.37151e+06	-44089.1	1005.82	-29776.8	0.000000	0.000000	7.195906	114.706	NaN	0.000000	0.001563	0.001613	28.081	46.5927	0.001654	28165.9	3.844719	-3.653302	116.241	1.190472	0.043524	0.043120	114.706	28165.9	0.040470	0.065249	1757.98	100742
660	2.000000	1.201357	7.37151e+06	-44089.1	1005.82	-29776.8	0.000000	0.000000	7.208498	166.062	NaN	0.000000	0.001557	0.001623	28.0822	57.4947	0.001769	32504.3	6.223250	173.205	165.512	1.200984	0.054005	0.053632	166.062	32504.3	0.050173	0.092949	1786.59	97407.3
660	2.000000	1.211822	7.37151e+06	-44089.1	1005.82	-29776.8	0.000000	0.000000	7.221032	216.413	NaN	0.000000	0.001542	0.001640	28.0826	67.4925	0.001897	35578.1	5.180929	-7.451348	214.67	1.211601	0.064470	0.064248	216.413	35578.1	0.059908	0.125479	1724.7	91763.7
660	2.000000	1.222250	7.37151e+06	-44089.1	1005.82	-29776.8	0.000000	0.000000	7.234128	281.318	NaN	0.000000	0.001562	0.001660	28.0824	75.0579	0.001727	43468	0.363872	175.841	277.789	1.221936	0.074898	0.074584	281.318	43468	0.070044	0.164267	1712.56	97986.7
660	2.000000	1.232890	7.37151e+06	-44089.1	1005.82	-29776.8	0.000000	0.000000	7.247205	340.604	NaN	0.000000	0.001531	0.001633	28.0814	86.071	0.001802	47760.6	4.135382	-8.590711	343.564	1.232609	0.085538	0.085257	340.604	47760.6	0.080189	0.207988	1637.61	95680.5
660	2.000000	1.243491	7.37151e+06	-44089.1	1005.82	-29776.8	0.000000	0.000000	7.260972	417.63	NaN	0.000000	0.001531	0.001599	28.0813	95.0728	0.001811	52490.5	9.314535	166.369	430.446	1.243046	0.096139	0.095694	417.63	52490.5	0.090172	0.255689	1633.35	94841.5
660	2.000000	1.251360	7.37151e+06	-44089.1	1005.82	-29776.8	0.000000	0.000000	7.271967	493.689	NaN	0.000000	0.001480	0.001628	28.0819	103.429	0.001806	57258.4	8.944052	165.904	496.672	1.250908	0.104008	0.103556	493.689	57258.4	0.097541	0.293839	1680.14	96506.7