File: remote_trans/data/nanoindenter/0828-1/data/Data_2025-08-06,11h17m57s/2025-07-22_16-23-58_1_36.txt
2025-07-22, 16:23:58, 1
Index	Phase	Displacement	Time	Pos X	Pos Y	Pos Z	Rot A	Rot B	Piezo Z	Force A	Force B	Gripper	Voltage A	Voltage B	Temperature	Amplitude force	Amplitude pos	Stiffness	Phase shift	Phase excitation	Force A raw	Displacement raw	HMax	HMax raw	Real Force	Real Stiffness	Contact Depth	Area	Hardness	Reduced Mod.
[#]	[#]	[um]	[s]	[um]	[um]	[um]	[m°]	[m°]	[um]	[uN]	[uN]	[V]	[V]	[V]	[°C]	[uN]	[um]	[N/m]	[°]	[°]	[uN]	[um]	[um]	[um]	[uN]	[N/m]	[um]	[um^2]	[MPa]	[MPa]
36	1.000000	0.002197	7.36539e+06	-40439.1	955.819	-29790.7	0.000000	0.000000	6.002767	-0.037851	NaN	0.000000	0.001593	0.001571	28.1294	0.014772	0.001008	14.6515	123.98	-168.521	-0.029856	0.000998	-1.078578	-1.079778	-0.037851	14.6515	-1.076641	-2.434446E+14	1.554816E-16	NaN
36	1.000000	0.042211	7.36539e+06	-40439.1	955.818	-29790.7	0.000000	0.000000	6.042783	0.001665	NaN	0.000000	0.001613	0.001566	28.1282	0.103484	0.002009	51.5149	-152.69	-166.615	0.057094	0.040917	-1.038564	-1.039859	0.001665	51.5149	-1.038588	-7.498717E+13	-2.220554E-17	NaN
36	1.000000	0.082202	7.36539e+06	-40439.1	955.819	-29790.7	0.000000	0.000000	6.082774	0.020774	NaN	0.000000	0.001625	0.001575	28.1294	0.015662	0.002107	7.433483	-145.677	-166.533	0.048787	0.080859	-0.998574	-0.999916	0.020774	7.433483	-1.000670	-2.316240E+13	-8.968683E-16	NaN
36	1.000000	0.122200	7.36539e+06	-40439.1	955.819	-29790.7	0.000000	0.000000	6.122771	-0.018123	NaN	0.000000	0.001659	0.001588	28.1293	0.106917	0.001979	54.013	2.962511	-167.952	0.080440	0.120839	-0.958575	-0.959937	-0.018123	54.013	-0.958324	-6.226835E+12	2.910488E-15	NaN
36	1.000000	0.162223	7.36539e+06	-40439.1	955.819	-29790.7	0.000000	0.000000	6.162793	-0.009709	NaN	0.000000	0.001618	0.001635	28.1302	0.040859	0.002066	19.7779	-160.202	-166.137	0.024677	0.160895	-0.918553	-0.919881	-0.009709	19.7779	-0.918185	-1.789351E+12	5.425767E-15	NaN
36	1.000000	0.202263	7.36539e+06	-40439.1	955.818	-29790.7	0.000000	0.000000	6.202832	-0.056693	NaN	0.000000	0.001587	0.001625	28.129	0.051412	0.001833	28.0471	113.43	-169.426	-0.114079	0.200882	-0.878512	-0.879894	-0.056693	28.0471	-0.876996	-4.966874E+11	1.141425E-13	NaN
36	1.000000	0.242252	7.36539e+06	-40439.1	955.819	-29790.7	0.000000	0.000000	6.242819	-0.100644	NaN	0.000000	0.001687	0.001599	28.1289	0.024420	0.001944	12.563	104.402	-165.413	-0.091894	0.240987	-0.838524	-0.839789	-0.100644	12.563	-0.832515	-1.241293E+11	8.107963E-13	NaN
36	1.000000	0.282256	7.36539e+06	-40439.1	955.818	-29790.7	0.000000	0.000000	6.282825	-0.053631	NaN	0.000000	0.001652	0.001583	28.1284	0.089693	0.001871	47.9442	139.243	-161.961	0.039970	0.280957	-0.798519	-0.799819	-0.053631	47.9442	-0.797680	-4.181911E+10	1.282450E-12	NaN
36	1.000000	0.322311	7.36539e+06	-40439.1	955.819	-29790.7	0.000000	0.000000	6.322880	-0.063652	NaN	0.000000	0.001625	0.001602	28.1286	0.097697	0.002075	47.0898	-77.5827	-162.695	-0.063068	0.320960	-0.758465	-0.759815	-0.063652	47.0898	-0.757451	-1.187459E+10	5.360390E-12	NaN
36	1.000000	0.362298	7.36539e+06	-40439.1	955.819	-29790.7	0.000000	0.000000	6.362869	0.014283	NaN	0.000000	0.001650	0.001600	28.1287	0.105275	0.002019	52.1482	165.525	-163.612	0.062196	0.360977	-0.718478	-0.719798	0.014283	52.1482	-0.718683	-3.519781E+9	-4.058018E-12	NaN
36	1.000000	0.402323	7.36539e+06	-40439.1	955.819	-29790.7	0.000000	0.000000	6.402894	0.004102	NaN	0.000000	0.001635	0.001653	28.1295	0.074076	0.001848	40.086	-142.843	-165.594	-0.022777	0.401009	-0.678452	-0.679766	0.004102	40.086	-0.678529	-9.956101E+8	-4.120365E-12	NaN
36	1.000000	0.442341	7.36539e+06	-40439.1	955.818	-29790.7	0.000000	0.000000	6.442911	-0.042567	NaN	0.000000	0.001634	0.001603	28.1289	0.100242	0.001982	50.5762	-136.237	-165.174	-0.018255	0.441035	-0.638434	-0.639741	-0.042567	50.5762	-0.637803	-2.755139E+8	1.545003E-10	NaN
36	1.000000	0.482366	7.36539e+06	-40439.1	955.818	-29790.7	0.000000	0.000000	6.482935	-0.045610	NaN	0.000000	0.001657	0.001557	28.1301	0.053243	0.001932	27.5519	-93.0419	-165.38	-0.054408	0.481050	-0.598410	-0.599726	-0.045610	27.5519	-0.597168	-7.611213E+7	5.992485E-10	NaN
36	1.000000	0.522401	7.36539e+06	-40439.1	955.817	-29790.7	0.000000	0.000000	6.522974	0.046531	NaN	0.000000	0.001569	0.001585	28.1271	0.064711	0.001900	34.0658	110.384	-164.602	0.079318	0.521041	-0.558374	-0.559735	0.046531	34.0658	-0.559399	-2.291187E+7	-2.030871E-9	NaN
36	1.000000	0.562390	7.36539e+06	-40439.1	955.818	-29790.7	0.000000	0.000000	6.562960	-0.010530	NaN	0.000000	0.001601	0.001627	28.128	0.033594	0.002054	16.3571	-99.1311	-165.794	0.008674	0.561109	-0.518386	-0.519666	-0.010530	16.3571	-0.517903	-6.08736e+06	1.729844E-9	NaN
36	1.000000	0.602428	7.36539e+06	-40439.1	955.818	-29790.7	0.000000	0.000000	6.602997	-0.056360	NaN	0.000000	0.001580	0.001604	28.1269	0.125400	0.002052	61.108	27.316	-168.02	-0.044247	0.601154	-0.478348	-0.479621	-0.056360	61.108	-0.477656	-1.66996e+06	3.374921E-8	NaN
36	1.000000	0.642422	7.3654e+06	-40439.1	955.819	-29790.7	0.000000	0.000000	6.642992	-0.012957	NaN	0.000000	0.001604	0.001622	28.129	0.088565	0.002042	43.3723	3.629267	-167.892	-0.100597	0.641086	-0.438354	-0.439690	-0.012957	43.3723	-0.438130	-464473	2.789537E-8	NaN
36	1.000000	0.682463	7.3654e+06	-40439.1	955.819	-29790.7	0.000000	0.000000	6.683034	-0.011954	NaN	0.000000	0.001601	0.001601	28.128	0.059358	0.001942	30.5689	-154.338	-163.388	-0.060844	0.681146	-0.398312	-0.399630	-0.011954	30.5689	-0.398019	-125238	9.544914E-8	NaN
36	1.000000	0.722470	7.3654e+06	-40439.1	955.818	-29790.7	0.000000	0.000000	6.723040	-0.023755	NaN	0.000000	0.001606	0.001547	28.1287	0.033070	0.001982	16.6886	-68.9096	-163.013	-0.005350	0.721145	-0.358305	-0.359630	-0.023755	16.6886	-0.357238	-32500.8	7.309194E-7	NaN
36	1.000000	0.762449	7.3654e+06	-40439.1	955.818	-29790.7	0.000000	0.000000	6.763019	-0.036578	NaN	0.000000	0.001620	0.001559	28.1274	0.005247	0.001908	2.749367	75.5364	-164.446	-0.057830	0.761121	-0.318326	-0.319655	-0.036578	2.749367	-0.308348	-6260.36	5.842829E-6	NaN
36	1.000000	0.802527	7.3654e+06	-40439.1	955.818	-29790.7	0.000000	0.000000	6.803098	-0.000553	NaN	0.000000	0.001592	0.001616	28.1273	0.092540	0.002023	45.7383	-150.578	-167.165	-0.018452	0.801161	-0.278249	-0.279615	-0.000553	45.7383	-0.278239	-2220.2	2.491958E-7	NaN
36	1.000000	0.842532	7.3654e+06	-40439.1	955.819	-29790.7	0.000000	0.000000	6.843105	0.026177	NaN	0.000000	0.001598	0.001575	28.1263	0.123368	0.002057	59.9636	-13.4413	-167.042	-0.050850	0.841205	-0.238243	-0.239571	0.026177	59.9636	-0.238571	-546.02	-4.794168E-5	NaN
36	1.000000	0.882540	7.3654e+06	-40439.1	955.818	-29790.7	0.000000	0.000000	6.883108	-0.058222	NaN	0.000000	0.001689	0.001634	28.1275	0.037304	0.001884	19.8045	-46.0877	-166.172	-0.062740	0.881217	-0.198236	-0.199558	-0.058222	19.8045	-0.196031	-113.31	0.000514	NaN
36	1.000000	0.922572	7.3654e+06	-40439.1	955.819	-29790.7	0.000000	0.000000	6.923141	-0.060806	NaN	0.000000	0.001569	0.001623	28.1273	0.077924	0.002030	38.3809	-171.046	-168.782	-0.030086	0.921298	-0.158203	-0.159478	-0.060806	38.3809	-0.157015	-24.2522	0.002507	NaN
36	1.000000	0.962553	7.3654e+06	-40439.1	955.819	-29790.7	0.000000	0.000000	6.963125	0.021582	NaN	0.000000	0.001683	0.001658	28.128	0.030043	0.002018	14.8855	150.751	-163.445	0.000847	0.961233	-0.118222	-0.119543	0.021582	14.8855	-0.119310	-4.678741	-0.004613	NaN
36	1.000000	1.002570	7.3654e+06	-40439.1	955.819	-29790.7	0.000000	0.000000	7.003141	-0.008158	NaN	0.000000	0.001669	0.001634	28.1267	0.041538	0.002092	19.8567	177.965	-162.88	-0.058712	1.001290	-0.078206	-0.079486	-0.008158	19.8567	-0.077897	-0.547943	0.014888	NaN
36	1.000000	1.042604	7.3654e+06	-40439.1	955.818	-29790.7	0.000000	0.000000	7.043339	3.996893	NaN	0.000000	0.001690	0.001686	28.1273	2.180169	0.002038	1069.6	14.1462	-170.673	3.542736	1.041287	-0.038172	-0.039489	3.996893	1069.6	-0.040974	-0.048416	-82.5533	NaN
36	2.000000	1.067219	7.3654e+06	-40439.1	955.819	-29790.7	0.000000	0.000000	7.068118	7.964222	NaN	0.000000	0.001566	0.001647	28.1261	3.077174	0.002028	1517.55	8.848339	-169.679	8.030504	1.066898	-0.013556	-0.013877	7.964222	1517.55	-0.017492	-0.010828	-735.503	NaN
36	2.000000	1.077166	7.3654e+06	-40439.1	955.82	-29790.7	0.000000	0.000000	7.077817	1.936820	NaN	0.000000	0.001635	0.001700	28.1266	1.747162	0.002020	865.123	10.659	-168.496	2.054971	1.076874	-0.003610	-0.003902	1.936820	865.123	-0.005289	-0.003597	-538.417	NaN
36	2.000000	1.087134	7.3654e+06	-40439.1	955.819	-29790.7	0.000000	0.000000	7.087854	3.617407	NaN	0.000000	0.001599	0.001697	28.1259	3.194768	0.001808	1767.43	6.380615	-168.825	3.635517	1.086821	0.006359	0.006046	3.617407	1767.43	0.004824	0.003973	910.466	25618.2
36	2.000000	1.097136	7.3654e+06	-40439.1	955.82	-29790.7	0.000000	0.000000	7.098140	10.5341	NaN	0.000000	0.001567	0.001631	28.1279	8.512205	0.001851	4598.77	11.2495	-174.196	10.194	1.096816	0.016360	0.016041	10.5341	4598.77	0.014642	0.014811	711.235	34524.1
36	2.000000	1.107101	7.3654e+06	-40439.1	955.82	-29790.7	0.000000	0.000000	7.109335	40.4749	NaN	0.000000	0.001583	0.001642	28.1263	20.9777	0.001787	11741.7	3.062347	-175.13	39.0916	1.106736	0.026325	0.025960	40.4749	11741.7	0.023740	0.028763	1407.19	63254.2
36	2.000000	1.117117	7.3654e+06	-40439.1	955.821	-29790.7	0.000000	0.000000	7.121278	87.3607	NaN	0.000000	0.001547	0.001666	28.1269	31.2694	0.001834	17045.3	4.805643	179.936	88.1466	1.116777	0.036342	0.036002	87.3607	17045.3	0.032498	0.046080	1895.85	72547.5
36	2.000000	1.127104	7.3654e+06	-40439.1	955.82	-29790.7	0.000000	0.000000	7.133523	142.282	NaN	0.000000	0.001664	0.001672	28.1244	40.3124	0.001808	22301.5	1.115869	-178.973	142.723	1.126797	0.046329	0.046021	142.282	22301.5	0.041544	0.068079	2089.95	78090.9
36	2.000000	1.137084	7.3654e+06	-40439.1	955.82	-29790.7	0.000000	0.000000	7.146997	227.321	NaN	0.000000	0.001634	0.001686	28.1252	51.6906	0.001929	26797.5	7.274429	175.297	228.042	1.136661	0.056309	0.055886	227.321	26797.5	0.049946	0.092247	2464.26	80610.2
36	2.000000	1.146934	7.3654e+06	-40439.1	955.819	-29790.7	0.000000	0.000000	7.160195	308.784	NaN	0.000000	0.001615	0.001725	28.1238	60.4075	0.001910	31632.7	5.312264	173.936	301.357	1.146672	0.066159	0.065897	308.784	31632.7	0.058837	0.121673	2537.83	82853.8
36	2.000000	1.156978	7.3654e+06	-40439.1	955.82	-29790.7	0.000000	0.000000	7.174866	421.393	NaN	0.000000	0.001601	0.001778	28.1255	69.2915	0.001821	38042.5	6.224917	171.781	418.207	1.156665	0.076202	0.075890	421.393	38042.5	0.067895	0.155629	2707.68	88104.4
36	2.000000	1.160492	7.3654e+06	-40439.1	955.819	-29790.7	0.000000	0.000000	7.179871	457.678	NaN	0.000000	0.001578	0.001751	28.0859	71.6419	0.001734	41323.9	4.312773	-7.394131	451.016	1.160214	0.079716	0.079438	457.678	41323.9	0.071410	0.169869	2694.29	91604.5