File: remote_trans/data/nanoindenter/0828-1/data/Data_2025-08-06,11h17m57s/2025-07-22_16-23-58_1_691.txt
2025-07-22, 16:23:58, 1
Index	Phase	Displacement	Time	Pos X	Pos Y	Pos Z	Rot A	Rot B	Piezo Z	Force A	Force B	Gripper	Voltage A	Voltage B	Temperature	Amplitude force	Amplitude pos	Stiffness	Phase shift	Phase excitation	Force A raw	Displacement raw	HMax	HMax raw	Real Force	Real Stiffness	Contact Depth	Area	Hardness	Reduced Mod.
[#]	[#]	[um]	[s]	[um]	[um]	[um]	[m°]	[m°]	[um]	[uN]	[uN]	[V]	[V]	[V]	[°C]	[uN]	[um]	[N/m]	[°]	[°]	[uN]	[um]	[um]	[um]	[uN]	[N/m]	[um]	[um^2]	[MPa]	[MPa]
691	1.000000	0.002880	7.37181e+06	-42539.1	1005.82	-29782.4	0.000000	0.000000	6.002818	0.046598	NaN	0.000000	0.001716	0.001764	28.0803	0.072559	0.000949	76.482	92.0834	-162.596	-0.040174	0.001633	-1.039335	-1.040582	0.046598	76.482	-1.039792	-7.783465E+13	-5.986746E-16	NaN
691	1.000000	0.042794	7.37181e+06	-42539.1	1005.82	-29782.4	0.000000	0.000000	6.042730	0.009350	NaN	0.000000	0.001708	0.001745	28.0804	0.058051	0.001934	30.0176	-65.1644	-168.294	0.011021	0.041509	-0.999422	-1.000706	0.009350	30.0176	-0.999655	-2.244538E+13	-4.165736E-16	NaN
691	1.000000	0.082828	7.37181e+06	-42539.1	1005.82	-29782.4	0.000000	0.000000	6.082765	0.034111	NaN	0.000000	0.001677	0.001708	28.0803	0.117348	0.002128	55.1484	164.042	-166.774	-0.020327	0.081486	-0.959388	-0.960730	0.034111	55.1484	-0.959852	-6.529312E+12	-5.224320E-15	NaN
691	1.000000	0.122823	7.37181e+06	-42539.1	1005.82	-29782.4	0.000000	0.000000	6.122761	0.060564	NaN	0.000000	0.001659	0.001763	28.0804	0.023310	0.001967	11.8535	-3.989604	-167.101	-0.000398	0.121475	-0.919393	-0.920741	0.060564	11.8535	-0.923225	-2.092875E+12	-2.893817E-14	NaN
691	1.000000	0.162848	7.37181e+06	-42539.1	1005.82	-29782.4	0.000000	0.000000	6.162783	-0.033965	NaN	0.000000	0.001701	0.001780	28.0816	0.090781	0.001918	47.3315	-58.1688	-171.55	-0.028264	0.161572	-0.879367	-0.880643	-0.033965	47.3315	-0.878829	-5.258609E+11	6.458928E-14	NaN
691	1.000000	0.202889	7.37181e+06	-42539.1	1005.82	-29782.4	0.000000	0.000000	6.202827	0.050184	NaN	0.000000	0.001726	0.001756	28.0813	0.130260	0.002001	65.0977	44.4111	-165.28	0.068260	0.201602	-0.839327	-0.840613	0.050184	65.0977	-0.839905	-1.563158E+11	-3.210400E-13	NaN
691	1.000000	0.242889	7.37181e+06	-42539.1	1005.82	-29782.4	0.000000	0.000000	6.242822	-0.047662	NaN	0.000000	0.001664	0.001749	28.0813	0.021257	0.002005	10.6045	152.286	-166.651	-0.015469	0.241594	-0.799327	-0.800622	-0.047662	10.6045	-0.795956	-3.962416E+10	1.202859E-12	NaN
691	1.000000	0.282903	7.37181e+06	-42539.1	1005.82	-29782.4	0.000000	0.000000	6.282839	-0.006642	NaN	0.000000	0.001695	0.001731	28.0804	0.024379	0.001942	12.5552	-125.056	-165.983	-0.010423	0.281596	-0.759312	-0.760620	-0.006642	12.5552	-0.758915	-1.243219E+10	5.342911E-13	NaN
691	1.000000	0.322916	7.37181e+06	-42539.1	1005.82	-29782.4	0.000000	0.000000	6.322852	-0.002819	NaN	0.000000	0.001704	0.001746	28.0804	0.078269	0.002004	39.06	-119.887	-169.506	0.035092	0.321590	-0.719299	-0.720626	-0.002819	39.06	-0.719245	-3.582421E+9	7.870201E-13	NaN
691	1.000000	0.362946	7.37181e+06	-42539.1	1005.82	-29782.4	0.000000	0.000000	6.362880	-0.026501	NaN	0.000000	0.001727	0.001721	28.0803	0.053241	0.001796	29.6422	-87.6291	-167.69	-0.005334	0.361662	-0.679270	-0.680554	-0.026501	29.6422	-0.678599	-9.978024E+8	2.655929E-11	NaN
691	1.000000	0.402977	7.37181e+06	-42539.1	1005.82	-29782.4	0.000000	0.000000	6.402911	-0.032169	NaN	0.000000	0.001733	0.001740	28.0813	0.064392	0.002043	31.5251	23.0758	-165.201	-0.028654	0.401665	-0.639238	-0.640550	-0.032169	31.5251	-0.638473	-2.814085E+8	1.143132E-10	NaN
691	1.000000	0.442982	7.37181e+06	-42539.1	1005.82	-29782.4	0.000000	0.000000	6.442917	-0.001729	NaN	0.000000	0.001721	0.001717	28.0815	0.082668	0.002091	39.5371	-171.696	-167.647	0.005960	0.441694	-0.599234	-0.600521	-0.001729	39.5371	-0.599201	-8.118068E+7	2.130348E-11	NaN
691	1.000000	0.483000	7.37181e+06	-42539.1	1005.82	-29782.4	0.000000	0.000000	6.482936	0.018121	NaN	0.000000	0.001726	0.001750	28.0815	0.032094	0.001933	16.6026	165.951	-166.777	-0.032117	0.481677	-0.559215	-0.560539	0.018121	16.6026	-0.560034	-2.338021E+7	-7.750609E-10	NaN
691	1.000000	0.523010	7.37181e+06	-42539.1	1005.82	-29782.4	0.000000	0.000000	6.522945	-0.013351	NaN	0.000000	0.001707	0.001702	28.0816	0.018085	0.001952	9.262543	-55.688	-164.384	0.033490	0.521621	-0.519205	-0.520595	-0.013351	9.262543	-0.518124	-6.13064e+06	2.177747E-9	NaN
691	1.000000	0.563027	7.37181e+06	-42539.1	1005.82	-29782.4	0.000000	0.000000	6.562963	0.024829	NaN	0.000000	0.001721	0.001717	28.0803	0.110666	0.001989	55.6296	118.579	-170.88	0.039808	0.561737	-0.479189	-0.480478	0.024829	55.6296	-0.479524	-1.77361e+06	-1.399902E-8	NaN
691	1.000000	0.603045	7.37181e+06	-42539.1	1005.82	-29782.4	0.000000	0.000000	6.602980	-0.021707	NaN	0.000000	0.001699	0.001709	28.0803	0.093645	0.002097	44.6556	167.574	-161.813	-0.020763	0.601780	-0.439171	-0.440435	-0.021707	44.6556	-0.438806	-474800	4.571748E-8	NaN
691	1.000000	0.643054	7.37181e+06	-42539.1	1005.82	-29782.4	0.000000	0.000000	6.642991	0.037139	NaN	0.000000	0.001717	0.001737	28.0804	0.030869	0.001892	16.3187	-78.409	-164.299	-0.050772	0.641746	-0.399162	-0.400470	0.037139	16.3187	-0.400869	-137524	-2.700516E-7	NaN
691	1.000000	0.683131	7.37181e+06	-42539.1	1005.82	-29782.4	0.000000	0.000000	6.683066	-0.022210	NaN	0.000000	0.001710	0.001664	28.0815	0.051088	0.002084	24.5169	-22.8162	-166.509	-0.002623	0.681777	-0.359084	-0.360438	-0.022210	24.5169	-0.358405	-33789.3	6.572984E-7	NaN
691	1.000000	0.723100	7.37181e+06	-42539.1	1005.82	-29782.4	0.000000	0.000000	6.723037	0.040390	NaN	0.000000	0.001735	0.001725	28.0814	0.083031	0.002108	39.3928	52.5293	-163.376	0.076371	0.721799	-0.319116	-0.320416	0.040390	39.3928	-0.319885	-9267.1	-4.358424E-6	NaN
691	1.000000	0.763129	7.37181e+06	-42539.1	1005.82	-29782.4	0.000000	0.000000	6.763063	-0.031032	NaN	0.000000	0.001703	0.001686	28.0815	0.074787	0.002108	35.4787	-23.585	-164.568	-0.020402	0.761795	-0.279087	-0.280421	-0.031032	35.4787	-0.278431	-2235.01	1.388452E-5	NaN
691	1.000000	0.803115	7.37181e+06	-42539.1	1005.82	-29782.4	0.000000	0.000000	6.803051	-0.000180	NaN	0.000000	0.001744	0.001707	28.0824	0.096479	0.002001	48.2091	-108.071	-165.27	0.049521	0.801779	-0.239100	-0.240437	-0.000180	48.2091	-0.239097	-556.475	3.226612E-7	NaN
691	1.000000	0.843153	7.37181e+06	-42539.1	1005.82	-29782.4	0.000000	0.000000	6.843088	-0.001752	NaN	0.000000	0.001758	0.001703	28.0802	0.094412	0.001934	48.8097	59.028	-166.325	0.020254	0.841835	-0.199063	-0.200380	-0.001752	48.8097	-0.199036	-127.012	1.379539E-5	NaN
691	1.000000	0.883194	7.37181e+06	-42539.1	1005.82	-29782.4	0.000000	0.000000	6.883133	0.075128	NaN	0.000000	0.001791	0.001736	28.0799	0.079073	0.002017	39.1991	149.002	-164.756	0.100562	0.881828	-0.159021	-0.160388	0.075128	39.1991	-0.160459	-27.9341	-0.002689	NaN
691	1.000000	0.923158	7.37181e+06	-42539.1	1005.82	-29782.4	0.000000	0.000000	6.923093	-0.013556	NaN	0.000000	0.001707	0.001730	28.0802	0.048378	0.001968	24.5817	-53.1764	-169.298	-0.038921	0.921830	-0.119057	-0.120385	-0.013556	24.5817	-0.118643	-4.535524	0.002989	NaN
691	1.000000	0.963183	7.37181e+06	-42539.1	1005.82	-29782.4	0.000000	0.000000	6.963119	0.005611	NaN	0.000000	0.001784	0.001725	28.0813	0.070987	0.002056	34.5262	-133.676	-165.425	-0.036667	0.961934	-0.079032	-0.080282	0.005611	34.5262	-0.079154	-0.589487	-0.009518	NaN
691	1.000000	1.003242	7.37181e+06	-42539.1	1005.82	-29782.4	0.000000	0.000000	7.003176	-0.031523	NaN	0.000000	0.001727	0.001740	28.0812	0.035730	0.002056	17.3762	-78.3737	-165.556	-0.073488	1.001947	-0.038974	-0.040269	-0.031523	17.3762	-0.037613	-0.038303	0.822992	NaN
691	1.000000	1.043218	7.37181e+06	-42539.1	1005.82	-29782.4	0.000000	0.000000	7.043316	3.941161	NaN	0.000000	0.001704	0.001761	28.0812	4.987067	0.001854	2689.94	17.1218	-173.868	3.288548	1.041910	0.001003	-0.000305	3.941161	2689.94	-9.601553E-5	-7.162033E-5	-55028.5	NaN
691	2.000000	1.056730	7.37181e+06	-42539.1	1005.82	-29782.4	0.000000	0.000000	7.057527	20.9697	NaN	0.000000	0.001702	0.001712	28.0813	17.5978	0.001814	9699.78	5.120220	-173.845	22.4148	1.056388	0.014514	0.014173	20.9697	9699.78	0.012893	0.012577	1667.29	79021.3
691	2.000000	1.066675	7.37181e+06	-42539.1	1005.82	-29782.4	0.000000	0.000000	7.068414	43.8994	NaN	0.000000	0.001694	0.001733	28.0802	27.9471	0.001821	15346.1	5.773994	179.474	43.4626	1.066365	0.024459	0.024149	43.8994	15346.1	0.022314	0.026309	1668.62	86441
691	2.000000	1.076722	7.37181e+06	-42539.1	1005.82	-29782.4	0.000000	0.000000	7.079493	68.9867	NaN	0.000000	0.001753	0.001720	28.0802	36.912	0.001847	19985.8	5.149050	179.97	72.4084	1.076314	0.034507	0.034098	68.9867	19985.8	0.031918	0.044813	1539.45	86257.2
691	2.000000	1.086649	7.37181e+06	-42539.1	1005.82	-29782.4	0.000000	0.000000	7.091143	110.91	NaN	0.000000	0.001702	0.001742	28.0804	47.0254	0.001749	26880.5	0.635571	179.603	109.217	1.086364	0.044434	0.044148	110.91	26880.5	0.041339	0.067535	1642.24	94502.9
691	2.000000	1.096547	7.37182e+06	-42539.1	1005.82	-29782.4	0.000000	0.000000	7.102995	158.466	NaN	0.000000	0.001719	0.001762	28.0815	56.6936	0.001793	31613.8	1.036834	177.876	153.261	1.096324	0.054331	0.054108	158.466	31613.8	0.050572	0.094188	1682.44	94113.6
691	2.000000	1.106678	7.37182e+06	-42539.1	1005.82	-29782.4	0.000000	0.000000	7.115030	204.781	NaN	0.000000	0.001701	0.001766	28.0814	66.8904	0.001772	37741	2.845770	175.034	208.919	1.106298	0.064462	0.064082	204.781	37741	0.060393	0.127221	1609.65	96673.5
691	2.000000	1.116609	7.37182e+06	-42539.1	1005.82	-29782.4	0.000000	0.000000	7.127379	263.613	NaN	0.000000	0.001689	0.001738	28.0815	77.797	0.001936	40185.4	6.968642	170.376	264.202	1.116259	0.074394	0.074044	263.613	40185.4	0.069474	0.161954	1627.71	91231.8
691	2.000000	1.126561	7.37182e+06	-42539.1	1005.82	-29782.4	0.000000	0.000000	7.139912	326.395	NaN	0.000000	0.001691	0.001763	28.0803	86.2497	0.001792	48132.8	5.822032	170.181	324.171	1.126272	0.084346	0.084056	326.395	48132.8	0.079260	0.203783	1601.68	97416.2
691	2.000000	1.136494	7.37182e+06	-42539.1	1005.82	-29782.4	0.000000	0.000000	7.153297	410.405	NaN	0.000000	0.001713	0.001710	28.0803	93.4478	0.001708	54698.8	5.493598	169.775	405.933	1.136280	0.094279	0.094064	410.405	54698.8	0.088652	0.248128	1654	100326
691	2.000000	1.146583	7.37182e+06	-42539.1	1005.82	-29782.4	0.000000	0.000000	7.166357	482.685	NaN	0.000000	0.001722	0.001715	28.0803	104.163	0.001831	56878.6	0.963828	173.764	481.367	1.146289	0.104367	0.104073	482.685	56878.6	0.098003	0.296311	1628.98	95465.9