File: remote_trans/data/nanoindenter/0828-1/data/Data_2025-08-06,11h17m57s/2025-07-22_16-23-58_1_1129.txt
2025-07-22, 16:23:58, 1
Index	Phase	Displacement	Time	Pos X	Pos Y	Pos Z	Rot A	Rot B	Piezo Z	Force A	Force B	Gripper	Voltage A	Voltage B	Temperature	Amplitude force	Amplitude pos	Stiffness	Phase shift	Phase excitation	Force A raw	Displacement raw	HMax	HMax raw	Real Force	Real Stiffness	Contact Depth	Area	Hardness	Reduced Mod.
[#]	[#]	[um]	[s]	[um]	[um]	[um]	[m°]	[m°]	[um]	[uN]	[uN]	[V]	[V]	[V]	[°C]	[uN]	[um]	[N/m]	[°]	[°]	[uN]	[um]	[um]	[um]	[uN]	[N/m]	[um]	[um^2]	[MPa]	[MPa]
1129	1.000000	0.002239	7.37609e+06	-56589.1	1055.82	-29738.5	0.000000	0.000000	6.002798	-0.025038	NaN	0.000000	0.001593	0.001706	28.0811	0.076861	0.000930	82.6428	42.7449	-166.929	-0.066877	0.001013	-1.153084	-1.154310	-0.025038	82.6428	-1.152857	-2.565183E+15	9.760750E-18	NaN
1129	1.000000	0.044174	7.37609e+06	-56589.1	1055.82	-29738.5	0.000000	0.000000	6.044733	-0.036035	NaN	0.000000	0.001559	0.001658	28.0804	0.106232	0.002077	51.1592	-51.5599	17.2085	0.032284	0.042821	-1.111149	-1.112502	-0.036035	51.1592	-1.110621	-6.960223E+14	5.177269E-17	NaN
1129	1.000000	0.086212	7.3761e+06	-56589.1	1055.82	-29738.5	0.000000	0.000000	6.086771	-0.034089	NaN	0.000000	0.001556	0.001711	28.0806	0.124180	0.002038	60.9319	-120.155	-167.977	-0.017242	0.084850	-1.069111	-1.070474	-0.034089	60.9319	-1.068691	-1.903744E+14	1.790609E-16	NaN
1129	1.000000	0.128233	7.3761e+06	-56589.1	1055.82	-29738.5	0.000000	0.000000	6.128795	0.037038	NaN	0.000000	0.001576	0.001709	28.0817	0.053116	0.001904	27.8954	19.4393	12.4759	-0.002903	0.126820	-1.027090	-1.028503	0.037038	27.8954	-1.028086	-5.416664E+13	-6.837718E-16	NaN
1129	1.000000	0.170253	7.3761e+06	-56589.1	1055.82	-29738.5	0.000000	0.000000	6.170813	-0.006511	NaN	0.000000	0.001650	0.001703	28.0818	0.042750	0.002113	20.2286	-2.396667	-166.75	0.033302	0.168937	-0.985070	-0.986386	-0.006511	20.2286	-0.984829	-1.417291E+13	4.593871E-16	NaN
1129	1.000000	0.212232	7.3761e+06	-56589.1	1055.82	-29738.5	0.000000	0.000000	6.212791	-0.015528	NaN	0.000000	0.001528	0.001693	28.0821	0.099644	0.002039	48.8668	-152.223	12.8599	0.031323	0.210896	-0.943092	-0.944427	-0.015528	48.8668	-0.942853	-3.851504E+12	4.031692E-15	NaN
1129	1.000000	0.254271	7.3761e+06	-56589.1	1055.82	-29738.5	0.000000	0.000000	6.254833	0.046654	NaN	0.000000	0.001558	0.001614	28.0807	0.046217	0.001815	25.461	-177.847	-167.763	0.067419	0.252978	-0.901053	-0.902346	0.046654	25.461	-0.902427	-1.096120E+12	-4.256319E-14	NaN
1129	1.000000	0.296302	7.3761e+06	-56589.1	1055.82	-29738.5	0.000000	0.000000	6.296866	0.079885	NaN	0.000000	0.001538	0.001677	28.0809	0.072324	0.001977	36.5816	140.439	11.2606	0.057364	0.294945	-0.859021	-0.860378	0.079885	36.5816	-0.860659	-2.985650E+11	-2.675633E-13	NaN
1129	1.000000	0.338285	7.3761e+06	-56589.1	1055.82	-29738.5	0.000000	0.000000	6.338846	0.021485	NaN	0.000000	0.001572	0.001666	28.0812	0.092629	0.001955	47.3731	157.158	-166.707	-0.001052	0.336969	-0.817038	-0.818354	0.021485	47.3731	-0.817378	-7.738468E+10	-2.776353E-13	NaN
1129	1.000000	0.380314	7.3761e+06	-56589.1	1055.82	-29738.5	0.000000	0.000000	6.380874	-0.009211	NaN	0.000000	0.001588	0.001685	28.0822	0.006587	0.001887	3.490137	-83.5882	13.4348	0.003549	0.378994	-0.775009	-0.776329	-0.009211	3.490137	-0.773030	-1.934192E+10	4.762257E-13	NaN
1129	1.000000	0.422350	7.3761e+06	-56589.1	1055.82	-29738.5	0.000000	0.000000	6.422914	0.097131	NaN	0.000000	0.001576	0.001707	28.0818	0.068133	0.001976	34.4787	71.1614	-164.577	0.006163	0.420995	-0.732973	-0.734328	0.097131	34.4787	-0.735086	-5.889951E+9	-1.649096E-11	NaN
1129	1.000000	0.464348	7.3761e+06	-56589.1	1055.82	-29738.5	0.000000	0.000000	6.464910	0.043426	NaN	0.000000	0.001566	0.001668	28.0817	0.050521	0.002022	24.9812	108.542	14.0104	0.015208	0.463022	-0.690975	-0.692302	0.043426	24.9812	-0.692279	-1.534834E+9	-2.829369E-11	NaN
1129	1.000000	0.506382	7.3761e+06	-56589.1	1055.82	-29738.5	0.000000	0.000000	6.506942	-0.002836	NaN	0.000000	0.001576	0.001721	28.0818	0.081232	0.002120	38.3116	-170.058	-167.921	-0.005099	0.505042	-0.648941	-0.650281	-0.002836	38.3116	-0.648886	-3.909826E+8	7.253281E-12	NaN
1129	1.000000	0.548411	7.3761e+06	-56589.1	1055.82	-29738.5	0.000000	0.000000	6.548972	0.022649	NaN	0.000000	0.001582	0.001696	28.0806	0.055944	0.002020	27.6991	-123.739	13.7379	-0.029265	0.547015	-0.606912	-0.608308	0.022649	27.6991	-0.607525	-1.056971E+8	-2.142783E-10	NaN
1129	1.000000	0.590404	7.3761e+06	-56589.1	1055.82	-29738.5	0.000000	0.000000	6.590963	-0.018184	NaN	0.000000	0.001598	0.001712	28.0808	0.040330	0.002015	20.0127	-37.8309	-167.692	-0.057585	0.589063	-0.564920	-0.566260	-0.018184	20.0127	-0.564238	-2.672950E+7	6.803036E-10	NaN
1129	1.000000	0.632438	7.3761e+06	-56589.1	1055.82	-29738.5	0.000000	0.000000	6.632998	-0.017937	NaN	0.000000	0.001582	0.001727	28.0807	0.042462	0.002031	20.9092	-62.7948	14.6285	0.019396	0.631115	-0.522885	-0.524209	-0.017937	20.9092	-0.522242	-6.99468e+06	2.564440E-9	NaN
1129	1.000000	0.674462	7.3761e+06	-56589.1	1055.82	-29738.5	0.000000	0.000000	6.675025	0.066806	NaN	0.000000	0.001568	0.001795	28.0819	0.097264	0.001922	50.6002	32.8964	-166.164	0.065026	0.673140	-0.480861	-0.482183	0.066806	50.6002	-0.481852	-1.91181e+06	-3.494413E-8	NaN
1129	1.000000	0.716488	7.3761e+06	-56589.1	1055.82	-29738.5	0.000000	0.000000	6.717049	0.019375	NaN	0.000000	0.001560	0.001780	28.082	0.053213	0.002035	26.1549	-57.5417	15.49	-0.014958	0.715090	-0.438835	-0.440233	0.019375	26.1549	-0.439391	-483912	-4.003807E-8	NaN
1129	1.000000	0.758502	7.3761e+06	-56589.1	1055.82	-29738.5	0.000000	0.000000	6.759063	0.037349	NaN	0.000000	0.001530	0.001783	28.0821	0.095747	0.001979	48.3837	20.1575	-164.293	0.074681	0.757167	-0.396822	-0.398157	0.037349	48.3837	-0.397401	-122718	-3.043445E-7	NaN
1129	1.000000	0.800465	7.3761e+06	-56589.1	1055.82	-29738.5	0.000000	0.000000	6.801031	0.124605	NaN	0.000000	0.001579	0.001752	28.0808	0.074041	0.001983	37.3391	-143.32	14.1695	0.102405	0.799103	-0.354858	-0.356220	0.124605	37.3391	-0.357361	-32634.4	-3.818222E-6	NaN
1129	1.000000	0.842534	7.3761e+06	-56589.1	1055.82	-29738.5	0.000000	0.000000	6.843094	-0.000302	NaN	0.000000	0.001572	0.001704	28.0808	0.088205	0.002050	43.0196	-151.876	-167.017	0.031362	0.841231	-0.312790	-0.314092	-0.000302	43.0196	-0.312784	-7281.62	4.143090E-8	NaN
1129	1.000000	0.884552	7.3761e+06	-56589.1	1055.82	-29738.5	0.000000	0.000000	6.885113	0.008673	NaN	0.000000	0.001551	0.001707	28.0808	0.039036	0.001891	20.6435	19.7743	15.1893	-0.046714	0.883171	-0.270771	-0.272153	0.008673	20.6435	-0.271086	-1730.01	-5.013227E-6	NaN
1129	1.000000	0.926550	7.3761e+06	-56589.1	1055.82	-29738.5	0.000000	0.000000	6.927110	-0.014198	NaN	0.000000	0.001516	0.001703	28.0818	0.049686	0.002096	23.7101	-173.653	-165.314	0.046387	0.925262	-0.228773	-0.230062	-0.014198	23.7101	-0.228324	-376.724	3.768828E-5	NaN
1129	1.000000	0.968584	7.3761e+06	-56589.1	1055.82	-29738.5	0.000000	0.000000	6.969144	-0.021398	NaN	0.000000	0.001502	0.001719	28.0819	0.032708	0.002030	16.1162	19.8213	15.4104	-0.019744	0.967216	-0.186739	-0.188107	-0.021398	16.1162	-0.185743	-76.3219	0.000280	NaN
1129	1.000000	1.010580	7.3761e+06	-56589.1	1055.82	-29738.5	0.000000	0.000000	7.011139	-0.018402	NaN	0.000000	0.001558	0.001726	28.0821	0.030537	0.002175	14.0412	75.9005	-166.425	0.005939	1.009250	-0.144744	-0.146073	-0.018402	14.0412	-0.143761	-13.906	0.001323	NaN
1129	1.000000	1.052597	7.3761e+06	-56589.1	1055.82	-29738.5	0.000000	0.000000	7.053158	0.023520	NaN	0.000000	0.001547	0.001733	28.0817	0.069009	0.002067	33.3804	-175.049	17.6741	0.039260	1.051232	-0.102727	-0.104091	0.023520	33.3804	-0.103255	-2.154349	-0.010917	NaN
1129	1.000000	1.094640	7.3761e+06	-56589.1	1055.82	-29738.5	0.000000	0.000000	7.095202	0.040223	NaN	0.000000	0.001521	0.001687	28.0808	0.037771	0.002077	18.1878	-6.663146	-168.279	0.076243	1.093297	-0.060683	-0.062026	0.040223	18.1878	-0.062342	-0.209975	-0.191563	NaN
1129	1.000000	1.136606	7.3761e+06	-56589.1	1055.82	-29738.5	0.000000	0.000000	7.137169	0.063257	NaN	0.000000	0.001608	0.001693	28.0809	0.132717	0.002055	64.5702	94.4399	12.6417	0.045413	1.135214	-0.018717	-0.020109	0.063257	64.5702	-0.019452	-0.012163	-5.200562	NaN
1129	2.000000	1.167265	7.3761e+06	-56589.1	1055.82	-29738.5	0.000000	0.000000	7.168291	11.3146	NaN	0.000000	0.001548	0.001664	28.0805	12.4386	0.001799	6914.3	7.739094	-174.881	10.7559	1.166945	0.011942	0.011622	11.3146	6914.3	0.010715	0.009987	1132.98	63214.1
1129	2.000000	1.177740	7.3761e+06	-56589.1	1055.82	-29738.5	0.000000	0.000000	7.179502	29.2335	NaN	0.000000	0.001547	0.001715	28.0819	23.5231	0.001769	13296.7	9.607427	-1.558928	29.6046	1.177222	0.022416	0.021899	29.2335	13296.7	0.020767	0.023762	1230.24	78808.3
1129	2.000000	1.188169	7.3761e+06	-56589.1	1055.82	-29738.5	0.000000	0.000000	7.191066	56.79	NaN	0.000000	0.001557	0.001739	28.0821	33.0425	0.001768	18692.2	4.938007	178.985	55.7869	1.187846	0.032846	0.032523	56.79	18692.2	0.030567	0.041927	1354.49	83403.9
1129	2.000000	1.198667	7.3761e+06	-56589.1	1055.82	-29738.5	0.000000	0.000000	7.202840	87.8076	NaN	0.000000	0.001557	0.001715	28.0825	44.1562	0.001836	24055.6	9.145656	-6.736809	87.5551	1.198236	0.043344	0.042913	87.8076	24055.6	0.040606	0.065604	1338.45	85807.5
1129	2.000000	1.209223	7.3761e+06	-56589.1	1055.82	-29738.5	0.000000	0.000000	7.215220	132.138	NaN	0.000000	0.001633	0.001705	28.0819	53.9542	0.001872	28814.2	4.344777	176.311	133.216	1.208943	0.053900	0.053620	132.138	28814.2	0.050460	0.093841	1408.1	85937.5
1129	2.000000	1.219639	7.3761e+06	-56589.1	1055.82	-29738.5	0.000000	0.000000	7.227799	184.726	NaN	0.000000	0.001571	0.001675	28.081	64.1629	0.001789	35873.4	2.881240	-4.530356	182.397	1.219394	0.064315	0.064071	184.726	35873.4	0.060453	0.127439	1449.52	91810.8
1129	2.000000	1.230031	7.3761e+06	-56589.1	1055.82	-29738.5	0.000000	0.000000	7.240604	243.37	NaN	0.000000	0.001542	0.001710	28.081	74.5299	0.001848	40340.5	2.946468	174.493	238.89	1.229757	0.074708	0.074433	243.37	40340.5	0.070183	0.164834	1476.46	90780.2
1129	2.000000	1.240609	7.3761e+06	-56589.1	1055.82	-29738.5	0.000000	0.000000	7.253816	307.394	NaN	0.000000	0.001533	0.001662	28.0821	83.3663	0.001625	51305	5.325212	-9.240259	304.735	1.240333	0.085286	0.085009	307.394	51305	0.080792	0.210740	1458.64	102108
1129	2.000000	1.251094	7.3761e+06	-56589.1	1055.82	-29738.5	0.000000	0.000000	7.267362	381.812	NaN	0.000000	0.001578	0.001695	28.0818	93.5768	0.001813	51600.9	6.607743	169.375	379.602	1.250866	0.095771	0.095543	381.812	51600.9	0.090221	0.255936	1491.83	93189.1
1129	2.000000	1.261523	7.3761e+06	-56589.1	1055.82	-29738.5	0.000000	0.000000	7.281390	469.28	NaN	0.000000	0.001538	0.001659	28.0819	102.663	0.001734	59216.9	2.588159	-6.935581	463.32	1.261161	0.106200	0.105837	469.28	59216.9	0.100256	0.308517	1521.08	97404.6
1129	2.000000	1.262148	7.3761e+06	-56589.1	1055.82	-29738.5	0.000000	0.000000	7.282021	469.414	NaN	0.000000	0.001553	0.001657	28.0817	103.518	0.001748	59211	5.379386	169.677	472.351	1.261751	0.106825	0.106427	469.414	59211	0.100879	0.311933	1504.85	96860.1