File: remote_trans/data/nanoindenter/0828-1/data/Data_2025-08-06,11h17m57s/2025-07-22_16-23-58_1_106.txt
2025-07-22, 16:23:58, 1
Index	Phase	Displacement	Time	Pos X	Pos Y	Pos Z	Rot A	Rot B	Piezo Z	Force A	Force B	Gripper	Voltage A	Voltage B	Temperature	Amplitude force	Amplitude pos	Stiffness	Phase shift	Phase excitation	Force A raw	Displacement raw	HMax	HMax raw	Real Force	Real Stiffness	Contact Depth	Area	Hardness	Reduced Mod.
[#]	[#]	[um]	[s]	[um]	[um]	[um]	[m°]	[m°]	[um]	[uN]	[uN]	[V]	[V]	[V]	[°C]	[uN]	[um]	[N/m]	[°]	[°]	[uN]	[um]	[um]	[um]	[uN]	[N/m]	[um]	[um^2]	[MPa]	[MPa]
106	1.000000	0.002508	7.36608e+06	-43939.1	955.818	-29777.8	0.000000	0.000000	6.002789	-0.004270	NaN	0.000000	0.001642	0.001696	28.0814	0.022927	0.000988	23.2028	-159.931	-159.572	0.035542	0.001245	-1.076934	-1.078197	-0.004270	23.2028	-1.076796	-2.446160E+14	1.745608E-17	NaN
106	1.000000	0.042484	7.36608e+06	-43939.1	955.819	-29777.8	0.000000	0.000000	6.042762	-0.069977	NaN	0.000000	0.001702	0.001739	28.08	0.086311	0.001928	44.7784	122.391	-166.312	-0.045989	0.041141	-1.036958	-1.038300	-0.069977	44.7784	-1.035786	-6.875341E+13	1.017799E-15	NaN
106	1.000000	0.082480	7.36608e+06	-43939.1	955.818	-29777.8	0.000000	0.000000	6.082764	0.057969	NaN	0.000000	0.001667	0.001686	28.0817	0.055197	0.002019	27.341	-49.0757	-165.464	0.016493	0.081183	-0.996962	-0.998258	0.057969	27.341	-0.998552	-2.169053E+13	-2.672564E-15	NaN
106	1.000000	0.122480	7.36608e+06	-43939.1	955.819	-29777.8	0.000000	0.000000	6.122762	0.029268	NaN	0.000000	0.001663	0.001714	28.083	0.075616	0.002011	37.6078	172.034	-165.961	0.082698	0.121143	-0.956962	-0.958298	0.029268	37.6078	-0.957545	-6.078188E+12	-4.815281E-15	NaN
106	1.000000	0.162509	7.36608e+06	-43939.1	955.818	-29777.8	0.000000	0.000000	6.162791	0.023109	NaN	0.000000	0.001666	0.001753	28.0843	0.056135	0.002059	27.2622	158.393	-166.163	-0.045717	0.161238	-0.916933	-0.918204	0.023109	27.2622	-0.917568	-1.755388E+12	-1.316437E-14	NaN
106	1.000000	0.202529	7.36608e+06	-43939.1	955.818	-29777.8	0.000000	0.000000	6.202813	0.063668	NaN	0.000000	0.001711	0.001698	28.083	0.089942	0.002082	43.1996	141.093	-167.239	0.000823	0.201190	-0.876913	-0.878252	0.063668	43.1996	-0.878018	-5.127490E+11	-1.241691E-13	NaN
106	1.000000	0.242527	7.36608e+06	-43939.1	955.818	-29777.8	0.000000	0.000000	6.242812	0.077746	NaN	0.000000	0.001714	0.001711	28.0821	0.051629	0.002034	25.3861	26.8405	-166.69	-0.019867	0.241196	-0.836914	-0.838245	0.077746	25.3861	-0.839211	-1.529695E+11	-5.082471E-13	NaN
106	1.000000	0.282592	7.36608e+06	-43939.1	955.818	-29777.8	0.000000	0.000000	6.282872	-0.042681	NaN	0.000000	0.001690	0.001682	28.0817	0.104308	0.001984	52.5738	-128.107	-168.242	-0.095975	0.281279	-0.796850	-0.798162	-0.042681	52.5738	-0.796241	-3.997858E+10	1.067604E-12	NaN
106	1.000000	0.322605	7.36608e+06	-43939.1	955.818	-29777.8	0.000000	0.000000	6.322886	-0.013599	NaN	0.000000	0.001684	0.001708	28.0816	0.070311	0.001952	36.0193	25.2592	-166.04	0.028865	0.321303	-0.756837	-0.758139	-0.013599	36.0193	-0.756554	-1.154548E+10	1.177871E-12	NaN
106	1.000000	0.362628	7.36608e+06	-43939.1	955.819	-29777.8	0.000000	0.000000	6.362911	0.031808	NaN	0.000000	0.001725	0.001668	28.0819	0.022351	0.001854	12.058	84.88	-168.585	0.113846	0.361249	-0.716813	-0.718193	0.031808	12.058	-0.718792	-3.531797E+9	-9.006218E-12	NaN
106	1.000000	0.402600	7.36608e+06	-43939.1	955.818	-29777.8	0.000000	0.000000	6.402881	-0.009255	NaN	0.000000	0.001662	0.001656	28.0836	0.013217	0.001926	6.861372	156.813	-166.997	-0.007756	0.401284	-0.676842	-0.678158	-0.009255	6.861372	-0.675830	-9.144613E+8	1.012038E-11	NaN
106	1.000000	0.442610	7.36608e+06	-43939.1	955.818	-29777.8	0.000000	0.000000	6.442892	0.018884	NaN	0.000000	0.001643	0.001703	28.0823	0.029899	0.001936	15.4431	-140.915	-168.159	0.050182	0.441350	-0.636831	-0.638091	0.018884	15.4431	-0.637749	-2.750402E+8	-6.866033E-11	NaN
106	1.000000	0.482645	7.36608e+06	-43939.1	955.818	-29777.8	0.000000	0.000000	6.482928	0.047843	NaN	0.000000	0.001641	0.001683	28.0829	0.059733	0.002087	28.6149	-176.835	-166.802	0.081231	0.481402	-0.596797	-0.598039	0.047843	28.6149	-0.598051	-7.827386E+7	-6.112265E-10	NaN
106	1.000000	0.522662	7.36608e+06	-43939.1	955.818	-29777.8	0.000000	0.000000	6.522945	0.046570	NaN	0.000000	0.001682	0.001707	28.0812	0.063184	0.002023	31.2299	-112.959	-162.365	-0.002077	0.521319	-0.556780	-0.558123	0.046570	31.2299	-0.557898	-2.184221E+7	-2.132101E-9	NaN
106	1.000000	0.562701	7.36608e+06	-43939.1	955.818	-29777.9	0.000000	0.000000	6.562979	-0.061809	NaN	0.000000	0.001598	0.001684	28.0826	0.139095	0.001959	71.0102	-71.122	-161.699	0.031992	0.561350	-0.516741	-0.518092	-0.061809	71.0102	-0.516088	-5.74351e+06	1.076156E-8	NaN
106	1.000000	0.602684	7.36608e+06	-43939.1	955.818	-29777.9	0.000000	0.000000	6.602967	0.040054	NaN	0.000000	0.001613	0.001693	28.0813	0.056753	0.002028	27.9803	-101.007	-166.622	0.014634	0.601390	-0.476757	-0.478051	0.040054	27.9803	-0.477831	-1.67941e+06	-2.385025E-8	NaN
106	1.000000	0.642727	7.36608e+06	-43939.1	955.818	-29777.9	0.000000	0.000000	6.643009	-0.000544	NaN	0.000000	0.001672	0.001706	28.0829	0.026401	0.002053	12.8608	-157.023	-164.474	0.046831	0.641412	-0.436714	-0.438030	-0.000544	12.8608	-0.436682	-443121	1.227991E-9	NaN
106	1.000000	0.682727	7.36608e+06	-43939.1	955.818	-29777.9	0.000000	0.000000	6.683008	-0.013091	NaN	0.000000	0.001713	0.001712	28.0818	0.059712	0.001964	30.3979	-51.0397	-163.117	-0.000294	0.681403	-0.396714	-0.398039	-0.013091	30.3979	-0.396391	-118714	1.102746E-7	NaN
106	1.000000	0.722760	7.36608e+06	-43939.1	955.817	-29777.9	0.000000	0.000000	6.723043	0.040229	NaN	0.000000	0.001589	0.001707	28.0827	0.018573	0.002012	9.231543	131.655	-164.323	-0.024516	0.721412	-0.356682	-0.358030	0.040229	9.231543	-0.359950	-35573.2	-1.130882E-6	NaN
106	1.000000	0.762772	7.36608e+06	-43939.1	955.818	-29777.9	0.000000	0.000000	6.763055	0.050404	NaN	0.000000	0.001616	0.001673	28.0831	0.136274	0.001958	69.5957	-175.565	-168.039	0.016764	0.761456	-0.316670	-0.317986	0.050404	69.5957	-0.317213	-8464.29	-5.954945E-6	NaN
106	1.000000	0.802774	7.36608e+06	-43939.1	955.819	-29777.9	0.000000	0.000000	6.803055	-0.010664	NaN	0.000000	0.001625	0.001722	28.083	0.151622	0.001912	79.2923	164.069	-164.273	-0.002303	0.801493	-0.276667	-0.277949	-0.010664	79.2923	-0.276566	-2094.62	5.091193E-6	NaN
106	1.000000	0.842813	7.36608e+06	-43939.1	955.818	-29777.9	0.000000	0.000000	6.843096	0.064260	NaN	0.000000	0.001676	0.001678	28.0815	0.097504	0.001962	49.7041	-114.475	-163.714	0.054293	0.841493	-0.236629	-0.237949	0.064260	49.7041	-0.237599	-527.228	-0.000122	NaN
106	1.000000	0.882812	7.36608e+06	-43939.1	955.818	-29777.9	0.000000	0.000000	6.883092	-0.024826	NaN	0.000000	0.001727	0.001705	28.082	0.050676	0.001961	25.8455	-36.5738	-165.894	-0.014232	0.881534	-0.196630	-0.197908	-0.024826	25.8455	-0.195909	-112.785	0.000220	NaN
106	1.000000	0.922823	7.36608e+06	-43939.1	955.819	-29777.9	0.000000	0.000000	6.923105	0.023573	NaN	0.000000	0.001609	0.001649	28.0825	0.019834	0.002017	9.834364	136.004	-168.916	-0.021595	0.921562	-0.156619	-0.157879	0.023573	9.834364	-0.158416	-25.6915	-0.000918	NaN
106	1.000000	0.962865	7.36608e+06	-43939.1	955.818	-29777.9	0.000000	0.000000	6.963146	-0.025040	NaN	0.000000	0.001597	0.001777	28.0834	0.035773	0.001979	18.0755	-88.9918	-164.055	0.057918	0.961489	-0.116576	-0.117953	-0.025040	18.0755	-0.115537	-3.918911	0.006390	NaN
106	1.000000	1.002869	7.36608e+06	-43939.1	955.817	-29777.9	0.000000	0.000000	7.003151	0.002764	NaN	0.000000	0.001584	0.001735	28.0828	0.082020	0.002038	40.2511	-150.167	-167.578	0.003573	1.001630	-0.076572	-0.077812	0.002764	40.2511	-0.076624	-0.508506	-0.005436	NaN
106	1.000000	1.042881	7.36608e+06	-43939.1	955.819	-29777.9	0.000000	0.000000	7.043162	-0.005725	NaN	0.000000	0.001726	0.001720	28.0838	0.046187	0.002044	22.591	-42.6338	-165.643	-0.050854	1.041600	-0.036560	-0.037841	-0.005725	22.591	-0.036370	-0.035162	0.162827	NaN
106	1.000000	1.082861	7.36608e+06	-43939.1	955.819	-29777.9	0.000000	0.000000	7.083247	2.548900	NaN	0.000000	0.001757	0.001744	28.0819	3.485634	0.001965	1774	9.394119	-170.562	0.935511	1.081607	0.003419	0.002165	2.548900	1774	0.002342	0.001833	1390.55	37856.9
106	2.000000	1.097377	7.36608e+06	-43939.1	955.818	-29777.9	0.000000	0.000000	7.098700	25.3457	NaN	0.000000	0.001728	0.001715	28.0826	19.2667	0.001761	10940.4	6.349345	-178.206	24.9726	1.097078	0.017935	0.017636	25.3457	10940.4	0.016198	0.016916	1498.36	76853.1
106	2.000000	1.107300	7.36608e+06	-43939.1	955.818	-29777.9	0.000000	0.000000	7.109444	45.3256	NaN	0.000000	0.001646	0.001727	28.0817	28.7071	0.001883	15246.4	3.232357	-177.171	43.5974	1.107048	0.027858	0.027606	45.3256	15246.4	0.025629	0.032169	1408.98	77664.2
106	2.000000	1.117351	7.36608e+06	-43939.1	955.818	-29777.9	0.000000	0.000000	7.120885	79.1486	NaN	0.000000	0.001608	0.001701	28.0834	40.0802	0.001915	20926.5	5.514680	177.282	79.4506	1.116954	0.037909	0.037513	79.1486	20926.5	0.035072	0.051915	1524.59	83912.1
106	2.000000	1.127238	7.36608e+06	-43939.1	955.817	-29777.9	0.000000	0.000000	7.132531	121.944	NaN	0.000000	0.001675	0.001667	28.0831	50.1104	0.001751	28618.3	4.440616	175.91	117.921	1.126928	0.047796	0.047486	121.944	28618.3	0.044600	0.076456	1594.95	94560.6
106	2.000000	1.137314	7.36608e+06	-43939.1	955.818	-29777.9	0.000000	0.000000	7.145231	185.774	NaN	0.000000	0.001658	0.001674	28.0843	59.8891	0.001685	35543.8	3.388976	175.62	184.754	1.136894	0.057872	0.057453	185.774	35543.8	0.053952	0.105020	1768.94	100208
106	2.000000	1.147279	7.36608e+06	-43939.1	955.817	-29777.9	0.000000	0.000000	7.157809	249.341	NaN	0.000000	0.001706	0.001669	28.0836	71.9793	0.001765	40779	5.766375	171.065	249.149	1.146961	0.067838	0.067519	249.341	40779	0.063252	0.137727	1810.4	100392
106	2.000000	1.157282	7.36608e+06	-43939.1	955.817	-29777.9	0.000000	0.000000	7.170673	318.955	NaN	0.000000	0.001659	0.001693	28.084	80.8319	0.001839	43962.6	2.593134	173.74	318.555	1.157102	0.077840	0.077660	318.955	43962.6	0.072399	0.173983	1833.26	96294.9
106	2.000000	1.167204	7.36608e+06	-43939.1	955.818	-29777.9	0.000000	0.000000	7.184345	410.187	NaN	0.000000	0.001685	0.001659	28.0826	90.6446	0.001784	50812.1	5.776386	169.716	406.173	1.166853	0.087762	0.087411	410.187	50812.1	0.081708	0.214947	1908.32	100133
106	2.000000	1.177182	7.36608e+06	-43939.1	955.818	-29777.9	0.000000	0.000000	7.198124	502.644	NaN	0.000000	0.001694	0.001709	28.083	100.017	0.001717	58256.1	6.052536	168.803	499.927	1.176854	0.097741	0.097412	502.644	58256.1	0.091269	0.261214	1924.26	104140
106	2.000000	1.187296	7.36608e+06	-43939.1	955.819	-29777.9	0.000000	0.000000	7.211818	589.748	NaN	0.000000	0.001708	0.001677	28.0834	109.001	0.001799	60599.1	0.920899	173.471	590.828	1.187010	0.107855	0.107568	589.748	60599.1	0.100556	0.310159	1901.44	99414