File: remote_trans/data/nanoindenter/0828-1/data/Data_2025-08-06,11h17m57s/2025-07-22_16-23-58_1_488.txt
2025-07-22, 16:23:58, 1
Index	Phase	Displacement	Time	Pos X	Pos Y	Pos Z	Rot A	Rot B	Piezo Z	Force A	Force B	Gripper	Voltage A	Voltage B	Temperature	Amplitude force	Amplitude pos	Stiffness	Phase shift	Phase excitation	Force A raw	Displacement raw	HMax	HMax raw	Real Force	Real Stiffness	Contact Depth	Area	Hardness	Reduced Mod.
[#]	[#]	[um]	[s]	[um]	[um]	[um]	[m°]	[m°]	[um]	[uN]	[uN]	[V]	[V]	[V]	[°C]	[uN]	[um]	[N/m]	[°]	[°]	[uN]	[um]	[um]	[um]	[uN]	[N/m]	[um]	[um^2]	[MPa]	[MPa]
488	1.000000	0.002417	7.36983e+06	-52689.1	1005.82	-29748.5	0.000000	0.000000	6.002798	0.003209	NaN	0.000000	0.001498	0.001747	28.0834	0.075593	0.001097	68.8969	116.254	-167.521	0.005216	0.001098	-1.083862	-1.085181	0.003209	68.8969	-1.083897	-3.046884E+14	-1.053073E-17	NaN
488	1.000000	0.042363	7.36983e+06	-52689.1	1005.82	-29748.5	0.000000	0.000000	6.042744	-0.021032	NaN	0.000000	0.001457	0.001691	28.0831	0.008522	0.001936	4.402199	76.9661	-168.572	-0.044903	0.041076	-1.043915	-1.045202	-0.021032	4.402199	-1.040332	-7.914645E+13	2.657406E-16	NaN
488	1.000000	0.082357	7.36983e+06	-52689.1	1005.82	-29748.5	0.000000	0.000000	6.082741	0.061639	NaN	0.000000	0.001467	0.001683	28.0817	0.038617	0.002147	17.9901	-163.985	-165.312	0.007817	0.081029	-1.003922	-1.005249	0.061639	17.9901	-1.006492	-2.774338E+13	-2.221751E-15	NaN
488	1.000000	0.122416	7.36983e+06	-52689.1	1005.82	-29748.5	0.000000	0.000000	6.122798	0.012937	NaN	0.000000	0.001483	0.001644	28.0816	0.050664	0.001997	25.3724	-154.72	-160.632	0.037181	0.121128	-0.963862	-0.965151	0.012937	25.3724	-0.964245	-7.483249E+12	-1.728806E-15	NaN
488	1.000000	0.162427	7.36983e+06	-52689.1	1005.82	-29748.6	0.000000	0.000000	6.162811	0.043969	NaN	0.000000	0.001511	0.001593	28.0817	0.067570	0.001927	35.068	-177.459	-170.282	0.033303	0.161059	-0.923851	-0.925219	0.043969	35.068	-0.924792	-2.197321E+12	-2.001013E-14	NaN
488	1.000000	0.202408	7.36983e+06	-52689.1	1005.82	-29748.6	0.000000	0.000000	6.202790	0.013584	NaN	0.000000	0.001547	0.001583	28.082	0.118639	0.001979	59.9468	-153.124	-164.338	-0.027055	0.201104	-0.883871	-0.885175	0.013584	59.9468	-0.884041	-6.185149E+11	-2.196289E-14	NaN
488	1.000000	0.242434	7.36983e+06	-52689.1	1005.82	-29748.6	0.000000	0.000000	6.242814	-0.048519	NaN	0.000000	0.001550	0.001657	28.0833	0.040549	0.001976	20.5168	-148.732	-167.226	-0.077654	0.241173	-0.843844	-0.845105	-0.048519	20.5168	-0.842071	-1.672408E+11	2.901138E-13	NaN
488	1.000000	0.282487	7.36983e+06	-52689.1	1005.82	-29748.6	0.000000	0.000000	6.282869	0.018677	NaN	0.000000	0.001552	0.001651	28.0833	0.064178	0.002092	30.6816	-123.47	-163.268	-0.001375	0.281058	-0.803792	-0.805221	0.018677	30.6816	-0.804248	-5.134792E+10	-3.637430E-13	NaN
488	1.000000	0.322506	7.36983e+06	-52689.1	1005.82	-29748.6	0.000000	0.000000	6.322886	-0.039890	NaN	0.000000	0.001569	0.001666	28.0835	0.014446	0.001914	7.547399	-107.877	-167.376	-0.035198	0.321148	-0.763773	-0.765130	-0.039890	7.547399	-0.759809	-1.278498E+10	3.120088E-12	NaN
488	1.000000	0.362516	7.36983e+06	-52689.1	1005.82	-29748.6	0.000000	0.000000	6.362896	-0.046525	NaN	0.000000	0.001560	0.001635	28.0819	0.023709	0.001876	12.6371	-59.98	-165.443	-0.144829	0.361170	-0.723762	-0.725108	-0.046525	12.6371	-0.721001	-3.785504E+9	1.229035E-11	NaN
488	1.000000	0.402520	7.36983e+06	-52689.1	1005.82	-29748.6	0.000000	0.000000	6.402901	-0.027064	NaN	0.000000	0.001526	0.001679	28.0818	0.206341	0.001908	108.128	-113.686	-168.482	0.009024	0.401267	-0.683758	-0.685012	-0.027064	108.128	-0.683570	-1.166888E+9	2.319350E-11	NaN
488	1.000000	0.442547	7.36983e+06	-52689.1	1005.82	-29748.6	0.000000	0.000000	6.442928	-0.020771	NaN	0.000000	0.001553	0.001647	28.0817	0.038248	0.001857	20.5925	29.1131	-162.782	-0.025548	0.441270	-0.643732	-0.645009	-0.020771	20.5925	-0.642975	-3.244167E+8	6.402631E-11	NaN
488	1.000000	0.482566	7.36983e+06	-52689.1	1005.82	-29748.6	0.000000	0.000000	6.482948	0.006028	NaN	0.000000	0.001543	0.001630	28.0829	0.043652	0.002157	20.2363	-30.9722	-165.28	-0.027614	0.481262	-0.603712	-0.605017	0.006028	20.2363	-0.603936	-9.433044E+7	-6.390569E-11	NaN
488	1.000000	0.522557	7.36983e+06	-52689.1	1005.82	-29748.6	0.000000	0.000000	6.522937	-0.038989	NaN	0.000000	0.001604	0.001636	28.0829	0.069046	0.001922	35.9258	140.529	-168.007	-0.020996	0.521299	-0.563722	-0.564979	-0.038989	35.9258	-0.562908	-2.562123E+7	1.521732E-9	NaN
488	1.000000	0.562587	7.36983e+06	-52689.1	1005.82	-29748.6	0.000000	0.000000	6.562970	0.046016	NaN	0.000000	0.001665	0.001638	28.0831	0.045679	0.002017	22.6437	-98.9946	-164.414	0.052404	0.561301	-0.523692	-0.524978	0.046016	22.6437	-0.525216	-7.69331e+06	-5.981245E-9	NaN
488	1.000000	0.602592	7.36983e+06	-52689.1	1005.82	-29748.6	0.000000	0.000000	6.602973	-0.008814	NaN	0.000000	0.001611	0.001639	28.0832	0.083633	0.001938	43.1521	142.19	-166.636	-0.065629	0.601324	-0.483687	-0.484954	-0.008814	43.1521	-0.483534	-2.01828e+06	4.367254E-9	NaN
488	1.000000	0.642589	7.36983e+06	-52689.1	1005.82	-29748.6	0.000000	0.000000	6.642969	-0.045730	NaN	0.000000	0.001635	0.001587	28.082	0.042834	0.001990	21.5211	-120.092	-167.913	0.028663	0.641350	-0.443689	-0.444929	-0.045730	21.5211	-0.442096	-528367	8.655043E-8	NaN
488	1.000000	0.682636	7.36983e+06	-52689.1	1005.82	-29748.6	0.000000	0.000000	6.683015	-0.047222	NaN	0.000000	0.001590	0.001581	28.0823	0.064376	0.001951	32.9889	-153.391	-167.648	0.029648	0.681260	-0.403643	-0.405019	-0.047222	32.9889	-0.402569	-145420	3.247273E-7	NaN
488	1.000000	0.722630	7.36983e+06	-52689.1	1005.82	-29748.6	0.000000	0.000000	6.723010	-0.034102	NaN	0.000000	0.001579	0.001615	28.0822	0.191028	0.002003	95.3937	172.716	-167.007	0.028868	0.721409	-0.363648	-0.364870	-0.034102	95.3937	-0.363380	-39872.7	8.552675E-7	NaN
488	1.000000	0.762642	7.36983e+06	-52689.1	1005.82	-29748.6	0.000000	0.000000	6.763024	0.010369	NaN	0.000000	0.001610	0.001628	28.0834	0.092273	0.002014	45.8109	-139.789	-165.63	0.028064	0.761354	-0.323636	-0.324924	0.010369	45.8109	-0.323806	-10582.9	-9.797899E-7	NaN
488	1.000000	0.802668	7.36983e+06	-52689.1	1005.82	-29748.6	0.000000	0.000000	6.803049	-0.000546	NaN	0.000000	0.001617	0.001629	28.0832	0.096196	0.001981	48.5576	-165.078	-169.7	0.027592	0.801386	-0.283611	-0.284893	-0.000546	48.5576	-0.283602	-2674.52	2.041765E-7	NaN
488	1.000000	0.842711	7.36983e+06	-52689.1	1005.82	-29748.6	0.000000	0.000000	6.843089	-0.071707	NaN	0.000000	0.001651	0.001612	28.0833	0.065201	0.002002	32.5694	43.2569	-164.449	-0.099679	0.841414	-0.243568	-0.244865	-0.071707	32.5694	-0.241917	-615.828	0.000116	NaN
488	1.000000	0.882718	7.36983e+06	-52689.1	1005.82	-29748.6	0.000000	0.000000	6.883099	-0.021431	NaN	0.000000	0.001528	0.001650	28.0831	0.038698	0.002024	19.121	-69.2659	-166.116	-0.008471	0.881433	-0.203560	-0.204846	-0.021431	19.121	-0.202720	-145.983	0.000147	NaN
488	1.000000	0.922745	7.36983e+06	-52689.1	1005.82	-29748.6	0.000000	0.000000	6.923124	-0.050173	NaN	0.000000	0.001585	0.001640	28.0816	0.009861	0.001826	5.400265	4.010970	-166.261	-0.011001	0.921411	-0.163534	-0.164868	-0.050173	5.400265	-0.156566	-23.8066	0.002108	NaN
488	1.000000	0.962721	7.36983e+06	-52689.1	1005.82	-29748.6	0.000000	0.000000	6.963100	-0.056053	NaN	0.000000	0.001553	0.001644	28.0817	0.091226	0.001931	47.2525	69.871	-168.52	0.037441	0.961447	-0.123558	-0.124831	-0.056053	47.2525	-0.122668	-5.465654	0.010256	NaN
488	1.000000	1.002758	7.36983e+06	-52689.1	1005.82	-29748.6	0.000000	0.000000	7.003138	-0.034404	NaN	0.000000	0.001588	0.001663	28.0817	0.027224	0.002030	13.4087	85.2121	-169.324	0.005163	1.001416	-0.083521	-0.084863	-0.034404	13.4087	-0.081596	-0.678257	0.050724	NaN
488	1.000000	1.042792	7.36983e+06	-52689.1	1005.82	-29748.6	0.000000	0.000000	7.043174	-0.005970	NaN	0.000000	0.001603	0.001665	28.083	0.069435	0.002065	33.6211	-70.6542	-167.14	-0.008291	1.041453	-0.043486	-0.044826	-0.005970	33.6211	-0.043353	-0.057229	0.104313	NaN
488	1.000000	1.082784	7.36983e+06	-52689.1	1005.82	-29748.6	0.000000	0.000000	7.083167	0.036388	NaN	0.000000	0.001611	0.001696	28.0831	0.032071	0.001933	16.5918	77.1304	-168	-0.018233	1.081461	-0.003495	-0.004818	0.036388	16.5918	-0.005140	-0.003504	-10.3839	NaN
488	2.000000	1.100410	7.36983e+06	-52689.1	1005.82	-29748.6	0.000000	0.000000	7.101601	19.6759	NaN	0.000000	0.001641	0.001653	28.0831	17.4461	0.001818	9596.54	6.471386	-175.991	20.1171	1.100149	0.014131	0.013871	19.6759	9596.54	0.012594	0.012209	1611.61	79350.6
488	2.000000	1.110351	7.36983e+06	-52689.1	1005.82	-29748.6	0.000000	0.000000	7.112658	46.8301	NaN	0.000000	0.001577	0.001655	28.0816	28.4065	0.001838	15456	3.362178	-177.647	45.7011	1.110004	0.024072	0.023725	46.8301	15456	0.021800	0.025450	1840.11	88517.4
488	2.000000	1.120341	7.36983e+06	-52689.1	1005.82	-29748.6	0.000000	0.000000	7.123891	77.034	NaN	0.000000	0.001595	0.001688	28.0818	38.3253	0.001879	20392.8	6.219759	177.634	76.9823	1.120043	0.034062	0.033764	77.034	20392.8	0.031229	0.043330	1777.85	89506.9
488	2.000000	1.130296	7.36983e+06	-52689.1	1005.82	-29748.6	0.000000	0.000000	7.135644	120.748	NaN	0.000000	0.001594	0.001653	28.082	47.8149	0.001878	25462	4.538390	177.945	119.824	1.129960	0.044018	0.043681	120.748	25462	0.040461	0.065225	1851.24	91087.2
488	2.000000	1.140297	7.36983e+06	-52689.1	1005.82	-29748.6	0.000000	0.000000	7.147545	166.959	NaN	0.000000	0.001543	0.001699	28.082	58.6235	0.001811	32363.3	7.471568	171.981	166.005	1.139957	0.054018	0.053679	166.959	32363.3	0.050149	0.092874	1797.68	97023.7
488	2.000000	1.150229	7.36983e+06	-52689.1	1005.82	-29748.6	0.000000	0.000000	7.159782	222.994	NaN	0.000000	0.001535	0.001707	28.0832	69.0454	0.001846	37393.7	5.465203	172.825	219.733	1.149921	0.063950	0.063642	222.994	37393.7	0.059478	0.123941	1799.19	97042.9
488	2.000000	1.160244	7.36983e+06	-52689.1	1005.82	-29748.6	0.000000	0.000000	7.172315	284.198	NaN	0.000000	0.001588	0.001682	28.0833	77.5799	0.001848	41990.1	4.645635	172.599	281.709	1.159916	0.073966	0.073638	284.198	41990.1	0.068890	0.159600	1780.69	96029.3
488	2.000000	1.170216	7.36983e+06	-52689.1	1005.82	-29748.6	0.000000	0.000000	7.184849	346.514	NaN	0.000000	0.001653	0.001729	28.0831	86.5727	0.001795	48226.6	2.080096	173.985	342.838	1.169925	0.083937	0.083646	346.514	48226.6	0.078548	0.200589	1727.48	98379.9
488	2.000000	1.180176	7.36983e+06	-52689.1	1005.82	-29748.6	0.000000	0.000000	7.198191	428.738	NaN	0.000000	0.001644	0.001732	28.0821	94.8397	0.001730	54835.4	5.736888	170.073	424.017	1.179875	0.093898	0.093596	428.738	54835.4	0.088034	0.245086	1749.33	101199
488	2.000000	1.190165	7.36983e+06	-52689.1	1005.82	-29748.6	0.000000	0.000000	7.211338	505.511	NaN	0.000000	0.001563	0.001751	28.0822	106.81	0.001904	56087.9	8.475451	167.192	501.037	1.189881	0.103887	0.103602	505.511	56087.9	0.097127	0.291631	1733.39	94891.1
488	2.000000	1.191198	7.36983e+06	-52689.1	1005.82	-29748.6	0.000000	0.000000	7.212753	514.81	NaN	0.000000	0.001522	0.001758	28.0818	106.009	0.001681	63070.1	6.930882	167.514	510.756	1.190878	0.104920	0.104599	514.81	63070.1	0.098798	0.300591	1712.66	105101