File: remote_trans/data/nanoindenter/0828-1/data/Data_2025-08-06,11h17m57s/2025-07-22_16-23-58_1_201.txt
2025-07-22, 16:23:58, 1
Index	Phase	Displacement	Time	Pos X	Pos Y	Pos Z	Rot A	Rot B	Piezo Z	Force A	Force B	Gripper	Voltage A	Voltage B	Temperature	Amplitude force	Amplitude pos	Stiffness	Phase shift	Phase excitation	Force A raw	Displacement raw	HMax	HMax raw	Real Force	Real Stiffness	Contact Depth	Area	Hardness	Reduced Mod.
[#]	[#]	[um]	[s]	[um]	[um]	[um]	[m°]	[m°]	[um]	[uN]	[uN]	[V]	[V]	[V]	[°C]	[uN]	[um]	[N/m]	[°]	[°]	[uN]	[um]	[um]	[um]	[uN]	[N/m]	[um]	[um^2]	[MPa]	[MPa]
201	1.000000	0.002682	7.36701e+06	-48689.1	955.819	-29761.7	0.000000	0.000000	6.002797	0.029718	NaN	0.000000	0.001592	0.001682	28.0801	0.067418	0.000855	78.8482	-36.5605	-167.093	0.020117	0.001445	-1.203190	-1.204427	0.029718	78.8482	-1.203473	-1.222513E+16	-2.430904E-18	NaN
201	1.000000	0.046632	7.36701e+06	-48689.1	955.819	-29761.7	0.000000	0.000000	6.046744	-0.032624	NaN	0.000000	0.001575	0.001698	28.0801	0.009540	0.002026	4.709140	-35.4831	-166.832	-0.035093	0.045318	-1.159240	-1.160554	-0.032624	4.709140	-1.154044	-2.660953E+15	1.226025E-17	NaN
201	1.000000	0.090661	7.36701e+06	-48689.1	955.819	-29761.7	0.000000	0.000000	6.090775	0.006660	NaN	0.000000	0.001583	0.001705	28.0781	0.048778	0.002053	23.7616	-78.6818	-167.587	0.089524	0.089291	-1.115211	-1.116581	0.006660	23.7616	-1.115422	-8.073121E+14	-8.249907E-18	NaN
201	1.000000	0.134676	7.36701e+06	-48689.1	955.818	-29761.7	0.000000	0.000000	6.134790	-0.001919	NaN	0.000000	0.001629	0.001681	28.0782	0.148633	0.001973	75.3514	-122.602	-167.391	-0.056006	0.133328	-1.071196	-1.072544	-0.001919	75.3514	-1.071177	-2.055909E+14	9.332852E-18	NaN
201	1.000000	0.178688	7.36701e+06	-48689.1	955.819	-29761.8	0.000000	0.000000	6.178804	0.034741	NaN	0.000000	0.001571	0.001707	28.0787	0.068385	0.002004	34.1238	-93.5353	-165.86	0.030442	0.177340	-1.027183	-1.028531	0.034741	34.1238	-1.027947	-5.393444E+13	-6.441425E-16	NaN
201	1.000000	0.222689	7.36701e+06	-48689.1	955.82	-29761.8	0.000000	0.000000	6.222806	0.052768	NaN	0.000000	0.001589	0.001653	28.0801	0.086422	0.002006	43.0767	163.215	-166.763	0.035864	0.221411	-0.983182	-0.984461	0.052768	43.0767	-0.984101	-1.385669E+13	-3.808158E-15	NaN
201	1.000000	0.266706	7.36701e+06	-48689.1	955.818	-29761.8	0.000000	0.000000	6.266823	0.059512	NaN	0.000000	0.001640	0.001694	28.0798	0.052061	0.001984	26.2399	170.921	-167.273	0.025394	0.265408	-0.939166	-0.940464	0.059512	26.2399	-0.940867	-3.621008E+12	-1.643531E-14	NaN
201	1.000000	0.310743	7.36701e+06	-48689.1	955.818	-29761.8	0.000000	0.000000	6.310857	0.011694	NaN	0.000000	0.001570	0.001684	28.0799	0.055651	0.001967	28.2875	132.716	-167.037	0.057809	0.309450	-0.895129	-0.896422	0.011694	28.2875	-0.895439	-8.819337E+11	-1.326003E-14	NaN
201	1.000000	0.354771	7.36701e+06	-48689.1	955.82	-29761.8	0.000000	0.000000	6.354886	0.025199	NaN	0.000000	0.001599	0.001691	28.0786	0.090842	0.001945	46.7152	137.374	-167.737	-0.024965	0.353463	-0.851101	-0.852409	0.025199	46.7152	-0.851506	-2.244545E+11	-1.122678E-13	NaN
201	1.000000	0.398763	7.36701e+06	-48689.1	955.817	-29761.8	0.000000	0.000000	6.398875	-0.061175	NaN	0.000000	0.001607	0.001689	28.0788	0.049670	0.001943	25.563	79.279	-170.866	-0.055090	0.397477	-0.807109	-0.808395	-0.061175	25.563	-0.805314	-5.308648E+10	1.152374E-12	NaN
201	1.000000	0.442787	7.36701e+06	-48689.1	955.818	-29761.8	0.000000	0.000000	6.442898	-0.075929	NaN	0.000000	0.001615	0.001663	28.0783	0.113774	0.001949	58.3809	90.8326	-166.451	-0.037113	0.441500	-0.763085	-0.764372	-0.075929	58.3809	-0.762109	-1.374036E+10	5.525973E-12	NaN
201	1.000000	0.486823	7.36701e+06	-48689.1	955.819	-29761.8	0.000000	0.000000	6.486938	0.029800	NaN	0.000000	0.001601	0.001702	28.0783	0.033653	0.002009	16.7493	6.544833	-168.006	-0.008927	0.485548	-0.719049	-0.720324	0.029800	16.7493	-0.720384	-3.712843E+9	-8.026242E-12	NaN
201	1.000000	0.530850	7.36701e+06	-48689.1	955.818	-29761.8	0.000000	0.000000	6.530963	-0.019753	NaN	0.000000	0.001630	0.001652	28.0795	0.053283	0.002039	26.1294	53.7059	-167.281	0.073303	0.529527	-0.675022	-0.676345	-0.019753	26.1294	-0.674455	-8.757068E+8	2.255720E-11	NaN
201	1.000000	0.574874	7.36701e+06	-48689.1	955.818	-29761.8	0.000000	0.000000	6.574989	0.009151	NaN	0.000000	0.001598	0.001716	28.0793	0.075493	0.001943	38.8592	-28.7296	-163.419	-0.041138	0.573516	-0.630998	-0.632356	0.009151	38.8592	-0.631174	-2.234328E+8	-4.095832E-11	NaN
201	1.000000	0.618865	7.36701e+06	-48689.1	955.818	-29761.8	0.000000	0.000000	6.618978	-0.022249	NaN	0.000000	0.001577	0.001716	28.0802	0.131933	0.002120	62.2235	129.302	-167.027	0.106574	0.617578	-0.587007	-0.588294	-0.022249	62.2235	-0.586739	-5.466358E+7	4.070120E-10	NaN
201	1.000000	0.662873	7.36701e+06	-48689.1	955.818	-29761.8	0.000000	0.000000	6.662983	-0.115626	NaN	0.000000	0.001658	0.001668	28.0784	0.100606	0.001939	51.8966	67.689	-166.841	-0.103333	0.661602	-0.542998	-0.544270	-0.115626	51.8966	-0.541327	-1.287558E+7	8.980234E-9	NaN
201	1.000000	0.706908	7.36701e+06	-48689.1	955.819	-29761.8	0.000000	0.000000	6.707022	-0.014315	NaN	0.000000	0.001657	0.001671	28.0783	0.049022	0.001912	25.6372	-176.529	-165.732	-0.028523	0.705605	-0.498963	-0.500267	-0.014315	25.6372	-0.498545	-3.27124e+06	4.376062E-9	NaN
201	1.000000	0.750902	7.36701e+06	-48689.1	955.818	-29761.8	0.000000	0.000000	6.751015	-0.011856	NaN	0.000000	0.001662	0.001686	28.0785	0.038895	0.001804	21.5555	6.989180	-165.211	0.021364	0.749664	-0.454970	-0.456208	-0.011856	21.5555	-0.454557	-791575	1.497800E-8	NaN
201	1.000000	0.794943	7.36701e+06	-48689.1	955.818	-29761.8	0.000000	0.000000	6.795057	0.004550	NaN	0.000000	0.001678	0.001680	28.0803	0.066390	0.001994	33.2938	-147.749	-166.271	-0.015799	0.793625	-0.410929	-0.412247	0.004550	33.2938	-0.411031	-191894	-2.371328E-8	NaN
201	1.000000	0.838979	7.36701e+06	-48689.1	955.819	-29761.8	0.000000	0.000000	6.839092	-0.011912	NaN	0.000000	0.001698	0.001644	28.0797	0.071959	0.002019	35.6411	-105.276	-163.876	0.052412	0.837623	-0.366893	-0.368249	-0.011912	35.6411	-0.366642	-44436.7	2.680701E-7	NaN
201	1.000000	0.883015	7.36701e+06	-48689.1	955.819	-29761.8	0.000000	0.000000	6.883128	-0.021929	NaN	0.000000	0.001670	0.001671	28.0796	0.079604	0.001863	42.7393	133.962	-164.206	-0.005464	0.881649	-0.322857	-0.324223	-0.021929	42.7393	-0.322473	-10116	2.167750E-6	NaN
201	1.000000	0.927042	7.36701e+06	-48689.1	955.819	-29761.8	0.000000	0.000000	6.927158	0.038001	NaN	0.000000	0.001695	0.001645	28.0784	0.080783	0.001984	40.7126	102.469	-165.822	-0.036807	0.925686	-0.278829	-0.280186	0.038001	40.7126	-0.279530	-2322.05	-1.636551E-5	NaN
201	1.000000	0.970984	7.36701e+06	-48689.1	955.819	-29761.8	0.000000	0.000000	6.971101	0.065416	NaN	0.000000	0.001652	0.001689	28.0784	0.073238	0.001948	37.6007	27.9596	-169.006	0.004120	0.969707	-0.234887	-0.236164	0.065416	37.6007	-0.236192	-501.14	-0.000131	NaN
201	1.000000	1.015038	7.36701e+06	-48689.1	955.819	-29761.8	0.000000	0.000000	7.015152	0.006494	NaN	0.000000	0.001605	0.001704	28.0782	0.063289	0.001951	32.437	-60.3543	-166.661	-0.032175	1.013720	-0.190834	-0.192152	0.006494	32.437	-0.190984	-93.4235	-6.951108E-5	NaN
201	1.000000	1.059047	7.36701e+06	-48689.1	955.82	-29761.8	0.000000	0.000000	7.059160	-0.003777	NaN	0.000000	0.001635	0.001698	28.0794	0.003695	0.001925	1.919357	59.2366	-165.12	-0.069733	1.057708	-0.146825	-0.148164	-0.003777	1.919357	-0.145349	-14.8807	0.000254	NaN
201	1.000000	1.103079	7.36701e+06	-48689.1	955.82	-29761.8	0.000000	0.000000	7.103192	-0.032693	NaN	0.000000	0.001621	0.001703	28.0796	0.057969	0.001968	29.4528	68.9623	-165.999	0.088952	1.101728	-0.102793	-0.104144	-0.032693	29.4528	-0.101960	-2.018382	0.016197	NaN
201	1.000000	1.147083	7.36701e+06	-48689.1	955.82	-29761.8	0.000000	0.000000	7.147195	-0.026532	NaN	0.000000	0.001602	0.001740	28.0795	0.058137	0.001983	29.323	-35.575	-164.726	-0.102285	1.145726	-0.058789	-0.060146	-0.026532	29.323	-0.058111	-0.158846	0.167030	NaN
201	1.000000	1.191119	7.36701e+06	-48689.1	955.82	-29761.8	0.000000	0.000000	7.191233	0.009003	NaN	0.000000	0.001581	0.001734	28.0785	0.018239	0.001932	9.438953	-103.209	-166.35	-0.065186	1.189805	-0.014753	-0.016067	0.009003	9.438953	-0.015468	-0.009558	-0.942005	NaN
201	2.000000	1.220697	7.36701e+06	-48689.1	955.819	-29761.8	0.000000	0.000000	7.221449	15.5269	NaN	0.000000	0.001578	0.001707	28.0785	13.9974	0.001589	8808.73	7.875497	-178.175	15.7068	1.220329	0.014825	0.014457	15.5269	8808.73	0.013503	0.013341	1163.88	69678.6
201	2.000000	1.231590	7.36701e+06	-48689.1	955.82	-29761.8	0.000000	0.000000	7.233270	38.093	NaN	0.000000	0.001614	0.001708	28.0785	25.1924	0.001790	14071.5	2.145029	-175.733	37.2999	1.231245	0.025718	0.025373	38.093	14071.5	0.023688	0.028671	1328.61	75925.9
201	2.000000	1.242587	7.36701e+06	-48689.1	955.819	-29761.8	0.000000	0.000000	7.245589	70.2552	NaN	0.000000	0.001561	0.001745	28.0801	37.286	0.001719	21685.7	1.916832	179.869	67.7125	1.242289	0.036715	0.036417	70.2552	21685.7	0.034285	0.050095	1402.45	88522.2
201	2.000000	1.253534	7.36701e+06	-48689.1	955.82	-29761.8	0.000000	0.000000	7.258364	114.694	NaN	0.000000	0.001601	0.001704	28.0795	47.9954	0.001742	27554.4	2.913913	177.035	112.242	1.253255	0.047662	0.047383	114.694	27554.4	0.044540	0.076288	1503.44	91145.9
201	2.000000	1.264568	7.36701e+06	-48689.1	955.819	-29761.8	0.000000	0.000000	7.271315	161.33	NaN	0.000000	0.001593	0.001684	28.08	58.4451	0.001779	32853.9	3.412383	175.34	159.755	1.264216	0.058696	0.058345	161.33	32853.9	0.055013	0.108535	1486.43	91112.2
201	2.000000	1.275622	7.36702e+06	-48689.1	955.821	-29761.8	0.000000	0.000000	7.284773	219.783	NaN	0.000000	0.001553	0.001720	28.0782	71.0474	0.001718	41342.8	6.320941	170.94	224.859	1.275273	0.069750	0.069402	219.783	41342.8	0.065763	0.147281	1492.27	98423.8
201	2.000000	1.286542	7.36702e+06	-48689.1	955.82	-29761.8	0.000000	0.000000	7.298684	292.541	NaN	0.000000	0.001614	0.001732	28.0783	81.3702	0.001814	44852.2	5.446770	170.993	293.507	1.286205	0.080670	0.080333	292.541	44852.2	0.075779	0.188386	1552.88	94413.2
201	2.000000	1.297576	7.36702e+06	-48689.1	955.82	-29761.8	0.000000	0.000000	7.312835	368.34	NaN	0.000000	0.001602	0.001678	28.0782	90.9872	0.001780	51111	7.475438	168.406	369.991	1.297186	0.091704	0.091314	368.34	51111	0.086299	0.236639	1556.55	95994.2
201	2.000000	1.308510	7.36702e+06	-48689.1	955.82	-29761.8	0.000000	0.000000	7.327523	459.633	NaN	0.000000	0.001547	0.001669	28.0793	99.1676	0.001715	57819.7	4.070911	171.115	457.921	1.308131	0.102638	0.102259	459.633	57819.7	0.096676	0.289234	1589.14	98225.5
201	2.000000	1.314469	7.36702e+06	-48689.1	955.82	-29761.8	0.000000	0.000000	7.335792	515.854	NaN	0.000000	0.001599	0.001701	28.0794	104.218	0.001748	59621.6	3.204243	171.757	512.257	1.314175	0.108597	0.108303	515.854	59621.6	0.102108	0.318720	1618.52	96487.7