File: remote_trans/data/nanoindenter/0828-1/data/Data_2025-08-06,11h17m57s/2025-07-22_16-23-58_1_521.txt
2025-07-22, 16:23:58, 1
Index	Phase	Displacement	Time	Pos X	Pos Y	Pos Z	Rot A	Rot B	Piezo Z	Force A	Force B	Gripper	Voltage A	Voltage B	Temperature	Amplitude force	Amplitude pos	Stiffness	Phase shift	Phase excitation	Force A raw	Displacement raw	HMax	HMax raw	Real Force	Real Stiffness	Contact Depth	Area	Hardness	Reduced Mod.
[#]	[#]	[um]	[s]	[um]	[um]	[um]	[m°]	[m°]	[um]	[uN]	[uN]	[V]	[V]	[V]	[°C]	[uN]	[um]	[N/m]	[°]	[°]	[uN]	[um]	[um]	[um]	[uN]	[N/m]	[um]	[um^2]	[MPa]	[MPa]
521	1.000000	0.002293	7.37015e+06	-51039.1	1005.82	-29753.6	0.000000	0.000000	6.002812	0.073924	NaN	0.000000	0.001604	0.001707	28.0834	0.132302	0.001042	126.949	114.409	-162.92	-0.065379	0.000978	-1.133839	-1.135155	0.073924	126.949	-1.134276	-1.445343E+15	-5.114646E-17	NaN
521	1.000000	0.044241	7.37015e+06	-51039.1	1005.82	-29753.6	0.000000	0.000000	6.044756	0.012430	NaN	0.000000	0.001619	0.001769	28.0845	0.030569	0.002009	15.2165	-106.944	15.0102	0.098790	0.042899	-1.091892	-1.093233	0.012430	15.2165	-1.092505	-3.975962E+14	-3.126283E-17	NaN
521	1.000000	0.086229	7.37015e+06	-51039.1	1005.82	-29753.6	0.000000	0.000000	6.086747	0.060832	NaN	0.000000	0.001612	0.001723	28.0835	0.037311	0.002047	18.2236	176.26	-165.901	0.055995	0.084928	-1.049903	-1.051205	0.060832	18.2236	-1.052407	-1.150176E+14	-5.288965E-16	NaN
521	1.000000	0.128231	7.37015e+06	-51039.1	1005.82	-29753.6	0.000000	0.000000	6.128746	-0.012770	NaN	0.000000	0.001623	0.001717	28.0818	0.042924	0.001998	21.4826	-72.7039	13.0266	-0.056227	0.126941	-1.007902	-1.009191	-0.012770	21.4826	-1.007456	-2.858495E+13	4.467261E-16	NaN
521	1.000000	0.170266	7.37015e+06	-51039.1	1005.82	-29753.6	0.000000	0.000000	6.170782	0.000906	NaN	0.000000	0.001586	0.001717	28.0818	0.101229	0.001988	50.9317	-32.2683	-163.725	0.037980	0.168975	-0.965866	-0.967158	0.000906	50.9317	-0.965880	-7.872821E+12	-1.151264E-16	NaN
521	1.000000	0.212300	7.37015e+06	-51039.1	1005.82	-29753.6	0.000000	0.000000	6.212818	0.059204	NaN	0.000000	0.001640	0.001717	28.0818	0.099057	0.001995	49.6456	4.176989	13.3097	0.049575	0.210908	-0.923832	-0.925225	0.059204	49.6456	-0.924727	-2.192892E+12	-2.699801E-14	NaN
521	1.000000	0.254321	7.37015e+06	-51039.1	1005.82	-29753.6	0.000000	0.000000	6.254838	0.035129	NaN	0.000000	0.001660	0.001719	28.0829	0.079559	0.001942	40.9697	-15.5452	-163.47	0.064525	0.252980	-0.881811	-0.883152	0.035129	40.9697	-0.882455	-5.887082E+11	-5.967211E-14	NaN
521	1.000000	0.296340	7.37015e+06	-51039.1	1005.82	-29753.6	0.000000	0.000000	6.296855	0.002510	NaN	0.000000	0.001586	0.001706	28.0832	0.033355	0.002033	16.407	118.583	13.6395	0.078354	0.294984	-0.839793	-0.841148	0.002510	16.407	-0.839907	-1.563287E+11	-1.605721E-14	NaN
521	1.000000	0.338328	7.37015e+06	-51039.1	1005.82	-29753.6	0.000000	0.000000	6.338841	-0.040385	NaN	0.000000	0.001624	0.001666	28.0832	0.077839	0.002039	38.1762	-134.161	-170.695	-0.053435	0.337031	-0.797805	-0.799101	-0.040385	38.1762	-0.797012	-4.095370E+10	9.861034E-13	NaN
521	1.000000	0.380383	7.37015e+06	-51039.1	1005.82	-29753.6	0.000000	0.000000	6.380901	0.068644	NaN	0.000000	0.001707	0.001725	28.0831	0.068730	0.002081	33.0266	-93.8381	13.9456	0.077837	0.379054	-0.755750	-0.757079	0.068644	33.0266	-0.757309	-1.182187E+10	-5.806485E-12	NaN
521	1.000000	0.422406	7.37015e+06	-51039.1	1005.82	-29753.6	0.000000	0.000000	6.422923	0.025503	NaN	0.000000	0.001721	0.001751	28.082	0.145280	0.001981	73.3266	132.055	-165.686	-0.046314	0.421083	-0.713726	-0.715049	0.025503	73.3266	-0.713987	-3.037047E+9	-8.397323E-12	NaN
521	1.000000	0.464410	7.37015e+06	-51039.1	1005.82	-29753.6	0.000000	0.000000	6.464929	0.103433	NaN	0.000000	0.001711	0.001741	28.0821	0.031890	0.001880	16.9643	42.5707	10.9979	0.064918	0.463060	-0.671723	-0.673072	0.103433	16.9643	-0.676296	-9.279731E+8	-1.114614E-10	NaN
521	1.000000	0.506426	7.37015e+06	-51039.1	1005.82	-29753.6	0.000000	0.000000	6.506942	0.013535	NaN	0.000000	0.001678	0.001703	28.082	0.118243	0.001980	59.7184	-110.879	-164.171	-0.025883	0.505144	-0.629706	-0.630988	0.013535	59.7184	-0.629876	-2.144490E+8	-6.311557E-11	NaN
521	1.000000	0.548447	7.37015e+06	-51039.1	1005.82	-29753.6	0.000000	0.000000	6.548969	0.139202	NaN	0.000000	0.001647	0.001768	28.0834	0.095996	0.001758	54.5963	-165.517	14.9004	0.047504	0.547084	-0.587685	-0.589049	0.139202	54.5963	-0.589597	-5.985709E+7	-2.325572E-9	NaN
521	1.000000	0.590444	7.37015e+06	-51039.1	1005.82	-29753.6	0.000000	0.000000	6.590962	0.048496	NaN	0.000000	0.001653	0.001755	28.0831	0.030607	0.001910	16.0274	80.0557	-167.646	0.045493	0.589147	-0.545688	-0.546986	0.048496	16.0274	-0.547958	-1.590973E+7	-3.048203E-9	NaN
521	1.000000	0.632469	7.37015e+06	-51039.1	1005.82	-29753.6	0.000000	0.000000	6.632985	-0.004511	NaN	0.000000	0.001630	0.001729	28.0828	0.055856	0.001963	28.4514	110.348	12.0994	-0.017118	0.631142	-0.503663	-0.504990	-0.004511	28.4514	-0.503544	-3.84105e+06	1.174521E-9	NaN
521	1.000000	0.674474	7.37015e+06	-51039.1	1005.82	-29753.6	0.000000	0.000000	6.674991	0.048272	NaN	0.000000	0.001631	0.001720	28.0818	0.060715	0.002022	30.0232	-79.9945	-163.346	0.019251	0.673151	-0.461659	-0.462982	0.048272	30.0232	-0.462865	-1.03577e+06	-4.660493E-8	NaN
521	1.000000	0.716482	7.37015e+06	-51039.1	1005.82	-29753.6	0.000000	0.000000	6.716999	0.052928	NaN	0.000000	0.001648	0.001777	28.0818	0.085898	0.001995	43.0664	-131.881	14.4534	-0.012979	0.715181	-0.419651	-0.420951	0.052928	43.0664	-0.420573	-262142	-2.019073E-7	NaN
521	1.000000	0.758506	7.37015e+06	-51039.1	1005.82	-29753.6	0.000000	0.000000	6.759023	0.027629	NaN	0.000000	0.001637	0.001718	28.082	0.039945	0.002004	19.933	97.0109	-164.831	0.032114	0.757206	-0.377627	-0.378926	0.027629	19.933	-0.378666	-66182.2	-4.174694E-7	NaN
521	1.000000	0.800541	7.37015e+06	-51039.1	1005.82	-29753.6	0.000000	0.000000	6.801060	0.071532	NaN	0.000000	0.001633	0.001793	28.0831	0.044140	0.002040	21.6369	134.172	14.5188	0.053601	0.799154	-0.335591	-0.336978	0.071532	21.6369	-0.338071	-17116.7	-4.179083E-6	NaN
521	1.000000	0.842547	7.37015e+06	-51039.1	1005.82	-29753.6	0.000000	0.000000	6.843064	0.042956	NaN	0.000000	0.001631	0.001709	28.0831	0.040476	0.002100	19.2717	-177.212	-166.475	0.000851	0.841262	-0.293585	-0.294870	0.042956	19.2717	-0.295257	-3998.78	-1.074224E-5	NaN
521	1.000000	0.884597	7.37015e+06	-51039.1	1005.82	-29753.6	0.000000	0.000000	6.885114	0.040981	NaN	0.000000	0.001669	0.001712	28.083	0.081858	0.001976	41.4183	175.254	13.4665	0.022540	0.883210	-0.251535	-0.252922	0.040981	41.4183	-0.252277	-891.561	-4.596569E-5	NaN
521	1.000000	0.926593	7.37015e+06	-51039.1	1005.82	-29753.6	0.000000	0.000000	6.927111	0.063017	NaN	0.000000	0.001641	0.001728	28.0831	0.133478	0.002027	65.8411	42.6031	-167.183	0.038171	0.925274	-0.209539	-0.210859	0.063017	65.8411	-0.210257	-193.634	-0.000325	NaN
521	1.000000	0.968608	7.37015e+06	-51039.1	1005.82	-29753.6	0.000000	0.000000	6.969124	0.015279	NaN	0.000000	0.001651	0.001813	28.0819	0.131841	0.002046	64.4343	167.52	14.67	-0.026384	0.967226	-0.167524	-0.168906	0.015279	64.4343	-0.167702	-37.4637	-0.000408	NaN
521	1.000000	1.010596	7.37015e+06	-51039.1	1005.82	-29753.6	0.000000	0.000000	7.011113	0.051508	NaN	0.000000	0.001659	0.001797	28.0823	0.043060	0.002008	21.4486	-72.9581	-163.48	-0.053635	1.009345	-0.125537	-0.126788	0.051508	21.4486	-0.127338	-6.761614	-0.007618	NaN
521	1.000000	1.052660	7.37015e+06	-51039.1	1005.82	-29753.7	0.000000	0.000000	7.053174	-0.036932	NaN	0.000000	0.001641	0.001798	28.082	0.050001	0.001992	25.1036	58.7323	10.1878	-0.071800	1.051277	-0.083472	-0.084856	-0.036932	25.1036	-0.082369	-0.708690	0.052113	NaN
521	1.000000	1.094652	7.37015e+06	-51039.1	1005.82	-29753.7	0.000000	0.000000	7.095169	0.039045	NaN	0.000000	0.001675	0.001782	28.0832	0.104439	0.001998	52.2696	93.392	-167.951	0.057238	1.093379	-0.041480	-0.042754	0.039045	52.2696	-0.042041	-0.052181	-0.748248	NaN
521	1.000000	1.136682	7.37015e+06	-51039.1	1005.82	-29753.7	0.000000	0.000000	7.137335	3.338500	NaN	0.000000	0.001672	0.001796	28.0833	3.501116	0.001875	1866.92	17.583	10.0001	3.352186	1.135283	0.000550	-0.000850	3.338500	1866.92	-0.000791	-0.000583	-5730.81	NaN
521	2.000000	1.152283	7.37015e+06	-51039.1	1005.82	-29753.7	0.000000	0.000000	7.153649	20.6783	NaN	0.000000	0.001630	0.001798	28.0832	17.4255	0.001721	10125.1	8.056550	-179.856	20.5033	1.151958	0.016150	0.015826	20.6783	10125.1	0.014619	0.014780	1399.03	76090.4
521	2.000000	1.162739	7.37015e+06	-51039.1	1005.82	-29753.7	0.000000	0.000000	7.165287	49.4234	NaN	0.000000	0.001651	0.001814	28.0819	28.4956	0.001666	17108.3	4.327239	0.172264	47.8864	1.162383	0.026606	0.026250	49.4234	17108.3	0.024439	0.030004	1647.24	90238.3
521	2.000000	1.173226	7.37015e+06	-51039.1	1005.82	-29753.7	0.000000	0.000000	7.177191	83.8925	NaN	0.000000	0.001585	0.001810	28.0825	38.3026	0.001758	21793.4	2.270603	-179.614	84.196	1.172909	0.037093	0.036776	83.8925	21793.4	0.034206	0.049914	1680.74	89122.7
521	2.000000	1.183730	7.37015e+06	-51039.1	1005.82	-29753.7	0.000000	0.000000	7.189589	129.931	NaN	0.000000	0.001616	0.001820	28.0829	49.4968	0.001838	26923.5	3.485347	-2.395941	128.665	1.183250	0.047598	0.047118	129.931	26923.5	0.043978	0.074714	1739.06	89992
521	2.000000	1.194219	7.37015e+06	-51039.1	1005.82	-29753.7	0.000000	0.000000	7.202198	181.499	NaN	0.000000	0.001661	0.001754	28.0838	61.289	0.001860	32959.2	4.986666	173.956	179.886	1.193889	0.058087	0.057756	181.499	32959.2	0.053957	0.105034	1728	92914.9
521	2.000000	1.204653	7.37015e+06	-51039.1	1005.82	-29753.7	0.000000	0.000000	7.215248	245.117	NaN	0.000000	0.001635	0.001797	28.0834	73.3541	0.001886	38887.3	8.059738	-10.3712	243.205	1.204371	0.068520	0.068239	245.117	38887.3	0.063793	0.139759	1753.86	95036.8
521	2.000000	1.215200	7.37015e+06	-51039.1	1005.82	-29753.7	0.000000	0.000000	7.228671	315.051	NaN	0.000000	0.001621	0.001817	28.0833	82.4307	0.001729	47679.5	7.269910	168.383	315.397	1.214932	0.079067	0.078799	315.051	47679.5	0.074112	0.181214	1738.56	102331
521	2.000000	1.225566	7.37015e+06	-51039.1	1005.82	-29753.7	0.000000	0.000000	7.242512	399.533	NaN	0.000000	0.001617	0.001819	28.0835	92.7442	0.001868	49656.9	5.271433	-8.918859	394.224	1.225193	0.089434	0.089061	399.533	49656.9	0.083399	0.222825	1793.03	96110.4
521	2.000000	1.236016	7.37015e+06	-51039.1	1005.82	-29753.7	0.000000	0.000000	7.256743	491.482	NaN	0.000000	0.001622	0.001782	28.0823	102.144	0.001740	58699.2	8.597737	166.641	486.629	1.235561	0.099883	0.099429	491.482	58699.2	0.093604	0.273146	1799.34	102614
521	2.000000	1.242064	7.37015e+06	-51039.1	1005.82	-29753.7	0.000000	0.000000	7.264210	526.008	NaN	0.000000	0.001606	0.001792	28.0824	108.226	0.001859	58201.6	2.166681	172.675	521.705	1.241875	0.105931	0.105743	526.008	58201.6	0.099153	0.302514	1738.79	96679.8