File: remote_trans/data/nanoindenter/0828-1/data/Data_2025-08-06,11h17m57s/2025-07-22_16-23-58_1_1013.txt
2025-07-22, 16:23:58, 1
Index	Phase	Displacement	Time	Pos X	Pos Y	Pos Z	Rot A	Rot B	Piezo Z	Force A	Force B	Gripper	Voltage A	Voltage B	Temperature	Amplitude force	Amplitude pos	Stiffness	Phase shift	Phase excitation	Force A raw	Displacement raw	HMax	HMax raw	Real Force	Real Stiffness	Contact Depth	Area	Hardness	Reduced Mod.
[#]	[#]	[um]	[s]	[um]	[um]	[um]	[m°]	[m°]	[um]	[uN]	[uN]	[V]	[V]	[V]	[°C]	[uN]	[um]	[N/m]	[°]	[°]	[uN]	[um]	[um]	[um]	[uN]	[N/m]	[um]	[um^2]	[MPa]	[MPa]
1013	1.000000	0.002804	7.37496e+06	-50789.1	1055.82	-29754.5	0.000000	0.000000	6.002818	0.022524	NaN	0.000000	0.001614	0.001666	28.0845	0.085467	0.000905	94.4699	-108.521	-156.24	0.080730	0.001555	-1.034419	-1.035667	0.022524	94.4699	-1.034597	-6.626968E+13	-3.398789E-16	NaN
1013	1.000000	0.042710	7.37496e+06	-50789.1	1055.82	-29754.5	0.000000	0.000000	6.042724	0.003711	NaN	0.000000	0.001655	0.001684	28.0845	0.074396	0.002017	36.8769	109.416	-162.56	-0.074886	0.041416	-0.994512	-0.995806	0.003711	36.8769	-0.994588	-1.918207E+13	-1.934737E-16	NaN
1013	1.000000	0.082735	7.37496e+06	-50789.1	1055.82	-29754.5	0.000000	0.000000	6.082746	-0.068689	NaN	0.000000	0.001552	0.001675	28.0831	0.119572	0.002031	58.877	-163.974	-164.221	0.002414	0.081442	-0.954487	-0.955780	-0.068689	58.877	-0.953612	-5.379510E+12	1.276861E-14	NaN
1013	1.000000	0.122743	7.37496e+06	-50789.1	1055.82	-29754.5	0.000000	0.000000	6.122760	0.080037	NaN	0.000000	0.001555	0.001699	28.0834	0.051312	0.001982	25.8843	-87.228	-163.207	0.053551	0.121441	-0.914479	-0.915782	0.080037	25.8843	-0.916798	-1.713856E+12	-4.669972E-14	NaN
1013	1.000000	0.162775	7.37496e+06	-50789.1	1055.82	-29754.5	0.000000	0.000000	6.162790	0.037536	NaN	0.000000	0.001517	0.001687	28.0833	0.120192	0.001882	63.8786	-171.53	-164.958	-0.035561	0.161429	-0.874447	-0.875793	0.037536	63.8786	-0.874888	-4.651187E+11	-8.070257E-14	NaN
1013	1.000000	0.202812	7.37496e+06	-50789.1	1055.82	-29754.5	0.000000	0.000000	6.202828	0.058700	NaN	0.000000	0.001532	0.001737	28.0845	0.071960	0.001968	36.5662	94.4259	-164.986	-0.032767	0.201507	-0.834411	-0.835715	0.058700	36.5662	-0.835615	-1.367333E+11	-4.293023E-13	NaN
1013	1.000000	0.242825	7.37496e+06	-50789.1	1055.82	-29754.5	0.000000	0.000000	6.242839	-0.010624	NaN	0.000000	0.001533	0.001676	28.0846	0.082133	0.002053	40.0101	42.1282	-165.05	0.000897	0.241498	-0.794397	-0.795724	-0.010624	40.0101	-0.794198	-3.750503E+10	2.832697E-13	NaN
1013	1.000000	0.282805	7.37496e+06	-50789.1	1055.82	-29754.5	0.000000	0.000000	6.282820	0.032516	NaN	0.000000	0.001504	0.001737	28.0846	0.059205	0.001955	30.2883	100.837	-162.955	0.116195	0.281498	-0.754417	-0.755724	0.032516	30.2883	-0.755222	-1.107380E+10	-2.936294E-12	NaN
1013	1.000000	0.322866	7.37496e+06	-50789.1	1055.82	-29754.5	0.000000	0.000000	6.322880	-0.001780	NaN	0.000000	0.001564	0.001699	28.0846	0.126544	0.002018	62.7096	25.5754	-165.924	-0.078395	0.321495	-0.714356	-0.715727	-0.001780	62.7096	-0.714335	-3.070422E+9	5.795866E-13	NaN
1013	1.000000	0.362849	7.37496e+06	-50789.1	1055.82	-29754.5	0.000000	0.000000	6.362861	-0.028446	NaN	0.000000	0.001496	0.001654	28.083	0.073854	0.001990	37.1112	106.771	-161.839	-0.021908	0.361519	-0.674373	-0.675704	-0.028446	37.1112	-0.673798	-8.577703E+8	3.316255E-11	NaN
1013	1.000000	0.402880	7.37496e+06	-50789.1	1055.82	-29754.5	0.000000	0.000000	6.402892	-0.020597	NaN	0.000000	0.001559	0.001695	28.0833	0.075138	0.002011	37.3719	-89.1675	-165.149	-0.043682	0.401597	-0.634343	-0.635625	-0.020597	37.3719	-0.633929	-2.437675E+8	8.449278E-11	NaN
1013	1.000000	0.442886	7.37496e+06	-50789.1	1055.82	-29754.5	0.000000	0.000000	6.442901	0.055852	NaN	0.000000	0.001515	0.001672	28.0833	0.146535	0.002113	69.334	-83.8776	-164.429	0.126931	0.441590	-0.594337	-0.595632	0.055852	69.334	-0.594941	-7.091985E+7	-7.875309E-10	NaN
1013	1.000000	0.482930	7.37496e+06	-50789.1	1055.82	-29754.5	0.000000	0.000000	6.482946	0.039996	NaN	0.000000	0.001560	0.001658	28.0844	0.042483	0.002169	19.586	-157.339	-165.768	-0.000321	0.481633	-0.554292	-0.555589	0.039996	19.586	-0.555824	-2.044503E+7	-1.956260E-9	NaN
1013	1.000000	0.522930	7.37496e+06	-50789.1	1055.82	-29754.5	0.000000	0.000000	6.522944	0.013714	NaN	0.000000	0.001560	0.001648	28.0842	0.018250	0.002012	9.068877	-134.663	-165.513	-0.060783	0.521624	-0.514292	-0.515598	0.013714	9.068877	-0.515426	-5.62294e+06	-2.438972E-9	NaN
1013	1.000000	0.562959	7.37496e+06	-50789.1	1055.82	-29754.5	0.000000	0.000000	6.562974	0.056084	NaN	0.000000	0.001573	0.001628	28.0842	0.091959	0.001899	48.4337	-129.834	-165.396	0.073548	0.561668	-0.474264	-0.475554	0.056084	48.4337	-0.475132	-1.53941e+06	-3.643214E-8	NaN
1013	1.000000	0.602989	7.37496e+06	-50789.1	1055.82	-29754.5	0.000000	0.000000	6.603005	0.054151	NaN	0.000000	0.001582	0.001661	28.0823	0.143735	0.001955	73.5117	-109.722	-166.593	0.127777	0.601621	-0.434233	-0.435602	0.054151	73.5117	-0.434786	-416608	-1.299803E-7	NaN
1013	1.000000	0.642982	7.37496e+06	-50789.1	1055.82	-29754.5	0.000000	0.000000	6.642994	-0.022774	NaN	0.000000	0.001627	0.001639	28.0826	0.040151	0.002006	20.0201	-155.715	-167.436	-0.066951	0.641757	-0.394241	-0.395466	-0.022774	20.0201	-0.393387	-107547	2.117580E-7	NaN
1013	1.000000	0.683001	7.37496e+06	-50789.1	1055.82	-29754.5	0.000000	0.000000	6.683017	0.061090	NaN	0.000000	0.001552	0.001651	28.0828	0.018368	0.001942	9.460703	119.373	-171.27	0.022335	0.681635	-0.354222	-0.355587	0.061090	9.460703	-0.359065	-34539.9	-1.768684E-6	NaN
1013	1.000000	0.723003	7.37496e+06	-50789.1	1055.82	-29754.5	0.000000	0.000000	6.723018	0.032266	NaN	0.000000	0.001542	0.001612	28.0829	0.038778	0.002038	19.0249	-123.34	-166.733	-0.017617	0.721712	-0.314219	-0.315510	0.032266	19.0249	-0.315491	-7983.61	-4.041520E-6	NaN
1013	1.000000	0.763034	7.37496e+06	-50789.1	1055.82	-29754.5	0.000000	0.000000	6.763048	0.016255	NaN	0.000000	0.001624	0.001648	28.0841	0.110972	0.001980	56.054	-119.37	-165.149	0.029766	0.761715	-0.274188	-0.275508	0.016255	56.054	-0.274406	-1942.68	-8.367120E-6	NaN
1013	1.000000	0.803038	7.37496e+06	-50789.1	1055.82	-29754.5	0.000000	0.000000	6.803053	0.019576	NaN	0.000000	0.001510	0.001636	28.0843	0.098456	0.002031	48.4817	-177.744	-167.964	0.009051	0.801706	-0.234184	-0.235516	0.019576	48.4817	-0.234487	-471.185	-4.154604E-5	NaN
1013	1.000000	0.843055	7.37496e+06	-50789.1	1055.82	-29754.5	0.000000	0.000000	6.843071	0.068588	NaN	0.000000	0.001642	0.001650	28.0845	0.083722	0.001927	43.4436	-105.781	-164.338	0.025823	0.841748	-0.194167	-0.195474	0.068588	43.4436	-0.195351	-110.413	-0.000621	NaN
1013	1.000000	0.883083	7.37496e+06	-50789.1	1055.82	-29754.5	0.000000	0.000000	6.883099	0.046405	NaN	0.000000	0.001662	0.001715	28.083	0.086148	0.002020	42.6499	-64.8486	-164.264	0.032162	0.881796	-0.154139	-0.155426	0.046405	42.6499	-0.154955	-22.2727	-0.002083	NaN
1013	1.000000	0.923094	7.37496e+06	-50789.1	1055.82	-29754.5	0.000000	0.000000	6.923111	0.062500	NaN	0.000000	0.001571	0.001720	28.0829	0.099340	0.002065	48.1021	-26.917	-166.069	0.044125	0.921746	-0.114128	-0.115476	0.062500	48.1021	-0.115102	-3.838965	-0.016280	NaN
1013	1.000000	0.963129	7.37496e+06	-50789.1	1055.82	-29754.5	0.000000	0.000000	6.963141	-0.032686	NaN	0.000000	0.001568	0.001687	28.0825	0.053539	0.001994	26.8563	-61.4856	-161.848	-0.052622	0.961806	-0.074093	-0.075417	-0.032686	26.8563	-0.073181	-0.414144	0.078924	NaN
1013	1.000000	1.003123	7.37496e+06	-50789.1	1055.82	-29754.5	0.000000	0.000000	7.003137	0.004954	NaN	0.000000	0.001561	0.001688	28.0827	0.107197	0.002046	52.4048	-137.914	-163.438	-0.068637	1.001824	-0.034099	-0.035398	0.004954	52.4048	-0.034170	-0.030278	-0.163601	NaN
1013	2.000000	1.042630	7.37496e+06	-50789.1	1055.82	-29754.5	0.000000	0.000000	7.042988	8.372907	NaN	0.000000	0.001516	0.001655	28.0844	8.161851	0.001600	5099.72	9.436575	-172.842	7.620180	1.041797	0.005408	0.004575	8.372907	5099.72	0.004176	0.003394	2466.88	79975.1
1013	2.000000	1.052700	7.37496e+06	-50789.1	1055.82	-29754.5	0.000000	0.000000	7.053757	25.3693	NaN	0.000000	0.001548	0.001645	28.0843	20.0664	0.001875	10700	6.045942	-176.249	24.5524	1.052423	0.015477	0.015201	25.3693	10700	0.013699	0.013590	1866.81	83859.4
1013	2.000000	1.062647	7.37496e+06	-50789.1	1055.82	-29754.5	0.000000	0.000000	7.064681	49.1172	NaN	0.000000	0.001592	0.001684	28.0845	30.3284	0.001818	16682.1	3.959287	-178.387	47.0498	1.062353	0.025425	0.025130	49.1172	16682.1	0.023217	0.027851	1763.56	91327.8
1013	2.000000	1.072713	7.37496e+06	-50789.1	1055.82	-29754.5	0.000000	0.000000	7.076000	79.6055	NaN	0.000000	0.001572	0.001644	28.0831	39.7122	0.001709	23236.7	5.033757	176.366	79.1178	1.072367	0.035490	0.035145	79.6055	23236.7	0.032921	0.047016	1693.17	97910
1013	2.000000	1.082681	7.37496e+06	-50789.1	1055.82	-29754.5	0.000000	0.000000	7.087521	117.348	NaN	0.000000	0.001572	0.001621	28.083	49.2361	0.001742	28260.4	6.749742	174.321	118.426	1.082383	0.045459	0.045160	117.348	28260.4	0.042345	0.070229	1670.94	97430.3
1013	2.000000	1.092644	7.37496e+06	-50789.1	1055.82	-29754.5	0.000000	0.000000	7.099330	162.277	NaN	0.000000	0.001541	0.001627	28.0832	58.7119	0.001776	33064.2	2.400561	176.579	162.327	1.092406	0.055421	0.055183	162.277	33064.2	0.051740	0.097869	1658.11	96562.6
1013	2.000000	1.102557	7.37496e+06	-50789.1	1055.82	-29754.5	0.000000	0.000000	7.111650	220.777	NaN	0.000000	0.001536	0.001622	28.0844	67.9286	0.001694	40109.2	5.286561	173.254	217.588	1.102295	0.065335	0.065073	220.777	40109.2	0.061207	0.130171	1696.05	101569
1013	2.000000	1.112671	7.37496e+06	-50789.1	1055.82	-29754.5	0.000000	0.000000	7.124313	282.785	NaN	0.000000	0.001568	0.001672	28.0843	79.4087	0.001855	42811.7	3.907173	173.585	283.146	1.112281	0.075449	0.075059	282.785	42811.7	0.070495	0.166106	1702.43	95971.7
1013	2.000000	1.122540	7.37496e+06	-50789.1	1055.82	-29754.5	0.000000	0.000000	7.137250	357.379	NaN	0.000000	0.001528	0.001654	28.0843	87.77	0.001783	49234.1	6.724951	169.42	353.725	1.122407	0.085317	0.085185	357.379	49234.1	0.079873	0.206554	1730.2	98974.3
1013	2.000000	1.132639	7.37496e+06	-50789.1	1055.82	-29754.5	0.000000	0.000000	7.150934	444.553	NaN	0.000000	0.001556	0.001688	28.0842	99.8748	0.001843	54176.9	5.492321	170.02	445.991	1.132270	0.095417	0.095047	444.553	54176.9	0.089263	0.251155	1770.03	98768.1
1013	2.000000	1.140945	7.37496e+06	-50789.1	1055.82	-29754.5	0.000000	0.000000	7.162762	530.203	NaN	0.000000	0.001558	0.001672	28.0832	105.481	0.001838	57382.2	5.075459	-9.446593	522.222	1.140593	0.103723	0.103371	530.203	57382.2	0.096793	0.289853	1829.21	97378.1