File: remote_trans/data/nanoindenter/0828-1/data/Data_2025-08-06,11h17m57s/2025-07-22_16-23-58_1_786.txt
2025-07-22, 16:23:58, 1
Index	Phase	Displacement	Time	Pos X	Pos Y	Pos Z	Rot A	Rot B	Piezo Z	Force A	Force B	Gripper	Voltage A	Voltage B	Temperature	Amplitude force	Amplitude pos	Stiffness	Phase shift	Phase excitation	Force A raw	Displacement raw	HMax	HMax raw	Real Force	Real Stiffness	Contact Depth	Area	Hardness	Reduced Mod.
[#]	[#]	[um]	[s]	[um]	[um]	[um]	[m°]	[m°]	[um]	[uN]	[uN]	[V]	[V]	[V]	[°C]	[uN]	[um]	[N/m]	[°]	[°]	[uN]	[um]	[um]	[um]	[uN]	[N/m]	[um]	[um^2]	[MPa]	[MPa]
786	1.000000	0.002728	7.37274e+06	-39439.1	1055.82	-29793.2	0.000000	0.000000	6.002820	0.017730	NaN	0.000000	0.001599	0.001690	28.0806	0.111080	0.001027	108.166	-99.7081	-162.48	0.089004	0.001392	-1.753488	-1.754824	0.017730	108.166	-1.753611	-2.620642E+23	-6.765652E-26	NaN
786	1.000000	0.062666	7.37274e+06	-39439.1	1055.82	-29793.2	0.000000	0.000000	6.062755	-0.072948	NaN	0.000000	0.001627	0.001693	28.0808	0.078401	0.001984	39.5256	-119.668	-165.111	-0.063081	0.061363	-1.693549	-1.694852	-0.072948	39.5256	-1.692165	-4.002707E+22	1.822467E-24	NaN
786	1.000000	0.122704	7.37274e+06	-39439.1	1055.82	-29793.2	0.000000	0.000000	6.122796	-0.002599	NaN	0.000000	0.001618	0.001640	28.0824	0.077543	0.001933	40.1165	108.649	-166.162	-0.057858	0.121382	-1.633511	-1.634833	-0.002599	40.1165	-1.633462	-6.640342E+21	3.914069E-25	NaN
786	1.000000	0.182708	7.37274e+06	-39439.1	1055.82	-29793.2	0.000000	0.000000	6.182801	0.033475	NaN	0.000000	0.001616	0.001680	28.0825	0.155270	0.001984	78.2757	-161.14	-165.4	0.020212	0.181438	-1.573507	-1.574777	0.033475	78.2757	-1.573828	-1.069219E+21	-3.130759E-23	NaN
786	1.000000	0.242734	7.37274e+06	-39439.1	1055.82	-29793.2	0.000000	0.000000	6.242824	-0.040596	NaN	0.000000	0.001627	0.001697	28.081	0.126429	0.001883	67.1489	-79.3671	-163.391	0.006663	0.241426	-1.513481	-1.514789	-0.040596	67.1489	-1.513028	-1.658832E+20	2.447269E-22	NaN
786	1.000000	0.302758	7.37274e+06	-39439.1	1055.82	-29793.2	0.000000	0.000000	6.302851	0.027852	NaN	0.000000	0.001587	0.001732	28.0809	0.119487	0.002003	59.6612	35.865	-164.593	0.027006	0.301438	-1.453457	-1.454777	0.027852	59.6612	-1.453807	-2.697068E+19	-1.032691E-21	NaN
786	1.000000	0.362778	7.37274e+06	-39439.1	1055.82	-29793.2	0.000000	0.000000	6.362870	0.000999	NaN	0.000000	0.001576	0.001732	28.081	0.106813	0.002020	52.8857	164.098	-166.039	-0.037320	0.361510	-1.393437	-1.394705	0.000999	52.8857	-1.393451	-4.227724E+18	-2.362081E-22	NaN
786	1.000000	0.422814	7.37274e+06	-39439.1	1055.82	-29793.2	0.000000	0.000000	6.422907	0.029079	NaN	0.000000	0.001581	0.001786	28.0818	0.090766	0.001985	45.7233	133.784	-164.615	0.055495	0.421542	-1.333401	-1.334674	0.029079	45.7233	-1.333878	-6.775903E+17	-4.291527E-20	NaN
786	1.000000	0.482823	7.37274e+06	-39439.1	1055.82	-29793.2	0.000000	0.000000	6.482913	-0.051429	NaN	0.000000	0.001572	0.001769	28.0819	0.086348	0.002105	41.0301	26.6429	-166.292	-0.035079	0.481536	-1.273392	-1.274679	-0.051429	41.0301	-1.272452	-1.023700E+17	5.023846E-19	NaN
786	1.000000	0.542863	7.37274e+06	-39439.1	1055.82	-29793.2	0.000000	0.000000	6.542953	-0.036444	NaN	0.000000	0.001558	0.001751	28.081	0.032701	0.001951	16.7587	81.8285	-162.921	-0.043096	0.541561	-1.213352	-1.214655	-0.036444	16.7587	-1.211721	-1.576471E+16	2.311720E-18	NaN
786	1.000000	0.602877	7.37274e+06	-39439.1	1055.82	-29793.2	0.000000	0.000000	6.602967	-0.059629	NaN	0.000000	0.001622	0.001740	28.0808	0.120725	0.001953	61.8258	-165.634	-160.458	-0.094511	0.601548	-1.153338	-1.154667	-0.059629	61.8258	-1.152614	-2.546067E+15	2.342001E-17	NaN
786	1.000000	0.662905	7.37274e+06	-39439.1	1055.82	-29793.2	0.000000	0.000000	6.662997	0.001362	NaN	0.000000	0.001629	0.001761	28.0821	0.016975	0.001904	8.914031	-49.1928	-167.414	0.015373	0.661585	-1.093310	-1.094631	0.001362	8.914031	-1.093424	-4.090646E+14	-3.330689E-18	NaN
786	1.000000	0.722927	7.37274e+06	-39439.1	1055.82	-29793.2	0.000000	0.000000	6.723017	-0.029662	NaN	0.000000	0.001645	0.001761	28.082	0.034276	0.002030	16.8862	38.3795	-164.947	0.002033	0.721577	-1.033288	-1.034638	-0.029662	16.8862	-1.031971	-6.109300E+13	4.855167E-16	NaN
786	1.000000	0.782947	7.37274e+06	-39439.1	1055.82	-29793.2	0.000000	0.000000	6.783038	-0.021873	NaN	0.000000	0.001563	0.001788	28.0807	0.123131	0.002098	58.6986	-133.676	-162.804	0.005193	0.781662	-0.973268	-0.974553	-0.021873	58.6986	-0.972989	-9.816129E+12	2.228300E-15	NaN
786	1.000000	0.842977	7.37274e+06	-39439.1	1055.82	-29793.2	0.000000	0.000000	6.843067	-0.043436	NaN	0.000000	0.001570	0.001798	28.0807	0.141279	0.002063	68.4754	-100.922	-162.843	-0.008803	0.841675	-0.913238	-0.914540	-0.043436	68.4754	-0.912762	-1.511717E+12	2.873265E-14	NaN
786	1.000000	0.903007	7.37274e+06	-39439.1	1055.82	-29793.2	0.000000	0.000000	6.903096	-0.066354	NaN	0.000000	0.001564	0.001763	28.0808	0.079305	0.002101	37.7498	-83.4423	-168.688	-0.091256	0.901715	-0.853208	-0.854500	-0.066354	37.7498	-0.851890	-2.271564E+11	2.921089E-13	NaN
786	1.000000	0.963015	7.37274e+06	-39439.1	1055.82	-29793.2	0.000000	0.000000	6.963106	-0.002584	NaN	0.000000	0.001548	0.001787	28.0822	0.028824	0.002131	13.5237	160.571	-165.533	0.006170	0.961679	-0.793200	-0.794537	-0.002584	13.5237	-0.793057	-3.619102E+10	7.140357E-14	NaN
786	1.000000	1.023064	7.37275e+06	-39439.1	1055.82	-29793.2	0.000000	0.000000	7.023153	-0.047735	NaN	0.000000	0.001591	0.001794	28.0821	0.076994	0.001981	38.8724	-91.2148	-165.772	-0.014147	1.021802	-0.733152	-0.734413	-0.047735	38.8724	-0.732231	-5.385289E+9	8.863949E-12	NaN
786	1.000000	1.083101	7.37275e+06	-39439.1	1055.82	-29793.2	0.000000	0.000000	7.083191	-0.054107	NaN	0.000000	0.001604	0.001769	28.0807	0.105323	0.001971	53.4366	-158.078	-164.664	0.002939	1.081745	-0.673114	-0.674470	-0.054107	53.4366	-0.672354	-8.196192E+8	6.601444E-11	NaN
786	1.000000	1.143111	7.37275e+06	-39439.1	1055.82	-29793.2	0.000000	0.000000	7.143204	0.029490	NaN	0.000000	0.001592	0.001793	28.0806	0.035465	0.001848	19.1942	-1.007462	-164.492	0.031495	1.141814	-0.613104	-0.614402	0.029490	19.1942	-0.614257	-1.308174E+8	-2.254287E-10	NaN
786	1.000000	1.203109	7.37275e+06	-39439.1	1055.82	-29793.2	0.000000	0.000000	7.203201	-0.005131	NaN	0.000000	0.001590	0.001793	28.0822	0.049605	0.001916	25.8917	-64.7087	-165.208	-0.024233	1.201778	-0.553106	-0.554437	-0.005131	25.8917	-0.552958	-1.866004E+7	2.749903E-10	NaN
786	1.000000	1.263155	7.37275e+06	-39439.1	1055.82	-29793.2	0.000000	0.000000	7.263246	-0.012810	NaN	0.000000	0.001572	0.001798	28.0819	0.104530	0.001962	53.2848	-110.852	-166.087	-0.030439	1.261819	-0.493060	-0.494396	-0.012810	53.2848	-0.492880	-2.72666e+06	4.697926E-9	NaN
786	1.000000	1.323162	7.37275e+06	-39439.1	1055.82	-29793.2	0.000000	0.000000	7.323254	0.018549	NaN	0.000000	0.001593	0.001794	28.0817	0.049628	0.001963	25.2775	-87.8801	-164.77	0.044040	1.321851	-0.433054	-0.434364	0.018549	25.2775	-0.433604	-400889	-4.626861E-8	NaN
786	1.000000	1.383231	7.37275e+06	-39439.1	1055.82	-29793.2	0.000000	0.000000	7.383323	0.007854	NaN	0.000000	0.001606	0.001783	28.0808	0.095993	0.002133	45.007	155.56	-167.466	-0.087230	1.381867	-0.372984	-0.374348	0.007854	45.007	-0.373115	-55076	-1.425965E-7	NaN
786	1.000000	1.443241	7.37275e+06	-39439.1	1055.82	-29793.2	0.000000	0.000000	7.443329	-0.091254	NaN	0.000000	0.001556	0.001765	28.0807	0.138815	0.001999	69.4584	-16.3156	-163.029	-0.066607	1.441906	-0.312974	-0.314309	-0.091254	69.4584	-0.311988	-7087.07	1.287607E-5	NaN
786	1.000000	1.503248	7.37275e+06	-39439.1	1055.82	-29793.2	0.000000	0.000000	7.503339	-0.010940	NaN	0.000000	0.001610	0.001792	28.0831	0.042226	0.002028	20.8163	39.1929	-164.34	0.030900	1.501979	-0.252967	-0.254237	-0.010940	20.8163	-0.252573	-900.982	1.214235E-5	NaN
786	1.000000	1.563313	7.37275e+06	-39439.1	1055.82	-29793.1	0.000000	0.000000	7.563400	-0.104286	NaN	0.000000	0.001516	0.001810	28.0823	0.136074	0.001954	69.6539	-90.2231	-163.978	-0.076509	1.561958	-0.192902	-0.194257	-0.104286	69.6539	-0.191779	-96.3185	0.001083	NaN
786	1.000000	1.623346	7.37275e+06	-39439.1	1055.82	-29793.1	0.000000	0.000000	7.623439	0.034051	NaN	0.000000	0.001510	0.001762	28.0805	0.124833	0.002088	59.7983	23.4912	-163.486	0.020391	1.622023	-0.132870	-0.134192	0.034051	59.7983	-0.133297	-8.824227	-0.003859	NaN
786	1.000000	1.683375	7.37275e+06	-39439.1	1055.82	-29793.1	0.000000	0.000000	7.683465	-0.032454	NaN	0.000000	0.001506	0.001794	28.0807	0.078771	0.002011	39.1635	-158.329	-161.9	-0.008602	1.682030	-0.072841	-0.074185	-0.032454	39.1635	-0.072219	-0.390736	0.083060	NaN
786	1.000000	1.743369	7.37275e+06	-39439.1	1055.82	-29793.1	0.000000	0.000000	7.743460	-0.008433	NaN	0.000000	0.001555	0.001818	28.082	0.093240	0.002027	45.9992	104.839	-164.626	0.001583	1.742081	-0.012846	-0.014134	-0.008433	45.9992	-0.012709	-0.007935	1.062828	NaN
786	2.000000	1.772873	7.37275e+06	-39439.1	1055.82	-29793.1	0.000000	0.000000	7.774005	25.336	NaN	0.000000	0.001586	0.001806	28.0819	19.0619	0.001902	10020.7	6.710306	-175.638	25.012	1.772565	0.016657	0.016350	25.336	10020.7	0.014761	0.014968	1692.67	74832.4
786	2.000000	1.787838	7.37275e+06	-39439.1	1055.82	-29793.1	0.000000	0.000000	7.790729	68.1285	NaN	0.000000	0.001594	0.001776	28.0818	32.3108	0.001745	18521.5	6.010691	178.683	66.7032	1.787492	0.031622	0.031276	68.1285	18521.5	0.028864	0.038422	1773.19	86330.2
786	2.000000	1.802763	7.37275e+06	-39439.1	1055.82	-29793.1	0.000000	0.000000	7.807829	121.048	NaN	0.000000	0.001587	0.001788	28.0804	44.1686	0.001786	24727.6	4.783262	178.368	121.355	1.802477	0.046548	0.046261	121.048	24727.6	0.042876	0.071673	1688.89	84387.5
786	2.000000	1.817717	7.37275e+06	-39439.1	1055.82	-29793.1	0.000000	0.000000	7.825567	188.792	NaN	0.000000	0.001571	0.001830	28.0803	57.2567	0.001794	31921.2	4.396633	175.671	186.804	1.817439	0.061502	0.061224	188.792	31921.2	0.057066	0.115499	1634.57	85814.9
786	2.000000	1.832663	7.37275e+06	-39439.1	1055.82	-29793.1	0.000000	0.000000	7.843853	270.06	NaN	0.000000	0.001578	0.001839	28.0819	72.4332	0.001783	40628.3	3.709802	174.979	264.478	1.832410	0.076448	0.076195	270.06	40628.3	0.071463	0.170090	1587.75	90004.3
786	2.000000	1.847757	7.37275e+06	-39439.1	1055.82	-29793.1	0.000000	0.000000	7.863238	374.506	NaN	0.000000	0.001602	0.001807	28.0816	84.1347	0.001849	45504.2	6.015758	173.048	374.663	1.847240	0.091541	0.091024	374.506	45504.2	0.085369	0.232164	1613.11	86283.4
786	2.000000	1.861218	7.37275e+06	-39439.1	1055.82	-29793.1	0.000000	0.000000	7.880264	461.243	NaN	0.000000	0.001560	0.001786	28.0804	94.4493	0.001751	53927.5	5.091158	-8.087007	459.05	1.860971	0.105003	0.104756	461.243	53927.5	0.098588	0.299460	1540.25	90035.5