File: remote_trans/data/nanoindenter/0828-1/data/Data_2025-08-06,11h17m57s/2025-07-22_16-23-58_1_1167.txt
2025-07-22, 16:23:58, 1
Index	Phase	Displacement	Time	Pos X	Pos Y	Pos Z	Rot A	Rot B	Piezo Z	Force A	Force B	Gripper	Voltage A	Voltage B	Temperature	Amplitude force	Amplitude pos	Stiffness	Phase shift	Phase excitation	Force A raw	Displacement raw	HMax	HMax raw	Real Force	Real Stiffness	Contact Depth	Area	Hardness	Reduced Mod.
[#]	[#]	[um]	[s]	[um]	[um]	[um]	[m°]	[m°]	[um]	[uN]	[uN]	[V]	[V]	[V]	[°C]	[uN]	[um]	[N/m]	[°]	[°]	[uN]	[um]	[um]	[um]	[uN]	[N/m]	[um]	[um^2]	[MPa]	[MPa]
1167	1.000000	0.002699	7.37646e+06	-57239.1	1105.82	-29737.1	0.000000	0.000000	6.002781	0.017083	NaN	0.000000	0.001640	0.001702	28.0824	0.090637	0.001033	87.783	-107.201	-162.361	-0.013012	0.001450	-1.066746	-1.067995	0.017083	87.783	-1.066892	-1.800648E+14	-9.486965E-17	NaN
1167	1.000000	0.042665	7.37646e+06	-57239.1	1105.82	-29737.1	0.000000	0.000000	6.042751	0.133899	NaN	0.000000	0.001623	0.001727	28.082	0.097622	0.001902	51.3386	118.353	-166.785	0.018008	0.041385	-1.026780	-1.028060	0.133899	51.3386	-1.028736	-5.526841E+13	-2.422708E-15	NaN
1167	1.000000	0.082661	7.37646e+06	-57239.1	1105.82	-29737.1	0.000000	0.000000	6.082741	-0.024460	NaN	0.000000	0.001628	0.001726	28.0817	0.026353	0.002087	12.6269	54.7092	-163.164	-0.041638	0.081386	-0.986784	-0.988059	-0.024460	12.6269	-0.985331	-1.439546E+13	1.699123E-15	NaN
1167	1.000000	0.122698	7.37646e+06	-57239.1	1105.82	-29737.1	0.000000	0.000000	6.122779	0.007769	NaN	0.000000	0.001601	0.001706	28.0806	0.042197	0.001889	22.3394	80.8187	-165.162	0.108981	0.121316	-0.946747	-0.948130	0.007769	22.3394	-0.947008	-4.382021E+12	-1.772994E-15	NaN
1167	1.000000	0.162699	7.37646e+06	-57239.1	1105.82	-29737.1	0.000000	0.000000	6.162778	-0.019135	NaN	0.000000	0.001640	0.001680	28.0806	0.041145	0.001937	21.2434	-106.601	-167.015	-0.013472	0.161413	-0.906747	-0.908032	-0.019135	21.2434	-0.906071	-1.227694E+12	1.558641E-14	NaN
1167	1.000000	0.202737	7.37647e+06	-57239.1	1105.82	-29737.1	0.000000	0.000000	6.202820	0.069418	NaN	0.000000	0.001610	0.001694	28.0804	0.116428	0.001970	59.1059	133.445	-165.367	0.026237	0.201419	-0.866708	-0.868026	0.069418	59.1059	-0.867589	-3.705308E+11	-1.873464E-13	NaN
1167	1.000000	0.242749	7.37647e+06	-57239.1	1105.82	-29737.1	0.000000	0.000000	6.242828	-0.044242	NaN	0.000000	0.001587	0.001702	28.0819	0.022128	0.001907	11.6044	86.2412	-162.537	-0.036007	0.241419	-0.826696	-0.828026	-0.044242	11.6044	-0.823837	-9.467426E+10	4.673099E-13	NaN
1167	1.000000	0.282755	7.37647e+06	-57239.1	1105.82	-29737.1	0.000000	0.000000	6.282835	-0.012274	NaN	0.000000	0.001625	0.001661	28.0817	0.100147	0.002019	49.6062	-77.0927	-166.345	0.022247	0.281473	-0.786690	-0.787972	-0.012274	49.6062	-0.786504	-2.948503E+10	4.162896E-13	NaN
1167	1.000000	0.322774	7.37647e+06	-57239.1	1105.82	-29737.1	0.000000	0.000000	6.322852	-0.043033	NaN	0.000000	0.001643	0.001633	28.0821	0.098115	0.001915	51.2328	-50.7362	-165.501	-0.054255	0.321472	-0.746672	-0.747973	-0.043033	51.2328	-0.746042	-8.304840E+9	5.181670E-12	NaN
1167	1.000000	0.362788	7.37647e+06	-57239.1	1105.82	-29737.1	0.000000	0.000000	6.362869	0.018086	NaN	0.000000	0.001641	0.001692	28.0809	0.096673	0.002017	47.9267	4.638970	-165.037	0.027176	0.361468	-0.706657	-0.707977	0.018086	47.9267	-0.706940	-2.433820E+9	-7.431169E-12	NaN
1167	1.000000	0.402808	7.37647e+06	-57239.1	1105.82	-29737.1	0.000000	0.000000	6.402887	-0.014329	NaN	0.000000	0.001588	0.001721	28.0807	0.105274	0.002053	51.2762	-23.6228	-165.021	0.009197	0.401520	-0.666638	-0.667925	-0.014329	51.2762	-0.666428	-6.799782E+8	2.107326E-11	NaN
1167	1.000000	0.442814	7.37647e+06	-57239.1	1105.82	-29737.1	0.000000	0.000000	6.442893	-0.034889	NaN	0.000000	0.001617	0.001708	28.0806	0.029526	0.002084	14.1656	165.549	-163.657	-0.049702	0.441561	-0.626631	-0.627885	-0.034889	14.1656	-0.624784	-1.825485E+8	1.911229E-10	NaN
1167	1.000000	0.482826	7.37647e+06	-57239.1	1105.82	-29737.1	0.000000	0.000000	6.482909	0.051121	NaN	0.000000	0.001623	0.001696	28.0807	0.056419	0.002025	27.8641	-111.353	-168.764	0.012890	0.481554	-0.586619	-0.587891	0.051121	27.8641	-0.587995	-5.688855E+7	-8.986199E-10	NaN
1167	1.000000	0.522856	7.37647e+06	-57239.1	1105.82	-29737.1	0.000000	0.000000	6.522938	0.039350	NaN	0.000000	0.001630	0.001691	28.0821	0.044480	0.002009	22.1405	109.995	-167.84	0.021117	0.521529	-0.546589	-0.547917	0.039350	22.1405	-0.547922	-1.589165E+7	-2.476171E-9	NaN
1167	1.000000	0.562893	7.37647e+06	-57239.1	1105.82	-29737.1	0.000000	0.000000	6.562973	-0.013689	NaN	0.000000	0.001650	0.001679	28.082	0.029466	0.001957	15.0546	-152.591	-167.977	-0.032372	0.561566	-0.506553	-0.507880	-0.013689	15.0546	-0.505871	-4.13885e+06	3.307544E-9	NaN
1167	1.000000	0.602882	7.37647e+06	-57239.1	1105.82	-29737.1	0.000000	0.000000	6.602961	-0.054791	NaN	0.000000	0.001571	0.001697	28.0822	0.080477	0.002013	39.976	-42.2422	-166.149	-0.100751	0.601579	-0.466563	-0.467866	-0.054791	39.976	-0.465535	-1.12916e+06	4.852406E-8	NaN
1167	1.000000	0.642910	7.37647e+06	-57239.1	1105.82	-29737.1	0.000000	0.000000	6.642988	-0.069274	NaN	0.000000	0.001636	0.001693	28.0809	0.018403	0.001980	9.292638	-174.757	-166.428	-0.058474	0.641599	-0.426535	-0.427846	-0.069274	9.292638	-0.420944	-265342	2.610738E-7	NaN
1167	1.000000	0.682905	7.37647e+06	-57239.1	1105.82	-29737.1	0.000000	0.000000	6.682985	-0.006282	NaN	0.000000	0.001624	0.001676	28.0811	0.048747	0.001843	26.4514	-91.6442	-160.212	-0.015606	0.681651	-0.386540	-0.387795	-0.006282	26.4514	-0.386362	-85329.5	7.362547E-8	NaN
1167	1.000000	0.722972	7.37647e+06	-57239.1	1105.82	-29737.1	0.000000	0.000000	6.723053	0.025651	NaN	0.000000	0.001631	0.001715	28.0819	0.149049	0.002032	73.36	-162.107	-162.696	0.014214	0.721663	-0.346473	-0.347782	0.025651	73.36	-0.346736	-22887.1	-1.120761E-6	NaN
1167	1.000000	0.762957	7.37647e+06	-57239.1	1105.82	-29737.1	0.000000	0.000000	6.763037	-0.006728	NaN	0.000000	0.001644	0.001693	28.0807	0.111608	0.002022	55.2014	90.8553	-169.661	0.064381	0.761686	-0.306488	-0.307759	-0.006728	55.2014	-0.306397	-5857.06	1.148771E-6	NaN
1167	1.000000	0.802977	7.37647e+06	-57239.1	1105.82	-29737.1	0.000000	0.000000	6.803057	-0.024036	NaN	0.000000	0.001699	0.001699	28.0819	0.058901	0.002027	29.0592	168.373	-166.124	-0.116927	0.801698	-0.266468	-0.267747	-0.024036	29.0592	-0.265848	-1439.86	1.669324E-5	NaN
1167	1.000000	0.843006	7.37647e+06	-57239.1	1105.82	-29737.1	0.000000	0.000000	6.843086	-0.007779	NaN	0.000000	0.001636	0.001703	28.0819	0.059683	0.001998	29.8715	-93.3189	-168.684	-0.089206	0.841619	-0.226439	-0.227826	-0.007779	29.8715	-0.226244	-349.198	2.227777E-5	NaN
1167	1.000000	0.883012	7.37647e+06	-57239.1	1105.82	-29737.1	0.000000	0.000000	6.883094	0.031672	NaN	0.000000	0.001602	0.001722	28.0819	0.099024	0.001999	49.544	125.393	-169.393	-0.061024	0.881695	-0.186433	-0.187750	0.031672	49.544	-0.186913	-79.8572	-0.000397	NaN
1167	1.000000	0.923005	7.37647e+06	-57239.1	1105.82	-29737.1	0.000000	0.000000	6.923087	0.041891	NaN	0.000000	0.001619	0.001740	28.0807	0.058777	0.002008	29.267	160.183	-168.7	0.109529	0.921702	-0.146440	-0.147743	0.041891	29.267	-0.147514	-16.3119	-0.002568	NaN
1167	1.000000	0.963046	7.37647e+06	-57239.1	1105.82	-29737.1	0.000000	0.000000	6.963129	0.044644	NaN	0.000000	0.001641	0.001755	28.0807	0.114704	0.001870	61.3492	71.3503	-168.751	0.012041	0.961720	-0.106399	-0.107725	0.044644	61.3492	-0.106945	-2.588085	-0.017250	NaN
1167	1.000000	1.003060	7.37647e+06	-57239.1	1105.82	-29737.1	0.000000	0.000000	7.003142	0.033283	NaN	0.000000	0.001610	0.001720	28.0809	0.068731	0.001941	35.4101	18.5826	-166.597	-0.021734	1.001722	-0.066385	-0.067723	0.033283	35.4101	-0.067090	-0.284540	-0.116970	NaN
1167	1.000000	1.043098	7.37647e+06	-57239.1	1105.82	-29737.1	0.000000	0.000000	7.043176	-0.046733	NaN	0.000000	0.001642	0.001788	28.0816	0.043275	0.001922	22.5132	-149.041	-166.065	-0.078020	1.041793	-0.026348	-0.027652	-0.046733	22.5132	-0.024791	-0.016660	2.805153	NaN
1167	2.000000	1.079698	7.37647e+06	-57239.1	1105.82	-29737.1	0.000000	0.000000	7.080162	9.330318	NaN	0.000000	0.001611	0.001719	28.0822	10.5565	0.001670	6322.88	10.2447	-176.367	9.545011	1.079381	0.010253	0.009936	9.330318	6322.88	0.009146	0.008248	1131.27	63609.8
1167	2.000000	1.089630	7.37647e+06	-57239.1	1105.82	-29737.1	0.000000	0.000000	7.090679	23.5268	NaN	0.000000	0.001644	0.001724	28.0823	20.8475	0.001825	11422.7	8.447167	179.366	22.9194	1.089354	0.020185	0.019908	23.5268	11422.7	0.018640	0.020450	1150.43	72977.8
1167	2.000000	1.099560	7.37647e+06	-57239.1	1105.82	-29737.1	0.000000	0.000000	7.101517	45.6032	NaN	0.000000	0.001613	0.001699	28.0822	31.3781	0.001884	16655.6	6.047574	178.701	45.0538	1.099311	0.030115	0.029866	45.6032	16655.6	0.028061	0.036822	1238.49	79301.6
1167	2.000000	1.109570	7.37647e+06	-57239.1	1105.82	-29737.1	0.000000	0.000000	7.112799	76.5352	NaN	0.000000	0.001569	0.001710	28.0807	40.2977	0.001823	22100.8	6.468410	176.926	76.5941	1.109163	0.040125	0.039718	76.5352	22100.8	0.037528	0.057795	1324.25	83991.7
1167	2.000000	1.119513	7.37647e+06	-57239.1	1105.82	-29737.1	0.000000	0.000000	7.124413	117.143	NaN	0.000000	0.001578	0.001730	28.0807	49.9326	0.001914	26091.2	2.218214	179.494	115.45	1.119208	0.050068	0.049763	117.143	26091.2	0.046700	0.082487	1420.13	82999.2
1167	2.000000	1.129505	7.37647e+06	-57239.1	1105.82	-29737.1	0.000000	0.000000	7.136176	160.168	NaN	0.000000	0.001600	0.001721	28.0808	59.7666	0.001812	32977.4	3.680756	175.299	158.324	1.129364	0.060060	0.059919	160.168	32977.4	0.056417	0.113276	1413.96	89520.1
1167	2.000000	1.139470	7.37647e+06	-57239.1	1105.82	-29737.1	0.000000	0.000000	7.148374	214.459	NaN	0.000000	0.001656	0.001722	28.082	68.3569	0.001758	38891	5.106101	172.368	212.018	1.139264	0.070025	0.069819	214.459	38891	0.065889	0.147769	1451.31	92433.7
1167	2.000000	1.149431	7.37647e+06	-57239.1	1105.82	-29737.1	0.000000	0.000000	7.160552	268.347	NaN	0.000000	0.001656	0.001728	28.0819	77.6287	0.001826	42501.4	4.131477	172.871	262.691	1.149158	0.079986	0.079713	268.347	42501.4	0.075250	0.186099	1441.96	90012.7
1167	2.000000	1.159445	7.37647e+06	-57239.1	1105.82	-29737.1	0.000000	0.000000	7.173467	338.845	NaN	0.000000	0.001625	0.001743	28.0818	86.5529	0.001712	50557.7	4.664969	171.23	335.043	1.159222	0.090000	0.089777	338.845	50557.7	0.084973	0.230275	1471.48	96258.1
1167	2.000000	1.169482	7.37647e+06	-57239.1	1105.82	-29737.1	0.000000	0.000000	7.186297	406.746	NaN	0.000000	0.001629	0.001688	28.0819	96.3765	0.001915	50321.9	3.380871	172.832	404.643	1.169208	0.100037	0.099762	406.746	50321.9	0.093974	0.275065	1478.73	87662.2
1167	2.000000	1.176888	7.37647e+06	-57239.1	1105.82	-29737.1	0.000000	0.000000	7.196215	467.771	NaN	0.000000	0.001652	0.001725	28.0805	101.102	0.001749	57805	3.639176	-8.266788	461.093	1.176572	0.107443	0.107127	467.771	57805	0.101374	0.314659	1486.6	94149.6