File: remote_trans/data/nanoindenter/0828-1/data/Data_2025-08-06,11h17m57s/2025-07-22_16-23-58_1_255.txt
2025-07-22, 16:23:58, 1
Index	Phase	Displacement	Time	Pos X	Pos Y	Pos Z	Rot A	Rot B	Piezo Z	Force A	Force B	Gripper	Voltage A	Voltage B	Temperature	Amplitude force	Amplitude pos	Stiffness	Phase shift	Phase excitation	Force A raw	Displacement raw	HMax	HMax raw	Real Force	Real Stiffness	Contact Depth	Area	Hardness	Reduced Mod.
[#]	[#]	[um]	[s]	[um]	[um]	[um]	[m°]	[m°]	[um]	[uN]	[uN]	[V]	[V]	[V]	[°C]	[uN]	[um]	[N/m]	[°]	[°]	[uN]	[um]	[um]	[um]	[uN]	[N/m]	[um]	[um^2]	[MPa]	[MPa]
255	1.000000	0.001756	7.36755e+06	-51389.1	955.818	-29752.8	0.000000	0.000000	6.002766	0.089848	NaN	0.000000	0.001709	0.001684	28.0802	0.025564	0.000944	27.0944	-37.9909	-170.905	0.046475	0.000557	-1.088837	-1.090037	0.089848	27.0944	-1.091324	-3.833495E+14	-2.343759E-16	NaN
255	1.000000	0.041737	7.36755e+06	-51389.1	955.819	-29752.8	0.000000	0.000000	6.042746	0.059089	NaN	0.000000	0.001696	0.001695	28.0783	0.069272	0.002095	33.066	-168.364	-164.29	0.002639	0.040474	-1.048857	-1.050120	0.059089	33.066	-1.050197	-1.074143E+14	-5.501012E-16	NaN
255	1.000000	0.081733	7.36755e+06	-51389.1	955.818	-29752.8	0.000000	0.000000	6.082740	0.022834	NaN	0.000000	0.001716	0.001737	28.0783	0.053783	0.002120	25.3751	35.1522	-167.27	-0.007110	0.080463	-1.008861	-1.010131	0.022834	25.3751	-1.009536	-3.048819E+13	-7.489427E-16	NaN
255	1.000000	0.121795	7.36755e+06	-51389.1	955.818	-29752.8	0.000000	0.000000	6.122803	0.057412	NaN	0.000000	0.001749	0.001672	28.0782	0.030684	0.001946	15.7695	179.418	-167.08	0.048154	0.120446	-0.968799	-0.970148	0.057412	15.7695	-0.971530	-9.381622E+12	-6.119597E-15	NaN
255	1.000000	0.161785	7.36755e+06	-51389.1	955.818	-29752.8	0.000000	0.000000	6.162793	0.045309	NaN	0.000000	0.001753	0.001725	28.0795	0.087382	0.001963	44.5168	45.8137	-165.785	0.057571	0.160454	-0.928809	-0.930140	0.045309	44.5168	-0.929572	-2.549291E+12	-1.777318E-14	NaN
255	1.000000	0.201829	7.36755e+06	-51389.1	955.818	-29752.8	0.000000	0.000000	6.202838	0.074255	NaN	0.000000	0.001691	0.001759	28.0794	0.144335	0.001947	74.1136	117.357	-164.18	0.116963	0.200543	-0.888765	-0.890051	0.074255	74.1136	-0.889516	-7.334578E+11	-1.012390E-13	NaN
255	1.000000	0.241864	7.36755e+06	-51389.1	955.818	-29752.8	0.000000	0.000000	6.242873	0.072947	NaN	0.000000	0.001668	0.001741	28.0794	0.031220	0.001907	16.3755	-28.6004	-161.503	0.016896	0.240469	-0.848729	-0.850125	0.072947	16.3755	-0.852070	-2.284407E+11	-3.193265E-13	NaN
255	1.000000	0.281847	7.36755e+06	-51389.1	955.818	-29752.8	0.000000	0.000000	6.282855	0.035814	NaN	0.000000	0.001687	0.001761	28.0784	0.055701	0.001933	28.8201	-112.749	-165.256	0.039911	0.280556	-0.808747	-0.810038	0.035814	28.8201	-0.809679	-6.084337E+10	-5.886237E-13	NaN
255	1.000000	0.321854	7.36755e+06	-51389.1	955.818	-29752.8	0.000000	0.000000	6.322860	-0.004767	NaN	0.000000	0.001676	0.001700	28.0784	0.007335	0.002060	3.560092	-56.0541	-165.262	-0.038333	0.320599	-0.768739	-0.769995	-0.004767	3.560092	-0.767735	-1.638747E+10	2.908707E-13	NaN
255	1.000000	0.361867	7.36755e+06	-51389.1	955.819	-29752.8	0.000000	0.000000	6.362877	0.088967	NaN	0.000000	0.001722	0.001715	28.0785	0.071964	0.002119	33.9685	55.0004	-168.584	0.010063	0.360580	-0.728727	-0.730013	0.088967	33.9685	-0.730691	-5.131294E+9	-1.733810E-11	NaN
255	1.000000	0.401879	7.36755e+06	-51389.1	955.818	-29752.8	0.000000	0.000000	6.402886	0.022935	NaN	0.000000	0.001693	0.001711	28.0788	0.103248	0.002050	50.3709	0.799518	-166.968	0.091418	0.400550	-0.688715	-0.690044	0.022935	50.3709	-0.689056	-1.386811E+9	-1.653759E-11	NaN
255	1.000000	0.441887	7.36755e+06	-51389.1	955.817	-29752.8	0.000000	0.000000	6.442892	-0.014417	NaN	0.000000	0.001603	0.001709	28.0799	0.063777	0.002041	31.2456	63.3401	-168.074	-0.007705	0.440600	-0.648707	-0.649994	-0.014417	31.2456	-0.648361	-3.845605E+8	3.748969E-11	NaN
255	1.000000	0.481891	7.36755e+06	-51389.1	955.819	-29752.8	0.000000	0.000000	6.482900	0.083547	NaN	0.000000	0.001600	0.001648	28.0795	0.088134	0.001971	44.7143	135.953	-167.02	0.034593	0.480617	-0.608703	-0.609976	0.083547	44.7143	-0.610104	-1.146968E+8	-7.284163E-10	NaN
255	1.000000	0.521926	7.36755e+06	-51389.1	955.819	-29752.8	0.000000	0.000000	6.522933	0.029661	NaN	0.000000	0.001592	0.001656	28.0794	0.031315	0.002052	15.2584	-75.0347	-164.812	0.068435	0.520603	-0.568668	-0.569990	0.029661	15.2584	-0.570126	-3.223798E+7	-9.200664E-10	NaN
255	1.000000	0.561988	7.36755e+06	-51389.1	955.818	-29752.8	0.000000	0.000000	6.562997	0.080564	NaN	0.000000	0.001548	0.001648	28.0784	0.180965	0.002042	88.606	44.3254	-165.216	0.093400	0.560667	-0.528606	-0.529926	0.080564	88.606	-0.529288	-8.76364e+06	-9.193024E-9	NaN
255	1.000000	0.601982	7.36755e+06	-51389.1	955.817	-29752.8	0.000000	0.000000	6.602989	0.019624	NaN	0.000000	0.001631	0.001606	28.0785	0.068607	0.001951	35.1693	39.7227	-165.965	0.018102	0.600681	-0.488612	-0.489913	0.019624	35.1693	-0.489031	-2.40904e+06	-8.146037E-9	NaN
255	1.000000	0.642007	7.36755e+06	-51389.1	955.818	-29752.8	0.000000	0.000000	6.643015	0.042201	NaN	0.000000	0.001663	0.001599	28.0783	0.149329	0.001935	77.1656	140.291	-166.46	-0.073302	0.640686	-0.448587	-0.449908	0.042201	77.1656	-0.448997	-661022	-6.384149E-8	NaN
255	1.000000	0.682040	7.36755e+06	-51389.1	955.818	-29752.8	0.000000	0.000000	6.683048	0.052917	NaN	0.000000	0.001618	0.001602	28.0784	0.090495	0.002043	44.2922	-26.9429	-165.235	0.066850	0.680694	-0.408554	-0.409900	0.052917	44.2922	-0.409450	-182212	-2.904153E-7	NaN
255	1.000000	0.722030	7.36755e+06	-51389.1	955.818	-29752.8	0.000000	0.000000	6.723037	0.025311	NaN	0.000000	0.001609	0.001595	28.0795	0.014859	0.002107	7.053781	-57.8256	-164.634	-0.042358	0.720713	-0.368564	-0.369881	0.025311	7.053781	-0.371255	-51783.8	-4.887859E-7	NaN
255	1.000000	0.762052	7.36755e+06	-51389.1	955.818	-29752.8	0.000000	0.000000	6.763059	0.010015	NaN	0.000000	0.001669	0.001613	28.0792	0.073213	0.002059	35.5548	130.606	-166.058	-0.016158	0.760687	-0.328541	-0.329907	0.010015	35.5548	-0.328753	-12507.7	-8.006876E-7	NaN
255	1.000000	0.802072	7.36755e+06	-51389.1	955.818	-29752.8	0.000000	0.000000	6.803078	0.001948	NaN	0.000000	0.001692	0.001616	28.0796	0.105790	0.002076	50.9504	-17.4103	-169.886	0.024766	0.800743	-0.288522	-0.289851	0.001948	50.9504	-0.288551	-3173.81	-6.137351E-7	NaN
255	1.000000	0.842076	7.36755e+06	-51389.1	955.817	-29752.8	0.000000	0.000000	6.843087	0.108795	NaN	0.000000	0.001690	0.001606	28.0783	0.011085	0.001954	5.674062	149.935	-166.217	0.093191	0.840781	-0.248517	-0.249813	0.108795	5.674062	-0.262898	-1298.01	-8.381669E-5	NaN
255	1.000000	0.882090	7.36755e+06	-51389.1	955.818	-29752.8	0.000000	0.000000	6.883100	0.089953	NaN	0.000000	0.001682	0.001594	28.0787	0.160555	0.002099	76.4966	-106.241	-166.002	0.059211	0.880818	-0.208504	-0.209776	0.089953	76.4966	-0.209386	-187.444	-0.000480	NaN
255	1.000000	0.922125	7.36755e+06	-51389.1	955.817	-29752.8	0.000000	0.000000	6.923130	-0.029238	NaN	0.000000	0.001673	0.001576	28.0788	0.028206	0.002031	13.8875	130.195	-167.305	0.039880	0.920799	-0.168469	-0.169795	-0.029238	13.8875	-0.166890	-36.2595	0.000806	NaN
255	1.000000	0.962142	7.36755e+06	-51389.1	955.818	-29752.8	0.000000	0.000000	6.963151	0.076220	NaN	0.000000	0.001624	0.001601	28.079	0.117872	0.001818	64.8364	167.671	-167.475	0.059152	0.960758	-0.128452	-0.129836	0.076220	64.8364	-0.129333	-7.396809	-0.010304	NaN
255	1.000000	1.002157	7.36755e+06	-51389.1	955.818	-29752.8	0.000000	0.000000	7.003165	0.044129	NaN	0.000000	0.001637	0.001603	28.0799	0.068071	0.001915	35.5533	52.744	-165.38	0.034975	1.000818	-0.088437	-0.089775	0.044129	35.5533	-0.089368	-1.044615	-0.042244	NaN
255	1.000000	1.042143	7.36755e+06	-51389.1	955.818	-29752.8	0.000000	0.000000	7.043152	0.052910	NaN	0.000000	0.001643	0.001615	28.0797	0.012392	0.002084	5.947717	-94.1666	-166.629	0.067358	1.040843	-0.048451	-0.049751	0.052910	5.947717	-0.055122	-0.129855	-0.407454	NaN
255	2.000000	1.074770	7.36755e+06	-51389.1	955.818	-29752.8	0.000000	0.000000	7.076050	6.659238	NaN	0.000000	0.001647	0.001617	28.0796	5.789462	0.001923	3010.57	14.2119	-172.349	6.856246	1.074480	-0.015824	-0.016114	6.659238	3010.57	-0.017482	-0.010822	-615.356	NaN
255	2.000000	1.084640	7.36755e+06	-51389.1	955.819	-29752.8	0.000000	0.000000	7.086804	28.1626	NaN	0.000000	0.001681	0.001622	28.0785	17.2648	0.001794	9624.35	3.938202	-172.837	27.5246	1.084409	-0.005954	-0.006185	28.1626	9624.35	-0.008149	-0.005319	-5295.06	NaN
255	2.000000	1.094652	7.36755e+06	-51389.1	955.818	-29752.8	0.000000	0.000000	7.098942	79.8617	NaN	0.000000	0.001602	0.001596	28.0784	26.4839	0.001821	14544.9	4.355158	-177.567	78.9566	1.094267	0.004058	0.003673	79.8617	14544.9	-5.971146E-5	-4.457146E-5	-1.79177e+06	NaN
255	2.000000	1.104694	7.36755e+06	-51389.1	955.818	-29752.8	0.000000	0.000000	7.111552	142.296	NaN	0.000000	0.001735	0.001611	28.0783	36.1346	0.001856	19465.3	3.707180	-179.518	145.511	1.104344	0.014100	0.013750	142.296	19465.3	0.008617	0.007685	18516	202867
255	2.000000	1.114513	7.36755e+06	-51389.1	955.818	-29752.8	0.000000	0.000000	7.124514	218.726	NaN	0.000000	0.001686	0.001602	28.0797	44.938	0.001834	24502.3	0.316886	-178.267	213.421	1.114362	0.023919	0.023768	218.726	24502.3	0.017224	0.018367	11908.8	165183
255	2.000000	1.124517	7.36755e+06	-51389.1	955.818	-29752.8	0.000000	0.000000	7.138189	307.985	NaN	0.000000	0.001709	0.001600	28.0795	53.8836	0.001678	32119.5	2.687545	176.712	303.007	1.124260	0.033923	0.033667	307.985	32119.5	0.026731	0.034241	8994.64	158588
255	2.000000	1.134608	7.36755e+06	-51389.1	955.821	-29752.8	0.000000	0.000000	7.152761	416.953	NaN	0.000000	0.001724	0.001613	28.0795	64.19	0.001757	36538.7	6.400736	173.202	416.069	1.134242	0.044014	0.043649	416.953	36538.7	0.035455	0.052811	7895.11	145266
255	2.000000	1.144617	7.36755e+06	-51389.1	955.82	-29752.8	0.000000	0.000000	7.166848	516.125	NaN	0.000000	0.001670	0.001571	28.0796	73.8498	0.001886	39151.6	2.777723	175.862	516.661	1.144433	0.054023	0.053839	516.125	39151.6	0.044136	0.075153	6867.68	130482
255	2.000000	1.154472	7.36755e+06	-51389.1	955.82	-29752.8	0.000000	0.000000	7.182449	655.846	NaN	0.000000	0.001595	0.001638	28.0784	83.9326	0.001743	48162.5	2.905809	174.1	650.453	1.154227	0.063878	0.063633	655.846	48162.5	0.053665	0.104077	6301.53	136397
255	2.000000	1.164455	7.36755e+06	-51389.1	955.819	-29752.8	0.000000	0.000000	7.198491	803.161	NaN	0.000000	0.001601	0.001591	28.0783	93.0901	0.001799	51736.5	4.211489	171.88	797.054	1.164135	0.073861	0.073541	803.161	51736.5	0.062218	0.133883	5998.99	129184
255	2.000000	1.170829	7.36755e+06	-51389.1	955.818	-29752.8	0.000000	0.000000	7.208567	893.179	NaN	0.000000	0.001615	0.001601	28.0783	98.6194	0.001769	55762.6	4.045802	-8.446386	881.734	1.170612	0.080236	0.080018	893.179	55762.6	0.068222	0.156932	5691.5	128606