File: remote_trans/data/nanoindenter/0828-1/data/Data_2025-08-06,11h17m57s/2025-07-22_16-23-58_1_490.txt
2025-07-22, 16:23:58, 1
Index	Phase	Displacement	Time	Pos X	Pos Y	Pos Z	Rot A	Rot B	Piezo Z	Force A	Force B	Gripper	Voltage A	Voltage B	Temperature	Amplitude force	Amplitude pos	Stiffness	Phase shift	Phase excitation	Force A raw	Displacement raw	HMax	HMax raw	Real Force	Real Stiffness	Contact Depth	Area	Hardness	Reduced Mod.
[#]	[#]	[um]	[s]	[um]	[um]	[um]	[m°]	[m°]	[um]	[uN]	[uN]	[V]	[V]	[V]	[°C]	[uN]	[um]	[N/m]	[°]	[°]	[uN]	[um]	[um]	[um]	[uN]	[N/m]	[um]	[um^2]	[MPa]	[MPa]
490	1.000000	0.002717	7.36985e+06	-52589.1	1005.82	-29748.9	0.000000	0.000000	6.002798	0.008588	NaN	0.000000	0.001615	0.001769	28.0813	0.039825	0.001027	38.7877	120.566	-163.007	0.049306	0.001437	-1.084966	-1.086246	0.008588	38.7877	-1.085132	-3.165480E+14	-2.712914E-17	NaN
490	1.000000	0.042684	7.36985e+06	-52589.1	1005.82	-29748.9	0.000000	0.000000	6.042766	0.036067	NaN	0.000000	0.001635	0.001764	28.0814	0.042499	0.001852	22.9517	21.3486	-163.799	0.100996	0.041354	-1.044999	-1.046329	0.036067	22.9517	-1.046178	-9.484853E+13	-3.802623E-16	NaN
490	1.000000	0.082688	7.36985e+06	-52589.1	1005.82	-29748.9	0.000000	0.000000	6.082769	0.018882	NaN	0.000000	0.001581	0.001746	28.0828	0.097760	0.002063	47.3776	-145.156	-168.962	0.060069	0.081440	-1.004996	-1.006243	0.018882	47.3776	-1.005294	-2.673281E+13	-7.063244E-16	NaN
490	1.000000	0.122704	7.36985e+06	-52589.1	1005.82	-29748.9	0.000000	0.000000	6.122783	-0.039683	NaN	0.000000	0.001549	0.001758	28.083	0.039712	0.001957	20.2889	-157.387	-168.11	-0.051450	0.121351	-0.964979	-0.966332	-0.039683	20.2889	-0.963512	-7.315071E+12	5.424765E-15	NaN
490	1.000000	0.162692	7.36985e+06	-52589.1	1005.82	-29748.9	0.000000	0.000000	6.162773	0.019536	NaN	0.000000	0.001561	0.001787	28.0826	0.042623	0.001965	21.6863	-109.916	-164.628	0.018318	0.161413	-0.924991	-0.926270	0.019536	21.6863	-0.925667	-2.257909E+12	-8.652067E-15	NaN
490	1.000000	0.202742	7.36985e+06	-52589.1	1005.82	-29748.9	0.000000	0.000000	6.202822	-0.001766	NaN	0.000000	0.001547	0.001814	28.0812	0.046289	0.002089	22.1599	-177.706	-165.207	-0.007672	0.201448	-0.884941	-0.886235	-0.001766	22.1599	-0.884881	-6.349145E+11	2.781939E-15	NaN
490	1.000000	0.242737	7.36985e+06	-52589.1	1005.82	-29748.9	0.000000	0.000000	6.242818	0.012151	NaN	0.000000	0.001583	0.001774	28.081	0.070796	0.002055	34.4515	103.057	-167.322	0.021628	0.241432	-0.844946	-0.846251	0.012151	34.4515	-0.845211	-1.844481E+11	-6.587853E-14	NaN
490	1.000000	0.282763	7.36985e+06	-52589.1	1005.82	-29748.9	0.000000	0.000000	6.282841	-0.050986	NaN	0.000000	0.001545	0.001768	28.0813	0.059470	0.001958	30.3772	113.326	-168.963	-0.106587	0.281452	-0.804920	-0.806231	-0.050986	30.3772	-0.803661	-5.041503E+10	1.011327E-12	NaN
490	1.000000	0.322762	7.36985e+06	-52589.1	1005.82	-29748.9	0.000000	0.000000	6.322844	0.033042	NaN	0.000000	0.001585	0.001749	28.0824	0.051309	0.001955	26.2467	105.802	-167.185	0.075115	0.321532	-0.764921	-0.766152	0.033042	26.2467	-0.765865	-1.545551E+10	-2.137888E-12	NaN
490	1.000000	0.362814	7.36985e+06	-52589.1	1005.82	-29748.9	0.000000	0.000000	6.362896	0.025043	NaN	0.000000	0.001629	0.001773	28.0826	0.019133	0.002064	9.271350	-144.679	-170.533	-0.060860	0.361440	-0.724869	-0.726244	0.025043	9.271350	-0.726895	-4.554942E+9	-5.498018E-12	NaN
490	1.000000	0.402799	7.36985e+06	-52589.1	1005.82	-29748.9	0.000000	0.000000	6.402880	0.030888	NaN	0.000000	0.001620	0.001763	28.0826	0.100399	0.002016	49.805	19.6767	-167.576	0.077719	0.401532	-0.684884	-0.686151	0.030888	49.805	-0.685350	-1.234111E+9	-2.502829E-11	NaN
490	1.000000	0.442821	7.36985e+06	-52589.1	1005.82	-29748.9	0.000000	0.000000	6.442899	-0.068214	NaN	0.000000	0.001606	0.001839	28.0821	0.048461	0.001867	25.9555	166.568	-164.548	-0.111116	0.441530	-0.644862	-0.646153	-0.068214	25.9555	-0.642891	-3.235558E+8	2.108259E-10	NaN
490	1.000000	0.482828	7.36985e+06	-52589.1	1005.82	-29748.9	0.000000	0.000000	6.482908	-0.012206	NaN	0.000000	0.001609	0.001788	28.0813	0.130733	0.002034	64.2685	-93.7011	-168.577	0.019954	0.481520	-0.604855	-0.606163	-0.012206	64.2685	-0.604713	-9.668304E+7	1.262514E-10	NaN
490	1.000000	0.522859	7.36985e+06	-52589.1	1005.82	-29748.9	0.000000	0.000000	6.522940	0.001473	NaN	0.000000	0.001625	0.001812	28.0812	0.078444	0.002021	38.8151	86.9031	-164.943	0.011231	0.521577	-0.564824	-0.566106	0.001473	38.8151	-0.564853	-2.725757E+7	-5.405333E-11	NaN
490	1.000000	0.562876	7.36985e+06	-52589.1	1005.82	-29748.9	0.000000	0.000000	6.562956	-0.020111	NaN	0.000000	0.001610	0.001768	28.0814	0.023560	0.002032	11.5947	-158.221	-167.524	0.029531	0.561602	-0.524807	-0.526081	-0.020111	11.5947	-0.523506	-7.28358e+06	2.761175E-9	NaN
490	1.000000	0.602895	7.36985e+06	-52589.1	1005.82	-29748.9	0.000000	0.000000	6.602973	-0.040991	NaN	0.000000	0.001643	0.001737	28.0826	0.051540	0.002052	25.1131	133.952	-165.523	0.027794	0.601550	-0.484789	-0.486133	-0.040991	25.1131	-0.483564	-2.02027e+06	2.028973E-8	NaN
490	1.000000	0.642916	7.36985e+06	-52589.1	1005.82	-29748.9	0.000000	0.000000	6.642998	0.025815	NaN	0.000000	0.001606	0.001790	28.0825	0.114429	0.002019	56.6684	170.363	-166.633	0.011106	0.641597	-0.444767	-0.446086	0.025815	56.6684	-0.445109	-582671	-4.430530E-8	NaN
490	1.000000	0.682989	7.36985e+06	-52589.1	1005.82	-29748.9	0.000000	0.000000	6.683068	-0.033586	NaN	0.000000	0.001605	0.001732	28.0828	0.049999	0.002071	24.1386	-121.942	-169.885	0.040124	0.681667	-0.404694	-0.406016	-0.033586	24.1386	-0.403651	-150672	2.229093E-7	NaN
490	1.000000	0.722938	7.36985e+06	-52589.1	1005.82	-29748.9	0.000000	0.000000	6.723018	0.005723	NaN	0.000000	0.001578	0.001808	28.0827	0.071161	0.001879	37.8643	80.2493	-166.673	-0.001910	0.721634	-0.364746	-0.366050	0.005723	37.8643	-0.364859	-41881.1	-1.366521E-7	NaN
490	1.000000	0.762942	7.36985e+06	-52589.1	1005.82	-29748.9	0.000000	0.000000	6.763023	0.003835	NaN	0.000000	0.001602	0.001809	28.081	0.110060	0.001940	56.7294	-127.356	-167.495	0.118096	0.761670	-0.324741	-0.326013	0.003835	56.7294	-0.324791	-10941.5	-3.504993E-7	NaN
490	1.000000	0.803000	7.36985e+06	-52589.1	1005.82	-29748.9	0.000000	0.000000	6.803080	0.002898	NaN	0.000000	0.001608	0.001732	28.0812	0.086931	0.001937	44.8842	88.1636	-165.075	-0.084359	0.801672	-0.284683	-0.286011	0.002898	44.8842	-0.284732	-2781.21	-1.041822E-6	NaN
490	1.000000	0.843009	7.36985e+06	-52589.1	1005.82	-29748.9	0.000000	0.000000	6.843089	-0.012772	NaN	0.000000	0.001582	0.001737	28.0814	0.014941	0.001949	7.664238	-101.947	-168.855	0.079015	0.841692	-0.244674	-0.245991	-0.012772	7.664238	-0.243424	-650.044	1.964847E-5	NaN
490	1.000000	0.883011	7.36985e+06	-52589.1	1005.82	-29748.9	0.000000	0.000000	6.883092	0.030803	NaN	0.000000	0.001603	0.001729	28.0825	0.024131	0.001963	12.2934	-3.987276	-166.877	0.008421	0.881676	-0.204672	-0.206007	0.030803	12.2934	-0.206552	-168.592	-0.000183	NaN
490	1.000000	0.923069	7.36985e+06	-52589.1	1005.82	-29748.9	0.000000	0.000000	6.923149	-0.024716	NaN	0.000000	0.001578	0.001703	28.0824	0.022500	0.001824	12.3351	135.974	-167.33	0.057280	0.921686	-0.164614	-0.165997	-0.024716	12.3351	-0.163111	-31.1214	0.000794	NaN
490	1.000000	0.963072	7.36985e+06	-52589.1	1005.82	-29748.9	0.000000	0.000000	6.963154	0.028381	NaN	0.000000	0.001650	0.001768	28.0825	0.029570	0.002051	14.4176	-35.0718	-166.446	-0.012565	0.961757	-0.124611	-0.125926	0.028381	14.4176	-0.126087	-6.389383	-0.004442	NaN
490	1.000000	1.003038	7.36985e+06	-52589.1	1005.82	-29748.9	0.000000	0.000000	7.003118	-0.027655	NaN	0.000000	0.001578	0.001656	28.0814	0.039234	0.001907	20.5785	-35.2318	-166.629	-0.021662	1.001759	-0.084645	-0.085924	-0.027655	20.5785	-0.083637	-0.761272	0.036327	NaN
490	1.000000	1.043086	7.36985e+06	-52589.1	1005.82	-29748.9	0.000000	0.000000	7.043164	-0.051321	NaN	0.000000	0.001565	0.001696	28.0815	0.008739	0.001983	4.407803	170.548	-164.212	-0.077259	1.041714	-0.044597	-0.045969	-0.051321	4.407803	-0.035865	-0.033967	1.510926	NaN
490	1.000000	1.083103	7.36985e+06	-52589.1	1005.82	-29748.9	0.000000	0.000000	7.083193	0.237275	NaN	0.000000	0.001576	0.001683	28.0817	0.532550	0.001998	266.514	19.4756	-171	-0.050401	1.081768	-0.004580	-0.005915	0.237275	266.514	-0.005248	-0.003572	-66.429	NaN
490	2.000000	1.100662	7.36985e+06	-52589.1	1005.82	-29748.9	0.000000	0.000000	7.101540	19.3855	NaN	0.000000	0.001573	0.001670	28.0816	16.8885	0.001843	9164.21	8.772806	-178.16	19.1947	1.100352	0.012979	0.012669	19.3855	9164.21	0.011393	0.010771	1799.79	80675.4
490	2.000000	1.110620	7.36985e+06	-52589.1	1005.82	-29748.9	0.000000	0.000000	7.112405	41.4308	NaN	0.000000	0.001560	0.001651	28.0824	25.8862	0.001724	15015.3	6.591934	179.779	42.0384	1.110254	0.022937	0.022571	41.4308	15015.3	0.020868	0.023924	1731.75	88692.4
490	2.000000	1.120572	7.36985e+06	-52589.1	1005.82	-29748.9	0.000000	0.000000	7.123548	70.4092	NaN	0.000000	0.001509	0.001684	28.0825	35.8291	0.001733	20678.7	6.019477	176.608	69.4505	1.120258	0.032889	0.032575	70.4092	20678.7	0.030335	0.041441	1699.01	92806.5
490	2.000000	1.130551	7.36985e+06	-52589.1	1005.82	-29748.9	0.000000	0.000000	7.135144	109.718	NaN	0.000000	0.001553	0.001649	28.0826	45.1806	0.001735	26046	3.050871	176.952	108.535	1.130252	0.042868	0.042569	109.718	26046	0.039709	0.063277	1733.92	94599.9
490	2.000000	1.140535	7.36985e+06	-52589.1	1005.82	-29748.9	0.000000	0.000000	7.146846	151.495	NaN	0.000000	0.001516	0.001678	28.0814	54.7604	0.001723	31776.1	3.061726	176.137	150.816	1.140236	0.052852	0.052553	151.495	31776.1	0.049276	0.090189	1679.75	96671.2
490	2.000000	1.150608	7.36985e+06	-52589.1	1005.82	-29748.9	0.000000	0.000000	7.158848	198.4	NaN	0.000000	0.001547	0.001696	28.0811	64.5536	0.001804	35774.6	3.631295	174.723	202.966	1.150266	0.062925	0.062583	198.4	35774.6	0.058765	0.121418	1634.03	93801.1
490	2.000000	1.160565	7.36985e+06	-52589.1	1005.82	-29748.9	0.000000	0.000000	7.171425	262.112	NaN	0.000000	0.001548	0.001671	28.0813	74.0053	0.001775	41685	3.854593	173.449	262.926	1.160122	0.072882	0.072439	262.112	41685	0.068166	0.156706	1672.63	96207.6
490	2.000000	1.170434	7.36985e+06	-52589.1	1005.82	-29748.9	0.000000	0.000000	7.183899	325.428	NaN	0.000000	0.001553	0.001661	28.0812	84.6632	0.001785	47443.3	3.979352	172.091	321.332	1.170168	0.082751	0.082485	325.428	47443.3	0.077607	0.196400	1656.97	97808.7
490	2.000000	1.180588	7.36985e+06	-52589.1	1005.82	-29748.9	0.000000	0.000000	7.196830	392.964	NaN	0.000000	0.001543	0.001669	28.0827	95.5369	0.001908	50064.7	4.008558	171.557	398.284	1.180310	0.092905	0.092627	392.964	50064.7	0.087018	0.240123	1636.52	93344.5
490	2.000000	1.190436	7.36985e+06	-52589.1	1005.82	-29748.9	0.000000	0.000000	7.210309	481.227	NaN	0.000000	0.001549	0.001675	28.0827	104.084	0.001790	58152.8	6.268372	168.274	476.63	1.190147	0.102753	0.102464	481.227	58152.8	0.096547	0.288546	1667.77	98909.2
490	2.000000	1.191489	7.36985e+06	-52589.1	1005.82	-29748.9	0.000000	0.000000	7.211617	487.456	NaN	0.000000	0.001537	0.001654	28.0826	104.506	0.001935	54015.6	5.574085	170.156	485.286	1.191152	0.103806	0.103469	487.456	54015.6	0.097037	0.291152	1674.23	91460.2