File: remote_trans/data/nanoindenter/0828-1/data/Data_2025-08-06,11h17m57s/2025-07-22_16-23-58_1_460.txt
2025-07-22, 16:23:58, 1
Index	Phase	Displacement	Time	Pos X	Pos Y	Pos Z	Rot A	Rot B	Piezo Z	Force A	Force B	Gripper	Voltage A	Voltage B	Temperature	Amplitude force	Amplitude pos	Stiffness	Phase shift	Phase excitation	Force A raw	Displacement raw	HMax	HMax raw	Real Force	Real Stiffness	Contact Depth	Area	Hardness	Reduced Mod.
[#]	[#]	[um]	[s]	[um]	[um]	[um]	[m°]	[m°]	[um]	[uN]	[uN]	[V]	[V]	[V]	[°C]	[uN]	[um]	[N/m]	[°]	[°]	[uN]	[um]	[um]	[um]	[uN]	[N/m]	[um]	[um^2]	[MPa]	[MPa]
460	1.000000	0.002149	7.36956e+06	-54089.1	1005.82	-29744.5	0.000000	0.000000	6.002800	0.040515	NaN	0.000000	0.001571	0.001802	28.0812	0.105445	0.000850	124.11	-2.487427	-164.964	0.030486	0.000922	-1.124173	-1.125400	0.040515	124.11	-1.124418	-1.065974E+15	-3.800729E-17	NaN
460	1.000000	0.044095	7.36956e+06	-54089.1	1005.82	-29744.5	0.000000	0.000000	6.044745	0.006791	NaN	0.000000	0.001617	0.001780	28.0809	0.030400	0.002064	14.7275	54.8683	14.8557	0.024717	0.042733	-1.082227	-1.083590	0.006791	14.7275	-1.082573	-2.924665E+14	-2.321822E-17	NaN
460	1.000000	0.086114	7.36956e+06	-54089.1	1005.82	-29744.5	0.000000	0.000000	6.086764	0.006627	NaN	0.000000	0.001634	0.001790	28.0823	0.036752	0.002090	17.582	119.57	-165.631	-0.005652	0.084800	-1.040208	-1.041522	0.006627	17.582	-1.040491	-7.953717E+13	-8.331671E-17	NaN
460	1.000000	0.128113	7.36956e+06	-54089.1	1005.82	-29744.5	0.000000	0.000000	6.128763	0.018951	NaN	0.000000	0.001622	0.001798	28.0822	0.075953	0.002013	37.7299	-74.0195	16.1229	0.040282	0.126782	-0.998210	-0.999540	0.018951	37.7299	-0.998586	-2.171376E+13	-8.727527E-16	NaN
460	1.000000	0.170138	7.36956e+06	-54089.1	1005.82	-29744.5	0.000000	0.000000	6.170784	-0.077248	NaN	0.000000	0.001574	0.001758	28.0826	0.164402	0.001941	84.6879	174.549	-162.831	-0.006928	0.168875	-0.956185	-0.957447	-0.077248	84.6879	-0.955500	-5.704299E+12	1.354200E-14	NaN
460	1.000000	0.212160	7.36956e+06	-54089.1	1005.82	-29744.5	0.000000	0.000000	6.212809	0.003100	NaN	0.000000	0.001662	0.001731	28.0813	0.114067	0.002025	56.3249	-119.225	15.5512	-0.051330	0.210783	-0.914163	-0.915539	0.003100	56.3249	-0.914204	-1.581027E+12	-1.960871E-15	NaN
460	1.000000	0.254185	7.36956e+06	-54089.1	1005.82	-29744.5	0.000000	0.000000	6.254830	-0.102006	NaN	0.000000	0.001630	0.001712	28.0811	0.084928	0.002217	38.3067	142.458	-165.505	-0.062676	0.252833	-0.872137	-0.873489	-0.102006	38.3067	-0.870140	-4.011816E+11	2.542641E-13	NaN
460	1.000000	0.296230	7.36956e+06	-54089.1	1005.82	-29744.5	0.000000	0.000000	6.296876	-0.089911	NaN	0.000000	0.001605	0.001720	28.081	0.105493	0.002139	49.321	13.4183	13.9644	-0.024531	0.294860	-0.830092	-0.831462	-0.089911	49.321	-0.828725	-1.102813E+11	8.152863E-13	NaN
460	1.000000	0.338219	7.36956e+06	-54089.1	1005.82	-29744.5	0.000000	0.000000	6.338870	0.033531	NaN	0.000000	0.001592	0.001712	28.0821	0.117427	0.001920	61.1607	-29.2767	-162.213	0.029513	0.336908	-0.788103	-0.789415	0.033531	61.1607	-0.788514	-3.139830E+10	-1.067931E-12	NaN
460	1.000000	0.380228	7.36956e+06	-54089.1	1005.82	-29744.5	0.000000	0.000000	6.380876	-0.022133	NaN	0.000000	0.001526	0.001713	28.0822	0.040895	0.002042	20.027	-33.8855	16.0893	-0.059917	0.378896	-0.746095	-0.747427	-0.022133	20.027	-0.745266	-8.105231E+9	2.730709E-12	NaN
460	1.000000	0.422248	7.36956e+06	-54089.1	1005.82	-29744.5	0.000000	0.000000	6.422894	-0.087064	NaN	0.000000	0.001527	0.001699	28.0822	0.034419	0.001931	17.8227	-162.616	-166.713	-0.109319	0.420937	-0.704075	-0.705386	-0.087064	17.8227	-0.700411	-1.982175E+9	4.392341E-11	NaN
460	1.000000	0.464277	7.36956e+06	-54089.1	1005.82	-29744.5	0.000000	0.000000	6.464925	-0.038848	NaN	0.000000	0.001551	0.001698	28.0813	0.056643	0.001945	29.1297	179.484	14.1479	0.006801	0.462928	-0.662045	-0.663395	-0.038848	29.1297	-0.661045	-5.738307E+8	6.769934E-11	NaN
460	1.000000	0.506296	7.36956e+06	-54089.1	1005.82	-29744.5	0.000000	0.000000	6.506944	-0.044600	NaN	0.000000	0.001547	0.001709	28.0809	0.145285	0.002111	68.8326	-75.6323	-161.412	-0.033912	0.505021	-0.620026	-0.621302	-0.044600	68.8326	-0.619540	-1.546376E+8	2.884193E-10	NaN
460	1.000000	0.548303	7.36956e+06	-54089.1	1005.82	-29744.5	0.000000	0.000000	6.548952	0.012029	NaN	0.000000	0.001589	0.001732	28.0811	0.096152	0.002050	46.9094	129.832	15.8537	-0.046609	0.546965	-0.578020	-0.579357	0.012029	46.9094	-0.578212	-4.169167E+7	-2.885149E-10	NaN
460	1.000000	0.590317	7.36956e+06	-54089.1	1005.82	-29744.5	0.000000	0.000000	6.590964	-0.048332	NaN	0.000000	0.001643	0.001707	28.0809	0.123742	0.002130	58.1078	66.9608	-168.203	-0.110988	0.589024	-0.536006	-0.537299	-0.048332	58.1078	-0.535382	-1.064859E+7	4.538783E-9	NaN
460	1.000000	0.632378	7.36956e+06	-54089.1	1005.82	-29744.5	0.000000	0.000000	6.633028	0.032121	NaN	0.000000	0.001672	0.001693	28.0824	0.080812	0.002015	40.0959	-54.6789	14.1713	-0.006106	0.630999	-0.493945	-0.495323	0.032121	40.0959	-0.494545	-2.87665e+06	-1.116610E-8	NaN
460	1.000000	0.674355	7.36956e+06	-54089.1	1005.82	-29744.5	0.000000	0.000000	6.675002	-0.049121	NaN	0.000000	0.001647	0.001707	28.0825	0.007646	0.002078	3.680240	-75.1955	-170.483	-0.022284	0.673082	-0.451967	-0.453240	-0.049121	3.680240	-0.441957	-525986	9.338915E-8	NaN
460	1.000000	0.716397	7.36956e+06	-54089.1	1005.82	-29744.5	0.000000	0.000000	6.717045	-0.035150	NaN	0.000000	0.001556	0.001719	28.0826	0.028344	0.001958	14.4734	179.226	14.9258	-0.022267	0.715041	-0.409925	-0.411281	-0.035150	14.4734	-0.408104	-174352	2.016048E-7	NaN
460	1.000000	0.758423	7.36956e+06	-54089.1	1005.82	-29744.5	0.000000	0.000000	6.759072	0.000811	NaN	0.000000	0.001558	0.001693	28.0813	0.091948	0.001944	47.307	123.954	-165.586	-0.081948	0.757068	-0.367900	-0.369255	0.000811	47.307	-0.367913	-46350.4	-1.748978E-8	NaN
460	1.000000	0.800397	7.36956e+06	-54089.1	1005.82	-29744.5	0.000000	0.000000	6.801047	0.014133	NaN	0.000000	0.001544	0.001687	28.0811	0.053007	0.002018	26.2642	-159.794	15.1949	0.071389	0.799047	-0.325925	-0.327276	0.014133	26.2642	-0.326329	-11524.9	-1.226267E-6	NaN
460	1.000000	0.842442	7.36956e+06	-54089.1	1005.82	-29744.5	0.000000	0.000000	6.843091	0.007165	NaN	0.000000	0.001592	0.001713	28.0814	0.043009	0.002024	21.2511	-103.97	-162.744	0.020861	0.841110	-0.283881	-0.285212	0.007165	21.2511	-0.284134	-2724.19	-2.630255E-6	NaN
460	1.000000	0.884470	7.36956e+06	-54089.1	1005.82	-29744.5	0.000000	0.000000	6.885119	-0.003499	NaN	0.000000	0.001578	0.001715	28.0825	0.069084	0.002034	33.9701	138.988	14.3359	0.031708	0.883096	-0.241853	-0.243227	-0.003499	33.9701	-0.241776	-612.718	5.710053E-6	NaN
460	1.000000	0.926460	7.36956e+06	-54089.1	1005.82	-29744.5	0.000000	0.000000	6.927109	-0.006380	NaN	0.000000	0.001539	0.001750	28.0825	0.065398	0.002059	31.7618	-98.1312	-162.759	-0.026891	0.925155	-0.199863	-0.201167	-0.006380	31.7618	-0.199712	-130.307	4.896004E-5	NaN
460	1.000000	0.968468	7.36956e+06	-54089.1	1005.82	-29744.5	0.000000	0.000000	6.969115	-0.061234	NaN	0.000000	0.001567	0.001675	28.0825	0.172495	0.001980	87.1329	141.974	15.9254	-0.040210	0.967100	-0.157854	-0.159223	-0.061234	87.1329	-0.157327	-24.5661	0.002493	NaN
460	1.000000	1.010475	7.36956e+06	-54089.1	1005.82	-29744.5	0.000000	0.000000	7.011119	-0.117050	NaN	0.000000	0.001592	0.001750	28.0809	0.097426	0.002008	48.5098	164.239	-163.495	-0.088390	1.009242	-0.115847	-0.117081	-0.117050	48.5098	-0.114038	-3.649455	0.032073	NaN
460	1.000000	1.052516	7.36956e+06	-54089.1	1005.82	-29744.5	0.000000	0.000000	7.053163	-0.054110	NaN	0.000000	0.001599	0.001711	28.0812	0.121540	0.001932	62.9082	-2.201336	13.3954	-0.108543	1.051143	-0.073807	-0.075179	-0.054110	62.9082	-0.073162	-0.413675	0.130804	NaN
460	1.000000	1.094537	7.36956e+06	-54089.1	1005.82	-29744.5	0.000000	0.000000	7.095183	-0.069196	NaN	0.000000	0.001582	0.001683	28.0814	0.032987	0.001938	17.0216	-67.0931	-162.402	-0.020311	1.093237	-0.031786	-0.033085	-0.069196	17.0216	-0.028737	-0.021235	3.258551	NaN
460	2.000000	1.136231	7.36956e+06	-54089.1	1005.82	-29744.5	0.000000	0.000000	7.137236	8.648889	NaN	0.000000	0.001619	0.001721	28.0817	8.783254	0.001688	5202.1	12.342	6.736544	7.319677	1.135123	0.009909	0.008801	8.648889	5202.1	0.008662	0.007732	1118.6	54051.6
460	2.000000	1.147035	7.36956e+06	-54089.1	1005.82	-29744.5	0.000000	0.000000	7.148763	26.2199	NaN	0.000000	0.001637	0.001706	28.0825	20.085	0.001727	11631	4.372154	-174.684	26.2734	1.146696	0.020713	0.020374	26.2199	11631	0.019022	0.021029	1246.84	73279.2
460	2.000000	1.157425	7.36956e+06	-54089.1	1005.82	-29744.5	0.000000	0.000000	7.160454	57.8484	NaN	0.000000	0.001612	0.001717	28.0822	31.6995	0.001676	18910.8	3.339368	0.024600	54.3207	1.157162	0.031103	0.030840	57.8484	18910.8	0.028809	0.038311	1509.97	88271.8
460	2.000000	1.167933	7.36956e+06	-54089.1	1005.82	-29744.5	0.000000	0.000000	7.172366	91.9865	NaN	0.000000	0.001590	0.001738	28.0825	40.9946	0.001689	24276.6	5.125411	177.971	91.584	1.167669	0.041611	0.041346	91.9865	24276.6	0.038769	0.060886	1510.8	89888
460	2.000000	1.178457	7.36956e+06	-54089.1	1005.82	-29744.5	0.000000	0.000000	7.184707	136.163	NaN	0.000000	0.001556	0.001713	28.0812	51.8024	0.001798	28808.4	7.328302	-5.421975	133.658	1.178056	0.052134	0.051734	136.163	28808.4	0.048589	0.088103	1545.51	88674.1
460	2.000000	1.188944	7.36956e+06	-54089.1	1005.82	-29744.5	0.000000	0.000000	7.197385	189.423	NaN	0.000000	0.001565	0.001690	28.0812	61.1634	0.001735	35258.2	2.826282	176.974	187.659	1.188612	0.062622	0.062289	189.423	35258.2	0.058593	0.120810	1567.95	92679.1
460	2.000000	1.199450	7.36956e+06	-54089.1	1005.82	-29744.5	0.000000	0.000000	7.210125	243.721	NaN	0.000000	0.001542	0.001712	28.0812	73.1721	0.001795	40766.2	3.464950	-5.050622	243.213	1.199187	0.073128	0.072864	243.721	40766.2	0.068644	0.158616	1536.55	93519
460	2.000000	1.209960	7.36956e+06	-54089.1	1005.82	-29744.5	0.000000	0.000000	7.223462	312.469	NaN	0.000000	0.001572	0.001702	28.0828	82.5726	0.001901	43447.7	6.300921	172.392	314.57	1.209651	0.083637	0.083329	312.469	43447.7	0.078244	0.199229	1568.39	88933.1
460	2.000000	1.220436	7.36956e+06	-54089.1	1005.82	-29744.5	0.000000	0.000000	7.237021	387.418	NaN	0.000000	0.001524	0.001726	28.0824	89.8869	0.001763	50989	5.283766	-8.143761	385.935	1.219993	0.094114	0.093671	387.418	50989	0.088415	0.246964	1568.73	93741.9
460	2.000000	1.230837	7.36956e+06	-54089.1	1005.82	-29744.5	0.000000	0.000000	7.250041	451.074	NaN	0.000000	0.001586	0.001734	28.0824	98.6756	0.001768	55801.5	2.786590	173.861	448.523	1.230560	0.104515	0.104237	451.074	55801.5	0.098452	0.298729	1509.98	93278.3
460	2.000000	1.234786	7.36956e+06	-54089.1	1005.82	-29744.5	0.000000	0.000000	7.255215	480.863	NaN	0.000000	0.001536	0.001711	28.083	101.762	0.001758	57877.5	3.509906	172.6	474.885	1.234531	0.108464	0.108209	480.863	57877.5	0.102232	0.319414	1505.45	93563.4