File: remote_trans/data/nanoindenter/0828-1/data/Data_2025-08-06,11h17m57s/2025-07-22_16-23-58_1_1041.txt
2025-07-22, 16:23:58, 1
Index	Phase	Displacement	Time	Pos X	Pos Y	Pos Z	Rot A	Rot B	Piezo Z	Force A	Force B	Gripper	Voltage A	Voltage B	Temperature	Amplitude force	Amplitude pos	Stiffness	Phase shift	Phase excitation	Force A raw	Displacement raw	HMax	HMax raw	Real Force	Real Stiffness	Contact Depth	Area	Hardness	Reduced Mod.
[#]	[#]	[um]	[s]	[um]	[um]	[um]	[m°]	[m°]	[um]	[uN]	[uN]	[V]	[V]	[V]	[°C]	[uN]	[um]	[N/m]	[°]	[°]	[uN]	[um]	[um]	[um]	[uN]	[N/m]	[um]	[um^2]	[MPa]	[MPa]
1041	1.000000	0.002623	7.37523e+06	-52189.1	1055.82	-29749.8	0.000000	0.000000	6.002782	0.025908	NaN	0.000000	0.001710	0.001709	28.0839	0.063266	0.000946	66.861	176.999	-163.355	-0.025051	0.001381	-1.061416	-1.062658	0.025908	66.861	-1.061707	-1.533757E+14	-1.689176E-16	NaN
1041	1.000000	0.042593	7.37523e+06	-52189.1	1055.82	-29749.8	0.000000	0.000000	6.042751	-0.006165	NaN	0.000000	0.001728	0.001691	28.0837	0.119656	0.002035	58.803	-128.251	-165.692	-0.007817	0.041252	-1.021446	-1.022787	-0.006165	58.803	-1.021367	-4.398949E+13	1.401526E-16	NaN
1041	1.000000	0.082656	7.37523e+06	-52189.1	1055.82	-29749.8	0.000000	0.000000	6.082815	0.024328	NaN	0.000000	0.001723	0.001660	28.0822	0.052285	0.002085	25.0764	-68.8422	-166.739	0.113600	0.081279	-0.981383	-0.982760	0.024328	25.0764	-0.982111	-1.302702E+13	-1.867488E-15	NaN
1041	1.000000	0.122601	7.37523e+06	-52189.1	1055.82	-29749.8	0.000000	0.000000	6.122761	0.021763	NaN	0.000000	0.001729	0.001700	28.0821	0.032441	0.002113	15.355	151.474	-167.114	0.036592	0.121321	-0.941438	-0.942718	0.021763	15.355	-0.942501	-3.809551E+12	-5.712753E-15	NaN
1041	1.000000	0.162641	7.37523e+06	-52189.1	1055.82	-29749.8	0.000000	0.000000	6.162801	0.042447	NaN	0.000000	0.001696	0.001715	28.0822	0.042945	0.001995	21.5237	-157.816	-164.31	0.060647	0.161273	-0.901398	-0.902766	0.042447	21.5237	-0.902877	-1.111583E+12	-3.818572E-14	NaN
1041	1.000000	0.202674	7.37523e+06	-52189.1	1055.82	-29749.8	0.000000	0.000000	6.202835	0.055062	NaN	0.000000	0.001753	0.001683	28.0834	0.118191	0.002080	56.8341	103.798	-165.125	0.088901	0.201335	-0.861365	-0.862704	0.055062	56.8341	-0.862092	-3.121992E+11	-1.763678E-13	NaN
1041	1.000000	0.242658	7.37523e+06	-52189.1	1055.82	-29749.9	0.000000	0.000000	6.242819	0.039272	NaN	0.000000	0.001691	0.001729	28.0837	0.051225	0.001898	26.9915	-91.0011	-167.64	0.077052	0.241310	-0.821381	-0.822729	0.039272	26.9915	-0.822472	-9.072516E+10	-4.328680E-13	NaN
1041	1.000000	0.282694	7.37523e+06	-52189.1	1055.82	-29749.9	0.000000	0.000000	6.282854	0.017513	NaN	0.000000	0.001637	0.001703	28.0838	0.061440	0.001874	32.7803	82.3906	-163.659	0.077998	0.281396	-0.781345	-0.782643	0.017513	32.7803	-0.781745	-2.540662E+10	-6.893211E-13	NaN
1041	1.000000	0.322689	7.37523e+06	-52189.1	1055.82	-29749.9	0.000000	0.000000	6.322847	-0.013076	NaN	0.000000	0.001609	0.001734	28.0836	0.061743	0.002050	30.1167	124.118	-165.466	-0.064276	0.321441	-0.741350	-0.742598	-0.013076	30.1167	-0.741024	-7.095826E+9	1.842824E-12	NaN
1041	1.000000	0.362706	7.37523e+06	-52189.1	1055.82	-29749.9	0.000000	0.000000	6.362867	0.077823	NaN	0.000000	0.001597	0.001680	28.0825	0.078658	0.001942	40.4986	-178.172	-163.788	0.096732	0.361409	-0.701333	-0.702630	0.077823	40.4986	-0.702775	-2.135098E+9	-3.644956E-11	NaN
1041	1.000000	0.402726	7.37523e+06	-52189.1	1055.82	-29749.9	0.000000	0.000000	6.402886	0.028817	NaN	0.000000	0.001604	0.001667	28.0828	0.053493	0.001946	27.4885	-42.3418	-167.038	0.030958	0.401432	-0.661313	-0.662607	0.028817	27.4885	-0.662099	-5.932196E+8	-4.857731E-11	NaN
1041	1.000000	0.442745	7.37523e+06	-52189.1	1055.82	-29749.9	0.000000	0.000000	6.442906	0.061130	NaN	0.000000	0.001618	0.001705	28.0827	0.105094	0.001964	53.5107	-146.12	-168.347	0.080319	0.441466	-0.621294	-0.622573	0.061130	53.5107	-0.622151	-1.679545E+8	-3.639681E-10	NaN
1041	1.000000	0.482759	7.37523e+06	-52189.1	1055.82	-29749.9	0.000000	0.000000	6.482919	0.047015	NaN	0.000000	0.001637	0.001686	28.0841	0.090265	0.002129	42.4071	-134.628	-167.994	0.093980	0.481491	-0.581280	-0.582548	0.047015	42.4071	-0.582111	-4.719152E+7	-9.962583E-10	NaN
1041	1.000000	0.522770	7.37523e+06	-52189.1	1055.82	-29749.9	0.000000	0.000000	6.522932	0.072578	NaN	0.000000	0.001655	0.001719	28.084	0.027490	0.001921	14.3078	52.0213	-168.261	-0.000699	0.521424	-0.541269	-0.542615	0.072578	14.3078	-0.545073	-1.451090E+7	-5.001637E-9	NaN
1041	1.000000	0.562812	7.37523e+06	-52189.1	1055.82	-29749.9	0.000000	0.000000	6.562973	0.070304	NaN	0.000000	0.001678	0.001707	28.084	0.080650	0.002008	40.1728	-158.461	-165.656	0.023566	0.561517	-0.501227	-0.502522	0.070304	40.1728	-0.502540	-3.71916e+06	-1.890326E-8	NaN
1041	1.000000	0.602820	7.37523e+06	-52189.1	1055.82	-29749.9	0.000000	0.000000	6.602977	-0.048031	NaN	0.000000	0.001652	0.001669	28.0827	0.056424	0.002025	27.8613	-33.8375	-166.653	-0.041358	0.601531	-0.461218	-0.462508	-0.048031	27.8613	-0.459925	-941827	5.099767E-8	NaN
1041	1.000000	0.642848	7.37523e+06	-52189.1	1055.82	-29749.9	0.000000	0.000000	6.643006	-0.012884	NaN	0.000000	0.001623	0.001737	28.0827	0.005081	0.001877	2.706812	-117.887	-167.24	-0.083799	0.641544	-0.421190	-0.422495	-0.012884	2.706812	-0.417620	-238043	5.412665E-8	NaN
1041	1.000000	0.682853	7.37523e+06	-52189.1	1055.82	-29749.9	0.000000	0.000000	6.683012	-0.003784	NaN	0.000000	0.001680	0.001664	28.0827	0.044034	0.002072	21.2509	-119.101	-162.808	0.066712	0.681573	-0.381185	-0.382466	-0.003784	21.2509	-0.381052	-71611.6	5.283785E-8	NaN
1041	1.000000	0.722869	7.37523e+06	-52189.1	1055.82	-29749.9	0.000000	0.000000	6.723031	0.092137	NaN	0.000000	0.001677	0.001677	28.0827	0.016663	0.002046	8.144569	23.9702	-165.184	0.112961	0.721566	-0.341170	-0.342473	0.092137	8.144569	-0.349655	-25234.3	-3.651277E-6	NaN
1041	1.000000	0.762894	7.37523e+06	-52189.1	1055.82	-29749.9	0.000000	0.000000	6.763053	0.012685	NaN	0.000000	0.001669	0.001661	28.0839	0.071122	0.002034	34.9747	35.3832	-166.808	0.040079	0.761589	-0.301145	-0.302450	0.012685	34.9747	-0.301417	-4939.86	-2.567955E-6	NaN
1041	1.000000	0.802892	7.37523e+06	-52189.1	1055.82	-29749.9	0.000000	0.000000	6.803052	0.044495	NaN	0.000000	0.001758	0.001728	28.0838	0.059375	0.001917	30.9729	136.115	-165.943	0.014063	0.801583	-0.261147	-0.262456	0.044495	30.9729	-0.262225	-1267.6	-3.510200E-5	NaN
1041	1.000000	0.842917	7.37523e+06	-52189.1	1055.82	-29749.9	0.000000	0.000000	6.843079	0.061537	NaN	0.000000	0.001724	0.001691	28.0841	0.067872	0.002043	33.23	-51.229	-167.118	0.028320	0.841631	-0.221121	-0.222408	0.061537	33.23	-0.222510	-304.601	-0.000202	NaN
1041	1.000000	0.882973	7.37523e+06	-52189.1	1055.82	-29749.9	0.000000	0.000000	6.883133	0.026796	NaN	0.000000	0.001649	0.001698	28.0826	0.035582	0.002008	17.7237	117.538	-169.992	0.093093	0.881605	-0.181066	-0.182434	0.026796	17.7237	-0.182200	-66.4991	-0.000403	NaN
1041	1.000000	0.922974	7.37523e+06	-52189.1	1055.82	-29749.9	0.000000	0.000000	6.923134	0.038030	NaN	0.000000	0.001705	0.001699	28.0826	0.078705	0.001926	40.8622	117.187	-161.003	-0.005443	0.921669	-0.141065	-0.142369	0.038030	40.8622	-0.141763	-12.764	-0.002980	NaN
1041	1.000000	0.962958	7.37523e+06	-52189.1	1055.82	-29749.9	0.000000	0.000000	6.963120	0.092076	NaN	0.000000	0.001637	0.001695	28.0828	0.020133	0.001912	10.5272	117.617	-164.702	0.057051	0.961695	-0.101081	-0.102344	0.092076	10.5272	-0.107641	-2.678296	-0.034379	NaN
1041	1.000000	1.002969	7.37523e+06	-52189.1	1055.82	-29749.9	0.000000	0.000000	7.003127	-0.005960	NaN	0.000000	0.001633	0.001668	28.0828	0.105082	0.002050	51.2643	-143.47	-167.594	-0.045426	1.001680	-0.061070	-0.062359	-0.005960	51.2643	-0.060983	-0.192132	0.031022	NaN
1041	1.000000	1.043035	7.37523e+06	-52189.1	1055.82	-29749.9	0.000000	0.000000	7.043195	0.021518	NaN	0.000000	0.001726	0.001670	28.0841	0.057074	0.002127	26.8313	25.3589	-164.435	0.059896	1.041731	-0.021004	-0.022308	0.021518	26.8313	-0.021605	-0.013798	-1.559521	NaN
1041	2.000000	1.068521	7.37523e+06	-52189.1	1055.82	-29749.9	0.000000	0.000000	7.069150	11.4372	NaN	0.000000	0.001635	0.001699	28.0839	11.6041	0.001789	6486.05	6.663079	-172.277	10.0137	1.068240	0.004482	0.004201	11.4372	6486.05	0.003159	0.002514	4548.74	118179
1041	2.000000	1.078537	7.37523e+06	-52189.1	1055.82	-29749.9	0.000000	0.000000	7.080107	34.3237	NaN	0.000000	0.001648	0.001685	28.0841	23.123	0.001836	12594.8	7.427555	-177.468	34.8003	1.078147	0.014498	0.014109	34.3237	12594.8	0.012454	0.012039	2851.13	104876
1041	2.000000	1.088454	7.37523e+06	-52189.1	1055.82	-29749.9	0.000000	0.000000	7.091244	63.9772	NaN	0.000000	0.001615	0.001719	28.0825	33.8905	0.001883	18001.7	7.647530	176.894	61.8439	1.088212	0.024415	0.024173	63.9772	18001.7	0.021750	0.025367	2522.09	103265
1041	2.000000	1.098468	7.37523e+06	-52189.1	1055.82	-29749.9	0.000000	0.000000	7.102808	101.667	NaN	0.000000	0.001633	0.001701	28.0828	42.0039	0.001896	22158.6	6.193882	176.925	101.389	1.098128	0.034429	0.034089	101.667	22158.6	0.030988	0.042816	2374.5	97838.9
1041	2.000000	1.108410	7.37523e+06	-52189.1	1055.82	-29749.9	0.000000	0.000000	7.114867	153.149	NaN	0.000000	0.001677	0.001722	28.083	51.0967	0.001761	29008	5.813632	174.808	149.957	1.108125	0.044371	0.044086	153.149	29008	0.040411	0.065096	2352.67	103876
1041	2.000000	1.118402	7.37523e+06	-52189.1	1055.82	-29749.9	0.000000	0.000000	7.126906	202.934	NaN	0.000000	0.001669	0.001677	28.0844	60.5544	0.001766	34289.6	2.807046	176.996	199.279	1.118160	0.054363	0.054121	202.934	34289.6	0.049924	0.092178	2201.53	103186
1041	2.000000	1.128437	7.37523e+06	-52189.1	1055.82	-29749.9	0.000000	0.000000	7.139408	262.899	NaN	0.000000	0.001731	0.001723	28.0842	70.179	0.001810	38779.7	8.116785	171.422	262.913	1.128062	0.064398	0.064023	262.899	38779.7	0.059314	0.123359	2131.18	100877
1041	2.000000	1.138481	7.37523e+06	-52189.1	1055.82	-29749.9	0.000000	0.000000	7.151893	322.27	NaN	0.000000	0.001735	0.001724	28.084	79.1818	0.001739	45526.6	4.401466	173.103	323.825	1.138320	0.074442	0.074281	322.27	45526.6	0.069133	0.160578	2006.94	103800
1041	2.000000	1.148373	7.37523e+06	-52189.1	1055.82	-29749.9	0.000000	0.000000	7.165010	400.671	NaN	0.000000	0.001761	0.001734	28.0841	89.7966	0.001772	50686.4	5.151400	171.77	398.766	1.148159	0.084334	0.084120	400.671	50686.4	0.078405	0.199951	2003.85	103563
1041	2.000000	1.158439	7.37523e+06	-52189.1	1055.82	-29749.9	0.000000	0.000000	7.177973	471.113	NaN	0.000000	0.001767	0.001682	28.083	99.6482	0.001774	56161.3	4.222563	172.082	473.406	1.158272	0.094400	0.094233	471.113	56161.3	0.088109	0.245454	1919.36	103568
1041	2.000000	1.162415	7.37523e+06	-52189.1	1055.82	-29749.9	0.000000	0.000000	7.183510	509.047	NaN	0.000000	0.001730	0.001667	28.0831	102.864	0.001817	56600.4	4.513961	171.708	509.379	1.162148	0.098377	0.098109	509.047	56600.4	0.091631	0.263048	1935.19	100827