File: remote_trans/data/nanoindenter/0828-1/data/Data_2025-08-06,11h17m57s/2025-07-22_16-23-58_1_773.txt
2025-07-22, 16:23:58, 1
Index	Phase	Displacement	Time	Pos X	Pos Y	Pos Z	Rot A	Rot B	Piezo Z	Force A	Force B	Gripper	Voltage A	Voltage B	Temperature	Amplitude force	Amplitude pos	Stiffness	Phase shift	Phase excitation	Force A raw	Displacement raw	HMax	HMax raw	Real Force	Real Stiffness	Contact Depth	Area	Hardness	Reduced Mod.
[#]	[#]	[um]	[s]	[um]	[um]	[um]	[m°]	[m°]	[um]	[uN]	[uN]	[V]	[V]	[V]	[°C]	[uN]	[um]	[N/m]	[°]	[°]	[uN]	[um]	[um]	[um]	[uN]	[N/m]	[um]	[um^2]	[MPa]	[MPa]
773	1.000000	0.002481	7.37262e+06	-38789.1	1055.82	-29796.2	0.000000	0.000000	6.002796	-0.012569	NaN	0.000000	0.001549	0.001746	28.0808	0.035595	0.000913	38.9718	93.3535	-166.544	0.001033	0.001192	-1.128728	-1.130018	-0.012569	38.9718	-1.128486	-1.208694E+15	1.039881E-17	NaN
773	1.000000	0.044440	7.37262e+06	-38789.1	1055.82	-29796.2	0.000000	0.000000	6.044756	0.049166	NaN	0.000000	0.001597	0.001784	28.0808	0.132744	0.001910	69.4975	155.826	17.0281	0.072242	0.043096	-1.086770	-1.088114	0.049166	69.4975	-1.087300	-3.385019E+14	-1.452467E-16	NaN
773	1.000000	0.086435	7.37262e+06	-38789.1	1055.82	-29796.2	0.000000	0.000000	6.086751	0.038843	NaN	0.000000	0.001590	0.001757	28.0819	0.071451	0.001954	36.5649	-147.815	-167.176	0.005114	0.085198	-1.044775	-1.046012	0.038843	36.5649	-1.045571	-9.308458E+13	-4.172868E-16	NaN
773	1.000000	0.128461	7.37262e+06	-38789.1	1055.82	-29796.2	0.000000	0.000000	6.128777	0.019896	NaN	0.000000	0.001633	0.001773	28.082	0.078582	0.001989	39.5006	-29.0228	14.9515	0.048008	0.127099	-1.002748	-1.004110	0.019896	39.5006	-1.003126	-2.499512E+13	-7.959992E-16	NaN
773	1.000000	0.170472	7.37262e+06	-38789.1	1055.82	-29796.2	0.000000	0.000000	6.170787	-0.003187	NaN	0.000000	0.001609	0.001751	28.0819	0.082471	0.001955	42.1938	67.4426	-164.24	0.030815	0.169157	-0.960737	-0.962053	-0.003187	42.1938	-0.960681	-6.699553E+12	4.756966E-16	NaN
773	1.000000	0.212520	7.37262e+06	-38789.1	1055.82	-29796.2	0.000000	0.000000	6.212837	0.033844	NaN	0.000000	0.001581	0.001777	28.0821	0.120212	0.002019	59.549	-119.972	17.969	0.077547	0.211127	-0.918689	-0.920082	0.033844	59.549	-0.919115	-1.841877E+12	-1.837482E-14	NaN
773	1.000000	0.254523	7.37262e+06	-38789.1	1055.82	-29796.2	0.000000	0.000000	6.254837	2.840526E-5	NaN	0.000000	0.001587	0.001765	28.0807	0.071936	0.002097	34.2967	147.356	-164.65	0.031138	0.253178	-0.876687	-0.878031	2.840526E-5	34.2967	-0.876687	-4.919356E+11	-5.774182E-17	NaN
773	1.000000	0.296558	7.37262e+06	-38789.1	1055.82	-29796.2	0.000000	0.000000	6.296873	0.011141	NaN	0.000000	0.001569	0.001763	28.0805	0.058003	0.002030	28.5741	146.277	15.6406	-0.010981	0.295166	-0.834651	-0.836043	0.011141	28.5741	-0.834944	-1.339004E+11	-8.320419E-14	NaN
773	1.000000	0.338573	7.37262e+06	-38789.1	1055.82	-29796.2	0.000000	0.000000	6.338890	0.059419	NaN	0.000000	0.001564	0.001709	28.0805	0.101385	0.001969	51.4805	-97.6677	-167.616	0.097983	0.337245	-0.792636	-0.793964	0.059419	51.4805	-0.793502	-3.669781E+10	-1.619130E-12	NaN
773	1.000000	0.380563	7.37262e+06	-38789.1	1055.82	-29796.2	0.000000	0.000000	6.380878	0.026334	NaN	0.000000	0.001556	0.001766	28.0819	0.067511	0.001897	35.5803	51.1941	14.6977	-0.017429	0.379213	-0.750647	-0.751996	0.026334	35.5803	-0.751202	-9.762968E+9	-2.697367E-12	NaN
773	1.000000	0.422602	7.37262e+06	-38789.1	1055.82	-29796.2	0.000000	0.000000	6.422914	-0.058737	NaN	0.000000	0.001593	0.001772	28.0817	0.192578	0.002050	93.9244	166.683	-164.163	-0.016980	0.421282	-0.708608	-0.709928	-0.058737	93.9244	-0.708139	-2.527248E+9	2.324156E-11	NaN
773	1.000000	0.464599	7.37262e+06	-38789.1	1055.82	-29796.2	0.000000	0.000000	6.464916	0.067157	NaN	0.000000	0.001544	0.001774	28.0816	0.076844	0.001981	38.7863	4.535739	15.0946	-0.023640	0.463256	-0.666611	-0.667953	0.067157	38.7863	-0.667909	-7.124822E+8	-9.425729E-11	NaN
773	1.000000	0.506600	7.37262e+06	-38789.1	1055.82	-29796.2	0.000000	0.000000	6.506916	0.022251	NaN	0.000000	0.001567	0.001772	28.0803	0.029596	0.002006	14.7528	-39.0327	-163.069	-0.065385	0.505351	-0.624609	-0.625858	0.022251	14.7528	-0.625741	-1.881564E+8	-1.182570E-10	NaN
773	1.000000	0.548637	7.37262e+06	-38789.1	1055.82	-29796.2	0.000000	0.000000	6.548956	0.088143	NaN	0.000000	0.001589	0.001780	28.0804	0.067855	0.001958	34.657	-156.869	19.2383	0.074319	0.547295	-0.582572	-0.583914	0.088143	34.657	-0.584480	-5.087879E+7	-1.732409E-9	NaN
773	1.000000	0.590653	7.37262e+06	-38789.1	1055.82	-29796.2	0.000000	0.000000	6.590969	0.040759	NaN	0.000000	0.001635	0.001753	28.0806	0.002135	0.001937	1.102132	-132.74	-165.932	0.061776	0.589387	-0.540557	-0.541823	0.040759	1.102132	-0.568293	-3.041162E+7	-1.340231E-9	NaN
773	1.000000	0.632718	7.37262e+06	-38789.1	1055.82	-29796.2	0.000000	0.000000	6.633036	0.074814	NaN	0.000000	0.001639	0.001742	28.0813	0.139920	0.002074	67.4607	75.8917	13.4969	0.028851	0.631383	-0.498492	-0.499826	0.074814	67.4607	-0.499323	-3.35412e+06	-2.230501E-8	NaN
773	1.000000	0.674694	7.37262e+06	-38789.1	1055.82	-29796.2	0.000000	0.000000	6.675012	0.069926	NaN	0.000000	0.001653	0.001792	28.0818	0.045384	0.002024	22.4249	12.3318	-165.736	0.048072	0.673405	-0.456516	-0.457804	0.069926	22.4249	-0.458854	-909733	-7.686400E-8	NaN
773	1.000000	0.716707	7.37262e+06	-38789.1	1055.82	-29796.2	0.000000	0.000000	6.717024	0.051817	NaN	0.000000	0.001607	0.001777	28.0818	0.075123	0.002043	36.7748	-53.5382	16.1681	0.049142	0.715339	-0.414502	-0.415870	0.051817	36.7748	-0.415559	-222533	-2.328483E-7	NaN
773	1.000000	0.758746	7.37262e+06	-38789.1	1055.82	-29796.2	0.000000	0.000000	6.759061	0.000553	NaN	0.000000	0.001671	0.001791	28.0817	0.048633	0.002026	23.999	138.114	-165.957	0.028193	0.757436	-0.372463	-0.373774	0.000553	23.999	-0.372480	-53930.5	-1.026322E-8	NaN
773	1.000000	0.800771	7.37262e+06	-38789.1	1055.82	-29796.2	0.000000	0.000000	6.801084	-0.029082	NaN	0.000000	0.001605	0.001765	28.0804	0.069208	0.002014	34.3642	56.1037	12.0745	0.034042	0.799331	-0.330439	-0.331878	-0.029082	34.3642	-0.329804	-12959.2	2.244139E-6	NaN
773	1.000000	0.842759	7.37262e+06	-38789.1	1055.82	-29796.2	0.000000	0.000000	6.843073	-0.022629	NaN	0.000000	0.001569	0.001771	28.0804	0.078366	0.001942	40.3549	140.491	-164.671	0.069979	0.841485	-0.288450	-0.289725	-0.022629	40.3549	-0.288030	-3117.2	7.259400E-6	NaN
773	1.000000	0.884810	7.37262e+06	-38789.1	1055.82	-29796.2	0.000000	0.000000	6.885123	-0.033812	NaN	0.000000	0.001641	0.001739	28.0803	0.062087	0.002059	30.1609	87.8001	13.2886	-0.051347	0.883441	-0.246400	-0.247768	-0.033812	30.1609	-0.245559	-701.675	4.818706E-5	NaN
773	1.000000	0.926750	7.37262e+06	-38789.1	1055.82	-29796.2	0.000000	0.000000	6.927065	-0.010693	NaN	0.000000	0.001600	0.001772	28.0819	0.051252	0.002011	25.4821	175.293	-166.468	-0.016661	0.925441	-0.204459	-0.205769	-0.010693	25.4821	-0.204144	-154.025	6.942572E-5	NaN
773	1.000000	0.968797	7.37262e+06	-38789.1	1055.82	-29796.2	0.000000	0.000000	6.969114	0.034441	NaN	0.000000	0.001571	0.001777	28.082	0.056975	0.001918	29.6994	16.0053	13.6242	0.065327	0.967453	-0.162412	-0.163756	0.034441	29.6994	-0.163282	-31.3381	-0.001099	NaN
773	1.000000	1.010825	7.37262e+06	-38789.1	1055.82	-29796.2	0.000000	0.000000	7.011139	-0.010743	NaN	0.000000	0.001570	0.001724	28.082	0.043185	0.002073	20.8284	-6.779527	-164.283	0.052254	1.009529	-0.120385	-0.121681	-0.010743	20.8284	-0.119998	-4.831018	0.002224	NaN
773	1.000000	1.052851	7.37262e+06	-38789.1	1055.82	-29796.2	0.000000	0.000000	7.053166	0.000476	NaN	0.000000	0.001594	0.001769	28.0809	0.050846	0.002046	24.8483	129.698	16.7398	-0.040795	1.051478	-0.078358	-0.079732	0.000476	24.8483	-0.078373	-0.563343	-0.000845	NaN
773	1.000000	1.094858	7.37262e+06	-38789.1	1055.82	-29796.2	0.000000	0.000000	7.095171	-0.062017	NaN	0.000000	0.001647	0.001764	28.0807	0.026286	0.002077	12.653	-17.9801	-164.447	-0.024612	1.093542	-0.036351	-0.037667	-0.062017	12.653	-0.032675	-0.027401	2.263353	NaN
773	2.000000	1.136582	7.37262e+06	-38789.1	1055.82	-29796.2	0.000000	0.000000	7.137256	8.750402	NaN	0.000000	0.001602	0.001741	28.0806	7.827839	0.001720	4551.93	14.4764	5.694060	8.123477	1.135453	0.005372	0.004244	8.750402	4551.93	0.003930	0.003178	2753.46	73772.4
773	2.000000	1.147338	7.37262e+06	-38789.1	1055.82	-29796.2	0.000000	0.000000	7.148737	26.3699	NaN	0.000000	0.001559	0.001772	28.0817	20.9168	0.001959	10677.6	6.554744	-176.048	24.7493	1.147047	0.016129	0.015838	26.3699	10677.6	0.014277	0.014333	1839.8	81484.9
773	2.000000	1.157818	7.37262e+06	-38789.1	1055.82	-29796.2	0.000000	0.000000	7.160572	59.3458	NaN	0.000000	0.001595	0.001786	28.0817	32.2945	0.001699	19004.4	9.310255	-4.208075	59.3554	1.157415	0.026609	0.026205	59.3458	19004.4	0.024267	0.029695	1998.5	100759
773	2.000000	1.168367	7.37262e+06	-38789.1	1055.82	-29796.2	0.000000	0.000000	7.172525	93.5454	NaN	0.000000	0.001571	0.001756	28.0818	42.9333	0.001723	24921.9	5.391782	176.473	96.1715	1.167934	0.037157	0.036725	93.5454	24921.9	0.034342	0.050225	1862.51	101600
773	2.000000	1.178788	7.37262e+06	-38789.1	1055.82	-29796.2	0.000000	0.000000	7.185339	151.769	NaN	0.000000	0.001598	0.001744	28.0819	53.4224	0.001649	32389.1	0.937650	-1.395539	150.264	1.178493	0.047578	0.047283	151.769	32389.1	0.044064	0.074952	2024.89	108089
773	2.000000	1.189313	7.37262e+06	-38789.1	1055.82	-29796.2	0.000000	0.000000	7.199109	230.738	NaN	0.000000	0.001637	0.001798	28.0806	66.3274	0.001703	38943.2	3.070477	176.08	230.625	1.188859	0.058103	0.057650	230.738	38943.2	0.053660	0.104060	2217.36	110297
773	2.000000	1.199648	7.37262e+06	-38789.1	1055.82	-29796.2	0.000000	0.000000	7.212407	302.856	NaN	0.000000	0.001642	0.001802	28.081	76.9757	0.001793	42937.9	4.460120	-7.660714	295.012	1.199286	0.068438	0.068076	302.856	42937.9	0.063148	0.137339	2205.18	105856
773	2.000000	1.210172	7.37262e+06	-38789.1	1055.82	-29796.2	0.000000	0.000000	7.227215	407.09	NaN	0.000000	0.001632	0.001807	28.0808	86.2489	0.001735	49698	3.744395	172.147	403.09	1.210028	0.078962	0.078818	407.09	49698	0.072819	0.175743	2316.39	108311
773	2.000000	1.220607	7.37262e+06	-38789.1	1055.82	-29796.2	0.000000	0.000000	7.241970	512.237	NaN	0.000000	0.001684	0.001847	28.0817	93.7485	0.001788	52431.8	1.302732	-5.576170	502.084	1.220410	0.089397	0.089201	512.237	52431.8	0.082070	0.216624	2364.63	102924
773	2.000000	1.231206	7.37262e+06	-38789.1	1055.82	-29796.2	0.000000	0.000000	7.257299	627.324	NaN	0.000000	0.001630	0.001757	28.0816	103.085	0.001878	54896	3.738414	171.953	625.483	1.230821	0.099997	0.099611	627.324	54896	0.091426	0.262007	2394.31	97984.5
773	2.000000	1.235092	7.37262e+06	-38789.1	1055.82	-29796.2	0.000000	0.000000	7.262586	661.425	NaN	0.000000	0.001644	0.001810	28.0821	105.514	0.001936	54499.5	4.366537	171.809	655.002	1.234816	0.103883	0.103607	661.425	54499.5	0.094781	0.279258	2368.51	94224.4