File: remote_trans/data/nanoindenter/0828-1/data/Data_2025-08-06,11h17m57s/2025-07-22_16-23-58_1_384.txt
2025-07-22, 16:23:58, 1
Index	Phase	Displacement	Time	Pos X	Pos Y	Pos Z	Rot A	Rot B	Piezo Z	Force A	Force B	Gripper	Voltage A	Voltage B	Temperature	Amplitude force	Amplitude pos	Stiffness	Phase shift	Phase excitation	Force A raw	Displacement raw	HMax	HMax raw	Real Force	Real Stiffness	Contact Depth	Area	Hardness	Reduced Mod.
[#]	[#]	[um]	[s]	[um]	[um]	[um]	[m°]	[m°]	[um]	[uN]	[uN]	[V]	[V]	[V]	[°C]	[uN]	[um]	[N/m]	[°]	[°]	[uN]	[um]	[um]	[um]	[uN]	[N/m]	[um]	[um^2]	[MPa]	[MPa]
384	1.000000	0.002858	7.36882e+06	-57839.1	955.818	-29739.7	0.000000	0.000000	6.002792	-0.026636	NaN	0.000000	0.001570	0.001571	28.0789	0.025176	0.000946	26.6104	-17.0762	-163.425	0.011018	0.001680	-1.322391	-1.323568	-0.026636	26.6104	-1.321640	-4.650652E+17	5.727393E-20	NaN
384	1.000000	0.050813	7.36882e+06	-57839.1	955.819	-29739.7	0.000000	0.000000	6.050745	-0.080512	NaN	0.000000	0.001635	0.001581	28.0788	0.051554	0.001964	26.2523	4.017513	-164.119	0.044795	0.049527	-1.274435	-1.275722	-0.080512	26.2523	-1.272135	-1.013776E+17	7.941815E-19	NaN
384	1.000000	0.098839	7.36882e+06	-57839.1	955.817	-29739.7	0.000000	0.000000	6.098772	-0.043238	NaN	0.000000	0.001623	0.001608	28.08	0.021181	0.002087	10.1513	-107.213	-164.286	0.022557	0.097508	-1.226410	-1.227741	-0.043238	10.1513	-1.223215	-2.246677E+16	1.924537E-18	NaN
384	1.000000	0.146888	7.36882e+06	-57839.1	955.818	-29739.7	0.000000	0.000000	6.146826	0.071746	NaN	0.000000	0.001624	0.001587	28.0798	0.038730	0.001992	19.4382	74.4177	-164.765	0.075624	0.145510	-1.178360	-1.179738	0.071746	19.4382	-1.181129	-6.137508E+15	-1.168984E-17	NaN
384	1.000000	0.194833	7.36882e+06	-57839.1	955.817	-29739.7	0.000000	0.000000	6.194768	-0.024786	NaN	0.000000	0.001633	0.001598	28.0799	0.079572	0.001844	43.1421	112.576	-168.489	-0.016865	0.193549	-1.130415	-1.131699	-0.024786	43.1421	-1.129984	-1.265933E+15	1.957953E-17	NaN
384	1.000000	0.242890	7.36882e+06	-57839.1	955.819	-29739.7	0.000000	0.000000	6.242823	-0.059371	NaN	0.000000	0.001563	0.001638	28.0785	0.054207	0.001938	27.9701	89.804	-166.936	-0.070739	0.241615	-1.082358	-1.083633	-0.059371	27.9701	-1.080766	-2.765755E+14	2.146662E-16	NaN
384	1.000000	0.290895	7.36882e+06	-57839.1	955.818	-29739.7	0.000000	0.000000	6.290830	-0.012351	NaN	0.000000	0.001580	0.001555	28.0788	0.114368	0.002027	56.4141	135.712	-168.681	-0.040576	0.289634	-1.034354	-1.035614	-0.012351	56.4141	-1.034190	-6.543798E+13	1.887496E-16	NaN
384	1.000000	0.338952	7.36882e+06	-57839.1	955.818	-29739.7	0.000000	0.000000	6.338886	-0.030874	NaN	0.000000	0.001531	0.001597	28.0783	0.035888	0.002069	17.3466	-113.987	-165.549	0.002000	0.337632	-0.986297	-0.987617	-0.030874	17.3466	-0.984962	-1.423167E+13	2.169360E-15	NaN
384	1.000000	0.386970	7.36882e+06	-57839.1	955.819	-29739.7	0.000000	0.000000	6.386905	-0.015377	NaN	0.000000	0.001640	0.001563	28.0799	0.048574	0.001988	24.4353	19.6094	-164.506	-0.036743	0.385647	-0.938278	-0.939601	-0.015377	24.4353	-0.937806	-3.292612E+12	4.670162E-15	NaN
384	1.000000	0.434986	7.36882e+06	-57839.1	955.818	-29739.7	0.000000	0.000000	6.434922	0.005874	NaN	0.000000	0.001568	0.001607	28.0803	0.069336	0.002102	32.98	-133.914	-164.267	-0.014435	0.433654	-0.890262	-0.891595	0.005874	32.98	-0.890396	-7.538128E+11	-7.792390E-15	NaN
384	1.000000	0.483014	7.36882e+06	-57839.1	955.818	-29739.7	0.000000	0.000000	6.482950	0.011411	NaN	0.000000	0.001633	0.001630	28.0801	0.039133	0.001983	19.7363	168.866	-164.493	-0.047633	0.481662	-0.842235	-0.843587	0.011411	19.7363	-0.842668	-1.703882E+11	-6.696824E-14	NaN
384	1.000000	0.531024	7.36882e+06	-57839.1	955.817	-29739.7	0.000000	0.000000	6.530958	-0.027797	NaN	0.000000	0.001553	0.001635	28.0788	0.034627	0.002093	16.5456	-144.477	-165.098	-0.004715	0.529706	-0.794225	-0.795542	-0.027797	16.5456	-0.792965	-3.608679E+10	7.702806E-13	NaN
384	1.000000	0.579036	7.36882e+06	-57839.1	955.819	-29739.7	0.000000	0.000000	6.578969	-0.057563	NaN	0.000000	0.001585	0.001602	28.0789	0.057200	0.001963	29.1421	-169.587	-162.083	0.017867	0.577745	-0.746212	-0.747503	-0.057563	29.1421	-0.744731	-7.970503E+9	7.221989E-12	NaN
384	1.000000	0.627042	7.36882e+06	-57839.1	955.818	-29739.7	0.000000	0.000000	6.626977	-0.011224	NaN	0.000000	0.001575	0.001617	28.0798	0.100524	0.002023	49.6839	173.827	-163.049	0.009068	0.625741	-0.698207	-0.699507	-0.011224	49.6839	-0.698037	-1.839616E+9	6.101331E-12	NaN
384	1.000000	0.675078	7.36882e+06	-57839.1	955.818	-29739.7	0.000000	0.000000	6.675014	0.005245	NaN	0.000000	0.001597	0.001689	28.0803	0.032757	0.001944	16.8464	64.3338	-161.914	-0.084734	0.673716	-0.650170	-0.651533	0.005245	16.8464	-0.650403	-4.101738E+8	-1.278824E-11	NaN
384	1.000000	0.723079	7.36882e+06	-57839.1	955.818	-29739.7	0.000000	0.000000	6.723014	-0.013773	NaN	0.000000	0.001586	0.001679	28.0797	0.044872	0.001920	23.3656	20.8707	-164.436	0.002751	0.721774	-0.602169	-0.603475	-0.013773	23.3656	-0.601727	-8.795214E+7	1.565946E-10	NaN
384	1.000000	0.771102	7.36882e+06	-57839.1	955.819	-29739.7	0.000000	0.000000	6.771037	-0.014657	NaN	0.000000	0.001617	0.001688	28.0788	0.102703	0.001961	52.3735	21.1733	-162.412	-0.022674	0.769821	-0.554146	-0.555427	-0.014657	52.3735	-0.553936	-1.925135E+7	7.613392E-10	NaN
384	1.000000	0.819118	7.36882e+06	-57839.1	955.818	-29739.7	0.000000	0.000000	6.819052	-0.032874	NaN	0.000000	0.001604	0.001641	28.0788	0.009231	0.001937	4.764726	74.0935	-167.201	0.050232	0.817787	-0.506131	-0.507462	-0.032874	4.764726	-0.500956	-3.53475e+06	9.300220E-9	NaN
384	1.000000	0.867169	7.36882e+06	-57839.1	955.817	-29739.7	0.000000	0.000000	6.867103	-0.018431	NaN	0.000000	0.001608	0.001679	28.0789	0.142930	0.002052	69.6625	110.54	-166.623	-0.043679	0.865818	-0.458080	-0.459430	-0.018431	69.6625	-0.457882	-881537	2.090767E-8	NaN
384	1.000000	0.915170	7.36882e+06	-57839.1	955.819	-29739.7	0.000000	0.000000	6.915105	-0.001880	NaN	0.000000	0.001615	0.001646	28.08	0.033892	0.002103	16.115	-25.6852	-166.207	0.023770	0.913880	-0.410078	-0.411368	-0.001880	16.115	-0.409991	-185469	1.013633E-8	NaN
384	1.000000	0.963187	7.36882e+06	-57839.1	955.817	-29739.7	0.000000	0.000000	6.963120	-0.055737	NaN	0.000000	0.001617	0.001666	28.0805	0.138184	0.002071	66.7072	-32.7262	-168.733	-0.079038	0.961893	-0.362062	-0.363356	-0.055737	66.7072	-0.361435	-37375	1.491297E-6	NaN
384	1.000000	1.011204	7.36882e+06	-57839.1	955.817	-29739.7	0.000000	0.000000	7.011139	-0.034329	NaN	0.000000	0.001593	0.001672	28.0799	0.078534	0.002048	38.3524	-53.5204	-163.774	0.014868	1.009921	-0.314044	-0.315328	-0.034329	38.3524	-0.313373	-7428.85	4.621097E-6	NaN
384	1.000000	1.059242	7.36882e+06	-57839.1	955.818	-29739.7	0.000000	0.000000	7.059177	-0.014102	NaN	0.000000	0.001576	0.001693	28.0788	0.011072	0.001963	5.641011	-17.4319	-166.896	-0.031348	1.057949	-0.266006	-0.267299	-0.014102	5.641011	-0.264131	-1355.59	1.040279E-5	NaN
384	1.000000	1.107200	7.36882e+06	-57839.1	955.819	-29739.7	0.000000	0.000000	7.107133	-0.058119	NaN	0.000000	0.001613	0.001647	28.0786	0.064658	0.001854	34.8706	36.7427	-164.732	-0.078518	1.105940	-0.218049	-0.219308	-0.058119	34.8706	-0.216798	-246.836	0.000235	NaN
384	1.000000	1.155253	7.36882e+06	-57839.1	955.818	-29739.7	0.000000	0.000000	7.155188	-0.011277	NaN	0.000000	0.001528	0.001678	28.0787	0.040984	0.001986	20.634	104.37	-167.048	0.023954	1.153976	-0.169995	-0.171272	-0.011277	20.634	-0.169585	-40.4027	0.000279	NaN
384	1.000000	1.203282	7.36882e+06	-57839.1	955.82	-29739.7	0.000000	0.000000	7.203215	-0.052789	NaN	0.000000	0.001574	0.001685	28.0835	0.088220	0.002054	42.9605	115.276	-164.039	-0.045208	1.201931	-0.121967	-0.123318	-0.052789	42.9605	-0.121045	-5.071462	0.010409	NaN
384	1.000000	1.251319	7.36882e+06	-57839.1	955.819	-29739.7	0.000000	0.000000	7.251251	-0.089377	NaN	0.000000	0.001589	0.001653	28.0802	0.085044	0.001933	43.9913	101.607	-170.481	-0.079994	1.250007	-0.073930	-0.075242	-0.089377	43.9913	-0.072406	-0.395184	0.226165	NaN
384	1.000000	1.299324	7.36882e+06	-57839.1	955.82	-29739.7	0.000000	0.000000	7.299259	-0.001883	NaN	0.000000	0.001592	0.001696	28.0802	0.053456	0.001968	27.1587	-20.116	-168.78	0.021516	1.298054	-0.025925	-0.027194	-0.001883	27.1587	-0.025873	-0.017784	0.105853	NaN
384	1.000000	1.347374	7.36882e+06	-57839.1	955.818	-29739.7	0.000000	0.000000	7.347659	8.488856	NaN	0.000000	0.001606	0.001636	28.0786	3.076651	0.001994	1542.81	13.4534	-168.681	7.696159	1.346077	0.022125	0.020828	8.488856	1542.81	0.017999	0.019494	435.45	10095.6
384	2.000000	1.360822	7.36882e+06	-57839.1	955.818	-29739.7	0.000000	0.000000	7.361513	18.3432	NaN	0.000000	0.001616	0.001620	28.0791	4.639068	0.001985	2337.24	7.729900	-168.95	18.0035	1.360562	0.035574	0.035314	18.3432	2337.24	0.029688	0.040099	457.45	10663.8
384	2.000000	1.372795	7.36882e+06	-57839.1	955.819	-29739.7	0.000000	0.000000	7.373989	30.5735	NaN	0.000000	0.001619	0.001639	28.0799	6.116441	0.001948	3140.23	7.646555	-171.328	30.3882	1.372526	0.047547	0.047278	30.5735	3140.23	0.040245	0.064662	472.82	11282.6
384	2.000000	1.384799	7.36882e+06	-57839.1	955.819	-29739.7	0.000000	0.000000	7.386637	46.2312	NaN	0.000000	0.001621	0.001636	28.0812	7.147940	0.002022	3535.15	7.308025	-172.713	46.075	1.384494	0.059551	0.059245	46.2312	3535.15	0.049743	0.091619	504.601	10670.6
384	2.000000	1.396750	7.36882e+06	-57839.1	955.819	-29739.7	0.000000	0.000000	7.399319	64.015	NaN	0.000000	0.001594	0.001639	28.08	8.074084	0.001812	4454.67	4.542440	-172.98	63.69	1.396410	0.071501	0.071162	64.015	4454.67	0.060724	0.128416	498.495	11357.4
384	2.000000	1.408784	7.36882e+06	-57839.1	955.819	-29739.7	0.000000	0.000000	7.412141	83.1498	NaN	0.000000	0.001609	0.001541	28.0789	9.282393	0.002066	4492.42	5.895406	-171.988	83.0626	1.408438	0.083536	0.083190	83.1498	4492.42	0.069654	0.162684	511.113	10176.1
384	2.000000	1.420748	7.36882e+06	-57839.1	955.819	-29739.7	0.000000	0.000000	7.424981	104.448	NaN	0.000000	0.001617	0.001574	28.0788	10.5575	0.002018	5232.8	7.480150	-175.006	103.945	1.420398	0.095499	0.095150	104.448	5232.8	0.080529	0.209536	498.472	10444.2
384	2.000000	1.432711	7.36882e+06	-57839.1	955.821	-29739.7	0.000000	0.000000	7.437927	128.346	NaN	0.000000	0.001601	0.001581	28.0789	11.3308	0.001875	6042.94	5.723318	-174.69	127.404	1.432366	0.107462	0.107118	128.346	6042.94	0.091533	0.262550	488.844	10775
384	2.000000	1.444728	7.36882e+06	-57839.1	955.819	-29739.7	0.000000	0.000000	7.450926	152.205	NaN	0.000000	0.001581	0.001625	28.08	12.7679	0.001949	6550.85	4.684386	-173.984	151.952	1.444344	0.119480	0.119096	152.205	6550.85	0.102054	0.318422	477.996	10606.4
384	2.000000	1.448198	7.36882e+06	-57839.1	955.819	-29739.7	0.000000	0.000000	7.454647	158.307	NaN	0.000000	0.001598	0.001594	28.08	12.8645	0.001932	6657.64	3.104313	7.376736	157.317	1.447884	0.122949	0.122635	158.307	6657.64	0.105116	0.335629	471.674	10499.4