File: remote_trans/data/nanoindenter/0828-1/data/Data_2025-08-06,11h17m57s/2025-07-22_16-23-58_1_652.txt
2025-07-22, 16:23:58, 1
Index	Phase	Displacement	Time	Pos X	Pos Y	Pos Z	Rot A	Rot B	Piezo Z	Force A	Force B	Gripper	Voltage A	Voltage B	Temperature	Amplitude force	Amplitude pos	Stiffness	Phase shift	Phase excitation	Force A raw	Displacement raw	HMax	HMax raw	Real Force	Real Stiffness	Contact Depth	Area	Hardness	Reduced Mod.
[#]	[#]	[um]	[s]	[um]	[um]	[um]	[m°]	[m°]	[um]	[uN]	[uN]	[V]	[V]	[V]	[°C]	[uN]	[um]	[N/m]	[°]	[°]	[uN]	[um]	[um]	[um]	[uN]	[N/m]	[um]	[um^2]	[MPa]	[MPa]
652	1.000000	0.002850	7.37143e+06	-44489.1	1005.82	-29775.7	0.000000	0.000000	6.002798	0.048773	NaN	0.000000	0.001603	0.001731	28.0838	0.055955	0.001052	53.1847	112.372	-159.58	0.069073	0.001598	-1.095321	-1.096572	0.048773	53.1847	-1.096008	-4.430791E+14	-1.100767E-16	NaN
652	1.000000	0.044786	7.37143e+06	-44489.1	1005.82	-29775.7	0.000000	0.000000	6.044733	0.011455	NaN	0.000000	0.001592	0.001752	28.0836	0.039873	0.001914	20.8359	-134.784	14.9418	-0.075227	0.043439	-1.053384	-1.054731	0.011455	20.8359	-1.053797	-1.200742E+14	-9.540270E-17	NaN
652	1.000000	0.086825	7.37143e+06	-44489.1	1005.82	-29775.7	0.000000	0.000000	6.086774	0.070407	NaN	0.000000	0.001652	0.001747	28.0836	0.058654	0.002026	28.9475	-160.046	-168.39	0.051880	0.085480	-1.011345	-1.012690	0.070407	28.9475	-1.013170	-3.412249E+13	-2.063350E-15	NaN
652	1.000000	0.128810	7.37143e+06	-44489.1	1005.82	-29775.7	0.000000	0.000000	6.128758	0.023820	NaN	0.000000	0.001639	0.001706	28.0836	0.111647	0.001978	56.436	96.7619	14.616	-0.042480	0.127498	-0.969360	-0.970672	0.023820	56.436	-0.969677	-8.857469E+12	-2.689252E-15	NaN
652	1.000000	0.170827	7.37143e+06	-44489.1	1005.82	-29775.7	0.000000	0.000000	6.170773	-0.027027	NaN	0.000000	0.001629	0.001702	28.0819	0.058128	0.001924	30.2137	-120.655	-165.807	-0.014750	0.169545	-0.927343	-0.928625	-0.027027	30.2137	-0.926672	-2.329584E+12	1.160149E-14	NaN
652	1.000000	0.212891	7.37143e+06	-44489.1	1005.82	-29775.7	0.000000	0.000000	6.212840	0.064668	NaN	0.000000	0.001605	0.001715	28.0821	0.094926	0.001886	50.3186	120.417	13.0892	0.093204	0.211466	-0.885280	-0.886704	0.064668	50.3186	-0.886244	-6.624199E+11	-9.762351E-14	NaN
652	1.000000	0.254879	7.37143e+06	-44489.1	1005.82	-29775.7	0.000000	0.000000	6.254827	0.010880	NaN	0.000000	0.001618	0.001752	28.0823	0.064340	0.001846	34.86	-141.303	-164.291	-0.028146	0.253583	-0.843291	-0.844587	0.010880	34.86	-0.843525	-1.750023E+11	-6.216814E-14	NaN
652	1.000000	0.296917	7.37143e+06	-44489.1	1005.82	-29775.7	0.000000	0.000000	6.296868	0.100456	NaN	0.000000	0.001648	0.001732	28.0838	0.053446	0.002140	24.9794	175.286	13.5601	0.079375	0.295557	-0.801253	-0.802613	0.100456	24.9794	-0.804270	-5.138229E+10	-1.955079E-12	NaN
652	1.000000	0.338941	7.37143e+06	-44489.1	1005.82	-29775.7	0.000000	0.000000	6.338887	-0.001385	NaN	0.000000	0.001658	0.001744	28.0835	0.044934	0.001990	22.5756	7.507570	-167.791	0.030663	0.337636	-0.759229	-0.760534	-0.001385	22.5756	-0.759183	-1.253699E+10	1.104712E-13	NaN
652	1.000000	0.380940	7.37143e+06	-44489.1	1005.82	-29775.7	0.000000	0.000000	6.380887	0.011173	NaN	0.000000	0.001677	0.001683	28.0834	0.026309	0.001884	13.9674	88.2238	12.1876	0.100658	0.379540	-0.717231	-0.718630	0.011173	13.9674	-0.717830	-3.426757E+9	-3.260553E-12	NaN
652	1.000000	0.422936	7.37143e+06	-44489.1	1005.82	-29775.7	0.000000	0.000000	6.422885	0.035973	NaN	0.000000	0.001636	0.001629	28.0824	0.055091	0.001773	31.0661	-65.068	-166.496	0.061691	0.421641	-0.675234	-0.676530	0.035973	31.0661	-0.676102	-9.223423E+8	-3.900193E-11	NaN
652	1.000000	0.464978	7.37143e+06	-44489.1	1005.82	-29775.7	0.000000	0.000000	6.464925	0.016034	NaN	0.000000	0.001645	0.001635	28.0821	0.047339	0.001946	24.3274	-42.1107	15.2779	0.095951	0.463621	-0.633192	-0.634549	0.016034	24.3274	-0.633687	-2.419046E+8	-6.628085E-11	NaN
652	1.000000	0.506990	7.37143e+06	-44489.1	1005.82	-29775.7	0.000000	0.000000	6.506936	-0.014946	NaN	0.000000	0.001668	0.001639	28.0822	0.108600	0.002092	51.9147	167.726	-167.473	-0.033286	0.505678	-0.591180	-0.592492	-0.014946	51.9147	-0.590964	-6.251178E+7	2.390886E-10	NaN
652	1.000000	0.549042	7.37143e+06	-44489.1	1005.82	-29775.7	0.000000	0.000000	6.548987	-0.039598	NaN	0.000000	0.001685	0.001623	28.0833	0.073047	0.001946	37.5308	165.124	13.7278	0.014152	0.547662	-0.549129	-0.550508	-0.039598	37.5308	-0.548337	-1.610362E+7	2.458932E-9	NaN
652	1.000000	0.591037	7.37143e+06	-44489.1	1005.82	-29775.7	0.000000	0.000000	6.590985	0.044811	NaN	0.000000	0.001642	0.001640	28.0834	0.026793	0.002000	13.3991	63.7332	-168.258	0.059052	0.589683	-0.507134	-0.508487	0.044811	13.3991	-0.509642	-4.67118e+06	-9.593040E-9	NaN
652	1.000000	0.633048	7.37143e+06	-44489.1	1005.82	-29775.7	0.000000	0.000000	6.632994	-0.006276	NaN	0.000000	0.001663	0.001655	28.0835	0.048649	0.002000	24.3225	-171.583	15.9054	0.027334	0.631733	-0.465123	-0.466438	-0.006276	24.3225	-0.464929	-1.10726e+06	5.668309E-9	NaN
652	1.000000	0.675065	7.37143e+06	-44489.1	1005.82	-29775.7	0.000000	0.000000	6.675010	-0.019301	NaN	0.000000	0.001672	0.001631	28.0834	0.076673	0.002045	37.4888	107.252	-162.709	0.032800	0.673746	-0.423106	-0.424425	-0.019301	37.4888	-0.422720	-281172	6.864437E-8	NaN
652	1.000000	0.717116	7.37143e+06	-44489.1	1005.82	-29775.7	0.000000	0.000000	6.717065	0.056101	NaN	0.000000	0.001726	0.001640	28.0824	0.079302	0.002062	38.4537	143.526	13.4998	0.072697	0.715678	-0.381055	-0.382492	0.056101	38.4537	-0.382149	-74253.2	-7.555384E-7	NaN
652	1.000000	0.759106	7.37143e+06	-44489.1	1005.82	-29775.7	0.000000	0.000000	6.759052	-0.018845	NaN	0.000000	0.001706	0.001663	28.0824	0.046116	0.002080	22.1728	123.827	-167.788	0.049408	0.757778	-0.339064	-0.340393	-0.018845	22.1728	-0.338427	-17322.6	1.087894E-6	NaN
652	1.000000	0.801140	7.37143e+06	-44489.1	1005.82	-29775.7	0.000000	0.000000	6.801087	-0.004117	NaN	0.000000	0.001669	0.001660	28.0837	0.039984	0.002010	19.8942	105.688	13.7427	-0.004084	0.799735	-0.297030	-0.298435	-0.004117	19.8942	-0.296875	-4227.37	9.737767E-7	NaN
652	1.000000	0.843125	7.37143e+06	-44489.1	1005.82	-29775.7	0.000000	0.000000	6.843070	-0.045171	NaN	0.000000	0.001650	0.001659	28.0836	0.019927	0.001830	10.8914	-71.6148	-166.631	0.027602	0.841799	-0.255045	-0.256371	-0.045171	10.8914	-0.251934	-880.76	5.128604E-5	NaN
652	1.000000	0.885149	7.37143e+06	-44489.1	1005.82	-29775.7	0.000000	0.000000	6.885098	0.041725	NaN	0.000000	0.001654	0.001647	28.0838	0.052603	0.001869	28.1464	178.67	15.9136	0.074357	0.883806	-0.213021	-0.214364	0.041725	28.1464	-0.214133	-223.644	-0.000187	NaN
652	1.000000	0.927185	7.37143e+06	-44489.1	1005.82	-29775.7	0.000000	0.000000	6.927134	0.050408	NaN	0.000000	0.001650	0.001671	28.0838	0.022740	0.001777	12.7936	-49.0855	-167.254	0.097928	0.925889	-0.170985	-0.172281	0.050408	12.7936	-0.173940	-48.0563	-0.001049	NaN
652	1.000000	0.969172	7.37143e+06	-44489.1	1005.82	-29775.7	0.000000	0.000000	6.969119	-0.000472	NaN	0.000000	0.001636	0.001656	28.0827	0.034876	0.002087	16.7096	152.747	14.3983	-0.000547	0.967814	-0.128998	-0.130356	-0.000472	16.7096	-0.128977	-7.279563	6.486950E-5	NaN
652	1.000000	1.011194	7.37143e+06	-44489.1	1005.82	-29775.7	0.000000	0.000000	7.011141	-0.011500	NaN	0.000000	0.001688	0.001667	28.0828	0.039030	0.001949	20.0259	-118.684	-167.023	0.028170	1.009892	-0.086976	-0.088278	-0.011500	20.0259	-0.086545	-0.895150	0.012848	NaN
652	1.000000	1.053203	7.37143e+06	-44489.1	1005.82	-29775.7	0.000000	0.000000	7.053151	0.038700	NaN	0.000000	0.001675	0.001681	28.0827	0.041461	0.002119	19.5658	-31.4304	15.0404	0.018461	1.051850	-0.044967	-0.046320	0.038700	19.5658	-0.046451	-0.071175	-0.543735	NaN
652	1.000000	1.095207	7.37143e+06	-44489.1	1005.82	-29775.7	0.000000	0.000000	7.095167	0.308286	NaN	0.000000	0.001692	0.001676	28.0839	0.411838	0.001970	209.009	4.745494	-165.469	0.133457	1.093920	-0.002963	-0.004250	0.308286	209.009	-0.004069	-0.002824	-109.177	NaN
652	2.000000	1.113225	7.37143e+06	-44489.1	1005.82	-29775.7	0.000000	0.000000	7.114154	23.8919	NaN	0.000000	0.001696	0.001650	28.0837	17.5711	0.001684	10435.3	5.708426	3.337180	22.7633	1.112902	0.015055	0.014732	23.8919	10435.3	0.013338	0.013133	1819.28	83196.3
652	2.000000	1.123648	7.37143e+06	-44489.1	1005.82	-29775.7	0.000000	0.000000	7.125773	52.9942	NaN	0.000000	0.001684	0.001668	28.0839	28.6999	0.001719	16699.9	3.098565	-177.982	51.479	1.123381	0.025478	0.025211	52.9942	16699.9	0.023098	0.027646	1916.87	91763.5
652	2.000000	1.134176	7.37143e+06	-44489.1	1005.82	-29775.7	0.000000	0.000000	7.137883	91.4842	NaN	0.000000	0.001598	0.001620	28.0838	38.7566	0.001837	21098.6	4.169984	-0.192908	89.8573	1.133816	0.036005	0.035646	91.4842	21098.6	0.032753	0.046644	1961.34	89254.7
652	2.000000	1.144638	7.37143e+06	-44489.1	1005.82	-29775.7	0.000000	0.000000	7.150348	140.227	NaN	0.000000	0.001626	0.001648	28.0826	46.9202	0.001687	27808.6	3.131383	178.408	139.215	1.144333	0.046467	0.046163	140.227	27808.6	0.042685	0.071153	1970.79	95248.2
652	2.000000	1.155123	7.37143e+06	-44489.1	1005.82	-29775.7	0.000000	0.000000	7.163046	194.046	NaN	0.000000	0.001684	0.001638	28.0828	57.1598	0.001784	32032.9	6.519410	-6.067890	191.97	1.154724	0.056953	0.056554	194.046	32032.9	0.052410	0.100007	1940.32	92545.4
652	2.000000	1.165683	7.37143e+06	-44489.1	1005.82	-29775.7	0.000000	0.000000	7.175940	250.815	NaN	0.000000	0.001617	0.001640	28.0829	67.9272	0.001744	38958.9	8.287362	171.159	251.781	1.165274	0.067513	0.067104	250.815	38958.9	0.062685	0.135611	1849.52	96656.9
652	2.000000	1.176169	7.37143e+06	-44489.1	1005.82	-29775.7	0.000000	0.000000	7.188959	312.444	NaN	0.000000	0.001610	0.001642	28.0841	76.3698	0.001835	41621.4	2.062372	-3.558866	313.493	1.175863	0.077999	0.077692	312.444	41621.4	0.072369	0.173857	1797.13	91199.8
652	2.000000	1.186580	7.37143e+06	-44489.1	1005.82	-29775.7	0.000000	0.000000	7.202862	397.395	NaN	0.000000	0.001618	0.001652	28.0842	85.9315	0.001781	48242.1	7.302317	170.219	395.825	1.186188	0.088410	0.088018	397.395	48242.1	0.082232	0.217373	1828.17	94535.9
652	2.000000	1.197191	7.37143e+06	-44489.1	1005.82	-29775.7	0.000000	0.000000	7.216401	468.661	NaN	0.000000	0.001609	0.001581	28.0839	94.6337	0.001766	53586.8	6.935665	-9.752597	471.735	1.196557	0.099020	0.098386	468.661	53586.8	0.092461	0.267274	1753.49	94700.7
652	2.000000	1.203483	7.37143e+06	-44489.1	1005.82	-29775.7	0.000000	0.000000	7.225092	526.998	NaN	0.000000	0.001629	0.001581	28.0838	100.224	0.001708	58668.2	7.573865	169.255	520.222	1.203073	0.105313	0.104903	526.998	58668.2	0.098576	0.299394	1760.22	97961.4