File: remote_trans/data/nanoindenter/0828-1/data/Data_2025-08-06,11h17m57s/2025-07-22_16-23-58_1_699.txt
2025-07-22, 16:23:58, 1
Index	Phase	Displacement	Time	Pos X	Pos Y	Pos Z	Rot A	Rot B	Piezo Z	Force A	Force B	Gripper	Voltage A	Voltage B	Temperature	Amplitude force	Amplitude pos	Stiffness	Phase shift	Phase excitation	Force A raw	Displacement raw	HMax	HMax raw	Real Force	Real Stiffness	Contact Depth	Area	Hardness	Reduced Mod.
[#]	[#]	[um]	[s]	[um]	[um]	[um]	[m°]	[m°]	[um]	[uN]	[uN]	[V]	[V]	[V]	[°C]	[uN]	[um]	[N/m]	[°]	[°]	[uN]	[um]	[um]	[um]	[uN]	[N/m]	[um]	[um^2]	[MPa]	[MPa]
699	1.000000	0.002770	7.37189e+06	-42139.1	1005.82	-29783.8	0.000000	0.000000	6.002804	-0.042756	NaN	0.000000	0.001531	0.001808	28.0821	0.047603	0.000900	52.9116	-89.0283	-172.718	-0.017247	0.001507	-1.046661	-1.047924	-0.042756	52.9116	-1.046055	-9.448733E+13	4.525044E-16	NaN
699	1.000000	0.042710	7.37189e+06	-42139.1	1005.82	-29783.8	0.000000	0.000000	6.042746	-0.014291	NaN	0.000000	0.001572	0.001789	28.0825	0.033371	0.001988	16.7842	87.5551	-164.923	0.012917	0.041449	-1.006720	-1.007982	-0.014291	16.7842	-1.006082	-2.739330E+13	5.216798E-16	NaN
699	1.000000	0.082725	7.37189e+06	-42139.1	1005.82	-29783.8	0.000000	0.000000	6.082760	-0.030535	NaN	0.000000	0.001589	0.001737	28.0817	0.101110	0.001957	51.6745	20.595	-165.705	-0.044649	0.081424	-0.966705	-0.968007	-0.030535	51.6745	-0.966262	-7.966850E+12	3.832744E-15	NaN
699	1.000000	0.122761	7.37189e+06	-42139.1	1005.82	-29783.8	0.000000	0.000000	6.122794	-0.060993	NaN	0.000000	0.001539	0.001801	28.0818	0.041506	0.002003	20.7168	-163.82	-163.433	-0.079489	0.121420	-0.926670	-0.928011	-0.060993	20.7168	-0.924462	-2.174928E+12	2.804381E-14	NaN
699	1.000000	0.162754	7.37189e+06	-42139.1	1005.82	-29783.8	0.000000	0.000000	6.162787	-0.067337	NaN	0.000000	0.001545	0.001763	28.0832	0.008785	0.001933	4.545213	5.304007	-167.318	-0.092507	0.161420	-0.886677	-0.888010	-0.067337	4.545213	-0.875565	-4.750421E+11	1.417503E-13	NaN
699	1.000000	0.202789	7.37189e+06	-42139.1	1005.82	-29783.8	0.000000	0.000000	6.202827	0.042052	NaN	0.000000	0.001558	0.001699	28.0831	0.092563	0.001953	47.4035	146.762	-167.502	0.016694	0.201441	-0.846642	-0.847990	0.042052	47.4035	-0.847307	-1.969109E+11	-2.135598E-13	NaN
699	1.000000	0.242816	7.37189e+06	-42139.1	1005.82	-29783.8	0.000000	0.000000	6.242852	-0.005198	NaN	0.000000	0.001580	0.001698	28.0833	0.076954	0.002080	36.9977	-84.8295	-162.844	0.028465	0.241466	-0.806614	-0.807965	-0.005198	36.9977	-0.806509	-5.510652E+10	9.433437E-14	NaN
699	1.000000	0.282834	7.37189e+06	-42139.1	1005.82	-29783.8	0.000000	0.000000	6.282874	0.095845	NaN	0.000000	0.001589	0.001683	28.082	0.103923	0.002086	49.8101	144.618	-165.694	0.100966	0.281532	-0.766597	-0.767898	0.095845	49.8101	-0.768040	-1.654446E+10	-5.793198E-12	NaN
699	1.000000	0.322827	7.37189e+06	-42139.1	1005.82	-29783.8	0.000000	0.000000	6.322863	0.004411	NaN	0.000000	0.001610	0.001681	28.0821	0.043374	0.002146	20.208	-67.3169	-165.728	0.043636	0.321550	-0.726604	-0.727881	0.004411	20.208	-0.726768	-4.536797E+9	-9.723129E-13	NaN
699	1.000000	0.362848	7.37189e+06	-42139.1	1005.82	-29783.8	0.000000	0.000000	6.362883	-0.032364	NaN	0.000000	0.001643	0.001730	28.0822	0.027925	0.001980	14.104	-37.6103	-166.108	-0.078823	0.361524	-0.686582	-0.687907	-0.032364	14.104	-0.684861	-1.215283E+9	2.663125E-11	NaN
699	1.000000	0.402839	7.37189e+06	-42139.1	1005.82	-29783.8	0.000000	0.000000	6.402875	-0.000877	NaN	0.000000	0.001540	0.001725	28.0818	0.024311	0.002008	12.1078	-11.4402	-162.206	0.022563	0.401609	-0.646591	-0.647822	-0.000877	12.1078	-0.646537	-3.630422E+8	2.414610E-12	NaN
699	1.000000	0.442899	7.37189e+06	-42139.1	1005.82	-29783.8	0.000000	0.000000	6.442935	0.017476	NaN	0.000000	0.001488	0.001698	28.0827	0.035754	0.001975	18.1033	-139.263	-166.112	0.016640	0.441536	-0.606532	-0.607894	0.017476	18.1033	-0.607256	-1.047989E+8	-1.667617E-10	NaN
699	1.000000	0.482895	7.37189e+06	-42139.1	1005.82	-29783.8	0.000000	0.000000	6.482930	-0.009314	NaN	0.000000	0.001530	0.001732	28.0827	0.008796	0.001845	4.766929	62.3372	-167.103	0.035164	0.481608	-0.566536	-0.567822	-0.009314	4.766929	-0.565070	-2.744723E+7	3.393590E-10	NaN
699	1.000000	0.522923	7.37189e+06	-42139.1	1005.82	-29783.8	0.000000	0.000000	6.522960	0.023829	NaN	0.000000	0.001542	0.001766	28.0841	0.050119	0.001994	25.1402	-133.111	-167.295	0.033136	0.521595	-0.526507	-0.527836	0.023829	25.1402	-0.527218	-8.20232e+06	-2.905126E-9	NaN
699	1.000000	0.562945	7.37189e+06	-42139.1	1005.82	-29783.8	0.000000	0.000000	6.562982	0.021645	NaN	0.000000	0.001576	0.001737	28.082	0.067922	0.001979	34.3239	133.491	-163.045	-0.055146	0.561630	-0.486485	-0.487801	0.021645	34.3239	-0.486958	-2.25359e+06	-9.604783E-9	NaN
699	1.000000	0.602968	7.37189e+06	-42139.1	1005.82	-29783.8	0.000000	0.000000	6.603004	0.008680	NaN	0.000000	0.001582	0.001702	28.0819	0.073952	0.001992	37.1328	-57.0166	-162.702	0.057534	0.601665	-0.446462	-0.447766	0.008680	37.1328	-0.446638	-612319	-1.417561E-8	NaN
699	1.000000	0.642969	7.37189e+06	-42139.1	1005.82	-29783.8	0.000000	0.000000	6.643005	0.012141	NaN	0.000000	0.001665	0.001730	28.0822	0.066545	0.002073	32.099	162.005	-165.74	-0.004875	0.641672	-0.406462	-0.407758	0.012141	32.099	-0.406746	-166764	-7.280485E-8	NaN
699	1.000000	0.682985	7.37189e+06	-42139.1	1005.82	-29783.8	0.000000	0.000000	6.683019	-0.028962	NaN	0.000000	0.001584	0.001736	28.0834	0.068192	0.001963	34.735	-93.8462	-164.604	-0.028589	0.681701	-0.366446	-0.367730	-0.028962	34.735	-0.365821	-43240.9	6.697807E-7	NaN
699	1.000000	0.723009	7.37189e+06	-42139.1	1005.82	-29783.8	0.000000	0.000000	6.723045	0.001798	NaN	0.000000	0.001594	0.001709	28.0836	0.027336	0.002108	12.9671	-30.912	-165.066	0.074031	0.721659	-0.326422	-0.327771	0.001798	12.9671	-0.326526	-11601.9	-1.549725E-7	NaN
699	1.000000	0.763003	7.37189e+06	-42139.1	1005.82	-29783.8	0.000000	0.000000	6.763043	0.090523	NaN	0.000000	0.001631	0.001716	28.0834	0.066122	0.001924	34.3674	-179.928	-164.703	0.047995	0.761683	-0.286427	-0.287748	0.090523	34.3674	-0.288403	-3157.62	-2.866792E-5	NaN
699	1.000000	0.803052	7.37189e+06	-42139.1	1005.82	-29783.8	0.000000	0.000000	6.803087	-0.017254	NaN	0.000000	0.001607	0.001734	28.083	0.109941	0.002060	53.3741	41.0719	-168.585	0.055534	0.801694	-0.246379	-0.247737	-0.017254	53.3741	-0.246136	-716.306	2.408798E-5	NaN
699	1.000000	0.843012	7.37189e+06	-42139.1	1005.82	-29783.8	0.000000	0.000000	6.843045	-0.075829	NaN	0.000000	0.001578	0.001733	28.0819	0.069294	0.001982	34.9578	-154.379	-165.282	-0.084985	0.841772	-0.206419	-0.207658	-0.075829	34.9578	-0.204792	-157.819	0.000480	NaN
699	1.000000	0.883051	7.37189e+06	-42139.1	1005.82	-29783.8	0.000000	0.000000	6.883088	0.025240	NaN	0.000000	0.001641	0.001745	28.0818	0.056298	0.002014	27.9562	67.3245	-166.746	-0.046945	0.881769	-0.166379	-0.167662	0.025240	27.9562	-0.167056	-36.5034	-0.000691	NaN
699	1.000000	0.923077	7.37189e+06	-42139.1	1005.82	-29783.8	0.000000	0.000000	6.923114	0.021365	NaN	0.000000	0.001614	0.001741	28.0819	0.075540	0.001982	38.1181	-163.722	-165.374	0.025828	0.921757	-0.126354	-0.127674	0.021365	38.1181	-0.126774	-6.591417	-0.003241	NaN
699	1.000000	0.963075	7.37189e+06	-42139.1	1005.82	-29783.8	0.000000	0.000000	6.963116	0.104375	NaN	0.000000	0.001582	0.001701	28.0833	0.082313	0.001951	42.1951	163.41	-165.075	0.064852	0.961757	-0.086355	-0.087674	0.104375	42.1951	-0.088210	-0.980845	-0.106413	NaN
699	1.000000	1.003097	7.37189e+06	-42139.1	1005.82	-29783.8	0.000000	0.000000	7.003130	-0.053754	NaN	0.000000	0.001602	0.001711	28.0835	0.133425	0.002071	64.4227	-12.9264	-164.356	0.022017	1.001759	-0.046334	-0.047672	-0.053754	64.4227	-0.045708	-0.067554	0.795719	NaN
699	1.000000	1.043123	7.37189e+06	-42139.1	1005.82	-29783.8	0.000000	0.000000	7.043160	0.026628	NaN	0.000000	0.001695	0.001746	28.0833	0.174299	0.002100	83.0008	6.219921	-164.827	0.005484	1.041852	-0.006307	-0.007579	0.026628	83.0008	-0.006548	-0.004369	-6.094671	NaN
699	2.000000	1.060679	7.37189e+06	-42139.1	1005.82	-29783.8	0.000000	0.000000	7.061581	21.0752	NaN	0.000000	0.001597	0.001736	28.083	17.356	0.001715	10123	2.454788	-171.657	21.6047	1.060317	0.011248	0.010886	21.0752	10123	0.009687	0.008836	2385.27	98393
699	2.000000	1.070583	7.37189e+06	-42139.1	1005.82	-29783.8	0.000000	0.000000	7.072234	39.2863	NaN	0.000000	0.001623	0.001700	28.0819	27.9508	0.001820	15354	5.102933	-179.771	37.696	1.070394	0.021153	0.020963	39.2863	15354	0.019233	0.021352	1839.93	96000.8
699	2.000000	1.080618	7.37189e+06	-42139.1	1005.82	-29783.8	0.000000	0.000000	7.083633	72.498	NaN	0.000000	0.001650	0.001700	28.0821	36.2	0.001738	20822.7	5.317826	178.022	71.5941	1.080285	0.031187	0.030854	72.498	20822.7	0.028576	0.037844	1915.72	97794
699	2.000000	1.090606	7.37189e+06	-42139.1	1005.82	-29783.8	0.000000	0.000000	7.095653	121.938	NaN	0.000000	0.001601	0.001753	28.0821	47.2277	0.001819	25960.9	3.509579	178.829	121.119	1.090251	0.041175	0.040820	121.938	25960.9	0.037652	0.058102	2098.67	98400
699	2.000000	1.100576	7.37189e+06	-42139.1	1005.82	-29783.8	0.000000	0.000000	7.107585	169.658	NaN	0.000000	0.001608	0.001711	28.0834	56.7413	0.001702	33331.9	1.618351	178.806	168.59	1.100213	0.051145	0.050783	169.658	33331.9	0.047328	0.084333	2011.77	104866
699	2.000000	1.110518	7.37189e+06	-42139.1	1005.82	-29783.8	0.000000	0.000000	7.119502	217.716	NaN	0.000000	0.001609	0.001775	28.0831	65.4832	0.001773	36927.2	1.484008	177.921	215.143	1.110213	0.061087	0.060782	217.716	36927.2	0.056666	0.114123	1907.72	99869.4
699	2.000000	1.120521	7.37189e+06	-42139.1	1005.82	-29783.8	0.000000	0.000000	7.131997	278.364	NaN	0.000000	0.001599	0.001686	28.0831	74.7842	0.001936	38631.8	3.848660	175.582	275.285	1.120238	0.071090	0.070808	278.364	38631.8	0.065686	0.146983	1893.85	92062.8
699	2.000000	1.130441	7.37189e+06	-42139.1	1005.82	-29783.8	0.000000	0.000000	7.144507	341.385	NaN	0.000000	0.001575	0.001725	28.0827	83.7628	0.001727	48497.3	2.896133	174.479	335.931	1.130207	0.081010	0.080776	341.385	48497.3	0.075731	0.188178	1814.16	102142
699	2.000000	1.140479	7.37189e+06	-42139.1	1005.82	-29783.8	0.000000	0.000000	7.157369	410.088	NaN	0.000000	0.001599	0.001709	28.0822	93.3055	0.001875	49773.1	4.137843	173.057	404.727	1.140257	0.091048	0.090826	410.088	49773.1	0.084869	0.229777	1784.72	94867.1
699	2.000000	1.150524	7.37189e+06	-42139.1	1005.82	-29783.8	0.000000	0.000000	7.170729	490.747	NaN	0.000000	0.001564	0.001696	28.0822	102.863	0.001776	57927.9	3.232704	172.711	489.118	1.150319	0.101093	0.100888	490.747	57927.9	0.094739	0.279042	1758.68	100190
699	2.000000	1.151409	7.37189e+06	-42139.1	1005.82	-29783.8	0.000000	0.000000	7.172738	518.094	NaN	0.000000	0.001604	0.001708	28.082	103.971	0.001791	58047.6	8.392412	168.828	513.272	1.150933	0.101979	0.101503	518.094	58047.6	0.095285	0.281893	1837.91	99888.3