File: remote_trans/data/nanoindenter/0828-1/data/Data_2025-08-06,11h17m57s/2025-07-22_16-23-58_1_432.txt
2025-07-22, 16:23:58, 1
Index	Phase	Displacement	Time	Pos X	Pos Y	Pos Z	Rot A	Rot B	Piezo Z	Force A	Force B	Gripper	Voltage A	Voltage B	Temperature	Amplitude force	Amplitude pos	Stiffness	Phase shift	Phase excitation	Force A raw	Displacement raw	HMax	HMax raw	Real Force	Real Stiffness	Contact Depth	Area	Hardness	Reduced Mod.
[#]	[#]	[um]	[s]	[um]	[um]	[um]	[m°]	[m°]	[um]	[uN]	[uN]	[V]	[V]	[V]	[°C]	[uN]	[um]	[N/m]	[°]	[°]	[uN]	[um]	[um]	[um]	[uN]	[N/m]	[um]	[um^2]	[MPa]	[MPa]
432	1.000000	0.002410	7.36928e+06	-55489.1	1005.82	-29741.6	0.000000	0.000000	6.002793	0.022662	NaN	0.000000	0.001587	0.001718	28.0791	0.062428	0.000955	65.379	-139.996	-168.46	0.070270	0.001135	-1.062039	-1.063314	0.022662	65.379	-1.062299	-1.562137E+14	-1.450734E-16	NaN
432	1.000000	0.042360	7.36928e+06	-55489.1	1005.82	-29741.6	0.000000	0.000000	6.042738	-0.082700	NaN	0.000000	0.001615	0.001754	28.0793	0.069455	0.001918	36.2077	-147.563	-167.154	-0.027017	0.041077	-1.022090	-1.023372	-0.082700	36.2077	-1.020377	-4.265984E+13	1.938595E-15	NaN
432	1.000000	0.082364	7.36928e+06	-55489.1	1005.82	-29741.6	0.000000	0.000000	6.082744	-0.036114	NaN	0.000000	0.001584	0.001716	28.0791	0.073596	0.001880	39.1553	-11.6187	-167.763	-0.146411	0.081091	-0.982085	-0.983358	-0.036114	39.1553	-0.981393	-1.274035E+13	2.834619E-15	NaN
432	1.000000	0.122385	7.36928e+06	-55489.1	1005.82	-29741.6	0.000000	0.000000	6.122762	-0.107762	NaN	0.000000	0.001598	0.001701	28.0804	0.052523	0.002049	25.6362	112.116	-167.423	0.000139	0.121158	-0.942064	-0.943291	-0.107762	25.6362	-0.938912	-3.407624E+12	3.162381E-14	NaN
432	1.000000	0.162430	7.36928e+06	-55489.1	1005.82	-29741.6	0.000000	0.000000	6.162808	-0.093092	NaN	0.000000	0.001595	0.001642	28.08	0.045042	0.001957	23.012	-53.8264	-166.342	-0.023469	0.161054	-0.902019	-0.903396	-0.093092	23.012	-0.898985	-9.848173E+11	9.452755E-14	NaN
432	1.000000	0.202419	7.36928e+06	-55489.1	1005.82	-29741.6	0.000000	0.000000	6.202801	-0.003733	NaN	0.000000	0.001589	0.001625	28.08	0.017676	0.001955	9.040933	50.5509	-165.114	0.024248	0.201117	-0.862030	-0.863333	-0.003733	9.040933	-0.861720	-3.086050E+11	1.209604E-14	NaN
432	1.000000	0.242455	7.36928e+06	-55489.1	1005.82	-29741.6	0.000000	0.000000	6.242836	-0.021744	NaN	0.000000	0.001597	0.001622	28.0803	0.095226	0.002124	44.8244	78.5594	-166.385	-0.074240	0.241129	-0.821995	-0.823321	-0.021744	44.8244	-0.821631	-8.837385E+10	2.460431E-13	NaN
432	1.000000	0.282472	7.36928e+06	-55489.1	1005.82	-29741.6	0.000000	0.000000	6.282856	0.050166	NaN	0.000000	0.001601	0.001622	28.0789	0.029284	0.001984	14.7636	21.1489	-165.399	0.068235	0.281114	-0.781977	-0.783336	0.050166	14.7636	-0.784526	-2.771559E+10	-1.810029E-12	NaN
432	1.000000	0.322484	7.36928e+06	-55489.1	1005.82	-29741.6	0.000000	0.000000	6.322863	-0.055909	NaN	0.000000	0.001605	0.001638	28.079	0.063131	0.002061	30.6244	-120.027	-167.048	-0.014222	0.321208	-0.741965	-0.743241	-0.055909	30.6244	-0.740596	-7.001209E+9	7.985672E-12	NaN
432	1.000000	0.362511	7.36928e+06	-55489.1	1005.82	-29741.6	0.000000	0.000000	6.362891	-0.043886	NaN	0.000000	0.001622	0.001640	28.0789	0.058138	0.001895	30.6787	52.6409	-168.571	-0.076744	0.361193	-0.701938	-0.703257	-0.043886	30.6787	-0.700865	-2.010691E+9	2.182617E-11	NaN
432	1.000000	0.402522	7.36928e+06	-55489.1	1005.82	-29741.6	0.000000	0.000000	6.402903	-0.018613	NaN	0.000000	0.001599	0.001678	28.0803	0.121953	0.001984	61.4631	70.061	-166.694	0.005908	0.401180	-0.661928	-0.663269	-0.018613	61.4631	-0.661700	-5.858127E+8	3.177308E-11	NaN
432	1.000000	0.442528	7.36929e+06	-55489.1	1005.82	-29741.6	0.000000	0.000000	6.442912	0.050163	NaN	0.000000	0.001613	0.001672	28.0804	0.024932	0.002005	12.4326	-137.651	-165.777	-0.018399	0.441206	-0.621921	-0.623243	0.050163	12.4326	-0.624947	-1.834930E+8	-2.733777E-10	NaN
432	1.000000	0.482532	7.36929e+06	-55489.1	1005.82	-29741.6	0.000000	0.000000	6.482914	-0.010131	NaN	0.000000	0.001614	0.001663	28.0803	0.095987	0.002067	46.4372	-55.3427	-168.159	0.000954	0.481235	-0.581917	-0.583214	-0.010131	46.4372	-0.581753	-4.665753E+7	2.171451E-10	NaN
432	1.000000	0.522573	7.36929e+06	-55489.1	1005.82	-29741.6	0.000000	0.000000	6.522953	-0.028714	NaN	0.000000	0.001598	0.001678	28.0802	0.078854	0.001933	40.7987	40.0756	-163.076	0.017745	0.521253	-0.541877	-0.543196	-0.028714	40.7987	-0.541349	-1.288429E+7	2.228624E-9	NaN
432	1.000000	0.562578	7.36929e+06	-55489.1	1005.82	-29741.6	0.000000	0.000000	6.562958	-0.049790	NaN	0.000000	0.001600	0.001652	28.079	0.032474	0.002087	15.561	84.2817	-166.844	-0.090776	0.561287	-0.501871	-0.503162	-0.049790	15.561	-0.499472	-3.37012e+06	1.477405E-8	NaN
432	1.000000	0.602577	7.36929e+06	-55489.1	1005.82	-29741.6	0.000000	0.000000	6.602956	-0.054031	NaN	0.000000	0.001636	0.001638	28.0792	0.103766	0.002049	50.64	-172.557	-167.596	-0.003307	0.601265	-0.461873	-0.463184	-0.054031	50.64	-0.461072	-977429	5.527917E-8	NaN
432	1.000000	0.642624	7.36929e+06	-55489.1	1005.82	-29741.6	0.000000	0.000000	6.643003	-0.066150	NaN	0.000000	0.001621	0.001615	28.0789	0.088102	0.001975	44.6049	11.0894	-167.677	0.022986	0.641309	-0.421826	-0.423140	-0.066150	44.6049	-0.420713	-263348	2.511903E-7	NaN
432	1.000000	0.682630	7.36929e+06	-55489.1	1005.82	-29741.6	0.000000	0.000000	6.683014	0.050764	NaN	0.000000	0.001619	0.001668	28.0801	0.019117	0.001968	9.711941	7.488943	-166.894	-0.015888	0.681352	-0.381819	-0.383097	0.050764	9.711941	-0.385740	-83595.4	-6.072559E-7	NaN
432	1.000000	0.722682	7.36929e+06	-55489.1	1005.82	-29741.6	0.000000	0.000000	6.723064	0.000594	NaN	0.000000	0.001579	0.001665	28.0801	0.122404	0.002084	58.7336	-100.227	-167.194	0.016814	0.721339	-0.341767	-0.343111	0.000594	58.7336	-0.341775	-19382.7	-3.062141E-8	NaN
432	1.000000	0.762661	7.36929e+06	-55489.1	1005.82	-29741.6	0.000000	0.000000	6.763041	-0.030782	NaN	0.000000	0.001622	0.001669	28.0802	0.049091	0.001991	24.6559	-45.0129	-167.951	-0.024136	0.761353	-0.301788	-0.303097	-0.030782	24.6559	-0.300852	-4845.26	6.352947E-6	NaN
432	1.000000	0.802655	7.36929e+06	-55489.1	1005.82	-29741.6	0.000000	0.000000	6.803037	0.011404	NaN	0.000000	0.001601	0.001654	28.0795	0.006934	0.002066	3.355373	-147.751	-166.024	-0.062586	0.801357	-0.261794	-0.263093	0.011404	3.355373	-0.264343	-1365.72	-8.349897E-6	NaN
432	1.000000	0.842693	7.36929e+06	-55489.1	1005.82	-29741.6	0.000000	0.000000	6.843077	0.036387	NaN	0.000000	0.001606	0.001660	28.0791	0.050870	0.001970	25.8231	122.004	-164.808	0.084270	0.841379	-0.221756	-0.223071	0.036387	25.8231	-0.222813	-307.998	-0.000118	NaN
432	1.000000	0.882705	7.36929e+06	-55489.1	1005.82	-29741.6	0.000000	0.000000	6.883086	-0.005720	NaN	0.000000	0.001586	0.001637	28.0792	0.036453	0.001987	18.3468	-130.703	-167.895	0.034018	0.881426	-0.181745	-0.183023	-0.005720	18.3468	-0.181511	-64.7345	8.835473E-5	NaN
432	1.000000	0.922758	7.36929e+06	-55489.1	1005.82	-29741.6	0.000000	0.000000	6.923137	-0.065753	NaN	0.000000	0.001616	0.001575	28.0793	0.038883	0.001939	20.0565	-22.9685	-165.941	-0.015190	0.921395	-0.141691	-0.143054	-0.065753	20.0565	-0.139232	-11.4426	0.005746	NaN
432	1.000000	0.962749	7.36929e+06	-55489.1	1005.82	-29741.6	0.000000	0.000000	6.963129	-0.024809	NaN	0.000000	0.001581	0.001594	28.0803	0.028399	0.001965	14.4506	130.109	-168.176	-0.003055	0.961472	-0.101701	-0.102977	-0.024809	14.4506	-0.100413	-1.866046	0.013295	NaN
432	1.000000	1.002784	7.36929e+06	-55489.1	1005.82	-29741.6	0.000000	0.000000	7.003164	-0.033587	NaN	0.000000	0.001577	0.001654	28.0803	0.046594	0.001980	23.5341	42.5544	-164.45	-0.110057	1.001461	-0.061666	-0.062988	-0.033587	23.5341	-0.060595	-0.187302	0.179320	NaN
432	1.000000	1.042799	7.36929e+06	-55489.1	1005.82	-29741.6	0.000000	0.000000	7.043179	-0.033050	NaN	0.000000	0.001608	0.001631	28.0802	0.062018	0.002018	30.7296	-2.028395	-166.332	-0.012789	1.041451	-0.021650	-0.022998	-0.033050	30.7296	-0.020844	-0.013197	2.504387	NaN
432	2.000000	1.075390	7.36929e+06	-55489.1	1005.82	-29741.6	0.000000	0.000000	7.076163	9.504001	NaN	0.000000	0.001605	0.001610	28.0789	10.7662	0.001701	6330.53	7.784785	-173.792	9.560433	1.075052	0.010941	0.010603	9.504001	6330.53	0.009815	0.008977	1058.75	61045.9
432	2.000000	1.085321	7.36929e+06	-55489.1	1005.82	-29741.6	0.000000	0.000000	7.086721	24.7585	NaN	0.000000	0.001667	0.001623	28.0792	19.4296	0.001679	11571.8	4.974857	-175.355	25.1798	1.084976	0.020872	0.020527	24.7585	11571.8	0.019267	0.021404	1156.73	72264.8
432	2.000000	1.095230	7.36929e+06	-55489.1	1005.82	-29741.6	0.000000	0.000000	7.097387	43.1601	NaN	0.000000	0.001642	0.001660	28.079	29.2623	0.001685	17365.3	4.992365	179.232	40.9649	1.094903	0.030780	0.030454	43.1601	17365.3	0.028916	0.038527	1120.24	80829.4
432	2.000000	1.105279	7.36929e+06	-55489.1	1005.82	-29741.6	0.000000	0.000000	7.108460	68.0444	NaN	0.000000	0.001640	0.001597	28.0793	39.1951	0.001837	21339.7	5.201885	177.632	67.3988	1.104972	0.040830	0.040523	68.0444	21339.7	0.038439	0.060056	1133.02	79558.3
432	2.000000	1.115208	7.36929e+06	-55489.1	1005.82	-29741.6	0.000000	0.000000	7.119849	103.548	NaN	0.000000	0.001641	0.001666	28.0804	47.6049	0.001847	25779.2	6.039968	175.327	102.579	1.114938	0.050758	0.050489	103.548	25779.2	0.047746	0.085573	1210.05	80514.5
432	2.000000	1.125221	7.36929e+06	-55489.1	1005.82	-29741.6	0.000000	0.000000	7.131392	140.713	NaN	0.000000	0.001608	0.001599	28.0806	58.0381	0.001721	33727.3	4.025081	174.466	137.947	1.125044	0.060772	0.060595	140.713	33727.3	0.057643	0.117492	1197.64	89898.1
432	2.000000	1.135191	7.36929e+06	-55489.1	1005.82	-29741.6	0.000000	0.000000	7.143922	202.961	NaN	0.000000	0.001626	0.001669	28.0803	67.1023	0.001724	38929.3	2.267894	176.323	200.8	1.134882	0.070741	0.070432	202.961	38929.3	0.066831	0.151437	1340.24	91397.4
432	2.000000	1.145171	7.36929e+06	-55489.1	1005.82	-29741.6	0.000000	0.000000	7.156151	257.645	NaN	0.000000	0.001612	0.001644	28.0793	77.7275	0.001903	40851.4	1.606889	176.252	255.68	1.144962	0.080722	0.080513	257.645	40851.4	0.075991	0.189311	1360.96	85781.2
432	2.000000	1.155149	7.36929e+06	-55489.1	1005.82	-29741.6	0.000000	0.000000	7.169125	330.471	NaN	0.000000	0.001703	0.001636	28.0792	87.9942	0.001873	46985	4.568288	172.53	326.7	1.154970	0.090700	0.090520	330.471	46985	0.085425	0.232431	1421.8	89040
432	2.000000	1.165141	7.36929e+06	-55489.1	1005.82	-29741.6	0.000000	0.000000	7.182345	408.91	NaN	0.000000	0.001741	0.001671	28.0791	96.6205	0.001766	54703.8	7.306803	168.947	406.76	1.164732	0.100692	0.100283	408.91	54703.8	0.095086	0.280853	1455.95	94308.6
432	2.000000	1.171236	7.36929e+06	-55489.1	1005.82	-29741.6	0.000000	0.000000	7.189749	440.737	NaN	0.000000	0.001719	0.001639	28.0789	102.894	0.001795	57317.3	5.293501	170.24	440.141	1.171054	0.106787	0.106604	440.737	57317.3	0.101020	0.312709	1409.42	93645.8