File: remote_trans/data/nanoindenter/0828-1/data/Data_2025-08-06,11h17m57s/2025-07-22_16-23-58_1_312.txt
2025-07-22, 16:23:58, 1
Index	Phase	Displacement	Time	Pos X	Pos Y	Pos Z	Rot A	Rot B	Piezo Z	Force A	Force B	Gripper	Voltage A	Voltage B	Temperature	Amplitude force	Amplitude pos	Stiffness	Phase shift	Phase excitation	Force A raw	Displacement raw	HMax	HMax raw	Real Force	Real Stiffness	Contact Depth	Area	Hardness	Reduced Mod.
[#]	[#]	[um]	[s]	[um]	[um]	[um]	[m°]	[m°]	[um]	[uN]	[uN]	[V]	[V]	[V]	[°C]	[uN]	[um]	[N/m]	[°]	[°]	[uN]	[um]	[um]	[um]	[uN]	[N/m]	[um]	[um^2]	[MPa]	[MPa]
312	1.000000	0.002603	7.36812e+06	-54239.1	955.817	-29744.4	0.000000	0.000000	6.002784	0.007615	NaN	0.000000	0.001640	0.001681	28.0798	0.022745	0.000866	26.2522	16.0632	-162.315	0.037379	0.001371	-1.068857	-1.070089	0.007615	26.2522	-1.069075	-1.926456E+14	-3.952750E-17	NaN
312	1.000000	0.042557	7.36812e+06	-54239.1	955.819	-29744.4	0.000000	0.000000	6.042736	-0.041471	NaN	0.000000	0.001584	0.001698	28.0802	0.037814	0.001909	19.8037	-9.223664	-168.761	-0.049695	0.041280	-1.028903	-1.030180	-0.041471	19.8037	-1.027333	-5.291810E+13	7.836770E-16	NaN
312	1.000000	0.082595	7.36812e+06	-54239.1	955.819	-29744.4	0.000000	0.000000	6.082779	0.095015	NaN	0.000000	0.001584	0.001648	28.0801	0.024880	0.001939	12.8326	64.9371	-164.104	0.048000	0.081215	-0.988865	-0.990245	0.095015	12.8326	-0.994418	-1.908161E+13	-4.979381E-15	NaN
312	1.000000	0.122585	7.36812e+06	-54239.1	955.819	-29744.4	0.000000	0.000000	6.122768	0.072608	NaN	0.000000	0.001553	0.001668	28.0787	0.062913	0.002003	31.4065	122.891	-166.357	0.044714	0.121276	-0.948875	-0.950184	0.072608	31.4065	-0.950609	-4.900545E+12	-1.481639E-14	NaN
312	1.000000	0.162592	7.36812e+06	-54239.1	955.818	-29744.4	0.000000	0.000000	6.162775	0.044911	NaN	0.000000	0.001626	0.001664	28.0788	0.059212	0.002056	28.7973	1.431569	-166.752	0.074131	0.161290	-0.908868	-0.910170	0.044911	28.7973	-0.910037	-1.388891E+12	-3.233602E-14	NaN
312	1.000000	0.202625	7.36812e+06	-54239.1	955.819	-29744.4	0.000000	0.000000	6.202804	-0.025736	NaN	0.000000	0.001558	0.001677	28.0789	0.059743	0.001920	31.1173	130.156	-165.24	-0.008187	0.201285	-0.868835	-0.870175	-0.025736	31.1173	-0.868215	-3.778286E+11	6.811451E-14	NaN
312	1.000000	0.242662	7.36812e+06	-54239.1	955.819	-29744.4	0.000000	0.000000	6.242843	-0.005188	NaN	0.000000	0.001631	0.001651	28.0802	0.079187	0.002085	37.9857	158.571	-165.352	-0.040078	0.241314	-0.828798	-0.830146	-0.005188	37.9857	-0.828695	-1.101796E+11	4.708787E-14	NaN
312	1.000000	0.282679	7.36812e+06	-54239.1	955.818	-29744.4	0.000000	0.000000	6.282856	-0.085057	NaN	0.000000	0.001603	0.001642	28.0798	0.027916	0.002027	13.7726	-103.026	-162.968	-0.031876	0.281395	-0.788781	-0.790065	-0.085057	13.7726	-0.784149	-2.739123E+10	3.105251E-12	NaN
312	1.000000	0.322709	7.36812e+06	-54239.1	955.818	-29744.4	0.000000	0.000000	6.322894	0.111022	NaN	0.000000	0.001611	0.001673	28.0798	0.097292	0.002124	45.81	-173.197	-168.717	0.064275	0.321347	-0.748751	-0.750113	0.111022	45.81	-0.750569	-9.571091E+9	-1.159969E-11	NaN
312	1.000000	0.362725	7.36812e+06	-54239.1	955.818	-29744.4	0.000000	0.000000	6.362906	0.012537	NaN	0.000000	0.001625	0.001601	28.0799	0.109689	0.002078	52.7883	-112.95	-166.705	-0.011209	0.361414	-0.708735	-0.710046	0.012537	52.7883	-0.708913	-2.589502E+9	-4.841556E-12	NaN
312	1.000000	0.402715	7.36812e+06	-54239.1	955.818	-29744.4	0.000000	0.000000	6.402896	0.010856	NaN	0.000000	0.001616	0.001667	28.0788	0.127877	0.002011	63.5779	-171.231	-165.015	-0.025830	0.401371	-0.668745	-0.670089	0.010856	63.5779	-0.668873	-7.344534E+8	-1.478054E-11	NaN
312	1.000000	0.442731	7.36812e+06	-54239.1	955.819	-29744.4	0.000000	0.000000	6.442913	0.017084	NaN	0.000000	0.001617	0.001651	28.0787	0.055479	0.001969	28.1814	150.932	-164.556	0.039473	0.441389	-0.628729	-0.630071	0.017084	28.1814	-0.629183	-2.098023E+8	-8.142947E-11	NaN
312	1.000000	0.482753	7.36812e+06	-54239.1	955.818	-29744.4	0.000000	0.000000	6.482934	-0.002776	NaN	0.000000	0.001609	0.001643	28.0789	0.068949	0.002084	33.0805	119.33	-168.362	-0.024465	0.481449	-0.588707	-0.590011	-0.002776	33.0805	-0.588644	-5.807185E+7	4.781059E-11	NaN
312	1.000000	0.522765	7.36812e+06	-54239.1	955.818	-29744.4	0.000000	0.000000	6.522949	0.056854	NaN	0.000000	0.001628	0.001650	28.0801	0.072623	0.002056	35.3228	-42.9365	-168.676	0.134618	0.521486	-0.548695	-0.549974	0.056854	35.3228	-0.549902	-1.692757E+7	-3.358654E-9	NaN
312	1.000000	0.562804	7.36812e+06	-54239.1	955.818	-29744.4	0.000000	0.000000	6.562988	0.079555	NaN	0.000000	0.001655	0.001653	28.0799	0.057482	0.001982	29.0068	119.459	-166.192	0.095642	0.561474	-0.508656	-0.509986	0.079555	29.0068	-0.510713	-4.83439e+06	-1.645602E-8	NaN
312	1.000000	0.602818	7.36812e+06	-54239.1	955.819	-29744.4	0.000000	0.000000	6.602998	-0.025801	NaN	0.000000	0.001627	0.001663	28.0802	0.068127	0.001917	35.545	131.625	-164.461	-0.039402	0.601489	-0.468642	-0.469971	-0.025801	35.545	-0.468097	-1.22664e+06	2.103418E-8	NaN
312	1.000000	0.642803	7.36812e+06	-54239.1	955.819	-29744.4	0.000000	0.000000	6.642984	-0.009688	NaN	0.000000	0.001623	0.001673	28.0792	0.069032	0.002119	32.5721	15.6282	-164.195	0.012756	0.641490	-0.428657	-0.429970	-0.009688	32.5721	-0.428434	-338763	2.859894E-8	NaN
312	1.000000	0.682843	7.36812e+06	-54239.1	955.818	-29744.4	0.000000	0.000000	6.683024	-0.000116	NaN	0.000000	0.001612	0.001693	28.0793	0.036662	0.001888	19.4196	-6.298043	-167.487	-0.055728	0.681487	-0.388617	-0.389973	-0.000116	19.4196	-0.388612	-91899.8	1.266018E-9	NaN
312	1.000000	0.722829	7.36812e+06	-54239.1	955.819	-29744.4	0.000000	0.000000	6.723011	0.016601	NaN	0.000000	0.001675	0.001635	28.0791	0.048522	0.001936	25.0646	-62.1109	-167.153	0.114421	0.721575	-0.348631	-0.349885	0.016601	25.0646	-0.349128	-24793.5	-6.695521E-7	NaN
312	1.000000	0.762858	7.36812e+06	-54239.1	955.819	-29744.4	0.000000	0.000000	6.763036	-0.066838	NaN	0.000000	0.001670	0.001655	28.0789	0.123587	0.001871	66.0571	-119.86	-168.34	-0.153780	0.761582	-0.308602	-0.309877	-0.066838	66.0571	-0.307843	-6153.45	1.086193E-5	NaN
312	1.000000	0.802900	7.36812e+06	-54239.1	955.818	-29744.4	0.000000	0.000000	6.803082	0.030545	NaN	0.000000	0.001670	0.001698	28.0799	0.096470	0.001987	48.5463	-121.303	-166.009	-0.023843	0.801561	-0.268560	-0.269899	0.030545	48.5463	-0.269032	-1610	-1.897206E-5	NaN
312	1.000000	0.842907	7.36812e+06	-54239.1	955.818	-29744.4	0.000000	0.000000	6.843092	0.086537	NaN	0.000000	0.001675	0.001682	28.08	0.129884	0.001939	66.9888	70.034	-164.085	0.027565	0.841594	-0.228552	-0.229866	0.086537	66.9888	-0.229521	-393.511	-0.000220	NaN
312	1.000000	0.882914	7.36812e+06	-54239.1	955.818	-29744.4	0.000000	0.000000	6.883092	-0.055254	NaN	0.000000	0.001671	0.001677	28.0801	0.069240	0.001925	35.9752	-169.836	-167.685	-0.094553	0.881581	-0.188546	-0.189879	-0.055254	35.9752	-0.187394	-81.3584	0.000679	NaN
312	1.000000	0.922935	7.36812e+06	-54239.1	955.818	-29744.4	0.000000	0.000000	6.923118	0.032467	NaN	0.000000	0.001649	0.001712	28.0789	0.067487	0.001989	33.9377	-9.547415	-163.295	0.074642	0.921626	-0.148524	-0.149834	0.032467	33.9377	-0.149242	-17.5455	-0.001850	NaN
312	1.000000	0.962975	7.36812e+06	-54239.1	955.818	-29744.4	0.000000	0.000000	6.963155	-0.018670	NaN	0.000000	0.001616	0.001702	28.0789	0.134058	0.002112	63.4873	98.3139	-167.249	0.030384	0.961570	-0.108485	-0.109890	-0.018670	63.4873	-0.108264	-2.761358	0.006761	NaN
312	1.000000	1.003003	7.36812e+06	-54239.1	955.819	-29744.4	0.000000	0.000000	7.003184	0.000343	NaN	0.000000	0.001646	0.001713	28.0786	0.043429	0.001990	21.8246	-48.5185	-170.827	-0.005774	1.001705	-0.068457	-0.069755	0.000343	21.8246	-0.068469	-0.310206	-0.001105	NaN
312	1.000000	1.042975	7.36812e+06	-54239.1	955.819	-29744.4	0.000000	0.000000	7.043153	-0.078901	NaN	0.000000	0.001611	0.001678	28.0785	0.007103	0.002087	3.403209	-100.344	-163.605	-0.073891	1.041681	-0.028485	-0.029779	-0.078901	3.403209	-0.011097	-0.007013	11.2503	NaN
312	2.000000	1.082398	7.36812e+06	-54239.1	955.818	-29744.4	0.000000	0.000000	7.082979	9.709005	NaN	0.000000	0.001596	0.001698	28.0797	10.1369	0.001640	6180.29	9.292427	-177.021	8.938139	1.081585	0.010938	0.010125	9.709005	6180.29	0.009760	0.008916	1088.91	59798.4
312	2.000000	1.092495	7.36812e+06	-54239.1	955.819	-29744.4	0.000000	0.000000	7.093677	24.3352	NaN	0.000000	0.001608	0.001691	28.0798	20.3594	0.001678	12134.1	3.690826	-176.472	25.0627	1.092167	0.021035	0.020707	24.3352	12134.1	0.019531	0.021810	1115.78	75067.8
312	2.000000	1.102456	7.36812e+06	-54239.1	955.818	-29744.4	0.000000	0.000000	7.104623	48.2895	NaN	0.000000	0.001684	0.001663	28.0798	31.7449	0.001776	17874.4	7.096841	176.245	48.0948	1.102113	0.030996	0.030653	48.2895	17874.4	0.028970	0.038636	1249.85	83082
312	2.000000	1.112318	7.36812e+06	-54239.1	955.818	-29744.4	0.000000	0.000000	7.115662	76.9036	NaN	0.000000	0.001632	0.001761	28.0789	41.5952	0.001863	22323.2	8.154879	173.33	73.1583	1.112076	0.040858	0.040616	76.9036	22323.2	0.038274	0.059645	1289.36	83511
312	2.000000	1.122391	7.36812e+06	-54239.1	955.819	-29744.4	0.000000	0.000000	7.127218	112.942	NaN	0.000000	0.001643	0.001687	28.0788	50.5602	0.001878	26922	3.436792	176.513	111.548	1.122175	0.050931	0.050715	112.942	26922	0.047785	0.085690	1318.02	84026.2
312	2.000000	1.132343	7.36812e+06	-54239.1	955.82	-29744.4	0.000000	0.000000	7.138883	154.587	NaN	0.000000	0.001641	0.001651	28.0787	60.1069	0.001869	32162.6	8.913724	169.909	152.802	1.132122	0.060883	0.060662	154.587	32162.6	0.057279	0.116231	1330	86191.3
312	2.000000	1.142332	7.36812e+06	-54239.1	955.82	-29744.4	0.000000	0.000000	7.151185	210.827	NaN	0.000000	0.001603	0.001718	28.0786	68.3667	0.001760	38848.5	5.592776	172.281	208.778	1.142065	0.070872	0.070605	210.827	38848.5	0.066802	0.151323	1393.22	91242
312	2.000000	1.152371	7.36812e+06	-54239.1	955.82	-29744.4	0.000000	0.000000	7.163549	267.358	NaN	0.000000	0.001609	0.001652	28.0798	79.1532	0.001820	43502.7	5.461674	170.647	266.256	1.152138	0.080911	0.080678	267.358	43502.7	0.076301	0.190662	1402.26	91024.3
312	2.000000	1.162253	7.36812e+06	-54239.1	955.82	-29744.4	0.000000	0.000000	7.176274	336.47	NaN	0.000000	0.001697	0.001675	28.0801	87.9599	0.001739	50572	0.609220	175.259	330.717	1.161981	0.090793	0.090521	336.47	50572	0.085803	0.234246	1436.4	95465.6
312	2.000000	1.172330	7.36813e+06	-54239.1	955.819	-29744.4	0.000000	0.000000	7.189039	401.808	NaN	0.000000	0.001667	0.001682	28.0801	98.6404	0.001799	54823.5	3.335875	171.566	399.535	1.172047	0.100870	0.100587	401.808	54823.5	0.095373	0.282359	1423.04	94262.6
312	2.000000	1.180837	7.36813e+06	-54239.1	955.819	-29744.4	0.000000	0.000000	7.200185	465.981	NaN	0.000000	0.001707	0.001701	28.079	105.463	0.001840	57326.8	4.084359	-9.116963	463.342	1.180470	0.109377	0.109010	465.981	57326.8	0.103280	0.325263	1432.63	91836.1