File: remote_trans/data/nanoindenter/0828-1/data/Data_2025-08-06,11h17m57s/2025-07-22_16-23-58_1_52.txt
2025-07-22, 16:23:58, 1
Index	Phase	Displacement	Time	Pos X	Pos Y	Pos Z	Rot A	Rot B	Piezo Z	Force A	Force B	Gripper	Voltage A	Voltage B	Temperature	Amplitude force	Amplitude pos	Stiffness	Phase shift	Phase excitation	Force A raw	Displacement raw	HMax	HMax raw	Real Force	Real Stiffness	Contact Depth	Area	Hardness	Reduced Mod.
[#]	[#]	[um]	[s]	[um]	[um]	[um]	[m°]	[m°]	[um]	[uN]	[uN]	[V]	[V]	[V]	[°C]	[uN]	[um]	[N/m]	[°]	[°]	[uN]	[um]	[um]	[um]	[uN]	[N/m]	[um]	[um^2]	[MPa]	[MPa]
52	1.000000	0.002741	7.36555e+06	-41239.1	955.819	-29787.6	0.000000	0.000000	6.002822	0.019630	NaN	0.000000	0.001614	0.001656	28.131	0.137404	0.001050	130.864	-163.062	-161.416	0.005395	0.001460	-1.006073	-1.007353	0.019630	130.864	-1.006186	-2.748148E+13	-7.143082E-16	NaN
52	1.000000	0.040698	7.36555e+06	-41239.1	955.818	-29787.6	0.000000	0.000000	6.040778	-0.016389	NaN	0.000000	0.001632	0.001710	28.0955	0.054580	0.001954	27.9258	145.249	15.7101	-0.038275	0.039341	-0.968116	-0.969473	-0.016389	27.9258	-0.967676	-8.324049E+12	1.968876E-15	NaN
52	1.000000	0.078706	7.36555e+06	-41239.1	955.818	-29787.6	0.000000	0.000000	6.078786	-0.008839	NaN	0.000000	0.001597	0.001684	28.0804	0.034687	0.001956	17.7315	-80.0706	-165.059	-0.052389	0.077397	-0.930108	-0.931417	-0.008839	17.7315	-0.929734	-2.562171E+12	3.449914E-15	NaN
52	1.000000	0.116675	7.36555e+06	-41239.1	955.818	-29787.6	0.000000	0.000000	6.116754	-0.020868	NaN	0.000000	0.001626	0.001689	28.0979	0.056972	0.001889	30.1566	-67.8512	14.3631	-0.041873	0.115402	-0.892139	-0.893412	-0.020868	30.1566	-0.891620	-7.830920E+11	2.664758E-14	NaN
52	1.000000	0.154700	7.36555e+06	-41239.1	955.818	-29787.6	0.000000	0.000000	6.154779	-0.041516	NaN	0.000000	0.001657	0.001708	28.1298	0.081329	0.001942	41.8854	-75.0114	-164.899	0.036228	0.153431	-0.854113	-0.855382	-0.041516	41.8854	-0.853370	-2.378859E+11	1.745197E-13	NaN
52	1.000000	0.192732	7.36555e+06	-41239.1	955.817	-29787.6	0.000000	0.000000	6.192812	-0.001017	NaN	0.000000	0.001661	0.001649	28.0971	0.044799	0.002005	22.3463	-21.9108	16.9491	-0.011475	0.191355	-0.816082	-0.817459	-0.001017	22.3463	-0.816048	-7.423497E+10	1.370546E-14	NaN
52	1.000000	0.230775	7.36555e+06	-41239.1	955.818	-29787.6	0.000000	0.000000	6.230856	0.014717	NaN	0.000000	0.001578	0.001683	28.079	0.046872	0.002038	23.004	29.5519	-163.24	0.015649	0.229446	-0.778039	-0.779368	0.014717	23.004	-0.778518	-2.296662E+10	-6.407948E-13	NaN
52	1.000000	0.268737	7.36555e+06	-41239.1	955.819	-29787.6	0.000000	0.000000	6.268818	0.003389	NaN	0.000000	0.001679	0.001672	28.0978	0.071874	0.001988	36.1627	-66.9458	16.8936	0.002843	0.267379	-0.740076	-0.741434	0.003389	36.1627	-0.740147	-6.903243E+9	-4.909229E-13	NaN
52	1.000000	0.306759	7.36555e+06	-41239.1	955.818	-29787.6	0.000000	0.000000	6.306842	0.063060	NaN	0.000000	0.001665	0.001661	28.1288	0.101725	0.001930	52.7075	171.984	-165.244	0.066871	0.305468	-0.702055	-0.703346	0.063060	52.7075	-0.702952	-2.147054E+9	-2.937070E-11	NaN
52	1.000000	0.344796	7.36555e+06	-41239.1	955.819	-29787.6	0.000000	0.000000	6.344876	-0.017233	NaN	0.000000	0.001680	0.001636	28.0956	0.039398	0.001995	19.7506	173.94	15.9162	0.017842	0.343457	-0.664017	-0.665357	-0.017233	19.7506	-0.663363	-6.173398E+8	2.791507E-11	NaN
52	1.000000	0.382828	7.36556e+06	-41239.1	955.819	-29787.6	0.000000	0.000000	6.382908	0.003033	NaN	0.000000	0.001615	0.001701	28.0791	0.111457	0.002010	55.4414	-0.688913	-165.08	-0.006736	0.381536	-0.625986	-0.627278	0.003033	55.4414	-0.626027	-1.898683E+8	-1.597461E-11	NaN
52	1.000000	0.420878	7.36556e+06	-41239.1	955.818	-29787.6	0.000000	0.000000	6.420960	0.033059	NaN	0.000000	0.001634	0.001710	28.0996	0.125664	0.002114	59.456	-120.575	14.7785	0.066700	0.419464	-0.587936	-0.589350	0.033059	59.456	-0.588353	-5.753829E+7	-5.745584E-10	NaN
52	1.000000	0.458840	7.36556e+06	-41239.1	955.818	-29787.6	0.000000	0.000000	6.458921	-0.000565	NaN	0.000000	0.001595	0.001706	28.1297	0.038485	0.001966	19.5797	120.018	-163.043	0.014670	0.457498	-0.549973	-0.551315	-0.000565	19.5797	-0.549952	-1.695453E+7	3.330474E-11	NaN
52	1.000000	0.496870	7.36556e+06	-41239.1	955.818	-29787.6	0.000000	0.000000	6.496951	0.010316	NaN	0.000000	0.001609	0.001691	28.0936	0.100818	0.001999	50.432	18.9575	16.3781	-0.002313	0.495501	-0.511943	-0.513312	0.010316	50.432	-0.512097	-5.05378e+06	-2.041194E-9	NaN
52	1.000000	0.534903	7.36556e+06	-41239.1	955.819	-29787.6	0.000000	0.000000	6.534983	-0.010500	NaN	0.000000	0.001587	0.001718	28.0781	0.041348	0.001930	21.4245	-97.4965	-164.125	0.000384	0.533561	-0.473910	-0.475252	-0.010500	21.4245	-0.473543	-1.46244e+06	7.179584E-9	NaN
52	1.000000	0.572899	7.36556e+06	-41239.1	955.818	-29787.6	0.000000	0.000000	6.572975	-0.103983	NaN	0.000000	0.001534	0.001668	28.0992	0.080510	0.002093	38.4744	-140.374	13.834	-0.154373	0.571508	-0.435915	-0.437306	-0.103983	38.4744	-0.433888	-404612	2.569951E-7	NaN
52	1.000000	0.610884	7.36556e+06	-41239.1	955.819	-29787.6	0.000000	0.000000	6.610966	0.031792	NaN	0.000000	0.001532	0.001623	28.1284	0.010957	0.002077	5.274872	-136.942	-165.424	-0.000387	0.609554	-0.397930	-0.399259	0.031792	5.274872	-0.402450	-144852	-2.194801E-7	NaN
52	1.000000	0.648923	7.36556e+06	-41239.1	955.818	-29787.6	0.000000	0.000000	6.649004	0.030418	NaN	0.000000	0.001507	0.001650	28.0953	0.029117	0.002080	13.996	-7.380987	15.3248	-0.014365	0.647575	-0.359891	-0.361239	0.030418	13.996	-0.361521	-37482.3	-8.115241E-7	NaN
52	1.000000	0.686935	7.36556e+06	-41239.1	955.819	-29787.6	0.000000	0.000000	6.687015	-0.015690	NaN	0.000000	0.001533	0.001673	28.0794	0.062219	0.002028	30.6749	-129.609	-165.907	-0.089647	0.685629	-0.321879	-0.323184	-0.015690	30.6749	-0.321495	-9786.72	1.603185E-6	NaN
52	1.000000	0.724926	7.36556e+06	-41239.1	955.818	-29787.6	0.000000	0.000000	6.725005	-0.048998	NaN	0.000000	0.001552	0.001697	28.1011	0.045741	0.002069	22.1096	172.569	13.0256	-0.088436	0.723569	-0.283887	-0.285245	-0.048998	22.1096	-0.282225	-2549.83	1.921637E-5	NaN
52	1.000000	0.762962	7.36556e+06	-41239.1	955.817	-29787.6	0.000000	0.000000	6.763043	0.016541	NaN	0.000000	0.001593	0.001660	28.1286	0.079162	0.002118	37.3744	111.124	-167.9	0.021542	0.761622	-0.245852	-0.247192	0.016541	37.3744	-0.246184	-717.527	-2.305214E-5	NaN
52	1.000000	0.800971	7.36556e+06	-41239.1	955.818	-29787.6	0.000000	0.000000	6.801051	-0.014529	NaN	0.000000	0.001574	0.001693	28.0916	0.050728	0.001900	26.7014	7.777117	13.7916	-0.041034	0.799627	-0.207843	-0.209187	-0.014529	26.7014	-0.207435	-174.26	8.337592E-5	NaN
52	1.000000	0.839021	7.36556e+06	-41239.1	955.819	-29787.6	0.000000	0.000000	6.839102	0.001044	NaN	0.000000	0.001547	0.001673	28.0789	0.051399	0.001963	26.1809	-167.549	-168.28	0.073684	0.837688	-0.169792	-0.171125	0.001044	26.1809	-0.169822	-40.7871	-2.559061E-5	NaN
52	1.000000	0.877027	7.36556e+06	-41239.1	955.818	-29787.6	0.000000	0.000000	6.877108	0.010664	NaN	0.000000	0.001609	0.001670	28.0995	0.113098	0.002000	56.5623	-35.739	13.8338	-0.015346	0.875593	-0.131786	-0.133221	0.010664	56.5623	-0.131928	-8.304763	-0.001284	NaN
52	1.000000	0.915040	7.36556e+06	-41239.1	955.818	-29787.6	0.000000	0.000000	6.915116	-0.094549	NaN	0.000000	0.001512	0.001702	28.131	0.050278	0.001879	26.7527	86.2623	-163.659	-0.003991	0.913764	-0.093774	-0.095049	-0.094549	26.7527	-0.091123	-1.148370	0.082333	NaN
52	1.000000	0.953047	7.36556e+06	-41239.1	955.818	-29787.6	0.000000	0.000000	6.953128	0.011424	NaN	0.000000	0.001582	0.001669	28.0931	0.050299	0.002015	24.9645	-69.2871	15.8353	0.017677	0.951706	-0.055767	-0.057107	0.011424	24.9645	-0.056110	-0.138849	-0.082277	NaN
52	1.000000	0.991058	7.36556e+06	-41239.1	955.819	-29787.6	0.000000	0.000000	6.991135	-0.082560	NaN	0.000000	0.001690	0.001644	28.081	0.092820	0.001990	46.6551	-150.659	-164.819	-0.048372	0.989786	-0.017756	-0.019027	-0.082560	46.6551	-0.016429	-0.010149	8.134441	NaN
52	2.000000	1.020224	7.36556e+06	-41239.1	955.819	-29787.6	0.000000	0.000000	7.020789	11.7849	NaN	0.000000	0.001645	0.001673	28.1012	12.2525	0.001832	6689.24	10.7447	3.665801	11.899	1.019859	0.011410	0.011046	11.7849	6689.24	0.010089	0.009281	1269.86	63440.1
52	2.000000	1.029680	7.36556e+06	-41239.1	955.818	-29787.6	0.000000	0.000000	7.030976	29.5732	NaN	0.000000	0.001617	0.001695	28.1289	20.4335	0.001786	11442.6	4.691166	-174.574	29.3393	1.029400	0.020866	0.020586	29.5732	11442.6	0.018928	0.020885	1415.99	72340.3
52	2.000000	1.039143	7.36556e+06	-41239.1	955.818	-29787.6	0.000000	0.000000	7.041386	52.6197	NaN	0.000000	0.001604	0.001678	28.0908	29.2477	0.001648	17745.6	8.714158	-1.788520	53.5206	1.038731	0.030329	0.029917	52.6197	17745.6	0.028105	0.036908	1425.71	84392.8
52	2.000000	1.048570	7.36556e+06	-41239.1	955.819	-29787.6	0.000000	0.000000	7.052036	82.3796	NaN	0.000000	0.001628	0.001662	28.0794	37.44	0.001796	20847.4	4.303218	179.86	80.1375	1.048235	0.039757	0.039422	82.3796	20847.4	0.036793	0.056003	1470.98	80485.6
52	2.000000	1.058034	7.36556e+06	-41239.1	955.818	-29787.6	0.000000	0.000000	7.063082	120.852	NaN	0.000000	0.001628	0.001717	28.1023	46.3278	0.001757	26373.9	4.067067	-1.815346	116.906	1.057728	0.049221	0.048914	120.852	26373.9	0.045784	0.079829	1513.9	85284.1
52	2.000000	1.067613	7.36556e+06	-41239.1	955.818	-29787.6	0.000000	0.000000	7.074730	171.214	NaN	0.000000	0.001604	0.001720	28.1298	56.1172	0.001808	31035	4.282787	177.074	171.72	1.067211	0.058799	0.058397	171.214	31035	0.054661	0.107364	1594.7	86535.8
52	2.000000	1.077040	7.36556e+06	-41239.1	955.819	-29787.6	0.000000	0.000000	7.086469	227.481	NaN	0.000000	0.001568	0.001675	28.0914	65.9355	0.001779	37066.7	6.104387	-6.372240	224.681	1.076636	0.068226	0.067822	227.481	37066.7	0.063623	0.139121	1635.13	90794.7
52	2.000000	1.086568	7.36556e+06	-41239.1	955.819	-29787.6	0.000000	0.000000	7.098149	279.83	NaN	0.000000	0.001713	0.001660	28.0808	75.0884	0.001966	38192.7	6.969034	172.956	279.64	1.086219	0.077755	0.077405	279.83	38192.7	0.072260	0.173401	1613.77	83796.6
52	2.000000	1.096019	7.36556e+06	-41239.1	955.82	-29787.6	0.000000	0.000000	7.110086	340.318	NaN	0.000000	0.001625	0.001663	28.1028	81.3614	0.001748	46549.6	3.517296	-5.302083	337.215	1.095687	0.087206	0.086873	340.318	46549.6	0.081722	0.215015	1582.77	91718.1
52	2.000000	1.105512	7.36556e+06	-41239.1	955.819	-29787.6	0.000000	0.000000	7.122491	411.188	NaN	0.000000	0.001595	0.001718	28.1287	90.391	0.001818	49716.4	6.621272	171.509	410.368	1.105099	0.096698	0.096286	411.188	49716.4	0.090495	0.257311	1598.02	89545.6
52	2.000000	1.114992	7.36556e+06	-41239.1	955.819	-29787.6	0.000000	0.000000	7.134491	472.498	NaN	0.000000	0.001605	0.001669	28.0898	98.0782	0.001711	57317.8	1.990930	-5.745753	467.618	1.114683	0.106178	0.105869	472.498	57317.8	0.099996	0.307095	1538.6	94498.8
52	2.000000	1.115475	7.36556e+06	-41239.1	955.819	-29787.6	0.000000	0.000000	7.135235	478.838	NaN	0.000000	0.001604	0.001662	28.1271	98.5534	0.001774	55540.7	3.610015	173.23	475.678	1.115167	0.106662	0.106353	478.838	55540.7	0.100196	0.308188	1553.72	91406.4