File: remote_trans/data/nanoindenter/0828-1/data/Data_2025-08-06,11h17m57s/2025-07-22_16-23-58_1_1179.txt
2025-07-22, 16:23:58, 1
Index	Phase	Displacement	Time	Pos X	Pos Y	Pos Z	Rot A	Rot B	Piezo Z	Force A	Force B	Gripper	Voltage A	Voltage B	Temperature	Amplitude force	Amplitude pos	Stiffness	Phase shift	Phase excitation	Force A raw	Displacement raw	HMax	HMax raw	Real Force	Real Stiffness	Contact Depth	Area	Hardness	Reduced Mod.
[#]	[#]	[um]	[s]	[um]	[um]	[um]	[m°]	[m°]	[um]	[uN]	[uN]	[V]	[V]	[V]	[°C]	[uN]	[um]	[N/m]	[°]	[°]	[uN]	[um]	[um]	[um]	[uN]	[N/m]	[um]	[um^2]	[MPa]	[MPa]
1179	1.000000	0.002512	7.37658e+06	-56639.1	1105.82	-29738.4	0.000000	0.000000	6.002792	-0.026962	NaN	0.000000	0.001635	0.001652	28.0809	0.059817	0.001053	56.8073	-125.646	-159.852	0.009920	0.001212	-1.039639	-1.040939	-0.026962	56.8073	-1.039283	-7.661655E+13	3.519089E-16	NaN
1179	1.000000	0.042464	7.37658e+06	-56639.1	1105.82	-29738.4	0.000000	0.000000	6.042746	0.024147	NaN	0.000000	0.001682	0.001633	28.0807	0.014874	0.002021	7.357902	-162.831	-162.967	-0.030816	0.041183	-0.999687	-1.000968	0.024147	7.357902	-1.002149	-2.424905E+13	-9.958054E-16	NaN
1179	1.000000	0.082484	7.37658e+06	-56639.1	1105.82	-29738.4	0.000000	0.000000	6.082765	-0.002662	NaN	0.000000	0.001701	0.001616	28.0806	0.058035	0.002091	27.7591	158.818	-166.004	0.081895	0.081154	-0.959667	-0.960997	-0.002662	27.7591	-0.959595	-6.477567E+12	4.109964E-16	NaN
1179	1.000000	0.122506	7.37658e+06	-56639.1	1105.82	-29738.4	0.000000	0.000000	6.122787	-0.008968	NaN	0.000000	0.001594	0.001646	28.0818	0.026679	0.002096	12.7305	-10.1062	-164.876	0.013844	0.121223	-0.919645	-0.920928	-0.008968	12.7305	-0.919116	-1.841940E+12	4.869020E-15	NaN
1179	1.000000	0.162531	7.37658e+06	-56639.1	1105.82	-29738.4	0.000000	0.000000	6.162810	-0.061642	NaN	0.000000	0.001573	0.001652	28.0816	0.053192	0.001872	28.4193	55.3905	-168.962	-0.118564	0.161188	-0.879620	-0.880963	-0.061642	28.4193	-0.877993	-5.123453E+11	1.203130E-13	NaN
1179	1.000000	0.202555	7.37658e+06	-56639.1	1105.82	-29738.4	0.000000	0.000000	6.202832	-0.103590	NaN	0.000000	0.001585	0.001646	28.0814	0.032072	0.002057	15.5929	-157.305	-166.616	-0.165641	0.201289	-0.839596	-0.840862	-0.103590	15.5929	-0.834614	-1.325288E+11	7.816413E-13	NaN
1179	1.000000	0.242522	7.37658e+06	-56639.1	1105.82	-29738.4	0.000000	0.000000	6.242800	-0.069978	NaN	0.000000	0.001650	0.001644	28.0801	0.079316	0.001976	40.1393	145.09	-169.973	-0.073453	0.241175	-0.799629	-0.800976	-0.069978	40.1393	-0.798322	-4.266594E+10	1.640132E-12	NaN
1179	1.000000	0.282541	7.37658e+06	-56639.1	1105.82	-29738.4	0.000000	0.000000	6.282822	-0.010608	NaN	0.000000	0.001634	0.001621	28.08	0.053016	0.001955	27.1122	112.66	-165.972	0.042908	0.281218	-0.759610	-0.760933	-0.010608	27.1122	-0.759316	-1.258936E+10	8.426085E-13	NaN
1179	1.000000	0.322569	7.37658e+06	-56639.1	1105.82	-29738.4	0.000000	0.000000	6.322850	-0.011829	NaN	0.000000	0.001662	0.001656	28.08	0.147413	0.001981	74.3946	-11.3609	-164.525	-0.038750	0.321239	-0.719582	-0.720912	-0.011829	74.3946	-0.719463	-3.606975E+9	3.279522E-12	NaN
1179	1.000000	0.362625	7.37658e+06	-56639.1	1105.82	-29738.4	0.000000	0.000000	6.362908	0.041927	NaN	0.000000	0.001602	0.001635	28.0801	0.051356	0.001961	26.1849	-35.8088	-165.887	0.041942	0.361299	-0.679526	-0.680852	0.041927	26.1849	-0.680727	-1.066950E+9	-3.929611E-11	NaN
1179	1.000000	0.402589	7.37658e+06	-56639.1	1105.82	-29738.4	0.000000	0.000000	6.402870	-0.001914	NaN	0.000000	0.001587	0.001652	28.0818	0.020404	0.001926	10.5927	140.701	-165.009	0.075572	0.401311	-0.639562	-0.640840	-0.001914	10.5927	-0.639426	-2.900129E+8	6.598783E-12	NaN
1179	1.000000	0.442651	7.37658e+06	-56639.1	1105.82	-29738.4	0.000000	0.000000	6.442931	-0.026472	NaN	0.000000	0.001582	0.001642	28.0813	0.107011	0.001944	55.0497	126.544	-165.008	0.061091	0.441285	-0.599500	-0.600866	-0.026472	55.0497	-0.599139	-8.102303E+7	3.267165E-10	NaN
1179	1.000000	0.482646	7.37658e+06	-56639.1	1105.82	-29738.4	0.000000	0.000000	6.482925	-0.055457	NaN	0.000000	0.001606	0.001663	28.0811	0.039477	0.001868	21.1342	86.1262	-162.957	-0.022326	0.481321	-0.559505	-0.560829	-0.055457	21.1342	-0.557537	-2.159264E+7	2.568310E-9	NaN
1179	1.000000	0.522673	7.37658e+06	-56639.1	1105.82	-29738.4	0.000000	0.000000	6.522957	0.067843	NaN	0.000000	0.001599	0.001699	28.0799	0.018272	0.001910	9.567006	99.3347	-166.133	0.021927	0.521327	-0.519478	-0.520824	0.067843	9.567006	-0.524796	-7.59071e+06	-8.937677E-9	NaN
1179	1.000000	0.562660	7.37658e+06	-56639.1	1105.82	-29738.4	0.000000	0.000000	6.562942	0.018666	NaN	0.000000	0.001574	0.001722	28.0799	0.033201	0.002091	15.8744	-162.456	-166.327	0.064274	0.561392	-0.479491	-0.480759	0.018666	15.8744	-0.480373	-1.82285e+06	-1.023994E-8	NaN
1179	1.000000	0.602697	7.37658e+06	-56639.1	1105.82	-29738.4	0.000000	0.000000	6.602978	-0.013180	NaN	0.000000	0.001593	0.001680	28.0799	0.030013	0.002005	14.967	-82.4737	-165.05	0.028068	0.601379	-0.439454	-0.440772	-0.013180	14.967	-0.438793	-474603	2.777155E-8	NaN
1179	1.000000	0.642690	7.37658e+06	-56639.1	1105.82	-29738.4	0.000000	0.000000	6.642970	-0.026817	NaN	0.000000	0.001585	0.001651	28.0813	0.071420	0.002088	34.1969	171.24	-166.137	-0.046493	0.641367	-0.399461	-0.400784	-0.026817	34.1969	-0.398873	-128799	2.082108E-7	NaN
1179	1.000000	0.682726	7.37658e+06	-56639.1	1105.82	-29738.4	0.000000	0.000000	6.683009	0.039503	NaN	0.000000	0.001552	0.001635	28.0812	0.032446	0.002008	16.1593	92.0121	-168.695	-0.004347	0.681438	-0.359425	-0.360713	0.039503	16.1593	-0.361259	-37156.5	-1.063158E-6	NaN
1179	1.000000	0.722761	7.37658e+06	-56639.1	1105.82	-29738.4	0.000000	0.000000	6.723044	0.044109	NaN	0.000000	0.001509	0.001652	28.0812	0.055311	0.002038	27.1352	-102.24	-166.55	0.052207	0.721425	-0.319390	-0.320726	0.044109	27.1352	-0.320609	-9497.29	-4.644425E-6	NaN
1179	1.000000	0.762777	7.37658e+06	-56639.1	1105.82	-29738.4	0.000000	0.000000	6.763057	-0.047796	NaN	0.000000	0.001597	0.001678	28.0814	0.045736	0.001988	23.0049	178.364	-166.562	-0.054676	0.761429	-0.279374	-0.280722	-0.047796	23.0049	-0.277815	-2187.7	2.184752E-5	NaN
1179	1.000000	0.802755	7.37658e+06	-56639.1	1105.82	-29738.4	0.000000	0.000000	6.803035	-0.019825	NaN	0.000000	0.001543	0.001657	28.0801	0.023209	0.002007	11.565	-136.502	-166.479	-0.040982	0.801471	-0.239396	-0.240680	-0.019825	11.565	-0.238111	-537.049	3.691515E-5	NaN
1179	1.000000	0.842836	7.37658e+06	-56639.1	1105.82	-29738.4	0.000000	0.000000	6.843115	-0.059383	NaN	0.000000	0.001551	0.001653	28.0804	0.017052	0.002098	8.128941	-61.6821	-165.475	-0.058932	0.841489	-0.199315	-0.200662	-0.059383	8.128941	-0.193836	-104.209	0.000570	NaN
1179	1.000000	0.882814	7.37658e+06	-56639.1	1105.82	-29738.4	0.000000	0.000000	6.883095	0.008735	NaN	0.000000	0.001600	0.001606	28.0801	0.025699	0.002008	12.7956	-116.518	-166.542	0.012229	0.881492	-0.159337	-0.160659	0.008735	12.7956	-0.159849	-27.2465	-0.000321	NaN
1179	1.000000	0.922843	7.37658e+06	-56639.1	1105.82	-29738.4	0.000000	0.000000	6.923124	-0.010755	NaN	0.000000	0.001585	0.001621	28.0814	0.086877	0.001970	44.1092	64.1166	-167.118	0.011973	0.921484	-0.119308	-0.120667	-0.010755	44.1092	-0.119125	-4.638724	0.002318	NaN
1179	1.000000	0.962806	7.37658e+06	-56639.1	1105.82	-29738.4	0.000000	0.000000	6.963085	-0.066679	NaN	0.000000	0.001571	0.001690	28.0813	0.019362	0.002086	9.280475	-151.039	-167.673	-0.117798	0.961532	-0.079344	-0.080619	-0.066679	9.280475	-0.073956	-0.433921	0.153665	NaN
1179	1.000000	1.002893	7.37658e+06	-56639.1	1105.82	-29738.4	0.000000	0.000000	7.003172	-0.060327	NaN	0.000000	0.001594	0.001688	28.0815	0.022695	0.001876	12.1003	-80.9895	-168.963	0.001204	1.001569	-0.039258	-0.040582	-0.060327	12.1003	-0.035519	-0.033174	1.818488	NaN
1179	1.000000	1.042870	7.37658e+06	-56639.1	1105.82	-29738.4	0.000000	0.000000	7.043258	2.584355	NaN	0.000000	0.001550	0.001669	28.0813	3.564064	0.001831	1946.62	8.552514	-167.573	1.598556	1.041613	0.000719	-0.000538	2.584355	1946.62	-0.000276	-0.000205	-12586.7	NaN
1179	2.000000	1.056440	7.37658e+06	-56639.1	1105.82	-29738.4	0.000000	0.000000	7.057506	19.0886	NaN	0.000000	0.001575	0.001683	28.0802	17.9425	0.001895	9469.75	11.0967	-179.876	18.7008	1.056238	0.014289	0.014087	19.0886	9469.75	0.012777	0.012434	1535.2	77590.1
1179	2.000000	1.066425	7.37659e+06	-56639.1	1105.82	-29738.4	0.000000	0.000000	7.068395	41.0454	NaN	0.000000	0.001590	0.001686	28.0802	27.2505	0.001799	15144.9	6.315421	179.968	41.0589	1.066166	0.024274	0.024015	41.0454	15144.9	0.022241	0.026187	1567.39	85505.7
1179	2.000000	1.076401	7.37659e+06	-56639.1	1105.82	-29738.4	0.000000	0.000000	7.079483	68.0658	NaN	0.000000	0.001655	0.001693	28.0802	36.3845	0.001833	19852.9	5.226502	178.868	66.8572	1.076067	0.034250	0.033916	68.0658	19852.9	0.031679	0.044296	1536.63	86182
1179	2.000000	1.086429	7.37659e+06	-56639.1	1105.82	-29738.4	0.000000	0.000000	7.090936	102.694	NaN	0.000000	0.001635	0.001662	28.0814	45.1342	0.001910	23628.8	7.918507	175.79	103.729	1.086046	0.044278	0.043895	102.694	23628.8	0.041019	0.066687	1539.94	83597.6
1179	2.000000	1.096381	7.37659e+06	-56639.1	1105.82	-29738.4	0.000000	0.000000	7.102268	136.258	NaN	0.000000	0.001595	0.001679	28.0815	54.753	0.001850	29603.9	7.255911	173.815	135.413	1.096070	0.054230	0.053919	136.258	29603.9	0.050777	0.094831	1436.85	87830.6
1179	2.000000	1.106334	7.37659e+06	-56639.1	1105.82	-29738.4	0.000000	0.000000	7.114194	184.216	NaN	0.000000	0.001549	0.001682	28.0818	63.6863	0.001759	36216	0.687893	178.18	181.792	1.106195	0.064183	0.064044	184.216	36216	0.060368	0.127132	1449.01	92799.7
1179	2.000000	1.116400	7.37659e+06	-56639.1	1105.82	-29738.4	0.000000	0.000000	7.126618	241.521	NaN	0.000000	0.001556	0.001663	28.0802	72.1411	0.001690	42699.1	0.101319	177.705	242.703	1.116091	0.074249	0.073940	241.521	42699.1	0.070007	0.164114	1471.66	96298.2
1179	2.000000	1.126416	7.37659e+06	-56639.1	1105.82	-29738.4	0.000000	0.000000	7.139241	304.9	NaN	0.000000	0.001590	0.001647	28.0801	83.0818	0.001888	43996.8	5.247191	172.662	307.935	1.126140	0.084265	0.083989	304.9	43996.8	0.079067	0.202915	1502.6	89235.3
1179	2.000000	1.136238	7.37659e+06	-56639.1	1105.82	-29738.4	0.000000	0.000000	7.152070	377.978	NaN	0.000000	0.001587	0.001662	28.0801	92.5412	0.001916	48299.7	9.229340	168.494	372.508	1.135834	0.094087	0.093683	377.978	48299.7	0.088218	0.245990	1536.56	88973.2
1179	2.000000	1.146251	7.37659e+06	-56639.1	1105.82	-29738.4	0.000000	0.000000	7.164962	447.971	NaN	0.000000	0.001563	0.001651	28.0802	102.379	0.001827	56030.2	5.798899	170.328	445.036	1.146061	0.104100	0.103910	447.971	56030.2	0.098104	0.296852	1509.07	93956