File: remote_trans/data/nanoindenter/0828-1/data/Data_2025-08-06,11h17m57s/2025-07-22_16-23-58_1_1201.txt
2025-07-22, 16:23:58, 1
Index	Phase	Displacement	Time	Pos X	Pos Y	Pos Z	Rot A	Rot B	Piezo Z	Force A	Force B	Gripper	Voltage A	Voltage B	Temperature	Amplitude force	Amplitude pos	Stiffness	Phase shift	Phase excitation	Force A raw	Displacement raw	HMax	HMax raw	Real Force	Real Stiffness	Contact Depth	Area	Hardness	Reduced Mod.
[#]	[#]	[um]	[s]	[um]	[um]	[um]	[m°]	[m°]	[um]	[uN]	[uN]	[V]	[V]	[V]	[°C]	[uN]	[um]	[N/m]	[°]	[°]	[uN]	[um]	[um]	[um]	[uN]	[N/m]	[um]	[um^2]	[MPa]	[MPa]
1201	1.000000	0.002989	7.37679e+06	-55539.1	1105.82	-29741.2	0.000000	0.000000	6.002826	0.049100	NaN	0.000000	0.001525	0.001674	28.0829	0.057127	0.000935	61.1076	-152.67	-173.614	0.043194	0.001728	-1.103645	-1.104907	0.049100	61.1076	-1.104248	-5.715947E+14	-8.589968E-17	NaN
1201	1.000000	0.044915	7.37679e+06	-55539.1	1105.82	-29741.2	0.000000	0.000000	6.044750	-0.014677	NaN	0.000000	0.001521	0.001706	28.0828	0.081154	0.002000	40.5698	-3.007619	13.7467	0.030041	0.043554	-1.061720	-1.063080	-0.014677	40.5698	-1.061448	-1.521545E+14	9.646173E-17	NaN
1201	1.000000	0.086893	7.37679e+06	-55539.1	1105.82	-29741.2	0.000000	0.000000	6.086730	0.046705	NaN	0.000000	0.001493	0.001676	28.0829	0.140925	0.002021	69.7375	121.252	-163.473	-0.035993	0.085648	-1.019742	-1.020987	0.046705	69.7375	-1.020244	-4.248493E+13	-1.099329E-15	NaN
1201	1.000000	0.128939	7.37679e+06	-55539.1	1105.82	-29741.2	0.000000	0.000000	6.128776	0.046773	NaN	0.000000	0.001515	0.001642	28.0827	0.017618	0.002045	8.615982	119.105	11.7672	0.022585	0.127620	-0.977696	-0.979015	0.046773	8.615982	-0.981767	-1.288903E+13	-3.628879E-15	NaN
1201	1.000000	0.170950	7.37679e+06	-55539.1	1105.82	-29741.2	0.000000	0.000000	6.170784	-0.017307	NaN	0.000000	0.001486	0.001687	28.0814	0.005818	0.001966	2.959219	105.954	-167.172	-0.024544	0.169648	-0.935685	-0.936987	-0.017307	2.959219	-0.931298	-2.689798E+12	6.434170E-15	NaN
1201	1.000000	0.212978	7.37679e+06	-55539.1	1105.82	-29741.2	0.000000	0.000000	6.212812	-0.034412	NaN	0.000000	0.001548	0.001676	28.0815	0.085460	0.002112	40.4586	34.8428	15.5739	-0.011526	0.211616	-0.893657	-0.895018	-0.034412	40.4586	-0.893019	-8.179387E+11	4.207113E-14	NaN
1201	1.000000	0.254997	7.37679e+06	-55539.1	1105.82	-29741.2	0.000000	0.000000	6.254831	-0.007318	NaN	0.000000	0.001472	0.001663	28.0815	0.081239	0.001958	41.4989	-166.046	-165.543	-0.023680	0.253683	-0.851638	-0.852952	-0.007318	41.4989	-0.851506	-2.244541E+11	3.260232E-14	NaN
1201	1.000000	0.297019	7.37679e+06	-55539.1	1105.82	-29741.2	0.000000	0.000000	6.296851	-0.072915	NaN	0.000000	0.001516	0.001704	28.0829	0.061549	0.002053	29.9833	71.6224	16.3956	0.000765	0.295656	-0.809616	-0.810978	-0.072915	29.9833	-0.807792	-5.736027E+10	1.271177E-12	NaN
1201	1.000000	0.339013	7.37679e+06	-55539.1	1105.82	-29741.2	0.000000	0.000000	6.338850	0.043339	NaN	0.000000	0.001513	0.001697	28.0829	0.085289	0.002047	41.6703	-134.968	-162.101	0.052016	0.337716	-0.767622	-0.768919	0.043339	41.6703	-0.768402	-1.673292E+10	-2.590043E-12	NaN
1201	1.000000	0.381041	7.37679e+06	-55539.1	1105.82	-29741.2	0.000000	0.000000	6.380878	0.062679	NaN	0.000000	0.001476	0.001707	28.0835	0.093185	0.002138	43.5916	179.941	12.7992	0.035699	0.379724	-0.725594	-0.726911	0.062679	43.5916	-0.726672	-4.523242E+9	-1.385711E-11	NaN
1201	1.000000	0.423077	7.37679e+06	-55539.1	1105.82	-29741.2	0.000000	0.000000	6.422912	-0.003184	NaN	0.000000	0.001552	0.001710	28.0818	0.098978	0.001955	50.6381	-93.3469	-163.092	-0.062722	0.421786	-0.683557	-0.684849	-0.003184	50.6381	-0.683510	-1.164679E+9	2.733971E-12	NaN
1201	1.000000	0.465093	7.37679e+06	-55539.1	1105.82	-29741.2	0.000000	0.000000	6.464926	-0.052405	NaN	0.000000	0.001529	0.001682	28.0816	0.035734	0.002080	17.1796	17.4369	17.0721	-0.043006	0.463733	-0.641542	-0.642902	-0.052405	17.1796	-0.639254	-2.884361E+8	1.816875E-10	NaN
1201	1.000000	0.507126	7.37679e+06	-55539.1	1105.82	-29741.2	0.000000	0.000000	6.506959	-0.050350	NaN	0.000000	0.001556	0.001716	28.0817	0.109765	0.002033	54.0037	-106.03	-164.011	0.006718	0.505805	-0.599508	-0.600830	-0.050350	54.0037	-0.598809	-8.017871E+7	6.279770E-10	NaN
1201	1.000000	0.549140	7.37679e+06	-55539.1	1105.82	-29741.2	0.000000	0.000000	6.548975	0.004686	NaN	0.000000	0.001502	0.001714	28.0828	0.038695	0.001989	19.454	-143.036	18.6876	-0.019028	0.547755	-0.557495	-0.558880	0.004686	19.454	-0.557675	-2.168774E+7	-2.160843E-10	NaN
1201	1.000000	0.591135	7.37679e+06	-55539.1	1105.82	-29741.2	0.000000	0.000000	6.590970	0.006753	NaN	0.000000	0.001563	0.001685	28.0826	0.056696	0.001923	29.4866	-87.5453	-164.355	0.045438	0.589807	-0.515500	-0.516828	0.006753	29.4866	-0.515671	-5.66731e+06	-1.191636E-9	NaN
1201	1.000000	0.633159	7.37679e+06	-55539.1	1105.82	-29741.2	0.000000	0.000000	6.632992	-0.040952	NaN	0.000000	0.001537	0.001716	28.0824	0.104486	0.001982	52.7053	105.872	16.0486	-0.023506	0.631779	-0.473476	-0.474856	-0.040952	52.7053	-0.472893	-1.43209e+06	2.859600E-8	NaN
1201	1.000000	0.675196	7.37679e+06	-55539.1	1105.82	-29741.2	0.000000	0.000000	6.675036	0.095833	NaN	0.000000	0.001567	0.001657	28.0826	0.056536	0.002046	27.6356	-59.8123	-162.249	-0.013088	0.673864	-0.431438	-0.432771	0.095833	27.6356	-0.434039	-406606	-2.356900E-7	NaN
1201	1.000000	0.717181	7.37679e+06	-55539.1	1105.82	-29741.2	0.000000	0.000000	6.717017	0.013557	NaN	0.000000	0.001603	0.001676	28.0816	0.062199	0.001921	32.3835	-10.9817	13.066	-0.020481	0.715826	-0.389454	-0.390809	0.013557	32.3835	-0.389768	-95464.6	-1.420123E-7	NaN
1201	1.000000	0.759196	7.37679e+06	-55539.1	1105.82	-29741.2	0.000000	0.000000	6.759033	0.044711	NaN	0.000000	0.001566	0.001751	28.0815	0.031676	0.001900	16.6685	-16.3521	-166.704	-0.007160	0.757900	-0.347439	-0.348734	0.044711	16.6685	-0.349451	-25062.6	-1.783982E-6	NaN
1201	1.000000	0.801235	7.37679e+06	-55539.1	1105.82	-29741.2	0.000000	0.000000	6.801071	0.031519	NaN	0.000000	0.001596	0.001720	28.0814	0.062507	0.002084	29.9897	40.096	14.8642	-0.040678	0.799813	-0.305400	-0.306821	0.031519	29.9897	-0.306188	-5815.39	-5.419964E-6	NaN
1201	1.000000	0.843257	7.37679e+06	-55539.1	1105.82	-29741.2	0.000000	0.000000	6.843091	-0.028367	NaN	0.000000	0.001536	0.001754	28.0829	0.039485	0.001934	20.4134	-18.821	-164.905	-0.007409	0.842005	-0.263377	-0.264630	-0.028367	20.4134	-0.262335	-1272.53	2.229201E-5	NaN
1201	1.000000	0.885272	7.37679e+06	-55539.1	1105.82	-29741.2	0.000000	0.000000	6.885107	-0.006966	NaN	0.000000	0.001512	0.001778	28.0832	0.014941	0.002059	7.256631	-115.861	13.6913	-0.059450	0.883900	-0.221362	-0.222734	-0.006966	7.256631	-0.220642	-284.405	2.449484E-5	NaN
1201	1.000000	0.927265	7.37679e+06	-55539.1	1105.82	-29741.2	0.000000	0.000000	6.927102	0.045696	NaN	0.000000	0.001589	0.001719	28.0832	0.019515	0.001853	10.5316	-178.588	-164.413	0.136806	0.925945	-0.179370	-0.180690	0.045696	10.5316	-0.182624	-67.6074	-0.000676	NaN
1201	1.000000	0.969298	7.37679e+06	-55539.1	1105.82	-29741.2	0.000000	0.000000	6.969135	0.033376	NaN	0.000000	0.001540	0.001740	28.0819	0.047211	0.002054	22.9807	-91.5997	15.1905	-0.007334	0.967948	-0.137336	-0.138687	0.033376	22.9807	-0.138426	-11.0489	-0.003021	NaN
1201	1.000000	1.011313	7.37679e+06	-55539.1	1105.82	-29741.2	0.000000	0.000000	7.011148	0.010422	NaN	0.000000	0.001559	0.001705	28.082	0.051195	0.001977	25.8909	113.826	-164.595	-0.017166	1.009963	-0.095322	-0.096672	0.010422	25.8909	-0.095624	-1.457492	-0.007150	NaN
1201	1.000000	1.053353	7.37679e+06	-55539.1	1105.82	-29741.2	0.000000	0.000000	7.053187	-0.031343	NaN	0.000000	0.001553	0.001644	28.0821	0.056743	0.001993	28.4672	134.458	14.9792	-0.062293	1.051973	-0.053282	-0.054662	-0.031343	28.4672	-0.052456	-0.108181	0.289731	NaN
1201	1.000000	1.095360	7.37679e+06	-55539.1	1105.82	-29741.2	0.000000	0.000000	7.095196	0.016233	NaN	0.000000	0.001619	0.001640	28.0831	0.077139	0.002079	37.0958	31.4675	-163.811	7.010912E-5	1.094093	-0.011274	-0.012541	0.016233	37.0958	-0.011602	-0.007302	-2.223235	NaN
1201	2.000000	1.119344	7.37679e+06	-55539.1	1105.82	-29741.2	0.000000	0.000000	7.119863	16.6285	NaN	0.000000	0.001605	0.001645	28.0833	15.4238	0.001669	9242.5	5.994332	5.225258	16.3771	1.118932	0.012709	0.012298	16.6285	9242.5	0.011360	0.010732	1549.39	81511.1
1201	2.000000	1.129794	7.37679e+06	-55539.1	1105.82	-29741.2	0.000000	0.000000	7.131159	37.1752	NaN	0.000000	0.001614	0.001709	28.0831	27.0548	0.001844	14671.6	10.2751	178.515	36.9967	1.129433	0.023160	0.022798	37.1752	14671.6	0.021259	0.024560	1513.65	85533.5
1201	2.000000	1.140270	7.37679e+06	-55539.1	1105.82	-29741.2	0.000000	0.000000	7.142765	64.6581	NaN	0.000000	0.001620	0.001657	28.083	36.669	0.001810	20262.1	4.608283	-0.152788	62.6327	1.139960	0.033636	0.033325	64.6581	20262.1	0.031242	0.043358	1491.25	88904.2
1201	2.000000	1.150722	7.37679e+06	-55539.1	1105.82	-29741.2	0.000000	0.000000	7.154816	103.54	NaN	0.000000	0.001556	0.001635	28.0817	44.4621	0.001701	26144	0.784184	-178.693	99.3591	1.150412	0.044087	0.043778	103.54	26144	0.041117	0.066946	1546.61	92317.1
1201	2.000000	1.161229	7.37679e+06	-55539.1	1105.82	-29741.2	0.000000	0.000000	7.167161	148.218	NaN	0.000000	0.001612	0.001697	28.0818	56.2992	0.001737	32416.2	2.624124	-2.051911	145.976	1.160946	0.054594	0.054311	148.218	32416.2	0.051165	0.096048	1543.17	95563.5
1201	2.000000	1.171744	7.37679e+06	-55539.1	1105.82	-29741.2	0.000000	0.000000	7.180084	206.735	NaN	0.000000	0.001555	0.001665	28.0818	66.4081	0.001774	37434.3	2.850172	176.877	204.114	1.171459	0.065109	0.064824	206.735	37434.3	0.060967	0.129299	1598.88	95114
1201	2.000000	1.182225	7.37679e+06	-55539.1	1105.82	-29741.2	0.000000	0.000000	7.193149	269.541	NaN	0.000000	0.001606	0.001682	28.083	79.1648	0.001799	44010.9	8.074863	-9.871781	268.425	1.181937	0.075590	0.075302	269.541	44010.9	0.070997	0.168167	1602.81	98053.3
1201	2.000000	1.192614	7.37679e+06	-55539.1	1105.82	-29741.2	0.000000	0.000000	7.206107	331.989	NaN	0.000000	0.001561	0.001654	28.0832	87.5497	0.001815	48238.9	3.319782	174.268	324.567	1.192352	0.085980	0.085718	331.989	48238.9	0.080818	0.210857	1574.47	95979.1
1201	2.000000	1.203139	7.37679e+06	-55539.1	1105.82	-29741.2	0.000000	0.000000	7.219634	404.97	NaN	0.000000	0.001538	0.001654	28.083	96.606	0.001749	55232.7	2.642822	-5.911088	398.449	1.202904	0.096504	0.096269	404.97	55232.7	0.091005	0.259880	1558.3	98988.1
1201	2.000000	1.211641	7.37679e+06	-55539.1	1105.82	-29741.2	0.000000	0.000000	7.231263	480.975	NaN	0.000000	0.001557	0.001716	28.0822	105.507	0.001773	59515.8	4.354009	172.774	475.837	1.211185	0.105006	0.104550	480.975	59515.8	0.098945	0.301389	1595.86	99047