File: remote_trans/data/nanoindenter/0828-1/data/Data_2025-08-06,11h17m57s/2025-07-22_16-23-58_1_447.txt
2025-07-22, 16:23:58, 1
Index	Phase	Displacement	Time	Pos X	Pos Y	Pos Z	Rot A	Rot B	Piezo Z	Force A	Force B	Gripper	Voltage A	Voltage B	Temperature	Amplitude force	Amplitude pos	Stiffness	Phase shift	Phase excitation	Force A raw	Displacement raw	HMax	HMax raw	Real Force	Real Stiffness	Contact Depth	Area	Hardness	Reduced Mod.
[#]	[#]	[um]	[s]	[um]	[um]	[um]	[m°]	[m°]	[um]	[uN]	[uN]	[V]	[V]	[V]	[°C]	[uN]	[um]	[N/m]	[°]	[°]	[uN]	[um]	[um]	[um]	[uN]	[N/m]	[um]	[um^2]	[MPa]	[MPa]
447	1.000000	0.002421	7.36943e+06	-54739.1	1005.82	-29743.1	0.000000	0.000000	6.002791	-0.010559	NaN	0.000000	0.001542	0.001769	28.0802	0.106357	0.000984	108.087	22.4938	-161.484	-0.051385	0.001195	-1.031057	-1.032284	-0.010559	108.087	-1.030983	-5.925274E+13	1.782025E-16	NaN
447	1.000000	0.042396	7.36943e+06	-54739.1	1005.82	-29743.1	0.000000	0.000000	6.042767	-0.001020	NaN	0.000000	0.001533	0.001729	28.0802	0.104924	0.001919	54.6819	0.852374	-168.728	0.007504	0.041078	-0.991082	-0.992400	-0.001020	54.6819	-0.991068	-1.719862E+13	5.932801E-17	NaN
447	1.000000	0.082394	7.36943e+06	-54739.1	1005.82	-29743.1	0.000000	0.000000	6.082765	0.010878	NaN	0.000000	0.001553	0.001706	28.079	0.142664	0.002058	69.3134	132.374	-164.39	-0.016043	0.081046	-0.951084	-0.952432	0.010878	69.3134	-0.951201	-4.991486E+12	-2.179240E-15	NaN
447	1.000000	0.122396	7.36943e+06	-54739.1	1005.82	-29743.1	0.000000	0.000000	6.122768	0.047009	NaN	0.000000	0.001561	0.001750	28.0788	0.066410	0.001944	34.1624	-89.0481	-162.462	0.042653	0.121087	-0.911082	-0.912391	0.047009	34.1624	-0.912114	-1.481559E+12	-3.172916E-14	NaN
447	1.000000	0.162409	7.36943e+06	-54739.1	1005.82	-29743.1	0.000000	0.000000	6.162780	0.007488	NaN	0.000000	0.001550	0.001736	28.0784	0.084763	0.001872	45.2889	115.309	-164.599	-0.003748	0.161106	-0.871069	-0.872372	0.007488	45.2889	-0.871193	-4.145593E+11	-1.806175E-14	NaN
447	1.000000	0.202446	7.36943e+06	-54739.1	1005.82	-29743.1	0.000000	0.000000	6.202819	0.048439	NaN	0.000000	0.001562	0.001740	28.0797	0.062402	0.001993	31.3132	130.676	-167.028	0.007101	0.201108	-0.831032	-0.832370	0.048439	31.3132	-0.832192	-1.228841E+11	-3.941879E-13	NaN
447	1.000000	0.242488	7.36943e+06	-54739.1	1005.82	-29743.1	0.000000	0.000000	6.242857	-0.031983	NaN	0.000000	0.001611	0.001765	28.0797	0.101013	0.002023	49.9402	40.676	-163.532	-0.000231	0.241159	-0.790991	-0.792319	-0.031983	49.9402	-0.790510	-3.342049E+10	9.569893E-13	NaN
447	1.000000	0.282472	7.36943e+06	-54739.1	1005.82	-29743.1	0.000000	0.000000	6.282842	-0.001735	NaN	0.000000	0.001622	0.001712	28.0797	0.060667	0.001953	31.0665	155.78	-162.598	-0.063783	0.281113	-0.751006	-0.752365	-0.001735	31.0665	-0.750964	-9.690529E+9	1.790025E-13	NaN
447	1.000000	0.322490	7.36943e+06	-54739.1	1005.82	-29743.1	0.000000	0.000000	6.322861	-0.002394	NaN	0.000000	0.001619	0.001742	28.0796	0.146510	0.002012	72.8025	-75.7277	-163.171	0.058078	0.321177	-0.710988	-0.712301	-0.002394	72.8025	-0.710963	-2.761805E+9	8.668585E-13	NaN
447	1.000000	0.362498	7.36943e+06	-54739.1	1005.82	-29743.1	0.000000	0.000000	6.362872	0.074393	NaN	0.000000	0.001547	0.001772	28.0786	0.075584	0.001969	38.3934	-171.977	-167.199	0.041283	0.361226	-0.670980	-0.672252	0.074393	38.3934	-0.672433	-8.216490E+8	-9.054090E-11	NaN
447	1.000000	0.402521	7.36943e+06	-54739.1	1005.82	-29743.1	0.000000	0.000000	6.402894	0.054899	NaN	0.000000	0.001588	0.001755	28.0787	0.042687	0.002048	20.8426	-45.3245	-165.349	-0.018832	0.401187	-0.630957	-0.632291	0.054899	20.8426	-0.632933	-2.362056E+8	-2.324216E-10	NaN
447	1.000000	0.442539	7.36943e+06	-54739.1	1005.82	-29743.1	0.000000	0.000000	6.442909	-0.020109	NaN	0.000000	0.001640	0.001803	28.0785	0.082420	0.002094	39.3598	120.022	-163.597	0.003987	0.441230	-0.590939	-0.592248	-0.020109	39.3598	-0.590556	-6.170621E+7	3.258842E-10	NaN
447	1.000000	0.482550	7.36943e+06	-54739.1	1005.82	-29743.1	0.000000	0.000000	6.482922	0.041029	NaN	0.000000	0.001638	0.001734	28.0796	0.083961	0.002001	41.962	27.8742	-164.672	-0.001589	0.481273	-0.550929	-0.552205	0.041029	41.962	-0.551662	-1.790494E+7	-2.291516E-9	NaN
447	1.000000	0.522605	7.36943e+06	-54739.1	1005.82	-29743.1	0.000000	0.000000	6.522969	-0.148723	NaN	0.000000	0.001620	0.001715	28.0797	0.054706	0.001996	27.4121	-77.544	-166.315	-0.120103	0.521293	-0.510874	-0.512185	-0.148723	27.4121	-0.506804	-4.26475e+06	3.487268E-8	NaN
447	1.000000	0.562580	7.36943e+06	-54739.1	1005.82	-29743.1	0.000000	0.000000	6.562948	-0.039175	NaN	0.000000	0.001576	0.001757	28.0795	0.136982	0.002002	68.416	-127.355	-167.505	0.038496	0.561299	-0.470899	-0.472179	-0.039175	68.416	-0.470469	-1.3243e+06	2.958176E-8	NaN
447	1.000000	0.602618	7.36943e+06	-54739.1	1005.82	-29743.1	0.000000	0.000000	6.602986	-0.058161	NaN	0.000000	0.001573	0.001735	28.0783	0.070685	0.002039	34.6724	-36.4397	-165.413	-0.092878	0.601292	-0.430860	-0.432186	-0.058161	34.6724	-0.429602	-351907	1.652745E-7	NaN
447	1.000000	0.642607	7.36943e+06	-54739.1	1005.82	-29743.1	0.000000	0.000000	6.642979	0.038631	NaN	0.000000	0.001551	0.001764	28.0782	0.050286	0.002079	24.1881	-139.786	-163.852	0.044496	0.641381	-0.390871	-0.392097	0.038631	24.1881	-0.392069	-102980	-3.751280E-7	NaN
447	1.000000	0.682658	7.36943e+06	-54739.1	1005.82	-29743.1	0.000000	0.000000	6.683029	0.013332	NaN	0.000000	0.001556	0.001720	28.0784	0.029579	0.001968	15.0271	112.798	-164.906	-0.034779	0.681347	-0.350820	-0.352131	0.013332	15.0271	-0.351485	-26825.7	-4.969986E-7	NaN
447	1.000000	0.722670	7.36943e+06	-54739.1	1005.82	-29743.1	0.000000	0.000000	6.723040	0.002672	NaN	0.000000	0.001573	0.001747	28.0782	0.064378	0.001989	32.3609	-2.031887	-166.231	0.040252	0.721347	-0.310808	-0.312131	0.002672	32.3609	-0.310870	-6822.34	-3.917033E-7	NaN
447	1.000000	0.762680	7.36943e+06	-54739.1	1005.82	-29743.1	0.000000	0.000000	6.763052	0.033785	NaN	0.000000	0.001554	0.001767	28.0797	0.018476	0.002036	9.076703	-69.0655	-163.961	0.101886	0.761387	-0.270798	-0.272091	0.033785	9.076703	-0.273590	-1888.16	-1.789329E-5	NaN
447	1.000000	0.802694	7.36943e+06	-54739.1	1005.82	-29743.1	0.000000	0.000000	6.803068	0.074861	NaN	0.000000	0.001541	0.001718	28.0797	0.071088	0.001966	36.157	129.174	-163.678	0.086337	0.801380	-0.230784	-0.232098	0.074861	36.157	-0.232337	-435.879	-0.000172	NaN
447	1.000000	0.842708	7.36943e+06	-54739.1	1005.82	-29743.1	0.000000	0.000000	6.843078	-0.026776	NaN	0.000000	0.001584	0.001721	28.0798	0.010922	0.002055	5.314463	179.869	-167.464	0.028512	0.841391	-0.190770	-0.192087	-0.026776	5.314463	-0.186991	-80.1001	0.000334	NaN
447	1.000000	0.882730	7.36943e+06	-54739.1	1005.82	-29743.1	0.000000	0.000000	6.883102	0.019866	NaN	0.000000	0.001558	0.001708	28.0783	0.041113	0.001940	21.1939	-90.7953	-167.616	0.004742	0.881422	-0.150748	-0.152056	0.019866	21.1939	-0.151451	-19.2492	-0.001032	NaN
447	1.000000	0.922732	7.36943e+06	-54739.1	1005.82	-29743.1	0.000000	0.000000	6.923104	0.042100	NaN	0.000000	0.001577	0.001740	28.0786	0.042019	0.001990	21.1189	-85.7512	-163.87	0.030000	0.921455	-0.110746	-0.112023	0.042100	21.1189	-0.112241	-3.348745	-0.012572	NaN
447	1.000000	0.962778	7.36943e+06	-54739.1	1005.82	-29743.1	0.000000	0.000000	6.963147	-0.040787	NaN	0.000000	0.001572	0.001739	28.0784	0.100688	0.002014	49.99	-15.0397	-162.889	-0.006688	0.961430	-0.070700	-0.072048	-0.040787	49.99	-0.070088	-0.342973	0.118921	NaN
447	1.000000	1.002793	7.36944e+06	-54739.1	1005.82	-29743.1	0.000000	0.000000	7.003162	-0.018662	NaN	0.000000	0.001591	0.001692	28.0782	0.136322	0.002065	66.0019	-89.7685	-163.347	-0.026130	1.001453	-0.030685	-0.032025	-0.018662	66.0019	-0.030473	-0.023725	0.786610	NaN
447	1.000000	1.042736	7.36944e+06	-54739.1	1005.82	-29743.1	0.000000	0.000000	7.043330	5.445458	NaN	0.000000	0.001599	0.001738	28.0792	5.994529	0.001794	3341.39	16.9469	-173.38	4.282422	1.041442	0.009258	0.007963	5.445458	3341.39	0.008035	0.007079	769.275	36284.7
447	2.000000	1.055273	7.36944e+06	-54739.1	1005.82	-29743.1	0.000000	0.000000	7.056651	24.4871	NaN	0.000000	0.001577	0.001757	28.0794	19.8196	0.001778	11147.3	6.073843	-177.8	24.6773	1.055003	0.021795	0.021524	24.4871	11147.3	0.020147	0.022774	1075.22	67487.4
447	2.000000	1.065264	7.36944e+06	-54739.1	1005.82	-29743.1	0.000000	0.000000	7.067513	45.6864	NaN	0.000000	0.001578	0.001751	28.0792	30.6766	0.001956	15687.2	10.3242	175.624	46.4942	1.064922	0.031785	0.031444	45.6864	15687.2	0.029601	0.039921	1144.41	71732.9
447	2.000000	1.075187	7.36944e+06	-54739.1	1005.82	-29743.1	0.000000	0.000000	7.078930	81.9673	NaN	0.000000	0.001565	0.001762	28.0782	39.7241	0.001918	20708.7	4.671336	178.037	80.7623	1.074928	0.041709	0.041450	81.9673	20708.7	0.038741	0.060814	1347.83	76722.8
447	2.000000	1.085211	7.36944e+06	-54739.1	1005.82	-29743.1	0.000000	0.000000	7.090809	127.089	NaN	0.000000	0.001588	0.001730	28.0781	48.5493	0.001943	24981.7	4.421867	176.718	125.949	1.084912	0.051733	0.051434	127.089	24981.7	0.047917	0.086084	1476.33	77791.6
447	2.000000	1.095146	7.36944e+06	-54739.1	1005.82	-29743.1	0.000000	0.000000	7.102542	170.792	NaN	0.000000	0.001584	0.001757	28.078	56.8315	0.001860	30560.7	1.186627	178.048	169.295	1.094961	0.061667	0.061483	170.792	30560.7	0.057476	0.116913	1460.85	81659.1
447	2.000000	1.105165	7.36944e+06	-54739.1	1005.82	-29743.1	0.000000	0.000000	7.114962	229.157	NaN	0.000000	0.001604	0.001739	28.0791	64.9633	0.001781	36483.8	2.458298	175.514	227.617	1.104877	0.071687	0.071399	229.157	36483.8	0.066976	0.152004	1507.57	85495.9
447	2.000000	1.115104	7.36944e+06	-54739.1	1005.82	-29743.1	0.000000	0.000000	7.127393	289.745	NaN	0.000000	0.001553	0.001782	28.0794	74.3537	0.001873	39694.9	2.936231	174.206	284.952	1.114835	0.081626	0.081356	289.745	39694.9	0.076152	0.190008	1524.91	83199.7
447	2.000000	1.125166	7.36944e+06	-54739.1	1005.82	-29743.1	0.000000	0.000000	7.140421	361.862	NaN	0.000000	0.001580	0.001699	28.0795	84.8463	0.001856	45711.7	6.796049	169.165	361.539	1.124808	0.091687	0.091330	361.862	45711.7	0.085750	0.233994	1546.46	86337.3
447	2.000000	1.135123	7.36944e+06	-54739.1	1005.82	-29743.1	0.000000	0.000000	7.153457	436.688	NaN	0.000000	0.001594	0.001726	28.0793	92.9035	0.001742	53328.3	4.434308	170.469	435.132	1.134933	0.101645	0.101455	436.688	53328.3	0.095503	0.283042	1542.84	91581
447	2.000000	1.144592	7.36944e+06	-54739.1	1005.82	-29743.1	0.000000	0.000000	7.166370	520.411	NaN	0.000000	0.001570	0.001710	28.0782	101.887	0.001778	57293.8	4.579387	-9.932724	515.544	1.144307	0.111114	0.110829	520.411	57293.8	0.104301	0.331011	1572.19	90982.8