File: remote_trans/data/nanoindenter/0828-1/data/Data_2025-08-06,11h17m57s/2025-07-22_16-23-58_1_576.txt
2025-07-22, 16:23:58, 1
Index	Phase	Displacement	Time	Pos X	Pos Y	Pos Z	Rot A	Rot B	Piezo Z	Force A	Force B	Gripper	Voltage A	Voltage B	Temperature	Amplitude force	Amplitude pos	Stiffness	Phase shift	Phase excitation	Force A raw	Displacement raw	HMax	HMax raw	Real Force	Real Stiffness	Contact Depth	Area	Hardness	Reduced Mod.
[#]	[#]	[um]	[s]	[um]	[um]	[um]	[m°]	[m°]	[um]	[uN]	[uN]	[V]	[V]	[V]	[°C]	[uN]	[um]	[N/m]	[°]	[°]	[uN]	[um]	[um]	[um]	[uN]	[N/m]	[um]	[um^2]	[MPa]	[MPa]
576	1.000000	0.002055	7.37068e+06	-48289.1	1005.82	-29762.9	0.000000	0.000000	6.002829	0.049136	NaN	0.000000	0.001558	0.001633	28.0816	0.031835	0.000912	34.8895	16.2945	-162.347	-0.012810	0.000797	-1.123980	-1.125238	0.049136	34.8895	-1.125037	-1.086536E+15	-4.522224E-17	NaN
576	1.000000	0.043998	7.37068e+06	-48289.1	1005.82	-29762.9	0.000000	0.000000	6.044770	-0.004458	NaN	0.000000	0.001530	0.001623	28.0815	0.079352	0.002175	36.4851	-100.536	11.8789	0.015388	0.042635	-1.082038	-1.083400	-0.004458	36.4851	-1.081946	-2.868497E+14	1.554207E-17	NaN
576	1.000000	0.086010	7.37068e+06	-48289.1	1005.82	-29762.9	0.000000	0.000000	6.086782	0.012778	NaN	0.000000	0.001545	0.001682	28.0826	0.102657	0.001954	52.5464	37.9616	-164.495	0.000474	0.084692	-1.040026	-1.041343	0.012778	52.5464	-1.040208	-7.884332E+13	-1.620681E-16	NaN
576	1.000000	0.128018	7.37068e+06	-48289.1	1005.82	-29762.9	0.000000	0.000000	6.128790	0.016385	NaN	0.000000	0.001542	0.001625	28.0826	0.051269	0.001989	25.7719	168.049	12.7754	-0.062678	0.126610	-0.998018	-0.999425	0.016385	25.7719	-0.998495	-2.165217E+13	-7.567336E-16	NaN
576	1.000000	0.170012	7.37068e+06	-48289.1	1005.82	-29762.9	0.000000	0.000000	6.170784	-0.013232	NaN	0.000000	0.001594	0.001633	28.0864	0.065525	0.001953	33.5503	-19.4264	-162.718	0.002125	0.168695	-0.956023	-0.957341	-0.013232	33.5503	-0.955727	-5.744634E+12	2.303375E-15	NaN
576	1.000000	0.212038	7.37068e+06	-48289.1	1005.82	-29762.9	0.000000	0.000000	6.212811	0.010065	NaN	0.000000	0.001578	0.001636	28.0814	0.060780	0.001991	30.5323	-175.418	14.471	0.009350	0.210625	-0.913997	-0.915411	0.010065	30.5323	-0.914245	-1.583034E+12	-6.357877E-15	NaN
576	1.000000	0.254088	7.37068e+06	-48289.1	1005.82	-29762.9	0.000000	0.000000	6.254858	-0.061395	NaN	0.000000	0.001609	0.001638	28.0811	0.050931	0.002010	25.3366	-74.3428	-164.503	-0.043180	0.252775	-0.871947	-0.873261	-0.061395	25.3366	-0.870130	-4.010507E+11	1.530854E-13	NaN
576	1.000000	0.296100	7.37068e+06	-48289.1	1005.82	-29762.9	0.000000	0.000000	6.296871	-0.034183	NaN	0.000000	0.001565	0.001712	28.0814	0.064879	0.002023	32.0651	-145.564	12.3323	-0.105600	0.294738	-0.829936	-0.831297	-0.034183	32.0651	-0.829136	-1.117055E+11	3.060104E-13	NaN
576	1.000000	0.338107	7.37068e+06	-48289.1	1005.82	-29762.9	0.000000	0.000000	6.338880	0.028113	NaN	0.000000	0.001611	0.001703	28.0826	0.063831	0.002043	31.2403	104.441	-166.447	-0.074012	0.336778	-0.787928	-0.789258	0.028113	31.2403	-0.788603	-3.148579E+10	-8.928784E-13	NaN
576	1.000000	0.380094	7.37068e+06	-48289.1	1005.82	-29762.9	0.000000	0.000000	6.380866	-0.013627	NaN	0.000000	0.001537	0.001695	28.0826	0.109596	0.001863	58.8328	92.0256	13.4991	-0.071440	0.378741	-0.745941	-0.747294	-0.013627	58.8328	-0.745768	-8.233792E+9	1.655059E-12	NaN
576	1.000000	0.422129	7.37068e+06	-48289.1	1005.82	-29762.9	0.000000	0.000000	6.422899	-0.037364	NaN	0.000000	0.001570	0.001738	28.0826	0.051586	0.001984	26.0024	-36.6006	-166.728	-0.089202	0.420849	-0.703907	-0.705186	-0.037364	26.0024	-0.702829	-2.138754E+9	1.746989E-11	NaN
576	1.000000	0.464164	7.37068e+06	-48289.1	1005.82	-29762.9	0.000000	0.000000	6.464935	-0.008693	NaN	0.000000	0.001513	0.001736	28.0814	0.137721	0.001954	70.4773	62.1901	17.6642	-0.014635	0.462808	-0.661872	-0.663228	-0.008693	70.4773	-0.661780	-5.872761E+8	1.480292E-11	NaN
576	1.000000	0.506179	7.37068e+06	-48289.1	1005.82	-29762.9	0.000000	0.000000	6.506949	-0.037972	NaN	0.000000	0.001661	0.001728	28.0812	0.067748	0.002081	32.5493	-144.807	-166.388	0.020034	0.504865	-0.619857	-0.621171	-0.037972	32.5493	-0.618982	-1.519293E+8	2.499317E-10	NaN
576	1.000000	0.548192	7.37068e+06	-48289.1	1005.82	-29762.9	0.000000	0.000000	6.548964	0.017114	NaN	0.000000	0.001651	0.001759	28.0824	0.030428	0.002104	14.4652	130.515	17.7936	0.038047	0.546818	-0.577844	-0.579218	0.017114	14.4652	-0.578731	-4.238535E+7	-4.037695E-10	NaN
576	1.000000	0.590185	7.37068e+06	-48289.1	1005.82	-29762.9	0.000000	0.000000	6.590955	-0.032291	NaN	0.000000	0.001610	0.001724	28.0815	0.030712	0.001829	16.7947	113.966	-166.281	0.021460	0.588929	-0.535851	-0.537107	-0.032291	16.7947	-0.534409	-1.032248E+7	3.128265E-9	NaN
576	1.000000	0.632173	7.37068e+06	-48289.1	1005.82	-29762.9	0.000000	0.000000	6.632944	-0.013791	NaN	0.000000	0.001655	0.001727	28.0825	0.038325	0.002005	19.1136	69.6448	18.0389	-0.007268	0.630875	-0.493863	-0.495160	-0.013791	19.1136	-0.493322	-2.76568e+06	4.986520E-9	NaN
576	1.000000	0.674275	7.37068e+06	-48289.1	1005.82	-29762.9	0.000000	0.000000	6.675046	-0.034663	NaN	0.000000	0.001613	0.001728	28.0825	0.066858	0.002111	31.673	-150.984	-165.711	-0.020648	0.672946	-0.451760	-0.453090	-0.034663	31.673	-0.450939	-703997	4.923777E-8	NaN
576	1.000000	0.716246	7.37069e+06	-48289.1	1005.82	-29762.9	0.000000	0.000000	6.717019	0.027168	NaN	0.000000	0.001609	0.001747	28.0825	0.028816	0.002005	14.3711	171.646	15.827	-0.051199	0.714891	-0.409790	-0.411145	0.027168	14.3711	-0.411208	-193007	-1.407611E-7	NaN
576	1.000000	0.758271	7.37069e+06	-48289.1	1005.82	-29762.9	0.000000	0.000000	6.759040	-0.074393	NaN	0.000000	0.001568	0.001721	28.0815	0.080542	0.002145	37.556	-132.326	-165.089	-0.063587	0.756989	-0.367764	-0.369047	-0.074393	37.556	-0.366278	-43903.2	1.694487E-6	NaN
576	1.000000	0.800308	7.37069e+06	-48289.1	1005.82	-29762.9	0.000000	0.000000	6.801079	-0.029384	NaN	0.000000	0.001525	0.001703	28.0813	0.058295	0.002030	28.7121	80.2438	14.1173	-0.059952	0.798958	-0.325727	-0.327077	-0.029384	28.7121	-0.324960	-11003.9	2.670328E-6	NaN
576	1.000000	0.842320	7.37069e+06	-48289.1	1005.82	-29762.9	0.000000	0.000000	6.843090	-0.058013	NaN	0.000000	0.001598	0.001735	28.0813	0.033510	0.002101	15.9497	-80.7795	-165.724	-0.018364	0.840949	-0.283715	-0.285087	-0.058013	15.9497	-0.280987	-2442.65	2.375018E-5	NaN
576	1.000000	0.884327	7.37069e+06	-48289.1	1005.82	-29762.9	0.000000	0.000000	6.885097	-0.027575	NaN	0.000000	0.001537	0.001721	28.0826	0.076665	0.002025	37.8538	56.2298	12.6327	-0.021835	0.882980	-0.241709	-0.243055	-0.027575	37.8538	-0.241163	-599.378	4.600672E-5	NaN
576	1.000000	0.926339	7.37069e+06	-48289.1	1005.82	-29762.9	0.000000	0.000000	6.927111	0.001288	NaN	0.000000	0.001585	0.001721	28.0831	0.049753	0.001912	26.0193	136.278	-169.256	-0.081941	0.925004	-0.199696	-0.201031	0.001288	26.0193	-0.199734	-130.412	-9.874700E-6	NaN
576	1.000000	0.968352	7.37069e+06	-48289.1	1005.82	-29762.9	0.000000	0.000000	6.969121	-0.060569	NaN	0.000000	0.001583	0.001658	28.0829	0.075318	0.001953	38.5655	-26.1085	12.5322	-0.069287	0.967008	-0.157684	-0.159028	-0.060569	38.5655	-0.156506	-23.7482	0.002550	NaN
576	1.000000	1.010375	7.37069e+06	-48289.1	1005.82	-29762.9	0.000000	0.000000	7.011148	0.024338	NaN	0.000000	0.001581	0.001721	28.0815	0.034924	0.002025	17.2481	-33.6023	-164.065	0.078407	1.009065	-0.115661	-0.116970	0.024338	17.2481	-0.116719	-4.143940	-0.005873	NaN
576	1.000000	1.052371	7.37069e+06	-48289.1	1005.82	-29762.9	0.000000	0.000000	7.053143	-0.004461	NaN	0.000000	0.001524	0.001744	28.0814	0.084270	0.001980	42.5562	1.161770	12.5788	-0.006481	1.051055	-0.073664	-0.074981	-0.004461	42.5562	-0.073586	-0.424380	0.010512	NaN
576	1.000000	1.094403	7.37069e+06	-48289.1	1005.82	-29762.9	0.000000	0.000000	7.095173	-0.035864	NaN	0.000000	0.001555	0.001702	28.0812	0.058024	0.001941	29.899	174.764	-167.242	-0.037915	1.093169	-0.031633	-0.032866	-0.035864	29.899	-0.030733	-0.024127	1.486484	NaN
576	1.000000	1.136368	7.37069e+06	-48289.1	1005.82	-29762.9	0.000000	0.000000	7.137398	6.283160	NaN	0.000000	0.001556	0.001725	28.0811	7.067113	0.001860	3800.37	14.219	8.150098	4.823079	1.135122	0.010332	0.009086	6.283160	3800.37	0.009092	0.008190	767.151	38366.4
576	2.000000	1.147988	7.37069e+06	-48289.1	1005.82	-29762.9	0.000000	0.000000	7.149493	17.8346	NaN	0.000000	0.001556	0.001754	28.0827	17.6319	0.001808	9751.43	7.264069	-175.06	17.6654	1.147670	0.021952	0.021634	17.8346	9751.43	0.020581	0.023463	760.123	58163.6
576	2.000000	1.158453	7.37069e+06	-48289.1	1005.82	-29762.9	0.000000	0.000000	7.160841	39.3198	NaN	0.000000	0.001525	0.001722	28.0834	28.9568	0.001721	16829.7	5.255352	-0.744327	37.5195	1.158189	0.032417	0.032154	39.3198	16829.7	0.030665	0.042133	933.228	74909.4
576	2.000000	1.168892	7.37069e+06	-48289.1	1005.82	-29762.9	0.000000	0.000000	7.172653	72.7078	NaN	0.000000	0.001595	0.001737	28.0827	39.1751	0.001733	22608.8	7.314636	175.815	69.3552	1.168556	0.042857	0.042521	72.7078	22608.8	0.040445	0.065182	1115.45	80907
576	2.000000	1.179439	7.37069e+06	-48289.1	1005.82	-29762.9	0.000000	0.000000	7.185277	123.22	NaN	0.000000	0.001616	0.001705	28.0815	49.9548	0.001739	28732.1	4.503734	-3.282717	121.113	1.179084	0.053404	0.053048	123.22	28732.1	0.050187	0.092993	1325.05	86082.8
576	2.000000	1.189916	7.37069e+06	-48289.1	1005.82	-29762.9	0.000000	0.000000	7.198597	192.378	NaN	0.000000	0.001597	0.001742	28.0815	63.6941	0.001918	33216.3	7.170965	173.123	190.082	1.189672	0.063880	0.063636	192.378	33216.3	0.059536	0.124151	1549.55	86128.9
576	2.000000	1.200508	7.37069e+06	-48289.1	1005.82	-29762.9	0.000000	0.000000	7.212572	274.641	NaN	0.000000	0.001601	0.001754	28.0816	74.318	0.001786	41619.7	7.881637	-9.354120	279.514	1.200053	0.074473	0.074018	274.641	41619.7	0.069524	0.162156	1693.69	94429.1
576	2.000000	1.210955	7.37069e+06	-48289.1	1005.82	-29762.9	0.000000	0.000000	7.227786	390.605	NaN	0.000000	0.001596	0.001746	28.0827	85.9927	0.001816	47351.6	5.931787	170.995	392.464	1.210610	0.084919	0.084574	390.605	47351.6	0.078732	0.201413	1939.33	96397.1
576	2.000000	1.221185	7.37069e+06	-48289.1	1005.82	-29762.9	0.000000	0.000000	7.242978	511.258	NaN	0.000000	0.001578	0.001709	28.0828	96.0331	0.001652	58137.7	7.930031	-12.7134	498.687	1.220918	0.095150	0.094883	511.258	58137.7	0.088554	0.247648	2064.46	106737
576	2.000000	1.231778	7.37069e+06	-48289.1	1005.82	-29762.9	0.000000	0.000000	7.259123	646.322	NaN	0.000000	0.001672	0.001712	28.0829	105.533	0.001743	60546.7	2.551081	172.799	641.297	1.231439	0.105742	0.105403	646.322	60546.7	0.097736	0.294883	2191.79	101868
576	2.000000	1.236320	7.37069e+06	-48289.1	1005.82	-29762.9	0.000000	0.000000	7.266390	712.602	NaN	0.000000	0.001626	0.001707	28.0827	110.803	0.001782	62177.7	8.911991	-12.9292	708.279	1.235888	0.110284	0.109852	712.602	62177.7	0.101688	0.316397	2252.24	100993