File: remote_trans/data/nanoindenter/0828-1/data/Data_2025-08-06,11h17m57s/2025-07-22_16-23-58_1_299.txt
2025-07-22, 16:23:58, 1
Index	Phase	Displacement	Time	Pos X	Pos Y	Pos Z	Rot A	Rot B	Piezo Z	Force A	Force B	Gripper	Voltage A	Voltage B	Temperature	Amplitude force	Amplitude pos	Stiffness	Phase shift	Phase excitation	Force A raw	Displacement raw	HMax	HMax raw	Real Force	Real Stiffness	Contact Depth	Area	Hardness	Reduced Mod.
[#]	[#]	[um]	[s]	[um]	[um]	[um]	[m°]	[m°]	[um]	[uN]	[uN]	[V]	[V]	[V]	[°C]	[uN]	[um]	[N/m]	[°]	[°]	[uN]	[um]	[um]	[um]	[uN]	[N/m]	[um]	[um^2]	[MPa]	[MPa]
299	1.000000	0.002959	7.36799e+06	-53589.1	955.819	-29746.1	0.000000	0.000000	6.002805	-0.008289	NaN	0.000000	0.001606	0.001611	28.0806	0.111694	0.000975	114.538	78.3964	-161.613	-0.023189	0.001707	-1.138525	-1.139777	-0.008289	114.538	-1.138471	-1.645238E+15	5.038210E-18	NaN
299	1.000000	0.044912	7.36799e+06	-53589.1	955.818	-29746.1	0.000000	0.000000	6.044757	-0.027246	NaN	0.000000	0.001607	0.001652	28.0805	0.087922	0.002002	43.9199	151.916	15.455	-0.009804	0.043542	-1.096572	-1.097942	-0.027246	43.9199	-1.096107	-4.444344E+14	6.130382E-17	NaN
299	1.000000	0.086940	7.36799e+06	-53589.1	955.817	-29746.1	0.000000	0.000000	6.086786	-0.005689	NaN	0.000000	0.001623	0.001609	28.0807	0.066676	0.002066	32.2707	166.717	-164.926	0.070583	0.085632	-1.054545	-1.055853	-0.005689	32.2707	-1.054413	-1.223844E+14	4.648732E-17	NaN
299	1.000000	0.128932	7.36799e+06	-53589.1	955.818	-29746.1	0.000000	0.000000	6.128778	-0.020948	NaN	0.000000	0.001680	0.001628	28.0795	0.167812	0.001968	85.2846	13.7988	15.2667	-0.004606	0.127549	-1.012552	-1.013935	-0.020948	85.2846	-1.012368	-3.328528E+13	6.293492E-16	NaN
299	1.000000	0.170938	7.36799e+06	-53589.1	955.818	-29746.1	0.000000	0.000000	6.170786	0.044968	NaN	0.000000	0.001624	0.001618	28.0795	0.078779	0.001997	39.4446	147.756	-162.229	0.035426	0.169629	-0.970546	-0.971855	0.044968	39.4446	-0.971401	-9.344281E+12	-4.812342E-15	NaN
299	1.000000	0.212975	7.36799e+06	-53589.1	955.818	-29746.1	0.000000	0.000000	6.212822	0.009982	NaN	0.000000	0.001681	0.001634	28.0796	0.037001	0.002095	17.6596	68.6725	15.1546	-0.030633	0.211598	-0.928509	-0.929886	0.009982	17.6596	-0.928933	-2.499157E+12	-3.994186E-15	NaN
299	1.000000	0.254980	7.36799e+06	-53589.1	955.817	-29746.1	0.000000	0.000000	6.254826	-0.008373	NaN	0.000000	0.001622	0.001666	28.0797	0.107009	0.002142	49.9539	114.16	-166.662	0.036006	0.253699	-0.886504	-0.887785	-0.008373	49.9539	-0.886379	-6.652081E+11	1.258630E-14	NaN
299	1.000000	0.296997	7.36799e+06	-53589.1	955.818	-29746.1	0.000000	0.000000	6.296847	0.073227	NaN	0.000000	0.001637	0.001663	28.0811	0.032562	0.002092	15.567	-17.1448	12.6943	0.038155	0.295646	-0.844487	-0.845839	0.073227	15.567	-0.848015	-2.013056E+11	-3.637624E-13	NaN
299	1.000000	0.338996	7.36799e+06	-53589.1	955.818	-29746.1	0.000000	0.000000	6.338843	0.015067	NaN	0.000000	0.001614	0.001644	28.0812	0.050660	0.002060	24.5894	157.79	-164.157	0.031799	0.337652	-0.802488	-0.803832	0.015067	24.5894	-0.802948	-4.930264E+10	-3.055926E-13	NaN
299	1.000000	0.381030	7.36799e+06	-53589.1	955.819	-29746.1	0.000000	0.000000	6.380876	0.004739	NaN	0.000000	0.001595	0.001642	28.0811	0.014205	0.002032	6.991920	40.4112	15.7759	0.000122	0.379632	-0.760455	-0.761852	0.004739	6.991920	-0.760963	-1.325571E+10	-3.574750E-13	NaN
299	1.000000	0.423107	7.36799e+06	-53589.1	955.818	-29746.1	0.000000	0.000000	6.422955	0.049889	NaN	0.000000	0.001593	0.001627	28.0795	0.091790	0.001955	46.9394	-177.753	-164.3	0.020512	0.421748	-0.718377	-0.719737	0.049889	46.9394	-0.719174	-3.574476E+9	-1.395688E-11	NaN
299	1.000000	0.465107	7.36799e+06	-53589.1	955.818	-29746.1	0.000000	0.000000	6.464956	0.054734	NaN	0.000000	0.001607	0.001660	28.0798	0.031855	0.001916	16.6231	114.688	12.2666	0.037522	0.463676	-0.676377	-0.677809	0.054734	16.6231	-0.678847	-1.005610E+9	-5.442843E-11	NaN
299	1.000000	0.507114	7.36799e+06	-53589.1	955.818	-29746.1	0.000000	0.000000	6.506961	0.026401	NaN	0.000000	0.001628	0.001646	28.0793	0.029267	0.001939	15.097	-61.2969	-166.203	-0.037546	0.505779	-0.634371	-0.635705	0.026401	15.097	-0.635682	-2.576551E+8	-1.024670E-10	NaN
299	1.000000	0.549104	7.36799e+06	-53589.1	955.818	-29746.1	0.000000	0.000000	6.548952	0.038377	NaN	0.000000	0.001638	0.001641	28.0806	0.083615	0.002104	39.7416	76.8755	11.6547	0.113247	0.547836	-0.592380	-0.593649	0.038377	39.7416	-0.593104	-6.690457E+7	-5.736008E-10	NaN
299	1.000000	0.591129	7.36799e+06	-53589.1	955.818	-29746.1	0.000000	0.000000	6.590974	-0.032716	NaN	0.000000	0.001613	0.001657	28.0807	0.043889	0.002067	21.2323	146.985	-165.111	-0.027496	0.589820	-0.550355	-0.551665	-0.032716	21.2323	-0.549200	-1.655278E+7	1.976495E-9	NaN
299	1.000000	0.633146	7.36799e+06	-53589.1	955.817	-29746.1	0.000000	0.000000	6.632992	-0.001626	NaN	0.000000	0.001619	0.001632	28.0806	0.142087	0.002095	67.8119	-163.25	11.9039	0.049350	0.631761	-0.508338	-0.509724	-0.001626	67.8119	-0.508320	-4.47728e+06	3.631243E-10	NaN
299	1.000000	0.675164	7.36799e+06	-53589.1	955.819	-29746.1	0.000000	0.000000	6.675013	0.068146	NaN	0.000000	0.001617	0.001649	28.0796	0.054493	0.002027	26.8855	72.2161	-164.342	0.023221	0.673864	-0.466320	-0.467620	0.068146	26.8855	-0.468221	-1.23156e+06	-5.533283E-8	NaN
299	1.000000	0.717156	7.36799e+06	-53589.1	955.818	-29746.1	0.000000	0.000000	6.717004	0.030821	NaN	0.000000	0.001594	0.001660	28.0797	0.051806	0.002014	25.719	-105.24	17.1265	0.012936	0.715834	-0.424328	-0.425650	0.030821	25.719	-0.425227	-305137	-1.010062E-7	NaN
299	1.000000	0.759221	7.36799e+06	-53589.1	955.818	-29746.1	0.000000	0.000000	6.759068	0.024310	NaN	0.000000	0.001591	0.001641	28.0797	0.161312	0.001908	84.5319	-170.53	-166.742	-0.008293	0.757899	-0.382264	-0.383585	0.024310	84.5319	-0.382480	-75068.7	-3.238432E-7	NaN
299	1.000000	0.801233	7.36799e+06	-53589.1	955.817	-29746.1	0.000000	0.000000	6.801080	0.021137	NaN	0.000000	0.001603	0.001649	28.0795	0.081750	0.002012	40.6369	-15.601	12.8414	-0.043925	0.799849	-0.340251	-0.341636	0.021137	40.6369	-0.340641	-18659.5	-1.132797E-6	NaN
299	1.000000	0.843234	7.36799e+06	-53589.1	955.818	-29746.1	0.000000	0.000000	6.843081	0.033350	NaN	0.000000	0.001596	0.001629	28.0811	0.096848	0.001912	50.6553	-167.341	-162.212	-0.017248	0.841935	-0.298251	-0.299549	0.033350	50.6553	-0.298745	-4507.53	-7.398798E-6	NaN
299	1.000000	0.885243	7.36799e+06	-53589.1	955.818	-29746.1	0.000000	0.000000	6.885090	0.014261	NaN	0.000000	0.001585	0.001643	28.0812	0.070582	0.001988	35.5024	115.582	15.6311	0.071565	0.883859	-0.256241	-0.257625	0.014261	35.5024	-0.256543	-1037.17	-1.375039E-5	NaN
299	1.000000	0.927263	7.36799e+06	-53589.1	955.819	-29746.1	0.000000	0.000000	6.927107	-0.039476	NaN	0.000000	0.001621	0.001662	28.0816	0.076492	0.001897	40.325	-127.082	-167.14	0.006386	0.925995	-0.214222	-0.215489	-0.039476	40.325	-0.213487	-218.354	0.000181	NaN
299	1.000000	0.969297	7.36799e+06	-53589.1	955.818	-29746.1	0.000000	0.000000	6.969143	-0.008744	NaN	0.000000	0.001589	0.001661	28.0799	0.032429	0.001829	17.7283	-1.280239	12.0364	-0.064740	0.967883	-0.172187	-0.173602	-0.008744	17.7283	-0.171817	-44.1676	0.000198	NaN
299	1.000000	1.011305	7.36799e+06	-53589.1	955.818	-29746.1	0.000000	0.000000	7.011153	0.040443	NaN	0.000000	0.001615	0.001661	28.0798	0.062897	0.001936	32.4824	-167.771	-165.026	0.059885	1.009989	-0.130179	-0.131495	0.040443	32.4824	-0.131113	-8.009157	-0.005050	NaN
299	1.000000	1.053315	7.36799e+06	-53589.1	955.817	-29746.1	0.000000	0.000000	7.053163	0.065488	NaN	0.000000	0.001615	0.001634	28.0795	0.115270	0.001996	57.7564	-65.5684	11.9614	0.017928	1.051944	-0.088170	-0.089540	0.065488	57.7564	-0.089020	-1.025086	-0.063885	NaN
299	1.000000	1.095310	7.36799e+06	-53589.1	955.818	-29746.1	0.000000	0.000000	7.095156	0.000159	NaN	0.000000	0.001612	0.001719	28.0807	0.084979	0.001861	45.6704	-42.6219	-166.473	-0.037006	1.094034	-0.046175	-0.047450	0.000159	45.6704	-0.046177	-0.069819	-0.002276	NaN
299	1.000000	1.137360	7.36799e+06	-53589.1	955.816	-29746.1	0.000000	0.000000	7.137206	-0.003838	NaN	0.000000	0.001605	0.001678	28.0808	0.110768	0.001978	55.9979	148.287	13.6479	0.034716	1.135969	-0.004125	-0.005515	-0.003838	55.9979	-0.004073	-0.002826	1.357807	NaN
299	2.000000	1.156997	7.36799e+06	-53589.1	955.818	-29746.1	0.000000	0.000000	7.157514	16.3282	NaN	0.000000	0.001566	0.001665	28.0809	16.2667	0.001721	9453.66	2.748145	-173.013	15.9853	1.156621	0.015512	0.015136	16.3282	9453.66	0.014217	0.014255	1145.41	72341.2
299	2.000000	1.167390	7.36799e+06	-53589.1	955.818	-29746.1	0.000000	0.000000	7.168874	39.8178	NaN	0.000000	0.001572	0.001699	28.0799	27.4876	0.001808	15205.5	6.260233	-0.649272	36.5878	1.167064	0.025906	0.025580	39.8178	15205.5	0.023942	0.029119	1367.42	81411.6
299	2.000000	1.177937	7.36799e+06	-53589.1	955.818	-29746.1	0.000000	0.000000	7.180486	65.7267	NaN	0.000000	0.001618	0.001701	28.0796	37.4836	0.001784	21014.3	8.321892	174.594	65.4421	1.177628	0.036452	0.036144	65.7267	21014.3	0.034106	0.049686	1322.84	86133.3
299	2.000000	1.188469	7.36799e+06	-53589.1	955.818	-29746.1	0.000000	0.000000	7.192658	105.577	NaN	0.000000	0.001608	0.001642	28.0796	47.0404	0.001794	26227.1	6.027803	-4.483077	105.429	1.188058	0.046985	0.046574	105.577	26227.1	0.043966	0.074678	1413.76	87685.5
299	2.000000	1.198850	7.36799e+06	-53589.1	955.819	-29746.1	0.000000	0.000000	7.205144	156.735	NaN	0.000000	0.001616	0.001672	28.0793	58.1743	0.001758	33083.6	6.395431	173.679	152.815	1.198484	0.057366	0.056999	156.735	33083.6	0.053813	0.104562	1498.96	93475.7
299	2.000000	1.209355	7.36799e+06	-53589.1	955.819	-29746.1	0.000000	0.000000	7.217789	208.763	NaN	0.000000	0.001592	0.001604	28.0808	68.7198	0.001830	37558.1	3.797021	-4.844363	204.435	1.208995	0.067871	0.067511	208.763	37558.1	0.063702	0.139418	1497.39	91900.3
299	2.000000	1.219883	7.36799e+06	-53589.1	955.817	-29746.1	0.000000	0.000000	7.230741	267.721	NaN	0.000000	0.001650	0.001649	28.0808	78.3561	0.001751	44749.5	6.337046	171.035	266.947	1.219652	0.078399	0.078167	267.721	44749.5	0.073912	0.180363	1484.35	96269.3
299	2.000000	1.230311	7.36799e+06	-53589.1	955.819	-29746.1	0.000000	0.000000	7.244066	338.158	NaN	0.000000	0.001650	0.001644	28.0805	87.0344	0.001823	47736.4	1.383082	-4.188352	333.078	1.229930	0.088827	0.088446	338.158	47736.4	0.083514	0.223362	1513.94	92282.3
299	2.000000	1.240873	7.36799e+06	-53589.1	955.818	-29746.1	0.000000	0.000000	7.258300	427.441	NaN	0.000000	0.001674	0.001628	28.0794	96.1685	0.001763	54559.4	5.183918	171.468	427.15	1.240473	0.099388	0.098988	427.441	54559.4	0.093513	0.272676	1567.58	95459.4
299	2.000000	1.247844	7.36799e+06	-53589.1	955.819	-29746.1	0.000000	0.000000	7.267551	482.854	NaN	0.000000	0.001704	0.001662	28.079	103.234	0.001719	60046.6	2.847034	173.106	482.421	1.247452	0.106360	0.105968	482.854	60046.6	0.100329	0.308915	1563.06	98705.7