File: remote_trans/data/nanoindenter/0828-1/data/Data_2025-08-06,11h17m57s/2025-07-22_16-23-58_1_571.txt
2025-07-22, 16:23:58, 1
Index	Phase	Displacement	Time	Pos X	Pos Y	Pos Z	Rot A	Rot B	Piezo Z	Force A	Force B	Gripper	Voltage A	Voltage B	Temperature	Amplitude force	Amplitude pos	Stiffness	Phase shift	Phase excitation	Force A raw	Displacement raw	HMax	HMax raw	Real Force	Real Stiffness	Contact Depth	Area	Hardness	Reduced Mod.
[#]	[#]	[um]	[s]	[um]	[um]	[um]	[m°]	[m°]	[um]	[uN]	[uN]	[V]	[V]	[V]	[°C]	[uN]	[um]	[N/m]	[°]	[°]	[uN]	[um]	[um]	[um]	[uN]	[N/m]	[um]	[um^2]	[MPa]	[MPa]
571	1.000000	0.001981	7.37063e+06	-48539.1	1005.82	-29762	0.000000	0.000000	6.002818	-0.043447	NaN	0.000000	0.001602	0.001770	28.0799	0.143708	0.000960	149.669	-123.797	-158.968	-0.055263	0.000695	-1.133789	-1.135075	-0.043447	149.669	-1.133572	-1.414253E+15	3.072081E-17	NaN
571	1.000000	0.043937	7.37063e+06	-48539.1	1005.82	-29762	0.000000	0.000000	6.044774	-0.046928	NaN	0.000000	0.001592	0.001741	28.0801	0.095781	0.002068	46.32	8.293338	18.369	-0.083729	0.042545	-1.091833	-1.093224	-0.046928	46.32	-1.091073	-3.803822E+14	1.233703E-16	NaN
571	1.000000	0.085904	7.37063e+06	-48539.1	1005.82	-29762	0.000000	0.000000	6.086743	0.008160	NaN	0.000000	0.001604	0.001776	28.0814	0.088123	0.001916	45.9891	-10.2933	-166.246	-0.024380	0.084565	-1.049866	-1.051205	0.008160	45.9891	-1.049999	-1.067595E+14	-7.643259E-17	NaN
571	1.000000	0.127939	7.37063e+06	-48539.1	1005.82	-29762	0.000000	0.000000	6.128783	0.111953	NaN	0.000000	0.001635	0.001785	28.0817	0.029157	0.002112	13.8026	110.313	15.0315	0.030647	0.126579	-1.007831	-1.009191	0.111953	13.8026	-1.013914	-3.491848E+13	-3.206131E-15	NaN
571	1.000000	0.169949	7.37063e+06	-48539.1	1005.82	-29762	0.000000	0.000000	6.170787	-0.019495	NaN	0.000000	0.001596	0.001787	28.0815	0.084372	0.002024	41.6845	-66.3843	-162.843	-0.051211	0.168654	-0.965821	-0.967116	-0.019495	41.6845	-0.965471	-7.773461E+12	2.507918E-15	NaN
571	1.000000	0.211969	7.37063e+06	-48539.1	1005.82	-29762	0.000000	0.000000	6.212809	0.047668	NaN	0.000000	0.001580	0.001782	28.0812	0.028966	0.002054	14.1054	149.277	15.4667	0.001750	0.210628	-0.923801	-0.925142	0.047668	14.1054	-0.926336	-2.305368E+12	-2.067715E-14	NaN
571	1.000000	0.253980	7.37063e+06	-48539.1	1005.82	-29762	0.000000	0.000000	6.254820	0.028578	NaN	0.000000	0.001599	0.001858	28.0799	0.060091	0.001970	30.5018	-171.082	-165.092	0.023387	0.252675	-0.881790	-0.883095	0.028578	30.5018	-0.882493	-5.894137E+11	-4.848529E-14	NaN
571	1.000000	0.296011	7.37063e+06	-48539.1	1005.82	-29762	0.000000	0.000000	6.296850	0.018471	NaN	0.000000	0.001551	0.001780	28.08	0.045403	0.001958	23.1891	20.8572	20.3665	-0.005468	0.294674	-0.839759	-0.841096	0.018471	23.1891	-0.840356	-1.585338E+11	-1.165133E-13	NaN
571	1.000000	0.338014	7.37063e+06	-48539.1	1005.82	-29762	0.000000	0.000000	6.338852	-0.008838	NaN	0.000000	0.001564	0.001760	28.0799	0.157117	0.001980	79.3707	-22.161	-162.768	-0.033631	0.336721	-0.797756	-0.799049	-0.008838	79.3707	-0.797673	-4.180904E+10	2.113853E-13	NaN
571	1.000000	0.380046	7.37063e+06	-48539.1	1005.82	-29762	0.000000	0.000000	6.380887	0.045612	NaN	0.000000	0.001586	0.001771	28.0814	0.116126	0.001883	61.6584	-113.593	15.9547	0.080842	0.378664	-0.755724	-0.757106	0.045612	61.6584	-0.756279	-1.144650E+10	-3.984760E-12	NaN
571	1.000000	0.422068	7.37063e+06	-48539.1	1005.82	-29762	0.000000	0.000000	6.422905	-0.047743	NaN	0.000000	0.001546	0.001767	28.0817	0.015781	0.002033	7.761936	-70.8143	-164.182	-0.038269	0.420768	-0.713702	-0.715002	-0.047743	7.761936	-0.709088	-2.603807E+9	1.833567E-11	NaN
571	1.000000	0.464054	7.37063e+06	-48539.1	1005.82	-29762	0.000000	0.000000	6.464893	0.001582	NaN	0.000000	0.001529	0.001803	28.0818	0.075854	0.001982	38.2695	17.4344	17.7346	-0.041433	0.462726	-0.671716	-0.673044	0.001582	38.2695	-0.671747	-8.040771E+8	-1.967160E-12	NaN
571	1.000000	0.506098	7.37063e+06	-48539.1	1005.82	-29762	0.000000	0.000000	6.506938	0.041081	NaN	0.000000	0.001539	0.001792	28.0805	0.050336	0.001895	26.5655	100.348	-164.181	0.104230	0.504812	-0.629672	-0.630958	0.041081	26.5655	-0.630832	-2.210272E+8	-1.858651E-10	NaN
571	1.000000	0.548099	7.37063e+06	-48539.1	1005.82	-29762	0.000000	0.000000	6.548938	0.016393	NaN	0.000000	0.001556	0.001780	28.0804	0.147592	0.001958	75.3855	-142.89	18.0413	0.008087	0.546789	-0.587671	-0.588980	0.016393	75.3855	-0.587834	-5.659824E+7	-2.896309E-10	NaN
571	1.000000	0.590163	7.37064e+06	-48539.1	1005.82	-29762	0.000000	0.000000	6.591003	0.022720	NaN	0.000000	0.001550	0.001771	28.0802	0.078371	0.002050	38.2344	25.7089	-162.811	0.112916	0.588811	-0.545607	-0.546958	0.022720	38.2344	-0.546052	-1.497137E+7	-1.517536E-9	NaN
571	1.000000	0.632139	7.37064e+06	-48539.1	1005.82	-29762	0.000000	0.000000	6.632976	-0.056058	NaN	0.000000	0.001577	0.001750	28.0816	0.039012	0.001875	20.8097	-82.9086	14.1415	-0.040856	0.630802	-0.503630	-0.504968	-0.056058	20.8097	-0.501610	-3.60975e+06	1.552966E-8	NaN
571	1.000000	0.674164	7.37064e+06	-48539.1	1005.82	-29762	0.000000	0.000000	6.675004	0.017717	NaN	0.000000	0.001568	0.001731	28.0815	0.028003	0.001973	14.19	179.752	-167.935	0.074004	0.672865	-0.461606	-0.462905	0.017717	14.19	-0.462542	-1.02502e+06	-1.728418E-8	NaN
571	1.000000	0.716184	7.37064e+06	-48539.1	1005.82	-29762	0.000000	0.000000	6.717022	-0.023837	NaN	0.000000	0.001626	0.001749	28.0815	0.097061	0.001960	49.5333	146.463	16.7305	0.000178	0.714811	-0.419586	-0.420959	-0.023837	49.5333	-0.419225	-250852	9.502310E-8	NaN
571	1.000000	0.758207	7.37064e+06	-48539.1	1005.82	-29762	0.000000	0.000000	6.759045	-0.010346	NaN	0.000000	0.001649	0.001766	28.0816	0.018569	0.002012	9.228774	-37.4734	-161.804	0.015045	0.756876	-0.377563	-0.378894	-0.010346	9.228774	-0.376722	-62062.1	1.666984E-7	NaN
571	1.000000	0.800230	7.37064e+06	-48539.1	1005.82	-29762	0.000000	0.000000	6.801071	0.043251	NaN	0.000000	0.001643	0.001768	28.0801	0.022493	0.001943	11.5748	74.3598	17.47	-0.041965	0.798919	-0.335540	-0.336850	0.043251	11.5748	-0.338342	-17273.6	-2.503882E-6	NaN
571	1.000000	0.842220	7.37064e+06	-48539.1	1005.82	-29762	0.000000	0.000000	6.843059	-0.001505	NaN	0.000000	0.001650	0.001795	28.0805	0.034353	0.001905	18.0354	-63.7747	-164.27	0.031115	0.840943	-0.293550	-0.294827	-0.001505	18.0354	-0.293487	-3762.56	3.999923E-7	NaN
571	1.000000	0.884280	7.37064e+06	-48539.1	1005.82	-29762	0.000000	0.000000	6.885119	0.005611	NaN	0.000000	0.001615	0.001785	28.0801	0.075791	0.002091	36.2527	-159.201	15.0201	0.024639	0.882916	-0.251490	-0.252854	0.005611	36.2527	-0.251606	-870.544	-6.445723E-6	NaN
571	1.000000	0.926267	7.37064e+06	-48539.1	1005.82	-29762	0.000000	0.000000	6.927108	0.049869	NaN	0.000000	0.001587	0.001780	28.0816	0.048312	0.001787	27.0286	136.614	-164.038	0.046486	0.925006	-0.209503	-0.210764	0.049869	27.0286	-0.210887	-198.232	-0.000252	NaN
571	1.000000	0.968296	7.37064e+06	-48539.1	1005.82	-29762	0.000000	0.000000	6.969138	0.060516	NaN	0.000000	0.001588	0.001803	28.0815	0.018725	0.001905	9.829265	-126.383	11.4206	0.068661	0.966975	-0.167474	-0.168795	0.060516	9.829265	-0.172091	-44.6527	-0.001355	NaN
571	1.000000	1.010304	7.37064e+06	-48539.1	1005.82	-29762	0.000000	0.000000	7.011142	-0.010528	NaN	0.000000	0.001563	0.001804	28.0816	0.075996	0.002043	37.1909	-29.2168	-164.986	-0.026963	1.009022	-0.125466	-0.126748	-0.010528	37.1909	-0.125254	-6.151920	0.001711	NaN
571	1.000000	1.052292	7.37064e+06	-48539.1	1005.82	-29762	0.000000	0.000000	7.053134	0.065156	NaN	0.000000	0.001612	0.001818	28.0801	0.080537	0.002112	38.1256	-132.555	18.473	0.045608	1.050953	-0.083478	-0.084816	0.065156	38.1256	-0.084759	-0.810679	-0.080373	NaN
571	1.000000	1.094319	7.37064e+06	-48539.1	1005.82	-29762	0.000000	0.000000	7.095159	0.017343	NaN	0.000000	0.001556	0.001849	28.0802	0.082908	0.001963	42.2358	-60.5162	-163.855	0.014139	1.093053	-0.041451	-0.042717	0.017343	42.2358	-0.041759	-0.051157	-0.339020	NaN
571	1.000000	1.136375	7.37064e+06	-48539.1	1005.82	-29762	0.000000	0.000000	7.137227	0.312971	NaN	0.000000	0.001540	0.001828	28.0803	0.592580	0.001969	300.953	13.0656	13.3014	0.060607	1.135019	0.000605	-0.000751	0.312971	300.953	-0.000175	-0.000130	-2407.25	NaN
571	2.000000	1.152864	7.37064e+06	-48539.1	1005.82	-29762	0.000000	0.000000	7.154599	21.7961	NaN	0.000000	0.001583	0.001789	28.0813	17.1667	0.001749	9817.03	6.743730	-177.137	21.5086	1.152548	0.017094	0.016778	21.7961	9817.03	0.015429	0.015862	1374.13	71216.2
571	2.000000	1.163262	7.37064e+06	-48539.1	1005.82	-29762	0.000000	0.000000	7.165978	45.6761	NaN	0.000000	0.001568	0.001816	28.0811	28.3629	0.001800	15753.8	5.685495	0.892105	43.8164	1.162931	0.027492	0.027161	45.6761	15753.8	0.025317	0.031595	1445.66	80974.4
571	2.000000	1.173770	7.37064e+06	-48539.1	1005.82	-29762	0.000000	0.000000	7.178017	82.8859	NaN	0.000000	0.001558	0.001776	28.0815	38.1332	0.001672	22806.9	1.867734	-178.809	82.189	1.173477	0.038000	0.037707	82.8859	22806.9	0.035274	0.052386	1582.21	91039.5
571	2.000000	1.184235	7.37064e+06	-48539.1	1005.82	-29762	0.000000	0.000000	7.190251	125.928	NaN	0.000000	0.001562	0.001807	28.0814	48.3686	0.001831	26421.8	2.690760	-0.196795	122.958	1.183937	0.048465	0.048168	125.928	26421.8	0.044890	0.077276	1629.58	86838.8
571	2.000000	1.194816	7.37064e+06	-48539.1	1005.82	-29762	0.000000	0.000000	7.203160	182.559	NaN	0.000000	0.001580	0.001770	28.0802	59.0311	0.001735	34021.3	6.078456	174.468	185.193	1.194509	0.059046	0.058740	182.559	34021.3	0.055021	0.108563	1681.6	94337.3
571	2.000000	1.205266	7.37064e+06	-48539.1	1005.82	-29762	0.000000	0.000000	7.215988	240.363	NaN	0.000000	0.001564	0.001791	28.0805	69.3673	0.001840	37689.6	4.538557	-4.990605	240.624	1.204942	0.069496	0.069172	240.363	37689.6	0.064713	0.143249	1677.94	90980.6
571	2.000000	1.215658	7.37064e+06	-48539.1	1005.82	-29762	0.000000	0.000000	7.229115	306.877	NaN	0.000000	0.001538	0.001784	28.0805	79.0561	0.001856	42602	4.087424	174.413	303.1	1.215337	0.079888	0.079567	306.877	42602	0.074486	0.182813	1678.64	91033.2
571	2.000000	1.226166	7.37064e+06	-48539.1	1005.82	-29762	0.000000	0.000000	7.242934	387.425	NaN	0.000000	0.001563	0.001794	28.0817	88.3807	0.001738	50865	3.263644	-5.920453	383.336	1.225806	0.090396	0.090036	387.425	50865	0.084684	0.228896	1692.58	97134.5
571	2.000000	1.236731	7.37064e+06	-48539.1	1005.82	-29762	0.000000	0.000000	7.257031	473.342	NaN	0.000000	0.001549	0.001780	28.0814	98.08	0.001704	57570.5	3.399428	173.186	473.333	1.236432	0.100961	0.100662	473.342	57570.5	0.094794	0.279329	1694.57	99521.1
571	2.000000	1.242639	7.37064e+06	-48539.1	1005.82	-29762	0.000000	0.000000	7.265493	535.457	NaN	0.000000	0.001535	0.001777	28.0816	102.376	0.001671	61256.9	3.336432	172.973	532.983	1.242326	0.106869	0.106556	535.457	61256.9	0.100313	0.308830	1733.82	100709