File: remote_trans/data/nanoindenter/0828-1/data/Data_2025-08-06,11h17m57s/2025-07-22_16-23-58_1_556.txt
2025-07-22, 16:23:58, 1
Index	Phase	Displacement	Time	Pos X	Pos Y	Pos Z	Rot A	Rot B	Piezo Z	Force A	Force B	Gripper	Voltage A	Voltage B	Temperature	Amplitude force	Amplitude pos	Stiffness	Phase shift	Phase excitation	Force A raw	Displacement raw	HMax	HMax raw	Real Force	Real Stiffness	Contact Depth	Area	Hardness	Reduced Mod.
[#]	[#]	[um]	[s]	[um]	[um]	[um]	[m°]	[m°]	[um]	[uN]	[uN]	[V]	[V]	[V]	[°C]	[uN]	[um]	[N/m]	[°]	[°]	[uN]	[um]	[um]	[um]	[uN]	[N/m]	[um]	[um^2]	[MPa]	[MPa]
556	1.000000	0.002427	7.37049e+06	-49289.1	1005.82	-29759.6	0.000000	0.000000	6.002796	-0.034064	NaN	0.000000	0.001565	0.001721	28.0793	0.039698	0.000942	42.1351	-42.2166	-170.96	-0.017944	0.001163	-1.053590	-1.054854	-0.034064	42.1351	-1.052983	-1.170895E+14	2.909193E-16	NaN
556	1.000000	0.042420	7.37049e+06	-49289.1	1005.82	-29759.6	0.000000	0.000000	6.042792	0.038844	NaN	0.000000	0.001572	0.001726	28.0803	0.106659	0.002002	53.2674	-121.103	-165.217	0.032629	0.041127	-1.013597	-1.014890	0.038844	53.2674	-1.014144	-3.516843E+13	-1.104503E-15	NaN
556	1.000000	0.082398	7.37049e+06	-49289.1	1005.82	-29759.6	0.000000	0.000000	6.082770	0.033184	NaN	0.000000	0.001617	0.001755	28.0806	0.074581	0.001835	40.654	-84.3667	-168.223	-0.023685	0.081098	-0.973619	-0.974919	0.033184	40.654	-0.974231	-1.020195E+13	-3.252725E-15	NaN
556	1.000000	0.122366	7.37049e+06	-49289.1	1005.82	-29759.6	0.000000	0.000000	6.122737	0.001884	NaN	0.000000	0.001616	0.001707	28.0807	0.042302	0.002124	19.9202	-59.0598	-162.741	0.023641	0.121103	-0.933650	-0.934914	0.001884	19.9202	-0.933721	-2.900140E+12	-6.495014E-16	NaN
556	1.000000	0.162400	7.37049e+06	-49289.1	1005.82	-29759.6	0.000000	0.000000	6.162770	-0.009136	NaN	0.000000	0.001613	0.001744	28.0795	0.065700	0.002088	31.466	-138.605	-165.276	0.029116	0.161130	-0.893617	-0.894887	-0.009136	31.466	-0.893399	-8.276862E+11	1.103741E-14	NaN
556	1.000000	0.202428	7.37049e+06	-49289.1	1005.82	-29759.6	0.000000	0.000000	6.202798	-0.009814	NaN	0.000000	0.001605	0.001749	28.0795	0.110722	0.002085	53.1043	-82.1727	-166.954	0.038040	0.201145	-0.853589	-0.854872	-0.009814	53.1043	-0.853450	-2.384833E+11	4.115075E-14	NaN
556	1.000000	0.242442	7.37049e+06	-49289.1	1005.82	-29759.6	0.000000	0.000000	6.242814	0.037550	NaN	0.000000	0.001584	0.001712	28.0795	0.097959	0.002164	45.2663	12.3511	-169.54	-0.001332	0.241124	-0.813575	-0.814893	0.037550	45.2663	-0.814197	-7.006659E+10	-5.359156E-13	NaN
556	1.000000	0.282458	7.37049e+06	-49289.1	1005.82	-29759.6	0.000000	0.000000	6.282831	0.066357	NaN	0.000000	0.001585	0.001725	28.0797	0.038022	0.002116	17.9711	-93.3465	-163.776	0.062677	0.281198	-0.773559	-0.774819	0.066357	17.9711	-0.776329	-2.144548E+10	-3.094221E-12	NaN
556	1.000000	0.322480	7.37049e+06	-49289.1	1005.82	-29759.6	0.000000	0.000000	6.322850	-0.003178	NaN	0.000000	0.001588	0.001739	28.0809	0.132235	0.002132	62.0372	106.879	-168.406	-0.003283	0.321158	-0.733537	-0.734859	-0.003178	62.0372	-0.733498	-5.603788E+9	5.671201E-13	NaN
556	1.000000	0.362484	7.37049e+06	-49289.1	1005.82	-29759.6	0.000000	0.000000	6.362856	0.036156	NaN	0.000000	0.001688	0.001702	28.0808	0.010537	0.001825	5.774922	-70.4058	-165.992	0.031910	0.361180	-0.693533	-0.694837	0.036156	5.774922	-0.698228	-1.850689E+9	-1.953664E-11	NaN
556	1.000000	0.402491	7.37049e+06	-49289.1	1005.82	-29759.6	0.000000	0.000000	6.402864	0.048434	NaN	0.000000	0.001678	0.001787	28.0807	0.154877	0.001938	79.9359	173.172	-164.852	0.030125	0.401245	-0.653525	-0.654772	0.048434	79.9359	-0.653980	-4.591843E+8	-1.054784E-10	NaN
556	1.000000	0.442536	7.37049e+06	-49289.1	1005.82	-29759.6	0.000000	0.000000	6.442907	0.000503	NaN	0.000000	0.001573	0.001761	28.0797	0.061686	0.002102	29.353	8.235200	-162.596	-0.054104	0.441258	-0.613481	-0.614759	0.000503	29.353	-0.613494	-1.276944E+8	-3.939807E-12	NaN
556	1.000000	0.482549	7.37049e+06	-49289.1	1005.82	-29759.6	0.000000	0.000000	6.482921	0.040514	NaN	0.000000	0.001585	0.001759	28.0794	0.047051	0.002001	23.5082	51.179	-162.536	0.027242	0.481226	-0.573468	-0.574791	0.040514	23.5082	-0.574760	-3.735838E+7	-1.084472E-9	NaN
556	1.000000	0.522575	7.37049e+06	-49289.1	1005.82	-29759.6	0.000000	0.000000	6.522943	-0.056046	NaN	0.000000	0.001605	0.001668	28.0795	0.077396	0.002099	36.8806	-177.967	-165.475	-0.112874	0.521300	-0.533442	-0.534717	-0.056046	36.8806	-0.532302	-9.65036e+06	5.807680E-9	NaN
556	1.000000	0.562588	7.37049e+06	-49289.1	1005.82	-29759.6	0.000000	0.000000	6.562958	-0.033360	NaN	0.000000	0.001587	0.001653	28.0794	0.088246	0.002011	43.8902	119.283	-168.82	0.026224	0.561290	-0.493428	-0.494727	-0.033360	43.8902	-0.492858	-2.72475e+06	1.224342E-8	NaN
556	1.000000	0.602602	7.37049e+06	-49289.1	1005.82	-29759.6	0.000000	0.000000	6.602975	0.052019	NaN	0.000000	0.001624	0.001655	28.0809	0.065152	0.001974	33.0091	45.6887	-167.553	0.082371	0.601284	-0.453415	-0.454733	0.052019	33.0091	-0.454597	-792579	-6.563283E-8	NaN
556	1.000000	0.642644	7.37049e+06	-49289.1	1005.82	-29759.6	0.000000	0.000000	6.643014	-0.010394	NaN	0.000000	0.001635	0.001684	28.0808	0.082347	0.001969	41.8175	-19.2257	-164.043	-0.009455	0.641283	-0.413373	-0.414734	-0.010394	41.8175	-0.413187	-205919	5.047399E-8	NaN
556	1.000000	0.682647	7.37049e+06	-49289.1	1005.82	-29759.6	0.000000	0.000000	6.683017	-0.023917	NaN	0.000000	0.001561	0.001664	28.0804	0.057504	0.002013	28.5694	148.136	-167.641	0.025173	0.681355	-0.373370	-0.374662	-0.023917	28.5694	-0.372742	-54399.3	4.396590E-7	NaN
556	1.000000	0.722647	7.37049e+06	-49289.1	1005.82	-29759.6	0.000000	0.000000	6.723019	0.029761	NaN	0.000000	0.001568	0.001650	28.0792	0.101651	0.001990	51.0801	90.8489	-167.859	0.044074	0.721363	-0.333370	-0.334654	0.029761	51.0801	-0.333807	-14830.3	-2.006738E-6	NaN
556	1.000000	0.762672	7.37049e+06	-49289.1	1005.82	-29759.6	0.000000	0.000000	6.763039	-0.084498	NaN	0.000000	0.001566	0.001631	28.0793	0.125821	0.001983	63.4564	64.4295	-165.015	-0.035041	0.761351	-0.293345	-0.294666	-0.084498	63.4564	-0.292346	-3617.6	2.335749E-5	NaN
556	1.000000	0.802715	7.37049e+06	-49289.1	1005.82	-29759.6	0.000000	0.000000	6.803085	-0.006279	NaN	0.000000	0.001590	0.001628	28.0791	0.045202	0.002010	22.4896	169.842	-165.248	0.048209	0.801363	-0.253302	-0.254654	-0.006279	22.4896	-0.253093	-917.761	6.841248E-6	NaN
556	1.000000	0.842687	7.37049e+06	-49289.1	1005.82	-29759.6	0.000000	0.000000	6.843058	0.021708	NaN	0.000000	0.001585	0.001645	28.0804	0.159426	0.002107	75.6583	8.812557	-167.893	-0.029208	0.841419	-0.213330	-0.214598	0.021708	75.6583	-0.213545	-218.823	-9.920404E-5	NaN
556	1.000000	0.882721	7.37049e+06	-49289.1	1005.82	-29759.6	0.000000	0.000000	6.883094	0.063997	NaN	0.000000	0.001587	0.001628	28.0808	0.081404	0.002029	40.1107	-155.182	-165.902	0.049251	0.881418	-0.173296	-0.174598	0.063997	40.1107	-0.174493	-49.1203	-0.001303	NaN
556	1.000000	0.922772	7.37049e+06	-49289.1	1005.82	-29759.6	0.000000	0.000000	6.923142	-0.014377	NaN	0.000000	0.001569	0.001627	28.0809	0.168937	0.001871	90.2913	-90.9405	-164.992	-0.016254	0.921419	-0.133245	-0.134598	-0.014377	90.2913	-0.133125	-8.757536	0.001642	NaN
556	1.000000	0.962788	7.37049e+06	-49289.1	1005.82	-29759.6	0.000000	0.000000	6.963162	0.088197	NaN	0.000000	0.001629	0.001638	28.081	0.081154	0.001914	42.3982	101.567	-165.415	0.087933	0.961458	-0.093229	-0.094559	0.088197	42.3982	-0.094789	-1.395125	-0.063218	NaN
556	1.000000	1.002756	7.37049e+06	-49289.1	1005.82	-29759.6	0.000000	0.000000	7.003129	0.069083	NaN	0.000000	0.001558	0.001655	28.0794	0.081172	0.001950	41.616	70.2206	-161.98	0.019996	1.001457	-0.053261	-0.054560	0.069083	41.616	-0.054506	-0.124512	-0.554826	NaN
556	1.000000	1.042803	7.37049e+06	-49289.1	1005.82	-29759.6	0.000000	0.000000	7.043173	-0.015276	NaN	0.000000	0.001582	0.001656	28.0792	0.091263	0.002168	42.0964	-147.973	-163.446	-0.043052	1.041516	-0.013213	-0.014501	-0.015276	42.0964	-0.012941	-0.008068	1.893281	NaN
556	2.000000	1.068366	7.37049e+06	-49289.1	1005.82	-29759.6	0.000000	0.000000	7.069304	13.8122	NaN	0.000000	0.001594	0.001601	28.0793	14.0903	0.001767	7974.71	6.808946	-174.955	14.4883	1.068087	0.012349	0.012070	13.8122	7974.71	0.011050	0.010372	1331.72	71542.4
556	2.000000	1.078352	7.37049e+06	-49289.1	1005.82	-29759.6	0.000000	0.000000	7.080118	33.9268	NaN	0.000000	0.001618	0.001607	28.0808	24.8352	0.001794	13847	7.526840	179.832	35.088	1.078049	0.022335	0.022032	33.9268	13847	0.020498	0.023331	1454.17	82825.8
556	2.000000	1.088275	7.37049e+06	-49289.1	1005.82	-29759.6	0.000000	0.000000	7.091206	62.2785	NaN	0.000000	0.001562	0.001632	28.0808	34.7161	0.001769	19627.9	4.392391	178.593	60.1134	1.087942	0.032258	0.031925	62.2785	19627.9	0.029878	0.040491	1538.07	89118
556	2.000000	1.098311	7.37049e+06	-49289.1	1005.82	-29759.6	0.000000	0.000000	7.102779	99.6545	NaN	0.000000	0.001579	0.001629	28.0809	43.2568	0.001782	24272.8	9.415127	173.333	101.418	1.097855	0.042294	0.041838	99.6545	24272.8	0.039215	0.062015	1606.93	89051.9
556	2.000000	1.108222	7.37049e+06	-49289.1	1005.82	-29759.6	0.000000	0.000000	7.114363	140.34	NaN	0.000000	0.001586	0.001597	28.0807	52.3027	0.001791	29204.9	3.111800	177.181	139.067	1.107926	0.052205	0.051910	140.34	29204.9	0.048601	0.088138	1592.27	89876.8
556	2.000000	1.118302	7.37049e+06	-49289.1	1005.82	-29759.6	0.000000	0.000000	7.126418	188.357	NaN	0.000000	0.001620	0.001617	28.0792	61.925	0.001688	36687.3	2.040119	176.532	190.019	1.117888	0.062285	0.061871	188.357	36687.3	0.058435	0.120256	1566.3	96657.7
556	2.000000	1.128257	7.37049e+06	-49289.1	1005.82	-29759.6	0.000000	0.000000	7.138579	242.033	NaN	0.000000	0.001621	0.001612	28.0795	71.3372	0.001836	38847.6	4.844634	173.561	244.037	1.127910	0.072240	0.071894	242.033	38847.6	0.067567	0.154332	1568.26	90346.2
556	2.000000	1.138217	7.37049e+06	-49289.1	1005.82	-29759.6	0.000000	0.000000	7.151039	302.823	NaN	0.000000	0.001613	0.001681	28.0795	81.4696	0.001734	46978.2	7.783983	168.832	303.776	1.137906	0.082200	0.081890	302.823	46978.2	0.077366	0.195335	1550.28	97113.4
556	2.000000	1.148251	7.37049e+06	-49289.1	1005.82	-29759.6	0.000000	0.000000	7.163456	360.781	NaN	0.000000	0.001613	0.001685	28.0807	90.2006	0.001830	49290.1	1.365396	174.363	361.673	1.148142	0.092234	0.092125	360.781	49290.1	0.086745	0.238795	1510.84	92155.4
556	2.000000	1.158209	7.37049e+06	-49289.1	1005.82	-29759.6	0.000000	0.000000	7.177078	449.884	NaN	0.000000	0.001639	0.001659	28.0807	99.2754	0.001839	53989.5	1.856300	174.235	449.824	1.157873	0.102192	0.101856	449.884	53989.5	0.095942	0.285352	1576.6	92340.6
556	2.000000	1.162045	7.37049e+06	-49289.1	1005.82	-29759.6	0.000000	0.000000	7.182121	479.245	NaN	0.000000	0.001647	0.001614	28.0806	103.136	0.001868	55209.6	6.641201	168.656	470.551	1.161731	0.106029	0.105714	479.245	55209.6	0.099518	0.304496	1573.9	91410.7