File: remote_trans/data/nanoindenter/0828-1/data/Data_2025-08-06,11h17m57s/2025-07-22_16-23-58_1_508.txt
2025-07-22, 16:23:58, 1
Index	Phase	Displacement	Time	Pos X	Pos Y	Pos Z	Rot A	Rot B	Piezo Z	Force A	Force B	Gripper	Voltage A	Voltage B	Temperature	Amplitude force	Amplitude pos	Stiffness	Phase shift	Phase excitation	Force A raw	Displacement raw	HMax	HMax raw	Real Force	Real Stiffness	Contact Depth	Area	Hardness	Reduced Mod.
[#]	[#]	[um]	[s]	[um]	[um]	[um]	[m°]	[m°]	[um]	[uN]	[uN]	[V]	[V]	[V]	[°C]	[uN]	[um]	[N/m]	[°]	[°]	[uN]	[um]	[um]	[um]	[uN]	[N/m]	[um]	[um^2]	[MPa]	[MPa]
508	1.000000	0.002602	7.37002e+06	-51689.1	1005.82	-29751.5	0.000000	0.000000	6.002816	0.008774	NaN	0.000000	0.001655	0.001679	28.0801	0.060964	0.000885	68.8837	-163.083	-166.679	0.008502	0.001262	-1.127321	-1.128661	0.008774	68.8837	-1.127417	-1.169421E+15	-7.502748E-18	NaN
508	1.000000	0.044538	7.37002e+06	-51689.1	1005.82	-29751.5	0.000000	0.000000	6.044751	-0.026064	NaN	0.000000	0.001626	0.001696	28.0796	0.022137	0.001981	11.1749	-168.825	13.3374	-0.019527	0.043189	-1.085385	-1.086734	-0.026064	11.1749	-1.083636	-3.022407E+14	8.623487E-17	NaN
508	1.000000	0.086530	7.37002e+06	-51689.1	1005.82	-29751.5	0.000000	0.000000	6.086746	0.048268	NaN	0.000000	0.001628	0.001694	28.0796	0.022156	0.001927	11.4962	-132.007	-166.444	0.004256	0.085259	-1.043393	-1.044664	0.048268	11.4962	-1.046542	-9.592418E+13	-5.031860E-16	NaN
508	1.000000	0.128565	7.37002e+06	-51689.1	1005.82	-29751.5	0.000000	0.000000	6.128778	-0.024781	NaN	0.000000	0.001606	0.001698	28.0808	0.037321	0.002098	17.7906	63.7777	11.5311	-0.132287	0.127233	-1.001358	-1.002690	-0.024781	17.7906	-1.000314	-2.290821E+13	1.081772E-15	NaN
508	1.000000	0.170587	7.37002e+06	-51689.1	1005.82	-29751.5	0.000000	0.000000	6.170802	0.025367	NaN	0.000000	0.001597	0.001749	28.0815	0.068332	0.002091	32.6785	-102.366	-164.432	-0.018361	0.169338	-0.959336	-0.960585	0.025367	32.6785	-0.959918	-6.542838E+12	-3.877048E-15	NaN
508	1.000000	0.212592	7.37002e+06	-51689.1	1005.82	-29751.5	0.000000	0.000000	6.212805	-0.043900	NaN	0.000000	0.001611	0.001713	28.081	0.130997	0.001942	67.4579	125.015	14.2505	-0.059153	0.211244	-0.917331	-0.918679	-0.043900	67.4579	-0.916843	-1.716217E+12	2.557964E-14	NaN
508	1.000000	0.254655	7.37002e+06	-51689.1	1005.82	-29751.5	0.000000	0.000000	6.254871	0.036166	NaN	0.000000	0.001657	0.001691	28.0796	0.090792	0.002026	44.8232	175.448	-165.973	0.008387	0.253323	-0.875268	-0.876600	0.036166	44.8232	-0.875873	-4.796105E+11	-7.540747E-14	NaN
508	1.000000	0.296642	7.37002e+06	-51689.1	1005.82	-29751.5	0.000000	0.000000	6.296855	-0.019905	NaN	0.000000	0.001709	0.001712	28.0795	0.128118	0.002023	63.3329	-8.599870	16.2767	-0.031704	0.295290	-0.833281	-0.834633	-0.019905	63.3329	-0.833046	-1.262007E+11	1.577267E-13	NaN
508	1.000000	0.338658	7.37002e+06	-51689.1	1005.82	-29751.5	0.000000	0.000000	6.338874	0.037622	NaN	0.000000	0.001687	0.001745	28.0794	0.062675	0.001981	31.6317	109.365	-166.881	0.005533	0.337397	-0.791265	-0.792526	0.037622	31.6317	-0.792157	-3.518689E+10	-1.069199E-12	NaN
508	1.000000	0.380713	7.37002e+06	-51689.1	1005.82	-29751.5	0.000000	0.000000	6.380928	0.014564	NaN	0.000000	0.001686	0.001726	28.0826	0.114715	0.002016	56.8947	177.407	16.8733	0.020086	0.379358	-0.749210	-0.750565	0.014564	56.8947	-0.749402	-9.227283E+9	-1.578391E-12	NaN
508	1.000000	0.422646	7.37002e+06	-51689.1	1005.82	-29751.5	0.000000	0.000000	6.422860	-0.003926	NaN	0.000000	0.001738	0.001725	28.0808	0.059324	0.001999	29.6725	-55.4145	-164.407	-0.012919	0.421410	-0.707277	-0.708513	-0.003926	29.6725	-0.707178	-2.452049E+9	1.601236E-12	NaN
508	1.000000	0.464729	7.37002e+06	-51689.1	1005.82	-29751.5	0.000000	0.000000	6.464942	-0.011323	NaN	0.000000	0.001684	0.001735	28.0809	0.043618	0.002072	21.0516	-23.1642	13.38	-0.032798	0.463389	-0.665194	-0.666534	-0.011323	21.0516	-0.664791	-6.457748E+8	1.753464E-11	NaN
508	1.000000	0.506750	7.37002e+06	-51689.1	1005.82	-29751.5	0.000000	0.000000	6.506964	-0.021029	NaN	0.000000	0.001720	0.001778	28.081	0.024830	0.002010	12.3558	-35.4321	-168.619	0.000817	0.505454	-0.623173	-0.624469	-0.021029	12.3558	-0.621896	-1.666086E+8	1.262163E-10	NaN
508	1.000000	0.548741	7.37002e+06	-51689.1	1005.82	-29751.5	0.000000	0.000000	6.548957	0.034340	NaN	0.000000	0.001505	0.001738	28.0798	0.034856	0.001880	18.5449	73.7959	13.572	0.035216	0.547367	-0.581182	-0.582556	0.034340	18.5449	-0.582571	-4.788538E+7	-7.171334E-10	NaN
508	1.000000	0.590754	7.37002e+06	-51689.1	1005.82	-29751.5	0.000000	0.000000	6.590966	-0.055302	NaN	0.000000	0.001617	0.001730	28.0799	0.033138	0.002091	15.8456	4.931473	-165.588	0.025841	0.589492	-0.539169	-0.540431	-0.055302	15.8456	-0.536552	-1.105414E+7	5.002846E-9	NaN
508	1.000000	0.632801	7.37002e+06	-51689.1	1005.82	-29751.5	0.000000	0.000000	6.633018	0.061636	NaN	0.000000	0.001613	0.001718	28.0796	0.044269	0.002058	21.5112	64.9125	16.2324	0.004861	0.631432	-0.497122	-0.498491	0.061636	21.5112	-0.499271	-3.34851e+06	-1.840707E-8	NaN
508	1.000000	0.674799	7.37002e+06	-51689.1	1005.82	-29751.5	0.000000	0.000000	6.675012	-0.037008	NaN	0.000000	0.001643	0.001705	28.0807	0.083512	0.001857	44.9677	13.6514	-164.737	-0.036354	0.673526	-0.455124	-0.456397	-0.037008	44.9677	-0.454507	-790279	4.682930E-8	NaN
508	1.000000	0.716808	7.37002e+06	-51689.1	1005.82	-29751.5	0.000000	0.000000	6.717018	-0.100470	NaN	0.000000	0.001648	0.001700	28.0809	0.093576	0.001942	48.1955	-173.975	13.8151	-0.082003	0.715440	-0.413115	-0.414483	-0.100470	48.1955	-0.411552	-195191	5.147270E-7	NaN
508	1.000000	0.758850	7.37002e+06	-51689.1	1005.82	-29751.5	0.000000	0.000000	6.759063	-0.047130	NaN	0.000000	0.001618	0.001704	28.0807	0.154763	0.001992	77.6902	-155.467	-164.801	-0.033948	0.757497	-0.371073	-0.372426	-0.047130	77.6902	-0.370618	-50701.6	9.295497E-7	NaN
508	1.000000	0.800830	7.37002e+06	-51689.1	1005.82	-29751.5	0.000000	0.000000	6.801044	-0.018343	NaN	0.000000	0.001665	0.001720	28.0794	0.078202	0.001926	40.5944	-97.7359	15.195	-0.049719	0.799525	-0.329093	-0.330398	-0.018343	40.5944	-0.328754	-12508.3	1.466465E-6	NaN
508	1.000000	0.842873	7.37002e+06	-51689.1	1005.82	-29751.5	0.000000	0.000000	6.843085	-0.052246	NaN	0.000000	0.001662	0.001712	28.0798	0.075730	0.001935	39.136	74.9499	-166.818	-0.024758	0.841589	-0.287050	-0.288334	-0.052246	39.136	-0.286049	-2910.92	1.794840E-5	NaN
508	1.000000	0.884885	7.37002e+06	-51689.1	1005.82	-29751.5	0.000000	0.000000	6.885098	-0.031203	NaN	0.000000	0.001741	0.001667	28.0794	0.061516	0.002009	30.626	-96.0708	14.9539	-0.044117	0.883472	-0.245038	-0.246451	-0.031203	30.626	-0.244274	-670.139	4.656144E-5	NaN
508	1.000000	0.926916	7.37002e+06	-51689.1	1005.82	-29751.5	0.000000	0.000000	6.927132	0.020010	NaN	0.000000	0.001695	0.001690	28.0809	0.067710	0.001813	37.3437	-116.336	-163.846	0.024927	0.925591	-0.203007	-0.204332	0.020010	37.3437	-0.203408	-149.82	-0.000134	NaN
508	1.000000	0.968901	7.37003e+06	-51689.1	1005.82	-29751.5	0.000000	0.000000	6.969117	0.032500	NaN	0.000000	0.001653	0.001671	28.0809	0.062252	0.002087	29.8264	-109.119	13.3523	0.042175	0.967562	-0.161022	-0.162361	0.032500	29.8264	-0.161839	-29.5525	-0.001100	NaN
508	1.000000	1.010898	7.37003e+06	-51689.1	1005.82	-29751.5	0.000000	0.000000	7.011109	-0.062354	NaN	0.000000	0.001650	0.001711	28.0808	0.042601	0.001924	22.1402	-44.1678	-167.106	-0.101257	1.009586	-0.119025	-0.120337	-0.062354	22.1402	-0.116913	-4.181982	0.014910	NaN
508	1.000000	1.052957	7.37003e+06	-51689.1	1005.82	-29751.5	0.000000	0.000000	7.053169	-0.054349	NaN	0.000000	0.001694	0.001698	28.0809	0.051731	0.002018	25.6388	84.6755	14.5729	-0.076292	1.051626	-0.076966	-0.078297	-0.054349	25.6388	-0.075376	-0.472314	0.115069	NaN
508	1.000000	1.094968	7.37003e+06	-51689.1	1005.82	-29751.5	0.000000	0.000000	7.095185	0.058385	NaN	0.000000	0.001718	0.001710	28.0793	0.038914	0.002014	19.3175	10.0554	-165.325	0.067730	1.093628	-0.034955	-0.036295	0.058385	19.3175	-0.037222	-0.037283	-1.566012	NaN
508	2.000000	1.135153	7.37003e+06	-51689.1	1005.82	-29751.5	0.000000	0.000000	7.135734	8.895708	NaN	0.000000	0.001673	0.001725	28.0796	9.389898	0.001668	5627.86	7.216390	7.621772	8.592449	1.134743	0.005230	0.004820	8.895708	5627.86	0.004045	0.003278	2713.46	89802.5
508	2.000000	1.145548	7.37003e+06	-51689.1	1005.82	-29751.5	0.000000	0.000000	7.146861	26.7198	NaN	0.000000	0.001663	0.001683	28.0796	20.1851	0.001714	11778.2	4.941678	-177.238	26.1393	1.145336	0.015625	0.015413	26.7198	11778.2	0.013924	0.013877	1925.51	91349.8
508	2.000000	1.156045	7.37003e+06	-51689.1	1005.82	-29751.5	0.000000	0.000000	7.158418	52.488	NaN	0.000000	0.001683	0.001702	28.0807	30.241	0.001914	15797.6	8.804118	-1.458338	53.8345	1.155590	0.026122	0.025667	52.488	15797.6	0.023630	0.028570	1837.14	85389.5
508	2.000000	1.166512	7.37003e+06	-51689.1	1005.82	-29751.5	0.000000	0.000000	7.170313	87.2105	NaN	0.000000	0.001692	0.001658	28.0808	39.9163	0.001749	22817.9	4.128051	178.223	86.8928	1.166159	0.036589	0.036236	87.2105	22817.9	0.033722	0.048812	1786.65	94359.1
508	2.000000	1.176930	7.37003e+06	-51689.1	1005.82	-29751.5	0.000000	0.000000	7.182783	137.108	NaN	0.000000	0.001683	0.001686	28.0805	48.3738	0.001677	28847.7	1.186627	-0.556488	133.988	1.176622	0.047007	0.046699	137.108	28847.7	0.043443	0.073228	1872.35	97397.1
508	2.000000	1.187512	7.37003e+06	-51689.1	1005.82	-29751.5	0.000000	0.000000	7.195315	184.524	NaN	0.000000	0.001722	0.001712	28.0797	60.7108	0.001944	31227.7	4.643366	175.779	184.795	1.187225	0.057589	0.057302	184.524	31227.7	0.053158	0.102423	1801.59	89148.8
508	2.000000	1.197974	7.37003e+06	-51689.1	1005.82	-29751.5	0.000000	0.000000	7.208259	244.887	NaN	0.000000	0.001700	0.001728	28.0797	69.9355	0.001876	37284	3.339172	-4.530688	244.11	1.197679	0.068051	0.067756	244.887	37284	0.063124	0.137250	1784.24	91947.4
508	2.000000	1.208318	7.37003e+06	-51689.1	1005.82	-29751.5	0.000000	0.000000	7.221451	314.138	NaN	0.000000	0.001694	0.001690	28.0796	77.4027	0.001720	45014.4	2.513231	175.07	306.951	1.208057	0.078395	0.078134	314.138	45014.4	0.073161	0.177184	1772.95	97703.9
508	2.000000	1.218920	7.37003e+06	-51689.1	1005.82	-29751.5	0.000000	0.000000	7.234967	384.985	NaN	0.000000	0.001768	0.001737	28.081	87.5152	0.001756	49829.4	6.812717	-10.1235	383.481	1.218563	0.088997	0.088640	384.985	49829.4	0.083203	0.221902	1734.93	96644.9
508	2.000000	1.229325	7.37003e+06	-51689.1	1005.82	-29751.5	0.000000	0.000000	7.248425	459.236	NaN	0.000000	0.001664	0.001702	28.0808	96.047	0.001800	53349.6	4.097890	172.358	453.544	1.229041	0.099402	0.099118	459.236	53349.6	0.092946	0.269758	1702.4	93846.3
508	2.000000	1.232907	7.37003e+06	-51689.1	1005.82	-29751.5	0.000000	0.000000	7.252905	481.059	NaN	0.000000	0.001670	0.001703	28.0808	100.558	0.001752	57410.5	5.810371	-10.2787	476.455	1.232589	0.102984	0.102666	481.059	57410.5	0.096700	0.289357	1662.51	97509.6