File: remote_trans/data/nanoindenter/0828-1/data/Data_2025-08-06,11h17m57s/2025-07-22_16-23-58_1_543.txt
2025-07-22, 16:23:58, 1
Index	Phase	Displacement	Time	Pos X	Pos Y	Pos Z	Rot A	Rot B	Piezo Z	Force A	Force B	Gripper	Voltage A	Voltage B	Temperature	Amplitude force	Amplitude pos	Stiffness	Phase shift	Phase excitation	Force A raw	Displacement raw	HMax	HMax raw	Real Force	Real Stiffness	Contact Depth	Area	Hardness	Reduced Mod.
[#]	[#]	[um]	[s]	[um]	[um]	[um]	[m°]	[m°]	[um]	[uN]	[uN]	[V]	[V]	[V]	[°C]	[uN]	[um]	[N/m]	[°]	[°]	[uN]	[um]	[um]	[um]	[uN]	[N/m]	[um]	[um^2]	[MPa]	[MPa]
543	1.000000	0.002550	7.37036e+06	-49939.1	1005.82	-29757.3	0.000000	0.000000	6.002817	-0.072027	NaN	0.000000	0.001646	0.001752	28.0825	0.051585	0.001055	48.8859	-85.5663	-166.623	-0.097380	0.001259	-1.140832	-1.142124	-0.072027	48.8859	-1.139727	-1.710319E+15	4.211332E-17	NaN
543	1.000000	0.044465	7.37036e+06	-49939.1	1005.82	-29757.3	0.000000	0.000000	6.044729	-0.131866	NaN	0.000000	0.001664	0.001759	28.0823	0.141498	0.002059	68.7059	-75.0318	14.8929	-0.079546	0.043097	-1.098918	-1.100285	-0.131866	68.7059	-1.097478	-4.636760E+14	2.843928E-16	NaN
543	1.000000	0.086474	7.37036e+06	-49939.1	1005.82	-29757.3	0.000000	0.000000	6.086745	0.008368	NaN	0.000000	0.001634	0.001781	28.0824	0.021857	0.002041	10.7089	105.841	-166.213	-0.075549	0.085208	-1.056908	-1.058175	0.008368	10.7089	-1.057494	-1.346310E+14	-6.215738E-17	NaN
543	1.000000	0.128511	7.37036e+06	-49939.1	1005.82	-29757.3	0.000000	0.000000	6.128780	-0.031081	NaN	0.000000	0.001629	0.001750	28.0815	0.076861	0.001985	38.7117	-137.537	14.5303	-0.060514	0.127114	-1.014871	-1.016269	-0.031081	38.7117	-1.014269	-3.530514E+13	8.803477E-16	NaN
543	1.000000	0.170499	7.37036e+06	-49939.1	1005.82	-29757.3	0.000000	0.000000	6.170766	-0.067804	NaN	0.000000	0.001608	0.001771	28.0815	0.037941	0.002038	18.6154	-148.091	-164.331	-0.162817	0.169198	-0.972883	-0.974184	-0.067804	18.6154	-0.970152	-8.988870E+12	7.543111E-15	NaN
543	1.000000	0.212567	7.37036e+06	-49939.1	1005.82	-29757.3	0.000000	0.000000	6.212837	0.001793	NaN	0.000000	0.001617	0.001768	28.0809	0.101696	0.002020	50.3437	-114.122	14.8338	0.019739	0.211187	-0.930815	-0.932196	0.001793	50.3437	-0.930842	-2.651937E+12	-6.760529E-16	NaN
543	1.000000	0.254548	7.37036e+06	-49939.1	1005.82	-29757.3	0.000000	0.000000	6.254817	-0.028649	NaN	0.000000	0.001630	0.001774	28.082	0.025562	0.002091	12.2233	9.460754	-165.323	-0.044497	0.253267	-0.888834	-0.890115	-0.028649	12.2233	-0.887076	-6.798175E+11	4.214267E-14	NaN
543	1.000000	0.296604	7.37036e+06	-49939.1	1005.82	-29757.3	0.000000	0.000000	6.296874	-0.011921	NaN	0.000000	0.001624	0.001757	28.0822	0.056642	0.002005	28.2482	-63.5488	12.9822	-0.033198	0.295158	-0.846778	-0.848224	-0.011921	28.2482	-0.846462	-1.917877E+11	6.215901E-14	NaN
543	1.000000	0.338612	7.37036e+06	-49939.1	1005.82	-29757.3	0.000000	0.000000	6.338884	0.033590	NaN	0.000000	0.001617	0.001755	28.0825	0.065400	0.001998	32.7356	-129.938	-166.565	0.003920	0.337298	-0.804770	-0.806085	0.033590	32.7356	-0.805540	-5.346234E+10	-6.282860E-13	NaN
543	1.000000	0.380611	7.37036e+06	-49939.1	1005.82	-29757.3	0.000000	0.000000	6.380882	0.021422	NaN	0.000000	0.001628	0.001773	28.0812	0.076878	0.001809	42.4918	146.64	16.2969	-0.036302	0.379246	-0.762771	-0.764137	0.021422	42.4918	-0.763149	-1.419513E+10	-1.509131E-12	NaN
543	1.000000	0.422616	7.37036e+06	-49939.1	1005.82	-29757.3	0.000000	0.000000	6.422886	-0.014704	NaN	0.000000	0.001583	0.001762	28.0812	0.036642	0.002050	17.8782	5.138446	-167.168	-0.022753	0.421306	-0.720766	-0.722076	-0.014704	17.8782	-0.720149	-3.685622E+9	3.989512E-12	NaN
543	1.000000	0.464648	7.37036e+06	-49939.1	1005.82	-29757.3	0.000000	0.000000	6.464916	-0.033566	NaN	0.000000	0.001648	0.001715	28.0811	0.073978	0.001996	37.0674	169.19	14.6626	-0.061528	0.463257	-0.678735	-0.680125	-0.033566	37.0674	-0.678056	-9.808703E+8	3.422088E-11	NaN
543	1.000000	0.506677	7.37036e+06	-49939.1	1005.82	-29757.3	0.000000	0.000000	6.506947	-0.012944	NaN	0.000000	0.001607	0.001739	28.0809	0.073253	0.001936	37.8328	53.039	-166.386	-0.014842	0.505384	-0.636705	-0.637998	-0.012944	37.8328	-0.636449	-2.639714E+8	4.903505E-11	NaN
543	1.000000	0.548662	7.37036e+06	-49939.1	1005.82	-29757.3	0.000000	0.000000	6.548930	-0.062429	NaN	0.000000	0.001600	0.001715	28.082	0.104583	0.002068	50.5711	113.368	15.4437	-0.052483	0.547306	-0.594720	-0.596077	-0.062429	50.5711	-0.593794	-6.838598E+7	9.128869E-10	NaN
543	1.000000	0.590665	7.37036e+06	-49939.1	1005.82	-29757.3	0.000000	0.000000	6.590934	-0.018457	NaN	0.000000	0.001586	0.001759	28.0823	0.067113	0.001975	33.9805	159.101	-163.274	-0.076128	0.589440	-0.552718	-0.553942	-0.018457	33.9805	-0.552310	-1.827897E+7	1.009752E-9	NaN
543	1.000000	0.632728	7.37036e+06	-49939.1	1005.82	-29757.3	0.000000	0.000000	6.632994	-0.081225	NaN	0.000000	0.001626	0.001781	28.0836	0.112875	0.001937	58.2748	69.3472	17.675	-0.058482	0.631386	-0.510655	-0.511997	-0.081225	58.2748	-0.509609	-4.66631e+06	1.740672E-8	NaN
543	1.000000	0.674751	7.37036e+06	-49939.1	1005.82	-29757.3	0.000000	0.000000	6.675021	-0.015647	NaN	0.000000	0.001599	0.001770	28.0807	0.059969	0.002044	29.3422	-5.255210	-165.004	-0.048826	0.673376	-0.468631	-0.470006	-0.015647	29.3422	-0.468231	-1.23196e+06	1.270074E-8	NaN
543	1.000000	0.716770	7.37036e+06	-49939.1	1005.82	-29757.3	0.000000	0.000000	6.717041	0.022910	NaN	0.000000	0.001660	0.001716	28.0808	0.052521	0.001931	27.1982	-61.5502	14.529	0.032815	0.715431	-0.426613	-0.427951	0.022910	27.1982	-0.427245	-325887	-7.030134E-8	NaN
543	1.000000	0.758784	7.37036e+06	-49939.1	1005.82	-29757.3	0.000000	0.000000	6.759053	-0.042353	NaN	0.000000	0.001674	0.001719	28.0806	0.091986	0.001882	48.8753	111.482	-167.409	-0.059668	0.757476	-0.384598	-0.385907	-0.042353	48.8753	-0.383948	-78798	5.374890E-7	NaN
543	1.000000	0.800796	7.37036e+06	-49939.1	1005.82	-29757.3	0.000000	0.000000	6.801063	-0.088046	NaN	0.000000	0.001641	0.001742	28.0819	0.018865	0.002105	8.960497	-148.661	15.909	-0.068720	0.799477	-0.342586	-0.343906	-0.088046	8.960497	-0.335216	-15550.7	5.661865E-6	NaN
543	1.000000	0.842789	7.37036e+06	-49939.1	1005.82	-29757.3	0.000000	0.000000	6.843056	-0.078659	NaN	0.000000	0.001648	0.001758	28.0821	0.060095	0.002007	29.9361	97.1832	-163.472	-0.071656	0.841535	-0.300594	-0.301847	-0.078659	29.9361	-0.298623	-4488.79	1.752353E-5	NaN
543	1.000000	0.884844	7.37036e+06	-49939.1	1005.82	-29757.3	0.000000	0.000000	6.885113	-0.027105	NaN	0.000000	0.001653	0.001727	28.0821	0.082511	0.001917	43.0476	-20.3896	16.3233	-0.020521	0.883453	-0.258538	-0.259929	-0.027105	43.0476	-0.258066	-1094.58	2.476280E-5	NaN
543	1.000000	0.926830	7.37036e+06	-49939.1	1005.82	-29757.3	0.000000	0.000000	6.927099	-0.031111	NaN	0.000000	0.001681	0.001808	28.0806	0.101572	0.001913	53.1089	-30.3414	-167.415	-0.032490	0.925503	-0.216553	-0.217879	-0.031111	53.1089	-0.216113	-240.662	0.000129	NaN
543	1.000000	0.968854	7.37036e+06	-49939.1	1005.82	-29757.3	0.000000	0.000000	6.969120	-0.087867	NaN	0.000000	0.001613	0.001826	28.0806	0.112719	0.001921	58.6863	-53.9667	13.6356	-0.003667	0.967522	-0.174529	-0.175860	-0.087867	58.6863	-0.173406	-47.0478	0.001868	NaN
543	1.000000	1.010866	7.37036e+06	-49939.1	1005.82	-29757.3	0.000000	0.000000	7.011132	-0.082019	NaN	0.000000	0.001650	0.001737	28.0807	0.045632	0.001824	25.0176	-24.7346	-167.875	0.006337	1.009616	-0.132517	-0.133766	-0.082019	25.0176	-0.130058	-7.640787	0.010734	NaN
543	1.000000	1.052890	7.37036e+06	-49939.1	1005.82	-29757.3	0.000000	0.000000	7.053157	-0.088834	NaN	0.000000	0.001640	0.001769	28.0805	0.022574	0.002001	11.2821	-116.908	12.2023	-0.040495	1.051517	-0.090492	-0.091865	-0.088834	11.2821	-0.084587	-0.802910	0.110640	NaN
543	1.000000	1.094916	7.37037e+06	-49939.1	1005.82	-29757.3	0.000000	0.000000	7.095186	-0.007866	NaN	0.000000	0.001622	0.001736	28.0818	0.098033	0.002053	47.7439	36.7732	-164.143	0.041412	1.093606	-0.048466	-0.049777	-0.007866	47.7439	-0.048343	-0.081279	0.096775	NaN
543	1.000000	1.136907	7.37037e+06	-49939.1	1005.82	-29757.3	0.000000	0.000000	7.137175	-0.050833	NaN	0.000000	0.001633	0.001702	28.0819	0.031392	0.001992	15.7556	-150.555	15.2031	-0.073085	1.135574	-0.006476	-0.007808	-0.050833	15.7556	-0.004056	-0.002815	18.0574	NaN
543	2.000000	1.155486	7.37037e+06	-49939.1	1005.82	-29757.3	0.000000	0.000000	7.156562	19.6034	NaN	0.000000	0.001622	0.001768	28.0818	17.074	0.001760	9699.15	6.715193	-176.395	19.9495	1.155231	0.012104	0.011848	19.6034	9699.15	0.010588	0.009842	1991.77	89322.4
543	2.000000	1.165989	7.37037e+06	-49939.1	1005.82	-29757.3	0.000000	0.000000	7.167926	40.5549	NaN	0.000000	0.001637	0.001715	28.0807	27.5007	0.001783	15425.8	9.486499	-1.249437	42.9489	1.165544	0.022606	0.022162	40.5549	15425.8	0.020634	0.023549	1722.15	91840.8
543	2.000000	1.176395	7.37037e+06	-49939.1	1005.82	-29757.3	0.000000	0.000000	7.179603	71.444	NaN	0.000000	0.001730	0.001717	28.0808	36.5287	0.001672	21846.5	9.127399	175.462	71.8596	1.176023	0.033012	0.032640	71.444	21846.5	0.030560	0.041912	1704.63	97496.3
543	2.000000	1.186854	7.37037e+06	-49939.1	1005.82	-29757.3	0.000000	0.000000	7.191575	108.241	NaN	0.000000	0.001737	0.001725	28.081	45.6879	0.001749	26129.5	3.513134	-0.536313	104.814	1.186431	0.043471	0.043048	108.241	26129.5	0.040364	0.064973	1665.93	93656.3
543	2.000000	1.197382	7.37037e+06	-49939.1	1005.82	-29757.3	0.000000	0.000000	7.203723	147.652	NaN	0.000000	0.001691	0.001697	28.0821	57.2043	0.001844	31016	5.311177	176.175	144.881	1.197022	0.054000	0.053639	147.652	31016	0.050429	0.093744	1575.05	92552.1
543	2.000000	1.207887	7.37037e+06	-49939.1	1005.82	-29757.3	0.000000	0.000000	7.216211	195.879	NaN	0.000000	0.001665	0.001671	28.0826	65.8946	0.001755	37537.6	5.968895	-6.924098	194.111	1.207577	0.064504	0.064195	195.879	37537.6	0.060591	0.127934	1531.09	95884
543	2.000000	1.218348	7.37037e+06	-49939.1	1005.82	-29757.3	0.000000	0.000000	7.229086	254.568	NaN	0.000000	0.001704	0.001732	28.0835	76.0675	0.001853	41050.4	6.624490	171.847	253.864	1.218077	0.074966	0.074695	254.568	41050.4	0.070315	0.165372	1539.37	92227.4
543	2.000000	1.228784	7.37037e+06	-49939.1	1005.82	-29757.3	0.000000	0.000000	7.242765	333.437	NaN	0.000000	0.001623	0.001705	28.0809	85.6429	0.001741	49192.5	6.991925	-9.373471	330.461	1.228420	0.085401	0.085037	333.437	49192.5	0.080318	0.208573	1598.66	98411
543	2.000000	1.239202	7.37037e+06	-49939.1	1005.82	-29757.3	0.000000	0.000000	7.256420	412.157	NaN	0.000000	0.001595	0.001666	28.0809	94.3903	0.001762	53554.8	0.283415	176.944	405.67	1.238913	0.095820	0.095531	412.157	53554.8	0.090048	0.255067	1615.87	96882.3
543	2.000000	1.246217	7.37037e+06	-49939.1	1005.82	-29757.3	0.000000	0.000000	7.266405	484.365	NaN	0.000000	0.001613	0.001685	28.0805	101.034	0.001737	58152.2	3.825224	172.716	477.702	1.245869	0.102835	0.102486	484.365	58152.2	0.096588	0.288766	1677.36	98870.4