File: remote_trans/data/nanoindenter/0828-1/data/Data_2025-08-06,11h17m57s/2025-07-22_16-23-58_1_1090.txt
2025-07-22, 16:23:58, 1
Index	Phase	Displacement	Time	Pos X	Pos Y	Pos Z	Rot A	Rot B	Piezo Z	Force A	Force B	Gripper	Voltage A	Voltage B	Temperature	Amplitude force	Amplitude pos	Stiffness	Phase shift	Phase excitation	Force A raw	Displacement raw	HMax	HMax raw	Real Force	Real Stiffness	Contact Depth	Area	Hardness	Reduced Mod.
[#]	[#]	[um]	[s]	[um]	[um]	[um]	[m°]	[m°]	[um]	[uN]	[uN]	[V]	[V]	[V]	[°C]	[uN]	[um]	[N/m]	[°]	[°]	[uN]	[um]	[um]	[um]	[uN]	[N/m]	[um]	[um^2]	[MPa]	[MPa]
1090	1.000000	0.002638	7.37571e+06	-54639.1	1055.82	-29743.2	0.000000	0.000000	6.002800	0.083363	NaN	0.000000	0.001575	0.001626	28.0834	0.192187	0.001055	182.13	176.228	-172.363	0.021087	0.001320	-1.018653	-1.019970	0.083363	182.13	-1.018996	-4.087354E+13	-2.039540E-15	NaN
1090	1.000000	0.042600	7.37572e+06	-54639.1	1055.82	-29743.2	0.000000	0.000000	6.042761	0.050514	NaN	0.000000	0.001566	0.001637	28.0824	0.069119	0.002060	33.546	151.119	-168.781	0.069601	0.041285	-0.978690	-0.980006	0.050514	33.546	-0.979820	-1.213331E+13	-4.163291E-15	NaN
1090	1.000000	0.082593	7.37572e+06	-54639.1	1055.82	-29743.2	0.000000	0.000000	6.082753	0.026662	NaN	0.000000	0.001576	0.001644	28.0822	0.070358	0.002050	34.3154	178.693	-165.302	-0.019891	0.081344	-0.938697	-0.939946	0.026662	34.3154	-0.939280	-3.446872E+12	-7.735060E-15	NaN
1090	1.000000	0.122608	7.37572e+06	-54639.1	1055.82	-29743.2	0.000000	0.000000	6.122767	0.021980	NaN	0.000000	0.001570	0.001657	28.082	0.073469	0.001942	37.8346	12.8489	-166.559	0.076432	0.121297	-0.898683	-0.899993	0.021980	37.8346	-0.899118	-9.889055E+11	-2.222620E-14	NaN
1090	1.000000	0.162654	7.37572e+06	-54639.1	1055.82	-29743.2	0.000000	0.000000	6.162813	-0.000298	NaN	0.000000	0.001576	0.001685	28.0816	0.089122	0.001941	45.9228	-134.311	-167.075	-2.075751E-5	0.161329	-0.858636	-0.859962	-0.000298	45.9228	-0.858631	-2.802802E+11	1.063964E-15	NaN
1090	1.000000	0.202637	7.37572e+06	-54639.1	1055.82	-29743.2	0.000000	0.000000	6.202798	0.044131	NaN	0.000000	0.001555	0.001578	28.083	0.051617	0.002034	25.3797	-77.7414	-166.084	0.033225	0.201309	-0.818653	-0.819981	0.044131	25.3797	-0.819957	-8.387440E+10	-5.261586E-13	NaN
1090	1.000000	0.242658	7.37572e+06	-54639.1	1055.82	-29743.2	0.000000	0.000000	6.242821	0.118578	NaN	0.000000	0.001638	0.001610	28.0829	0.100576	0.002045	49.188	37.1359	-166.742	0.125409	0.241307	-0.778632	-0.779983	0.118578	49.188	-0.780440	-2.439031E+10	-4.861676E-12	NaN
1090	1.000000	0.282688	7.37572e+06	-54639.1	1055.82	-29743.2	0.000000	0.000000	6.282851	0.088124	NaN	0.000000	0.001607	0.001557	28.083	0.075293	0.002015	37.3671	-23.629	-166.738	0.053540	0.281344	-0.738602	-0.739946	0.088124	37.3671	-0.740371	-6.951933E+9	-1.267626E-11	NaN
1090	1.000000	0.322677	7.37572e+06	-54639.1	1055.82	-29743.2	0.000000	0.000000	6.322835	-0.028842	NaN	0.000000	0.001619	0.001626	28.0816	0.066701	0.002075	32.1482	-142.799	-168.56	-0.040235	0.321365	-0.698613	-0.699925	-0.028842	32.1482	-0.697940	-1.834008E+9	1.572595E-11	NaN
1090	1.000000	0.362699	7.37572e+06	-54639.1	1055.82	-29743.2	0.000000	0.000000	6.362855	-0.039404	NaN	0.000000	0.001609	0.001654	28.0818	0.091133	0.001976	46.1115	32.1595	-166.124	-0.029298	0.361386	-0.658592	-0.659904	-0.039404	46.1115	-0.657951	-5.204734E+8	7.570788E-11	NaN
1090	1.000000	0.402733	7.37572e+06	-54639.1	1055.82	-29743.2	0.000000	0.000000	6.402893	0.037652	NaN	0.000000	0.001591	0.001682	28.0818	0.111310	0.001966	56.6259	-0.387326	-167.936	0.021546	0.401413	-0.618557	-0.619877	0.037652	56.6259	-0.619056	-1.522859E+8	-2.472452E-10	NaN
1090	1.000000	0.442739	7.37572e+06	-54639.1	1055.82	-29743.2	0.000000	0.000000	6.442898	0.004593	NaN	0.000000	0.001578	0.001644	28.0819	0.103668	0.002079	49.8574	-68.9714	-165.287	-0.024291	0.441408	-0.578551	-0.579883	0.004593	49.8574	-0.578620	-4.223609E+7	-1.087530E-10	NaN
1090	1.000000	0.482775	7.37572e+06	-54639.1	1055.82	-29743.2	0.000000	0.000000	6.482937	0.085009	NaN	0.000000	0.001601	0.001683	28.083	0.171108	0.002014	84.9384	-161.867	-164.014	0.025382	0.481497	-0.538515	-0.539794	0.085009	84.9384	-0.539266	-1.205530E+7	-7.051598E-9	NaN
1090	1.000000	0.522785	7.37572e+06	-54639.1	1055.82	-29743.2	0.000000	0.000000	6.522944	0.009924	NaN	0.000000	0.001575	0.001668	28.083	0.121300	0.002065	58.7457	92.0442	-170.866	-0.037203	0.521491	-0.498506	-0.499799	0.009924	58.7457	-0.498632	-3.28046e+06	-3.025173E-9	NaN
1090	1.000000	0.562810	7.37572e+06	-54639.1	1055.82	-29743.2	0.000000	0.000000	6.562971	0.051042	NaN	0.000000	0.001599	0.001665	28.0833	0.048890	0.001961	24.9263	-9.759309	-165.899	0.023528	0.561518	-0.458480	-0.459772	0.051042	24.9263	-0.460016	-944590	-5.403603E-8	NaN
1090	1.000000	0.602818	7.37572e+06	-54639.1	1055.82	-29743.2	0.000000	0.000000	6.602980	0.073196	NaN	0.000000	0.001596	0.001688	28.0819	0.079741	0.002149	37.0996	78.3931	-165.366	-0.057388	0.601470	-0.418472	-0.419820	0.073196	37.0996	-0.419952	-256881	-2.849410E-7	NaN
1090	1.000000	0.642814	7.37572e+06	-54639.1	1055.82	-29743.2	0.000000	0.000000	6.642976	0.076512	NaN	0.000000	0.001655	0.001693	28.0822	0.044548	0.001934	23.0314	-141.851	-167.735	0.051510	0.641552	-0.378476	-0.379739	0.076512	23.0314	-0.380968	-71412.3	-1.071409E-6	NaN
1090	1.000000	0.682867	7.37572e+06	-54639.1	1055.82	-29743.2	0.000000	0.000000	6.683026	0.030741	NaN	0.000000	0.001696	0.001723	28.0821	0.062692	0.001956	32.048	131.846	-164.403	0.037147	0.681504	-0.338424	-0.339786	0.030741	32.048	-0.339143	-17744.4	-1.732429E-6	NaN
1090	1.000000	0.722884	7.37572e+06	-54639.1	1055.82	-29743.2	0.000000	0.000000	6.723043	0.011243	NaN	0.000000	0.001659	0.001697	28.0832	0.019744	0.002039	9.685328	105.969	-169.833	-0.001551	0.721570	-0.298407	-0.299720	0.011243	9.685328	-0.299277	-4590.65	-2.449077E-6	NaN
1090	1.000000	0.762911	7.37572e+06	-54639.1	1055.82	-29743.2	0.000000	0.000000	6.763071	0.028542	NaN	0.000000	0.001679	0.001749	28.0831	0.039325	0.002086	18.8542	-20.0068	-164.453	-0.046059	0.761547	-0.258379	-0.259744	0.028542	18.8542	-0.259515	-1152.06	-2.477459E-5	NaN
1090	1.000000	0.802908	7.37572e+06	-54639.1	1055.82	-29743.2	0.000000	0.000000	6.803068	0.023687	NaN	0.000000	0.001606	0.001696	28.0832	0.082815	0.002079	39.8336	114.26	-167.174	0.102155	0.801606	-0.218382	-0.219684	0.023687	39.8336	-0.218828	-266.034	-8.903930E-5	NaN
1090	1.000000	0.842907	7.37572e+06	-54639.1	1055.82	-29743.2	0.000000	0.000000	6.843070	0.087113	NaN	0.000000	0.001641	0.001694	28.0833	0.115606	0.001996	57.9203	-7.841648	-166.477	0.103627	0.841556	-0.178383	-0.179735	0.087113	57.9203	-0.179511	-59.8608	-0.001455	NaN
1090	1.000000	0.882916	7.37572e+06	-54639.1	1055.82	-29743.2	0.000000	0.000000	6.883075	0.023758	NaN	0.000000	0.001675	0.001696	28.0818	0.039764	0.001950	20.3949	68.4774	-166.738	0.008023	0.881660	-0.138375	-0.139630	0.023758	20.3949	-0.139248	-11.4506	-0.002075	NaN
1090	1.000000	0.922932	7.37572e+06	-54639.1	1055.82	-29743.2	0.000000	0.000000	6.923094	0.092318	NaN	0.000000	0.001645	0.001687	28.0819	0.027349	0.002005	13.6424	117.071	-164.015	0.005103	0.921687	-0.098359	-0.099603	0.092318	13.6424	-0.103434	-2.173748	-0.042470	NaN
1090	1.000000	0.962948	7.37572e+06	-54639.1	1055.82	-29743.2	0.000000	0.000000	6.963110	0.083858	NaN	0.000000	0.001658	0.001653	28.0818	0.116281	0.001971	58.9942	143.688	-168.031	0.039143	0.961654	-0.058342	-0.059637	0.083858	58.9942	-0.059408	-0.173175	-0.484237	NaN
1090	1.000000	1.002974	7.37572e+06	-54639.1	1055.82	-29743.2	0.000000	0.000000	7.003134	0.040996	NaN	0.000000	0.001609	0.001646	28.0831	0.141869	0.001969	72.0606	-76.4452	-166.186	-0.056110	1.001627	-0.018317	-0.019663	0.040996	72.0606	-0.018743	-0.011666	-3.514025	NaN
1090	2.000000	1.035597	7.37572e+06	-54639.1	1055.82	-29743.2	0.000000	0.000000	7.036169	10.0581	NaN	0.000000	0.001592	0.001596	28.0831	10.9407	0.001813	6033.36	8.970226	-174.921	9.841819	1.035290	0.014306	0.014000	10.0581	6033.36	0.013056	0.012780	787.033	48760.9
1090	2.000000	1.045513	7.37572e+06	-54639.1	1055.82	-29743.2	0.000000	0.000000	7.046709	25.2251	NaN	0.000000	0.001660	0.001662	28.0829	20.4536	0.001817	11254.1	6.945225	-177.375	24.4549	1.045243	0.024222	0.023953	25.2251	11254.1	0.022541	0.026694	944.964	62932.8
1090	2.000000	1.055506	7.37572e+06	-54639.1	1055.82	-29743.2	0.000000	0.000000	7.057655	48.3871	NaN	0.000000	0.001577	0.001691	28.0831	31.0586	0.001879	16529.1	5.942660	179.467	48.0716	1.055179	0.034216	0.033888	48.3871	16529.1	0.032020	0.045035	1074.43	71161.6
1090	2.000000	1.065453	7.37572e+06	-54639.1	1055.82	-29743.2	0.000000	0.000000	7.069016	82.7582	NaN	0.000000	0.001528	0.001632	28.082	41.3681	0.001786	23156.9	5.796897	175.311	79.7119	1.065046	0.044163	0.043756	82.7582	23156.9	0.041482	0.067915	1218.55	81183.8
1090	2.000000	1.075462	7.37572e+06	-54639.1	1055.82	-29743.2	0.000000	0.000000	7.080357	115.138	NaN	0.000000	0.001551	0.001637	28.0823	51.1034	0.001714	29820.1	6.839787	172.832	116.899	1.075169	0.054172	0.053879	115.138	29820.1	0.051276	0.096397	1194.41	87750.5
1090	2.000000	1.085470	7.37572e+06	-54639.1	1055.82	-29743.2	0.000000	0.000000	7.092428	165.276	NaN	0.000000	0.001597	0.001621	28.0821	59.8975	0.001845	32456	4.990537	174.203	165.086	1.085192	0.064180	0.063901	165.276	32456	0.060361	0.127105	1300.31	83173.8
1090	2.000000	1.095359	7.37572e+06	-54639.1	1055.82	-29743.2	0.000000	0.000000	7.104413	216.247	NaN	0.000000	0.001634	0.001671	28.0833	69.3827	0.001701	40785.5	4.297081	172.518	211.234	1.095124	0.074068	0.073834	216.247	40785.5	0.070092	0.164461	1314.88	91885.4
1090	2.000000	1.105325	7.37572e+06	-54639.1	1055.82	-29743.2	0.000000	0.000000	7.116685	272.314	NaN	0.000000	0.001608	0.001625	28.0831	79.3741	0.001786	44439.5	0.901636	175.416	266.781	1.105070	0.084035	0.083780	272.314	44439.5	0.079439	0.204590	1331.02	89763.6
1090	2.000000	1.115481	7.37572e+06	-54639.1	1055.82	-29743.2	0.000000	0.000000	7.129463	336.043	NaN	0.000000	0.001612	0.001616	28.0829	89.867	0.001836	48947.1	4.754686	171.643	338.9	1.115063	0.094191	0.093773	336.043	48947.1	0.089042	0.250059	1343.85	89428.9
1090	2.000000	1.125366	7.37572e+06	-54639.1	1055.82	-29743.2	0.000000	0.000000	7.142564	414.245	NaN	0.000000	0.001604	0.001668	28.083	97.4209	0.001881	51790	2.083776	173.639	410.8	1.125137	0.104075	0.103847	414.245	51790	0.098076	0.296706	1396.14	86867.2
1090	2.000000	1.131455	7.37572e+06	-54639.1	1055.82	-29743.2	0.000000	0.000000	7.150478	458.59	NaN	0.000000	0.001578	0.001624	28.0818	103.639	0.001749	59272.8	6.630126	168.34	460.389	1.131030	0.110165	0.109740	458.59	59272.8	0.104362	0.331356	1383.98	94076.5