File: remote_trans/data/nanoindenter/0828-1/data/Data_2025-08-06,11h17m57s/2025-07-22_16-23-58_1_777.txt
2025-07-22, 16:23:58, 1
Index	Phase	Displacement	Time	Pos X	Pos Y	Pos Z	Rot A	Rot B	Piezo Z	Force A	Force B	Gripper	Voltage A	Voltage B	Temperature	Amplitude force	Amplitude pos	Stiffness	Phase shift	Phase excitation	Force A raw	Displacement raw	HMax	HMax raw	Real Force	Real Stiffness	Contact Depth	Area	Hardness	Reduced Mod.
[#]	[#]	[um]	[s]	[um]	[um]	[um]	[m°]	[m°]	[um]	[uN]	[uN]	[V]	[V]	[V]	[°C]	[uN]	[um]	[N/m]	[°]	[°]	[uN]	[um]	[um]	[um]	[uN]	[N/m]	[um]	[um^2]	[MPa]	[MPa]
777	1.000000	0.002268	7.37265e+06	-38989.1	1055.82	-29795.6	0.000000	0.000000	6.002807	0.027911	NaN	0.000000	0.001678	0.001701	28.0837	0.113979	0.001085	105.029	64.4582	-169.016	-0.011688	0.001048	-1.024432	-1.025653	0.027911	105.029	-1.024632	-4.867041E+13	-5.734653E-16	NaN
777	1.000000	0.042199	7.37265e+06	-38989.1	1055.82	-29795.6	0.000000	0.000000	6.042739	0.060654	NaN	0.000000	0.001660	0.001661	28.0835	0.145579	0.001937	75.1691	17.1931	-163.991	0.067285	0.040935	-0.984501	-0.985765	0.060654	75.1691	-0.985106	-1.429545E+13	-4.242858E-15	NaN
777	1.000000	0.082219	7.37266e+06	-38989.1	1055.82	-29795.6	0.000000	0.000000	6.082759	0.057540	NaN	0.000000	0.001649	0.001692	28.0835	0.077657	0.002004	38.7578	87.8029	-165.935	0.147254	0.080894	-0.944481	-0.945807	0.057540	38.7578	-0.945594	-4.193780E+12	-1.372028E-14	NaN
777	1.000000	0.122218	7.37266e+06	-38989.1	1055.82	-29795.6	0.000000	0.000000	6.122757	0.035658	NaN	0.000000	0.001690	0.001698	28.0824	0.134397	0.002020	66.5311	-54.3915	-161.809	0.023098	0.120925	-0.904482	-0.905775	0.035658	66.5311	-0.904884	-1.183195E+12	-3.013685E-14	NaN
777	1.000000	0.162241	7.37266e+06	-38989.1	1055.82	-29795.6	0.000000	0.000000	6.162780	0.024748	NaN	0.000000	0.001695	0.001704	28.0827	0.149978	0.001985	75.5727	-175.605	-165.871	-0.030443	0.160914	-0.864459	-0.865786	0.024748	75.5727	-0.864705	-3.386866E+11	-7.307067E-14	NaN
777	1.000000	0.202285	7.37266e+06	-38989.1	1055.82	-29795.6	0.000000	0.000000	6.202824	0.019189	NaN	0.000000	0.001614	0.001655	28.0826	0.031461	0.001841	17.0887	-71.3384	-164.585	-0.060667	0.200944	-0.824415	-0.825756	0.019189	17.0887	-0.825257	-9.896782E+10	-1.938933E-13	NaN
777	1.000000	0.242293	7.37266e+06	-38989.1	1055.82	-29795.5	0.000000	0.000000	6.242830	-0.004339	NaN	0.000000	0.001589	0.001728	28.0826	0.072741	0.001946	37.3837	-154.172	-165.904	-0.050853	0.241036	-0.784407	-0.785664	-0.004339	37.3837	-0.784320	-2.753804E+10	1.575465E-13	NaN
777	1.000000	0.282303	7.37266e+06	-38989.1	1055.82	-29795.5	0.000000	0.000000	6.282840	-0.024393	NaN	0.000000	0.001602	0.001655	28.0843	0.097215	0.001976	49.1999	107.738	-165.62	-0.041068	0.281061	-0.744397	-0.745639	-0.024393	49.1999	-0.744025	-7.796013E+9	3.128908E-12	NaN
777	1.000000	0.322316	7.37266e+06	-38989.1	1055.82	-29795.5	0.000000	0.000000	6.322852	-0.034476	NaN	0.000000	0.001644	0.001680	28.0839	0.091606	0.001984	46.1816	-33.806	-165.029	-0.030433	0.321036	-0.704384	-0.705665	-0.034476	46.1816	-0.703824	-2.206744E+9	1.562319E-11	NaN
777	1.000000	0.362356	7.37266e+06	-38989.1	1055.82	-29795.5	0.000000	0.000000	6.362892	-0.020566	NaN	0.000000	0.001627	0.001692	28.0836	0.046722	0.002094	22.3109	-76.8076	-167.756	-0.032237	0.361055	-0.664345	-0.665645	-0.020566	22.3109	-0.663653	-6.230221E+8	3.300966E-11	NaN
777	1.000000	0.402354	7.37266e+06	-38989.1	1055.82	-29795.5	0.000000	0.000000	6.402894	0.048298	NaN	0.000000	0.001647	0.001705	28.0826	0.049143	0.001998	24.597	15.3846	-163.129	0.035795	0.401031	-0.624346	-0.625669	0.048298	24.597	-0.625819	-1.886245E+8	-2.560528E-10	NaN
777	1.000000	0.442361	7.37266e+06	-38989.1	1055.82	-29795.5	0.000000	0.000000	6.442896	-0.078061	NaN	0.000000	0.001631	0.001721	28.0825	0.078569	0.001849	42.4812	-21.2656	-163.844	-0.013445	0.441126	-0.584339	-0.585574	-0.078061	42.4812	-0.582961	-4.848235E+7	1.610089E-9	NaN
777	1.000000	0.482382	7.37266e+06	-38989.1	1055.82	-29795.5	0.000000	0.000000	6.482922	0.059335	NaN	0.000000	0.001612	0.001725	28.0828	0.062877	0.002018	31.1586	-115.532	-165.344	0.050470	0.481129	-0.544318	-0.545571	0.059335	31.1586	-0.545746	-1.482597E+7	-4.002121E-9	NaN
777	1.000000	0.522411	7.37266e+06	-38989.1	1055.82	-29795.5	0.000000	0.000000	6.522948	-0.019864	NaN	0.000000	0.001593	0.001682	28.0824	0.077541	0.001964	39.4794	4.085736	-164.74	-0.002035	0.521121	-0.504289	-0.505579	-0.019864	39.4794	-0.503912	-3.88668e+06	5.110724E-9	NaN
777	1.000000	0.562425	7.37266e+06	-38989.1	1055.82	-29795.5	0.000000	0.000000	6.562960	-0.056797	NaN	0.000000	0.001613	0.001660	28.0838	0.006571	0.002039	3.222937	-58.0157	-168.701	0.118255	0.561108	-0.464275	-0.465592	-0.056797	3.222937	-0.451058	-706719	8.036688E-8	NaN
777	1.000000	0.602426	7.37266e+06	-38989.1	1055.82	-29795.5	0.000000	0.000000	6.602963	-0.012305	NaN	0.000000	0.001597	0.001673	28.0839	0.137503	0.002126	64.6713	106.471	-164.573	-0.052657	0.601141	-0.424274	-0.425559	-0.012305	64.6713	-0.424132	-294428	4.179162E-8	NaN
777	1.000000	0.642454	7.37266e+06	-38989.1	1055.82	-29795.5	0.000000	0.000000	6.642992	0.011951	NaN	0.000000	0.001568	0.001725	28.0844	0.179954	0.002141	84.0661	60.373	-167.207	0.002827	0.641190	-0.384247	-0.385510	0.011951	84.0661	-0.384353	-79858.4	-1.496489E-7	NaN
777	1.000000	0.682439	7.37266e+06	-38989.1	1055.82	-29795.5	0.000000	0.000000	6.682976	-0.022311	NaN	0.000000	0.001639	0.001691	28.0829	0.062420	0.002013	31.0039	-17.2703	-163.467	-0.047342	0.681164	-0.344261	-0.345537	-0.022311	31.0039	-0.343722	-20690	1.078328E-6	NaN
777	1.000000	0.722522	7.37266e+06	-38989.1	1055.82	-29795.5	0.000000	0.000000	6.723058	-0.028451	NaN	0.000000	0.001632	0.001716	28.0826	0.022864	0.002008	11.3846	16.954	-164.006	-0.020664	0.721210	-0.304179	-0.305490	-0.028451	11.3846	-0.302304	-5092.32	5.586946E-6	NaN
777	1.000000	0.762496	7.37266e+06	-38989.1	1055.82	-29795.5	0.000000	0.000000	6.763034	-0.000462	NaN	0.000000	0.001585	0.001702	28.0825	0.031816	0.002087	15.2419	-64.9367	-165.56	0.057487	0.761193	-0.264204	-0.265507	-0.000462	15.2419	-0.264181	-1357.96	3.400596E-7	NaN
777	1.000000	0.802563	7.37266e+06	-38989.1	1055.82	-29795.5	0.000000	0.000000	6.803102	0.010575	NaN	0.000000	0.001583	0.001712	28.083	0.017465	0.001960	8.910600	161.33	-165.863	0.052731	0.801266	-0.224137	-0.225435	0.010575	8.910600	-0.225027	-334.012	-3.166132E-5	NaN
777	1.000000	0.842547	7.37266e+06	-38989.1	1055.82	-29795.5	0.000000	0.000000	6.843086	0.025478	NaN	0.000000	0.001639	0.001726	28.0838	0.100620	0.002096	48.0018	-138.273	-165.086	0.059503	0.841247	-0.184153	-0.185454	0.025478	48.0018	-0.184551	-72.8736	-0.000350	NaN
777	1.000000	0.882569	7.37266e+06	-38989.1	1055.82	-29795.5	0.000000	0.000000	6.883106	-0.022879	NaN	0.000000	0.001628	0.001721	28.0837	0.148554	0.001888	78.6836	-77.5932	-163.695	-0.028208	0.881191	-0.144131	-0.145509	-0.022879	78.6836	-0.143913	-13.9967	0.001635	NaN
777	1.000000	0.922570	7.37266e+06	-38989.1	1055.82	-29795.5	0.000000	0.000000	6.923107	-0.003447	NaN	0.000000	0.001665	0.001744	28.0839	0.095639	0.002003	47.7495	-111.485	-164.101	0.036653	0.921278	-0.104131	-0.105423	-0.003447	47.7495	-0.104076	-2.244794	0.001536	NaN
777	1.000000	0.962585	7.37266e+06	-38989.1	1055.82	-29795.5	0.000000	0.000000	6.963122	-0.010092	NaN	0.000000	0.001664	0.001711	28.0825	0.104156	0.001957	53.2268	124.711	-161.818	-0.074866	0.961257	-0.064116	-0.065443	-0.010092	53.2268	-0.063973	-0.233345	0.043250	NaN
777	1.000000	1.002608	7.37266e+06	-38989.1	1055.82	-29795.5	0.000000	0.000000	7.003145	-0.012437	NaN	0.000000	0.001654	0.001745	28.0825	0.061378	0.001914	32.064	-132.635	-167.203	-0.009544	1.001260	-0.024093	-0.025440	-0.012437	32.064	-0.023802	-0.015705	0.791936	NaN
777	2.000000	1.035125	7.37266e+06	-38989.1	1055.82	-29795.5	0.000000	0.000000	7.036328	16.1946	NaN	0.000000	0.001619	0.001734	28.0825	11.6713	0.001689	6911	5.815164	-173.681	15.5771	1.034748	0.008425	0.008048	16.1946	6911	0.006667	0.005707	2837.6	83580.4
777	2.000000	1.044989	7.37266e+06	-38989.1	1055.82	-29795.5	0.000000	0.000000	7.046737	29.4569	NaN	0.000000	0.001697	0.001743	28.0837	21.4154	0.001789	11971.4	5.228564	-177.054	27.1643	1.044698	0.018289	0.017998	29.4569	11971.4	0.016443	0.017258	1706.84	83257
777	2.000000	1.055004	7.37266e+06	-38989.1	1055.82	-29795.5	0.000000	0.000000	7.057723	53.097	NaN	0.000000	0.001713	0.001788	28.0835	30.8997	0.001807	17104.3	4.778850	-178.356	52.1907	1.054700	0.028304	0.028000	53.097	17104.3	0.025975	0.032814	1618.13	86268
777	2.000000	1.065066	7.37266e+06	-38989.1	1055.82	-29795.5	0.000000	0.000000	7.069059	84.0916	NaN	0.000000	0.001716	0.001746	28.0837	40.4625	0.001864	21701.9	4.554160	179.257	86.2912	1.064765	0.038365	0.038064	84.0916	21701.9	0.035459	0.052821	1592.02	86271.8
777	2.000000	1.074945	7.37266e+06	-38989.1	1055.82	-29795.5	0.000000	0.000000	7.080731	127.718	NaN	0.000000	0.001695	0.001720	28.0838	49.4878	0.001785	27726.1	4.756806	176.967	125.881	1.074622	0.048245	0.047922	127.718	27726.1	0.044790	0.076992	1658.86	91293.3
777	2.000000	1.085073	7.37266e+06	-38989.1	1055.82	-29795.5	0.000000	0.000000	7.092366	164.391	NaN	0.000000	0.001599	0.001744	28.0826	59.8134	0.001865	32077.8	5.020767	176.11	171.629	1.084741	0.058372	0.058040	164.391	32077.8	0.054529	0.106924	1537.46	89627.4
777	2.000000	1.094904	7.37266e+06	-38989.1	1055.82	-29795.5	0.000000	0.000000	7.104853	229.008	NaN	0.000000	0.001605	0.001720	28.0831	68.6043	0.001783	38480.6	3.713212	175.372	227.144	1.094614	0.068204	0.067913	229.008	38480.6	0.063741	0.139562	1640.91	94108.9
777	2.000000	1.104871	7.37266e+06	-38989.1	1055.82	-29795.5	0.000000	0.000000	7.117512	294.536	NaN	0.000000	0.001607	0.001697	28.0831	78.234	0.001802	43413.7	1.890042	176.499	290.758	1.104618	0.078171	0.077918	294.536	43413.7	0.073082	0.176852	1665.43	94317.9
777	2.000000	1.114885	7.37266e+06	-38989.1	1055.82	-29795.5	0.000000	0.000000	7.129929	352.999	NaN	0.000000	0.001623	0.001742	28.084	86.5223	0.001803	47978.7	2.854457	174.383	350.522	1.114622	0.088185	0.087921	352.999	47978.7	0.082667	0.219398	1608.94	93584.8
777	2.000000	1.124869	7.37266e+06	-38989.1	1055.82	-29795.5	0.000000	0.000000	7.143699	445.161	NaN	0.000000	0.001615	0.001736	28.0843	96.4691	0.001882	51270	8.309787	169.291	441.968	1.124521	0.098168	0.097821	445.161	51270	0.091656	0.263175	1691.5	91309.2
777	2.000000	1.130914	7.37266e+06	-38989.1	1055.82	-29795.5	0.000000	0.000000	7.151465	487.045	NaN	0.000000	0.001634	0.001771	28.0843	101.191	0.001769	57197.8	5.632802	170.623	487.224	1.130682	0.104213	0.103981	487.045	57197.8	0.097827	0.295368	1648.94	96154.8