File: remote_trans/data/nanoindenter/0828-1/data/Data_2025-08-06,11h17m57s/2025-07-22_16-23-58_1_496.txt
2025-07-22, 16:23:58, 1
Index	Phase	Displacement	Time	Pos X	Pos Y	Pos Z	Rot A	Rot B	Piezo Z	Force A	Force B	Gripper	Voltage A	Voltage B	Temperature	Amplitude force	Amplitude pos	Stiffness	Phase shift	Phase excitation	Force A raw	Displacement raw	HMax	HMax raw	Real Force	Real Stiffness	Contact Depth	Area	Hardness	Reduced Mod.
[#]	[#]	[um]	[s]	[um]	[um]	[um]	[m°]	[m°]	[um]	[uN]	[uN]	[V]	[V]	[V]	[°C]	[uN]	[um]	[N/m]	[°]	[°]	[uN]	[um]	[um]	[um]	[uN]	[N/m]	[um]	[um^2]	[MPa]	[MPa]
496	1.000000	0.002498	7.3699e+06	-52289.1	1005.82	-29749.7	0.000000	0.000000	6.002819	0.134216	NaN	0.000000	0.001659	0.001682	28.0821	0.082731	0.000961	86.074	3.422283	-161.206	0.092509	0.001240	-1.090583	-1.091841	0.134216	86.074	-1.091752	-3.884525E+14	-3.455147E-16	NaN
496	1.000000	0.044451	7.3699e+06	-52289.1	1005.82	-29749.7	0.000000	0.000000	6.044767	0.030211	NaN	0.000000	0.001642	0.001708	28.0819	0.037513	0.001925	19.4859	-87.6623	12.9869	0.105202	0.043064	-1.048630	-1.050017	0.030211	19.4859	-1.049793	-1.060785E+14	-2.848008E-16	NaN
496	1.000000	0.086462	7.3699e+06	-52289.1	1005.82	-29749.7	0.000000	0.000000	6.086778	0.039846	NaN	0.000000	0.001559	0.001737	28.0806	0.081514	0.001955	41.6887	-10.4564	-165.928	-0.045105	0.085151	-1.006619	-1.007930	0.039846	41.6887	-1.007336	-2.847903E+13	-1.399129E-15	NaN
496	1.000000	0.128461	7.3699e+06	-52289.1	1005.82	-29749.7	0.000000	0.000000	6.128776	0.019689	NaN	0.000000	0.001557	0.001701	28.0805	0.115970	0.002017	57.5048	-42.4432	10.8112	0.048142	0.127114	-0.964620	-0.965967	0.019689	57.5048	-0.964877	-7.631589E+12	-2.579997E-15	NaN
496	1.000000	0.170491	7.3699e+06	-52289.1	1005.82	-29749.7	0.000000	0.000000	6.170808	0.050315	NaN	0.000000	0.001530	0.001700	28.0807	0.047277	0.001833	25.7896	-136.915	-168.584	0.024714	0.169192	-0.922590	-0.923889	0.050315	25.7896	-0.924053	-2.147441E+12	-2.343019E-14	NaN
496	1.000000	0.212494	7.3699e+06	-52289.1	1005.82	-29749.7	0.000000	0.000000	6.212809	0.015593	NaN	0.000000	0.001545	0.001737	28.0817	0.030077	0.002029	14.8241	-131.115	17.1444	0.084112	0.211174	-0.880587	-0.881907	0.015593	14.8241	-0.881376	-5.692696E+11	-2.739047E-14	NaN
496	1.000000	0.254513	7.36991e+06	-52289.1	1005.82	-29749.7	0.000000	0.000000	6.254828	0.024000	NaN	0.000000	0.001571	0.001693	28.0817	0.089725	0.001960	45.7667	-136.17	-165.87	0.042128	0.253196	-0.838568	-0.839885	0.024000	45.7667	-0.838962	-1.517841E+11	-1.581194E-13	NaN
496	1.000000	0.296563	7.36991e+06	-52289.1	1005.82	-29749.7	0.000000	0.000000	6.296880	0.060052	NaN	0.000000	0.001534	0.001755	28.0816	0.052936	0.002099	25.2197	143.909	12.91	0.083725	0.295165	-0.796518	-0.797916	0.060052	25.2197	-0.798304	-4.264190E+10	-1.408275E-12	NaN
496	1.000000	0.338524	7.36991e+06	-52289.1	1005.82	-29749.7	0.000000	0.000000	6.338841	0.056891	NaN	0.000000	0.001518	0.001738	28.0804	0.060326	0.002044	29.5163	49.9567	-168.526	0.081508	0.337227	-0.754557	-0.755854	0.056891	29.5163	-0.756003	-1.134784E+10	-5.013385E-12	NaN
496	1.000000	0.380578	7.36991e+06	-52289.1	1005.82	-29749.7	0.000000	0.000000	6.380896	0.072786	NaN	0.000000	0.001551	0.001731	28.0803	0.036801	0.002063	17.8411	52.5002	10.6732	-0.067504	0.379197	-0.712503	-0.713884	0.072786	17.8411	-0.715562	-3.191130E+9	-2.280877E-11	NaN
496	1.000000	0.422601	7.36991e+06	-52289.1	1005.82	-29749.7	0.000000	0.000000	6.422920	0.113664	NaN	0.000000	0.001572	0.001736	28.0803	0.021100	0.002001	10.5448	131.746	-165.813	0.075816	0.421215	-0.670480	-0.671866	0.113664	10.5448	-0.678565	-9.967232E+8	-1.140373E-10	NaN
496	1.000000	0.464598	7.36991e+06	-52289.1	1005.82	-29749.7	0.000000	0.000000	6.464914	0.034893	NaN	0.000000	0.001616	0.001656	28.0803	0.047228	0.002053	23.0069	149.445	12.4433	0.022922	0.463268	-0.628483	-0.629813	0.034893	23.0069	-0.629621	-2.127228E+8	-1.640299E-10	NaN
496	1.000000	0.506649	7.36991e+06	-52289.1	1005.82	-29749.7	0.000000	0.000000	6.506968	0.098111	NaN	0.000000	0.001611	0.001676	28.0813	0.052616	0.002117	24.8564	-55.2659	-160.727	0.109388	0.505223	-0.586432	-0.587858	0.098111	24.8564	-0.589392	-5.946893E+7	-1.649793E-9	NaN
496	1.000000	0.548653	7.36991e+06	-52289.1	1005.82	-29749.7	0.000000	0.000000	6.548968	0.000682	NaN	0.000000	0.001578	0.001664	28.0815	0.072461	0.001962	36.9273	-151.267	15.6916	0.005119	0.547241	-0.544428	-0.545840	0.000682	36.9273	-0.544442	-1.422143E+7	-4.793918E-11	NaN
496	1.000000	0.590647	7.36991e+06	-52289.1	1005.82	-29749.7	0.000000	0.000000	6.590960	-0.037124	NaN	0.000000	0.001643	0.001640	28.0817	0.066170	0.001884	35.1225	7.563949	-163.854	0.012911	0.589435	-0.502434	-0.503646	-0.037124	35.1225	-0.501641	-3.61338e+06	1.027405E-8	NaN
496	1.000000	0.632688	7.36991e+06	-52289.1	1005.82	-29749.7	0.000000	0.000000	6.633003	-0.001802	NaN	0.000000	0.001602	0.001662	28.0801	0.071207	0.002051	34.7124	36.3272	15.5745	-0.006035	0.631272	-0.460393	-0.461809	-0.001802	34.7124	-0.460354	-954980	1.886526E-9	NaN
496	1.000000	0.674694	7.36991e+06	-52289.1	1005.82	-29749.7	0.000000	0.000000	6.675009	0.003719	NaN	0.000000	0.001654	0.001690	28.0805	0.038767	0.002027	19.1248	-107.026	-168.048	0.052063	0.673415	-0.418387	-0.419666	0.003719	19.1248	-0.418533	-245245	-1.516332E-8	NaN
496	1.000000	0.716689	7.36991e+06	-52289.1	1005.82	-29749.7	0.000000	0.000000	6.717006	0.048966	NaN	0.000000	0.001574	0.001672	28.0806	0.031028	0.001903	16.3039	-19.7846	18.5617	0.037956	0.715327	-0.376391	-0.377754	0.048966	16.3039	-0.378644	-66133.9	-7.404128E-7	NaN
496	1.000000	0.758704	7.36991e+06	-52289.1	1005.82	-29749.7	0.000000	0.000000	6.759020	0.013562	NaN	0.000000	0.001668	0.001634	28.0818	0.025444	0.001945	13.0824	-142.691	-165.921	-0.018103	0.757435	-0.334376	-0.335646	0.013562	13.0824	-0.335154	-15518	-8.739569E-7	NaN
496	1.000000	0.800760	7.36991e+06	-52289.1	1005.82	-29749.7	0.000000	0.000000	6.801078	0.080588	NaN	0.000000	0.001590	0.001695	28.0816	0.074700	0.001986	37.6205	60.8088	10.9219	0.031838	0.799411	-0.292321	-0.293670	0.080588	37.6205	-0.293927	-3820.01	-2.109639E-5	NaN
496	1.000000	0.842757	7.36991e+06	-52289.1	1005.82	-29749.7	0.000000	0.000000	6.843071	-0.004513	NaN	0.000000	0.001622	0.001688	28.0821	0.090905	0.001943	46.7849	-101.801	-166.671	-0.026908	0.841442	-0.250324	-0.251639	-0.004513	46.7849	-0.250252	-829.589	5.440529E-6	NaN
496	1.000000	0.884807	7.36991e+06	-52289.1	1005.82	-29749.7	0.000000	0.000000	6.885124	0.058214	NaN	0.000000	0.001649	0.001718	28.0805	0.111447	0.002093	53.25	105.523	15.6284	0.022188	0.883381	-0.208274	-0.209700	0.058214	53.25	-0.209094	-185.411	-0.000314	NaN
496	1.000000	0.926809	7.36991e+06	-52289.1	1005.82	-29749.7	0.000000	0.000000	6.927126	0.049359	NaN	0.000000	0.001638	0.001712	28.0805	0.024604	0.002067	11.9033	-171.866	-165.942	0.006280	0.925470	-0.166272	-0.167611	0.049359	11.9033	-0.169382	-40.0745	-0.001232	NaN
496	1.000000	0.968819	7.36991e+06	-52289.1	1005.82	-29749.7	0.000000	0.000000	6.969133	-0.018931	NaN	0.000000	0.001652	0.001716	28.0816	0.054316	0.001912	28.4132	-167.608	13.2513	-0.062460	0.967448	-0.124262	-0.125633	-0.018931	28.4132	-0.123762	-5.746934	0.003294	NaN
496	1.000000	1.010839	7.36991e+06	-52289.1	1005.82	-29749.7	0.000000	0.000000	7.011155	0.025829	NaN	0.000000	0.001616	0.001711	28.0804	0.087993	0.002049	42.9429	-143.556	-166.091	0.060611	1.009508	-0.082242	-0.083573	0.025829	42.9429	-0.082693	-0.721812	-0.035784	NaN
496	1.000000	1.052831	7.36991e+06	-52289.1	1005.82	-29749.7	0.000000	0.000000	7.053147	0.040456	NaN	0.000000	0.001553	0.001730	28.0816	0.063869	0.002050	31.1493	-52.8594	13.4269	0.044233	1.051513	-0.040250	-0.041568	0.040456	31.1493	-0.041224	-0.049272	-0.821088	NaN
496	1.000000	1.094858	7.36991e+06	-52289.1	1005.82	-29749.7	0.000000	0.000000	7.095215	1.036500	NaN	0.000000	0.001553	0.001716	28.0816	1.712916	0.002045	837.812	10.4342	-170.917	0.284800	1.093573	0.001777	0.000492	1.036500	837.812	0.000849	0.000645	1606.39	30134.3
496	2.000000	1.110868	7.36991e+06	-52289.1	1005.82	-29749.7	0.000000	0.000000	7.112094	22.1736	NaN	0.000000	0.001567	0.001712	28.0818	18.5467	0.001772	10463.9	8.282641	0.657927	20.2598	1.110575	0.017787	0.017494	22.1736	10463.9	0.016197	0.016915	1310.86	73506.7
496	2.000000	1.121380	7.36991e+06	-52289.1	1005.82	-29749.7	0.000000	0.000000	7.123437	42.3638	NaN	0.000000	0.001600	0.001701	28.0806	28.7633	0.001814	15858.1	7.002680	179.296	42.773	1.121052	0.028299	0.027971	42.3638	15858.1	0.026295	0.033415	1267.82	79260.4
496	2.000000	1.131828	7.36991e+06	-52289.1	1005.82	-29749.7	0.000000	0.000000	7.135117	72.3163	NaN	0.000000	0.001615	0.001722	28.0803	38.5327	0.001802	21386.4	2.759639	0.514609	70.5145	1.131478	0.038747	0.038397	72.3163	21386.4	0.036211	0.054604	1324.37	83617.7
496	2.000000	1.142298	7.36991e+06	-52289.1	1005.82	-29749.7	0.000000	0.000000	7.147338	114.885	NaN	0.000000	0.001535	0.001720	28.08	48.3673	0.001746	27700.9	3.878385	176.934	111.877	1.141942	0.049217	0.048861	114.885	27700.9	0.046107	0.080760	1422.55	89057.3
496	2.000000	1.152787	7.36991e+06	-52289.1	1005.82	-29749.7	0.000000	0.000000	7.159737	161.326	NaN	0.000000	0.001633	0.001720	28.0812	58.5568	0.001780	32901.5	6.242303	-7.214499	158.846	1.152453	0.059706	0.059372	161.326	32901.5	0.056029	0.111955	1440.99	89839.4
496	2.000000	1.163281	7.36991e+06	-52289.1	1005.82	-29749.7	0.000000	0.000000	7.172167	208.402	NaN	0.000000	0.001570	0.001646	28.0811	68.0692	0.001802	37769.6	2.525387	175.361	206.147	1.162930	0.070200	0.069849	208.402	37769.6	0.066062	0.148439	1403.95	89565.8
496	2.000000	1.173836	7.36991e+06	-52289.1	1005.82	-29749.7	0.000000	0.000000	7.184784	258.529	NaN	0.000000	0.001593	0.001709	28.0812	78.4393	0.001798	43619.5	1.882114	-4.997263	259.648	1.173678	0.080755	0.080597	258.529	43619.5	0.076310	0.190701	1355.68	91259.4
496	2.000000	1.184209	7.36991e+06	-52289.1	1005.82	-29749.7	0.000000	0.000000	7.197747	321.513	NaN	0.000000	0.001585	0.001692	28.0805	87.6098	0.001756	49881.4	-0.940044	176.799	318.815	1.183962	0.091128	0.090881	321.513	49881.4	0.086294	0.236615	1358.81	93689.6
496	2.000000	1.194718	7.36991e+06	-52289.1	1005.82	-29749.7	0.000000	0.000000	7.211435	398.823	NaN	0.000000	0.001619	0.001716	28.08	98.2012	0.001901	51669.7	3.992198	-7.624760	394.612	1.194342	0.101637	0.101261	398.823	51669.7	0.095848	0.284854	1400.1	88450.1
496	2.000000	1.200706	7.36991e+06	-52289.1	1005.82	-29749.7	0.000000	0.000000	7.219272	443.785	NaN	0.000000	0.001561	0.001735	28.0801	103.188	0.001801	57294.7	4.484935	-8.906196	438.468	1.200337	0.107625	0.107256	443.785	57294.7	0.101815	0.317100	1399.51	92958.7