File: remote_trans/data/nanoindenter/0828-1/data/Data_2025-08-06,11h17m57s/2025-07-22_16-23-58_1_597.txt
2025-07-22, 16:23:58, 1
Index	Phase	Displacement	Time	Pos X	Pos Y	Pos Z	Rot A	Rot B	Piezo Z	Force A	Force B	Gripper	Voltage A	Voltage B	Temperature	Amplitude force	Amplitude pos	Stiffness	Phase shift	Phase excitation	Force A raw	Displacement raw	HMax	HMax raw	Real Force	Real Stiffness	Contact Depth	Area	Hardness	Reduced Mod.
[#]	[#]	[um]	[s]	[um]	[um]	[um]	[m°]	[m°]	[um]	[uN]	[uN]	[V]	[V]	[V]	[°C]	[uN]	[um]	[N/m]	[°]	[°]	[uN]	[um]	[um]	[um]	[uN]	[N/m]	[um]	[um^2]	[MPa]	[MPa]
597	1.000000	0.002382	7.37089e+06	-47239.1	1005.82	-29766.6	0.000000	0.000000	6.002816	-0.064040	NaN	0.000000	0.001489	0.001711	28.0815	0.050655	0.000958	52.8898	60.3768	-169.719	-0.063599	0.001119	-1.126334	-1.127597	-0.064040	52.8898	-1.125426	-1.099686E+15	5.823473E-17	NaN
597	1.000000	0.044315	7.37089e+06	-47239.1	1005.82	-29766.6	0.000000	0.000000	6.044750	-0.045480	NaN	0.000000	0.001465	0.001753	28.0804	0.059532	0.002023	29.422	41.5192	17.0251	-0.071011	0.042965	-1.084401	-1.085751	-0.045480	29.422	-1.083242	-2.985778E+14	1.523205E-16	NaN
597	1.000000	0.086328	7.37089e+06	-47239.1	1005.82	-29766.6	0.000000	0.000000	6.086765	0.004920	NaN	0.000000	0.001542	0.001699	28.0804	0.066729	0.002050	32.5534	66.3234	-165.111	0.035385	0.085014	-1.042388	-1.043702	0.004920	32.5534	-1.042501	-8.464516E+13	-5.812156E-17	NaN
597	1.000000	0.128341	7.37089e+06	-47239.1	1005.82	-29766.6	0.000000	0.000000	6.128778	-0.003802	NaN	0.000000	0.001517	0.001687	28.0804	0.053271	0.001909	27.9034	-135.871	15.7204	-0.067399	0.126993	-1.000375	-1.001723	-0.003802	27.9034	-1.000272	-2.287903E+13	1.661936E-16	NaN
597	1.000000	0.170326	7.37089e+06	-47239.1	1005.82	-29766.6	0.000000	0.000000	6.170764	0.012268	NaN	0.000000	0.001543	0.001661	28.0817	0.037601	0.001932	19.4669	133.487	-165.786	0.082722	0.169048	-0.958390	-0.959668	0.012268	19.4669	-0.958862	-6.331874E+12	-1.937448E-15	NaN
597	1.000000	0.212384	7.37089e+06	-47239.1	1005.82	-29766.6	0.000000	0.000000	6.212825	0.083389	NaN	0.000000	0.001544	0.001683	28.0818	0.095800	0.001924	49.7877	114.291	14.0347	0.089425	0.210995	-0.916331	-0.917721	0.083389	49.7877	-0.917588	-1.756442E+12	-4.747585E-14	NaN
597	1.000000	0.254413	7.37089e+06	-47239.1	1005.82	-29766.6	0.000000	0.000000	6.254849	-0.026305	NaN	0.000000	0.001529	0.001665	28.0816	0.053361	0.001957	27.2645	133.365	-165.251	-0.058082	0.253067	-0.874303	-0.875649	-0.026305	27.2645	-0.873579	-4.465422E+11	5.890894E-14	NaN
597	1.000000	0.296422	7.37089e+06	-47239.1	1005.82	-29766.6	0.000000	0.000000	6.296858	-0.036781	NaN	0.000000	0.001528	0.001685	28.0804	0.135391	0.002006	67.4882	-168.491	15.1172	0.021133	0.295057	-0.832294	-0.833659	-0.036781	67.4882	-0.831885	-1.217124E+11	3.021949E-13	NaN
597	1.000000	0.338443	7.37089e+06	-47239.1	1005.82	-29766.6	0.000000	0.000000	6.338880	-0.012122	NaN	0.000000	0.001531	0.001717	28.0803	0.106887	0.002101	50.8823	103.819	-166.138	0.004927	0.337085	-0.790272	-0.791631	-0.012122	50.8823	-0.790094	-3.298813E+10	3.674628E-13	NaN
597	1.000000	0.380489	7.37089e+06	-47239.1	1005.82	-29766.6	0.000000	0.000000	6.380925	-0.043539	NaN	0.000000	0.001512	0.001715	28.0801	0.042433	0.001920	22.0966	-101.187	16.2507	-0.002310	0.379095	-0.748227	-0.749621	-0.043539	22.0966	-0.746749	-8.491065E+9	5.127579E-12	NaN
597	1.000000	0.422476	7.37089e+06	-47239.1	1005.82	-29766.6	0.000000	0.000000	6.422915	0.026504	NaN	0.000000	0.001508	0.001700	28.0799	0.025937	0.001876	13.8262	12.1136	-164.962	-0.055470	0.421164	-0.706239	-0.707552	0.026504	13.8262	-0.707677	-2.490836E+9	-1.064042E-11	NaN
597	1.000000	0.464499	7.37089e+06	-47239.1	1005.82	-29766.6	0.000000	0.000000	6.464937	0.010470	NaN	0.000000	0.001533	0.001685	28.0815	0.078126	0.002062	37.8912	-31.2778	14.7106	-0.058167	0.463105	-0.664217	-0.665610	0.010470	37.8912	-0.664424	-6.383445E+8	-1.640231E-11	NaN
597	1.000000	0.506522	7.37089e+06	-47239.1	1005.82	-29766.6	0.000000	0.000000	6.506963	0.092604	NaN	0.000000	0.001542	0.001740	28.0815	0.100858	0.002013	50.1048	-125.114	-165.079	0.067113	0.505176	-0.622194	-0.623539	0.092604	50.1048	-0.623580	-1.757236E+8	-5.269882E-10	NaN
597	1.000000	0.548521	7.37089e+06	-47239.1	1005.82	-29766.6	0.000000	0.000000	6.548959	0.000879	NaN	0.000000	0.001516	0.001751	28.0816	0.124610	0.001967	63.3555	-147.24	15.9168	-0.048343	0.547168	-0.580195	-0.581548	0.000879	63.3555	-0.580205	-4.441772E+7	-1.978823E-11	NaN
597	1.000000	0.590522	7.37089e+06	-47239.1	1005.82	-29766.6	0.000000	0.000000	6.590959	-0.003867	NaN	0.000000	0.001522	0.001801	28.08	0.059774	0.001958	30.5208	-150.554	-164.514	0.040823	0.589223	-0.538194	-0.539493	-0.003867	30.5208	-0.538099	-1.161426E+7	3.329358E-10	NaN
597	1.000000	0.632555	7.37089e+06	-47239.1	1005.82	-29766.6	0.000000	0.000000	6.632995	0.047590	NaN	0.000000	0.001524	0.001824	28.0801	0.096354	0.001931	49.8885	67.3134	14.1425	0.010624	0.631187	-0.496161	-0.497529	0.047590	49.8885	-0.496876	-3.10045e+06	-1.534933E-8	NaN
597	1.000000	0.674571	7.37089e+06	-47239.1	1005.82	-29766.6	0.000000	0.000000	6.675007	-0.037771	NaN	0.000000	0.001504	0.001837	28.0804	0.147219	0.001810	81.3548	78.3595	-165.962	0.016021	0.673211	-0.454145	-0.455505	-0.037771	81.3548	-0.453797	-772302	4.890645E-8	NaN
597	1.000000	0.716585	7.37089e+06	-47239.1	1005.82	-29766.6	0.000000	0.000000	6.717022	-0.022628	NaN	0.000000	0.001533	0.001842	28.0814	0.025999	0.001929	13.4786	74.3942	17.3972	-0.061171	0.715237	-0.412131	-0.413479	-0.022628	13.4786	-0.410872	-190895	1.185369E-7	NaN
597	1.000000	0.758599	7.37089e+06	-47239.1	1005.82	-29766.6	0.000000	0.000000	6.759036	-0.019175	NaN	0.000000	0.001557	0.001809	28.0813	0.061916	0.002046	30.2611	172.146	-167.236	-0.049845	0.757312	-0.370116	-0.371403	-0.019175	30.2611	-0.369641	-49086.3	3.906291E-7	NaN
597	1.000000	0.800622	7.37089e+06	-47239.1	1005.82	-29766.6	0.000000	0.000000	6.801057	-0.077179	NaN	0.000000	0.001524	0.001831	28.0816	0.040392	0.001894	21.3293	133.408	16.6242	-0.102236	0.799260	-0.328093	-0.329455	-0.077179	21.3293	-0.325380	-11161.2	6.914923E-6	NaN
597	1.000000	0.842649	7.37089e+06	-47239.1	1005.82	-29766.6	0.000000	0.000000	6.843087	0.010860	NaN	0.000000	0.001531	0.001793	28.0801	0.093080	0.002147	43.353	-51.1781	-170.397	0.019898	0.841353	-0.286067	-0.287363	0.010860	43.353	-0.286255	-2931.69	-3.704272E-6	NaN
597	1.000000	0.884660	7.37089e+06	-47239.1	1005.82	-29766.6	0.000000	0.000000	6.885094	-0.079470	NaN	0.000000	0.001508	0.001797	28.0799	0.139477	0.001997	69.827	-91.0364	16.8194	-0.143030	0.883268	-0.244056	-0.245448	-0.079470	69.827	-0.243202	-644.897	0.000123	NaN
597	1.000000	0.926684	7.37089e+06	-47239.1	1005.82	-29766.6	0.000000	0.000000	6.927122	0.029331	NaN	0.000000	0.001586	0.001878	28.0798	0.105866	0.001957	54.1094	132.133	-164.478	0.101762	0.925381	-0.202032	-0.203335	0.029331	54.1094	-0.202439	-144.445	-0.000203	NaN
597	1.000000	0.968691	7.37089e+06	-47239.1	1005.82	-29766.6	0.000000	0.000000	6.969129	0.018623	NaN	0.000000	0.001555	0.001861	28.0801	0.077419	0.002171	35.6659	67.7148	14.6099	0.006386	0.967377	-0.160025	-0.161339	0.018623	35.6659	-0.160416	-27.8855	-0.000668	NaN
597	1.000000	1.010710	7.37089e+06	-47239.1	1005.82	-29766.6	0.000000	0.000000	7.011147	-0.023878	NaN	0.000000	0.001546	0.001778	28.0815	0.122893	0.001891	64.9809	21.8473	-163.969	-0.021251	1.009425	-0.118005	-0.119291	-0.023878	64.9809	-0.117730	-4.345592	0.005495	NaN
597	1.000000	1.052711	7.3709e+06	-47239.1	1005.82	-29766.6	0.000000	0.000000	7.053149	0.027352	NaN	0.000000	0.001596	0.001754	28.0815	0.072462	0.002041	35.5044	-124.126	18.0587	0.089120	1.051344	-0.076005	-0.077372	0.027352	35.5044	-0.076583	-0.507273	-0.053919	NaN
597	1.000000	1.094738	7.3709e+06	-47239.1	1005.82	-29766.6	0.000000	0.000000	7.095175	-0.024266	NaN	0.000000	0.001579	0.001795	28.0813	0.098679	0.002103	46.9189	-130.713	-166.629	-0.039432	1.093454	-0.033977	-0.035261	-0.024266	46.9189	-0.033590	-0.029121	0.833288	NaN
597	2.000000	1.133841	7.3709e+06	-47239.1	1005.82	-29766.6	0.000000	0.000000	7.134669	9.507304	NaN	0.000000	0.001628	0.001787	28.0802	9.416194	0.001720	5476.11	8.755515	6.363645	9.464735	1.133453	0.005125	0.004737	9.507304	5476.11	0.003823	0.003084	3082.58	90089.4
597	2.000000	1.144233	7.3709e+06	-47239.1	1005.82	-29766.6	0.000000	0.000000	7.145742	26.0719	NaN	0.000000	0.001602	0.001745	28.0803	20.1957	0.001794	11260.1	7.727149	-179.182	25.7063	1.143927	0.015517	0.015211	26.0719	11260.1	0.013781	0.013694	1903.93	87913.4
597	2.000000	1.154696	7.3709e+06	-47239.1	1005.82	-29766.6	0.000000	0.000000	7.157366	54.2912	NaN	0.000000	0.001565	0.001730	28.0802	29.6005	0.001625	18211	3.045538	0.894390	52.2723	1.154375	0.025981	0.025659	54.2912	18211	0.023745	0.028771	1886.98	98090.3
597	2.000000	1.165204	7.3709e+06	-47239.1	1005.82	-29766.6	0.000000	0.000000	7.169308	89.1976	NaN	0.000000	0.001593	0.001784	28.0814	40.2053	0.001746	23025.4	6.189410	177.044	89.3334	1.164842	0.036488	0.036126	89.1976	23025.4	0.033583	0.048497	1839.24	95526
597	2.000000	1.175649	7.3709e+06	-47239.1	1005.82	-29766.6	0.000000	0.000000	7.181634	134.954	NaN	0.000000	0.001521	0.001788	28.0813	50.4647	0.001817	27771.2	5.756035	-4.220302	132.398	1.175278	0.046933	0.046562	134.954	27771.2	0.043288	0.072802	1853.71	94036.3
597	2.000000	1.186130	7.3709e+06	-47239.1	1005.82	-29766.6	0.000000	0.000000	7.194311	188.356	NaN	0.000000	0.001513	0.001796	28.0817	60.5671	0.001737	34872.3	5.992366	173.764	185.937	1.185792	0.057414	0.057076	188.356	34872.3	0.053363	0.103092	1827.07	99229.6
597	2.000000	1.196611	7.3709e+06	-47239.1	1005.82	-29766.6	0.000000	0.000000	7.207321	249.883	NaN	0.000000	0.001458	0.001790	28.0805	72.0308	0.001880	38313.6	6.523132	-7.833241	245.99	1.196408	0.067895	0.067692	249.883	38313.6	0.063003	0.136797	1826.67	94642.7
597	2.000000	1.207073	7.3709e+06	-47239.1	1005.82	-29766.6	0.000000	0.000000	7.220611	318.675	NaN	0.000000	0.001499	0.001832	28.0804	78.9788	0.001775	44501.6	5.835420	172.004	315.086	1.206734	0.078357	0.078018	318.675	44501.6	0.072986	0.176446	1806.08	96792.8
597	2.000000	1.217614	7.3709e+06	-47239.1	1005.82	-29766.6	0.000000	0.000000	7.233895	385.365	NaN	0.000000	0.001505	0.001862	28.0804	86.3234	0.001657	52094.9	-0.994051	-2.188937	384.09	1.217376	0.088898	0.088660	385.365	52094.9	0.083350	0.222595	1731.24	100881
597	2.000000	1.227986	7.3709e+06	-47239.1	1005.82	-29766.6	0.000000	0.000000	7.247539	464.963	NaN	0.000000	0.001530	0.001845	28.0807	97.5665	0.001818	53664.1	4.188566	172.815	458.418	1.227697	0.099270	0.098981	464.963	53664.1	0.092772	0.268866	1729.35	94555.9
597	2.000000	1.231157	7.3709e+06	-47239.1	1005.82	-29766.6	0.000000	0.000000	7.251520	484.666	NaN	0.000000	0.001536	0.001856	28.0817	100.395	0.001809	55493	6.470066	170.89	486.103	1.230666	0.102441	0.101950	484.666	55493	0.095891	0.285080	1700.1	94957.1