File: remote_trans/data/nanoindenter/0828-1/data/Data_2025-08-06,11h17m57s/2025-07-22_16-23-58_1_740.txt
2025-07-22, 16:23:58, 1
Index	Phase	Displacement	Time	Pos X	Pos Y	Pos Z	Rot A	Rot B	Piezo Z	Force A	Force B	Gripper	Voltage A	Voltage B	Temperature	Amplitude force	Amplitude pos	Stiffness	Phase shift	Phase excitation	Force A raw	Displacement raw	HMax	HMax raw	Real Force	Real Stiffness	Contact Depth	Area	Hardness	Reduced Mod.
[#]	[#]	[um]	[s]	[um]	[um]	[um]	[m°]	[m°]	[um]	[uN]	[uN]	[V]	[V]	[V]	[°C]	[uN]	[um]	[N/m]	[°]	[°]	[uN]	[um]	[um]	[um]	[uN]	[N/m]	[um]	[um^2]	[MPa]	[MPa]
740	1.000000	0.002752	7.37229e+06	-40089.1	1005.82	-29791.3	0.000000	0.000000	6.002799	0.018937	NaN	0.000000	0.001557	0.001729	28.083	0.090875	0.000982	92.4977	-147.128	-167.337	0.041757	0.001468	-1.127645	-1.128930	0.018937	92.4977	-1.127799	-1.183309E+15	-1.600345E-17	NaN
740	1.000000	0.044688	7.37229e+06	-40089.1	1005.82	-29791.3	0.000000	0.000000	6.044735	-0.020568	NaN	0.000000	0.001520	0.001669	28.083	0.006601	0.002051	3.219246	110.837	10.6716	0.005113	0.043355	-1.085709	-1.087042	-0.020568	3.219246	-1.080917	-2.778653E+14	7.402170E-17	NaN
740	1.000000	0.086672	7.37229e+06	-40089.1	1005.82	-29791.3	0.000000	0.000000	6.086722	0.064387	NaN	0.000000	0.001500	0.001695	28.0828	0.024816	0.001881	13.1905	-77.6822	-168.081	0.009560	0.085408	-1.043725	-1.044989	0.064387	13.1905	-1.047386	-9.846253E+13	-6.539249E-16	NaN
740	1.000000	0.128743	7.37229e+06	-40089.1	1005.82	-29791.3	0.000000	0.000000	6.128792	0.043476	NaN	0.000000	0.001523	0.001689	28.0831	0.039715	0.001958	20.2805	-36.122	11.8323	-0.029669	0.127377	-1.001654	-1.003020	0.043476	20.2805	-1.003262	-2.510025E+13	-1.732076E-15	NaN
740	1.000000	0.170755	7.37229e+06	-40089.1	1005.82	-29791.3	0.000000	0.000000	6.170801	-0.027398	NaN	0.000000	0.001536	0.001699	28.0842	0.049233	0.002094	23.5134	-81.4278	-166.437	-0.082293	0.169441	-0.959642	-0.960956	-0.027398	23.5134	-0.958768	-6.313412E+12	4.339608E-15	NaN
740	1.000000	0.212778	7.37229e+06	-40089.1	1005.82	-29791.3	0.000000	0.000000	6.212825	-0.016827	NaN	0.000000	0.001562	0.001671	28.0843	0.081572	0.002071	39.3868	101.824	11.8899	0.013199	0.211447	-0.917619	-0.918950	-0.016827	39.3868	-0.917298	-1.740711E+12	9.666678E-15	NaN
740	1.000000	0.254773	7.37229e+06	-40089.1	1005.82	-29791.3	0.000000	0.000000	6.254818	-0.069945	NaN	0.000000	0.001549	0.001688	28.0844	0.094784	0.002129	44.5208	-5.897026	-168.842	-0.069093	0.253498	-0.875624	-0.876899	-0.069945	44.5208	-0.874445	-4.587547E+11	1.524662E-13	NaN
740	1.000000	0.296833	7.37229e+06	-40089.1	1005.82	-29791.3	0.000000	0.000000	6.296881	0.026860	NaN	0.000000	0.001552	0.001686	28.083	0.042255	0.002044	20.6701	126.435	9.389989	0.055338	0.295403	-0.833564	-0.834994	0.026860	20.6701	-0.834539	-1.322198E+11	-2.031463E-13	NaN
740	1.000000	0.338821	7.37229e+06	-40089.1	1005.82	-29791.3	0.000000	0.000000	6.338867	-0.004882	NaN	0.000000	0.001596	0.001665	28.0833	0.073211	0.002026	36.1312	87.5221	-168.482	0.017532	0.337512	-0.791577	-0.792886	-0.004882	36.1312	-0.791475	-3.444438E+10	1.417283E-13	NaN
740	1.000000	0.380852	7.37229e+06	-40089.1	1005.82	-29791.3	0.000000	0.000000	6.380901	0.042054	NaN	0.000000	0.001633	0.001661	28.0833	0.068232	0.002045	33.3606	87.3935	12.4598	0.043536	0.379439	-0.749545	-0.750958	0.042054	33.3606	-0.750491	-9.547661E+9	-4.404615E-12	NaN
740	1.000000	0.422867	7.37229e+06	-40089.1	1005.82	-29791.3	0.000000	0.000000	6.422917	0.062103	NaN	0.000000	0.001600	0.001687	28.0845	0.114722	0.001968	58.2941	-3.719567	-167.148	0.090523	0.421550	-0.707530	-0.708847	0.062103	58.2941	-0.708329	-2.542401E+9	-2.442676E-11	NaN
740	1.000000	0.464860	7.37229e+06	-40089.1	1005.82	-29791.3	0.000000	0.000000	6.464908	0.024013	NaN	0.000000	0.001638	0.001712	28.0843	0.090411	0.002110	42.8588	25.8677	12.6427	0.139548	0.463509	-0.665537	-0.666889	0.024013	42.8588	-0.665957	-6.699546E+8	-3.584199E-11	NaN
740	1.000000	0.506886	7.37229e+06	-40089.1	1005.82	-29791.3	0.000000	0.000000	6.506930	-0.065888	NaN	0.000000	0.001597	0.001689	28.0844	0.112646	0.001966	57.2937	-165.518	-163.559	-0.109131	0.505606	-0.623511	-0.624791	-0.065888	57.2937	-0.622649	-1.706223E+8	3.861628E-10	NaN
740	1.000000	0.548913	7.37229e+06	-40089.1	1005.82	-29791.3	0.000000	0.000000	6.548963	0.051819	NaN	0.000000	0.001594	0.001695	28.0832	0.078808	0.002022	38.9755	-167.586	12.7347	0.011647	0.547543	-0.581484	-0.582854	0.051819	38.9755	-0.582481	-4.774864E+7	-1.085241E-9	NaN
740	1.000000	0.590928	7.3723e+06	-40089.1	1005.82	-29791.3	0.000000	0.000000	6.590976	0.003883	NaN	0.000000	0.001596	0.001696	28.0833	0.185573	0.001886	98.3813	129.853	-165.046	0.037814	0.589584	-0.539469	-0.540813	0.003883	98.3813	-0.539498	-1.214507E+7	-3.197053E-10	NaN
740	1.000000	0.632952	7.3723e+06	-40089.1	1005.82	-29791.3	0.000000	0.000000	6.632999	0.002192	NaN	0.000000	0.001616	0.001683	28.0834	0.079984	0.001972	40.5576	158.433	14.286	0.079930	0.631615	-0.497445	-0.498783	0.002192	40.5576	-0.497485	-3.16177e+06	-6.934325E-10	NaN
740	1.000000	0.674964	7.3723e+06	-40089.1	1005.82	-29791.3	0.000000	0.000000	6.675011	-0.003829	NaN	0.000000	0.001659	0.001671	28.0835	0.109222	0.001863	58.6215	54.1537	-170.009	-0.024216	0.673670	-0.455433	-0.456727	-0.003829	58.6215	-0.455384	-813059	4.708801E-9	NaN
740	1.000000	0.717001	7.3723e+06	-40089.1	1005.82	-29791.3	0.000000	0.000000	6.717049	0.018576	NaN	0.000000	0.001638	0.001669	28.0845	0.089862	0.002077	43.2647	34.6846	14.8333	-0.027482	0.715599	-0.413396	-0.414798	0.018576	43.2647	-0.413718	-209531	-8.865377E-8	NaN
740	1.000000	0.759009	7.3723e+06	-40089.1	1005.82	-29791.3	0.000000	0.000000	6.759055	-0.023145	NaN	0.000000	0.001620	0.001727	28.0847	0.092040	0.002102	43.7906	166.738	-164.052	0.013362	0.757698	-0.371389	-0.372699	-0.023145	43.7906	-0.370992	-51334.9	4.508657E-7	NaN
740	1.000000	0.801034	7.3723e+06	-40089.1	1005.82	-29791.3	0.000000	0.000000	6.801082	0.021075	NaN	0.000000	0.001662	0.001705	28.0848	0.051796	0.001957	26.4633	54.2266	14.3397	0.008296	0.799726	-0.329363	-0.330671	0.021075	26.4633	-0.329960	-13027.8	-1.617712E-6	NaN
740	1.000000	0.843012	7.3723e+06	-40089.1	1005.82	-29791.3	0.000000	0.000000	6.843059	0.002195	NaN	0.000000	0.001679	0.001726	28.0835	0.078678	0.001979	39.7475	-155.519	-168.207	-0.041866	0.841728	-0.287385	-0.288669	0.002195	39.7475	-0.287426	-3052.88	-7.190236E-7	NaN
740	1.000000	0.885025	7.3723e+06	-40089.1	1005.82	-29791.3	0.000000	0.000000	6.885076	0.083957	NaN	0.000000	0.001639	0.001699	28.0833	0.087625	0.001985	44.1438	51.4811	11.827	0.001250	0.883697	-0.245372	-0.246700	0.083957	44.1438	-0.246798	-733.459	-0.000114	NaN
740	1.000000	0.927045	7.3723e+06	-40089.1	1005.82	-29791.3	0.000000	0.000000	6.927094	0.049552	NaN	0.000000	0.001593	0.001675	28.0834	0.061698	0.002088	29.5476	-88.9964	-166.191	0.133052	0.925702	-0.203352	-0.204695	0.049552	29.5476	-0.204610	-156.747	-0.000316	NaN
740	1.000000	0.969098	7.3723e+06	-40089.1	1005.82	-29791.3	0.000000	0.000000	6.969145	-0.000910	NaN	0.000000	0.001583	0.001721	28.0846	0.042886	0.001982	21.6397	95.4709	14.9099	0.042846	0.967714	-0.161299	-0.162683	-0.000910	21.6397	-0.161267	-28.8715	3.153098E-5	NaN
740	1.000000	1.011083	7.3723e+06	-40089.1	1005.82	-29791.3	0.000000	0.000000	7.011130	0.007300	NaN	0.000000	0.001615	0.001700	28.0848	0.031211	0.001823	17.1225	-54.3606	-169.365	-0.044521	1.009752	-0.119314	-0.120645	0.007300	17.1225	-0.119634	-4.749897	-0.001537	NaN
740	1.000000	1.053087	7.3723e+06	-40089.1	1005.82	-29791.3	0.000000	0.000000	7.053136	0.049010	NaN	0.000000	0.001620	0.001733	28.0847	0.037008	0.001977	18.7233	85.9191	11.5964	0.070339	1.051661	-0.077310	-0.078736	0.049010	18.7233	-0.079273	-0.593554	-0.082570	NaN
740	1.000000	1.095122	7.3723e+06	-40089.1	1005.82	-29791.3	0.000000	0.000000	7.095171	0.037077	NaN	0.000000	0.001599	0.001719	28.0831	0.065685	0.002185	30.0672	175.008	-167.013	0.035035	1.093860	-0.035275	-0.036537	0.037077	30.0672	-0.036200	-0.034753	-1.066857	NaN
740	1.000000	1.137107	7.3723e+06	-40089.1	1005.82	-29791.3	0.000000	0.000000	7.137416	6.362784	NaN	0.000000	0.001590	0.001678	28.0833	5.828179	0.001562	3730.35	10.4408	9.548442	4.565603	1.135757	0.006710	0.005360	6.362784	3730.35	0.005431	0.004530	1404.51	50636.3
740	2.000000	1.149619	7.3723e+06	-40089.1	1005.82	-29791.3	0.000000	0.000000	7.150859	29.0302	NaN	0.000000	0.001567	0.001696	28.0835	19.8462	0.001739	11414.4	5.467018	-177.866	27.7942	1.149293	0.019222	0.018896	29.0302	11414.4	0.017314	0.018496	1569.5	76680.1
740	2.000000	1.160104	7.3723e+06	-40089.1	1005.82	-29791.3	0.000000	0.000000	7.162594	59.4489	NaN	0.000000	0.001669	0.001664	28.0832	32.0922	0.001785	17981.4	5.277423	-2.304576	59.4916	1.159840	0.029707	0.029443	59.4489	17981.4	0.027227	0.035192	1689.27	87573.5
740	2.000000	1.170538	7.3723e+06	-40089.1	1005.82	-29791.3	0.000000	0.000000	7.174659	99.1235	NaN	0.000000	0.001556	0.001672	28.0846	41.1366	0.001820	22602.8	3.669841	178.79	97.7717	1.170308	0.040141	0.039911	99.1235	22602.8	0.036852	0.056146	1765.47	87151.8
740	2.000000	1.181044	7.3723e+06	-40089.1	1005.82	-29791.3	0.000000	0.000000	7.187373	152.877	NaN	0.000000	0.001591	0.001715	28.085	51.3736	0.001816	28286.4	7.317314	-6.848085	149.883	1.180639	0.050647	0.050242	152.877	28286.4	0.046593	0.082174	1860.39	90153.5
740	2.000000	1.191562	7.3723e+06	-40089.1	1005.82	-29791.3	0.000000	0.000000	7.200322	212.015	NaN	0.000000	0.001563	0.001720	28.0845	63.1395	0.001821	34667.9	4.362792	174.206	211.018	1.191185	0.061165	0.060788	212.015	34667.9	0.056579	0.113826	1862.62	93881.3
740	2.000000	1.202048	7.3723e+06	-40089.1	1005.82	-29791.3	0.000000	0.000000	7.213378	274.56	NaN	0.000000	0.001554	0.001653	28.0831	74.5244	0.001826	40806.6	3.328098	-6.364478	273.755	1.201806	0.071650	0.071409	274.56	40806.6	0.066604	0.150549	1823.73	96087.1
740	2.000000	1.212500	7.3723e+06	-40089.1	1005.82	-29791.3	0.000000	0.000000	7.227031	352.448	NaN	0.000000	0.001562	0.001665	28.0833	84.474	0.001830	46161.2	4.868283	171.178	349.423	1.212182	0.082103	0.081785	352.448	46161.2	0.076377	0.190992	1845.36	96503.5
740	2.000000	1.222950	7.3723e+06	-40089.1	1005.82	-29791.3	0.000000	0.000000	7.241216	443.334	NaN	0.000000	0.001598	0.001665	28.0832	93.6539	0.001818	51505.1	4.627556	-9.350732	436.356	1.222507	0.092553	0.092110	443.334	51505.1	0.086098	0.235665	1881.2	96933.9
740	2.000000	1.233468	7.3723e+06	-40089.1	1005.82	-29791.3	0.000000	0.000000	7.255347	531.259	NaN	0.000000	0.001576	0.001760	28.0844	102.34	0.001701	60146.9	6.598354	168.087	530.582	1.233137	0.103071	0.102740	531.259	60146.9	0.096447	0.288017	1844.54	102395
740	2.000000	1.238520	7.3723e+06	-40089.1	1005.82	-29791.3	0.000000	0.000000	7.262225	575.7	NaN	0.000000	0.001574	0.001756	28.0848	107.161	0.001791	59829.1	4.000816	170.738	578.675	1.238148	0.108123	0.107750	575.7	59829.1	0.100906	0.312080	1844.72	97848