File: remote_trans/data/nanoindenter/0828-1/data/Data_2025-08-06,11h17m57s/2025-07-22_16-23-58_1_1035.txt
2025-07-22, 16:23:58, 1
Index	Phase	Displacement	Time	Pos X	Pos Y	Pos Z	Rot A	Rot B	Piezo Z	Force A	Force B	Gripper	Voltage A	Voltage B	Temperature	Amplitude force	Amplitude pos	Stiffness	Phase shift	Phase excitation	Force A raw	Displacement raw	HMax	HMax raw	Real Force	Real Stiffness	Contact Depth	Area	Hardness	Reduced Mod.
[#]	[#]	[um]	[s]	[um]	[um]	[um]	[m°]	[m°]	[um]	[uN]	[uN]	[V]	[V]	[V]	[°C]	[uN]	[um]	[N/m]	[°]	[°]	[uN]	[um]	[um]	[um]	[uN]	[N/m]	[um]	[um^2]	[MPa]	[MPa]
1035	1.000000	0.002394	7.37517e+06	-51889.1	1055.82	-29750.7	0.000000	0.000000	6.002791	0.095444	NaN	0.000000	0.001544	0.001786	28.0834	0.013814	0.000959	14.3981	-61.7086	-162.127	0.041420	0.001163	-1.107253	-1.108484	0.095444	14.3981	-1.112225	-7.313857E+14	-1.304977E-16	NaN
1035	1.000000	0.044341	7.37517e+06	-51889.1	1055.82	-29750.7	0.000000	0.000000	6.044736	0.053201	NaN	0.000000	0.001587	0.001737	28.0832	0.083475	0.001957	42.6541	-56.0134	13.8656	0.119542	0.042967	-1.065306	-1.066680	0.053201	42.6541	-1.066241	-1.764776E+14	-3.014630E-16	NaN
1035	1.000000	0.086350	7.37517e+06	-51889.1	1055.82	-29750.7	0.000000	0.000000	6.086746	0.076242	NaN	0.000000	0.001553	0.001746	28.082	0.033617	0.001955	17.193	-138.698	-165.38	0.120666	0.085043	-1.023297	-1.024605	0.076242	17.193	-1.026623	-5.176691E+13	-1.472799E-15	NaN
1035	1.000000	0.128411	7.37517e+06	-51889.1	1055.82	-29750.7	0.000000	0.000000	6.128802	-0.039412	NaN	0.000000	0.001538	0.001788	28.0823	0.075695	0.002022	37.4356	-13.101	13.1459	-0.010354	0.127014	-0.981236	-0.982633	-0.039412	37.4356	-0.980447	-1.237170E+13	3.185651E-15	NaN
1035	1.000000	0.170418	7.37517e+06	-51889.1	1055.82	-29750.7	0.000000	0.000000	6.170810	-0.012240	NaN	0.000000	0.001542	0.001771	28.0822	0.067726	0.002181	31.0497	-62.6725	-163.639	-0.025832	0.169110	-0.939230	-0.940537	-0.012240	31.0497	-0.938934	-3.409999E+12	3.589567E-15	NaN
1035	1.000000	0.212417	7.37517e+06	-51889.1	1055.82	-29750.7	0.000000	0.000000	6.212808	-0.036992	NaN	0.000000	0.001534	0.001782	28.0822	0.064726	0.002109	30.6912	152.036	9.625264	0.026432	0.211081	-0.897230	-0.898566	-0.036992	30.6912	-0.896326	-9.066106E+11	4.080225E-14	NaN
1035	1.000000	0.254437	7.37517e+06	-51889.1	1055.82	-29750.7	0.000000	0.000000	6.254829	-0.017796	NaN	0.000000	0.001545	0.001747	28.0835	0.147305	0.001921	76.6982	-72.6154	-167.592	0.012110	0.253117	-0.855210	-0.856530	-0.017796	76.6982	-0.855036	-2.505664E+11	7.102203E-14	NaN
1035	1.000000	0.296475	7.37517e+06	-51889.1	1055.82	-29750.7	0.000000	0.000000	6.296869	0.007872	NaN	0.000000	0.001547	0.001740	28.0835	0.065039	0.002077	31.3126	-39.7667	16.7878	0.068872	0.295083	-0.813172	-0.814564	0.007872	31.3126	-0.813360	-6.825881E+10	-1.153290E-13	NaN
1035	1.000000	0.338477	7.37517e+06	-51889.1	1055.82	-29750.7	0.000000	0.000000	6.338869	-0.008416	NaN	0.000000	0.001594	0.001755	28.0838	0.057407	0.002024	28.3686	-100.771	-163.895	0.026440	0.337159	-0.771171	-0.772488	-0.008416	28.3686	-0.770948	-1.812160E+10	4.643940E-13	NaN
1035	1.000000	0.380486	7.37517e+06	-51889.1	1055.82	-29750.7	0.000000	0.000000	6.380879	-0.005572	NaN	0.000000	0.001635	0.001765	28.0824	0.065706	0.002050	32.0572	-110.994	15.0648	0.066716	0.379179	-0.729161	-0.730468	-0.005572	32.0572	-0.729031	-4.870770E+9	1.143998E-12	NaN
1035	1.000000	0.422507	7.37517e+06	-51889.1	1055.82	-29750.7	0.000000	0.000000	6.422902	0.035861	NaN	0.000000	0.001630	0.001742	28.0826	0.029014	0.001988	14.5969	140.66	-169.128	-0.089538	0.421222	-0.687140	-0.688425	0.035861	14.5969	-0.688982	-1.383598E+9	-2.591901E-11	NaN
1035	1.000000	0.464535	7.37517e+06	-51889.1	1055.82	-29750.7	0.000000	0.000000	6.464927	-0.024999	NaN	0.000000	0.001607	0.001761	28.0825	0.042371	0.002092	20.2548	-68.4018	12.6106	-0.038931	0.463192	-0.645112	-0.646455	-0.024999	20.2548	-0.644186	-3.370678E+8	7.416499E-11	NaN
1035	1.000000	0.506561	7.37517e+06	-51889.1	1055.82	-29750.7	0.000000	0.000000	6.506954	0.002815	NaN	0.000000	0.001590	0.001750	28.0836	0.070189	0.001985	35.3581	-165.892	-164.898	0.010259	0.505251	-0.603086	-0.604396	0.002815	35.3581	-0.603146	-9.199886E+7	-3.060088E-11	NaN
1035	1.000000	0.548551	7.37517e+06	-51889.1	1055.82	-29750.7	0.000000	0.000000	6.548943	-0.012504	NaN	0.000000	0.001579	0.001754	28.0834	0.034979	0.002015	17.3555	104.019	16.0235	-0.021880	0.547185	-0.561096	-0.562462	-0.012504	17.3555	-0.560556	-2.377221E+7	5.259855E-10	NaN
1035	1.000000	0.590594	7.37517e+06	-51889.1	1055.82	-29750.7	0.000000	0.000000	6.590987	0.009427	NaN	0.000000	0.001531	0.001734	28.0836	0.054540	0.002083	26.1809	52.4954	-163.277	-0.000813	0.589258	-0.519053	-0.520389	0.009427	26.1809	-0.519323	-6.37065e+06	-1.479815E-9	NaN
1035	1.000000	0.632620	7.37517e+06	-51889.1	1055.82	-29750.7	0.000000	0.000000	6.633015	0.051642	NaN	0.000000	0.001580	0.001757	28.0823	0.098524	0.002105	46.8152	-138.149	10.7789	0.015817	0.631245	-0.477027	-0.478402	0.051642	46.8152	-0.477854	-1.68068e+06	-3.072697E-8	NaN
1035	1.000000	0.674627	7.37517e+06	-51889.1	1055.82	-29750.7	0.000000	0.000000	6.675020	0.002598	NaN	0.000000	0.001610	0.001720	28.0826	0.086172	0.001879	45.8548	-136.066	-165.484	0.003523	0.673337	-0.435020	-0.436310	0.002598	45.8548	-0.435062	-420372	-6.181067E-9	NaN
1035	1.000000	0.716622	7.37517e+06	-51889.1	1055.82	-29750.7	0.000000	0.000000	6.717015	0.017742	NaN	0.000000	0.001591	0.001717	28.0825	0.040242	0.002155	18.6708	130.726	13.0991	0.029722	0.715234	-0.393025	-0.394413	0.017742	18.6708	-0.393738	-108795	-1.630791E-7	NaN
1035	1.000000	0.758656	7.37517e+06	-51889.1	1055.82	-29750.7	0.000000	0.000000	6.759047	-0.056017	NaN	0.000000	0.001524	0.001753	28.0822	0.061263	0.002001	30.6216	41.008	-165.877	-0.072976	0.757336	-0.350991	-0.352311	-0.056017	30.6216	-0.349619	-25204.1	2.222544E-6	NaN
1035	1.000000	0.800695	7.37518e+06	-51889.1	1055.82	-29750.7	0.000000	0.000000	6.801087	-0.033153	NaN	0.000000	0.001528	0.001749	28.0833	0.084079	0.001953	43.0514	-38.4427	11.0131	-0.060198	0.799325	-0.308952	-0.310322	-0.033153	43.0514	-0.308374	-6265.96	5.290962E-6	NaN
1035	1.000000	0.842702	7.37518e+06	-51889.1	1055.82	-29750.7	0.000000	0.000000	6.843096	0.010797	NaN	0.000000	0.001543	0.001763	28.0835	0.026201	0.001902	13.7768	-174.111	-166.63	0.027092	0.841395	-0.266945	-0.268253	0.010797	13.7768	-0.267533	-1527.58	-7.068287E-6	NaN
1035	1.000000	0.884717	7.37518e+06	-51889.1	1055.82	-29750.7	0.000000	0.000000	6.885109	-0.015093	NaN	0.000000	0.001590	0.001730	28.0833	0.016392	0.002067	7.929197	-22.8115	15.3107	0.092843	0.883360	-0.224930	-0.226287	-0.015093	7.929197	-0.223502	-315.882	4.777986E-5	NaN
1035	1.000000	0.926714	7.37518e+06	-51889.1	1055.82	-29750.7	0.000000	0.000000	6.927109	0.057092	NaN	0.000000	0.001593	0.001772	28.0824	0.029933	0.002040	14.6757	155.964	-164.24	0.079103	0.925436	-0.182934	-0.184211	0.057092	14.6757	-0.185851	-76.6423	-0.000745	NaN
1035	1.000000	0.968751	7.37518e+06	-51889.1	1055.82	-29750.7	0.000000	0.000000	6.969145	0.030122	NaN	0.000000	0.001616	0.001752	28.0822	0.045650	0.002102	21.7205	154.04	9.704161	0.049321	0.967399	-0.140896	-0.142248	0.030122	21.7205	-0.141936	-12.8594	-0.002342	NaN
1035	1.000000	1.010767	7.37518e+06	-51889.1	1055.82	-29750.7	0.000000	0.000000	7.011158	-0.044005	NaN	0.000000	0.001582	0.001728	28.0821	0.022584	0.002102	10.7445	162.965	-169.05	-0.045882	1.009472	-0.098880	-0.100175	-0.044005	10.7445	-0.095809	-1.471618	0.029902	NaN
1035	1.000000	1.052757	7.37518e+06	-51889.1	1055.82	-29750.7	0.000000	0.000000	7.053150	0.022280	NaN	0.000000	0.001562	0.001711	28.0832	0.035983	0.001934	18.6017	173.866	15.4587	0.007539	1.051426	-0.056891	-0.058221	0.022280	18.6017	-0.057789	-0.155463	-0.143314	NaN
1035	1.000000	1.094799	7.37518e+06	-51889.1	1055.82	-29750.7	0.000000	0.000000	7.095367	4.239811	NaN	0.000000	0.001565	0.001767	28.0832	2.514398	0.002003	1255.37	19.4777	-168.901	4.168446	1.093490	-0.014848	-0.016157	4.239811	1255.37	-0.017381	-0.010756	-394.194	NaN
1035	2.000000	1.113872	7.37518e+06	-51889.1	1055.82	-29750.7	0.000000	0.000000	7.114593	7.995439	NaN	0.000000	0.001613	0.001757	28.0829	5.756060	0.002032	2833.28	13.719	8.265872	7.788168	1.113551	0.004224	0.003904	7.995439	2833.28	0.002108	0.001642	4868.7	63877.6
1035	2.000000	1.124343	7.37518e+06	-51889.1	1055.82	-29750.7	0.000000	0.000000	7.125228	11.9686	NaN	0.000000	0.001580	0.001729	28.0821	9.697946	0.002003	4840.75	13.2351	-171.865	11.8066	1.124002	0.014696	0.014354	11.9686	4840.75	0.012842	0.012514	956.412	39535.4
1035	2.000000	1.134836	7.37518e+06	-51889.1	1055.82	-29750.7	0.000000	0.000000	7.136273	25.3791	NaN	0.000000	0.001582	0.001719	28.0824	18.3201	0.001869	9803.57	8.985419	2.320496	25.0904	1.134489	0.025189	0.024841	25.3791	9803.57	0.023247	0.027904	909.514	53619.7
1035	2.000000	1.145285	7.37518e+06	-51889.1	1055.82	-29750.7	0.000000	0.000000	7.148718	73.9244	NaN	0.000000	0.001591	0.001737	28.083	28.6959	0.001821	15761.9	7.531198	179.212	72.2982	1.144971	0.035638	0.035324	73.9244	15761.9	0.032120	0.045253	1633.58	67695.3
1035	2.000000	1.155756	7.37518e+06	-51889.1	1055.82	-29750.7	0.000000	0.000000	7.161514	130.472	NaN	0.000000	0.001550	0.001738	28.0828	37.3369	0.001643	22726.6	3.678987	-0.988186	127.807	1.155441	0.046109	0.045794	130.472	22726.6	0.041803	0.068771	1897.2	79178.3
1035	2.000000	1.166368	7.37518e+06	-51889.1	1055.82	-29750.7	0.000000	0.000000	7.175032	201.133	NaN	0.000000	0.001603	0.001734	28.0839	46.9192	0.001802	26032.7	2.678057	179.649	204.221	1.165967	0.056720	0.056319	201.133	26032.7	0.050926	0.095296	2110.61	77047
1035	2.000000	1.176677	7.37518e+06	-51889.1	1055.82	-29750.7	0.000000	0.000000	7.188302	273.131	NaN	0.000000	0.001575	0.001769	28.0839	56.905	0.001853	30702.2	3.561840	-3.255079	267.196	1.176396	0.067029	0.066749	273.131	30702.2	0.060357	0.127092	2149.07	78683.3
1035	2.000000	1.187273	7.37518e+06	-51889.1	1055.82	-29750.7	0.000000	0.000000	7.203380	382.08	NaN	0.000000	0.001630	0.001823	28.0841	66.3251	0.001844	35969.2	7.929757	172.186	382.158	1.186817	0.077626	0.077170	382.08	35969.2	0.069659	0.162705	2348.3	81471.1
1035	2.000000	1.197690	7.37518e+06	-51889.1	1055.82	-29750.7	0.000000	0.000000	7.217775	478.828	NaN	0.000000	0.001591	0.001767	28.0824	73.7498	0.001828	40351.1	2.021154	-3.553685	473.755	1.197366	0.088042	0.087719	478.828	40351.1	0.079143	0.203254	2355.81	81772.8
1035	2.000000	1.204764	7.37518e+06	-51889.1	1055.82	-29750.7	0.000000	0.000000	7.227532	544.052	NaN	0.000000	0.001540	0.001781	28.0826	78.9013	0.001689	46705.6	4.828766	-7.263410	545.113	1.204388	0.095117	0.094741	544.052	46705.6	0.086381	0.237032	2295.27	87647.4