File: remote_trans/data/nanoindenter/0828-1/data/Data_2025-08-06,11h17m57s/2025-07-22_16-23-58_1_351.txt
2025-07-22, 16:23:58, 1
Index	Phase	Displacement	Time	Pos X	Pos Y	Pos Z	Rot A	Rot B	Piezo Z	Force A	Force B	Gripper	Voltage A	Voltage B	Temperature	Amplitude force	Amplitude pos	Stiffness	Phase shift	Phase excitation	Force A raw	Displacement raw	HMax	HMax raw	Real Force	Real Stiffness	Contact Depth	Area	Hardness	Reduced Mod.
[#]	[#]	[um]	[s]	[um]	[um]	[um]	[m°]	[m°]	[um]	[uN]	[uN]	[V]	[V]	[V]	[°C]	[uN]	[um]	[N/m]	[°]	[°]	[uN]	[um]	[um]	[um]	[uN]	[N/m]	[um]	[um^2]	[MPa]	[MPa]
351	1.000000	0.002159	7.36849e+06	-56189.1	955.818	-29739.9	0.000000	0.000000	6.002818	-0.024981	NaN	0.000000	0.001611	0.001806	28.0811	0.061715	0.001046	59.0143	79.9093	-168.987	-0.088962	0.000854	-1.148687	-1.149992	-0.024981	59.0143	-1.148369	-2.233348E+15	1.118525E-17	NaN
351	1.000000	0.044064	7.36849e+06	-56189.1	955.818	-29739.9	0.000000	0.000000	6.044725	0.021273	NaN	0.000000	0.001544	0.001804	28.0811	0.048164	0.001932	24.9254	19.6838	14.5734	-0.033070	0.042742	-1.106782	-1.108104	0.021273	24.9254	-1.107422	-6.305047E+14	-3.373996E-17	NaN
351	1.000000	0.086096	7.36849e+06	-56189.1	955.819	-29739.9	0.000000	0.000000	6.086755	-0.016390	NaN	0.000000	0.001562	0.001794	28.0811	0.032617	0.001989	16.3954	85.1027	-168.728	-0.015220	0.084769	-1.064750	-1.066077	-0.016390	16.3954	-1.064000	-1.646561E+14	9.954219E-17	NaN
351	1.000000	0.128126	7.36849e+06	-56189.1	955.818	-29739.9	0.000000	0.000000	6.128787	0.002000	NaN	0.000000	0.001517	0.001799	28.0814	0.041944	0.002127	19.7154	153.425	15.8183	0.077271	0.126751	-1.022719	-1.024095	0.002000	19.7154	-1.022795	-4.597919E+13	-4.349400E-17	NaN
351	1.000000	0.170140	7.36849e+06	-56189.1	955.819	-29739.9	0.000000	0.000000	6.170800	-0.003106	NaN	0.000000	0.001588	0.001779	28.0796	0.103198	0.001866	55.3067	106.727	-168.856	0.058292	0.168844	-0.980706	-0.982002	-0.003106	55.3067	-0.980664	-1.245538E+13	2.494071E-16	NaN
351	1.000000	0.212096	7.36849e+06	-56189.1	955.819	-29739.9	0.000000	0.000000	6.212754	-0.069179	NaN	0.000000	0.001547	0.001827	28.0797	0.046509	0.002029	22.9236	27.7591	14.1372	-0.006582	0.210741	-0.938750	-0.940105	-0.069179	22.9236	-0.936486	-3.160298E+12	2.188990E-14	NaN
351	1.000000	0.254180	7.36849e+06	-56189.1	955.819	-29739.9	0.000000	0.000000	6.254841	0.025182	NaN	0.000000	0.001553	0.001817	28.0796	0.023556	0.002040	11.5476	78.7753	-166.141	-0.016916	0.252868	-0.896666	-0.897978	0.025182	11.5476	-0.898302	-9.640882E+11	-2.612027E-14	NaN
351	1.000000	0.296191	7.36849e+06	-56189.1	955.818	-29739.9	0.000000	0.000000	6.296850	-0.046211	NaN	0.000000	0.001549	0.001781	28.0807	0.091560	0.002032	45.0635	-175.301	13.9659	0.002203	0.294866	-0.854655	-0.855979	-0.046211	45.0635	-0.853886	-2.417400E+11	1.911595E-13	NaN
351	1.000000	0.338252	7.36849e+06	-56189.1	955.818	-29739.9	0.000000	0.000000	6.338910	-0.058262	NaN	0.000000	0.001550	0.001736	28.0806	0.038136	0.001856	20.5462	22.4877	-166.905	0.115235	0.336881	-0.812594	-0.813965	-0.058262	20.5462	-0.810467	-6.236036E+10	9.342739E-13	NaN
351	1.000000	0.380228	7.36849e+06	-56189.1	955.818	-29739.8	0.000000	0.000000	6.380891	0.068370	NaN	0.000000	0.001627	0.001737	28.0807	0.025721	0.002086	12.3292	-22.3599	11.4251	0.026287	0.378881	-0.770618	-0.771964	0.068370	12.3292	-0.774777	-2.042896E+10	-3.346708E-12	NaN
351	1.000000	0.422228	7.3685e+06	-56189.1	955.818	-29739.8	0.000000	0.000000	6.422888	-0.002902	NaN	0.000000	0.001621	0.001757	28.0796	0.047776	0.002089	22.868	-121.124	-163.814	-0.006274	0.420941	-0.728618	-0.729905	-0.002902	22.868	-0.728523	-4.793708E+9	6.053858E-13	NaN
351	1.000000	0.464275	7.3685e+06	-56189.1	955.818	-29739.8	0.000000	0.000000	6.464935	-0.005410	NaN	0.000000	0.001562	0.001731	28.0796	0.019218	0.001908	10.0738	-176.814	15.3016	0.076814	0.462897	-0.686571	-0.687948	-0.005410	10.0738	-0.686168	-1.266307E+9	4.272061E-12	NaN
351	1.000000	0.506256	7.3685e+06	-56189.1	955.817	-29739.8	0.000000	0.000000	6.506915	-0.044443	NaN	0.000000	0.001613	0.001757	28.0795	0.031974	0.001995	16.0291	-31.5581	-161.394	0.042755	0.504920	-0.644589	-0.645926	-0.044443	16.0291	-0.642510	-3.196858E+8	1.390210E-10	NaN
351	1.000000	0.548280	7.3685e+06	-56189.1	955.819	-29739.8	0.000000	0.000000	6.548938	-0.075715	NaN	0.000000	0.001575	0.001704	28.0807	0.025825	0.001987	12.9981	61.7465	16.6053	-0.024160	0.546944	-0.602565	-0.603901	-0.075715	12.9981	-0.598197	-7.863597E+7	9.628604E-10	NaN
351	1.000000	0.590322	7.3685e+06	-56189.1	955.819	-29739.8	0.000000	0.000000	6.590982	0.001921	NaN	0.000000	0.001532	0.001716	28.0808	0.073351	0.002043	35.896	-170.183	-169.227	0.026593	0.588970	-0.560524	-0.561875	0.001921	35.896	-0.560564	-2.377825E+7	-8.079268E-11	NaN
351	1.000000	0.632367	7.3685e+06	-56189.1	955.82	-29739.8	0.000000	0.000000	6.633029	0.026846	NaN	0.000000	0.001538	0.001729	28.0809	0.032683	0.002048	15.96	55.3378	15.7811	-0.022527	0.630994	-0.518479	-0.519852	0.026846	15.96	-0.519740	-6.45632e+06	-4.158151E-9	NaN
351	1.000000	0.674344	7.3685e+06	-56189.1	955.819	-29739.8	0.000000	0.000000	6.675004	-0.015066	NaN	0.000000	0.001554	0.001718	28.0806	0.117692	0.002020	58.2674	167.19	-164.668	-0.034359	0.673026	-0.476502	-0.477820	-0.015066	58.2674	-0.476308	-1.5989e+06	9.422800E-9	NaN
351	1.000000	0.716343	7.3685e+06	-56189.1	955.819	-29739.8	0.000000	0.000000	6.717006	0.056409	NaN	0.000000	0.001511	0.001774	28.0796	0.158295	0.001919	82.4941	111.152	12.9343	-0.023141	0.715063	-0.434503	-0.435783	0.056409	82.4941	-0.435015	-419733	-1.343920E-7	NaN
351	1.000000	0.758398	7.3685e+06	-56189.1	955.818	-29739.8	0.000000	0.000000	6.759060	0.033597	NaN	0.000000	0.001585	0.001716	28.0794	0.082374	0.002024	40.7013	-79.5109	-166.692	0.066079	0.757084	-0.392447	-0.393762	0.033597	40.7013	-0.393067	-106417	-3.157114E-7	NaN
351	1.000000	0.800413	7.3685e+06	-56189.1	955.818	-29739.8	0.000000	0.000000	6.801074	0.024342	NaN	0.000000	0.001536	0.001712	28.0794	0.064965	0.002012	32.2914	89.0235	12.5835	0.013175	0.799011	-0.350433	-0.351835	0.024342	32.2914	-0.350998	-26393.1	-9.222897E-7	NaN
351	1.000000	0.842413	7.3685e+06	-56189.1	955.818	-29739.8	0.000000	0.000000	6.843073	-0.004738	NaN	0.000000	0.001574	0.001705	28.0805	0.055647	0.002001	27.8074	32.081	-163.197	0.005131	0.841129	-0.308433	-0.309717	-0.004738	27.8074	-0.308305	-6251.08	7.579538E-7	NaN
351	1.000000	0.884442	7.3685e+06	-56189.1	955.817	-29739.8	0.000000	0.000000	6.885104	0.052007	NaN	0.000000	0.001617	0.001741	28.0806	0.022033	0.001955	11.2685	34.0602	14.6438	-0.024317	0.883052	-0.266404	-0.267794	0.052007	11.2685	-0.269865	-1657.67	-3.137337E-5	NaN
351	1.000000	0.926459	7.3685e+06	-56189.1	955.818	-29739.8	0.000000	0.000000	6.927119	0.006640	NaN	0.000000	0.001643	0.001719	28.0805	0.044049	0.001921	22.9303	56.0325	-163.261	-0.007405	0.925159	-0.224387	-0.225687	0.006640	22.9303	-0.224604	-328.886	-2.018931E-5	NaN
351	1.000000	0.968460	7.3685e+06	-56189.1	955.819	-29739.8	0.000000	0.000000	6.969122	0.028491	NaN	0.000000	0.001619	0.001734	28.0796	0.041063	0.002035	20.1733	-45.7343	13.1949	-0.073939	0.967140	-0.182385	-0.183706	0.028491	20.1733	-0.183445	-69.8039	-0.000408	NaN
351	1.000000	1.010491	7.3685e+06	-56189.1	955.82	-29739.8	0.000000	0.000000	7.011154	0.052512	NaN	0.000000	0.001503	0.001689	28.0795	0.074764	0.001904	39.2579	-16.9044	-162.767	-0.032947	1.009136	-0.140355	-0.141710	0.052512	39.2579	-0.141358	-12.5435	-0.004186	NaN
351	1.000000	1.052493	7.3685e+06	-56189.1	955.821	-29739.8	0.000000	0.000000	7.053153	-0.028156	NaN	0.000000	0.001523	0.001728	28.0796	0.090184	0.002115	42.637	-156.392	11.3012	-0.037928	1.051139	-0.098352	-0.099706	-0.028156	42.637	-0.097857	-1.636802	0.017202	NaN
351	1.000000	1.094518	7.3685e+06	-56189.1	955.821	-29739.8	0.000000	0.000000	7.095176	-0.045446	NaN	0.000000	0.001505	0.001750	28.0808	0.068432	0.002094	32.6774	0.479683	-168.129	0.046517	1.093226	-0.056328	-0.057620	-0.045446	32.6774	-0.055285	-0.131295	0.346138	NaN
351	1.000000	1.136503	7.3685e+06	-56189.1	955.82	-29739.8	0.000000	0.000000	7.137164	0.017583	NaN	0.000000	0.001525	0.001754	28.0805	0.072383	0.002006	36.0896	-44.073	10.2629	0.063402	1.135186	-0.014343	-0.015660	0.017583	36.0896	-0.014708	-0.009101	-1.931942	NaN
351	2.000000	1.164166	7.3685e+06	-56189.1	955.821	-29739.8	0.000000	0.000000	7.165393	13.7621	NaN	0.000000	0.001577	0.001757	28.0807	13.28	0.001839	7222.62	7.585930	-175.928	12.9716	1.163862	0.013320	0.013016	13.7621	7222.62	0.011891	0.011360	1211.43	61912.1
351	2.000000	1.174562	7.3685e+06	-56189.1	955.821	-29739.8	0.000000	0.000000	7.176549	32.2488	NaN	0.000000	0.001500	0.001734	28.0811	23.505	0.001718	13684.6	9.874687	-4.291744	30.1103	1.174197	0.023716	0.023351	32.2488	13684.6	0.021949	0.025697	1254.94	77993.9
351	2.000000	1.185102	7.3685e+06	-56189.1	955.822	-29739.8	0.000000	0.000000	7.188028	55.0631	NaN	0.000000	0.001492	0.001711	28.0797	32.9433	0.001751	18818.7	3.623400	179.062	54.4986	1.184724	0.034256	0.033878	55.0631	18818.7	0.032062	0.045126	1220.21	80937.8
351	2.000000	1.195638	7.3685e+06	-56189.1	955.822	-29739.8	0.000000	0.000000	7.200052	91.2439	NaN	0.000000	0.001492	0.001704	28.0796	43.7778	0.001776	24651.5	4.495824	-2.772692	93.3315	1.195322	0.044792	0.044477	91.2439	24651.5	0.042016	0.069342	1315.85	85529.9
351	2.000000	1.206074	7.3685e+06	-56189.1	955.821	-29739.8	0.000000	0.000000	7.212531	140.897	NaN	0.000000	0.001554	0.001727	28.0799	55.7393	0.001802	30931	3.002879	177.33	140.139	1.205768	0.055229	0.054923	140.897	30931	0.051812	0.098097	1436.31	90227.6
351	2.000000	1.216536	7.3685e+06	-56189.1	955.82	-29739.8	0.000000	0.000000	7.225258	195.958	NaN	0.000000	0.001573	0.001745	28.0809	66.2165	0.001839	36010.1	7.226232	-8.990897	195.043	1.216253	0.065690	0.065407	195.958	36010.1	0.061609	0.131640	1488.59	90678.2
351	2.000000	1.227076	7.3685e+06	-56189.1	955.821	-29739.8	0.000000	0.000000	7.238148	253.089	NaN	0.000000	0.001566	0.001734	28.0807	75.3758	0.001834	41094.8	6.288851	172.334	253.857	1.226596	0.076230	0.075750	253.089	41094.8	0.071611	0.170704	1482.62	90873.8
351	2.000000	1.237422	7.3685e+06	-56189.1	955.822	-29739.8	0.000000	0.000000	7.251217	319.252	NaN	0.000000	0.001546	0.001726	28.0807	84.6202	0.001787	47349	2.915827	-6.660556	313.05	1.237011	0.086576	0.086165	319.252	47349	0.081519	0.214078	1491.29	93496.9
351	2.000000	1.248025	7.3685e+06	-56189.1	955.821	-29739.8	0.000000	0.000000	7.264761	390.756	NaN	0.000000	0.001527	0.001725	28.0796	95.9086	0.001838	52191.9	3.928443	171.469	390.569	1.247832	0.097179	0.096986	390.756	52191.9	0.091564	0.262706	1487.43	93034.1
351	2.000000	1.257983	7.3685e+06	-56189.1	955.822	-29739.8	0.000000	0.000000	7.277736	464.065	NaN	0.000000	0.001548	0.001713	28.0797	103.712	0.001797	57715.8	4.637503	170.066	462.856	1.257813	0.107138	0.106968	464.065	57715.8	0.101107	0.313189	1481.74	94224.6