File: remote_trans/data/nanoindenter/0828-1/data/Data_2025-08-06,11h17m57s/2025-07-22_16-23-58_1_1100.txt
2025-07-22, 16:23:58, 1
Index	Phase	Displacement	Time	Pos X	Pos Y	Pos Z	Rot A	Rot B	Piezo Z	Force A	Force B	Gripper	Voltage A	Voltage B	Temperature	Amplitude force	Amplitude pos	Stiffness	Phase shift	Phase excitation	Force A raw	Displacement raw	HMax	HMax raw	Real Force	Real Stiffness	Contact Depth	Area	Hardness	Reduced Mod.
[#]	[#]	[um]	[s]	[um]	[um]	[um]	[m°]	[m°]	[um]	[uN]	[uN]	[V]	[V]	[V]	[°C]	[uN]	[um]	[N/m]	[°]	[°]	[uN]	[um]	[um]	[um]	[uN]	[N/m]	[um]	[um^2]	[MPa]	[MPa]
1100	1.000000	0.002285	7.37581e+06	-55139.1	1055.82	-29742.2	0.000000	0.000000	6.002823	-0.010196	NaN	0.000000	0.001749	0.001745	28.0844	0.055025	0.000980	56.1586	80.6701	-165.229	0.015160	0.000962	-1.002667	-1.003989	-0.010196	56.1586	-1.002530	-2.453775E+13	4.155389E-16	NaN
1100	1.000000	0.040223	7.37581e+06	-55139.1	1055.82	-29742.2	0.000000	0.000000	6.040763	0.058984	NaN	0.000000	0.001767	0.001781	28.0833	0.040567	0.002067	19.6217	163.033	19.8237	0.051654	0.038855	-0.964729	-0.966097	0.058984	19.6217	-0.966983	-8.147144E+12	-7.239835E-15	NaN
1100	1.000000	0.078203	7.37581e+06	-55139.1	1055.82	-29742.2	0.000000	0.000000	6.078738	-0.071818	NaN	0.000000	0.001691	0.001735	28.0829	0.139400	0.001989	70.0962	100.171	-163.739	-0.053341	0.076894	-0.926748	-0.928058	-0.071818	70.0962	-0.925980	-2.280010E+12	3.149888E-14	NaN
1100	1.000000	0.116233	7.37581e+06	-55139.1	1055.82	-29742.2	0.000000	0.000000	6.116767	-0.075177	NaN	0.000000	0.001648	0.001760	28.0829	0.042427	0.001899	22.3368	-179.573	18.7726	-0.178908	0.114897	-0.888719	-0.890055	-0.075177	22.3368	-0.886195	-6.614161E+11	1.136605E-13	NaN
1100	1.000000	0.154250	7.37581e+06	-55139.1	1055.82	-29742.2	0.000000	0.000000	6.154786	-0.047047	NaN	0.000000	0.001703	0.001678	28.0845	0.104320	0.002093	49.8398	78.8085	-162.272	-0.008212	0.152926	-0.850702	-0.852026	-0.047047	49.8398	-0.849994	-2.141173E+11	2.197240E-13	NaN
1100	1.000000	0.192287	7.37581e+06	-55139.1	1055.82	-29742.2	0.000000	0.000000	6.192822	-0.070236	NaN	0.000000	0.001679	0.001734	28.0847	0.039966	0.001981	20.1728	-170.955	16.7083	-0.090341	0.190905	-0.812665	-0.814047	-0.070236	20.1728	-0.810053	-6.155943E+10	1.140949E-12	NaN
1100	1.000000	0.230294	7.37581e+06	-55139.1	1055.82	-29742.2	0.000000	0.000000	6.230832	-0.016107	NaN	0.000000	0.001741	0.001761	28.0847	0.112080	0.001992	56.2727	124.753	-165.947	-0.035167	0.229005	-0.774657	-0.775947	-0.016107	56.2727	-0.774443	-2.021634E+10	7.967225E-13	NaN
1100	1.000000	0.268301	7.37581e+06	-55139.1	1055.82	-29742.2	0.000000	0.000000	6.268840	0.033264	NaN	0.000000	0.001670	0.001779	28.0848	0.128287	0.001849	69.3876	-26.7118	15.698	0.002132	0.266909	-0.736651	-0.738042	0.033264	69.3876	-0.737011	-6.256586E+9	-5.316653E-12	NaN
1100	1.000000	0.306313	7.37581e+06	-55139.1	1055.82	-29742.2	0.000000	0.000000	6.306850	-0.019793	NaN	0.000000	0.001742	0.001776	28.0835	0.056608	0.001869	30.2957	-176.076	-162.857	-0.029076	0.305055	-0.698638	-0.699897	-0.019793	30.2957	-0.698148	-1.846050E+9	1.072167E-11	NaN
1100	1.000000	0.344328	7.37581e+06	-55139.1	1055.82	-29742.2	0.000000	0.000000	6.344865	-0.012555	NaN	0.000000	0.001728	0.001735	28.0838	0.040289	0.001992	20.2205	144.536	17.2314	0.009815	0.342970	-0.660624	-0.661982	-0.012555	20.2205	-0.660159	-5.580081E+8	2.249907E-11	NaN
1100	1.000000	0.382380	7.37582e+06	-55139.1	1055.82	-29742.2	0.000000	0.000000	6.382916	-0.042780	NaN	0.000000	0.001700	0.001764	28.0835	0.053783	0.001991	27.0096	17.1102	-164.946	0.044757	0.381081	-0.622571	-0.623871	-0.042780	27.0096	-0.621383	-1.639262E+8	2.609726E-10	NaN
1100	1.000000	0.420364	7.37582e+06	-55139.1	1055.82	-29742.2	0.000000	0.000000	6.420900	-0.024187	NaN	0.000000	0.001668	0.001721	28.0844	0.093256	0.001950	47.8135	-50.1667	17.6509	-0.017130	0.419013	-0.584588	-0.585939	-0.024187	47.8135	-0.584209	-5.044292E+7	4.794970E-10	NaN
1100	1.000000	0.458384	7.37582e+06	-55139.1	1055.82	-29742.2	0.000000	0.000000	6.458922	0.006879	NaN	0.000000	0.001678	0.001775	28.0845	0.083816	0.002082	40.2554	146.231	-161.994	0.091713	0.457062	-0.546568	-0.547890	0.006879	40.2554	-0.546696	-1.528230E+7	-4.501363E-10	NaN
1100	1.000000	0.496400	7.37582e+06	-55139.1	1055.82	-29742.2	0.000000	0.000000	6.496936	-0.050049	NaN	0.000000	0.001677	0.001742	28.0844	0.060543	0.002071	29.2338	169.771	16.8288	-0.027474	0.495022	-0.508552	-0.509930	-0.050049	29.2338	-0.507268	-4.32861e+06	1.156228E-8	NaN
1100	1.000000	0.534424	7.37582e+06	-55139.1	1055.82	-29742.2	0.000000	0.000000	6.534961	-0.008956	NaN	0.000000	0.001647	0.001765	28.0844	0.083841	0.002032	41.2537	8.252244	-164.545	-0.047434	0.533142	-0.470528	-0.471810	-0.008956	41.2537	-0.470365	-1.31986e+06	6.785566E-9	NaN
1100	1.000000	0.572447	7.37582e+06	-55139.1	1055.82	-29742.2	0.000000	0.000000	6.572985	-0.003063	NaN	0.000000	0.001644	0.001723	28.0832	0.110122	0.001939	56.7918	-95.2828	17.5546	-0.043083	0.571011	-0.432505	-0.433941	-0.003063	56.7918	-0.432464	-386289	7.929421E-9	NaN
1100	1.000000	0.610440	7.37582e+06	-55139.1	1055.82	-29742.2	0.000000	0.000000	6.610973	-0.123453	NaN	0.000000	0.001646	0.001752	28.0834	0.107788	0.001981	54.418	-47.4763	-163.191	-0.088446	0.609110	-0.394512	-0.395842	-0.123453	54.418	-0.392810	-105523	1.169916E-6	NaN
1100	1.000000	0.648474	7.37582e+06	-55139.1	1055.82	-29742.2	0.000000	0.000000	6.649010	-0.032194	NaN	0.000000	0.001669	0.001747	28.0836	0.056597	0.001946	29.0832	-129.355	15.2612	0.021818	0.647097	-0.356478	-0.357855	-0.032194	29.0832	-0.355648	-30823.4	1.044475E-6	NaN
1100	1.000000	0.686498	7.37582e+06	-55139.1	1055.82	-29742.2	0.000000	0.000000	6.687034	-0.039038	NaN	0.000000	0.001677	0.001725	28.0835	0.070469	0.001943	36.2626	-148.117	-163.562	-0.035686	0.685129	-0.318454	-0.319822	-0.039038	36.2626	-0.317647	-8589.72	4.544773E-6	NaN
1100	1.000000	0.724509	7.37582e+06	-55139.1	1055.82	-29742.2	0.000000	0.000000	6.725046	-0.012259	NaN	0.000000	0.001664	0.001752	28.0847	0.007320	0.002062	3.550221	1.267749	15.9962	-0.024439	0.723160	-0.280443	-0.281791	-0.012259	3.550221	-0.277853	-2190.56	5.596236E-6	NaN
1100	1.000000	0.762508	7.37582e+06	-55139.1	1055.82	-29742.2	0.000000	0.000000	6.763044	-0.055696	NaN	0.000000	0.001676	0.001773	28.0844	0.120840	0.001910	63.2713	-36.2866	-162.467	-0.017352	0.761177	-0.242443	-0.243775	-0.055696	63.2713	-0.241783	-612.886	9.087518E-5	NaN
1100	1.000000	0.800552	7.37582e+06	-55139.1	1055.82	-29742.2	0.000000	0.000000	6.801092	0.050769	NaN	0.000000	0.001683	0.001754	28.0845	0.091614	0.002024	45.2541	-117.867	14.7379	-0.001051	0.799230	-0.204400	-0.205722	0.050769	45.2541	-0.205241	-160.507	-0.000316	NaN
1100	1.000000	0.838534	7.37582e+06	-55139.1	1055.82	-29742.2	0.000000	0.000000	6.839072	0.014095	NaN	0.000000	0.001718	0.001744	28.0833	0.028843	0.002000	14.42	-25.0799	-168.196	0.032088	0.837215	-0.166418	-0.167736	0.014095	14.42	-0.167151	-36.6426	-0.000385	NaN
1100	1.000000	0.876543	7.37582e+06	-55139.1	1055.82	-29742.2	0.000000	0.000000	6.877076	-0.114615	NaN	0.000000	0.001682	0.001776	28.0838	0.071860	0.002094	34.3114	52.6061	15.6252	-0.095307	0.875227	-0.128409	-0.129725	-0.114615	34.3114	-0.125903	-6.336303	0.018089	NaN
1100	1.000000	0.914573	7.37582e+06	-55139.1	1055.82	-29742.2	0.000000	0.000000	6.915106	-0.110997	NaN	0.000000	0.001659	0.001740	28.0835	0.017170	0.001993	8.613907	-23.0104	-163.783	-0.203355	0.913248	-0.090379	-0.091704	-0.110997	8.613907	-0.080714	-0.644922	0.172108	NaN
1100	1.000000	0.952585	7.37582e+06	-55139.1	1055.82	-29742.2	0.000000	0.000000	6.953122	-0.015297	NaN	0.000000	0.001707	0.001737	28.0833	0.048396	0.001912	25.3087	179.048	15.7478	-0.115661	0.951197	-0.052367	-0.053755	-0.015297	25.3087	-0.051913	-0.104205	0.146799	NaN
1100	1.000000	0.990601	7.37582e+06	-55139.1	1055.82	-29742.2	0.000000	0.000000	6.991143	0.095250	NaN	0.000000	0.001715	0.001747	28.0846	0.197578	0.002128	92.8559	78.8609	-162.885	0.045199	0.989296	-0.014351	-0.015656	0.095250	92.8559	-0.015120	-0.009348	-10.1898	NaN
1100	2.000000	1.012602	7.37582e+06	-55139.1	1055.82	-29742.2	0.000000	0.000000	7.014847	41.5064	NaN	0.000000	0.001698	0.001733	28.0848	18.0264	0.001681	10723.8	-1.085555	10.1427	39.9734	1.012289	0.007650	0.007337	41.5064	10723.8	0.004747	0.003904	10631.7	156807
1100	2.000000	1.022052	7.37582e+06	-55139.1	1055.82	-29742.2	0.000000	0.000000	7.027341	115.505	NaN	0.000000	0.001695	0.001753	28.0849	30.253	0.001757	17222.7	3.377766	-178.254	112.751	1.021678	0.017100	0.016726	115.505	17222.7	0.012070	0.011574	9979.87	146264
1100	2.000000	1.031571	7.37582e+06	-55139.1	1055.82	-29742.2	0.000000	0.000000	7.039531	180.439	NaN	0.000000	0.001677	0.001769	28.0833	39.2865	0.001715	22902.2	5.251824	-3.082428	181.595	1.031374	0.026619	0.026422	180.439	22902.2	0.020710	0.023670	7622.98	136003
1100	2.000000	1.041003	7.37582e+06	-55139.1	1055.82	-29742.2	0.000000	0.000000	7.052998	278.526	NaN	0.000000	0.001756	0.001766	28.0834	49.8161	0.001739	28654.2	3.185501	177.3	276.552	1.040672	0.036051	0.035721	278.526	28654.2	0.028761	0.038215	7288.43	133920
1100	2.000000	1.050380	7.37582e+06	-55139.1	1055.82	-29742.2	0.000000	0.000000	7.065832	362.57	NaN	0.000000	0.001684	0.001745	28.0832	58.1131	0.001778	32693.1	0.934583	-1.332120	353.774	1.050043	0.045428	0.045092	362.57	32693.1	0.037110	0.056774	6386.21	125359
1100	2.000000	1.059881	7.37582e+06	-55139.1	1055.82	-29742.2	0.000000	0.000000	7.079597	466.222	NaN	0.000000	0.001658	0.001722	28.0834	67.311	0.001840	36573.5	1.171592	178.593	459.819	1.059591	0.054929	0.054639	466.222	36573.5	0.045368	0.078637	5928.82	119159
1100	2.000000	1.069415	7.37582e+06	-55139.1	1055.82	-29742.2	0.000000	0.000000	7.092773	554.747	NaN	0.000000	0.001662	0.001717	28.0844	75.7253	0.001834	41290.9	3.321593	-5.701145	549.057	1.069341	0.064463	0.064389	554.747	41290.9	0.054387	0.106453	5211.18	115624
1100	2.000000	1.079031	7.37582e+06	-55139.1	1055.82	-29742.2	0.000000	0.000000	7.107287	673.803	NaN	0.000000	0.001679	0.001714	28.0846	84.0117	0.001752	47953.9	5.510559	171.768	674.783	1.078700	0.074079	0.073748	673.803	47953.9	0.063541	0.138811	4854.12	117594
1100	2.000000	1.088583	7.37582e+06	-55139.1	1055.82	-29742.2	0.000000	0.000000	7.121249	781.02	NaN	0.000000	0.001722	0.001724	28.0846	92.7993	0.001848	50218.6	7.790083	-10.3785	784.923	1.088164	0.083631	0.083212	781.02	50218.6	0.071967	0.172180	4536.07	110572
1100	2.000000	1.097893	7.37582e+06	-55139.1	1055.82	-29742.2	0.000000	0.000000	7.134964	888.107	NaN	0.000000	0.001717	0.001758	28.0838	98.1742	0.001859	52798.1	3.951688	173.015	882.343	1.097533	0.092941	0.092581	888.107	52798.1	0.080325	0.208608	4257.31	105615
1100	2.000000	1.105889	7.37582e+06	-55139.1	1055.82	-29742.2	0.000000	0.000000	7.146199	966.822	NaN	0.000000	0.001692	0.001742	28.0831	107.66	0.001894	56829.4	5.406561	170.969	962.14	1.105564	0.100938	0.100612	966.822	56829.4	0.088178	0.245795	3933.45	104727