File: remote_trans/data/nanoindenter/0828-1/data/Data_2025-08-06,11h17m57s/2025-07-22_16-23-58_1_719.txt
2025-07-22, 16:23:58, 1
Index	Phase	Displacement	Time	Pos X	Pos Y	Pos Z	Rot A	Rot B	Piezo Z	Force A	Force B	Gripper	Voltage A	Voltage B	Temperature	Amplitude force	Amplitude pos	Stiffness	Phase shift	Phase excitation	Force A raw	Displacement raw	HMax	HMax raw	Real Force	Real Stiffness	Contact Depth	Area	Hardness	Reduced Mod.
[#]	[#]	[um]	[s]	[um]	[um]	[um]	[m°]	[m°]	[um]	[uN]	[uN]	[V]	[V]	[V]	[°C]	[uN]	[um]	[N/m]	[°]	[°]	[uN]	[um]	[um]	[um]	[uN]	[N/m]	[um]	[um^2]	[MPa]	[MPa]
719	1.000000	0.002627	7.37209e+06	-41139.1	1005.82	-29787.1	0.000000	0.000000	6.002818	-0.006987	NaN	0.000000	0.001629	0.001714	28.0826	0.042484	0.000864	49.154	128.358	-164.774	-0.054456	0.001327	-1.195034	-1.196333	-0.006987	49.154	-1.194927	-9.393155E+15	7.438586E-19	NaN
719	1.000000	0.046570	7.37209e+06	-41139.1	1005.82	-29787.1	0.000000	0.000000	6.046761	-0.028309	NaN	0.000000	0.001606	0.001725	28.0828	0.063029	0.001983	31.7845	32.3572	-163.398	-0.008939	0.045287	-1.151090	-1.152373	-0.028309	31.7845	-1.150422	-2.379459E+15	1.189717E-17	NaN
719	1.000000	0.090561	7.37209e+06	-41139.1	1005.82	-29787.1	0.000000	0.000000	6.090747	-0.127207	NaN	0.000000	0.001683	0.001670	28.0835	0.085485	0.002062	41.4505	60.8678	-164.527	-0.096249	0.089242	-1.107099	-1.108418	-0.127207	41.4505	-1.104798	-5.813900E+14	2.187981E-16	NaN
719	1.000000	0.134591	7.37209e+06	-41139.1	1005.82	-29787.1	0.000000	0.000000	6.134785	0.049193	NaN	0.000000	0.001630	0.001728	28.0836	0.159164	0.002136	74.5163	36.6748	-166.042	0.034978	0.133278	-1.063069	-1.064382	0.049193	74.5163	-1.063564	-1.624497E+14	-3.028203E-16	NaN
719	1.000000	0.178595	7.37209e+06	-41139.1	1005.82	-29787.1	0.000000	0.000000	6.178785	-0.050062	NaN	0.000000	0.001689	0.001730	28.0836	0.030910	0.002017	15.3241	100.464	-163.554	-0.094553	0.177328	-1.019065	-1.020332	-0.050062	15.3241	-1.016615	-3.796707E+13	1.318562E-15	NaN
719	1.000000	0.222626	7.37209e+06	-41139.1	1005.82	-29787.1	0.000000	0.000000	6.222817	-0.017256	NaN	0.000000	0.001698	0.001754	28.0822	0.087425	0.001929	45.3263	177.27	-163.027	0.018454	0.221282	-0.975034	-0.976378	-0.017256	45.3263	-0.974749	-1.036703E+13	1.664548E-15	NaN
719	1.000000	0.266647	7.37209e+06	-41139.1	1005.82	-29787.1	0.000000	0.000000	6.266835	-0.094488	NaN	0.000000	0.001570	0.001703	28.0821	0.049733	0.001939	25.6551	-65.3551	-163.139	-0.099223	0.265356	-0.931013	-0.932304	-0.094488	25.6551	-0.928251	-2.446746E+12	3.861762E-14	NaN
719	1.000000	0.310675	7.37209e+06	-41139.1	1005.82	-29787.1	0.000000	0.000000	6.310869	0.054294	NaN	0.000000	0.001589	0.001733	28.0823	0.071964	0.001997	36.0291	48.7435	-165.069	0.012915	0.309370	-0.886985	-0.888290	0.054294	36.0291	-0.888116	-7.021687E+11	-7.732340E-14	NaN
719	1.000000	0.354690	7.37209e+06	-41139.1	1005.82	-29787.1	0.000000	0.000000	6.354880	-0.058714	NaN	0.000000	0.001609	0.001716	28.0834	0.060581	0.002138	28.3356	-10.1221	-163.406	-0.121868	0.353388	-0.842970	-0.844272	-0.058714	28.3356	-0.841416	-1.638597E+11	3.583175E-13	NaN
719	1.000000	0.398698	7.37209e+06	-41139.1	1005.82	-29787.1	0.000000	0.000000	6.398889	-0.022089	NaN	0.000000	0.001599	0.001717	28.0839	0.030748	0.002008	15.3124	-99.1145	-162.262	-0.111267	0.397399	-0.798962	-0.800261	-0.022089	15.3124	-0.797880	-4.208098E+10	5.249262E-13	NaN
719	1.000000	0.442740	7.37209e+06	-41139.1	1005.82	-29787.1	0.000000	0.000000	6.442932	-0.013956	NaN	0.000000	0.001596	0.001759	28.0836	0.067140	0.001975	33.9866	-15.3429	-165.738	-0.010049	0.441394	-0.754920	-0.756266	-0.013956	33.9866	-0.754612	-1.086391E+10	1.284607E-12	NaN
719	1.000000	0.486728	7.37209e+06	-41139.1	1005.82	-29787.1	0.000000	0.000000	6.486919	-0.018396	NaN	0.000000	0.001570	0.001781	28.0822	0.094890	0.001834	51.7464	144.599	-165.751	0.048262	0.485440	-0.710932	-0.712220	-0.018396	51.7464	-0.710665	-2.736086E+9	6.723391E-12	NaN
719	1.000000	0.530726	7.37209e+06	-41139.1	1005.82	-29787.1	0.000000	0.000000	6.530917	-0.029402	NaN	0.000000	0.001599	0.001785	28.0824	0.127712	0.002086	61.2283	148.871	-165.971	-0.054575	0.529465	-0.666934	-0.668195	-0.029402	61.2283	-0.666574	-6.831141E+8	4.304161E-11	NaN
719	1.000000	0.574789	7.37209e+06	-41139.1	1005.82	-29787.1	0.000000	0.000000	6.574983	0.051440	NaN	0.000000	0.001589	0.001754	28.0824	0.058601	0.001967	29.7984	141.873	-163.938	0.003251	0.573453	-0.622871	-0.624207	0.051440	29.7984	-0.624166	-1.790138E+8	-2.873518E-10	NaN
719	1.000000	0.618789	7.37209e+06	-41139.1	1005.82	-29787.1	0.000000	0.000000	6.618981	-0.000197	NaN	0.000000	0.001534	0.001749	28.0836	0.086015	0.002041	42.144	-172.152	-165.404	0.106217	0.617492	-0.578871	-0.580168	-0.000197	42.144	-0.578868	-4.256947E+7	4.617802E-12	NaN
719	1.000000	0.662822	7.37209e+06	-41139.1	1005.82	-29787.1	0.000000	0.000000	6.663012	-0.069808	NaN	0.000000	0.001573	0.001759	28.0842	0.013768	0.001948	7.066754	-42.8453	-165.632	-0.033303	0.661459	-0.534838	-0.536201	-0.069808	7.066754	-0.527429	-8.25771e+06	8.453686E-9	NaN
719	1.000000	0.706812	7.37209e+06	-41139.1	1005.82	-29787.1	0.000000	0.000000	6.707002	-0.047023	NaN	0.000000	0.001604	0.001759	28.0838	0.061661	0.002069	29.7984	-24.2725	-164.446	-0.092144	0.705531	-0.490848	-0.492129	-0.047023	29.7984	-0.489665	-2.45873e+06	1.912481E-8	NaN
719	1.000000	0.750871	7.37209e+06	-41139.1	1005.82	-29787.1	0.000000	0.000000	6.751060	-0.062886	NaN	0.000000	0.001605	0.001766	28.0824	0.028129	0.002006	14.0231	-144.636	-164.488	-0.056239	0.749529	-0.446789	-0.448131	-0.062886	14.0231	-0.443426	-551692	1.139871E-7	NaN
719	1.000000	0.794881	7.37209e+06	-41139.1	1005.82	-29787.1	0.000000	0.000000	6.795069	-0.114338	NaN	0.000000	0.001580	0.001769	28.0824	0.083976	0.002032	41.3279	-139.426	-168.861	-0.080606	0.793546	-0.402779	-0.404114	-0.114338	41.3279	-0.400704	-136782	8.359086E-7	NaN
719	1.000000	0.838888	7.37209e+06	-41139.1	1005.82	-29787.1	0.000000	0.000000	6.839077	-0.083646	NaN	0.000000	0.001567	0.001771	28.0826	0.051851	0.001959	26.4616	-133.6	-165.812	-0.161286	0.837625	-0.358772	-0.360035	-0.083646	26.4616	-0.356401	-31607.3	2.646417E-6	NaN
719	1.000000	0.882906	7.37209e+06	-41139.1	1005.82	-29787.1	0.000000	0.000000	6.883096	-0.044165	NaN	0.000000	0.001567	0.001757	28.0839	0.056519	0.002037	27.7462	-171.118	-168.462	-0.028713	0.881593	-0.314754	-0.316067	-0.044165	27.7462	-0.313560	-7476.32	5.907308E-6	NaN
719	1.000000	0.926923	7.37209e+06	-41139.1	1005.82	-29787.1	0.000000	0.000000	6.927113	-0.058546	NaN	0.000000	0.001590	0.001756	28.0838	0.082401	0.001977	41.6711	-62.8866	-166.067	0.058376	0.925640	-0.270737	-0.272020	-0.058546	41.6711	-0.269683	-1647.11	3.554436E-5	NaN
719	1.000000	0.970940	7.37209e+06	-41139.1	1005.82	-29787.1	0.000000	0.000000	6.971133	0.010277	NaN	0.000000	0.001588	0.001738	28.084	0.021628	0.002004	10.793	-115.868	-165.513	-0.065554	0.969653	-0.226720	-0.228007	0.010277	10.793	-0.227434	-364.7	-2.817989E-5	NaN
719	1.000000	1.014976	7.37209e+06	-41139.1	1005.82	-29787.1	0.000000	0.000000	7.015169	0.032982	NaN	0.000000	0.001559	0.001762	28.0826	0.082386	0.002005	41.0858	-67.8672	-164.814	-0.026073	1.013636	-0.182684	-0.184024	0.032982	41.0858	-0.183286	-69.3751	-0.000475	NaN
719	1.000000	1.059001	7.37209e+06	-41139.1	1005.82	-29787.1	0.000000	0.000000	7.059191	-0.050485	NaN	0.000000	0.001650	0.001805	28.0822	0.074017	0.001799	41.1486	158.062	-163.257	-0.086115	1.057639	-0.138659	-0.140021	-0.050485	41.1486	-0.137739	-10.7237	0.004708	NaN
719	1.000000	1.102980	7.37209e+06	-41139.1	1005.82	-29787.1	0.000000	0.000000	7.103171	-0.025510	NaN	0.000000	0.001609	0.001791	28.0822	0.164040	0.001927	85.1481	-13.7431	-163.687	-0.014663	1.101679	-0.094680	-0.095981	-0.025510	85.1481	-0.094456	-1.370857	0.018609	NaN
719	1.000000	1.147027	7.37209e+06	-41139.1	1005.82	-29787.1	0.000000	0.000000	7.147216	-0.058535	NaN	0.000000	0.001599	0.001795	28.0835	0.122545	0.002121	57.778	74.9518	-163.675	-0.069676	1.145701	-0.050633	-0.051959	-0.058535	57.778	-0.049873	-0.090449	0.647158	NaN
719	1.000000	1.191040	7.37209e+06	-41139.1	1005.82	-29787.1	0.000000	0.000000	7.191247	0.372661	NaN	0.000000	0.001667	0.001763	28.0839	0.410632	0.002018	203.455	32.4336	-168.247	0.260018	1.189757	-0.006620	-0.007903	0.372661	203.455	-0.007994	-0.005228	-71.2793	NaN
719	2.000000	1.211609	7.37209e+06	-41139.1	1005.82	-29787.1	0.000000	0.000000	7.212556	18.3738	NaN	0.000000	0.001604	0.001772	28.0838	16.5597	0.001845	8975.71	9.495943	-177.133	17.3453	1.211322	0.013949	0.013661	18.3738	8975.71	0.012413	0.011989	1532.56	74894.6
719	2.000000	1.222568	7.37209e+06	-41139.1	1005.82	-29787.1	0.000000	0.000000	7.224493	42.1739	NaN	0.000000	0.001626	0.001778	28.0826	26.6391	0.001844	14448.6	10.122	178.072	40.9664	1.222256	0.024908	0.024596	42.1739	14448.6	0.022719	0.026996	1562.23	80343.3
719	2.000000	1.233544	7.37209e+06	-41139.1	1005.82	-29787.1	0.000000	0.000000	7.236707	72.2804	NaN	0.000000	0.001584	0.001779	28.0825	35.9756	0.001651	21792.5	3.608521	-179.84	70.772	1.233321	0.035884	0.035661	72.2804	21792.5	0.033397	0.048078	1503.39	90804.3
719	2.000000	1.244530	7.37209e+06	-41139.1	1005.82	-29787.1	0.000000	0.000000	7.249580	118.215	NaN	0.000000	0.001612	0.001736	28.0831	47.2462	0.001687	28007	9.045224	173.104	117.846	1.244170	0.046870	0.046510	118.215	28007	0.043704	0.073951	1598.55	94095.3
719	2.000000	1.255542	7.37209e+06	-41139.1	1005.82	-29787.1	0.000000	0.000000	7.262914	174.693	NaN	0.000000	0.001577	0.001727	28.0827	58.0713	0.001823	31855.7	5.806078	175.105	173.074	1.255140	0.057882	0.057480	174.693	31855.7	0.053769	0.104419	1673	90068
719	2.000000	1.266553	7.37209e+06	-41139.1	1005.82	-29787.1	0.000000	0.000000	7.276892	246.909	NaN	0.000000	0.001637	0.001774	28.0838	71.4302	0.001792	39853.8	4.030848	175.005	248.523	1.266219	0.068893	0.068559	246.909	39853.8	0.064247	0.141475	1745.25	96806.3
719	2.000000	1.277490	7.37209e+06	-41139.1	1005.82	-29787.1	0.000000	0.000000	7.291001	324.094	NaN	0.000000	0.001660	0.001786	28.0838	81.9368	0.001794	45669.6	5.444908	172.452	322.438	1.277154	0.079830	0.079494	324.094	45669.6	0.074508	0.182906	1771.91	97563.1
719	2.000000	1.288588	7.37209e+06	-41139.1	1005.82	-29787.1	0.000000	0.000000	7.305756	413.069	NaN	0.000000	0.001706	0.001750	28.0838	93.6346	0.001813	51649	7.049935	169.892	418.839	1.288279	0.090928	0.090619	413.069	51649	0.084930	0.230067	1795.43	98380.2
719	2.000000	1.299509	7.37209e+06	-41139.1	1005.82	-29787.1	0.000000	0.000000	7.321138	521.621	NaN	0.000000	0.001545	0.001738	28.0827	104.852	0.001830	57280.9	6.503448	170.462	521.562	1.298947	0.101849	0.101287	521.621	57280.9	0.095019	0.280503	1859.59	98813.1
719	2.000000	1.302446	7.37209e+06	-41139.1	1005.82	-29787.1	0.000000	0.000000	7.324857	540.642	NaN	0.000000	0.001571	0.001716	28.0824	105.476	0.001830	57642.7	2.504025	174.018	538.459	1.302170	0.104786	0.104510	540.642	57642.7	0.097751	0.294964	1832.91	96969