File: remote_trans/data/nanoindenter/0828-1/data/Data_2025-08-06,11h17m57s/2025-07-22_16-23-58_1_280.txt
2025-07-22, 16:23:58, 1
Index	Phase	Displacement	Time	Pos X	Pos Y	Pos Z	Rot A	Rot B	Piezo Z	Force A	Force B	Gripper	Voltage A	Voltage B	Temperature	Amplitude force	Amplitude pos	Stiffness	Phase shift	Phase excitation	Force A raw	Displacement raw	HMax	HMax raw	Real Force	Real Stiffness	Contact Depth	Area	Hardness	Reduced Mod.
[#]	[#]	[um]	[s]	[um]	[um]	[um]	[m°]	[m°]	[um]	[uN]	[uN]	[V]	[V]	[V]	[°C]	[uN]	[um]	[N/m]	[°]	[°]	[uN]	[um]	[um]	[um]	[uN]	[N/m]	[um]	[um^2]	[MPa]	[MPa]
280	1.000000	0.002826	7.36779e+06	-52639.1	955.818	-29749	0.000000	0.000000	6.002819	0.051901	NaN	0.000000	0.001594	0.001696	28.0792	0.028635	0.001042	27.4786	47.06	-164.512	0.040955	0.001570	-1.059534	-1.060790	0.051901	27.4786	-1.060951	-1.498293E+14	-3.464017E-16	NaN
280	1.000000	0.042772	7.36779e+06	-52639.1	955.817	-29749	0.000000	0.000000	6.042767	0.089475	NaN	0.000000	0.001601	0.001643	28.0789	0.147011	0.001917	76.6761	86.2164	-164.586	0.044934	0.041437	-1.019588	-1.020923	0.089475	76.6761	-1.020463	-4.277449E+13	-2.091791E-15	NaN
280	1.000000	0.082776	7.36779e+06	-52639.1	955.819	-29749	0.000000	0.000000	6.082769	0.039004	NaN	0.000000	0.001600	0.001671	28.0789	0.069919	0.002028	34.4831	-86.4301	-163.962	0.038218	0.081452	-0.979584	-0.980908	0.039004	34.4831	-0.980432	-1.236602E+13	-3.154136E-15	NaN
280	1.000000	0.122805	7.36779e+06	-52639.1	955.819	-29749	0.000000	0.000000	6.122795	-0.032470	NaN	0.000000	0.001514	0.001671	28.0776	0.079946	0.002087	38.3079	-83.7899	-165.811	-0.035789	0.121516	-0.939555	-0.940844	-0.032470	38.3079	-0.938919	-3.408439E+12	9.526239E-15	NaN
280	1.000000	0.162794	7.36779e+06	-52639.1	955.818	-29749	0.000000	0.000000	6.162786	0.036100	NaN	0.000000	0.001522	0.001662	28.0776	0.047877	0.001931	24.7951	117.696	-162.886	0.009978	0.161466	-0.899566	-0.900894	0.036100	24.7951	-0.900658	-1.037434E+12	-3.479732E-14	NaN
280	1.000000	0.202787	7.36779e+06	-52639.1	955.817	-29749	0.000000	0.000000	6.202779	0.021805	NaN	0.000000	0.001575	0.001669	28.0779	0.061521	0.001966	31.2934	-179.995	-165.108	0.024891	0.201529	-0.859573	-0.860831	0.021805	31.2934	-0.860096	-2.933709E+11	-7.432730E-14	NaN
280	1.000000	0.242813	7.36779e+06	-52639.1	955.817	-29749	0.000000	0.000000	6.242806	0.029975	NaN	0.000000	0.001595	0.001680	28.0777	0.101747	0.001978	51.4471	67.0698	-162.318	0.059045	0.241494	-0.819547	-0.820866	0.029975	51.4471	-0.819984	-8.394428E+10	-3.570778E-13	NaN
280	1.000000	0.282869	7.36779e+06	-52639.1	955.82	-29749	0.000000	0.000000	6.282860	0.002721	NaN	0.000000	0.001599	0.001637	28.0792	0.060214	0.002122	28.3788	173.503	-166.932	-0.040234	0.281563	-0.779491	-0.780797	0.002721	28.3788	-0.779563	-2.372998E+10	-1.146839E-13	NaN
280	1.000000	0.322850	7.36779e+06	-52639.1	955.818	-29749	0.000000	0.000000	6.322842	0.000630	NaN	0.000000	0.001594	0.001653	28.0786	0.051666	0.001984	26.0424	-45.9451	-163.096	-0.043478	0.321602	-0.739510	-0.740758	0.000630	26.0424	-0.739528	-6.770534E+9	-9.302552E-14	NaN
280	1.000000	0.362921	7.36779e+06	-52639.1	955.819	-29749	0.000000	0.000000	6.362914	0.030452	NaN	0.000000	0.001560	0.001703	28.0792	0.048515	0.001957	24.7878	-80.405	-163.359	0.043371	0.361599	-0.699439	-0.700761	0.030452	24.7878	-0.700360	-1.979021E+9	-1.538734E-11	NaN
280	1.000000	0.402897	7.36779e+06	-52639.1	955.82	-29749	0.000000	0.000000	6.402890	0.060534	NaN	0.000000	0.001577	0.001724	28.0783	0.066863	0.002033	32.8954	-67.7947	-166.763	-0.056730	0.401604	-0.659463	-0.660756	0.060534	32.8954	-0.660843	-5.701928E+8	-1.061647E-10	NaN
280	1.000000	0.442945	7.36779e+06	-52639.1	955.818	-29749	0.000000	0.000000	6.442936	0.000547	NaN	0.000000	0.001571	0.001704	28.0783	0.064048	0.002021	31.6943	-103.143	-162.595	0.064394	0.441616	-0.619415	-0.620744	0.000547	31.6943	-0.619428	-1.540902E+8	-3.549933E-12	NaN
280	1.000000	0.482922	7.3678e+06	-52639.1	955.818	-29749	0.000000	0.000000	6.482916	0.080455	NaN	0.000000	0.001600	0.001721	28.0782	0.077635	0.002017	38.4814	-111.205	-165.683	0.058679	0.481681	-0.579438	-0.580679	0.080455	38.4814	-0.581006	-4.556297E+7	-1.765796E-9	NaN
280	1.000000	0.522949	7.3678e+06	-52639.1	955.818	-29749	0.000000	0.000000	6.522941	0.014426	NaN	0.000000	0.001641	0.001705	28.0793	0.138397	0.001889	73.2539	166.139	-167.552	0.043735	0.521651	-0.539411	-0.540709	0.014426	73.2539	-0.539559	-1.216862E+7	-1.185473E-9	NaN
280	1.000000	0.562979	7.3678e+06	-52639.1	955.818	-29749	0.000000	0.000000	6.562971	0.023716	NaN	0.000000	0.001598	0.001708	28.0791	0.037444	0.001993	18.7887	161.699	-164.441	0.017710	0.561660	-0.499381	-0.500700	0.023716	18.7887	-0.500328	-3.4641e+06	-6.846164E-9	NaN
280	1.000000	0.603001	7.3678e+06	-52639.1	955.817	-29749	0.000000	0.000000	6.602994	0.056737	NaN	0.000000	0.001605	0.001690	28.0791	0.083099	0.001931	43.026	151.833	-165.963	-0.023087	0.601687	-0.459359	-0.460673	0.056737	43.026	-0.460348	-954798	-5.942301E-8	NaN
280	1.000000	0.643006	7.3678e+06	-52639.1	955.819	-29749	0.000000	0.000000	6.643000	0.080860	NaN	0.000000	0.001592	0.001710	28.0792	0.138495	0.002006	69.0522	-174.292	-166.615	0.044697	0.641690	-0.419354	-0.420670	0.080860	69.0522	-0.420232	-259245	-3.119068E-7	NaN
280	1.000000	0.683040	7.3678e+06	-52639.1	955.819	-29749	0.000000	0.000000	6.683035	0.075278	NaN	0.000000	0.001607	0.001725	28.0777	0.092489	0.002028	45.6128	-163.991	-165.861	0.017897	0.681716	-0.379320	-0.380644	0.075278	45.6128	-0.380557	-70450.9	-1.068521E-6	NaN
280	1.000000	0.723031	7.3678e+06	-52639.1	955.818	-29749	0.000000	0.000000	6.723023	0.022678	NaN	0.000000	0.001632	0.001709	28.0777	0.109823	0.002028	54.1585	-122.312	-167.876	0.004103	0.721749	-0.339329	-0.340611	0.022678	54.1585	-0.339643	-18044.6	-1.256786E-6	NaN
280	1.000000	0.763059	7.3678e+06	-52639.1	955.819	-29749	0.000000	0.000000	6.763048	-0.057143	NaN	0.000000	0.001558	0.001683	28.0778	0.078487	0.001969	39.8627	148.161	-162.102	-0.054574	0.761780	-0.299301	-0.300580	-0.057143	39.8627	-0.298226	-4428	1.290497E-5	NaN
280	1.000000	0.803066	7.3678e+06	-52639.1	955.819	-29749	0.000000	0.000000	6.803060	0.057634	NaN	0.000000	0.001534	0.001690	28.0792	0.069913	0.001941	36.0142	44.8899	-166.454	0.009298	0.801793	-0.259294	-0.260567	0.057634	36.0142	-0.260494	-1192.59	-4.832679E-5	NaN
280	1.000000	0.843065	7.3678e+06	-52639.1	955.819	-29749	0.000000	0.000000	6.843056	-0.008030	NaN	0.000000	0.001563	0.001698	28.0793	0.046252	0.001922	24.0615	175.52	-164.551	-0.116535	0.841817	-0.219295	-0.220543	-0.008030	24.0615	-0.219045	-268.166	2.994348E-5	NaN
280	1.000000	0.883079	7.3678e+06	-52639.1	955.817	-29749	0.000000	0.000000	6.883072	0.027109	NaN	0.000000	0.001645	0.001696	28.079	0.059074	0.002069	28.5506	-161.672	-165.746	0.046388	0.881798	-0.179281	-0.180562	0.027109	28.5506	-0.179993	-61.0019	-0.000444	NaN
280	1.000000	0.923097	7.3678e+06	-52639.1	955.82	-29749	0.000000	0.000000	6.923088	-0.024446	NaN	0.000000	0.001604	0.001701	28.0788	0.080681	0.001990	40.5344	49.926	-161.638	-0.116028	0.921842	-0.139263	-0.140518	-0.024446	40.5344	-0.138810	-11.2351	0.002176	NaN
280	1.000000	0.963133	7.3678e+06	-52639.1	955.819	-29749	0.000000	0.000000	6.963126	0.030039	NaN	0.000000	0.001549	0.001711	28.0779	0.107511	0.001898	56.6552	-66.5116	-164.404	-0.002400	0.961808	-0.099227	-0.100552	0.030039	56.6552	-0.099624	-1.792416	-0.016759	NaN
280	1.000000	1.003151	7.3678e+06	-52639.1	955.817	-29749	0.000000	0.000000	7.003145	0.057238	NaN	0.000000	0.001540	0.001705	28.0778	0.084693	0.002093	40.4633	61.7971	-167.564	0.032564	1.001865	-0.059209	-0.060495	0.057238	40.4633	-0.060270	-0.183326	-0.312220	NaN
280	1.000000	1.043162	7.3678e+06	-52639.1	955.818	-29749	0.000000	0.000000	7.043154	0.029966	NaN	0.000000	0.001565	0.001716	28.0778	0.025812	0.002133	12.0997	-89.4127	-165.516	0.057133	1.041857	-0.019198	-0.020503	0.029966	12.0997	-0.021056	-0.013361	-2.242729	NaN
280	2.000000	1.077725	7.3678e+06	-52639.1	955.818	-29749	0.000000	0.000000	7.078154	10.6252	NaN	0.000000	0.001608	0.001642	28.0792	11.3414	0.001801	6296.98	9.032917	-175.411	10.611	1.077456	0.015365	0.015096	10.6252	6296.98	0.014100	0.014104	753.36	48443.9
280	2.000000	1.087668	7.3678e+06	-52639.1	955.818	-29749	0.000000	0.000000	7.088835	28.5777	NaN	0.000000	0.001587	0.001664	28.0794	22.5201	0.001688	13343.2	3.295259	-175.339	28.6293	1.087410	0.025308	0.025050	28.5777	13343.2	0.023702	0.028697	995.852	71964.4
280	2.000000	1.097605	7.3678e+06	-52639.1	955.818	-29749	0.000000	0.000000	7.100159	62.309	NaN	0.000000	0.001600	0.001686	28.0794	33.7513	0.001737	19434.4	3.220792	-179.441	59.5563	1.097357	0.035245	0.034997	62.309	19434.4	0.032840	0.046836	1330.36	82045.1
280	2.000000	1.107597	7.3678e+06	-52639.1	955.819	-29749	0.000000	0.000000	7.111467	94.2996	NaN	0.000000	0.001641	0.001676	28.078	42.9862	0.001829	23499.8	-0.084349	-177.187	93.1737	1.107337	0.045237	0.044977	94.2996	23499.8	0.042228	0.069912	1348.83	81200.8
280	2.000000	1.117577	7.3678e+06	-52639.1	955.819	-29749	0.000000	0.000000	7.123368	141.004	NaN	0.000000	0.001636	0.001683	28.078	53.1448	0.001842	28849.5	4.796976	176.321	139.487	1.117267	0.055217	0.054907	141.004	28849.5	0.051552	0.097269	1449.63	84513.2
280	2.000000	1.127511	7.3678e+06	-52639.1	955.818	-29749	0.000000	0.000000	7.135244	188.232	NaN	0.000000	0.001617	0.001690	28.0778	61.5071	0.001845	33337.2	3.728178	176.007	184.417	1.127278	0.065151	0.064918	188.232	33337.2	0.060916	0.129114	1457.88	84764.9
280	2.000000	1.137599	7.3678e+06	-52639.1	955.818	-29749	0.000000	0.000000	7.147379	238.015	NaN	0.000000	0.001648	0.001704	28.0776	69.8908	0.001745	40052.2	1.991637	176.46	240.023	1.137324	0.075239	0.074964	238.015	40052.2	0.070782	0.167283	1422.83	89469.2
280	2.000000	1.147477	7.3678e+06	-52639.1	955.82	-29749	0.000000	0.000000	7.159990	304.457	NaN	0.000000	0.001617	0.001692	28.079	78.2631	0.001680	46580.8	1.816302	175.406	299.35	1.147279	0.085117	0.084919	304.457	46580.8	0.080215	0.208105	1463	93290.7
280	2.000000	1.157511	7.3678e+06	-52639.1	955.819	-29749	0.000000	0.000000	7.172798	371.921	NaN	0.000000	0.001614	0.001693	28.0789	89.2933	0.001834	48689.2	5.601954	171.711	368.212	1.157237	0.095151	0.094877	371.921	48689.2	0.089422	0.251945	1476.19	88624.3
280	2.000000	1.167557	7.3678e+06	-52639.1	955.819	-29749	0.000000	0.000000	7.185105	426.896	NaN	0.000000	0.001657	0.001676	28.0789	98.9065	0.001793	55152.6	3.029408	172.984	425.343	1.167385	0.105197	0.105025	426.896	55152.6	0.099391	0.303806	1405.16	91419.9
280	2.000000	1.174530	7.3678e+06	-52639.1	955.819	-29749	0.000000	0.000000	7.195203	502.857	NaN	0.000000	0.001659	0.001704	28.0792	103.104	0.001735	59440.7	-0.502218	176.352	501.212	1.174320	0.112170	0.111960	502.857	59440.7	0.105825	0.339675	1480.41	93180.6