File: remote_trans/data/nanoindenter/0828-1/data/Data_2025-08-06,11h17m57s/2025-07-22_16-23-58_1_1118.txt
2025-07-22, 16:23:58, 1
Index	Phase	Displacement	Time	Pos X	Pos Y	Pos Z	Rot A	Rot B	Piezo Z	Force A	Force B	Gripper	Voltage A	Voltage B	Temperature	Amplitude force	Amplitude pos	Stiffness	Phase shift	Phase excitation	Force A raw	Displacement raw	HMax	HMax raw	Real Force	Real Stiffness	Contact Depth	Area	Hardness	Reduced Mod.
[#]	[#]	[um]	[s]	[um]	[um]	[um]	[m°]	[m°]	[um]	[uN]	[uN]	[V]	[V]	[V]	[°C]	[uN]	[um]	[N/m]	[°]	[°]	[uN]	[um]	[um]	[um]	[uN]	[N/m]	[um]	[um^2]	[MPa]	[MPa]
1118	1.000000	0.002649	7.37599e+06	-56039.1	1055.82	-29740	0.000000	0.000000	6.002823	0.090634	NaN	0.000000	0.001632	0.001708	28.0834	0.090209	0.000950	94.9379	44.6806	-163.219	0.104925	0.001379	-1.065318	-1.066589	0.090634	94.9379	-1.066034	-1.753478E+14	-5.168813E-16	NaN
1118	1.000000	0.042576	7.37599e+06	-56039.1	1055.82	-29740	0.000000	0.000000	6.042747	0.021810	NaN	0.000000	0.001638	0.001726	28.0836	0.061317	0.002060	29.769	-155.839	-167.42	0.093948	0.041278	-1.025391	-1.026689	0.021810	29.769	-1.025940	-5.068385E+13	-4.303110E-16	NaN
1118	1.000000	0.082600	7.37599e+06	-56039.1	1055.82	-29740	0.000000	0.000000	6.082772	0.061963	NaN	0.000000	0.001663	0.001733	28.0832	0.044185	0.002035	21.71	143.572	-170.323	0.040403	0.081276	-0.985367	-0.986691	0.061963	21.71	-0.987508	-1.540077E+13	-4.023346E-15	NaN
1118	1.000000	0.122581	7.37599e+06	-56039.1	1055.82	-29740	0.000000	0.000000	6.122753	0.041598	NaN	0.000000	0.001641	0.001742	28.0822	0.057516	0.002042	28.1694	-94.8654	-162.723	0.028272	0.121229	-0.945386	-0.946739	0.041598	28.1694	-0.946493	-4.312515E+12	-9.645848E-15	NaN
1118	1.000000	0.162600	7.37599e+06	-56039.1	1055.82	-29740	0.000000	0.000000	6.162770	-0.002335	NaN	0.000000	0.001647	0.001704	28.0822	0.094872	0.001975	48.026	177.982	-164.515	-0.050956	0.161285	-0.905367	-0.906682	-0.002335	48.026	-0.905330	-1.199737E+12	1.946247E-15	NaN
1118	1.000000	0.202629	7.37599e+06	-56039.1	1055.82	-29740	0.000000	0.000000	6.202798	-0.016803	NaN	0.000000	0.001661	0.001720	28.0823	0.122431	0.001852	66.1225	-134.677	-165.245	0.029246	0.201316	-0.865338	-0.866651	-0.016803	66.1225	-0.865148	-3.433899E+11	4.893400E-14	NaN
1118	1.000000	0.242670	7.37599e+06	-56039.1	1055.82	-29740	0.000000	0.000000	6.242843	0.072194	NaN	0.000000	0.001619	0.001685	28.0824	0.037707	0.002094	18.0095	113.096	-169.395	-0.032905	0.241344	-0.825297	-0.826623	0.072194	18.0095	-0.828304	-1.088413E+11	-6.633005E-13	NaN
1118	1.000000	0.282697	7.37599e+06	-56039.1	1055.82	-29740	0.000000	0.000000	6.282866	-0.009204	NaN	0.000000	0.001596	0.001726	28.0837	0.108738	0.002006	54.2174	-147.621	-168.65	0.040066	0.281352	-0.785270	-0.786615	-0.009204	54.2174	-0.785143	-2.825603E+10	3.257205E-13	NaN
1118	1.000000	0.322713	7.37599e+06	-56039.1	1055.82	-29740	0.000000	0.000000	6.322885	0.050516	NaN	0.000000	0.001693	0.001689	28.0838	0.050776	0.001993	25.4754	15.1967	-164.198	0.084679	0.321399	-0.745254	-0.746568	0.050516	25.4754	-0.746741	-8.489021E+9	-5.950763E-12	NaN
1118	1.000000	0.362737	7.37599e+06	-56039.1	1055.82	-29740	0.000000	0.000000	6.362907	0.000781	NaN	0.000000	0.001642	0.001710	28.0835	0.082874	0.001999	41.4555	91.9424	-166.848	0.033886	0.361401	-0.705230	-0.706566	0.000781	41.4555	-0.705244	-2.307457E+9	-3.384582E-13	NaN
1118	1.000000	0.402734	7.37599e+06	-56039.1	1055.82	-29740	0.000000	0.000000	6.402904	0.018279	NaN	0.000000	0.001650	0.001716	28.0823	0.043537	0.001930	22.5541	-171.265	-170.652	0.001761	0.401373	-0.665233	-0.666594	0.018279	22.5541	-0.665841	-6.675162E+8	-2.738341E-11	NaN
1118	1.000000	0.442755	7.37599e+06	-56039.1	1055.82	-29740	0.000000	0.000000	6.442925	0.007908	NaN	0.000000	0.001641	0.001715	28.0822	0.052486	0.001924	27.2776	69.6668	-163.729	-0.003014	0.441479	-0.625212	-0.626489	0.007908	27.2776	-0.625430	-1.863144E+8	-4.244502E-11	NaN
1118	1.000000	0.482746	7.37599e+06	-56039.1	1055.82	-29740	0.000000	0.000000	6.482915	-0.027886	NaN	0.000000	0.001684	0.001679	28.0823	0.053379	0.001938	27.5451	-2.658517	-169.102	-0.036803	0.481488	-0.585221	-0.586479	-0.027886	27.5451	-0.584462	-5.084986E+7	5.483956E-10	NaN
1118	1.000000	0.522799	7.37599e+06	-56039.1	1055.82	-29740	0.000000	0.000000	6.522972	0.062764	NaN	0.000000	0.001686	0.001703	28.0825	0.023174	0.002001	11.5838	146.019	-168.182	-0.008520	0.521443	-0.545168	-0.546524	0.062764	11.5838	-0.549232	-1.656966E+7	-3.787888E-9	NaN
1118	1.000000	0.562787	7.37599e+06	-56039.1	1055.82	-29740	0.000000	0.000000	6.562959	0.054259	NaN	0.000000	0.001725	0.001741	28.0838	0.025062	0.001935	12.9539	117.027	-167.189	0.073884	0.561494	-0.505180	-0.506474	0.054259	12.9539	-0.508321	-4.47743e+06	-1.211825E-8	NaN
1118	1.000000	0.602827	7.37599e+06	-56039.1	1055.82	-29740	0.000000	0.000000	6.602997	-0.004274	NaN	0.000000	0.001683	0.001742	28.0837	0.100965	0.001992	50.6916	-57.5784	-165.842	0.042816	0.601507	-0.465140	-0.466461	-0.004274	50.6916	-0.465077	-1.11257e+06	3.841678E-9	NaN
1118	1.000000	0.642820	7.37599e+06	-56039.1	1055.82	-29740	0.000000	0.000000	6.642989	-0.013001	NaN	0.000000	0.001656	0.001773	28.085	0.034824	0.002001	17.4053	-85.0632	-166.954	0.028811	0.641534	-0.425147	-0.426433	-0.013001	17.4053	-0.424587	-298833	4.350464E-8	NaN
1118	1.000000	0.682838	7.37599e+06	-56039.1	1055.82	-29740	0.000000	0.000000	6.683007	-0.020870	NaN	0.000000	0.001725	0.001735	28.0824	0.061661	0.001889	32.6399	29.3382	-167.406	-0.015190	0.681507	-0.385129	-0.386460	-0.020870	32.6399	-0.384650	-80643.6	2.587957E-7	NaN
1118	1.000000	0.722861	7.37599e+06	-56039.1	1055.82	-29740	0.000000	0.000000	6.723034	0.093014	NaN	0.000000	0.001709	0.001746	28.0824	0.065281	0.001862	35.0507	-46.5357	-164.699	0.020730	0.721518	-0.345107	-0.346449	0.093014	35.0507	-0.347097	-23165.5	-4.015178E-6	NaN
1118	1.000000	0.762867	7.37599e+06	-56039.1	1055.82	-29740	0.000000	0.000000	6.763036	-0.014252	NaN	0.000000	0.001690	0.001728	28.0824	0.085491	0.001984	43.0803	176.271	-166.468	-0.087394	0.761563	-0.305100	-0.306404	-0.014252	43.0803	-0.304852	-5555.95	2.565200E-6	NaN
1118	1.000000	0.802904	7.37599e+06	-56039.1	1055.82	-29740	0.000000	0.000000	6.803074	0.011977	NaN	0.000000	0.001701	0.001718	28.0825	0.031940	0.002014	15.8597	99.1772	-169.707	-0.013965	0.801614	-0.265063	-0.266354	0.011977	15.8597	-0.265630	-1428.89	-8.381730E-6	NaN
1118	1.000000	0.842920	7.37599e+06	-56039.1	1055.82	-29740	0.000000	0.000000	6.843093	0.090803	NaN	0.000000	0.001687	0.001754	28.0835	0.064648	0.001893	34.1485	-53.7552	-169.345	0.133085	0.841629	-0.225048	-0.226338	0.090803	34.1485	-0.227042	-359.523	-0.000253	NaN
1118	1.000000	0.882896	7.37599e+06	-56039.1	1055.82	-29740	0.000000	0.000000	6.883067	0.050706	NaN	0.000000	0.001706	0.001766	28.0833	0.056971	0.002053	27.7491	-167.826	-166.839	0.001863	0.881677	-0.185072	-0.186291	0.050706	27.7491	-0.186442	-78.4165	-0.000647	NaN
1118	1.000000	0.922915	7.37599e+06	-56039.1	1055.82	-29740	0.000000	0.000000	6.923084	-0.007243	NaN	0.000000	0.001631	0.001742	28.0831	0.072509	0.001824	39.7455	-18.9013	-167.019	0.105996	0.921628	-0.145052	-0.146339	-0.007243	39.7455	-0.144915	-14.6084	0.000496	NaN
1118	1.000000	0.962972	7.37599e+06	-56039.1	1055.82	-29740	0.000000	0.000000	6.963143	0.052729	NaN	0.000000	0.001692	0.001781	28.082	0.120832	0.002141	56.4286	-123.708	-168.883	-0.011548	0.961670	-0.104996	-0.106297	0.052729	56.4286	-0.105696	-2.433277	-0.021670	NaN
1118	1.000000	1.002980	7.37599e+06	-56039.1	1055.82	-29740	0.000000	0.000000	7.003149	-0.027604	NaN	0.000000	0.001689	0.001802	28.0822	0.030418	0.001921	15.8361	49.2457	-163.281	0.043759	1.001708	-0.064987	-0.066259	-0.027604	15.8361	-0.063680	-0.228972	0.120557	NaN
1118	1.000000	1.042995	7.37599e+06	-56039.1	1055.82	-29740	0.000000	0.000000	7.043167	0.048184	NaN	0.000000	0.001761	0.001789	28.0822	0.087047	0.002122	41.017	133.622	-164.734	0.086357	1.041664	-0.024972	-0.026303	0.048184	41.017	-0.025853	-0.017763	-2.712593	NaN
1118	1.000000	1.082973	7.37599e+06	-56039.1	1055.82	-29740	0.000000	0.000000	7.083430	6.993329	NaN	0.000000	0.001698	0.001752	28.0836	6.846537	0.001702	4023.81	8.690616	-170.04	5.092556	1.081698	0.015006	0.013731	6.993329	4023.81	0.013702	0.013594	514.457	31531.4
1118	2.000000	1.094447	7.37599e+06	-56039.1	1055.82	-29740	0.000000	0.000000	7.095469	20.7315	NaN	0.000000	0.001722	0.001787	28.0836	17.3837	0.001850	9395.51	7.156768	-175.5	21.2763	1.094103	0.026479	0.026135	20.7315	9395.51	0.024825	0.030697	675.353	48994.1
1118	2.000000	1.104361	7.37599e+06	-56039.1	1055.82	-29740	0.000000	0.000000	7.106397	45.3514	NaN	0.000000	0.001698	0.001733	28.0838	25.818	0.001722	14989.6	1.940360	-176.137	43.0047	1.104027	0.036394	0.036060	45.3514	14989.6	0.034125	0.049728	911.983	61413.2
1118	2.000000	1.114412	7.37599e+06	-56039.1	1055.82	-29740	0.000000	0.000000	7.117682	75.3725	NaN	0.000000	0.001663	0.001732	28.0841	35.9865	0.001852	19433	2.583915	-178.045	76.7867	1.114046	0.046445	0.046079	75.3725	19433	0.043536	0.073485	1025.68	65495.6
1118	2.000000	1.124336	7.37599e+06	-56039.1	1055.82	-29740	0.000000	0.000000	7.129202	114.156	NaN	0.000000	0.001684	0.001741	28.0823	46.3053	0.001781	26006.7	4.991809	175.464	111.23	1.124091	0.056369	0.056124	114.156	26006.7	0.053077	0.102160	1117.43	74339.3
1118	2.000000	1.134336	7.37599e+06	-56039.1	1055.82	-29740	0.000000	0.000000	7.140923	155.965	NaN	0.000000	0.001634	0.001754	28.0822	55.6575	0.001768	31487.8	3.880750	174.576	154.161	1.134185	0.066369	0.066218	155.965	31487.8	0.062654	0.135498	1151.05	78153.6
1118	2.000000	1.144320	7.37599e+06	-56039.1	1055.82	-29740	0.000000	0.000000	7.153166	210.889	NaN	0.000000	0.001641	0.001707	28.082	64.3477	0.001889	34070.8	1.801152	176.964	208.8	1.144087	0.076353	0.076120	210.889	34070.8	0.071711	0.171116	1232.43	75250.7
1118	2.000000	1.154374	7.37599e+06	-56039.1	1055.82	-29740	0.000000	0.000000	7.165645	269.856	NaN	0.000000	0.001654	0.001701	28.0833	75.262	0.001841	40874.8	11.8939	166.344	272.524	1.154011	0.086407	0.086044	269.856	40874.8	0.081455	0.213782	1262.29	80768.8
1118	2.000000	1.164309	7.37599e+06	-56039.1	1055.82	-29740	0.000000	0.000000	7.178058	330.08	NaN	0.000000	0.001637	0.001790	28.0832	84.3732	0.001947	43333.9	3.192620	174.227	329.842	1.164004	0.096341	0.096037	330.08	43333.9	0.090629	0.257981	1279.47	77948.3
1118	2.000000	1.174290	7.37599e+06	-56039.1	1055.82	-29740	0.000000	0.000000	7.190866	398.779	NaN	0.000000	0.001662	0.001754	28.0841	92.3879	0.001874	49309.7	5.328394	170.573	399.861	1.174093	0.106323	0.106126	398.779	49309.7	0.100258	0.308526	1292.53	81107.2
1118	2.000000	1.183232	7.37599e+06	-56039.1	1055.82	-29740	0.000000	0.000000	7.202907	474.132	NaN	0.000000	0.001679	0.001792	28.0835	98.5637	0.001815	54313.8	5.386558	170.418	468.762	1.182978	0.115265	0.115011	474.132	54313.8	0.108718	0.356415	1330.28	83120