File: remote_trans/data/nanoindenter/0828-1/data/Data_2025-08-06,11h17m57s/2025-07-22_16-23-58_1_1097.txt
2025-07-22, 16:23:58, 1
Index	Phase	Displacement	Time	Pos X	Pos Y	Pos Z	Rot A	Rot B	Piezo Z	Force A	Force B	Gripper	Voltage A	Voltage B	Temperature	Amplitude force	Amplitude pos	Stiffness	Phase shift	Phase excitation	Force A raw	Displacement raw	HMax	HMax raw	Real Force	Real Stiffness	Contact Depth	Area	Hardness	Reduced Mod.
[#]	[#]	[um]	[s]	[um]	[um]	[um]	[m°]	[m°]	[um]	[uN]	[uN]	[V]	[V]	[V]	[°C]	[uN]	[um]	[N/m]	[°]	[°]	[uN]	[um]	[um]	[um]	[uN]	[N/m]	[um]	[um^2]	[MPa]	[MPa]
1097	1.000000	0.002589	7.37579e+06	-54989.1	1055.82	-29742.4	0.000000	0.000000	6.002826	0.013586	NaN	0.000000	0.001646	0.001697	28.0826	0.095174	0.001065	89.3783	-122.933	-163.36	0.071007	0.001305	-1.111224	-1.112508	0.013586	89.3783	-1.111338	-7.116057E+14	-1.909204E-17	NaN
1097	1.000000	0.044522	7.37579e+06	-54989.1	1055.82	-29742.4	0.000000	0.000000	6.044756	-0.049963	NaN	0.000000	0.001679	0.001678	28.0841	0.165373	0.001937	85.36	16.3381	15.2312	-0.012546	0.043193	-1.069291	-1.070620	-0.049963	85.36	-1.068852	-1.913238E+14	2.611457E-16	NaN
1097	1.000000	0.086493	7.37579e+06	-54989.1	1055.82	-29742.4	0.000000	0.000000	6.086732	0.047629	NaN	0.000000	0.001634	0.001689	28.0838	0.043483	0.002045	21.2588	-112.12	-165.592	0.071243	0.085183	-1.027319	-1.028630	0.047629	21.2588	-1.029000	-5.572181E+13	-8.547662E-16	NaN
1097	1.000000	0.128559	7.37579e+06	-54989.1	1055.82	-29742.4	0.000000	0.000000	6.128797	0.044409	NaN	0.000000	0.001651	0.001710	28.0839	0.071153	0.002088	34.0762	-68.2701	12.6496	0.068176	0.127166	-0.985254	-0.986647	0.044409	34.0762	-0.986231	-1.480317E+13	-2.999986E-15	NaN
1097	1.000000	0.170571	7.37579e+06	-54989.1	1055.82	-29742.4	0.000000	0.000000	6.170807	-0.006705	NaN	0.000000	0.001648	0.001659	28.0829	0.013601	0.002046	6.649323	-92.795	-166.346	0.020783	0.169274	-0.943242	-0.944538	-0.006705	6.649323	-0.942486	-3.807804E+12	1.760830E-15	NaN
1097	1.000000	0.212588	7.37579e+06	-54989.1	1055.82	-29742.4	0.000000	0.000000	6.212824	0.000854	NaN	0.000000	0.001645	0.001713	28.0828	0.067865	0.002031	33.4188	-73.6608	17.9785	-0.076039	0.211221	-0.901225	-0.902591	0.000854	33.4188	-0.901244	-1.056526E+12	-8.084180E-16	NaN
1097	1.000000	0.254593	7.37579e+06	-54989.1	1055.82	-29742.4	0.000000	0.000000	6.254828	-0.033445	NaN	0.000000	0.001657	0.001711	28.083	0.092041	0.002014	45.7075	-159.408	-164.76	0.095295	0.253281	-0.859220	-0.860532	-0.033445	45.7075	-0.858671	-2.806295E+11	1.191798E-13	NaN
1097	1.000000	0.296620	7.37579e+06	-54989.1	1055.82	-29742.4	0.000000	0.000000	6.296856	0.000215	NaN	0.000000	0.001688	0.001713	28.0837	0.104556	0.002082	50.2262	51.8433	9.013022	-0.003370	0.295304	-0.817193	-0.818509	0.000215	50.2262	-0.817196	-7.694623E+10	-2.792957E-15	NaN
1097	1.000000	0.338614	7.37579e+06	-54989.1	1055.82	-29742.4	0.000000	0.000000	6.338853	0.055745	NaN	0.000000	0.001675	0.001683	28.084	0.021092	0.002022	10.4306	121.78	-167.505	0.039667	0.337289	-0.775198	-0.776524	0.055745	10.4306	-0.779207	-2.346665E+10	-2.375495E-12	NaN
1097	1.000000	0.380685	7.37579e+06	-54989.1	1055.82	-29742.4	0.000000	0.000000	6.380924	0.056297	NaN	0.000000	0.001648	0.001710	28.084	0.040723	0.001995	20.4159	179.722	14.2421	0.026610	0.379322	-0.733128	-0.734490	0.056297	20.4159	-0.735196	-5.910373E+9	-9.525186E-12	NaN
1097	1.000000	0.422661	7.37579e+06	-54989.1	1055.82	-29742.4	0.000000	0.000000	6.422898	0.011665	NaN	0.000000	0.001658	0.001713	28.084	0.098110	0.002049	47.8855	-33.9489	-163.098	-0.014526	0.421374	-0.691152	-0.692439	0.011665	47.8855	-0.691334	-1.489889E+9	-7.829225E-12	NaN
1097	1.000000	0.464662	7.37579e+06	-54989.1	1055.82	-29742.4	0.000000	0.000000	6.464898	-0.020922	NaN	0.000000	0.001624	0.001735	28.0828	0.056799	0.001924	29.5225	-174.023	17.602	-0.043924	0.463328	-0.649150	-0.650485	-0.020922	29.5225	-0.648619	-3.877052E+8	5.396293E-11	NaN
1097	1.000000	0.506688	7.37579e+06	-54989.1	1055.82	-29742.4	0.000000	0.000000	6.506923	-0.024545	NaN	0.000000	0.001624	0.001735	28.0826	0.046320	0.001945	23.8203	71.5381	-166.003	-0.035899	0.505394	-0.607125	-0.608419	-0.024545	23.8203	-0.606352	-1.018405E+8	2.410178E-10	NaN
1097	1.000000	0.548727	7.37579e+06	-54989.1	1055.82	-29742.4	0.000000	0.000000	6.548963	-0.020697	NaN	0.000000	0.001630	0.001685	28.0826	0.015503	0.002096	7.397207	102.392	12.4805	0.048012	0.547321	-0.565086	-0.566492	-0.020697	7.397207	-0.562987	-2.568594E+7	8.057522E-10	NaN
1097	1.000000	0.590746	7.37579e+06	-54989.1	1055.82	-29742.4	0.000000	0.000000	6.590982	-0.011443	NaN	0.000000	0.001623	0.001700	28.0844	0.087128	0.001960	44.4512	-65.0774	-166.007	0.018832	0.589455	-0.523067	-0.524358	-0.011443	44.4512	-0.522874	-7.13769e+06	1.603223E-9	NaN
1097	1.000000	0.632730	7.37579e+06	-54989.1	1055.82	-29742.4	0.000000	0.000000	6.632965	-0.026882	NaN	0.000000	0.001626	0.001693	28.0843	0.020488	0.001975	10.3724	-160.695	16.6096	-0.072746	0.631377	-0.481083	-0.482436	-0.026882	10.3724	-0.479139	-1.75177e+06	1.534576E-8	NaN
1097	1.000000	0.674769	7.37579e+06	-54989.1	1055.82	-29742.4	0.000000	0.000000	6.675007	0.019728	NaN	0.000000	0.001652	0.001784	28.0844	0.023062	0.002004	11.5107	-162.626	-166.795	0.006437	0.673485	-0.439044	-0.440328	0.019728	11.5107	-0.440329	-498892	-3.954346E-8	NaN
1097	1.000000	0.716794	7.37579e+06	-54989.1	1055.82	-29742.4	0.000000	0.000000	6.717031	0.014178	NaN	0.000000	0.001656	0.001736	28.0832	0.068139	0.001979	34.4269	35.3551	18.9345	0.009412	0.715429	-0.397019	-0.398384	0.014178	34.4269	-0.397328	-122424	-1.158096E-7	NaN
1097	1.000000	0.758819	7.37579e+06	-54989.1	1055.82	-29742.4	0.000000	0.000000	6.759058	0.077675	NaN	0.000000	0.001623	0.001692	28.0835	0.070106	0.001851	37.8689	-51.7621	-165.306	0.019024	0.757450	-0.354994	-0.356363	0.077675	37.8689	-0.356533	-31745.9	-2.446784E-6	NaN
1097	1.000000	0.800805	7.37579e+06	-54989.1	1055.82	-29742.4	0.000000	0.000000	6.801042	0.014922	NaN	0.000000	0.001574	0.001734	28.0834	0.118488	0.001908	62.0902	-91.874	11.3928	0.063537	0.799482	-0.313008	-0.314331	0.014922	62.0902	-0.313188	-7382.42	-2.021331E-6	NaN
1097	1.000000	0.842826	7.37579e+06	-54989.1	1055.82	-29742.4	0.000000	0.000000	6.843065	0.044269	NaN	0.000000	0.001604	0.001747	28.0845	0.079746	0.001846	43.1883	140.548	-163.068	0.000517	0.841513	-0.270986	-0.272300	0.044269	43.1883	-0.271755	-1770.95	-2.499746E-5	NaN
1097	1.000000	0.884853	7.37579e+06	-54989.1	1055.82	-29742.4	0.000000	0.000000	6.885093	0.078584	NaN	0.000000	0.001560	0.001751	28.0843	0.048780	0.002081	23.4453	34.6881	10.8156	0.029038	0.883515	-0.228959	-0.230298	0.078584	23.4453	-0.231473	-422.437	-0.000186	NaN
1097	1.000000	0.926887	7.37579e+06	-54989.1	1055.82	-29742.4	0.000000	0.000000	6.927123	-0.009469	NaN	0.000000	0.001634	0.001712	28.0842	0.065891	0.002079	31.6901	126.058	-166.703	0.012766	0.925553	-0.186926	-0.188259	-0.009469	31.6901	-0.186702	-79.2091	0.000120	NaN
1097	1.000000	0.968924	7.37579e+06	-54989.1	1055.82	-29742.4	0.000000	0.000000	6.969162	0.036204	NaN	0.000000	0.001621	0.001718	28.0843	0.029890	0.001987	15.0434	116.033	17.821	0.072237	0.967566	-0.144889	-0.146247	0.036204	15.0434	-0.146694	-15.7554	-0.002298	NaN
1097	1.000000	1.010895	7.37579e+06	-54989.1	1055.82	-29742.4	0.000000	0.000000	7.011130	-0.033457	NaN	0.000000	0.001588	0.001630	28.0829	0.099028	0.002014	49.1606	9.773458	-166.387	-0.057951	1.009582	-0.102918	-0.104231	-0.033457	49.1606	-0.102407	-2.064406	0.016206	NaN
1097	1.000000	1.052930	7.37579e+06	-54989.1	1055.82	-29742.4	0.000000	0.000000	7.053169	0.054380	NaN	0.000000	0.001625	0.001657	28.0831	0.059382	0.001918	30.9612	23.3945	15.6523	0.084200	1.051535	-0.060883	-0.062277	0.054380	30.9612	-0.062200	-0.208050	-0.261378	NaN
1097	1.000000	1.094940	7.37579e+06	-54989.1	1055.82	-29742.4	0.000000	0.000000	7.095180	0.088155	NaN	0.000000	0.001635	0.001710	28.0832	0.149953	0.001891	79.2887	-131.267	-164.905	0.052552	1.093607	-0.018873	-0.020206	0.088155	79.2887	-0.019707	-0.012347	-7.139855	NaN
1097	2.000000	1.123989	7.37579e+06	-54989.1	1055.82	-29742.4	0.000000	0.000000	7.124763	13.0707	NaN	0.000000	0.001591	0.001726	28.0843	13.2121	0.001650	8004.97	7.180542	5.535212	11.8602	1.123686	0.010176	0.009873	13.0707	8004.97	0.008951	0.008039	1625.89	81569.6
1097	2.000000	1.134474	7.37579e+06	-54989.1	1055.82	-29742.4	0.000000	0.000000	7.135973	30.6814	NaN	0.000000	0.001567	0.001662	28.0842	23.5074	0.001815	12950.6	4.337157	-175.701	30.5187	1.134163	0.020662	0.020351	30.6814	12950.6	0.018885	0.020820	1473.64	82001.3
1097	2.000000	1.144915	7.37579e+06	-54989.1	1055.82	-29742.4	0.000000	0.000000	7.147418	55.0784	NaN	0.000000	0.001630	0.001709	28.0844	33.7622	0.001831	18435.3	4.859994	0.688935	53.4254	1.144551	0.031103	0.030738	55.0784	18435.3	0.028862	0.038418	1433.67	85932.3
1097	2.000000	1.155447	7.37579e+06	-54989.1	1055.82	-29742.4	0.000000	0.000000	7.159352	89.1679	NaN	0.000000	0.001695	0.001730	28.0834	43.7199	0.001864	23457.4	7.296546	176.691	90.3171	1.155130	0.041634	0.041317	89.1679	23457.4	0.038784	0.060922	1463.63	86829
1097	2.000000	1.165891	7.37579e+06	-54989.1	1055.82	-29742.4	0.000000	0.000000	7.171585	132.66	NaN	0.000000	0.001700	0.001678	28.0834	52.9301	0.001761	30052.7	3.147324	-2.371617	130.165	1.165637	0.052078	0.051824	132.66	30052.7	0.048768	0.088643	1496.57	92222.2
1097	2.000000	1.176414	7.37579e+06	-54989.1	1055.82	-29742.4	0.000000	0.000000	7.184007	178.837	NaN	0.000000	0.001654	0.001700	28.0832	64.1478	0.001799	35657.3	6.232765	174.955	177.784	1.175995	0.062601	0.062182	178.837	35657.3	0.058839	0.121680	1469.74	93392.5
1097	2.000000	1.186878	7.37579e+06	-54989.1	1055.82	-29742.4	0.000000	0.000000	7.196856	236.788	NaN	0.000000	0.001689	0.001669	28.0849	73.5669	0.001784	41240.2	5.570576	-6.502811	235.129	1.186522	0.073066	0.072710	236.788	41240.2	0.068759	0.159078	1488.51	94469
1097	2.000000	1.197367	7.37579e+06	-54989.1	1055.82	-29742.4	0.000000	0.000000	7.209557	290.588	NaN	0.000000	0.001752	0.001757	28.0842	81.2129	0.001718	47262.8	2.588259	175.495	288.493	1.197022	0.083554	0.083209	290.588	47262.8	0.078943	0.202355	1436.03	95992
1097	2.000000	1.207814	7.37579e+06	-54989.1	1055.82	-29742.4	0.000000	0.000000	7.223231	369.016	NaN	0.000000	0.001670	0.001702	28.084	90.7156	0.001730	52424.1	3.947172	-6.783469	366.139	1.207544	0.094002	0.093732	369.016	52424.1	0.088722	0.248477	1485.11	96086.1
1097	2.000000	1.218267	7.37579e+06	-54989.1	1055.82	-29742.4	0.000000	0.000000	7.237147	453.211	NaN	0.000000	0.001722	0.001687	28.0841	100.857	0.001791	56317.2	4.919844	172.162	447.717	1.217894	0.104454	0.104081	453.211	56317.2	0.098418	0.298546	1518.06	94169.1