File: remote_trans/data/nanoindenter/0828-1/data/Data_2025-08-06,11h17m57s/2025-07-22_16-23-58_1_500.txt
2025-07-22, 16:23:58, 1
Index	Phase	Displacement	Time	Pos X	Pos Y	Pos Z	Rot A	Rot B	Piezo Z	Force A	Force B	Gripper	Voltage A	Voltage B	Temperature	Amplitude force	Amplitude pos	Stiffness	Phase shift	Phase excitation	Force A raw	Displacement raw	HMax	HMax raw	Real Force	Real Stiffness	Contact Depth	Area	Hardness	Reduced Mod.
[#]	[#]	[um]	[s]	[um]	[um]	[um]	[m°]	[m°]	[um]	[uN]	[uN]	[V]	[V]	[V]	[°C]	[uN]	[um]	[N/m]	[°]	[°]	[uN]	[um]	[um]	[um]	[uN]	[N/m]	[um]	[um^2]	[MPa]	[MPa]
500	1.000000	0.002574	7.36994e+06	-52089.1	1005.82	-29750.2	0.000000	0.000000	6.002776	-0.034088	NaN	0.000000	0.001520	0.001710	28.0833	0.094242	0.001147	82.1925	-3.873261	-171.372	0.013500	0.001331	-1.120649	-1.121893	-0.034088	82.1925	-1.120338	-9.397395E+14	3.627362E-17	NaN
500	1.000000	0.044548	7.36994e+06	-52089.1	1005.82	-29750.2	0.000000	0.000000	6.044751	-0.004028	NaN	0.000000	0.001533	0.001755	28.0819	0.027771	0.001923	14.4383	-166.223	16.2768	-0.028178	0.043204	-1.078675	-1.080019	-0.004028	14.4383	-1.078466	-2.575839E+14	1.563931E-17	NaN
500	1.000000	0.086562	7.36994e+06	-52089.1	1005.82	-29750.2	0.000000	0.000000	6.086768	0.065755	NaN	0.000000	0.001541	0.001743	28.0833	0.128348	0.002102	61.0518	-135.868	-165.707	0.047714	0.085295	-1.036661	-1.037928	0.065755	61.0518	-1.037469	-7.243291E+13	-9.078016E-16	NaN
500	1.000000	0.128552	7.36994e+06	-52089.1	1005.82	-29750.2	0.000000	0.000000	6.128754	-0.019194	NaN	0.000000	0.001541	0.001744	28.082	0.098494	0.002005	49.1342	-87.6637	13.3663	0.071395	0.127149	-0.994672	-0.996074	-0.019194	49.1342	-0.994379	-1.905811E+13	1.007120E-15	NaN
500	1.000000	0.170582	7.36994e+06	-52089.1	1005.82	-29750.2	0.000000	0.000000	6.170784	-0.032229	NaN	0.000000	0.001516	0.001768	28.0822	0.075674	0.002102	35.9974	-28.6735	-164.748	-0.069128	0.169260	-0.952641	-0.953963	-0.032229	35.9974	-0.951970	-5.112043E+12	6.304592E-15	NaN
500	1.000000	0.212633	7.36994e+06	-52089.1	1005.82	-29750.2	0.000000	0.000000	6.212834	-0.048040	NaN	0.000000	0.001517	0.001706	28.0808	0.063342	0.002036	31.1089	124.694	14.6937	0.002605	0.211221	-0.910590	-0.912003	-0.048040	31.1089	-0.909432	-1.362993E+12	3.524578E-14	NaN
500	1.000000	0.254622	7.36994e+06	-52089.1	1005.82	-29750.2	0.000000	0.000000	6.254825	0.004610	NaN	0.000000	0.001558	0.001758	28.0806	0.056067	0.002058	27.2374	-130.393	-165.064	-0.013961	0.253315	-0.868601	-0.869908	0.004610	27.2374	-0.868728	-3.839162E+11	-1.200792E-14	NaN
500	1.000000	0.296649	7.36994e+06	-52089.1	1005.82	-29750.2	0.000000	0.000000	6.296853	0.033930	NaN	0.000000	0.001483	0.001761	28.0814	0.034053	0.002179	15.6271	-65.3847	13.727	0.029044	0.295301	-0.826574	-0.827922	0.033930	15.6271	-0.828203	-1.084984E+11	-3.127237E-13	NaN
500	1.000000	0.338663	7.36994e+06	-52089.1	1005.82	-29750.2	0.000000	0.000000	6.338867	0.003844	NaN	0.000000	0.001542	0.001744	28.0824	0.089802	0.001854	48.4416	-96.0469	-165.762	-0.069511	0.337345	-0.784560	-0.785878	0.003844	48.4416	-0.784620	-2.779699E+10	-1.382891E-13	NaN
500	1.000000	0.380675	7.36994e+06	-52089.1	1005.82	-29750.2	0.000000	0.000000	6.380877	-0.032079	NaN	0.000000	0.001635	0.001793	28.0823	0.088332	0.002002	44.1119	-116.965	13.6716	-0.071052	0.379292	-0.742548	-0.743931	-0.032079	44.1119	-0.742002	-7.316942E+9	4.384158E-12	NaN
500	1.000000	0.422684	7.36994e+06	-52089.1	1005.82	-29750.2	0.000000	0.000000	6.422885	-0.052655	NaN	0.000000	0.001626	0.001740	28.0821	0.065855	0.002044	32.2206	91.5018	-167.426	-0.003757	0.421326	-0.700539	-0.701897	-0.052655	32.2206	-0.699313	-1.914925E+9	2.749697E-11	NaN
500	1.000000	0.464710	7.36995e+06	-52089.1	1005.82	-29750.2	0.000000	0.000000	6.464917	0.102830	NaN	0.000000	0.001648	0.001732	28.0808	0.060454	0.002018	29.9532	-24.0513	13.5751	0.069774	0.463376	-0.658513	-0.659847	0.102830	29.9532	-0.661088	-5.746094E+8	-1.789562E-10	NaN
500	1.000000	0.506735	7.36995e+06	-52089.1	1005.82	-29750.2	0.000000	0.000000	6.506939	0.026427	NaN	0.000000	0.001617	0.001782	28.0807	0.103518	0.002070	50.0155	53.6189	-165.056	0.063761	0.505401	-0.616488	-0.617823	0.026427	50.0155	-0.616885	-1.421692E+8	-1.858849E-10	NaN
500	1.000000	0.548760	7.36995e+06	-52089.1	1005.82	-29750.2	0.000000	0.000000	6.548960	-0.066761	NaN	0.000000	0.001639	0.001751	28.0808	0.070706	0.001892	37.3693	-108.119	15.8726	-0.013178	0.547455	-0.574463	-0.575768	-0.066761	37.3693	-0.573123	-3.546334E+7	1.882541E-9	NaN
500	1.000000	0.590773	7.36995e+06	-52089.1	1005.82	-29750.2	0.000000	0.000000	6.590978	0.060001	NaN	0.000000	0.001651	0.001700	28.0808	0.053758	0.002021	26.6052	73.9273	-175.206	-0.009209	0.589478	-0.532451	-0.533745	0.060001	26.6052	-0.534142	-1.023484E+7	-5.862415E-9	NaN
500	1.000000	0.632785	7.36995e+06	-52089.1	1005.82	-29750.2	0.000000	0.000000	6.632989	0.025388	NaN	0.000000	0.001599	0.001806	28.0822	0.127054	0.001940	65.4946	-9.255195	16.375	-0.042315	0.631412	-0.490438	-0.491811	0.025388	65.4946	-0.490729	-2.54434e+06	-9.978258E-9	NaN
500	1.000000	0.674800	7.36995e+06	-52089.1	1005.82	-29750.2	0.000000	0.000000	6.675003	0.011429	NaN	0.000000	0.001684	0.001782	28.0823	0.115849	0.001998	57.9899	95.5605	-163.683	-0.026293	0.673497	-0.448424	-0.449726	0.011429	57.9899	-0.448571	-651963	-1.753013E-8	NaN
500	1.000000	0.716833	7.36995e+06	-52089.1	1005.82	-29750.2	0.000000	0.000000	6.717033	-0.062894	NaN	0.000000	0.001666	0.001774	28.0822	0.100056	0.002007	49.8634	23.1376	15.8927	-0.053619	0.715415	-0.406390	-0.407808	-0.062894	49.8634	-0.405444	-159800	3.935771E-7	NaN
500	1.000000	0.758839	7.36995e+06	-52089.1	1005.82	-29750.2	0.000000	0.000000	6.759044	0.026091	NaN	0.000000	0.001663	0.001755	28.081	0.021875	0.002031	10.7697	174.605	-167.803	0.055643	0.757557	-0.364384	-0.365666	0.026091	10.7697	-0.366201	-43789.9	-5.958310E-7	NaN
500	1.000000	0.800864	7.36995e+06	-52089.1	1005.82	-29750.2	0.000000	0.000000	6.801066	-0.029015	NaN	0.000000	0.001552	0.001661	28.081	0.130192	0.001894	68.7215	-98.0299	11.3418	-0.042277	0.799529	-0.322359	-0.323694	-0.029015	68.7215	-0.322042	-9969.63	2.910353E-6	NaN
500	1.000000	0.842870	7.36995e+06	-52089.1	1005.82	-29750.2	0.000000	0.000000	6.843075	0.049475	NaN	0.000000	0.001597	0.001615	28.0809	0.042186	0.002072	20.3582	-145.979	-167.376	0.034211	0.841545	-0.280354	-0.281678	0.049475	20.3582	-0.282176	-2545.51	-1.943597E-5	NaN
500	1.000000	0.884884	7.36995e+06	-52089.1	1005.82	-29750.2	0.000000	0.000000	6.885087	0.000875	NaN	0.000000	0.001634	0.001570	28.0821	0.040085	0.002087	19.2032	-154.596	10.7036	-0.020729	0.883593	-0.238339	-0.239630	0.000875	19.2032	-0.238373	-542.156	-1.614078E-6	NaN
500	1.000000	0.926896	7.36995e+06	-52089.1	1005.82	-29750.2	0.000000	0.000000	6.927097	-0.048078	NaN	0.000000	0.001658	0.001647	28.0823	0.037622	0.001903	19.7653	-22.8409	-165.961	-0.073009	0.925576	-0.196327	-0.197647	-0.048078	19.7653	-0.194503	-106.897	0.000450	NaN
500	1.000000	0.968910	7.36995e+06	-52089.1	1005.82	-29750.2	0.000000	0.000000	6.969114	0.022588	NaN	0.000000	0.001656	0.001648	28.0822	0.015198	0.001887	8.055415	165.452	13.5981	0.034082	0.967554	-0.154313	-0.155669	0.022588	8.055415	-0.156416	-23.6604	-0.000955	NaN
500	1.000000	1.010927	7.36995e+06	-52089.1	1005.82	-29750.2	0.000000	0.000000	7.011128	-0.043634	NaN	0.000000	0.001628	0.001627	28.081	0.051988	0.002076	25.0462	106.184	-168.074	0.024829	1.009634	-0.112296	-0.113589	-0.043634	25.0462	-0.110990	-3.152791	0.013840	NaN
500	1.000000	1.052968	7.36995e+06	-52089.1	1005.82	-29750.2	0.000000	0.000000	7.053171	-0.005477	NaN	0.000000	0.001638	0.001621	28.0811	0.095564	0.001993	47.9453	-40.6354	10.4053	-0.048992	1.051590	-0.070255	-0.071633	-0.005477	47.9453	-0.070169	-0.344687	0.015888	NaN
500	1.000000	1.094988	7.36995e+06	-52089.1	1005.82	-29750.2	0.000000	0.000000	7.095194	0.063052	NaN	0.000000	0.001587	0.001704	28.0813	0.055050	0.001999	27.5357	74.0961	-169.011	0.034899	1.093656	-0.028235	-0.029568	0.063052	27.5357	-0.029952	-0.022942	-2.748273	NaN
500	2.000000	1.131004	7.36995e+06	-52089.1	1005.82	-29750.2	0.000000	0.000000	7.131638	10.4784	NaN	0.000000	0.001629	0.001742	28.0817	11.1943	0.001725	6490.68	5.917092	7.326629	9.613580	1.130694	0.007780	0.007471	10.4784	6490.68	0.006570	0.005612	1867.13	79159.7
500	2.000000	1.141436	7.36995e+06	-52089.1	1005.82	-29750.2	0.000000	0.000000	7.142720	26.2955	NaN	0.000000	0.001649	0.001763	28.0831	21.9127	0.001745	12557.3	5.393163	-178.783	24.5163	1.141158	0.018212	0.017935	26.2955	12557.3	0.016642	0.017538	1499.38	86633
500	2.000000	1.151920	7.36995e+06	-52089.1	1005.82	-29750.2	0.000000	0.000000	7.154330	53.6524	NaN	0.000000	0.001586	0.001774	28.0838	31.5744	0.001794	17603.2	7.779080	-3.867278	51.3724	1.151564	0.028697	0.028341	53.6524	17603.2	0.026411	0.033633	1595.25	87697
500	2.000000	1.162394	7.36995e+06	-52089.1	1005.82	-29750.2	0.000000	0.000000	7.165908	80.4998	NaN	0.000000	0.001615	0.001778	28.0836	41.6801	0.001836	22695.8	6.224840	174.83	80.4875	1.162118	0.039171	0.038895	80.4998	22695.8	0.036511	0.055323	1455.1	88159.2
500	2.000000	1.172858	7.36995e+06	-52089.1	1005.82	-29750.2	0.000000	0.000000	7.178258	126.349	NaN	0.000000	0.001629	0.001747	28.0812	52.1511	0.001795	29047.6	4.528038	-4.913882	122.302	1.172547	0.049635	0.049323	126.349	29047.6	0.046373	0.081532	1549.7	92943.8
500	2.000000	1.183432	7.36995e+06	-52089.1	1005.82	-29750.2	0.000000	0.000000	7.190715	172.131	NaN	0.000000	0.001590	0.001718	28.0812	63.5275	0.001883	33732.2	6.111023	173.821	172.226	1.183062	0.060209	0.059838	172.131	33732.2	0.056382	0.113156	1521.18	91617.7
500	2.000000	1.193923	7.36995e+06	-52089.1	1005.82	-29750.2	0.000000	0.000000	7.203374	224.866	NaN	0.000000	0.001596	0.001710	28.0814	74.0192	0.001865	39694	4.993180	-7.843972	226.444	1.193665	0.070700	0.070442	224.866	39694	0.066451	0.149952	1499.59	93653
500	2.000000	1.204342	7.36995e+06	-52089.1	1005.82	-29750.2	0.000000	0.000000	7.216682	295.088	NaN	0.000000	0.001618	0.001726	28.0825	81.4669	0.001887	43166.6	0.771549	176.715	291.912	1.204015	0.081119	0.080792	295.088	43166.6	0.075992	0.189314	1558.72	90642
500	2.000000	1.214889	7.36995e+06	-52089.1	1005.82	-29750.2	0.000000	0.000000	7.229973	361.832	NaN	0.000000	0.001620	0.001712	28.0821	90.541	0.001687	53656.4	2.764505	-7.628320	359.948	1.214380	0.091666	0.091157	361.832	53656.4	0.086608	0.238133	1519.46	100458
500	2.000000	1.225198	7.36995e+06	-52089.1	1005.82	-29750.2	0.000000	0.000000	7.243408	437.828	NaN	0.000000	0.001651	0.001746	28.0824	101.274	0.001791	56548.5	9.569215	165.387	429.025	1.224768	0.101975	0.101545	437.828	56548.5	0.096168	0.286543	1527.97	96516.1
500	2.000000	1.227407	7.36995e+06	-52089.1	1005.82	-29750.2	0.000000	0.000000	7.245707	440.038	NaN	0.000000	0.001597	0.001736	28.0826	103.802	0.001833	56618.7	5.040163	169.327	442.357	1.227284	0.104184	0.104061	440.038	56618.7	0.098355	0.298203	1475.63	94727.6