File: remote_trans/data/nanoindenter/0828-1/data/Data_2025-08-06,11h17m57s/2025-07-22_16-23-58_1_25.txt
2025-07-22, 16:23:58, 1
Index	Phase	Displacement	Time	Pos X	Pos Y	Pos Z	Rot A	Rot B	Piezo Z	Force A	Force B	Gripper	Voltage A	Voltage B	Temperature	Amplitude force	Amplitude pos	Stiffness	Phase shift	Phase excitation	Force A raw	Displacement raw	HMax	HMax raw	Real Force	Real Stiffness	Contact Depth	Area	Hardness	Reduced Mod.
[#]	[#]	[um]	[s]	[um]	[um]	[um]	[m°]	[m°]	[um]	[uN]	[uN]	[V]	[V]	[V]	[°C]	[uN]	[um]	[N/m]	[°]	[°]	[uN]	[um]	[um]	[um]	[uN]	[N/m]	[um]	[um^2]	[MPa]	[MPa]
25	1.000000	0.002343	7.36528e+06	-39889.1	955.819	-29792.7	0.000000	0.000000	6.002792	0.015734	NaN	0.000000	0.001609	0.001678	28.0866	0.141542	0.001035	136.737	61.8149	-172.548	-0.036907	0.001120	-1.220266	-1.221489	0.015734	136.737	-1.220352	-2.056943E+16	-7.649119E-19	NaN
25	1.000000	0.046285	7.36528e+06	-39889.1	955.819	-29792.7	0.000000	0.000000	6.046732	-0.029366	NaN	0.000000	0.001592	0.001694	28.1119	0.087626	0.001936	45.2637	122.18	-162.512	-0.050513	0.044959	-1.176324	-1.177650	-0.029366	45.2637	-1.175838	-5.213250E+15	5.633001E-18	NaN
25	1.000000	0.090308	7.36528e+06	-39889.1	955.819	-29792.7	0.000000	0.000000	6.090758	0.038890	NaN	0.000000	0.001567	0.001653	28.0852	0.108506	0.002068	52.4721	-56.4487	-164.832	0.026017	0.088992	-1.132301	-1.133617	0.038890	52.4721	-1.132857	-1.383383E+15	-2.811193E-17	NaN
25	1.000000	0.134332	7.36528e+06	-39889.1	955.819	-29792.7	0.000000	0.000000	6.134783	0.057777	NaN	0.000000	0.001529	0.001639	28.1136	0.049743	0.001982	25.0938	91.0522	-166.621	0.005082	0.133042	-1.088277	-1.089567	0.057777	25.0938	-1.090004	-3.680108E+14	-1.569979E-16	NaN
25	1.000000	0.178384	7.36528e+06	-39889.1	955.819	-29792.7	0.000000	0.000000	6.178830	-0.055986	NaN	0.000000	0.001556	0.001670	28.0869	0.009158	0.002064	4.436766	46.9949	-166.493	-0.001362	0.177047	-1.044226	-1.045563	-0.055986	4.436766	-1.034762	-6.660754E+13	8.405391E-16	NaN
25	1.000000	0.222370	7.36528e+06	-39889.1	955.818	-29792.7	0.000000	0.000000	6.222816	-0.064787	NaN	0.000000	0.001528	0.001704	28.1126	0.028428	0.001897	14.9884	-106.309	-167.82	-0.078024	0.221047	-1.000239	-1.001562	-0.064787	14.9884	-0.996997	-2.066976E+13	3.134381E-15	NaN
25	1.000000	0.266376	7.36528e+06	-39889.1	955.819	-29792.7	0.000000	0.000000	6.266825	0.023682	NaN	0.000000	0.001553	0.001667	28.0849	0.119888	0.002065	58.0624	-114.816	-164.914	0.043984	0.265051	-0.956234	-0.957558	0.023682	58.0624	-0.956539	-5.891306E+12	-4.019863E-15	NaN
25	1.000000	0.310404	7.36528e+06	-39889.1	955.819	-29792.7	0.000000	0.000000	6.310854	0.038978	NaN	0.000000	0.001542	0.001678	28.1115	0.024131	0.002007	12.0204	-139.433	-163.746	0.118727	0.309116	-0.912205	-0.913493	0.038978	12.0204	-0.914637	-1.602474E+12	-2.432387E-14	NaN
25	1.000000	0.354434	7.36528e+06	-39889.1	955.818	-29792.7	0.000000	0.000000	6.354884	0.015374	NaN	0.000000	0.001542	0.001689	28.087	0.080361	0.001992	40.3446	-91.3365	-167.174	0.108714	0.353119	-0.868175	-0.869490	0.015374	40.3446	-0.868461	-3.807294E+11	-4.038148E-14	NaN
25	1.000000	0.398436	7.36528e+06	-39889.1	955.818	-29792.7	0.000000	0.000000	6.398885	0.005840	NaN	0.000000	0.001581	0.001673	28.1126	0.029570	0.002093	14.1262	54.0204	-167.759	0.029405	0.397114	-0.824173	-0.825495	0.005840	14.1262	-0.824483	-9.660422E+10	-6.045032E-14	NaN
25	1.000000	0.442465	7.36529e+06	-39889.1	955.818	-29792.7	0.000000	0.000000	6.442911	-0.076867	NaN	0.000000	0.001585	0.001696	28.0855	0.124269	0.002023	61.4161	123.461	-163.019	-0.008137	0.441162	-0.780144	-0.781447	-0.076867	61.4161	-0.779205	-2.346558E+10	3.275729E-12	NaN
25	1.000000	0.486477	7.36529e+06	-39889.1	955.818	-29792.7	0.000000	0.000000	6.486926	-0.001455	NaN	0.000000	0.001583	0.001689	28.1105	0.096058	0.002028	47.3579	52.2626	-165.86	0.075657	0.485162	-0.736132	-0.737447	-0.001455	47.3579	-0.736109	-6.082049E+9	2.391922E-13	NaN
25	1.000000	0.530529	7.36529e+06	-39889.1	955.819	-29792.7	0.000000	0.000000	6.530979	0.024057	NaN	0.000000	0.001595	0.001657	28.086	0.054491	0.001917	28.4325	-85.0796	-167.118	0.067516	0.529221	-0.692080	-0.693389	0.024057	28.4325	-0.692715	-1.556011E+9	-1.546041E-11	NaN
25	1.000000	0.574547	7.36529e+06	-39889.1	955.82	-29792.7	0.000000	0.000000	6.574998	0.061272	NaN	0.000000	0.001560	0.001700	28.109	0.110267	0.001948	56.5984	125.986	-169.391	0.009199	0.573201	-0.648062	-0.649409	0.061272	56.5984	-0.648874	-3.908443E+8	-1.567674E-10	NaN
25	1.000000	0.618540	7.36529e+06	-39889.1	955.819	-29792.7	0.000000	0.000000	6.618988	-0.025205	NaN	0.000000	0.001613	0.001672	28.0886	0.061235	0.001935	31.6523	-95.4639	-167.043	0.041467	0.617229	-0.604069	-0.605380	-0.025205	31.6523	-0.603472	-9.295325E+7	2.711596E-10	NaN
25	1.000000	0.662546	7.36529e+06	-39889.1	955.818	-29792.7	0.000000	0.000000	6.662993	-0.024161	NaN	0.000000	0.001562	0.001700	28.1095	0.105966	0.002070	51.188	-86.3862	-166.396	-0.020223	0.661288	-0.560063	-0.561322	-0.024161	51.188	-0.559709	-2.313963E+7	1.044150E-9	NaN
25	1.000000	0.706613	7.36529e+06	-39889.1	955.819	-29792.7	0.000000	0.000000	6.707059	-0.053967	NaN	0.000000	0.001598	0.001654	28.0888	0.073456	0.001867	39.3543	118.694	-165.372	-0.060060	0.705276	-0.515996	-0.517333	-0.053967	39.3543	-0.514968	-5.54094e+06	9.739702E-9	NaN
25	1.000000	0.750584	7.36529e+06	-39889.1	955.818	-29792.7	0.000000	0.000000	6.751031	-0.042404	NaN	0.000000	0.001581	0.001688	28.108	0.039407	0.002009	19.614	142.514	-172.22	-0.022099	0.749325	-0.472025	-0.473285	-0.042404	19.614	-0.470404	-1.32151e+06	3.208782E-8	NaN
25	1.000000	0.794631	7.36529e+06	-39889.1	955.819	-29792.7	0.000000	0.000000	6.795081	0.016017	NaN	0.000000	0.001563	0.001614	28.0869	0.051006	0.002070	24.6405	-137.973	-167.771	0.042252	0.793299	-0.427978	-0.429310	0.016017	24.6405	-0.428465	-339115	-4.723129E-8	NaN
25	1.000000	0.838640	7.36529e+06	-39889.1	955.819	-29792.7	0.000000	0.000000	6.839090	0.022163	NaN	0.000000	0.001570	0.001616	28.1075	0.050443	0.002035	24.7921	-161.357	-166.67	0.047765	0.837326	-0.383969	-0.385283	0.022163	24.7921	-0.384639	-80615.2	-2.749177E-7	NaN
25	1.000000	0.882644	7.36529e+06	-39889.1	955.819	-29792.7	0.000000	0.000000	6.883095	0.062485	NaN	0.000000	0.001566	0.001639	28.09	0.086472	0.001880	45.9923	28.1724	-164.979	0.104902	0.881326	-0.339966	-0.341283	0.062485	45.9923	-0.340985	-18875.6	-3.310324E-6	NaN
25	1.000000	0.926679	7.36529e+06	-39889.1	955.818	-29792.7	0.000000	0.000000	6.927128	0.010765	NaN	0.000000	0.001572	0.001608	28.108	0.025053	0.001960	12.78	-82.622	-166.905	-0.011643	0.925356	-0.295930	-0.297253	0.010765	12.78	-0.296562	-4182.2	-2.574017E-6	NaN
25	1.000000	0.970698	7.36529e+06	-39889.1	955.819	-29792.7	0.000000	0.000000	6.971143	-0.077849	NaN	0.000000	0.001507	0.001643	28.0874	0.108981	0.001957	55.6744	129.274	-167.35	-0.031112	0.969383	-0.251911	-0.253226	-0.077849	55.6744	-0.250863	-847.815	9.182328E-5	NaN
25	1.000000	1.014729	7.36529e+06	-39889.1	955.82	-29792.7	0.000000	0.000000	7.015179	0.034384	NaN	0.000000	0.001494	0.001631	28.1073	0.050490	0.002032	24.8534	3.583811	-168.157	0.020885	1.013360	-0.207881	-0.209250	0.034384	24.8534	-0.208918	-184.199	-0.000187	NaN
25	1.000000	1.058759	7.36529e+06	-39889.1	955.819	-29792.7	0.000000	0.000000	7.059207	0.001476	NaN	0.000000	0.001469	0.001604	28.0873	0.060366	0.001948	30.9864	-9.505509	-166.68	0.052769	1.057437	-0.163851	-0.165172	0.001476	30.9864	-0.163886	-32.1161	-4.596238E-5	NaN
25	1.000000	1.102731	7.36529e+06	-39889.1	955.819	-29792.7	0.000000	0.000000	7.103181	0.018528	NaN	0.000000	0.001512	0.001596	28.1068	0.088456	0.001957	45.2083	-107.546	-165.036	0.012406	1.101441	-0.119878	-0.121168	0.018528	45.2083	-0.120185	-4.873256	-0.003802	NaN
25	1.000000	1.146770	7.36529e+06	-39889.1	955.82	-29792.7	0.000000	0.000000	7.147221	0.059303	NaN	0.000000	0.001516	0.001611	28.0896	0.072488	0.002015	35.967	41.494	-163.027	0.107404	1.145428	-0.075839	-0.077182	0.059303	35.967	-0.077076	-0.522200	-0.113564	NaN
25	1.000000	1.190764	7.36529e+06	-39889.1	955.819	-29792.7	0.000000	0.000000	7.191213	0.015518	NaN	0.000000	0.001573	0.001615	28.1082	0.048791	0.002032	24.0124	-120.439	-166.828	0.043816	1.189500	-0.031845	-0.033110	0.015518	24.0124	-0.032330	-0.026782	-0.579426	NaN
25	2.000000	1.233366	7.36529e+06	-39889.1	955.819	-29792.7	0.000000	0.000000	7.234235	10.2315	NaN	0.000000	0.001578	0.001580	28.0894	9.604977	0.001662	5778.42	9.476851	-175.141	10.1373	1.232868	0.010756	0.010259	10.2315	5778.42	0.009428	0.008553	1196.23	57084.9
25	2.000000	1.244266	7.36529e+06	-39889.1	955.818	-29792.7	0.000000	0.000000	7.245884	28.4806	NaN	0.000000	0.001575	0.001613	28.1071	21.1781	0.001854	11421.7	7.578698	-179.252	28.956	1.243993	0.021656	0.021384	28.4806	11421.7	0.019786	0.022207	1282.49	70025.6
25	2.000000	1.255241	7.36529e+06	-39889.1	955.82	-29792.7	0.000000	0.000000	7.258210	61.3239	NaN	0.000000	0.001585	0.001635	28.089	32.0856	0.001821	17616.7	1.505183	-177.586	60.6804	1.254866	0.032632	0.032257	61.3239	17616.7	0.030021	0.040787	1503.5	79695.5
25	2.000000	1.266172	7.36529e+06	-39889.1	955.82	-29792.7	0.000000	0.000000	7.270524	94.9948	NaN	0.000000	0.001563	0.001618	28.1054	42.1345	0.001769	23824.7	4.197459	176.57	91.7647	1.265908	0.043563	0.043298	94.9948	23824.7	0.040572	0.065516	1449.96	85040.9
25	2.000000	1.277193	7.36529e+06	-39889.1	955.82	-29792.7	0.000000	0.000000	7.283204	135.335	NaN	0.000000	0.001579	0.001570	28.0903	53.7762	0.001859	28934.9	4.654156	174.28	134.042	1.277027	0.054584	0.054418	135.335	28934.9	0.051076	0.095769	1413.14	85424.5
25	2.000000	1.288153	7.36529e+06	-39889.1	955.819	-29792.7	0.000000	0.000000	7.296965	203.514	NaN	0.000000	0.001569	0.001613	28.106	63.3496	0.001762	35952.2	3.381413	174.395	202.729	1.287897	0.065543	0.065288	203.514	35952.2	0.061298	0.130504	1559.45	90925.9
25	2.000000	1.299124	7.36529e+06	-39889.1	955.819	-29792.7	0.000000	0.000000	7.310545	266.99	NaN	0.000000	0.001530	0.001605	28.0911	72.5976	0.001747	41555	2.845858	174.067	264.466	1.298823	0.076515	0.076214	266.99	41555	0.071696	0.171057	1560.82	91796.4
25	2.000000	1.310195	7.36529e+06	-39889.1	955.82	-29792.7	0.000000	0.000000	7.324508	337.362	NaN	0.000000	0.001574	0.001632	28.1048	84.0521	0.001766	47590.5	6.363047	169.744	338.746	1.309815	0.087586	0.087206	337.362	47590.5	0.082269	0.217548	1550.74	93221.4
25	2.000000	1.321164	7.36529e+06	-39889.1	955.819	-29792.7	0.000000	0.000000	7.339030	423.84	NaN	0.000000	0.001570	0.001579	28.0913	96.1531	0.001943	49480.4	7.398616	168.229	423.53	1.320830	0.098554	0.098221	423.84	49480.4	0.092130	0.265585	1595.88	87721.3
25	2.000000	1.331042	7.36529e+06	-39889.1	955.819	-29792.7	0.000000	0.000000	7.352291	506.169	NaN	0.000000	0.001564	0.001574	28.09	101.576	0.001750	58039.8	0.752872	174.283	499.568	1.330693	0.108433	0.108084	506.169	58039.8	0.101892	0.317525	1594.1	94104.5