File: remote_trans/data/nanoindenter/0828-1/data/Data_2025-08-06,11h17m57s/2025-07-22_16-23-58_1_1033.txt
2025-07-22, 16:23:58, 1
Index	Phase	Displacement	Time	Pos X	Pos Y	Pos Z	Rot A	Rot B	Piezo Z	Force A	Force B	Gripper	Voltage A	Voltage B	Temperature	Amplitude force	Amplitude pos	Stiffness	Phase shift	Phase excitation	Force A raw	Displacement raw	HMax	HMax raw	Real Force	Real Stiffness	Contact Depth	Area	Hardness	Reduced Mod.
[#]	[#]	[um]	[s]	[um]	[um]	[um]	[m°]	[m°]	[um]	[uN]	[uN]	[V]	[V]	[V]	[°C]	[uN]	[um]	[N/m]	[°]	[°]	[uN]	[um]	[um]	[um]	[uN]	[N/m]	[um]	[um^2]	[MPa]	[MPa]
1033	1.000000	0.002316	7.37515e+06	-51789.1	1055.82	-29751	0.000000	0.000000	6.002785	-0.025390	NaN	0.000000	0.001577	0.001625	28.0846	0.090016	0.000952	94.5433	-155.538	-157.292	0.015996	0.001084	-1.104043	-1.105274	-0.025390	94.5433	-1.103841	-5.644547E+14	4.498119E-17	NaN
1033	1.000000	0.044269	7.37515e+06	-51789.1	1055.82	-29751	0.000000	0.000000	6.044741	0.023304	NaN	0.000000	0.001580	0.001674	28.0844	0.018635	0.001962	9.498008	-88.114	13.5324	0.059481	0.042853	-1.062090	-1.063506	0.023304	9.498008	-1.063930	-1.642970E+14	-1.418433E-16	NaN
1033	1.000000	0.086318	7.37515e+06	-51789.1	1055.82	-29751	0.000000	0.000000	6.086790	0.033709	NaN	0.000000	0.001606	0.001628	28.0841	0.107392	0.002048	52.441	-104.626	-166.127	-0.030191	0.085030	-1.020040	-1.021329	0.033709	52.441	-1.020522	-4.285301E+13	-7.866083E-16	NaN
1033	1.000000	0.128269	7.37515e+06	-51789.1	1055.82	-29751	0.000000	0.000000	6.128741	0.027912	NaN	0.000000	0.001593	0.001620	28.0829	0.027216	0.001863	14.6101	61.3158	13.721	0.026880	0.126911	-0.978090	-0.979447	0.027912	14.6101	-0.979522	-1.202199E+13	-2.321744E-15	NaN
1033	1.000000	0.170312	7.37515e+06	-51789.1	1055.82	-29751	0.000000	0.000000	6.170784	0.024754	NaN	0.000000	0.001565	0.001608	28.0831	0.075691	0.002106	35.932	174.543	-164.213	0.070206	0.168988	-0.936046	-0.937370	0.024754	35.932	-0.936563	-3.167834E+12	-7.814122E-15	NaN
1033	1.000000	0.212357	7.37515e+06	-51789.1	1055.82	-29751	0.000000	0.000000	6.212827	-0.033018	NaN	0.000000	0.001536	0.001614	28.0833	0.086345	0.001992	43.3455	-113.233	15.4525	0.008192	0.211011	-0.894001	-0.895348	-0.033018	43.3455	-0.893430	-8.284689E+11	3.985439E-14	NaN
1033	1.000000	0.254371	7.37515e+06	-51789.1	1055.82	-29751	0.000000	0.000000	6.254841	-0.018734	NaN	0.000000	0.001543	0.001629	28.0842	0.081791	0.002010	40.6956	-56.904	-164.702	-0.044438	0.253066	-0.851987	-0.853293	-0.018734	40.6956	-0.851642	-2.254071E+11	8.311197E-14	NaN
1033	1.000000	0.296408	7.37515e+06	-51789.1	1055.82	-29751	0.000000	0.000000	6.296878	-0.019464	NaN	0.000000	0.001569	0.001598	28.0845	0.047094	0.002118	22.2349	-170.053	10.4056	0.079260	0.295025	-0.809950	-0.811333	-0.019464	22.2349	-0.809294	-6.011622E+10	3.237679E-13	NaN
1033	1.000000	0.338397	7.37515e+06	-51789.1	1055.82	-29751	0.000000	0.000000	6.338864	-0.089500	NaN	0.000000	0.001685	0.001564	28.0845	0.080474	0.002026	39.7206	125.164	-164.323	-0.072308	0.337100	-0.767962	-0.769259	-0.089500	39.7206	-0.766272	-1.565346E+10	5.717580E-12	NaN
1033	1.000000	0.380402	7.37515e+06	-51789.1	1055.82	-29751	0.000000	0.000000	6.380873	-0.002892	NaN	0.000000	0.001557	0.001566	28.0843	0.029086	0.002011	14.4611	134	13.1032	-0.064715	0.379017	-0.725956	-0.727342	-0.002892	14.4611	-0.725806	-4.401882E+9	6.569348E-13	NaN
1033	1.000000	0.422433	7.37515e+06	-51789.1	1055.82	-29751	0.000000	0.000000	6.422903	-0.029355	NaN	0.000000	0.001554	0.001526	28.0832	0.023956	0.001976	12.1204	85.8984	-165.267	0.026554	0.421156	-0.683925	-0.685202	-0.029355	12.1204	-0.682109	-1.114403E+9	2.634191E-11	NaN
1033	1.000000	0.464436	7.37515e+06	-51789.1	1055.82	-29751	0.000000	0.000000	6.464906	-0.034958	NaN	0.000000	0.001561	0.001614	28.0828	0.049348	0.002020	24.4276	78.8885	11.5897	-0.090116	0.463094	-0.641922	-0.643264	-0.034958	24.4276	-0.640849	-3.033446E+8	1.152424E-10	NaN
1033	1.000000	0.506423	7.37515e+06	-51789.1	1055.82	-29751	0.000000	0.000000	6.506896	0.041029	NaN	0.000000	0.001559	0.001604	28.0832	0.040361	0.001955	20.647	-82.6182	-171.305	-0.001527	0.505184	-0.599935	-0.601175	0.041029	20.647	-0.601426	-8.711472E+7	-4.709717E-10	NaN
1033	1.000000	0.548501	7.37515e+06	-51789.1	1055.82	-29751	0.000000	0.000000	6.548973	0.021920	NaN	0.000000	0.001625	0.001616	28.0843	0.087476	0.002031	43.0613	-52.7759	10.3466	0.041987	0.547129	-0.557857	-0.559229	0.021920	43.0613	-0.558239	-2.208079E+7	-9.927032E-10	NaN
1033	1.000000	0.590495	7.37515e+06	-51789.1	1055.82	-29751	0.000000	0.000000	6.590963	-0.068257	NaN	0.000000	0.001623	0.001588	28.0844	0.082713	0.001986	41.655	-131.755	-164.32	-0.051932	0.589188	-0.515863	-0.517170	-0.068257	41.655	-0.514634	-5.48199e+06	1.245113E-8	NaN
1033	1.000000	0.632519	7.37516e+06	-51789.1	1055.82	-29751	0.000000	0.000000	6.632993	0.063643	NaN	0.000000	0.001591	0.001608	28.0843	0.079586	0.001975	40.2908	-29.065	14.6711	0.066401	0.631096	-0.473839	-0.475262	0.063643	40.2908	-0.475024	-1.53402e+06	-4.148771E-8	NaN
1033	1.000000	0.674529	7.37516e+06	-51789.1	1055.82	-29751	0.000000	0.000000	6.674999	-0.013000	NaN	0.000000	0.001615	0.001630	28.0831	0.026327	0.001959	13.4408	-172.144	-163.049	-0.032612	0.673218	-0.431829	-0.433140	-0.013000	13.4408	-0.431104	-369554	3.517726E-8	NaN
1033	1.000000	0.716560	7.37516e+06	-51789.1	1055.82	-29751	0.000000	0.000000	6.717029	-0.033944	NaN	0.000000	0.001578	0.001635	28.0829	0.103328	0.001965	52.5972	-11.7249	14.9232	-0.005381	0.715195	-0.389799	-0.391163	-0.033944	52.5972	-0.389315	-94051	3.609142E-7	NaN
1033	1.000000	0.758576	7.37516e+06	-51789.1	1055.82	-29751	0.000000	0.000000	6.759047	0.007713	NaN	0.000000	0.001619	0.001632	28.0831	0.074964	0.001985	37.7665	57.2153	-168.262	0.045523	0.757301	-0.347782	-0.349057	0.007713	37.7665	-0.347935	-23824.3	-3.237598E-7	NaN
1033	1.000000	0.800612	7.37516e+06	-51789.1	1055.82	-29751	0.000000	0.000000	6.801083	-0.003046	NaN	0.000000	0.001541	0.001645	28.0846	0.109827	0.001893	58.0172	-105.218	15.5206	0.009480	0.799283	-0.305746	-0.307075	-0.003046	58.0172	-0.305707	-5720.59	5.324010E-7	NaN
1033	1.000000	0.842600	7.37516e+06	-51789.1	1055.82	-29751	0.000000	0.000000	6.843070	-0.018180	NaN	0.000000	0.001629	0.001602	28.0841	0.034938	0.001988	17.5743	-142.343	-165.856	-0.009195	0.841358	-0.263758	-0.265000	-0.018180	17.5743	-0.262982	-1301.87	1.396416E-5	NaN
1033	1.000000	0.884640	7.37516e+06	-51789.1	1055.82	-29751	0.000000	0.000000	6.885108	-0.064587	NaN	0.000000	0.001628	0.001590	28.0843	0.125800	0.001865	67.4597	-122.482	14.4195	-0.062227	0.883300	-0.221719	-0.223059	-0.064587	67.4597	-0.221001	-288.175	0.000224	NaN
1033	1.000000	0.926662	7.37516e+06	-51789.1	1055.82	-29751	0.000000	0.000000	6.927135	0.058586	NaN	0.000000	0.001612	0.001615	28.0844	0.055913	0.001915	29.1967	48.8036	-164.1	0.076734	0.925297	-0.179696	-0.181061	0.058586	29.1967	-0.181201	-63.9557	-0.000916	NaN
1033	1.000000	0.968653	7.37516e+06	-51789.1	1055.82	-29751	0.000000	0.000000	6.969125	0.037916	NaN	0.000000	0.001596	0.001597	28.0829	0.093316	0.001936	48.1918	-82.004	16.6305	-0.026597	0.967298	-0.137706	-0.139060	0.037916	48.1918	-0.138296	-10.9867	-0.003451	NaN
1033	1.000000	1.010659	7.37516e+06	-51789.1	1055.82	-29751	0.000000	0.000000	7.011131	0.042588	NaN	0.000000	0.001616	0.001613	28.0831	0.056469	0.001973	28.6191	-86.0477	-165.433	0.044379	1.009373	-0.095700	-0.096986	0.042588	28.6191	-0.096816	-1.550869	-0.027461	NaN
1033	1.000000	1.052696	7.37516e+06	-51789.1	1055.82	-29751	0.000000	0.000000	7.053170	0.063128	NaN	0.000000	0.001627	0.001619	28.0826	0.093907	0.002009	46.7528	-22.9538	12.8332	0.081158	1.051340	-0.053662	-0.055018	0.063128	46.7528	-0.054675	-0.125956	-0.501197	NaN
1033	1.000000	1.094720	7.37516e+06	-51789.1	1055.82	-29751	0.000000	0.000000	7.095189	-0.048075	NaN	0.000000	0.001654	0.001623	28.084	0.058362	0.002027	28.7907	129.151	-165.718	0.003513	1.093401	-0.011639	-0.012957	-0.048075	28.7907	-0.010386	-0.006608	7.275247	NaN
1033	2.000000	1.117732	7.37516e+06	-51789.1	1055.82	-29751	0.000000	0.000000	7.118970	18.6568	NaN	0.000000	0.001715	0.001615	28.0844	15.5804	0.001797	8670.67	6.742055	5.746952	17.1965	1.117327	0.011373	0.010969	18.6568	8670.67	0.009760	0.008916	2092.62	83898.2
1033	2.000000	1.128198	7.37516e+06	-51789.1	1055.82	-29751	0.000000	0.000000	7.130402	42.1462	NaN	0.000000	0.001728	0.001649	28.0846	26.818	0.001907	14066	7.919791	179.837	40.8354	1.127865	0.021839	0.021507	42.1462	14066	0.019592	0.021906	1924	86829.2
1033	2.000000	1.138750	7.37516e+06	-51789.1	1055.82	-29751	0.000000	0.000000	7.142170	71.7271	NaN	0.000000	0.001689	0.001578	28.0832	36.1039	0.001795	20111.6	6.759777	-1.904920	74.5496	1.138306	0.032391	0.031948	71.7271	20111.6	0.029716	0.040158	1786.12	91692.6
1033	2.000000	1.149192	7.37516e+06	-51789.1	1055.82	-29751	0.000000	0.000000	7.154443	116.232	NaN	0.000000	0.001634	0.001572	28.0829	45.6163	0.001842	24760.4	4.431417	178.525	115.865	1.148814	0.042834	0.042456	116.232	24760.4	0.039313	0.062265	1866.75	90659
1033	2.000000	1.159649	7.37516e+06	-51789.1	1055.82	-29751	0.000000	0.000000	7.166731	160.74	NaN	0.000000	0.001651	0.001576	28.083	55.141	0.001729	31891.9	1.942662	-1.759319	159.605	1.159374	0.053291	0.053015	160.74	31891.9	0.049511	0.090907	1768.18	96639.5
1033	2.000000	1.170206	7.37516e+06	-51789.1	1055.82	-29751	0.000000	0.000000	7.179519	215.007	NaN	0.000000	0.001665	0.001579	28.0842	65.2735	0.001773	36820.5	5.191505	173.688	214.854	1.169859	0.063847	0.063501	215.007	36820.5	0.059468	0.123907	1735.24	95568.7
1033	2.000000	1.180666	7.37516e+06	-51789.1	1055.82	-29751	0.000000	0.000000	7.192386	273.537	NaN	0.000000	0.001605	0.001603	28.0841	75.8688	0.001738	43655.6	4.943525	-7.318093	273.578	1.180431	0.074308	0.074072	273.537	43655.6	0.069609	0.162499	1683.31	98943.6
1033	2.000000	1.191112	7.37516e+06	-51789.1	1055.82	-29751	0.000000	0.000000	7.205712	343.547	NaN	0.000000	0.001587	0.001607	28.0842	84.8029	0.001883	45029.6	2.850681	175.247	340.903	1.190717	0.084754	0.084359	343.547	45029.6	0.079032	0.202757	1694.38	91365.7
1033	2.000000	1.201564	7.37516e+06	-51789.1	1055.82	-29751	0.000000	0.000000	7.219284	419.439	NaN	0.000000	0.001643	0.001620	28.0839	93.6682	0.001752	53474.4	3.948612	-7.776162	415.709	1.201271	0.095206	0.094913	419.439	53474.4	0.089323	0.251454	1668.06	97429.4
1033	2.000000	1.210126	7.37516e+06	-51789.1	1055.82	-29751	0.000000	0.000000	7.230653	487.68	NaN	0.000000	0.001641	0.001616	28.0835	101.737	0.001768	57537.4	2.520743	173.713	486.739	1.209862	0.103768	0.103503	487.68	57537.4	0.097411	0.293144	1663.62	97091.9