File: remote_trans/data/nanoindenter/0828-1/data/Data_2025-08-06,11h17m57s/2025-07-22_16-23-58_1_778.txt
2025-07-22, 16:23:58, 1
Index	Phase	Displacement	Time	Pos X	Pos Y	Pos Z	Rot A	Rot B	Piezo Z	Force A	Force B	Gripper	Voltage A	Voltage B	Temperature	Amplitude force	Amplitude pos	Stiffness	Phase shift	Phase excitation	Force A raw	Displacement raw	HMax	HMax raw	Real Force	Real Stiffness	Contact Depth	Area	Hardness	Reduced Mod.
[#]	[#]	[um]	[s]	[um]	[um]	[um]	[m°]	[m°]	[um]	[uN]	[uN]	[V]	[V]	[V]	[°C]	[uN]	[um]	[N/m]	[°]	[°]	[uN]	[um]	[um]	[um]	[uN]	[N/m]	[um]	[um^2]	[MPa]	[MPa]
778	1.000000	0.002364	7.37266e+06	-39039.1	1055.82	-29795.4	0.000000	0.000000	6.002801	-0.005314	NaN	0.000000	0.001606	0.001737	28.0799	0.054120	0.000979	55.2636	43.0178	-167.342	-0.050386	0.001134	-1.022027	-1.023257	-0.005314	55.2636	-1.021955	-4.479782E+13	1.186299E-16	NaN
778	1.000000	0.042320	7.37266e+06	-39039.1	1055.82	-29795.4	0.000000	0.000000	6.042756	-0.013037	NaN	0.000000	0.001641	0.001720	28.0811	0.059901	0.001930	31.0433	175.058	-165.889	0.018923	0.041024	-0.982072	-0.983367	-0.013037	31.0433	-0.981757	-1.288490E+13	1.011769E-15	NaN
778	1.000000	0.082343	7.37266e+06	-39039.1	1055.82	-29795.4	0.000000	0.000000	6.082781	0.019384	NaN	0.000000	0.001666	0.001695	28.0806	0.041093	0.001969	20.8662	-76.8797	-167.115	0.038242	0.081001	-0.942049	-0.943391	0.019384	20.8662	-0.942746	-3.838655E+12	-5.049748E-15	NaN
778	1.000000	0.122313	7.37266e+06	-39039.1	1055.82	-29795.4	0.000000	0.000000	6.122752	0.028026	NaN	0.000000	0.001572	0.001744	28.0804	0.083366	0.001932	43.161	137.243	-168.966	0.055597	0.121012	-0.902078	-0.903380	0.028026	43.161	-0.902565	-1.100841E+12	-2.545851E-14	NaN
778	1.000000	0.162335	7.37266e+06	-39039.1	1055.82	-29795.4	0.000000	0.000000	6.162772	-0.005636	NaN	0.000000	0.001627	0.001746	28.0803	0.059890	0.002047	29.2621	-41.4397	-166.901	-0.092500	0.161022	-0.862056	-0.863370	-0.005636	29.2621	-0.861912	-3.104546E+11	1.815279E-14	NaN
778	1.000000	0.202398	7.37267e+06	-39039.1	1055.82	-29795.4	0.000000	0.000000	6.202835	-0.003329	NaN	0.000000	0.001611	0.001771	28.0794	0.057620	0.001842	31.2775	74.6151	-163.818	0.044477	0.201072	-0.821994	-0.823319	-0.003329	31.2775	-0.821914	-8.915892E+10	3.733824E-14	NaN
778	1.000000	0.242369	7.37267e+06	-39039.1	1055.82	-29795.4	0.000000	0.000000	6.242807	0.029215	NaN	0.000000	0.001610	0.001837	28.0792	0.029230	0.001993	14.6658	161.584	-163.409	0.013481	0.241061	-0.782023	-0.783331	0.029215	14.6658	-0.783517	-2.685453E+10	-1.087891E-12	NaN
778	1.000000	0.282393	7.37267e+06	-39039.1	1055.82	-29795.4	0.000000	0.000000	6.282832	0.040109	NaN	0.000000	0.001616	0.001783	28.0794	0.063879	0.002009	31.7998	92.4941	-164.185	0.050585	0.281115	-0.741999	-0.743276	0.040109	31.7998	-0.742945	-7.536370E+9	-5.322072E-12	NaN
778	1.000000	0.322443	7.37267e+06	-39039.1	1055.82	-29795.4	0.000000	0.000000	6.322881	0.006049	NaN	0.000000	0.001589	0.001807	28.0809	0.058298	0.002016	28.9237	-111.996	-164.168	0.107932	0.321120	-0.701948	-0.703272	0.006049	28.9237	-0.702105	-2.090646E+9	-2.893521E-12	NaN
778	1.000000	0.362437	7.37267e+06	-39039.1	1055.82	-29795.4	0.000000	0.000000	6.362877	0.056870	NaN	0.000000	0.001599	0.001779	28.081	0.011250	0.002056	5.471505	-91.9754	-164.774	0.027639	0.361146	-0.661954	-0.663245	0.056870	5.471505	-0.669750	-7.550290E+8	-7.532226E-11	NaN
778	1.000000	0.402442	7.37267e+06	-39039.1	1055.82	-29795.4	0.000000	0.000000	6.402880	0.021579	NaN	0.000000	0.001600	0.001788	28.0807	0.022164	0.002080	10.6559	91.4147	-164.071	0.048150	0.401112	-0.621949	-0.623279	0.021579	10.6559	-0.623468	-1.751045E+8	-1.232339E-10	NaN
778	1.000000	0.442470	7.37267e+06	-39039.1	1055.82	-29795.4	0.000000	0.000000	6.442910	0.071643	NaN	0.000000	0.001621	0.001830	28.0792	0.049651	0.002127	23.3456	161.966	-164.21	-0.014389	0.441125	-0.581922	-0.583266	0.071643	23.3456	-0.584224	-5.046669E+7	-1.419613E-9	NaN
778	1.000000	0.482467	7.37267e+06	-39039.1	1055.82	-29795.4	0.000000	0.000000	6.482906	0.053413	NaN	0.000000	0.001602	0.001767	28.0793	0.067136	0.002004	33.4939	-160.274	-162.099	0.025203	0.481205	-0.541925	-0.543187	0.053413	33.4939	-0.543121	-1.363431E+7	-3.917576E-9	NaN
778	1.000000	0.522521	7.37267e+06	-39039.1	1055.82	-29795.4	0.000000	0.000000	6.522961	0.066272	NaN	0.000000	0.001619	0.001758	28.0793	0.090823	0.001988	45.6758	-16.8181	-164.798	0.033244	0.521227	-0.501871	-0.503165	0.066272	45.6758	-0.502959	-3.76955e+06	-1.758084E-8	NaN
778	1.000000	0.562538	7.37267e+06	-39039.1	1055.82	-29795.4	0.000000	0.000000	6.562974	-0.021481	NaN	0.000000	0.001622	0.001749	28.0795	0.048281	0.001975	24.4402	-29.5872	-163.367	0.084645	0.561199	-0.461854	-0.463192	-0.021481	24.4402	-0.461195	-981306	2.189025E-8	NaN
778	1.000000	0.602525	7.37267e+06	-39039.1	1055.82	-29795.4	0.000000	0.000000	6.602964	0.034913	NaN	0.000000	0.001598	0.001741	28.0805	0.091213	0.002066	44.1401	-137.056	-163.556	-0.007610	0.601233	-0.421866	-0.423158	0.034913	44.1401	-0.422460	-278797	-1.252277E-7	NaN
778	1.000000	0.642555	7.37267e+06	-39039.1	1055.82	-29795.4	0.000000	0.000000	6.642994	0.047548	NaN	0.000000	0.001578	0.001771	28.0807	0.059376	0.001970	30.1351	9.895801	-164.407	0.056418	0.641228	-0.381837	-0.383163	0.047548	30.1351	-0.383020	-76420.4	-6.221915E-7	NaN
778	1.000000	0.682570	7.37267e+06	-39039.1	1055.82	-29795.4	0.000000	0.000000	6.683007	-0.015090	NaN	0.000000	0.001618	0.001746	28.0808	0.030542	0.001850	16.5067	123.877	-169.096	0.028839	0.681222	-0.341821	-0.343169	-0.015090	16.5067	-0.341136	-18971.6	7.953764E-7	NaN
778	1.000000	0.722584	7.37267e+06	-39039.1	1055.82	-29795.4	0.000000	0.000000	6.723021	-0.014937	NaN	0.000000	0.001679	0.001758	28.0795	0.151211	0.001962	77.0807	-111.312	-166.046	0.041569	0.721329	-0.301808	-0.303063	-0.014937	77.0807	-0.301662	-4981.6	2.998365E-6	NaN
778	1.000000	0.762623	7.37267e+06	-39039.1	1055.82	-29795.4	0.000000	0.000000	6.763063	0.064571	NaN	0.000000	0.001611	0.001763	28.0798	0.093313	0.001943	48.0313	-44.3897	-163.764	0.026174	0.761303	-0.261768	-0.263089	0.064571	48.0313	-0.262776	-1292.47	-4.995913E-5	NaN
778	1.000000	0.802621	7.37267e+06	-39039.1	1055.82	-29795.4	0.000000	0.000000	6.803061	0.058847	NaN	0.000000	0.001674	0.001744	28.0794	0.045761	0.001921	23.8192	-139.444	-165.694	0.036139	0.801329	-0.221770	-0.223062	0.058847	23.8192	-0.223623	-317.283	-0.000185	NaN
778	1.000000	0.842648	7.37267e+06	-39039.1	1055.82	-29795.4	0.000000	0.000000	6.843086	0.023441	NaN	0.000000	0.001586	0.001764	28.0794	0.071889	0.001981	36.2869	-8.700129	-165.16	0.044406	0.841325	-0.181744	-0.183067	0.023441	36.2869	-0.182228	-66.5729	-0.000352	NaN
778	1.000000	0.882636	7.37267e+06	-39039.1	1055.82	-29795.4	0.000000	0.000000	6.883077	0.085928	NaN	0.000000	0.001611	0.001757	28.0808	0.070997	0.001823	38.9529	-115.278	-162.907	0.067652	0.881363	-0.141755	-0.143028	0.085928	38.9529	-0.143410	-13.6986	-0.006273	NaN
778	1.000000	0.922665	7.37267e+06	-39039.1	1055.82	-29795.4	0.000000	0.000000	6.923104	0.042859	NaN	0.000000	0.001590	0.001709	28.0808	0.052785	0.002024	26.0816	-2.915282	-167.988	0.097554	0.921313	-0.101727	-0.103078	0.042859	26.0816	-0.102959	-2.122562	-0.020192	NaN
778	1.000000	0.962681	7.37267e+06	-39039.1	1055.82	-29795.4	0.000000	0.000000	6.963121	0.058546	NaN	0.000000	0.001547	0.001742	28.0807	0.037832	0.002010	18.8248	-66.5831	-162.774	0.051305	0.961414	-0.061711	-0.062977	0.058546	18.8248	-0.064043	-0.234394	-0.249776	NaN
778	1.000000	1.002697	7.37267e+06	-39039.1	1055.82	-29795.4	0.000000	0.000000	7.003138	0.090184	NaN	0.000000	0.001607	0.001742	28.0793	0.090280	0.002011	44.9018	-158.234	-166.619	0.072888	1.001387	-0.021695	-0.023004	0.090184	44.9018	-0.023201	-0.015155	-5.950634	NaN
778	2.000000	1.031245	7.37267e+06	-39039.1	1055.82	-29795.4	0.000000	0.000000	7.032242	13.6195	NaN	0.000000	0.001628	0.001729	28.0798	13.2514	0.001715	7724.67	5.528874	-172.368	14.2716	1.030904	0.006854	0.006512	13.6195	7724.67	0.005532	0.004624	2945.59	103791
778	2.000000	1.041161	7.37267e+06	-39039.1	1055.82	-29795.4	0.000000	0.000000	7.043025	34.7204	NaN	0.000000	0.001595	0.001714	28.0797	24.8407	0.001882	13197.7	5.516840	-177.326	34.3309	1.040909	0.016770	0.016517	34.7204	13197.7	0.014796	0.015015	2312.39	98403.1
778	2.000000	1.051176	7.37267e+06	-39039.1	1055.82	-29795.4	0.000000	0.000000	7.054157	61.8877	NaN	0.000000	0.001645	0.001693	28.0818	33.3928	0.001724	19373.2	3.978065	-179.005	61.7639	1.050807	0.026785	0.026415	61.8877	19373.2	0.024389	0.029913	2068.92	102340
778	2.000000	1.061100	7.37267e+06	-39039.1	1055.82	-29795.4	0.000000	0.000000	7.065516	96.8247	NaN	0.000000	0.001662	0.001706	28.0819	43.0092	0.001765	24369	3.171106	179.605	95.4182	1.060823	0.036708	0.036432	96.8247	24369	0.033728	0.048826	1983.05	100759
778	2.000000	1.071142	7.37267e+06	-39039.1	1055.82	-29795.4	0.000000	0.000000	7.077345	140.301	NaN	0.000000	0.001603	0.001698	28.0813	53.2466	0.001740	30603.6	7.184246	173.704	140.783	1.070887	0.046750	0.046496	140.301	30603.6	0.043312	0.072868	1925.42	103581
778	2.000000	1.081098	7.37267e+06	-39039.1	1055.82	-29795.4	0.000000	0.000000	7.089234	187.353	NaN	0.000000	0.001616	0.001672	28.0807	62.1771	0.001708	36412.2	3.618586	175.785	187.214	1.080760	0.056706	0.056369	187.353	36412.2	0.052847	0.101417	1847.36	104464
778	2.000000	1.091086	7.37267e+06	-39039.1	1055.82	-29795.4	0.000000	0.000000	7.101603	245.294	NaN	0.000000	0.001675	0.001692	28.0794	70.5758	0.001838	38400.9	1.604340	177.857	243.318	1.090719	0.066695	0.066328	245.294	38400.9	0.061904	0.132723	1848.16	96303.2
778	2.000000	1.101132	7.37267e+06	-39039.1	1055.82	-29795.4	0.000000	0.000000	7.114106	305.094	NaN	0.000000	0.001702	0.001683	28.0793	81.4139	0.001812	44930.8	4.130210	173.41	304.996	1.100928	0.076740	0.076537	305.094	44930.8	0.071647	0.170853	1785.71	99312.8
778	2.000000	1.111011	7.37267e+06	-39039.1	1055.82	-29795.4	0.000000	0.000000	7.127457	389.595	NaN	0.000000	0.001684	0.001676	28.0793	91.105	0.001758	51809.7	4.014474	173.116	386.576	1.110737	0.086619	0.086345	389.595	51809.7	0.080979	0.211595	1841.23	102904
778	2.000000	1.121042	7.37267e+06	-39039.1	1055.82	-29795.4	0.000000	0.000000	7.140982	474.583	NaN	0.000000	0.001721	0.001724	28.0807	99.3353	0.001697	58519.5	3.440244	173.026	473.972	1.120763	0.096651	0.096371	474.583	58519.5	0.090568	0.257679	1841.76	105326
778	2.000000	1.126059	7.37267e+06	-39039.1	1055.82	-29795.4	0.000000	0.000000	7.147757	517.393	NaN	0.000000	0.001729	0.001754	28.0807	104.248	0.001789	58277.8	7.563048	168.768	516.783	1.125717	0.101667	0.101326	517.393	58277.8	0.095009	0.280450	1844.87	100542