File: remote_trans/data/nanoindenter/0828-1/data/Data_2025-08-06,11h17m57s/2025-07-22_16-23-58_1_161.txt
2025-07-22, 16:23:58, 1
Index	Phase	Displacement	Time	Pos X	Pos Y	Pos Z	Rot A	Rot B	Piezo Z	Force A	Force B	Gripper	Voltage A	Voltage B	Temperature	Amplitude force	Amplitude pos	Stiffness	Phase shift	Phase excitation	Force A raw	Displacement raw	HMax	HMax raw	Real Force	Real Stiffness	Contact Depth	Area	Hardness	Reduced Mod.
[#]	[#]	[um]	[s]	[um]	[um]	[um]	[m°]	[m°]	[um]	[uN]	[uN]	[V]	[V]	[V]	[°C]	[uN]	[um]	[N/m]	[°]	[°]	[uN]	[um]	[um]	[um]	[uN]	[N/m]	[um]	[um^2]	[MPa]	[MPa]
161	1.000000	0.002649	7.36661e+06	-46689.1	955.818	-29768.9	0.000000	0.000000	6.002808	-0.006551	NaN	0.000000	0.001583	0.001702	28.0989	0.168709	0.000968	174.295	129.831	-165.424	0.023714	0.001367	-0.986674	-0.987956	-0.006551	174.295	-0.986646	-1.499470E+13	4.368736E-16	NaN
161	1.000000	0.040590	7.36661e+06	-46689.1	955.82	-29768.9	0.000000	0.000000	6.040751	0.049765	NaN	0.000000	0.001600	0.001709	28.0795	0.042148	0.001963	21.4693	-45.8364	17.3762	0.051143	0.039271	-0.948733	-0.950052	0.049765	21.4693	-0.950472	-4.879645E+12	-1.019852E-14	NaN
161	1.000000	0.078600	7.36661e+06	-46689.1	955.818	-29768.9	0.000000	0.000000	6.078762	0.070817	NaN	0.000000	0.001625	0.001681	28.0945	0.090434	0.001997	45.2838	163.766	-165.527	0.025503	0.077274	-0.910723	-0.912049	0.070817	45.2838	-0.911896	-1.471550E+12	-4.812393E-14	NaN
161	1.000000	0.116617	7.36661e+06	-46689.1	955.819	-29768.9	0.000000	0.000000	6.116776	0.024903	NaN	0.000000	0.001701	0.001728	28.1293	0.052583	0.002019	26.0385	-152.558	14.7825	0.072412	0.115245	-0.872707	-0.874079	0.024903	26.0385	-0.873424	-4.443934E+11	-5.603856E-14	NaN
161	1.000000	0.154649	7.36661e+06	-46689.1	955.82	-29768.9	0.000000	0.000000	6.154807	-0.024590	NaN	0.000000	0.001660	0.001692	28.0998	0.042452	0.002132	19.9077	105.142	-166.473	0.020617	0.153333	-0.834674	-0.835991	-0.024590	19.9077	-0.833748	-1.289963E+11	1.906238E-13	NaN
161	1.000000	0.192653	7.36661e+06	-46689.1	955.819	-29768.9	0.000000	0.000000	6.192812	0.017579	NaN	0.000000	0.001602	0.001786	28.0797	0.094765	0.002038	46.4926	-127.096	15.8243	0.000233	0.191262	-0.796671	-0.798062	0.017579	46.4926	-0.796954	-4.088030E+10	-4.300166E-13	NaN
161	1.000000	0.230681	7.36661e+06	-46689.1	955.818	-29768.9	0.000000	0.000000	6.230839	-0.004666	NaN	0.000000	0.001592	0.001692	28.0963	0.011856	0.001900	6.240026	-125.345	-163.395	0.004595	0.229313	-0.758642	-0.760010	-0.004666	6.240026	-0.758082	-1.211164E+10	3.852308E-13	NaN
161	1.000000	0.268655	7.36662e+06	-46689.1	955.818	-29768.9	0.000000	0.000000	6.268816	0.037355	NaN	0.000000	0.001631	0.001695	28.1296	0.125739	0.001900	66.1863	110.821	15.0599	-0.027237	0.267323	-0.720668	-0.722001	0.037355	66.1863	-0.721091	-3.796259E+9	-9.839938E-12	NaN
161	1.000000	0.306680	7.36662e+06	-46689.1	955.819	-29768.9	0.000000	0.000000	6.306841	0.046429	NaN	0.000000	0.001584	0.001731	28.0969	0.090344	0.002038	44.3281	156.771	-166.536	0.082368	0.305431	-0.682643	-0.683892	0.046429	44.3281	-0.683429	-1.161688E+9	-3.996673E-11	NaN
161	1.000000	0.344710	7.36662e+06	-46689.1	955.818	-29768.9	0.000000	0.000000	6.344868	0.006784	NaN	0.000000	0.001560	0.001772	28.0787	0.025249	0.002005	12.5949	-126.485	17.4711	0.036479	0.343345	-0.644614	-0.645979	0.006784	12.5949	-0.645018	-3.460376E+8	-1.960361E-11	NaN
161	1.000000	0.382765	7.36662e+06	-46689.1	955.82	-29768.9	0.000000	0.000000	6.382922	-0.023063	NaN	0.000000	0.001568	0.001787	28.097	0.033957	0.001887	17.9933	44.8804	-164.1	0.030832	0.381466	-0.606559	-0.607857	-0.023063	17.9933	-0.605597	-9.943233E+7	2.319435E-10	NaN
161	1.000000	0.420764	7.36662e+06	-46689.1	955.818	-29768.9	0.000000	0.000000	6.420921	-0.016162	NaN	0.000000	0.001582	0.001767	28.1309	0.032081	0.001938	16.5566	-45.9161	15.1096	-0.044012	0.419407	-0.568560	-0.569917	-0.016162	16.5566	-0.567828	-2.996502E+7	5.393565E-10	NaN
161	1.000000	0.458784	7.36662e+06	-46689.1	955.819	-29768.9	0.000000	0.000000	6.458941	-0.046191	NaN	0.000000	0.001607	0.001721	28.0983	0.034110	0.001949	17.5034	-83.8314	-159.387	-0.037191	0.457450	-0.530539	-0.531873	-0.046191	17.5034	-0.528560	-8.56204e+06	5.394915E-9	NaN
161	1.000000	0.496767	7.36662e+06	-46689.1	955.818	-29768.9	0.000000	0.000000	6.496928	0.049999	NaN	0.000000	0.001583	0.001731	28.0796	0.036440	0.002018	18.0611	-117.959	17.9998	-0.048615	0.495420	-0.492556	-0.493903	0.049999	18.0611	-0.494633	-2.88472e+06	-1.733248E-8	NaN
161	1.000000	0.534816	7.36662e+06	-46689.1	955.819	-29768.9	0.000000	0.000000	6.534976	0.028029	NaN	0.000000	0.001593	0.001658	28.0978	0.161442	0.002113	76.3883	-0.111929	-164.688	0.015454	0.533510	-0.454507	-0.455814	0.028029	76.3883	-0.454783	-797369	-3.515200E-8	NaN
161	1.000000	0.572822	7.36662e+06	-46689.1	955.819	-29768.9	0.000000	0.000000	6.572979	-0.040793	NaN	0.000000	0.001660	0.001690	28.1294	0.116089	0.002028	57.2518	24.1556	15.3012	0.066281	0.571432	-0.416501	-0.417891	-0.040793	57.2518	-0.415967	-225518	1.808866E-7	NaN
161	1.000000	0.610820	7.36662e+06	-46689.1	955.818	-29768.9	0.000000	0.000000	6.610979	0.031276	NaN	0.000000	0.001666	0.001700	28.0961	0.068883	0.001795	38.3839	78.2264	-161.752	0.043142	0.609533	-0.378504	-0.379790	0.031276	38.3839	-0.379115	-67171.8	-4.656072E-7	NaN
161	1.000000	0.648834	7.36662e+06	-46689.1	955.819	-29768.9	0.000000	0.000000	6.648990	-0.054788	NaN	0.000000	0.001664	0.001683	28.0793	0.101853	0.001991	51.1455	-92.6465	16.7028	-0.037195	0.647470	-0.340489	-0.341853	-0.054788	51.1455	-0.339686	-18070.7	3.031857E-6	NaN
161	1.000000	0.686862	7.36662e+06	-46689.1	955.818	-29768.9	0.000000	0.000000	6.687021	0.011550	NaN	0.000000	0.001654	0.001734	28.0977	0.100277	0.001892	53.0092	11.8065	-163.579	0.027050	0.685528	-0.302462	-0.303795	0.011550	53.0092	-0.302625	-5148.5	-2.243406E-6	NaN
161	1.000000	0.724857	7.36662e+06	-46689.1	955.819	-29768.9	0.000000	0.000000	6.725014	-0.027101	NaN	0.000000	0.001627	0.001686	28.1321	0.056443	0.002044	27.609	122.601	15.8201	-0.107246	0.723512	-0.264467	-0.265812	-0.027101	27.609	-0.263730	-1336.6	2.027590E-5	NaN
161	1.000000	0.762906	7.36662e+06	-46689.1	955.818	-29768.9	0.000000	0.000000	6.763065	0.019066	NaN	0.000000	0.001632	0.001643	28.0957	0.085769	0.001979	43.3399	102.614	-163.055	0.030649	0.761540	-0.226418	-0.227783	0.019066	43.3399	-0.226748	-355.684	-5.360423E-5	NaN
161	1.000000	0.800909	7.36662e+06	-46689.1	955.819	-29768.9	0.000000	0.000000	6.801069	0.036689	NaN	0.000000	0.001619	0.001624	28.0807	0.095795	0.002067	46.334	45.7787	11.3239	0.043482	0.799520	-0.188415	-0.189803	0.036689	46.334	-0.189009	-86.5866	-0.000424	NaN
161	1.000000	0.838938	7.36662e+06	-46689.1	955.819	-29768.9	0.000000	0.000000	6.839096	-0.020218	NaN	0.000000	0.001621	0.001647	28.0985	0.045670	0.001952	23.3951	83.2327	-164.385	-0.036648	0.837586	-0.150385	-0.151738	-0.020218	23.3951	-0.149737	-17.9146	0.001129	NaN
161	1.000000	0.876937	7.36662e+06	-46689.1	955.818	-29768.9	0.000000	0.000000	6.877097	0.030250	NaN	0.000000	0.001590	0.001619	28.1308	0.055588	0.001995	27.8601	122.872	15.7193	0.012750	0.875560	-0.112386	-0.113763	0.030250	27.8601	-0.113201	-3.506455	-0.008627	NaN
161	1.000000	0.914948	7.36662e+06	-46689.1	955.818	-29768.9	0.000000	0.000000	6.915106	-0.001370	NaN	0.000000	0.001623	0.001698	28.0955	0.081533	0.002037	40.0188	150.524	-158.836	0.042903	0.913620	-0.074376	-0.075704	-0.001370	40.0188	-0.074350	-0.444297	0.003084	NaN
161	1.000000	0.952967	7.36662e+06	-46689.1	955.818	-29768.9	0.000000	0.000000	6.953126	0.006583	NaN	0.000000	0.001643	0.001669	28.0816	0.063499	0.001968	32.2677	-2.398447	14.8455	-0.018306	0.951565	-0.036356	-0.037759	0.006583	32.2677	-0.036509	-0.035499	-0.185452	NaN
161	1.000000	0.990961	7.36662e+06	-46689.1	955.819	-29768.9	0.000000	0.000000	6.991177	1.386017	NaN	0.000000	0.001628	0.001655	28.0995	2.080322	0.001782	1167.52	6.125145	-165.545	0.353836	0.989662	0.001638	0.000339	1.386017	1167.52	0.000747	0.000567	2445.76	44808.3
161	2.000000	1.004958	7.36662e+06	-46689.1	955.818	-29768.9	0.000000	0.000000	7.005956	20.4206	NaN	0.000000	0.001627	0.001636	28.1318	16.1991	0.001716	9439.56	3.113418	8.564671	19.872	1.004614	0.015634	0.015291	20.4206	9439.56	0.014012	0.013990	1459.65	72914.6
161	2.000000	1.014463	7.36662e+06	-46689.1	955.818	-29768.9	0.000000	0.000000	7.016328	41.5143	NaN	0.000000	0.001592	0.001611	28.0938	25.5152	0.001684	15153.9	3.148795	-175.889	41.1413	1.014123	0.025139	0.024799	41.5143	15153.9	0.023085	0.027623	1502.9	83303.7
161	2.000000	1.023940	7.36662e+06	-46689.1	955.818	-29768.9	0.000000	0.000000	7.026913	68.477	NaN	0.000000	0.001664	0.001647	28.0813	35.1009	0.001728	20311.5	3.754531	0.261881	68.0294	1.023610	0.034616	0.034286	68.477	20311.5	0.032088	0.045182	1515.58	87303.3
161	2.000000	1.033355	7.36662e+06	-46689.1	955.818	-29768.9	0.000000	0.000000	7.037998	109.086	NaN	0.000000	0.001679	0.001618	28.0993	44.1733	0.001818	24301.5	2.291678	-179.341	106.706	1.033078	0.044032	0.043754	109.086	24301.5	0.040665	0.065759	1658.89	86582.3
161	2.000000	1.042953	7.36662e+06	-46689.1	955.817	-29768.9	0.000000	0.000000	7.049343	151.555	NaN	0.000000	0.001620	0.001617	28.1302	53.6874	0.001834	29280	5.125598	-2.340073	154.066	1.042449	0.053630	0.053126	151.555	29280	0.049748	0.091636	1653.89	88371.4
161	2.000000	1.052342	7.36662e+06	-46689.1	955.817	-29768.9	0.000000	0.000000	7.060852	203.15	NaN	0.000000	0.001635	0.001627	28.0923	62.7626	0.001786	35143.2	5.943393	174.096	202.26	1.052098	0.063018	0.062774	203.15	35143.2	0.058683	0.121127	1677.16	92256
161	2.000000	1.061796	7.36662e+06	-46689.1	955.818	-29768.9	0.000000	0.000000	7.073011	268.945	NaN	0.000000	0.001581	0.001619	28.0804	71.0043	0.001830	38808.9	1.727217	-2.600484	263.192	1.061563	0.072472	0.072240	268.945	38808.9	0.067275	0.153179	1755.76	90595
161	2.000000	1.071454	7.36662e+06	-46689.1	955.818	-29768.9	0.000000	0.000000	7.085175	329.893	NaN	0.000000	0.001590	0.001608	28.1016	81.0914	0.001820	44560.1	3.418849	175.129	334.766	1.071108	0.082131	0.081785	329.893	44560.1	0.076579	0.191874	1719.32	92942.1
161	2.000000	1.080866	7.36662e+06	-46689.1	955.819	-29768.9	0.000000	0.000000	7.098240	418.763	NaN	0.000000	0.001558	0.001666	28.1313	86.7513	0.001671	51916.1	2.116571	-4.303674	418.071	1.080456	0.091543	0.091132	418.763	51916.1	0.085493	0.232760	1799.12	98315.2
161	2.000000	1.090306	7.36662e+06	-46689.1	955.819	-29768.9	0.000000	0.000000	7.110595	489.672	NaN	0.000000	0.001552	0.001642	28.0922	94.8279	0.001674	56632.2	1.633860	174.98	486.079	1.090065	0.100983	0.100741	489.672	56632.2	0.094498	0.277783	1762.78	98171.1
161	2.000000	1.095177	7.36662e+06	-46689.1	955.82	-29768.9	0.000000	0.000000	7.117339	535.216	NaN	0.000000	0.001583	0.001655	28.1007	102.638	0.001799	57055.2	2.352219	174.643	526.561	1.094967	0.105854	0.105643	535.216	57055.2	0.098818	0.300702	1779.89	95060.5