File: remote_trans/data/nanoindenter/0828-1/data/Data_2025-08-06,11h17m57s/2025-07-22_16-23-58_1_189.txt
2025-07-22, 16:23:58, 1
Index	Phase	Displacement	Time	Pos X	Pos Y	Pos Z	Rot A	Rot B	Piezo Z	Force A	Force B	Gripper	Voltage A	Voltage B	Temperature	Amplitude force	Amplitude pos	Stiffness	Phase shift	Phase excitation	Force A raw	Displacement raw	HMax	HMax raw	Real Force	Real Stiffness	Contact Depth	Area	Hardness	Reduced Mod.
[#]	[#]	[um]	[s]	[um]	[um]	[um]	[m°]	[m°]	[um]	[uN]	[uN]	[V]	[V]	[V]	[°C]	[uN]	[um]	[N/m]	[°]	[°]	[uN]	[um]	[um]	[um]	[uN]	[N/m]	[um]	[um^2]	[MPa]	[MPa]
189	1.000000	0.002359	7.36689e+06	-48089.1	955.818	-29763.6	0.000000	0.000000	6.002798	0.045636	NaN	0.000000	0.001624	0.001684	28.0752	0.060318	0.001022	58.9926	-66.0617	-160.949	-0.002981	0.001093	-1.706638	-1.707903	0.045636	58.9926	-1.707218	-6.343346E+22	-7.194254E-25	NaN
189	1.000000	0.060332	7.36689e+06	-48089.1	955.818	-29763.6	0.000000	0.000000	6.060771	0.043190	NaN	0.000000	0.001633	0.001697	28.0768	0.150864	0.001998	75.5067	-171.848	14.7531	0.118392	0.058940	-1.648665	-1.650057	0.043190	75.5067	-1.649094	-1.071484E+22	-4.030853E-24	NaN
189	1.000000	0.118355	7.36689e+06	-48089.1	955.819	-29763.6	0.000000	0.000000	6.118789	-0.071198	NaN	0.000000	0.001618	0.001730	28.0767	0.062671	0.002001	31.3252	-77.2115	-160.901	-0.009853	0.116969	-1.590642	-1.592028	-0.071198	31.3252	-1.588937	-1.698544E+21	4.191700E-23	NaN
189	1.000000	0.176381	7.36689e+06	-48089.1	955.818	-29763.6	0.000000	0.000000	6.176818	-0.023435	NaN	0.000000	0.001627	0.001745	28.0752	0.017159	0.002070	8.289303	-166.365	19.3257	0.011369	0.175063	-1.532616	-1.533934	-0.023435	8.289303	-1.530495	-2.833806E+20	8.269869E-23	NaN
189	1.000000	0.234375	7.36689e+06	-48089.1	955.817	-29763.6	0.000000	0.000000	6.234812	-0.012694	NaN	0.000000	0.001638	0.001755	28.0751	0.074507	0.002131	34.9594	-1.127525	-163.674	0.010430	0.233116	-1.474622	-1.475881	-0.012694	34.9594	-1.474349	-5.065538E+19	2.505950E-22	NaN
189	1.000000	0.292437	7.36689e+06	-48089.1	955.817	-29763.6	0.000000	0.000000	6.292873	-0.020652	NaN	0.000000	0.001663	0.001725	28.0755	0.031584	0.002004	15.7635	-76.7724	17.8329	-0.051460	0.291003	-1.416560	-1.417994	-0.020652	15.7635	-1.415578	-8.341218E+18	2.475934E-21	NaN
189	1.000000	0.350432	7.36689e+06	-48089.1	955.818	-29763.6	0.000000	0.000000	6.350871	0.028109	NaN	0.000000	0.001671	0.001748	28.0765	0.026388	0.002078	12.6971	-82.1432	-162.729	0.046775	0.349155	-1.358564	-1.359842	0.028109	12.6971	-1.360225	-1.523086E+18	-1.845528E-20	NaN
189	1.000000	0.408436	7.36689e+06	-48089.1	955.818	-29763.6	0.000000	0.000000	6.408875	0.025850	NaN	0.000000	0.001650	0.001733	28.0768	0.024639	0.001975	12.4728	-3.293541	15.5285	-0.030774	0.407083	-1.300560	-1.301914	0.025850	12.4728	-1.302115	-2.550672E+17	-1.013453E-19	NaN
189	1.000000	0.466498	7.36689e+06	-48089.1	955.818	-29763.5	0.000000	0.000000	6.466934	-0.037603	NaN	0.000000	0.001618	0.001724	28.0754	0.101620	0.002002	50.7534	-104.461	-162.269	-0.009964	0.465138	-1.242499	-1.243859	-0.037603	50.7534	-1.241943	-4.000717E+16	9.398947E-19	NaN
189	1.000000	0.524533	7.36689e+06	-48089.1	955.818	-29763.5	0.000000	0.000000	6.524967	-0.064760	NaN	0.000000	0.001644	0.001754	28.0754	0.048985	0.001926	25.4321	-147.663	16.8131	-0.092903	0.523177	-1.184464	-1.185820	-0.064760	25.4321	-1.182554	-6.413422E+15	1.009763E-17	NaN
189	1.000000	0.582543	7.36689e+06	-48089.1	955.817	-29763.5	0.000000	0.000000	6.582979	-0.035381	NaN	0.000000	0.001671	0.001769	28.0757	0.042921	0.001960	21.895	157.332	-161.055	-0.064632	0.581169	-1.126454	-1.127828	-0.035381	21.895	-1.125242	-1.093448E+15	3.235738E-17	NaN
189	1.000000	0.640569	7.36689e+06	-48089.1	955.819	-29763.5	0.000000	0.000000	6.641006	-0.014883	NaN	0.000000	0.001661	0.001723	28.0767	0.107742	0.002020	53.3377	170.296	13.9082	-0.029718	0.639261	-1.068428	-1.069735	-0.014883	53.3377	-1.068219	-1.876096E+14	7.932699E-17	NaN
189	1.000000	0.698559	7.36689e+06	-48089.1	955.819	-29763.5	0.000000	0.000000	6.698998	0.040144	NaN	0.000000	0.001606	0.001754	28.0765	0.069958	0.002048	34.1508	57.1737	-167.147	0.053674	0.697278	-1.010437	-1.011719	0.040144	34.1508	-1.011319	-3.222058E+13	-1.245899E-15	NaN
189	1.000000	0.756618	7.36689e+06	-48089.1	955.817	-29763.5	0.000000	0.000000	6.757054	-0.015077	NaN	0.000000	0.001713	0.001728	28.0754	0.032104	0.002013	15.951	-16.802	13.6104	0.035908	0.755222	-0.952379	-0.953775	-0.015077	15.951	-0.951670	-5.064672E+12	2.976916E-15	NaN
189	1.000000	0.814647	7.36689e+06	-48089.1	955.817	-29763.5	0.000000	0.000000	6.815086	0.052829	NaN	0.000000	0.001738	0.001716	28.0751	0.092382	0.001991	46.4049	75.2911	-163.837	0.054718	0.813341	-0.894350	-0.895656	0.052829	46.4049	-0.895204	-8.754902E+11	-6.034222E-14	NaN
189	1.000000	0.872658	7.36689e+06	-48089.1	955.818	-29763.5	0.000000	0.000000	6.873094	-0.043604	NaN	0.000000	0.001657	0.001732	28.0766	0.080104	0.002013	39.7954	165.847	16.1158	-0.047535	0.871265	-0.836339	-0.837732	-0.043604	39.7954	-0.835517	-1.363168E+11	3.198742E-13	NaN
189	1.000000	0.930664	7.36689e+06	-48089.1	955.817	-29763.5	0.000000	0.000000	6.931100	-0.050188	NaN	0.000000	0.001665	0.001762	28.0765	0.074793	0.002000	37.3963	43.8062	-167.421	0.006855	0.929405	-0.778332	-0.779592	-0.050188	37.3963	-0.777326	-2.212539E+10	2.268340E-12	NaN
189	1.000000	0.988712	7.36689e+06	-48089.1	955.82	-29763.5	0.000000	0.000000	6.989148	-0.018766	NaN	0.000000	0.001664	0.001726	28.0766	0.069110	0.002151	32.1317	88.491	13.3518	-0.078855	0.987356	-0.720285	-0.721641	-0.018766	32.1317	-0.719847	-3.650792E+9	5.140201E-12	NaN
189	1.000000	1.046732	7.36689e+06	-48089.1	955.819	-29763.5	0.000000	0.000000	7.047167	-0.071505	NaN	0.000000	0.001684	0.001744	28.0755	0.010943	0.002112	5.181294	-156.871	-165.822	-0.046306	1.045427	-0.662265	-0.663570	-0.071505	5.181294	-0.651914	-4.302043E+8	1.662116E-10	NaN
189	1.000000	1.104745	7.36689e+06	-48089.1	955.82	-29763.5	0.000000	0.000000	7.105182	-0.003367	NaN	0.000000	0.001624	0.001730	28.0752	0.054050	0.002041	26.4767	177.412	14.5877	-0.008361	1.103353	-0.604252	-0.605644	-0.003367	26.4767	-0.604157	-9.499421E+7	3.544404E-11	NaN
189	1.000000	1.162777	7.36689e+06	-48089.1	955.821	-29763.5	0.000000	0.000000	7.163214	-0.006440	NaN	0.000000	0.001624	0.001745	28.0769	0.164587	0.001858	88.5983	-84.1901	-165.468	-0.007509	1.161490	-0.546220	-0.547507	-0.006440	88.5983	-0.546165	-1.502541E+7	4.286096E-10	NaN
189	1.000000	1.220804	7.36689e+06	-48089.1	955.819	-29763.5	0.000000	0.000000	7.221240	-0.042901	NaN	0.000000	0.001630	0.001723	28.0767	0.051618	0.001955	26.4031	151.272	17.7182	-0.027762	1.219427	-0.488193	-0.489570	-0.042901	26.4031	-0.486974	-2.25473e+06	1.902722E-8	NaN
189	1.000000	1.278805	7.36689e+06	-48089.1	955.82	-29763.5	0.000000	0.000000	7.279239	-0.076060	NaN	0.000000	0.001622	0.001727	28.0753	0.116183	0.001964	59.1625	134.438	-165.034	-0.006432	1.277543	-0.430192	-0.431454	-0.076060	59.1625	-0.429228	-347645	2.187868E-7	NaN
189	1.000000	1.336851	7.3669e+06	-48089.1	955.821	-29763.5	0.000000	0.000000	7.337288	-0.011554	NaN	0.000000	0.001625	0.001704	28.0753	0.078995	0.001934	40.8409	-102.993	16.1244	0.040072	1.335448	-0.372146	-0.373548	-0.011554	40.8409	-0.371933	-52961.6	2.181555E-7	NaN
189	1.000000	1.394868	7.3669e+06	-48089.1	955.82	-29763.5	0.000000	0.000000	7.395305	-0.008578	NaN	0.000000	0.001624	0.001752	28.0754	0.096359	0.002153	44.7511	60.1748	-164.114	0.042629	1.393606	-0.314129	-0.315391	-0.008578	44.7511	-0.313985	-7585.25	1.130930E-6	NaN
189	1.000000	1.452911	7.3669e+06	-48089.1	955.821	-29763.5	0.000000	0.000000	7.453346	-0.061155	NaN	0.000000	0.001643	0.001722	28.0765	0.070317	0.002007	35.0438	-55.8192	14.4531	-0.004203	1.451569	-0.256085	-0.257428	-0.061155	35.0438	-0.254777	-974.265	6.277019E-5	NaN
189	1.000000	1.510971	7.3669e+06	-48089.1	955.822	-29763.5	0.000000	0.000000	7.511409	0.002900	NaN	0.000000	0.001576	0.001732	28.0766	0.028672	0.002034	14.0938	-15.4262	-166.56	-0.006050	1.509625	-0.198026	-0.199372	0.002900	14.0938	-0.198180	-122.955	-2.358947E-5	NaN
189	1.000000	1.568962	7.3669e+06	-48089.1	955.821	-29763.5	0.000000	0.000000	7.569397	-0.064043	NaN	0.000000	0.001517	0.001731	28.0756	0.175174	0.002138	81.9465	-176.069	14.9049	-0.009450	1.567594	-0.140034	-0.141403	-0.064043	81.9465	-0.139448	-11.5502	0.005545	NaN
189	1.000000	1.626965	7.3669e+06	-48089.1	955.821	-29763.5	0.000000	0.000000	7.627401	-0.027760	NaN	0.000000	0.001633	0.001769	28.0754	0.108658	0.002120	51.2562	-141.535	-163.67	-0.015067	1.625663	-0.082032	-0.083334	-0.027760	51.2562	-0.081625	-0.679374	0.040860	NaN
189	1.000000	1.684990	7.3669e+06	-48089.1	955.822	-29763.5	0.000000	0.000000	7.685430	0.051427	NaN	0.000000	0.001587	0.001712	28.0782	0.084556	0.002066	40.935	-136.014	16.7775	-0.006772	1.683684	-0.024007	-0.025313	0.051427	40.935	-0.024949	-0.016818	-3.057766	NaN
189	2.000000	1.723616	7.3669e+06	-48089.1	955.823	-29763.5	0.000000	0.000000	7.724710	15.9805	NaN	0.000000	0.001649	0.001717	28.0767	14.8551	0.001755	8463.27	6.277334	-174.596	15.8738	1.723307	0.014619	0.014310	15.9805	8463.27	0.013203	0.012963	1232.78	67914
189	2.000000	1.738088	7.3669e+06	-48089.1	955.823	-29763.5	0.000000	0.000000	7.740542	49.0324	NaN	0.000000	0.001665	0.001751	28.0773	29.9491	0.001674	17895.2	2.530330	3.251366	48.4784	1.737674	0.029092	0.028677	49.0324	17895.2	0.027037	0.034825	1407.95	87611.9
189	2.000000	1.752554	7.3669e+06	-48089.1	955.822	-29763.5	0.000000	0.000000	7.756680	89.7183	NaN	0.000000	0.001633	0.001742	28.0753	43.6385	0.001863	23419.3	3.413477	179.907	90.4544	1.752160	0.043557	0.043164	89.7183	23419.3	0.040684	0.065809	1363.32	83407.5
189	2.000000	1.766998	7.3669e+06	-48089.1	955.823	-29763.5	0.000000	0.000000	7.773541	148.496	NaN	0.000000	0.001639	0.001744	28.0755	54.5052	0.001820	29955.4	2.806641	-1.745169	146.245	1.766672	0.058001	0.057676	148.496	29955.4	0.054283	0.106111	1399.44	84017
189	2.000000	1.781481	7.3669e+06	-48089.1	955.823	-29763.5	0.000000	0.000000	7.790733	214.409	NaN	0.000000	0.001676	0.001853	28.0763	68.5443	0.001795	38193.7	2.904937	176.299	214.037	1.781270	0.072484	0.072273	214.409	38193.7	0.068274	0.157137	1364.47	88029
189	2.000000	1.795893	7.3669e+06	-48089.1	955.824	-29763.5	0.000000	0.000000	7.808118	286.721	NaN	0.000000	0.001691	0.001801	28.0765	82.0664	0.001819	45123.4	2.934538	-5.186812	282.251	1.795751	0.086896	0.086754	286.721	45123.4	0.082130	0.216902	1321.89	88520.5
189	2.000000	1.810271	7.3669e+06	-48089.1	955.824	-29763.5	0.000000	0.000000	7.826373	380.996	NaN	0.000000	0.001649	0.001815	28.075	93.0572	0.001763	52775.3	3.286057	173.711	371.118	1.810043	0.101274	0.101046	380.996	52775.3	0.095860	0.284916	1337.22	90332.8
189	2.000000	1.815813	7.3669e+06	-48089.1	955.824	-29763.5	0.000000	0.000000	7.833693	424.268	NaN	0.000000	0.001705	0.001798	28.0751	98.5193	0.001843	53450.3	4.998090	-7.832934	415.696	1.815484	0.106816	0.106487	424.268	53450.3	0.100863	0.311843	1360.52	87449.2