File: remote_trans/data/nanoindenter/0828-1/data/Data_2025-08-06,11h17m57s/2025-07-22_16-23-58_1_123.txt
2025-07-22, 16:23:58, 1
Index	Phase	Displacement	Time	Pos X	Pos Y	Pos Z	Rot A	Rot B	Piezo Z	Force A	Force B	Gripper	Voltage A	Voltage B	Temperature	Amplitude force	Amplitude pos	Stiffness	Phase shift	Phase excitation	Force A raw	Displacement raw	HMax	HMax raw	Real Force	Real Stiffness	Contact Depth	Area	Hardness	Reduced Mod.
[#]	[#]	[um]	[s]	[um]	[um]	[um]	[m°]	[m°]	[um]	[uN]	[uN]	[V]	[V]	[V]	[°C]	[uN]	[um]	[N/m]	[°]	[°]	[uN]	[um]	[um]	[um]	[uN]	[N/m]	[um]	[um^2]	[MPa]	[MPa]
123	1.000000	0.002241	7.36624e+06	-44789.1	955.819	-29775.1	0.000000	0.000000	6.002820	-0.078322	NaN	0.000000	0.001504	0.001673	28.0926	0.171746	0.000913	188.059	-153.935	-161.569	-0.091868	0.000935	-1.209800	-1.211106	-0.078322	188.059	-1.209487	-1.471565E+16	5.322391E-18	NaN
123	1.000000	0.046118	7.36624e+06	-44789.1	955.818	-29775.1	0.000000	0.000000	6.046697	-0.077990	NaN	0.000000	0.001543	0.001701	28.1021	0.090702	0.001866	48.6096	-141.027	-162.23	-0.114942	0.044845	-1.165923	-1.167196	-0.077990	48.6096	-1.164720	-3.699360E+15	2.108209E-17	NaN
123	1.000000	0.090157	7.36624e+06	-44789.1	955.818	-29775.1	0.000000	0.000000	6.090739	-0.003687	NaN	0.000000	0.001598	0.001670	28.0907	0.063339	0.001993	31.7818	135.582	-167.087	0.002068	0.088858	-1.121884	-1.123183	-0.003687	31.7818	-1.121797	-9.830625E+14	3.750197E-18	NaN
123	1.000000	0.134177	7.36624e+06	-44789.1	955.818	-29775.1	0.000000	0.000000	6.134756	-0.061116	NaN	0.000000	0.001568	0.001685	28.1024	0.046871	0.002055	22.8031	70.2003	-164.818	-0.075347	0.132906	-1.077864	-1.079135	-0.061116	22.8031	-1.075854	-2.375926E+14	2.572299E-16	NaN
123	1.000000	0.178218	7.36624e+06	-44789.1	955.819	-29775.1	0.000000	0.000000	6.178799	-0.036422	NaN	0.000000	0.001587	0.001688	28.09	0.158504	0.002065	76.754	122.803	-164.985	0.010606	0.176902	-1.033823	-1.035139	-0.036422	76.754	-1.033467	-6.399058E+13	5.691743E-16	NaN
123	1.000000	0.222234	7.36624e+06	-44789.1	955.818	-29775.1	0.000000	0.000000	6.222815	-0.036845	NaN	0.000000	0.001619	0.001669	28.1042	0.061034	0.002081	29.3332	-19.9911	-160.747	-0.058350	0.221002	-0.989807	-0.991039	-0.036845	29.3332	-0.988865	-1.606277E+13	2.293814E-15	NaN
123	1.000000	0.266293	7.36624e+06	-44789.1	955.819	-29775.1	0.000000	0.000000	6.266871	-0.095919	NaN	0.000000	0.001578	0.001703	28.092	0.202468	0.001897	106.749	-75.3238	-163.511	0.008263	0.264930	-0.945748	-0.947111	-0.095919	106.749	-0.945074	-4.126553E+12	2.324431E-14	NaN
123	1.000000	0.310291	7.36624e+06	-44789.1	955.818	-29775.1	0.000000	0.000000	6.310871	-0.070916	NaN	0.000000	0.001643	0.001693	28.1046	0.033296	0.001920	17.3403	54.6389	-164.311	-0.064993	0.308971	-0.901750	-0.903070	-0.070916	17.3403	-0.898682	-9.755780E+11	7.269134E-14	NaN
123	1.000000	0.354303	7.36624e+06	-44789.1	955.818	-29775.1	0.000000	0.000000	6.354881	-0.103680	NaN	0.000000	0.001586	0.001645	28.0898	0.090784	0.001914	47.443	125.801	-162.838	-0.009808	0.352983	-0.857738	-0.859058	-0.103680	47.443	-0.856099	-2.590052E+11	4.003014E-13	NaN
123	1.000000	0.398325	7.36624e+06	-44789.1	955.817	-29775.1	0.000000	0.000000	6.398907	-0.014459	NaN	0.000000	0.001567	0.001692	28.1039	0.120921	0.002045	59.1206	58.3227	-165.763	-0.036938	0.397037	-0.813715	-0.815004	-0.014459	59.1206	-0.813532	-6.862589E+10	2.106863E-13	NaN
123	1.000000	0.442350	7.36624e+06	-44789.1	955.819	-29775.1	0.000000	0.000000	6.442932	-0.013775	NaN	0.000000	0.001577	0.001734	28.09	0.071179	0.002024	35.1693	133.742	-165.135	-0.051076	0.441019	-0.769691	-0.771022	-0.013775	35.1693	-0.769397	-1.726280E+10	7.979671E-13	NaN
123	1.000000	0.486349	7.36624e+06	-44789.1	955.819	-29775.1	0.000000	0.000000	6.486929	-0.050716	NaN	0.000000	0.001549	0.001703	28.1041	0.088179	0.001965	44.8738	134.048	-164.794	-0.058211	0.485026	-0.725692	-0.727015	-0.050716	44.8738	-0.724844	-4.271019E+9	1.187435E-11	NaN
123	1.000000	0.530375	7.36624e+06	-44789.1	955.818	-29775.1	0.000000	0.000000	6.530957	-0.016001	NaN	0.000000	0.001561	0.001749	28.0914	0.033061	0.002017	16.3928	168.278	-167.088	0.034254	0.529041	-0.681666	-0.683000	-0.016001	16.3928	-0.680934	-1.073932E+9	1.489901E-11	NaN
123	1.000000	0.574407	7.36624e+06	-44789.1	955.818	-29775.1	0.000000	0.000000	6.574988	-0.045550	NaN	0.000000	0.001594	0.001654	28.1047	0.036070	0.002141	16.8505	-151.722	-158.493	-0.018077	0.573141	-0.637634	-0.638900	-0.045550	16.8505	-0.635606	-2.570365E+8	1.772131E-10	NaN
123	1.000000	0.618379	7.36624e+06	-44789.1	955.818	-29775.1	0.000000	0.000000	6.618957	-0.115241	NaN	0.000000	0.001572	0.001621	28.0895	0.070431	0.002089	33.709	-108.385	-163.88	-0.047292	0.617131	-0.593662	-0.594910	-0.115241	33.709	-0.591098	-6.277657E+7	1.835738E-9	NaN
123	1.000000	0.662458	7.36624e+06	-44789.1	955.818	-29775.1	0.000000	0.000000	6.663038	-0.053189	NaN	0.000000	0.001571	0.001657	28.1049	0.098735	0.001851	53.3356	-51.3831	-164.417	0.112757	0.661136	-0.549583	-0.550905	-0.053189	53.3356	-0.548835	-1.636116E+7	3.250947E-9	NaN
123	1.000000	0.706433	7.36624e+06	-44789.1	955.818	-29775.1	0.000000	0.000000	6.707011	-0.081793	NaN	0.000000	0.001522	0.001704	28.0902	0.050747	0.001878	27.0166	0.706142	-161.936	-0.101541	0.705104	-0.505608	-0.506937	-0.081793	27.0166	-0.503338	-3.81567e+06	2.143603E-8	NaN
123	1.000000	0.750472	7.36624e+06	-44789.1	955.818	-29775.1	0.000000	0.000000	6.751053	-0.028938	NaN	0.000000	0.001558	0.001690	28.1069	0.082681	0.001982	41.7159	-6.551262	-163.299	-0.058421	0.749194	-0.461569	-0.462847	-0.028938	41.7159	-0.461049	-976692	2.962891E-8	NaN
123	1.000000	0.794512	7.36624e+06	-44789.1	955.818	-29775.1	0.000000	0.000000	6.795093	-0.023458	NaN	0.000000	0.001554	0.001716	28.0909	0.063979	0.002118	30.2024	1.156819	-162.879	0.010767	0.793161	-0.417529	-0.418880	-0.023458	30.2024	-0.416947	-232859	1.007384E-7	NaN
123	1.000000	0.838488	7.36624e+06	-44789.1	955.818	-29775.1	0.000000	0.000000	6.839070	-0.003610	NaN	0.000000	0.001502	0.001686	28.1072	0.100897	0.002040	49.4502	-165.306	-164.47	-0.031686	0.837212	-0.373553	-0.374829	-0.003610	49.4502	-0.373498	-55779.5	6.471931E-8	NaN
123	1.000000	0.882533	7.36624e+06	-44789.1	955.818	-29775.1	0.000000	0.000000	6.883114	-0.042614	NaN	0.000000	0.001559	0.001689	28.0887	0.018071	0.001984	9.106961	-123.915	-164.202	0.001593	0.881254	-0.329508	-0.330787	-0.042614	9.106961	-0.325998	-11397	3.739013E-6	NaN
123	1.000000	0.926552	7.36624e+06	-44789.1	955.819	-29775.1	0.000000	0.000000	6.927134	-0.002273	NaN	0.000000	0.001585	0.001695	28.1084	0.034868	0.002011	17.3359	-56.8273	-159.555	-0.058615	0.925253	-0.285489	-0.286788	-0.002273	17.3359	-0.285391	-2845.39	7.987896E-7	NaN
123	1.000000	0.970540	7.36624e+06	-44789.1	955.819	-29775.1	0.000000	0.000000	6.971120	-0.048512	NaN	0.000000	0.001553	0.001677	28.087	0.021590	0.002061	10.4756	110.318	-164.34	-0.016601	0.969246	-0.241501	-0.242795	-0.048512	10.4756	-0.238028	-535.449	9.060144E-5	NaN
123	1.000000	1.014583	7.36624e+06	-44789.1	955.819	-29775.1	0.000000	0.000000	7.015161	-0.091692	NaN	0.000000	0.001563	0.001710	28.1098	0.126248	0.001908	66.1529	-71.6285	-164.93	-0.090722	1.013248	-0.197458	-0.198793	-0.091692	66.1529	-0.196419	-114.994	0.000797	NaN
123	1.000000	1.058554	7.36624e+06	-44789.1	955.818	-29775.1	0.000000	0.000000	7.059132	-0.103047	NaN	0.000000	0.001577	0.001682	28.0883	0.039039	0.002015	19.3749	-43.2183	-166.758	-0.163027	1.057237	-0.153487	-0.154804	-0.103047	19.3749	-0.149498	-17.7358	0.005810	NaN
123	1.000000	1.102612	7.36624e+06	-44789.1	955.819	-29775.1	0.000000	0.000000	7.103192	-0.064766	NaN	0.000000	0.001544	0.001665	28.1092	0.068558	0.002010	34.1146	30.4937	-164.514	-0.033122	1.101330	-0.109429	-0.110711	-0.064766	34.1146	-0.108005	-2.726489	0.023755	NaN
123	1.000000	1.146637	7.36625e+06	-44789.1	955.819	-29775.1	0.000000	0.000000	7.147215	-0.099678	NaN	0.000000	0.001585	0.001691	28.0874	0.029833	0.001980	15.0671	21.1614	-164.333	-0.077497	1.145288	-0.065404	-0.066753	-0.099678	15.0671	-0.060442	-0.185426	0.537563	NaN
123	1.000000	1.190660	7.36625e+06	-44789.1	955.818	-29775.1	0.000000	0.000000	7.191238	-0.096009	NaN	0.000000	0.001573	0.001668	28.1093	0.079325	0.001921	41.3018	-128.127	-167.582	-0.106348	1.189316	-0.021381	-0.022725	-0.096009	41.3018	-0.019637	-0.012297	7.807647	NaN
123	2.000000	1.225101	7.36625e+06	-44789.1	955.819	-29775.1	0.000000	0.000000	7.226201	12.5812	NaN	0.000000	0.001519	0.001703	28.0872	12.3688	0.001662	7442.9	8.873345	-173.786	12.6597	1.224848	0.013061	0.012807	12.5812	7442.9	0.011793	0.011243	1119.04	64132.5
123	2.000000	1.236081	7.36625e+06	-44789.1	955.819	-29775.1	0.000000	0.000000	7.238188	37.0931	NaN	0.000000	0.001568	0.001710	28.1108	23.1436	0.001811	12778.1	2.220843	-172.906	36.6446	1.235721	0.024040	0.023680	37.0931	12778.1	0.021862	0.025554	1451.56	73031.7
123	2.000000	1.247038	7.36625e+06	-44789.1	955.819	-29775.1	0.000000	0.000000	7.250224	63.3407	NaN	0.000000	0.001564	0.001675	28.0886	35.1175	0.001736	20225.5	4.925186	179.767	63.3075	1.246818	0.034997	0.034777	63.3407	20225.5	0.032648	0.046412	1364.75	85774.6
123	2.000000	1.257957	7.36625e+06	-44789.1	955.819	-29775.1	0.000000	0.000000	7.262884	105.708	NaN	0.000000	0.001557	0.001707	28.1103	45.3857	0.001776	25560.9	7.124925	174.667	102.547	1.257739	0.045916	0.045698	105.708	25560.9	0.042814	0.071503	1478.37	87334.5
123	2.000000	1.269029	7.36625e+06	-44789.1	955.82	-29775.1	0.000000	0.000000	7.275875	152.388	NaN	0.000000	0.001540	0.001699	28.0875	55.3304	0.001789	30921.8	6.533546	174.526	153.295	1.268725	0.056988	0.056684	152.388	30921.8	0.053292	0.102859	1481.53	88088.1
123	2.000000	1.280054	7.36625e+06	-44789.1	955.819	-29775.1	0.000000	0.000000	7.289231	209.083	NaN	0.000000	0.001593	0.001724	28.1094	66.6958	0.001765	37789.2	4.526617	175.274	214.428	1.279748	0.068013	0.067707	209.083	37789.2	0.063863	0.140025	1493.18	92265.2
123	2.000000	1.290887	7.36625e+06	-44789.1	955.819	-29775.1	0.000000	0.000000	7.302846	276.765	NaN	0.000000	0.001554	0.001734	28.0866	75.4599	0.001773	42552	4.392688	174.121	273.222	1.290608	0.078846	0.078567	276.765	42552	0.073968	0.180601	1532.47	91481.4
123	2.000000	1.302019	7.36625e+06	-44789.1	955.819	-29775.1	0.000000	0.000000	7.317244	356.221	NaN	0.000000	0.001578	0.001776	28.1101	86.6163	0.001771	48921.5	8.582295	168.875	357.393	1.301632	0.089978	0.089591	356.221	48921.5	0.084517	0.228102	1561.67	93585.4
123	2.000000	1.313004	7.36625e+06	-44789.1	955.819	-29775.1	0.000000	0.000000	7.331993	447.789	NaN	0.000000	0.001560	0.001739	28.088	98.1596	0.001896	51777.9	6.266908	171.31	448.383	1.312605	0.100963	0.100564	447.789	51777.9	0.094477	0.277674	1612.64	89773.8
123	2.000000	1.320482	7.36625e+06	-44789.1	955.819	-29775.1	0.000000	0.000000	7.342013	509.626	NaN	0.000000	0.001623	0.001695	28.0827	105.589	0.001777	59432.1	8.041874	-11.1955	510.123	1.320034	0.108441	0.107993	509.626	59432.1	0.102010	0.318180	1601.69	96262.6