File: remote_trans/data/nanoindenter/0828-1/data/Data_2025-08-06,11h17m57s/2025-07-22_16-23-58_1_555.txt
2025-07-22, 16:23:58, 1
Index	Phase	Displacement	Time	Pos X	Pos Y	Pos Z	Rot A	Rot B	Piezo Z	Force A	Force B	Gripper	Voltage A	Voltage B	Temperature	Amplitude force	Amplitude pos	Stiffness	Phase shift	Phase excitation	Force A raw	Displacement raw	HMax	HMax raw	Real Force	Real Stiffness	Contact Depth	Area	Hardness	Reduced Mod.
[#]	[#]	[um]	[s]	[um]	[um]	[um]	[m°]	[m°]	[um]	[uN]	[uN]	[V]	[V]	[V]	[°C]	[uN]	[um]	[N/m]	[°]	[°]	[uN]	[um]	[um]	[um]	[uN]	[N/m]	[um]	[um^2]	[MPa]	[MPa]
555	1.000000	0.002278	7.37048e+06	-49339.1	1005.82	-29759.4	0.000000	0.000000	6.002771	-0.007517	NaN	0.000000	0.001687	0.001725	28.0821	0.084652	0.000911	92.9673	53.7834	-168.094	-0.055495	0.001060	-1.018090	-1.019308	-0.007517	92.9673	-1.018029	-3.966741E+13	1.895083E-16	NaN
555	1.000000	0.042259	7.37048e+06	-49339.1	1005.82	-29759.4	0.000000	0.000000	6.042751	-0.021938	NaN	0.000000	0.001690	0.001646	28.0822	0.047814	0.002144	22.3054	-40.6202	-165.163	-0.003609	0.040980	-0.978109	-0.979387	-0.021938	22.3054	-0.977371	-1.124584E+13	1.950791E-15	NaN
555	1.000000	0.082277	7.37048e+06	-49339.1	1005.82	-29759.4	0.000000	0.000000	6.082768	-0.048926	NaN	0.000000	0.001635	0.001657	28.0818	0.049955	0.002060	24.2536	-31.2808	-166.281	-0.036431	0.081042	-0.938091	-0.939325	-0.048926	24.2536	-0.936578	-3.169310E+12	1.543734E-14	NaN
555	1.000000	0.122316	7.37048e+06	-49339.1	1005.82	-29759.4	0.000000	0.000000	6.122810	0.025350	NaN	0.000000	0.001602	0.001676	28.0806	0.078610	0.002042	38.5043	-177.921	-165.582	-0.003233	0.120946	-0.898052	-0.899421	0.025350	38.5043	-0.898546	-9.714342E+11	-2.609582E-14	NaN
555	1.000000	0.162286	7.37048e+06	-49339.1	1005.82	-29759.4	0.000000	0.000000	6.162779	-0.012810	NaN	0.000000	0.001607	0.001683	28.0806	0.050349	0.001991	25.2903	-59.909	-167.615	-0.041063	0.161031	-0.858082	-0.859336	-0.012810	25.2903	-0.857702	-2.722792E+11	4.704546E-14	NaN
555	1.000000	0.202322	7.37048e+06	-49339.1	1005.82	-29759.4	0.000000	0.000000	6.202815	0.006048	NaN	0.000000	0.001523	0.001695	28.0807	0.097303	0.001950	49.9116	-125.283	-167.447	0.009568	0.201010	-0.818046	-0.819358	0.006048	49.9116	-0.818137	-7.924075E+10	-7.632924E-14	NaN
555	1.000000	0.242322	7.37048e+06	-49339.1	1005.82	-29759.4	0.000000	0.000000	6.242816	0.036186	NaN	0.000000	0.001546	0.001667	28.082	0.028842	0.002079	13.8701	149.897	-166.312	-0.031453	0.241016	-0.778046	-0.779351	0.036186	13.8701	-0.780003	-2.405847E+10	-1.504085E-12	NaN
555	1.000000	0.282335	7.37048e+06	-49339.1	1005.82	-29759.4	0.000000	0.000000	6.282829	0.027176	NaN	0.000000	0.001566	0.001692	28.0819	0.103320	0.002132	48.4602	-21.9946	-164.251	-0.002101	0.281057	-0.738033	-0.739311	0.027176	48.4602	-0.738454	-6.546271E+9	-4.151297E-12	NaN
555	1.000000	0.322395	7.37048e+06	-49339.1	1005.82	-29759.4	0.000000	0.000000	6.322886	-0.042455	NaN	0.000000	0.001607	0.001697	28.082	0.116954	0.001969	59.4012	47.6369	-166.121	-0.052341	0.321030	-0.697973	-0.699337	-0.042455	59.4012	-0.697437	-1.805200E+9	2.351831E-11	NaN
555	1.000000	0.362362	7.37048e+06	-49339.1	1005.82	-29759.4	0.000000	0.000000	6.362854	-0.033158	NaN	0.000000	0.001625	0.001668	28.0819	0.067547	0.001956	34.5272	131.674	-165.136	-0.056186	0.361123	-0.658006	-0.659245	-0.033158	34.5272	-0.657286	-5.096657E+8	6.505886E-11	NaN
555	1.000000	0.402381	7.37048e+06	-49339.1	1005.82	-29759.4	0.000000	0.000000	6.402874	-0.012296	NaN	0.000000	0.001599	0.001701	28.0806	0.042989	0.001892	22.7232	87.1139	-168.322	-0.004353	0.401074	-0.617987	-0.619294	-0.012296	22.7232	-0.617581	-1.453381E+8	8.460517E-11	NaN
555	1.000000	0.442432	7.37048e+06	-49339.1	1005.82	-29759.4	0.000000	0.000000	6.442924	-0.011946	NaN	0.000000	0.001582	0.001720	28.0805	0.074034	0.001990	37.194	60.9585	-167.603	-0.043672	0.441091	-0.577936	-0.579277	-0.011946	37.194	-0.577695	-4.101202E+7	2.912889E-10	NaN
555	1.000000	0.482418	7.37048e+06	-49339.1	1005.82	-29759.4	0.000000	0.000000	6.482912	0.023171	NaN	0.000000	0.001571	0.001693	28.0804	0.035309	0.001900	18.5841	-60.584	-166.725	-0.002339	0.481102	-0.537950	-0.539266	0.023171	18.5841	-0.538885	-1.190947E+7	-1.945558E-9	NaN
555	1.000000	0.522488	7.37048e+06	-49339.1	1005.82	-29759.4	0.000000	0.000000	6.522981	-0.015229	NaN	0.000000	0.001550	0.001724	28.0817	0.081218	0.001964	41.3578	-24.0699	-167.914	0.011199	0.521085	-0.497879	-0.499283	-0.015229	41.3578	-0.497603	-3.17376e+06	4.798299E-9	NaN
555	1.000000	0.562481	7.37048e+06	-49339.1	1005.82	-29759.4	0.000000	0.000000	6.562974	0.010311	NaN	0.000000	0.001564	0.001695	28.0817	0.017599	0.001964	8.959475	-63.8894	-166.454	-0.005673	0.561154	-0.457887	-0.459214	0.010311	8.959475	-0.458750	-906682	-1.137242E-8	NaN
555	1.000000	0.602494	7.37048e+06	-49339.1	1005.82	-29759.4	0.000000	0.000000	6.602988	0.032539	NaN	0.000000	0.001534	0.001708	28.0819	0.089564	0.001942	46.1291	160.581	-168.404	0.008386	0.601220	-0.417874	-0.419147	0.032539	46.1291	-0.418403	-244210	-1.332422E-7	NaN
555	1.000000	0.642505	7.37048e+06	-49339.1	1005.82	-29759.4	0.000000	0.000000	6.642997	-0.005675	NaN	0.000000	0.001543	0.001678	28.0817	0.086886	0.002049	42.4103	-153.763	-169.854	0.005826	0.641235	-0.377863	-0.379132	-0.005675	42.4103	-0.377763	-64234.8	8.835366E-8	NaN
555	1.000000	0.682528	7.37048e+06	-49339.1	1005.82	-29759.4	0.000000	0.000000	6.683020	-0.029785	NaN	0.000000	0.001546	0.001706	28.0802	0.078903	0.002035	38.7737	59.3554	-169.771	-0.083699	0.681199	-0.337840	-0.339169	-0.029785	38.7737	-0.337264	-16658.9	1.787935E-6	NaN
555	1.000000	0.722526	7.37048e+06	-49339.1	1005.82	-29759.4	0.000000	0.000000	6.723019	0.000299	NaN	0.000000	0.001570	0.001674	28.0804	0.053629	0.001997	26.8565	-86.4645	-166.65	0.047581	0.721261	-0.297842	-0.299107	0.000299	26.8565	-0.297851	-4371.36	-6.834889E-8	NaN
555	1.000000	0.762549	7.37048e+06	-49339.1	1005.82	-29759.4	0.000000	0.000000	6.763043	0.032326	NaN	0.000000	0.001570	0.001666	28.0804	0.046355	0.001987	23.3306	-47.185	-170.569	0.033456	0.761250	-0.257819	-0.259118	0.032326	23.3306	-0.258858	-1125.67	-2.871724E-5	NaN
555	1.000000	0.802580	7.37048e+06	-49339.1	1005.82	-29759.4	0.000000	0.000000	6.803072	-0.025173	NaN	0.000000	0.001600	0.001687	28.0818	0.019763	0.002015	9.809920	-12.3881	-166.169	0.102923	0.801286	-0.217788	-0.219082	-0.025173	9.809920	-0.215864	-238.45	0.000106	NaN
555	1.000000	0.842575	7.37048e+06	-49339.1	1005.82	-29759.4	0.000000	0.000000	6.843069	0.018309	NaN	0.000000	0.001558	0.001686	28.0819	0.112134	0.002035	55.1023	155.121	-169.236	-0.004810	0.841300	-0.177793	-0.179067	0.018309	55.1023	-0.178042	-56.5053	-0.000324	NaN
555	1.000000	0.882599	7.37048e+06	-49339.1	1005.82	-29759.4	0.000000	0.000000	6.883089	-0.089801	NaN	0.000000	0.001552	0.001679	28.0819	0.070549	0.002004	35.1975	-129.362	-165.633	-0.081522	0.881298	-0.137768	-0.139069	-0.089801	35.1975	-0.135855	-9.876169	0.009093	NaN
555	1.000000	0.922610	7.37048e+06	-49339.1	1005.82	-29759.4	0.000000	0.000000	6.923104	0.029053	NaN	0.000000	0.001503	0.001709	28.0806	0.048588	0.001924	25.2545	-36.8847	-171.318	0.024084	0.921320	-0.097758	-0.099048	0.029053	25.2545	-0.098621	-1.702487	-0.017065	NaN
555	1.000000	0.962651	7.37048e+06	-49339.1	1005.82	-29759.4	0.000000	0.000000	6.963146	0.051094	NaN	0.000000	0.001587	0.001747	28.0807	0.134368	0.002021	66.4971	5.904426	-166.047	0.031502	0.961355	-0.057717	-0.059013	0.051094	66.4971	-0.058293	-0.160792	-0.317765	NaN
555	1.000000	1.002660	7.37048e+06	-49339.1	1005.82	-29759.4	0.000000	0.000000	7.003152	-0.015048	NaN	0.000000	0.001583	0.001770	28.0805	0.070426	0.002077	33.9103	60.5142	-166.376	-0.071930	1.001330	-0.017708	-0.019037	-0.015048	33.9103	-0.017375	-0.010752	1.399489	NaN
555	2.000000	1.032258	7.37048e+06	-49339.1	1005.82	-29759.4	0.000000	0.000000	7.033199	10.9018	NaN	0.000000	0.001571	0.001720	28.0805	10.8052	0.001764	6126.04	5.180248	-171.609	11.0944	1.032014	0.011890	0.011646	10.9018	6126.04	0.010556	0.009805	1111.82	56522.4
555	2.000000	1.042194	7.37048e+06	-49339.1	1005.82	-29759.4	0.000000	0.000000	7.043964	31.0414	NaN	0.000000	0.001619	0.001761	28.0813	20.6008	0.001588	12968.9	3.935300	-177.677	30.4733	1.041928	0.021826	0.021560	31.0414	12968.9	0.020031	0.022591	1374.04	78832.6
555	2.000000	1.052169	7.37048e+06	-49339.1	1005.82	-29759.4	0.000000	0.000000	7.054946	55.5555	NaN	0.000000	0.001526	0.001753	28.0817	31.4253	0.001797	17485.4	2.055620	-178.19	54.2984	1.051915	0.031801	0.031547	55.5555	17485.4	0.029418	0.039546	1404.84	80334
555	2.000000	1.062172	7.37048e+06	-49339.1	1005.82	-29759.4	0.000000	0.000000	7.066357	89.8069	NaN	0.000000	0.001560	0.001690	28.0815	40.806	0.001824	22370.7	4.917243	177.251	88.4262	1.061915	0.041804	0.041547	89.8069	22370.7	0.038793	0.060946	1473.54	82790.1
555	2.000000	1.072168	7.37048e+06	-49339.1	1005.82	-29759.4	0.000000	0.000000	7.077982	129.41	NaN	0.000000	0.001626	0.001706	28.0802	49.0278	0.001697	28898.8	2.862825	176.903	129.16	1.071898	0.051800	0.051530	129.41	28898.8	0.048442	0.087657	1476.32	89178.5
555	2.000000	1.082157	7.37048e+06	-49339.1	1005.82	-29759.4	0.000000	0.000000	7.090135	182.031	NaN	0.000000	0.001573	0.001740	28.0804	58.8506	0.001746	33709.2	9.522505	168.734	180.648	1.081834	0.061789	0.061466	182.031	33709.2	0.057739	0.117825	1544.92	89722.9
555	2.000000	1.092138	7.37048e+06	-49339.1	1005.82	-29759.4	0.000000	0.000000	7.102269	234.409	NaN	0.000000	0.001571	0.001752	28.0803	68.8108	0.001927	35711.2	9.160576	169.811	234.361	1.091823	0.071770	0.071455	234.409	35711.2	0.066847	0.151498	1547.27	83825.3
555	2.000000	1.102057	7.37048e+06	-49339.1	1005.82	-29759.4	0.000000	0.000000	7.114615	293.415	NaN	0.000000	0.001590	0.001734	28.08	76.7772	0.001737	44196.7	2.059092	174.579	289.295	1.101857	0.081689	0.081490	293.415	44196.7	0.076710	0.192450	1524.63	92045.7
555	2.000000	1.112052	7.37048e+06	-49339.1	1005.82	-29759.4	0.000000	0.000000	7.127545	364.807	NaN	0.000000	0.001624	0.001701	28.0813	85.8366	0.001827	46969.8	1.237283	175.288	362.026	1.111906	0.091684	0.091538	364.807	46969.8	0.085859	0.234517	1555.57	88614.4
555	2.000000	1.122133	7.37048e+06	-49339.1	1005.82	-29759.4	0.000000	0.000000	7.140775	441.386	NaN	0.000000	0.001587	0.001709	28.0815	96.2326	0.001789	53804	4.225616	171.056	443.017	1.121844	0.101765	0.101477	441.386	53804	0.095612	0.283613	1556.3	92305
555	2.000000	1.127044	7.37048e+06	-49339.1	1005.82	-29759.4	0.000000	0.000000	7.147037	474.232	NaN	0.000000	0.001562	0.001727	28.0819	98.9504	0.001701	58179	-0.619449	175.413	470.223	1.126857	0.106676	0.106489	474.232	58179	0.100563	0.310198	1528.81	95437.7