File: remote_trans/data/nanoindenter/0828-1/data/Data_2025-08-06,11h17m57s/2025-07-22_16-23-58_1_397.txt
2025-07-22, 16:23:58, 1
Index	Phase	Displacement	Time	Pos X	Pos Y	Pos Z	Rot A	Rot B	Piezo Z	Force A	Force B	Gripper	Voltage A	Voltage B	Temperature	Amplitude force	Amplitude pos	Stiffness	Phase shift	Phase excitation	Force A raw	Displacement raw	HMax	HMax raw	Real Force	Real Stiffness	Contact Depth	Area	Hardness	Reduced Mod.
[#]	[#]	[um]	[s]	[um]	[um]	[um]	[m°]	[m°]	[um]	[uN]	[uN]	[V]	[V]	[V]	[°C]	[uN]	[um]	[N/m]	[°]	[°]	[uN]	[um]	[um]	[um]	[uN]	[N/m]	[um]	[um^2]	[MPa]	[MPa]
397	1.000000	0.002469	7.36894e+06	-57239.1	1005.82	-29737.3	0.000000	0.000000	6.002795	0.011284	NaN	0.000000	0.001610	0.001727	28.0824	0.070052	0.001080	64.8693	-19.4714	-160.334	-0.022546	0.001188	-1.092935	-1.094216	0.011284	64.8693	-1.093066	-4.045512E+14	-2.789319E-17	NaN
397	1.000000	0.044443	7.36894e+06	-57239.1	1005.82	-29737.3	0.000000	0.000000	6.044768	-0.007935	NaN	0.000000	0.001573	0.001724	28.0824	0.126748	0.001934	65.5276	179.95	18.0469	-0.036130	0.043059	-1.050961	-1.052345	-0.007935	65.5276	-1.050871	-1.096771E+14	7.234633E-17	NaN
397	1.000000	0.086454	7.36894e+06	-57239.1	1005.82	-29737.3	0.000000	0.000000	6.086782	0.037233	NaN	0.000000	0.001582	0.001707	28.0819	0.028691	0.001934	14.8372	134.738	-162.912	0.019869	0.085119	-1.008950	-1.010285	0.037233	14.8372	-1.010832	-3.173799E+13	-1.173137E-15	NaN
397	1.000000	0.128442	7.36894e+06	-57239.1	1005.82	-29737.3	0.000000	0.000000	6.128770	0.042728	NaN	0.000000	0.001572	0.001706	28.081	0.042108	0.001969	21.3838	82.239	12.2774	0.049167	0.126993	-0.966962	-0.968411	0.042728	21.3838	-0.968460	-8.529313E+12	-5.009569E-15	NaN
397	1.000000	0.170470	7.36894e+06	-57239.1	1005.82	-29737.3	0.000000	0.000000	6.170798	0.048285	NaN	0.000000	0.001634	0.001725	28.0809	0.132173	0.001943	68.0197	-98.2399	-166.007	0.061267	0.169125	-0.924934	-0.926279	0.048285	68.0197	-0.925467	-2.243911E+12	-2.151845E-14	NaN
397	1.000000	0.212481	7.36894e+06	-57239.1	1005.82	-29737.3	0.000000	0.000000	6.212807	0.005327	NaN	0.000000	0.001665	0.001715	28.0811	0.085681	0.002059	41.6219	-74.6376	17.2851	0.006596	0.211100	-0.882923	-0.884304	0.005327	41.6219	-0.883019	-5.991511E+11	-8.890084E-15	NaN
397	1.000000	0.254488	7.36895e+06	-57239.1	1005.82	-29737.3	0.000000	0.000000	6.254814	0.003751	NaN	0.000000	0.001641	0.001700	28.0818	0.092849	0.001846	50.3044	52.6574	-168.177	0.055227	0.253219	-0.840916	-0.842185	0.003751	50.3044	-0.840972	-1.616077E+11	-2.320963E-14	NaN
397	1.000000	0.296522	7.36895e+06	-57239.1	1005.82	-29737.3	0.000000	0.000000	6.296849	0.031549	NaN	0.000000	0.001584	0.001664	28.0817	0.072913	0.002033	35.8734	169.996	10.2305	-0.029547	0.295173	-0.798882	-0.800231	0.031549	35.8734	-0.799542	-4.432398E+10	-7.117905E-13	NaN
397	1.000000	0.338555	7.36895e+06	-57239.1	1005.82	-29737.3	0.000000	0.000000	6.338880	-0.007998	NaN	0.000000	0.001546	0.001652	28.0817	0.071968	0.002073	34.7225	-29.5809	-167.113	0.067344	0.337278	-0.756849	-0.758126	-0.007998	34.7225	-0.756676	-1.158999E+10	6.900714E-13	NaN
397	1.000000	0.380540	7.36895e+06	-57239.1	1005.82	-29737.3	0.000000	0.000000	6.380869	0.079499	NaN	0.000000	0.001569	0.001668	28.0807	0.097967	0.001926	50.8649	-85.9942	12.7234	0.033293	0.379236	-0.714864	-0.716168	0.079499	50.8649	-0.716036	-3.239001E+9	-2.454419E-11	NaN
397	1.000000	0.422603	7.36895e+06	-57239.1	1005.82	-29737.3	0.000000	0.000000	6.422929	0.021628	NaN	0.000000	0.001589	0.001677	28.081	0.033155	0.001995	16.6194	133.447	-163.904	-0.000387	0.421255	-0.672801	-0.674149	0.021628	16.6194	-0.673777	-8.572035E+8	-2.523137E-11	NaN
397	1.000000	0.464596	7.36895e+06	-57239.1	1005.82	-29737.3	0.000000	0.000000	6.464921	2.286451E-5	NaN	0.000000	0.001564	0.001667	28.0807	0.086081	0.002080	41.3868	15.1901	13.9236	-0.029643	0.463239	-0.630808	-0.632165	2.286451E-5	41.3868	-0.630809	-2.208668E+8	-1.035217E-13	NaN
397	1.000000	0.506627	7.36895e+06	-57239.1	1005.82	-29737.3	0.000000	0.000000	6.506953	0.014673	NaN	0.000000	0.001579	0.001677	28.0807	0.054892	0.001944	28.2377	67.9112	-164.336	0.018544	0.505363	-0.588777	-0.590041	0.014673	28.2377	-0.589167	-5.904471E+7	-2.485082E-10	NaN
397	1.000000	0.548648	7.36895e+06	-57239.1	1005.82	-29737.3	0.000000	0.000000	6.548975	0.024915	NaN	0.000000	0.001624	0.001671	28.082	0.023302	0.002051	11.3623	75.2761	17.5988	0.031286	0.547203	-0.546756	-0.548201	0.024915	11.3623	-0.548401	-1.613633E+7	-1.544008E-9	NaN
397	1.000000	0.590637	7.36895e+06	-57239.1	1005.82	-29737.3	0.000000	0.000000	6.590964	0.027997	NaN	0.000000	0.001593	0.001665	28.0821	0.029379	0.002158	13.6149	-99.3852	-167.341	0.008256	0.589382	-0.504767	-0.506022	0.027997	13.6149	-0.506309	-4.19754e+06	-6.669845E-9	NaN
397	1.000000	0.632675	7.36895e+06	-57239.1	1005.82	-29737.3	0.000000	0.000000	6.633003	0.045344	NaN	0.000000	0.001597	0.001680	28.0824	0.088188	0.002005	43.9872	-46.0459	17.9421	0.099403	0.631306	-0.462729	-0.464098	0.045344	43.9872	-0.463502	-1.05734e+06	-4.288533E-8	NaN
397	1.000000	0.674691	7.36895e+06	-57239.1	1005.82	-29737.3	0.000000	0.000000	6.675016	-0.022486	NaN	0.000000	0.001611	0.001719	28.0811	0.067838	0.001994	34.0246	93.3126	-164.086	-0.059799	0.673351	-0.420713	-0.422054	-0.022486	34.0246	-0.420217	-259117	8.677880E-8	NaN
397	1.000000	0.716672	7.36895e+06	-57239.1	1005.82	-29737.3	0.000000	0.000000	6.716999	0.011067	NaN	0.000000	0.001606	0.001694	28.0809	0.031882	0.001913	16.6666	-153.619	17.1009	-0.011671	0.715316	-0.378732	-0.380089	0.011067	16.6666	-0.379230	-67426.9	-1.641276E-7	NaN
397	1.000000	0.758714	7.36895e+06	-57239.1	1005.82	-29737.3	0.000000	0.000000	6.759042	0.048620	NaN	0.000000	0.001647	0.001685	28.0809	0.145805	0.001916	76.1052	106.343	-165.295	-0.045108	0.757436	-0.336690	-0.337968	0.048620	76.1052	-0.337169	-16606.1	-2.927823E-6	NaN
397	1.000000	0.800731	7.36895e+06	-57239.1	1005.82	-29737.4	0.000000	0.000000	6.801059	0.066537	NaN	0.000000	0.001600	0.001720	28.0823	0.023816	0.002082	11.4397	-110.4	10.9163	0.042000	0.799380	-0.294674	-0.296024	0.066537	11.4397	-0.299036	-4552.79	-1.461452E-5	NaN
397	1.000000	0.842736	7.36895e+06	-57239.1	1005.82	-29737.4	0.000000	0.000000	6.843063	0.010861	NaN	0.000000	0.001598	0.001758	28.0826	0.098766	0.002063	47.8799	-67.6436	-166.282	-0.007197	0.841416	-0.252668	-0.253988	0.010861	47.8799	-0.252838	-909.487	-1.194211E-5	NaN
397	1.000000	0.884807	7.36895e+06	-57239.1	1005.82	-29737.4	0.000000	0.000000	6.885131	-0.025405	NaN	0.000000	0.001625	0.001721	28.0825	0.084820	0.002025	41.8875	134.886	17.3853	0.094764	0.883438	-0.210597	-0.211966	-0.025405	41.8875	-0.210143	-192.809	0.000132	NaN
397	1.000000	0.926786	7.36895e+06	-57239.1	1005.82	-29737.4	0.000000	0.000000	6.927112	0.010030	NaN	0.000000	0.001631	0.001747	28.0809	0.018965	0.002013	9.420468	82.8397	-166.571	0.045425	0.925489	-0.168618	-0.169915	0.010030	9.420468	-0.169417	-40.1306	-0.000250	NaN
397	1.000000	0.968791	7.36895e+06	-57239.1	1005.82	-29737.4	0.000000	0.000000	6.969116	-0.007795	NaN	0.000000	0.001612	0.001730	28.0807	0.034125	0.001859	18.36	11.1906	13.9187	-0.007965	0.967482	-0.126613	-0.127922	-0.007795	18.36	-0.126295	-6.449910	0.001209	NaN
397	1.000000	1.010786	7.36895e+06	-57239.1	1005.82	-29737.4	0.000000	0.000000	7.011113	0.041222	NaN	0.000000	0.001633	0.001689	28.0805	0.045620	0.001973	23.1249	-72.5376	-163.618	-0.010276	1.009491	-0.084618	-0.085913	0.041222	23.1249	-0.085955	-0.866422	-0.047577	NaN
397	1.000000	1.052827	7.36895e+06	-57239.1	1005.82	-29737.4	0.000000	0.000000	7.053151	-0.055193	NaN	0.000000	0.001604	0.001765	28.0808	0.049027	0.001957	25.0532	-155.861	15.1081	0.002366	1.051424	-0.042577	-0.043980	-0.055193	25.0532	-0.040925	-0.048247	1.143969	NaN
397	1.000000	1.094866	7.36895e+06	-57239.1	1005.82	-29737.4	0.000000	0.000000	7.095196	0.087165	NaN	0.000000	0.001608	0.001696	28.0822	0.215222	0.001933	111.32	-6.276628	-161.533	0.061506	1.093531	-0.000538	-0.001873	0.087165	111.32	-0.001125	-0.000823	-105.912	NaN
397	2.000000	1.111890	7.36895e+06	-57239.1	1005.82	-29737.4	0.000000	0.000000	7.113194	23.7681	NaN	0.000000	0.001595	0.001702	28.0822	17.9891	0.001843	9762.62	5.377959	6.474181	22.0029	1.111543	0.016486	0.016139	23.7681	9762.62	0.014660	0.014835	1602.13	73230.3
397	2.000000	1.122341	7.36895e+06	-57239.1	1005.82	-29737.4	0.000000	0.000000	7.124752	50.6672	NaN	0.000000	0.001718	0.001712	28.0823	28.641	0.001726	16594.8	5.980818	-179.169	51.0164	1.122028	0.026937	0.026624	50.6672	16594.8	0.024647	0.030377	1667.95	86990.6
397	2.000000	1.132836	7.36895e+06	-57239.1	1005.82	-29737.4	0.000000	0.000000	7.136625	84.1694	NaN	0.000000	0.001589	0.001744	28.081	38.3973	0.001563	24563.5	3.558955	-1.442816	83.4442	1.132496	0.037432	0.037092	84.1694	24563.5	0.034862	0.051426	1636.71	98963.1
397	2.000000	1.143278	7.36895e+06	-57239.1	1005.82	-29737.4	0.000000	0.000000	7.149062	132.648	NaN	0.000000	0.001577	0.001692	28.0808	48.609	0.001633	29771.9	6.418854	175.088	130.324	1.142898	0.047874	0.047494	132.648	29771.9	0.044533	0.076266	1739.28	98495
397	2.000000	1.153792	7.36895e+06	-57239.1	1005.82	-29737.4	0.000000	0.000000	7.161431	177.765	NaN	0.000000	0.001568	0.001707	28.0806	59.5469	0.001727	34489.4	-0.120092	0.123298	176.587	1.153583	0.058388	0.058179	177.765	34489.4	0.054522	0.106901	1662.89	96375.8
397	2.000000	1.164242	7.36895e+06	-57239.1	1005.82	-29737.4	0.000000	0.000000	7.174662	245.341	NaN	0.000000	0.001603	0.001711	28.0823	70.3047	0.001787	39337.2	5.448502	174.209	240.721	1.163984	0.068837	0.068580	245.341	39337.2	0.064160	0.141146	1738.21	95662.7
397	2.000000	1.174805	7.36895e+06	-57239.1	1005.82	-29737.4	0.000000	0.000000	7.187925	310.959	NaN	0.000000	0.001622	0.001702	28.0822	81.0703	0.001678	48320.6	4.408243	-7.442267	309.891	1.174531	0.079401	0.079127	310.959	48320.6	0.074574	0.183192	1697.45	103146
397	2.000000	1.185190	7.36895e+06	-57239.1	1005.82	-29737.4	0.000000	0.000000	7.201743	394.393	NaN	0.000000	0.001658	0.001693	28.0823	91.9179	0.001743	52732.7	5.212802	171.709	392.607	1.185006	0.089786	0.089602	394.393	52732.7	0.084177	0.226490	1741.33	101235
397	2.000000	1.195733	7.36895e+06	-57239.1	1005.82	-29737.4	0.000000	0.000000	7.215671	476.662	NaN	0.000000	0.001580	0.001693	28.0805	102.54	0.001825	56186.1	8.194703	-11.0067	473.807	1.195255	0.100329	0.099851	476.662	56186.1	0.093966	0.275023	1733.17	97885.4
397	2.000000	1.202192	7.36895e+06	-57239.1	1005.82	-29737.4	0.000000	0.000000	7.224215	527.344	NaN	0.000000	0.001595	0.001694	28.0806	109.101	0.001852	58913.3	8.378502	167.786	524.16	1.201836	0.106788	0.106432	527.344	58913.3	0.100075	0.307526	1714.8	97061.2