File: remote_trans/data/nanoindenter/0828-1/data/Data_2025-08-06,11h17m57s/2025-07-22_16-23-58_1_1143.txt
2025-07-22, 16:23:58, 1
Index	Phase	Displacement	Time	Pos X	Pos Y	Pos Z	Rot A	Rot B	Piezo Z	Force A	Force B	Gripper	Voltage A	Voltage B	Temperature	Amplitude force	Amplitude pos	Stiffness	Phase shift	Phase excitation	Force A raw	Displacement raw	HMax	HMax raw	Real Force	Real Stiffness	Contact Depth	Area	Hardness	Reduced Mod.
[#]	[#]	[um]	[s]	[um]	[um]	[um]	[m°]	[m°]	[um]	[uN]	[uN]	[V]	[V]	[V]	[°C]	[uN]	[um]	[N/m]	[°]	[°]	[uN]	[um]	[um]	[um]	[uN]	[N/m]	[um]	[um^2]	[MPa]	[MPa]
1143	1.000000	0.002131	7.37624e+06	-57289.1	1055.82	-29737.2	0.000000	0.000000	6.002813	-0.013599	NaN	0.000000	0.001604	0.001712	28.0821	0.005597	0.001023	5.473754	99.7188	-163.863	-0.018222	0.000846	-0.998481	-0.999766	-0.013599	5.473754	-0.996618	-2.042807E+13	6.657005E-16	NaN
1143	1.000000	0.040083	7.37624e+06	-57289.1	1055.82	-29737.2	0.000000	0.000000	6.040764	-0.036795	NaN	0.000000	0.001636	0.001748	28.082	0.068720	0.002041	33.6728	63.9465	15.4753	-0.014579	0.038627	-0.960528	-0.961984	-0.036795	33.6728	-0.959709	-6.500447E+12	5.660374E-15	NaN
1143	1.000000	0.078102	7.37624e+06	-57289.1	1055.82	-29737.2	0.000000	0.000000	6.078785	-0.004827	NaN	0.000000	0.001601	0.001759	28.0819	0.045319	0.002081	21.7812	-116.594	-168.009	-0.115483	0.076777	-0.922509	-0.923834	-0.004827	21.7812	-0.922343	-2.036286E+12	2.370624E-15	NaN
1143	1.000000	0.116085	7.37624e+06	-57289.1	1055.82	-29737.2	0.000000	0.000000	6.116769	0.029847	NaN	0.000000	0.001571	0.001732	28.0816	0.072447	0.002147	33.741	-59.5966	13.6737	0.071176	0.114700	-0.884527	-0.885912	0.029847	33.741	-0.885190	-6.410527E+11	-4.655870E-14	NaN
1143	1.000000	0.154103	7.37624e+06	-57289.1	1055.82	-29737.2	0.000000	0.000000	6.154782	-0.084891	NaN	0.000000	0.001573	0.001712	28.0806	0.071556	0.001963	36.4539	113.399	-169.759	-0.110347	0.152795	-0.846509	-0.847817	-0.084891	36.4539	-0.844762	-1.818886E+11	4.667190E-13	NaN
1143	1.000000	0.192136	7.37624e+06	-57289.1	1055.82	-29737.2	0.000000	0.000000	6.192818	-0.026168	NaN	0.000000	0.001576	0.001742	28.0807	0.080418	0.002055	39.1401	170.26	10.9167	-0.037974	0.190759	-0.808475	-0.809853	-0.026168	39.1401	-0.807974	-5.768732E+10	4.536266E-13	NaN
1143	1.000000	0.230142	7.37624e+06	-57289.1	1055.82	-29737.2	0.000000	0.000000	6.230822	-0.069592	NaN	0.000000	0.001590	0.001712	28.0804	0.144926	0.002001	72.4108	-93.6084	-166.074	-0.010354	0.228814	-0.770470	-0.771798	-0.069592	72.4108	-0.769749	-1.745386E+10	3.987200E-12	NaN
1143	1.000000	0.268165	7.37624e+06	-57289.1	1055.82	-29737.2	0.000000	0.000000	6.268846	-0.037098	NaN	0.000000	0.001573	0.001736	28.0816	0.055531	0.001985	27.9768	86.503	10.8003	-0.009263	0.266781	-0.732447	-0.733830	-0.037098	27.9768	-0.731452	-5.255331E+9	7.059120E-12	NaN
1143	1.000000	0.306141	7.37624e+06	-57289.1	1055.82	-29737.2	0.000000	0.000000	6.306822	-0.043733	NaN	0.000000	0.001518	0.001765	28.0815	0.155018	0.002045	75.8113	-176.595	-165.201	-0.141607	0.304874	-0.694470	-0.695738	-0.043733	75.8113	-0.694037	-1.622135E+9	2.696043E-11	NaN
1143	1.000000	0.344184	7.37624e+06	-57289.1	1055.82	-29737.2	0.000000	0.000000	6.344866	-0.019715	NaN	0.000000	0.001602	0.001787	28.0817	0.021985	0.002074	10.6007	19.6534	13.6777	-0.023512	0.342862	-0.656427	-0.657749	-0.019715	10.6007	-0.655032	-4.746910E+8	4.153294E-11	NaN
1143	1.000000	0.382187	7.37624e+06	-57289.1	1055.82	-29737.2	0.000000	0.000000	6.382869	-0.029014	NaN	0.000000	0.001609	0.001750	28.0815	0.061818	0.002038	30.3384	157.783	-166.931	-0.084072	0.380874	-0.618425	-0.619737	-0.029014	30.3384	-0.617707	-1.459205E+8	1.988372E-10	NaN
1143	1.000000	0.420197	7.37624e+06	-57289.1	1055.82	-29737.2	0.000000	0.000000	6.420880	-0.000128	NaN	0.000000	0.001620	0.001761	28.0804	0.043733	0.001962	22.288	146.963	12.4257	-0.020836	0.418878	-0.580415	-0.581733	-0.000128	22.288	-0.580410	-4.470827E+7	2.856586E-12	NaN
1143	1.000000	0.458226	7.37624e+06	-57289.1	1055.82	-29737.2	0.000000	0.000000	6.458909	0.002615	NaN	0.000000	0.001598	0.001678	28.0802	0.131879	0.002070	63.7059	174.908	-168.091	-0.016307	0.456930	-0.542385	-0.543682	0.002615	63.7059	-0.542416	-1.333100E+7	-1.961487E-10	NaN
1143	1.000000	0.496243	7.37624e+06	-57289.1	1055.82	-29737.2	0.000000	0.000000	6.496925	0.000919	NaN	0.000000	0.001603	0.001725	28.0803	0.030258	0.002040	14.8298	28.2472	11.9996	-0.025976	0.494913	-0.504369	-0.505699	0.000919	14.8298	-0.504415	-3.94999e+06	-2.325393E-10	NaN
1143	1.000000	0.534252	7.37624e+06	-57289.1	1055.82	-29737.2	0.000000	0.000000	6.534935	0.008547	NaN	0.000000	0.001590	0.001721	28.0803	0.095220	0.002000	47.6114	-98.7017	-164.605	-0.010874	0.532936	-0.466360	-0.467675	0.008547	47.6114	-0.466495	-1.16474e+06	-7.337905E-9	NaN
1143	1.000000	0.572299	7.37624e+06	-57289.1	1055.82	-29737.2	0.000000	0.000000	6.572981	-0.029368	NaN	0.000000	0.001578	0.001727	28.0815	0.154455	0.001935	79.8364	-139.751	14.9679	-0.011187	0.570888	-0.428312	-0.429723	-0.029368	79.8364	-0.428036	-334406	8.782172E-8	NaN
1143	1.000000	0.610282	7.37624e+06	-57289.1	1055.82	-29737.2	0.000000	0.000000	6.610963	-0.039362	NaN	0.000000	0.001520	0.001718	28.0813	0.075143	0.001950	38.525	-153.978	-165.971	-0.092879	0.609002	-0.390330	-0.391609	-0.039362	38.525	-0.389563	-94824.5	4.151050E-7	NaN
1143	1.000000	0.648298	7.37624e+06	-57289.1	1055.82	-29737.2	0.000000	0.000000	6.648982	0.040826	NaN	0.000000	0.001550	0.001749	28.0817	0.041702	0.001904	21.9062	87.2956	10.7609	0.046922	0.646988	-0.352314	-0.353623	0.040826	21.9062	-0.353712	-28895.5	-1.412893E-6	NaN
1143	1.000000	0.686330	7.37624e+06	-57289.1	1055.82	-29737.2	0.000000	0.000000	6.687013	-0.000898	NaN	0.000000	0.001588	0.001739	28.0804	0.044491	0.001943	22.9002	97.3818	-164.548	0.034925	0.685068	-0.314282	-0.315543	-0.000898	22.9002	-0.314252	-7654.4	1.172591E-7	NaN
1143	1.000000	0.724343	7.37624e+06	-57289.1	1055.82	-29737.2	0.000000	0.000000	6.725025	-0.013978	NaN	0.000000	0.001550	0.001731	28.0802	0.056180	0.001990	28.226	28.48	16.8478	-0.122951	0.723006	-0.276269	-0.277606	-0.013978	28.226	-0.275897	-2046.36	6.830850E-6	NaN
1143	1.000000	0.762347	7.37624e+06	-57289.1	1055.82	-29737.2	0.000000	0.000000	6.763028	-0.024566	NaN	0.000000	0.001583	0.001721	28.0802	0.014016	0.001941	7.222116	-90.4595	-165.855	-0.037055	0.761025	-0.238265	-0.239586	-0.024566	7.222116	-0.235714	-492.554	4.987569E-5	NaN
1143	1.000000	0.800393	7.37624e+06	-57289.1	1055.82	-29737.2	0.000000	0.000000	6.801075	-0.034930	NaN	0.000000	0.001551	0.001751	28.0803	0.061886	0.002005	30.8736	-121.939	11.6136	-0.016830	0.799016	-0.200218	-0.201595	-0.034930	30.8736	-0.199370	-128.628	0.000272	NaN
1143	1.000000	0.838424	7.37624e+06	-57289.1	1055.82	-29737.2	0.000000	0.000000	6.839106	-0.022235	NaN	0.000000	0.001548	0.001779	28.0813	0.034679	0.001923	18.0345	-44.5966	-165.445	-0.030951	0.837064	-0.162188	-0.163547	-0.022235	18.0345	-0.161263	-28.8667	0.000770	NaN
1143	1.000000	0.876398	7.37624e+06	-57289.1	1055.82	-29737.2	0.000000	0.000000	6.877080	-0.008643	NaN	0.000000	0.001560	0.001745	28.0813	0.030369	0.001964	15.4636	67.1326	13.342	-0.040763	0.875040	-0.124214	-0.125572	-0.008643	15.4636	-0.123795	-5.755600	0.001502	NaN
1143	1.000000	0.914422	7.37624e+06	-57289.1	1055.82	-29737.2	0.000000	0.000000	6.915102	-0.059755	NaN	0.000000	0.001544	0.001723	28.0815	0.036993	0.001920	19.2697	-160.7	-163.694	0.008820	0.913084	-0.086190	-0.087527	-0.059755	19.2697	-0.083864	-0.771056	0.077498	NaN
1143	1.000000	0.952453	7.37624e+06	-57289.1	1055.82	-29737.2	0.000000	0.000000	6.953134	-0.021399	NaN	0.000000	0.001542	0.001710	28.0802	0.054619	0.002025	26.9746	-87.1178	14.7478	-0.087784	0.951057	-0.048159	-0.049554	-0.021399	26.9746	-0.047564	-0.076963	0.278043	NaN
1143	1.000000	0.990460	7.37624e+06	-57289.1	1055.82	-29737.2	0.000000	0.000000	6.991141	-0.039602	NaN	0.000000	0.001570	0.001766	28.0801	0.038793	0.002052	18.9035	-5.607419	-162.225	-0.119242	0.989090	-0.010151	-0.011521	-0.039602	18.9035	-0.008580	-0.005570	7.109875	NaN
1143	2.000000	1.013559	7.37624e+06	-57289.1	1055.82	-29737.2	0.000000	0.000000	7.014834	14.3941	NaN	0.000000	0.001575	0.001714	28.0799	13.8068	0.001699	8126.27	7.887541	3.859153	14.0254	1.013215	0.012948	0.012603	14.3941	8126.27	0.011619	0.011037	1304.16	70670.2
1143	2.000000	1.023043	7.37624e+06	-57289.1	1055.82	-29737.2	0.000000	0.000000	7.024893	28.3682	NaN	0.000000	0.001546	0.001724	28.0802	22.9218	0.001727	13274.8	5.765516	-178.445	28.825	1.022752	0.022432	0.022141	28.3682	13274.8	0.020829	0.023862	1188.86	78514.8
1143	2.000000	1.032478	7.37624e+06	-57289.1	1055.82	-29737.2	0.000000	0.000000	7.035115	47.483	NaN	0.000000	0.001547	0.001730	28.0813	31.5658	0.001744	18099.9	6.281355	-2.113053	44.5525	1.032144	0.031867	0.031532	47.483	18099.9	0.029899	0.040535	1171.41	82136.3
1143	2.000000	1.041961	7.37624e+06	-57289.1	1055.82	-29737.2	0.000000	0.000000	7.045828	77.379	NaN	0.000000	0.001549	0.001716	28.0813	40.0391	0.001740	23013.4	3.445916	178.127	76.4712	1.041647	0.041350	0.041036	77.379	23013.4	0.038828	0.061034	1267.79	85107.3
1143	2.000000	1.051507	7.37624e+06	-57289.1	1055.82	-29737.2	0.000000	0.000000	7.056928	115.165	NaN	0.000000	0.001580	0.001707	28.0815	50.6609	0.001828	27712.9	4.496705	-3.508058	115.836	1.051095	0.050896	0.050484	115.165	27712.9	0.047779	0.085672	1344.26	86504.1
1143	2.000000	1.060864	7.37624e+06	-57289.1	1055.82	-29737.2	0.000000	0.000000	7.068300	164.128	NaN	0.000000	0.001608	0.001745	28.0811	59.0142	0.001757	33593	1.106297	177.455	161.064	1.060647	0.060253	0.060036	164.128	33593	0.056588	0.113860	1441.5	90957
1143	2.000000	1.070411	7.37624e+06	-57289.1	1055.82	-29737.2	0.000000	0.000000	7.079630	207.464	NaN	0.000000	0.001595	0.001763	28.0807	68.8987	0.001845	37346.2	5.305682	-7.718108	203.588	1.070112	0.069800	0.069501	207.464	37346.2	0.065634	0.146781	1413.42	89060.5
1143	2.000000	1.080012	7.37624e+06	-57289.1	1055.82	-29737.2	0.000000	0.000000	7.091643	266.113	NaN	0.000000	0.001568	0.001780	28.0805	78.0317	0.001832	42605.3	5.996006	171.205	270.819	1.079647	0.079400	0.079035	266.113	42605.3	0.074716	0.183797	1447.86	90796.1
1143	2.000000	1.089384	7.37624e+06	-57289.1	1055.82	-29737.2	0.000000	0.000000	7.103524	327.076	NaN	0.000000	0.001554	0.001775	28.0804	84.9346	0.001781	47677.2	7.828906	-11.0525	320.418	1.089052	0.088772	0.088441	327.076	47677.2	0.083627	0.223895	1460.84	92058.1
1143	2.000000	1.098935	7.37624e+06	-57289.1	1055.82	-29737.2	0.000000	0.000000	7.115776	392.711	NaN	0.000000	0.001614	0.001744	28.0816	93.0523	0.001826	50949.2	4.149986	171.648	392.396	1.098563	0.098324	0.097952	392.711	50949.2	0.092543	0.267692	1467.03	89969.1
1143	2.000000	1.106958	7.37624e+06	-57289.1	1055.82	-29737.2	0.000000	0.000000	7.125570	435.771	NaN	0.000000	0.001602	0.001689	28.0816	102.191	0.001830	55855	3.434081	171.33	438.851	1.106820	0.106346	0.106209	435.771	55855	0.100495	0.309823	1406.51	91680.7