File: remote_trans/data/nanoindenter/0828-1/data/Data_2025-08-06,11h17m57s/2025-07-22_16-23-58_1_295.txt
2025-07-22, 16:23:58, 1
Index	Phase	Displacement	Time	Pos X	Pos Y	Pos Z	Rot A	Rot B	Piezo Z	Force A	Force B	Gripper	Voltage A	Voltage B	Temperature	Amplitude force	Amplitude pos	Stiffness	Phase shift	Phase excitation	Force A raw	Displacement raw	HMax	HMax raw	Real Force	Real Stiffness	Contact Depth	Area	Hardness	Reduced Mod.
[#]	[#]	[um]	[s]	[um]	[um]	[um]	[m°]	[m°]	[um]	[uN]	[uN]	[V]	[V]	[V]	[°C]	[uN]	[um]	[N/m]	[°]	[°]	[uN]	[um]	[um]	[um]	[uN]	[N/m]	[um]	[um^2]	[MPa]	[MPa]
295	1.000000	0.002565	7.36795e+06	-53389.1	955.818	-29746.7	0.000000	0.000000	6.002799	-0.043329	NaN	0.000000	0.001675	0.001618	28.08	0.044896	0.000930	48.2736	69.0487	-164.991	0.001871	0.001317	-1.122253	-1.123501	-0.043329	48.2736	-1.121580	-9.764852E+14	4.437192E-17	NaN
295	1.000000	0.044505	7.36795e+06	-53389.1	955.818	-29746.7	0.000000	0.000000	6.044741	-0.021384	NaN	0.000000	0.001643	0.001628	28.0797	0.158295	0.001905	83.0905	-102.355	18.5783	0.018330	0.043172	-1.080312	-1.081646	-0.021384	83.0905	-1.080119	-2.710924E+14	7.888138E-17	NaN
295	1.000000	0.086539	7.36795e+06	-53389.1	955.819	-29746.7	0.000000	0.000000	6.086775	-0.012709	NaN	0.000000	0.001689	0.001697	28.08	0.047228	0.001939	24.3523	89.8425	-164.352	0.011267	0.085153	-1.038279	-1.039665	-0.012709	24.3523	-1.037887	-7.337702E+13	1.732043E-16	NaN
295	1.000000	0.128572	7.36795e+06	-53389.1	955.818	-29746.7	0.000000	0.000000	6.128811	0.054577	NaN	0.000000	0.001660	0.001669	28.0813	0.066528	0.002058	32.3313	-118.212	14.2497	0.068683	0.127182	-0.996246	-0.997635	0.054577	32.3313	-0.997512	-2.100221E+13	-2.598653E-15	NaN
295	1.000000	0.170562	7.36795e+06	-53389.1	955.818	-29746.7	0.000000	0.000000	6.170798	-0.027182	NaN	0.000000	0.001643	0.001666	28.0812	0.031174	0.002145	14.5344	143.103	-165.315	-0.018213	0.169227	-0.954255	-0.955591	-0.027182	14.5344	-0.952853	-5.254116E+12	5.173406E-15	NaN
295	1.000000	0.212580	7.36795e+06	-53389.1	955.818	-29746.7	0.000000	0.000000	6.212815	-0.034960	NaN	0.000000	0.001651	0.001660	28.081	0.047969	0.002042	23.4968	152.411	14.3622	-0.027634	0.211247	-0.912238	-0.913570	-0.034960	23.4968	-0.911122	-1.436539E+12	2.433631E-14	NaN
295	1.000000	0.254560	7.36795e+06	-53389.1	955.819	-29746.7	0.000000	0.000000	6.254797	0.032228	NaN	0.000000	0.001728	0.001677	28.0798	0.071047	0.002010	35.3382	-79.877	-160.571	-0.019510	0.253292	-0.870258	-0.871525	0.032228	35.3382	-0.870942	-4.113270E+11	-7.835119E-14	NaN
295	1.000000	0.296618	7.36795e+06	-53389.1	955.819	-29746.6	0.000000	0.000000	6.296856	0.027147	NaN	0.000000	0.001696	0.001652	28.0799	0.109488	0.002038	53.7299	143.7	15.3418	0.029301	0.295271	-0.828199	-0.829546	0.027147	53.7299	-0.828578	-1.097772E+11	-2.472894E-13	NaN
295	1.000000	0.338612	7.36795e+06	-53389.1	955.818	-29746.6	0.000000	0.000000	6.338847	-0.039601	NaN	0.000000	0.001739	0.001691	28.0798	0.034756	0.002057	16.8961	-129.006	-165.991	-0.009597	0.337317	-0.786205	-0.787501	-0.039601	16.8961	-0.784448	-2.764795E+10	1.432324E-12	NaN
295	1.000000	0.380661	7.36795e+06	-53389.1	955.818	-29746.6	0.000000	0.000000	6.380896	-0.034334	NaN	0.000000	0.001691	0.001666	28.0805	0.092181	0.002016	45.7153	52.8907	15.8075	-0.012262	0.379300	-0.744157	-0.745517	-0.034334	45.7153	-0.743593	-7.691233E+9	4.464029E-12	NaN
295	1.000000	0.422666	7.36795e+06	-53389.1	955.819	-29746.6	0.000000	0.000000	6.422900	-0.057950	NaN	0.000000	0.001753	0.001682	28.0806	0.037799	0.001964	19.2488	-110.155	-166.352	-0.092860	0.421391	-0.702152	-0.703426	-0.057950	19.2488	-0.699894	-1.950216E+9	2.971461E-11	NaN
295	1.000000	0.464695	7.36795e+06	-53389.1	955.818	-29746.6	0.000000	0.000000	6.464932	0.003135	NaN	0.000000	0.001736	0.001655	28.0806	0.086273	0.002028	42.5453	-175.35	14.6917	0.003354	0.463319	-0.660123	-0.661498	0.003135	42.5453	-0.660178	-5.583467E+8	-5.615127E-12	NaN
295	1.000000	0.506724	7.36795e+06	-53389.1	955.817	-29746.6	0.000000	0.000000	6.506963	0.044343	NaN	0.000000	0.001770	0.001688	28.0809	0.085569	0.001930	44.3268	107.658	-168.659	-0.008042	0.505419	-0.618093	-0.619398	0.044343	44.3268	-0.618844	-1.512648E+8	-2.931490E-10	NaN
295	1.000000	0.548729	7.36795e+06	-53389.1	955.819	-29746.6	0.000000	0.000000	6.548965	-0.029623	NaN	0.000000	0.001755	0.001687	28.0794	0.061341	0.001966	31.1943	-165.84	17.2475	0.044792	0.547389	-0.576088	-0.577428	-0.029623	31.1943	-0.575376	-3.809711E+7	7.775756E-10	NaN
295	1.000000	0.590770	7.36795e+06	-53389.1	955.819	-29746.6	0.000000	0.000000	6.591007	0.001692	NaN	0.000000	0.001725	0.001665	28.0794	0.042677	0.001994	21.4062	13.2752	-164.969	-0.007149	0.589441	-0.534047	-0.535377	0.001692	21.4062	-0.534107	-1.022328E+7	-1.655125E-10	NaN
295	1.000000	0.632727	7.36795e+06	-53389.1	955.819	-29746.6	0.000000	0.000000	6.632962	-0.037350	NaN	0.000000	0.001689	0.001665	28.0795	0.028977	0.001966	14.7357	115.216	14.3477	0.066579	0.631366	-0.492091	-0.493451	-0.037350	14.7357	-0.490190	-2.50059e+06	1.493660E-8	NaN
295	1.000000	0.674768	7.36795e+06	-53389.1	955.817	-29746.6	0.000000	0.000000	6.675006	0.038248	NaN	0.000000	0.001687	0.001693	28.0809	0.032172	0.002072	15.5307	-100.033	-164.645	-0.008914	0.673442	-0.450050	-0.451375	0.038248	15.5307	-0.451897	-726187	-5.266999E-8	NaN
295	1.000000	0.716799	7.36795e+06	-53389.1	955.818	-29746.6	0.000000	0.000000	6.717037	0.047856	NaN	0.000000	0.001660	0.001652	28.0807	0.064675	0.002016	32.0771	-94.7308	16.0651	-0.025926	0.715431	-0.408019	-0.409387	0.047856	32.0771	-0.409138	-180360	-2.653351E-7	NaN
295	1.000000	0.758826	7.36795e+06	-53389.1	955.818	-29746.6	0.000000	0.000000	6.759065	0.046199	NaN	0.000000	0.001638	0.001648	28.0806	0.046100	0.001992	23.1415	179.385	-163.099	0.007975	0.757501	-0.365991	-0.367317	0.046199	23.1415	-0.367488	-45702.4	-1.010863E-6	NaN
295	1.000000	0.800868	7.36795e+06	-53389.1	955.819	-29746.6	0.000000	0.000000	6.801104	-0.000920	NaN	0.000000	0.001676	0.001691	28.0792	0.067086	0.002066	32.4732	-97.0773	14.7059	0.047200	0.799481	-0.323950	-0.325336	-0.000920	32.4732	-0.323929	-10626.9	8.658386E-8	NaN
295	1.000000	0.842841	7.36795e+06	-53389.1	955.818	-29746.6	0.000000	0.000000	6.843075	-0.060160	NaN	0.000000	0.001718	0.001633	28.0793	0.045132	0.001848	24.4241	63.62	-164.326	-0.085596	0.841562	-0.281976	-0.283256	-0.060160	24.4241	-0.280129	-2370.91	2.537424E-5	NaN
295	1.000000	0.884906	7.36795e+06	-53389.1	955.818	-29746.6	0.000000	0.000000	6.885144	0.021404	NaN	0.000000	0.001783	0.001653	28.0793	0.102392	0.002044	50.0852	80.5572	14.662	0.055753	0.883499	-0.239911	-0.241318	0.021404	50.0852	-0.240232	-579.656	-3.692617E-5	NaN
295	1.000000	0.926865	7.36795e+06	-53389.1	955.818	-29746.6	0.000000	0.000000	6.927101	-0.028458	NaN	0.000000	0.001707	0.001664	28.0804	0.134360	0.002071	64.8893	2.942260	-168.222	-0.136659	0.925588	-0.197952	-0.199229	-0.028458	64.8893	-0.197623	-120.384	0.000236	NaN
295	1.000000	0.968885	7.36795e+06	-53389.1	955.818	-29746.6	0.000000	0.000000	6.969122	0.004606	NaN	0.000000	0.001711	0.001589	28.0808	0.019226	0.002001	9.606636	-65.0581	13.1284	-0.016065	0.967477	-0.155933	-0.157340	0.004606	9.606636	-0.156292	-23.5394	-0.000196	NaN
295	1.000000	1.010930	7.36795e+06	-53389.1	955.818	-29746.6	0.000000	0.000000	7.011162	-0.124440	NaN	0.000000	0.001709	0.001608	28.0806	0.023172	0.001970	11.7635	-73.1139	-167.813	-0.004210	1.009617	-0.113887	-0.115200	-0.124440	11.7635	-0.105953	-2.464447	0.050494	NaN
295	1.000000	1.052930	7.36795e+06	-53389.1	955.818	-29746.6	0.000000	0.000000	7.053166	-0.019250	NaN	0.000000	0.001714	0.001627	28.0805	0.027067	0.001998	13.5499	-108.553	16.1926	-0.052808	1.051514	-0.071888	-0.073304	-0.019250	13.5499	-0.070822	-0.358800	0.053651	NaN
295	1.000000	1.094940	7.36795e+06	-53389.1	955.819	-29746.6	0.000000	0.000000	7.095177	0.015714	NaN	0.000000	0.001704	0.001609	28.0791	0.107439	0.002054	52.2978	-109.304	-163.617	-0.003021	1.093647	-0.029878	-0.031170	0.015714	52.2978	-0.030103	-0.023165	-0.678340	NaN
295	1.000000	1.136885	7.36795e+06	-53389.1	955.818	-29746.6	0.000000	0.000000	7.137466	8.372630	NaN	0.000000	0.001678	0.001639	28.0795	8.141482	0.001654	4923.35	8.702554	9.274561	5.891473	1.135656	0.012068	0.010838	8.372630	4923.35	0.010792	0.010076	830.985	44812.6
295	2.000000	1.148400	7.36795e+06	-53389.1	955.817	-29746.6	0.000000	0.000000	7.149693	25.7022	NaN	0.000000	0.001668	0.001691	28.0797	21.0949	0.001813	11637.5	7.043767	-176.185	26.4346	1.148036	0.023582	0.023219	25.7022	11637.5	0.021926	0.025659	1001.68	66376.4
295	2.000000	1.158865	7.36795e+06	-53389.1	955.818	-29746.6	0.000000	0.000000	7.161010	46.4007	NaN	0.000000	0.001722	0.001635	28.0805	30.9904	0.001788	17331.6	7.864386	-2.716567	44.9241	1.158572	0.034048	0.033755	46.4007	17331.6	0.032040	0.045077	1029.36	74581.8
295	2.000000	1.169356	7.36795e+06	-53389.1	955.819	-29746.6	0.000000	0.000000	7.173071	84.567	NaN	0.000000	0.001773	0.001641	28.0806	40.2302	0.001723	23350.6	2.201192	-178.749	85.4924	1.168978	0.044538	0.044161	84.567	23350.6	0.041822	0.068823	1228.77	81321.6
295	2.000000	1.179965	7.36795e+06	-53389.1	955.819	-29746.6	0.000000	0.000000	7.185141	120.093	NaN	0.000000	0.001683	0.001612	28.0806	51.9035	0.001721	30167.6	9.201030	-6.319469	127.984	1.179437	0.055147	0.054619	120.093	30167.6	0.052161	0.099211	1210.49	87505.2
295	2.000000	1.190345	7.36795e+06	-53389.1	955.818	-29746.6	0.000000	0.000000	7.197837	176.407	NaN	0.000000	0.001586	0.001648	28.0795	61.7823	0.001753	35244	4.109573	176.023	178.007	1.189928	0.065528	0.065110	176.407	35244	0.061774	0.132245	1333.94	88546.1
295	2.000000	1.200771	7.36795e+06	-53389.1	955.817	-29746.6	0.000000	0.000000	7.210678	235.11	NaN	0.000000	0.001647	0.001635	28.0795	74.2488	0.001847	40206.4	5.177041	-6.191801	232.14	1.200449	0.075954	0.075632	235.11	40206.4	0.071568	0.170524	1378.75	88956
295	2.000000	1.211228	7.36795e+06	-53389.1	955.819	-29746.6	0.000000	0.000000	7.224000	304.772	NaN	0.000000	0.001743	0.001640	28.0795	83.6578	0.001846	45329	6.645020	171.324	300.727	1.210885	0.086410	0.086068	304.772	45329	0.081368	0.213380	1428.31	89654.7
295	2.000000	1.221748	7.36795e+06	-53389.1	955.819	-29746.6	0.000000	0.000000	7.237139	368.458	NaN	0.000000	0.001727	0.001706	28.0807	92.8809	0.001737	53459.3	5.211429	-8.608482	364.063	1.221443	0.096930	0.096625	368.458	53459.3	0.091761	0.263707	1397.23	95112.1
295	2.000000	1.232210	7.36795e+06	-53389.1	955.818	-29746.6	0.000000	0.000000	7.250992	450.886	NaN	0.000000	0.001686	0.001701	28.0806	103.145	0.001812	56917.7	6.758617	170.048	447.969	1.231829	0.107392	0.107012	450.886	56917.7	0.101451	0.315085	1431	92641.7
295	2.000000	1.236667	7.36795e+06	-53389.1	955.819	-29746.6	0.000000	0.000000	7.256875	485.545	NaN	0.000000	0.001667	0.001725	28.081	105.289	0.001744	60358	5.111514	-8.505202	475.248	1.236239	0.111850	0.111422	485.545	60358	0.105816	0.339625	1429.65	94625.5