File: remote_trans/data/nanoindenter/0828-1/data/Data_2025-08-06,11h17m57s/2025-07-22_16-23-58_1_426.txt
2025-07-22, 16:23:58, 1
Index	Phase	Displacement	Time	Pos X	Pos Y	Pos Z	Rot A	Rot B	Piezo Z	Force A	Force B	Gripper	Voltage A	Voltage B	Temperature	Amplitude force	Amplitude pos	Stiffness	Phase shift	Phase excitation	Force A raw	Displacement raw	HMax	HMax raw	Real Force	Real Stiffness	Contact Depth	Area	Hardness	Reduced Mod.
[#]	[#]	[um]	[s]	[um]	[um]	[um]	[m°]	[m°]	[um]	[uN]	[uN]	[V]	[V]	[V]	[°C]	[uN]	[um]	[N/m]	[°]	[°]	[uN]	[um]	[um]	[um]	[uN]	[N/m]	[um]	[um^2]	[MPa]	[MPa]
426	1.000000	0.003048	7.36922e+06	-55789.1	1005.82	-29740.7	0.000000	0.000000	6.002782	-0.037543	NaN	0.000000	0.001769	0.001742	28.0799	0.036800	0.001019	36.1263	87.0542	-170.013	-0.077115	0.001839	-1.140911	-1.142120	-0.037543	36.1263	-1.140131	-1.731792E+15	2.167894E-17	NaN
426	1.000000	0.045005	7.36922e+06	-55789.1	1005.82	-29740.7	0.000000	0.000000	6.044742	0.055220	NaN	0.000000	0.001692	0.001745	28.0799	0.052277	0.002086	25.0552	-60.7394	13.2987	0.056329	0.043705	-1.098954	-1.100253	0.055220	25.0552	-1.100607	-5.107631E+14	-1.081133E-16	NaN
426	1.000000	0.087013	7.36922e+06	-55789.1	1005.82	-29740.7	0.000000	0.000000	6.086747	-0.032101	NaN	0.000000	0.001665	0.001804	28.08	0.048245	0.002025	23.822	163.268	-164.071	-0.044140	0.085720	-1.056946	-1.058239	-0.032101	23.822	-1.055935	-1.282890E+14	2.502229E-16	NaN
426	1.000000	0.129044	7.36923e+06	-55789.1	1005.82	-29740.7	0.000000	0.000000	6.128775	-0.088945	NaN	0.000000	0.001639	0.001801	28.0815	0.109841	0.002048	53.6317	-174.267	12.3381	-0.043470	0.127701	-1.014915	-1.016258	-0.088945	53.6317	-1.013671	-3.465712E+13	2.566418E-15	NaN
426	1.000000	0.171057	7.36923e+06	-55789.1	1005.82	-29740.7	0.000000	0.000000	6.170788	-0.079495	NaN	0.000000	0.001623	0.001714	28.0813	0.076583	0.002160	35.4599	-40.6312	-167.829	-0.020708	0.169720	-0.972902	-0.974239	-0.079495	35.4599	-0.971221	-9.292159E+12	8.555019E-15	NaN
426	1.000000	0.213072	7.36923e+06	-55789.1	1005.82	-29740.7	0.000000	0.000000	6.212803	-0.080897	NaN	0.000000	0.001631	0.001781	28.0815	0.052988	0.001937	27.3546	-69.4255	14.5329	-0.065186	0.211759	-0.930887	-0.932200	-0.080897	27.3546	-0.928669	-2.478762E+12	3.263606E-14	NaN
426	1.000000	0.255098	7.36923e+06	-55789.1	1005.82	-29740.7	0.000000	0.000000	6.254832	0.003451	NaN	0.000000	0.001659	0.001734	28.0804	0.056820	0.001992	28.5206	-105.403	-166.623	-0.082891	0.253799	-0.888861	-0.890160	0.003451	28.5206	-0.888952	-7.206914E+11	-4.788874E-15	NaN
426	1.000000	0.297142	7.36923e+06	-55789.1	1005.82	-29740.7	0.000000	0.000000	6.296874	-0.071796	NaN	0.000000	0.001667	0.001753	28.0799	0.036280	0.001790	20.2657	-81.7357	12.1392	-0.061231	0.295766	-0.846816	-0.848193	-0.071796	20.2657	-0.844159	-1.784998E+11	4.022186E-13	NaN
426	1.000000	0.339142	7.36923e+06	-55789.1	1005.82	-29740.7	0.000000	0.000000	6.338875	-0.043463	NaN	0.000000	0.001719	0.001736	28.0801	0.054949	0.002041	26.9274	-11.2637	-166.665	0.004708	0.337839	-0.804817	-0.806120	-0.043463	26.9274	-0.803606	-5.032841E+10	8.635869E-13	NaN
426	1.000000	0.381107	7.36923e+06	-55789.1	1005.82	-29740.7	0.000000	0.000000	6.380840	-0.039010	NaN	0.000000	0.001664	0.001805	28.0813	0.043197	0.001858	23.2458	-88.6403	11.2564	-0.017330	0.379808	-0.762852	-0.764151	-0.039010	23.2458	-0.761593	-1.352001E+10	2.885328E-12	NaN
426	1.000000	0.423187	7.36923e+06	-55789.1	1005.82	-29740.7	0.000000	0.000000	6.422921	-0.017331	NaN	0.000000	0.001680	0.001763	28.0814	0.034108	0.001979	17.2355	98.4839	-166.465	-0.108407	0.421870	-0.720772	-0.722089	-0.017331	17.2355	-0.720018	-3.670400E+9	4.721957E-12	NaN
426	1.000000	0.465200	7.36923e+06	-55789.1	1005.82	-29740.7	0.000000	0.000000	6.464932	-0.050043	NaN	0.000000	0.001680	0.001737	28.0814	0.094945	0.001996	47.5768	-158.747	10.3914	-0.039127	0.463853	-0.678759	-0.680106	-0.050043	47.5768	-0.677971	-9.782453E+8	5.115629E-11	NaN
426	1.000000	0.507169	7.36923e+06	-55789.1	1005.82	-29740.7	0.000000	0.000000	6.506901	-0.066613	NaN	0.000000	0.001629	0.001841	28.0813	0.076541	0.002024	37.8084	71.9849	-169.511	-0.090673	0.505915	-0.636790	-0.638044	-0.066613	37.8084	-0.635469	-2.559203E+8	2.602891E-10	NaN
426	1.000000	0.549245	7.36923e+06	-55789.1	1005.82	-29740.7	0.000000	0.000000	6.548981	0.007491	NaN	0.000000	0.001669	0.001725	28.0801	0.017884	0.002028	8.816823	166.951	11.3863	0.032939	0.547891	-0.594713	-0.596068	0.007491	8.816823	-0.595351	-7.184791E+7	-1.042670E-10	NaN
426	1.000000	0.591249	7.36923e+06	-55789.1	1005.82	-29740.7	0.000000	0.000000	6.590984	-0.013475	NaN	0.000000	0.001621	0.001761	28.0801	0.001726	0.001978	0.872789	-49.1968	-166.559	-0.023938	0.589919	-0.552710	-0.554039	-0.013475	0.872789	-0.541130	-1.279464E+7	1.053206E-9	NaN
426	1.000000	0.633245	7.36923e+06	-55789.1	1005.82	-29740.7	0.000000	0.000000	6.632981	0.038655	NaN	0.000000	0.001657	0.001740	28.0802	0.072064	0.001866	38.611	-78.5601	13.6278	-0.056623	0.631919	-0.510714	-0.512040	0.038655	38.611	-0.511465	-4.95244e+06	-7.805208E-9	NaN
426	1.000000	0.675275	7.36923e+06	-55789.1	1005.82	-29740.7	0.000000	0.000000	6.675009	-0.037219	NaN	0.000000	0.001615	0.001689	28.0816	0.108659	0.001998	54.3932	162.383	-164.556	-0.060991	0.673969	-0.468684	-0.469990	-0.037219	54.3932	-0.468170	-1.22954e+06	3.027042E-8	NaN
426	1.000000	0.717287	7.36923e+06	-55789.1	1005.82	-29740.7	0.000000	0.000000	6.717023	0.035932	NaN	0.000000	0.001611	0.001696	28.0815	0.092066	0.002085	44.1651	-178.769	14.5707	0.035742	0.715910	-0.426672	-0.428049	0.035932	44.1651	-0.427282	-326285	-1.101255E-7	NaN
426	1.000000	0.759314	7.36923e+06	-55789.1	1005.82	-29740.7	0.000000	0.000000	6.759048	-0.016437	NaN	0.000000	0.001636	0.001695	28.0818	0.040054	0.001991	20.1143	-121.959	-163.652	-0.052887	0.757967	-0.384645	-0.385992	-0.016437	20.1143	-0.384032	-79017.2	2.080149E-7	NaN
426	1.000000	0.801341	7.36923e+06	-55789.1	1005.82	-29740.7	0.000000	0.000000	6.801069	-0.166202	NaN	0.000000	0.001668	0.001737	28.0801	0.076404	0.002050	37.2792	2.438171	9.796631	-0.109341	0.799976	-0.342618	-0.343983	-0.166202	37.2792	-0.339274	-17822.7	9.325308E-6	NaN
426	1.000000	0.843361	7.36923e+06	-55789.1	1005.82	-29740.7	0.000000	0.000000	6.843094	-0.047660	NaN	0.000000	0.001646	0.001711	28.0804	0.088930	0.002034	43.7255	-138.603	-168.433	-0.055718	0.842097	-0.300597	-0.301862	-0.047660	43.7255	-0.299780	-4670.47	1.020465E-5	NaN
426	1.000000	0.885361	7.36923e+06	-55789.1	1005.82	-29740.7	0.000000	0.000000	6.885094	-0.039437	NaN	0.000000	0.001638	0.001696	28.08	0.070629	0.001976	35.7406	94.5108	15.3104	-0.028343	0.884038	-0.258598	-0.259921	-0.039437	35.7406	-0.257770	-1083.21	3.640734E-5	NaN
426	1.000000	0.927370	7.36923e+06	-55789.1	1005.82	-29740.7	0.000000	0.000000	6.927102	-0.064073	NaN	0.000000	0.001650	0.001750	28.0813	0.075940	0.001994	38.078	-66.7655	-165.888	-0.004691	0.926075	-0.216589	-0.217884	-0.064073	38.078	-0.215327	-233.761	0.000274	NaN
426	1.000000	0.969411	7.36923e+06	-55789.1	1005.82	-29740.7	0.000000	0.000000	6.969147	0.027951	NaN	0.000000	0.001636	0.001672	28.0811	0.049147	0.002075	23.6882	147.31	13.6114	-0.115300	0.968080	-0.174548	-0.175879	0.027951	23.6882	-0.175433	-50.9811	-0.000548	NaN
426	1.000000	1.011445	7.36923e+06	-55789.1	1005.82	-29740.7	0.000000	0.000000	7.011178	-0.029527	NaN	0.000000	0.001659	0.001707	28.0814	0.074172	0.002065	35.9249	-151.358	-166.798	-0.018643	1.010079	-0.132514	-0.133880	-0.029527	35.9249	-0.131898	-8.293678	0.003560	NaN
426	1.000000	1.053456	7.36923e+06	-55789.1	1005.82	-29740.7	0.000000	0.000000	7.053189	-0.056598	NaN	0.000000	0.001687	0.001665	28.0809	0.084689	0.002039	41.5302	158.145	14.0339	-0.125427	1.052085	-0.090503	-0.091874	-0.056598	41.5302	-0.089481	-1.051027	0.053850	NaN
426	1.000000	1.095427	7.36923e+06	-55789.1	1005.82	-29740.7	0.000000	0.000000	7.095160	-0.060632	NaN	0.000000	0.001725	0.001691	28.08	0.069718	0.002124	32.8243	20.1492	-166.412	-0.036467	1.094173	-0.048532	-0.049786	-0.060632	32.8243	-0.047146	-0.074739	0.811246	NaN
426	1.000000	1.137465	7.36923e+06	-55789.1	1005.82	-29740.7	0.000000	0.000000	7.137197	-0.061628	NaN	0.000000	0.001715	0.001684	28.0799	0.117491	0.002008	58.504	-157.797	8.025528	-0.075982	1.136080	-0.006494	-0.007878	-0.061628	58.504	-0.005704	-0.003855	15.9873	NaN
426	2.000000	1.161005	7.36923e+06	-55789.1	1005.82	-29740.7	0.000000	0.000000	7.161307	13.7985	NaN	0.000000	0.001663	0.001691	28.0798	14.9823	0.001746	8578.52	8.673812	-177.678	13.5964	1.160736	0.017046	0.016777	13.7985	8578.52	0.015839	0.016421	840.286	61162.3
426	2.000000	1.171482	7.36923e+06	-55789.1	1005.82	-29740.7	0.000000	0.000000	7.172608	33.8199	NaN	0.000000	0.001691	0.001638	28.081	24.9242	0.001634	15250.7	7.316368	-1.717362	32.9437	1.171124	0.027523	0.027165	33.8199	15250.7	0.025860	0.032599	1037.46	77172.5
426	2.000000	1.181959	7.36923e+06	-55789.1	1005.82	-29740.7	0.000000	0.000000	7.183733	49.5569	NaN	0.000000	0.001677	0.001666	28.0811	35.4729	0.001883	18836.2	3.574088	-178.258	48.6365	1.181631	0.038000	0.037672	49.5569	18836.2	0.036027	0.054165	914.927	73944.7
426	2.000000	1.192421	7.36923e+06	-55789.1	1005.82	-29740.7	0.000000	0.000000	7.195467	80.4764	NaN	0.000000	0.001651	0.001708	28.081	44.9555	0.001696	26499.6	4.441017	-3.703124	78.1017	1.192112	0.048462	0.048153	80.4764	26499.6	0.046185	0.080986	993.705	85076.1
426	2.000000	1.202922	7.36923e+06	-55789.1	1005.82	-29740.7	0.000000	0.000000	7.207793	124.87	NaN	0.000000	0.001680	0.001687	28.0798	56.1308	0.001725	32545.5	3.808029	176.262	122.78	1.202492	0.058963	0.058533	124.87	32545.5	0.056085	0.112146	1113.46	88791.7
426	2.000000	1.213450	7.36923e+06	-55789.1	1005.82	-29740.7	0.000000	0.000000	7.220411	175.654	NaN	0.000000	0.001693	0.001661	28.0799	66.6269	0.001766	37736.5	5.723499	-7.440586	174.201	1.213107	0.069491	0.069148	175.654	37736.5	0.066000	0.148196	1185.28	89560.3
426	2.000000	1.223879	7.36923e+06	-55789.1	1005.82	-29740.7	0.000000	0.000000	7.232460	215.03	NaN	0.000000	0.001688	0.001703	28.0801	77.0209	0.001835	41972.4	4.025650	172.726	213.675	1.223603	0.079920	0.079644	215.03	41972.4	0.076078	0.189687	1133.61	88047.8
426	2.000000	1.234318	7.36923e+06	-55789.1	1005.82	-29740.7	0.000000	0.000000	7.245682	282.688	NaN	0.000000	0.001666	0.001714	28.0811	84.9314	0.001868	45462.8	6.397169	-9.486103	275.759	1.233872	0.090359	0.089913	282.688	45462.8	0.085695	0.233730	1209.46	85915.6
426	2.000000	1.244717	7.36923e+06	-55789.1	1005.82	-29740.7	0.000000	0.000000	7.257929	327.587	NaN	0.000000	0.001748	0.001730	28.081	93.5245	0.001883	49662.5	-2.290280	178.189	319.29	1.244651	0.100758	0.100692	327.587	49662.5	0.095811	0.284661	1150.8	85042.8
426	2.000000	1.253405	7.36923e+06	-55789.1	1005.82	-29740.7	0.000000	0.000000	7.269693	402.389	NaN	0.000000	0.001682	0.001751	28.0811	102.351	0.001737	58931.7	4.383289	-10.0443	401.363	1.253164	0.109446	0.109205	402.389	58931.7	0.104325	0.331144	1215.15	93565.1