File: remote_trans/data/nanoindenter/0828-1/data/Data_2025-08-06,11h17m57s/2025-07-22_16-23-58_1_227.txt
2025-07-22, 16:23:58, 1
Index	Phase	Displacement	Time	Pos X	Pos Y	Pos Z	Rot A	Rot B	Piezo Z	Force A	Force B	Gripper	Voltage A	Voltage B	Temperature	Amplitude force	Amplitude pos	Stiffness	Phase shift	Phase excitation	Force A raw	Displacement raw	HMax	HMax raw	Real Force	Real Stiffness	Contact Depth	Area	Hardness	Reduced Mod.
[#]	[#]	[um]	[s]	[um]	[um]	[um]	[m°]	[m°]	[um]	[uN]	[uN]	[V]	[V]	[V]	[°C]	[uN]	[um]	[N/m]	[°]	[°]	[uN]	[um]	[um]	[um]	[uN]	[N/m]	[um]	[um^2]	[MPa]	[MPa]
227	1.000000	0.002557	7.36727e+06	-49989.1	955.818	-29757.5	0.000000	0.000000	6.002818	0.050941	NaN	0.000000	0.001552	0.001694	28.0797	0.082080	0.001061	77.377	-117.206	-172.64	0.028458	0.001256	-1.131761	-1.133062	0.050941	77.377	-1.132255	-1.357910E+15	-3.751422E-17	NaN
227	1.000000	0.044512	7.36727e+06	-49989.1	955.818	-29757.5	0.000000	0.000000	6.044770	-0.032859	NaN	0.000000	0.001548	0.001651	28.0785	0.129235	0.001948	66.349	87.1046	13.8349	0.030494	0.043097	-1.089806	-1.091222	-0.032859	66.349	-1.089435	-3.615967E+14	9.087287E-17	NaN
227	1.000000	0.086507	7.36727e+06	-49989.1	955.817	-29757.5	0.000000	0.000000	6.086768	0.026556	NaN	0.000000	0.001562	0.001655	28.0782	0.159735	0.001906	83.7985	172.224	-165.635	0.034806	0.085185	-1.047811	-1.049133	0.026556	83.7985	-1.048049	-1.005035E+14	-2.642283E-16	NaN
227	1.000000	0.128546	7.36727e+06	-49989.1	955.819	-29757.5	0.000000	0.000000	6.128808	0.074496	NaN	0.000000	0.001581	0.001628	28.0785	0.165430	0.001976	83.7347	-152.551	14.0299	0.059759	0.127171	-1.005773	-1.007147	0.074496	83.7347	-1.006440	-2.769912E+13	-2.689453E-15	NaN
227	1.000000	0.170540	7.36727e+06	-49989.1	955.819	-29757.5	0.000000	0.000000	6.170798	-0.010626	NaN	0.000000	0.001581	0.001643	28.0795	0.090872	0.002079	43.7121	153.701	-165.617	-0.017926	0.169184	-0.963779	-0.965135	-0.010626	43.7121	-0.963596	-7.334208E+12	1.448797E-15	NaN
227	1.000000	0.212555	7.36727e+06	-49989.1	955.817	-29757.5	0.000000	0.000000	6.212816	0.031603	NaN	0.000000	0.001595	0.001705	28.0798	0.058734	0.001988	29.5475	26.5766	13.877	0.135482	0.211215	-0.921763	-0.923104	0.031603	29.5475	-0.922565	-2.050404E+12	-1.541327E-14	NaN
227	1.000000	0.254559	7.36727e+06	-49989.1	955.817	-29757.5	0.000000	0.000000	6.254819	0.014214	NaN	0.000000	0.001565	0.001628	28.0799	0.085558	0.001930	44.3191	-143.66	-166.586	0.051136	0.253261	-0.879759	-0.881058	0.014214	44.3191	-0.880000	-5.453847E+11	-2.606189E-14	NaN
227	1.000000	0.296605	7.36727e+06	-49989.1	955.818	-29757.5	0.000000	0.000000	6.296864	0.001449	NaN	0.000000	0.001515	0.001640	28.0785	0.055290	0.001943	28.4514	98.6234	13.8892	0.005753	0.295238	-0.837713	-0.839080	0.001449	28.4514	-0.837751	-1.461598E+11	-9.914163E-15	NaN
227	1.000000	0.338600	7.36727e+06	-49989.1	955.817	-29757.5	0.000000	0.000000	6.338859	-0.010333	NaN	0.000000	0.001575	0.001648	28.0791	0.034085	0.002044	16.6768	77.6275	-169.342	-0.074825	0.337319	-0.795718	-0.797000	-0.010333	16.6768	-0.795253	-3.876347E+10	2.665700E-13	NaN
227	1.000000	0.380623	7.36727e+06	-49989.1	955.818	-29757.5	0.000000	0.000000	6.380882	-0.004200	NaN	0.000000	0.001591	0.001656	28.0784	0.032452	0.001880	17.2661	-104.768	14.905	-0.091394	0.379270	-0.753695	-0.755049	-0.004200	17.2661	-0.753513	-1.049620E+10	4.001052E-13	NaN
227	1.000000	0.422633	7.36727e+06	-49989.1	955.818	-29757.5	0.000000	0.000000	6.422891	-0.012692	NaN	0.000000	0.001574	0.001668	28.0785	0.112879	0.002017	55.9512	149.163	-163.147	0.015692	0.421292	-0.711686	-0.713026	-0.012692	55.9512	-0.711515	-2.810139E+9	4.516641E-12	NaN
227	1.000000	0.464683	7.36727e+06	-49989.1	955.819	-29757.5	0.000000	0.000000	6.464942	0.012586	NaN	0.000000	0.001592	0.001632	28.0797	0.079315	0.001966	40.3444	57.6716	14.2133	0.034400	0.463280	-0.669636	-0.671038	0.012586	40.3444	-0.669870	-7.578933E+8	-1.660617E-11	NaN
227	1.000000	0.506677	7.36727e+06	-49989.1	955.818	-29757.5	0.000000	0.000000	6.506935	-0.034966	NaN	0.000000	0.001562	0.001679	28.0795	0.037547	0.001967	19.0885	-148.004	-166.245	0.016464	0.505398	-0.627641	-0.628920	-0.034966	19.0885	-0.626267	-1.913176E+8	1.827660E-10	NaN
227	1.000000	0.548731	7.36727e+06	-49989.1	955.818	-29757.5	0.000000	0.000000	6.548989	-0.028119	NaN	0.000000	0.001588	0.001640	28.0793	0.023268	0.001930	12.0541	175.891	14.292	-0.147107	0.547350	-0.585587	-0.586968	-0.028119	12.0541	-0.583838	-4.985168E+7	5.640515E-10	NaN
227	1.000000	0.590708	7.36727e+06	-49989.1	955.819	-29757.5	0.000000	0.000000	6.590966	-0.029001	NaN	0.000000	0.001646	0.001649	28.0784	0.041123	0.002037	20.1926	153.361	-166.359	0.016658	0.589379	-0.543611	-0.544940	-0.029001	20.1926	-0.542533	-1.338096E+7	2.167313E-9	NaN
227	1.000000	0.632723	7.36727e+06	-49989.1	955.819	-29757.5	0.000000	0.000000	6.632982	-0.003864	NaN	0.000000	0.001541	0.001641	28.0783	0.056879	0.002109	26.9719	-106.541	10.9899	-0.000119	0.631391	-0.501595	-0.502928	-0.003864	26.9719	-0.501488	-3.59561e+06	1.074718E-9	NaN
227	1.000000	0.674754	7.36727e+06	-49989.1	955.818	-29757.5	0.000000	0.000000	6.675016	0.068448	NaN	0.000000	0.001577	0.001679	28.0783	0.074017	0.002022	36.6011	-57.5856	-164.531	0.068240	0.673468	-0.459564	-0.460850	0.068448	36.6011	-0.460967	-974091	-7.026904E-8	NaN
227	1.000000	0.716735	7.36727e+06	-49989.1	955.818	-29757.5	0.000000	0.000000	6.716996	0.051145	NaN	0.000000	0.001554	0.001606	28.0795	0.039322	0.001956	20.1033	-111.774	15.1413	0.014219	0.715394	-0.417584	-0.418924	0.051145	20.1033	-0.419492	-253050	-2.021121E-7	NaN
227	1.000000	0.758799	7.36727e+06	-49989.1	955.819	-29757.5	0.000000	0.000000	6.759058	0.022235	NaN	0.000000	0.001578	0.001640	28.0794	0.065650	0.001999	32.8401	49.1641	-167.079	-0.020737	0.757449	-0.375520	-0.376869	0.022235	32.8401	-0.376028	-60651.6	-3.666073E-7	NaN
227	1.000000	0.800797	7.36727e+06	-49989.1	955.819	-29757.5	0.000000	0.000000	6.801053	-0.065562	NaN	0.000000	0.001649	0.001642	28.0796	0.045994	0.002061	22.3185	-138.228	13.3428	-0.074553	0.799445	-0.333521	-0.334874	-0.065562	22.3185	-0.331318	-13637.9	4.807341E-6	NaN
227	1.000000	0.842798	7.36727e+06	-49989.1	955.819	-29757.5	0.000000	0.000000	6.843057	-0.013925	NaN	0.000000	0.001589	0.001667	28.0786	0.044177	0.001931	22.8751	17.1031	-169.106	-0.014318	0.841508	-0.291520	-0.292811	-0.013925	22.8751	-0.291064	-3461.24	4.023037E-6	NaN
227	1.000000	0.884815	7.36727e+06	-49989.1	955.817	-29757.5	0.000000	0.000000	6.885075	0.013797	NaN	0.000000	0.001542	0.001653	28.0785	0.096083	0.002203	43.6184	-9.689306	14.2531	-0.030301	0.883460	-0.249503	-0.250858	0.013797	43.6184	-0.249740	-814.605	-1.693662E-5	NaN
227	1.000000	0.926875	7.36727e+06	-49989.1	955.817	-29757.5	0.000000	0.000000	6.927135	0.007446	NaN	0.000000	0.001570	0.001639	28.0782	0.159743	0.001873	85.2644	-164.373	-164.863	-0.022863	0.925553	-0.207443	-0.208765	0.007446	85.2644	-0.207508	-174.742	-4.261028E-5	NaN
227	1.000000	0.968901	7.36727e+06	-49989.1	955.818	-29757.5	0.000000	0.000000	6.969161	0.004090	NaN	0.000000	0.001579	0.001656	28.0783	0.069718	0.001937	35.9892	134.119	16.3235	0.009879	0.967539	-0.165417	-0.166779	0.004090	35.9892	-0.165502	-34.2862	-0.000119	NaN
227	1.000000	1.010867	7.36727e+06	-49989.1	955.819	-29757.5	0.000000	0.000000	7.011128	0.057809	NaN	0.000000	0.001550	0.001635	28.0798	0.041842	0.001995	20.9787	-64.8836	-163.38	0.065944	1.009535	-0.123452	-0.124783	0.057809	20.9787	-0.125518	-6.226472	-0.009284	NaN
227	1.000000	1.052886	7.36727e+06	-49989.1	955.819	-29757.5	0.000000	0.000000	7.053146	0.017247	NaN	0.000000	0.001608	0.001636	28.0795	0.048339	0.002087	23.1638	12.0538	13.0149	0.012677	1.051585	-0.081432	-0.082733	0.017247	23.1638	-0.081991	-0.693640	-0.024865	NaN
227	1.000000	1.094955	7.36727e+06	-49989.1	955.816	-29757.5	0.000000	0.000000	7.095216	0.045701	NaN	0.000000	0.001584	0.001638	28.0797	0.082879	0.002201	37.6522	-58.8961	-164.156	-0.064074	1.093628	-0.039363	-0.040690	0.045701	37.6522	-0.040274	-0.046096	-0.991436	NaN
227	1.000000	1.136897	7.36727e+06	-49989.1	955.818	-29757.5	0.000000	0.000000	7.137236	1.947478	NaN	0.000000	0.001581	0.001714	28.0788	2.696303	0.001895	1422.56	7.309561	12.4227	0.729993	1.135582	0.002579	0.001264	1.947478	1422.56	0.001552	0.001196	1628.72	37586.3
227	2.000000	1.152432	7.36727e+06	-49989.1	955.818	-29757.5	0.000000	0.000000	7.153512	19.9658	NaN	0.000000	0.001575	0.001659	28.0787	18.6312	0.001830	10181.4	7.284979	-176.474	19.6287	1.152081	0.018114	0.017763	19.9658	10181.4	0.016643	0.017539	1138.34	70238.2
227	2.000000	1.162901	7.36727e+06	-49989.1	955.818	-29757.5	0.000000	0.000000	7.164805	40.0138	NaN	0.000000	0.001572	0.001649	28.0784	28.8773	0.001701	16981.3	3.856115	1.481346	39.185	1.162490	0.028583	0.028171	40.0138	16981.3	0.026815	0.034401	1163.15	83648.4
227	2.000000	1.173315	7.36727e+06	-49989.1	955.818	-29757.5	0.000000	0.000000	7.176525	71.7809	NaN	0.000000	0.001576	0.001661	28.0797	38.9716	0.001639	23782.1	5.804970	176.088	69.3465	1.173010	0.038996	0.038691	71.7809	23782.1	0.036733	0.055857	1285.08	91935.8
227	2.000000	1.183914	7.36727e+06	-49989.1	955.817	-29757.5	0.000000	0.000000	7.188934	115.79	NaN	0.000000	0.001539	0.001677	28.0798	50.4993	0.001805	27979.7	5.884957	-4.464078	118.942	1.183600	0.049595	0.049282	115.79	27979.7	0.046492	0.081878	1414.17	89337.3
227	2.000000	1.194233	7.36727e+06	-49989.1	955.817	-29757.5	0.000000	0.000000	7.201304	165.668	NaN	0.000000	0.001555	0.001698	28.0801	61.4787	0.001882	32674.5	3.439455	177.27	160.029	1.193935	0.059914	0.059616	165.668	32674.5	0.056112	0.112236	1476.07	89107.8
227	2.000000	1.204780	7.36727e+06	-49989.1	955.816	-29757.5	0.000000	0.000000	7.214439	228.603	NaN	0.000000	0.001558	0.001682	28.0786	72.3822	0.001711	42306.3	2.399062	-5.299784	225.116	1.204584	0.070461	0.070266	228.603	42306.3	0.066409	0.149787	1526.19	99871.5
227	2.000000	1.215270	7.36727e+06	-49989.1	955.817	-29757.5	0.000000	0.000000	7.228576	317.288	NaN	0.000000	0.001640	0.001680	28.0789	83.3047	0.001685	49443.8	3.732832	172.425	316.149	1.215036	0.080951	0.080718	317.288	49443.8	0.076139	0.189952	1670.36	103649
227	2.000000	1.225709	7.36727e+06	-49989.1	955.815	-29757.5	0.000000	0.000000	7.243190	418.81	NaN	0.000000	0.001586	0.001651	28.0791	94.1179	0.001707	55135.3	5.261968	-9.885808	411.155	1.225441	0.091391	0.091122	418.81	55135.3	0.085694	0.233723	1791.9	104196
227	2.000000	1.236207	7.36727e+06	-49989.1	955.817	-29757.5	0.000000	0.000000	7.258283	530.579	NaN	0.000000	0.001594	0.001627	28.0784	102.885	0.001823	56422.6	1.276624	174.443	527.169	1.235948	0.101888	0.101630	530.579	56422.6	0.094836	0.279545	1898.01	97499
227	2.000000	1.242186	7.36727e+06	-49989.1	955.818	-29757.5	0.000000	0.000000	7.267237	602.921	NaN	0.000000	0.001589	0.001603	28.0799	110.127	0.001789	61543.8	4.600431	170.134	595.959	1.241863	0.107868	0.107544	602.921	61543.8	0.100520	0.309965	1945.12	100995