File: remote_trans/data/nanoindenter/0828-1/data/Data_2025-08-06,11h17m57s/2025-07-22_16-23-58_1_294.txt
2025-07-22, 16:23:58, 1
Index	Phase	Displacement	Time	Pos X	Pos Y	Pos Z	Rot A	Rot B	Piezo Z	Force A	Force B	Gripper	Voltage A	Voltage B	Temperature	Amplitude force	Amplitude pos	Stiffness	Phase shift	Phase excitation	Force A raw	Displacement raw	HMax	HMax raw	Real Force	Real Stiffness	Contact Depth	Area	Hardness	Reduced Mod.
[#]	[#]	[um]	[s]	[um]	[um]	[um]	[m°]	[m°]	[um]	[uN]	[uN]	[V]	[V]	[V]	[°C]	[uN]	[um]	[N/m]	[°]	[°]	[uN]	[um]	[um]	[um]	[uN]	[N/m]	[um]	[um^2]	[MPa]	[MPa]
294	1.000000	0.003135	7.36794e+06	-53339.1	955.817	-29746.8	0.000000	0.000000	6.002810	-0.078868	NaN	0.000000	0.001611	0.001603	28.0807	0.043273	0.000891	48.5876	6.212450	-162.31	0.027340	0.001907	-1.141896	-1.143124	-0.078868	48.5876	-1.140679	-1.761334E+15	4.477763E-17	NaN
294	1.000000	0.045062	7.36794e+06	-53339.1	955.819	-29746.8	0.000000	0.000000	6.044742	0.026443	NaN	0.000000	0.001677	0.001599	28.0807	0.038296	0.002131	17.9697	35.51	13.8448	0.031704	0.043700	-1.099969	-1.101331	0.026443	17.9697	-1.101072	-5.181560E+14	-5.103370E-17	NaN
294	1.000000	0.087063	7.36794e+06	-53339.1	955.818	-29746.8	0.000000	0.000000	6.086741	-0.022456	NaN	0.000000	0.001643	0.001643	28.0793	0.143154	0.002054	69.6843	-12.2225	-165.566	0.055189	0.085770	-1.057968	-1.059260	-0.022456	69.6843	-1.057726	-1.355999E+14	1.656058E-16	NaN
294	1.000000	0.129104	7.36794e+06	-53339.1	955.818	-29746.8	0.000000	0.000000	6.128783	0.000498	NaN	0.000000	0.001580	0.001617	28.0792	0.086658	0.001941	44.6357	-64.0545	13.8375	-0.035724	0.127757	-1.015927	-1.017274	0.000498	44.6357	-1.015936	-3.717602E+13	-1.340587E-17	NaN
294	1.000000	0.171145	7.36794e+06	-53339.1	955.818	-29746.8	0.000000	0.000000	6.170821	-0.063142	NaN	0.000000	0.001650	0.001608	28.079	0.099111	0.001931	51.3385	-131.311	-165.217	-0.045661	0.169812	-0.973886	-0.975219	-0.063142	51.3385	-0.972964	-9.808497E+12	6.437458E-15	NaN
294	1.000000	0.213158	7.36794e+06	-53339.1	955.818	-29746.8	0.000000	0.000000	6.212839	0.066155	NaN	0.000000	0.001632	0.001598	28.0804	0.044899	0.001972	22.7659	-165.118	13.3716	0.006415	0.211789	-0.931873	-0.933242	0.066155	22.7659	-0.934053	-2.930149E+12	-2.257747E-14	NaN
294	1.000000	0.255164	7.36794e+06	-53339.1	955.818	-29746.8	0.000000	0.000000	6.254843	0.000331	NaN	0.000000	0.001623	0.001587	28.0804	0.056484	0.001915	29.4912	172.573	-167.198	-0.048185	0.253857	-0.889867	-0.891173	0.000331	29.4912	-0.889876	-7.417088E+11	-4.459313E-16	NaN
294	1.000000	0.297183	7.36794e+06	-53339.1	955.819	-29746.8	0.000000	0.000000	6.296862	-0.008080	NaN	0.000000	0.001650	0.001549	28.0803	0.051181	0.002131	24.0145	-171.393	11.9858	0.010933	0.295790	-0.847848	-0.849241	-0.008080	24.0145	-0.847595	-1.986890E+11	4.066595E-14	NaN
294	1.000000	0.339171	7.36794e+06	-53339.1	955.819	-29746.8	0.000000	0.000000	6.338852	0.044643	NaN	0.000000	0.001690	0.001582	28.0789	0.025857	0.001990	12.9927	-32.1852	-166.629	-0.050827	0.337893	-0.805860	-0.807138	0.044643	12.9927	-0.808437	-5.852738E+10	-7.627723E-13	NaN
294	1.000000	0.381209	7.36794e+06	-53339.1	955.818	-29746.8	0.000000	0.000000	6.380887	-0.031198	NaN	0.000000	0.001676	0.001589	28.079	0.049343	0.001973	25.014	168.659	10.1064	-0.079994	0.379836	-0.763822	-0.765195	-0.031198	25.014	-0.762886	-1.407883E+10	2.215935E-12	NaN
294	1.000000	0.423210	7.36794e+06	-53339.1	955.817	-29746.8	0.000000	0.000000	6.422888	-0.026734	NaN	0.000000	0.001714	0.001596	28.0794	0.121025	0.002008	60.2719	79.1836	-163.295	-0.004216	0.421873	-0.721821	-0.723158	-0.026734	60.2719	-0.721488	-3.843869E+9	6.954894E-12	NaN
294	1.000000	0.465249	7.36794e+06	-53339.1	955.818	-29746.8	0.000000	0.000000	6.464928	-0.006900	NaN	0.000000	0.001709	0.001590	28.0794	0.079565	0.002003	39.7192	-171.597	13.822	-0.051380	0.463846	-0.679782	-0.681185	-0.006900	39.7192	-0.679651	-1.031426E+9	6.690130E-12	NaN
294	1.000000	0.507288	7.36794e+06	-53339.1	955.817	-29746.8	0.000000	0.000000	6.506967	-0.015832	NaN	0.000000	0.001721	0.001662	28.0805	0.029659	0.001942	15.2705	-109.184	-165.932	-0.014685	0.505962	-0.637743	-0.639069	-0.015832	15.2705	-0.636965	-2.683137E+8	5.900570E-11	NaN
294	1.000000	0.549280	7.36794e+06	-53339.1	955.818	-29746.8	0.000000	0.000000	6.548960	0.021163	NaN	0.000000	0.001721	0.001642	28.0805	0.086933	0.002125	40.9061	36.7737	12.5758	0.070236	0.547946	-0.595751	-0.597085	0.021163	40.9061	-0.596139	-7.366642E+7	-2.872818E-10	NaN
294	1.000000	0.591303	7.36794e+06	-53339.1	955.818	-29746.8	0.000000	0.000000	6.590983	0.022143	NaN	0.000000	0.001671	0.001539	28.0803	0.036665	0.001927	19.0228	69.3409	-162.409	0.020748	0.589985	-0.553727	-0.555046	0.022143	19.0228	-0.554600	-1.966337E+7	-1.126116E-9	NaN
294	1.000000	0.633319	7.36794e+06	-53339.1	955.818	-29746.8	0.000000	0.000000	6.632999	0.025164	NaN	0.000000	0.001701	0.001600	28.0792	0.103799	0.002051	50.6038	173.422	16.7944	0.062878	0.631966	-0.511712	-0.513065	0.025164	50.6038	-0.512085	-5.05187e+06	-4.981198E-9	NaN
294	1.000000	0.675314	7.36794e+06	-53339.1	955.819	-29746.8	0.000000	0.000000	6.674992	-0.019449	NaN	0.000000	0.001708	0.001613	28.0793	0.078103	0.002043	38.2354	-135.658	-169.386	-0.002511	0.674053	-0.469717	-0.470977	-0.019449	38.2354	-0.469335	-1.27669e+06	1.523387E-8	NaN
294	1.000000	0.717356	7.36794e+06	-53339.1	955.818	-29746.8	0.000000	0.000000	6.717035	-0.002570	NaN	0.000000	0.001755	0.001587	28.0791	0.074874	0.001986	37.6979	-159.369	14.3972	0.057403	0.715976	-0.427675	-0.429055	-0.002570	37.6979	-0.427624	-329938	7.788516E-9	NaN
294	1.000000	0.759351	7.36794e+06	-53339.1	955.818	-29746.8	0.000000	0.000000	6.759028	-0.055429	NaN	0.000000	0.001745	0.001589	28.081	0.099706	0.002003	49.7824	-35.0327	-165.404	-0.001415	0.758045	-0.385680	-0.386986	-0.055429	49.7824	-0.384844	-81162.9	6.829335E-7	NaN
294	1.000000	0.801374	7.36794e+06	-53339.1	955.817	-29746.8	0.000000	0.000000	6.801055	0.047398	NaN	0.000000	0.001783	0.001638	28.0804	0.090744	0.002099	43.2379	159.908	14.0816	0.065579	0.800043	-0.343657	-0.344988	0.047398	43.2379	-0.344479	-21221.4	-2.233499E-6	NaN
294	1.000000	0.843383	7.36794e+06	-53339.1	955.817	-29746.8	0.000000	0.000000	6.843063	0.027447	NaN	0.000000	0.001676	0.001593	28.0804	0.081141	0.002128	38.1295	-82.9608	-167.072	0.012489	0.842114	-0.301648	-0.302917	0.027447	38.1295	-0.302188	-5072.02	-5.411461E-6	NaN
294	1.000000	0.885448	7.36794e+06	-53339.1	955.818	-29746.8	0.000000	0.000000	6.885129	0.055351	NaN	0.000000	0.001701	0.001620	28.0793	0.085776	0.002020	42.4557	165.238	13.8358	0.102737	0.884102	-0.259583	-0.260929	0.055351	42.4557	-0.260561	-1195.39	-4.630356E-5	NaN
294	1.000000	0.927463	7.36794e+06	-53339.1	955.818	-29746.8	0.000000	0.000000	6.927144	0.038938	NaN	0.000000	0.001658	0.001613	28.08	0.031899	0.002037	15.6596	93.5724	-163.505	-0.021911	0.926162	-0.217568	-0.218869	0.038938	15.6596	-0.219433	-272.024	-0.000143	NaN
294	1.000000	0.969421	7.36794e+06	-53339.1	955.818	-29746.8	0.000000	0.000000	6.969099	-0.010842	NaN	0.000000	0.001720	0.001621	28.0794	0.039986	0.001967	20.331	-168.28	14.9475	0.116051	0.968120	-0.175610	-0.176911	-0.010842	20.331	-0.175210	-50.5347	0.000215	NaN
294	1.000000	1.011468	7.36794e+06	-53339.1	955.817	-29746.8	0.000000	0.000000	7.011145	-0.049423	NaN	0.000000	0.001687	0.001590	28.0795	0.079937	0.002004	39.889	-25.1616	-167.195	0.029588	1.010167	-0.133563	-0.134864	-0.049423	39.889	-0.132634	-8.568999	0.005768	NaN
294	1.000000	1.053479	7.36794e+06	-53339.1	955.817	-29746.8	0.000000	0.000000	7.053157	-0.002826	NaN	0.000000	0.001656	0.001610	28.0803	0.046652	0.001998	23.3535	13.0898	13.9244	0.018106	1.052150	-0.091552	-0.092881	-0.002826	23.3535	-0.091462	-1.169392	0.002417	NaN
294	1.000000	1.095499	7.36794e+06	-53339.1	955.817	-29746.8	0.000000	0.000000	7.095177	-0.024165	NaN	0.000000	0.001681	0.001620	28.0804	0.044620	0.001966	22.6963	-174.865	-162.176	-0.054298	1.094184	-0.049532	-0.050847	-0.024165	22.6963	-0.048733	-0.083532	0.289290	NaN
294	1.000000	1.137534	7.36794e+06	-53339.1	955.818	-29746.8	0.000000	0.000000	7.137229	0.399154	NaN	0.000000	0.001699	0.001655	28.0805	0.678195	0.001814	373.959	30.0956	14.1028	0.444517	1.136141	-0.007497	-0.008890	0.399154	373.959	-0.008297	-0.005405	-73.8428	NaN
294	2.000000	1.161035	7.36794e+06	-53339.1	955.818	-29746.8	0.000000	0.000000	7.161410	16.9378	NaN	0.000000	0.001662	0.001644	28.0793	16.0684	0.001731	9280.98	6.239801	-174.11	15.1204	1.160731	0.016004	0.015700	16.9378	9280.98	0.014635	0.014802	1144.32	69696.6
294	2.000000	1.171531	7.36794e+06	-53339.1	955.817	-29746.8	0.000000	0.000000	7.172628	34.4935	NaN	0.000000	0.001626	0.001635	28.0791	26.5369	0.001786	14860.7	5.791553	2.766760	33.6709	1.171163	0.026500	0.026132	34.4935	14860.7	0.024759	0.030578	1128.04	77643.8
294	2.000000	1.182040	7.36794e+06	-53339.1	955.818	-29746.8	0.000000	0.000000	7.184308	62.9554	NaN	0.000000	0.001642	0.001666	28.0792	37.0968	0.001747	21230.1	8.330638	176.486	64.2515	1.181766	0.037009	0.036735	62.9554	21230.1	0.034785	0.051246	1228.48	85682.8
294	2.000000	1.192541	7.36794e+06	-53339.1	955.819	-29746.8	0.000000	0.000000	7.196499	104.048	NaN	0.000000	0.001683	0.001620	28.0804	49.2798	0.001782	27654.4	3.797322	-2.678278	104.827	1.192221	0.047510	0.047190	104.048	27654.4	0.044688	0.076704	1356.49	91228.3
294	2.000000	1.203001	7.36794e+06	-53339.1	955.819	-29746.8	0.000000	0.000000	7.209899	175.502	NaN	0.000000	0.001689	0.001710	28.0807	60.0275	0.001810	33171.7	5.933416	174.505	173.657	1.202516	0.057971	0.057485	175.502	33171.7	0.054003	0.105185	1668.51	93446.7
294	2.000000	1.213484	7.36794e+06	-53339.1	955.82	-29746.8	0.000000	0.000000	7.223231	244.777	NaN	0.000000	0.001698	0.001627	28.0804	71.3527	0.001793	39800.9	3.226545	-4.899999	243.274	1.213190	0.068453	0.068159	244.777	39800.9	0.063841	0.139939	1749.16	97206.6
294	2.000000	1.223869	7.36794e+06	-53339.1	955.819	-29746.8	0.000000	0.000000	7.237211	332.186	NaN	0.000000	0.001655	0.001651	28.0792	81.8131	0.001815	45065.6	5.608454	171.936	327.534	1.223539	0.078838	0.078508	332.186	45065.6	0.073309	0.177810	1868.21	97642.9
294	2.000000	1.234354	7.36794e+06	-53339.1	955.82	-29746.8	0.000000	0.000000	7.250459	399.346	NaN	0.000000	0.001677	0.001626	28.0791	89.9339	0.001808	49744	5.080658	-8.352776	392.811	1.234114	0.089323	0.089083	399.346	49744	0.083302	0.222370	1795.86	96377.5
294	2.000000	1.244864	7.36794e+06	-53339.1	955.819	-29746.8	0.000000	0.000000	7.265023	497.911	NaN	0.000000	0.001740	0.001652	28.0795	96.7474	0.001743	55494.2	3.392382	172.686	492.257	1.244521	0.099833	0.099490	497.911	55494.2	0.093104	0.270572	1840.21	97471.8
294	2.000000	1.253333	7.36794e+06	-53339.1	955.82	-29746.8	0.000000	0.000000	7.276227	564.432	NaN	0.000000	0.001766	0.001647	28.0792	104.709	0.001750	59836.6	0.785461	-5.298579	556.956	1.253164	0.108302	0.108133	564.432	59836.6	0.101227	0.313850	1798.41	97584.2