File: remote_trans/data/nanoindenter/0828-1/data/Data_2025-08-06,11h17m57s/2025-07-22_16-23-58_1_1128.txt
2025-07-22, 16:23:58, 1
Index	Phase	Displacement	Time	Pos X	Pos Y	Pos Z	Rot A	Rot B	Piezo Z	Force A	Force B	Gripper	Voltage A	Voltage B	Temperature	Amplitude force	Amplitude pos	Stiffness	Phase shift	Phase excitation	Force A raw	Displacement raw	HMax	HMax raw	Real Force	Real Stiffness	Contact Depth	Area	Hardness	Reduced Mod.
[#]	[#]	[um]	[s]	[um]	[um]	[um]	[m°]	[m°]	[um]	[uN]	[uN]	[V]	[V]	[V]	[°C]	[uN]	[um]	[N/m]	[°]	[°]	[uN]	[um]	[um]	[um]	[uN]	[N/m]	[um]	[um^2]	[MPa]	[MPa]
1128	1.000000	0.002268	7.37609e+06	-56539.1	1055.82	-29738.6	0.000000	0.000000	6.002794	-0.000919	NaN	0.000000	0.001619	0.001761	28.0836	0.161074	0.000976	164.994	-153.366	-165.869	0.029442	0.001088	-1.105463	-1.106644	-0.000919	164.994	-1.105459	-5.933970E+14	1.549139E-18	NaN
1128	1.000000	0.044248	7.37609e+06	-56539.1	1055.82	-29738.6	0.000000	0.000000	6.044773	-0.022032	NaN	0.000000	0.001685	0.001726	28.0835	0.110632	0.001940	57.0384	11.744	13.7407	-0.035810	0.042864	-1.063484	-1.064867	-0.022032	57.0384	-1.063194	-1.605988E+14	1.371846E-16	NaN
1128	1.000000	0.086248	7.37609e+06	-56539.1	1055.82	-29738.6	0.000000	0.000000	6.086771	-0.087192	NaN	0.000000	0.001660	0.001747	28.0837	0.058515	0.001993	29.3583	120.114	-164.311	-0.000746	0.084929	-1.021483	-1.022802	-0.087192	29.3583	-1.019256	-4.120398E+13	2.116117E-15	NaN
1128	1.000000	0.128212	7.37609e+06	-56539.1	1055.82	-29738.6	0.000000	0.000000	6.128738	-0.014719	NaN	0.000000	0.001674	0.001733	28.0851	0.167965	0.002216	75.7884	26.3916	14.2867	-0.039780	0.126861	-0.979519	-0.980870	-0.014719	75.7884	-0.979373	-1.196646E+13	1.230021E-15	NaN
1128	1.000000	0.170275	7.37609e+06	-56539.1	1055.82	-29738.6	0.000000	0.000000	6.170800	-0.042858	NaN	0.000000	0.001726	0.001677	28.0844	0.063897	0.002054	31.112	113.224	-168.724	0.012464	0.168991	-0.937456	-0.938740	-0.042858	31.112	-0.936423	-3.154087E+12	1.358802E-14	NaN
1128	1.000000	0.212285	7.37609e+06	-56539.1	1055.82	-29738.6	0.000000	0.000000	6.212809	-0.077407	NaN	0.000000	0.001731	0.001736	28.0843	0.091176	0.001947	46.8409	77.508	10.7938	-0.021216	0.210965	-0.895446	-0.896766	-0.077407	46.8409	-0.894206	-8.487345E+11	9.120332E-14	NaN
1128	1.000000	0.254313	7.37609e+06	-56539.1	1055.82	-29738.6	0.000000	0.000000	6.254836	-0.087574	NaN	0.000000	0.001617	0.001732	28.0844	0.059476	0.002017	29.4817	66.3077	-163.179	-0.012610	0.252950	-0.853418	-0.854781	-0.087574	29.4817	-0.851190	-2.222572E+11	3.940228E-13	NaN
1128	1.000000	0.296317	7.37609e+06	-56539.1	1055.82	-29738.6	0.000000	0.000000	6.296842	-0.036091	NaN	0.000000	0.001642	0.001740	28.0832	0.040460	0.002132	18.9821	136.065	12.7913	-0.048828	0.294899	-0.811414	-0.812832	-0.036091	18.9821	-0.809988	-6.143440E+10	5.874653E-13	NaN
1128	1.000000	0.338370	7.37609e+06	-56539.1	1055.82	-29738.6	0.000000	0.000000	6.338893	-0.086823	NaN	0.000000	0.001598	0.001687	28.0832	0.048614	0.002031	23.9353	40.6721	-165.897	-0.037160	0.337068	-0.769361	-0.770663	-0.086823	23.9353	-0.766640	-1.583518E+10	5.482936E-12	NaN
1128	1.000000	0.380368	7.37609e+06	-56539.1	1055.82	-29738.7	0.000000	0.000000	6.380894	-0.003460	NaN	0.000000	0.001583	0.001699	28.0832	0.023506	0.002049	11.4739	166.855	15.7163	0.019627	0.379052	-0.727364	-0.728679	-0.003460	11.4739	-0.727137	-4.589762E+9	7.537431E-13	NaN
1128	1.000000	0.422390	7.37609e+06	-56539.1	1055.82	-29738.7	0.000000	0.000000	6.422915	-0.041965	NaN	0.000000	0.001613	0.001675	28.0845	0.044669	0.001971	22.6655	-32.5757	-164.053	0.029260	0.421085	-0.685341	-0.686646	-0.041965	22.6655	-0.683952	-1.181008E+9	3.553304E-11	NaN
1128	1.000000	0.464380	7.37609e+06	-56539.1	1055.82	-29738.7	0.000000	0.000000	6.464907	0.005123	NaN	0.000000	0.001572	0.001701	28.0846	0.064669	0.001972	32.786	-57.5362	18.6632	-0.002505	0.463069	-0.643351	-0.644662	0.005123	32.786	-0.643468	-3.295077E+8	-1.554681E-11	NaN
1128	1.000000	0.506393	7.37609e+06	-56539.1	1055.82	-29738.7	0.000000	0.000000	6.506917	-0.056627	NaN	0.000000	0.001596	0.001626	28.0847	0.036790	0.001977	18.6048	154.408	-166.806	-0.084998	0.505121	-0.601338	-0.602610	-0.056627	18.6048	-0.599055	-8.080685E+7	7.007717E-10	NaN
1128	1.000000	0.548423	7.37609e+06	-56539.1	1055.82	-29738.7	0.000000	0.000000	6.548948	-0.039829	NaN	0.000000	0.001565	0.001685	28.0832	0.104622	0.001909	54.8181	-34.328	17.0577	0.023698	0.547107	-0.559308	-0.560624	-0.039829	54.8181	-0.558763	-2.245260E+7	1.773915E-9	NaN
1128	1.000000	0.590450	7.37609e+06	-56539.1	1055.82	-29738.7	0.000000	0.000000	6.590976	-0.011920	NaN	0.000000	0.001531	0.001684	28.0833	0.026833	0.002044	13.1252	106.344	-164.753	-0.033011	0.589151	-0.517281	-0.518580	-0.011920	13.1252	-0.516600	-5.83851e+06	2.041587E-9	NaN
1128	1.000000	0.632472	7.37609e+06	-56539.1	1055.82	-29738.7	0.000000	0.000000	6.632998	-0.015637	NaN	0.000000	0.001562	0.001680	28.0834	0.148612	0.001990	74.6655	-99.3063	17.459	-0.002666	0.631051	-0.475259	-0.476680	-0.015637	74.6655	-0.475102	-1.53791e+06	1.016796E-8	NaN
1128	1.000000	0.674492	7.37609e+06	-56539.1	1055.82	-29738.7	0.000000	0.000000	6.675017	-0.039637	NaN	0.000000	0.001564	0.001726	28.0846	0.156549	0.001944	80.5381	-176.661	-165.49	-0.039587	0.673160	-0.433239	-0.434572	-0.039637	80.5381	-0.432870	-391427	1.012642E-7	NaN
1128	1.000000	0.716515	7.37609e+06	-56539.1	1055.82	-29738.7	0.000000	0.000000	6.717041	-0.020954	NaN	0.000000	0.001538	0.001720	28.0848	0.062946	0.002017	31.2028	65.0178	12.1076	-0.044451	0.715122	-0.391216	-0.392609	-0.020954	31.2028	-0.390712	-98481.3	2.127756E-7	NaN
1128	1.000000	0.758516	7.37609e+06	-56539.1	1055.82	-29738.7	0.000000	0.000000	6.759042	-0.037392	NaN	0.000000	0.001618	0.001672	28.0846	0.028575	0.001930	14.809	-49.5082	-164.84	0.010698	0.757196	-0.349215	-0.350535	-0.037392	14.809	-0.347321	-23339.8	1.602056E-6	NaN
1128	1.000000	0.800539	7.37609e+06	-56539.1	1055.82	-29738.7	0.000000	0.000000	6.801061	-0.098658	NaN	0.000000	0.001643	0.001708	28.0847	0.028768	0.001922	14.9642	94.6863	11.6703	-0.045950	0.799159	-0.307192	-0.308572	-0.098658	14.9642	-0.302248	-5082.44	1.941162E-5	NaN
1128	1.000000	0.842552	7.37609e+06	-56539.1	1055.82	-29738.7	0.000000	0.000000	6.843073	-0.146821	NaN	0.000000	0.001580	0.001719	28.0833	0.032682	0.002151	15.1925	166.726	-165.487	-0.161327	0.841208	-0.265179	-0.266523	-0.146821	15.1925	-0.257931	-1089.37	0.000135	NaN
1128	1.000000	0.884584	7.37609e+06	-56539.1	1055.82	-29738.7	0.000000	0.000000	6.885107	-0.073671	NaN	0.000000	0.001622	0.001688	28.0835	0.006392	0.002007	3.185091	-159.539	14.4713	-0.106809	0.883205	-0.223148	-0.224526	-0.073671	3.185091	-0.205800	-163.908	0.000449	NaN
1128	1.000000	0.926576	7.37609e+06	-56539.1	1055.82	-29738.7	0.000000	0.000000	6.927102	-0.024277	NaN	0.000000	0.001540	0.001696	28.0834	0.107873	0.002081	51.8436	-111.8	-164.354	-0.085190	0.925264	-0.181155	-0.182467	-0.024277	51.8436	-0.180804	-62.9704	0.000386	NaN
1128	1.000000	0.968615	7.37609e+06	-56539.1	1055.82	-29738.7	0.000000	0.000000	6.969141	-0.021556	NaN	0.000000	0.001558	0.001712	28.085	0.108335	0.001955	55.419	135.783	15.0785	-0.014677	0.967279	-0.139116	-0.140452	-0.021556	55.419	-0.138824	-11.2418	0.001917	NaN
1128	1.000000	1.010604	7.37609e+06	-56539.1	1055.82	-29738.7	0.000000	0.000000	7.011125	-0.142620	NaN	0.000000	0.001566	0.001686	28.0848	0.062373	0.002088	29.8725	-173.335	-166.371	-0.032246	1.009303	-0.097127	-0.098428	-0.142620	29.8725	-0.093546	-1.306610	0.109153	NaN
1128	1.000000	1.052643	7.37609e+06	-56539.1	1055.82	-29738.7	0.000000	0.000000	7.053164	-0.126709	NaN	0.000000	0.001563	0.001688	28.0848	0.083605	0.001978	42.2755	-19.6117	14.0071	-0.109604	1.051288	-0.055089	-0.056443	-0.126709	42.2755	-0.052841	-0.111086	1.140643	NaN
1128	1.000000	1.094666	7.37609e+06	-56539.1	1055.82	-29738.7	0.000000	0.000000	7.095189	-0.085851	NaN	0.000000	0.001520	0.001677	28.0837	0.132100	0.002051	64.3989	9.475408	-166.848	-0.059223	1.093366	-0.013065	-0.014365	-0.085851	64.3989	-0.012065	-0.007566	11.3472	NaN
1128	2.000000	1.117725	7.37609e+06	-56539.1	1055.82	-29738.7	0.000000	0.000000	7.118954	17.0833	NaN	0.000000	0.001551	0.001676	28.0836	15.4066	0.001761	8750.25	6.211083	3.878629	15.7632	1.117322	0.009993	0.009591	17.0833	8750.25	0.008529	0.007592	2250.09	91750.3
1128	2.000000	1.128143	7.37609e+06	-56539.1	1055.82	-29738.7	0.000000	0.000000	7.130229	37.9173	NaN	0.000000	0.001547	0.001695	28.0837	25.4965	0.001866	13661.3	6.547324	179.626	36.2413	1.127852	0.020412	0.020120	37.9173	13661.3	0.018330	0.019986	1897.24	88289.3
1128	2.000000	1.138584	7.37609e+06	-56539.1	1055.82	-29738.7	0.000000	0.000000	7.141863	66.8958	NaN	0.000000	0.001537	0.001697	28.0853	35.1785	0.001742	20191.9	5.082504	-2.496061	63.828	1.138268	0.030853	0.030536	66.8958	20191.9	0.028368	0.037429	1787.27	95355.4
1128	2.000000	1.149140	7.37609e+06	-56539.1	1055.82	-29738.7	0.000000	0.000000	7.153917	103.319	NaN	0.000000	0.001604	0.001655	28.0849	45.409	0.001728	26273.3	6.109559	173.913	102.833	1.148692	0.041409	0.040960	103.319	26273.3	0.038460	0.060108	1718.88	97908.6
1128	2.000000	1.159570	7.37609e+06	-56539.1	1055.82	-29738.7	0.000000	0.000000	7.166348	151.964	NaN	0.000000	0.001566	0.001688	28.0846	55.6453	0.001700	32736.5	5.226407	-6.460486	149.13	1.159322	0.051838	0.051591	151.964	32736.5	0.048357	0.087402	1738.67	101168
1128	2.000000	1.170070	7.37609e+06	-56539.1	1055.82	-29738.7	0.000000	0.000000	7.179108	206.882	NaN	0.000000	0.001570	0.001671	28.0844	66.7798	0.001852	36053.1	6.620199	171.606	201.888	1.169674	0.062338	0.061943	206.882	36053.1	0.058035	0.118856	1740.61	95544.4
1128	2.000000	1.180488	7.37609e+06	-56539.1	1055.82	-29738.7	0.000000	0.000000	7.191766	261.341	NaN	0.000000	0.001584	0.001689	28.0834	76.7343	0.001773	43291.4	2.292575	-6.135656	254.5	1.180232	0.072757	0.072501	261.341	43291.4	0.068229	0.156959	1665.03	99834.9
1128	2.000000	1.191028	7.37609e+06	-56539.1	1055.82	-29738.7	0.000000	0.000000	7.205474	338.324	NaN	0.000000	0.001566	0.001698	28.083	86.873	0.001748	49707.6	5.537740	170.188	336.534	1.190814	0.083297	0.083083	338.324	49707.6	0.078192	0.199001	1700.12	101805
1128	2.000000	1.201566	7.37609e+06	-56539.1	1055.82	-29738.7	0.000000	0.000000	7.219056	412.317	NaN	0.000000	0.001528	0.001648	28.0832	96.0949	0.001761	54574.8	4.442442	-9.131451	410.908	1.201195	0.093835	0.093464	412.317	54574.8	0.088169	0.245749	1677.8	100582
1128	2.000000	1.210168	7.37609e+06	-56539.1	1055.82	-29738.7	0.000000	0.000000	7.230293	476.359	NaN	0.000000	0.001546	0.001674	28.0846	105.262	0.001811	58137.4	8.115064	166.88	481.97	1.209814	0.102437	0.102083	476.359	58137.4	0.096292	0.287198	1658.65	99114.8