File: remote_trans/data/nanoindenter/0828-1/data/Data_2025-08-06,11h17m57s/2025-07-22_16-23-58_1_1195.txt
2025-07-22, 16:23:58, 1
Index	Phase	Displacement	Time	Pos X	Pos Y	Pos Z	Rot A	Rot B	Piezo Z	Force A	Force B	Gripper	Voltage A	Voltage B	Temperature	Amplitude force	Amplitude pos	Stiffness	Phase shift	Phase excitation	Force A raw	Displacement raw	HMax	HMax raw	Real Force	Real Stiffness	Contact Depth	Area	Hardness	Reduced Mod.
[#]	[#]	[um]	[s]	[um]	[um]	[um]	[m°]	[m°]	[um]	[uN]	[uN]	[V]	[V]	[V]	[°C]	[uN]	[um]	[N/m]	[°]	[°]	[uN]	[um]	[um]	[um]	[uN]	[N/m]	[um]	[um^2]	[MPa]	[MPa]
1195	1.000000	0.002665	7.37673e+06	-55839.1	1105.82	-29740.4	0.000000	0.000000	6.002814	0.044659	NaN	0.000000	0.001536	0.001613	28.0824	0.022632	0.000878	25.7839	-74.0809	-164.743	0.051754	0.001405	-1.085741	-1.087000	0.044659	25.7839	-1.087040	-3.357896E+14	-1.329971E-16	NaN
1195	1.000000	0.044591	7.37673e+06	-55839.1	1105.82	-29740.4	0.000000	0.000000	6.044737	-0.024566	NaN	0.000000	0.001540	0.001699	28.0825	0.068344	0.001923	35.5448	-167.326	14.5385	-0.016370	0.043261	-1.043815	-1.045145	-0.024566	35.5448	-1.043297	-8.675494E+13	2.831603E-16	NaN
1195	1.000000	0.086595	7.37673e+06	-55839.1	1105.82	-29740.4	0.000000	0.000000	6.086741	-0.021941	NaN	0.000000	0.001535	0.001657	28.0829	0.039868	0.002019	19.7449	108.131	-164.249	-0.030979	0.085279	-1.001811	-1.003127	-0.021941	19.7449	-1.000978	-2.338485E+13	9.382421E-16	NaN
1195	1.000000	0.128632	7.37673e+06	-55839.1	1105.82	-29740.4	0.000000	0.000000	6.128777	-0.046333	NaN	0.000000	0.001552	0.001643	28.0815	0.058380	0.001997	29.227	-170.984	14.9763	-0.011186	0.127299	-0.959774	-0.961107	-0.046333	29.227	-0.958585	-6.277617E+12	7.380647E-15	NaN
1195	1.000000	0.170670	7.37673e+06	-55839.1	1105.82	-29740.4	0.000000	0.000000	6.170819	0.024423	NaN	0.000000	0.001523	0.001639	28.0813	0.070919	0.002054	34.529	-90.7163	-167.088	-0.002568	0.169369	-0.917735	-0.919037	0.024423	34.529	-0.918266	-1.793878E+12	-1.361489E-14	NaN
1195	1.000000	0.212693	7.37673e+06	-55839.1	1105.82	-29740.4	0.000000	0.000000	6.212842	0.016629	NaN	0.000000	0.001542	0.001707	28.0812	0.043054	0.001908	22.5671	-27.956	12.9059	0.020891	0.211267	-0.875712	-0.877139	0.016629	22.5671	-0.876265	-4.855055E+11	-3.425155E-14	NaN
1195	1.000000	0.254662	7.37673e+06	-55839.1	1105.82	-29740.4	0.000000	0.000000	6.254809	-0.029298	NaN	0.000000	0.001571	0.001701	28.0824	0.016019	0.001920	8.343266	-119.566	-166.287	-0.072355	0.253336	-0.833743	-0.835070	-0.029298	8.343266	-0.831110	-1.188027E+11	2.466079E-13	NaN
1195	1.000000	0.296694	7.37673e+06	-55839.1	1105.82	-29740.4	0.000000	0.000000	6.296839	-0.071939	NaN	0.000000	0.001546	0.001692	28.0826	0.080191	0.001973	40.6396	-23.7608	16.0018	-0.028187	0.295383	-0.791711	-0.793023	-0.071939	40.6396	-0.790384	-3.328855E+10	2.161059E-12	NaN
1195	1.000000	0.338743	7.37673e+06	-55839.1	1105.82	-29740.4	0.000000	0.000000	6.338889	-0.034713	NaN	0.000000	0.001658	0.001676	28.0827	0.064809	0.001913	33.8732	-9.997763	-167.674	0.010232	0.337420	-0.749663	-0.750986	-0.034713	33.8732	-0.748894	-9.081668E+9	3.822310E-12	NaN
1195	1.000000	0.380728	7.37673e+06	-55839.1	1105.82	-29740.4	0.000000	0.000000	6.380877	0.044828	NaN	0.000000	0.001600	0.001650	28.0827	0.022601	0.002022	11.1798	-136.464	14.1761	-0.011444	0.379395	-0.707678	-0.709011	0.044828	11.1798	-0.710685	-2.737760E+9	-1.637389E-11	NaN
1195	1.000000	0.422773	7.37673e+06	-55839.1	1105.82	-29740.4	0.000000	0.000000	6.422923	0.064080	NaN	0.000000	0.001604	0.001674	28.0815	0.016689	0.001912	8.729459	83.1077	-163.228	-0.056135	0.421485	-0.665633	-0.666921	0.064080	8.729459	-0.671139	-7.888148E+8	-8.123630E-11	NaN
1195	1.000000	0.464776	7.37673e+06	-55839.1	1105.82	-29740.4	0.000000	0.000000	6.464922	-0.042087	NaN	0.000000	0.001565	0.001642	28.0812	0.135110	0.002000	67.5589	146.113	13.8615	-0.088608	0.463379	-0.623630	-0.625027	-0.042087	67.5589	-0.623163	-1.734202E+8	2.426880E-10	NaN
1195	1.000000	0.506790	7.37673e+06	-55839.1	1105.82	-29740.4	0.000000	0.000000	6.506936	-0.038575	NaN	0.000000	0.001505	0.001673	28.0812	0.052739	0.002092	25.2139	170.976	-163.032	-0.029039	0.505454	-0.581615	-0.582952	-0.038575	25.2139	-0.580468	-4.479038E+7	8.612284E-10	NaN
1195	1.000000	0.548809	7.37673e+06	-55839.1	1105.82	-29740.4	0.000000	0.000000	6.548957	0.006210	NaN	0.000000	0.001533	0.001667	28.0828	0.108967	0.001965	55.4554	82.0253	15.0104	-0.027166	0.547428	-0.539597	-0.540977	0.006210	55.4554	-0.539681	-1.221600E+7	-5.083099E-10	NaN
1195	1.000000	0.590856	7.37673e+06	-55839.1	1105.82	-29740.5	0.000000	0.000000	6.591002	-0.026946	NaN	0.000000	0.001580	0.001679	28.0828	0.096068	0.002055	46.7587	142.354	-164.564	0.004713	0.589579	-0.497550	-0.498826	-0.026946	46.7587	-0.497118	-3.12461e+06	8.623783E-9	NaN
1195	1.000000	0.632822	7.37673e+06	-55839.1	1105.82	-29740.5	0.000000	0.000000	6.632967	-0.067333	NaN	0.000000	0.001620	0.001698	28.0829	0.080366	0.001853	43.3683	105.009	11.7191	-0.026431	0.631485	-0.455584	-0.456920	-0.067333	43.3683	-0.454419	-788037	8.544359E-8	NaN
1195	1.000000	0.674860	7.37673e+06	-55839.1	1105.82	-29740.5	0.000000	0.000000	6.675007	-0.001428	NaN	0.000000	0.001655	0.001712	28.0812	0.017816	0.002055	8.668488	-59.6153	-166.015	-0.007933	0.673566	-0.413546	-0.414840	-0.001428	8.668488	-0.413422	-207513	6.882650E-9	NaN
1195	1.000000	0.716872	7.37674e+06	-55839.1	1105.82	-29740.5	0.000000	0.000000	6.717020	0.025134	NaN	0.000000	0.001548	0.001690	28.0812	0.094312	0.001954	48.2546	37.4742	12.2212	0.020525	0.715519	-0.371534	-0.372886	0.025134	48.2546	-0.371925	-52946.3	-4.747116E-7	NaN
1195	1.000000	0.758888	7.37674e+06	-55839.1	1105.82	-29740.5	0.000000	0.000000	6.759034	-0.025451	NaN	0.000000	0.001568	0.001690	28.0812	0.066876	0.001897	35.262	-173.108	-163.5	-0.055511	0.757591	-0.329518	-0.330815	-0.025451	35.262	-0.328977	-12602.6	2.019501E-6	NaN
1195	1.000000	0.800924	7.37674e+06	-55839.1	1105.82	-29740.5	0.000000	0.000000	6.801070	-0.014034	NaN	0.000000	0.001595	0.001709	28.0819	0.043192	0.002023	21.3493	-44.8253	15.1536	-0.001327	0.799562	-0.287482	-0.288844	-0.014034	21.3493	-0.286989	-3007.12	4.667014E-6	NaN
1195	1.000000	0.842929	7.37674e+06	-55839.1	1105.82	-29740.5	0.000000	0.000000	6.843076	-0.013105	NaN	0.000000	0.001555	0.001613	28.0824	0.070791	0.002074	34.1247	71.1914	-164.63	-0.028734	0.841630	-0.245477	-0.246776	-0.013105	34.1247	-0.245189	-692.443	1.892554E-5	NaN
1195	1.000000	0.884944	7.37674e+06	-55839.1	1105.82	-29740.5	0.000000	0.000000	6.885089	-0.059094	NaN	0.000000	0.001548	0.001593	28.0822	0.084291	0.002173	38.7885	70.2704	15.7048	-0.032514	0.883570	-0.203462	-0.204836	-0.059094	38.7885	-0.202319	-143.797	0.000411	NaN
1195	1.000000	0.927003	7.37674e+06	-55839.1	1105.82	-29740.5	0.000000	0.000000	6.927150	-0.011051	NaN	0.000000	0.001544	0.001608	28.0824	0.028521	0.002034	14.0205	61.69	-166.063	0.002447	0.925673	-0.161403	-0.162733	-0.011051	14.0205	-0.160812	-28.34	0.000390	NaN
1195	1.000000	0.968977	7.37674e+06	-55839.1	1105.82	-29740.5	0.000000	0.000000	6.969124	-0.017172	NaN	0.000000	0.001557	0.001605	28.0812	0.044962	0.002060	21.8219	-84.9342	19.3529	0.002464	0.967630	-0.119428	-0.120775	-0.017172	21.8219	-0.118838	-4.576977	0.003752	NaN
1195	1.000000	1.011017	7.37674e+06	-55839.1	1105.82	-29740.5	0.000000	0.000000	7.011168	0.092007	NaN	0.000000	0.001535	0.001604	28.0811	0.087003	0.001961	44.3644	120.926	-165.933	0.090476	1.009734	-0.077389	-0.078672	0.092007	44.3644	-0.078944	-0.582351	-0.157992	NaN
1195	1.000000	1.053004	7.37674e+06	-55839.1	1105.82	-29740.5	0.000000	0.000000	7.053149	-0.048275	NaN	0.000000	0.001556	0.001602	28.0811	0.115185	0.002072	55.5983	-41.9431	16.8406	0.008821	1.051707	-0.035402	-0.036699	-0.048275	55.5983	-0.034751	-0.031488	1.533109	NaN
1195	2.000000	1.092643	7.37674e+06	-55839.1	1105.82	-29740.5	0.000000	0.000000	7.093121	8.052043	NaN	0.000000	0.001590	0.001604	28.0827	8.760177	0.001759	4979.72	8.718755	-171.145	7.683499	1.092326	0.004237	0.003920	8.052043	4979.72	0.003024	0.002400	3354.55	92862.9
1195	2.000000	1.103072	7.37674e+06	-55839.1	1105.82	-29740.5	0.000000	0.000000	7.104199	23.7971	NaN	0.000000	0.001549	0.001640	28.0824	20.3504	0.001890	10765.5	10.0092	0.810638	23.397	1.102595	0.014666	0.014190	23.7971	10765.5	0.013009	0.012721	1870.73	87207.2
1195	2.000000	1.113520	7.37674e+06	-55839.1	1105.82	-29740.5	0.000000	0.000000	7.115448	43.2796	NaN	0.000000	0.001539	0.001588	28.0822	28.9193	0.001736	16660.9	5.983423	-179.751	42.0729	1.113211	0.025115	0.024805	43.2796	16660.9	0.023166	0.027764	1558.84	91354.8
1195	2.000000	1.123967	7.37674e+06	-55839.1	1105.82	-29740.5	0.000000	0.000000	7.127135	73.4287	NaN	0.000000	0.001522	0.001580	28.0809	38.841	0.001666	23314.8	2.665080	0.533628	70.0932	1.123639	0.035561	0.035233	73.4287	23314.8	0.033199	0.047636	1541.45	97597
1195	2.000000	1.134479	7.37674e+06	-55839.1	1105.82	-29740.5	0.000000	0.000000	7.139356	114.949	NaN	0.000000	0.001587	0.001579	28.081	50.312	0.001849	27204	8.864070	173.984	113.857	1.134085	0.046074	0.045679	114.949	27204	0.042904	0.071750	1602.07	92788.9
1195	2.000000	1.144903	7.37674e+06	-55839.1	1105.82	-29740.5	0.000000	0.000000	7.151650	160.404	NaN	0.000000	0.001589	0.001613	28.081	58.9906	0.001649	35769.9	4.026750	-4.451519	155.473	1.144551	0.056498	0.056145	160.404	35769.9	0.053134	0.102347	1567.26	102153
1195	2.000000	1.155409	7.37674e+06	-55839.1	1105.82	-29740.5	0.000000	0.000000	7.164358	213.953	NaN	0.000000	0.001550	0.001618	28.0821	70.422	0.001741	40453.5	5.153139	174.555	210.611	1.155097	0.067003	0.066692	213.953	40453.5	0.063036	0.136920	1562.61	99884.1
1195	2.000000	1.165920	7.37674e+06	-55839.1	1105.82	-29740.5	0.000000	0.000000	7.177790	284.945	NaN	0.000000	0.001563	0.001607	28.0827	80.5617	0.001845	43666	3.580615	-5.376447	281.327	1.165610	0.077514	0.077204	284.945	43666	0.072620	0.174909	1629.11	95391.7
1195	2.000000	1.176351	7.37674e+06	-55839.1	1105.82	-29740.5	0.000000	0.000000	7.191817	372.345	NaN	0.000000	0.001612	0.001599	28.083	88.2038	0.001702	51832.1	3.906520	173.602	367.071	1.175972	0.087946	0.087566	372.345	51832.1	0.082558	0.218890	1701.06	101218
1195	2.000000	1.186942	7.37674e+06	-55839.1	1105.82	-29740.5	0.000000	0.000000	7.206148	463.28	NaN	0.000000	0.001595	0.001583	28.0826	97.9414	0.001663	58897	4.367629	-7.432474	462.149	1.186542	0.098536	0.098136	463.28	58897	0.092637	0.268174	1727.53	103910
1195	2.000000	1.190343	7.37674e+06	-55839.1	1105.82	-29740.5	0.000000	0.000000	7.211061	500.033	NaN	0.000000	0.001626	0.001586	28.0813	102.253	0.001777	57541.4	3.203617	173.966	495.365	1.190044	0.101937	0.101638	500.033	57541.4	0.095420	0.282603	1769.39	98893