File: remote_trans/data/nanoindenter/0828-1/data/Data_2025-08-06,11h17m57s/2025-07-22_16-23-58_1_57.txt
2025-07-22, 16:23:58, 1
Index	Phase	Displacement	Time	Pos X	Pos Y	Pos Z	Rot A	Rot B	Piezo Z	Force A	Force B	Gripper	Voltage A	Voltage B	Temperature	Amplitude force	Amplitude pos	Stiffness	Phase shift	Phase excitation	Force A raw	Displacement raw	HMax	HMax raw	Real Force	Real Stiffness	Contact Depth	Area	Hardness	Reduced Mod.
[#]	[#]	[um]	[s]	[um]	[um]	[um]	[m°]	[m°]	[um]	[uN]	[uN]	[V]	[V]	[V]	[°C]	[uN]	[um]	[N/m]	[°]	[°]	[uN]	[um]	[um]	[um]	[uN]	[N/m]	[um]	[um^2]	[MPa]	[MPa]
57	1.000000	0.002747	7.3656e+06	-41489.1	955.819	-29786.7	0.000000	0.000000	6.002814	-0.056536	NaN	0.000000	0.001658	0.001722	28.1008	0.026000	0.001012	25.7013	-75.7485	-168.615	-0.033866	0.001448	-1.086790	-1.088089	-0.056536	25.7013	-1.085140	-3.166332E+14	1.785522E-16	NaN
57	1.000000	0.044704	7.3656e+06	-41489.1	955.818	-29786.7	0.000000	0.000000	6.044772	-0.033317	NaN	0.000000	0.001630	0.001736	28.0797	0.060013	0.002003	29.9571	72.2773	15.9539	0.036808	0.043344	-1.044834	-1.046193	-0.033317	29.9571	-1.044000	-8.866472E+13	3.757617E-16	NaN
57	1.000000	0.086703	7.3656e+06	-41489.1	955.818	-29786.7	0.000000	0.000000	6.086772	-0.018259	NaN	0.000000	0.001604	0.001752	28.0935	0.052879	0.002042	25.8999	23.8904	-163.749	0.019207	0.085410	-1.002835	-1.004128	-0.018259	25.8999	-1.002306	-2.436772E+13	7.493127E-16	NaN
57	1.000000	0.128709	7.3656e+06	-41489.1	955.818	-29786.7	0.000000	0.000000	6.128777	-0.028296	NaN	0.000000	0.001559	0.001761	28.129	0.135244	0.002035	66.4711	-40.5553	18.0553	0.017601	0.127372	-0.960829	-0.962165	-0.028296	66.4711	-0.960509	-6.664031E+12	4.246095E-15	NaN
57	1.000000	0.170761	7.3656e+06	-41489.1	955.818	-29786.7	0.000000	0.000000	6.170825	-0.137001	NaN	0.000000	0.001595	0.001789	28.1018	0.139803	0.002019	69.2502	161.971	-166.792	-0.122387	0.169445	-0.918776	-0.920093	-0.137001	69.2502	-0.917293	-1.740404E+12	7.871812E-14	NaN
57	1.000000	0.212751	7.3656e+06	-41489.1	955.818	-29786.7	0.000000	0.000000	6.212819	-0.026454	NaN	0.000000	0.001581	0.001699	28.08	0.021450	0.001991	10.7747	99.4867	13.3966	-0.020051	0.211378	-0.876787	-0.878160	-0.026454	10.7747	-0.874946	-4.659599E+11	5.677323E-14	NaN
57	1.000000	0.254774	7.3656e+06	-41489.1	955.818	-29786.7	0.000000	0.000000	6.254840	-0.085559	NaN	0.000000	0.001513	0.001738	28.0931	0.053955	0.002024	26.6554	-172.585	-164.394	-0.026384	0.253435	-0.834763	-0.836103	-0.085559	26.6554	-0.832356	-1.235141E+11	6.927066E-13	NaN
57	1.000000	0.296761	7.3656e+06	-41489.1	955.818	-29786.7	0.000000	0.000000	6.296829	-0.029173	NaN	0.000000	0.001600	0.001775	28.1299	0.087206	0.001849	47.1652	-71.2485	17.2097	-0.068839	0.295422	-0.792777	-0.794116	-0.029173	47.1652	-0.792313	-3.535875E+10	8.250460E-13	NaN
57	1.000000	0.338825	7.3656e+06	-41489.1	955.818	-29786.7	0.000000	0.000000	6.338893	-0.028144	NaN	0.000000	0.001618	0.001749	28.1019	0.062486	0.002112	29.5923	152.77	-164.656	-0.053031	0.337494	-0.750712	-0.752043	-0.028144	29.5923	-0.749999	-9.401753E+9	2.993457E-12	NaN
57	1.000000	0.380817	7.3656e+06	-41489.1	955.819	-29786.7	0.000000	0.000000	6.380886	-0.021653	NaN	0.000000	0.001586	0.001758	28.0783	0.035769	0.001976	18.1038	28.0224	15.0082	-0.005090	0.379454	-0.708721	-0.710084	-0.021653	18.1038	-0.707824	-2.502328E+9	8.653228E-12	NaN
57	1.000000	0.422832	7.3656e+06	-41489.1	955.818	-29786.7	0.000000	0.000000	6.422900	-0.040502	NaN	0.000000	0.001586	0.001721	28.0919	0.100429	0.002006	50.0713	117.692	-165.851	-0.057158	0.421543	-0.666706	-0.667994	-0.040502	50.0713	-0.666099	-6.729592E+8	6.018484E-11	NaN
57	1.000000	0.464864	7.3656e+06	-41489.1	955.817	-29786.7	0.000000	0.000000	6.464931	-0.053430	NaN	0.000000	0.001562	0.001698	28.13	0.038056	0.001953	19.4874	25.4204	14.6336	-0.020773	0.463499	-0.624674	-0.626038	-0.053430	19.4874	-0.622618	-1.704550E+8	3.134568E-10	NaN
57	1.000000	0.506880	7.3656e+06	-41489.1	955.818	-29786.7	0.000000	0.000000	6.506945	-0.098773	NaN	0.000000	0.001572	0.001719	28.1044	0.069591	0.001920	36.2464	-5.668503	-163.815	-0.079709	0.505568	-0.582658	-0.583970	-0.098773	36.2464	-0.580614	-4.499830E+7	2.195033E-9	NaN
57	1.000000	0.548896	7.3656e+06	-41489.1	955.818	-29786.7	0.000000	0.000000	6.548963	-0.058330	NaN	0.000000	0.001601	0.001703	28.0811	0.062641	0.001982	31.6056	-92.1857	14.4616	-0.128646	0.547513	-0.540641	-0.542025	-0.058330	31.6056	-0.539257	-1.205186E+7	4.839911E-9	NaN
57	1.000000	0.590905	7.3656e+06	-41489.1	955.819	-29786.7	0.000000	0.000000	6.590974	-0.026410	NaN	0.000000	0.001579	0.001663	28.09	0.125435	0.002114	59.3261	-69.1462	-164.62	-0.018322	0.589577	-0.498632	-0.499961	-0.026410	59.3261	-0.498299	-3.24547e+06	8.137641E-9	NaN
57	1.000000	0.632925	7.3656e+06	-41489.1	955.818	-29786.7	0.000000	0.000000	6.632991	-0.073126	NaN	0.000000	0.001595	0.001706	28.1298	0.055588	0.001978	28.0994	-105.379	15.2983	-0.109646	0.631577	-0.456613	-0.457960	-0.073126	28.0994	-0.454661	-794230	9.207184E-8	NaN
57	1.000000	0.674941	7.3656e+06	-41489.1	955.818	-29786.7	0.000000	0.000000	6.675008	-0.046165	NaN	0.000000	0.001668	0.001710	28.1035	0.107953	0.002087	51.7174	-110.939	-166.459	-0.070051	0.673614	-0.414597	-0.415924	-0.046165	51.7174	-0.413927	-210969	2.188238E-7	NaN
57	1.000000	0.716967	7.3656e+06	-41489.1	955.818	-29786.7	0.000000	0.000000	6.717037	0.018704	NaN	0.000000	0.001577	0.001669	28.0795	0.095658	0.001987	48.1443	163.763	14.424	0.009645	0.715554	-0.372571	-0.373983	0.018704	48.1443	-0.372862	-54617.3	-3.424597E-7	NaN
57	1.000000	0.758993	7.3656e+06	-41489.1	955.818	-29786.7	0.000000	0.000000	6.759061	-0.031111	NaN	0.000000	0.001562	0.001710	28.0905	0.076268	0.002059	37.036	-35.126	-164.4	-0.061673	0.757682	-0.330545	-0.331856	-0.031111	37.036	-0.329915	-13007.8	2.391730E-6	NaN
57	1.000000	0.800980	7.3656e+06	-41489.1	955.819	-29786.7	0.000000	0.000000	6.801050	0.007486	NaN	0.000000	0.001559	0.001705	28.1299	0.027795	0.001922	14.4589	79.9859	12.8518	-0.052399	0.799615	-0.288557	-0.289923	0.007486	14.4589	-0.288946	-3217.37	-2.326687E-6	NaN
57	1.000000	0.842989	7.3656e+06	-41489.1	955.818	-29786.7	0.000000	0.000000	6.843055	-0.069584	NaN	0.000000	0.001560	0.001694	28.1059	0.019782	0.002025	9.770162	-49.4785	-166.538	-0.089859	0.841687	-0.246549	-0.247850	-0.069584	9.770162	-0.241208	-600.348	0.000116	NaN
57	1.000000	0.885045	7.3656e+06	-41489.1	955.818	-29786.7	0.000000	0.000000	6.885113	-0.043252	NaN	0.000000	0.001586	0.001673	28.0798	0.059500	0.001960	30.3518	73.6533	15.2364	-0.084338	0.883695	-0.204493	-0.205842	-0.043252	30.3518	-0.203424	-149.907	0.000289	NaN
57	1.000000	0.927034	7.36561e+06	-41489.1	955.817	-29786.7	0.000000	0.000000	6.927100	-0.092936	NaN	0.000000	0.001575	0.001727	28.089	0.049962	0.002059	24.2631	169.005	-166.393	-0.098190	0.925754	-0.162503	-0.163784	-0.092936	24.2631	-0.159630	-27.0032	0.003442	NaN
57	1.000000	0.969061	7.36561e+06	-41489.1	955.818	-29786.7	0.000000	0.000000	6.969129	-0.035654	NaN	0.000000	0.001592	0.001696	28.1285	0.114786	0.001988	57.732	56.0751	14.6337	-0.069348	0.967676	-0.120477	-0.121861	-0.035654	57.732	-0.120013	-4.834530	0.007375	NaN
57	1.000000	1.011035	7.36561e+06	-41489.1	955.819	-29786.7	0.000000	0.000000	7.011103	-0.041685	NaN	0.000000	0.001584	0.001746	28.1058	0.069617	0.001995	34.9007	132.431	-166.767	-0.129506	1.009743	-0.078502	-0.079795	-0.041685	34.9007	-0.077607	-0.538710	0.077380	NaN
57	1.000000	1.053112	7.36561e+06	-41489.1	955.819	-29786.7	0.000000	0.000000	7.053181	-0.010447	NaN	0.000000	0.001579	0.001747	28.0817	0.079210	0.001936	40.9193	-35.3909	10.5475	-0.120640	1.051777	-0.036426	-0.037761	-0.010447	40.9193	-0.036234	-0.034835	0.299897	NaN
57	1.000000	1.095091	7.36561e+06	-41489.1	955.819	-29786.7	0.000000	0.000000	7.095242	1.986388	NaN	0.000000	0.001620	0.001733	28.0891	2.918306	0.001899	1536.36	25.2705	-169.285	1.210398	1.093792	0.005554	0.004254	1.986388	1536.36	0.004584	0.003757	528.752	22901.3
57	2.000000	1.110078	7.36561e+06	-41489.1	955.819	-29786.7	0.000000	0.000000	7.111499	32.8747	NaN	0.000000	0.001615	0.001723	28.1282	19.5744	0.002000	9786.34	5.803035	4.470212	31.3694	1.109763	0.020540	0.020226	32.8747	9786.34	0.018021	0.019528	1683.5	63983.7
57	2.000000	1.120555	7.36561e+06	-41489.1	955.818	-29786.7	0.000000	0.000000	7.123866	78.8791	NaN	0.000000	0.001599	0.001731	28.106	29.1247	0.001911	15237.2	4.486095	-177.147	77.4758	1.120236	0.031017	0.030698	78.8791	15237.2	0.027135	0.035014	2252.79	74397.3
57	2.000000	1.131065	7.36561e+06	-41489.1	955.819	-29786.7	0.000000	0.000000	7.136003	118.469	NaN	0.000000	0.001612	0.001680	28.0793	37.0245	0.001831	20218.2	6.127332	-1.712241	118.397	1.130859	0.041528	0.041321	118.469	20218.2	0.037133	0.056829	2084.66	77487.5
57	2.000000	1.141441	7.36561e+06	-41489.1	955.819	-29786.7	0.000000	0.000000	7.149519	194.882	NaN	0.000000	0.001644	0.001710	28.0878	46.2484	0.001774	26066	4.962020	176.816	189.971	1.141085	0.051903	0.051547	194.882	26066	0.046295	0.081308	2396.85	83518.3
57	2.000000	1.151929	7.36561e+06	-41489.1	955.819	-29786.7	0.000000	0.000000	7.162584	257.57	NaN	0.000000	0.001648	0.001710	28.1289	54.6383	0.001715	31850.2	4.848818	-4.818444	252.792	1.151682	0.062391	0.062144	257.57	31850.2	0.056326	0.112965	2280.08	86579
57	2.000000	1.162465	7.36561e+06	-41489.1	955.819	-29786.7	0.000000	0.000000	7.177018	352.439	NaN	0.000000	0.001637	0.001703	28.1087	65.4052	0.001765	37054.4	5.661519	173.987	348.366	1.162022	0.072927	0.072484	352.439	37054.4	0.065793	0.147399	2391.06	88179.3
57	2.000000	1.172877	7.36561e+06	-41489.1	955.82	-29786.7	0.000000	0.000000	7.191029	440.003	NaN	0.000000	0.001597	0.001683	28.0806	76.215	0.001763	43220.2	2.641759	-4.549819	431.666	1.172543	0.083339	0.083006	440.003	43220.2	0.075704	0.188062	2339.68	91056.3
57	2.000000	1.183363	7.36561e+06	-41489.1	955.82	-29786.7	0.000000	0.000000	7.206873	570.363	NaN	0.000000	0.001612	0.001722	28.088	85.2656	0.001847	46157.4	3.680846	173.862	565.57	1.183104	0.093826	0.093566	570.363	46157.4	0.084558	0.228297	2498.34	88260.1
57	2.000000	1.193897	7.36561e+06	-41489.1	955.82	-29786.7	0.000000	0.000000	7.223224	711.9	NaN	0.000000	0.001613	0.001714	28.1262	94.2635	0.001730	54477.7	5.797974	-9.076115	707.144	1.193596	0.104359	0.104058	711.9	54477.7	0.094559	0.278100	2559.87	94382.4
57	2.000000	1.199818	7.36561e+06	-41489.1	955.82	-29786.7	0.000000	0.000000	7.230884	754.224	NaN	0.000000	0.001620	0.001666	28.1259	100.634	0.001754	57387.8	4.943846	-9.284519	745.795	1.199664	0.110280	0.110126	754.224	57387.8	0.100423	0.309433	2437.44	94256.2