File: remote_trans/data/nanoindenter/0828-1/data/Data_2025-08-06,11h17m57s/2025-07-22_16-23-58_1_1155.txt
2025-07-22, 16:23:58, 1
Index	Phase	Displacement	Time	Pos X	Pos Y	Pos Z	Rot A	Rot B	Piezo Z	Force A	Force B	Gripper	Voltage A	Voltage B	Temperature	Amplitude force	Amplitude pos	Stiffness	Phase shift	Phase excitation	Force A raw	Displacement raw	HMax	HMax raw	Real Force	Real Stiffness	Contact Depth	Area	Hardness	Reduced Mod.
[#]	[#]	[um]	[s]	[um]	[um]	[um]	[m°]	[m°]	[um]	[uN]	[uN]	[V]	[V]	[V]	[°C]	[uN]	[um]	[N/m]	[°]	[°]	[uN]	[um]	[um]	[um]	[uN]	[N/m]	[um]	[um^2]	[MPa]	[MPa]
1155	1.000000	0.002419	7.37635e+06	-57839.1	1105.82	-29740.2	0.000000	0.000000	6.003079	0.813501	NaN	0.000000	0.001551	0.001708	28.0804	0.328843	0.001013	324.512	11.5528	-163.687	0.329915	0.001228	6.748220	6.747029	0.813501	324.512	6.746340	1170.81	0.000695	8.664842
1155	1.000000	0.026445	7.37635e+06	-57839.1	1105.82	-29740.2	0.000000	0.000000	6.027188	2.831544	NaN	0.000000	0.001624	0.001735	28.0803	0.683249	0.001752	390.017	8.281401	-162.93	2.792888	0.025030	6.772245	6.770831	2.831544	390.017	6.766800	1177.92	0.002404	10.3824
1155	1.000000	0.050352	7.37635e+06	-57839.1	1105.82	-29740.2	0.000000	0.000000	6.051134	3.774283	NaN	0.000000	0.001620	0.001680	28.0801	0.848393	0.001984	427.643	7.764737	-162.145	3.798888	0.049037	6.796152	6.794838	3.774283	427.643	6.789533	1185.85	0.003183	11.3459
1155	1.000000	0.074379	7.37635e+06	-57839.1	1105.82	-29740.2	0.000000	0.000000	6.075198	4.657906	NaN	0.000000	0.001627	0.001696	28.0801	0.885635	0.002075	426.829	4.133787	-167.47	4.618006	0.073132	6.820180	6.818932	4.657906	426.829	6.811995	1193.71	0.003902	11.287
1155	1.000000	0.098373	7.37635e+06	-57839.1	1105.82	-29740.2	0.000000	0.000000	6.099180	4.365822	NaN	0.000000	0.001649	0.001713	28.08	0.857404	0.001919	446.9	10.8167	-164.866	4.372787	0.097054	6.844174	6.842855	4.365822	446.9	6.836847	1202.43	0.003631	11.7748
1155	1.000000	0.122411	7.37635e+06	-57839.1	1105.82	-29740.2	0.000000	0.000000	6.123206	4.098773	NaN	0.000000	0.001614	0.001721	28.0806	1.027405	0.001970	521.517	10.0503	-165.861	4.139104	0.121166	6.868211	6.866966	4.098773	521.517	6.862317	1211.41	0.003383	13.6898
1155	1.000000	0.146414	7.37635e+06	-57839.1	1105.82	-29740.2	0.000000	0.000000	6.147202	3.896486	NaN	0.000000	0.001624	0.001686	28.0812	1.006464	0.002249	447.552	10.9107	-164.193	3.947264	0.145112	6.892215	6.890913	3.896486	447.552	6.885685	1219.67	0.003195	11.7083
1155	1.000000	0.170428	7.37635e+06	-57839.1	1105.82	-29740.2	0.000000	0.000000	6.171204	3.626512	NaN	0.000000	0.001631	0.001766	28.0812	0.968102	0.002027	477.603	1.415977	-164.063	3.664571	0.169162	6.916229	6.914963	3.626512	477.603	6.910534	1228.49	0.002952	12.4496
1155	1.000000	0.194455	7.37635e+06	-57839.1	1105.82	-29740.2	0.000000	0.000000	6.195219	3.331211	NaN	0.000000	0.001614	0.001725	28.0813	1.039074	0.001991	521.88	10.9336	-167.853	3.319792	0.193153	6.940255	6.938953	3.331211	521.88	6.935468	1237.37	0.002692	13.5548
1155	1.000000	0.218433	7.37635e+06	-57839.1	1105.82	-29740.2	0.000000	0.000000	6.219173	2.747794	NaN	0.000000	0.001615	0.001691	28.0813	0.929447	0.001948	477.085	10.6156	-164.081	2.783177	0.217144	6.964234	6.962945	2.747794	477.085	6.959914	1246.11	0.002205	12.3478
1155	1.000000	0.242451	7.37635e+06	-57839.1	1105.82	-29740.2	0.000000	0.000000	6.243216	3.366885	NaN	0.000000	0.001597	0.001731	28.0809	0.901971	0.002078	434.106	7.130911	-161.784	3.346013	0.241172	6.988251	6.986973	3.366885	434.106	6.982434	1254.19	0.002685	11.1992
1155	1.000000	0.266423	7.37635e+06	-57839.1	1105.82	-29740.2	0.000000	0.000000	6.267176	3.056874	NaN	0.000000	0.001606	0.001705	28.0798	0.818985	0.001957	418.405	20.3317	-168.728	3.166073	0.265147	7.012224	7.010948	3.056874	418.405	7.006744	1262.94	0.002420	10.7567
1155	1.000000	0.290469	7.37635e+06	-57839.1	1105.82	-29740.2	0.000000	0.000000	6.291218	2.947251	NaN	0.000000	0.001605	0.001684	28.08	1.056111	0.002206	478.752	10.4488	-164.725	2.870112	0.289103	7.036270	7.034904	2.947251	478.752	7.031653	1271.93	0.002317	12.2646
1155	1.000000	0.314478	7.37635e+06	-57839.1	1105.82	-29740.2	0.000000	0.000000	6.315264	3.864421	NaN	0.000000	0.001605	0.001754	28.0799	1.133255	0.002182	519.416	9.314910	-164.065	3.769864	0.313177	7.060278	7.058977	3.864421	519.416	7.054698	1280.28	0.003018	13.2628
1155	1.000000	0.338509	7.37635e+06	-57839.1	1105.82	-29740.2	0.000000	0.000000	6.339340	4.958189	NaN	0.000000	0.001579	0.001710	28.08	1.083842	0.002028	534.524	12.0671	-167.574	4.951881	0.337205	7.084310	7.083005	4.958189	534.524	7.077353	1288.52	0.003848	13.6049
1155	1.000000	0.362497	7.37635e+06	-57839.1	1105.82	-29740.2	0.000000	0.000000	6.363378	6.168038	NaN	0.000000	0.001556	0.001714	28.0799	1.000425	0.001925	519.641	7.828280	-167.214	6.120908	0.361162	7.108297	7.106963	6.168038	519.641	7.099395	1296.56	0.004757	13.185
1155	1.000000	0.386515	7.37635e+06	-57839.1	1105.82	-29740.2	0.000000	0.000000	6.387436	7.137777	NaN	0.000000	0.001671	0.001731	28.0805	1.095126	0.002081	526.168	4.206557	-163.802	7.088285	0.385201	7.132316	7.131001	7.137777	526.168	7.122141	1304.88	0.005470	13.308
1155	1.000000	0.410524	7.37635e+06	-57839.1	1105.82	-29740.2	0.000000	0.000000	6.411452	7.309051	NaN	0.000000	0.001670	0.001714	28.0811	1.100664	0.002107	522.387	9.494979	-164.015	7.248270	0.409202	7.156325	7.155003	7.309051	522.387	7.145831	1313.57	0.005564	13.1686
1155	1.000000	0.434557	7.37635e+06	-57839.1	1105.82	-29740.2	0.000000	0.000000	6.435529	8.392962	NaN	0.000000	0.001700	0.001688	28.081	1.092802	0.002077	526.078	8.324845	-166.433	8.322892	0.433229	7.180358	7.179030	8.392962	526.078	7.168392	1321.88	0.006349	13.2199
1155	2.000000	0.456248	7.37635e+06	-57839.1	1105.82	-29740.2	0.000000	0.000000	6.457238	8.828740	NaN	0.000000	0.001693	0.001731	28.081	1.128961	0.001900	594.161	3.093233	-164.286	9.117141	0.455900	7.202049	7.201701	8.828740	594.161	7.190905	1330.2	0.006637	14.884
1155	2.000000	0.462123	7.37636e+06	-57839.1	1105.82	-29740.2	0.000000	0.000000	6.463096	8.402526	NaN	0.000000	0.001706	0.001689	28.0812	1.098686	0.001980	554.954	3.691228	-164.469	8.365189	0.461834	7.207924	7.207635	8.402526	554.954	7.196568	1332.29	0.006307	13.8909
1155	2.000000	0.468094	7.37636e+06	-57839.1	1105.82	-29740.2	0.000000	0.000000	6.469074	8.582718	NaN	0.000000	0.001670	0.001632	28.0811	1.107362	0.002099	527.651	9.540994	-163.464	8.700953	0.467811	7.213894	7.213612	8.582718	527.651	7.201695	1334.19	0.006433	13.1981
1155	2.000000	0.474079	7.37636e+06	-57839.1	1105.82	-29740.2	0.000000	0.000000	6.475079	9.068778	NaN	0.000000	0.001612	0.001628	28.081	1.128968	0.001823	619.33	-1.176968	-165.024	8.969023	0.473762	7.219879	7.219562	9.068778	619.33	7.208897	1336.86	0.006784	15.4758
1155	2.000000	0.480081	7.37636e+06	-57839.1	1105.82	-29740.2	0.000000	0.000000	6.481082	9.100133	NaN	0.000000	0.001717	0.001649	28.0797	1.166632	0.002078	561.555	8.579793	-167.745	9.128953	0.479770	7.225882	7.225571	9.100133	561.555	7.213728	1338.66	0.006798	14.0227
1155	2.000000	0.486063	7.37636e+06	-57839.1	1105.82	-29740.2	0.000000	0.000000	6.487080	9.474835	NaN	0.000000	0.001685	0.001646	28.0799	1.166110	0.002016	578.331	8.375570	-164.005	9.493211	0.485750	7.231864	7.231551	9.474835	578.331	7.219577	1340.83	0.007066	14.4299
1155	2.000000	0.492046	7.37636e+06	-57839.1	1105.82	-29740.2	0.000000	0.000000	6.493066	9.544949	NaN	0.000000	0.001710	0.001636	28.08	1.141367	0.001925	592.975	7.882915	-168.278	9.526206	0.491713	7.237847	7.237514	9.544949	592.975	7.225775	1343.13	0.007106	14.7826
1155	2.000000	0.498046	7.37636e+06	-57839.1	1105.82	-29740.2	0.000000	0.000000	6.499073	9.729497	NaN	0.000000	0.001678	0.001644	28.0798	1.151103	0.002022	569.23	5.598235	-166.099	9.713075	0.497774	7.243847	7.243575	9.729497	569.23	7.231027	1345.08	0.007233	14.1803
1155	2.000000	0.504065	7.37636e+06	-57839.1	1105.82	-29740.2	0.000000	0.000000	6.505100	9.904640	NaN	0.000000	0.001678	0.001681	28.08	1.149583	0.001892	607.449	1.398503	-164.059	9.956628	0.503738	7.249866	7.249539	9.904640	607.449	7.237637	1347.54	0.007350	15.1186
1155	2.000000	0.510041	7.37636e+06	-57839.1	1105.82	-29740.2	0.000000	0.000000	6.511083	10.0806	NaN	0.000000	0.001695	0.001641	28.0814	1.201693	0.001951	615.894	8.281610	-166.772	10.1404	0.509784	7.255841	7.255585	10.0806	615.894	7.243566	1349.75	0.007468	15.3162
1155	2.000000	0.516065	7.37636e+06	-57839.1	1105.82	-29740.2	0.000000	0.000000	6.517119	10.3853	NaN	0.000000	0.001728	0.001677	28.0812	1.234788	0.002104	586.796	6.769471	-166.051	10.4755	0.515772	7.261865	7.261573	10.3853	586.796	7.248591	1351.63	0.007684	14.5825
1155	2.000000	0.522036	7.37636e+06	-57839.1	1105.82	-29740.2	0.000000	0.000000	6.523098	10.5542	NaN	0.000000	0.001686	0.001685	28.081	1.236609	0.002022	611.635	9.073846	-164.785	10.6416	0.521714	7.267837	7.267514	10.5542	611.635	7.254895	1353.98	0.007795	15.1866
1155	2.000000	0.528027	7.37636e+06	-57839.1	1105.82	-29740.2	0.000000	0.000000	6.529095	10.7011	NaN	0.000000	0.001716	0.001626	28.081	1.184251	0.002031	583.183	5.957278	-169.114	10.6313	0.527706	7.273828	7.273506	10.7011	583.183	7.260066	1355.91	0.007892	14.4698
1155	2.000000	0.534026	7.37636e+06	-57839.1	1105.82	-29740.2	0.000000	0.000000	6.535100	10.8659	NaN	0.000000	0.001714	0.001610	28.081	1.160476	0.002059	563.553	2.829214	-161.373	10.8183	0.533731	7.279827	7.279531	10.8659	563.553	7.265366	1357.89	0.008002	13.9726
1155	2.000000	0.540007	7.37636e+06	-57839.1	1105.82	-29740.2	0.000000	0.000000	6.541075	10.7306	NaN	0.000000	0.001696	0.001639	28.0812	1.178068	0.001910	616.635	0.928404	-166.951	10.7302	0.539707	7.285807	7.285507	10.7306	616.635	7.272756	1360.65	0.007886	15.2731
1155	2.000000	0.546020	7.37636e+06	-57839.1	1105.82	-29740.2	0.000000	0.000000	6.547091	10.7877	NaN	0.000000	0.001678	0.001628	28.0797	1.287874	0.001994	645.986	2.186350	-165.16	10.7858	0.545737	7.291821	7.291538	10.7877	645.986	7.279296	1363.1	0.007914	15.9857
1155	2.000000	0.551979	7.37636e+06	-57839.1	1105.82	-29740.2	0.000000	0.000000	6.553048	10.7401	NaN	0.000000	0.001603	0.001638	28.0797	1.152108	0.002057	560.196	4.594217	-164.273	10.7542	0.551713	7.297780	7.297514	10.7401	560.196	7.283401	1364.64	0.007870	13.8549
1155	2.000000	0.553481	7.37636e+06	-57839.1	1105.82	-29740.2	0.000000	0.000000	6.554555	10.8533	NaN	0.000000	0.001636	0.001663	28.08	1.167306	0.002003	582.728	5.960856	12.1001	10.945	0.553142	7.299282	7.298943	10.8533	582.728	7.285313	1365.36	0.007949	14.4084