File: remote_trans/data/nanoindenter/0828-1/data/Data_2025-08-06,11h17m57s/2025-07-22_16-23-58_1_762.txt
2025-07-22, 16:23:58, 1
Index	Phase	Displacement	Time	Pos X	Pos Y	Pos Z	Rot A	Rot B	Piezo Z	Force A	Force B	Gripper	Voltage A	Voltage B	Temperature	Amplitude force	Amplitude pos	Stiffness	Phase shift	Phase excitation	Force A raw	Displacement raw	HMax	HMax raw	Real Force	Real Stiffness	Contact Depth	Area	Hardness	Reduced Mod.
[#]	[#]	[um]	[s]	[um]	[um]	[um]	[m°]	[m°]	[um]	[uN]	[uN]	[V]	[V]	[V]	[°C]	[uN]	[um]	[N/m]	[°]	[°]	[uN]	[um]	[um]	[um]	[uN]	[N/m]	[um]	[um^2]	[MPa]	[MPa]
762	1.000000	0.002188	7.37251e+06	-38989.1	1005.82	-29795.4	0.000000	0.000000	6.002795	0.039659	NaN	0.000000	0.001632	0.001743	28.0827	0.034306	0.000991	34.6145	106.426	-158.899	0.002489	0.000894	-1.108338	-1.109632	0.039659	34.6145	-1.109197	-6.660616E+14	-5.954319E-17	NaN
762	1.000000	0.044148	7.37251e+06	-38989.1	1005.82	-29795.4	0.000000	0.000000	6.044755	0.066144	NaN	0.000000	0.001614	0.001732	28.0825	0.056032	0.001988	28.1839	-89.4285	14.242	0.096184	0.042776	-1.066379	-1.067750	0.066144	28.1839	-1.068139	-1.871478E+14	-3.534302E-16	NaN
762	1.000000	0.086164	7.37251e+06	-38989.1	1005.82	-29795.4	0.000000	0.000000	6.086767	-0.027551	NaN	0.000000	0.001627	0.001745	28.0832	0.012628	0.001923	6.565464	-163.073	-163.853	-0.030798	0.084789	-1.024362	-1.025737	-0.027551	6.565464	-1.021215	-4.378258E+13	6.292710E-16	NaN
762	1.000000	0.128137	7.37251e+06	-38989.1	1005.82	-29795.4	0.000000	0.000000	6.128740	-0.038801	NaN	0.000000	0.001611	0.001737	28.0832	0.039134	0.002015	19.4178	-64.4227	11.3346	-0.080782	0.126841	-0.982389	-0.983685	-0.038801	19.4178	-0.980890	-1.254307E+13	3.093455E-15	NaN
762	1.000000	0.170196	7.37251e+06	-38989.1	1005.82	-29795.4	0.000000	0.000000	6.170800	-0.001107	NaN	0.000000	0.001658	0.001774	28.0834	0.013938	0.001957	7.120607	126.587	-162.656	-0.056876	0.168903	-0.940330	-0.941623	-0.001107	7.120607	-0.940214	-3.548309E+12	3.120971E-16	NaN
762	1.000000	0.212208	7.37251e+06	-38989.1	1005.82	-29795.4	0.000000	0.000000	6.212811	-0.049916	NaN	0.000000	0.001667	0.001784	28.0836	0.087993	0.001820	48.3347	118.363	13.3355	-0.069911	0.210856	-0.898318	-0.899670	-0.049916	48.3347	-0.897543	-9.416095E+11	5.301111E-14	NaN
762	1.000000	0.254249	7.37251e+06	-38989.1	1005.82	-29795.4	0.000000	0.000000	6.254853	-0.018661	NaN	0.000000	0.001682	0.001848	28.0823	0.027582	0.002026	13.6132	-73.3483	-165.964	-0.077159	0.252869	-0.856277	-0.857657	-0.018661	13.6132	-0.855249	-2.522370E+11	7.398111E-14	NaN
762	1.000000	0.296239	7.37251e+06	-38989.1	1005.82	-29795.4	0.000000	0.000000	6.296843	-0.036518	NaN	0.000000	0.001642	0.001813	28.0822	0.032622	0.002096	15.5626	84.1048	10.6483	-0.055635	0.294873	-0.814287	-0.815653	-0.036518	15.5626	-0.812527	-6.650477E+10	5.491002E-13	NaN
762	1.000000	0.338281	7.37251e+06	-38989.1	1005.82	-29795.4	0.000000	0.000000	6.338887	0.028123	NaN	0.000000	0.001638	0.001794	28.0822	0.022564	0.001886	11.9614	-158.188	-167.181	0.052523	0.336952	-0.772245	-0.773574	0.028123	11.9614	-0.774008	-1.994333E+10	-1.410160E-12	NaN
762	1.000000	0.380300	7.37251e+06	-38989.1	1005.82	-29795.4	0.000000	0.000000	6.380905	0.019683	NaN	0.000000	0.001682	0.001778	28.0835	0.117379	0.002010	58.4017	158.819	16.3048	0.055084	0.378920	-0.730226	-0.731607	0.019683	58.4017	-0.730479	-5.097262E+9	-3.861440E-12	NaN
762	1.000000	0.422319	7.37251e+06	-38989.1	1005.82	-29795.4	0.000000	0.000000	6.422921	-0.066530	NaN	0.000000	0.001678	0.001774	28.083	0.104081	0.001928	53.9884	165.379	-165.186	-0.074728	0.421006	-0.688207	-0.689520	-0.066530	53.9884	-0.687283	-1.311539E+9	5.072652E-11	NaN
762	1.000000	0.464321	7.37251e+06	-38989.1	1005.82	-29795.4	0.000000	0.000000	6.464926	0.006382	NaN	0.000000	0.001709	0.001814	28.0833	0.071253	0.002131	33.441	-131.79	13.1956	-0.066813	0.462924	-0.646205	-0.647602	0.006382	33.441	-0.646348	-3.608864E+8	-1.768412E-11	NaN
762	1.000000	0.506343	7.37251e+06	-38989.1	1005.82	-29795.4	0.000000	0.000000	6.506948	0.020840	NaN	0.000000	0.001735	0.001784	28.0823	0.093837	0.001931	48.6038	18.9069	-167.076	-0.054015	0.504943	-0.604183	-0.605583	0.020840	48.6038	-0.604505	-9.604831E+7	-2.169736E-10	NaN
762	1.000000	0.548386	7.37251e+06	-38989.1	1005.82	-29795.4	0.000000	0.000000	6.548991	0.001807	NaN	0.000000	0.001690	0.001762	28.0825	0.066698	0.001919	34.7511	46.1083	13.4749	-0.010297	0.546935	-0.562140	-0.563591	0.001807	34.7511	-0.562179	-2.503367E+7	-7.219545E-11	NaN
762	1.000000	0.590351	7.37251e+06	-38989.1	1005.82	-29795.4	0.000000	0.000000	6.590954	-0.031895	NaN	0.000000	0.001758	0.001795	28.0825	0.095695	0.001935	49.4542	4.439611	-168.669	-0.037417	0.589051	-0.520175	-0.521475	-0.031895	49.4542	-0.519691	-6.44625e+06	4.947852E-9	NaN
762	1.000000	0.632406	7.37251e+06	-38989.1	1005.82	-29795.4	0.000000	0.000000	6.633008	-0.057729	NaN	0.000000	0.001797	0.001742	28.0833	0.019218	0.002033	9.452503	105.637	15.8975	0.011510	0.631007	-0.478121	-0.479519	-0.057729	9.452503	-0.473540	-1.46233e+06	3.947740E-8	NaN
762	1.000000	0.674433	7.37251e+06	-38989.1	1005.82	-29795.4	0.000000	0.000000	6.675037	-0.024808	NaN	0.000000	0.001752	0.001772	28.0835	0.035949	0.002010	17.8807	-68.0278	-162.618	-0.039054	0.673060	-0.436093	-0.437466	-0.024808	17.8807	-0.435052	-420236	5.903281E-8	NaN
762	1.000000	0.716415	7.37251e+06	-38989.1	1005.82	-29795.4	0.000000	0.000000	6.717017	-0.063931	NaN	0.000000	0.001694	0.001787	28.084	0.104452	0.002012	51.9255	116.818	15.62	-0.028567	0.715080	-0.394111	-0.395446	-0.063931	51.9255	-0.393188	-106842	5.983696E-7	NaN
762	1.000000	0.758439	7.37251e+06	-38989.1	1005.82	-29795.4	0.000000	0.000000	6.759045	0.025069	NaN	0.000000	0.001693	0.001777	28.0844	0.046034	0.001997	23.0559	156.833	-166.422	-0.004440	0.757181	-0.352087	-0.353345	0.025069	23.0559	-0.352903	-28126	-8.913060E-7	NaN
762	1.000000	0.800453	7.37251e+06	-38989.1	1005.82	-29795.4	0.000000	0.000000	6.801060	0.050106	NaN	0.000000	0.001688	0.001786	28.0826	0.047052	0.001971	23.8717	150.159	10.027	-0.059715	0.799129	-0.310073	-0.311397	0.050106	23.8717	-0.311647	-7005.28	-7.152660E-6	NaN
762	1.000000	0.842504	7.37251e+06	-38989.1	1005.82	-29795.4	0.000000	0.000000	6.843105	-0.066426	NaN	0.000000	0.001665	0.001818	28.0826	0.074075	0.002029	36.5136	120.684	-167.08	-0.015485	0.841186	-0.268023	-0.269341	-0.066426	36.5136	-0.266658	-1481.43	4.483935E-5	NaN
762	1.000000	0.884521	7.37251e+06	-38989.1	1005.82	-29795.4	0.000000	0.000000	6.885126	0.018010	NaN	0.000000	0.001730	0.001750	28.0826	0.075861	0.002048	37.0434	-34.9845	13.0758	0.109228	0.883103	-0.226006	-0.227423	0.018010	37.0434	-0.226370	-350.819	-5.133618E-5	NaN
762	1.000000	0.926521	7.37251e+06	-38989.1	1005.82	-29795.4	0.000000	0.000000	6.927124	-0.031414	NaN	0.000000	0.001652	0.001781	28.0839	0.006811	0.001985	3.430587	-96.6313	-165.512	-0.053643	0.925207	-0.184006	-0.185319	-0.031414	3.430587	-0.177138	-54.53	0.000576	NaN
762	1.000000	0.968543	7.37251e+06	-38989.1	1005.82	-29795.4	0.000000	0.000000	6.969146	-0.050075	NaN	0.000000	0.001689	0.001822	28.0839	0.060570	0.001903	31.8207	1.883264	14.9705	-0.042142	0.967162	-0.141983	-0.143365	-0.050075	31.8207	-0.140803	-12.2469	0.004089	NaN
762	1.000000	1.010559	7.37251e+06	-38989.1	1005.82	-29795.4	0.000000	0.000000	7.011165	0.022868	NaN	0.000000	0.001719	0.001788	28.0842	0.035902	0.002023	17.7489	34.2245	-166.241	0.007311	1.009154	-0.099967	-0.101373	0.022868	17.7489	-0.100934	-1.916102	-0.011935	NaN
762	1.000000	1.052598	7.37251e+06	-38989.1	1005.82	-29795.4	0.000000	0.000000	7.053201	-0.032837	NaN	0.000000	0.001767	0.001816	28.0828	0.153990	0.001909	80.6547	-49.4848	12.6248	0.028296	1.051236	-0.057928	-0.059290	-0.032837	80.6547	-0.057623	-0.153745	0.213582	NaN
762	1.000000	1.094566	7.37251e+06	-38989.1	1005.82	-29795.4	0.000000	0.000000	7.095171	-0.009823	NaN	0.000000	0.001774	0.001783	28.0827	0.043530	0.002122	20.5157	134.808	-169.48	-0.038902	1.093297	-0.015960	-0.017229	-0.009823	20.5157	-0.015601	-0.009638	1.019144	NaN
762	2.000000	1.120625	7.37251e+06	-38989.1	1005.82	-29795.4	0.000000	0.000000	7.121972	18.0612	NaN	0.000000	0.001737	0.001810	28.0826	16.2535	0.001682	9661.05	0.417915	8.162516	16.1601	1.120305	0.010099	0.009779	18.0612	9661.05	0.008697	0.007769	2324.87	100144
762	2.000000	1.131080	7.37251e+06	-38989.1	1005.82	-29795.4	0.000000	0.000000	7.133615	46.958	NaN	0.000000	0.001717	0.001794	28.0834	28.0577	0.001818	15436.5	8.049027	177.523	45.7869	1.130782	0.020554	0.020255	46.958	15436.5	0.018273	0.019900	2359.68	99975.2
762	2.000000	1.141588	7.37251e+06	-38989.1	1005.82	-29795.4	0.000000	0.000000	7.145417	78.4857	NaN	0.000000	0.001736	0.001759	28.0841	36.0227	0.001774	20307.8	9.271869	-5.646782	77.8559	1.141189	0.031061	0.030663	78.4857	20307.8	0.028163	0.037022	2119.99	96428.9
762	2.000000	1.152025	7.37251e+06	-38989.1	1005.82	-29795.4	0.000000	0.000000	7.157515	118.891	NaN	0.000000	0.001750	0.001793	28.0841	45.4006	0.001689	26875.4	4.043339	176.348	117.738	1.151714	0.041499	0.041187	118.891	26875.4	0.038181	0.059412	2001.12	100737
762	2.000000	1.162464	7.37251e+06	-38989.1	1005.82	-29795.4	0.000000	0.000000	7.170167	172.758	NaN	0.000000	0.001759	0.001816	28.0841	54.8832	0.001858	29542.5	3.001222	-2.962683	166.73	1.162126	0.051937	0.051600	172.758	29542.5	0.047551	0.084995	2032.55	92581.2
762	2.000000	1.173025	7.37251e+06	-38989.1	1005.82	-29795.4	0.000000	0.000000	7.183337	236.223	NaN	0.000000	0.001743	0.001827	28.0828	66.4068	0.001834	36218.1	4.894121	174.322	233.927	1.172685	0.062499	0.062159	236.223	36218.1	0.057607	0.117369	2012.65	96587.9
762	2.000000	1.183506	7.37251e+06	-38989.1	1005.82	-29795.4	0.000000	0.000000	7.195737	282.937	NaN	0.000000	0.001760	0.001834	28.0826	75.1695	0.001763	42633	1.635408	-4.735906	279.325	1.183256	0.072980	0.072729	282.937	42633	0.068002	0.156057	1813.03	98600.1
762	2.000000	1.194074	7.37251e+06	-38989.1	1005.82	-29795.4	0.000000	0.000000	7.209867	369.613	NaN	0.000000	0.001721	0.001798	28.0826	88.4954	0.001963	45090.9	8.982346	167.831	374.569	1.193752	0.083548	0.083226	369.613	45090.9	0.077400	0.195488	1890.72	93175.6
762	2.000000	1.204378	7.37251e+06	-38989.1	1005.82	-29795.4	0.000000	0.000000	7.223597	453.002	NaN	0.000000	0.001806	0.001805	28.084	94.3123	0.001738	54275.9	3.667689	-7.583136	444.833	1.204088	0.093851	0.093561	453.002	54275.9	0.087592	0.242920	1864.82	100612
762	2.000000	1.213950	7.37251e+06	-38989.1	1005.82	-29795.4	0.000000	0.000000	7.236060	523.342	NaN	0.000000	0.001755	0.001800	28.0838	102.198	0.001753	58288.9	1.965419	173.541	522.214	1.213639	0.103424	0.103113	523.342	58288.9	0.096690	0.289305	1808.96	99010.5