File: remote_trans/data/nanoindenter/0828-1/data/Data_2025-08-06,11h17m57s/2025-07-22_16-23-58_1_105.txt
2025-07-22, 16:23:58, 1
Index	Phase	Displacement	Time	Pos X	Pos Y	Pos Z	Rot A	Rot B	Piezo Z	Force A	Force B	Gripper	Voltage A	Voltage B	Temperature	Amplitude force	Amplitude pos	Stiffness	Phase shift	Phase excitation	Force A raw	Displacement raw	HMax	HMax raw	Real Force	Real Stiffness	Contact Depth	Area	Hardness	Reduced Mod.
[#]	[#]	[um]	[s]	[um]	[um]	[um]	[m°]	[m°]	[um]	[uN]	[uN]	[V]	[V]	[V]	[°C]	[uN]	[um]	[N/m]	[°]	[°]	[uN]	[um]	[um]	[um]	[uN]	[N/m]	[um]	[um^2]	[MPa]	[MPa]
105	1.000000	0.002464	7.36606e+06	-43889.1	955.818	-29777.5	0.000000	0.000000	6.002782	0.071280	NaN	0.000000	0.001528	0.001701	28.0973	0.012416	0.000987	12.5754	-103.696	-164.848	0.073277	0.001241	-1.707397	-1.708620	0.071280	12.5754	-1.711649	-7.263926E+22	-9.812846E-25	NaN
105	1.000000	0.060453	7.36606e+06	-43889.1	955.818	-29777.4	0.000000	0.000000	6.060766	-0.034441	NaN	0.000000	0.001492	0.001650	28.1292	0.127273	0.001962	64.8834	-20.651	16.9303	-0.082626	0.059075	-1.649409	-1.650787	-0.034441	64.8834	-1.649011	-1.068757E+22	3.222520E-24	NaN
105	1.000000	0.118477	7.36606e+06	-43889.1	955.819	-29777.4	0.000000	0.000000	6.118790	-0.035995	NaN	0.000000	0.001533	0.001700	28.0953	0.096662	0.001929	50.1076	170.643	-165.609	-0.107218	0.117161	-1.591385	-1.592701	-0.035995	50.1076	-1.590846	-1.800814E+21	1.998798E-23	NaN
105	1.000000	0.176481	7.36606e+06	-43889.1	955.819	-29777.4	0.000000	0.000000	6.176793	-0.047067	NaN	0.000000	0.001519	0.001660	28.0811	0.091376	0.002103	43.4537	-21.4027	10.7753	-0.137879	0.175184	-1.533381	-1.534678	-0.047067	43.4537	-1.532569	-3.019782E+20	1.558626E-22	NaN
105	1.000000	0.234514	7.36606e+06	-43889.1	955.819	-29777.4	0.000000	0.000000	6.234828	-0.029898	NaN	0.000000	0.001534	0.001723	28.0958	0.067013	0.002163	30.9847	94.1736	-167.104	-0.067361	0.233169	-1.475347	-1.476693	-0.029898	30.9847	-1.474624	-5.108336E+19	5.852771E-22	NaN
105	1.000000	0.292518	7.36606e+06	-43889.1	955.818	-29777.4	0.000000	0.000000	6.292833	0.009749	NaN	0.000000	0.001583	0.001721	28.1292	0.029915	0.001989	15.0367	-131.336	15.7699	-0.035884	0.291172	-1.417344	-1.418690	0.009749	15.0367	-1.417830	-8.938658E+18	-1.090640E-21	NaN
105	1.000000	0.350567	7.36607e+06	-43889.1	955.819	-29777.4	0.000000	0.000000	6.350880	-0.035263	NaN	0.000000	0.001567	0.001659	28.0952	0.057087	0.001919	29.7532	135.765	-164.043	-0.032605	0.349272	-1.359295	-1.360590	-0.035263	29.7532	-1.358406	-1.440281E+18	2.448351E-20	NaN
105	1.000000	0.408629	7.36607e+06	-43889.1	955.819	-29777.4	0.000000	0.000000	6.408942	-0.028461	NaN	0.000000	0.001523	0.001702	28.0785	0.054904	0.001896	28.9594	-39.8148	14.6645	0.008479	0.407189	-1.301233	-1.302673	-0.028461	28.9594	-1.300496	-2.426745E+17	1.172788E-19	NaN
105	1.000000	0.466609	7.36607e+06	-43889.1	955.818	-29777.4	0.000000	0.000000	6.466923	-0.002399	NaN	0.000000	0.001495	0.001694	28.095	0.075430	0.002013	37.4636	121.577	-171.357	-0.007230	0.465365	-1.243253	-1.244497	-0.002399	37.4636	-1.243205	-4.159339E+16	5.767755E-20	NaN
105	1.000000	0.524661	7.36607e+06	-43889.1	955.818	-29777.4	0.000000	0.000000	6.524973	-0.054904	NaN	0.000000	0.001555	0.001720	28.1288	0.020349	0.001937	10.5072	-69.386	16.9233	-0.049667	0.523222	-1.185201	-1.186640	-0.054904	10.5072	-1.181282	-6.166598E+15	8.903505E-18	NaN
105	1.000000	0.582654	7.36607e+06	-43889.1	955.818	-29777.4	0.000000	0.000000	6.582968	-0.015289	NaN	0.000000	0.001575	0.001656	28.0974	0.092552	0.001922	48.1593	157.828	-163.766	-0.020555	0.581378	-1.127207	-1.128484	-0.015289	48.1593	-1.126969	-1.153370E+15	1.325600E-17	NaN
105	1.000000	0.640692	7.36607e+06	-43889.1	955.818	-29777.4	0.000000	0.000000	6.641004	-0.074069	NaN	0.000000	0.001655	0.001699	28.078	0.044910	0.002026	22.1666	169.407	17.0799	-0.109076	0.639287	-1.069170	-1.070575	-0.074069	22.1666	-1.066664	-1.787979E+14	4.142636E-16	NaN
105	1.000000	0.698722	7.36607e+06	-43889.1	955.818	-29777.4	0.000000	0.000000	6.699039	0.045472	NaN	0.000000	0.001660	0.001756	28.0927	0.099310	0.001863	53.2937	-11.4673	-169.61	-0.020735	0.697407	-1.011140	-1.012454	0.045472	53.2937	-1.011780	-3.268400E+13	-1.391276E-15	NaN
105	1.000000	0.756755	7.36607e+06	-43889.1	955.818	-29777.4	0.000000	0.000000	6.757070	-0.010861	NaN	0.000000	0.001655	0.001721	28.1295	0.099501	0.002099	47.3941	105.977	13.9493	0.006652	0.755363	-0.953106	-0.954499	-0.010861	47.3941	-0.952935	-5.267468E+12	2.061945E-15	NaN
105	1.000000	0.814770	7.36607e+06	-43889.1	955.818	-29777.4	0.000000	0.000000	6.815083	-0.027328	NaN	0.000000	0.001656	0.001710	28.1009	0.086106	0.002020	42.6356	-178.458	-167.545	-0.092904	0.813468	-0.895092	-0.896394	-0.027328	42.6356	-0.894611	-8.594993E+11	3.179475E-14	NaN
105	1.000000	0.872747	7.36607e+06	-43889.1	955.818	-29777.4	0.000000	0.000000	6.873061	-0.019217	NaN	0.000000	0.001675	0.001744	28.0791	0.031346	0.001996	15.702	162.379	13.5081	-0.033108	0.871422	-0.837115	-0.838440	-0.019217	15.702	-0.836197	-1.392415E+11	1.380137E-13	NaN
105	1.000000	0.930837	7.36607e+06	-43889.1	955.819	-29777.4	0.000000	0.000000	6.931149	-0.050589	NaN	0.000000	0.001691	0.001699	28.0918	0.058060	0.001943	29.8801	142.624	-168.421	-0.094771	0.929483	-0.779025	-0.780379	-0.050589	29.8801	-0.777755	-2.242461E+10	2.255942E-12	NaN
105	1.000000	0.988842	7.36607e+06	-43889.1	955.818	-29777.4	0.000000	0.000000	6.989154	-0.066332	NaN	0.000000	0.001697	0.001715	28.1273	0.106773	0.001949	54.7895	153.293	14.7121	-0.103472	0.987471	-0.721020	-0.722390	-0.066332	54.7895	-0.720112	-3.681313E+9	1.801864E-11	NaN
105	1.000000	1.046842	7.36607e+06	-43889.1	955.818	-29777.4	0.000000	0.000000	7.047157	-0.001969	NaN	0.000000	0.001700	0.001692	28.1026	0.152296	0.001948	78.1819	175.057	-167.343	0.015405	1.045559	-0.663020	-0.664302	-0.001969	78.1819	-0.663001	-6.103316E+8	3.226593E-12	NaN
105	1.000000	1.104864	7.36607e+06	-43889.1	955.817	-29777.4	0.000000	0.000000	7.105178	-0.013499	NaN	0.000000	0.001555	0.001738	28.0805	0.092801	0.001931	48.0614	-30.7178	14.4239	0.012628	1.103502	-0.604998	-0.606360	-0.013499	48.0614	-0.604787	-9.691188E+7	1.392963E-10	NaN
105	1.000000	1.162873	7.36607e+06	-43889.1	955.818	-29777.4	0.000000	0.000000	7.163190	0.068837	NaN	0.000000	0.001673	0.001738	28.0899	0.072805	0.001994	36.5044	49.0078	-166.991	-0.019028	1.161606	-0.546989	-0.548255	0.068837	36.5044	-0.548403	-1.613753E+7	-4.265635E-9	NaN
105	1.000000	1.220894	7.36607e+06	-43889.1	955.818	-29777.4	0.000000	0.000000	7.221208	-0.028172	NaN	0.000000	0.001659	0.001664	28.1268	0.054153	0.002050	26.4223	111.206	12.6127	-0.015587	1.219563	-0.488968	-0.490299	-0.028172	26.4223	-0.488168	-2.34308e+06	1.202359E-8	NaN
105	1.000000	1.278925	7.36607e+06	-43889.1	955.819	-29777.4	0.000000	0.000000	7.279240	0.010601	NaN	0.000000	0.001657	0.001713	28.1023	0.112789	0.001909	59.0724	145.861	-166.179	0.017184	1.277599	-0.430936	-0.432263	0.010601	59.0724	-0.431071	-369157	-2.871708E-8	NaN
105	1.000000	1.336991	7.36607e+06	-43889.1	955.819	-29777.4	0.000000	0.000000	7.337305	-0.009785	NaN	0.000000	0.001561	0.001721	28.0783	0.103475	0.002079	49.7637	174.375	7.779376	-0.061001	1.335577	-0.372871	-0.374285	-0.009785	49.7637	-0.372723	-54366.4	1.799811E-7	NaN
105	1.000000	1.394990	7.36607e+06	-43889.1	955.819	-29777.4	0.000000	0.000000	7.395305	-0.007444	NaN	0.000000	0.001587	0.001702	28.0903	0.061968	0.001827	33.9183	107.822	-169.282	-0.018502	1.393680	-0.314871	-0.316182	-0.007444	33.9183	-0.314707	-7773.56	9.575890E-7	NaN
105	1.000000	1.452992	7.36607e+06	-43889.1	955.82	-29777.4	0.000000	0.000000	7.453307	0.008230	NaN	0.000000	0.001590	0.001717	28.1283	0.089689	0.002057	43.6026	60.6309	17.8324	-0.032236	1.451689	-0.256870	-0.258173	0.008230	43.6026	-0.257011	-1054.5	-7.804198E-6	NaN
105	1.000000	1.511068	7.36607e+06	-43889.1	955.82	-29777.4	0.000000	0.000000	7.511382	-0.020563	NaN	0.000000	0.001578	0.001734	28.103	0.052750	0.001996	26.4318	8.703936	-164.991	0.065496	1.509754	-0.198794	-0.200107	-0.020563	26.4318	-0.198211	-123.098	0.000167	NaN
105	1.000000	1.569096	7.36607e+06	-43889.1	955.819	-29777.4	0.000000	0.000000	7.569411	0.017524	NaN	0.000000	0.001699	0.001719	28.0792	0.077785	0.001944	40.0078	9.353857	10.6317	0.035176	1.567752	-0.140766	-0.142110	0.017524	40.0078	-0.141095	-12.402	-0.001413	NaN
105	1.000000	1.627110	7.36607e+06	-43889.1	955.82	-29777.4	0.000000	0.000000	7.627424	-0.024584	NaN	0.000000	0.001646	0.001724	28.088	0.002556	0.001957	1.306152	24.5646	-167.276	-0.024287	1.625758	-0.082751	-0.084104	-0.024584	1.306152	-0.068635	-0.313440	0.078432	NaN
105	1.000000	1.685133	7.36607e+06	-43889.1	955.82	-29777.4	0.000000	0.000000	7.685447	-0.017606	NaN	0.000000	0.001571	0.001717	28.1281	0.103108	0.002028	50.8476	-88.5915	15.6313	0.003652	1.683796	-0.024728	-0.026066	-0.017606	50.8476	-0.024469	-0.016341	1.077397	NaN
105	2.000000	1.723619	7.36607e+06	-43889.1	955.82	-29777.4	0.000000	0.000000	7.724657	17.6048	NaN	0.000000	0.001637	0.001751	28.1045	14.3417	0.001704	8417.72	6.444633	-176.131	17.7693	1.723364	0.013757	0.013502	17.6048	8417.72	0.012188	0.011716	1502.57	71050.9
105	2.000000	1.738046	7.36607e+06	-43889.1	955.821	-29777.4	0.000000	0.000000	7.740277	46.6137	NaN	0.000000	0.001587	0.001697	28.0781	27.8993	0.001920	14528.8	3.385891	2.297621	45.0643	1.737821	0.028184	0.027959	46.6137	14528.8	0.025778	0.032446	1436.66	73692.3
105	2.000000	1.752604	7.36607e+06	-43889.1	955.821	-29777.4	0.000000	0.000000	7.756806	94.578	NaN	0.000000	0.001619	0.001750	28.089	41.0271	0.001892	21682.5	6.362341	176.578	96.6809	1.752237	0.042742	0.042375	94.578	21682.5	0.039471	0.062668	1509.19	79133.4
105	2.000000	1.766911	7.36607e+06	-43889.1	955.821	-29777.4	0.000000	0.000000	7.773456	151.586	NaN	0.000000	0.001643	0.001724	28.1281	53.9759	0.001852	29137.6	5.559574	-6.081007	144.483	1.766593	0.057049	0.056731	151.586	29137.6	0.053147	0.102389	1480.49	83195.9
105	2.000000	1.781424	7.36607e+06	-43889.1	955.821	-29777.4	0.000000	0.000000	7.791435	235.903	NaN	0.000000	0.001630	0.001722	28.1049	67.5275	0.001833	36833.7	7.382492	170.166	231.126	1.781137	0.071562	0.071275	235.903	36833.7	0.066759	0.151154	1560.68	86558.3
105	2.000000	1.795998	7.36607e+06	-43889.1	955.821	-29777.4	0.000000	0.000000	7.809737	326.605	NaN	0.000000	0.001630	0.001741	28.0781	80.839	0.001863	43398.5	4.800956	-8.391602	324.366	1.795601	0.086136	0.085739	326.605	43398.5	0.080492	0.209365	1559.98	86655.4
105	2.000000	1.810518	7.36607e+06	-43889.1	955.819	-29777.4	0.000000	0.000000	7.828405	427.501	NaN	0.000000	0.001720	0.001763	28.0878	90.9057	0.001832	49619.5	0.404484	175.281	427.876	1.810248	0.100657	0.100386	427.501	49619.5	0.094195	0.276208	1547.75	86259.5
105	2.000000	1.816096	7.36607e+06	-43889.1	955.822	-29777.4	0.000000	0.000000	7.835951	475.394	NaN	0.000000	0.001729	0.001723	28.0791	97.4144	0.001770	55033.8	4.763216	-9.773210	478.779	1.815642	0.106235	0.105781	475.394	55033.8	0.099756	0.305789	1554.65	90926.7