File: remote_trans/data/nanoindenter/0828-1/data/Data_2025-08-06,11h17m57s/2025-07-22_16-23-58_1_357.txt
2025-07-22, 16:23:58, 1
Index	Phase	Displacement	Time	Pos X	Pos Y	Pos Z	Rot A	Rot B	Piezo Z	Force A	Force B	Gripper	Voltage A	Voltage B	Temperature	Amplitude force	Amplitude pos	Stiffness	Phase shift	Phase excitation	Force A raw	Displacement raw	HMax	HMax raw	Real Force	Real Stiffness	Contact Depth	Area	Hardness	Reduced Mod.
[#]	[#]	[um]	[s]	[um]	[um]	[um]	[m°]	[m°]	[um]	[uN]	[uN]	[V]	[V]	[V]	[°C]	[uN]	[um]	[N/m]	[°]	[°]	[uN]	[um]	[um]	[um]	[uN]	[N/m]	[um]	[um^2]	[MPa]	[MPa]
357	1.000000	0.002770	7.36855e+06	-56489.1	955.819	-29738.9	0.000000	0.000000	6.002816	-0.017276	NaN	0.000000	0.001503	0.001764	28.0823	0.059608	0.001092	54.5894	-80.0654	-165.635	0.024117	0.001546	-1.211502	-1.212726	-0.017276	54.5894	-1.211265	-1.554433E+16	1.111391E-18	NaN
357	1.000000	0.046702	7.36855e+06	-56489.1	955.818	-29738.9	0.000000	0.000000	6.046750	0.018062	NaN	0.000000	0.001564	0.001748	28.0811	0.075381	0.001940	38.8507	-72.8672	-162.782	0.058202	0.045401	-1.167570	-1.168871	0.018062	38.8507	-1.167918	-4.083117E+15	-4.423606E-18	NaN
357	1.000000	0.090714	7.36855e+06	-56489.1	955.819	-29738.9	0.000000	0.000000	6.090761	-0.001025	NaN	0.000000	0.001551	0.001744	28.0811	0.013171	0.002098	6.278423	-78.3137	-165.392	0.011966	0.089358	-1.123558	-1.124914	-0.001025	6.278423	-1.123435	-1.034097E+15	9.912059E-19	NaN
357	1.000000	0.134733	7.36855e+06	-56489.1	955.818	-29739	0.000000	0.000000	6.134779	-0.016383	NaN	0.000000	0.001486	0.001729	28.0812	0.134922	0.001961	68.7962	-143.329	-163.909	-0.066191	0.133441	-1.079539	-1.080831	-0.016383	68.7962	-1.079360	-2.648034E+14	6.187020E-17	NaN
357	1.000000	0.178747	7.36855e+06	-56489.1	955.819	-29739	0.000000	0.000000	6.178794	-0.009285	NaN	0.000000	0.001488	0.001743	28.0824	0.080325	0.001918	41.8737	-163.054	-165.82	-0.008865	0.177388	-1.035525	-1.036884	-0.009285	41.8737	-1.035358	-6.784994E+13	1.368398E-16	NaN
357	1.000000	0.222785	7.36855e+06	-56489.1	955.818	-29739	0.000000	0.000000	6.222833	0.030671	NaN	0.000000	0.001520	0.001732	28.0823	0.098684	0.002022	48.8033	159.179	-165.583	0.005688	0.221461	-0.991487	-0.992811	0.030671	48.8033	-0.991958	-1.768014E+13	-1.734794E-15	NaN
357	1.000000	0.266808	7.36855e+06	-56489.1	955.818	-29739	0.000000	0.000000	6.266857	0.040378	NaN	0.000000	0.001543	0.001763	28.0823	0.038050	0.002061	18.4611	54.4678	-165.584	0.002977	0.265507	-0.947464	-0.948765	0.040378	18.4611	-0.949104	-4.676748E+12	-8.633857E-15	NaN
357	1.000000	0.310786	7.36855e+06	-56489.1	955.818	-29739	0.000000	0.000000	6.310834	0.023426	NaN	0.000000	0.001544	0.001745	28.0809	0.021043	0.002059	10.2208	36.84	-165.698	0.015592	0.309476	-0.903486	-0.904795	0.023426	10.2208	-0.905205	-1.195070E+12	-1.960235E-14	NaN
357	1.000000	0.354837	7.36855e+06	-56489.1	955.818	-29739	0.000000	0.000000	6.354884	-0.019716	NaN	0.000000	0.001510	0.001718	28.0812	0.071346	0.001967	36.2777	104.824	-166.343	0.037713	0.353515	-0.859434	-0.860757	-0.019716	36.2777	-0.859027	-2.837576E+11	6.948109E-14	NaN
357	1.000000	0.398847	7.36855e+06	-56489.1	955.818	-29739	0.000000	0.000000	6.398897	0.074148	NaN	0.000000	0.001542	0.001717	28.0812	0.102019	0.002109	48.3752	-135.395	-161.707	0.123152	0.397522	-0.815425	-0.816750	0.074148	48.3752	-0.816575	-7.546678E+10	-9.825306E-13	NaN
357	1.000000	0.442866	7.36855e+06	-56489.1	955.818	-29739	0.000000	0.000000	6.442913	0.016279	NaN	0.000000	0.001548	0.001724	28.0823	0.055122	0.001905	28.937	-79.3898	-167.794	-0.004566	0.441538	-0.771406	-0.772734	0.016279	28.937	-0.771828	-1.862772E+10	-8.739261E-13	NaN
357	1.000000	0.486903	7.36855e+06	-56489.1	955.817	-29739	0.000000	0.000000	6.486949	-0.025164	NaN	0.000000	0.001527	0.001709	28.0824	0.070600	0.002024	34.8859	-14.185	-165.921	-0.017403	0.485560	-0.727369	-0.728711	-0.025164	34.8859	-0.726828	-4.545416E+9	5.536236E-12	NaN
357	1.000000	0.530915	7.36855e+06	-56489.1	955.819	-29739	0.000000	0.000000	6.530960	-0.030567	NaN	0.000000	0.001518	0.001759	28.0822	0.091648	0.002090	43.8408	116.09	-162.498	0.003256	0.529604	-0.683357	-0.684667	-0.030567	43.8408	-0.682834	-1.140155E+9	2.680977E-11	NaN
357	1.000000	0.574923	7.36855e+06	-56489.1	955.819	-29739	0.000000	0.000000	6.574971	0.026412	NaN	0.000000	0.001518	0.001767	28.0812	0.070532	0.001886	37.4029	-113.742	-164.128	0.045209	0.573680	-0.639349	-0.640591	0.026412	37.4029	-0.639878	-2.941845E+8	-8.978189E-11	NaN
357	1.000000	0.618941	7.36855e+06	-56489.1	955.819	-29739	0.000000	0.000000	6.618989	0.012179	NaN	0.000000	0.001525	0.001750	28.0809	0.044361	0.001989	22.3051	-140.451	-167.064	0.008134	0.617603	-0.595330	-0.596669	0.012179	22.3051	-0.595740	-7.274072E+7	-1.674369E-10	NaN
357	1.000000	0.662959	7.36855e+06	-56489.1	955.819	-29739	0.000000	0.000000	6.663003	-0.093987	NaN	0.000000	0.001492	0.001710	28.0808	0.006054	0.002035	2.975616	81.2545	-166.501	0.050327	0.661731	-0.551312	-0.552541	-0.093987	2.975616	-0.527623	-8.30918e+06	1.131128E-8	NaN
357	1.000000	0.706997	7.36855e+06	-56489.1	955.818	-29739	0.000000	0.000000	6.707043	-0.024308	NaN	0.000000	0.001541	0.001726	28.0821	0.015799	0.002035	7.763616	-117.803	-165.732	-0.004142	0.705687	-0.507275	-0.508585	-0.024308	7.763616	-0.504926	-4.01531e+06	6.053748E-9	NaN
357	1.000000	0.750963	7.36855e+06	-56489.1	955.819	-29739	0.000000	0.000000	6.751010	0.008334	NaN	0.000000	0.001503	0.001764	28.0821	0.089380	0.002082	42.9333	-138.581	-166.948	0.002315	0.749722	-0.463309	-0.464550	0.008334	42.9333	-0.463455	-1.05572e+06	-7.894301E-9	NaN
357	1.000000	0.795038	7.36856e+06	-56489.1	955.819	-29739	0.000000	0.000000	6.795084	-0.019475	NaN	0.000000	0.001583	0.001786	28.0822	0.041823	0.001983	21.0872	52.3378	-164.938	-0.031178	0.793686	-0.419234	-0.420586	-0.019475	21.0872	-0.418541	-245316	7.938795E-8	NaN
357	1.000000	0.839018	7.36856e+06	-56489.1	955.819	-29739	0.000000	0.000000	6.839066	0.007463	NaN	0.000000	0.001531	0.001759	28.0809	0.150101	0.002124	70.6651	15.5463	-166.935	-0.109063	0.837693	-0.375253	-0.376579	0.007463	70.6651	-0.375332	-59272.1	-1.259105E-7	NaN
357	1.000000	0.883097	7.36856e+06	-56489.1	955.819	-29739	0.000000	0.000000	6.883144	0.000106	NaN	0.000000	0.001536	0.001744	28.0808	0.080222	0.001912	41.9515	140.851	-165.346	0.029891	0.881722	-0.331175	-0.332550	0.000106	41.9515	-0.331177	-13573.3	-7.781811E-9	NaN
357	1.000000	0.927092	7.36856e+06	-56489.1	955.82	-29739	0.000000	0.000000	6.927139	0.000361	NaN	0.000000	0.001536	0.001732	28.0808	0.122423	0.002060	59.4328	-148.528	-164.679	0.066326	0.925761	-0.287180	-0.288511	0.000361	59.4328	-0.287185	-3027.5	-1.192960E-7	NaN
357	1.000000	0.971089	7.36856e+06	-56489.1	955.819	-29739	0.000000	0.000000	6.971135	-0.010629	NaN	0.000000	0.001548	0.001726	28.0825	0.061227	0.002118	28.9032	-118.001	-163.635	-0.007789	0.969777	-0.243183	-0.244495	-0.010629	28.9032	-0.242907	-638.114	1.665743E-5	NaN
357	1.000000	1.015120	7.36856e+06	-56489.1	955.818	-29739	0.000000	0.000000	7.015166	-0.032896	NaN	0.000000	0.001519	0.001709	28.0824	0.040363	0.002104	19.1885	91.9307	-162.51	-0.046416	1.013780	-0.199151	-0.200492	-0.032896	19.1885	-0.197866	-121.497	0.000271	NaN
357	1.000000	1.059133	7.36856e+06	-56489.1	955.818	-29739	0.000000	0.000000	7.059181	0.004356	NaN	0.000000	0.001510	0.001705	28.0824	0.027794	0.001998	13.9124	-4.375908	-164.472	-0.056050	1.057831	-0.155138	-0.156441	0.004356	13.9124	-0.155373	-22.6618	-0.000192	NaN
357	1.000000	1.103144	7.36856e+06	-56489.1	955.817	-29739	0.000000	0.000000	7.103190	-0.022096	NaN	0.000000	0.001605	0.001701	28.081	0.080625	0.002006	40.1836	-69.9921	-165.07	-0.057248	1.101846	-0.111128	-0.112426	-0.022096	40.1836	-0.110716	-3.111300	0.007102	NaN
357	1.000000	1.147134	7.36856e+06	-56489.1	955.818	-29739	0.000000	0.000000	7.147181	-0.003732	NaN	0.000000	0.001558	0.001696	28.0812	0.063614	0.002044	31.1216	163.661	-166.374	-0.028068	1.145857	-0.067138	-0.068414	-0.003732	31.1216	-0.067048	-0.283776	0.013150	NaN
357	1.000000	1.191186	7.36856e+06	-56489.1	955.819	-29739	0.000000	0.000000	7.191233	-0.002442	NaN	0.000000	0.001578	0.001676	28.0811	0.097058	0.001977	49.0833	-52.3067	-162.029	0.044676	1.189920	-0.023086	-0.024352	-0.002442	49.0833	-0.023049	-0.015020	0.162618	NaN
357	2.000000	1.225804	7.36856e+06	-56489.1	955.818	-29739	0.000000	0.000000	7.226398	13.3126	NaN	0.000000	0.001628	0.001725	28.0825	12.0156	0.001728	6953.83	7.605486	-174.964	12.7051	1.225446	0.011532	0.011175	13.3126	6953.83	0.010096	0.009289	1433.23	65921
357	2.000000	1.236778	7.36856e+06	-56489.1	955.819	-29739	0.000000	0.000000	7.238223	33.9734	NaN	0.000000	0.001605	0.001727	28.0825	23.7286	0.001706	13906.3	5.021562	-177.083	35.6774	1.236490	0.022506	0.022218	33.9734	13906.3	0.020674	0.023612	1438.8	82682.7
357	2.000000	1.247675	7.36856e+06	-56489.1	955.818	-29739	0.000000	0.000000	7.250500	67.5085	NaN	0.000000	0.001595	0.001757	28.0825	35.2953	0.001759	20063	0.858252	-175.3	64.8963	1.247414	0.033404	0.033142	67.5085	20063	0.030880	0.042587	1585.18	88823.7
357	2.000000	1.258642	7.36856e+06	-56489.1	955.817	-29739	0.000000	0.000000	7.262886	102.024	NaN	0.000000	0.001547	0.001721	28.0824	46.3614	0.001843	25159.8	4.010009	178.493	99.1479	1.258401	0.044370	0.044129	102.024	25159.8	0.041329	0.067507	1511.31	88472
357	2.000000	1.269666	7.36856e+06	-56489.1	955.818	-29739	0.000000	0.000000	7.276087	154.936	NaN	0.000000	0.001499	0.001671	28.0811	56.4478	0.001788	31569.2	6.661101	175.441	155.183	1.269343	0.055394	0.055072	154.936	31569.2	0.051713	0.097781	1584.52	92237.9
357	2.000000	1.280784	7.36856e+06	-56489.1	955.818	-29739	0.000000	0.000000	7.289313	206.174	NaN	0.000000	0.001545	0.001695	28.081	68.4919	0.001923	35610	3.013192	177.325	211.765	1.280415	0.066512	0.066143	206.174	35610	0.062169	0.133702	1542.03	88976.4
357	2.000000	1.291566	7.36856e+06	-56489.1	955.817	-29739	0.000000	0.000000	7.303323	284.636	NaN	0.000000	0.001509	0.001676	28.0809	78.3783	0.001791	43760.1	-0.171724	179.005	280.517	1.291266	0.077294	0.076994	284.636	43760.1	0.072416	0.174053	1635.34	95832
357	2.000000	1.302478	7.36856e+06	-56489.1	955.818	-29739	0.000000	0.000000	7.317060	353.294	NaN	0.000000	0.001501	0.001702	28.0821	88.46	0.001676	52777.5	1.092979	176.152	344.58	1.302329	0.088206	0.088057	353.294	52777.5	0.083185	0.221822	1592.69	102381
357	2.000000	1.313741	7.36856e+06	-56489.1	955.817	-29739	0.000000	0.000000	7.331815	438.169	NaN	0.000000	0.001490	0.001731	28.0822	100.551	0.001758	57194.1	6.995015	170.001	445.545	1.313364	0.099469	0.099092	438.169	57194.1	0.093723	0.273766	1600.53	99869.9
357	2.000000	1.321126	7.36856e+06	-56489.1	955.818	-29739	0.000000	0.000000	7.341741	499.945	NaN	0.000000	0.001552	0.001716	28.0824	108.775	0.001785	60940	5.114535	-8.867556	497.154	1.320862	0.106854	0.106590	499.945	60940	0.100701	0.310957	1607.76	99844.8