File: remote_trans/data/nanoindenter/0828-1/data/Data_2025-08-06,11h17m57s/2025-07-22_16-23-58_1_560.txt
2025-07-22, 16:23:58, 1
Index	Phase	Displacement	Time	Pos X	Pos Y	Pos Z	Rot A	Rot B	Piezo Z	Force A	Force B	Gripper	Voltage A	Voltage B	Temperature	Amplitude force	Amplitude pos	Stiffness	Phase shift	Phase excitation	Force A raw	Displacement raw	HMax	HMax raw	Real Force	Real Stiffness	Contact Depth	Area	Hardness	Reduced Mod.
[#]	[#]	[um]	[s]	[um]	[um]	[um]	[m°]	[m°]	[um]	[uN]	[uN]	[V]	[V]	[V]	[°C]	[uN]	[um]	[N/m]	[°]	[°]	[uN]	[um]	[um]	[um]	[uN]	[N/m]	[um]	[um^2]	[MPa]	[MPa]
560	1.000000	0.002619	7.37053e+06	-49089.1	1005.82	-29760.1	0.000000	0.000000	6.002792	0.072709	NaN	0.000000	0.001571	0.001785	28.0822	0.092645	0.000920	100.706	34.7367	-163.018	0.054520	0.001400	-1.117625	-1.118844	0.072709	100.706	-1.118167	-8.787653E+14	-8.273955E-17	NaN
560	1.000000	0.044596	7.37053e+06	-49089.1	1005.82	-29760.1	0.000000	0.000000	6.044766	-0.012077	NaN	0.000000	0.001571	0.001786	28.0821	0.053893	0.002063	26.1296	71.0683	14.0294	-0.028215	0.043220	-1.075648	-1.077024	-0.012077	26.1296	-1.075301	-2.335615E+14	5.170721E-17	NaN
560	1.000000	0.086601	7.37053e+06	-49089.1	1005.82	-29760.1	0.000000	0.000000	6.086772	0.020178	NaN	0.000000	0.001595	0.001770	28.0807	0.055275	0.001878	29.4339	-132.879	-163.563	-0.048347	0.085210	-1.033642	-1.035034	0.020178	29.4339	-1.034157	-6.537118E+13	-3.086670E-16	NaN
560	1.000000	0.128587	7.37053e+06	-49089.1	1005.82	-29760.1	0.000000	0.000000	6.128756	-0.013816	NaN	0.000000	0.001612	0.001753	28.0809	0.072430	0.001882	38.4822	136.485	14.3003	0.034170	0.127236	-0.991657	-0.993008	-0.013816	38.4822	-0.991388	-1.737001E+13	7.954085E-16	NaN
560	1.000000	0.170604	7.37053e+06	-49089.1	1005.82	-29760.1	0.000000	0.000000	6.170774	-0.004417	NaN	0.000000	0.001618	0.001748	28.081	0.078402	0.002008	39.048	111.864	-166.583	-0.040844	0.169253	-0.949639	-0.950991	-0.004417	39.048	-0.949555	-4.742645E+12	9.314058E-16	NaN
560	1.000000	0.212609	7.37053e+06	-49089.1	1005.82	-29760.1	0.000000	0.000000	6.212776	-0.073166	NaN	0.000000	0.001557	0.001726	28.082	0.040445	0.001894	21.3529	35.1757	13.2473	-0.084128	0.211235	-0.907635	-0.909009	-0.073166	21.3529	-0.905065	-1.189861E+12	6.149108E-14	NaN
560	1.000000	0.254671	7.37053e+06	-49089.1	1005.82	-29760.1	0.000000	0.000000	6.254841	0.019815	NaN	0.000000	0.001603	0.001727	28.0823	0.095337	0.002070	46.0628	173.001	-168.28	-0.020611	0.253327	-0.865573	-0.866917	0.019815	46.0628	-0.865896	-3.514892E+11	-5.637372E-14	NaN
560	1.000000	0.296675	7.37053e+06	-49089.1	1005.82	-29760.1	0.000000	0.000000	6.296845	0.001113	NaN	0.000000	0.001631	0.001746	28.082	0.145621	0.001956	74.4672	168.624	13.6495	0.018416	0.295308	-0.823569	-0.824936	0.001113	74.4672	-0.823580	-9.391920E+10	-1.184662E-14	NaN
560	1.000000	0.338700	7.37053e+06	-49089.1	1005.82	-29760.1	0.000000	0.000000	6.338873	0.080223	NaN	0.000000	0.001689	0.001727	28.0809	0.009626	0.001985	4.849566	144.399	-168.656	0.065651	0.337398	-0.781543	-0.782846	0.080223	4.849566	-0.793950	-3.721583E+10	-2.155627E-12	NaN
560	1.000000	0.380708	7.37053e+06	-49089.1	1005.82	-29760.1	0.000000	0.000000	6.380880	0.062020	NaN	0.000000	0.001663	0.001716	28.0809	0.073738	0.002021	36.4804	105.889	16.71	0.056400	0.379371	-0.739536	-0.740873	0.062020	36.4804	-0.740811	-7.048619E+9	-8.798865E-12	NaN
560	1.000000	0.422749	7.37053e+06	-49089.1	1005.82	-29760.1	0.000000	0.000000	6.422920	0.015484	NaN	0.000000	0.001603	0.001707	28.0809	0.066288	0.002199	30.1456	92.2245	-166.95	-0.032551	0.421401	-0.697495	-0.698843	0.015484	30.1456	-0.697880	-1.830525E+9	-8.458901E-12	NaN
560	1.000000	0.464784	7.37053e+06	-49089.1	1005.82	-29760.1	0.000000	0.000000	6.464950	-0.095867	NaN	0.000000	0.001587	0.001720	28.0815	0.015603	0.001989	7.844233	-60.9478	14.0062	-0.179532	0.463407	-0.655460	-0.656837	-0.095867	7.844233	-0.646294	-3.602654E+8	2.661016E-10	NaN
560	1.000000	0.506781	7.37053e+06	-49089.1	1005.82	-29760.1	0.000000	0.000000	6.506950	-0.025480	NaN	0.000000	0.001603	0.001738	28.082	0.062094	0.001974	31.4532	57.4242	-167.726	0.013956	0.505472	-0.613463	-0.614772	-0.025480	31.4532	-0.612855	-1.251386E+8	2.036172E-10	NaN
560	1.000000	0.548803	7.37053e+06	-49089.1	1005.82	-29760.1	0.000000	0.000000	6.548973	-0.004916	NaN	0.000000	0.001657	0.001736	28.0819	0.085616	0.001975	43.3456	13.1676	14.213	0.024548	0.547436	-0.571441	-0.572808	-0.004916	43.3456	-0.571356	-3.352464E+7	1.466346E-10	NaN
560	1.000000	0.590793	7.37053e+06	-49089.1	1005.82	-29760.1	0.000000	0.000000	6.590963	0.015803	NaN	0.000000	0.001628	0.001707	28.0821	0.033634	0.002005	16.7747	-151.413	-168.66	0.004890	0.589472	-0.529451	-0.530771	0.015803	16.7747	-0.530158	-9.01087e+06	-1.753791E-9	NaN
560	1.000000	0.632859	7.37053e+06	-49089.1	1005.82	-29760.1	0.000000	0.000000	6.633028	-0.027681	NaN	0.000000	0.001573	0.001731	28.0805	0.056294	0.001908	29.5057	-61.8543	13.9276	-0.009014	0.631514	-0.487385	-0.488730	-0.027681	29.5057	-0.486681	-2.23357e+06	1.239312E-8	NaN
560	1.000000	0.674881	7.37053e+06	-49089.1	1005.82	-29760.1	0.000000	0.000000	6.675047	-0.098596	NaN	0.000000	0.001610	0.001683	28.0806	0.095134	0.002018	47.1383	-51.0823	-165.994	-0.036163	0.673505	-0.445362	-0.446739	-0.098596	47.1383	-0.443794	-558321	1.765935E-7	NaN
560	1.000000	0.716876	7.37053e+06	-49089.1	1005.82	-29760.1	0.000000	0.000000	6.717047	0.009336	NaN	0.000000	0.001571	0.001646	28.0805	0.022463	0.002185	10.2818	-49.8386	14.6824	-0.035366	0.715482	-0.403367	-0.404762	0.009336	10.2818	-0.404048	-152650	-6.115929E-8	NaN
560	1.000000	0.758873	7.37053e+06	-49089.1	1005.82	-29760.1	0.000000	0.000000	6.759043	-0.006149	NaN	0.000000	0.001555	0.001678	28.0819	0.063521	0.001935	32.8236	-135.073	-166.176	0.083393	0.757594	-0.361371	-0.362650	-0.006149	32.8236	-0.361230	-37121.5	1.656532E-7	NaN
560	1.000000	0.800902	7.37053e+06	-49089.1	1005.82	-29760.1	0.000000	0.000000	6.801070	-0.044477	NaN	0.000000	0.001555	0.001660	28.0821	0.047829	0.002041	23.4355	116.998	9.982465	-0.001630	0.799516	-0.319342	-0.320728	-0.044477	23.4355	-0.317918	-8669.25	5.130381E-6	NaN
560	1.000000	0.842910	7.37053e+06	-49089.1	1005.82	-29760.1	0.000000	0.000000	6.843077	-0.053832	NaN	0.000000	0.001531	0.001617	28.0822	0.029006	0.001949	14.8822	-130.324	-162.747	-0.001588	0.841587	-0.277334	-0.278657	-0.053832	14.8822	-0.274621	-1957.33	2.750264E-5	NaN
560	1.000000	0.884930	7.37053e+06	-49089.1	1005.82	-29760.1	0.000000	0.000000	6.885099	-0.026892	NaN	0.000000	0.001573	0.001666	28.0808	0.085932	0.002074	41.4387	-113.875	13.5552	-0.042938	0.883601	-0.235314	-0.236643	-0.026892	41.4387	-0.234827	-477.019	5.637406E-5	NaN
560	1.000000	0.926949	7.37053e+06	-49089.1	1005.82	-29760.1	0.000000	0.000000	6.927119	0.004376	NaN	0.000000	0.001594	0.001690	28.0809	0.054133	0.002002	27.0339	23.6562	-165.628	0.036327	0.925629	-0.193295	-0.194615	0.004376	27.0339	-0.193416	-102.55	-4.267148E-5	NaN
560	1.000000	0.968937	7.37053e+06	-49089.1	1005.82	-29760.1	0.000000	0.000000	6.969106	-0.022585	NaN	0.000000	0.001585	0.001721	28.0809	0.082818	0.001971	42.0218	23.9729	11.2911	-0.029741	0.967697	-0.151307	-0.152547	-0.022585	42.0218	-0.150904	-18.8132	0.001200	NaN
560	1.000000	1.010967	7.37053e+06	-49089.1	1005.82	-29760.1	0.000000	0.000000	7.011136	0.000252	NaN	0.000000	0.001555	0.001662	28.0819	0.052140	0.001954	26.6796	-37.78	-166.629	0.045599	1.009676	-0.109277	-0.110567	0.000252	26.6796	-0.109284	-2.902383	-8.678084E-5	NaN
560	1.000000	1.052994	7.37053e+06	-49089.1	1005.82	-29760.1	0.000000	0.000000	7.053167	0.076570	NaN	0.000000	0.001578	0.001642	28.0821	0.119609	0.002007	59.5819	114.467	12.2469	0.140132	1.051616	-0.067250	-0.068628	0.076570	59.5819	-0.068213	-0.305302	-0.250802	NaN
560	1.000000	1.095007	7.37053e+06	-49089.1	1005.82	-29760.1	0.000000	0.000000	7.095179	0.057566	NaN	0.000000	0.001587	0.001726	28.082	0.046973	0.001998	23.5095	-172.589	-164.412	-0.010991	1.093730	-0.025237	-0.026514	0.057566	23.5095	-0.027073	-0.019141	-3.007471	NaN
560	2.000000	1.131011	7.37053e+06	-49089.1	1005.82	-29760.1	0.000000	0.000000	7.131619	10.6584	NaN	0.000000	0.001635	0.001662	28.0819	11.1306	0.001562	7127.32	3.257960	6.229244	9.864832	1.130615	0.010767	0.010371	10.6584	7127.32	0.009646	0.008791	1212.48	69452.7
560	2.000000	1.141459	7.37053e+06	-49089.1	1005.82	-29760.1	0.000000	0.000000	7.142696	25.9636	NaN	0.000000	0.001604	0.001683	28.0809	20.6869	0.001769	11692.5	4.079088	-176.46	25.7399	1.141122	0.021215	0.020878	25.9636	11692.5	0.019550	0.021840	1188.82	72286.4
560	2.000000	1.151893	7.37053e+06	-49089.1	1005.82	-29760.1	0.000000	0.000000	7.154326	55.0557	NaN	0.000000	0.001562	0.001682	28.081	30.5002	0.001800	16945.7	5.464428	-0.736924	51.8565	1.151445	0.031649	0.031201	55.0557	16945.7	0.029212	0.039126	1407.12	78270.5
560	2.000000	1.162369	7.37053e+06	-49089.1	1005.82	-29760.1	0.000000	0.000000	7.166095	86.4956	NaN	0.000000	0.001530	0.001678	28.0809	41.1144	0.001922	21388.8	5.941836	176.817	84.1581	1.162119	0.042125	0.041875	86.4956	21388.8	0.039092	0.061703	1401.82	78669.7
560	2.000000	1.172870	7.37053e+06	-49089.1	1005.82	-29760.1	0.000000	0.000000	7.178193	125.329	NaN	0.000000	0.001605	0.001639	28.0825	50.3315	0.001779	28291.8	3.742982	-4.501802	123.256	1.172553	0.052626	0.052309	125.329	28291.8	0.049304	0.090274	1388.32	86030.6
560	2.000000	1.183391	7.37053e+06	-49089.1	1005.82	-29760.1	0.000000	0.000000	7.190809	176.263	NaN	0.000000	0.001639	0.001717	28.0823	60.0356	0.001740	34508	6.392149	172.234	176.186	1.183046	0.063148	0.062802	176.263	34508	0.059317	0.123369	1428.74	89761.3
560	2.000000	1.193922	7.37053e+06	-49089.1	1005.82	-29760.1	0.000000	0.000000	7.203443	227.432	NaN	0.000000	0.001667	0.001717	28.0823	71.4368	0.001918	37240.5	5.245232	-6.834757	227.019	1.193413	0.073678	0.073169	227.432	37240.5	0.069098	0.160438	1417.57	84944.4
560	2.000000	1.204316	7.37053e+06	-49089.1	1005.82	-29760.1	0.000000	0.000000	7.216525	292.8	NaN	0.000000	0.001581	0.001683	28.0812	80.4353	0.001812	44383.2	6.050539	171.106	293.154	1.203927	0.084072	0.083683	292.8	44383.2	0.079124	0.203172	1441.14	89962
560	2.000000	1.214805	7.37053e+06	-49089.1	1005.82	-29760.1	0.000000	0.000000	7.230201	370.316	NaN	0.000000	0.001544	0.001733	28.0809	88.9244	0.001781	49943.3	3.143231	-7.395430	367.213	1.214395	0.094561	0.094151	370.316	49943.3	0.089000	0.249851	1482.15	91287.1
560	2.000000	1.225374	7.37053e+06	-49089.1	1005.82	-29760.1	0.000000	0.000000	7.243712	441.858	NaN	0.000000	0.001574	0.001764	28.081	98.9165	0.001823	54265.8	8.383381	167.455	446.842	1.224970	0.105130	0.104726	441.858	54265.8	0.099023	0.301810	1464.03	90247
560	2.000000	1.227322	7.37053e+06	-49089.1	1005.82	-29760.1	0.000000	0.000000	7.246208	455.191	NaN	0.000000	0.001597	0.001705	28.0808	100.582	0.001721	58449.5	4.159791	170.699	453.255	1.227072	0.107079	0.106828	455.191	58449.5	0.101238	0.313908	1450.08	95313.1