File: remote_trans/data/nanoindenter/0828-1/data/Data_2025-08-06,11h17m57s/2025-07-22_16-23-58_1_220.txt
2025-07-22, 16:23:58, 1
Index	Phase	Displacement	Time	Pos X	Pos Y	Pos Z	Rot A	Rot B	Piezo Z	Force A	Force B	Gripper	Voltage A	Voltage B	Temperature	Amplitude force	Amplitude pos	Stiffness	Phase shift	Phase excitation	Force A raw	Displacement raw	HMax	HMax raw	Real Force	Real Stiffness	Contact Depth	Area	Hardness	Reduced Mod.
[#]	[#]	[um]	[s]	[um]	[um]	[um]	[m°]	[m°]	[um]	[uN]	[uN]	[V]	[V]	[V]	[°C]	[uN]	[um]	[N/m]	[°]	[°]	[uN]	[um]	[um]	[um]	[uN]	[N/m]	[um]	[um^2]	[MPa]	[MPa]
220	1.000000	0.002209	7.3672e+06	-49639.1	955.818	-29758.7	0.000000	0.000000	6.002794	0.063613	NaN	0.000000	0.001615	0.001738	28.081	0.064912	0.001045	62.088	-8.121150	-167.483	-0.003903	0.000975	-1.026120	-1.027354	0.063613	62.088	-1.026888	-5.219461E+13	-1.218770E-15	NaN
220	1.000000	0.042159	7.3672e+06	-49639.1	955.818	-29758.7	0.000000	0.000000	6.042743	0.041478	NaN	0.000000	0.001572	0.001681	28.0806	0.088859	0.001947	45.6283	-117.039	-166.251	0.095537	0.040839	-0.986169	-0.987490	0.041478	45.6283	-0.986851	-1.509048E+13	-2.748612E-15	NaN
220	1.000000	0.082192	7.3672e+06	-49639.1	955.818	-29758.7	0.000000	0.000000	6.082777	0.071330	NaN	0.000000	0.001608	0.001691	28.0806	0.033297	0.001975	16.8627	153.507	-167.708	0.115895	0.080885	-0.946137	-0.947444	0.071330	16.8627	-0.949309	-4.706623E+12	-1.515520E-14	NaN
220	1.000000	0.122167	7.3672e+06	-49639.1	955.818	-29758.7	0.000000	0.000000	6.122749	0.002583	NaN	0.000000	0.001602	0.001708	28.0791	0.026951	0.002097	12.851	85.3704	-163.039	0.003476	0.120865	-0.906162	-0.907463	0.002583	12.851	-0.906313	-1.236954E+12	-2.088052E-15	NaN
220	1.000000	0.162199	7.3672e+06	-49639.1	955.818	-29758.7	0.000000	0.000000	6.162783	0.042088	NaN	0.000000	0.001635	0.001633	28.0792	0.061512	0.002018	30.4805	179.355	-172.522	0.075088	0.160948	-0.866130	-0.867381	0.042088	30.4805	-0.867165	-3.656693E+11	-1.150975E-13	NaN
220	1.000000	0.202222	7.3672e+06	-49639.1	955.818	-29758.7	0.000000	0.000000	6.202807	0.054264	NaN	0.000000	0.001628	0.001651	28.0791	0.033474	0.002098	15.9542	94.426	-165.901	0.052324	0.200914	-0.826107	-0.827415	0.054264	15.9542	-0.828657	-1.100493E+11	-4.930860E-13	NaN
220	1.000000	0.242268	7.3672e+06	-49639.1	955.818	-29758.7	0.000000	0.000000	6.242853	0.046793	NaN	0.000000	0.001561	0.001646	28.0791	0.080955	0.002114	38.2981	-34.6373	-164.973	-0.056538	0.240923	-0.786060	-0.787406	0.046793	38.2981	-0.786977	-2.992382E+10	-1.563734E-12	NaN
220	1.000000	0.282234	7.3672e+06	-49639.1	955.818	-29758.7	0.000000	0.000000	6.282820	0.076957	NaN	0.000000	0.001590	0.001638	28.0806	0.036418	0.001941	18.7593	-62.4336	-167.683	0.028323	0.280974	-0.746094	-0.747355	0.076957	18.7593	-0.749171	-9.160836E+9	-8.400620E-12	NaN
220	1.000000	0.322290	7.3672e+06	-49639.1	955.817	-29758.7	0.000000	0.000000	6.322875	0.078175	NaN	0.000000	0.001571	0.001661	28.0806	0.053663	0.002009	26.7176	-56.1691	-164.466	0.022561	0.320971	-0.706039	-0.707358	0.078175	26.7176	-0.708233	-2.534755E+9	-3.084109E-11	NaN
220	1.000000	0.362284	7.3672e+06	-49639.1	955.817	-29758.7	0.000000	0.000000	6.362868	0.032624	NaN	0.000000	0.001598	0.001679	28.0806	0.015906	0.002061	7.717398	25.8105	-165.474	0.004896	0.360999	-0.666044	-0.667330	0.032624	7.717398	-0.669215	-7.424088E+8	-4.394337E-11	NaN
220	1.000000	0.402294	7.3672e+06	-49639.1	955.817	-29758.7	0.000000	0.000000	6.402879	0.068708	NaN	0.000000	0.001613	0.001653	28.0791	0.048060	0.001992	24.1209	159.587	-168.003	0.046389	0.401019	-0.626035	-0.627310	0.068708	24.1209	-0.628171	-2.031926E+8	-3.381415E-10	NaN
220	1.000000	0.442331	7.3672e+06	-49639.1	955.817	-29758.7	0.000000	0.000000	6.442915	0.029440	NaN	0.000000	0.001560	0.001640	28.0793	0.089188	0.001972	45.2299	-93.5337	-164.194	0.075123	0.441015	-0.585997	-0.587314	0.029440	45.2299	-0.586486	-5.422583E+7	-5.429103E-10	NaN
220	1.000000	0.482382	7.3672e+06	-49639.1	955.818	-29758.7	0.000000	0.000000	6.482965	0.019484	NaN	0.000000	0.001607	0.001654	28.0794	0.052164	0.002042	25.5499	8.029449	-164.166	0.052490	0.481058	-0.545947	-0.547270	0.019484	25.5499	-0.546519	-1.519604E+7	-1.282204E-9	NaN
220	1.000000	0.522375	7.3672e+06	-49639.1	955.818	-29758.7	0.000000	0.000000	6.522963	0.114777	NaN	0.000000	0.001564	0.001587	28.0794	0.083386	0.002059	40.5056	-170.611	-166.979	0.110642	0.521086	-0.505953	-0.507243	0.114777	40.5056	-0.508078	-4.4427e+06	-2.583507E-8	NaN
220	1.000000	0.562400	7.3672e+06	-49639.1	955.817	-29758.7	0.000000	0.000000	6.562984	0.041478	NaN	0.000000	0.001644	0.001663	28.0802	0.060346	0.002044	29.5191	126.619	-167.956	0.036989	0.561125	-0.465929	-0.467204	0.041478	29.5191	-0.466983	-1.18325e+06	-3.505459E-8	NaN
220	1.000000	0.602399	7.3672e+06	-49639.1	955.817	-29758.7	0.000000	0.000000	6.602986	0.092871	NaN	0.000000	0.001585	0.001655	28.0805	0.037430	0.002056	18.2092	31.4037	-167.418	0.096893	0.601088	-0.425929	-0.427241	0.092871	18.2092	-0.429754	-353662	-2.625977E-7	NaN
220	1.000000	0.642413	7.3672e+06	-49639.1	955.818	-29758.7	0.000000	0.000000	6.642994	-0.049786	NaN	0.000000	0.001642	0.001680	28.0808	0.030764	0.002011	15.3004	-149.405	-165.082	-0.131679	0.641140	-0.385915	-0.387189	-0.049786	15.3004	-0.383475	-77576.7	6.417649E-7	NaN
220	1.000000	0.682443	7.3672e+06	-49639.1	955.818	-29758.7	0.000000	0.000000	6.683028	0.062835	NaN	0.000000	0.001641	0.001636	28.0796	0.071619	0.001989	36.0065	-39.5325	-165.417	0.072927	0.681133	-0.345886	-0.347195	0.062835	36.0065	-0.347195	-23241.5	-2.703590E-6	NaN
220	1.000000	0.722464	7.3672e+06	-49639.1	955.818	-29758.7	0.000000	0.000000	6.723051	0.098067	NaN	0.000000	0.001654	0.001687	28.0796	0.105824	0.002066	51.2186	131.321	-166.859	-0.012861	0.721157	-0.305864	-0.307172	0.098067	51.2186	-0.307300	-6040.51	-1.623496E-5	NaN
220	1.000000	0.762488	7.3672e+06	-49639.1	955.819	-29758.7	0.000000	0.000000	6.763072	0.050723	NaN	0.000000	0.001600	0.001731	28.0793	0.053259	0.002000	26.6326	-3.646824	-168.412	0.045314	0.761189	-0.265841	-0.267139	0.050723	26.6326	-0.267269	-1513.54	-3.351278E-5	NaN
220	1.000000	0.802485	7.3672e+06	-49639.1	955.818	-29758.7	0.000000	0.000000	6.803069	0.043005	NaN	0.000000	0.001592	0.001686	28.0805	0.050094	0.002074	24.1559	-8.176171	-166.124	-0.006172	0.801202	-0.225844	-0.227127	0.043005	24.1559	-0.227179	-361.329	-0.000119	NaN
220	1.000000	0.842503	7.3672e+06	-49639.1	955.818	-29758.7	0.000000	0.000000	6.843087	0.041137	NaN	0.000000	0.001608	0.001694	28.0805	0.066733	0.002057	32.4489	170.921	-164.746	0.037451	0.841180	-0.185826	-0.187149	0.041137	32.4489	-0.186777	-79.4387	-0.000518	NaN
220	1.000000	0.882499	7.3672e+06	-49639.1	955.817	-29758.7	0.000000	0.000000	6.883084	0.055540	NaN	0.000000	0.001573	0.001685	28.0805	0.087547	0.002085	41.98	132.973	-163.534	-0.024277	0.881199	-0.145830	-0.147129	0.055540	41.98	-0.146822	-15.841	-0.003506	NaN
220	1.000000	0.922548	7.3672e+06	-49639.1	955.818	-29758.7	0.000000	0.000000	6.923132	0.056004	NaN	0.000000	0.001567	0.001629	28.0805	0.062378	0.001955	31.9025	-7.480865	-167.981	-0.018883	0.921230	-0.105781	-0.107099	0.056004	31.9025	-0.107098	-2.607668	-0.021477	NaN
220	1.000000	0.962545	7.3672e+06	-49639.1	955.818	-29758.7	0.000000	0.000000	6.963129	0.046166	NaN	0.000000	0.001635	0.001650	28.0795	0.083788	0.002044	40.9953	-41.727	-166.035	0.056221	0.961301	-0.065784	-0.067028	0.046166	40.9953	-0.066629	-0.276374	-0.167043	NaN
220	1.000000	1.002560	7.3672e+06	-49639.1	955.818	-29758.7	0.000000	0.000000	7.003143	-0.000145	NaN	0.000000	0.001628	0.001657	28.0794	0.081507	0.001993	40.8941	-127.753	-166.188	0.025484	1.001246	-0.025768	-0.027083	-0.000145	40.8941	-0.025766	-0.017669	0.008224	NaN
220	2.000000	1.038185	7.3672e+06	-49639.1	955.818	-29758.7	0.000000	0.000000	7.039185	10.152	NaN	0.000000	0.001630	0.001696	28.0797	9.867778	0.001710	5770.14	10.2255	-173.9	10.374	1.037826	0.009856	0.009498	10.152	5770.14	0.008537	0.007600	1335.72	60470.2
220	2.000000	1.048053	7.3672e+06	-49639.1	955.817	-29758.7	0.000000	0.000000	7.049696	25.8037	NaN	0.000000	0.001593	0.001652	28.0806	21.5481	0.002067	10426	8.054102	-176.214	25.3438	1.047773	0.019724	0.019444	25.8037	10426	0.017868	0.019302	1336.83	68562.7
220	2.000000	1.058066	7.3672e+06	-49639.1	955.818	-29758.7	0.000000	0.000000	7.060760	51.3459	NaN	0.000000	0.001589	0.001681	28.0806	30.3336	0.001825	16623	4.409225	-178.618	51.0873	1.057711	0.029738	0.029382	51.3459	16623	0.027421	0.035568	1443.61	80529.5
220	2.000000	1.068013	7.3672e+06	-49639.1	955.817	-29758.7	0.000000	0.000000	7.071917	80.7952	NaN	0.000000	0.001596	0.001642	28.0805	40.4696	0.001862	21733.9	8.670794	174.707	80.0142	1.067694	0.039684	0.039365	80.7952	21733.9	0.036896	0.056252	1436.3	83722.1
220	2.000000	1.078094	7.3672e+06	-49639.1	955.818	-29758.7	0.000000	0.000000	7.083588	119.45	NaN	0.000000	0.001596	0.001661	28.0806	49.142	0.001849	26578.4	2.942857	179.083	122.088	1.077668	0.049765	0.049339	119.45	26578.4	0.046395	0.081596	1463.92	85009.8
220	2.000000	1.088000	7.3672e+06	-49639.1	955.818	-29758.7	0.000000	0.000000	7.095216	161.333	NaN	0.000000	0.001587	0.001670	28.0802	59.6192	0.001832	32546.6	8.457506	171.377	159.521	1.087709	0.059671	0.059380	161.333	32546.6	0.055954	0.111699	1444.35	88972.1
220	2.000000	1.098016	7.3672e+06	-49639.1	955.818	-29758.7	0.000000	0.000000	7.107385	213.703	NaN	0.000000	0.001610	0.001650	28.0796	69.0897	0.001823	37893.4	2.220177	176.318	213.284	1.097734	0.069687	0.069405	213.703	37893.4	0.065457	0.146102	1462.7	90575.2
220	2.000000	1.107977	7.3672e+06	-49639.1	955.817	-29758.7	0.000000	0.000000	7.119895	275.664	NaN	0.000000	0.001610	0.001777	28.0793	76.8129	0.001783	43082.6	1.024000	176.6	274.297	1.107756	0.079649	0.079427	275.664	43082.6	0.074850	0.184374	1495.13	91669.4
220	2.000000	1.117987	7.3672e+06	-49639.1	955.816	-29758.7	0.000000	0.000000	7.132279	333.416	NaN	0.000000	0.001609	0.001701	28.0803	86.6603	0.001697	51066.1	1.595530	174.711	331.514	1.117771	0.089659	0.089442	333.416	51066.1	0.084762	0.229267	1454.27	97439.5
220	2.000000	1.128092	7.3672e+06	-49639.1	955.817	-29758.7	0.000000	0.000000	7.145329	405.057	NaN	0.000000	0.001589	0.001710	28.0801	97.8806	0.001894	51679.2	3.989057	172.593	409.035	1.127758	0.099763	0.099429	405.057	51679.2	0.093884	0.274599	1475.09	90103
220	2.000000	1.134962	7.3672e+06	-49639.1	955.817	-29758.7	0.000000	0.000000	7.154398	458.526	NaN	0.000000	0.001594	0.001692	28.0805	103.809	0.001928	53831.8	2.235289	174.304	456.685	1.134611	0.106633	0.106283	458.526	53831.8	0.100245	0.308456	1486.52	88555.5