File: remote_trans/data/nanoindenter/0828-1/data/Data_2025-08-06,11h17m57s/2025-07-22_16-23-58_1_1169.txt
2025-07-22, 16:23:58, 1
Index	Phase	Displacement	Time	Pos X	Pos Y	Pos Z	Rot A	Rot B	Piezo Z	Force A	Force B	Gripper	Voltage A	Voltage B	Temperature	Amplitude force	Amplitude pos	Stiffness	Phase shift	Phase excitation	Force A raw	Displacement raw	HMax	HMax raw	Real Force	Real Stiffness	Contact Depth	Area	Hardness	Reduced Mod.
[#]	[#]	[um]	[s]	[um]	[um]	[um]	[m°]	[m°]	[um]	[uN]	[uN]	[V]	[V]	[V]	[°C]	[uN]	[um]	[N/m]	[°]	[°]	[uN]	[um]	[um]	[um]	[uN]	[N/m]	[um]	[um^2]	[MPa]	[MPa]
1169	1.000000	0.002364	7.37648e+06	-57139.1	1105.82	-29737.2	0.000000	0.000000	6.002824	0.002688	NaN	0.000000	0.001676	0.001758	28.0827	0.023818	0.000924	25.786	101.032	-166.178	0.088829	0.001062	-1.087493	-1.088796	0.002688	25.786	-1.087572	-3.413521E+14	-7.875083E-18	NaN
1169	1.000000	0.044242	7.37648e+06	-57139.1	1105.82	-29737.2	0.000000	0.000000	6.044704	0.053269	NaN	0.000000	0.001653	0.001787	28.0827	0.106777	0.001881	56.7652	-137.873	12.2453	0.117695	0.042931	-1.045615	-1.046927	0.053269	56.7652	-1.046319	-9.526496E+13	-5.591716E-16	NaN
1169	1.000000	0.086342	7.37648e+06	-57139.1	1105.82	-29737.2	0.000000	0.000000	6.086803	0.054810	NaN	0.000000	0.001654	0.001714	28.0811	0.077131	0.001949	39.5836	16.8458	-164.366	-0.010692	0.085024	-1.003516	-1.004834	0.054810	39.5836	-1.004555	-2.612673E+13	-2.097843E-15	NaN
1169	1.000000	0.128326	7.37648e+06	-57139.1	1105.82	-29737.2	0.000000	0.000000	6.128788	0.048789	NaN	0.000000	0.001640	0.001719	28.0815	0.058130	0.002081	27.9368	63.1014	12.4245	0.112141	0.126900	-0.961532	-0.962958	0.048789	27.9368	-0.962841	-7.164291E+12	-6.809978E-15	NaN
1169	1.000000	0.170322	7.37648e+06	-57139.1	1105.82	-29737.2	0.000000	0.000000	6.170780	-0.035840	NaN	0.000000	0.001652	0.001729	28.0814	0.123647	0.001996	61.9444	-151.342	-162.362	0.075216	0.169030	-0.919536	-0.920827	-0.035840	61.9444	-0.919102	-1.841105E+12	1.946670E-14	NaN
1169	1.000000	0.212331	7.37648e+06	-57139.1	1105.82	-29737.2	0.000000	0.000000	6.212792	0.040340	NaN	0.000000	0.001634	0.001721	28.0816	0.159908	0.002067	77.3571	-53.4271	15.146	-0.019670	0.211013	-0.877527	-0.878844	0.040340	77.3571	-0.877918	-5.111568E+11	-7.891870E-14	NaN
1169	1.000000	0.254383	7.37648e+06	-57139.1	1105.82	-29737.2	0.000000	0.000000	6.254843	-0.006273	NaN	0.000000	0.001634	0.001736	28.0828	0.114926	0.001957	58.7297	121.957	-166.917	-0.014294	0.253084	-0.835475	-0.836773	-0.006273	58.7297	-0.835394	-1.357973E+11	4.619206E-14	NaN
1169	1.000000	0.296418	7.37648e+06	-57139.1	1105.82	-29737.2	0.000000	0.000000	6.296879	0.023209	NaN	0.000000	0.001711	0.001726	28.0825	0.054794	0.001858	29.4868	61.1567	13.6282	0.024000	0.295022	-0.793440	-0.794836	0.023209	29.4868	-0.794030	-3.730889E+10	-6.220700E-13	NaN
1169	1.000000	0.338410	7.37648e+06	-57139.1	1105.82	-29737.2	0.000000	0.000000	6.338872	0.053223	NaN	0.000000	0.001729	0.001741	28.0826	0.059394	0.001974	30.0851	-41.968	-165.436	0.124788	0.337097	-0.751448	-0.752760	0.053223	30.0851	-0.752774	-1.025611E+10	-5.189362E-12	NaN
1169	1.000000	0.380428	7.37649e+06	-57139.1	1105.82	-29737.2	0.000000	0.000000	6.380888	0.015317	NaN	0.000000	0.001700	0.001728	28.0811	0.025414	0.002069	12.2813	168.987	14.5679	0.056209	0.379027	-0.709430	-0.710830	0.015317	12.2813	-0.710365	-2.710397E+9	-5.651183E-12	NaN
1169	1.000000	0.422445	7.37649e+06	-57139.1	1105.82	-29737.2	0.000000	0.000000	6.422906	0.048839	NaN	0.000000	0.001713	0.001769	28.0812	0.119532	0.001924	62.121	-144.349	-162.02	0.076324	0.421074	-0.667413	-0.668783	0.048839	62.121	-0.668003	-7.145837E+8	-6.834599E-11	NaN
1169	1.000000	0.464419	7.37649e+06	-57139.1	1105.82	-29737.2	0.000000	0.000000	6.464878	-0.021162	NaN	0.000000	0.001741	0.001741	28.0814	0.059700	0.002125	28.0994	-157.392	11.9302	-0.019219	0.463079	-0.625439	-0.626779	-0.021162	28.0994	-0.624874	-1.830679E+8	1.155963E-10	NaN
1169	1.000000	0.506461	7.37649e+06	-57139.1	1105.82	-29737.2	0.000000	0.000000	6.506923	0.057516	NaN	0.000000	0.001757	0.001775	28.0827	0.096719	0.001968	49.1552	149.231	-160.002	0.056650	0.505205	-0.583397	-0.584653	0.057516	49.1552	-0.584275	-5.054859E+7	-1.137835E-9	NaN
1169	1.000000	0.548472	7.37649e+06	-57139.1	1105.82	-29737.2	0.000000	0.000000	6.548932	-0.006882	NaN	0.000000	0.001652	0.001776	28.0826	0.063707	0.001887	33.758	-102.401	16.3678	0.011391	0.547176	-0.541385	-0.542682	-0.006882	33.758	-0.541232	-1.283660E+7	5.361490E-10	NaN
1169	1.000000	0.590486	7.37649e+06	-57139.1	1105.82	-29737.2	0.000000	0.000000	6.590946	0.008256	NaN	0.000000	0.001657	0.001759	28.0824	0.124942	0.001969	63.4591	131.787	-165.846	-0.021747	0.589201	-0.499371	-0.500657	0.008256	63.4591	-0.499469	-3.36985e+06	-2.450076E-9	NaN
1169	1.000000	0.632532	7.37649e+06	-57139.1	1105.82	-29737.2	0.000000	0.000000	6.632993	0.035675	NaN	0.000000	0.001627	0.001761	28.0812	0.035521	0.002038	17.4289	-117.146	15.9342	0.062090	0.631152	-0.457326	-0.458706	0.035675	17.4289	-0.458861	-909925	-3.920698E-8	NaN
1169	1.000000	0.674533	7.37649e+06	-57139.1	1105.82	-29737.2	0.000000	0.000000	6.674996	0.077148	NaN	0.000000	0.001584	0.001751	28.0811	0.047783	0.002046	23.3523	148.658	-164.475	0.051351	0.673253	-0.415325	-0.416605	0.077148	23.3523	-0.417803	-239464	-3.221707E-7	NaN
1169	1.000000	0.716549	7.37649e+06	-57139.1	1105.82	-29737.2	0.000000	0.000000	6.717012	0.075559	NaN	0.000000	0.001653	0.001715	28.0809	0.021127	0.002017	10.4762	76.1931	13.7451	0.009762	0.715248	-0.373309	-0.374609	0.075559	10.4762	-0.378718	-66295.8	-1.139727E-6	NaN
1169	1.000000	0.758569	7.37649e+06	-57139.1	1105.82	-29737.2	0.000000	0.000000	6.759029	0.008314	NaN	0.000000	0.001627	0.001773	28.0811	0.064529	0.001994	32.3594	138.989	-162.427	-0.012947	0.757279	-0.331288	-0.332579	0.008314	32.3594	-0.331481	-13713	-6.062627E-7	NaN
1169	1.000000	0.800612	7.37649e+06	-57139.1	1105.82	-29737.2	0.000000	0.000000	6.801070	-0.052588	NaN	0.000000	0.001708	0.001727	28.0824	0.106263	0.001852	57.3814	-136.473	18.021	-0.052341	0.799226	-0.289245	-0.290631	-0.052588	57.3814	-0.288558	-3174.6	1.656529E-5	NaN
1169	1.000000	0.842598	7.37649e+06	-57139.1	1105.82	-29737.2	0.000000	0.000000	6.843057	-0.008653	NaN	0.000000	0.001676	0.001771	28.0827	0.069904	0.002056	33.9978	120.337	-162.239	-0.004408	0.841334	-0.247260	-0.248523	-0.008653	33.9978	-0.247069	-740.578	1.168441E-5	NaN
1169	1.000000	0.884625	7.37649e+06	-57139.1	1105.82	-29737.2	0.000000	0.000000	6.885083	-0.038481	NaN	0.000000	0.001734	0.001716	28.0826	0.055020	0.001989	27.6673	97.5672	14.4774	-0.050813	0.883280	-0.205232	-0.206577	-0.038481	27.6673	-0.204189	-154.285	0.000249	NaN
1169	1.000000	0.926683	7.37649e+06	-57139.1	1105.82	-29737.2	0.000000	0.000000	6.927142	-0.013148	NaN	0.000000	0.001634	0.001789	28.0814	0.132000	0.001989	66.3505	-9.713902	-163.229	-0.040755	0.925280	-0.163175	-0.164578	-0.013148	66.3505	-0.163026	-31.0145	0.000424	NaN
1169	1.000000	0.968669	7.37649e+06	-57139.1	1105.82	-29737.2	0.000000	0.000000	6.969130	0.046221	NaN	0.000000	0.001634	0.001755	28.0813	0.058495	0.002075	28.1913	-76.8501	15.5162	-0.068221	0.967304	-0.121189	-0.122554	0.046221	28.1913	-0.122419	-5.403312	-0.008554	NaN
1169	1.000000	1.010680	7.37649e+06	-57139.1	1105.82	-29737.2	0.000000	0.000000	7.011142	0.063092	NaN	0.000000	0.001571	0.001790	28.0814	0.107950	0.001949	55.3858	-101.146	-164.833	0.029217	1.009379	-0.079178	-0.080478	0.063092	55.3858	-0.080032	-0.620149	-0.101737	NaN
1169	1.000000	1.052725	7.37649e+06	-57139.1	1105.82	-29737.2	0.000000	0.000000	7.053186	0.034992	NaN	0.000000	0.001633	0.001762	28.0827	0.074518	0.002074	35.9326	-138.989	16.1297	0.026987	1.051342	-0.037133	-0.038515	0.034992	35.9326	-0.037863	-0.038972	-0.897887	NaN
1169	2.000000	1.094177	7.37649e+06	-57139.1	1105.82	-29737.2	0.000000	0.000000	7.094946	7.524231	NaN	0.000000	0.001605	0.001734	28.0826	8.219530	0.001723	4771.55	11.682	-171.401	7.784870	1.093372	0.004320	0.003515	7.524231	4771.55	0.003137	0.002495	3015.13	87267.9
1169	2.000000	1.104751	7.37649e+06	-57139.1	1105.82	-29737.2	0.000000	0.000000	7.106263	25.5719	NaN	0.000000	0.001649	0.001734	28.0823	19.7768	0.001889	10471	6.697821	5.883266	26.8354	1.104392	0.014893	0.014534	25.5719	10471	0.013061	0.012786	1999.92	84602.8
1169	2.000000	1.115217	7.37649e+06	-57139.1	1105.82	-29737.2	0.000000	0.000000	7.117928	54.7017	NaN	0.000000	0.001598	0.001739	28.081	30.2675	0.001742	17377.8	5.783570	179.972	54.2228	1.114947	0.025360	0.025089	54.7017	17377.8	0.022999	0.027476	1990.92	95784.2
1169	2.000000	1.125629	7.37649e+06	-57139.1	1105.82	-29737.2	0.000000	0.000000	7.129712	88.0862	NaN	0.000000	0.001624	0.001777	28.082	41.1588	0.001858	22152.4	4.797048	-1.213862	85.2059	1.125370	0.035771	0.035512	88.0862	22152.4	0.032789	0.046722	1885.32	93633.8
1169	2.000000	1.136130	7.37649e+06	-57139.1	1105.82	-29737.2	0.000000	0.000000	7.141860	128.107	NaN	0.000000	0.001609	0.001773	28.0812	49.3656	0.001718	28738.7	4.896805	175.998	124.896	1.135840	0.046272	0.045982	128.107	28738.7	0.042929	0.071816	1783.82	97978.3
1169	2.000000	1.146707	7.37649e+06	-57139.1	1105.82	-29737.2	0.000000	0.000000	7.154342	174.392	NaN	0.000000	0.001628	0.001745	28.0812	59.2561	0.001743	33994.6	3.377768	-4.132827	174.979	1.146422	0.056849	0.056564	174.392	33994.6	0.053002	0.101917	1711.11	97287.8
1169	2.000000	1.157142	7.37649e+06	-57139.1	1105.82	-29737.2	0.000000	0.000000	7.167185	232.915	NaN	0.000000	0.001689	0.001745	28.0823	70.9328	0.001886	37613.4	5.459745	173.425	229.17	1.156966	0.067285	0.067108	232.915	37613.4	0.062640	0.135446	1719.61	93375.5
1169	2.000000	1.167630	7.37649e+06	-57139.1	1105.82	-29737.2	0.000000	0.000000	7.180475	301.017	NaN	0.000000	0.001667	0.001759	28.0822	79.6175	0.001788	44535.8	4.720169	-7.194113	297.977	1.167394	0.077773	0.077536	301.017	44535.8	0.072703	0.175258	1717.56	97194.8
1169	2.000000	1.178119	7.37649e+06	-57139.1	1105.82	-29737.2	0.000000	0.000000	7.194013	375.12	NaN	0.000000	0.001656	0.001730	28.0823	89.6377	0.001800	49812.1	5.824512	170.834	373.372	1.177930	0.088262	0.088072	375.12	49812.1	0.082614	0.219150	1711.71	97215.9
1169	2.000000	1.188626	7.37649e+06	-57139.1	1105.82	-29737.2	0.000000	0.000000	7.207766	454.027	NaN	0.000000	0.001670	0.001720	28.0811	98.7569	0.001790	55168.1	3.663759	-7.943884	452.887	1.188294	0.098769	0.098436	454.027	55168.1	0.092596	0.267966	1694.35	97369.2
1169	2.000000	1.192545	7.37649e+06	-57139.1	1105.82	-29737.2	0.000000	0.000000	7.213352	494.557	NaN	0.000000	0.001677	0.001750	28.0813	102.965	0.001887	54563.9	4.818969	-8.502664	488.877	1.192251	0.102687	0.102393	494.557	54563.9	0.095889	0.285073	1734.84	93368.7