File: remote_trans/data/nanoindenter/0828-1/data/Data_2025-08-06,11h17m57s/2025-07-22_16-23-58_1_0.txt
2025-07-22, 16:23:58, 1
Index	Phase	Displacement	Time	Pos X	Pos Y	Pos Z	Rot A	Rot B	Piezo Z	Force A	Force B	Gripper	Voltage A	Voltage B	Temperature	Amplitude force	Amplitude pos	Stiffness	Phase shift	Phase excitation	Force A raw	Displacement raw	HMax	HMax raw	Real Force	Real Stiffness	Contact Depth	Area	Hardness	Reduced Mod.
[#]	[#]	[um]	[s]	[um]	[um]	[um]	[m°]	[m°]	[um]	[uN]	[uN]	[V]	[V]	[V]	[°C]	[uN]	[um]	[N/m]	[°]	[°]	[uN]	[um]	[um]	[um]	[uN]	[N/m]	[um]	[um^2]	[MPa]	[MPa]
0.000000	1.000000	0.003022	7.36504e+06	-38639.1	955.818	-29794.8	0.000000	0.000000	6.002600	-0.018344	NaN	0.000000	0.001646	0.001496	28.0988	0.069285	0.000968	71.5527	15.6479	-154.575	-0.042265	0.001747	-0.998659	-0.999934	-0.018344	71.5527	-0.998467	-2.163329E+13	8.479744E-16	NaN
0.000000	1.000000	0.043080	7.36504e+06	-38639.1	955.818	-29794.8	0.000000	0.000000	6.042659	0.024112	NaN	0.000000	0.001639	0.001540	28.0975	0.086711	0.001981	43.7664	146.213	-166.456	-0.012949	0.041750	-0.958601	-0.959931	0.024112	43.7664	-0.959015	-6.361849E+12	-3.790134E-15	NaN
0.000000	1.000000	0.083129	7.36504e+06	-38639.1	955.819	-29794.8	0.000000	0.000000	6.082710	0.058790	NaN	0.000000	0.001651	0.001496	28.0977	0.121588	0.001895	64.1747	-81.5533	-160.165	0.115398	0.081814	-0.918552	-0.919867	0.058790	64.1747	-0.919239	-1.848971E+12	-3.179594E-14	NaN
0.000000	1.000000	0.123176	7.36504e+06	-38639.1	955.818	-29794.8	0.000000	0.000000	6.122754	-0.034380	NaN	0.000000	0.001606	0.001559	28.0984	0.129739	0.001884	68.8789	133.93	-164.35	0.047737	0.121875	-0.878505	-0.879806	-0.034380	68.8789	-0.878130	-5.145425E+11	6.681624E-14	NaN
0.000000	1.000000	0.163210	7.36504e+06	-38639.1	955.818	-29794.8	0.000000	0.000000	6.162792	0.093079	NaN	0.000000	0.001554	0.001541	28.0986	0.039193	0.002057	19.0575	-141.585	-162.89	0.023055	0.161901	-0.838471	-0.839780	0.093079	19.0575	-0.842135	-1.675751E+11	-5.554435E-13	NaN
0.000000	1.000000	0.203221	7.36504e+06	-38639.1	955.818	-29794.8	0.000000	0.000000	6.202801	0.037345	NaN	0.000000	0.001597	0.001513	28.1003	0.064948	0.001989	32.6547	141.97	-164.068	0.027532	0.201909	-0.798460	-0.799772	0.037345	32.6547	-0.799318	-4.401535E+10	-8.484561E-13	NaN
0.000000	1.000000	0.243236	7.36504e+06	-38639.1	955.819	-29794.8	0.000000	0.000000	6.242814	-0.019481	NaN	0.000000	0.001589	0.001526	28.0991	0.077206	0.002097	36.8181	-19.4417	-167.79	0.062706	0.241950	-0.758445	-0.759731	-0.019481	36.8181	-0.758048	-1.209894E+10	1.610177E-12	NaN
0.000000	1.000000	0.283273	7.36504e+06	-38639.1	955.82	-29794.8	0.000000	0.000000	6.282854	0.039912	NaN	0.000000	0.001595	0.001564	28.0996	0.069865	0.002070	33.7573	115.105	-169.155	0.019736	0.281972	-0.718408	-0.719709	0.039912	33.7573	-0.719294	-3.587972E+9	-1.112382E-11	NaN
0.000000	1.000000	0.323311	7.36504e+06	-38639.1	955.819	-29794.8	0.000000	0.000000	6.322888	-0.033857	NaN	0.000000	0.001532	0.001598	28.1002	0.042726	0.001978	21.6054	13.6917	-164.362	0.010359	0.321937	-0.678370	-0.679744	-0.033857	21.6054	-0.677195	-9.546350E+8	3.546641E-11	NaN
0.000000	1.000000	0.363324	7.36504e+06	-38639.1	955.818	-29794.8	0.000000	0.000000	6.362902	-0.019692	NaN	0.000000	0.001510	0.001568	28.0993	0.075149	0.001855	40.5082	-146.093	-165.982	0.015934	0.361985	-0.638357	-0.639696	-0.019692	40.5082	-0.637992	-2.771644E+8	7.104809E-11	NaN
0.000000	1.000000	0.403329	7.36504e+06	-38639.1	955.818	-29794.8	0.000000	0.000000	6.402907	-0.024099	NaN	0.000000	0.001595	0.001554	28.0988	0.036426	0.001986	18.3439	-23.1299	-165.554	0.014638	0.402039	-0.598352	-0.599642	-0.024099	18.3439	-0.597366	-7.659194E+7	3.146453E-10	NaN
0.000000	1.000000	0.443343	7.36504e+06	-38639.1	955.818	-29794.8	0.000000	0.000000	6.442923	0.048532	NaN	0.000000	0.001536	0.001599	28.1013	0.040158	0.001952	20.5705	-2.213393	-161.908	-0.031259	0.441993	-0.558338	-0.559688	0.048532	20.5705	-0.560108	-2.343522E+7	-2.070908E-9	NaN
0.000000	1.000000	0.483366	7.36504e+06	-38639.1	955.819	-29794.8	0.000000	0.000000	6.482945	0.010419	NaN	0.000000	0.001608	0.001608	28.1002	0.036151	0.002045	17.6734	-38.6942	-165.102	-0.017737	0.482014	-0.518315	-0.519667	0.010419	17.6734	-0.518757	-6.25613e+06	-1.665442E-9	NaN
0.000000	1.000000	0.523384	7.36504e+06	-38639.1	955.819	-29794.8	0.000000	0.000000	6.522963	0.017503	NaN	0.000000	0.001598	0.001611	28.1019	0.070941	0.002063	34.3801	-65.8106	-162.598	0.113486	0.522106	-0.478297	-0.479575	0.017503	34.3801	-0.478679	-1.72596e+06	-1.014101E-8	NaN
0.000000	1.000000	0.563393	7.36504e+06	-38639.1	955.818	-29794.8	0.000000	0.000000	6.562972	-0.008145	NaN	0.000000	0.001598	0.001585	28.1015	0.075898	0.001999	37.9689	78.0324	-165.179	-0.032278	0.562142	-0.438288	-0.439539	-0.008145	37.9689	-0.438127	-464431	1.753768E-8	NaN
0.000000	1.000000	0.603432	7.36504e+06	-38639.1	955.82	-29794.8	0.000000	0.000000	6.603011	-0.004548	NaN	0.000000	0.001643	0.001568	28.1004	0.075568	0.001917	39.4302	-135.512	-163.916	0.108149	0.602056	-0.398249	-0.399625	-0.004548	39.4302	-0.398162	-125829	3.614524E-8	NaN
0.000000	1.000000	0.643418	7.36504e+06	-38639.1	955.82	-29794.8	0.000000	0.000000	6.643000	0.089401	NaN	0.000000	0.001590	0.001600	28.1012	0.082230	0.001913	42.9958	-136.794	-168.064	0.088509	0.642118	-0.358263	-0.359563	0.089401	42.9958	-0.359823	-35422.7	-2.523845E-6	NaN
0.000000	1.000000	0.683453	7.36504e+06	-38639.1	955.82	-29794.8	0.000000	0.000000	6.683032	0.006496	NaN	0.000000	0.001631	0.001625	28.1015	0.066264	0.002124	31.1988	-115.73	-165.153	0.020690	0.682150	-0.318228	-0.319531	0.006496	31.1988	-0.318384	-8807.43	-7.375187E-7	NaN
0.000000	1.000000	0.723479	7.36504e+06	-38639.1	955.819	-29794.8	0.000000	0.000000	6.723058	0.009378	NaN	0.000000	0.001652	0.001627	28.1024	0.027466	0.001960	14.015	148.969	-167.832	0.012299	0.722168	-0.278202	-0.279513	0.009378	14.015	-0.278704	-2256.33	-4.156275E-6	NaN
0.000000	1.000000	0.763498	7.36504e+06	-38639.1	955.818	-29794.8	0.000000	0.000000	6.763077	0.006398	NaN	0.000000	0.001596	0.001623	28.1031	0.032385	0.001974	16.4095	71.7189	-165.463	0.077083	0.762181	-0.238183	-0.239500	0.006398	16.4095	-0.238476	-544.157	-1.175685E-5	NaN
0.000000	1.000000	0.803523	7.36504e+06	-38639.1	955.819	-29794.8	0.000000	0.000000	6.803100	-0.045859	NaN	0.000000	0.001656	0.001647	28.1014	0.082132	0.001901	43.2067	-100.898	-164.932	0.048647	0.802126	-0.198158	-0.199555	-0.045859	43.2067	-0.197362	-119.195	0.000385	NaN
0.000000	1.000000	0.843528	7.36504e+06	-38639.1	955.819	-29794.8	0.000000	0.000000	6.843111	0.117876	NaN	0.000000	0.001669	0.001644	28.1015	0.098174	0.002059	47.6737	178.192	-165.144	0.131569	0.842237	-0.158154	-0.159444	0.117876	47.6737	-0.160008	-27.4238	-0.004298	NaN
0.000000	1.000000	0.883563	7.36505e+06	-38639.1	955.819	-29794.8	0.000000	0.000000	6.883144	0.046633	NaN	0.000000	0.001649	0.001656	28.1018	0.061317	0.002118	28.9563	-13.1305	-163.105	-0.031329	0.882238	-0.118118	-0.119443	0.046633	28.9563	-0.119326	-4.682243	-0.009960	NaN
0.000000	1.000000	0.923563	7.36505e+06	-38639.1	955.818	-29794.8	0.000000	0.000000	6.923147	0.128060	NaN	0.000000	0.001645	0.001651	28.1028	0.059367	0.002029	29.2566	-175.584	-166.374	-0.043688	0.922278	-0.078118	-0.079403	0.128060	29.2566	-0.081401	-0.670732	-0.190926	NaN
0.000000	1.000000	0.963559	7.36505e+06	-38639.1	955.819	-29794.8	0.000000	0.000000	6.963143	0.115417	NaN	0.000000	0.001649	0.001643	28.1023	0.046364	0.001989	23.3093	-13.0941	-167.581	0.103249	0.962289	-0.038122	-0.039392	0.115417	23.3093	-0.041835	-0.051434	-2.243984	NaN
0.000000	1.000000	1.003581	7.36505e+06	-38639.1	955.817	-29794.8	0.000000	0.000000	7.003208	1.175571	NaN	0.000000	0.001652	0.001617	28.1036	0.747052	0.001988	375.791	22.5092	-164.867	1.094803	1.002297	0.001900	0.000615	1.175571	375.791	-0.000446	-0.000331	-3554.36	NaN
0.000000	1.000000	1.043496	7.36505e+06	-38639.1	955.818	-29794.8	0.000000	0.000000	7.043447	9.056659	NaN	0.000000	0.001677	0.001627	28.1037	2.597637	0.001865	1392.84	12.5542	-167.164	8.830076	1.042261	0.041815	0.040579	9.056659	1392.84	0.036938	0.056355	160.706	5360.51
0.000000	2.000000	1.054111	7.36505e+06	-38639.1	955.818	-29794.8	0.000000	0.000000	7.054170	11.6893	NaN	0.000000	0.001652	0.001630	28.1048	3.815294	0.002136	1785.84	12.1677	-169.161	11.641	1.053798	0.052430	0.052117	11.6893	1785.84	0.047521	0.084906	137.674	5599.47
0.000000	2.000000	1.064111	7.36505e+06	-38639.1	955.818	-29794.8	0.000000	0.000000	7.064344	15.9298	NaN	0.000000	0.001630	0.001627	28.1035	4.382834	0.002027	2162.62	10.2343	-168.436	15.8415	1.063771	0.062430	0.062090	15.9298	2162.62	0.056905	0.114945	138.586	5827.85
0.000000	2.000000	1.074077	7.36505e+06	-38639.1	955.819	-29794.8	0.000000	0.000000	7.074522	21.0794	NaN	0.000000	0.001683	0.001596	28.1038	5.106513	0.002035	2508.82	7.304869	-165.011	20.8199	1.073731	0.072396	0.072050	21.0794	2508.82	0.066095	0.148565	141.887	5946.81
0.000000	2.000000	1.084055	7.36505e+06	-38639.1	955.819	-29794.8	0.000000	0.000000	7.084755	27.2872	NaN	0.000000	0.001670	0.001658	28.1033	6.354180	0.001992	3190.56	9.847797	-170.752	27.0052	1.083786	0.082374	0.082105	27.2872	3190.56	0.075960	0.189172	144.245	6702.1
0.000000	2.000000	1.094015	7.36505e+06	-38639.1	955.818	-29794.8	0.000000	0.000000	7.094987	33.9298	NaN	0.000000	0.001647	0.001645	28.1039	7.132597	0.002004	3558.46	8.593581	-168.473	33.68	1.093687	0.092333	0.092006	33.9298	3558.46	0.085182	0.231272	146.71	6760.43
0.000000	2.000000	1.104020	7.36505e+06	-38639.1	955.819	-29794.8	0.000000	0.000000	7.105275	40.7937	NaN	0.000000	0.001679	0.001608	28.1053	7.740141	0.002108	3671.12	8.516645	-168.371	40.4528	1.103760	0.102339	0.102079	40.7937	3671.12	0.094004	0.275221	148.222	6393.38
0.000000	2.000000	1.114041	7.36505e+06	-38639.1	955.819	-29794.8	0.000000	0.000000	7.115589	47.9384	NaN	0.000000	0.001673	0.001633	28.1057	8.814554	0.002067	4264.1	10.7615	-172.029	47.8386	1.113729	0.112360	0.112048	47.9384	4264.1	0.103928	0.328904	145.752	6793.07
0.000000	2.000000	1.124046	7.36505e+06	-38639.1	955.819	-29794.8	0.000000	0.000000	7.125940	56.357	NaN	0.000000	0.001683	0.001633	28.1069	9.106663	0.001870	4868.62	9.651727	-172.948	56.5176	1.123709	0.122365	0.122028	56.357	4868.62	0.113683	0.386034	145.99	7159.23
0.000000	2.000000	1.134001	7.36505e+06	-38639.1	955.819	-29794.8	0.000000	0.000000	7.136265	65.3477	NaN	0.000000	0.001668	0.001678	28.105	10.0392	0.002009	4997.85	9.119675	-171.785	64.8815	1.133670	0.132320	0.131989	65.3477	4997.85	0.122514	0.441471	148.023	6872.35
0.000000	2.000000	1.142980	7.36505e+06	-38639.1	955.82	-29794.8	0.000000	0.000000	7.145605	74.1208	NaN	0.000000	0.001736	0.001622	28.0937	10.4616	0.001902	5499.61	5.427044	-169.516	73.2245	1.142649	0.141299	0.140968	74.1208	5499.61	0.131191	0.499400	148.42	7110.19