File: remote_trans/data/nanoindenter/0828-1/data/Data_2025-08-06,11h17m57s/2025-07-22_16-23-58_1_497.txt
2025-07-22, 16:23:58, 1
Index	Phase	Displacement	Time	Pos X	Pos Y	Pos Z	Rot A	Rot B	Piezo Z	Force A	Force B	Gripper	Voltage A	Voltage B	Temperature	Amplitude force	Amplitude pos	Stiffness	Phase shift	Phase excitation	Force A raw	Displacement raw	HMax	HMax raw	Real Force	Real Stiffness	Contact Depth	Area	Hardness	Reduced Mod.
[#]	[#]	[um]	[s]	[um]	[um]	[um]	[m°]	[m°]	[um]	[uN]	[uN]	[V]	[V]	[V]	[°C]	[uN]	[um]	[N/m]	[°]	[°]	[uN]	[um]	[um]	[um]	[uN]	[N/m]	[um]	[um^2]	[MPa]	[MPa]
497	1.000000	0.002508	7.36991e+06	-52239.1	1005.82	-29749.8	0.000000	0.000000	6.002801	0.020876	NaN	0.000000	0.001528	0.001741	28.0815	0.042546	0.000945	45.0286	151.213	-162.366	-0.027649	0.001241	-1.095166	-1.096434	0.020876	45.0286	-1.095514	-4.363629E+14	-4.784070E-17	NaN
497	1.000000	0.044469	7.36991e+06	-52239.1	1005.82	-29749.8	0.000000	0.000000	6.044762	0.011930	NaN	0.000000	0.001545	0.001717	28.0816	0.047814	0.001953	24.487	102.081	13.2813	0.070186	0.043133	-1.053205	-1.054541	0.011930	24.487	-1.053570	-1.192351E+14	-1.000539E-16	NaN
497	1.000000	0.086463	7.36991e+06	-52239.1	1005.82	-29749.9	0.000000	0.000000	6.086757	0.031604	NaN	0.000000	0.001537	0.001750	28.0801	0.100146	0.001939	51.6426	-124.729	-164.358	-0.024654	0.085162	-1.011211	-1.012513	0.031604	51.6426	-1.011670	-3.257279E+13	-9.702424E-16	NaN
497	1.000000	0.128468	7.36991e+06	-52239.1	1005.82	-29749.9	0.000000	0.000000	6.128760	0.002449	NaN	0.000000	0.001623	0.001738	28.0801	0.038211	0.002003	19.0772	-8.417664	15.8282	0.033304	0.127140	-0.969207	-0.970534	0.002449	19.0772	-0.969303	-8.755264E+12	-2.797347E-16	NaN
497	1.000000	0.170498	7.36991e+06	-52239.1	1005.82	-29749.9	0.000000	0.000000	6.170789	-0.020000	NaN	0.000000	0.001653	0.001731	28.08	0.101578	0.002019	50.323	-141.403	-166.968	0.016997	0.169198	-0.927177	-0.928476	-0.020000	50.323	-0.926879	-2.344592E+12	8.530128E-15	NaN
497	1.000000	0.212530	7.36991e+06	-52239.1	1005.82	-29749.9	0.000000	0.000000	6.212824	0.030387	NaN	0.000000	0.001595	0.001747	28.0814	0.051177	0.002010	25.4639	7.986133	15.2245	0.043887	0.211127	-0.885144	-0.886548	0.030387	25.4639	-0.886039	-6.582128E+11	-4.616545E-14	NaN
497	1.000000	0.254518	7.36991e+06	-52239.1	1005.82	-29749.9	0.000000	0.000000	6.254811	0.010669	NaN	0.000000	0.001622	0.001727	28.0813	0.105400	0.001963	53.6966	143.478	-166.087	-0.055056	0.253165	-0.843156	-0.844510	0.010669	53.6966	-0.843305	-1.738058E+11	-6.138197E-14	NaN
497	1.000000	0.296532	7.36991e+06	-52239.1	1005.82	-29749.9	0.000000	0.000000	6.296828	0.075149	NaN	0.000000	0.001588	0.001739	28.0811	0.057698	0.002096	27.5279	-133.905	15.9923	0.076823	0.295202	-0.801142	-0.802472	0.075149	27.5279	-0.803189	-4.967665E+10	-1.512763E-12	NaN
497	1.000000	0.338574	7.36992e+06	-52239.1	1005.82	-29749.9	0.000000	0.000000	6.338867	0.015517	NaN	0.000000	0.001653	0.001776	28.0799	0.063814	0.001945	32.8149	169.98	-165.374	-0.010307	0.337244	-0.759100	-0.760430	0.015517	32.8149	-0.759455	-1.264391E+10	-1.227231E-12	NaN
497	1.000000	0.380607	7.36992e+06	-52239.1	1005.82	-29749.9	0.000000	0.000000	6.380903	0.072704	NaN	0.000000	0.001713	0.001737	28.08	0.069920	0.002158	32.3951	162.735	14.138	0.039526	0.379215	-0.717067	-0.718460	0.072704	32.3951	-0.718750	-3.527177E+9	-2.061241E-11	NaN
497	1.000000	0.422638	7.36992e+06	-52239.1	1005.82	-29749.9	0.000000	0.000000	6.422931	0.002305	NaN	0.000000	0.001647	0.001725	28.08	0.052179	0.001994	26.1739	-2.247622	-167.906	0.022885	0.421321	-0.675036	-0.676353	0.002305	26.1739	-0.675102	-8.937265E+8	-2.579095E-12	NaN
497	1.000000	0.464605	7.36992e+06	-52239.1	1005.82	-29749.9	0.000000	0.000000	6.464898	0.031109	NaN	0.000000	0.001598	0.001723	28.0814	0.101014	0.002137	47.2682	-112.005	13.4047	0.013220	0.463272	-0.633069	-0.634402	0.031109	47.2682	-0.633563	-2.409606E+8	-1.291037E-10	NaN
497	1.000000	0.506664	7.36992e+06	-52239.1	1005.82	-29749.9	0.000000	0.000000	6.506960	0.081281	NaN	0.000000	0.001601	0.001757	28.0814	0.072517	0.002050	35.3662	-171.085	-163.535	-0.013502	0.505358	-0.591010	-0.592316	0.081281	35.3662	-0.592734	-6.612310E+7	-1.229241E-9	NaN
497	1.000000	0.548658	7.36992e+06	-52239.1	1005.82	-29749.9	0.000000	0.000000	6.548954	0.081378	NaN	0.000000	0.001617	0.001742	28.0812	0.110885	0.001876	59.1222	16.2166	15.9168	0.113437	0.547310	-0.549016	-0.550364	0.081378	59.1222	-0.550048	-1.700696E+7	-4.784998E-9	NaN
497	1.000000	0.590673	7.36992e+06	-52239.1	1005.82	-29749.9	0.000000	0.000000	6.590966	0.022116	NaN	0.000000	0.001628	0.001743	28.0811	0.129400	0.001998	64.7576	160.194	-163.046	0.144808	0.589403	-0.507001	-0.508271	0.022116	64.7576	-0.507258	-4.32722e+06	-5.110821E-9	NaN
497	1.000000	0.632705	7.36992e+06	-52239.1	1005.82	-29749.9	0.000000	0.000000	6.632998	0.027091	NaN	0.000000	0.001649	0.001704	28.0798	0.032282	0.001957	16.4921	9.091672	14.4298	0.033280	0.631362	-0.464969	-0.466313	0.027091	16.4921	-0.466201	-1.15375e+06	-2.348050E-8	NaN
497	1.000000	0.674715	7.36992e+06	-52239.1	1005.82	-29749.9	0.000000	0.000000	6.675009	0.025992	NaN	0.000000	0.001622	0.001699	28.0805	0.037293	0.002049	18.1988	68.9432	-165.754	0.015730	0.673412	-0.422959	-0.424262	0.025992	18.1988	-0.424030	-293458	-8.857233E-8	NaN
497	1.000000	0.716723	7.36992e+06	-52239.1	1005.82	-29749.9	0.000000	0.000000	6.717016	0.009912	NaN	0.000000	0.001617	0.001724	28.0801	0.069084	0.001990	34.7176	-176.802	12.7709	0.023701	0.715337	-0.380951	-0.382337	0.009912	34.7176	-0.381165	-71880.4	-1.378962E-7	NaN
497	1.000000	0.758774	7.36992e+06	-52239.1	1005.82	-29749.9	0.000000	0.000000	6.759068	0.046710	NaN	0.000000	0.001636	0.001753	28.0813	0.041458	0.002043	20.2889	-150.234	-166.21	-0.079735	0.757403	-0.338900	-0.340271	0.046710	20.2889	-0.340627	-18650.6	-2.504502E-6	NaN
497	1.000000	0.800783	7.36992e+06	-52239.1	1005.82	-29749.9	0.000000	0.000000	6.801076	-0.002443	NaN	0.000000	0.001623	0.001731	28.0814	0.020445	0.002067	9.891935	-103.529	14.2548	-0.008735	0.799409	-0.296891	-0.298265	-0.002443	9.891935	-0.296706	-4202.85	5.813777E-7	NaN
497	1.000000	0.842775	7.36992e+06	-52239.1	1005.82	-29749.9	0.000000	0.000000	6.843068	0.015703	NaN	0.000000	0.001631	0.001715	28.0813	0.037104	0.001943	19.0927	-1.866106	-167.976	0.003296	0.841493	-0.254900	-0.256181	0.015703	19.0927	-0.255516	-1000.15	-1.570024E-5	NaN
497	1.000000	0.884814	7.36992e+06	-52239.1	1005.82	-29749.9	0.000000	0.000000	6.885110	0.079312	NaN	0.000000	0.001644	0.001744	28.0801	0.066455	0.002014	32.9976	9.117066	13.0906	0.052164	0.883499	-0.212860	-0.214175	0.079312	32.9976	-0.214663	-228.079	-0.000348	NaN
497	1.000000	0.926819	7.36992e+06	-52239.1	1005.82	-29749.9	0.000000	0.000000	6.927112	0.028617	NaN	0.000000	0.001614	0.001728	28.0804	0.035734	0.002126	16.8042	132.274	-168.269	-0.047483	0.925515	-0.170856	-0.172159	0.028617	16.8042	-0.172133	-44.7267	-0.000640	NaN
497	1.000000	0.968826	7.36992e+06	-52239.1	1005.82	-29749.9	0.000000	0.000000	6.969122	0.086921	NaN	0.000000	0.001687	0.001759	28.0802	0.091284	0.002048	44.5625	-109.858	15.5603	-0.010024	0.967490	-0.128849	-0.130185	0.086921	44.5625	-0.130311	-7.727852	-0.011248	NaN
497	1.000000	1.010845	7.36992e+06	-52239.1	1005.82	-29749.9	0.000000	0.000000	7.011137	-0.011983	NaN	0.000000	0.001698	0.001730	28.0816	0.057013	0.002025	28.1559	-54.8254	-164.722	0.061440	1.009544	-0.086829	-0.088130	-0.011983	28.1559	-0.086510	-0.893424	0.013412	NaN
497	1.000000	1.052882	7.36992e+06	-52239.1	1005.82	-29749.9	0.000000	0.000000	7.053175	0.012539	NaN	0.000000	0.001645	0.001748	28.0813	0.065566	0.001947	33.6699	-81.3777	15.4172	-0.042118	1.051466	-0.044793	-0.046208	0.012539	33.6699	-0.045072	-0.064594	-0.194116	NaN
497	1.000000	1.094871	7.36992e+06	-52239.1	1005.82	-29749.9	0.000000	0.000000	7.095173	0.238902	NaN	0.000000	0.001617	0.001733	28.0813	0.350066	0.001927	181.679	9.248570	-164.475	0.119682	1.093537	-0.002803	-0.004138	0.238902	181.679	-0.003790	-0.002642	-90.4224	NaN
497	2.000000	1.111975	7.36992e+06	-52239.1	1005.82	-29749.9	0.000000	0.000000	7.112999	17.7896	NaN	0.000000	0.001661	0.001741	28.0811	17.1603	0.001818	9439.08	4.239224	7.290217	15.9996	1.111639	0.014301	0.013964	17.7896	9439.08	0.012888	0.012571	1415.16	76917.1
497	2.000000	1.122421	7.36992e+06	-52239.1	1005.82	-29749.9	0.000000	0.000000	7.124347	39.724	NaN	0.000000	0.001614	0.001744	28.0801	27.5101	0.001735	15859.3	4.593897	-178.059	37.9313	1.122161	0.024747	0.024487	39.724	15859.3	0.022868	0.027252	1457.68	87773
497	2.000000	1.132976	7.36992e+06	-52239.1	1005.82	-29749.9	0.000000	0.000000	7.136098	68.7919	NaN	0.000000	0.001625	0.001727	28.0801	38.8229	0.001831	21200.7	6.657829	-2.602047	70.1813	1.132525	0.035302	0.034851	68.7919	21200.7	0.032869	0.046899	1466.8	89441.8
497	2.000000	1.143359	7.36992e+06	-52239.1	1005.82	-29749.9	0.000000	0.000000	7.148057	107.117	NaN	0.000000	0.001674	0.001757	28.0801	47.3986	0.001798	26368.5	3.633148	178.151	105.175	1.143117	0.045685	0.045443	107.117	26368.5	0.042638	0.071024	1508.18	90397.6
497	2.000000	1.153844	7.36992e+06	-52239.1	1005.82	-29749.9	0.000000	0.000000	7.160530	155.458	NaN	0.000000	0.001642	0.001742	28.0811	56.5209	0.001777	31806.8	1.931019	-1.513206	149.738	1.153548	0.056170	0.055874	155.458	31806.8	0.052504	0.100309	1549.78	91753.3
497	2.000000	1.164447	7.36992e+06	-52239.1	1005.82	-29749.9	0.000000	0.000000	7.173415	210.947	NaN	0.000000	0.001653	0.001701	28.081	68.1974	0.001717	39729.1	5.507897	174.189	213.21	1.163989	0.066773	0.066315	210.947	39729.1	0.062790	0.136004	1551.04	98425.3
497	2.000000	1.174810	7.36992e+06	-52239.1	1005.82	-29749.9	0.000000	0.000000	7.186127	268.058	NaN	0.000000	0.001613	0.001757	28.0809	78.7554	0.001784	44145.1	2.379459	-4.244306	263.137	1.174536	0.077136	0.076862	268.058	44145.1	0.072581	0.174747	1533.98	96483
497	2.000000	1.185379	7.36992e+06	-52239.1	1005.82	-29749.9	0.000000	0.000000	7.199541	337.242	NaN	0.000000	0.001616	0.001775	28.0797	87.5585	0.001884	46472.8	3.602180	174.33	338.865	1.184999	0.087704	0.087325	337.242	46472.8	0.082262	0.217512	1550.45	91039.5
497	2.000000	1.195912	7.36992e+06	-52239.1	1005.82	-29749.9	0.000000	0.000000	7.213191	413.022	NaN	0.000000	0.001604	0.001758	28.08	97.6354	0.001811	53911.3	8.467002	-11.1244	416.484	1.195393	0.098238	0.097719	413.022	53911.3	0.092492	0.267435	1544.39	95245.5
497	2.000000	1.202285	7.36992e+06	-52239.1	1005.82	-29749.9	0.000000	0.000000	7.221342	456.259	NaN	0.000000	0.001628	0.001706	28.0797	103.505	0.001812	57110.1	5.106808	171.333	454.818	1.202018	0.104611	0.104343	456.259	57110.1	0.098619	0.299628	1522.75	95322.4