File: remote_trans/data/nanoindenter/0828-1/data/Data_2025-08-06,11h17m57s/2025-07-22_16-23-58_1_1177.txt
2025-07-22, 16:23:58, 1
Index	Phase	Displacement	Time	Pos X	Pos Y	Pos Z	Rot A	Rot B	Piezo Z	Force A	Force B	Gripper	Voltage A	Voltage B	Temperature	Amplitude force	Amplitude pos	Stiffness	Phase shift	Phase excitation	Force A raw	Displacement raw	HMax	HMax raw	Real Force	Real Stiffness	Contact Depth	Area	Hardness	Reduced Mod.
[#]	[#]	[um]	[s]	[um]	[um]	[um]	[m°]	[m°]	[um]	[uN]	[uN]	[V]	[V]	[V]	[°C]	[uN]	[um]	[N/m]	[°]	[°]	[uN]	[um]	[um]	[um]	[uN]	[N/m]	[um]	[um^2]	[MPa]	[MPa]
1177	1.000000	0.002280	7.37656e+06	-56739.1	1105.82	-29738.2	0.000000	0.000000	6.002793	-0.061393	NaN	0.000000	0.001554	0.001676	28.0824	0.051138	0.001080	47.3458	-174.707	-164.537	-0.000556	0.001033	-1.027255	-1.028503	-0.061393	47.3458	-1.026283	-5.122484E+13	1.198492E-15	NaN
1177	1.000000	0.042239	7.37656e+06	-56739.1	1105.82	-29738.2	0.000000	0.000000	6.042757	0.067922	NaN	0.000000	0.001554	0.001663	28.0838	0.064705	0.002009	32.2104	-52.6712	-167.883	0.038538	0.040959	-0.987297	-0.988577	0.067922	32.2104	-0.988879	-1.606976E+13	-4.226671E-15	NaN
1177	1.000000	0.082253	7.37656e+06	-56739.1	1105.82	-29738.2	0.000000	0.000000	6.082769	0.022939	NaN	0.000000	0.001547	0.001697	28.0837	0.015476	0.001812	8.543139	-145.253	-169.665	0.030471	0.080937	-0.947283	-0.948599	0.022939	8.543139	-0.949297	-4.704836E+12	-4.875702E-15	NaN
1177	1.000000	0.122263	7.37656e+06	-56739.1	1105.82	-29738.2	0.000000	0.000000	6.122780	0.031175	NaN	0.000000	0.001555	0.001706	28.0835	0.126876	0.002011	63.1025	-122.104	-162.584	0.055839	0.120973	-0.907273	-0.908563	0.031175	63.1025	-0.907643	-1.289232E+12	-2.418071E-14	NaN
1177	1.000000	0.162248	7.37656e+06	-56739.1	1105.82	-29738.2	0.000000	0.000000	6.162762	-0.021995	NaN	0.000000	0.001592	0.001695	28.0822	0.083177	0.001964	42.3534	-68.3392	-168.731	-0.002852	0.160940	-0.867288	-0.868596	-0.021995	42.3534	-0.866899	-3.626480E+11	6.065119E-14	NaN
1177	1.000000	0.202314	7.37656e+06	-56739.1	1105.82	-29738.2	0.000000	0.000000	6.202831	0.046162	NaN	0.000000	0.001645	0.001677	28.0822	0.034586	0.001961	17.6366	-17.622	-163.443	0.068884	0.200956	-0.827222	-0.828580	0.046162	17.6366	-0.829185	-1.118767E+11	-4.126188E-13	NaN
1177	1.000000	0.242313	7.37656e+06	-56739.1	1105.82	-29738.2	0.000000	0.000000	6.242832	0.081516	NaN	0.000000	0.001613	0.001693	28.0822	0.065604	0.002019	32.4853	-70.761	-162.659	0.039280	0.240958	-0.787223	-0.788578	0.081516	32.4853	-0.789105	-3.198342E+10	-2.548709E-12	NaN
1177	1.000000	0.282345	7.37656e+06	-56739.1	1105.82	-29738.2	0.000000	0.000000	6.282861	-0.005896	NaN	0.000000	0.001608	0.001686	28.0822	0.091301	0.002085	43.788	-22.6179	-163.52	-0.039755	0.281042	-0.747191	-0.748494	-0.005896	43.788	-0.747090	-8.582224E+9	6.869946E-13	NaN
1177	1.000000	0.322368	7.37656e+06	-56739.1	1105.82	-29738.2	0.000000	0.000000	6.322884	0.011587	NaN	0.000000	0.001564	0.001677	28.0855	0.081155	0.002060	39.3917	85.3457	-166.984	-0.042758	0.321043	-0.707168	-0.708493	0.011587	39.3917	-0.707389	-2.468347E+9	-4.694095E-12	NaN
1177	1.000000	0.362361	7.37656e+06	-56739.1	1105.82	-29738.2	0.000000	0.000000	6.362877	0.021932	NaN	0.000000	0.001627	0.001680	28.0834	0.126108	0.002111	59.7275	90.6054	-165.141	0.002548	0.361051	-0.667175	-0.668485	0.021932	59.7275	-0.667451	-7.022581E+8	-3.123016E-11	NaN
1177	1.000000	0.402387	7.37656e+06	-56739.1	1105.82	-29738.2	0.000000	0.000000	6.402903	0.006845	NaN	0.000000	0.001659	0.001685	28.0836	0.075868	0.002010	37.7422	129.81	-166.378	0.085169	0.401050	-0.627149	-0.628486	0.006845	37.7422	-0.627285	-1.975768E+8	-3.464309E-11	NaN
1177	1.000000	0.442387	7.37656e+06	-56739.1	1105.82	-29738.2	0.000000	0.000000	6.442902	-0.008959	NaN	0.000000	0.001591	0.001720	28.0824	0.098529	0.001942	50.7335	-42.0572	-164.765	-0.035319	0.441051	-0.587149	-0.588485	-0.008959	50.7335	-0.587016	-5.514702E+7	1.624560E-10	NaN
1177	1.000000	0.482417	7.37656e+06	-56739.1	1105.82	-29738.2	0.000000	0.000000	6.482931	-0.026231	NaN	0.000000	0.001617	0.001695	28.0824	0.118618	0.002057	57.6564	146.648	-165.897	0.016145	0.481084	-0.547119	-0.548452	-0.026231	57.6564	-0.546778	-1.532220E+7	1.711974E-9	NaN
1177	1.000000	0.522438	7.37656e+06	-56739.1	1105.82	-29738.2	0.000000	0.000000	6.522956	0.060114	NaN	0.000000	0.001636	0.001745	28.0827	0.082103	0.002085	39.3799	20.447	-165.963	-0.024489	0.521114	-0.507098	-0.508422	0.060114	39.3799	-0.508243	-4.46617e+06	-1.345987E-8	NaN
1177	1.000000	0.562423	7.37656e+06	-56739.1	1105.82	-29738.2	0.000000	0.000000	6.562939	0.014393	NaN	0.000000	0.001581	0.001673	28.0828	0.072141	0.001976	36.5134	162.636	-166.684	0.052473	0.561172	-0.467113	-0.468364	0.014393	36.5134	-0.467409	-1.19966e+06	-1.199733E-8	NaN
1177	1.000000	0.602481	7.37656e+06	-56739.1	1105.82	-29738.2	0.000000	0.000000	6.602996	0.002842	NaN	0.000000	0.001552	0.001733	28.0838	0.075570	0.002086	36.2214	26.1509	-165.546	0.036572	0.601186	-0.427055	-0.428350	0.002842	36.2214	-0.427114	-324502	-8.758887E-9	NaN
1177	1.000000	0.642478	7.37656e+06	-56739.1	1105.82	-29738.2	0.000000	0.000000	6.642993	-0.008547	NaN	0.000000	0.001551	0.001729	28.0837	0.061797	0.002039	30.3012	-140.576	-164.931	0.004198	0.641201	-0.387058	-0.388335	-0.008547	30.3012	-0.386846	-86702.2	9.857726E-8	NaN
1177	1.000000	0.682499	7.37656e+06	-56739.1	1105.82	-29738.2	0.000000	0.000000	6.683016	0.046637	NaN	0.000000	0.001586	0.001732	28.0838	0.057500	0.002063	27.8724	-117.899	-167.142	-0.020566	0.681193	-0.347037	-0.348343	0.046637	27.8724	-0.348292	-24110.6	-1.934284E-6	NaN
1177	1.000000	0.722526	7.37656e+06	-56739.1	1105.82	-29738.2	0.000000	0.000000	6.723042	0.017564	NaN	0.000000	0.001561	0.001734	28.0824	0.091755	0.001969	46.6075	-159.964	-163.465	0.083115	0.721210	-0.307010	-0.308326	0.017564	46.6075	-0.307293	-6038.94	-2.908389E-6	NaN
1177	1.000000	0.762539	7.37656e+06	-56739.1	1105.82	-29738.2	0.000000	0.000000	6.763056	0.034962	NaN	0.000000	0.001575	0.001687	28.0826	0.020280	0.002016	10.0577	-52.6715	-164.665	-0.014568	0.761176	-0.266997	-0.268360	0.034962	10.0577	-0.269604	-1642.58	-2.128489E-5	NaN
1177	1.000000	0.802549	7.37656e+06	-56739.1	1105.82	-29738.2	0.000000	0.000000	6.803067	0.059311	NaN	0.000000	0.001617	0.001686	28.0827	0.023057	0.002035	11.3324	-74.8296	-166.397	0.008867	0.801222	-0.226987	-0.228314	0.059311	11.3324	-0.230912	-413.915	-0.000143	NaN
1177	1.000000	0.842559	7.37656e+06	-56739.1	1105.82	-29738.2	0.000000	0.000000	6.843073	-0.053333	NaN	0.000000	0.001649	0.001645	28.0826	0.048369	0.001935	25.0001	119.689	-166.354	-0.046369	0.841232	-0.186976	-0.188304	-0.053333	25.0001	-0.185376	-75.2446	0.000709	NaN
1177	1.000000	0.882568	7.37657e+06	-56739.1	1105.82	-29738.2	0.000000	0.000000	6.883084	0.026823	NaN	0.000000	0.001555	0.001677	28.084	0.127321	0.002060	61.8122	25.914	-169.295	0.072315	0.881269	-0.146968	-0.148267	0.026823	61.8122	-0.147294	-16.1606	-0.001660	NaN
1177	1.000000	0.922595	7.37657e+06	-56739.1	1105.82	-29738.2	0.000000	0.000000	6.923110	-0.017161	NaN	0.000000	0.001537	0.001682	28.084	0.062041	0.002010	30.8638	-65.6927	-166.85	0.003798	0.921294	-0.106941	-0.108242	-0.017161	30.8638	-0.106524	-2.534920	0.006770	NaN
1177	1.000000	0.962602	7.37657e+06	-56739.1	1105.82	-29738.2	0.000000	0.000000	6.963200	1.999170	NaN	0.000000	0.001513	0.001699	28.0839	1.309976	0.001987	659.206	26.8915	-168.067	1.915270	0.961291	-0.066934	-0.068245	1.999170	659.206	-0.069208	-0.324804	-6.155002	NaN
1177	1.000000	1.002632	7.37657e+06	-56739.1	1105.82	-29738.2	0.000000	0.000000	7.003397	6.068469	NaN	0.000000	0.001568	0.001702	28.0829	3.776187	0.001989	1898.27	19.8761	-168.592	5.996600	1.001335	-0.026904	-0.028201	6.068469	1898.27	-0.029301	-0.022009	-275.731	NaN
1177	2.000000	1.037238	7.37657e+06	-56739.1	1105.82	-29738.2	0.000000	0.000000	7.038129	9.138829	NaN	0.000000	0.001593	0.001669	28.0826	9.526413	0.001824	5223.12	12.3387	-172.034	8.708578	1.036909	0.007702	0.007374	9.138829	5223.12	0.006390	0.005438	1680.69	64714.5
1177	2.000000	1.047160	7.37657e+06	-56739.1	1105.82	-29738.2	0.000000	0.000000	7.048668	24.1233	NaN	0.000000	0.001593	0.001666	28.0824	21.2515	0.001707	12449.1	15.6335	175.04	24.1704	1.046770	0.017624	0.017234	24.1233	12449.1	0.016171	0.016878	1429.24	87547.7
1177	2.000000	1.057130	7.37657e+06	-56739.1	1105.82	-29738.2	0.000000	0.000000	7.059488	44.8042	NaN	0.000000	0.001564	0.001672	28.0835	32.6052	0.001826	17852.7	7.075806	-179.627	44.7466	1.056807	0.027594	0.027271	44.8042	17852.7	0.025711	0.032323	1386.16	90724.6
1177	2.000000	1.067131	7.37657e+06	-56739.1	1105.82	-29738.2	0.000000	0.000000	7.070773	76.0104	NaN	0.000000	0.001595	0.001696	28.0839	44.5749	0.001856	24012.8	8.743955	174.639	75.9597	1.066810	0.037595	0.037274	76.0104	24012.8	0.035221	0.052261	1454.44	95968.3
1177	2.000000	1.077043	7.37657e+06	-56739.1	1105.82	-29738.2	0.000000	0.000000	7.082551	121.343	NaN	0.000000	0.001587	0.001727	28.0838	52.9334	0.001856	28520.1	7.227380	175.224	118.932	1.076760	0.047507	0.047224	121.343	28520.1	0.044316	0.075658	1603.83	94731.9
1177	2.000000	1.087054	7.37657e+06	-56739.1	1105.82	-29738.2	0.000000	0.000000	7.094662	172.388	NaN	0.000000	0.001607	0.001675	28.0836	61.3156	0.001858	33003.8	6.329655	174.857	171.399	1.086753	0.057518	0.057217	172.388	33003.8	0.053600	0.103865	1659.73	93562.4
1177	2.000000	1.097167	7.37657e+06	-56739.1	1105.82	-29738.2	0.000000	0.000000	7.106819	222.072	NaN	0.000000	0.001588	0.001684	28.0824	71.9201	0.001784	40313.9	4.959527	173.378	224.462	1.096879	0.067631	0.067343	222.072	40313.9	0.063499	0.138655	1601.62	98914.6
1177	2.000000	1.106995	7.37657e+06	-56739.1	1105.82	-29738.2	0.000000	0.000000	7.119284	286.174	NaN	0.000000	0.001564	0.001703	28.0826	81.6423	0.001927	42365.2	7.830004	170.963	283.465	1.106792	0.077459	0.077256	286.174	42365.2	0.072393	0.173959	1645.07	92802.5
1177	2.000000	1.117034	7.37657e+06	-56739.1	1105.82	-29738.2	0.000000	0.000000	7.131903	348.873	NaN	0.000000	0.001554	0.001673	28.0824	90.6412	0.001906	47558.4	6.850026	170.925	347.221	1.116806	0.087498	0.087270	348.873	47558.4	0.081996	0.216281	1613.05	93431
1177	2.000000	1.127044	7.37657e+06	-56739.1	1105.82	-29738.2	0.000000	0.000000	7.144996	423.81	NaN	0.000000	0.001569	0.001714	28.0836	97.63	0.001815	53800.9	5.578091	172.424	421.607	1.126624	0.097508	0.097088	423.81	53800.9	0.091600	0.262890	1612.12	95868.3
1177	2.000000	1.134044	7.37657e+06	-56739.1	1105.82	-29738.2	0.000000	0.000000	7.153835	468.511	NaN	0.000000	0.001562	0.001698	28.0835	104.521	0.001783	58636.5	7.034467	169.414	467.249	1.133672	0.104508	0.104136	468.511	58636.5	0.098515	0.299067	1566.57	97961.8