File: remote_trans/data/nanoindenter/0828-1/data/Data_2025-08-06,11h17m57s/2025-07-22_16-23-58_1_1024.txt
2025-07-22, 16:23:58, 1
Index	Phase	Displacement	Time	Pos X	Pos Y	Pos Z	Rot A	Rot B	Piezo Z	Force A	Force B	Gripper	Voltage A	Voltage B	Temperature	Amplitude force	Amplitude pos	Stiffness	Phase shift	Phase excitation	Force A raw	Displacement raw	HMax	HMax raw	Real Force	Real Stiffness	Contact Depth	Area	Hardness	Reduced Mod.
[#]	[#]	[um]	[s]	[um]	[um]	[um]	[m°]	[m°]	[um]	[uN]	[uN]	[V]	[V]	[V]	[°C]	[uN]	[um]	[N/m]	[°]	[°]	[uN]	[um]	[um]	[um]	[uN]	[N/m]	[um]	[um^2]	[MPa]	[MPa]
1024	1.000000	0.002347	7.37506e+06	-51339.1	1055.82	-29752.5	0.000000	0.000000	6.002773	-0.009612	NaN	0.000000	0.001671	0.001659	28.084	0.059605	0.000885	67.3547	-44.0692	-156.578	0.016607	0.001128	-1.138656	-1.139875	-0.009612	67.3547	-1.138549	-1.649237E+15	5.828358E-18	NaN
1024	1.000000	0.044343	7.37506e+06	-51339.1	1055.82	-29752.5	0.000000	0.000000	6.044770	0.015635	NaN	0.000000	0.001619	0.001626	28.0834	0.002039	0.001921	1.061182	-136.226	16.3385	0.010056	0.042995	-1.096660	-1.098009	0.015635	1.061182	-1.107710	-6.361488E+14	-2.457807E-17	NaN
1024	1.000000	0.086327	7.37506e+06	-51339.1	1055.82	-29752.5	0.000000	0.000000	6.086755	0.046161	NaN	0.000000	0.001636	0.001631	28.0836	0.041182	0.002041	20.1772	-83.6032	-162.604	0.067313	0.085030	-1.054676	-1.055973	0.046161	20.1772	-1.056392	-1.301159E+14	-3.547702E-16	NaN
1024	1.000000	0.128350	7.37506e+06	-51339.1	1055.82	-29752.5	0.000000	0.000000	6.128778	0.026918	NaN	0.000000	0.001579	0.001685	28.0848	0.089990	0.001956	46.0123	-119.848	13.0833	0.064331	0.126963	-1.012653	-1.014040	0.026918	46.0123	-1.013092	-3.403998E+13	-7.907690E-16	NaN
1024	1.000000	0.170360	7.37506e+06	-51339.1	1055.82	-29752.5	0.000000	0.000000	6.170787	0.024285	NaN	0.000000	0.001639	0.001596	28.0847	0.012016	0.002058	5.839350	32.602	-163.169	0.076161	0.169053	-0.970643	-0.971950	0.024285	5.839350	-0.973762	-1.005459E+13	-2.415272E-15	NaN
1024	1.000000	0.212391	7.37507e+06	-51339.1	1055.82	-29752.5	0.000000	0.000000	6.212821	0.084520	NaN	0.000000	0.001646	0.001627	28.0848	0.055693	0.001965	28.3489	-134.168	15.3979	0.016682	0.211011	-0.928612	-0.929992	0.084520	28.3489	-0.930848	-2.652414E+12	-3.186524E-14	NaN
1024	1.000000	0.254413	7.37507e+06	-51339.1	1055.82	-29752.5	0.000000	0.000000	6.254840	0.011035	NaN	0.000000	0.001615	0.001648	28.0835	0.074184	0.002011	36.8906	-108.067	-160.97	0.066604	0.253084	-0.886590	-0.887919	0.011035	36.8906	-0.886814	-6.742963E+11	-1.636481E-14	NaN
1024	1.000000	0.296416	7.37507e+06	-51339.1	1055.82	-29752.5	0.000000	0.000000	6.296839	-0.085052	NaN	0.000000	0.001682	0.001600	28.0836	0.127981	0.002069	61.8615	-100.904	13.9238	-0.039102	0.295064	-0.844587	-0.845939	-0.085052	61.8615	-0.843556	-1.751719E+11	4.855368E-13	NaN
1024	1.000000	0.338469	7.37507e+06	-51339.1	1055.82	-29752.5	0.000000	0.000000	6.338894	-0.021315	NaN	0.000000	0.001601	0.001630	28.0836	0.068779	0.002050	33.5547	-102.271	-163.142	-0.065510	0.337149	-0.802535	-0.803855	-0.021315	33.5547	-0.802058	-4.795128E+10	4.445066E-13	NaN
1024	1.000000	0.380437	7.37507e+06	-51339.1	1055.82	-29752.5	0.000000	0.000000	6.380867	0.091808	NaN	0.000000	0.001600	0.001612	28.0849	0.049451	0.002084	23.7292	-10.1639	14.8319	-0.047862	0.379089	-0.760566	-0.761915	0.091808	23.7292	-0.763468	-1.433756E+10	-6.403330E-12	NaN
1024	1.000000	0.422496	7.37507e+06	-51339.1	1055.82	-29752.5	0.000000	0.000000	6.422925	0.051143	NaN	0.000000	0.001599	0.001674	28.0848	0.037665	0.001915	19.6685	29.0121	-166.995	0.035114	0.421146	-0.718507	-0.719857	0.051143	19.6685	-0.720457	-3.721410E+9	-1.374301E-11	NaN
1024	1.000000	0.464481	7.37507e+06	-51339.1	1055.82	-29752.5	0.000000	0.000000	6.464905	-0.055712	NaN	0.000000	0.001629	0.001652	28.0851	0.047548	0.001908	24.9201	-11.0444	12.3164	-0.018903	0.463151	-0.676522	-0.677852	-0.055712	24.9201	-0.674845	-8.865296E+8	6.284239E-11	NaN
1024	1.000000	0.506535	7.37507e+06	-51339.1	1055.82	-29752.5	0.000000	0.000000	6.506962	0.007861	NaN	0.000000	0.001626	0.001704	28.0838	0.088674	0.001958	45.2948	-31.5943	-167.912	0.023207	0.505191	-0.634468	-0.635812	0.007861	45.2948	-0.634598	-2.489767E+8	-3.157456E-11	NaN
1024	1.000000	0.548547	7.37507e+06	-51339.1	1055.82	-29752.5	0.000000	0.000000	6.548971	-0.068500	NaN	0.000000	0.001679	0.001671	28.0839	0.084356	0.002160	39.0539	-43.2241	15.0801	-0.067065	0.547173	-0.592456	-0.593830	-0.068500	39.0539	-0.591141	-6.286221E+7	1.089678E-9	NaN
1024	1.000000	0.590533	7.37507e+06	-51339.1	1055.82	-29752.5	0.000000	0.000000	6.590960	0.014330	NaN	0.000000	0.001636	0.001707	28.0839	0.115135	0.001935	59.508	134.617	-165.843	-0.078995	0.589230	-0.550470	-0.551774	0.014330	59.508	-0.550650	-1.733661E+7	-8.265574E-10	NaN
1024	1.000000	0.632552	7.37507e+06	-51339.1	1055.82	-29752.5	0.000000	0.000000	6.632979	0.014652	NaN	0.000000	0.001628	0.001709	28.0836	0.015747	0.001957	8.046124	-11.3513	16.3454	0.016548	0.631221	-0.508451	-0.509782	0.014652	8.046124	-0.509817	-4.6975e+06	-3.119110E-9	NaN
1024	1.000000	0.674587	7.37507e+06	-51339.1	1055.82	-29752.5	0.000000	0.000000	6.675010	-0.067715	NaN	0.000000	0.001648	0.001690	28.0847	0.096532	0.001859	51.9406	-69.1105	-163.069	-0.098235	0.673316	-0.466417	-0.467688	-0.067715	51.9406	-0.465439	-1.12566e+06	6.015552E-8	NaN
1024	1.000000	0.716605	7.37507e+06	-51339.1	1055.82	-29752.5	0.000000	0.000000	6.717031	0.002213	NaN	0.000000	0.001640	0.001680	28.0848	0.058838	0.002047	28.7413	54.0283	16.7028	0.042494	0.715234	-0.424398	-0.425769	0.002213	28.7413	-0.424456	-297563	-7.438200E-9	NaN
1024	1.000000	0.758611	7.37507e+06	-51339.1	1055.82	-29752.5	0.000000	0.000000	6.759036	-0.038960	NaN	0.000000	0.001614	0.001658	28.0846	0.047777	0.001993	23.9754	-130.598	-162.498	-0.039514	0.757268	-0.382392	-0.383735	-0.038960	23.9754	-0.381173	-71899.5	5.418661E-7	NaN
1024	1.000000	0.800619	7.37507e+06	-51339.1	1055.82	-29752.5	0.000000	0.000000	6.801046	0.005032	NaN	0.000000	0.001660	0.001698	28.0833	0.025556	0.002060	12.4057	-41.1118	12.9981	0.032628	0.799225	-0.340384	-0.341778	0.005032	12.4057	-0.340688	-18688.8	-2.692758E-7	NaN
1024	1.000000	0.842644	7.37507e+06	-51339.1	1055.82	-29752.5	0.000000	0.000000	6.843069	-0.032895	NaN	0.000000	0.001640	0.001659	28.0835	0.048860	0.001995	24.4903	-42.8759	-166.653	-0.052006	0.841333	-0.298359	-0.299670	-0.032895	24.4903	-0.297352	-4297.18	7.655035E-6	NaN
1024	1.000000	0.884658	7.37507e+06	-51339.1	1055.82	-29752.5	0.000000	0.000000	6.885084	-0.020127	NaN	0.000000	0.001622	0.001714	28.0838	0.154007	0.002041	75.4427	120.497	14.9538	-0.024393	0.883361	-0.256345	-0.257643	-0.020127	75.4427	-0.256145	-1022.66	1.968069E-5	NaN
1024	1.000000	0.926706	7.37507e+06	-51339.1	1055.82	-29752.5	0.000000	0.000000	6.927133	0.017995	NaN	0.000000	0.001627	0.001684	28.0848	0.070260	0.001922	36.5608	-96.9062	-170.076	-0.043178	0.925396	-0.214297	-0.215607	0.017995	36.5608	-0.214667	-228.112	-7.888438E-5	NaN
1024	1.000000	0.968645	7.37507e+06	-51339.1	1055.82	-29752.5	0.000000	0.000000	6.969071	-0.006890	NaN	0.000000	0.001611	0.001694	28.0852	0.046541	0.001973	23.589	-146.257	15.4619	-0.013161	0.967364	-0.172358	-0.173639	-0.006890	23.589	-0.172139	-44.7373	0.000154	NaN
1024	1.000000	1.010668	7.37507e+06	-51339.1	1055.82	-29752.5	0.000000	0.000000	7.011095	0.030881	NaN	0.000000	0.001580	0.001675	28.0848	0.183529	0.001880	97.6019	-46.9346	-164.925	-0.004040	1.009396	-0.130336	-0.131607	0.030881	97.6019	-0.130573	-7.818594	-0.003950	NaN
1024	1.000000	1.052717	7.37507e+06	-51339.1	1055.82	-29752.5	0.000000	0.000000	7.053143	-0.002682	NaN	0.000000	0.001613	0.001680	28.0836	0.063048	0.002129	29.62	-37.4998	15.215	0.018597	1.051378	-0.088286	-0.089625	-0.002682	29.62	-0.088218	-0.981244	0.002733	NaN
1024	1.000000	1.094766	7.37507e+06	-51339.1	1055.82	-29752.5	0.000000	0.000000	7.095194	0.034649	NaN	0.000000	0.001572	0.001711	28.0835	0.100450	0.002101	47.8195	90.1688	-166.45	0.001460	1.093472	-0.046237	-0.047532	0.034649	47.8195	-0.046781	-0.072844	-0.475663	NaN
1024	1.000000	1.136741	7.37507e+06	-51339.1	1055.82	-29752.5	0.000000	0.000000	7.137171	0.077752	NaN	0.000000	0.001581	0.001683	28.0836	0.266873	0.001932	138.136	18.2137	10.695	-0.053667	1.135462	-0.004262	-0.005541	0.077752	138.136	-0.004684	-0.003217	-24.1679	NaN
1024	2.000000	1.156209	7.37507e+06	-51339.1	1055.82	-29752.5	0.000000	0.000000	7.157396	18.4915	NaN	0.000000	0.001612	0.001689	28.0837	17.2731	0.001757	9831.17	5.900920	-175.821	17.8401	1.155918	0.015206	0.014915	18.4915	9831.17	0.013795	0.013712	1348.52	76704.5
1024	2.000000	1.166654	7.37507e+06	-51339.1	1055.82	-29752.5	0.000000	0.000000	7.169007	46.846	NaN	0.000000	0.001587	0.001717	28.0852	27.1789	0.001693	16054.3	1.433045	3.978233	44.2095	1.166317	0.025651	0.025313	46.846	16054.3	0.023463	0.028278	1656.6	87224.5
1024	2.000000	1.177114	7.37507e+06	-51339.1	1055.82	-29752.5	0.000000	0.000000	7.180988	83.8477	NaN	0.000000	0.001600	0.001680	28.0851	38.0887	0.001668	22839.2	3.839226	177.682	81.2639	1.176868	0.036111	0.035865	83.8477	22839.2	0.033357	0.047990	1747.19	95253.1
1024	2.000000	1.187634	7.37507e+06	-51339.1	1055.82	-29752.5	0.000000	0.000000	7.193930	142.749	NaN	0.000000	0.001583	0.001678	28.085	49.2602	0.001942	25359.3	2.068192	-0.329229	140.776	1.187387	0.046630	0.046384	142.749	25359.3	0.042409	0.070401	2027.64	87321.2
1024	2.000000	1.198078	7.37507e+06	-51339.1	1055.82	-29752.5	0.000000	0.000000	7.207133	209.826	NaN	0.000000	0.001601	0.001709	28.0833	61.5641	0.001777	34645	6.795418	172.43	207.352	1.197796	0.057075	0.056792	209.826	34645	0.052532	0.100401	2089.88	99895.3
1024	2.000000	1.208647	7.37507e+06	-51339.1	1055.82	-29752.5	0.000000	0.000000	7.220509	278.062	NaN	0.000000	0.001642	0.001682	28.0835	70.8653	0.001732	40917.6	3.709896	-6.807110	277.747	1.208302	0.067644	0.067299	278.062	40917.6	0.062548	0.135102	2058.17	101707
1024	2.000000	1.219051	7.37507e+06	-51339.1	1055.82	-29752.5	0.000000	0.000000	7.234258	359.419	NaN	0.000000	0.001674	0.001708	28.0835	80.5084	0.001850	43515.5	2.634571	173.617	356.021	1.218757	0.078048	0.077753	359.419	43515.5	0.071853	0.171709	2093.19	95944.8
1024	2.000000	1.229679	7.37507e+06	-51339.1	1055.82	-29752.5	0.000000	0.000000	7.248114	437.895	NaN	0.000000	0.001611	0.001693	28.0845	89.9949	0.001856	48490.4	6.133994	-9.837071	441.765	1.229236	0.088676	0.088233	437.895	48490.4	0.081903	0.215851	2028.69	95356.8
1024	2.000000	1.240102	7.37507e+06	-51339.1	1055.82	-29752.5	0.000000	0.000000	7.262151	525.806	NaN	0.000000	0.001605	0.001678	28.0849	98.5594	0.001878	52485.1	4.852662	170.569	525.201	1.239714	0.099098	0.098711	525.806	52485.1	0.091585	0.262812	2000.69	93537.8
1024	2.000000	1.246917	7.37507e+06	-51339.1	1055.82	-29752.5	0.000000	0.000000	7.271314	582.896	NaN	0.000000	0.001618	0.001692	28.0847	103.452	0.001728	59876.1	3.990419	170.378	573.836	1.246619	0.105914	0.105616	582.896	59876.1	0.098612	0.299591	1945.64	99945.4