File: remote_trans/data/nanoindenter/0828-1/data/Data_2025-08-06,11h17m57s/2025-07-22_16-23-58_1_1057.txt
2025-07-22, 16:23:58, 1
Index	Phase	Displacement	Time	Pos X	Pos Y	Pos Z	Rot A	Rot B	Piezo Z	Force A	Force B	Gripper	Voltage A	Voltage B	Temperature	Amplitude force	Amplitude pos	Stiffness	Phase shift	Phase excitation	Force A raw	Displacement raw	HMax	HMax raw	Real Force	Real Stiffness	Contact Depth	Area	Hardness	Reduced Mod.
[#]	[#]	[um]	[s]	[um]	[um]	[um]	[m°]	[m°]	[um]	[uN]	[uN]	[V]	[V]	[V]	[°C]	[uN]	[um]	[N/m]	[°]	[°]	[uN]	[um]	[um]	[um]	[uN]	[N/m]	[um]	[um^2]	[MPa]	[MPa]
1057	1.000000	0.002822	7.37538e+06	-52989.1	1055.82	-29747.6	0.000000	0.000000	6.002815	0.032749	NaN	0.000000	0.001553	0.001701	28.0847	0.045262	0.000928	48.7827	133.545	-170.639	0.025891	0.001587	-1.096762	-1.097997	0.032749	48.7827	-1.097265	-4.606326E+14	-7.109660E-17	NaN
1057	1.000000	0.044738	7.37538e+06	-52989.1	1055.82	-29747.6	0.000000	0.000000	6.044729	-0.025525	NaN	0.000000	0.001557	0.001703	28.0833	0.062566	0.001955	31.9956	165.608	11.369	-0.031722	0.043371	-1.054846	-1.056213	-0.025525	31.9956	-1.054247	-1.217602E+14	2.096305E-16	NaN
1057	1.000000	0.086785	7.37538e+06	-52989.1	1055.82	-29747.6	0.000000	0.000000	6.086774	-0.053014	NaN	0.000000	0.001580	0.001683	28.0834	0.095350	0.001987	47.9905	-107.395	-163.054	-0.101387	0.085470	-1.012799	-1.014114	-0.053014	47.9905	-1.011971	-3.287784E+13	1.612468E-15	NaN
1057	1.000000	0.128781	7.37539e+06	-52989.1	1055.82	-29747.6	0.000000	0.000000	6.128774	0.043259	NaN	0.000000	0.001590	0.001644	28.0834	0.058155	0.001997	29.1233	143.711	19.0403	-0.052434	0.127452	-0.970803	-0.972132	0.043259	29.1233	-0.971917	-9.495061E+12	-4.555990E-15	NaN
1057	1.000000	0.170797	7.37539e+06	-52989.1	1055.82	-29747.6	0.000000	0.000000	6.170781	-0.156825	NaN	0.000000	0.001555	0.001677	28.0846	0.090703	0.001935	46.8821	-97.8632	-167.105	-0.059197	0.169479	-0.928787	-0.930105	-0.156825	46.8821	-0.926279	-2.301272E+12	6.814723E-14	NaN
1057	1.000000	0.212830	7.37539e+06	-52989.1	1055.82	-29747.6	0.000000	0.000000	6.212823	0.026564	NaN	0.000000	0.001556	0.001647	28.0847	0.092141	0.002021	45.59	13.4153	12.8822	0.054848	0.211443	-0.886754	-0.888141	0.026564	45.59	-0.887191	-6.822416E+11	-3.893582E-14	NaN
1057	1.000000	0.254823	7.37539e+06	-52989.1	1055.82	-29747.6	0.000000	0.000000	6.254811	-0.063106	NaN	0.000000	0.001575	0.001659	28.085	0.040568	0.001977	20.5164	-156.914	-167.448	0.001057	0.253533	-0.844761	-0.846051	-0.063106	20.5164	-0.842454	-1.692549E+11	3.728473E-13	NaN
1057	1.000000	0.296859	7.37539e+06	-52989.1	1055.82	-29747.6	0.000000	0.000000	6.296850	-0.020964	NaN	0.000000	0.001589	0.001686	28.0836	0.098584	0.002191	44.9992	166.924	11.1852	0.024631	0.295490	-0.802725	-0.804094	-0.020964	44.9992	-0.802375	-4.842860E+10	4.328912E-13	NaN
1057	1.000000	0.338880	7.37539e+06	-52989.1	1055.82	-29747.6	0.000000	0.000000	6.338869	-0.056870	NaN	0.000000	0.001595	0.001659	28.0838	0.060233	0.002103	28.6456	62.5866	-164.502	-0.061162	0.337567	-0.760704	-0.762017	-0.056870	28.6456	-0.759215	-1.254950E+10	4.531624E-12	NaN
1057	1.000000	0.380893	7.37539e+06	-52989.1	1055.82	-29747.6	0.000000	0.000000	6.380888	0.074247	NaN	0.000000	0.001669	0.001687	28.0837	0.038348	0.001982	19.3451	98.3733	16.7118	0.108968	0.379501	-0.718691	-0.720083	0.074247	19.3451	-0.721569	-3.853649E+9	-1.926676E-11	NaN
1057	1.000000	0.422924	7.37539e+06	-52989.1	1055.82	-29747.6	0.000000	0.000000	6.422913	-0.054773	NaN	0.000000	0.001594	0.001693	28.0851	0.011848	0.002049	5.781820	176.591	-167.103	-0.064258	0.421593	-0.676660	-0.677991	-0.054773	5.781820	-0.669555	-7.504120E+8	7.298997E-11	NaN
1057	1.000000	0.464917	7.37539e+06	-52989.1	1055.82	-29747.6	0.000000	0.000000	6.464909	0.011536	NaN	0.000000	0.001593	0.001648	28.0851	0.010103	0.001912	5.285116	154.407	13.7519	-0.048915	0.463597	-0.634667	-0.635987	0.011536	5.285116	-0.636304	-2.627677E+8	-4.390091E-11	NaN
1057	1.000000	0.506923	7.37539e+06	-52989.1	1055.82	-29747.6	0.000000	0.000000	6.506912	-0.042570	NaN	0.000000	0.001504	0.001720	28.0851	0.028255	0.002012	14.0421	-175.919	-168.602	-0.054481	0.505655	-0.592661	-0.593929	-0.042570	14.0421	-0.590388	-6.137763E+7	6.935799E-10	NaN
1057	1.000000	0.548963	7.37539e+06	-52989.1	1055.82	-29747.6	0.000000	0.000000	6.548955	0.011979	NaN	0.000000	0.001560	0.001679	28.0848	0.019603	0.001845	10.6266	-122.543	12.9395	0.011590	0.547640	-0.550621	-0.551944	0.011979	10.6266	-0.551466	-1.779346E+7	-6.732180E-10	NaN
1057	1.000000	0.590972	7.37539e+06	-52989.1	1055.82	-29747.6	0.000000	0.000000	6.590959	-0.100863	NaN	0.000000	0.001584	0.001675	28.0839	0.033428	0.001830	18.27	37.2284	-165.35	-0.055015	0.589660	-0.508612	-0.509924	-0.100863	18.27	-0.504471	-3.95709e+06	2.548910E-8	NaN
1057	1.000000	0.633001	7.37539e+06	-52989.1	1055.82	-29747.6	0.000000	0.000000	6.632991	-0.020532	NaN	0.000000	0.001593	0.001674	28.0836	0.015508	0.001990	7.793565	-129.538	14.0011	-0.079954	0.631621	-0.466583	-0.467963	-0.020532	7.793565	-0.464608	-1.09582e+06	1.873656E-8	NaN
1057	1.000000	0.674999	7.37539e+06	-52989.1	1055.82	-29747.6	0.000000	0.000000	6.674991	0.017357	NaN	0.000000	0.001599	0.001652	28.0838	0.109979	0.001866	58.933	-20.8213	-166.17	0.019146	0.673712	-0.424585	-0.425872	0.017357	58.933	-0.424806	-300975	-5.766760E-8	NaN
1057	1.000000	0.717042	7.37539e+06	-52989.1	1055.82	-29747.6	0.000000	0.000000	6.717033	-0.007276	NaN	0.000000	0.001566	0.001681	28.0849	0.066330	0.002048	32.3942	46.3855	12.5418	-0.067468	0.715659	-0.382542	-0.383925	-0.007276	32.3942	-0.382373	-74805.6	9.726486E-8	NaN
1057	1.000000	0.759017	7.37539e+06	-52989.1	1055.82	-29747.6	0.000000	0.000000	6.759007	-0.017891	NaN	0.000000	0.001613	0.001661	28.0849	0.130578	0.002007	65.0505	-90.2992	-166.471	-0.049765	0.757747	-0.340567	-0.341837	-0.017891	65.0505	-0.340361	-18484.9	9.678892E-7	NaN
1057	1.000000	0.801098	7.37539e+06	-52989.1	1055.82	-29747.6	0.000000	0.000000	6.801089	0.007416	NaN	0.000000	0.001630	0.001644	28.0848	0.048388	0.002034	23.7852	28.623	10.9956	0.043476	0.799705	-0.298486	-0.299879	0.007416	23.7852	-0.298720	-4503.77	-1.646608E-6	NaN
1057	1.000000	0.843088	7.37539e+06	-52989.1	1055.82	-29747.6	0.000000	0.000000	6.843080	0.000938	NaN	0.000000	0.001619	0.001631	28.0837	0.089167	0.001995	44.6849	-110.05	-165.791	-0.027264	0.841785	-0.256496	-0.257799	0.000938	44.6849	-0.256512	-1036.02	-9.057372E-7	NaN
1057	1.000000	0.885131	7.37539e+06	-52989.1	1055.82	-29747.6	0.000000	0.000000	6.885124	0.039030	NaN	0.000000	0.001537	0.001637	28.0835	0.068755	0.002155	31.9037	-161.894	14.3907	0.035805	0.883739	-0.214453	-0.215845	0.039030	31.9037	-0.215370	-234.135	-0.000167	NaN
1057	1.000000	0.927126	7.37539e+06	-52989.1	1055.82	-29747.6	0.000000	0.000000	6.927116	-0.020144	NaN	0.000000	0.001565	0.001654	28.0833	0.094532	0.002025	46.6799	-30.3463	-165.324	0.108342	0.925816	-0.172458	-0.173768	-0.020144	46.6799	-0.172134	-44.7296	0.000450	NaN
1057	1.000000	0.969151	7.37539e+06	-52989.1	1055.82	-29747.6	0.000000	0.000000	6.969140	-0.050618	NaN	0.000000	0.001598	0.001680	28.0849	0.066234	0.001990	33.2771	-71.5891	15.3709	-0.014738	0.967763	-0.130433	-0.131821	-0.050618	33.2771	-0.129292	-7.383121	0.006856	NaN
1057	1.000000	1.011158	7.37539e+06	-52989.1	1055.82	-29747.6	0.000000	0.000000	7.011150	0.019859	NaN	0.000000	0.001615	0.001655	28.0852	0.038323	0.001987	19.2913	-31.0103	-164.226	-0.117344	1.009858	-0.088426	-0.089726	0.019859	19.2913	-0.089198	-1.035060	-0.019187	NaN
1057	1.000000	1.053158	7.37539e+06	-52989.1	1055.82	-29747.6	0.000000	0.000000	7.053152	0.049945	NaN	0.000000	0.001583	0.001659	28.0847	0.024596	0.002122	11.5929	-166.349	18.2377	0.070180	1.051789	-0.046426	-0.047795	0.049945	11.5929	-0.049657	-0.089095	-0.560581	NaN
1057	1.000000	1.095190	7.37539e+06	-52989.1	1055.82	-29747.6	0.000000	0.000000	7.095184	0.057059	NaN	0.000000	0.001570	0.001640	28.0847	0.210754	0.002164	97.3692	178.891	-165.519	0.101580	1.093899	-0.004394	-0.005685	0.057059	97.3692	-0.004833	-0.003312	-17.2292	NaN
1057	2.000000	1.114302	7.37539e+06	-52989.1	1055.82	-29747.6	0.000000	0.000000	7.114979	16.6872	NaN	0.000000	0.001548	0.001658	28.0837	15.7982	0.001836	8604.06	9.518680	2.096706	15.9418	1.113914	0.014718	0.014330	16.6872	8604.06	0.013263	0.013039	1279.83	68843.1
1057	2.000000	1.124759	7.37539e+06	-52989.1	1055.82	-29747.6	0.000000	0.000000	7.126464	41.6488	NaN	0.000000	0.001583	0.001631	28.0834	27.0306	0.001888	14319.4	3.730328	-177.086	40.8049	1.124464	0.025175	0.024880	41.6488	14319.4	0.022994	0.027467	1516.33	78939.1
1057	2.000000	1.135228	7.37539e+06	-52989.1	1055.82	-29747.6	0.000000	0.000000	7.138380	76.8363	NaN	0.000000	0.001623	0.001662	28.0834	36.1247	0.001703	21217.9	3.211479	-0.201797	76.1746	1.134824	0.035644	0.035240	76.8363	21217.9	0.032928	0.047032	1633.71	89388.1
1057	2.000000	1.145655	7.37539e+06	-52989.1	1055.82	-29747.6	0.000000	0.000000	7.150540	118.976	NaN	0.000000	0.001601	0.001630	28.0847	47.1021	0.001848	25483.9	6.708827	174.774	117.734	1.145348	0.046071	0.045764	118.976	25483.9	0.042569	0.070837	1679.58	87480.1
1057	2.000000	1.156182	7.37539e+06	-52989.1	1055.82	-29747.6	0.000000	0.000000	7.163145	169.494	NaN	0.000000	0.001595	0.001625	28.0849	57.2265	0.001873	30559.3	3.304215	-3.735133	166.325	1.155873	0.056598	0.056289	169.494	30559.3	0.052438	0.100098	1693.27	88247.5
1057	2.000000	1.166686	7.37539e+06	-52989.1	1055.82	-29747.6	0.000000	0.000000	7.176213	231.858	NaN	0.000000	0.001603	0.001638	28.0848	69.2771	0.001842	37607.3	7.927520	170.375	230.287	1.166299	0.067102	0.066715	231.858	37607.3	0.062478	0.134843	1719.47	93568.8
1057	2.000000	1.177232	7.37539e+06	-52989.1	1055.82	-29747.6	0.000000	0.000000	7.189374	295.43	NaN	0.000000	0.001568	0.001679	28.0834	78.4872	0.001833	42823.5	4.314215	-6.470155	298.227	1.176741	0.077648	0.077157	295.43	42823.5	0.072474	0.174298	1694.97	93715
1057	2.000000	1.187560	7.37539e+06	-52989.1	1055.82	-29747.6	0.000000	0.000000	7.203091	377.819	NaN	0.000000	0.001536	0.001720	28.0836	87.8637	0.001669	52636.2	3.151107	172.711	373.754	1.187375	0.087976	0.087791	377.819	52636.2	0.082592	0.219051	1724.8	102751
1057	2.000000	1.198219	7.37539e+06	-52989.1	1055.82	-29747.6	0.000000	0.000000	7.216755	450.887	NaN	0.000000	0.001575	0.001679	28.0839	98.9369	0.001843	53671.4	2.963383	-7.176097	451.624	1.197810	0.098635	0.098226	450.887	53671.4	0.092334	0.266626	1691.08	94965.3
1057	2.000000	1.205263	7.37539e+06	-52989.1	1055.82	-29747.6	0.000000	0.000000	7.226709	521.635	NaN	0.000000	0.001616	0.001669	28.0838	106.457	0.001818	58549.5	7.768042	-12.9984	525.804	1.204851	0.105679	0.105267	521.635	58549.5	0.098997	0.301670	1729.16	97393.5