File: remote_trans/data/nanoindenter/0828-1/data/Data_2025-08-06,11h17m57s/2025-07-22_16-23-58_1_18.txt
2025-07-22, 16:23:58, 1
Index	Phase	Displacement	Time	Pos X	Pos Y	Pos Z	Rot A	Rot B	Piezo Z	Force A	Force B	Gripper	Voltage A	Voltage B	Temperature	Amplitude force	Amplitude pos	Stiffness	Phase shift	Phase excitation	Force A raw	Displacement raw	HMax	HMax raw	Real Force	Real Stiffness	Contact Depth	Area	Hardness	Reduced Mod.
[#]	[#]	[um]	[s]	[um]	[um]	[um]	[m°]	[m°]	[um]	[uN]	[uN]	[V]	[V]	[V]	[°C]	[uN]	[um]	[N/m]	[°]	[°]	[uN]	[um]	[um]	[um]	[uN]	[N/m]	[um]	[um^2]	[MPa]	[MPa]
18	1.000000	0.002570	7.36522e+06	-39539.1	955.818	-29794.1	0.000000	0.000000	6.002795	-0.025430	NaN	0.000000	0.001640	0.001677	28.0832	0.061505	0.000831	73.9923	36.8225	-177.755	0.005778	0.001341	-1.055787	-1.057016	-0.025430	73.9923	-1.055529	-1.266863E+14	2.007357E-16	NaN
18	1.000000	0.042539	7.36522e+06	-39539.1	955.819	-29794.1	0.000000	0.000000	6.042768	0.086106	NaN	0.000000	0.001566	0.001710	28.0821	0.129582	0.002060	62.8944	-73.0683	-166.818	0.073661	0.041228	-1.015818	-1.017129	0.086106	62.8944	-1.016845	-3.823820E+13	-2.251819E-15	NaN
18	1.000000	0.082545	7.36522e+06	-39539.1	955.819	-29794.1	0.000000	0.000000	6.082772	0.022367	NaN	0.000000	0.001550	0.001779	28.0835	0.092319	0.001829	50.4759	169.662	-167.124	0.031855	0.081205	-0.975812	-0.977152	0.022367	50.4759	-0.976144	-1.082576E+13	-2.066049E-15	NaN
18	1.000000	0.122561	7.36522e+06	-39539.1	955.818	-29794.1	0.000000	0.000000	6.122788	0.044485	NaN	0.000000	0.001553	0.001742	28.0828	0.048271	0.001918	25.1722	-142.501	-167.215	0.031773	0.121202	-0.935796	-0.937155	0.044485	25.1722	-0.937122	-3.223326E+12	-1.380095E-14	NaN
18	1.000000	0.162588	7.36522e+06	-39539.1	955.819	-29794.1	0.000000	0.000000	6.162818	0.116979	NaN	0.000000	0.001554	0.001707	28.0818	0.034501	0.001977	17.4491	34.856	-166.012	0.060508	0.161278	-0.895769	-0.897079	0.116979	17.4491	-0.900797	-1.041935E+12	-1.122710E-13	NaN
18	1.000000	0.202610	7.36522e+06	-39539.1	955.818	-29794.1	0.000000	0.000000	6.202836	0.021053	NaN	0.000000	0.001542	0.001741	28.08	0.127080	0.001917	66.2808	-35.163	-164.922	0.064005	0.201285	-0.855747	-0.857072	0.021053	66.2808	-0.855986	-2.580955E+11	-8.157054E-14	NaN
18	1.000000	0.242632	7.36522e+06	-39539.1	955.818	-29794.1	0.000000	0.000000	6.242860	0.066235	NaN	0.000000	0.001521	0.001761	28.081	0.096609	0.002068	46.7237	-97.3392	-165.031	0.091174	0.241294	-0.815725	-0.817063	0.066235	46.7237	-0.816789	-7.597278E+10	-8.718293E-13	NaN
18	1.000000	0.282635	7.36522e+06	-39539.1	955.819	-29794.1	0.000000	0.000000	6.282860	-0.001064	NaN	0.000000	0.001561	0.001775	28.0802	0.065471	0.002150	30.4564	94.8586	-163.949	-0.050715	0.281296	-0.775722	-0.777061	-0.001064	30.4564	-0.775696	-2.102494E+10	5.059271E-14	NaN
18	1.000000	0.322646	7.36522e+06	-39539.1	955.818	-29794.1	0.000000	0.000000	6.322872	-0.003374	NaN	0.000000	0.001544	0.001754	28.0834	0.027110	0.002117	12.8076	102.978	-168.948	-0.026687	0.321341	-0.735710	-0.737015	-0.003374	12.8076	-0.735513	-5.969402E+9	5.651658E-13	NaN
18	1.000000	0.362650	7.36522e+06	-39539.1	955.818	-29794.1	0.000000	0.000000	6.362878	0.065081	NaN	0.000000	0.001530	0.001778	28.0814	0.052155	0.001989	26.2231	-140.399	-166.072	0.097664	0.361341	-0.695707	-0.697016	0.065081	26.2231	-0.697568	-1.812673E+9	-3.590338E-11	NaN
18	1.000000	0.402653	7.36522e+06	-39539.1	955.819	-29794.1	0.000000	0.000000	6.402880	0.031727	NaN	0.000000	0.001514	0.001740	28.0839	0.029510	0.002067	14.275	-79.5211	-166.326	0.057689	0.401365	-0.655704	-0.656992	0.031727	14.275	-0.657371	-5.110335E+8	-6.208393E-11	NaN
18	1.000000	0.442666	7.36522e+06	-39539.1	955.819	-29794.1	0.000000	0.000000	6.442894	0.055849	NaN	0.000000	0.001503	0.001733	28.0816	0.155284	0.002107	73.686	-18.6837	-166.385	0.049288	0.441406	-0.615691	-0.616951	0.055849	73.686	-0.616259	-1.393821E+8	-4.006874E-10	NaN
18	1.000000	0.482716	7.36522e+06	-39539.1	955.818	-29794.1	0.000000	0.000000	6.482944	0.059711	NaN	0.000000	0.001548	0.001697	28.0816	0.043097	0.001988	21.6778	154.505	-164.466	-0.019603	0.481351	-0.575641	-0.577005	0.059711	21.6778	-0.577707	-4.102704E+7	-1.455418E-9	NaN
18	1.000000	0.522692	7.36522e+06	-39539.1	955.819	-29794.1	0.000000	0.000000	6.522922	0.112216	NaN	0.000000	0.001523	0.001644	28.0811	0.074455	0.001966	37.8695	21.9746	-163.127	0.178597	0.521382	-0.535665	-0.536975	0.112216	37.8695	-0.537887	-1.153593E+7	-9.727519E-9	NaN
18	1.000000	0.562761	7.36522e+06	-39539.1	955.818	-29794.1	0.000000	0.000000	6.562987	0.024797	NaN	0.000000	0.001537	0.001660	28.0824	0.113921	0.002067	55.1039	-165.72	-166.71	0.048505	0.561485	-0.495596	-0.496872	0.024797	55.1039	-0.495933	-3.00792e+06	-8.243812E-9	NaN
18	1.000000	0.602772	7.36522e+06	-39539.1	955.818	-29794.1	0.000000	0.000000	6.602998	-0.002737	NaN	0.000000	0.001553	0.001658	28.0825	0.106752	0.001989	53.6627	-40.0067	-165.183	0.027157	0.601468	-0.455585	-0.456889	-0.002737	53.6627	-0.455546	-817340	3.349086E-9	NaN
18	1.000000	0.642796	7.36522e+06	-39539.1	955.819	-29794.1	0.000000	0.000000	6.643025	0.078017	NaN	0.000000	0.001591	0.001677	28.0831	0.063911	0.001944	32.8828	-179.041	-169.922	0.059866	0.641445	-0.415561	-0.416912	0.078017	32.8828	-0.417340	-235875	-3.307556E-7	NaN
18	1.000000	0.682785	7.36522e+06	-39539.1	955.818	-29794.1	0.000000	0.000000	6.683011	0.011273	NaN	0.000000	0.001566	0.001679	28.0827	0.090177	0.001987	45.3811	75.0245	-166.784	0.077455	0.681449	-0.375572	-0.376908	0.011273	45.3811	-0.375758	-60112.8	-1.875341E-7	NaN
18	1.000000	0.722792	7.36522e+06	-39539.1	955.818	-29794.2	0.000000	0.000000	6.723020	0.065217	NaN	0.000000	0.001557	0.001662	28.0825	0.082658	0.002110	39.1705	37.5535	-167.203	-0.034342	0.721535	-0.335565	-0.336822	0.065217	39.1705	-0.336813	-16408.6	-3.974543E-6	NaN
18	1.000000	0.762831	7.36522e+06	-39539.1	955.819	-29794.2	0.000000	0.000000	6.763056	-0.003989	NaN	0.000000	0.001541	0.001673	28.0813	0.068798	0.001971	34.9002	-24.3603	-165.22	0.013818	0.761492	-0.295526	-0.296865	-0.003989	34.9002	-0.295441	-4024.09	9.912321E-7	NaN
18	1.000000	0.802828	7.36522e+06	-39539.1	955.819	-29794.2	0.000000	0.000000	6.803057	0.083554	NaN	0.000000	0.001531	0.001701	28.0833	0.029960	0.001977	15.1541	-0.661773	-165.982	0.113324	0.801509	-0.255529	-0.256848	0.083554	15.1541	-0.259664	-1158.15	-7.214402E-5	NaN
18	1.000000	0.842885	7.36522e+06	-39539.1	955.819	-29794.2	0.000000	0.000000	6.843114	0.080868	NaN	0.000000	0.001531	0.001629	28.0794	0.090713	0.002054	44.1677	44.3837	-167.021	0.091470	0.841552	-0.215471	-0.216805	0.080868	44.1677	-0.216845	-247.257	-0.000327	NaN
18	1.000000	0.882889	7.36522e+06	-39539.1	955.818	-29794.2	0.000000	0.000000	6.883117	0.059940	NaN	0.000000	0.001541	0.001671	28.0837	0.064996	0.002109	30.8121	-157.507	-169.641	0.045877	0.881525	-0.175468	-0.176832	0.059940	30.8121	-0.176927	-54.0787	-0.001108	NaN
18	1.000000	0.922867	7.36522e+06	-39539.1	955.818	-29794.2	0.000000	0.000000	6.923097	0.098576	NaN	0.000000	0.001579	0.001674	28.0827	0.082925	0.001962	42.2578	-13.342	-167.184	0.093996	0.921598	-0.135490	-0.136759	0.098576	42.2578	-0.137239	-10.4925	-0.009395	NaN
18	1.000000	0.962927	7.36522e+06	-39539.1	955.82	-29794.2	0.000000	0.000000	6.963152	-0.008790	NaN	0.000000	0.001603	0.001648	28.0837	0.137823	0.002000	68.8967	-52.6261	-167.858	0.046622	0.961610	-0.095430	-0.096747	-0.008790	68.8967	-0.095335	-1.435600	0.006123	NaN
18	1.000000	1.002943	7.36522e+06	-39539.1	955.82	-29794.2	0.000000	0.000000	7.003171	0.049850	NaN	0.000000	0.001572	0.001651	28.081	0.086371	0.001983	43.5645	-100.377	-164.154	0.001554	1.001619	-0.055414	-0.056738	0.049850	43.5645	-0.056272	-0.140380	-0.355111	NaN
18	1.000000	1.042938	7.36522e+06	-39539.1	955.819	-29794.2	0.000000	0.000000	7.043165	0.045839	NaN	0.000000	0.001558	0.001652	28.0826	0.026877	0.002005	13.405	18.2378	-166.963	0.081197	1.041622	-0.015419	-0.016735	0.045839	13.405	-0.017984	-0.011152	-4.110500	NaN
18	2.000000	1.072468	7.36522e+06	-39539.1	955.818	-29794.2	0.000000	0.000000	7.073349	15.9656	NaN	0.000000	0.001584	0.001614	28.0817	13.4374	0.001676	8015.37	7.309993	-176.598	15.2575	1.072150	0.014111	0.013793	15.9656	8015.37	0.012617	0.012238	1304.64	66198.8
18	2.000000	1.082406	7.36522e+06	-39539.1	955.819	-29794.2	0.000000	0.000000	7.084207	38.3339	NaN	0.000000	0.001592	0.001650	28.0825	24.7524	0.001755	14100.3	4.936129	-179.116	37.4613	1.082070	0.024049	0.023713	38.3339	14100.3	0.022010	0.025800	1485.8	80202.9
18	2.000000	1.092374	7.36522e+06	-39539.1	955.818	-29794.2	0.000000	0.000000	7.095603	73.0885	NaN	0.000000	0.001587	0.001641	28.0832	35.633	0.001924	18519.7	3.363343	-179.756	71.7203	1.092104	0.034017	0.033747	73.0885	18519.7	0.031057	0.042963	1701.18	81631.4
18	2.000000	1.102341	7.36522e+06	-39539.1	955.82	-29794.2	0.000000	0.000000	7.107258	114.159	NaN	0.000000	0.001609	0.001619	28.0838	44.7107	0.001844	24242.4	5.452271	175.17	111.406	1.102049	0.043984	0.043692	114.159	24242.4	0.040453	0.065203	1750.83	86739.1
18	2.000000	1.112361	7.36522e+06	-39539.1	955.819	-29794.2	0.000000	0.000000	7.119468	167.458	NaN	0.000000	0.001553	0.001681	28.0834	54.9447	0.001769	31067.8	5.396764	173.841	167.87	1.112074	0.054004	0.053717	167.458	31067.8	0.049962	0.092295	1814.38	93432
18	2.000000	1.122323	7.36522e+06	-39539.1	955.819	-29794.2	0.000000	0.000000	7.132112	232.728	NaN	0.000000	0.001540	0.001665	28.0832	65.6432	0.001815	36161.1	5.164168	173.002	232.378	1.122053	0.063966	0.063696	232.728	36161.1	0.059139	0.122740	1896.1	94302.1
18	2.000000	1.132306	7.36522e+06	-39539.1	955.82	-29794.2	0.000000	0.000000	7.144968	302.629	NaN	0.000000	0.001516	0.001699	28.0803	76.3762	0.001919	39806.6	7.523306	170.168	300.285	1.132028	0.073950	0.073671	302.629	39806.6	0.068248	0.157033	1927.17	91776.9
18	2.000000	1.142233	7.36522e+06	-39539.1	955.819	-29794.2	0.000000	0.000000	7.157973	377.56	NaN	0.000000	0.001529	0.001628	28.084	84.6393	0.001796	47135.8	-0.287900	176.46	373.163	1.142180	0.083876	0.083823	377.56	47135.8	0.077868	0.197559	1911.13	96889.4
18	2.000000	1.152227	7.36522e+06	-39539.1	955.82	-29794.2	0.000000	0.000000	7.171772	470.134	NaN	0.000000	0.001545	0.001629	28.0835	95.8986	0.001759	54523.9	1.341772	173.765	464.405	1.152051	0.093870	0.093694	470.134	54523.9	0.087403	0.241998	1942.71	101264
18	2.000000	1.162246	7.36522e+06	-39539.1	955.819	-29794.2	0.000000	0.000000	7.186768	591.243	NaN	0.000000	0.001551	0.001662	28.0839	106.823	0.001875	56960.2	8.742895	166.569	587.948	1.161783	0.103889	0.103426	591.243	56960.2	0.096104	0.286205	2065.8	97276
18	2.000000	1.167239	7.36522e+06	-39539.1	955.819	-29794.2	0.000000	0.000000	7.194310	653.271	NaN	0.000000	0.001546	0.001596	28.1319	110.669	0.001751	63203.5	6.475721	168.489	650.236	1.166895	0.108882	0.108538	653.271	63203.5	0.101130	0.313317	2085.02	103163