File: remote_trans/data/nanoindenter/0828-1/data/Data_2025-08-06,11h17m57s/2025-07-22_16-23-58_1_275.txt
2025-07-22, 16:23:58, 1
Index	Phase	Displacement	Time	Pos X	Pos Y	Pos Z	Rot A	Rot B	Piezo Z	Force A	Force B	Gripper	Voltage A	Voltage B	Temperature	Amplitude force	Amplitude pos	Stiffness	Phase shift	Phase excitation	Force A raw	Displacement raw	HMax	HMax raw	Real Force	Real Stiffness	Contact Depth	Area	Hardness	Reduced Mod.
[#]	[#]	[um]	[s]	[um]	[um]	[um]	[m°]	[m°]	[um]	[uN]	[uN]	[V]	[V]	[V]	[°C]	[uN]	[um]	[N/m]	[°]	[°]	[uN]	[um]	[um]	[um]	[uN]	[N/m]	[um]	[um^2]	[MPa]	[MPa]
275	1.000000	0.003019	7.36775e+06	-52389.1	955.818	-29749.6	0.000000	0.000000	6.002800	0.036999	NaN	0.000000	0.001715	0.001597	28.0817	0.051886	0.000921	56.3551	83.3987	-163.378	-0.021269	0.001797	-0.982746	-0.983968	0.036999	56.3551	-0.983239	-1.349094E+13	-2.742540E-15	NaN
275	1.000000	0.042965	7.36775e+06	-52389.1	955.817	-29749.6	0.000000	0.000000	6.042746	0.049306	NaN	0.000000	0.001739	0.001600	28.0814	0.120269	0.002034	59.1425	11.4541	-166.968	0.057545	0.041661	-0.942801	-0.944104	0.049306	59.1425	-0.943426	-3.920633E+12	-1.257612E-14	NaN
275	1.000000	0.082971	7.36775e+06	-52389.1	955.817	-29749.6	0.000000	0.000000	6.082749	-0.011991	NaN	0.000000	0.001615	0.001607	28.0806	0.103189	0.002012	51.2823	123.159	-159.993	-0.032414	0.081676	-0.902795	-0.904090	-0.011991	51.2823	-0.902620	-1.102712E+12	1.087408E-14	NaN
275	1.000000	0.122965	7.36775e+06	-52389.1	955.818	-29749.6	0.000000	0.000000	6.122746	0.049435	NaN	0.000000	0.001623	0.001632	28.0798	0.043435	0.001961	22.1507	-178.576	-165.356	0.060478	0.121689	-0.862801	-0.864076	0.049435	22.1507	-0.864475	-3.362659E+11	-1.470110E-13	NaN
275	1.000000	0.163045	7.36775e+06	-52389.1	955.818	-29749.6	0.000000	0.000000	6.162825	0.014652	NaN	0.000000	0.001637	0.001601	28.0798	0.085003	0.002135	39.815	-112.94	-165.961	0.059687	0.161727	-0.822721	-0.824039	0.014652	39.815	-0.822997	-9.222456E+10	-1.588697E-13	NaN
275	1.000000	0.203014	7.36775e+06	-52389.1	955.818	-29749.6	0.000000	0.000000	6.202795	0.048730	NaN	0.000000	0.001599	0.001568	28.0798	0.057772	0.001913	30.1976	170.479	-166.214	0.054292	0.201709	-0.782752	-0.784057	0.048730	30.1976	-0.783962	-2.723131E+10	-1.789495E-12	NaN
275	1.000000	0.243060	7.36775e+06	-52389.1	955.818	-29749.6	0.000000	0.000000	6.242841	0.032362	NaN	0.000000	0.001604	0.001612	28.0811	0.124983	0.002062	60.6001	92.1721	-166.776	0.012364	0.241742	-0.742705	-0.744024	0.032362	60.6001	-0.743106	-7.574553E+9	-4.272413E-12	NaN
275	1.000000	0.283089	7.36775e+06	-52389.1	955.819	-29749.6	0.000000	0.000000	6.282869	0.016352	NaN	0.000000	0.001604	0.001590	28.0814	0.079011	0.001987	39.7729	-2.042569	-161.196	-0.030776	0.281776	-0.702676	-0.703989	0.016352	39.7729	-0.702985	-2.149256E+9	-7.608213E-12	NaN
275	1.000000	0.323108	7.36775e+06	-52389.1	955.819	-29749.6	0.000000	0.000000	6.322888	0.016194	NaN	0.000000	0.001606	0.001615	28.0816	0.179938	0.002018	89.1614	179.147	-166.239	0.038822	0.321792	-0.662658	-0.663973	0.016194	89.1614	-0.662794	-6.063697E+8	-2.670579E-11	NaN
275	1.000000	0.363120	7.36775e+06	-52389.1	955.819	-29749.6	0.000000	0.000000	6.362900	0.006673	NaN	0.000000	0.001625	0.001581	28.08	0.145611	0.002000	72.7932	-43.2017	-165.899	-0.038846	0.361819	-0.622645	-0.623946	0.006673	72.7932	-0.622714	-1.709756E+8	-3.903133E-11	NaN
275	1.000000	0.403082	7.36775e+06	-52389.1	955.818	-29749.6	0.000000	0.000000	6.402865	0.077785	NaN	0.000000	0.001600	0.001627	28.0798	0.132746	0.001954	67.9404	36.7541	-166.072	0.060042	0.401819	-0.582683	-0.583946	0.077785	67.9404	-0.583542	-4.938550E+7	-1.575064E-9	NaN
275	1.000000	0.443148	7.36775e+06	-52389.1	955.817	-29749.6	0.000000	0.000000	6.442926	-0.045304	NaN	0.000000	0.001597	0.001635	28.0799	0.041706	0.002056	20.2844	-19.5555	-163.419	-0.065038	0.441844	-0.542617	-0.543922	-0.045304	20.2844	-0.540942	-1.271809E+7	3.562169E-9	NaN
275	1.000000	0.483174	7.36775e+06	-52389.1	955.818	-29749.6	0.000000	0.000000	6.482952	-0.023812	NaN	0.000000	0.001610	0.001633	28.08	0.087176	0.002009	43.3873	-157.3	-165.035	0.040640	0.481869	-0.502592	-0.503896	-0.023812	43.3873	-0.502180	-3.67643e+06	6.476990E-9	NaN
275	1.000000	0.523174	7.36775e+06	-52389.1	955.818	-29749.6	0.000000	0.000000	6.522952	-0.035597	NaN	0.000000	0.001647	0.001625	28.0812	0.066236	0.001965	33.7162	-103.474	-168.52	-0.010509	0.521886	-0.462592	-0.463880	-0.035597	33.7162	-0.461800	-1.0007e+06	3.557171E-8	NaN
275	1.000000	0.563170	7.36775e+06	-52389.1	955.819	-29749.6	0.000000	0.000000	6.562951	0.024101	NaN	0.000000	0.001618	0.001629	28.0812	0.081406	0.001952	41.7141	47.8905	-166.454	0.014134	0.561920	-0.422595	-0.423846	0.024101	41.7141	-0.423029	-284023	-8.485420E-8	NaN
275	1.000000	0.603196	7.36775e+06	-52389.1	955.819	-29749.6	0.000000	0.000000	6.602976	0.016736	NaN	0.000000	0.001652	0.001630	28.0813	0.043006	0.002053	20.9438	-127.028	-165.313	0.138260	0.601885	-0.382569	-0.383880	0.016736	20.9438	-0.383169	-76796.2	-2.179226E-7	NaN
275	1.000000	0.643222	7.36775e+06	-52389.1	955.819	-29749.6	0.000000	0.000000	6.643004	0.077099	NaN	0.000000	0.001677	0.001640	28.0801	0.135129	0.001979	68.2805	152.992	-165.408	0.093104	0.641902	-0.342544	-0.343863	0.077099	68.2805	-0.343391	-20461.8	-3.767940E-6	NaN
275	1.000000	0.683243	7.36775e+06	-52389.1	955.818	-29749.6	0.000000	0.000000	6.683022	-0.009334	NaN	0.000000	0.001622	0.001647	28.0801	0.030544	0.002099	14.5539	73.6203	-163.736	0.004622	0.681930	-0.302523	-0.303835	-0.009334	14.5539	-0.302042	-5046.77	1.849529E-6	NaN
275	1.000000	0.723279	7.36775e+06	-52389.1	955.819	-29749.6	0.000000	0.000000	6.723062	0.098958	NaN	0.000000	0.001677	0.001649	28.0799	0.052614	0.002149	24.4829	-47.8877	-164.74	0.014929	0.721961	-0.262487	-0.263805	0.098958	24.4829	-0.265519	-1423.31	-6.952641E-5	NaN
275	1.000000	0.763269	7.36775e+06	-52389.1	955.818	-29749.6	0.000000	0.000000	6.763046	-0.059886	NaN	0.000000	0.001658	0.001672	28.0798	0.009726	0.002097	4.638901	-80.6683	-165.981	-0.045386	0.762014	-0.222497	-0.223752	-0.059886	4.638901	-0.212814	-212.965	0.000281	NaN
275	1.000000	0.803307	7.36775e+06	-52389.1	955.818	-29749.6	0.000000	0.000000	6.803089	0.063482	NaN	0.000000	0.001654	0.001661	28.081	0.086936	0.002068	42.032	116.658	-162.352	0.029889	0.801987	-0.182459	-0.183779	0.063482	42.032	-0.183592	-70.2042	-0.000904	NaN
275	1.000000	0.843298	7.36775e+06	-52389.1	955.817	-29749.6	0.000000	0.000000	6.843079	0.042358	NaN	0.000000	0.001687	0.001643	28.0812	0.033685	0.001966	17.1319	158.701	-168.493	0.016216	0.842005	-0.142468	-0.143761	0.042358	17.1319	-0.144322	-14.2435	-0.002974	NaN
275	1.000000	0.883333	7.36775e+06	-52389.1	955.819	-29749.6	0.000000	0.000000	6.883114	0.021939	NaN	0.000000	0.001734	0.001670	28.0812	0.047052	0.002019	23.3104	124.332	-164.549	0.076935	0.882038	-0.102432	-0.103728	0.021939	23.3104	-0.103138	-2.141742	-0.010244	NaN
275	1.000000	0.923364	7.36775e+06	-52389.1	955.819	-29749.6	0.000000	0.000000	6.923144	0.015430	NaN	0.000000	0.001676	0.001721	28.0803	0.126182	0.001988	63.459	146.884	-164.812	0.025877	0.922014	-0.062401	-0.063752	0.015430	63.459	-0.062584	-0.213302	-0.072338	NaN
275	1.000000	0.963348	7.36775e+06	-52389.1	955.819	-29749.6	0.000000	0.000000	6.963143	0.373902	NaN	0.000000	0.001601	0.001714	28.0802	0.230545	0.001972	116.929	23.2436	-166.307	0.424668	0.961996	-0.022417	-0.023770	0.373902	116.929	-0.024816	-0.016684	-22.4102	NaN
275	1.000000	1.003352	7.36775e+06	-52389.1	955.817	-29749.6	0.000000	0.000000	7.003216	2.056434	NaN	0.000000	0.001651	0.001727	28.0803	1.831618	0.002001	915.299	30.9285	-169.04	1.914858	1.002118	0.017587	0.016352	2.056434	915.299	0.015902	0.016507	124.582	6508.89
275	2.000000	1.033987	7.36775e+06	-52389.1	955.818	-29749.6	0.000000	0.000000	7.034117	8.521572	NaN	0.000000	0.001698	0.001719	28.0814	6.073156	0.001971	3080.85	13.9149	-171.971	8.459250	1.033721	0.048222	0.047956	8.521572	3080.85	0.046147	0.080877	105.364	9897.63
275	2.000000	1.043953	7.36775e+06	-52389.1	955.817	-29749.6	0.000000	0.000000	7.044243	12.4318	NaN	0.000000	0.001616	0.001779	28.0812	8.207107	0.002024	4055.9	10.0475	-169.96	12.7589	1.043646	0.058187	0.057880	12.4318	4055.9	0.055888	0.111478	111.518	11098.5
275	2.000000	1.053897	7.36775e+06	-52389.1	955.817	-29749.6	0.000000	0.000000	7.054473	19.3703	NaN	0.000000	0.001620	0.001714	28.0814	10.0166	0.001793	5586.41	9.352365	-173.924	19.1007	1.053595	0.068132	0.067830	19.3703	5586.41	0.065531	0.146387	132.323	13340
275	2.000000	1.063920	7.36775e+06	-52389.1	955.817	-29749.6	0.000000	0.000000	7.064624	22.4793	NaN	0.000000	0.001555	0.001727	28.0811	11.6114	0.001988	5840.98	10.0908	-173.559	22.7635	1.063643	0.078155	0.077878	22.4793	5840.98	0.075268	0.186176	120.742	12367.9
275	2.000000	1.073883	7.36775e+06	-52389.1	955.818	-29749.6	0.000000	0.000000	7.074761	26.7019	NaN	0.000000	0.001568	0.001727	28.08	13.051	0.001971	6622.63	9.061679	-173.871	26.5788	1.073570	0.088117	0.087804	26.7019	6622.63	0.085094	0.230848	115.669	12593.3
275	2.000000	1.083866	7.36775e+06	-52389.1	955.817	-29749.6	0.000000	0.000000	7.085020	33.4239	NaN	0.000000	0.001602	0.001709	28.0798	14.7855	0.001970	7506.13	5.613670	-170.496	32.9358	1.083538	0.098100	0.097772	33.4239	7506.13	0.094761	0.279154	119.733	12979.8
275	2.000000	1.093845	7.36775e+06	-52389.1	955.817	-29749.6	0.000000	0.000000	7.095216	38.6813	NaN	0.000000	0.001595	0.001691	28.0801	16.7379	0.001997	8383.5	8.073511	-174.812	37.9789	1.093613	0.108080	0.107848	38.6813	8383.5	0.104619	0.332811	116.226	13277
275	2.000000	1.103863	7.36775e+06	-52389.1	955.818	-29749.6	0.000000	0.000000	7.105424	43.3233	NaN	0.000000	0.001578	0.001699	28.0814	18.3721	0.002003	9171.38	7.529092	-173.682	42.8289	1.103528	0.118097	0.117762	43.3233	9171.38	0.114555	0.391347	110.703	13394.5
275	2.000000	1.113888	7.36775e+06	-52389.1	955.818	-29749.6	0.000000	0.000000	7.115478	44.0268	NaN	0.000000	0.001575	0.001689	28.0812	19.7425	0.001892	10432.6	4.692293	-172.796	44.5137	1.113551	0.128123	0.127786	44.0268	10432.6	0.124957	0.457438	96.2466	14092.8
275	2.000000	1.123832	7.36775e+06	-52389.1	955.817	-29749.6	0.000000	0.000000	7.125729	51.4867	NaN	0.000000	0.001579	0.001747	28.081	22.7522	0.001903	11957	8.401457	-177.659	50.9031	1.123489	0.138066	0.137724	51.4867	11957	0.134837	0.524766	98.1136	15080.4
275	2.000000	1.129324	7.36775e+06	-52389.1	955.817	-29749.6	0.000000	0.000000	7.131401	55.8721	NaN	0.000000	0.001557	0.001762	28.0813	24.6999	0.002015	12255.6	9.859215	1.542804	55.7578	1.128965	0.143558	0.143200	55.8721	12255.6	0.140139	0.562747	99.2846	14926.2