File: remote_trans/data/nanoindenter/0828-1/data/Data_2025-08-06,11h17m57s/2025-07-22_16-23-58_1_685.txt
2025-07-22, 16:23:58, 1
Index	Phase	Displacement	Time	Pos X	Pos Y	Pos Z	Rot A	Rot B	Piezo Z	Force A	Force B	Gripper	Voltage A	Voltage B	Temperature	Amplitude force	Amplitude pos	Stiffness	Phase shift	Phase excitation	Force A raw	Displacement raw	HMax	HMax raw	Real Force	Real Stiffness	Contact Depth	Area	Hardness	Reduced Mod.
[#]	[#]	[um]	[s]	[um]	[um]	[um]	[m°]	[m°]	[um]	[uN]	[uN]	[V]	[V]	[V]	[°C]	[uN]	[um]	[N/m]	[°]	[°]	[uN]	[um]	[um]	[um]	[uN]	[N/m]	[um]	[um^2]	[MPa]	[MPa]
685	1.000000	0.002763	7.37175e+06	-42839.1	1005.82	-29781.3	0.000000	0.000000	6.002834	0.047801	NaN	0.000000	0.001591	0.001680	28.0811	0.077461	0.000936	82.7219	170.267	-165.438	0.034123	0.001461	-1.023376	-1.024677	0.047801	82.7219	-1.023809	-4.744645E+13	-1.007474E-15	NaN
685	1.000000	0.042656	7.37175e+06	-42839.1	1005.82	-29781.3	0.000000	0.000000	6.042725	-0.008644	NaN	0.000000	0.001610	0.001720	28.0821	0.046201	0.002084	22.1723	-157.372	-165.775	-0.043229	0.041396	-0.983483	-0.984743	-0.008644	22.1723	-0.983190	-1.347070E+13	6.416731E-16	NaN
685	1.000000	0.082692	7.37175e+06	-42839.1	1005.82	-29781.3	0.000000	0.000000	6.082760	-0.020058	NaN	0.000000	0.001659	0.001730	28.0818	0.110079	0.002047	53.7762	-102.922	-166.857	-0.034657	0.081358	-0.943447	-0.944781	-0.020058	53.7762	-0.943167	-3.889231E+12	5.157268E-15	NaN
685	1.000000	0.122719	7.37175e+06	-42839.1	1005.82	-29781.3	0.000000	0.000000	6.122791	0.054152	NaN	0.000000	0.001618	0.001745	28.0819	0.130328	0.002019	64.5425	-59.2706	-164.083	0.023339	0.121360	-0.903419	-0.904779	0.054152	64.5425	-0.904049	-1.152841E+12	-4.697261E-14	NaN
685	1.000000	0.162712	7.37175e+06	-42839.1	1005.82	-29781.3	0.000000	0.000000	6.162783	0.032902	NaN	0.000000	0.001613	0.001745	28.0805	0.037299	0.001980	18.8333	72.1035	-166.633	0.007479	0.161415	-0.863426	-0.864724	0.032902	18.8333	-0.864737	-3.390205E+11	-9.704938E-14	NaN
685	1.000000	0.202753	7.37175e+06	-42839.1	1005.82	-29781.3	0.000000	0.000000	6.202821	-0.030179	NaN	0.000000	0.001582	0.001763	28.0805	0.041699	0.002042	20.4227	9.449004	-164.666	-0.008193	0.201441	-0.823385	-0.824698	-0.030179	20.4227	-0.822277	-9.017559E+10	3.346713E-13	NaN
685	1.000000	0.242735	7.37175e+06	-42839.1	1005.82	-29781.3	0.000000	0.000000	6.242804	0.011696	NaN	0.000000	0.001559	0.001737	28.0807	0.107919	0.002008	53.7557	-109.365	-165.106	-0.017520	0.241470	-0.783404	-0.784668	0.011696	53.7557	-0.783567	-2.689687E+10	-4.348456E-13	NaN
685	1.000000	0.282765	7.37175e+06	-42839.1	1005.82	-29781.3	0.000000	0.000000	6.282834	-0.006412	NaN	0.000000	0.001598	0.001728	28.0807	0.087646	0.001893	46.2997	-104.201	-164.626	0.066974	0.281481	-0.743374	-0.744657	-0.006412	46.2997	-0.743270	-7.613530E+9	8.421634E-13	NaN
685	1.000000	0.322783	7.37175e+06	-42839.1	1005.82	-29781.3	0.000000	0.000000	6.322853	0.005863	NaN	0.000000	0.001556	0.001719	28.0818	0.131940	0.002124	62.1107	124.46	-165.081	-0.061345	0.321441	-0.703355	-0.704697	0.005863	62.1107	-0.703426	-2.179298E+9	-2.690366E-12	NaN
685	1.000000	0.362809	7.37175e+06	-42839.1	1005.82	-29781.3	0.000000	0.000000	6.362879	0.002972	NaN	0.000000	0.001602	0.001754	28.0818	0.075273	0.001874	40.1629	-159.448	-163.285	-0.010106	0.361485	-0.663330	-0.664654	0.002972	40.1629	-0.663385	-6.177738E+8	-4.811144E-12	NaN
685	1.000000	0.402853	7.37175e+06	-42839.1	1005.82	-29781.3	0.000000	0.000000	6.402922	-0.011581	NaN	0.000000	0.001614	0.001706	28.0817	0.038478	0.001931	19.9307	-137.75	-165.358	-0.057324	0.401518	-0.623286	-0.624621	-0.011581	19.9307	-0.622850	-1.717134E+8	6.744112E-11	NaN
685	1.000000	0.442842	7.37175e+06	-42839.1	1005.82	-29781.3	0.000000	0.000000	6.442910	-0.024613	NaN	0.000000	0.001643	0.001734	28.0805	0.069670	0.001987	35.0642	-107.648	-166.06	0.028852	0.441511	-0.583297	-0.584628	-0.024613	35.0642	-0.582770	-4.818965E+7	5.107619E-10	NaN
685	1.000000	0.482845	7.37175e+06	-42839.1	1005.82	-29781.4	0.000000	0.000000	6.482916	0.043591	NaN	0.000000	0.001606	0.001728	28.0806	0.052428	0.001952	26.8637	149.983	-163.293	0.150487	0.481536	-0.543293	-0.544603	0.043591	26.8637	-0.544510	-1.425261E+7	-3.058490E-9	NaN
685	1.000000	0.522900	7.37175e+06	-42839.1	1005.82	-29781.3	0.000000	0.000000	6.522971	0.043234	NaN	0.000000	0.001633	0.001763	28.0808	0.076467	0.002052	37.2661	-64.6379	-166.4	0.051612	0.521615	-0.503239	-0.504524	0.043234	37.2661	-0.504109	-3.91134e+06	-1.105359E-8	NaN
685	1.000000	0.562898	7.37175e+06	-42839.1	1005.82	-29781.4	0.000000	0.000000	6.562967	-0.015323	NaN	0.000000	0.001627	0.001742	28.0806	0.043844	0.002004	21.8834	-174.366	-167.052	0.005531	0.561538	-0.463240	-0.464601	-0.015323	21.8834	-0.462715	-1.03077e+06	1.486559E-8	NaN
685	1.000000	0.602903	7.37175e+06	-42839.1	1005.82	-29781.4	0.000000	0.000000	6.602974	0.041159	NaN	0.000000	0.001607	0.001715	28.0819	0.086610	0.002138	40.5171	-5.557021	-163.222	0.004120	0.601591	-0.423235	-0.424548	0.041159	40.5171	-0.423997	-293141	-1.404059E-7	NaN
685	1.000000	0.642947	7.37175e+06	-42839.1	1005.82	-29781.3	0.000000	0.000000	6.643019	0.046629	NaN	0.000000	0.001561	0.001677	28.0819	0.040033	0.002007	19.949	117.525	-164.246	0.040924	0.641604	-0.383191	-0.384535	0.046629	19.949	-0.384944	-81430.7	-5.726260E-7	NaN
685	1.000000	0.682945	7.37175e+06	-42839.1	1005.82	-29781.3	0.000000	0.000000	6.683020	0.132332	NaN	0.000000	0.001556	0.001744	28.0817	0.101084	0.001952	51.7879	157.865	-163.98	0.084954	0.681613	-0.343194	-0.344526	0.132332	51.7879	-0.345110	-21674.9	-6.105332E-6	NaN
685	1.000000	0.722965	7.37175e+06	-42839.1	1005.82	-29781.3	0.000000	0.000000	6.723038	0.082674	NaN	0.000000	0.001557	0.001716	28.0805	0.040946	0.001946	21.0361	-49.9545	-165.797	0.041852	0.721655	-0.303174	-0.304484	0.082674	21.0361	-0.306121	-5802.2	-1.424864E-5	NaN
685	1.000000	0.762970	7.37175e+06	-42839.1	1005.82	-29781.4	0.000000	0.000000	6.763040	0.020361	NaN	0.000000	0.001548	0.001722	28.0806	0.060995	0.002088	29.2098	139.146	-163.951	-0.026948	0.761694	-0.263169	-0.264445	0.020361	29.2098	-0.263691	-1334.77	-1.525411E-5	NaN
685	1.000000	0.802993	7.37175e+06	-42839.1	1005.82	-29781.3	0.000000	0.000000	6.803063	0.022744	NaN	0.000000	0.001610	0.001732	28.0807	0.035714	0.001943	18.3803	106.279	-166.989	-0.005742	0.801654	-0.223146	-0.224484	0.022744	18.3803	-0.224074	-322.567	-7.050821E-5	NaN
685	1.000000	0.843022	7.37175e+06	-42839.1	1005.82	-29781.3	0.000000	0.000000	6.843093	0.028189	NaN	0.000000	0.001576	0.001734	28.0815	0.079177	0.002050	38.6196	52.6294	-165.332	0.046105	0.841695	-0.183116	-0.184444	0.028189	38.6196	-0.183664	-70.4022	-0.000400	NaN
685	1.000000	0.883020	7.37176e+06	-42839.1	1005.82	-29781.4	0.000000	0.000000	6.883091	0.037730	NaN	0.000000	0.001540	0.001724	28.082	0.070372	0.001975	35.6281	5.744799	-165.246	0.036343	0.881781	-0.143118	-0.144358	0.037730	35.6281	-0.143913	-13.9965	-0.002696	NaN
685	1.000000	0.923008	7.37176e+06	-42839.1	1005.82	-29781.4	0.000000	0.000000	6.923079	0.055356	NaN	0.000000	0.001571	0.001685	28.0818	0.060551	0.001978	30.6185	-52.6533	-163.959	0.077400	0.921735	-0.103131	-0.104404	0.055356	30.6185	-0.104487	-2.291281	-0.024160	NaN
685	1.000000	0.963054	7.37176e+06	-42839.1	1005.82	-29781.4	0.000000	0.000000	6.963122	-0.013068	NaN	0.000000	0.001547	0.001722	28.0819	0.101585	0.001942	52.2968	-121.667	-164.707	0.072427	0.961771	-0.063085	-0.064368	-0.013068	52.2968	-0.062898	-0.217689	0.060032	NaN
685	1.000000	1.003043	7.37176e+06	-42839.1	1005.82	-29781.4	0.000000	0.000000	7.003110	-0.057100	NaN	0.000000	0.001554	0.001709	28.0804	0.063319	0.001955	32.3913	87.3589	-163.204	-0.034478	1.001762	-0.023095	-0.024377	-0.057100	32.3913	-0.021773	-0.013935	4.097757	NaN
685	2.000000	1.033671	7.37176e+06	-42839.1	1005.82	-29781.3	0.000000	0.000000	7.034257	12.5661	NaN	0.000000	0.001522	0.001693	28.0802	12.8527	0.001787	7191.72	7.237223	-173.247	12.6608	1.033386	0.007533	0.007247	12.5661	7191.72	0.006222	0.005276	2381.53	90455.1
685	2.000000	1.043565	7.37176e+06	-42839.1	1005.82	-29781.4	0.000000	0.000000	7.044865	29.9297	NaN	0.000000	0.001544	0.001765	28.0805	23.0778	0.001789	12899.9	7.122827	-178.772	28.7724	1.043231	0.017427	0.017093	29.9297	12899.9	0.015687	0.016212	1846.14	92563.9
685	2.000000	1.053551	7.37176e+06	-42839.1	1005.82	-29781.4	0.000000	0.000000	7.055754	51.9236	NaN	0.000000	0.001584	0.001701	28.0822	32.5294	0.001828	17790.7	4.754042	-179.96	50.0725	1.053232	0.027412	0.027093	51.9236	17790.7	0.025223	0.031423	1652.39	91693.7
685	2.000000	1.063560	7.37176e+06	-42839.1	1005.82	-29781.3	0.000000	0.000000	7.067004	82.1266	NaN	0.000000	0.001580	0.001730	28.0817	41.4533	0.001697	24432.5	7.448740	174.844	82.5093	1.063331	0.037421	0.037192	82.1266	24432.5	0.034900	0.051513	1594.29	98351.7
685	2.000000	1.073589	7.37176e+06	-42839.1	1005.82	-29781.4	0.000000	0.000000	7.078978	129.434	NaN	0.000000	0.001580	0.001759	28.0823	52.0373	0.001773	29343.7	7.080098	174.569	129.955	1.073128	0.047451	0.046989	129.434	29343.7	0.044142	0.075171	1721.85	97782.6
685	2.000000	1.083546	7.37176e+06	-42839.1	1005.82	-29781.4	0.000000	0.000000	7.090823	175.372	NaN	0.000000	0.001553	0.001755	28.0821	59.7871	0.001748	34204.2	4.543824	174.767	175.458	1.083269	0.057407	0.057131	175.372	34204.2	0.053562	0.103740	1690.49	97024.3
685	2.000000	1.093431	7.37176e+06	-42839.1	1005.82	-29781.4	0.000000	0.000000	7.103387	240.545	NaN	0.000000	0.001563	0.001736	28.0808	69.3656	0.001801	38508.3	1.393934	176.683	234.716	1.093198	0.067293	0.067060	240.545	38508.3	0.062608	0.135325	1777.54	95639.7
685	2.000000	1.103430	7.37176e+06	-42839.1	1005.82	-29781.4	0.000000	0.000000	7.116151	307.82	NaN	0.000000	0.001560	0.001719	28.0807	78.9284	0.001880	41987.8	-0.034203	178.315	302.79	1.103040	0.077291	0.076901	307.82	41987.8	0.071793	0.171458	1795.3	92643.8
685	2.000000	1.113566	7.37176e+06	-42839.1	1005.82	-29781.4	0.000000	0.000000	7.129119	376.723	NaN	0.000000	0.001582	0.001750	28.0805	88.7969	0.001865	47618.3	6.668805	170.861	377.947	1.113059	0.087428	0.086920	376.723	47618.3	0.081494	0.213962	1760.7	94054.3
685	2.000000	1.123500	7.37176e+06	-42839.1	1005.82	-29781.4	0.000000	0.000000	7.142258	454.701	NaN	0.000000	0.001591	0.001686	28.0817	97.441	0.001815	53697.7	3.693329	172.398	454.779	1.123169	0.097361	0.097030	454.701	53697.7	0.091010	0.259904	1749.49	96232.6
685	2.000000	1.128989	7.37176e+06	-42839.1	1005.82	-29781.4	0.000000	0.000000	7.149474	496.719	NaN	0.000000	0.001576	0.001670	28.0819	102.43	0.001793	57128.4	5.208937	-10.0879	495.096	1.128742	0.102850	0.102603	496.719	57128.4	0.096329	0.287395	1728.35	97361.2