File: remote_trans/data/nanoindenter/0828-1/data/Data_2025-08-06,11h17m57s/2025-07-22_16-23-58_1_1050.txt
2025-07-22, 16:23:58, 1
Index	Phase	Displacement	Time	Pos X	Pos Y	Pos Z	Rot A	Rot B	Piezo Z	Force A	Force B	Gripper	Voltage A	Voltage B	Temperature	Amplitude force	Amplitude pos	Stiffness	Phase shift	Phase excitation	Force A raw	Displacement raw	HMax	HMax raw	Real Force	Real Stiffness	Contact Depth	Area	Hardness	Reduced Mod.
[#]	[#]	[um]	[s]	[um]	[um]	[um]	[m°]	[m°]	[um]	[uN]	[uN]	[V]	[V]	[V]	[°C]	[uN]	[um]	[N/m]	[°]	[°]	[uN]	[um]	[um]	[um]	[uN]	[N/m]	[um]	[um^2]	[MPa]	[MPa]
1050	1.000000	0.002427	7.37531e+06	-52639.1	1055.82	-29748.6	0.000000	0.000000	6.002832	0.037730	NaN	0.000000	0.001639	0.001772	28.0837	0.032361	0.000970	33.3631	113.774	-167.964	0.113303	0.001176	-1.058072	-1.059322	0.037730	33.3631	-1.058920	-1.407048E+14	-2.681484E-16	NaN
1050	1.000000	0.042331	7.37531e+06	-52639.1	1055.82	-29748.6	0.000000	0.000000	6.042732	-0.076070	NaN	0.000000	0.001603	0.001801	28.0839	0.043563	0.001896	22.9812	77.9923	-166.203	-0.062856	0.040989	-1.018167	-1.019509	-0.076070	22.9812	-1.015685	-3.688836E+13	2.062162E-15	NaN
1050	1.000000	0.082354	7.37531e+06	-52639.1	1055.82	-29748.6	0.000000	0.000000	6.082759	0.024029	NaN	0.000000	0.001626	0.001744	28.0826	0.037811	0.002021	18.7129	175.429	-168.243	-0.031654	0.081101	-0.978145	-0.979398	0.024029	18.7129	-0.979108	-1.186844E+13	-2.024594E-15	NaN
1050	1.000000	0.122389	7.37532e+06	-52639.1	1055.82	-29748.6	0.000000	0.000000	6.122792	-0.015342	NaN	0.000000	0.001654	0.001756	28.0831	0.016671	0.001982	8.411448	9.667015	-165.634	-0.035824	0.121053	-0.938110	-0.939446	-0.015342	8.411448	-0.936742	-3.185486E+12	4.816359E-15	NaN
1050	1.000000	0.162390	7.37532e+06	-52639.1	1055.82	-29748.6	0.000000	0.000000	6.162796	0.049247	NaN	0.000000	0.001657	0.001756	28.0833	0.033059	0.001939	17.0521	79.3952	-168.492	0.097972	0.161091	-0.898109	-0.899408	0.049247	17.0521	-0.900275	-1.025141E+12	-4.803884E-14	NaN
1050	1.000000	0.202413	7.37532e+06	-52639.1	1055.82	-29748.6	0.000000	0.000000	6.202818	0.011559	NaN	0.000000	0.001616	0.001734	28.083	0.036648	0.002009	18.2412	-86.6993	-164.562	0.020118	0.201085	-0.858086	-0.859414	0.011559	18.2412	-0.858561	-2.796669E+11	-4.133059E-14	NaN
1050	1.000000	0.242400	7.37532e+06	-52639.1	1055.82	-29748.6	0.000000	0.000000	6.242804	0.020386	NaN	0.000000	0.001616	0.001717	28.0841	0.092460	0.001977	46.7647	166.934	-165.208	-0.042091	0.241103	-0.818099	-0.819396	0.020386	46.7647	-0.818426	-7.995879E+10	-2.549553E-13	NaN
1050	1.000000	0.282438	7.37532e+06	-52639.1	1055.82	-29748.6	0.000000	0.000000	6.282842	0.020684	NaN	0.000000	0.001589	0.001752	28.0842	0.041124	0.001804	22.7916	-113.939	-164.844	-0.026642	0.281093	-0.778061	-0.779406	0.020684	22.7916	-0.778742	-2.312782E+10	-8.943439E-13	NaN
1050	1.000000	0.322446	7.37532e+06	-52639.1	1055.82	-29748.6	0.000000	0.000000	6.322851	0.035049	NaN	0.000000	0.001610	0.001770	28.0841	0.048615	0.001915	25.3884	-176.087	-166.622	0.060270	0.321187	-0.738053	-0.739311	0.035049	25.3884	-0.739088	-6.677871E+9	-5.248486E-12	NaN
1050	1.000000	0.362482	7.37532e+06	-52639.1	1055.82	-29748.6	0.000000	0.000000	6.362885	-0.006486	NaN	0.000000	0.001635	0.001762	28.0829	0.071016	0.001936	36.6856	-49.7827	-171.707	-0.006488	0.361170	-0.698017	-0.699329	-0.006486	36.6856	-0.697885	-1.830792E+9	3.542613E-12	NaN
1050	1.000000	0.402495	7.37532e+06	-52639.1	1055.82	-29748.6	0.000000	0.000000	6.402900	0.010799	NaN	0.000000	0.001641	0.001755	28.0826	0.040796	0.001906	21.4014	88.9695	-169.286	-0.030220	0.401186	-0.658003	-0.659313	0.010799	21.4014	-0.658382	-5.275953E+8	-2.046823E-11	NaN
1050	1.000000	0.442518	7.37532e+06	-52639.1	1055.82	-29748.6	0.000000	0.000000	6.442922	0.008501	NaN	0.000000	0.001651	0.001768	28.0826	0.061222	0.001915	31.9752	28.443	-166.748	0.042046	0.441242	-0.617981	-0.619257	0.008501	31.9752	-0.618180	-1.481223E+8	-5.739044E-11	NaN
1050	1.000000	0.482548	7.37532e+06	-52639.1	1055.82	-29748.6	0.000000	0.000000	6.482950	-0.036794	NaN	0.000000	0.001638	0.001749	28.0829	0.078729	0.002037	38.6488	-110.376	-165.351	-0.042887	0.481176	-0.577951	-0.579323	-0.036794	38.6488	-0.577237	-4.041931E+7	9.103138E-10	NaN
1050	1.000000	0.522563	7.37532e+06	-52639.1	1055.82	-29748.6	0.000000	0.000000	6.522966	-0.019901	NaN	0.000000	0.001676	0.001741	28.0843	0.045059	0.001952	23.0803	-59.4429	-166.901	0.026221	0.521252	-0.537936	-0.539247	-0.019901	23.0803	-0.537289	-1.131765E+7	1.758396E-9	NaN
1050	1.000000	0.562564	7.37532e+06	-52639.1	1055.82	-29748.6	0.000000	0.000000	6.562967	-0.031864	NaN	0.000000	0.001657	0.001738	28.0843	0.127421	0.002102	60.6138	-33.8721	-164.604	-0.081408	0.561279	-0.497934	-0.499220	-0.031864	60.6138	-0.497540	-3.16733e+06	1.006027E-8	NaN
1050	1.000000	0.602580	7.37532e+06	-52639.1	1055.82	-29748.6	0.000000	0.000000	6.602982	-0.047033	NaN	0.000000	0.001659	0.001752	28.0845	0.111627	0.001832	60.9307	8.847518	-166.331	0.000639	0.601269	-0.457918	-0.459229	-0.047033	60.9307	-0.457339	-866203	5.429791E-8	NaN
1050	1.000000	0.642573	7.37532e+06	-52639.1	1055.82	-29748.6	0.000000	0.000000	6.642979	0.049391	NaN	0.000000	0.001632	0.001745	28.083	0.074894	0.002087	35.8794	-84.9969	-169.279	-0.012979	0.641312	-0.417926	-0.419187	0.049391	35.8794	-0.418958	-248677	-1.986146E-7	NaN
1050	1.000000	0.682589	7.37532e+06	-52639.1	1055.82	-29748.6	0.000000	0.000000	6.682994	0.025024	NaN	0.000000	0.001656	0.001757	28.0828	0.072429	0.002139	33.8589	-91.296	-168.513	0.088266	0.681307	-0.377910	-0.379191	0.025024	33.8589	-0.378464	-65741.3	-3.806392E-7	NaN
1050	1.000000	0.722637	7.37532e+06	-52639.1	1055.82	-29748.6	0.000000	0.000000	6.723041	0.015520	NaN	0.000000	0.001647	0.001752	28.0833	0.087449	0.001954	44.7646	-137.476	-164.669	-0.026783	0.721302	-0.337862	-0.339197	0.015520	44.7646	-0.338122	-17146.1	-9.051568E-7	NaN
1050	1.000000	0.762666	7.37532e+06	-52639.1	1055.82	-29748.6	0.000000	0.000000	6.763071	0.020831	NaN	0.000000	0.001652	0.001762	28.0836	0.058793	0.002086	28.1875	90.7105	-168.453	-0.016991	0.761280	-0.297833	-0.299219	0.020831	28.1875	-0.298387	-4452.59	-4.678403E-6	NaN
1050	1.000000	0.802623	7.37532e+06	-52639.1	1055.82	-29748.6	0.000000	0.000000	6.803029	0.050599	NaN	0.000000	0.001661	0.001739	28.0841	0.065990	0.002074	31.8118	117.196	-168.641	0.129391	0.801346	-0.257876	-0.259153	0.050599	31.8118	-0.259069	-1134.07	-4.461685E-5	NaN
1050	1.000000	0.842669	7.37532e+06	-52639.1	1055.82	-29748.6	0.000000	0.000000	6.843069	-0.086032	NaN	0.000000	0.001737	0.001758	28.0841	0.062320	0.002029	30.717	-166.319	-167.502	-0.064226	0.841342	-0.217830	-0.219157	-0.086032	30.717	-0.215729	-237.269	0.000363	NaN
1050	1.000000	0.882698	7.37532e+06	-52639.1	1055.82	-29748.6	0.000000	0.000000	6.883104	0.046536	NaN	0.000000	0.001707	0.001755	28.0841	0.127723	0.001972	64.7833	-85.7118	-166.473	0.125147	0.881328	-0.177801	-0.179171	0.046536	64.7833	-0.178340	-57.1705	-0.000814	NaN
1050	1.000000	0.922685	7.37532e+06	-52639.1	1055.82	-29748.6	0.000000	0.000000	6.923089	-0.016618	NaN	0.000000	0.001723	0.001718	28.0828	0.041236	0.001946	21.1907	-123.569	-167.574	0.063791	0.921379	-0.137813	-0.139119	-0.016618	21.1907	-0.137225	-10.4862	0.001585	NaN
1050	1.000000	0.962719	7.37532e+06	-52639.1	1055.82	-29748.6	0.000000	0.000000	6.963126	0.083443	NaN	0.000000	0.001654	0.001717	28.083	0.033833	0.001964	17.2273	-165.391	-165.568	0.056069	0.961417	-0.097780	-0.099082	0.083443	17.2273	-0.101413	-1.963214	-0.042503	NaN
1050	1.000000	1.002743	7.37532e+06	-52639.1	1055.82	-29748.6	0.000000	0.000000	7.003146	-0.020734	NaN	0.000000	0.001656	0.001718	28.0829	0.044987	0.001898	23.7047	138.748	-167.005	0.046298	1.001431	-0.057756	-0.059068	-0.020734	23.7047	-0.057100	-0.148438	0.139683	NaN
1050	1.000000	1.042755	7.37532e+06	-52639.1	1055.82	-29748.6	0.000000	0.000000	7.043159	-0.008788	NaN	0.000000	0.001687	0.001756	28.084	0.161410	0.001953	82.6448	-35.2567	-162.509	0.006517	1.041443	-0.017743	-0.019056	-0.008788	82.6448	-0.017664	-0.010940	0.803278	NaN
1050	2.000000	1.075370	7.37532e+06	-52639.1	1055.82	-29748.6	0.000000	0.000000	7.076182	9.928892	NaN	0.000000	0.001613	0.001764	28.0841	10.4709	0.001752	5975.38	2.811409	-170.009	9.277150	1.075051	0.014871	0.014552	9.928892	5975.38	0.013625	0.013495	735.729	46994.6
1050	2.000000	1.085341	7.37532e+06	-52639.1	1055.82	-29748.6	0.000000	0.000000	7.086784	25.2751	NaN	0.000000	0.001619	0.001780	28.084	20.6503	0.001772	11650.5	5.126844	-177.431	23.9256	1.085021	0.024842	0.024522	25.2751	11650.5	0.023215	0.027848	907.595	63784.7
1050	2.000000	1.095279	7.37532e+06	-52639.1	1055.82	-29748.6	0.000000	0.000000	7.097630	47.3395	NaN	0.000000	0.001619	0.001739	28.084	30.9184	0.001781	17364.6	-0.676062	-175.218	45.3841	1.095066	0.034780	0.034567	47.3395	17364.6	0.032735	0.046604	1015.78	73489.6
1050	2.000000	1.105246	7.37532e+06	-52639.1	1055.82	-29748.6	0.000000	0.000000	7.108913	79.3351	NaN	0.000000	0.001618	0.001718	28.0828	41.0225	0.001796	22842.4	0.960227	-179.277	76.9189	1.105059	0.044747	0.044560	79.3351	22842.4	0.042142	0.069681	1138.54	79060
1050	2.000000	1.115276	7.37532e+06	-52639.1	1055.82	-29748.6	0.000000	0.000000	7.120791	124.253	NaN	0.000000	0.001654	0.001757	28.083	49.825	0.001757	28359.4	0.248568	179.812	122.907	1.114954	0.054778	0.054455	124.253	28359.4	0.051491	0.097079	1279.92	83158.9
1050	2.000000	1.125298	7.37532e+06	-52639.1	1055.82	-29748.6	0.000000	0.000000	7.132570	166.974	NaN	0.000000	0.001631	0.001745	28.0832	58.8411	0.001901	30949.9	2.280123	177.351	168.429	1.125028	0.064800	0.064529	166.974	30949.9	0.060753	0.128524	1299.16	78875.2
1050	2.000000	1.135252	7.37532e+06	-52639.1	1055.82	-29748.6	0.000000	0.000000	7.144672	219.209	NaN	0.000000	0.001657	0.001782	28.0843	68.4115	0.001834	37305.1	5.135912	173.252	217.723	1.135015	0.074753	0.074517	219.209	37305.1	0.070346	0.165499	1324.53	83780.6
1050	2.000000	1.145242	7.37532e+06	-52639.1	1055.82	-29748.6	0.000000	0.000000	7.157124	279.078	NaN	0.000000	0.001689	0.001739	28.0844	78.4035	0.001800	43558	10.1109	167.54	278.847	1.144786	0.084743	0.084287	279.078	43558	0.079938	0.206846	1349.2	87501.8
1050	2.000000	1.155252	7.37532e+06	-52639.1	1055.82	-29748.6	0.000000	0.000000	7.169607	339.229	NaN	0.000000	0.001683	0.001749	28.0844	88.2314	0.001845	47813.7	6.095367	170.364	340.426	1.154879	0.094753	0.094381	339.229	47813.7	0.089432	0.251995	1346.17	87022.1
1050	2.000000	1.165287	7.37532e+06	-52639.1	1055.82	-29748.6	0.000000	0.000000	7.182281	403.365	NaN	0.000000	0.001642	0.001758	28.0845	97.153	0.001843	52728.5	6.816433	168.832	405.326	1.165051	0.104789	0.104553	403.365	52728.5	0.099051	0.301963	1335.81	87668.2
1050	2.000000	1.171195	7.37532e+06	-52639.1	1055.82	-29748.6	0.000000	0.000000	7.190370	456.411	NaN	0.000000	0.001726	0.001717	28.0831	102.004	0.001869	54577.4	5.554094	170.153	453.451	1.170815	0.110696	0.110316	456.411	54577.4	0.104424	0.331704	1375.96	86578.7