File: remote_trans/data/nanoindenter/0828-1/data/Data_2025-08-06,11h17m57s/2025-07-22_16-23-58_1_147.txt
2025-07-22, 16:23:58, 1
Index	Phase	Displacement	Time	Pos X	Pos Y	Pos Z	Rot A	Rot B	Piezo Z	Force A	Force B	Gripper	Voltage A	Voltage B	Temperature	Amplitude force	Amplitude pos	Stiffness	Phase shift	Phase excitation	Force A raw	Displacement raw	HMax	HMax raw	Real Force	Real Stiffness	Contact Depth	Area	Hardness	Reduced Mod.
[#]	[#]	[um]	[s]	[um]	[um]	[um]	[m°]	[m°]	[um]	[uN]	[uN]	[V]	[V]	[V]	[°C]	[uN]	[um]	[N/m]	[°]	[°]	[uN]	[um]	[um]	[um]	[uN]	[N/m]	[um]	[um^2]	[MPa]	[MPa]
147	1.000000	0.002596	7.36648e+06	-45989.1	955.818	-29771	0.000000	0.000000	6.002821	0.000868	NaN	0.000000	0.001671	0.001690	28.0874	0.069701	0.000981	71.0441	-171.184	-165.494	-0.018421	0.001344	-1.157457	-1.158709	0.000868	71.0441	-1.157467	-2.957420E+15	-2.935554E-19	NaN
147	1.000000	0.044547	7.36648e+06	-45989.1	955.819	-29771	0.000000	0.000000	6.044776	0.091074	NaN	0.000000	0.001617	0.001657	28.0825	0.090359	0.002001	45.1619	-60.3528	17.3531	0.031006	0.043207	-1.115506	-1.116846	0.091074	45.1619	-1.117018	-8.481399E+14	-1.073803E-16	NaN
147	1.000000	0.086541	7.36648e+06	-45989.1	955.818	-29771	0.000000	0.000000	6.086770	0.072389	NaN	0.000000	0.001617	0.001669	28.1114	0.045635	0.002230	20.4597	116.067	-163.357	0.011513	0.085234	-1.073512	-1.074819	0.072389	20.4597	-1.076166	-2.398921E+14	-3.017552E-16	NaN
147	1.000000	0.128552	7.36648e+06	-45989.1	955.818	-29771	0.000000	0.000000	6.128779	0.047355	NaN	0.000000	0.001599	0.001642	28.127	0.059911	0.002045	29.2988	93.9597	13.0369	0.011750	0.127150	-1.031502	-1.032903	0.047355	29.2988	-1.032714	-6.251450E+13	-7.574998E-16	NaN
147	1.000000	0.170572	7.36648e+06	-45989.1	955.818	-29771	0.000000	0.000000	6.170800	0.040960	NaN	0.000000	0.001625	0.001717	28.0861	0.145886	0.001937	75.3234	154.503	-164.971	-0.034959	0.169293	-0.989481	-0.990760	0.040960	75.3234	-0.989889	-1.658100E+13	-2.470287E-15	NaN
147	1.000000	0.212576	7.36648e+06	-45989.1	955.818	-29771	0.000000	0.000000	6.212802	0.004276	NaN	0.000000	0.001603	0.001749	28.0828	0.048962	0.001925	25.43	-58.7432	15.1463	0.069531	0.211202	-0.947477	-0.948851	0.004276	25.43	-0.947603	-4.463739E+12	-9.579728E-16	NaN
147	1.000000	0.254615	7.36648e+06	-45989.1	955.818	-29771	0.000000	0.000000	6.254841	0.013761	NaN	0.000000	0.001579	0.001740	28.1119	0.010150	0.001957	5.186246	5.225940	-162.773	-0.068726	0.253328	-0.905438	-0.906725	0.013761	5.186246	-0.907428	-1.280638E+12	-1.074557E-14	NaN
147	1.000000	0.296621	7.36648e+06	-45989.1	955.818	-29771	0.000000	0.000000	6.296849	0.049600	NaN	0.000000	0.001576	0.001768	28.1288	0.101135	0.001977	51.1508	26.7983	14.7301	0.010537	0.295309	-0.863432	-0.864744	0.049600	51.1508	-0.864159	-3.329753E+11	-1.489609E-13	NaN
147	1.000000	0.338658	7.36648e+06	-45989.1	955.819	-29771	0.000000	0.000000	6.338884	0.009097	NaN	0.000000	0.001592	0.001767	28.0874	0.096703	0.002298	42.0867	3.465748	-164.426	0.032169	0.337341	-0.821395	-0.822712	0.009097	42.0867	-0.821557	-8.817127E+10	-1.031700E-13	NaN
147	1.000000	0.380685	7.36648e+06	-45989.1	955.818	-29771	0.000000	0.000000	6.380909	-0.022895	NaN	0.000000	0.001558	0.001775	28.0799	0.088492	0.002000	44.2367	58.7188	15.6845	0.028453	0.379332	-0.779368	-0.780721	-0.022895	44.2367	-0.778980	-2.330096E+10	9.825593E-13	NaN
147	1.000000	0.422654	7.36648e+06	-45989.1	955.818	-29771	0.000000	0.000000	6.422881	0.019087	NaN	0.000000	0.001590	0.001751	28.1102	0.035822	0.001886	18.9889	-26.4125	-165.486	0.001525	0.421339	-0.737399	-0.738714	0.019087	18.9889	-0.738153	-6.484724E+9	-2.943388E-12	NaN
147	1.000000	0.464687	7.36648e+06	-45989.1	955.818	-29771	0.000000	0.000000	6.464913	0.012561	NaN	0.000000	0.001592	0.001778	28.1267	0.104342	0.001945	53.6325	140.474	10.5665	-0.037312	0.463358	-0.695367	-0.696695	0.012561	53.6325	-0.695542	-1.700761E+9	-7.385600E-12	NaN
147	1.000000	0.506707	7.36648e+06	-45989.1	955.818	-29771	0.000000	0.000000	6.506932	-0.028817	NaN	0.000000	0.001573	0.001761	28.0898	0.072129	0.002006	35.9646	136.844	-165.795	-0.044149	0.505444	-0.653346	-0.654609	-0.028817	35.9646	-0.652745	-4.416304E+8	6.525245E-11	NaN
147	1.000000	0.548732	7.36648e+06	-45989.1	955.819	-29771	0.000000	0.000000	6.548956	-0.038288	NaN	0.000000	0.001664	0.001763	28.0825	0.081167	0.002154	37.6738	-135.408	15.9503	-0.063484	0.547413	-0.611321	-0.612640	-0.038288	37.6738	-0.610559	-1.163609E+8	3.290418E-10	NaN
147	1.000000	0.590748	7.36648e+06	-45989.1	955.819	-29771	0.000000	0.000000	6.590975	0.014393	NaN	0.000000	0.001667	0.001754	28.1097	0.157213	0.002106	74.6502	-35.3185	-164.979	0.035101	0.589469	-0.569305	-0.570584	0.014393	74.6502	-0.569449	-3.155160E+7	-4.561694E-10	NaN
147	1.000000	0.632762	7.36648e+06	-45989.1	955.82	-29771	0.000000	0.000000	6.632987	0.006520	NaN	0.000000	0.001640	0.001798	28.1276	0.116148	0.002016	57.611	48.1394	15.7391	0.048876	0.631406	-0.527291	-0.528647	0.006520	57.611	-0.527376	-8.24385e+06	-7.908401E-10	NaN
147	1.000000	0.674766	7.36648e+06	-45989.1	955.817	-29771	0.000000	0.000000	6.674991	0.001397	NaN	0.000000	0.001591	0.001801	28.0891	0.028227	0.001969	14.3345	-73.4129	-166.144	0.043893	0.673434	-0.485287	-0.486619	0.001397	14.3345	-0.485360	-2.14057e+06	-6.526482E-10	NaN
147	1.000000	0.716818	7.36648e+06	-45989.1	955.818	-29771	0.000000	0.000000	6.717045	0.025064	NaN	0.000000	0.001642	0.001771	28.0787	0.127245	0.002051	62.0399	-84.6076	17.1324	-0.011377	0.715404	-0.443235	-0.444649	0.025064	62.0399	-0.443538	-553700	-4.526605E-8	NaN
147	1.000000	0.758842	7.36648e+06	-45989.1	955.818	-29771	0.000000	0.000000	6.759068	0.016687	NaN	0.000000	0.001648	0.001782	28.1092	0.091360	0.002005	45.5609	128.638	-165.653	-0.048475	0.757540	-0.401211	-0.402513	0.016687	45.5609	-0.401486	-140339	-1.189035E-7	NaN
147	1.000000	0.800854	7.36648e+06	-45989.1	955.819	-29771	0.000000	0.000000	6.801083	0.088328	NaN	0.000000	0.001552	0.001793	28.128	0.060435	0.001984	30.4611	3.688387	12.2288	0.129336	0.799429	-0.359199	-0.360624	0.088328	30.4611	-0.361374	-37299.4	-2.368080E-6	NaN
147	1.000000	0.842877	7.36648e+06	-45989.1	955.818	-29771	0.000000	0.000000	6.843106	0.071763	NaN	0.000000	0.001585	0.001816	28.0913	0.024609	0.001936	12.7093	173.99	-166.361	0.041461	0.841566	-0.317176	-0.318487	0.071763	12.7093	-0.321411	-9758.73	-7.353696E-6	NaN
147	1.000000	0.884873	7.36648e+06	-45989.1	955.818	-29771	0.000000	0.000000	6.885101	0.041136	NaN	0.000000	0.001533	0.001738	28.0804	0.058518	0.002214	26.4272	-92.9155	15.7881	0.044143	0.883522	-0.275180	-0.276532	0.041136	26.4272	-0.276347	-2078.67	-1.978948E-5	NaN
147	1.000000	0.926908	7.36648e+06	-45989.1	955.819	-29771	0.000000	0.000000	6.927130	-0.076172	NaN	0.000000	0.001561	0.001781	28.1074	0.084992	0.001954	43.4941	-64.3928	-166.92	-0.057635	0.925547	-0.233145	-0.234506	-0.076172	43.4941	-0.231831	-427.964	0.000178	NaN
147	1.000000	0.968936	7.36648e+06	-45989.1	955.818	-29771	0.000000	0.000000	6.969163	0.029092	NaN	0.000000	0.001585	0.001716	28.1277	0.022348	0.002017	11.0795	-160.058	15.8643	0.026855	0.967550	-0.191117	-0.192504	0.029092	11.0795	-0.193086	-101.264	-0.000287	NaN
147	1.000000	1.010911	7.36648e+06	-45989.1	955.818	-29771	0.000000	0.000000	7.011137	0.024667	NaN	0.000000	0.001542	0.001753	28.0907	0.089900	0.001923	46.7493	12.8058	-168.919	0.032898	1.009618	-0.149142	-0.150435	0.024667	46.7493	-0.149538	-17.7655	-0.001389	NaN
147	1.000000	1.052904	7.36648e+06	-45989.1	955.819	-29771	0.000000	0.000000	7.053131	0.049378	NaN	0.000000	0.001553	0.001725	28.0809	0.066921	0.001972	33.9385	-24.8576	11.2675	-0.077202	1.051608	-0.107149	-0.108445	0.049378	33.9385	-0.108240	-2.758124	-0.017903	NaN
147	1.000000	1.094933	7.36648e+06	-45989.1	955.818	-29771	0.000000	0.000000	7.095157	-0.048636	NaN	0.000000	0.001546	0.001751	28.1073	0.035377	0.001864	18.975	-40.8801	-167.377	0.002503	1.093638	-0.065120	-0.066415	-0.048636	18.975	-0.063197	-0.221954	0.219128	NaN
147	1.000000	1.136979	7.36648e+06	-45989.1	955.819	-29771	0.000000	0.000000	7.137205	0.025753	NaN	0.000000	0.001577	0.001771	28.1295	0.102435	0.002015	50.8341	-159.312	14.7568	0.073710	1.135640	-0.023075	-0.024413	0.025753	50.8341	-0.023454	-0.015384	-1.673980	NaN
147	2.000000	1.171585	7.36648e+06	-45989.1	955.819	-29771	0.000000	0.000000	7.172253	10.7764	NaN	0.000000	0.001614	0.001709	28.0905	11.1335	0.001710	6510.82	9.640516	-177.422	10.7113	1.171230	0.011532	0.011177	10.7764	6510.82	0.010290	0.009506	1133.64	61011.2
147	2.000000	1.182039	7.36648e+06	-45989.1	955.818	-29771	0.000000	0.000000	7.183548	31.2297	NaN	0.000000	0.001616	0.001739	28.0813	22.2801	0.001901	11721.2	8.661293	0.133415	32.6741	1.181630	0.021986	0.021577	31.2297	11721.2	0.019987	0.022523	1386.6	71357
147	2.000000	1.192470	7.36648e+06	-45989.1	955.818	-29771	0.000000	0.000000	7.195397	65.7218	NaN	0.000000	0.001656	0.001761	28.1051	30.8147	0.001809	17037.4	0.579801	-175.406	64.5589	1.192167	0.032417	0.032114	65.7218	17037.4	0.029524	0.039763	1652.84	78061.5
147	2.000000	1.202937	7.36648e+06	-45989.1	955.819	-29771	0.000000	0.000000	7.207326	101.288	NaN	0.000000	0.001628	0.001737	28.1309	38.9295	0.001630	23889.9	1.600902	-0.407550	98.8507	1.202663	0.042884	0.042610	101.288	23889.9	0.039704	0.063266	1600.97	86776.1
147	2.000000	1.213460	7.36648e+06	-45989.1	955.818	-29771	0.000000	0.000000	7.219767	147.947	NaN	0.000000	0.001600	0.001781	28.0911	50.3644	0.001780	28290.5	3.438163	176.966	146.817	1.213057	0.053406	0.053004	147.947	28290.5	0.049484	0.090826	1628.91	85764.7
147	2.000000	1.223956	7.36648e+06	-45989.1	955.82	-29771	0.000000	0.000000	7.232144	193.695	NaN	0.000000	0.001563	0.001745	28.082	61.718	0.001848	33391.4	7.735807	-9.096461	192.679	1.223584	0.063903	0.063531	193.695	33391.4	0.059552	0.124208	1559.44	86563.1
147	2.000000	1.234410	7.36648e+06	-45989.1	955.819	-29771	0.000000	0.000000	7.245028	252.82	NaN	0.000000	0.001591	0.001734	28.1034	70.2122	0.001829	38382.3	3.881333	173.601	252.43	1.234062	0.074356	0.074009	252.82	38382.3	0.069416	0.161722	1563.3	87200.8
147	2.000000	1.244796	7.36648e+06	-45989.1	955.82	-29771	0.000000	0.000000	7.257928	313.969	NaN	0.000000	0.001524	0.001777	28.1313	78.5296	0.001819	43161.4	3.954516	-6.937498	308.491	1.244569	0.084743	0.084516	313.969	43161.4	0.079287	0.203906	1539.77	87328.1
147	2.000000	1.255313	7.36648e+06	-45989.1	955.819	-29771	0.000000	0.000000	7.271383	385.434	NaN	0.000000	0.001585	0.001743	28.0916	89.0609	0.001834	48565.9	7.656415	168.598	381.964	1.255006	0.095260	0.094953	385.434	48565.9	0.089307	0.251376	1533.29	88499.7
147	2.000000	1.265795	7.36648e+06	-45989.1	955.819	-29771	0.000000	0.000000	7.284976	461.11	NaN	0.000000	0.001548	0.001765	28.0807	97.0548	0.001819	53367.2	3.148695	-7.802307	454.166	1.265543	0.105742	0.105490	461.11	53367.2	0.099262	0.303104	1521.29	88563
147	2.000000	1.267308	7.36648e+06	-45989.1	955.82	-29771	0.000000	0.000000	7.286670	465.521	NaN	0.000000	0.001537	0.001730	28.0931	99.5035	0.001798	55351.9	1.571378	173.061	460.266	1.267069	0.107255	0.107016	465.521	55351.9	0.100947	0.312306	1490.59	90493.1