File: remote_trans/data/nanoindenter/0828-1/data/Data_2025-08-06,11h17m57s/2025-07-22_16-23-58_1_219.txt
2025-07-22, 16:23:58, 1
Index	Phase	Displacement	Time	Pos X	Pos Y	Pos Z	Rot A	Rot B	Piezo Z	Force A	Force B	Gripper	Voltage A	Voltage B	Temperature	Amplitude force	Amplitude pos	Stiffness	Phase shift	Phase excitation	Force A raw	Displacement raw	HMax	HMax raw	Real Force	Real Stiffness	Contact Depth	Area	Hardness	Reduced Mod.
[#]	[#]	[um]	[s]	[um]	[um]	[um]	[m°]	[m°]	[um]	[uN]	[uN]	[V]	[V]	[V]	[°C]	[uN]	[um]	[N/m]	[°]	[°]	[uN]	[um]	[um]	[um]	[uN]	[N/m]	[um]	[um^2]	[MPa]	[MPa]
219	1.000000	0.002244	7.36719e+06	-49589.1	955.818	-29758.8	0.000000	0.000000	6.002768	-0.049975	NaN	0.000000	0.001583	0.001719	28.078	0.107240	0.000945	113.445	137.542	-160.64	-0.120455	0.001033	-1.142415	-1.143626	-0.049975	113.445	-1.142085	-1.839491E+15	2.716781E-17	NaN
219	1.000000	0.044205	7.36719e+06	-49589.1	955.819	-29758.8	0.000000	0.000000	6.044730	-0.029432	NaN	0.000000	0.001590	0.001686	28.078	0.057247	0.001953	29.3097	-96.5173	15.0373	-0.068018	0.042861	-1.100454	-1.101798	-0.029432	29.3097	-1.099701	-4.966559E+14	5.925991E-17	NaN
219	1.000000	0.086224	7.36719e+06	-49589.1	955.818	-29758.8	0.000000	0.000000	6.086750	-0.009435	NaN	0.000000	0.001605	0.001680	28.0781	0.112132	0.001911	58.6838	102.223	-169.119	-0.005527	0.084935	-1.058436	-1.059724	-0.009435	58.6838	-1.058315	-1.380947E+14	6.832083E-17	NaN
219	1.000000	0.128243	7.36719e+06	-49589.1	955.819	-29758.8	0.000000	0.000000	6.128767	-0.042739	NaN	0.000000	0.001620	0.001705	28.0791	0.117776	0.001998	58.9608	-125.369	11.977	-0.010429	0.126915	-1.016417	-1.017745	-0.042739	58.9608	-1.015873	-3.710381E+13	1.151879E-15	NaN
219	1.000000	0.170260	7.36719e+06	-49589.1	955.818	-29758.8	0.000000	0.000000	6.170785	-0.047231	NaN	0.000000	0.001570	0.001709	28.0796	0.054371	0.001871	29.0609	179.376	-163.933	-0.042964	0.168933	-0.974399	-0.975726	-0.047231	29.0609	-0.973180	-9.874626E+12	4.783086E-15	NaN
219	1.000000	0.212316	7.36719e+06	-49589.1	955.818	-29758.8	0.000000	0.000000	6.212842	-0.016882	NaN	0.000000	0.001683	0.001685	28.0795	0.120269	0.001896	63.4469	36.0889	14.2392	-0.018728	0.210950	-0.932343	-0.933709	-0.016882	63.4469	-0.932144	-2.761383E+12	6.113443E-15	NaN
219	1.000000	0.254307	7.36719e+06	-49589.1	955.818	-29758.8	0.000000	0.000000	6.254835	0.032374	NaN	0.000000	0.001643	0.001709	28.0786	0.026816	0.001992	13.4605	-62.2944	-165.069	-0.013675	0.253049	-0.890353	-0.891610	0.032374	13.4605	-0.892156	-7.962751E+11	-4.065640E-14	NaN
219	1.000000	0.296304	7.36719e+06	-49589.1	955.817	-29758.8	0.000000	0.000000	6.296830	-0.014286	NaN	0.000000	0.001567	0.001650	28.0784	0.018797	0.001934	9.717488	-109.286	15.8997	-0.110554	0.294972	-0.848355	-0.849687	-0.014286	9.717488	-0.847253	-1.965777E+11	7.267432E-14	NaN
219	1.000000	0.338318	7.36719e+06	-49589.1	955.818	-29758.8	0.000000	0.000000	6.338842	-0.057849	NaN	0.000000	0.001591	0.001645	28.078	0.116290	0.002088	55.6941	154.858	-164.956	-0.021102	0.337028	-0.806341	-0.807632	-0.057849	55.6941	-0.805562	-5.350003E+10	1.081287E-12	NaN
219	1.000000	0.380355	7.36719e+06	-49589.1	955.819	-29758.8	0.000000	0.000000	6.380881	-0.031573	NaN	0.000000	0.001630	0.001666	28.0793	0.089530	0.001996	44.8636	-160.978	11.1997	-0.013465	0.378967	-0.764304	-0.765692	-0.031573	44.8636	-0.763776	-1.447660E+10	2.180964E-12	NaN
219	1.000000	0.422367	7.36719e+06	-49589.1	955.818	-29758.8	0.000000	0.000000	6.422893	-0.027453	NaN	0.000000	0.001592	0.001677	28.0788	0.020661	0.001935	10.6747	-114.19	-167.059	0.013455	0.421070	-0.722292	-0.723589	-0.027453	10.6747	-0.720363	-3.710436E+9	7.398852E-12	NaN
219	1.000000	0.464385	7.36719e+06	-49589.1	955.818	-29758.8	0.000000	0.000000	6.464908	-0.080445	NaN	0.000000	0.001576	0.001664	28.0789	0.048745	0.002026	24.0602	-172.381	12.7146	-0.080434	0.463047	-0.680274	-0.681612	-0.080445	24.0602	-0.677767	-9.719910E+8	8.276281E-11	NaN
219	1.000000	0.506391	7.36719e+06	-49589.1	955.818	-29758.8	0.000000	0.000000	6.506913	-0.103843	NaN	0.000000	0.001690	0.001671	28.078	0.135536	0.002041	66.4089	-174.345	-164.386	-0.148396	0.505144	-0.638268	-0.639515	-0.103843	66.4089	-0.637095	-2.694201E+8	3.854297E-10	NaN
219	1.000000	0.548444	7.36719e+06	-49589.1	955.819	-29758.8	0.000000	0.000000	6.548971	0.012177	NaN	0.000000	0.001648	0.001682	28.0778	0.058923	0.002024	29.1184	169.946	13.4554	0.034384	0.547044	-0.596215	-0.597615	0.012177	29.1184	-0.596529	-7.458436E+7	-1.632688E-10	NaN
219	1.000000	0.590460	7.36719e+06	-49589.1	955.818	-29758.8	0.000000	0.000000	6.590984	-0.081401	NaN	0.000000	0.001507	0.001706	28.0779	0.041211	0.002011	20.4932	21.361	-162.129	-0.045618	0.589130	-0.554199	-0.555529	-0.081401	20.4932	-0.551220	-1.765419E+7	4.610869E-9	NaN
219	1.000000	0.632465	7.36719e+06	-49589.1	955.818	-29758.8	0.000000	0.000000	6.632991	-0.003021	NaN	0.000000	0.001588	0.001701	28.0781	0.038405	0.002122	18.1005	-75.1911	13.6435	-0.020589	0.631101	-0.512194	-0.513558	-0.003021	18.1005	-0.512069	-5.04933e+06	5.983252E-10	NaN
219	1.000000	0.674473	7.36719e+06	-49589.1	955.818	-29758.8	0.000000	0.000000	6.674997	-0.067029	NaN	0.000000	0.001596	0.001698	28.0795	0.007644	0.002043	3.741220	57.1269	-163.437	-0.046229	0.673228	-0.470186	-0.471431	-0.067029	3.741220	-0.456749	-849788	7.887675E-8	NaN
219	1.000000	0.716521	7.36719e+06	-49589.1	955.818	-29758.8	0.000000	0.000000	6.717047	-0.017469	NaN	0.000000	0.001625	0.001659	28.0791	0.075222	0.001950	38.5747	65.7745	14.4626	0.014469	0.715175	-0.428138	-0.429484	-0.017469	38.5747	-0.427798	-331823	5.264433E-8	NaN
219	1.000000	0.758572	7.36719e+06	-49589.1	955.819	-29758.8	0.000000	0.000000	6.759099	0.006179	NaN	0.000000	0.001707	0.001648	28.0791	0.096678	0.001959	49.3628	145.539	-166.222	-0.031663	0.757205	-0.386087	-0.387454	0.006179	49.3628	-0.386181	-84820.3	-7.285402E-8	NaN
219	1.000000	0.800563	7.36719e+06	-49589.1	955.818	-29758.8	0.000000	0.000000	6.801091	0.054541	NaN	0.000000	0.001570	0.001657	28.0779	0.111300	0.001966	56.6242	-157.833	13.4248	0.037345	0.799221	-0.344097	-0.345438	0.054541	56.6242	-0.344819	-21464.6	-2.540961E-6	NaN
219	1.000000	0.842577	7.36719e+06	-49589.1	955.818	-29758.8	0.000000	0.000000	6.843104	0.000417	NaN	0.000000	0.001596	0.001647	28.0779	0.085418	0.001976	43.2331	-100.229	-163.284	-0.010376	0.841216	-0.302082	-0.303443	0.000417	43.2331	-0.302089	-5054.9	-8.258135E-8	NaN
219	1.000000	0.884590	7.36719e+06	-49589.1	955.818	-29758.8	0.000000	0.000000	6.885116	-0.021576	NaN	0.000000	0.001569	0.001733	28.0778	0.094135	0.002119	44.4169	40.5842	15.6406	-0.033919	0.883238	-0.260069	-0.261421	-0.021576	44.4169	-0.259704	-1159.81	1.860316E-5	NaN
219	1.000000	0.926590	7.36719e+06	-49589.1	955.818	-29758.8	0.000000	0.000000	6.927116	-0.011572	NaN	0.000000	0.001589	0.001675	28.0792	0.060084	0.002046	29.3657	77.6286	-164.502	0.035249	0.925283	-0.218070	-0.219376	-0.011572	29.3657	-0.217774	-255.889	4.522460E-5	NaN
219	1.000000	0.968623	7.36719e+06	-49589.1	955.819	-29758.8	0.000000	0.000000	6.969149	-0.020407	NaN	0.000000	0.001599	0.001661	28.0793	0.091583	0.001985	46.1472	-11.4874	15.71	-0.080425	0.967284	-0.176036	-0.177375	-0.020407	46.1472	-0.175704	-51.5311	0.000396	NaN
219	1.000000	1.010630	7.36719e+06	-49589.1	955.819	-29758.8	0.000000	0.000000	7.011156	-0.026758	NaN	0.000000	0.001594	0.001670	28.079	0.141973	0.002000	70.9855	74.3072	-167.896	-0.031952	1.009316	-0.134029	-0.135344	-0.026758	70.9855	-0.133746	-9.001295	0.002973	NaN
219	1.000000	1.052626	7.36719e+06	-49589.1	955.819	-29758.8	0.000000	0.000000	7.053149	-0.064469	NaN	0.000000	0.001631	0.001662	28.0779	0.069042	0.001982	34.8348	92.9927	14.9617	-0.065440	1.051251	-0.092034	-0.093409	-0.064469	34.8348	-0.090646	-1.119272	0.057599	NaN
219	1.000000	1.094685	7.36719e+06	-49589.1	955.82	-29758.8	0.000000	0.000000	7.095207	-0.091650	NaN	0.000000	0.001609	0.001678	28.078	0.003217	0.002152	1.495332	-4.937753	-162.641	-0.138392	1.093344	-0.049975	-0.051315	-0.091650	1.495332	-0.004006	-0.002783	32.9316	NaN
219	1.000000	1.136664	7.36719e+06	-49589.1	955.819	-29758.8	0.000000	0.000000	7.137191	0.014729	NaN	0.000000	0.001620	0.001658	28.0781	0.111236	0.002022	55.0261	-5.374810	14.5545	0.027590	1.135329	-0.007995	-0.009330	0.014729	55.0261	-0.008196	-0.005346	-2.755025	NaN
219	2.000000	1.159261	7.36719e+06	-49589.1	955.82	-29758.8	0.000000	0.000000	7.160326	13.099	NaN	0.000000	0.001602	0.001632	28.0779	13.6458	0.001911	7139.48	8.407247	-172.322	13.0471	1.158974	0.014602	0.014315	13.099	7139.48	0.013226	0.012992	1008.26	57227.8
219	2.000000	1.169720	7.36719e+06	-49589.1	955.819	-29758.8	0.000000	0.000000	7.171589	32.6417	NaN	0.000000	0.001647	0.001689	28.0793	24.1621	0.001771	13640.3	5.034942	2.230993	30.9328	1.169393	0.025061	0.024733	32.6417	13640.3	0.023266	0.027936	1168.43	74561.1
219	2.000000	1.180196	7.36719e+06	-49589.1	955.82	-29758.8	0.000000	0.000000	7.183232	61.0457	NaN	0.000000	0.001585	0.001673	28.0791	34.3813	0.001821	18878.3	6.155301	177.694	58.9444	1.179848	0.035536	0.035189	61.0457	18878.3	0.033111	0.047439	1286.82	79189.3
219	2.000000	1.190637	7.36719e+06	-49589.1	955.821	-29758.8	0.000000	0.000000	7.195234	98.9731	NaN	0.000000	0.001679	0.001649	28.079	44.1936	0.001642	26911.1	4.007651	-3.124440	94.3376	1.190242	0.045978	0.045583	98.9731	26911.1	0.043220	0.072614	1363	91242.1
219	2.000000	1.201194	7.36719e+06	-49589.1	955.821	-29758.8	0.000000	0.000000	7.207430	138.857	NaN	0.000000	0.001677	0.001669	28.0775	53.6431	0.001802	29770.8	3.444085	176.802	137.611	1.200945	0.056535	0.056286	138.857	29770.8	0.053037	0.102030	1360.93	85152.7
219	2.000000	1.211690	7.36719e+06	-49589.1	955.821	-29758.8	0.000000	0.000000	7.219880	186.372	NaN	0.000000	0.001711	0.001728	28.0778	66.6186	0.001797	37078.3	7.463098	-9.681027	184.168	1.211467	0.067031	0.066808	186.372	37078.3	0.063261	0.137761	1352.87	91270.6
219	2.000000	1.222058	7.36719e+06	-49589.1	955.82	-29758.8	0.000000	0.000000	7.232883	250.46	NaN	0.000000	0.001678	0.001684	28.0782	75.3521	0.001767	42639.7	3.027601	174.5	245.504	1.221764	0.077399	0.077105	250.46	42639.7	0.072993	0.176477	1419.22	92734.7
219	2.000000	1.232611	7.36719e+06	-49589.1	955.819	-29758.8	0.000000	0.000000	7.246230	318.413	NaN	0.000000	0.001743	0.001706	28.0797	86.0395	0.001823	47207	6.245829	-9.707632	315.162	1.232331	0.087952	0.087672	318.413	47207	0.082893	0.220454	1444.35	91858.7
219	2.000000	1.243142	7.36719e+06	-49589.1	955.821	-29758.8	0.000000	0.000000	7.260047	398.316	NaN	0.000000	0.001682	0.001618	28.0793	95.1029	0.001738	54724.4	7.089372	168.89	399.916	1.242726	0.098483	0.098067	398.316	54724.4	0.093024	0.270161	1474.37	96192.9
219	2.000000	1.251034	7.36719e+06	-49589.1	955.82	-29758.8	0.000000	0.000000	7.270950	471.541	NaN	0.000000	0.001695	0.001669	28.0791	102.915	0.001776	57956.4	8.318281	167.371	464.815	1.250637	0.106375	0.105978	471.541	57956.4	0.100272	0.308608	1527.96	95317.2