File: remote_trans/data/nanoindenter/0828-1/data/Data_2025-08-06,11h17m57s/2025-07-22_16-23-58_1_802.txt
2025-07-22, 16:23:58, 1
Index	Phase	Displacement	Time	Pos X	Pos Y	Pos Z	Rot A	Rot B	Piezo Z	Force A	Force B	Gripper	Voltage A	Voltage B	Temperature	Amplitude force	Amplitude pos	Stiffness	Phase shift	Phase excitation	Force A raw	Displacement raw	HMax	HMax raw	Real Force	Real Stiffness	Contact Depth	Area	Hardness	Reduced Mod.
[#]	[#]	[um]	[s]	[um]	[um]	[um]	[m°]	[m°]	[um]	[uN]	[uN]	[V]	[V]	[V]	[°C]	[uN]	[um]	[N/m]	[°]	[°]	[uN]	[um]	[um]	[um]	[uN]	[N/m]	[um]	[um^2]	[MPa]	[MPa]
802	1.000000	0.003245	7.3729e+06	-40239.1	1055.82	-29790.7	0.000000	0.000000	6.002812	-0.004899	NaN	0.000000	0.001644	0.001742	28.0839	0.023795	0.001043	22.8087	12.1886	-168.711	0.035729	0.001956	-1.018119	-1.019408	-0.004899	22.8087	-1.017958	-3.958017E+13	1.237726E-16	NaN
802	1.000000	0.041207	7.3729e+06	-40239.1	1055.82	-29790.7	0.000000	0.000000	6.040776	0.041272	NaN	0.000000	0.001588	0.001754	28.0832	0.014249	0.002101	6.782712	-88.872	13.9452	0.034953	0.039811	-0.980158	-0.981554	0.041272	6.782712	-0.984721	-1.412588E+13	-2.921747E-15	NaN
802	1.000000	0.079189	7.3729e+06	-40239.1	1055.82	-29790.7	0.000000	0.000000	6.078758	0.047256	NaN	0.000000	0.001615	0.001764	28.0834	0.058918	0.002085	28.2536	19.9044	-164.056	-0.001072	0.077898	-0.942175	-0.943466	0.047256	28.2536	-0.943430	-3.921081E+12	-1.205170E-14	NaN
802	1.000000	0.117206	7.3729e+06	-40239.1	1055.82	-29790.7	0.000000	0.000000	6.116777	0.078360	NaN	0.000000	0.001603	0.001701	28.0825	0.070658	0.002052	34.4275	31.1931	12.9694	0.071420	0.115869	-0.904158	-0.905495	0.078360	34.4275	-0.905865	-1.219864E+12	-6.423640E-14	NaN
802	1.000000	0.155242	7.3729e+06	-40239.1	1055.82	-29790.7	0.000000	0.000000	6.154813	0.092215	NaN	0.000000	0.001591	0.001733	28.0825	0.067436	0.001920	35.1306	-32.9973	-164.229	0.108828	0.153901	-0.866122	-0.867463	0.092215	35.1306	-0.868091	-3.763685E+11	-2.450127E-13	NaN
802	1.000000	0.193229	7.3729e+06	-40239.1	1055.82	-29790.7	0.000000	0.000000	6.192799	0.048299	NaN	0.000000	0.001598	0.001734	28.0824	0.158957	0.002077	76.518	174.157	15.9469	-0.060184	0.191861	-0.828135	-0.829503	0.048299	76.518	-0.828609	-1.098815E+11	-4.395591E-13	NaN
802	1.000000	0.231262	7.3729e+06	-40239.1	1055.82	-29790.7	0.000000	0.000000	6.230830	0.018021	NaN	0.000000	0.001659	0.001703	28.0841	0.063563	0.002062	30.821	-92.5543	-165.589	-0.036908	0.229931	-0.790102	-0.791434	0.018021	30.821	-0.790541	-3.345248E+10	-5.387074E-13	NaN
802	1.000000	0.269244	7.3729e+06	-40239.1	1055.82	-29790.7	0.000000	0.000000	6.268815	0.074516	NaN	0.000000	0.001679	0.001728	28.0839	0.069112	0.002070	33.3805	-137.239	14.5966	0.025643	0.267910	-0.752120	-0.753454	0.074516	33.3805	-0.753794	-1.058925E+10	-7.036918E-12	NaN
802	1.000000	0.307280	7.3729e+06	-40239.1	1055.82	-29790.7	0.000000	0.000000	6.306852	0.104079	NaN	0.000000	0.001662	0.001725	28.0838	0.038840	0.002002	19.4027	10.5155	-168.603	0.144259	0.306018	-0.714084	-0.715347	0.104079	19.4027	-0.718107	-3.456655E+9	-3.010985E-11	NaN
802	1.000000	0.345300	7.3729e+06	-40239.1	1055.82	-29790.7	0.000000	0.000000	6.344868	0.006620	NaN	0.000000	0.001643	0.001741	28.0836	0.031415	0.002092	15.0197	15.0246	13.475	0.017889	0.343943	-0.676064	-0.677422	0.006620	15.0197	-0.676394	-9.308693E+8	-7.111654E-12	NaN
802	1.000000	0.383299	7.3729e+06	-40239.1	1055.82	-29790.7	0.000000	0.000000	6.382869	0.059524	NaN	0.000000	0.001679	0.001727	28.0823	0.069728	0.001974	35.3188	18.6069	-166.966	0.062809	0.381972	-0.638066	-0.639392	0.059524	35.3188	-0.639330	-2.891298E+8	-2.058723E-10	NaN
802	1.000000	0.421341	7.3729e+06	-40239.1	1055.82	-29790.8	0.000000	0.000000	6.420911	0.077212	NaN	0.000000	0.001681	0.001728	28.0825	0.057230	0.001844	31.0421	55.548	11.9326	0.142112	0.419942	-0.600024	-0.601422	0.077212	31.0421	-0.601889	-8.840481E+7	-8.733936E-10	NaN
802	1.000000	0.459372	7.3729e+06	-40239.1	1055.82	-29790.8	0.000000	0.000000	6.458939	-0.018694	NaN	0.000000	0.001709	0.001737	28.0828	0.126375	0.002127	59.407	175.478	-165.332	0.031308	0.458063	-0.561992	-0.563302	-0.018694	59.407	-0.561756	-2.469850E+7	7.569057E-10	NaN
802	1.000000	0.497367	7.3729e+06	-40239.1	1055.82	-29790.8	0.000000	0.000000	6.496936	0.042870	NaN	0.000000	0.001709	0.001762	28.0827	0.096754	0.001973	49.0286	168.486	15.3743	0.126334	0.496008	-0.523998	-0.525356	0.042870	49.0286	-0.524654	-7.55608e+06	-5.673631E-9	NaN
802	1.000000	0.535374	7.3729e+06	-40239.1	1055.82	-29790.8	0.000000	0.000000	6.534945	0.073171	NaN	0.000000	0.001663	0.001700	28.0836	0.126753	0.002042	62.0645	-172.732	-165.782	0.072216	0.534083	-0.485990	-0.487282	0.073171	62.0645	-0.486874	-2.24752e+06	-3.255631E-8	NaN
802	1.000000	0.573417	7.3729e+06	-40239.1	1055.82	-29790.8	0.000000	0.000000	6.572984	-0.019545	NaN	0.000000	0.001671	0.001761	28.0835	0.052007	0.001998	26.0264	127.484	17.4714	-0.027283	0.572073	-0.447947	-0.449291	-0.019545	26.0264	-0.447384	-627328	3.115550E-8	NaN
802	1.000000	0.611419	7.3729e+06	-40239.1	1055.82	-29790.8	0.000000	0.000000	6.610987	0.002744	NaN	0.000000	0.001623	0.001714	28.0844	0.077045	0.002071	37.1992	110.068	-168.519	0.059336	0.610149	-0.409945	-0.411215	0.002744	37.1992	-0.410000	-185525	-1.478951E-8	NaN
802	1.000000	0.649413	7.3729e+06	-40239.1	1055.82	-29790.8	0.000000	0.000000	6.648981	0.030767	NaN	0.000000	0.001674	0.001724	28.0836	0.053817	0.002043	26.3479	-60.6195	14.0432	-0.058772	0.648044	-0.371952	-0.373321	0.030767	26.3479	-0.372827	-54553.9	-5.639784E-7	NaN
802	1.000000	0.687438	7.3729e+06	-40239.1	1055.82	-29790.8	0.000000	0.000000	6.687007	0.036210	NaN	0.000000	0.001683	0.001706	28.0827	0.112552	0.002037	55.2482	110.643	-167.074	0.039828	0.686113	-0.333926	-0.335252	0.036210	55.2482	-0.334418	-15138.4	-2.391907E-6	NaN
802	1.000000	0.725463	7.3729e+06	-40239.1	1055.82	-29790.8	0.000000	0.000000	6.725030	0.003591	NaN	0.000000	0.001636	0.001739	28.0824	0.085670	0.002116	40.489	158.377	15.8256	0.013087	0.724115	-0.295902	-0.297249	0.003591	40.489	-0.295968	-4097.71	-8.763594E-7	NaN
802	1.000000	0.763499	7.3729e+06	-40239.1	1055.82	-29790.8	0.000000	0.000000	6.763070	0.068449	NaN	0.000000	0.001664	0.001741	28.0823	0.036212	0.001981	18.2793	-17.38	-165.352	-0.000856	0.762142	-0.257865	-0.259223	0.068449	18.2793	-0.260674	-1200.16	-5.703354E-5	NaN
802	1.000000	0.801486	7.3729e+06	-40239.1	1055.82	-29790.8	0.000000	0.000000	6.801054	-0.001421	NaN	0.000000	0.001590	0.001695	28.0836	0.085967	0.001829	47.0076	107.329	12.473	-0.024372	0.800118	-0.219878	-0.221246	-0.001421	47.0076	-0.219855	-276.289	5.143801E-6	NaN
802	1.000000	0.839512	7.3729e+06	-40239.1	1055.82	-29790.8	0.000000	0.000000	6.839082	0.065968	NaN	0.000000	0.001614	0.001684	28.0834	0.048846	0.002135	22.8746	143.149	-168.45	0.078379	0.838182	-0.181852	-0.183182	0.065968	22.8746	-0.184015	-71.3704	-0.000924	NaN
802	1.000000	0.877531	7.3729e+06	-40239.1	1055.82	-29790.8	0.000000	0.000000	6.877099	0.018719	NaN	0.000000	0.001664	0.001697	28.0834	0.101907	0.001917	53.1659	166.615	12.9563	0.035370	0.876177	-0.143833	-0.145188	0.018719	53.1659	-0.144098	-14.1075	-0.001327	NaN
802	1.000000	0.915548	7.3729e+06	-40239.1	1055.82	-29790.8	0.000000	0.000000	6.915118	0.069227	NaN	0.000000	0.001617	0.001717	28.0825	0.111595	0.001914	58.2974	-158.278	-167.263	0.068389	0.914234	-0.105817	-0.107131	0.069227	58.2974	-0.106707	-2.558000	-0.027063	NaN
802	1.000000	0.953559	7.3729e+06	-40239.1	1055.82	-29790.8	0.000000	0.000000	6.953129	0.066564	NaN	0.000000	0.001636	0.001705	28.0823	0.097901	0.002002	48.9007	77.3093	11.7981	0.012201	0.952152	-0.067805	-0.069212	0.066564	48.9007	-0.068826	-0.317191	-0.209853	NaN
802	1.000000	0.991578	7.3729e+06	-40239.1	1055.82	-29790.8	0.000000	0.000000	6.991146	0.028328	NaN	0.000000	0.001624	0.001705	28.0822	0.072961	0.002008	36.3441	164.368	-163.609	0.057272	0.990225	-0.029787	-0.031140	0.028328	36.3441	-0.030371	-0.023569	-1.201936	NaN
802	2.000000	1.027623	7.3729e+06	-40239.1	1055.82	-29790.8	0.000000	0.000000	7.027575	9.363705	NaN	0.000000	0.001633	0.001703	28.083	8.921265	0.001473	6057.49	8.200965	6.227621	9.446680	1.027316	0.006259	0.005952	9.363705	6057.49	0.005099	0.004224	2216.59	85150.2
802	2.000000	1.037094	7.3729e+06	-40239.1	1055.82	-29790.8	0.000000	0.000000	7.037774	27.077	NaN	0.000000	0.001616	0.001716	28.0834	19.2754	0.001897	10160.2	5.547325	-174.854	27.276	1.036789	0.015730	0.015425	27.077	10160.2	0.013731	0.013630	1986.52	79509.7
802	2.000000	1.046521	7.3729e+06	-40239.1	1055.82	-29790.8	0.000000	0.000000	7.048111	49.2161	NaN	0.000000	0.001635	0.001715	28.0833	28.2696	0.001772	15955.2	3.099042	2.081382	47.4656	1.046242	0.025157	0.024878	49.2161	15955.2	0.022844	0.027209	1808.82	88373.2
802	2.000000	1.056012	7.3729e+06	-40239.1	1055.82	-29790.8	0.000000	0.000000	7.059029	83.9478	NaN	0.000000	0.001616	0.001711	28.0833	38.1445	0.001784	21386.8	5.652353	177.053	84.7859	1.055678	0.034648	0.034314	83.9478	21386.8	0.031704	0.044349	1892.88	92784.4
802	2.000000	1.065532	7.37291e+06	-40239.1	1055.82	-29790.8	0.000000	0.000000	7.070368	128.213	NaN	0.000000	0.001614	0.001701	28.0833	48.0404	0.001853	25929.7	6.022371	-4.556876	127.234	1.065035	0.044168	0.043671	128.213	25929.7	0.040459	0.065221	1965.83	92763.8
802	2.000000	1.074937	7.37291e+06	-40239.1	1055.82	-29790.8	0.000000	0.000000	7.081746	176.21	NaN	0.000000	0.001594	0.001712	28.0821	56.3646	0.001810	31142.1	4.016199	175.164	173.056	1.074714	0.053573	0.053350	176.21	31142.1	0.049329	0.090352	1950.27	94656.9
802	2.000000	1.084508	7.37291e+06	-40239.1	1055.82	-29790.8	0.000000	0.000000	7.093526	229.964	NaN	0.000000	0.001647	0.001712	28.0822	66.7102	0.001855	35968.7	4.401077	-5.895445	230.004	1.084060	0.063144	0.062695	229.964	35968.7	0.058349	0.119955	1917.09	94883.2
802	2.000000	1.093886	7.37291e+06	-40239.1	1055.82	-29790.8	0.000000	0.000000	7.105843	301.485	NaN	0.000000	0.001603	0.001668	28.082	75.5429	0.001859	40630.1	5.214928	172.322	297.197	1.093618	0.072521	0.072254	301.485	40630.1	0.066956	0.151927	1984.41	95236.7
802	2.000000	1.103461	7.37291e+06	-40239.1	1055.82	-29790.8	0.000000	0.000000	7.118421	374.57	NaN	0.000000	0.001574	0.001719	28.0831	85.0139	0.001792	47440	6.608532	-9.770030	371.688	1.102950	0.082097	0.081585	374.57	47440	0.076175	0.190110	1970.29	99406.8
802	2.000000	1.112897	7.37291e+06	-40239.1	1055.82	-29790.8	0.000000	0.000000	7.131063	452.582	NaN	0.000000	0.001623	0.001681	28.083	93.3816	0.001813	51518.6	6.746901	169.376	451.466	1.112566	0.091532	0.091201	452.582	51518.6	0.084944	0.230133	1966.61	98117.7
802	2.000000	1.122270	7.37291e+06	-40239.1	1055.82	-29790.8	0.000000	0.000000	7.143985	538.939	NaN	0.000000	0.001657	0.001744	28.083	101.247	0.001688	59970.1	5.362659	-10.484	527.585	1.121994	0.100906	0.100630	538.939	59970.1	0.094166	0.276057	1952.28	104282
802	2.000000	1.125462	7.37291e+06	-40239.1	1055.82	-29790.8	0.000000	0.000000	7.148390	568.433	NaN	0.000000	0.001609	0.001708	28.0833	104.363	0.001776	58778	3.311313	-7.967271	566.981	1.124987	0.104098	0.103622	568.433	58778	0.096845	0.290129	1959.24	99699.4