File: remote_trans/data/nanoindenter/0828-1/data/Data_2025-08-06,11h17m57s/2025-07-22_16-23-58_1_481.txt
2025-07-22, 16:23:58, 1
Index	Phase	Displacement	Time	Pos X	Pos Y	Pos Z	Rot A	Rot B	Piezo Z	Force A	Force B	Gripper	Voltage A	Voltage B	Temperature	Amplitude force	Amplitude pos	Stiffness	Phase shift	Phase excitation	Force A raw	Displacement raw	HMax	HMax raw	Real Force	Real Stiffness	Contact Depth	Area	Hardness	Reduced Mod.
[#]	[#]	[um]	[s]	[um]	[um]	[um]	[m°]	[m°]	[um]	[uN]	[uN]	[V]	[V]	[V]	[°C]	[uN]	[um]	[N/m]	[°]	[°]	[uN]	[um]	[um]	[um]	[uN]	[N/m]	[um]	[um^2]	[MPa]	[MPa]
481	1.000000	0.002605	7.36976e+06	-53039.1	1005.82	-29747.6	0.000000	0.000000	6.002805	-0.073424	NaN	0.000000	0.001647	0.001687	28.0816	0.051613	0.001045	49.4092	-172.89	-163.403	-0.091385	0.001327	-1.100863	-1.102141	-0.073424	49.4092	-1.099748	-4.973786E+14	1.476212E-16	NaN
481	1.000000	0.044565	7.36976e+06	-53039.1	1005.82	-29747.6	0.000000	0.000000	6.044769	0.008883	NaN	0.000000	0.001618	0.001750	28.0823	0.026374	0.001868	14.1162	-21.3059	11.1895	0.021246	0.043144	-1.058902	-1.060324	0.008883	14.1162	-1.059374	-1.426962E+14	-6.225348E-17	NaN
481	1.000000	0.086555	7.36976e+06	-53039.1	1005.82	-29747.6	0.000000	0.000000	6.086758	0.002804	NaN	0.000000	0.001733	0.001671	28.0821	0.074913	0.002019	37.0969	93.8435	-163.307	-0.137702	0.085220	-1.016913	-1.018247	0.002804	37.0969	-1.016969	-3.838601E+13	-7.305409E-17	NaN
481	1.000000	0.128584	7.36976e+06	-53039.1	1005.82	-29747.6	0.000000	0.000000	6.128784	-0.077841	NaN	0.000000	0.001702	0.001704	28.0818	0.067930	0.001903	35.6918	124.101	11.9538	-0.092917	0.127199	-0.974884	-0.976268	-0.077841	35.6918	-0.973248	-9.895488E+12	7.866322E-15	NaN
481	1.000000	0.170597	7.36976e+06	-53039.1	1005.82	-29747.6	0.000000	0.000000	6.170801	0.009521	NaN	0.000000	0.001659	0.001734	28.0808	0.016301	0.002050	7.950078	-109.321	-166.851	0.001179	0.169252	-0.932870	-0.934215	0.009521	7.950078	-0.933769	-2.904394E+12	-3.278059E-15	NaN
481	1.000000	0.212598	7.36976e+06	-53039.1	1005.82	-29747.6	0.000000	0.000000	6.212799	-0.059638	NaN	0.000000	0.001647	0.001718	28.0808	0.108094	0.002069	52.2382	159.35	14.3165	-0.071476	0.211196	-0.890870	-0.892272	-0.059638	52.2382	-0.890014	-7.449028E+11	8.006114E-14	NaN
481	1.000000	0.254629	7.36976e+06	-53039.1	1005.82	-29747.6	0.000000	0.000000	6.254829	-0.061813	NaN	0.000000	0.001634	0.001734	28.0805	0.042244	0.001970	21.4421	-165.954	-165.13	-0.056994	0.253335	-0.848839	-0.850133	-0.061813	21.4421	-0.846677	-1.930801E+11	3.201425E-13	NaN
481	1.000000	0.296667	7.36976e+06	-53039.1	1005.82	-29747.6	0.000000	0.000000	6.296867	-0.083935	NaN	0.000000	0.001631	0.001729	28.0823	0.018467	0.002034	9.077023	23.1901	10.9369	-0.073725	0.295272	-0.806801	-0.808196	-0.083935	9.077023	-0.799866	-4.477531E+10	1.874576E-12	NaN
481	1.000000	0.338712	7.36976e+06	-53039.1	1005.82	-29747.6	0.000000	0.000000	6.338914	-0.026959	NaN	0.000000	0.001638	0.001699	28.0822	0.062506	0.002013	31.0571	45.2538	-166.482	-0.009055	0.337361	-0.764755	-0.766107	-0.026959	31.0571	-0.764104	-1.462618E+10	1.843231E-12	NaN
481	1.000000	0.380700	7.36976e+06	-53039.1	1005.82	-29747.6	0.000000	0.000000	6.380902	-0.034631	NaN	0.000000	0.001603	0.001766	28.0821	0.102054	0.001987	51.3727	91.8778	12.9292	-0.033297	0.379360	-0.722768	-0.724108	-0.034631	51.3727	-0.722262	-3.938397E+9	8.793283E-12	NaN
481	1.000000	0.422706	7.36976e+06	-53039.1	1005.82	-29747.6	0.000000	0.000000	6.422909	-0.005904	NaN	0.000000	0.001630	0.001684	28.0819	0.054531	0.002010	27.1278	68.0275	-168.46	-0.005332	0.421410	-0.680761	-0.682058	-0.005904	27.1278	-0.680598	-1.062635E+9	5.556342E-12	NaN
481	1.000000	0.464738	7.36976e+06	-53039.1	1005.82	-29747.6	0.000000	0.000000	6.464939	-0.053793	NaN	0.000000	0.001591	0.001720	28.0805	0.061351	0.002085	29.4237	115.391	13.8401	0.026081	0.463306	-0.638730	-0.640161	-0.053793	29.4237	-0.637359	-2.716730E+8	1.980051E-10	NaN
481	1.000000	0.506733	7.36976e+06	-53039.1	1005.82	-29747.6	0.000000	0.000000	6.506935	-0.016117	NaN	0.000000	0.001632	0.001719	28.0806	0.062389	0.001964	31.7726	-170.416	-168.008	0.100761	0.505432	-0.596735	-0.598035	-0.016117	31.7726	-0.596355	-7.417306E+7	2.172844E-10	NaN
481	1.000000	0.548756	7.36976e+06	-53039.1	1005.82	-29747.6	0.000000	0.000000	6.548958	-0.017430	NaN	0.000000	0.001648	0.001734	28.0807	0.114621	0.002006	57.1296	-135.49	12.3884	0.015297	0.547414	-0.554712	-0.556054	-0.017430	57.1296	-0.554483	-1.959012E+7	8.897330E-10	NaN
481	1.000000	0.590765	7.36976e+06	-53039.1	1005.82	-29747.6	0.000000	0.000000	6.590965	-0.056938	NaN	0.000000	0.001643	0.001723	28.0821	0.061381	0.001914	32.069	125.184	-169.079	-0.006510	0.589468	-0.512703	-0.514000	-0.056938	32.069	-0.511372	-4.93761e+06	1.153140E-8	NaN
481	1.000000	0.632799	7.36976e+06	-53039.1	1005.82	-29747.6	0.000000	0.000000	6.633001	-0.031459	NaN	0.000000	0.001615	0.001731	28.0819	0.026146	0.002109	12.395	98.6669	15.5097	0.015663	0.631431	-0.470669	-0.472037	-0.031459	12.395	-0.468765	-1.2534e+06	2.509895E-8	NaN
481	1.000000	0.674792	7.36976e+06	-53039.1	1005.82	-29747.6	0.000000	0.000000	6.674991	-0.100962	NaN	0.000000	0.001596	0.001747	28.082	0.049830	0.001965	25.3611	-47.1044	-167.278	-0.073698	0.673479	-0.428676	-0.429989	-0.100962	25.3611	-0.425690	-309781	3.259155E-7	NaN
481	1.000000	0.716831	7.36976e+06	-53039.1	1005.82	-29747.6	0.000000	0.000000	6.717035	0.029373	NaN	0.000000	0.001645	0.001734	28.081	0.020702	0.001924	10.7598	-140.133	13.9841	-0.002394	0.715463	-0.386637	-0.388005	0.029373	10.7598	-0.388685	-92118.3	-3.188657E-7	NaN
481	1.000000	0.758848	7.36976e+06	-53039.1	1005.82	-29747.6	0.000000	0.000000	6.759050	-0.022038	NaN	0.000000	0.001644	0.001724	28.0812	0.119730	0.002003	59.7851	-20.3959	-167.471	-0.035569	0.757590	-0.344620	-0.345878	-0.022038	59.7851	-0.344343	-21125.3	1.043188E-6	NaN
481	1.000000	0.800876	7.36976e+06	-53039.1	1005.82	-29747.6	0.000000	0.000000	6.801078	-0.030573	NaN	0.000000	0.001617	0.001735	28.0812	0.048761	0.001949	25.0216	28.6703	8.986812	-0.011146	0.799499	-0.302591	-0.303969	-0.030573	25.0216	-0.301675	-4983.78	6.134601E-6	NaN
481	1.000000	0.842903	7.36976e+06	-53039.1	1005.82	-29747.6	0.000000	0.000000	6.843104	-0.074163	NaN	0.000000	0.001560	0.001714	28.082	0.113850	0.002072	54.9565	-103.999	-168.921	-0.096495	0.841559	-0.260564	-0.261909	-0.074163	54.9565	-0.259552	-1153.59	6.428881E-5	NaN
481	1.000000	0.884893	7.36976e+06	-53039.1	1005.82	-29747.6	0.000000	0.000000	6.885094	-0.055461	NaN	0.000000	0.001595	0.001734	28.0818	0.102271	0.002002	51.0719	-132.695	15.772	-0.069858	0.883519	-0.218575	-0.219949	-0.055461	51.0719	-0.217760	-255.758	0.000217	NaN
481	1.000000	0.926896	7.36976e+06	-53039.1	1005.82	-29747.6	0.000000	0.000000	6.927097	-0.039016	NaN	0.000000	0.001622	0.001736	28.0818	0.001437	0.002033	0.706825	-127.276	-166.598	-0.012603	0.925649	-0.176572	-0.177819	-0.039016	0.706825	-0.135173	-9.585028	0.004070	NaN
481	1.000000	0.968943	7.36976e+06	-53039.1	1005.82	-29747.6	0.000000	0.000000	6.969144	-0.061160	NaN	0.000000	0.001595	0.001728	28.0819	0.111814	0.001988	56.2385	78.8458	17.4486	-0.090957	0.967589	-0.134525	-0.135879	-0.061160	56.2385	-0.133709	-8.986433	0.006806	NaN
481	1.000000	1.010944	7.36976e+06	-53039.1	1005.82	-29747.6	0.000000	0.000000	7.011141	-0.132247	NaN	0.000000	0.001701	0.001750	28.0804	0.046221	0.002059	22.4531	-135.306	-166.246	-0.037503	1.009636	-0.092524	-0.093832	-0.132247	22.4531	-0.088107	-0.975295	0.135597	NaN
481	1.000000	1.052923	7.36976e+06	-53039.1	1005.82	-29747.6	0.000000	0.000000	7.053123	-0.055957	NaN	0.000000	0.001697	0.001756	28.0805	0.060859	0.002043	29.7916	-162.06	7.409823	-0.091856	1.051605	-0.050545	-0.051863	-0.055957	29.7916	-0.049136	-0.085917	0.651293	NaN
481	1.000000	1.094963	7.36976e+06	-53039.1	1005.82	-29747.6	0.000000	0.000000	7.095164	-0.064954	NaN	0.000000	0.001686	0.001709	28.0803	0.034477	0.001958	17.6119	26.3825	-163.806	-0.044160	1.093652	-0.008504	-0.009816	-0.064954	17.6119	-0.005738	-0.003876	16.7591	NaN
481	2.000000	1.122102	7.36976e+06	-53039.1	1005.82	-29747.6	0.000000	0.000000	7.123001	16.9102	NaN	0.000000	0.001627	0.001721	28.0816	14.4586	0.001801	8027.01	3.195189	7.409650	16.5975	1.121666	0.018635	0.018199	16.9102	8027.01	0.017055	0.018124	933.053	54476
481	2.000000	1.132478	7.36976e+06	-53039.1	1005.82	-29747.6	0.000000	0.000000	7.134313	39.6846	NaN	0.000000	0.001608	0.001789	28.0818	25.0048	0.001712	14604.6	8.237968	177.309	39.5828	1.132134	0.029010	0.028666	39.6846	14604.6	0.026972	0.034702	1143.59	71629
481	2.000000	1.142910	7.36976e+06	-53039.1	1005.82	-29747.6	0.000000	0.000000	7.146024	70.759	NaN	0.000000	0.001579	0.001750	28.0818	34.2827	0.001829	18744.8	4.339839	-1.478634	66.4859	1.142530	0.039442	0.039062	70.759	18744.8	0.036611	0.055564	1273.46	72653.3
481	2.000000	1.153505	7.36976e+06	-53039.1	1005.82	-29747.6	0.000000	0.000000	7.158210	109.454	NaN	0.000000	0.001584	0.001742	28.0804	42.919	0.001855	23136.1	6.107110	176.628	111.605	1.153035	0.050037	0.049568	109.454	23136.1	0.046489	0.081870	1336.93	73875.5
481	2.000000	1.163913	7.36976e+06	-53039.1	1005.82	-29747.6	0.000000	0.000000	7.170601	157.673	NaN	0.000000	0.001616	0.001726	28.0805	51.7164	0.001822	28390.8	3.558736	-3.252981	155.362	1.163532	0.060445	0.060065	157.673	28390.8	0.056280	0.112807	1397.72	77229.3
481	2.000000	1.174467	7.36976e+06	-53039.1	1005.82	-29747.6	0.000000	0.000000	7.183229	208.086	NaN	0.000000	0.001669	0.001728	28.0805	63.8557	0.001802	35442.2	4.945675	173.474	208.486	1.174134	0.070999	0.070666	208.086	35442.2	0.066596	0.150517	1382.47	83464.2
481	2.000000	1.184909	7.36976e+06	-53039.1	1005.82	-29747.6	0.000000	0.000000	7.196431	275.221	NaN	0.000000	0.001738	0.001752	28.0818	72.4044	0.001984	36489.1	3.040598	-4.757010	275.4	1.184604	0.081441	0.081136	275.221	36489.1	0.075784	0.188409	1460.77	76804.4
481	2.000000	1.195414	7.36976e+06	-53039.1	1005.82	-29747.6	0.000000	0.000000	7.209440	336.069	NaN	0.000000	0.001651	0.001739	28.0819	81.4059	0.001811	44947.1	3.614692	172.979	335.956	1.195103	0.091947	0.091636	336.069	44947.1	0.086339	0.236829	1419.03	84383.4
481	2.000000	1.205783	7.36976e+06	-53039.1	1005.82	-29747.6	0.000000	0.000000	7.222351	397.889	NaN	0.000000	0.001653	0.001746	28.0822	89.9185	0.001739	51704	1.230399	-6.281895	389.276	1.205500	0.102315	0.102032	397.889	51704	0.096543	0.288528	1379.03	87943.5
481	2.000000	1.215299	7.36976e+06	-53039.1	1005.82	-29747.6	0.000000	0.000000	7.234901	471.662	NaN	0.000000	0.001692	0.001740	28.082	100.601	0.001893	53146.6	3.113395	171.768	466.414	1.215068	0.111831	0.111600	471.662	53146.6	0.105175	0.335967	1403.89	83772.3