File: remote_trans/data/nanoindenter/0828-1/data/Data_2025-08-06,11h17m57s/2025-07-22_16-23-58_1_803.txt
2025-07-22, 16:23:58, 1
Index	Phase	Displacement	Time	Pos X	Pos Y	Pos Z	Rot A	Rot B	Piezo Z	Force A	Force B	Gripper	Voltage A	Voltage B	Temperature	Amplitude force	Amplitude pos	Stiffness	Phase shift	Phase excitation	Force A raw	Displacement raw	HMax	HMax raw	Real Force	Real Stiffness	Contact Depth	Area	Hardness	Reduced Mod.
[#]	[#]	[um]	[s]	[um]	[um]	[um]	[m°]	[m°]	[um]	[uN]	[uN]	[V]	[V]	[V]	[°C]	[uN]	[um]	[N/m]	[°]	[°]	[uN]	[um]	[um]	[um]	[uN]	[N/m]	[um]	[um^2]	[MPa]	[MPa]
803	1.000000	0.003166	7.37291e+06	-40289.1	1055.82	-29790.5	0.000000	0.000000	6.002802	0.027301	NaN	0.000000	0.001687	0.001707	28.0815	0.016921	0.000985	17.1834	-144.955	-169.769	0.061243	0.001894	-1.146756	-1.148028	0.027301	17.1834	-1.147947	-2.204446E+15	-1.238447E-17	NaN
803	1.000000	0.045107	7.37291e+06	-40289.1	1055.82	-29790.5	0.000000	0.000000	6.044741	-0.002660	NaN	0.000000	0.001662	0.001682	28.0823	0.115252	0.001885	61.1359	-128.563	15.6204	0.038361	0.043751	-1.104815	-1.106171	-0.002660	61.1359	-1.104782	-5.811080E+14	4.577752E-18	NaN
803	1.000000	0.087152	7.37291e+06	-40289.1	1055.82	-29790.5	0.000000	0.000000	6.086788	0.031258	NaN	0.000000	0.001628	0.001725	28.0824	0.091458	0.002039	44.8486	-83.0848	-165.934	0.046287	0.085826	-1.062770	-1.064095	0.031258	44.8486	-1.063292	-1.610883E+14	-1.940434E-16	NaN
803	1.000000	0.129156	7.37291e+06	-40289.1	1055.82	-29790.4	0.000000	0.000000	6.128795	0.112320	NaN	0.000000	0.001597	0.001688	28.0824	0.066413	0.001926	34.4739	44.7235	11.8332	0.068280	0.127758	-1.020766	-1.022163	0.112320	34.4739	-1.023209	-4.657268E+13	-2.411722E-15	NaN
803	1.000000	0.171180	7.37291e+06	-40289.1	1055.82	-29790.4	0.000000	0.000000	6.170813	-0.033935	NaN	0.000000	0.001590	0.001720	28.0812	0.046518	0.001961	23.7245	25.0267	-165.233	-0.024179	0.169850	-0.978742	-0.980071	-0.033935	23.7245	-0.977669	-1.135018E+13	2.989835E-15	NaN
803	1.000000	0.213188	7.37291e+06	-40289.1	1055.82	-29790.4	0.000000	0.000000	6.212822	0.001206	NaN	0.000000	0.001586	0.001775	28.0817	0.055892	0.001970	28.3643	25.8266	13.3871	-0.098518	0.211817	-0.936734	-0.938105	0.001206	28.3643	-0.936766	-3.187868E+12	-3.784586E-16	NaN
803	1.000000	0.255194	7.37291e+06	-40289.1	1055.82	-29790.4	0.000000	0.000000	6.254829	0.013917	NaN	0.000000	0.001569	0.001722	28.0814	0.053333	0.001926	27.6887	-167.102	-161.573	-0.000263	0.253891	-0.894728	-0.896031	0.013917	27.6887	-0.895105	-8.727935E+11	-1.594482E-14	NaN
803	1.000000	0.297216	7.37291e+06	-40289.1	1055.82	-29790.4	0.000000	0.000000	6.296852	0.034604	NaN	0.000000	0.001543	0.001709	28.0815	0.033399	0.002006	16.6468	-141.157	13.4372	0.003249	0.295867	-0.852705	-0.854054	0.034604	16.6468	-0.854264	-2.446110E+11	-1.414641E-13	NaN
803	1.000000	0.339221	7.37291e+06	-40289.1	1055.82	-29790.4	0.000000	0.000000	6.338855	-0.011487	NaN	0.000000	0.001525	0.001722	28.0827	0.079253	0.002005	39.531	-114.858	-163.793	0.035555	0.337947	-0.810701	-0.811975	-0.011487	39.531	-0.810483	-6.239055E+10	1.841118E-13	NaN
803	1.000000	0.381240	7.37291e+06	-40289.1	1055.82	-29790.4	0.000000	0.000000	6.380871	-0.080030	NaN	0.000000	0.001553	0.001728	28.0828	0.021773	0.001948	11.1796	-81.1866	15.6295	-0.045871	0.379889	-0.768682	-0.770033	-0.080030	11.1796	-0.763313	-1.426807E+10	5.609027E-12	NaN
803	1.000000	0.423274	7.37291e+06	-40289.1	1055.82	-29790.4	0.000000	0.000000	6.422906	-0.039314	NaN	0.000000	0.001572	0.001729	28.0825	0.076660	0.001968	38.9515	163.816	-167.939	0.002881	0.421929	-0.726648	-0.727993	-0.039314	38.9515	-0.725891	-4.413677E+9	8.907294E-12	NaN
803	1.000000	0.465275	7.37291e+06	-40289.1	1055.82	-29790.4	0.000000	0.000000	6.464910	0.025923	NaN	0.000000	0.001581	0.001694	28.0811	0.105054	0.002000	52.5367	158.324	11.1909	0.019157	0.463957	-0.684647	-0.685965	0.025923	52.5367	-0.685017	-1.221258E+9	-2.122646E-11	NaN
803	1.000000	0.507309	7.37291e+06	-40289.1	1055.82	-29790.4	0.000000	0.000000	6.506943	-0.003781	NaN	0.000000	0.001599	0.001699	28.0814	0.046866	0.002045	22.9134	75.1757	-162.9	0.032935	0.505972	-0.642613	-0.643950	-0.003781	22.9134	-0.642489	-3.194743E+8	1.183429E-11	NaN
803	1.000000	0.549298	7.37291e+06	-40289.1	1055.82	-29790.4	0.000000	0.000000	6.548930	-0.057906	NaN	0.000000	0.001581	0.001682	28.0816	0.149821	0.001997	75.0116	127.004	12.4853	-0.052229	0.547968	-0.600624	-0.601954	-0.057906	75.0116	-0.600045	-8.338320E+7	6.944574E-10	NaN
803	1.000000	0.591343	7.37291e+06	-40289.1	1055.82	-29790.4	0.000000	0.000000	6.590979	0.021057	NaN	0.000000	0.001631	0.001660	28.0825	0.072816	0.001975	36.8752	-87.3824	-165.164	0.046029	0.590071	-0.558578	-0.559850	0.021057	36.8752	-0.559007	-2.262750E+7	-9.305852E-10	NaN
803	1.000000	0.633374	7.37291e+06	-40289.1	1055.82	-29790.4	0.000000	0.000000	6.633009	-0.007761	NaN	0.000000	0.001659	0.001692	28.0826	0.041553	0.001961	21.1914	-105.631	15.1498	-0.005222	0.631994	-0.516547	-0.517928	-0.007761	21.1914	-0.516273	-5.77755e+06	1.343246E-9	NaN
803	1.000000	0.675366	7.37291e+06	-40289.1	1055.82	-29790.4	0.000000	0.000000	6.675001	0.027857	NaN	0.000000	0.001616	0.001689	28.0828	0.049851	0.002078	23.9943	1.488035	-165.374	0.007841	0.674059	-0.474556	-0.475863	0.027857	23.9943	-0.475427	-1.55409e+06	-1.792498E-8	NaN
803	1.000000	0.717422	7.37291e+06	-40289.1	1055.82	-29790.4	0.000000	0.000000	6.717055	-0.036517	NaN	0.000000	0.001620	0.001702	28.0816	0.095416	0.002079	45.8984	11.8383	9.244778	-0.020829	0.715997	-0.432499	-0.433925	-0.036517	45.8984	-0.431903	-379291	9.627707E-8	NaN
803	1.000000	0.759397	7.37291e+06	-40289.1	1055.82	-29790.4	0.000000	0.000000	6.759031	-0.020853	NaN	0.000000	0.001657	0.001779	28.0817	0.053788	0.001925	27.9458	65.717	-165.955	-0.078620	0.758099	-0.390524	-0.391823	-0.020853	27.9458	-0.389965	-96086	2.170258E-7	NaN
803	1.000000	0.801392	7.37291e+06	-40289.1	1055.82	-29790.4	0.000000	0.000000	6.801027	0.023714	NaN	0.000000	0.001641	0.001703	28.0816	0.044785	0.001959	22.867	-117.364	12.6097	0.018861	0.800034	-0.348530	-0.349888	0.023714	22.867	-0.349308	-24943.3	-9.507250E-7	NaN
803	1.000000	0.843477	7.37291e+06	-40289.1	1055.82	-29790.4	0.000000	0.000000	6.843111	-0.013428	NaN	0.000000	0.001672	0.001701	28.0815	0.020176	0.002047	9.854122	19.1017	-167.407	-0.077820	0.842166	-0.306445	-0.307756	-0.013428	9.854122	-0.305423	-5665.34	2.370153E-6	NaN
803	1.000000	0.885440	7.37291e+06	-40289.1	1055.82	-29790.4	0.000000	0.000000	6.885076	0.051242	NaN	0.000000	0.001613	0.001694	28.083	0.019654	0.002179	9.018703	70.6051	18.4424	-0.019617	0.884059	-0.264482	-0.265863	0.051242	9.018703	-0.268744	-1593.81	-3.215072E-5	NaN
803	1.000000	0.927486	7.37291e+06	-40289.1	1055.82	-29790.4	0.000000	0.000000	6.927120	0.000474	NaN	0.000000	0.001608	0.001692	28.083	0.062398	0.001937	32.2196	149.899	-167.389	-0.038993	0.926193	-0.222436	-0.223729	0.000474	32.2196	-0.222447	-303.897	-1.560873E-6	NaN
803	1.000000	0.969490	7.37291e+06	-40289.1	1055.82	-29790.4	0.000000	0.000000	6.969125	0.005514	NaN	0.000000	0.001577	0.001706	28.0829	0.051727	0.001918	26.973	142.895	13.3057	-0.044893	0.968115	-0.180432	-0.181806	0.005514	26.973	-0.180585	-62.433	-8.831255E-5	NaN
803	1.000000	1.011510	7.37291e+06	-40289.1	1055.82	-29790.4	0.000000	0.000000	7.011140	-0.107279	NaN	0.000000	0.001626	0.001689	28.0816	0.053212	0.002013	26.4276	147.261	-167.124	-0.166472	1.010217	-0.138412	-0.139705	-0.107279	26.4276	-0.135368	-9.667245	0.011097	NaN
803	1.000000	1.053520	7.37291e+06	-40289.1	1055.82	-29790.4	0.000000	0.000000	7.053153	-0.038791	NaN	0.000000	0.001639	0.001693	28.0816	0.006538	0.002011	3.251720	-37.0267	14.981	0.027860	1.052201	-0.096402	-0.097721	-0.038791	3.251720	-0.087455	-0.941103	0.041218	NaN
803	1.000000	1.095518	7.37291e+06	-40289.1	1055.82	-29790.4	0.000000	0.000000	7.095151	-0.054059	NaN	0.000000	0.001588	0.001722	28.0814	0.042740	0.002048	20.8649	152.44	-167.801	-0.054206	1.094253	-0.054403	-0.055668	-0.054059	20.8649	-0.052460	-0.108212	0.499566	NaN
803	1.000000	1.137546	7.37291e+06	-40289.1	1055.82	-29790.4	0.000000	0.000000	7.137184	0.091750	NaN	0.000000	0.001617	0.001696	28.0828	0.126064	0.001966	64.1183	-23.0232	15.0409	0.106653	1.136197	-0.012375	-0.013725	0.091750	64.1183	-0.013449	-0.008362	-10.9724	NaN
803	2.000000	1.158073	7.37291e+06	-40289.1	1055.82	-29790.4	0.000000	0.000000	7.158368	16.0851	NaN	0.000000	0.001714	0.001694	28.0825	11.1177	0.001844	6029.19	8.325557	-174.215	16.1946	1.157792	0.008151	0.007870	16.0851	6029.19	0.006150	0.005208	3088.74	76332.8
803	2.000000	1.168489	7.37291e+06	-40289.1	1055.82	-29790.4	0.000000	0.000000	7.169434	31.8912	NaN	0.000000	0.001619	0.001668	28.0831	20.776	0.001835	11323.6	4.910145	2.820328	30.3237	1.168206	0.018567	0.018284	31.8912	11323.6	0.016455	0.017275	1846.12	78713.9
803	2.000000	1.178999	7.37291e+06	-40289.1	1055.82	-29790.4	0.000000	0.000000	7.181074	59.4054	NaN	0.000000	0.001601	0.001665	28.0816	30.4497	0.001872	16264	5.754113	179.27	58.6774	1.178639	0.029077	0.028718	59.4054	16264	0.026338	0.033494	1773.61	81192.8
803	2.000000	1.189468	7.37291e+06	-40289.1	1055.82	-29790.4	0.000000	0.000000	7.192992	94.6523	NaN	0.000000	0.001612	0.001700	28.0826	39.19	0.001738	22550.6	4.420326	-2.259675	92.6864	1.189181	0.039546	0.039260	94.6523	22550.6	0.036398	0.055052	1719.32	87810
803	2.000000	1.199955	7.37292e+06	-40289.1	1055.82	-29790.4	0.000000	0.000000	7.205505	143.946	NaN	0.000000	0.001619	0.001688	28.0818	51.5598	0.001857	27763.1	6.951784	173.624	140.971	1.199656	0.050033	0.049734	143.946	27763.1	0.046145	0.080870	1779.96	89196.4
803	2.000000	1.210470	7.37292e+06	-40289.1	1055.82	-29790.4	0.000000	0.000000	7.218140	195.529	NaN	0.000000	0.001620	0.001674	28.0818	60.8695	0.001798	33849.1	4.391215	-5.851951	194.855	1.210193	0.060548	0.060272	195.529	33849.1	0.056216	0.112590	1736.64	92165.6
803	2.000000	1.220936	7.37292e+06	-40289.1	1055.82	-29790.4	0.000000	0.000000	7.231204	258.757	NaN	0.000000	0.001681	0.001702	28.083	71.1501	0.001879	37871.5	5.171845	172.93	258.049	1.220661	0.071014	0.070740	258.757	37871.5	0.065890	0.147772	1751.05	90009.8
803	2.000000	1.231430	7.37292e+06	-40289.1	1055.82	-29790.4	0.000000	0.000000	7.244924	337.25	NaN	0.000000	0.001616	0.001740	28.0828	79.779	0.001854	43037	4.693985	-7.590564	334.107	1.231065	0.081508	0.081143	337.25	43037	0.075631	0.187745	1796.32	90746.6
803	2.000000	1.241940	7.37292e+06	-40289.1	1055.82	-29790.4	0.000000	0.000000	7.258618	414.748	NaN	0.000000	0.001628	0.001732	28.0828	88.6828	0.001808	49042.1	5.067164	170.993	414.661	1.241570	0.092018	0.091648	414.748	49042.1	0.085676	0.233635	1775.2	92698.7
803	2.000000	1.249374	7.37292e+06	-40289.1	1055.82	-29790.4	0.000000	0.000000	7.268667	478.37	NaN	0.000000	0.001675	0.001741	28.0815	96.7538	0.001796	53873.3	6.933251	-11.8703	474.218	1.249075	0.099452	0.099153	478.37	53873.3	0.092792	0.268971	1778.52	94906.1