File: remote_trans/data/nanoindenter/0828-1/data/Data_2025-08-06,11h17m57s/2025-07-22_16-23-58_1_180.txt
2025-07-22, 16:23:58, 1
Index	Phase	Displacement	Time	Pos X	Pos Y	Pos Z	Rot A	Rot B	Piezo Z	Force A	Force B	Gripper	Voltage A	Voltage B	Temperature	Amplitude force	Amplitude pos	Stiffness	Phase shift	Phase excitation	Force A raw	Displacement raw	HMax	HMax raw	Real Force	Real Stiffness	Contact Depth	Area	Hardness	Reduced Mod.
[#]	[#]	[um]	[s]	[um]	[um]	[um]	[m°]	[m°]	[um]	[uN]	[uN]	[V]	[V]	[V]	[°C]	[uN]	[um]	[N/m]	[°]	[°]	[uN]	[um]	[um]	[um]	[uN]	[N/m]	[um]	[um^2]	[MPa]	[MPa]
180	1.000000	0.002278	7.3668e+06	-47639.1	955.817	-29765.7	0.000000	0.000000	6.002814	-0.060790	NaN	0.000000	0.001662	0.001831	28.1268	0.105673	0.001081	97.7949	25.4484	-163.797	-0.101487	0.001006	-1.036420	-1.037692	-0.060790	97.7949	-1.035954	-6.911249E+13	8.795862E-16	NaN
180	1.000000	0.042228	7.3668e+06	-47639.1	955.819	-29765.7	0.000000	0.000000	6.042763	-0.070520	NaN	0.000000	0.001615	0.001758	28.1282	0.147852	0.001937	76.3133	-90.5583	-168.286	-0.112494	0.040901	-0.996470	-0.997798	-0.070520	76.3133	-0.995777	-1.990249E+13	3.543259E-15	NaN
180	1.000000	0.082210	7.3668e+06	-47639.1	955.819	-29765.7	0.000000	0.000000	6.082748	0.001398	NaN	0.000000	0.001562	0.001787	28.1264	0.066522	0.002020	32.9327	-13.0898	-169.938	0.107814	0.080865	-0.956488	-0.957834	0.001398	32.9327	-0.956520	-5.887743E+12	-2.374945E-16	NaN
180	1.000000	0.122274	7.3668e+06	-47639.1	955.819	-29765.7	0.000000	0.000000	6.122812	0.009802	NaN	0.000000	0.001580	0.001777	28.1287	0.077107	0.002083	37.0227	-118.066	-166.053	0.016839	0.120946	-0.916424	-0.917752	0.009802	37.0227	-0.916623	-1.704533E+12	-5.750682E-15	NaN
180	1.000000	0.162252	7.3668e+06	-47639.1	955.819	-29765.7	0.000000	0.000000	6.162787	-0.061443	NaN	0.000000	0.001607	0.001746	28.1274	0.116160	0.002067	56.1869	20.1993	-165.36	-0.084206	0.160959	-0.876446	-0.877739	-0.061443	56.1869	-0.875626	-4.759395E+11	1.290986E-13	NaN
180	1.000000	0.202265	7.3668e+06	-47639.1	955.818	-29765.7	0.000000	0.000000	6.202798	-0.092982	NaN	0.000000	0.001688	0.001773	28.1287	0.052726	0.001952	27.0134	4.063563	-164.74	-0.084537	0.200951	-0.836434	-0.837747	-0.092982	27.0134	-0.833852	-1.294173E+11	7.184643E-13	NaN
180	1.000000	0.242316	7.3668e+06	-47639.1	955.819	-29765.7	0.000000	0.000000	6.242853	-0.031654	NaN	0.000000	0.001672	0.001731	28.1275	0.046166	0.002078	22.2165	-27.3893	-167.319	-0.008593	0.240985	-0.796382	-0.797713	-0.031654	22.2165	-0.795314	-3.883650E+10	8.150528E-13	NaN
180	1.000000	0.282296	7.3668e+06	-47639.1	955.818	-29765.7	0.000000	0.000000	6.282832	-0.050874	NaN	0.000000	0.001691	0.001677	28.1269	0.020559	0.001940	10.5969	-63.2183	-163.774	-0.008421	0.281004	-0.756402	-0.757694	-0.050874	10.5969	-0.752801	-1.026471E+10	4.956249E-12	NaN
180	1.000000	0.322305	7.3668e+06	-47639.1	955.82	-29765.7	0.000000	0.000000	6.322839	-0.091262	NaN	0.000000	0.001657	0.001699	28.1257	0.033607	0.002036	16.5048	14.3218	-168.891	-0.067326	0.321000	-0.716394	-0.717698	-0.091262	16.5048	-0.712247	-2.875440E+9	3.173828E-11	NaN
180	1.000000	0.362353	7.3668e+06	-47639.1	955.819	-29765.7	0.000000	0.000000	6.362887	-0.094560	NaN	0.000000	0.001646	0.001723	28.1263	0.066333	0.001983	33.4532	100.466	-168.998	-0.044194	0.361021	-0.676345	-0.677678	-0.094560	33.4532	-0.674225	-8.693793E+8	1.087670E-10	NaN
180	1.000000	0.402364	7.3668e+06	-47639.1	955.819	-29765.7	0.000000	0.000000	6.402902	-0.005024	NaN	0.000000	0.001574	0.001737	28.1262	0.099276	0.001978	50.1991	-145.629	-169.233	0.027817	0.401088	-0.636334	-0.637610	-0.005024	50.1991	-0.636259	-2.623932E+8	1.914553E-11	NaN
180	1.000000	0.442381	7.3668e+06	-47639.1	955.819	-29765.7	0.000000	0.000000	6.442921	0.055166	NaN	0.000000	0.001576	0.001693	28.1276	0.060055	0.002073	28.9681	-78.0403	-166.358	-0.035530	0.441125	-0.596317	-0.597574	0.055166	28.9681	-0.597745	-7.751832E+7	-7.116538E-10	NaN
180	1.000000	0.482401	7.3668e+06	-47639.1	955.818	-29765.7	0.000000	0.000000	6.482937	-0.052015	NaN	0.000000	0.001585	0.001685	28.1257	0.052160	0.002037	25.6123	65.3465	-163.582	-0.103334	0.481090	-0.556297	-0.557609	-0.052015	25.6123	-0.554774	-1.977247E+7	2.630658E-9	NaN
180	1.000000	0.522410	7.3668e+06	-47639.1	955.818	-29765.7	0.000000	0.000000	6.522946	-0.058885	NaN	0.000000	0.001583	0.001694	28.1267	0.034125	0.002019	16.8992	-171.582	-167.503	-0.060603	0.521121	-0.516288	-0.517577	-0.058885	16.8992	-0.513675	-5.31601e+06	1.107701E-8	NaN
180	1.000000	0.562432	7.3668e+06	-47639.1	955.819	-29765.7	0.000000	0.000000	6.562968	-0.041966	NaN	0.000000	0.001642	0.001694	28.1242	0.106763	0.002009	53.1379	40.3675	-166.012	0.021995	0.561095	-0.476266	-0.477603	-0.041966	53.1379	-0.475674	-1.56655e+06	2.678847E-8	NaN
180	1.000000	0.602466	7.3668e+06	-47639.1	955.819	-29765.7	0.000000	0.000000	6.603002	-0.048916	NaN	0.000000	0.001622	0.001701	28.1256	0.095284	0.001964	48.5271	-78.5404	-168.551	0.025293	0.601164	-0.436233	-0.437534	-0.048916	48.5271	-0.435476	-426076	1.148065E-7	NaN
180	1.000000	0.642453	7.3668e+06	-47639.1	955.818	-29765.7	0.000000	0.000000	6.642989	-0.042853	NaN	0.000000	0.001593	0.001687	28.1246	0.085267	0.002030	41.9976	-85.2649	-166.421	-0.031429	0.641132	-0.396246	-0.397566	-0.042853	41.9976	-0.395480	-115211	3.719472E-7	NaN
180	1.000000	0.682502	7.3668e+06	-47639.1	955.82	-29765.7	0.000000	0.000000	6.683039	-0.029753	NaN	0.000000	0.001591	0.001686	28.1267	0.077470	0.001995	38.8233	-137.608	-168.801	-0.012457	0.681195	-0.356196	-0.357503	-0.029753	38.8233	-0.355621	-30796.1	9.661359E-7	NaN
180	1.000000	0.722551	7.3668e+06	-47639.1	955.82	-29765.7	0.000000	0.000000	6.723088	-0.013605	NaN	0.000000	0.001595	0.001659	28.126	0.025147	0.001890	13.3051	-7.568261	-171.833	0.030982	0.721189	-0.316147	-0.317509	-0.013605	13.3051	-0.315380	-7953.55	1.710540E-6	NaN
180	1.000000	0.762508	7.3668e+06	-47639.1	955.818	-29765.7	0.000000	0.000000	6.763044	-0.019098	NaN	0.000000	0.001550	0.001701	28.1261	0.033635	0.001997	16.8433	-24.6155	-164.911	-0.021077	0.761180	-0.276191	-0.277518	-0.019098	16.8433	-0.275340	-2007.03	9.515693E-6	NaN
180	1.000000	0.802526	7.3668e+06	-47639.1	955.819	-29765.7	0.000000	0.000000	6.803061	-0.058399	NaN	0.000000	0.001549	0.001718	28.1242	0.051549	0.002066	24.9521	-154.866	-166.442	-0.013076	0.801228	-0.236172	-0.237470	-0.058399	24.9521	-0.234417	-469.992	0.000124	NaN
180	1.000000	0.842524	7.3668e+06	-47639.1	955.818	-29765.7	0.000000	0.000000	6.843060	-0.048348	NaN	0.000000	0.001532	0.001665	28.1252	0.171702	0.002046	83.9362	19.1986	-161.771	-0.001168	0.841194	-0.196174	-0.197505	-0.048348	83.9362	-0.195742	-112.07	0.000431	NaN
180	1.000000	0.882545	7.3668e+06	-47639.1	955.819	-29765.7	0.000000	0.000000	6.883083	0.015771	NaN	0.000000	0.001565	0.001661	28.1233	0.009339	0.002031	4.598262	96.6935	-162.082	-0.052220	0.881223	-0.156154	-0.157475	0.015771	4.598262	-0.158726	-26.0202	-0.000606	NaN
180	1.000000	0.922569	7.3668e+06	-47639.1	955.819	-29765.7	0.000000	0.000000	6.923104	-0.070724	NaN	0.000000	0.001558	0.001676	28.1238	0.058693	0.001916	30.6349	-76.7853	-169.018	0.033998	0.921246	-0.116129	-0.117453	-0.070724	30.6349	-0.114398	-3.712578	0.019050	NaN
180	1.000000	0.962602	7.3668e+06	-47639.1	955.818	-29765.7	0.000000	0.000000	6.963137	-0.051000	NaN	0.000000	0.001592	0.001699	28.1239	0.041258	0.002003	20.6007	92.5608	-165.811	-0.071470	0.961239	-0.076097	-0.077459	-0.051000	20.6007	-0.074240	-0.441374	0.115549	NaN
180	1.000000	1.002603	7.3668e+06	-47639.1	955.817	-29765.7	0.000000	0.000000	7.003137	-0.090653	NaN	0.000000	0.001607	0.001688	28.1256	0.037552	0.002004	18.7402	-51.8249	-165.378	-0.080005	1.001341	-0.036095	-0.037357	-0.090653	18.7402	-0.032467	-0.027026	3.354321	NaN
180	1.000000	1.042614	7.3668e+06	-47639.1	955.818	-29765.7	0.000000	0.000000	7.043228	1.855454	NaN	0.000000	0.001616	0.001697	28.1238	2.708971	0.001765	1534.53	4.496377	-169.875	0.727250	1.041315	0.003916	0.002617	1.855454	1534.53	0.003009	0.002387	777.182	28693.7
180	2.000000	1.057159	7.3668e+06	-47639.1	955.818	-29765.7	0.000000	0.000000	7.058585	21.6062	NaN	0.000000	0.001587	0.001736	28.1238	19.3482	0.001853	10444.3	9.399011	179.876	20.6859	1.056905	0.018460	0.018207	21.6062	10444.3	0.016909	0.017916	1206	71291
180	2.000000	1.067102	7.36681e+06	-47639.1	955.819	-29765.7	0.000000	0.000000	7.069555	46.5726	NaN	0.000000	0.001658	0.001713	28.1225	29.1389	0.001937	15040.4	4.375150	-178.07	44.4806	1.066774	0.028404	0.028076	46.5726	15040.4	0.026082	0.033013	1410.75	75629.8
180	2.000000	1.077067	7.36681e+06	-47639.1	955.819	-29765.7	0.000000	0.000000	7.080969	81.8117	NaN	0.000000	0.001673	0.001713	28.1236	38.2649	0.001784	21449.5	3.735711	178.194	79.7577	1.076808	0.038369	0.038110	81.8117	21449.5	0.035508	0.052937	1545.46	85175
180	2.000000	1.087066	7.36681e+06	-47639.1	955.82	-29765.7	0.000000	0.000000	7.092525	119.694	NaN	0.000000	0.001605	0.001695	28.1215	48.0671	0.001840	26128.8	6.280243	173.637	118.205	1.086860	0.048368	0.048161	119.694	26128.8	0.044932	0.077395	1546.54	85809.9
180	2.000000	1.097047	7.36681e+06	-47639.1	955.819	-29765.7	0.000000	0.000000	7.104405	165.895	NaN	0.000000	0.001562	0.001748	28.1239	56.5588	0.001774	31874	0.259426	178.891	164.676	1.096849	0.058349	0.058150	165.895	31874	0.054445	0.106647	1555.55	89173.3
180	2.000000	1.107043	7.36681e+06	-47639.1	955.82	-29765.7	0.000000	0.000000	7.116814	224.587	NaN	0.000000	0.001582	0.001713	28.1232	67.0578	0.001836	36531.5	3.082403	175.261	224.119	1.106769	0.068345	0.068071	224.587	36531.5	0.063734	0.139538	1609.51	89350.1
180	2.000000	1.117068	7.36681e+06	-47639.1	955.821	-29765.7	0.000000	0.000000	7.129429	287.577	NaN	0.000000	0.001575	0.001711	28.1235	78.3255	0.001818	43089	1.931973	174.833	287.199	1.116910	0.078370	0.078212	287.577	43089	0.073364	0.178042	1615.22	93299.4
180	2.000000	1.126920	7.36681e+06	-47639.1	955.821	-29765.7	0.000000	0.000000	7.143110	380.712	NaN	0.000000	0.001568	0.001697	28.1213	87.1079	0.001800	48393.4	3.413810	172.854	374.117	1.126714	0.088222	0.088015	380.712	48393.4	0.082322	0.217792	1748.05	94741.2
180	2.000000	1.136951	7.36681e+06	-47639.1	955.821	-29765.7	0.000000	0.000000	7.157106	477.154	NaN	0.000000	0.001587	0.001698	28.1222	96.7324	0.001839	52595.9	4.404066	171.635	473.134	1.136673	0.098252	0.097975	477.154	52595.9	0.091448	0.262120	1820.36	93858.9
180	2.000000	1.147026	7.36681e+06	-47639.1	955.819	-29765.7	0.000000	0.000000	7.171270	576.597	NaN	0.000000	0.001540	0.001639	28.1217	107.574	0.001862	57785.9	2.947303	172.057	576.594	1.146804	0.108328	0.108106	576.597	57785.9	0.100844	0.311743	1849.59	94557.6