File: remote_trans/data/nanoindenter/0828-1/data/Data_2025-08-06,11h17m57s/2025-07-22_16-23-58_1_420.txt
2025-07-22, 16:23:58, 1
Index	Phase	Displacement	Time	Pos X	Pos Y	Pos Z	Rot A	Rot B	Piezo Z	Force A	Force B	Gripper	Voltage A	Voltage B	Temperature	Amplitude force	Amplitude pos	Stiffness	Phase shift	Phase excitation	Force A raw	Displacement raw	HMax	HMax raw	Real Force	Real Stiffness	Contact Depth	Area	Hardness	Reduced Mod.
[#]	[#]	[um]	[s]	[um]	[um]	[um]	[m°]	[m°]	[um]	[uN]	[uN]	[V]	[V]	[V]	[°C]	[uN]	[um]	[N/m]	[°]	[°]	[uN]	[um]	[um]	[um]	[uN]	[N/m]	[um]	[um^2]	[MPa]	[MPa]
420	1.000000	0.002434	7.36917e+06	-56089.1	1005.82	-29740	0.000000	0.000000	6.002794	0.009934	NaN	0.000000	0.001647	0.001674	28.081	0.015114	0.000943	16.0293	-160.3	-168.587	0.011450	0.001180	-1.154685	-1.155939	0.009934	16.0293	-1.155149	-2.753283E+15	-3.608033E-18	NaN
420	1.000000	0.044416	7.36917e+06	-56089.1	1005.82	-29740	0.000000	0.000000	6.044776	0.021881	NaN	0.000000	0.001650	0.001651	28.0795	0.043683	0.002033	21.4851	-81.3037	14.6143	-0.025112	0.043063	-1.112702	-1.114056	0.021881	21.4851	-1.113466	-7.599831E+14	-2.879113E-17	NaN
420	1.000000	0.086403	7.36917e+06	-56089.1	1005.82	-29740	0.000000	0.000000	6.086763	0.022648	NaN	0.000000	0.001668	0.001682	28.0796	0.069460	0.002046	33.9476	-6.842867	-165.095	0.051525	0.085097	-1.070715	-1.072022	0.022648	33.9476	-1.071216	-2.058366E+14	-1.100297E-16	NaN
420	1.000000	0.128429	7.36917e+06	-56089.1	1005.82	-29740	0.000000	0.000000	6.128790	0.038708	NaN	0.000000	0.001626	0.001691	28.0794	0.053329	0.002070	25.7584	149.001	15.1629	0.002133	0.127059	-1.028689	-1.030060	0.038708	25.7584	-1.029817	-5.714955E+13	-6.773061E-16	NaN
420	1.000000	0.170454	7.36917e+06	-56089.1	1005.82	-29740	0.000000	0.000000	6.170817	0.098505	NaN	0.000000	0.001653	0.001685	28.0806	0.145126	0.002077	69.8617	-100.259	-167.973	0.079323	0.169129	-0.986665	-0.987990	0.098505	69.8617	-0.987723	-1.550382E+13	-6.353612E-15	NaN
420	1.000000	0.212502	7.36917e+06	-56089.1	1005.82	-29740	0.000000	0.000000	6.212861	-0.002670	NaN	0.000000	0.001619	0.001665	28.0804	0.098981	0.001961	50.4798	-86.1965	12.9301	0.038198	0.211092	-0.944617	-0.946027	-0.002670	50.4798	-0.944577	-4.063340E+12	6.571264E-16	NaN
420	1.000000	0.254476	7.36917e+06	-56089.1	1005.82	-29740	0.000000	0.000000	6.254836	0.025622	NaN	0.000000	0.001633	0.001693	28.0805	0.040973	0.002057	19.9209	-1.459432	-166.549	0.093629	0.253168	-0.902643	-0.903951	0.025622	19.9209	-0.903608	-1.137132E+12	-2.253222E-14	NaN
420	1.000000	0.296489	7.36917e+06	-56089.1	1005.82	-29740	0.000000	0.000000	6.296852	0.075488	NaN	0.000000	0.001626	0.001650	28.0797	0.115414	0.001900	60.7554	151.503	13.5434	0.179260	0.295127	-0.860629	-0.861991	0.075488	60.7554	-0.861561	-3.070798E+11	-2.458263E-13	NaN
420	1.000000	0.338501	7.36917e+06	-56089.1	1005.82	-29740	0.000000	0.000000	6.338863	0.058155	NaN	0.000000	0.001633	0.001616	28.0789	0.081219	0.002119	38.3368	-33.7712	-162.117	0.050681	0.337198	-0.818618	-0.819920	0.058155	38.3368	-0.819755	-8.334759E+10	-6.977357E-13	NaN
420	1.000000	0.380513	7.36917e+06	-56089.1	1005.82	-29740	0.000000	0.000000	6.380875	0.061716	NaN	0.000000	0.001694	0.001618	28.0787	0.152658	0.001972	77.396	52.0113	14.0229	0.056489	0.379188	-0.776605	-0.777931	0.061716	77.396	-0.777203	-2.204070E+10	-2.800103E-12	NaN
420	1.000000	0.422537	7.36917e+06	-56089.1	1005.82	-29740	0.000000	0.000000	6.422901	0.109574	NaN	0.000000	0.001692	0.001658	28.0786	0.042821	0.002049	20.9014	115.34	-162.487	0.055690	0.421221	-0.734581	-0.735897	0.109574	20.9014	-0.738513	-6.558521E+9	-1.670717E-11	NaN
420	1.000000	0.464575	7.36917e+06	-56089.1	1005.82	-29740	0.000000	0.000000	6.464935	0.020524	NaN	0.000000	0.001723	0.001645	28.0798	0.081531	0.002005	40.6646	101.638	11.4954	0.043125	0.463200	-0.692543	-0.693919	0.020524	40.6646	-0.692922	-1.566191E+9	-1.310446E-11	NaN
420	1.000000	0.506574	7.36917e+06	-56089.1	1005.82	-29740	0.000000	0.000000	6.506937	0.098673	NaN	0.000000	0.001720	0.001610	28.0799	0.043702	0.001987	21.9888	9.719106	-165.289	0.160140	0.505261	-0.650545	-0.651857	0.098673	21.9888	-0.653910	-4.581792E+8	-2.153584E-10	NaN
420	1.000000	0.548606	7.36917e+06	-56089.1	1005.82	-29740	0.000000	0.000000	6.548967	0.044045	NaN	0.000000	0.001716	0.001660	28.0799	0.028314	0.002003	14.1348	-94.5808	15.4476	0.070899	0.547225	-0.608513	-0.609894	0.044045	14.1348	-0.610850	-1.174373E+8	-3.750520E-10	NaN
420	1.000000	0.590616	7.36917e+06	-56089.1	1005.82	-29740	0.000000	0.000000	6.590976	0.024379	NaN	0.000000	0.001715	0.001638	28.0784	0.034187	0.002030	16.8439	-82.2774	-165.375	0.102243	0.589313	-0.566503	-0.567805	0.024379	16.8439	-0.567588	-2.973723E+7	-8.198131E-10	NaN
420	1.000000	0.632618	7.36917e+06	-56089.1	1005.82	-29740	0.000000	0.000000	6.632979	0.058308	NaN	0.000000	0.001740	0.001642	28.0787	0.131632	0.002061	63.8734	98.2793	13.863	0.151309	0.631288	-0.524501	-0.525831	0.058308	63.8734	-0.525186	-7.6858e+06	-7.586465E-9	NaN
420	1.000000	0.674649	7.36917e+06	-56089.1	1005.82	-29740	0.000000	0.000000	6.675013	0.101688	NaN	0.000000	0.001703	0.001680	28.0786	0.040263	0.001944	20.7092	71.4667	-164.01	0.110807	0.673393	-0.482469	-0.483726	0.101688	20.7092	-0.486152	-2.19585e+06	-4.630918E-8	NaN
420	1.000000	0.716675	7.36917e+06	-56089.1	1005.82	-29740	0.000000	0.000000	6.717035	0.033320	NaN	0.000000	0.001737	0.001650	28.08	0.104005	0.001991	52.2482	83.8192	16.016	0.042169	0.715326	-0.440444	-0.441793	0.033320	52.2482	-0.440922	-508600	-6.551321E-8	NaN
420	1.000000	0.758675	7.36917e+06	-56089.1	1005.82	-29740	0.000000	0.000000	6.759038	0.070246	NaN	0.000000	0.001659	0.001655	28.08	0.067443	0.002036	33.1331	76.0909	-163.681	0.051724	0.757360	-0.398443	-0.399759	0.070246	33.1331	-0.400033	-133804	-5.249928E-7	NaN
420	1.000000	0.800721	7.36917e+06	-56089.1	1005.82	-29740	0.000000	0.000000	6.801083	0.062726	NaN	0.000000	0.001637	0.001673	28.0798	0.044543	0.002035	21.8842	0.702542	10.6937	0.020846	0.799361	-0.356398	-0.357758	0.062726	21.8842	-0.358548	-33950.3	-1.847569E-6	NaN
420	1.000000	0.842756	7.36917e+06	-56089.1	1005.82	-29740	0.000000	0.000000	6.843120	0.108119	NaN	0.000000	0.001652	0.001625	28.0799	0.010456	0.002024	5.167200	-171.154	-165.306	0.088610	0.841442	-0.314363	-0.315677	0.108119	5.167200	-0.330056	-13069.8	-8.272416E-6	NaN
420	1.000000	0.884739	7.36917e+06	-56089.1	1005.82	-29740	0.000000	0.000000	6.885101	0.052436	NaN	0.000000	0.001615	0.001651	28.0786	0.101029	0.002008	50.3072	-177.46	13.3246	0.044370	0.883382	-0.272379	-0.273737	0.052436	50.3072	-0.273161	-1860.1	-2.819005E-5	NaN
420	1.000000	0.926752	7.36917e+06	-56089.1	1005.82	-29740	0.000000	0.000000	6.927116	0.113987	NaN	0.000000	0.001632	0.001673	28.0787	0.037915	0.002086	18.1752	-105.943	-166.811	0.066661	0.925467	-0.230366	-0.231652	0.113987	18.1752	-0.235070	-481.226	-0.000237	NaN
420	1.000000	0.968772	7.36917e+06	-56089.1	1005.82	-29740	0.000000	0.000000	6.969133	0.046655	NaN	0.000000	0.001703	0.001664	28.0786	0.045740	0.002028	22.5575	109.028	15.7318	-0.017711	0.967442	-0.188347	-0.189677	0.046655	22.5575	-0.189898	-89.6037	-0.000521	NaN
420	1.000000	1.010776	7.36917e+06	-56089.1	1005.82	-29740	0.000000	0.000000	7.011136	0.009289	NaN	0.000000	0.001719	0.001638	28.0799	0.018969	0.001919	9.885927	163.507	-163.449	0.020872	1.009468	-0.146343	-0.147650	0.009289	9.885927	-0.147047	-15.993	-0.000581	NaN
420	1.000000	1.052778	7.36917e+06	-56089.1	1005.82	-29740	0.000000	0.000000	7.053140	0.052951	NaN	0.000000	0.001680	0.001673	28.0799	0.079200	0.001957	40.4646	-130.855	14.0906	0.101596	1.051435	-0.104341	-0.105683	0.052951	40.4646	-0.105322	-2.388490	-0.022169	NaN
420	1.000000	1.094794	7.36917e+06	-56089.1	1005.82	-29740	0.000000	0.000000	7.095156	0.065461	NaN	0.000000	0.001718	0.001691	28.0801	0.056008	0.001946	28.7758	-41.6966	-166.316	0.089210	1.093462	-0.062324	-0.063657	0.065461	28.7758	-0.064030	-0.234200	-0.279508	NaN
420	1.000000	1.136843	7.36917e+06	-56089.1	1005.82	-29740	0.000000	0.000000	7.137224	0.527974	NaN	0.000000	0.001719	0.001691	28.0792	0.272601	0.001843	147.88	19.161	14.8668	0.482467	1.135462	-0.020276	-0.021657	0.527974	147.88	-0.022953	-0.014935	-35.3507	NaN
420	2.000000	1.169428	7.36917e+06	-56089.1	1005.82	-29740	0.000000	0.000000	7.170198	9.994172	NaN	0.000000	0.001735	0.001651	28.0792	11.7661	0.001801	6531.56	11.5786	-177.011	10.2749	1.169120	0.012309	0.012001	9.994172	6531.56	0.011161	0.010501	951.731	58233.7
420	2.000000	1.179856	7.36917e+06	-56089.1	1005.82	-29740	0.000000	0.000000	7.181162	23.008	NaN	0.000000	0.001719	0.001601	28.0803	22.2531	0.001837	12111.6	4.749613	5.071353	21.7945	1.179503	0.022737	0.022385	23.008	12111.6	0.021312	0.024647	933.516	70484.8
420	2.000000	1.190303	7.36917e+06	-56089.1	1005.82	-29740	0.000000	0.000000	7.192677	48.9612	NaN	0.000000	0.001709	0.001653	28.0807	32.5013	0.001795	18108	4.398529	-179.057	46.1968	1.189995	0.033185	0.032876	48.9612	18108	0.031157	0.043176	1134	79620.4
420	2.000000	1.200835	7.36917e+06	-56089.1	1005.82	-29740	0.000000	0.000000	7.204320	75.9729	NaN	0.000000	0.001704	0.001630	28.0802	42.6109	0.001808	23567.5	5.618870	-2.613181	77.1768	1.200470	0.043717	0.043351	75.9729	23567.5	0.041299	0.067429	1126.71	82920.9
420	2.000000	1.211341	7.36917e+06	-56089.1	1005.82	-29740	0.000000	0.000000	7.216598	119.054	NaN	0.000000	0.001708	0.001645	28.0802	54.7827	0.001948	28118.1	10.6786	171.211	119.425	1.210977	0.054223	0.053858	119.054	28118.1	0.051047	0.095677	1244.33	83053
420	2.000000	1.221820	7.36917e+06	-56089.1	1005.82	-29740	0.000000	0.000000	7.229054	167.109	NaN	0.000000	0.001605	0.001624	28.08	65.0894	0.001788	36397.8	4.799133	-6.076675	166.888	1.221537	0.064702	0.064418	167.109	36397.8	0.061258	0.130359	1281.92	92103.8
420	2.000000	1.232223	7.36917e+06	-56089.1	1005.82	-29740	0.000000	0.000000	7.241620	219.668	NaN	0.000000	0.001631	0.001654	28.0787	73.713	0.001726	42703.3	3.287185	174.936	215.068	1.231954	0.075105	0.074835	219.668	42703.3	0.071247	0.169197	1298.3	94850.2
420	2.000000	1.242614	7.36917e+06	-56089.1	1005.82	-29740	0.000000	0.000000	7.254468	279.401	NaN	0.000000	0.001577	0.001631	28.0786	82.4945	0.001713	48162.9	3.424597	-6.100975	270.94	1.242330	0.085495	0.085211	279.401	48162.9	0.081145	0.212354	1315.73	95489.5
420	2.000000	1.253304	7.36917e+06	-56089.1	1005.82	-29740	0.000000	0.000000	7.267437	334.819	NaN	0.000000	0.001666	0.001634	28.0787	93.4655	0.001853	50437.3	6.463354	170.523	339.217	1.252886	0.096185	0.095767	334.819	50437.3	0.091206	0.260895	1283.35	90217.7
420	2.000000	1.263695	7.36917e+06	-56089.1	1005.82	-29740	0.000000	0.000000	7.281674	428.276	NaN	0.000000	0.001665	0.001610	28.0801	102.516	0.001834	55889.7	5.015887	-8.493175	423.121	1.263294	0.106577	0.106176	428.276	55889.7	0.100829	0.311660	1374.17	91466.9
420	2.000000	1.264842	7.36917e+06	-56089.1	1005.82	-29740	0.000000	0.000000	7.282877	429.63	NaN	0.000000	0.001678	0.001623	28.0801	104.744	0.001849	56641.8	6.465374	-9.807733	432.391	1.264352	0.107724	0.107233	429.63	56641.8	0.102035	0.318318	1349.69	91723.3