File: remote_trans/data/nanoindenter/0828-1/data/Data_2025-08-06,11h17m57s/2025-07-22_16-23-58_1_1159.txt
2025-07-22, 16:23:58, 1
Index	Phase	Displacement	Time	Pos X	Pos Y	Pos Z	Rot A	Rot B	Piezo Z	Force A	Force B	Gripper	Voltage A	Voltage B	Temperature	Amplitude force	Amplitude pos	Stiffness	Phase shift	Phase excitation	Force A raw	Displacement raw	HMax	HMax raw	Real Force	Real Stiffness	Contact Depth	Area	Hardness	Reduced Mod.
[#]	[#]	[um]	[s]	[um]	[um]	[um]	[m°]	[m°]	[um]	[uN]	[uN]	[V]	[V]	[V]	[°C]	[uN]	[um]	[N/m]	[°]	[°]	[uN]	[um]	[um]	[um]	[uN]	[N/m]	[um]	[um^2]	[MPa]	[MPa]
1159	1.000000	0.003147	7.37639e+06	-57639.1	1105.82	-29736.6	0.000000	0.000000	6.002802	-0.028444	NaN	0.000000	0.001653	0.001670	28.0819	0.111792	0.000951	117.556	22.3238	-160.763	-0.050888	0.001911	-1.007202	-1.008438	-0.028444	117.556	-1.007021	-2.820218E+13	1.008561E-15	NaN
1159	1.000000	0.043059	7.37639e+06	-57639.1	1105.82	-29736.6	0.000000	0.000000	6.042714	-0.032546	NaN	0.000000	0.001656	0.001647	28.0822	0.134952	0.002066	65.316	-25.6299	-163.254	-0.002368	0.041769	-0.967290	-0.968580	-0.032546	65.316	-0.966917	-8.130304E+12	4.003093E-15	NaN
1159	1.000000	0.083109	7.37639e+06	-57639.1	1105.82	-29736.6	0.000000	0.000000	6.082765	-0.039697	NaN	0.000000	0.001615	0.001638	28.0818	0.110199	0.002095	52.5909	-116.515	-165.298	-0.031495	0.081796	-0.927240	-0.928553	-0.039697	52.5909	-0.926674	-2.329694E+12	1.703979E-14	NaN
1159	1.000000	0.123112	7.37639e+06	-57639.1	1105.82	-29736.6	0.000000	0.000000	6.122768	-0.005344	NaN	0.000000	0.001618	0.001682	28.0805	0.089050	0.001884	47.2759	59.0078	-166.559	-0.056442	0.121829	-0.887238	-0.888521	-0.005344	47.2759	-0.887153	-6.814353E+11	7.842118E-15	NaN
1159	1.000000	0.163140	7.37639e+06	-57639.1	1105.82	-29736.6	0.000000	0.000000	6.162796	-0.021811	NaN	0.000000	0.001645	0.001685	28.0806	0.058442	0.001834	31.8622	76.3211	-165.723	0.011850	0.161816	-0.847209	-0.848533	-0.021811	31.8622	-0.846696	-1.931938E+11	1.128994E-13	NaN
1159	1.000000	0.203145	7.37639e+06	-57639.1	1105.82	-29736.6	0.000000	0.000000	6.202801	-0.002606	NaN	0.000000	0.001636	0.001675	28.0806	0.090017	0.002035	44.2238	-75.4697	-167.198	0.010357	0.201856	-0.807204	-0.808493	-0.002606	44.2238	-0.807160	-5.623930E+10	4.633876E-14	NaN
1159	1.000000	0.243198	7.37639e+06	-57639.1	1105.82	-29736.6	0.000000	0.000000	6.242856	0.038131	NaN	0.000000	0.001659	0.001662	28.0805	0.072517	0.001871	38.7483	-99.598	-165.048	-0.001000	0.241820	-0.767151	-0.768529	0.038131	38.7483	-0.767889	-1.646671E+10	-2.315615E-12	NaN
1159	1.000000	0.283188	7.37639e+06	-57639.1	1105.82	-29736.6	0.000000	0.000000	6.282842	-0.072918	NaN	0.000000	0.001658	0.001647	28.0816	0.073580	0.002006	36.6715	-122.928	-167.286	-0.042677	0.281868	-0.727161	-0.728481	-0.072918	36.6715	-0.725670	-4.383141E+9	1.663597E-11	NaN
1159	1.000000	0.323203	7.37639e+06	-57639.1	1105.82	-29736.6	0.000000	0.000000	6.322861	0.030375	NaN	0.000000	0.001626	0.001705	28.0815	0.057918	0.002120	27.3231	-125.179	-164.652	0.054833	0.321859	-0.687147	-0.688490	0.030375	27.3231	-0.687980	-1.340647E+9	-2.265664E-11	NaN
1159	1.000000	0.363208	7.37639e+06	-57639.1	1105.82	-29736.6	0.000000	0.000000	6.362863	-0.058978	NaN	0.000000	0.001680	0.001686	28.0815	0.049061	0.002014	24.363	-132.854	-163.382	-0.028484	0.361911	-0.647141	-0.648438	-0.058978	24.363	-0.645325	-3.494127E+8	1.687915E-10	NaN
1159	1.000000	0.403237	7.37639e+06	-57639.1	1105.82	-29736.6	0.000000	0.000000	6.402895	0.042105	NaN	0.000000	0.001664	0.001688	28.0802	0.128566	0.002033	63.2251	109.987	-163.804	0.059992	0.401959	-0.607112	-0.608390	0.042105	63.2251	-0.607612	-1.059866E+8	-3.972699E-10	NaN
1159	1.000000	0.443237	7.37639e+06	-57639.1	1105.82	-29736.6	0.000000	0.000000	6.442894	-0.002723	NaN	0.000000	0.001634	0.001681	28.0801	0.031513	0.001899	16.5989	150.309	-163.711	0.039025	0.441905	-0.567112	-0.568444	-0.002723	16.5989	-0.566989	-2.917558E+7	9.334322E-11	NaN
1159	1.000000	0.483258	7.37639e+06	-57639.1	1105.82	-29736.6	0.000000	0.000000	6.482912	-0.053422	NaN	0.000000	0.001698	0.001690	28.0801	0.112588	0.001964	57.3345	35.7978	-167.796	-0.025313	0.481959	-0.527091	-0.528390	-0.053422	57.3345	-0.526392	-7.98839e+06	6.687486E-9	NaN
1159	1.000000	0.523296	7.37639e+06	-57639.1	1105.82	-29736.6	0.000000	0.000000	6.522953	0.010410	NaN	0.000000	0.001730	0.001639	28.0803	0.094957	0.001951	48.6611	-44.2276	-167.631	0.009674	0.521956	-0.487053	-0.488393	0.010410	48.6611	-0.487214	-2.27221e+06	-4.581529E-9	NaN
1159	1.000000	0.563313	7.37639e+06	-57639.1	1105.82	-29736.6	0.000000	0.000000	6.562970	-0.000233	NaN	0.000000	0.001756	0.001708	28.0816	0.081931	0.001925	42.5665	78.3334	-166.645	-0.011678	0.562041	-0.447036	-0.448308	-0.000233	42.5665	-0.447032	-620199	3.752050E-10	NaN
1159	1.000000	0.603323	7.37639e+06	-57639.1	1105.82	-29736.6	0.000000	0.000000	6.602979	-0.022994	NaN	0.000000	0.001729	0.001662	28.0816	0.030893	0.001999	15.4531	-89.9365	-163.251	0.031385	0.602004	-0.407026	-0.408345	-0.022994	15.4531	-0.405910	-162259	1.417121E-7	NaN
1159	1.000000	0.643360	7.37639e+06	-57639.1	1105.82	-29736.6	0.000000	0.000000	6.643016	-0.017919	NaN	0.000000	0.001706	0.001610	28.0817	0.071777	0.001948	36.8377	178.715	-165.634	-0.048875	0.642003	-0.366989	-0.368346	-0.017919	36.8377	-0.366624	-44410.2	4.034860E-7	NaN
1159	1.000000	0.683384	7.37639e+06	-57639.1	1105.82	-29736.6	0.000000	0.000000	6.683041	-0.012817	NaN	0.000000	0.001628	0.001653	28.0805	0.084660	0.002017	41.9751	29.918	-163.43	-0.026568	0.682041	-0.326965	-0.328308	-0.012817	41.9751	-0.326736	-11684.5	1.096909E-6	NaN
1159	1.000000	0.723358	7.37639e+06	-57639.1	1105.82	-29736.6	0.000000	0.000000	6.723013	-0.039438	NaN	0.000000	0.001614	0.001674	28.0807	0.067290	0.002035	33.0739	-123.941	-166.512	-0.034441	0.722085	-0.286991	-0.288264	-0.039438	33.0739	-0.286096	-2915.71	1.352611E-5	NaN
1159	1.000000	0.763412	7.37639e+06	-57639.1	1105.82	-29736.6	0.000000	0.000000	6.763067	-0.033616	NaN	0.000000	0.001582	0.001707	28.0806	0.049602	0.001995	24.8572	49.6504	-169.264	-0.127473	0.762106	-0.246938	-0.248243	-0.033616	24.8572	-0.245923	-710.875	4.728759E-5	NaN
1159	1.000000	0.803403	7.37639e+06	-57639.1	1105.82	-29736.6	0.000000	0.000000	6.803062	0.053724	NaN	0.000000	0.001649	0.001673	28.0812	0.113542	0.001897	59.8434	-151.545	-167.499	0.041825	0.802034	-0.206946	-0.208315	0.053724	59.8434	-0.207619	-175.467	-0.000306	NaN
1159	1.000000	0.843425	7.37639e+06	-57639.1	1105.82	-29736.6	0.000000	0.000000	6.843081	-0.031367	NaN	0.000000	0.001636	0.001677	28.0815	0.041122	0.002141	19.2114	-5.274343	-166.036	-0.041663	0.842129	-0.166924	-0.168220	-0.031367	19.2114	-0.165699	-34.5602	0.000908	NaN
1159	1.000000	0.883464	7.37639e+06	-57639.1	1105.82	-29736.6	0.000000	0.000000	6.883120	-0.022667	NaN	0.000000	0.001649	0.001649	28.0817	0.019389	0.001855	10.4504	-162.561	-167.3	0.026190	0.882143	-0.126885	-0.128206	-0.022667	10.4504	-0.125258	-6.153106	0.003684	NaN
1159	1.000000	0.923461	7.37639e+06	-57639.1	1105.82	-29736.6	0.000000	0.000000	6.923116	-0.043140	NaN	0.000000	0.001658	0.001696	28.0818	0.134696	0.001946	69.2166	139.958	-170.933	-0.026063	0.922193	-0.086888	-0.088156	-0.043140	69.2166	-0.086420	-0.889002	0.048527	NaN
1159	1.000000	0.963475	7.37639e+06	-57639.1	1105.82	-29736.6	0.000000	0.000000	6.963135	0.098186	NaN	0.000000	0.001645	0.001761	28.0804	0.083782	0.001990	42.105	-130.218	-163.535	0.052718	0.962175	-0.046874	-0.048174	0.098186	42.105	-0.048623	-0.082891	-1.184518	NaN
1159	1.000000	1.003462	7.37639e+06	-57639.1	1105.82	-29736.6	0.000000	0.000000	7.003118	-0.024502	NaN	0.000000	0.001570	0.001682	28.0805	0.132830	0.002014	65.9687	106.57	-167.4	-0.032843	1.002206	-0.006887	-0.008143	-0.024502	65.9687	-0.006609	-0.004406	5.561651	NaN
1159	2.000000	1.027044	7.37639e+06	-57639.1	1105.82	-29736.6	0.000000	0.000000	7.027328	15.2584	NaN	0.000000	0.001723	0.001664	28.0805	14.1918	0.001825	7774.47	9.214109	-177.766	14.7842	1.026792	0.016695	0.016443	15.2584	7774.47	0.015223	0.015584	979.131	56899.8
1159	2.000000	1.037038	7.37639e+06	-57639.1	1105.82	-29736.6	0.000000	0.000000	7.038067	33.3501	NaN	0.000000	0.001692	0.001667	28.0823	23.6213	0.001960	12054.6	5.008876	-174.797	34.2058	1.036665	0.026689	0.026316	33.3501	12054.6	0.024614	0.030317	1100.06	63253.7
1159	2.000000	1.046939	7.37639e+06	-57639.1	1105.82	-29736.6	0.000000	0.000000	7.049139	61.802	NaN	0.000000	0.001654	0.001674	28.082	33.5797	0.001777	18893	3.345016	-178.643	59.2579	1.046676	0.036590	0.036327	61.802	18893	0.034137	0.049755	1242.14	77385
1159	2.000000	1.056983	7.37639e+06	-57639.1	1105.82	-29736.6	0.000000	0.000000	7.060547	94.9487	NaN	0.000000	0.001631	0.001694	28.0818	43.6717	0.001963	22248.8	5.553768	178.084	93.9836	1.056648	0.046634	0.046298	94.9487	22248.8	0.043433	0.073202	1297.08	75131
1159	2.000000	1.066942	7.37639e+06	-57639.1	1105.82	-29736.6	0.000000	0.000000	7.072391	140.775	NaN	0.000000	0.001627	0.001687	28.082	52.5939	0.001854	28368	1.671779	-179.761	138.629	1.066656	0.056593	0.056307	140.775	28368	0.052871	0.101493	1387.05	81355.1
1159	2.000000	1.076934	7.37639e+06	-57639.1	1105.82	-29736.6	0.000000	0.000000	7.084046	181.196	NaN	0.000000	0.001640	0.001639	28.08	62.2937	0.001802	34571.8	6.360246	172.473	179.647	1.076768	0.066585	0.066419	181.196	34571.8	0.062654	0.135496	1337.28	85808.8
1159	2.000000	1.086893	7.37639e+06	-57639.1	1105.82	-29736.6	0.000000	0.000000	7.096690	246.434	NaN	0.000000	0.001637	0.001715	28.0805	70.9156	0.001666	42573.6	-1.655123	180	243.163	1.086602	0.076544	0.076253	246.434	42573.6	0.072203	0.173165	1423.12	93472.4
1159	2.000000	1.096908	7.37639e+06	-57639.1	1105.82	-29736.6	0.000000	0.000000	7.109391	311.745	NaN	0.000000	0.001601	0.001702	28.0806	80.8018	0.001777	45461	2.457663	174.719	311.511	1.096668	0.086559	0.086319	311.745	45461	0.081416	0.213600	1459.48	89869.3
1159	2.000000	1.106832	7.37639e+06	-57639.1	1105.82	-29736.6	0.000000	0.000000	7.122527	389.788	NaN	0.000000	0.001650	0.001692	28.0817	90.6747	0.001903	47636.3	7.289958	170.002	386.872	1.106566	0.096483	0.096217	389.788	47636.3	0.090346	0.256564	1519.26	85923.7
1159	2.000000	1.116907	7.37639e+06	-57639.1	1105.82	-29736.6	0.000000	0.000000	7.135571	461.95	NaN	0.000000	0.001628	0.001713	28.0819	99.6366	0.001735	57414.8	6.001052	170.131	463.266	1.116717	0.106558	0.106367	461.95	57414.8	0.100523	0.309981	1490.25	94217
1159	2.000000	1.119910	7.37639e+06	-57639.1	1105.82	-29736.6	0.000000	0.000000	7.139580	486.395	NaN	0.000000	0.001626	0.001706	28.0818	103.942	0.001862	55836.2	5.542178	170.682	485.922	1.119580	0.109561	0.109231	486.395	55836.2	0.103028	0.323850	1501.92	89643.2