File: remote_trans/data/nanoindenter/0828-1/data/Data_2025-08-06,11h17m57s/2025-07-22_16-23-58_1_569.txt
2025-07-22, 16:23:58, 1
Index	Phase	Displacement	Time	Pos X	Pos Y	Pos Z	Rot A	Rot B	Piezo Z	Force A	Force B	Gripper	Voltage A	Voltage B	Temperature	Amplitude force	Amplitude pos	Stiffness	Phase shift	Phase excitation	Force A raw	Displacement raw	HMax	HMax raw	Real Force	Real Stiffness	Contact Depth	Area	Hardness	Reduced Mod.
[#]	[#]	[um]	[s]	[um]	[um]	[um]	[m°]	[m°]	[um]	[uN]	[uN]	[V]	[V]	[V]	[°C]	[uN]	[um]	[N/m]	[°]	[°]	[uN]	[um]	[um]	[um]	[uN]	[N/m]	[um]	[um^2]	[MPa]	[MPa]
569	1.000000	0.001924	7.37061e+06	-48639.1	1005.82	-29761.6	0.000000	0.000000	6.002729	-0.018010	NaN	0.000000	0.001552	0.001837	28.0841	0.074123	0.000990	74.838	-94.239	176.003	-0.035944	0.000690	-1.159213	-1.160447	-0.018010	74.838	-1.159032	-3.103833E+15	5.802390E-18	NaN
569	1.000000	0.045904	7.37061e+06	-48639.1	1005.82	-29761.6	0.000000	0.000000	6.046711	0.033634	NaN	0.000000	0.001596	0.001781	28.0839	0.020388	0.002052	9.936159	131.185	175.66	0.119884	0.044556	-1.115233	-1.116581	0.033634	9.936159	-1.117772	-8.681141E+14	-3.874329E-17	NaN
569	1.000000	0.089908	7.37061e+06	-48639.1	1005.82	-29761.6	0.000000	0.000000	6.090710	-0.071951	NaN	0.000000	0.001593	0.001794	28.0827	0.096801	0.001977	48.9755	118.099	178.212	-0.025162	0.088541	-1.071229	-1.072596	-0.071951	48.9755	-1.070128	-1.990226E+14	3.615241E-16	NaN
569	1.000000	0.133920	7.37061e+06	-48639.1	1005.82	-29761.6	0.000000	0.000000	6.134725	-0.003456	NaN	0.000000	0.001609	0.001845	28.0823	0.047325	0.001898	24.9396	23.4565	178.711	0.033966	0.132621	-1.027217	-1.028516	-0.003456	24.9396	-1.027113	-5.255944E+13	6.575735E-17	NaN
569	1.000000	0.177916	7.37061e+06	-48639.1	1005.82	-29761.6	0.000000	0.000000	6.178722	0.028805	NaN	0.000000	0.001552	0.001832	28.0824	0.068235	0.002019	33.7981	179.483	177.571	-0.036459	0.176576	-0.983221	-0.984561	0.028805	33.7981	-0.983861	-1.375368E+13	-2.094351E-15	NaN
569	1.000000	0.221942	7.37061e+06	-48639.1	1005.82	-29761.6	0.000000	0.000000	6.222749	0.033255	NaN	0.000000	0.001504	0.001838	28.0833	0.053699	0.001904	28.1966	63.8966	177.409	0.076573	0.220588	-0.939195	-0.940549	0.033255	28.1966	-0.940079	-3.533508E+12	-9.411211E-15	NaN
569	1.000000	0.265932	7.37061e+06	-48639.1	1005.82	-29761.6	0.000000	0.000000	6.266741	0.080357	NaN	0.000000	0.001543	0.001838	28.0834	0.017101	0.002006	8.525728	129.097	178.837	0.052380	0.264664	-0.895205	-0.896473	0.080357	8.525728	-0.902274	-1.090911E+12	-7.366046E-14	NaN
569	1.000000	0.309960	7.37061e+06	-48639.1	1005.82	-29761.6	0.000000	0.000000	6.310766	0.011235	NaN	0.000000	0.001553	0.001817	28.0834	0.159244	0.001951	81.6106	49.5177	175.587	0.055031	0.308676	-0.851177	-0.852461	0.011235	81.6106	-0.851280	-2.228794E+11	-5.040810E-14	NaN
569	1.000000	0.353990	7.37061e+06	-48639.1	1005.82	-29761.6	0.000000	0.000000	6.354795	-0.010647	NaN	0.000000	0.001530	0.001770	28.082	0.117971	0.002025	58.2648	60.6889	176.352	-0.011201	0.352622	-0.807147	-0.808515	-0.010647	58.2648	-0.807010	-5.597554E+10	1.902054E-13	NaN
569	1.000000	0.398023	7.37061e+06	-48639.1	1005.82	-29761.6	0.000000	0.000000	6.398828	-0.021150	NaN	0.000000	0.001552	0.001790	28.0822	0.029376	0.002100	13.9888	-76.8611	178.27	-0.071712	0.396706	-0.763114	-0.764431	-0.021150	13.9888	-0.761980	-1.368472E+10	1.545511E-12	NaN
569	1.000000	0.442050	7.37061e+06	-48639.1	1005.82	-29761.6	0.000000	0.000000	6.442855	-0.019634	NaN	0.000000	0.001544	0.001780	28.0818	0.039283	0.001933	20.3218	73.9596	173.278	-0.024196	0.440719	-0.719087	-0.720418	-0.019634	20.3218	-0.718362	-3.484430E+9	5.634765E-12	NaN
569	1.000000	0.486067	7.37061e+06	-48639.1	1005.82	-29761.6	0.000000	0.000000	6.486873	0.009678	NaN	0.000000	0.001560	0.001778	28.0833	0.128352	0.002050	62.6009	174.401	176.72	0.023568	0.484746	-0.675070	-0.676391	0.009678	62.6009	-0.675186	-8.960953E+8	-1.080063E-11	NaN
569	1.000000	0.530094	7.37062e+06	-48639.1	1005.82	-29761.6	0.000000	0.000000	6.530899	-0.006923	NaN	0.000000	0.001563	0.001838	28.0838	0.066280	0.002046	32.4006	-54.1434	177.494	0.040405	0.528734	-0.631043	-0.632403	-0.006923	32.4006	-0.630883	-2.213868E+8	3.127062E-11	NaN
569	1.000000	0.574109	7.37062e+06	-48639.1	1005.82	-29761.6	0.000000	0.000000	6.574916	0.036603	NaN	0.000000	0.001550	0.001823	28.0837	0.041151	0.002045	20.1212	8.940060	178.809	0.031686	0.572818	-0.587028	-0.588319	0.036603	20.1212	-0.588392	-5.760998E+7	-6.353599E-10	NaN
569	1.000000	0.618108	7.37062e+06	-48639.1	1005.82	-29761.6	0.000000	0.000000	6.618917	0.087422	NaN	0.000000	0.001629	0.001800	28.0823	0.021013	0.002111	9.952319	109.438	175.84	0.028882	0.616783	-0.543029	-0.544354	0.087422	9.952319	-0.549617	-1.677444E+7	-5.211615E-9	NaN
569	1.000000	0.662124	7.37062e+06	-48639.1	1005.82	-29761.6	0.000000	0.000000	6.662930	0.011451	NaN	0.000000	0.001537	0.001827	28.0827	0.046622	0.002011	23.1794	-102.028	176.333	0.093998	0.660819	-0.499013	-0.500318	0.011451	23.1794	-0.499383	-3.36055e+06	-3.407600E-9	NaN
569	1.000000	0.706141	7.37062e+06	-48639.1	1005.82	-29761.6	0.000000	0.000000	6.706946	-0.011703	NaN	0.000000	0.001524	0.001793	28.0822	0.095207	0.001962	48.5246	-139.963	177.292	-0.048162	0.704832	-0.454996	-0.456305	-0.011703	48.5246	-0.454815	-798199	1.466208E-8	NaN
569	1.000000	0.750167	7.37062e+06	-48639.1	1005.82	-29761.6	0.000000	0.000000	6.750976	0.088270	NaN	0.000000	0.001586	0.001840	28.0834	0.072604	0.001886	38.4925	32.4454	-179.805	0.035757	0.748867	-0.410970	-0.412270	0.088270	38.4925	-0.412689	-202597	-4.356933E-7	NaN
569	1.000000	0.794197	7.37062e+06	-48639.1	1005.82	-29761.6	0.000000	0.000000	6.795003	0.001735	NaN	0.000000	0.001534	0.001796	28.0831	0.056985	0.002012	28.3246	25.0987	176.944	-0.004353	0.792795	-0.366940	-0.368342	0.001735	28.3246	-0.366986	-44946.1	-3.859201E-8	NaN
569	1.000000	0.838210	7.37062e+06	-48639.1	1005.82	-29761.6	0.000000	0.000000	6.839014	-0.026835	NaN	0.000000	0.001547	0.001826	28.0835	0.086020	0.002065	41.6645	98.4647	173.979	-0.009877	0.836878	-0.322927	-0.324259	-0.026835	41.6645	-0.322444	-10106.3	2.655273E-6	NaN
569	1.000000	0.882214	7.37062e+06	-48639.1	1005.82	-29761.6	0.000000	0.000000	6.883020	0.015780	NaN	0.000000	0.001555	0.001838	28.0819	0.065059	0.002001	32.5076	97.216	175.909	0.009442	0.880914	-0.278923	-0.280223	0.015780	32.5076	-0.279287	-2302.55	-6.853376E-6	NaN
569	1.000000	0.926249	7.37062e+06	-48639.1	1005.82	-29761.6	0.000000	0.000000	6.927056	0.033063	NaN	0.000000	0.001567	0.001822	28.0821	0.062591	0.001752	35.7278	-119.669	174.8	0.052792	0.924916	-0.234888	-0.236221	0.033063	35.7278	-0.235582	-490.206	-6.744790E-5	NaN
569	1.000000	0.970273	7.37062e+06	-48639.1	1005.82	-29761.6	0.000000	0.000000	6.971079	0.009152	NaN	0.000000	0.001534	0.001819	28.0821	0.108857	0.002096	51.9327	144.219	176.748	-0.005681	0.968921	-0.190864	-0.192216	0.009152	51.9327	-0.190996	-93.465	-9.792386E-5	NaN
569	1.000000	1.014323	7.37062e+06	-48639.1	1005.82	-29761.6	0.000000	0.000000	7.015127	-0.036678	NaN	0.000000	0.001588	0.001852	28.0838	0.118576	0.002084	56.8988	-116	176.598	0.055654	1.012953	-0.146814	-0.148184	-0.036678	56.8988	-0.146331	-15.5144	0.002364	NaN
569	1.000000	1.058276	7.37062e+06	-48639.1	1005.82	-29761.6	0.000000	0.000000	7.059080	-0.037570	NaN	0.000000	0.001548	0.001811	28.0835	0.071616	0.002062	34.7309	-162.45	179.088	-0.129905	1.056963	-0.102861	-0.104174	-0.037570	34.7309	-0.102049	-2.027472	0.018530	NaN
569	1.000000	1.102286	7.37062e+06	-48639.1	1005.82	-29761.6	0.000000	0.000000	7.103089	-0.060062	NaN	0.000000	0.001479	0.001811	28.0835	0.049045	0.001976	24.8152	123.63	176.518	-0.036129	1.101005	-0.058851	-0.060132	-0.060062	24.8152	-0.057036	-0.147796	0.406385	NaN
569	1.000000	1.146295	7.37062e+06	-48639.1	1005.82	-29761.7	0.000000	0.000000	7.147098	-0.062208	NaN	0.000000	0.001541	0.001797	28.0821	0.036375	0.001844	19.7289	-111.084	178.074	-0.138472	1.144981	-0.014842	-0.016156	-0.062208	19.7289	-0.012477	-0.007801	7.973864	NaN
569	2.000000	1.172941	7.37062e+06	-48639.1	1005.82	-29761.7	0.000000	0.000000	7.174679	22.6672	NaN	0.000000	0.001571	0.001809	28.0824	16.1938	0.001744	9285.48	2.725556	170.094	21.6394	1.172627	0.011804	0.011490	22.6672	9285.48	0.009974	0.009152	2476.7	88677.9
569	2.000000	1.183881	7.37062e+06	-48639.1	1005.82	-29761.7	0.000000	0.000000	7.186961	55.3052	NaN	0.000000	0.001580	0.001820	28.0824	28.8344	0.001878	15357.4	7.736655	161.666	55.117	1.183540	0.022744	0.022403	55.3052	15357.4	0.020043	0.022610	2446.01	93312.1
569	2.000000	1.194854	7.37062e+06	-48639.1	1005.82	-29761.7	0.000000	0.000000	7.199901	103.164	NaN	0.000000	0.001529	0.001806	28.0825	40.5268	0.001690	23980.9	6.013467	159.107	101.615	1.194497	0.033717	0.033360	103.164	23980.9	0.030490	0.041766	2470.06	107208
569	2.000000	1.205821	7.37062e+06	-48639.1	1005.82	-29761.7	0.000000	0.000000	7.213506	167.32	NaN	0.000000	0.001517	0.001804	28.0834	53.5293	0.001801	29726.2	4.323850	158.665	165.321	1.205573	0.044684	0.044436	167.32	29726.2	0.040462	0.065229	2565.13	106339
569	2.000000	1.216791	7.37062e+06	-48639.1	1005.82	-29761.7	0.000000	0.000000	7.227884	250.216	NaN	0.000000	0.001547	0.001788	28.0834	64.3132	0.001825	35243.5	2.877438	159.567	245.708	1.216508	0.055654	0.055371	250.216	35243.5	0.050329	0.093434	2677.99	105341
569	2.000000	1.227699	7.37062e+06	-48639.1	1005.82	-29761.7	0.000000	0.000000	7.242296	335.423	NaN	0.000000	0.001518	0.001749	28.0836	75.388	0.001760	42835.1	5.116597	155.294	327.837	1.227466	0.066562	0.066329	335.423	42835.1	0.060689	0.128292	2614.53	109263
569	2.000000	1.238824	7.37062e+06	-48639.1	1005.82	-29761.7	0.000000	0.000000	7.258111	449.488	NaN	0.000000	0.001518	0.001791	28.0823	88.0959	0.001702	51770.9	5.886421	152.89	449.362	1.238453	0.077687	0.077316	449.488	51770.9	0.071175	0.168902	2661.23	115091
569	2.000000	1.249680	7.37062e+06	-48639.1	1005.82	-29761.7	0.000000	0.000000	7.273449	558.5	NaN	0.000000	0.001574	0.001758	28.082	98.7375	0.001914	51584.2	2.167379	157.064	552.952	1.249398	0.088543	0.088261	558.5	51584.2	0.080423	0.209052	2671.58	103077
569	2.000000	1.260707	7.37062e+06	-48639.1	1005.82	-29761.7	0.000000	0.000000	7.288707	661.408	NaN	0.000000	0.001557	0.001758	28.0822	108.152	0.001834	58969.2	5.986852	152.148	656.931	1.260368	0.099571	0.099231	661.408	58969.2	0.091158	0.260653	2537.51	105528
569	2.000000	1.265795	7.37062e+06	-48639.1	1005.82	-29761.7	0.000000	0.000000	7.296153	718.765	NaN	0.000000	0.001579	0.001792	28.0834	113.482	0.001872	60620.9	3.763439	154.229	717.834	1.265405	0.104658	0.104268	718.765	60620.9	0.095765	0.284420	2527.13	103852