File: remote_trans/data/nanoindenter/0828-1/data/Data_2025-08-06,11h17m57s/2025-07-22_16-23-58_1_796.txt
2025-07-22, 16:23:58, 1
Index	Phase	Displacement	Time	Pos X	Pos Y	Pos Z	Rot A	Rot B	Piezo Z	Force A	Force B	Gripper	Voltage A	Voltage B	Temperature	Amplitude force	Amplitude pos	Stiffness	Phase shift	Phase excitation	Force A raw	Displacement raw	HMax	HMax raw	Real Force	Real Stiffness	Contact Depth	Area	Hardness	Reduced Mod.
[#]	[#]	[um]	[s]	[um]	[um]	[um]	[m°]	[m°]	[um]	[uN]	[uN]	[V]	[V]	[V]	[°C]	[uN]	[um]	[N/m]	[°]	[°]	[uN]	[um]	[um]	[um]	[uN]	[N/m]	[um]	[um^2]	[MPa]	[MPa]
796	1.000000	0.002450	7.37284e+06	-39939.1	1055.82	-29792	0.000000	0.000000	6.002809	0.004901	NaN	0.000000	0.001582	0.001716	28.0831	0.040076	0.000926	43.2917	-167.493	-169.356	-0.058682	0.001189	-1.070476	-1.071737	0.004901	43.2917	-1.070561	-2.017099E+14	-2.429784E-17	NaN
796	1.000000	0.042374	7.37284e+06	-39939.1	1055.82	-29792	0.000000	0.000000	6.042733	-0.002041	NaN	0.000000	0.001590	0.001706	28.0834	0.051664	0.001975	26.1641	170.927	-166.31	0.040691	0.041057	-1.030552	-1.031869	-0.002041	26.1641	-1.030494	-5.836065E+13	3.496504E-17	NaN
796	1.000000	0.082393	7.37284e+06	-39939.1	1055.82	-29792	0.000000	0.000000	6.082749	-0.088157	NaN	0.000000	0.001569	0.001741	28.0818	0.143340	0.001930	74.285	-56.4368	-165.167	-0.115764	0.081122	-0.990533	-0.991804	-0.088157	74.285	-0.989643	-1.645521E+13	5.357387E-15	NaN
796	1.000000	0.122381	7.37284e+06	-39939.1	1055.82	-29792	0.000000	0.000000	6.122739	-0.028107	NaN	0.000000	0.001579	0.001727	28.0818	0.124683	0.001918	65.0077	-174.646	-169.134	-0.022922	0.121118	-0.950545	-0.951808	-0.028107	65.0077	-0.950221	-4.841792E+12	5.805014E-15	NaN
796	1.000000	0.162445	7.37284e+06	-39939.1	1055.82	-29792	0.000000	0.000000	6.162805	0.007335	NaN	0.000000	0.001631	0.001730	28.0815	0.052665	0.001970	26.7387	45.8063	-165.627	0.008022	0.161107	-0.910481	-0.911819	0.007335	26.7387	-0.910687	-1.417225E+12	-5.175309E-15	NaN
796	1.000000	0.202445	7.37284e+06	-39939.1	1055.82	-29792	0.000000	0.000000	6.202800	-0.098268	NaN	0.000000	0.001612	0.001694	28.0827	0.165684	0.002050	80.8063	-166.399	-165.302	-0.100292	0.201061	-0.870481	-0.871865	-0.098268	80.8063	-0.869569	-3.941051E+11	2.493438E-13	NaN
796	1.000000	0.242462	7.37284e+06	-39939.1	1055.82	-29792	0.000000	0.000000	6.242821	0.005740	NaN	0.000000	0.001573	0.001681	28.083	0.108473	0.002035	53.2979	-150.387	-164.184	0.069351	0.241129	-0.830464	-0.831797	0.005740	53.2979	-0.830545	-1.167273E+11	-4.917863E-14	NaN
796	1.000000	0.282479	7.37284e+06	-39939.1	1055.82	-29792	0.000000	0.000000	6.282837	-0.041865	NaN	0.000000	0.001592	0.001707	28.0828	0.082494	0.001976	41.7427	42.76	-163.338	-0.092444	0.281162	-0.790447	-0.791764	-0.041865	41.7427	-0.789695	-3.257880E+10	1.285043E-12	NaN
796	1.000000	0.322494	7.37284e+06	-39939.1	1055.82	-29792	0.000000	0.000000	6.322854	0.002355	NaN	0.000000	0.001579	0.001709	28.0828	0.127857	0.001873	68.2784	18.0929	-166.051	-0.101682	0.321188	-0.750432	-0.751738	0.002355	68.2784	-0.750457	-9.537769E+9	-2.469593E-13	NaN
796	1.000000	0.362484	7.37284e+06	-39939.1	1055.82	-29792	0.000000	0.000000	6.362847	0.081790	NaN	0.000000	0.001602	0.001731	28.0818	0.011929	0.001975	6.038842	-50.2243	-165.398	0.007489	0.361225	-0.710442	-0.711701	0.081790	6.038842	-0.720600	-3.738123E+9	-2.188007E-11	NaN
796	1.000000	0.402553	7.37284e+06	-39939.1	1055.82	-29792	0.000000	0.000000	6.402911	-0.027349	NaN	0.000000	0.001577	0.001727	28.0814	0.094902	0.002075	45.7381	-53.0829	-166.545	-0.020857	0.401267	-0.670373	-0.671659	-0.027349	45.7381	-0.669925	-7.592073E+8	3.602372E-11	NaN
796	1.000000	0.442565	7.37284e+06	-39939.1	1055.82	-29792	0.000000	0.000000	6.442922	-0.057201	NaN	0.000000	0.001588	0.001686	28.0813	0.037613	0.001890	19.8973	-153.251	-166.962	-0.138688	0.441277	-0.630361	-0.631649	-0.057201	19.8973	-0.628205	-2.034121E+8	2.812055E-10	NaN
796	1.000000	0.482550	7.37284e+06	-39939.1	1055.82	-29792	0.000000	0.000000	6.482909	-0.005396	NaN	0.000000	0.001581	0.001730	28.0826	0.009571	0.001902	5.032329	28.7886	-166.598	-0.023850	0.481233	-0.590376	-0.591693	-0.005396	5.032329	-0.589572	-5.980868E+7	9.021951E-11	NaN
796	1.000000	0.522584	7.37284e+06	-39939.1	1055.82	-29792	0.000000	0.000000	6.522942	-0.038245	NaN	0.000000	0.001602	0.001655	28.0824	0.087454	0.001929	45.3308	-173.115	-168.336	-0.044463	0.521245	-0.550342	-0.551681	-0.038245	45.3308	-0.549709	-1.682399E+7	2.273232E-9	NaN
796	1.000000	0.562608	7.37284e+06	-39939.1	1055.82	-29792	0.000000	0.000000	6.562967	0.008058	NaN	0.000000	0.001654	0.001714	28.0826	0.048487	0.001893	25.6115	-66.5098	-166.565	0.014934	0.561265	-0.510319	-0.511661	0.008058	25.6115	-0.510555	-4.80993e+06	-1.675207E-9	NaN
796	1.000000	0.602612	7.37284e+06	-39939.1	1055.82	-29792	0.000000	0.000000	6.602968	-0.068670	NaN	0.000000	0.001596	0.001665	28.083	0.071321	0.002038	35.0002	23.9676	-167.339	-0.102992	0.601306	-0.470314	-0.471620	-0.068670	35.0002	-0.468843	-1.25654e+06	5.465020E-8	NaN
796	1.000000	0.642637	7.37284e+06	-39939.1	1055.82	-29792	0.000000	0.000000	6.642995	-0.023885	NaN	0.000000	0.001607	0.001667	28.0819	0.057829	0.002049	28.2186	-174.421	-163.834	-0.041431	0.641294	-0.430289	-0.431632	-0.023885	28.2186	-0.429654	-352511	6.775746E-8	NaN
796	1.000000	0.682641	7.37284e+06	-39939.1	1055.82	-29792	0.000000	0.000000	6.683002	0.031434	NaN	0.000000	0.001600	0.001678	28.0817	0.167127	0.001997	83.6798	24.7926	-163.563	0.052726	0.681335	-0.390285	-0.391591	0.031434	83.6798	-0.390567	-98011.1	-3.207157E-7	NaN
796	1.000000	0.722674	7.37284e+06	-39939.1	1055.82	-29792	0.000000	0.000000	6.723030	-0.086525	NaN	0.000000	0.001599	0.001662	28.0819	0.113295	0.002019	56.1011	-87.9249	-166.917	-0.103223	0.721388	-0.350252	-0.351538	-0.086525	56.1011	-0.349095	-24766.4	3.493650E-6	NaN
796	1.000000	0.762697	7.37284e+06	-39939.1	1055.82	-29792	0.000000	0.000000	6.763052	-0.112173	NaN	0.000000	0.001596	0.001662	28.0829	0.060220	0.002234	26.9519	-8.856528	-163.079	-0.080830	0.761369	-0.310229	-0.311557	-0.112173	26.9519	-0.307108	-6000.91	1.869265E-5	NaN
796	1.000000	0.802684	7.37284e+06	-39939.1	1055.82	-29792	0.000000	0.000000	6.803041	-0.058958	NaN	0.000000	0.001640	0.001685	28.083	0.138912	0.002035	68.2509	9.064316	-164.548	-0.047017	0.801413	-0.270242	-0.271513	-0.058958	68.2509	-0.269594	-1642.02	3.590603E-5	NaN
796	1.000000	0.842747	7.37284e+06	-39939.1	1055.82	-29792	0.000000	0.000000	6.843103	-0.091306	NaN	0.000000	0.001622	0.001667	28.0832	0.076149	0.002039	37.3518	170.996	-168.594	-0.046035	0.841418	-0.230179	-0.231508	-0.091306	37.3518	-0.228345	-377.02	0.000242	NaN
796	1.000000	0.882734	7.37285e+06	-39939.1	1055.82	-29792	0.000000	0.000000	6.883093	-0.015554	NaN	0.000000	0.001614	0.001695	28.0824	0.088743	0.001909	46.4779	-146.774	-161.898	-0.021551	0.881363	-0.190192	-0.191563	-0.015554	46.4779	-0.189941	-89.7514	0.000173	NaN
796	1.000000	0.922736	7.37285e+06	-39939.1	1055.82	-29792	0.000000	0.000000	6.923094	-0.030493	NaN	0.000000	0.001622	0.001694	28.0821	0.093647	0.001989	47.0783	-171.956	-166.633	-0.036450	0.921456	-0.150190	-0.151470	-0.030493	47.0783	-0.149705	-17.8903	0.001704	NaN
796	1.000000	0.962776	7.37285e+06	-39939.1	1055.82	-29792	0.000000	0.000000	6.963132	-0.085434	NaN	0.000000	0.001671	0.001714	28.082	0.131054	0.002000	65.5408	146.628	-165.934	-0.050116	0.961579	-0.110150	-0.111347	-0.085434	65.5408	-0.109172	-2.886618	0.029597	NaN
796	1.000000	1.002794	7.37285e+06	-39939.1	1055.82	-29792	0.000000	0.000000	7.003155	0.029051	NaN	0.000000	0.001616	0.001712	28.0818	0.090845	0.001952	46.5313	125.588	-165.526	-0.070684	1.001499	-0.070132	-0.071427	0.029051	46.5313	-0.070600	-0.353940	-0.082078	NaN
796	1.000000	1.042810	7.37285e+06	-39939.1	1055.82	-29792	0.000000	0.000000	7.043165	-0.101364	NaN	0.000000	0.001635	0.001701	28.0831	0.102495	0.001892	54.1844	111.148	-164.813	-0.075341	1.041514	-0.030116	-0.031412	-0.101364	54.1844	-0.028713	-0.021204	4.780519	NaN
796	2.000000	1.079435	7.37285e+06	-39939.1	1055.82	-29792	0.000000	0.000000	7.080147	8.601717	NaN	0.000000	0.001597	0.001653	28.0829	8.321937	0.001772	4697.06	10.1447	-173.376	8.216510	1.079129	0.006509	0.006203	8.601717	4697.06	0.005135	0.004257	2020.6	65772.9
796	2.000000	1.089326	7.37285e+06	-39939.1	1055.82	-29792	0.000000	0.000000	7.090731	25.4277	NaN	0.000000	0.001638	0.001704	28.083	19.0239	0.001834	10374.2	8.413984	-178.184	24.9571	1.089024	0.016400	0.016098	25.4277	10374.2	0.014562	0.014706	1729.1	78159.7
796	2.000000	1.099308	7.37285e+06	-39939.1	1055.82	-29792	0.000000	0.000000	7.101559	46.0129	NaN	0.000000	0.001574	0.001647	28.0817	28.9218	0.001798	16082.4	2.487757	-177.009	44.9786	1.099088	0.026382	0.026162	46.0129	16082.4	0.024237	0.029641	1552.32	85344.1
796	2.000000	1.109250	7.37285e+06	-39939.1	1055.82	-29792	0.000000	0.000000	7.112914	80.4103	NaN	0.000000	0.001565	0.001679	28.0819	39.6937	0.001924	20630.5	9.057359	174.169	77.1548	1.108949	0.036324	0.036023	80.4103	20630.5	0.033401	0.048087	1672.17	85954.3
796	2.000000	1.119229	7.37285e+06	-39939.1	1055.82	-29792	0.000000	0.000000	7.124678	123.856	NaN	0.000000	0.001583	0.001689	28.0818	48.1728	0.001763	27330.2	5.336219	175.633	121.65	1.118891	0.046303	0.045965	123.856	27330.2	0.042904	0.071748	1726.25	93220.2
796	2.000000	1.129229	7.37285e+06	-39939.1	1055.82	-29792	0.000000	0.000000	7.136444	166.828	NaN	0.000000	0.001563	0.001638	28.0819	58.0758	0.001819	31925	3.605851	176.136	162.797	1.128961	0.056303	0.056035	166.828	31925	0.052383	0.099922	1669.57	92272.5
796	2.000000	1.139248	7.37285e+06	-39939.1	1055.82	-29792	0.000000	0.000000	7.148895	226.017	NaN	0.000000	0.001561	0.001665	28.083	67.5234	0.001741	38773.9	6.545302	171.493	226.761	1.139031	0.066322	0.066105	226.017	38773.9	0.061950	0.132894	1700.73	97176.2
796	2.000000	1.149164	7.37285e+06	-39939.1	1055.82	-29792	0.000000	0.000000	7.161318	287.015	NaN	0.000000	0.001601	0.001699	28.0831	77.8267	0.001866	41710.7	1.883299	176.397	282.263	1.148960	0.076238	0.076034	287.015	41710.7	0.071077	0.168495	1703.4	92838.2
796	2.000000	1.159383	7.37285e+06	-39939.1	1055.82	-29792	0.000000	0.000000	7.174068	348.612	NaN	0.000000	0.001552	0.001626	28.0829	86.7462	0.001779	48749.7	4.290278	172.712	357.25	1.159008	0.086457	0.086082	348.612	48749.7	0.081094	0.212121	1643.46	96706
796	2.000000	1.169181	7.37285e+06	-39939.1	1055.82	-29792	0.000000	0.000000	7.187467	436.227	NaN	0.000000	0.001578	0.001676	28.0818	96.8158	0.001855	52192.7	3.114823	173.222	435.48	1.169055	0.096255	0.096129	436.227	52192.7	0.089987	0.254763	1712.29	94474.6
796	2.000000	1.176711	7.37285e+06	-39939.1	1055.82	-29792	0.000000	0.000000	7.197633	500.377	NaN	0.000000	0.001595	0.001671	28.082	104.082	0.001830	56867.8	8.302501	-12.2681	496.368	1.176278	0.103785	0.103352	500.377	56867.8	0.097186	0.291943	1713.95	96159.2