File: remote_trans/data/nanoindenter/0828-1/data/Data_2025-08-06,11h17m57s/2025-07-22_16-23-58_1_797.txt
2025-07-22, 16:23:58, 1
Index	Phase	Displacement	Time	Pos X	Pos Y	Pos Z	Rot A	Rot B	Piezo Z	Force A	Force B	Gripper	Voltage A	Voltage B	Temperature	Amplitude force	Amplitude pos	Stiffness	Phase shift	Phase excitation	Force A raw	Displacement raw	HMax	HMax raw	Real Force	Real Stiffness	Contact Depth	Area	Hardness	Reduced Mod.
[#]	[#]	[um]	[s]	[um]	[um]	[um]	[m°]	[m°]	[um]	[uN]	[uN]	[V]	[V]	[V]	[°C]	[uN]	[um]	[N/m]	[°]	[°]	[uN]	[um]	[um]	[um]	[uN]	[N/m]	[um]	[um^2]	[MPa]	[MPa]
797	1.000000	0.002716	7.37285e+06	-39989.1	1055.82	-29791.7	0.000000	0.000000	6.002831	0.003063	NaN	0.000000	0.001578	0.001682	28.0837	0.096828	0.000947	102.264	-14.2017	-166.288	-0.008786	0.001471	-1.162661	-1.163907	0.003063	102.264	-1.162684	-3.474059E+15	-8.815554E-19	NaN
797	1.000000	0.046630	7.37285e+06	-39989.1	1055.82	-29791.7	0.000000	0.000000	6.046744	-0.002347	NaN	0.000000	0.001532	0.001671	28.0835	0.036057	0.001890	19.0739	-155.493	-164.601	0.005387	0.045275	-1.118748	-1.120103	-0.002347	19.0739	-1.118656	-8.921403E+14	2.631194E-18	NaN
797	1.000000	0.090651	7.37285e+06	-39989.1	1055.82	-29791.7	0.000000	0.000000	6.090766	0.029389	NaN	0.000000	0.001563	0.001671	28.0823	0.083727	0.002116	39.5618	-106.95	-164.796	0.043580	0.089306	-1.074727	-1.076072	0.029389	39.5618	-1.075284	-2.334403E+14	-1.258944E-16	NaN
797	1.000000	0.134690	7.37285e+06	-39989.1	1055.82	-29791.7	0.000000	0.000000	6.134803	-0.038737	NaN	0.000000	0.001592	0.001688	28.0823	0.013183	0.002023	6.517927	104.993	-166.004	-0.015335	0.133375	-1.030687	-1.032003	-0.038737	6.517927	-1.026230	-5.114083E+13	7.574618E-16	NaN
797	1.000000	0.178711	7.37285e+06	-39989.1	1055.82	-29791.7	0.000000	0.000000	6.178826	0.008322	NaN	0.000000	0.001587	0.001677	28.0822	0.040406	0.001838	21.9829	-66.5601	-166.657	0.053048	0.177392	-0.986666	-0.987985	0.008322	21.9829	-0.986950	-1.513680E+13	-5.497862E-16	NaN
797	1.000000	0.222721	7.37285e+06	-39989.1	1055.82	-29791.7	0.000000	0.000000	6.222835	-0.009964	NaN	0.000000	0.001569	0.001670	28.0841	0.087799	0.001968	44.617	-152.256	-165.487	0.034370	0.221336	-0.942656	-0.944042	-0.009964	44.617	-0.942489	-3.808125E+12	2.616537E-15	NaN
797	1.000000	0.266705	7.37285e+06	-39989.1	1055.82	-29791.7	0.000000	0.000000	6.266818	-0.017502	NaN	0.000000	0.001588	0.001701	28.0839	0.129382	0.001933	66.9267	88.2684	-165.753	-0.020473	0.265419	-0.898673	-0.899959	-0.017502	66.9267	-0.898476	-9.693456E+11	1.805533E-14	NaN
797	1.000000	0.310726	7.37285e+06	-39989.1	1055.82	-29791.7	0.000000	0.000000	6.310840	0.008458	NaN	0.000000	0.001605	0.001724	28.084	0.190172	0.001997	95.2197	-47.8926	-166.677	-0.030653	0.309440	-0.854652	-0.855938	0.008458	95.2197	-0.854719	-2.480999E+11	-3.409005E-14	NaN
797	1.000000	0.354773	7.37285e+06	-39989.1	1055.82	-29791.7	0.000000	0.000000	6.354885	-0.049186	NaN	0.000000	0.001596	0.001710	28.0826	0.061902	0.001985	31.1897	-108.097	-166.401	-0.031917	0.353483	-0.810604	-0.811895	-0.049186	31.1897	-0.809422	-6.035643E+10	8.149288E-13	NaN
797	1.000000	0.398767	7.37285e+06	-39989.1	1055.82	-29791.7	0.000000	0.000000	6.398882	0.034305	NaN	0.000000	0.001677	0.001680	28.0828	0.105886	0.001942	54.52	-169.52	-166.617	0.025330	0.397453	-0.766611	-0.767925	0.034305	54.52	-0.767082	-1.605590E+10	-2.136602E-12	NaN
797	1.000000	0.442799	7.37285e+06	-39989.1	1055.82	-29791.7	0.000000	0.000000	6.442913	0.000475	NaN	0.000000	0.001573	0.001713	28.0833	0.014063	0.002120	6.633625	-149.585	-163.994	0.006714	0.441453	-0.722579	-0.723924	0.000475	6.633625	-0.722632	-3.984462E+9	-1.192137E-13	NaN
797	1.000000	0.486829	7.37285e+06	-39989.1	1055.82	-29791.7	0.000000	0.000000	6.486941	-0.052290	NaN	0.000000	0.001587	0.001761	28.0838	0.104957	0.001952	53.7575	15.5681	-165.549	-0.007049	0.485517	-0.678548	-0.679861	-0.052290	53.7575	-0.677819	-9.735777E+8	5.370912E-11	NaN
797	1.000000	0.530813	7.37285e+06	-39989.1	1055.82	-29791.7	0.000000	0.000000	6.530929	0.040487	NaN	0.000000	0.001629	0.001722	28.084	0.060853	0.001895	32.1186	168.912	-164.376	0.106424	0.529507	-0.634564	-0.635871	0.040487	32.1186	-0.635510	-2.562533E+8	-1.579977E-10	NaN
797	1.000000	0.574833	7.37285e+06	-39989.1	1055.82	-29791.7	0.000000	0.000000	6.574948	0.018433	NaN	0.000000	0.001595	0.001786	28.0839	0.074988	0.001898	39.5079	121.158	-163.786	-0.002065	0.573533	-0.590544	-0.591844	0.018433	39.5079	-0.590894	-6.237261E+7	-2.955246E-10	NaN
797	1.000000	0.618857	7.37285e+06	-39989.1	1055.82	-29791.7	0.000000	0.000000	6.618971	0.004066	NaN	0.000000	0.001602	0.001783	28.0829	0.071235	0.001968	36.1878	-62.4299	-164.749	-0.018037	0.617581	-0.546521	-0.547796	0.004066	36.1878	-0.546605	-1.523771E+7	-2.668251E-10	NaN
797	1.000000	0.662911	7.37285e+06	-39989.1	1055.82	-29791.7	0.000000	0.000000	6.663026	0.032063	NaN	0.000000	0.001566	0.001797	28.0831	0.101102	0.001942	52.0689	-169.92	-164.31	0.023817	0.661585	-0.502467	-0.503792	0.032063	52.0689	-0.502929	-3.7659e+06	-8.513972E-9	NaN
797	1.000000	0.706924	7.37285e+06	-39989.1	1055.82	-29791.7	0.000000	0.000000	6.707039	0.041046	NaN	0.000000	0.001589	0.001820	28.0828	0.081648	0.001931	42.2836	-64.7828	-165.724	-0.030748	0.705617	-0.458454	-0.459761	0.041046	42.2836	-0.459182	-919433	-4.464269E-8	NaN
797	1.000000	0.750928	7.37285e+06	-39989.1	1055.82	-29791.7	0.000000	0.000000	6.751043	0.027756	NaN	0.000000	0.001563	0.001796	28.0841	0.104247	0.001997	52.1987	-28.8687	-164.988	0.048338	0.749682	-0.414449	-0.415695	0.027756	52.1987	-0.414848	-217420	-1.276626E-7	NaN
797	1.000000	0.794928	7.37285e+06	-39989.1	1055.82	-29791.7	0.000000	0.000000	6.795042	0.002970	NaN	0.000000	0.001595	0.001792	28.0836	0.069723	0.001905	36.5972	28.2706	-164.364	-0.002141	0.793636	-0.370449	-0.371741	0.002970	36.5972	-0.370510	-50521.5	-5.878953E-8	NaN
797	1.000000	0.838964	7.37285e+06	-39989.1	1055.82	-29791.7	0.000000	0.000000	6.839079	0.022836	NaN	0.000000	0.001607	0.001802	28.0839	0.099504	0.001999	49.7824	-59.8699	-166.325	0.055873	0.837668	-0.326414	-0.327709	0.022836	49.7824	-0.326758	-11693.2	-1.952909E-6	NaN
797	1.000000	0.882984	7.37285e+06	-39989.1	1055.82	-29791.7	0.000000	0.000000	6.883097	-0.037680	NaN	0.000000	0.001623	0.001785	28.0826	0.025678	0.002064	12.4395	153.161	-164.599	-0.025412	0.881648	-0.282393	-0.283730	-0.037680	12.4395	-0.280122	-2370.31	1.589651E-5	NaN
797	1.000000	0.926991	7.37285e+06	-39989.1	1055.82	-29791.7	0.000000	0.000000	6.927104	-0.031562	NaN	0.000000	0.001597	0.001760	28.0827	0.045811	0.001959	23.3889	16.0961	-165.319	-0.080589	0.925695	-0.238386	-0.239683	-0.031562	23.3889	-0.237374	-522.974	6.035072E-5	NaN
797	1.000000	0.971050	7.37286e+06	-39989.1	1055.82	-29791.7	0.000000	0.000000	6.971166	0.048856	NaN	0.000000	0.001547	0.001774	28.0823	0.149254	0.001970	75.7581	-115.666	-162.112	0.121813	0.969704	-0.194328	-0.195673	0.048856	75.7581	-0.194811	-108.163	-0.000452	NaN
797	1.000000	1.015049	7.37286e+06	-39989.1	1055.82	-29791.7	0.000000	0.000000	7.015162	-0.023737	NaN	0.000000	0.001557	0.001767	28.0836	0.095942	0.001892	50.7025	-142.317	-165.554	0.003314	1.013734	-0.150329	-0.151643	-0.023737	50.7025	-0.149978	-18.0967	0.001312	NaN
797	1.000000	1.059088	7.37286e+06	-39989.1	1055.82	-29791.7	0.000000	0.000000	7.059201	-0.034510	NaN	0.000000	0.001572	0.001765	28.0835	0.040031	0.002101	19.0558	152.666	-167.425	-0.004924	1.057761	-0.106289	-0.107617	-0.034510	19.0558	-0.104931	-2.342508	0.014732	NaN
797	1.000000	1.103064	7.37286e+06	-39989.1	1055.82	-29791.7	0.000000	0.000000	7.103181	0.078109	NaN	0.000000	0.001605	0.001735	28.0837	0.015757	0.002027	7.772604	-100.947	-168.07	0.116359	1.101768	-0.062314	-0.063609	0.078109	7.772604	-0.069851	-0.337984	-0.231103	NaN
797	1.000000	1.147096	7.37286e+06	-39989.1	1055.82	-29791.7	0.000000	0.000000	7.147208	-0.038318	NaN	0.000000	0.001572	0.001746	28.0825	0.004085	0.001787	2.285749	-31.2311	-168.285	-0.007885	1.145806	-0.018282	-0.019572	-0.038318	2.285749	-0.005709	-0.003858	9.932848	NaN
797	2.000000	1.176666	7.37286e+06	-39989.1	1055.82	-29791.7	0.000000	0.000000	7.177365	14.2515	NaN	0.000000	0.001584	0.001754	28.0838	12.5174	0.001784	7014.55	7.497817	-175.222	14.5982	1.176287	0.011288	0.010909	14.2515	7014.55	0.009765	0.008921	1597.52	67852.7
797	2.000000	1.187568	7.37286e+06	-39989.1	1055.82	-29791.7	0.000000	0.000000	7.189236	37.8068	NaN	0.000000	0.001585	0.001751	28.0828	22.1813	0.001716	12926.1	4.151257	-177.079	36.7165	1.187388	0.022191	0.022010	37.8068	12926.1	0.019997	0.022538	1677.47	78665.3
797	2.000000	1.198643	7.37286e+06	-39989.1	1055.82	-29791.7	0.000000	0.000000	7.201710	71.8627	NaN	0.000000	0.001647	0.001733	28.0836	32.4511	0.001853	17513.8	7.989794	177.112	73.8961	1.198267	0.033265	0.032889	71.8627	17513.8	0.030188	0.041134	1747.05	78895.8
797	2.000000	1.209547	7.37286e+06	-39989.1	1055.82	-29791.7	0.000000	0.000000	7.214332	113.671	NaN	0.000000	0.001660	0.001763	28.0836	42.742	0.001854	23051.6	3.616308	178.031	112.508	1.209280	0.044169	0.043903	113.671	23051.6	0.040471	0.065251	1742.06	82448.2
797	2.000000	1.220524	7.37286e+06	-39989.1	1055.82	-29791.7	0.000000	0.000000	7.227651	170.646	NaN	0.000000	0.001678	0.001730	28.0834	50.7393	0.001742	29122.9	2.471575	177.878	168.552	1.220188	0.055147	0.054810	170.646	29122.9	0.050752	0.094752	1800.98	86439.8
797	2.000000	1.231542	7.37286e+06	-39989.1	1055.82	-29791.7	0.000000	0.000000	7.241138	230.747	NaN	0.000000	0.001666	0.001747	28.0837	61.1546	0.001772	34511.5	4.605295	174.248	230.134	1.231257	0.066165	0.065879	230.747	34511.5	0.061150	0.129964	1775.46	87463.1
797	2.000000	1.242605	7.37286e+06	-39989.1	1055.82	-29791.7	0.000000	0.000000	7.255134	302.111	NaN	0.000000	0.001679	0.001726	28.0823	71.6367	0.001765	40591.9	3.214738	175.021	307.548	1.242213	0.077227	0.076836	302.111	40591.9	0.071645	0.170844	1768.35	89724.8
797	2.000000	1.253431	7.37286e+06	-39989.1	1055.82	-29791.7	0.000000	0.000000	7.269311	383.64	NaN	0.000000	0.001667	0.001775	28.0826	81.2856	0.001698	47876.6	1.852576	174.553	380.303	1.253125	0.088054	0.087748	383.64	47876.6	0.082044	0.216502	1771.99	94008.2
797	2.000000	1.264440	7.37286e+06	-39989.1	1055.82	-29791.7	0.000000	0.000000	7.283927	471.449	NaN	0.000000	0.001587	0.001779	28.0825	92.0617	0.001840	50043.4	5.105223	171.657	468.126	1.264159	0.099062	0.098781	471.449	50043.4	0.091996	0.264903	1779.7	88833.5
797	2.000000	1.270401	7.37286e+06	-39989.1	1055.82	-29791.7	0.000000	0.000000	7.291894	520.237	NaN	0.000000	0.001568	0.001787	28.0837	96.5745	0.001657	58266.9	-1.172407	176.498	514.15	1.270065	0.105023	0.104687	520.237	58266.9	0.098327	0.298053	1745.45	97509.9