File: remote_trans/data/nanoindenter/0828-1/data/Data_2025-08-06,11h17m57s/2025-07-22_16-23-58_1_744.txt
2025-07-22, 16:23:58, 1
Index	Phase	Displacement	Time	Pos X	Pos Y	Pos Z	Rot A	Rot B	Piezo Z	Force A	Force B	Gripper	Voltage A	Voltage B	Temperature	Amplitude force	Amplitude pos	Stiffness	Phase shift	Phase excitation	Force A raw	Displacement raw	HMax	HMax raw	Real Force	Real Stiffness	Contact Depth	Area	Hardness	Reduced Mod.
[#]	[#]	[um]	[s]	[um]	[um]	[um]	[m°]	[m°]	[um]	[uN]	[uN]	[V]	[V]	[V]	[°C]	[uN]	[um]	[N/m]	[°]	[°]	[uN]	[um]	[um]	[um]	[uN]	[N/m]	[um]	[um^2]	[MPa]	[MPa]
744	1.000000	0.003378	7.37233e+06	-39889.1	1005.82	-29792.1	0.000000	0.000000	6.002811	-0.010221	NaN	0.000000	0.001585	0.001661	28.0833	0.034396	0.000913	37.6628	32.445	-156.302	0.043421	0.002102	-1.131993	-1.133268	-0.010221	37.6628	-1.131789	-1.338515E+15	7.636292E-18	NaN
744	1.000000	0.045299	7.37233e+06	-39889.1	1005.82	-29792.1	0.000000	0.000000	6.044733	0.014235	NaN	0.000000	0.001562	0.001710	28.0828	0.056030	0.001961	28.5686	127.948	14.1788	0.004617	0.043980	-1.090072	-1.091391	0.014235	28.5686	-1.090446	-3.730760E+14	-3.815455E-17	NaN
744	1.000000	0.087322	7.37233e+06	-39889.1	1005.82	-29792.1	0.000000	0.000000	6.086754	-0.039384	NaN	0.000000	0.001628	0.001689	28.0829	0.098769	0.001877	52.6134	-165.551	-161.345	0.074821	0.086020	-1.048049	-1.049350	-0.039384	52.6134	-1.047488	-9.877360E+13	3.987291E-16	NaN
744	1.000000	0.129336	7.37233e+06	-39889.1	1005.82	-29792.1	0.000000	0.000000	6.128770	0.006605	NaN	0.000000	0.001639	0.001660	28.083	0.062767	0.002047	30.6662	156.217	11.55	0.104758	0.127940	-1.006035	-1.007431	0.006605	30.6662	-1.006196	-2.749075E+13	-2.402477E-16	NaN
744	1.000000	0.171360	7.37233e+06	-39889.1	1005.82	-29792.1	0.000000	0.000000	6.170793	-0.032363	NaN	0.000000	0.001661	0.001699	28.0814	0.059056	0.002001	29.5187	-147.087	-169.308	-0.041648	0.170039	-0.964010	-0.965332	-0.032363	29.5187	-0.963188	-7.241849E+12	4.468859E-15	NaN
744	1.000000	0.213380	7.37233e+06	-39889.1	1005.82	-29792.1	0.000000	0.000000	6.212816	0.053794	NaN	0.000000	0.001660	0.001686	28.0814	0.086738	0.002095	41.3935	82.2492	13.2826	0.016069	0.212026	-0.921991	-0.923345	0.053794	41.3935	-0.922965	-2.076070E+12	-2.591153E-14	NaN
744	1.000000	0.255414	7.37233e+06	-39889.1	1005.82	-29792.1	0.000000	0.000000	6.254848	0.023857	NaN	0.000000	0.001577	0.001674	28.0814	0.035897	0.002071	17.3326	119.307	-166.396	-0.001786	0.254094	-0.879957	-0.881277	0.023857	17.3326	-0.880990	-5.624579E+11	-4.241517E-14	NaN
744	1.000000	0.297428	7.37233e+06	-39889.1	1005.82	-29792.1	0.000000	0.000000	6.296862	0.008226	NaN	0.000000	0.001626	0.001652	28.0827	0.024345	0.002141	11.3716	-36.9944	13.9904	-0.023557	0.296071	-0.837943	-0.839300	0.008226	11.3716	-0.838485	-1.495440E+11	-5.500875E-14	NaN
744	1.000000	0.339431	7.37233e+06	-39889.1	1005.82	-29792.1	0.000000	0.000000	6.338865	0.009225	NaN	0.000000	0.001633	0.001674	28.0825	0.031514	0.002064	15.2673	13.281	-165.979	0.002273	0.338098	-0.795940	-0.797273	0.009225	15.2673	-0.796393	-4.016932E+10	-2.296614E-13	NaN
744	1.000000	0.381458	7.37233e+06	-39889.1	1005.82	-29792.1	0.000000	0.000000	6.380894	0.049562	NaN	0.000000	0.001602	0.001609	28.0824	0.067015	0.002127	31.5038	115.74	17.4398	0.036327	0.380048	-0.753912	-0.755322	0.049562	31.5038	-0.755092	-1.102878E+10	-4.493919E-12	NaN
744	1.000000	0.423490	7.37233e+06	-39889.1	1005.82	-29792.1	0.000000	0.000000	6.422924	0.009943	NaN	0.000000	0.001623	0.001609	28.0814	0.045907	0.001965	23.3568	114.385	-164.732	0.067456	0.422092	-0.711881	-0.713279	0.009943	23.3568	-0.712200	-2.871233E+9	-3.462946E-12	NaN
744	1.000000	0.465499	7.37233e+06	-39889.1	1005.82	-29792.1	0.000000	0.000000	6.464932	-0.010410	NaN	0.000000	0.001575	0.001641	28.0811	0.121712	0.001931	63.0466	101.074	12.5027	-0.059787	0.464112	-0.669872	-0.671258	-0.010410	63.0466	-0.669748	-7.549834E+8	1.378839E-11	NaN
744	1.000000	0.507518	7.37233e+06	-39889.1	1005.82	-29792.1	0.000000	0.000000	6.506952	-0.006692	NaN	0.000000	0.001643	0.001627	28.0812	0.093445	0.002155	43.3611	-30.4512	-166.491	0.023639	0.506172	-0.627852	-0.629199	-0.006692	43.3611	-0.627737	-2.004194E+8	3.338917E-11	NaN
744	1.000000	0.549494	7.37233e+06	-39889.1	1005.82	-29792.1	0.000000	0.000000	6.548926	-0.020143	NaN	0.000000	0.001691	0.001656	28.0824	0.042585	0.001978	21.5316	41.542	15.2475	-0.105838	0.548195	-0.585877	-0.587176	-0.020143	21.5316	-0.585176	-5.201610E+7	3.872401E-10	NaN
744	1.000000	0.591546	7.37233e+06	-39889.1	1005.82	-29792.1	0.000000	0.000000	6.590979	-0.011496	NaN	0.000000	0.001613	0.001640	28.0826	0.102103	0.001961	52.0719	-121.078	-165.762	-0.003300	0.590204	-0.543825	-0.545167	-0.011496	52.0719	-0.543660	-1.387077E+7	8.287940E-10	NaN
744	1.000000	0.633568	7.37233e+06	-39889.1	1005.82	-29792.1	0.000000	0.000000	6.633001	-0.014468	NaN	0.000000	0.001572	0.001630	28.0824	0.038882	0.002019	19.2576	-123.01	19.7904	0.056463	0.632239	-0.501802	-0.503131	-0.014468	19.2576	-0.501239	-3.56698e+06	4.056128E-9	NaN
744	1.000000	0.675585	7.37233e+06	-39889.1	1005.82	-29792.1	0.000000	0.000000	6.675019	0.002222	NaN	0.000000	0.001553	0.001714	28.0826	0.043416	0.002141	20.2743	170.686	-165.792	0.093329	0.674282	-0.459785	-0.461089	0.002222	20.2743	-0.459868	-940062	-2.363564E-9	NaN
744	1.000000	0.717608	7.37233e+06	-39889.1	1005.82	-29792.1	0.000000	0.000000	6.717041	-0.025621	NaN	0.000000	0.001566	0.001721	28.0812	0.070538	0.002177	32.3973	81.0842	19.6826	-0.066366	0.716275	-0.417763	-0.419096	-0.025621	32.3973	-0.417169	-234560	1.092305E-7	NaN
744	1.000000	0.759626	7.37233e+06	-39889.1	1005.82	-29792.1	0.000000	0.000000	6.759061	0.034119	NaN	0.000000	0.001582	0.001698	28.081	0.126896	0.002063	61.5225	-179.346	-163.765	0.029598	0.758314	-0.375745	-0.377057	0.034119	61.5225	-0.376161	-60920.2	-5.600653E-7	NaN
744	1.000000	0.801619	7.37234e+06	-39889.1	1005.82	-29792.1	0.000000	0.000000	6.801053	0.026824	NaN	0.000000	0.001559	0.001711	28.0811	0.085663	0.002117	40.4579	-166.445	11.6553	-0.058431	0.800248	-0.333752	-0.335122	0.026824	40.4579	-0.334249	-15052.9	-1.782011E-6	NaN
744	1.000000	0.843666	7.37234e+06	-39889.1	1005.82	-29792.1	0.000000	0.000000	6.843102	0.056763	NaN	0.000000	0.001562	0.001741	28.0825	0.041016	0.001930	21.247	-65.4649	-167.468	0.124622	0.842339	-0.291705	-0.293031	0.056763	21.247	-0.293709	-3791.41	-1.497151E-5	NaN
744	1.000000	0.885662	7.37234e+06	-39889.1	1005.82	-29792.1	0.000000	0.000000	6.885097	0.038651	NaN	0.000000	0.001604	0.001725	28.0822	0.032588	0.001969	16.5477	-32.6692	12.0542	0.076191	0.884273	-0.249709	-0.251098	0.038651	16.5477	-0.251461	-866.052	-4.462873E-5	NaN
744	1.000000	0.927690	7.37234e+06	-39889.1	1005.82	-29792.1	0.000000	0.000000	6.927122	-0.031853	NaN	0.000000	0.001579	0.001741	28.0825	0.061475	0.002067	29.7448	-20.5302	-163.341	-0.028920	0.926369	-0.207681	-0.209002	-0.031853	29.7448	-0.206878	-170.665	0.000187	NaN
744	1.000000	0.969702	7.37234e+06	-39889.1	1005.82	-29792.1	0.000000	0.000000	6.969137	0.023322	NaN	0.000000	0.001579	0.001720	28.0813	0.061614	0.002037	30.2493	108.903	11.8246	0.015733	0.968327	-0.165669	-0.167044	0.023322	30.2493	-0.166247	-35.332	-0.000660	NaN
744	1.000000	1.011730	7.37234e+06	-39889.1	1005.82	-29792.1	0.000000	0.000000	7.011164	-0.004351	NaN	0.000000	0.001611	0.001723	28.0814	0.072765	0.001948	37.3527	-59.5841	-169.363	-0.084112	1.010348	-0.123640	-0.125023	-0.004351	37.3527	-0.123553	-5.692217	0.000764	NaN
744	1.000000	1.053719	7.37234e+06	-39889.1	1005.82	-29792.1	0.000000	0.000000	7.053153	0.010795	NaN	0.000000	0.001594	0.001718	28.0812	0.131344	0.001947	67.4476	-14.1652	17.8383	-0.048010	1.052364	-0.081652	-0.083007	0.010795	67.4476	-0.081772	-0.685083	-0.015757	NaN
744	1.000000	1.095740	7.37234e+06	-39889.1	1005.82	-29792.1	0.000000	0.000000	7.095173	-0.005216	NaN	0.000000	0.001597	0.001713	28.0823	0.123879	0.002018	61.3993	-19.4163	-165.199	0.015630	1.094479	-0.039631	-0.040892	-0.005216	61.3993	-0.039567	-0.043875	0.118891	NaN
744	2.000000	1.136845	7.37234e+06	-39889.1	1005.82	-29792.1	0.000000	0.000000	7.136637	8.733498	NaN	0.000000	0.001584	0.001685	28.0827	7.870753	0.001569	5014.97	7.237351	9.172195	8.284939	1.136215	0.001474	0.000844	8.733498	5014.97	0.000168	0.000126	69491.2	408707
744	2.000000	1.147362	7.37234e+06	-39889.1	1005.82	-29792.1	0.000000	0.000000	7.147771	23.7306	NaN	0.000000	0.001602	0.001675	28.0829	19.976	0.001818	10988.1	4.761961	-174.822	24.3332	1.147040	0.011991	0.011669	23.7306	10988.1	0.010371	0.009597	2472.7	102477
744	2.000000	1.157839	7.37234e+06	-39889.1	1005.82	-29792.1	0.000000	0.000000	7.159543	55.2322	NaN	0.000000	0.001583	0.001696	28.0833	30.0297	0.001751	17147.7	5.810639	1.218698	55.4925	1.157423	0.022468	0.022052	55.2322	17147.7	0.020053	0.022625	2441.19	104156
744	2.000000	1.168309	7.37234e+06	-39889.1	1005.82	-29792.1	0.000000	0.000000	7.171299	86.5393	NaN	0.000000	0.001624	0.001678	28.0819	38.7152	0.001786	21679.6	8.192114	177.199	87.6715	1.167900	0.032938	0.032529	86.5393	21679.6	0.029945	0.040629	2129.99	98266.7
744	2.000000	1.178750	7.37234e+06	-39889.1	1005.82	-29792.1	0.000000	0.000000	7.183322	125.036	NaN	0.000000	0.001680	0.001672	28.0812	47.4169	0.001737	27304.2	6.551339	-3.911850	123.52	1.178340	0.043379	0.042970	125.036	27304.2	0.039945	0.063885	1957.2	98696.9
744	2.000000	1.189316	7.37234e+06	-39889.1	1005.82	-29792.1	0.000000	0.000000	7.195491	164.049	NaN	0.000000	0.001631	0.001651	28.0815	58.2939	0.001930	30205.7	5.592635	175.617	165.231	1.189000	0.053945	0.053629	164.049	30205.7	0.049872	0.092017	1782.81	90976
744	2.000000	1.199680	7.37234e+06	-39889.1	1005.82	-29792.1	0.000000	0.000000	7.208237	222.009	NaN	0.000000	0.001642	0.001712	28.0827	67.8856	0.001858	36545.7	3.185433	-3.271124	219.15	1.199379	0.064309	0.064008	222.009	36545.7	0.059753	0.124924	1777.16	94468.6
744	2.000000	1.210123	7.37234e+06	-39889.1	1005.82	-29792.1	0.000000	0.000000	7.220978	277.937	NaN	0.000000	0.001652	0.001680	28.0825	76.4572	0.001657	46130.3	4.379676	173.179	271.712	1.209949	0.074752	0.074578	277.937	46130.3	0.070233	0.165038	1684.08	103745
744	2.000000	1.220708	7.37234e+06	-39889.1	1005.82	-29792.1	0.000000	0.000000	7.234198	342.055	NaN	0.000000	0.001636	0.001699	28.0825	86.3551	0.001862	46380.4	3.128397	-4.991950	338.488	1.220492	0.085337	0.085121	342.055	46380.4	0.079806	0.206248	1658.46	93306.8
744	2.000000	1.231089	7.37234e+06	-39889.1	1005.82	-29792.1	0.000000	0.000000	7.247863	421.983	NaN	0.000000	0.001569	0.001679	28.0812	95.2115	0.001744	54597.5	6.097976	172.044	415.056	1.230603	0.095718	0.095232	421.983	54597.5	0.089921	0.254435	1658.51	98891.1
744	2.000000	1.235085	7.37234e+06	-39889.1	1005.82	-29792.1	0.000000	0.000000	7.253132	452.938	NaN	0.000000	0.001541	0.001708	28.0815	98.7195	0.001862	53028.7	5.153780	171.854	444.755	1.234802	0.099715	0.099431	452.938	53028.7	0.093309	0.271624	1667.52	92960.9