File: remote_trans/data/nanoindenter/0828-1/data/Data_2025-08-06,11h17m57s/2025-07-22_16-23-58_1_472.txt
2025-07-22, 16:23:58, 1
Index	Phase	Displacement	Time	Pos X	Pos Y	Pos Z	Rot A	Rot B	Piezo Z	Force A	Force B	Gripper	Voltage A	Voltage B	Temperature	Amplitude force	Amplitude pos	Stiffness	Phase shift	Phase excitation	Force A raw	Displacement raw	HMax	HMax raw	Real Force	Real Stiffness	Contact Depth	Area	Hardness	Reduced Mod.
[#]	[#]	[um]	[s]	[um]	[um]	[um]	[m°]	[m°]	[um]	[uN]	[uN]	[V]	[V]	[V]	[°C]	[uN]	[um]	[N/m]	[°]	[°]	[uN]	[um]	[um]	[um]	[uN]	[N/m]	[um]	[um^2]	[MPa]	[MPa]
472	1.000000	0.002506	7.36967e+06	-53489.1	1005.82	-29746.2	0.000000	0.000000	6.002787	-0.018292	NaN	0.000000	0.001518	0.001658	28.0816	0.002109	0.001071	1.969590	-135.782	-170.568	0.036071	0.001337	-1.152360	-1.153529	-0.018292	1.969590	-1.145394	-2.037378E+15	8.978284E-18	NaN
472	1.000000	0.044455	7.36967e+06	-53489.1	1005.82	-29746.2	0.000000	0.000000	6.044737	0.039018	NaN	0.000000	0.001469	0.001648	28.0817	0.153724	0.002054	74.8437	71.137	12.9854	0.017048	0.043112	-1.110412	-1.111754	0.039018	74.8437	-1.110803	-6.999389E+14	-5.574438E-17	NaN
472	1.000000	0.086485	7.36967e+06	-53489.1	1005.82	-29746.2	0.000000	0.000000	6.086765	-0.037698	NaN	0.000000	0.001512	0.001655	28.0817	0.168142	0.002038	82.5	-161.061	-168.162	-0.029612	0.085169	-1.068381	-1.069697	-0.037698	82.5	-1.068038	-1.865670E+14	2.020601E-16	NaN
472	1.000000	0.128478	7.36967e+06	-53489.1	1005.82	-29746.2	0.000000	0.000000	6.128760	0.016707	NaN	0.000000	0.001526	0.001664	28.0805	0.090912	0.001978	45.9651	152.766	13.7383	0.045925	0.127145	-1.026388	-1.027721	0.016707	45.9651	-1.026661	-5.182830E+13	-3.223471E-16	NaN
472	1.000000	0.170506	7.36967e+06	-53489.1	1005.82	-29746.2	0.000000	0.000000	6.170786	-0.033436	NaN	0.000000	0.001522	0.001670	28.0804	0.014683	0.002083	7.048893	34.6396	-166.689	-0.004941	0.169204	-0.984360	-0.985662	-0.033436	7.048893	-0.980803	-1.250906E+13	2.672954E-15	NaN
472	1.000000	0.212528	7.36967e+06	-53489.1	1005.82	-29746.2	0.000000	0.000000	6.212810	0.026479	NaN	0.000000	0.001526	0.001686	28.0807	0.101782	0.001964	51.8147	128.146	13.4213	0.040264	0.211176	-0.942338	-0.943690	0.026479	51.8147	-0.942722	-3.835799E+12	-6.903214E-15	NaN
472	1.000000	0.254549	7.36967e+06	-53489.1	1005.82	-29746.2	0.000000	0.000000	6.254828	-0.039221	NaN	0.000000	0.001536	0.001698	28.0806	0.073408	0.002050	35.8144	149.602	-166.204	0.057834	0.253179	-0.900318	-0.901687	-0.039221	35.8144	-0.899496	-1.000601E+12	3.919733E-14	NaN
472	1.000000	0.296576	7.36967e+06	-53489.1	1005.82	-29746.2	0.000000	0.000000	6.296857	-0.006900	NaN	0.000000	0.001550	0.001622	28.0817	0.083829	0.002096	39.996	-145.374	14.1605	-0.044942	0.295254	-0.858291	-0.859612	-0.006900	39.996	-0.858161	-2.762049E+11	2.498225E-14	NaN
472	1.000000	0.338586	7.36967e+06	-53489.1	1005.82	-29746.2	0.000000	0.000000	6.338867	-0.006113	NaN	0.000000	0.001540	0.001687	28.0818	0.089262	0.001806	49.4222	13.7186	-159.443	-0.049052	0.337282	-0.816280	-0.817584	-0.006113	49.4222	-0.816187	-7.455968E+10	8.198161E-14	NaN
472	1.000000	0.380593	7.36967e+06	-53489.1	1005.82	-29746.2	0.000000	0.000000	6.380875	0.014111	NaN	0.000000	0.001623	0.001691	28.0818	0.027644	0.002087	13.2461	43.7937	14.4284	0.038672	0.379246	-0.774273	-0.775620	0.014111	13.2461	-0.775072	-2.061834E+10	-6.843764E-13	NaN
472	1.000000	0.422611	7.36967e+06	-53489.1	1005.82	-29746.2	0.000000	0.000000	6.422894	0.034382	NaN	0.000000	0.001625	0.001680	28.0807	0.085692	0.001923	44.5505	73.5288	-169.118	-0.003122	0.421293	-0.732255	-0.733573	0.034382	44.5505	-0.732834	-5.488195E+9	-6.264806E-12	NaN
472	1.000000	0.464639	7.36967e+06	-53489.1	1005.82	-29746.2	0.000000	0.000000	6.464922	0.031702	NaN	0.000000	0.001609	0.001755	28.0804	0.079905	0.001988	40.2	-108.396	11.6668	-0.005134	0.463275	-0.690227	-0.691591	0.031702	40.2	-0.690818	-1.465895E+9	-2.162655E-11	NaN
472	1.000000	0.506653	7.36967e+06	-53489.1	1005.82	-29746.2	0.000000	0.000000	6.506932	-0.056279	NaN	0.000000	0.001655	0.001739	28.0803	0.027994	0.002011	13.924	-64.6786	-164.914	-0.012518	0.505358	-0.648213	-0.649509	-0.056279	13.924	-0.645182	-3.478355E+8	1.617991E-10	NaN
472	1.000000	0.548689	7.36967e+06	-53489.1	1005.82	-29746.2	0.000000	0.000000	6.548972	0.033455	NaN	0.000000	0.001644	0.001738	28.0817	0.045943	0.002037	22.5505	-125.522	13.2569	0.107478	0.547296	-0.606177	-0.607571	0.033455	22.5505	-0.607290	-1.049104E+8	-3.188960E-10	NaN
472	1.000000	0.590699	7.36967e+06	-53489.1	1005.82	-29746.2	0.000000	0.000000	6.590981	0.022575	NaN	0.000000	0.001642	0.001788	28.0816	0.058526	0.001858	31.4946	-168.053	-168.63	0.010205	0.589371	-0.564167	-0.565495	0.022575	31.4946	-0.564705	-2.712968E+7	-8.321284E-10	NaN
472	1.000000	0.632703	7.36967e+06	-53489.1	1005.82	-29746.2	0.000000	0.000000	6.632985	0.027053	NaN	0.000000	0.001637	0.001734	28.0816	0.180176	0.001985	90.7874	102.774	15.4672	0.015624	0.631383	-0.522163	-0.523484	0.027053	90.7874	-0.522387	-7.02731e+06	-3.849744E-9	NaN
472	1.000000	0.674723	7.36967e+06	-53489.1	1005.82	-29746.2	0.000000	0.000000	6.675005	0.010898	NaN	0.000000	0.001627	0.001793	28.0806	0.050201	0.002131	23.5564	-163.072	-167.881	0.053414	0.673459	-0.480143	-0.481407	0.010898	23.5564	-0.480490	-1.82973e+06	-5.955855E-9	NaN
472	1.000000	0.716744	7.36967e+06	-53489.1	1005.82	-29746.2	0.000000	0.000000	6.717028	0.068359	NaN	0.000000	0.001560	0.001764	28.0804	0.103087	0.001807	57.047	-84.951	15.0297	0.043125	0.715341	-0.438123	-0.439526	0.068359	57.047	-0.439021	-478134	-1.429698E-7	NaN
472	1.000000	0.758761	7.36968e+06	-53489.1	1005.82	-29746.2	0.000000	0.000000	6.759045	0.077961	NaN	0.000000	0.001641	0.001707	28.0805	0.123420	0.001985	62.1792	22.9501	-163.271	0.027742	0.757457	-0.396105	-0.397410	0.077961	62.1792	-0.397046	-121296	-6.427333E-7	NaN
472	1.000000	0.800784	7.36968e+06	-53489.1	1005.82	-29746.2	0.000000	0.000000	6.801066	0.023824	NaN	0.000000	0.001672	0.001750	28.0807	0.061025	0.001963	31.0826	-172.979	13.8344	0.003920	0.799386	-0.354082	-0.355480	0.023824	31.0826	-0.354657	-29821.5	-7.988756E-7	NaN
472	1.000000	0.842812	7.36968e+06	-53489.1	1005.82	-29746.2	0.000000	0.000000	6.843094	0.012284	NaN	0.000000	0.001635	0.001732	28.0816	0.031902	0.002122	15.0335	146.087	-167.069	0.024261	0.841550	-0.312054	-0.313316	0.012284	15.0335	-0.312667	-7252.55	-1.693750E-6	NaN
472	1.000000	0.884798	7.36968e+06	-53489.1	1005.82	-29746.2	0.000000	0.000000	6.885077	-0.057448	NaN	0.000000	0.001636	0.001759	28.082	0.064446	0.001898	33.9582	75.3378	13.6389	-0.014226	0.883407	-0.270068	-0.271459	-0.057448	33.9582	-0.268799	-1596.93	3.597376E-5	NaN
472	1.000000	0.926841	7.36968e+06	-53489.1	1005.82	-29746.2	0.000000	0.000000	6.927123	0.009197	NaN	0.000000	0.001645	0.001743	28.0817	0.070576	0.001991	35.448	-90.7396	-166.713	0.057818	0.925575	-0.228025	-0.229291	0.009197	35.448	-0.228220	-375.296	-2.450554E-5	NaN
472	1.000000	0.968842	7.36968e+06	-53489.1	1005.82	-29746.2	0.000000	0.000000	6.969125	0.046443	NaN	0.000000	0.001548	0.001762	28.0804	0.171805	0.001877	91.5463	-162.329	16.6268	0.056117	0.967490	-0.186024	-0.187376	0.046443	91.5463	-0.186404	-78.3022	-0.000593	NaN
472	1.000000	1.010876	7.36968e+06	-53489.1	1005.82	-29746.2	0.000000	0.000000	7.011157	-0.024539	NaN	0.000000	0.001576	0.001740	28.0802	0.019766	0.002001	9.879265	155.689	-164.37	-0.014644	1.009520	-0.143990	-0.145346	-0.024539	9.879265	-0.142127	-12.9654	0.001893	NaN
472	1.000000	1.052884	7.36968e+06	-53489.1	1005.82	-29746.2	0.000000	0.000000	7.053166	0.032171	NaN	0.000000	0.001539	0.001758	28.0802	0.087639	0.001948	44.9961	-62.0985	14.5186	-0.035172	1.051506	-0.101983	-0.103360	0.032171	44.9961	-0.102519	-2.076059	-0.015496	NaN
472	1.000000	1.094867	7.36968e+06	-53489.1	1005.82	-29746.2	0.000000	0.000000	7.095151	0.059672	NaN	0.000000	0.001507	0.001742	28.0814	0.076344	0.001949	39.1646	-133.923	-168.941	0.049358	1.093607	-0.059999	-0.061259	0.059672	39.1646	-0.061142	-0.194143	-0.307358	NaN
472	1.000000	1.136959	7.36968e+06	-53489.1	1005.82	-29746.2	0.000000	0.000000	7.137241	0.007063	NaN	0.000000	0.001486	0.001730	28.0816	0.057414	0.001932	29.7102	-60.5319	14.0028	0.068608	1.135518	-0.017907	-0.019348	0.007063	29.7102	-0.018086	-0.011220	-0.629538	NaN
472	2.000000	1.163510	7.36968e+06	-53489.1	1005.82	-29746.2	0.000000	0.000000	7.164423	15.3567	NaN	0.000000	0.001513	0.001724	28.0817	14.1421	0.001650	8570.27	6.686123	-177.489	13.8827	1.163189	0.008643	0.008323	15.3567	8570.27	0.007300	0.006332	2425.33	98402.1
472	2.000000	1.174000	7.36968e+06	-53489.1	1005.82	-29746.2	0.000000	0.000000	7.175779	36.4031	NaN	0.000000	0.001605	0.001739	28.0803	24.386	0.001836	13282.6	7.942487	0.499261	35.9251	1.173573	0.019134	0.018706	36.4031	13282.6	0.017079	0.018158	2004.8	90058.1
472	2.000000	1.184474	7.36968e+06	-53489.1	1005.82	-29746.2	0.000000	0.000000	7.187437	65.2095	NaN	0.000000	0.001560	0.001742	28.0805	34.5717	0.001837	18823.1	3.762445	-178.883	63.5927	1.184169	0.029607	0.029303	65.2095	18823.1	0.027009	0.034772	1875.33	92224.8
472	2.000000	1.194950	7.36968e+06	-53489.1	1005.82	-29746.2	0.000000	0.000000	7.199488	103.509	NaN	0.000000	0.001542	0.001728	28.0806	45.2076	0.001703	26544.7	5.775387	-4.595993	101.8	1.194647	0.040083	0.039781	103.509	26544.7	0.037159	0.056892	1819.38	101678
472	2.000000	1.205436	7.36968e+06	-53489.1	1005.82	-29746.2	0.000000	0.000000	7.212096	155.067	NaN	0.000000	0.001567	0.001705	28.0805	54.5193	0.001642	33198.7	3.219996	176.841	153.316	1.205074	0.050570	0.050207	155.067	33198.7	0.047067	0.083563	1855.7	104927
472	2.000000	1.215910	7.36968e+06	-53489.1	1005.82	-29746.2	0.000000	0.000000	7.224751	208.109	NaN	0.000000	0.001546	0.001793	28.0822	65.769	0.001844	35659.8	0.534771	-0.471800	205.785	1.215596	0.061043	0.060730	208.109	35659.8	0.056666	0.114126	1823.5	96440.4
472	2.000000	1.226419	7.36968e+06	-53489.1	1005.82	-29746.2	0.000000	0.000000	7.237972	274.058	NaN	0.000000	0.001576	0.001791	28.0821	77.025	0.001739	44299.2	3.943162	174.158	275.761	1.226049	0.071553	0.071183	274.058	44299.2	0.066913	0.151756	1805.91	103895
472	2.000000	1.236911	7.36968e+06	-53489.1	1005.82	-29746.2	0.000000	0.000000	7.251376	344.859	NaN	0.000000	0.001602	0.001747	28.082	86.5032	0.001933	44750.4	3.975748	-6.087011	341.996	1.236527	0.082044	0.081661	344.859	44750.4	0.076265	0.190502	1810.27	93674.4
472	2.000000	1.247360	7.36968e+06	-53489.1	1005.82	-29746.2	0.000000	0.000000	7.264933	420.406	NaN	0.000000	0.001556	0.001756	28.0808	95.4376	0.001776	53738.5	6.343225	170.659	418.761	1.247019	0.092494	0.092153	420.406	53738.5	0.086626	0.238220	1764.78	100593
472	2.000000	1.256939	7.36968e+06	-53489.1	1005.82	-29746.2	0.000000	0.000000	7.277554	494.366	NaN	0.000000	0.001541	0.001695	28.0807	103.288	0.001776	58145.1	3.992648	-7.070307	496.701	1.256631	0.102073	0.101765	494.366	58145.1	0.095696	0.284054	1740.39	99674.9