File: remote_trans/data/nanoindenter/0828-1/data/Data_2025-08-06,11h17m57s/2025-07-22_16-23-58_1_463.txt
2025-07-22, 16:23:58, 1
Index	Phase	Displacement	Time	Pos X	Pos Y	Pos Z	Rot A	Rot B	Piezo Z	Force A	Force B	Gripper	Voltage A	Voltage B	Temperature	Amplitude force	Amplitude pos	Stiffness	Phase shift	Phase excitation	Force A raw	Displacement raw	HMax	HMax raw	Real Force	Real Stiffness	Contact Depth	Area	Hardness	Reduced Mod.
[#]	[#]	[um]	[s]	[um]	[um]	[um]	[m°]	[m°]	[um]	[uN]	[uN]	[V]	[V]	[V]	[°C]	[uN]	[um]	[N/m]	[°]	[°]	[uN]	[um]	[um]	[um]	[uN]	[N/m]	[um]	[um^2]	[MPa]	[MPa]
463	1.000000	0.002196	7.36959e+06	-53939.1	1005.82	-29745	0.000000	0.000000	6.002800	-0.022022	NaN	0.000000	0.001504	0.001726	28.0808	0.028408	0.000908	31.2953	39.7911	-161.542	-0.060819	0.000974	-1.055681	-1.056903	-0.022022	31.2953	-1.055153	-1.252216E+14	1.758619E-16	NaN
463	1.000000	0.042127	7.36959e+06	-53939.1	1005.82	-29745	0.000000	0.000000	6.042730	-0.048753	NaN	0.000000	0.001534	0.001741	28.0798	0.033119	0.001964	16.8605	114.703	-168.916	-0.023619	0.040864	-1.015750	-1.017013	-0.048753	16.8605	-1.013581	-3.456058E+13	1.410659E-15	NaN
463	1.000000	0.082136	7.36959e+06	-53939.1	1005.82	-29745	0.000000	0.000000	6.082742	0.036258	NaN	0.000000	0.001515	0.001726	28.0789	0.066802	0.002077	32.1674	-59.4381	-167.079	0.038154	0.080823	-0.975741	-0.977054	0.036258	32.1674	-0.976587	-1.097542E+13	-3.303579E-15	NaN
463	1.000000	0.122168	7.36959e+06	-53939.1	1005.82	-29745	0.000000	0.000000	6.122770	-0.058426	NaN	0.000000	0.001557	0.001725	28.0791	0.111084	0.002024	54.8715	-77.1247	-167.552	0.018773	0.120851	-0.935709	-0.937026	-0.058426	54.8715	-0.934910	-3.009293E+12	1.941533E-14	NaN
463	1.000000	0.162206	7.36959e+06	-53939.1	1005.82	-29745	0.000000	0.000000	6.162813	0.055254	NaN	0.000000	0.001570	0.001742	28.0789	0.063176	0.001967	32.1257	-42.4766	-165.42	0.004356	0.160864	-0.895671	-0.897013	0.055254	32.1257	-0.896961	-9.246938E+11	-5.975394E-14	NaN
463	1.000000	0.202211	7.36959e+06	-53939.1	1005.82	-29745	0.000000	0.000000	6.202815	-0.017810	NaN	0.000000	0.001564	0.001798	28.0784	0.022197	0.001878	11.822	58.1125	-166.452	0.006617	0.200877	-0.855666	-0.857000	-0.017810	11.822	-0.854536	-2.466954E+11	7.219238E-14	NaN
463	1.000000	0.242206	7.36959e+06	-53939.1	1005.82	-29745	0.000000	0.000000	6.242810	-0.019422	NaN	0.000000	0.001542	0.001779	28.08	0.025489	0.002094	12.1723	-60.0561	-165.649	-0.018436	0.240908	-0.815671	-0.816969	-0.019422	12.1723	-0.814474	-7.067458E+10	2.748120E-13	NaN
463	1.000000	0.282274	7.36959e+06	-53939.1	1005.82	-29745	0.000000	0.000000	6.282879	0.001433	NaN	0.000000	0.001589	0.001771	28.0802	0.154144	0.001980	77.8572	-129.642	-165.507	-0.012890	0.280929	-0.775603	-0.776948	0.001433	77.8572	-0.775617	-2.097300E+10	-6.830270E-14	NaN
463	1.000000	0.322271	7.36959e+06	-53939.1	1005.82	-29745	0.000000	0.000000	6.322873	-0.064922	NaN	0.000000	0.001560	0.001782	28.0806	0.050285	0.002097	23.9847	-105.666	-166.186	-0.080598	0.320956	-0.735606	-0.736921	-0.064922	23.9847	-0.733576	-5.617476E+9	1.155710E-11	NaN
463	1.000000	0.362281	7.36959e+06	-53939.1	1005.82	-29745	0.000000	0.000000	6.362885	0.001227	NaN	0.000000	0.001553	0.001772	28.0788	0.088452	0.002128	41.5681	-53.9598	-168.616	-0.006137	0.360990	-0.695596	-0.696887	0.001227	41.5681	-0.695619	-1.704852E+9	-7.197820E-13	NaN
463	1.000000	0.402282	7.36959e+06	-53939.1	1005.82	-29745	0.000000	0.000000	6.402882	-0.107363	NaN	0.000000	0.001640	0.001759	28.0789	0.055598	0.001970	28.2236	-16.1892	-164.61	-0.133926	0.400986	-0.655595	-0.656890	-0.107363	28.2236	-0.652742	-4.415959E+8	2.431248E-10	NaN
463	1.000000	0.442322	7.36959e+06	-53939.1	1005.82	-29745	0.000000	0.000000	6.442928	0.020239	NaN	0.000000	0.001648	0.001818	28.0789	0.025160	0.001908	13.1889	-125.863	-166.321	-0.051434	0.440983	-0.615554	-0.616894	0.020239	13.1889	-0.616705	-1.413646E+8	-1.431682E-10	NaN
463	1.000000	0.482336	7.36959e+06	-53939.1	1005.82	-29745	0.000000	0.000000	6.482942	0.027718	NaN	0.000000	0.001515	0.001778	28.0784	0.072749	0.001964	37.0433	120.016	-166.208	-0.018082	0.481020	-0.575541	-0.576857	0.027718	37.0433	-0.576102	-3.898651E+7	-7.109591E-10	NaN
463	1.000000	0.522323	7.36959e+06	-53939.1	1005.82	-29745	0.000000	0.000000	6.522927	-0.021074	NaN	0.000000	0.001539	0.001793	28.0801	0.045979	0.002001	22.9786	15.9218	-169.318	-0.043772	0.521020	-0.535554	-0.536857	-0.021074	22.9786	-0.534866	-1.047445E+7	2.011954E-9	NaN
463	1.000000	0.562379	7.36959e+06	-53939.1	1005.82	-29745	0.000000	0.000000	6.562983	-0.022499	NaN	0.000000	0.001568	0.001751	28.0799	0.071441	0.002052	34.821	40.2828	-164.79	-0.004381	0.561065	-0.495498	-0.496812	-0.022499	34.821	-0.495013	-2.92026e+06	7.704439E-9	NaN
463	1.000000	0.602347	7.36959e+06	-53939.1	1005.82	-29745	0.000000	0.000000	6.602953	0.023144	NaN	0.000000	0.001532	0.001795	28.0798	0.091695	0.002082	44.0318	-106.788	-166.502	0.011062	0.601065	-0.455530	-0.456812	0.023144	44.0318	-0.455924	-827397	-2.797257E-8	NaN
463	1.000000	0.642406	7.36959e+06	-53939.1	1005.82	-29745	0.000000	0.000000	6.643010	-0.025761	NaN	0.000000	0.001542	0.001828	28.0789	0.049938	0.001978	25.2445	47.5192	-166.396	0.003529	0.641127	-0.415470	-0.416750	-0.025761	25.2445	-0.414705	-216405	1.190393E-7	NaN
463	1.000000	0.682415	7.36959e+06	-53939.1	1005.82	-29745	0.000000	0.000000	6.683017	-0.073661	NaN	0.000000	0.001599	0.001814	28.0788	0.121024	0.002057	58.8227	26.6211	-167.909	-0.041947	0.681109	-0.375462	-0.376768	-0.073661	58.8227	-0.374523	-57704.3	1.276525E-6	NaN
463	1.000000	0.722416	7.36959e+06	-53939.1	1005.82	-29745	0.000000	0.000000	6.723021	0.004249	NaN	0.000000	0.001579	0.001749	28.0792	0.131748	0.002002	65.8136	72.1409	-167.107	0.007680	0.721137	-0.335461	-0.336739	0.004249	65.8136	-0.335509	-15704.4	-2.705667E-7	NaN
463	1.000000	0.762468	7.36959e+06	-53939.1	1005.82	-29745	0.000000	0.000000	6.763073	0.010508	NaN	0.000000	0.001582	0.001761	28.0795	0.058583	0.001990	29.4456	-28.6637	-168.374	-0.025780	0.761111	-0.295409	-0.296766	0.010508	29.4456	-0.295677	-4056.92	-2.590260E-6	NaN
463	1.000000	0.802459	7.36959e+06	-53939.1	1005.82	-29745	0.000000	0.000000	6.803066	0.052481	NaN	0.000000	0.001530	0.001733	28.08	0.035228	0.001854	19.0045	-94.0223	-166.414	-0.036734	0.801150	-0.255417	-0.256727	0.052481	19.0045	-0.257489	-1072.47	-4.893466E-5	NaN
463	1.000000	0.842505	7.36959e+06	-53939.1	1005.82	-29745	0.000000	0.000000	6.843108	-0.046786	NaN	0.000000	0.001605	0.001765	28.0801	0.103328	0.002062	50.1162	47.1354	-167.806	0.009721	0.841172	-0.215372	-0.216705	-0.046786	50.1162	-0.214672	-228.157	0.000205	NaN
463	1.000000	0.882499	7.36959e+06	-53939.1	1005.82	-29745	0.000000	0.000000	6.883102	-0.030274	NaN	0.000000	0.001594	0.001783	28.0801	0.138197	0.002007	68.8702	-78.1921	-166.486	-0.033183	0.881203	-0.175378	-0.176674	-0.030274	68.8702	-0.175049	-50.2127	0.000603	NaN
463	1.000000	0.922493	7.36959e+06	-53939.1	1005.82	-29745	0.000000	0.000000	6.923096	-0.035071	NaN	0.000000	0.001576	0.001772	28.0792	0.030952	0.002007	15.4223	31.9477	-168.471	-0.008543	0.921213	-0.135384	-0.136664	-0.035071	15.4223	-0.133679	-8.974527	0.003908	NaN
463	1.000000	0.962521	7.36959e+06	-53939.1	1005.82	-29745	0.000000	0.000000	6.963127	0.035156	NaN	0.000000	0.001622	0.001733	28.0789	0.146843	0.002179	67.4034	13.3838	-166.63	0.060870	0.961193	-0.095356	-0.096684	0.035156	67.4034	-0.095747	-1.466918	-0.023966	NaN
463	1.000000	1.002535	7.36959e+06	-53939.1	1005.82	-29745	0.000000	0.000000	7.003137	-0.057872	NaN	0.000000	0.001540	0.001723	28.079	0.108617	0.002078	52.262	36.1211	-165.597	-0.108718	1.001220	-0.055342	-0.056657	-0.057872	52.262	-0.054512	-0.124563	0.464605	NaN
463	1.000000	1.042555	7.36959e+06	-53939.1	1005.82	-29745	0.000000	0.000000	7.043160	0.003809	NaN	0.000000	0.001562	0.001737	28.0801	0.063077	0.001981	31.8447	-178.145	-166.874	-0.067267	1.041242	-0.015322	-0.016635	0.003809	31.8447	-0.015412	-0.009524	-0.399949	NaN
463	2.000000	1.068046	7.36959e+06	-53939.1	1005.82	-29745	0.000000	0.000000	7.069341	16.7901	NaN	0.000000	0.001574	0.001725	28.0799	14.7822	0.001760	8399.49	5.355136	-173.823	15.8588	1.067739	0.010169	0.009862	16.7901	8399.49	0.008669	0.007740	2169.26	87227.9
463	2.000000	1.078000	7.36959e+06	-53939.1	1005.82	-29745	0.000000	0.000000	7.080163	37.868	NaN	0.000000	0.001596	0.001726	28.0804	25.443	0.001771	14368	4.334444	-178.278	35.8219	1.077710	0.020123	0.019833	37.868	14368	0.018147	0.019713	1920.94	93495.5
463	2.000000	1.087966	7.36959e+06	-53939.1	1005.82	-29745	0.000000	0.000000	7.091307	66.5128	NaN	0.000000	0.001656	0.001798	28.0799	34.9439	0.001696	20608.8	3.044731	179.163	64.3633	1.087702	0.030089	0.029825	66.5128	20608.8	0.027669	0.036050	1844.99	99167.9
463	2.000000	1.097982	7.36959e+06	-53939.1	1005.82	-29745	0.000000	0.000000	7.102814	102.76	NaN	0.000000	0.001601	0.001802	28.0786	45.6309	0.001795	25421.5	6.839899	174.074	102.946	1.097574	0.040105	0.039698	102.76	25421.5	0.037074	0.056685	1812.84	97553.2
463	2.000000	1.108000	7.36959e+06	-53939.1	1005.82	-29745	0.000000	0.000000	7.114843	151.672	NaN	0.000000	0.001686	0.001727	28.0785	55.4384	0.001810	30624.8	6.592059	172.576	153.866	1.107677	0.050123	0.049801	151.672	30624.8	0.046408	0.081636	1857.91	97927.7
463	2.000000	1.117947	7.36959e+06	-53939.1	1005.82	-29745	0.000000	0.000000	7.127059	206.832	NaN	0.000000	0.001634	0.001737	28.0787	63.0147	0.001680	37506	1.836418	176.204	205.316	1.117584	0.060070	0.059708	206.832	37506	0.055934	0.111632	1852.8	102560
463	2.000000	1.127921	7.36959e+06	-53939.1	1005.82	-29745	0.000000	0.000000	7.139353	263.226	NaN	0.000000	0.001697	0.001753	28.08	72.5572	0.001876	38668.4	4.361926	173.293	260.413	1.127669	0.070044	0.069792	263.226	38668.4	0.064939	0.144111	1826.54	93063.6
463	2.000000	1.137864	7.36959e+06	-53939.1	1005.82	-29745	0.000000	0.000000	7.152040	329.959	NaN	0.000000	0.001570	0.001782	28.0798	81.5144	0.001855	43940.4	4.364236	172.518	325.767	1.137549	0.079987	0.079672	329.959	43940.4	0.074355	0.182252	1810.45	94037.4
463	2.000000	1.147899	7.36959e+06	-53939.1	1005.82	-29745	0.000000	0.000000	7.165038	401.991	NaN	0.000000	0.001576	0.001822	28.0798	90.0215	0.001784	50465.5	5.233700	170.628	400.482	1.147513	0.090022	0.089636	401.991	50465.5	0.084048	0.225880	1779.67	97012.9
463	2.000000	1.157800	7.36959e+06	-53939.1	1005.82	-29745	0.000000	0.000000	7.177854	472.859	NaN	0.000000	0.001644	0.001757	28.08	99.2756	0.001787	55540.1	4.324923	170.629	467.453	1.157541	0.099923	0.099664	472.859	55540.1	0.093537	0.272804	1733.33	97152.6
463	2.000000	1.161873	7.36959e+06	-53939.1	1005.82	-29745	0.000000	0.000000	7.183587	513.198	NaN	0.000000	0.001577	0.001835	28.0788	104.285	0.001751	59564.7	5.617122	169.186	511.745	1.161479	0.103996	0.103602	513.198	59564.7	0.097534	0.293801	1746.75	100400