File: remote_trans/data/nanoindenter/0828-1/data/Data_2025-08-06,11h17m57s/2025-07-22_16-23-58_1_353.txt
2025-07-22, 16:23:58, 1
Index	Phase	Displacement	Time	Pos X	Pos Y	Pos Z	Rot A	Rot B	Piezo Z	Force A	Force B	Gripper	Voltage A	Voltage B	Temperature	Amplitude force	Amplitude pos	Stiffness	Phase shift	Phase excitation	Force A raw	Displacement raw	HMax	HMax raw	Real Force	Real Stiffness	Contact Depth	Area	Hardness	Reduced Mod.
[#]	[#]	[um]	[s]	[um]	[um]	[um]	[m°]	[m°]	[um]	[uN]	[uN]	[V]	[V]	[V]	[°C]	[uN]	[um]	[N/m]	[°]	[°]	[uN]	[um]	[um]	[um]	[uN]	[N/m]	[um]	[um^2]	[MPa]	[MPa]
353	1.000000	0.002466	7.36851e+06	-56289.1	955.818	-29739.7	0.000000	0.000000	6.002793	0.004981	NaN	0.000000	0.001655	0.001685	28.0801	0.052613	0.000875	60.1412	58.702	-163.883	-0.009720	0.001202	-1.036124	-1.037388	0.004981	60.1412	-1.036186	-6.961059E+13	-7.155758E-17	NaN
353	1.000000	0.042436	7.36851e+06	-56289.1	955.817	-29739.7	0.000000	0.000000	6.042760	-0.041683	NaN	0.000000	0.001600	0.001653	28.0804	0.027329	0.001798	15.1976	-58.5956	-166.939	-0.073108	0.041125	-0.996154	-0.997465	-0.041683	15.1976	-0.994097	-1.889224E+13	2.206334E-15	NaN
353	1.000000	0.082433	7.36851e+06	-56289.1	955.818	-29739.7	0.000000	0.000000	6.082759	-0.017969	NaN	0.000000	0.001562	0.001679	28.0794	0.075847	0.001923	39.4488	121.101	-167.456	0.014954	0.081201	-0.956157	-0.957389	-0.017969	39.4488	-0.955815	-5.760290E+12	3.119380E-15	NaN
353	1.000000	0.122451	7.36851e+06	-56289.1	955.818	-29739.7	0.000000	0.000000	6.122778	0.022685	NaN	0.000000	0.001530	0.001654	28.0793	0.046973	0.002034	23.0996	70.9197	-163.755	0.011154	0.121130	-0.916139	-0.917460	0.022685	23.0996	-0.916875	-1.717969E+12	-1.320476E-14	NaN
353	1.000000	0.162476	7.36851e+06	-56289.1	955.818	-29739.7	0.000000	0.000000	6.162803	0.011158	NaN	0.000000	0.001558	0.001647	28.0793	0.110002	0.001967	55.9367	160.354	-163.907	0.090009	0.161100	-0.876114	-0.877490	0.011158	55.9367	-0.876263	-4.854817E+11	-2.298239E-14	NaN
353	1.000000	0.202458	7.36851e+06	-56289.1	955.819	-29739.7	0.000000	0.000000	6.202782	-0.041350	NaN	0.000000	0.001518	0.001665	28.0795	0.013134	0.002040	6.438925	-42.9625	-168.14	-0.003642	0.201207	-0.836132	-0.837383	-0.041350	6.438925	-0.831316	-1.195681E+11	3.458255E-13	NaN
353	1.000000	0.242494	7.36851e+06	-56289.1	955.818	-29739.7	0.000000	0.000000	6.242822	0.044646	NaN	0.000000	0.001516	0.001664	28.0804	0.119773	0.002105	56.9098	179.382	-165.028	0.129448	0.241260	-0.796096	-0.797330	0.044646	56.9098	-0.796685	-4.053726E+10	-1.101357E-12	NaN
353	1.000000	0.282544	7.36851e+06	-56289.1	955.819	-29739.7	0.000000	0.000000	6.282871	0.032044	NaN	0.000000	0.001519	0.001653	28.0805	0.042335	0.001979	21.3873	111.549	-161.568	-0.025578	0.281224	-0.756046	-0.757366	0.032044	21.3873	-0.757170	-1.177051E+10	-2.722374E-12	NaN
353	1.000000	0.322540	7.36851e+06	-56289.1	955.819	-29739.7	0.000000	0.000000	6.322866	0.005602	NaN	0.000000	0.001510	0.001690	28.0806	0.046335	0.001956	23.6902	-2.817761	-166.042	-0.156123	0.321277	-0.716050	-0.717313	0.005602	23.6902	-0.716228	-3.258517E+9	-1.719183E-12	NaN
353	1.000000	0.362562	7.36851e+06	-56289.1	955.817	-29739.7	0.000000	0.000000	6.362889	0.024826	NaN	0.000000	0.001521	0.001679	28.0793	0.120424	0.002116	56.9184	144.324	-168.304	0.027615	0.361276	-0.676028	-0.677314	0.024826	56.9184	-0.676355	-9.297057E+8	-2.670278E-11	NaN
353	1.000000	0.402555	7.36851e+06	-56289.1	955.819	-29739.7	0.000000	0.000000	6.402881	0.004586	NaN	0.000000	0.001490	0.001708	28.0794	0.017776	0.002001	8.882764	137.659	-164.417	0.021635	0.401254	-0.636035	-0.637336	0.004586	8.882764	-0.636423	-2.637531E+8	-1.738691E-11	NaN
353	1.000000	0.442576	7.36851e+06	-56289.1	955.818	-29739.7	0.000000	0.000000	6.442901	-0.031241	NaN	0.000000	0.001511	0.001710	28.0792	0.077223	0.001926	40.103	79.0211	-166.352	0.015582	0.441278	-0.596014	-0.597312	-0.031241	40.103	-0.595429	-7.202766E+7	4.337394E-10	NaN
353	1.000000	0.482596	7.36851e+06	-56289.1	955.818	-29739.7	0.000000	0.000000	6.482924	0.046809	NaN	0.000000	0.001506	0.001654	28.0806	0.161895	0.002108	76.785	-86.0172	-167.781	0.010099	0.481294	-0.555994	-0.557296	0.046809	76.785	-0.556451	-2.085807E+7	-2.244188E-9	NaN
353	1.000000	0.522607	7.36852e+06	-56289.1	955.818	-29739.7	0.000000	0.000000	6.522931	-0.026179	NaN	0.000000	0.001522	0.001664	28.0807	0.080394	0.002005	40.1012	-163.427	-163.57	-0.019622	0.521376	-0.515983	-0.517214	-0.026179	40.1012	-0.515494	-5.63515e+06	4.645607E-9	NaN
353	1.000000	0.562631	7.36852e+06	-56289.1	955.817	-29739.7	0.000000	0.000000	6.562957	0.001310	NaN	0.000000	0.001553	0.001671	28.0806	0.087979	0.001995	44.0921	159.514	-166.555	-0.013293	0.561347	-0.475959	-0.477243	0.001310	44.0921	-0.475981	-1.58214e+06	-8.281876E-10	NaN
353	1.000000	0.602667	7.36852e+06	-56289.1	955.817	-29739.7	0.000000	0.000000	6.602993	0.019723	NaN	0.000000	0.001514	0.001671	28.0805	0.099946	0.001955	51.1214	124.967	-168.38	0.013318	0.601372	-0.435923	-0.437218	0.019723	51.1214	-0.436213	-436405	-4.519434E-8	NaN
353	1.000000	0.642680	7.36852e+06	-56289.1	955.818	-29739.7	0.000000	0.000000	6.643007	0.014440	NaN	0.000000	0.001534	0.001710	28.0794	0.111809	0.002138	52.2868	-55.5623	-167.001	-0.011808	0.641377	-0.395910	-0.397213	0.014440	52.2868	-0.396117	-117647	-1.227365E-7	NaN
353	1.000000	0.682684	7.36852e+06	-56289.1	955.818	-29739.7	0.000000	0.000000	6.683009	-0.017206	NaN	0.000000	0.001507	0.001689	28.0793	0.037946	0.002022	18.7693	-7.542707	-166.987	-0.021575	0.681388	-0.355907	-0.357202	-0.017206	18.7693	-0.355219	-30385.6	5.662654E-7	NaN
353	1.000000	0.722710	7.36852e+06	-56289.1	955.816	-29739.7	0.000000	0.000000	6.723036	-0.012671	NaN	0.000000	0.001499	0.001640	28.0795	0.111685	0.002024	55.171	-102.803	-168.434	-0.025327	0.721416	-0.315880	-0.317174	-0.012671	55.171	-0.315707	-8042.42	1.575561E-6	NaN
353	1.000000	0.762718	7.36852e+06	-56289.1	955.818	-29739.7	0.000000	0.000000	6.763046	0.048578	NaN	0.000000	0.001518	0.001634	28.0807	0.065757	0.001933	34.0099	-67.25	-169.961	-0.001151	0.761367	-0.275872	-0.277224	0.048578	34.0099	-0.276944	-2122.32	-2.288900E-5	NaN
353	1.000000	0.802734	7.36852e+06	-56289.1	955.817	-29739.7	0.000000	0.000000	6.803061	0.012694	NaN	0.000000	0.001503	0.001681	28.0806	0.085614	0.002079	41.1763	113.274	-166.219	-0.046520	0.801403	-0.235856	-0.237187	0.012694	41.1763	-0.236087	-499.24	-2.542601E-5	NaN
353	1.000000	0.842735	7.36852e+06	-56289.1	955.818	-29739.7	0.000000	0.000000	6.843060	-0.003132	NaN	0.000000	0.001539	0.001700	28.0807	0.142431	0.001919	74.2264	39.71	-166.497	-0.016632	0.841464	-0.195855	-0.197126	-0.003132	74.2264	-0.195824	-112.419	2.785590E-5	NaN
353	1.000000	0.882774	7.36852e+06	-56289.1	955.818	-29739.7	0.000000	0.000000	6.883100	0.002581	NaN	0.000000	0.001559	0.001682	28.0805	0.079571	0.001844	43.1607	-149.71	-164.704	-0.044862	0.881527	-0.155816	-0.157063	0.002581	43.1607	-0.155861	-23.1238	-0.000112	NaN
353	1.000000	0.922796	7.36852e+06	-56289.1	955.819	-29739.7	0.000000	0.000000	6.923122	0.007690	NaN	0.000000	0.001546	0.001690	28.079	0.015578	0.002057	7.573432	-48.6613	-165.3	-0.004533	0.921532	-0.115794	-0.117058	0.007690	7.573432	-0.116555	-4.112055	-0.001870	NaN
353	1.000000	0.962829	7.36852e+06	-56289.1	955.818	-29739.7	0.000000	0.000000	6.963156	0.031168	NaN	0.000000	0.001540	0.001665	28.0792	0.072204	0.002092	34.5084	72.7708	-163.762	0.111550	0.961529	-0.075761	-0.077061	0.031168	34.5084	-0.076438	-0.502973	-0.061968	NaN
353	1.000000	1.002833	7.36852e+06	-56289.1	955.818	-29739.7	0.000000	0.000000	7.003161	0.051540	NaN	0.000000	0.001579	0.001649	28.0793	0.086094	0.002127	40.4815	159.113	-167.371	-0.072915	1.001550	-0.035757	-0.037040	0.051540	40.4815	-0.036712	-0.035996	-1.431838	NaN
353	1.000000	1.042806	7.36852e+06	-56289.1	955.817	-29739.7	0.000000	0.000000	7.043246	2.765735	NaN	0.000000	0.001552	0.001658	28.0807	3.692546	0.001903	1939.91	10.5031	-170.608	1.280407	1.041548	0.004216	0.002958	2.765735	1939.91	0.003147	0.002504	1104.49	35418.5
353	2.000000	1.056410	7.36852e+06	-56289.1	955.818	-29739.7	0.000000	0.000000	7.057571	20.3094	NaN	0.000000	0.001571	0.001695	28.0803	19.0314	0.002041	9326.02	9.970408	-178.587	21.043	1.056129	0.017820	0.017539	20.3094	9326.02	0.016187	0.016900	1201.71	65542.1
353	2.000000	1.066342	7.36852e+06	-56289.1	955.817	-29739.7	0.000000	0.000000	7.068325	40.295	NaN	0.000000	0.001542	0.001599	28.0805	27.0962	0.001790	15133.5	1.535806	-175.704	39.2728	1.066035	0.027752	0.027445	40.295	15133.5	0.025755	0.032403	1243.55	76810.4
353	2.000000	1.076294	7.36852e+06	-56289.1	955.817	-29739.7	0.000000	0.000000	7.079311	65.4103	NaN	0.000000	0.001543	0.001629	28.0793	36.4788	0.001784	20447.4	3.532468	178.752	63.3013	1.076009	0.037704	0.037419	65.4103	20447.4	0.035305	0.052458	1246.91	81565.1
353	2.000000	1.086291	7.36852e+06	-56289.1	955.817	-29739.7	0.000000	0.000000	7.090787	101.346	NaN	0.000000	0.001539	0.001652	28.0795	46.3248	0.001854	24984.9	5.160643	176.118	100.054	1.085969	0.047701	0.047379	101.346	24984.9	0.044659	0.076623	1322.66	82465.4
353	2.000000	1.096240	7.36852e+06	-56289.1	955.819	-29739.7	0.000000	0.000000	7.102372	141.126	NaN	0.000000	0.001534	0.001641	28.0793	56.3018	0.001916	29388.5	3.996862	174.971	138.026	1.096055	0.057650	0.057465	141.126	29388.5	0.054049	0.105337	1339.75	82729.3
353	2.000000	1.106254	7.36852e+06	-56289.1	955.819	-29739.7	0.000000	0.000000	7.114513	192.829	NaN	0.000000	0.001607	0.001678	28.0795	65.618	0.001715	38265.5	5.320638	171.734	190.307	1.105958	0.067664	0.067368	192.829	38265.5	0.063884	0.140104	1376.32	93401.7
353	2.000000	1.116189	7.36852e+06	-56289.1	955.817	-29739.7	0.000000	0.000000	7.126780	249.53	NaN	0.000000	0.001595	0.001705	28.0801	74.2758	0.001900	39084.1	2.833204	174.838	245.723	1.115886	0.077599	0.077295	249.53	39084.1	0.072810	0.175708	1420.14	85187.8
353	2.000000	1.126189	7.36852e+06	-56289.1	955.818	-29739.7	0.000000	0.000000	7.139457	314.59	NaN	0.000000	0.001544	0.001664	28.0803	83.3344	0.001631	51097.2	1.025312	174.179	310.968	1.125988	0.087599	0.087398	314.59	51097.2	0.082981	0.220865	1424.35	99336
353	2.000000	1.136191	7.36852e+06	-56289.1	955.817	-29739.7	0.000000	0.000000	7.152097	378.705	NaN	0.000000	0.001541	0.001639	28.0804	93.2616	0.001853	50342.7	2.194116	173.39	375.99	1.135955	0.097601	0.097365	378.705	50342.7	0.091959	0.264715	1430.61	89396.6
353	2.000000	1.146182	7.36852e+06	-56289.1	955.817	-29739.7	0.000000	0.000000	7.165526	462.251	NaN	0.000000	0.001558	0.001664	28.0789	102.91	0.001761	58446.7	5.263138	169.059	459.317	1.145807	0.107592	0.107217	462.251	58446.7	0.101661	0.316244	1461.69	94956