File: remote_trans/data/nanoindenter/0828-1/data/Data_2025-08-06,11h17m57s/2025-07-22_16-23-58_1_476.txt
2025-07-22, 16:23:58, 1
Index	Phase	Displacement	Time	Pos X	Pos Y	Pos Z	Rot A	Rot B	Piezo Z	Force A	Force B	Gripper	Voltage A	Voltage B	Temperature	Amplitude force	Amplitude pos	Stiffness	Phase shift	Phase excitation	Force A raw	Displacement raw	HMax	HMax raw	Real Force	Real Stiffness	Contact Depth	Area	Hardness	Reduced Mod.
[#]	[#]	[um]	[s]	[um]	[um]	[um]	[m°]	[m°]	[um]	[uN]	[uN]	[V]	[V]	[V]	[°C]	[uN]	[um]	[N/m]	[°]	[°]	[uN]	[um]	[um]	[um]	[uN]	[N/m]	[um]	[um^2]	[MPa]	[MPa]
476	1.000000	0.002437	7.36971e+06	-53289.1	1005.82	-29746.7	0.000000	0.000000	6.002828	-0.031288	NaN	0.000000	0.001630	0.001789	28.0827	0.055263	0.001005	55.0038	93.9692	-166.493	-0.000753	0.001193	-1.070468	-1.071712	-0.031288	55.0038	-1.070042	-1.984947E+14	1.576252E-16	NaN
476	1.000000	0.042361	7.36971e+06	-53289.1	1005.82	-29746.7	0.000000	0.000000	6.042753	-0.013918	NaN	0.000000	0.001613	0.001803	28.0816	0.113077	0.001999	56.5795	-137.268	-164.116	0.082976	0.041029	-1.030544	-1.031876	-0.013918	56.5795	-1.030359	-5.811856E+13	2.394681E-16	NaN
476	1.000000	0.082360	7.36971e+06	-53289.1	1005.82	-29746.7	0.000000	0.000000	6.082751	-0.038147	NaN	0.000000	0.001611	0.001813	28.0817	0.077351	0.002023	38.2295	161.154	-168.6	0.051546	0.081023	-0.990545	-0.991882	-0.038147	38.2295	-0.989797	-1.653380E+13	2.307199E-15	NaN
476	1.000000	0.122376	7.36971e+06	-53289.1	1005.82	-29746.8	0.000000	0.000000	6.122770	0.032460	NaN	0.000000	0.001665	0.001816	28.0816	0.133507	0.001991	67.0524	136.213	-163.798	-0.006410	0.121072	-0.950529	-0.951833	0.032460	67.0524	-0.950892	-4.943774E+12	-6.565880E-15	NaN
476	1.000000	0.162401	7.36971e+06	-53289.1	1005.82	-29746.8	0.000000	0.000000	6.162791	-0.067188	NaN	0.000000	0.001718	0.001776	28.0829	0.040831	0.002049	19.9245	-131.448	-164.741	0.017114	0.161098	-0.910504	-0.911807	-0.067188	19.9245	-0.907975	-1.302602E+12	5.157996E-14	NaN
476	1.000000	0.202411	7.36971e+06	-53289.1	1005.82	-29746.8	0.000000	0.000000	6.202801	-0.067367	NaN	0.000000	0.001649	0.001765	28.0829	0.079253	0.002073	38.2268	58.9991	-164.605	-0.131267	0.201123	-0.870494	-0.871782	-0.067367	38.2268	-0.869172	-3.892636E+11	1.730638E-13	NaN
476	1.000000	0.242444	7.36971e+06	-53289.1	1005.82	-29746.8	0.000000	0.000000	6.242838	0.021586	NaN	0.000000	0.001635	0.001773	28.0827	0.134453	0.002030	66.2383	7.733411	-164.887	-0.032699	0.241110	-0.830461	-0.831795	0.021586	66.2383	-0.830705	-1.173113E+11	-1.840054E-13	NaN
476	1.000000	0.282477	7.36971e+06	-53289.1	1005.82	-29746.8	0.000000	0.000000	6.282869	-0.039726	NaN	0.000000	0.001637	0.001749	28.0828	0.061270	0.001974	31.0461	-103.324	-168.029	0.014637	0.281146	-0.790427	-0.791759	-0.039726	31.0461	-0.789468	-3.234859E+10	1.228071E-12	NaN
476	1.000000	0.322450	7.36971e+06	-53289.1	1005.82	-29746.8	0.000000	0.000000	6.322841	-0.034955	NaN	0.000000	0.001595	0.001753	28.0816	0.054457	0.001964	27.722	-53.0818	-165.58	-0.035563	0.321193	-0.750455	-0.751712	-0.034955	27.722	-0.749510	-9.258581E+9	3.775437E-12	NaN
476	1.000000	0.362482	7.36971e+06	-53289.1	1005.82	-29746.8	0.000000	0.000000	6.362874	-0.030948	NaN	0.000000	0.001629	0.001729	28.0814	0.080059	0.002005	39.9319	111.234	-169.481	-0.062145	0.361198	-0.710423	-0.711707	-0.030948	39.9319	-0.709842	-2.666160E+9	1.160774E-11	NaN
476	1.000000	0.402524	7.36971e+06	-53289.1	1005.82	-29746.8	0.000000	0.000000	6.402915	-0.040875	NaN	0.000000	0.001635	0.001784	28.0813	0.064955	0.002104	30.8782	-105.678	-165.957	-0.042320	0.401156	-0.670381	-0.671749	-0.040875	30.8782	-0.669388	-7.464832E+8	5.475668E-11	NaN
476	1.000000	0.442546	7.36971e+06	-53289.1	1005.82	-29746.8	0.000000	0.000000	6.442938	-0.017087	NaN	0.000000	0.001651	0.001786	28.0828	0.074116	0.001988	37.2862	139.809	-164.519	-0.050062	0.441206	-0.630359	-0.631699	-0.017087	37.2862	-0.630015	-2.153907E+8	7.932980E-11	NaN
476	1.000000	0.482548	7.36971e+06	-53289.1	1005.82	-29746.8	0.000000	0.000000	6.482936	-0.125682	NaN	0.000000	0.001666	0.001738	28.0832	0.037897	0.002005	18.9002	154.862	-169.412	-0.085593	0.481255	-0.590357	-0.591650	-0.125682	18.9002	-0.585369	-5.233696E+7	2.401404E-9	NaN
476	1.000000	0.522557	7.36971e+06	-53289.1	1005.82	-29746.8	0.000000	0.000000	6.522952	0.048941	NaN	0.000000	0.001663	0.001764	28.083	0.097818	0.002042	47.9073	-106.282	-169.782	-0.022186	0.521240	-0.550348	-0.551665	0.048941	47.9073	-0.551114	-1.759492E+7	-2.781539E-9	NaN
476	1.000000	0.562567	7.36971e+06	-53289.1	1005.82	-29746.8	0.000000	0.000000	6.562957	-0.061434	NaN	0.000000	0.001622	0.001746	28.0828	0.110595	0.001956	56.5409	-28.9164	-167.009	0.046816	0.561280	-0.510338	-0.511625	-0.061434	56.5409	-0.509523	-4.65342e+06	1.320185E-8	NaN
476	1.000000	0.602585	7.36971e+06	-53289.1	1005.82	-29746.8	0.000000	0.000000	6.602976	-0.037897	NaN	0.000000	0.001637	0.001755	28.0816	0.021147	0.002087	10.1312	-53.8967	-169.876	-0.051770	0.601327	-0.470320	-0.471578	-0.037897	10.1312	-0.467515	-1.20377e+06	3.148184E-8	NaN
476	1.000000	0.642597	7.36971e+06	-53289.1	1005.82	-29746.8	0.000000	0.000000	6.642986	-0.094500	NaN	0.000000	0.001615	0.001765	28.0817	0.032602	0.002033	16.0331	144.372	-167.797	-0.133426	0.641258	-0.430308	-0.431647	-0.094500	16.0331	-0.425887	-311778	3.031013E-7	NaN
476	1.000000	0.682607	7.36971e+06	-53289.1	1005.82	-29746.8	0.000000	0.000000	6.682997	-0.065446	NaN	0.000000	0.001659	0.001813	28.0817	0.047382	0.002028	23.3658	-50.1736	-166.99	-0.042343	0.681341	-0.390298	-0.391564	-0.065446	23.3658	-0.388197	-90650.2	7.219641E-7	NaN
476	1.000000	0.722653	7.36971e+06	-53289.1	1005.82	-29746.8	0.000000	0.000000	6.723044	-0.046798	NaN	0.000000	0.001626	0.001750	28.0831	0.033562	0.002141	15.6761	121.791	-166.98	-0.048123	0.721362	-0.350252	-0.351543	-0.046798	15.6761	-0.348013	-23886.5	1.959169E-6	NaN
476	1.000000	0.762648	7.36971e+06	-53289.1	1005.82	-29746.8	0.000000	0.000000	6.763043	0.044784	NaN	0.000000	0.001622	0.001811	28.083	0.079447	0.001956	40.6178	-170.683	-167.779	-0.007587	0.761352	-0.310257	-0.311553	0.044784	40.6178	-0.311084	-6872.1	-6.516839E-6	NaN
476	1.000000	0.802666	7.36971e+06	-53289.1	1005.82	-29746.8	0.000000	0.000000	6.803056	-0.056692	NaN	0.000000	0.001682	0.001793	28.0831	0.083468	0.002002	41.6953	-117.089	-165.633	-0.075852	0.801381	-0.270239	-0.271523	-0.056692	41.6953	-0.269220	-1620.61	3.498175E-5	NaN
476	1.000000	0.842690	7.36971e+06	-53289.1	1005.82	-29746.8	0.000000	0.000000	6.843081	-0.031416	NaN	0.000000	0.001688	0.001781	28.0828	0.106878	0.002080	51.3924	-32.5226	-166.349	0.012326	0.841362	-0.230215	-0.231543	-0.031416	51.3924	-0.229757	-396.898	7.915312E-5	NaN
476	1.000000	0.882711	7.36971e+06	-53289.1	1005.82	-29746.8	0.000000	0.000000	6.883104	0.002586	NaN	0.000000	0.001719	0.001800	28.0818	0.089519	0.002068	43.296	-140.554	-167.365	-0.028411	0.881394	-0.190194	-0.191511	0.002586	43.296	-0.190239	-90.7845	-2.848817E-5	NaN
476	1.000000	0.922745	7.36971e+06	-53289.1	1005.82	-29746.8	0.000000	0.000000	6.923135	-0.056250	NaN	0.000000	0.001658	0.001770	28.0817	0.035595	0.001997	17.8222	99.4719	-164.75	-0.047296	0.921412	-0.150160	-0.151493	-0.056250	17.8222	-0.147793	-16.5056	0.003408	NaN
476	1.000000	0.962739	7.36971e+06	-53289.1	1005.82	-29746.8	0.000000	0.000000	6.963130	-0.049932	NaN	0.000000	0.001670	0.001708	28.0818	0.071132	0.002052	34.6725	-7.944785	-167.998	-0.019886	0.961495	-0.110166	-0.111410	-0.049932	34.6725	-0.109086	-2.874465	0.017371	NaN
476	1.000000	1.002765	7.36971e+06	-53289.1	1005.82	-29746.8	0.000000	0.000000	7.003158	0.015486	NaN	0.000000	0.001620	0.001785	28.083	0.050530	0.002102	24.0432	-74.6495	-166.029	0.057697	1.001434	-0.070140	-0.071471	0.015486	24.0432	-0.070623	-0.354451	-0.043691	NaN
476	1.000000	1.042757	7.36971e+06	-53289.1	1005.82	-29746.8	0.000000	0.000000	7.043148	-0.043600	NaN	0.000000	0.001586	0.001809	28.0828	0.132528	0.001946	68.1187	120.164	-165.786	-0.121687	1.041467	-0.030148	-0.031438	-0.043600	68.1187	-0.029667	-0.022528	1.935368	NaN
476	2.000000	1.076239	7.36971e+06	-53289.1	1005.82	-29746.8	0.000000	0.000000	7.077217	14.2274	NaN	0.000000	0.001645	0.001809	28.0831	10.6218	0.001766	6014.45	13.4248	-178.428	13.5201	1.075914	0.003334	0.003009	14.2274	6014.45	0.001560	0.001202	11839.1	158513
476	2.000000	1.086169	7.36971e+06	-53289.1	1005.82	-29746.8	0.000000	0.000000	7.088886	56.5163	NaN	0.000000	0.001611	0.001773	28.0826	21.7121	0.001808	12011.4	3.972651	-176.26	55.3538	1.085852	0.013264	0.012947	56.5163	12011.4	0.009735	0.008888	6358.42	116401
476	2.000000	1.096155	7.36971e+06	-53289.1	1005.82	-29746.8	0.000000	0.000000	7.101455	119.314	NaN	0.000000	0.001623	0.001822	28.0829	29.7462	0.001855	16037.7	2.846551	-178.862	116.919	1.095845	0.023250	0.022940	119.314	16037.7	0.017671	0.019013	6275.26	106264
476	2.000000	1.106141	7.36971e+06	-53289.1	1005.82	-29746.8	0.000000	0.000000	7.115540	218.976	NaN	0.000000	0.001601	0.001800	28.0825	40.7637	0.001789	22781.7	1.521706	179.852	217.802	1.105826	0.033236	0.032921	218.976	22781.7	0.026027	0.032910	6653.82	114735
476	2.000000	1.116155	7.36971e+06	-53289.1	1005.82	-29746.8	0.000000	0.000000	7.130328	335.032	NaN	0.000000	0.001688	0.001829	28.0822	50.0525	0.001955	25606	5.850196	175.023	334.764	1.115787	0.043250	0.042882	335.032	25606	0.033437	0.048169	6955.36	106594
476	2.000000	1.125990	7.36972e+06	-53289.1	1005.82	-29746.8	0.000000	0.000000	7.145198	457.454	NaN	0.000000	0.001634	0.001807	28.083	57.571	0.001905	30223	4.641512	173.715	450.046	1.125681	0.053085	0.052776	457.454	30223	0.041733	0.068584	6669.97	105438
476	2.000000	1.136021	7.36972e+06	-53289.1	1005.82	-29746.8	0.000000	0.000000	7.160586	587.705	NaN	0.000000	0.001598	0.001813	28.0827	64.3017	0.001820	35328.7	6.604742	170.451	582.583	1.135672	0.063116	0.062767	587.705	35328.7	0.050639	0.094399	6225.73	105055
476	2.000000	1.146081	7.36972e+06	-53289.1	1005.82	-29746.8	0.000000	0.000000	7.175746	711.698	NaN	0.000000	0.001637	0.001812	28.0832	70.9434	0.001839	38579.6	5.225426	172.708	709.992	1.145633	0.073176	0.072728	711.698	38579.6	0.059341	0.123454	5764.86	100318
476	2.000000	1.157023	7.36972e+06	-53289.1	1005.82	-29746.8	0.000000	0.000000	7.189380	777.141	NaN	0.000000	0.001659	0.001806	28.0816	75.4109	0.001940	38876.3	6.419044	170.139	828.863	1.156021	0.084118	0.083116	777.141	38876.3	0.069125	0.160547	4840.59	88645.6
476	2.000000	1.165970	7.36972e+06	-53289.1	1005.82	-29746.8	0.000000	0.000000	7.202051	867.692	NaN	0.000000	0.001633	0.001903	28.0816	84.5105	0.001874	45088.7	2.306350	173.484	860.929	1.165774	0.093065	0.092869	867.692	45088.7	0.078632	0.200962	4317.69	91893.3
476	2.000000	1.172521	7.36972e+06	-53289.1	1005.82	-29746.8	0.000000	0.000000	7.212796	969.664	NaN	0.000000	0.001679	0.001851	28.0817	88.5026	0.001767	50075.9	0.653030	-4.906732	964.083	1.172107	0.099616	0.099202	969.664	50075.9	0.085093	0.230845	4200.49	95222.9