File: remote_trans/data/nanoindenter/0828-1/data/Data_2025-08-06,11h17m57s/2025-07-22_16-23-58_1_1038.txt
2025-07-22, 16:23:58, 1
Index	Phase	Displacement	Time	Pos X	Pos Y	Pos Z	Rot A	Rot B	Piezo Z	Force A	Force B	Gripper	Voltage A	Voltage B	Temperature	Amplitude force	Amplitude pos	Stiffness	Phase shift	Phase excitation	Force A raw	Displacement raw	HMax	HMax raw	Real Force	Real Stiffness	Contact Depth	Area	Hardness	Reduced Mod.
[#]	[#]	[um]	[s]	[um]	[um]	[um]	[m°]	[m°]	[um]	[uN]	[uN]	[V]	[V]	[V]	[°C]	[uN]	[um]	[N/m]	[°]	[°]	[uN]	[um]	[um]	[um]	[uN]	[N/m]	[um]	[um^2]	[MPa]	[MPa]
1038	1.000000	0.002163	7.3752e+06	-52039.1	1055.82	-29750.2	0.000000	0.000000	6.002833	-0.046599	NaN	0.000000	0.001609	0.001796	28.0838	0.088846	0.001000	88.8494	-109.438	-161.561	0.047316	0.000827	-1.155001	-1.156337	-0.046599	88.8494	-1.154607	-2.707590E+15	1.721057E-17	NaN
1038	1.000000	0.046066	7.3752e+06	-52039.1	1055.82	-29750.2	0.000000	0.000000	6.046737	-0.004667	NaN	0.000000	0.001577	0.001718	28.0826	0.026932	0.001918	14.0452	2.965672	-163.097	-0.050575	0.044791	-1.111098	-1.112372	-0.004667	14.0452	-1.110849	-7.009392E+14	6.658001E-18	NaN
1038	1.000000	0.090103	7.3752e+06	-52039.1	1055.82	-29750.2	0.000000	0.000000	6.090774	-0.019502	NaN	0.000000	0.001606	0.001720	28.0823	0.043993	0.001960	22.446	-119.808	-163.808	0.029520	0.088790	-1.067060	-1.068374	-0.019502	22.446	-1.066409	-1.773936E+14	1.099387E-16	NaN
1038	1.000000	0.134115	7.3752e+06	-52039.1	1055.82	-29750.2	0.000000	0.000000	6.134790	0.074450	NaN	0.000000	0.001592	0.001737	28.082	0.053451	0.002052	26.0436	49.9871	-163.343	0.017690	0.132799	-1.023049	-1.024365	0.074450	26.0436	-1.025193	-4.952364E+13	-1.503329E-15	NaN
1038	1.000000	0.178150	7.3752e+06	-52039.1	1055.82	-29750.2	0.000000	0.000000	6.178820	-0.023444	NaN	0.000000	0.001584	0.001700	28.0818	0.100669	0.001997	50.4153	24.255	-167.255	0.042999	0.176829	-0.979014	-0.980335	-0.023444	50.4153	-0.978665	-1.170653E+13	2.002655E-15	NaN
1038	1.000000	0.222153	7.3752e+06	-52039.1	1055.82	-29750.2	0.000000	0.000000	6.222824	-0.020213	NaN	0.000000	0.001638	0.001742	28.0831	0.064468	0.001903	33.8844	116.957	-162.162	0.052672	0.220854	-0.935011	-0.936310	-0.020213	33.8844	-0.934563	-2.977025E+12	6.789608E-15	NaN
1038	1.000000	0.266150	7.3752e+06	-52039.1	1055.82	-29750.2	0.000000	0.000000	6.266822	0.016183	NaN	0.000000	0.001661	0.001728	28.0831	0.107173	0.001961	54.6464	-110.226	-168.393	0.019459	0.264903	-0.891014	-0.892260	0.016183	54.6464	-0.891236	-7.737911E+11	-2.091344E-14	NaN
1038	1.000000	0.310159	7.3752e+06	-52039.1	1055.82	-29750.2	0.000000	0.000000	6.310830	-0.003112	NaN	0.000000	0.001581	0.001720	28.0831	0.015201	0.002062	7.371880	30.3881	-164.913	0.022805	0.308874	-0.847005	-0.848290	-0.003112	7.371880	-0.846688	-1.931474E+11	1.611416E-14	NaN
1038	1.000000	0.354210	7.3752e+06	-52039.1	1055.82	-29750.2	0.000000	0.000000	6.354881	-0.019366	NaN	0.000000	0.001623	0.001724	28.082	0.108051	0.001979	54.5944	-143.234	-166.048	-0.005826	0.352917	-0.802953	-0.804247	-0.019366	54.5944	-0.802687	-4.890355E+10	3.959968E-13	NaN
1038	1.000000	0.398224	7.3752e+06	-52039.1	1055.82	-29750.2	0.000000	0.000000	6.398896	0.024325	NaN	0.000000	0.001672	0.001707	28.0823	0.089779	0.002026	44.3189	-7.624980	-163.945	0.034865	0.396900	-0.758940	-0.760264	0.024325	44.3189	-0.759352	-1.260321E+10	-1.930035E-12	NaN
1038	1.000000	0.442246	7.3752e+06	-52039.1	1055.82	-29750.2	0.000000	0.000000	6.442919	0.037700	NaN	0.000000	0.001654	0.001715	28.0821	0.143862	0.001946	73.9461	109.238	-161.469	0.037693	0.440885	-0.714918	-0.716279	0.037700	73.9461	-0.715300	-3.164939E+9	-1.191176E-11	NaN
1038	1.000000	0.486243	7.3752e+06	-52039.1	1055.82	-29750.2	0.000000	0.000000	6.486917	0.039412	NaN	0.000000	0.001630	0.001695	28.0833	0.075809	0.001988	38.1357	83.8257	-167.445	-0.004976	0.484940	-0.670920	-0.672224	0.039412	38.1357	-0.671696	-8.027773E+8	-4.909518E-11	NaN
1038	1.000000	0.530282	7.3752e+06	-52039.1	1055.82	-29750.2	0.000000	0.000000	6.530951	-0.049236	NaN	0.000000	0.001572	0.001717	28.083	0.023718	0.002025	11.7136	-113.896	-163.632	0.002349	0.529030	-0.626882	-0.628134	-0.049236	11.7136	-0.623729	-1.765574E+8	2.788680E-10	NaN
1038	1.000000	0.574306	7.3752e+06	-52039.1	1055.82	-29750.2	0.000000	0.000000	6.574975	-0.064831	NaN	0.000000	0.001605	0.001682	28.0831	0.001237	0.001957	0.632008	-18.5531	-165.992	-0.059702	0.572953	-0.582858	-0.584211	-0.064831	0.632008	-0.505923	-4.14578e+06	1.563793E-8	NaN
1038	1.000000	0.618337	7.3752e+06	-52039.1	1055.82	-29750.2	0.000000	0.000000	6.619007	-0.029530	NaN	0.000000	0.001575	0.001688	28.0821	0.072004	0.001946	36.9951	41.8313	-163.424	-0.041003	0.617024	-0.538827	-0.540140	-0.029530	36.9951	-0.538228	-1.166223E+7	2.532133E-9	NaN
1038	1.000000	0.662340	7.3752e+06	-52039.1	1055.82	-29750.2	0.000000	0.000000	6.663007	-0.103160	NaN	0.000000	0.001553	0.001706	28.0821	0.041119	0.001991	20.6529	-102.676	-164.809	-0.001899	0.661043	-0.494824	-0.496120	-0.103160	20.6529	-0.491078	-2.57309e+06	4.009175E-8	NaN
1038	1.000000	0.706355	7.3752e+06	-52039.1	1055.82	-29750.2	0.000000	0.000000	6.707024	-0.062845	NaN	0.000000	0.001580	0.001716	28.0821	0.071283	0.002068	34.4658	-100.82	-163.863	-0.011499	0.705053	-0.450808	-0.452111	-0.062845	34.4658	-0.449441	-670605	9.371453E-8	NaN
1038	1.000000	0.750363	7.3752e+06	-52039.1	1055.82	-29750.2	0.000000	0.000000	6.751034	-0.017173	NaN	0.000000	0.001594	0.001695	28.0832	0.012308	0.001946	6.324087	-43.5748	-163.959	-0.021913	0.748995	-0.406801	-0.408168	-0.017173	6.324087	-0.404764	-156276	1.098893E-7	NaN
1038	1.000000	0.794385	7.3752e+06	-52039.1	1055.82	-29750.2	0.000000	0.000000	6.795057	0.008304	NaN	0.000000	0.001580	0.001702	28.0833	0.124068	0.001914	64.8065	9.225032	-164.539	-0.098914	0.793051	-0.362779	-0.364113	0.008304	64.8065	-0.362875	-39208.2	-2.117930E-7	NaN
1038	1.000000	0.838395	7.3752e+06	-52039.1	1055.82	-29750.2	0.000000	0.000000	6.839066	-0.028546	NaN	0.000000	0.001613	0.001696	28.0833	0.097378	0.001982	49.1413	133.734	-167.454	-0.055862	0.837103	-0.318768	-0.320061	-0.028546	49.1413	-0.318333	-8791.97	3.246872E-6	NaN
1038	1.000000	0.882441	7.3752e+06	-52039.1	1055.82	-29750.2	0.000000	0.000000	6.883113	-0.001311	NaN	0.000000	0.001623	0.001711	28.0821	0.097775	0.002033	48.0903	55.1259	-162.997	-0.016714	0.881066	-0.274723	-0.276098	-0.001311	48.0903	-0.274702	-1962.87	6.679056E-7	NaN
1038	1.000000	0.926438	7.3752e+06	-52039.1	1055.82	-29750.2	0.000000	0.000000	6.927108	-0.050594	NaN	0.000000	0.001551	0.001720	28.082	0.013529	0.001998	6.770408	-95.458	-163.061	0.039122	0.925167	-0.230725	-0.231996	-0.050594	6.770408	-0.225121	-335.161	0.000151	NaN
1038	1.000000	0.970491	7.3752e+06	-52039.1	1055.82	-29750.2	0.000000	0.000000	6.971161	-0.037852	NaN	0.000000	0.001585	0.001717	28.0822	0.072376	0.001926	37.5752	-72.4489	-167.361	-0.007004	0.969142	-0.186673	-0.188022	-0.037852	37.5752	-0.185917	-76.8381	0.000493	NaN
1038	1.000000	1.014494	7.37521e+06	-52039.1	1055.82	-29750.2	0.000000	0.000000	7.015165	-0.011839	NaN	0.000000	0.001661	0.001708	28.0837	0.058925	0.001977	29.8044	126.973	-165.702	-0.020891	1.013193	-0.142670	-0.143971	-0.011839	29.8044	-0.142372	-13.1026	0.000904	NaN
1038	1.000000	1.058486	7.37521e+06	-52039.1	1055.82	-29750.2	0.000000	0.000000	7.059157	-0.005176	NaN	0.000000	0.001651	0.001751	28.0834	0.122561	0.001904	64.3799	-92.6277	-162.828	0.063759	1.057172	-0.098678	-0.099991	-0.005176	64.3799	-0.098618	-1.702240	0.003040	NaN
1038	1.000000	1.102525	7.37521e+06	-52039.1	1055.82	-29750.2	0.000000	0.000000	7.103197	0.000593	NaN	0.000000	0.001619	0.001717	28.0836	0.094822	0.001958	48.4299	5.067153	-165.396	-0.028926	1.101160	-0.054639	-0.056003	0.000593	48.4299	-0.054648	-0.125726	-0.004718	NaN
1038	1.000000	1.146532	7.37521e+06	-52039.1	1055.82	-29750.2	0.000000	0.000000	7.147202	-0.022983	NaN	0.000000	0.001650	0.001718	28.0824	0.039664	0.001999	19.8393	59.9169	-159.743	-0.074879	1.145188	-0.010632	-0.011976	-0.022983	19.8393	-0.009763	-0.006252	3.676161	NaN
1038	2.000000	1.170065	7.37521e+06	-52039.1	1055.82	-29750.2	0.000000	0.000000	7.171530	19.2925	NaN	0.000000	0.001642	0.001656	28.082	16.8144	0.001845	9115.25	7.823878	-175.09	19.9214	1.169686	0.012902	0.012522	19.2925	9115.25	0.011314	0.010679	1806.58	80589
1038	2.000000	1.181009	7.37521e+06	-52039.1	1055.82	-29750.2	0.000000	0.000000	7.183598	46.6216	NaN	0.000000	0.001640	0.001774	28.0821	27.9236	0.001822	15322	6.561646	-178.716	47.35	1.180627	0.023846	0.023463	46.6216	15322	0.021564	0.025059	1860.47	88431.7
1038	2.000000	1.191996	7.37521e+06	-52039.1	1055.82	-29750.2	0.000000	0.000000	7.196302	88.3648	NaN	0.000000	0.001639	0.001774	28.0831	38.2926	0.001890	20261.4	5.782514	179.89	89.0172	1.191638	0.034832	0.034475	88.3648	20261.4	0.031561	0.044042	2006.39	88208.6
1038	2.000000	1.202907	7.37521e+06	-52039.1	1055.82	-29750.2	0.000000	0.000000	7.209226	137.315	NaN	0.000000	0.001644	0.001754	28.0833	49.3848	0.001742	28354.1	4.079417	176.468	134.579	1.202642	0.045743	0.045478	137.315	28354.1	0.042111	0.069597	1972.99	98195.7
1038	2.000000	1.213877	7.37521e+06	-52039.1	1055.82	-29750.2	0.000000	0.000000	7.222572	195.094	NaN	0.000000	0.001602	0.001749	28.0843	59.0738	0.001839	32124.3	3.793573	176.772	190.569	1.213557	0.056713	0.056393	195.094	32124.3	0.052158	0.099200	1966.68	93186.1
1038	2.000000	1.224843	7.37521e+06	-52039.1	1055.82	-29750.2	0.000000	0.000000	7.236197	259.764	NaN	0.000000	0.001590	0.001705	28.083	69.2379	0.001818	38088.8	5.895122	173.261	255.712	1.224624	0.067679	0.067460	259.764	38088.8	0.062564	0.135163	1921.87	94654.8
1038	2.000000	1.235910	7.37521e+06	-52039.1	1055.82	-29750.2	0.000000	0.000000	7.250509	338.645	NaN	0.000000	0.001599	0.001708	28.0821	79.0844	0.001790	44186.3	3.499390	174.988	338.568	1.235663	0.078747	0.078499	338.645	44186.3	0.072999	0.176500	1918.67	96092.3
1038	2.000000	1.246843	7.37521e+06	-52039.1	1055.82	-29750.2	0.000000	0.000000	7.265084	427.211	NaN	0.000000	0.001628	0.001742	28.0821	90.1825	0.001764	51112.1	4.908871	172.621	423.652	1.246563	0.089679	0.089399	427.211	51112.1	0.083411	0.222878	1916.79	98915.3
1038	2.000000	1.257807	7.37521e+06	-52039.1	1055.82	-29750.2	0.000000	0.000000	7.279943	521.923	NaN	0.000000	0.001600	0.001729	28.0823	99.5521	0.001838	54166.7	5.047366	172.767	516.918	1.257467	0.100643	0.100304	521.923	54166.7	0.093417	0.272182	1917.55	94858.5
1038	2.000000	1.261842	7.37521e+06	-52039.1	1055.82	-29750.2	0.000000	0.000000	7.285273	553.405	NaN	0.000000	0.001593	0.001746	28.0834	102.302	0.001742	58732.1	3.832966	172.879	549.629	1.261568	0.104679	0.104404	553.405	58732.1	0.097612	0.294216	1880.94	98927.1