File: remote_trans/data/nanoindenter/0828-1/data/Data_2025-08-06,11h17m57s/2025-07-22_16-23-58_1_59.txt
2025-07-22, 16:23:58, 1
Index	Phase	Displacement	Time	Pos X	Pos Y	Pos Z	Rot A	Rot B	Piezo Z	Force A	Force B	Gripper	Voltage A	Voltage B	Temperature	Amplitude force	Amplitude pos	Stiffness	Phase shift	Phase excitation	Force A raw	Displacement raw	HMax	HMax raw	Real Force	Real Stiffness	Contact Depth	Area	Hardness	Reduced Mod.
[#]	[#]	[um]	[s]	[um]	[um]	[um]	[m°]	[m°]	[um]	[uN]	[uN]	[V]	[V]	[V]	[°C]	[uN]	[um]	[N/m]	[°]	[°]	[uN]	[um]	[um]	[um]	[uN]	[N/m]	[um]	[um^2]	[MPa]	[MPa]
59	1.000000	0.002369	7.36562e+06	-41589.1	955.819	-29786.4	0.000000	0.000000	6.002804	-0.052312	NaN	0.000000	0.001592	0.001766	28.0857	0.060449	0.000967	62.5397	97.959	-162.974	-0.092976	0.001094	-1.072031	-1.073306	-0.052312	62.5397	-1.071403	-2.070340E+14	2.526740E-16	NaN
59	1.000000	0.042327	7.36562e+06	-41589.1	955.818	-29786.4	0.000000	0.000000	6.042768	0.083833	NaN	0.000000	0.001583	0.001713	28.0837	0.035174	0.001936	18.1695	13.3394	-166.023	0.001660	0.041017	-1.032073	-1.033383	0.083833	18.1695	-1.035533	-6.821808E+13	-1.228901E-15	NaN
59	1.000000	0.082339	7.36562e+06	-41589.1	955.818	-29786.4	0.000000	0.000000	6.082776	-0.002146	NaN	0.000000	0.001569	0.001681	28.0851	0.041934	0.002084	20.1261	-128.829	-164.417	-0.046693	0.081010	-0.992061	-0.993390	-0.002146	20.1261	-0.991981	-1.769256E+13	1.213201E-16	NaN
59	1.000000	0.122345	7.36562e+06	-41589.1	955.818	-29786.4	0.000000	0.000000	6.122784	0.049551	NaN	0.000000	0.001549	0.001736	28.0835	0.081423	0.001993	40.8591	102.125	-166.642	-0.022211	0.121019	-0.952055	-0.953381	0.049551	40.8591	-0.952964	-5.272344E+12	-9.398211E-15	NaN
59	1.000000	0.162349	7.36562e+06	-41589.1	955.819	-29786.4	0.000000	0.000000	6.162784	-0.049398	NaN	0.000000	0.001576	0.001720	28.0845	0.036789	0.002020	18.2093	-35.595	-167.073	-0.056620	0.161051	-0.912051	-0.913349	-0.049398	18.2093	-0.910016	-1.387963E+12	3.559040E-14	NaN
59	1.000000	0.202381	7.36562e+06	-41589.1	955.819	-29786.4	0.000000	0.000000	6.202815	-0.086435	NaN	0.000000	0.001603	0.001675	28.0838	0.058350	0.001966	29.6846	67.3605	-165.6	-0.015834	0.201056	-0.872018	-0.873344	-0.086435	29.6846	-0.869834	-3.973781E+11	2.175144E-13	NaN
59	1.000000	0.242392	7.36562e+06	-41589.1	955.818	-29786.4	0.000000	0.000000	6.242831	0.020397	NaN	0.000000	0.001608	0.001721	28.0846	0.046832	0.002049	22.8574	-158.133	-163.9	0.052404	0.241036	-0.832007	-0.833364	0.020397	22.8574	-0.832677	-1.247555E+11	-1.634928E-13	NaN
59	1.000000	0.282415	7.36562e+06	-41589.1	955.818	-29786.4	0.000000	0.000000	6.282852	-0.002895	NaN	0.000000	0.001579	0.001724	28.0841	0.146214	0.001973	74.1141	-177.774	-159.28	-0.058594	0.281057	-0.791985	-0.793343	-0.002895	74.1141	-0.791955	-3.496557E+10	8.279583E-14	NaN
59	1.000000	0.322432	7.36562e+06	-41589.1	955.818	-29786.4	0.000000	0.000000	6.322871	0.040798	NaN	0.000000	0.001659	0.001747	28.0849	0.130680	0.002049	63.7648	-149.755	-168.069	-0.030682	0.321149	-0.751968	-0.753251	0.040798	63.7648	-0.752448	-1.015159E+10	-4.018857E-12	NaN
59	1.000000	0.362432	7.36562e+06	-41589.1	955.819	-29786.4	0.000000	0.000000	6.362867	-0.051088	NaN	0.000000	0.001633	0.001749	28.0845	0.051203	0.001962	26.0944	-91.3485	-165.304	-0.006319	0.361133	-0.711967	-0.713267	-0.051088	26.0944	-0.710499	-2.721818E+9	1.876984E-11	NaN
59	1.000000	0.402466	7.36562e+06	-41589.1	955.818	-29786.4	0.000000	0.000000	6.402902	-0.034079	NaN	0.000000	0.001651	0.001713	28.0835	0.123125	0.001915	64.2796	-121.833	-163.515	0.023619	0.401199	-0.671934	-0.673201	-0.034079	64.2796	-0.671536	-7.987504E+8	4.266552E-11	NaN
59	1.000000	0.442469	7.36562e+06	-41589.1	955.818	-29786.4	0.000000	0.000000	6.442904	-0.039723	NaN	0.000000	0.001638	0.001775	28.084	0.036046	0.002098	17.1826	150.556	-168.54	-0.098429	0.441154	-0.631931	-0.633245	-0.039723	17.1826	-0.630197	-2.166360E+8	1.833644E-10	NaN
59	1.000000	0.482507	7.36562e+06	-41589.1	955.818	-29786.4	0.000000	0.000000	6.482943	-0.033877	NaN	0.000000	0.001637	0.001737	28.0845	0.041233	0.002050	20.1168	73.0112	-161.059	-0.004702	0.481208	-0.591893	-0.593191	-0.033877	20.1168	-0.590630	-6.185160E+7	5.477136E-10	NaN
59	1.000000	0.522517	7.36562e+06	-41589.1	955.819	-29786.4	0.000000	0.000000	6.522954	-0.011873	NaN	0.000000	0.001611	0.001711	28.084	0.123652	0.002078	59.5026	177.321	-164.408	0.042473	0.521235	-0.551882	-0.553164	-0.011873	59.5026	-0.551733	-1.794541E+7	6.616145E-10	NaN
59	1.000000	0.562504	7.36562e+06	-41589.1	955.818	-29786.4	0.000000	0.000000	6.562944	0.082564	NaN	0.000000	0.001598	0.001749	28.0855	0.009004	0.002081	4.327798	-63.7429	-161.539	0.001603	0.561225	-0.511896	-0.513175	0.082564	4.327798	-0.526204	-7.94041e+06	-1.039790E-8	NaN
59	1.000000	0.602535	7.36562e+06	-41589.1	955.818	-29786.4	0.000000	0.000000	6.602970	-0.062106	NaN	0.000000	0.001590	0.001727	28.0844	0.031829	0.002114	15.0547	56.3234	-163.456	0.021515	0.601248	-0.471865	-0.473152	-0.062106	15.0547	-0.468771	-1.25362e+06	4.954169E-8	NaN
59	1.000000	0.642541	7.36562e+06	-41589.1	955.819	-29786.4	0.000000	0.000000	6.642978	-0.001828	NaN	0.000000	0.001572	0.001747	28.0857	0.072058	0.001961	36.746	-52.7111	-163.459	0.029050	0.641291	-0.431859	-0.433108	-0.001828	36.746	-0.431821	-378290	4.831440E-9	NaN
59	1.000000	0.682594	7.36562e+06	-41589.1	955.818	-29786.4	0.000000	0.000000	6.683033	0.034284	NaN	0.000000	0.001559	0.001738	28.0827	0.073501	0.002028	36.2463	87.143	-165.478	-0.018326	0.681303	-0.391805	-0.393096	0.034284	36.2463	-0.392515	-104502	-3.280706E-7	NaN
59	1.000000	0.722590	7.36562e+06	-41589.1	955.819	-29786.4	0.000000	0.000000	6.723025	-0.056693	NaN	0.000000	0.001534	0.001754	28.0849	0.010905	0.002080	5.242455	177.64	-162.463	-0.032462	0.721328	-0.351809	-0.353072	-0.056693	5.242455	-0.343699	-20674	2.742235E-6	NaN
59	1.000000	0.762609	7.36562e+06	-41589.1	955.818	-29786.4	0.000000	0.000000	6.763046	0.003138	NaN	0.000000	0.001591	0.001692	28.0842	0.045751	0.002008	22.7876	47.8226	-163.369	-0.024467	0.761326	-0.311791	-0.313073	0.003138	22.7876	-0.311894	-7064.35	-4.441382E-7	NaN
59	1.000000	0.802629	7.36562e+06	-41589.1	955.819	-29786.4	0.000000	0.000000	6.803065	-0.039517	NaN	0.000000	0.001555	0.001694	28.0866	0.045502	0.001841	24.7155	59.6079	-165.56	-0.099663	0.801341	-0.271770	-0.273059	-0.039517	24.7155	-0.270571	-1699.12	2.325715E-5	NaN
59	1.000000	0.842635	7.36562e+06	-41589.1	955.818	-29786.4	0.000000	0.000000	6.843072	-0.018690	NaN	0.000000	0.001600	0.001712	28.0847	0.030814	0.002028	15.196	48.097	-164.86	0.038407	0.841299	-0.231765	-0.233101	-0.018690	15.196	-0.230842	-412.866	4.526874E-5	NaN
59	1.000000	0.882638	7.36562e+06	-41589.1	955.818	-29786.4	0.000000	0.000000	6.883072	-0.082583	NaN	0.000000	0.001592	0.001717	28.0865	0.120364	0.001932	62.2892	-114.417	-167.602	-0.066877	0.881365	-0.191762	-0.193034	-0.082583	62.2892	-0.190767	-92.6481	0.000891	NaN
59	1.000000	0.922657	7.36562e+06	-41589.1	955.819	-29786.4	0.000000	0.000000	6.923095	0.018368	NaN	0.000000	0.001670	0.001711	28.0847	0.042110	0.001936	21.7473	161.064	-165.077	0.052344	0.921374	-0.151743	-0.153025	0.018368	21.7473	-0.152376	-20.0081	-0.000918	NaN
59	1.000000	0.962671	7.36562e+06	-41589.1	955.819	-29786.4	0.000000	0.000000	6.963105	-0.077936	NaN	0.000000	0.001659	0.001676	28.087	0.142050	0.001984	71.6018	146.411	-164.072	-0.129000	0.961374	-0.111729	-0.113026	-0.077936	71.6018	-0.110912	-3.141027	0.024812	NaN
59	1.000000	1.002695	7.36562e+06	-41589.1	955.819	-29786.4	0.000000	0.000000	7.003133	0.013015	NaN	0.000000	0.001652	0.001734	28.0858	0.031269	0.002056	15.2103	-162.842	-165.547	0.044592	1.001368	-0.071704	-0.073032	0.013015	15.2103	-0.072346	-0.393756	-0.033053	NaN
59	1.000000	1.042761	7.36562e+06	-41589.1	955.819	-29786.4	0.000000	0.000000	7.043196	-0.059477	NaN	0.000000	0.001633	0.001742	28.0856	0.040760	0.002070	19.6956	-164.264	-163.563	-0.033663	1.041460	-0.031639	-0.032939	-0.059477	19.6956	-0.029374	-0.022110	2.690003	NaN
59	1.000000	1.082698	7.36562e+06	-41589.1	955.818	-29786.4	0.000000	0.000000	7.083345	5.103671	NaN	0.000000	0.001623	0.001750	28.0867	6.082192	0.001949	3120.24	14.6355	-170.105	3.643201	1.081432	0.008298	0.007033	5.103671	3120.24	0.007072	0.006105	836.028	36486.3
59	2.000000	1.095216	7.36562e+06	-41589.1	955.818	-29786.4	0.000000	0.000000	7.096619	23.5068	NaN	0.000000	0.001607	0.001738	28.0881	19.1193	0.001824	10484	5.180073	-175.58	21.948	1.094825	0.020816	0.020426	23.5068	10484	0.019135	0.021201	1108.78	65785
59	2.000000	1.105184	7.36563e+06	-41589.1	955.818	-29786.4	0.000000	0.000000	7.107557	47.1093	NaN	0.000000	0.001593	0.001723	28.088	29.0669	0.001879	15471.7	4.755372	-178.26	45.4877	1.104877	0.030784	0.030477	47.1093	15471.7	0.028500	0.037693	1249.82	72808.3
59	2.000000	1.115149	7.36563e+06	-41589.1	955.818	-29786.4	0.000000	0.000000	7.118908	80.8302	NaN	0.000000	0.001572	0.001734	28.086	39.736	0.001853	21445.4	6.708690	177.546	80.6665	1.114812	0.040749	0.040413	80.8302	21445.4	0.037922	0.058769	1375.4	80823
59	2.000000	1.125158	7.36563e+06	-41589.1	955.819	-29786.4	0.000000	0.000000	7.130454	118.224	NaN	0.000000	0.001603	0.001719	28.0855	47.991	0.001806	26577.2	5.632259	176.573	118.153	1.124808	0.050758	0.050408	118.224	26577.2	0.047422	0.084611	1397.26	83477.6
59	2.000000	1.135122	7.36563e+06	-41589.1	955.819	-29786.4	0.000000	0.000000	7.142443	167.497	NaN	0.000000	0.001593	0.001729	28.0867	56.7695	0.001895	29952	3.953432	177.377	166.537	1.134935	0.060722	0.060535	167.497	29952	0.056528	0.113654	1473.74	81172.2
59	2.000000	1.145122	7.36563e+06	-41589.1	955.82	-29786.4	0.000000	0.000000	7.154862	226.351	NaN	0.000000	0.001592	0.001706	28.0858	65.9586	0.001842	35814	3.254842	176.796	223.939	1.144832	0.070722	0.070432	226.351	35814	0.065982	0.148128	1528.08	85017.3
59	2.000000	1.155070	7.36563e+06	-41589.1	955.819	-29786.4	0.000000	0.000000	7.167412	289.665	NaN	0.000000	0.001591	0.001688	28.0878	73.9614	0.001814	40771.4	1.875097	176.641	287.935	1.154833	0.080670	0.080433	289.665	40771.4	0.075342	0.186495	1553.21	86257.2
59	2.000000	1.165064	7.36563e+06	-41589.1	955.82	-29786.4	0.000000	0.000000	7.180370	361.78	NaN	0.000000	0.001601	0.001714	28.087	84.352	0.001790	47128.9	4.685925	172.829	359.042	1.164754	0.090664	0.090354	361.78	47128.9	0.084907	0.229959	1573.24	89791.5
59	2.000000	1.175089	7.36563e+06	-41589.1	955.819	-29786.4	0.000000	0.000000	7.193424	435.495	NaN	0.000000	0.001600	0.001656	28.0877	93.601	0.001830	51144.8	4.447602	172.663	433.472	1.174790	0.100689	0.100390	435.495	51144.8	0.094303	0.276771	1573.49	88820.8
59	2.000000	1.184517	7.36563e+06	-41589.1	955.821	-29786.4	0.000000	0.000000	7.206338	520.31	NaN	0.000000	0.001573	0.001731	28.1255	102.49	0.001694	60504.1	2.931480	-6.730818	513.96	1.184139	0.110117	0.109739	520.31	60504.1	0.103667	0.327437	1589.04	96603.9