File: remote_trans/data/nanoindenter/0828-1/data/Data_2025-08-06,11h17m57s/2025-07-22_16-23-58_1_614.txt
2025-07-22, 16:23:58, 1
Index	Phase	Displacement	Time	Pos X	Pos Y	Pos Z	Rot A	Rot B	Piezo Z	Force A	Force B	Gripper	Voltage A	Voltage B	Temperature	Amplitude force	Amplitude pos	Stiffness	Phase shift	Phase excitation	Force A raw	Displacement raw	HMax	HMax raw	Real Force	Real Stiffness	Contact Depth	Area	Hardness	Reduced Mod.
[#]	[#]	[um]	[s]	[um]	[um]	[um]	[m°]	[m°]	[um]	[uN]	[uN]	[V]	[V]	[V]	[°C]	[uN]	[um]	[N/m]	[°]	[°]	[uN]	[um]	[um]	[um]	[uN]	[N/m]	[um]	[um^2]	[MPa]	[MPa]
614	1.000000	0.002799	7.37106e+06	-46389.1	1005.82	-29769.3	0.000000	0.000000	6.002801	-0.008737	NaN	0.000000	0.001565	0.001695	28.0827	0.052930	0.000965	54.8331	-77.0591	-172.416	-0.001397	0.001548	-1.079285	-1.080537	-0.008737	54.8331	-1.079166	-2.632162E+14	3.319236E-17	NaN
614	1.000000	0.042750	7.37106e+06	-46389.1	1005.82	-29769.3	0.000000	0.000000	6.042751	-0.039508	NaN	0.000000	0.001603	0.001656	28.0839	0.052162	0.001954	26.6888	154.974	-163.545	-0.026571	0.041459	-1.039334	-1.040626	-0.039508	26.6888	-1.038224	-7.414535E+13	5.328513E-16	NaN
614	1.000000	0.082755	7.37106e+06	-46389.1	1005.82	-29769.3	0.000000	0.000000	6.082757	-0.017219	NaN	0.000000	0.001540	0.001697	28.0834	0.096605	0.001889	51.1502	178.54	-163.344	-0.019315	0.081462	-0.999329	-1.000623	-0.017219	51.1502	-0.999077	-2.204628E+13	7.810466E-16	NaN
614	1.000000	0.122801	7.37106e+06	-46389.1	1005.82	-29769.3	0.000000	0.000000	6.122802	-0.032057	NaN	0.000000	0.001519	0.001659	28.0837	0.108641	0.001948	55.766	-121.971	-161.179	-0.028946	0.121455	-0.959284	-0.960630	-0.032057	55.766	-0.958853	-6.329926E+12	5.064419E-15	NaN
614	1.000000	0.162798	7.37106e+06	-46389.1	1005.82	-29769.3	0.000000	0.000000	6.162801	0.010413	NaN	0.000000	0.001560	0.001675	28.0822	0.061414	0.002014	30.4916	-103.719	-163.689	-0.037436	0.161496	-0.919287	-0.920589	0.010413	30.4916	-0.919543	-1.866522E+12	-5.578951E-15	NaN
614	1.000000	0.202810	7.37106e+06	-46389.1	1005.82	-29769.3	0.000000	0.000000	6.202811	-0.027969	NaN	0.000000	0.001526	0.001667	28.0823	0.076876	0.002025	37.9549	-177.237	-163.434	0.053815	0.201479	-0.879275	-0.880606	-0.027969	37.9549	-0.878722	-5.241161E+11	5.336388E-14	NaN
614	1.000000	0.242849	7.37106e+06	-46389.1	1005.82	-29769.3	0.000000	0.000000	6.242848	-0.093813	NaN	0.000000	0.001571	0.001643	28.0822	0.091688	0.001909	48.0322	9.901140	-165.502	-0.034210	0.241417	-0.839235	-0.840667	-0.093813	48.0322	-0.837770	-1.462453E+11	6.414737E-13	NaN
614	1.000000	0.282843	7.37106e+06	-46389.1	1005.82	-29769.3	0.000000	0.000000	6.282843	-0.067862	NaN	0.000000	0.001597	0.001666	28.0837	0.121634	0.001996	60.9278	117.498	-164.745	0.011824	0.281536	-0.799241	-0.800549	-0.067862	60.9278	-0.798406	-4.277825E+10	1.586367E-12	NaN
614	1.000000	0.322852	7.37106e+06	-46389.1	1005.82	-29769.3	0.000000	0.000000	6.322854	-0.024038	NaN	0.000000	0.001602	0.001666	28.0837	0.160655	0.001990	80.716	53.7942	-166.726	-0.071985	0.321555	-0.759232	-0.760529	-0.024038	80.716	-0.759009	-1.246853E+10	1.927858E-12	NaN
614	1.000000	0.362862	7.37106e+06	-46389.1	1005.82	-29769.3	0.000000	0.000000	6.362864	-0.002717	NaN	0.000000	0.001556	0.001663	28.0837	0.079226	0.002018	39.2588	-14.7471	-162.531	0.039413	0.361569	-0.719223	-0.720515	-0.002717	39.2588	-0.719171	-3.574088E+9	7.601265E-13	NaN
614	1.000000	0.402915	7.37106e+06	-46389.1	1005.82	-29769.3	0.000000	0.000000	6.402916	-0.022242	NaN	0.000000	0.001538	0.001709	28.0838	0.086172	0.002006	42.9503	-122.954	-164.65	-0.081549	0.401603	-0.679170	-0.680481	-0.022242	42.9503	-0.678781	-1.003552E+9	2.216307E-11	NaN
614	1.000000	0.442914	7.37106e+06	-46389.1	1005.82	-29769.3	0.000000	0.000000	6.442919	0.049145	NaN	0.000000	0.001534	0.001697	28.0825	0.135254	0.002098	64.4667	13.8439	-165.142	-0.009736	0.441571	-0.639170	-0.640514	0.049145	64.4667	-0.639742	-2.929212E+8	-1.677749E-10	NaN
614	1.000000	0.482942	7.37106e+06	-46389.1	1005.82	-29769.3	0.000000	0.000000	6.482942	-0.064073	NaN	0.000000	0.001507	0.001676	28.0827	0.053130	0.002077	25.5853	86.794	-166.992	-0.014587	0.481629	-0.599142	-0.600455	-0.064073	25.5853	-0.597264	-7.634328E+7	8.392769E-10	NaN
614	1.000000	0.522939	7.37106e+06	-46389.1	1005.82	-29769.3	0.000000	0.000000	6.522943	0.033171	NaN	0.000000	0.001541	0.001666	28.0825	0.130362	0.001931	67.4984	-18.4599	-162.912	0.044925	0.521665	-0.559145	-0.560420	0.033171	67.4984	-0.559514	-2.299597E+7	-1.442448E-9	NaN
614	1.000000	0.562985	7.37106e+06	-46389.1	1005.82	-29769.3	0.000000	0.000000	6.562984	-0.090827	NaN	0.000000	0.001516	0.001697	28.0836	0.028797	0.002022	14.2453	-18.0663	-161.996	-0.002951	0.561692	-0.519099	-0.520392	-0.090827	14.2453	-0.514317	-5.42661e+06	1.673739E-8	NaN
614	1.000000	0.602990	7.37106e+06	-46389.1	1005.82	-29769.3	0.000000	0.000000	6.602991	-0.023534	NaN	0.000000	0.001545	0.001690	28.0836	0.071591	0.002126	33.6805	-102.396	-165.473	-0.055836	0.601677	-0.479095	-0.480407	-0.023534	33.6805	-0.478571	-1.71996e+06	1.368300E-8	NaN
614	1.000000	0.642976	7.37106e+06	-46389.1	1005.82	-29769.3	0.000000	0.000000	6.642978	-0.007888	NaN	0.000000	0.001529	0.001664	28.0834	0.059448	0.002040	29.144	-122.222	-167.26	-0.020312	0.641672	-0.439109	-0.440412	-0.007888	29.144	-0.438906	-476341	1.655932E-8	NaN
614	1.000000	0.683003	7.37106e+06	-46389.1	1005.82	-29769.3	0.000000	0.000000	6.683004	-0.033368	NaN	0.000000	0.001521	0.001696	28.0839	0.004861	0.001981	2.453349	-103.267	-166.41	0.027467	0.681732	-0.399082	-0.400353	-0.033368	2.453349	-0.388881	-92716.4	3.598929E-7	NaN
614	1.000000	0.723045	7.37106e+06	-46389.1	1005.82	-29769.3	0.000000	0.000000	6.723045	-0.043927	NaN	0.000000	0.001533	0.001728	28.0826	0.071409	0.002050	34.841	13.2297	-164.908	-0.063136	0.721668	-0.359040	-0.360417	-0.043927	34.841	-0.358094	-33441.6	1.313541E-6	NaN
614	1.000000	0.763046	7.37106e+06	-46389.1	1005.82	-29769.3	0.000000	0.000000	6.763046	-0.050427	NaN	0.000000	0.001557	0.001682	28.0825	0.099376	0.002024	49.1036	-175.443	-164.057	-0.027975	0.761742	-0.319039	-0.320342	-0.050427	49.1036	-0.318268	-8772.86	5.748056E-6	NaN
614	1.000000	0.803060	7.37106e+06	-46389.1	1005.82	-29769.3	0.000000	0.000000	6.803060	-0.051989	NaN	0.000000	0.001618	0.001705	28.0825	0.021523	0.001926	11.1748	-89.8583	-167.776	0.070965	0.801762	-0.279025	-0.280323	-0.051989	11.1748	-0.275536	-2020.73	2.572789E-5	NaN
614	1.000000	0.843092	7.37106e+06	-46389.1	1005.82	-29769.3	0.000000	0.000000	6.843093	-0.030600	NaN	0.000000	0.001632	0.001694	28.0842	0.070010	0.002001	34.9929	-106.905	-163.74	-0.090497	0.841762	-0.238992	-0.240322	-0.030600	34.9929	-0.238337	-541.439	5.651600E-5	NaN
614	1.000000	0.883106	7.37106e+06	-46389.1	1005.82	-29769.3	0.000000	0.000000	6.883109	0.027818	NaN	0.000000	0.001637	0.001684	28.0836	0.102875	0.002002	51.3979	19.9819	-166.245	0.085249	0.881813	-0.198979	-0.200272	0.027818	51.3979	-0.199385	-128.701	-0.000216	NaN
614	1.000000	0.923112	7.37106e+06	-46389.1	1005.82	-29769.3	0.000000	0.000000	6.923108	-0.143804	NaN	0.000000	0.001583	0.001683	28.0838	0.100853	0.002138	47.1747	-30.4047	-164.186	-0.082339	0.921776	-0.158973	-0.160308	-0.143804	47.1747	-0.156686	-23.9255	0.006010	NaN
614	1.000000	0.963120	7.37106e+06	-46389.1	1005.82	-29769.3	0.000000	0.000000	6.963123	0.009936	NaN	0.000000	0.001576	0.001689	28.0828	0.062544	0.001912	32.7109	-23.7329	-168.824	0.057861	0.961792	-0.118964	-0.120292	0.009936	32.7109	-0.119192	-4.653215	-0.002135	NaN
614	1.000000	1.003152	7.37106e+06	-46389.1	1005.82	-29769.3	0.000000	0.000000	7.003149	-0.118306	NaN	0.000000	0.001626	0.001690	28.0829	0.075127	0.001838	40.8749	120.279	-166.952	-0.025142	1.001852	-0.078933	-0.080232	-0.118306	40.8749	-0.076762	-0.512662	0.230768	NaN
614	1.000000	1.043175	7.37106e+06	-46389.1	1005.82	-29769.3	0.000000	0.000000	7.043176	-0.045281	NaN	0.000000	0.001606	0.001706	28.0826	0.051289	0.001901	26.9787	-169.535	-165.395	-0.044810	1.041843	-0.038909	-0.040241	-0.045281	26.9787	-0.037650	-0.038402	1.179135	NaN
614	1.000000	1.083181	7.37106e+06	-46389.1	1005.82	-29769.3	0.000000	0.000000	7.083233	1.206844	NaN	0.000000	0.001542	0.001656	28.0827	1.858882	0.002024	918.44	8.262590	-165.662	0.430232	1.081896	0.001097	-0.000189	1.206844	918.44	0.000111	8.338709E-5	14472.8	91891.3
614	2.000000	1.097693	7.37106e+06	-46389.1	1005.82	-29769.3	0.000000	0.000000	7.098592	21.794	NaN	0.000000	0.001574	0.001704	28.0837	17.2714	0.001817	9505.64	6.078569	-177.606	21.6344	1.097368	0.015609	0.015284	21.794	9505.64	0.013889	0.013833	1575.53	73841.4
614	2.000000	1.107629	7.37106e+06	-46389.1	1005.82	-29769.3	0.000000	0.000000	7.109395	42.8923	NaN	0.000000	0.001590	0.001722	28.0837	27.9411	0.001853	15079.6	7.099060	178.687	44.37	1.107429	0.025544	0.025345	42.8923	15079.6	0.023411	0.028188	1521.63	82059.5
614	2.000000	1.117587	7.37106e+06	-46389.1	1005.82	-29769.3	0.000000	0.000000	7.120858	79.5027	NaN	0.000000	0.001519	0.001662	28.0838	37.4444	0.001791	20908	8.739260	174.062	80.4144	1.117255	0.035503	0.035171	79.5027	20908	0.032651	0.046418	1712.76	88663.3
614	2.000000	1.127606	7.37106e+06	-46389.1	1005.82	-29769.3	0.000000	0.000000	7.132508	119.174	NaN	0.000000	0.001571	0.001677	28.0825	47.4818	0.001801	26363.1	6.669648	173.641	120.121	1.127356	0.045522	0.045271	119.174	26363.1	0.042132	0.069653	1710.97	91264.1
614	2.000000	1.137607	7.37106e+06	-46389.1	1005.82	-29769.3	0.000000	0.000000	7.144745	173.572	NaN	0.000000	0.001635	0.001693	28.0827	57.2992	0.001802	31805.6	4.887660	174.043	173.838	1.137305	0.055522	0.055221	173.572	31805.6	0.051429	0.096882	1791.58	93358.8
614	2.000000	1.147521	7.37106e+06	-46389.1	1005.82	-29769.3	0.000000	0.000000	7.157412	240.552	NaN	0.000000	0.001618	0.001732	28.0825	66.2768	0.001739	38122.9	5.711632	170.957	236.821	1.147210	0.065436	0.065125	240.552	38122.9	0.060704	0.128344	1874.27	97223.4
614	2.000000	1.157454	7.37106e+06	-46389.1	1005.82	-29769.3	0.000000	0.000000	7.169955	304.025	NaN	0.000000	0.001606	0.001715	28.0826	75.9137	0.001790	42408.8	6.210946	170.831	299.557	1.157155	0.075369	0.075071	304.025	42408.8	0.069993	0.164058	1853.16	95660.2
614	2.000000	1.167530	7.37106e+06	-46389.1	1005.82	-29769.3	0.000000	0.000000	7.183087	378.371	NaN	0.000000	0.001578	0.001694	28.0838	86.313	0.001878	45949.7	7.441187	168.668	376.34	1.167164	0.085445	0.085079	378.371	45949.7	0.079269	0.203825	1856.35	92988
614	2.000000	1.177564	7.37106e+06	-46389.1	1005.82	-29769.3	0.000000	0.000000	7.196128	451.522	NaN	0.000000	0.001573	0.001652	28.0839	94.2614	0.001792	52612.9	4.813065	170.726	452.82	1.177332	0.095480	0.095247	451.522	52612.9	0.089043	0.250065	1805.62	96125.5
614	2.000000	1.187413	7.37106e+06	-46389.1	1005.82	-29769.3	0.000000	0.000000	7.209724	542.649	NaN	0.000000	0.001573	0.001696	28.0839	102.032	0.001692	60319.9	5.695062	168.819	536.634	1.187211	0.105329	0.105126	542.649	60319.9	0.098582	0.299426	1812.3	100714