File: remote_trans/data/nanoindenter/0828-1/data/Data_2025-08-06,11h17m57s/2025-07-22_16-23-58_1_126.txt
2025-07-22, 16:23:58, 1
Index	Phase	Displacement	Time	Pos X	Pos Y	Pos Z	Rot A	Rot B	Piezo Z	Force A	Force B	Gripper	Voltage A	Voltage B	Temperature	Amplitude force	Amplitude pos	Stiffness	Phase shift	Phase excitation	Force A raw	Displacement raw	HMax	HMax raw	Real Force	Real Stiffness	Contact Depth	Area	Hardness	Reduced Mod.
[#]	[#]	[um]	[s]	[um]	[um]	[um]	[m°]	[m°]	[um]	[uN]	[uN]	[V]	[V]	[V]	[°C]	[uN]	[um]	[N/m]	[°]	[°]	[uN]	[um]	[um]	[um]	[uN]	[N/m]	[um]	[um^2]	[MPa]	[MPa]
126	1.000000	0.002925	7.36627e+06	-44939.1	955.818	-29774.7	0.000000	0.000000	6.002826	-0.032674	NaN	0.000000	0.001577	0.001787	28.1065	0.101409	0.001005	100.946	-137.543	-169.807	-0.089217	0.001708	-1.037895	-1.039111	-0.032674	100.946	-1.037652	-7.284388E+13	4.485427E-16	NaN
126	1.000000	0.042844	7.36627e+06	-44939.1	955.818	-29774.7	0.000000	0.000000	6.042744	-0.034365	NaN	0.000000	0.001591	0.001810	28.1068	0.126411	0.002003	63.1213	81.4829	-164.828	-0.010333	0.041560	-0.997976	-0.999260	-0.034365	63.1213	-0.997568	-2.103891E+13	1.633394E-15	NaN
126	1.000000	0.082843	7.36627e+06	-44939.1	955.819	-29774.7	0.000000	0.000000	6.082740	-0.115905	NaN	0.000000	0.001546	0.001763	28.1066	0.039271	0.001917	20.4881	97.6186	-168.418	-0.050891	0.081548	-0.957977	-0.959272	-0.115905	20.4881	-0.953734	-5.399878E+12	2.146443E-14	NaN
126	1.000000	0.122866	7.36627e+06	-44939.1	955.818	-29774.7	0.000000	0.000000	6.122767	-0.025712	NaN	0.000000	0.001610	0.001764	28.1069	0.050928	0.002056	24.7659	172.874	-166.307	0.003447	0.121541	-0.917954	-0.919279	-0.025712	24.7659	-0.917175	-1.734052E+12	1.482750E-14	NaN
126	1.000000	0.162895	7.36627e+06	-44939.1	955.82	-29774.7	0.000000	0.000000	6.162795	-0.039159	NaN	0.000000	0.001573	0.001760	28.1063	0.081051	0.002105	38.505	-179.535	-164.579	-0.043019	0.161552	-0.877925	-0.879268	-0.039159	38.505	-0.877162	-4.992665E+11	7.843280E-14	NaN
126	1.000000	0.202906	7.36627e+06	-44939.1	955.818	-29774.7	0.000000	0.000000	6.202807	-0.044916	NaN	0.000000	0.001562	0.001775	28.1068	0.108374	0.001960	55.2889	-140.573	-167.893	-0.072028	0.201609	-0.837913	-0.839210	-0.044916	55.2889	-0.837304	-1.441346E+11	3.116233E-13	NaN
126	1.000000	0.242908	7.36627e+06	-44939.1	955.818	-29774.7	0.000000	0.000000	6.242809	-0.017050	NaN	0.000000	0.001560	0.001766	28.1046	0.023478	0.001972	11.9069	-150.784	-164.664	0.011814	0.241608	-0.797912	-0.799212	-0.017050	11.9069	-0.796838	-4.073180E+10	4.185948E-13	NaN
126	1.000000	0.282956	7.36627e+06	-44939.1	955.818	-29774.7	0.000000	0.000000	6.282856	-0.049476	NaN	0.000000	0.001543	0.001747	28.1046	0.093638	0.002097	44.6565	-126.392	-166.739	0.010201	0.281638	-0.757864	-0.759182	-0.049476	44.6565	-0.757033	-1.172011E+10	4.221488E-12	NaN
126	1.000000	0.322977	7.36627e+06	-44939.1	955.818	-29774.7	0.000000	0.000000	6.322875	-0.108557	NaN	0.000000	0.001537	0.001781	28.1039	0.041579	0.001924	21.6078	177.183	-164.955	-0.164158	0.321617	-0.717843	-0.719203	-0.108557	21.6078	-0.714075	-3.045430E+9	3.564602E-11	NaN
126	1.000000	0.362961	7.36627e+06	-44939.1	955.818	-29774.7	0.000000	0.000000	6.362860	-0.059332	NaN	0.000000	0.001606	0.001765	28.1055	0.120254	0.002011	59.8065	-141.22	-167.681	-0.090217	0.361653	-0.677859	-0.679166	-0.059332	59.8065	-0.677115	-9.522433E+8	6.230770E-11	NaN
126	1.000000	0.402987	7.36627e+06	-44939.1	955.818	-29774.7	0.000000	0.000000	6.402891	0.041768	NaN	0.000000	0.001587	0.001780	28.1042	0.034981	0.001986	17.6103	124.955	-166.154	0.005112	0.401658	-0.637832	-0.639162	0.041768	17.6103	-0.639611	-2.917136E+8	-1.431813E-10	NaN
126	1.000000	0.442997	7.36627e+06	-44939.1	955.818	-29774.7	0.000000	0.000000	6.442897	-0.054202	NaN	0.000000	0.001585	0.001799	28.105	0.071734	0.001991	36.0265	-81.8162	-166.052	0.021328	0.441718	-0.597823	-0.599102	-0.054202	36.0265	-0.596695	-7.497708E+7	7.229123E-10	NaN
126	1.000000	0.483025	7.36627e+06	-44939.1	955.819	-29774.7	0.000000	0.000000	6.482929	0.045063	NaN	0.000000	0.001607	0.001764	28.1043	0.097011	0.002142	45.2901	40.6437	-164.813	-0.004784	0.481748	-0.557795	-0.559072	0.045063	45.2901	-0.558541	-2.229406E+7	-2.021291E-9	NaN
126	1.000000	0.523050	7.36627e+06	-44939.1	955.818	-29774.7	0.000000	0.000000	6.522952	-0.013570	NaN	0.000000	0.001572	0.001743	28.1036	0.057004	0.001823	31.2675	78.0079	-165.014	0.039317	0.521740	-0.517769	-0.519080	-0.013570	31.2675	-0.517444	-5.99847e+06	2.262245E-9	NaN
126	1.000000	0.563069	7.36627e+06	-44939.1	955.818	-29774.7	0.000000	0.000000	6.562970	-0.036313	NaN	0.000000	0.001541	0.001768	28.1025	0.069014	0.002044	33.7583	84.6707	-169.033	-0.054414	0.561723	-0.477750	-0.479097	-0.036313	33.7583	-0.476944	-1.63204e+06	2.225020E-8	NaN
126	1.000000	0.603062	7.36627e+06	-44939.1	955.818	-29774.7	0.000000	0.000000	6.602962	-0.049325	NaN	0.000000	0.001535	0.001774	28.1035	0.131759	0.002098	62.8052	-85.0757	-166.866	-0.025287	0.601773	-0.437758	-0.439046	-0.049325	62.8052	-0.437169	-450191	1.095646E-7	NaN
126	1.000000	0.643095	7.36627e+06	-44939.1	955.818	-29774.7	0.000000	0.000000	6.642997	-0.003083	NaN	0.000000	0.001543	0.001777	28.1035	0.030214	0.001969	15.3477	-74.5218	-168.276	0.001017	0.641752	-0.397725	-0.399068	-0.003083	15.3477	-0.397574	-123421	2.497603E-8	NaN
126	1.000000	0.683131	7.36627e+06	-44939.1	955.819	-29774.7	0.000000	0.000000	6.683031	-0.055354	NaN	0.000000	0.001573	0.001742	28.1052	0.195170	0.001987	98.2411	-33.3356	-164.916	-0.057762	0.681763	-0.357689	-0.359056	-0.055354	98.2411	-0.357266	-32531.4	1.701548E-6	NaN
126	1.000000	0.723155	7.36627e+06	-44939.1	955.819	-29774.7	0.000000	0.000000	6.723052	-0.113307	NaN	0.000000	0.001564	0.001755	28.1033	0.053246	0.001962	27.1448	4.863861	-165.813	-0.128337	0.721798	-0.317665	-0.319021	-0.113307	27.1448	-0.314535	-7728.21	1.466150E-5	NaN
126	1.000000	0.763134	7.36627e+06	-44939.1	955.817	-29774.7	0.000000	0.000000	6.763033	-0.063155	NaN	0.000000	0.001547	0.001814	28.1021	0.084003	0.001975	42.53	-77.0571	-169.018	-0.028642	0.761792	-0.277686	-0.279028	-0.063155	42.53	-0.276572	-2095.05	3.014466E-5	NaN
126	1.000000	0.803141	7.36627e+06	-44939.1	955.818	-29774.7	0.000000	0.000000	6.803043	0.004216	NaN	0.000000	0.001606	0.001839	28.1013	0.120612	0.002062	58.4827	122.474	-168.269	-0.065453	0.801845	-0.237679	-0.238975	0.004216	58.4827	-0.237733	-529.789	-7.957017E-6	NaN
126	1.000000	0.843196	7.36627e+06	-44939.1	955.818	-29774.7	0.000000	0.000000	6.843096	-0.036805	NaN	0.000000	0.001557	0.001772	28.1021	0.068437	0.001784	38.3719	2.312428	-166.563	-0.022466	0.841889	-0.197624	-0.198931	-0.036805	38.3719	-0.196905	-117.14	0.000314	NaN
126	1.000000	0.883185	7.36627e+06	-44939.1	955.819	-29774.7	0.000000	0.000000	6.883086	-0.035665	NaN	0.000000	0.001644	0.001771	28.1009	0.028131	0.002022	13.9138	51.3505	-165.675	-0.023288	0.881892	-0.157635	-0.158928	-0.035665	13.9138	-0.155712	-22.982	0.001552	NaN
126	1.000000	0.923183	7.36627e+06	-44939.1	955.818	-29774.7	0.000000	0.000000	6.923084	-0.040159	NaN	0.000000	0.001586	0.001786	28.1038	0.042444	0.002102	20.1875	80.3646	-167.423	0.054449	0.921882	-0.117636	-0.118938	-0.040159	20.1875	-0.116144	-4.033098	0.009957	NaN
126	1.000000	0.963238	7.36627e+06	-44939.1	955.819	-29774.7	0.000000	0.000000	6.963137	-0.072626	NaN	0.000000	0.001540	0.001793	28.1016	0.047458	0.001967	24.1235	-177.748	-166.015	-0.007117	0.961905	-0.077582	-0.078915	-0.072626	24.1235	-0.075324	-0.470866	0.154240	NaN
126	1.000000	1.003244	7.36627e+06	-44939.1	955.819	-29774.7	0.000000	0.000000	7.003143	-0.086334	NaN	0.000000	0.001565	0.001804	28.1029	0.076293	0.001891	40.3374	55.3079	-163.982	-0.072192	1.001953	-0.037576	-0.038866	-0.086334	40.3374	-0.035970	-0.034212	2.523517	NaN
126	1.000000	1.043283	7.36627e+06	-44939.1	955.819	-29774.7	0.000000	0.000000	7.043201	0.406126	NaN	0.000000	0.001565	0.001806	28.0999	0.744351	0.001911	389.607	3.759299	-165.191	0.039589	1.041917	0.002463	0.001097	0.406126	389.607	0.001681	0.001298	312.796	9878.71
126	2.000000	1.059803	7.36627e+06	-44939.1	955.819	-29774.7	0.000000	0.000000	7.060632	22.5447	NaN	0.000000	0.001601	0.001765	28.1008	18.4792	0.001864	9916.02	7.567723	-177.95	22.5274	1.059497	0.018983	0.018677	22.5447	9916.02	0.017278	0.018444	1222.33	66708.8
126	2.000000	1.069732	7.36627e+06	-44939.1	955.819	-29774.7	0.000000	0.000000	7.071670	49.5266	NaN	0.000000	0.001589	0.001814	28.0987	29.5471	0.001825	16194.4	3.954978	-178.977	48.1954	1.069447	0.028913	0.028627	49.5266	16194.4	0.026619	0.034027	1455.52	80209.8
126	2.000000	1.079751	7.36627e+06	-44939.1	955.819	-29774.7	0.000000	0.000000	7.083080	83.375	NaN	0.000000	0.001556	0.001770	28.1003	40.1652	0.001823	22030.7	6.733998	175.674	83.0181	1.079405	0.038931	0.038585	83.375	22030.7	0.036093	0.054320	1534.87	86361.6
126	2.000000	1.089673	7.36627e+06	-44939.1	955.819	-29774.7	0.000000	0.000000	7.094755	126.037	NaN	0.000000	0.001586	0.001807	28.1007	48.1934	0.001682	28646.9	2.716586	176.796	123.104	1.089364	0.048853	0.048545	126.037	28646.9	0.045553	0.079165	1592.08	93021.7
126	2.000000	1.099716	7.36627e+06	-44939.1	955.819	-29774.7	0.000000	0.000000	7.106694	172.139	NaN	0.000000	0.001563	0.001799	28.1011	58.2645	0.001702	34240.1	6.010620	171.85	170.669	1.099458	0.058897	0.058638	172.139	34240.1	0.055126	0.108913	1580.52	94791.3
126	2.000000	1.109661	7.36627e+06	-44939.1	955.819	-29774.7	0.000000	0.000000	7.118798	224.659	NaN	0.000000	0.001576	0.001804	28.0998	68.7484	0.001821	37759.7	2.353882	175.117	222.294	1.109443	0.068841	0.068623	224.659	37759.7	0.064379	0.141977	1582.36	91557.2
126	2.000000	1.119574	7.36628e+06	-44939.1	955.819	-29774.7	0.000000	0.000000	7.131213	285.536	NaN	0.000000	0.001565	0.001829	28.0998	80.1176	0.001855	43181.4	8.083795	168.449	278.927	1.119291	0.078754	0.078471	285.536	43181.4	0.073795	0.179867	1587.49	93023.8
126	2.000000	1.129635	7.36628e+06	-44939.1	955.818	-29774.7	0.000000	0.000000	7.144353	360.447	NaN	0.000000	0.001553	0.001837	28.098	90.2782	0.001865	48409.1	8.613351	167.502	359.211	1.129273	0.088815	0.088453	360.447	48409.1	0.083230	0.222033	1623.39	93862.3
126	2.000000	1.139705	7.36628e+06	-44939.1	955.818	-29774.7	0.000000	0.000000	7.157225	428.607	NaN	0.000000	0.001524	0.001792	28.0995	99.3364	0.001832	54230.2	8.121582	166.578	428.865	1.139434	0.098885	0.098614	428.607	54230.2	0.092957	0.269818	1588.5	95384.8
126	2.000000	1.149558	7.36628e+06	-44939.1	955.82	-29774.7	0.000000	0.000000	7.170996	523.904	NaN	0.000000	0.001509	0.001808	28.099	107.665	0.001774	60687.5	4.563037	169.911	519.049	1.149262	0.108738	0.108442	523.904	60687.5	0.102264	0.319589	1639.3	98079.2
126	2.000000	1.150631	7.36628e+06	-44939.1	955.819	-29774.7	0.000000	0.000000	7.172198	527.031	NaN	0.000000	0.001496	0.001787	28.0954	107.414	0.001760	61025.7	0.975338	173.498	524.896	1.150437	0.109812	0.109617	527.031	61025.7	0.103334	0.325567	1618.81	97716.1