File: remote_trans/data/nanoindenter/0828-1/data/Data_2025-08-06,11h17m57s/2025-07-22_16-23-58_1_1089.txt
2025-07-22, 16:23:58, 1
Index	Phase	Displacement	Time	Pos X	Pos Y	Pos Z	Rot A	Rot B	Piezo Z	Force A	Force B	Gripper	Voltage A	Voltage B	Temperature	Amplitude force	Amplitude pos	Stiffness	Phase shift	Phase excitation	Force A raw	Displacement raw	HMax	HMax raw	Real Force	Real Stiffness	Contact Depth	Area	Hardness	Reduced Mod.
[#]	[#]	[um]	[s]	[um]	[um]	[um]	[m°]	[m°]	[um]	[uN]	[uN]	[V]	[V]	[V]	[°C]	[uN]	[um]	[N/m]	[°]	[°]	[uN]	[um]	[um]	[um]	[uN]	[N/m]	[um]	[um^2]	[MPa]	[MPa]
1089	1.000000	0.002708	7.3757e+06	-54589.1	1055.82	-29743.2	0.000000	0.000000	6.002809	-0.028657	NaN	0.000000	0.001597	0.001640	28.0838	0.047357	0.001060	44.6911	62.1232	-167.485	0.056128	0.001384	-1.146462	-1.147786	-0.028657	44.6911	-1.145981	-2.074630E+15	1.381297E-17	NaN
1089	1.000000	0.044658	7.37571e+06	-54589.1	1055.82	-29743.2	0.000000	0.000000	6.044762	0.019913	NaN	0.000000	0.001576	0.001631	28.0838	0.071441	0.001896	37.6754	52.3784	14.7671	-0.039424	0.043339	-1.104512	-1.105831	0.019913	37.6754	-1.104908	-5.833749E+14	-3.413450E-17	NaN
1089	1.000000	0.086689	7.37571e+06	-54589.1	1055.82	-29743.2	0.000000	0.000000	6.086792	-0.000169	NaN	0.000000	0.001584	0.001623	28.0837	0.068416	0.001932	35.4082	48.4932	-166.441	0.023112	0.085359	-1.062481	-1.063811	-0.000169	35.4082	-1.062477	-1.570775E+14	1.073685E-18	NaN
1089	1.000000	0.128700	7.37571e+06	-54589.1	1055.82	-29743.2	0.000000	0.000000	6.128798	-0.120292	NaN	0.000000	0.001573	0.001653	28.0823	0.063522	0.002069	30.6987	-114.479	14.5353	-0.100040	0.127313	-1.020470	-1.021857	-0.120292	30.6987	-1.017531	-3.906021E+13	3.079655E-15	NaN
1089	1.000000	0.170691	7.37571e+06	-54589.1	1055.82	-29743.2	0.000000	0.000000	6.170793	-0.022911	NaN	0.000000	0.001592	0.001665	28.0826	0.073798	0.002017	36.585	-12.0712	-164.901	-0.050505	0.169370	-0.978479	-0.979800	-0.022911	36.585	-0.978009	-1.147062E+13	1.997358E-15	NaN
1089	1.000000	0.212663	7.37571e+06	-54589.1	1055.82	-29743.2	0.000000	0.000000	6.212766	0.005854	NaN	0.000000	0.001575	0.001686	28.0826	0.061619	0.001961	31.4164	5.220685	19.0048	0.003066	0.211343	-0.936507	-0.937826	0.005854	31.4164	-0.936647	-3.176092E+12	-1.843272E-15	NaN
1089	1.000000	0.254743	7.37571e+06	-54589.1	1055.82	-29743.2	0.000000	0.000000	6.254843	-0.057771	NaN	0.000000	0.001617	0.001675	28.0839	0.033740	0.001968	17.1479	-144.771	-162.944	-0.108860	0.253408	-0.894427	-0.895762	-0.057771	17.1479	-0.891900	-7.899548E+11	7.313202E-14	NaN
1089	1.000000	0.296783	7.37571e+06	-54589.1	1055.82	-29743.2	0.000000	0.000000	6.296888	0.034313	NaN	0.000000	0.001603	0.001697	28.0839	0.063348	0.002032	31.1816	-133.61	11.2452	0.046937	0.295415	-0.852386	-0.853755	0.034313	31.1816	-0.853212	-2.367148E+11	-1.449549E-13	NaN
1089	1.000000	0.338757	7.37571e+06	-54589.1	1055.82	-29743.2	0.000000	0.000000	6.338858	-0.060675	NaN	0.000000	0.001595	0.001667	28.0838	0.029340	0.002035	14.421	78.9988	-164.257	-0.039533	0.337447	-0.810413	-0.811723	-0.060675	14.421	-0.807257	-5.640953E+10	1.075624E-12	NaN
1089	1.000000	0.380795	7.37571e+06	-54589.1	1055.82	-29743.2	0.000000	0.000000	6.380900	0.049171	NaN	0.000000	0.001565	0.001693	28.0834	0.125659	0.001981	63.4224	165.581	14.511	0.006361	0.379418	-0.768375	-0.769752	0.049171	63.4224	-0.768956	-1.702598E+10	-2.887993E-12	NaN
1089	1.000000	0.422808	7.37571e+06	-54589.1	1055.82	-29743.2	0.000000	0.000000	6.422909	-0.038671	NaN	0.000000	0.001571	0.001659	28.0823	0.095716	0.001928	49.6418	-26.7606	-163.573	-0.083150	0.421532	-0.726362	-0.727638	-0.038671	49.6418	-0.725778	-4.397988E+9	8.792907E-12	NaN
1089	1.000000	0.464853	7.37571e+06	-54589.1	1055.82	-29743.2	0.000000	0.000000	6.464952	-0.108612	NaN	0.000000	0.001540	0.001678	28.0821	0.044528	0.002033	21.9054	-24.6999	17.5275	0.027132	0.463444	-0.684317	-0.685726	-0.108612	21.9054	-0.680598	-1.062631E+9	1.022101E-10	NaN
1089	1.000000	0.506860	7.37571e+06	-54589.1	1055.82	-29743.2	0.000000	0.000000	6.506961	-0.029112	NaN	0.000000	0.001603	0.001704	28.0823	0.011404	0.002121	5.377948	167.602	-163.7	0.065135	0.505531	-0.642310	-0.643639	-0.029112	5.377948	-0.638250	-2.794327E+8	1.041839E-10	NaN
1089	1.000000	0.548863	7.37571e+06	-54589.1	1055.82	-29743.2	0.000000	0.000000	6.548966	0.008773	NaN	0.000000	0.001621	0.001673	28.0836	0.112644	0.002043	55.1256	9.123992	16.5202	0.003085	0.547455	-0.600307	-0.601715	0.008773	55.1256	-0.600427	-8.439875E+7	-1.039494E-10	NaN
1089	1.000000	0.590854	7.37571e+06	-54589.1	1055.82	-29743.2	0.000000	0.000000	6.590955	-0.055340	NaN	0.000000	0.001655	0.001694	28.0837	0.145285	0.002105	69.0111	-179.359	-161.499	-0.090860	0.589564	-0.558316	-0.559606	-0.055340	69.0111	-0.557714	-2.171465E+7	2.548513E-9	NaN
1089	1.000000	0.632895	7.37571e+06	-54589.1	1055.82	-29743.2	0.000000	0.000000	6.632997	-0.040982	NaN	0.000000	0.001591	0.001663	28.0845	0.069887	0.002071	33.7408	138.176	17.8713	-0.031218	0.631508	-0.516274	-0.517662	-0.040982	33.7408	-0.515363	-5.61165e+06	7.303019E-9	NaN
1089	1.000000	0.674902	7.37571e+06	-54589.1	1055.82	-29743.2	0.000000	0.000000	6.675002	-0.061016	NaN	0.000000	0.001595	0.001647	28.0825	0.029891	0.001991	15.0107	135.338	-160.341	-0.071658	0.673619	-0.474268	-0.475551	-0.061016	15.0107	-0.471219	-1.35677e+06	4.497171E-8	NaN
1089	1.000000	0.716931	7.37571e+06	-54589.1	1055.82	-29743.2	0.000000	0.000000	6.717032	-0.047016	NaN	0.000000	0.001606	0.001695	28.0829	0.104300	0.001992	52.3609	50.6737	18.131	-0.039207	0.715552	-0.432239	-0.433618	-0.047016	52.3609	-0.431565	-375146	1.253260E-7	NaN
1089	1.000000	0.758955	7.37571e+06	-54589.1	1055.82	-29743.2	0.000000	0.000000	6.759057	-0.022501	NaN	0.000000	0.001637	0.001656	28.0826	0.047775	0.001993	23.9725	-112.395	-164.635	-0.036241	0.757627	-0.390215	-0.391543	-0.022501	23.9725	-0.389511	-94661.2	2.376996E-7	NaN
1089	1.000000	0.800937	7.37571e+06	-54589.1	1055.82	-29743.2	0.000000	0.000000	6.801040	0.010242	NaN	0.000000	0.001691	0.001705	28.0838	0.044982	0.002076	21.6637	1.856039	14.2694	0.003974	0.799561	-0.348233	-0.349609	0.010242	21.6637	-0.348587	-24349.8	-4.206005E-7	NaN
1089	1.000000	0.842990	7.37571e+06	-54589.1	1055.82	-29743.2	0.000000	0.000000	6.843094	0.028592	NaN	0.000000	0.001697	0.001702	28.0838	0.024159	0.002000	12.0805	147.362	-162.49	0.007568	0.841650	-0.306180	-0.307520	0.028592	12.0805	-0.307955	-6176.96	-4.628752E-6	NaN
1089	1.000000	0.884987	7.37571e+06	-54589.1	1055.82	-29743.2	0.000000	0.000000	6.885089	-0.034488	NaN	0.000000	0.001582	0.001693	28.084	0.030452	0.001991	15.2911	-27.8627	17.5234	-0.053254	0.883663	-0.264182	-0.265507	-0.034488	15.2911	-0.262491	-1279.54	2.695361E-5	NaN
1089	1.000000	0.927009	7.37571e+06	-54589.1	1055.82	-29743.2	0.000000	0.000000	6.927111	-0.024793	NaN	0.000000	0.001614	0.001698	28.084	0.086096	0.002137	40.289	-44.991	-169.334	-0.097852	0.925681	-0.222161	-0.223489	-0.024793	40.289	-0.221700	-295.67	8.385486E-5	NaN
1089	1.000000	0.969061	7.37571e+06	-54589.1	1055.82	-29743.2	0.000000	0.000000	6.969164	0.002708	NaN	0.000000	0.001579	0.001653	28.0827	0.050833	0.001892	26.8646	101.358	13.2324	-0.027498	0.967715	-0.180109	-0.181454	0.002708	26.8646	-0.180185	-61.4624	-4.406433E-5	NaN
1089	1.000000	1.011013	7.37571e+06	-54589.1	1055.82	-29743.2	0.000000	0.000000	7.011111	-0.110444	NaN	0.000000	0.001592	0.001652	28.0829	0.077025	0.002116	36.3959	-137.402	-163.108	-0.151767	1.009703	-0.138157	-0.139466	-0.110444	36.3959	-0.135881	-9.887345	0.011170	NaN
1089	1.000000	1.053052	7.37571e+06	-54589.1	1055.82	-29743.2	0.000000	0.000000	7.053154	-0.004287	NaN	0.000000	0.001591	0.001693	28.0828	0.038680	0.002008	19.2608	-66.7429	15.6426	-0.006727	1.051702	-0.096118	-0.097468	-0.004287	19.2608	-0.095951	-1.482614	0.002892	NaN
1089	1.000000	1.095081	7.37571e+06	-54589.1	1055.82	-29743.2	0.000000	0.000000	7.095181	-0.062478	NaN	0.000000	0.001603	0.001677	28.084	0.128834	0.002010	64.1053	63.3943	-164.433	0.024128	1.093820	-0.054089	-0.055350	-0.062478	64.1053	-0.053358	-0.115105	0.542790	NaN
1089	1.000000	1.137067	7.37571e+06	-54589.1	1055.82	-29743.2	0.000000	0.000000	7.137169	-0.021936	NaN	0.000000	0.001588	0.001716	28.084	0.050104	0.002044	24.5132	-86.2877	16.7159	-0.045154	1.135723	-0.012103	-0.013447	-0.021936	24.5132	-0.011432	-0.007204	3.044847	NaN
1089	2.000000	1.160649	7.37571e+06	-54589.1	1055.82	-29743.2	0.000000	0.000000	7.161472	17.5141	NaN	0.000000	0.001589	0.001684	28.0842	15.8249	0.001647	9607.24	6.449304	-176.098	16.7237	1.160325	0.011479	0.011155	17.5141	9607.24	0.010112	0.009306	1881.98	90988.3
1089	2.000000	1.171063	7.37571e+06	-54589.1	1055.82	-29743.2	0.000000	0.000000	7.172837	40.6485	NaN	0.000000	0.001676	0.001673	28.0826	26.5634	0.001806	14710.2	4.271487	3.624111	37.556	1.170668	0.021893	0.021499	40.6485	14710.2	0.019820	0.022261	1826.02	90078.7
1089	2.000000	1.181568	7.37571e+06	-54589.1	1055.82	-29743.2	0.000000	0.000000	7.184644	72.2796	NaN	0.000000	0.001655	0.001699	28.0828	36.9078	0.001739	21224.6	8.186453	176.622	70.9807	1.181142	0.032398	0.031972	72.2796	21224.6	0.029844	0.040421	1788.15	96451
1089	2.000000	1.192120	7.37571e+06	-54589.1	1055.82	-29743.2	0.000000	0.000000	7.196320	99.6147	NaN	0.000000	0.001668	0.001706	28.0829	47.5355	0.001747	27217.5	4.200570	-2.535087	100.822	1.191889	0.042950	0.042719	99.6147	27217.5	0.040205	0.064560	1542.99	97868.3
1089	2.000000	1.202460	7.37571e+06	-54589.1	1055.82	-29743.2	0.000000	0.000000	7.208819	152.09	NaN	0.000000	0.001662	0.001703	28.084	58.2395	0.001798	32387.3	8.686884	172.045	147.503	1.202254	0.053290	0.053085	152.09	32387.3	0.049768	0.091697	1658.61	97716.7
1089	2.000000	1.213057	7.37571e+06	-54589.1	1055.82	-29743.2	0.000000	0.000000	7.221407	200.496	NaN	0.000000	0.001662	0.001694	28.0845	66.8157	0.001774	37655.9	5.616943	-6.615642	199.354	1.212660	0.063887	0.063491	200.496	37655.9	0.059894	0.125428	1598.49	97142.4
1089	2.000000	1.223468	7.37571e+06	-54589.1	1055.82	-29743.2	0.000000	0.000000	7.233751	247.478	NaN	0.000000	0.001667	0.001696	28.085	76.1071	0.001868	40749.3	7.225682	171.902	244.401	1.223214	0.074298	0.074045	247.478	40749.3	0.069744	0.163046	1517.84	92201.4
1089	2.000000	1.233949	7.37571e+06	-54589.1	1055.82	-29743.2	0.000000	0.000000	7.247338	322.995	NaN	0.000000	0.001669	0.001716	28.0843	84.1477	0.001686	49900.2	1.295329	-3.954136	316.499	1.233600	0.084779	0.084431	322.995	49900.2	0.079925	0.206787	1561.97	100257
1089	2.000000	1.244453	7.37571e+06	-54589.1	1055.82	-29743.2	0.000000	0.000000	7.261132	402.962	NaN	0.000000	0.001672	0.001659	28.0827	95.25	0.001817	52416.8	5.828086	170.996	399.351	1.244094	0.095284	0.094924	402.962	52416.8	0.089518	0.252424	1596.37	95318.8
1089	2.000000	1.253028	7.37571e+06	-54589.1	1055.82	-29743.2	0.000000	0.000000	7.272502	470.925	NaN	0.000000	0.001664	0.001696	28.083	106.729	0.001817	58730.4	6.490645	-11.1088	469.294	1.252655	0.103858	0.103486	470.925	58730.4	0.097845	0.295463	1593.85	98715.2