File: remote_trans/data/nanoindenter/0828-1/data/Data_2025-08-06,11h17m57s/2025-07-22_16-23-58_1_750.txt
2025-07-22, 16:23:58, 1
Index	Phase	Displacement	Time	Pos X	Pos Y	Pos Z	Rot A	Rot B	Piezo Z	Force A	Force B	Gripper	Voltage A	Voltage B	Temperature	Amplitude force	Amplitude pos	Stiffness	Phase shift	Phase excitation	Force A raw	Displacement raw	HMax	HMax raw	Real Force	Real Stiffness	Contact Depth	Area	Hardness	Reduced Mod.
[#]	[#]	[um]	[s]	[um]	[um]	[um]	[m°]	[m°]	[um]	[uN]	[uN]	[V]	[V]	[V]	[°C]	[uN]	[um]	[N/m]	[°]	[°]	[uN]	[um]	[um]	[um]	[uN]	[N/m]	[um]	[um^2]	[MPa]	[MPa]
750	1.000000	0.002476	7.37239e+06	-39589.1	1005.82	-29793.3	0.000000	0.000000	6.002832	-0.079750	NaN	0.000000	0.001595	0.001788	28.0825	0.108717	0.001036	104.973	150.776	-167.244	-0.062852	0.001175	-1.104590	-1.105891	-0.079750	104.973	-1.104020	-5.675777E+14	1.405095E-16	NaN
750	1.000000	0.044390	7.37239e+06	-39589.1	1005.82	-29793.3	0.000000	0.000000	6.044747	-0.052153	NaN	0.000000	0.001584	0.001759	28.0827	0.019622	0.002054	9.551799	-151.215	13.955	-0.079553	0.043027	-1.062676	-1.064039	-0.052153	9.551799	-1.058581	-1.392357E+14	3.745650E-16	NaN
750	1.000000	0.086420	7.37239e+06	-39589.1	1005.82	-29793.3	0.000000	0.000000	6.086783	0.072400	NaN	0.000000	0.001573	0.001766	28.0826	0.057744	0.002042	28.278	-32.6736	-163.718	0.083233	0.085074	-1.020646	-1.021992	0.072400	28.278	-1.022566	-4.565343E+13	-1.585856E-15	NaN
750	1.000000	0.128417	7.37239e+06	-39589.1	1005.82	-29793.3	0.000000	0.000000	6.128778	0.037038	NaN	0.000000	0.001677	0.001770	28.0827	0.121325	0.001993	60.8859	163.83	13.9988	0.093265	0.127077	-0.978649	-0.979989	0.037038	60.8859	-0.979105	-1.186746E+13	-3.120955E-15	NaN
750	1.000000	0.170424	7.37239e+06	-39589.1	1005.82	-29793.3	0.000000	0.000000	6.170784	0.009699	NaN	0.000000	0.001662	0.001723	28.0814	0.067387	0.001993	33.8081	-36.3267	-165.466	-0.021081	0.169138	-0.936642	-0.937928	0.009699	33.8081	-0.936857	-3.196883E+12	-3.034009E-15	NaN
750	1.000000	0.212459	7.37239e+06	-39589.1	1005.82	-29793.3	0.000000	0.000000	6.212819	-0.000219	NaN	0.000000	0.001604	0.001703	28.0815	0.107792	0.001867	57.7281	-114.171	14.9207	-0.065877	0.211127	-0.894607	-0.895939	-0.000219	57.7281	-0.894604	-8.592936E+11	2.544332E-16	NaN
750	1.000000	0.254486	7.37239e+06	-39589.1	1005.82	-29793.3	0.000000	0.000000	6.254846	0.011498	NaN	0.000000	0.001625	0.001681	28.0814	0.069771	0.002056	33.9332	-149.631	-167.336	-0.051772	0.253143	-0.852580	-0.853923	0.011498	33.9332	-0.852834	-2.339426E+11	-4.914966E-14	NaN
750	1.000000	0.296498	7.37239e+06	-39589.1	1005.82	-29793.3	0.000000	0.000000	6.296857	-0.005830	NaN	0.000000	0.001624	0.001708	28.0827	0.105416	0.001922	54.8522	-135.317	11.5772	0.000282	0.295140	-0.810568	-0.811926	-0.005830	54.8522	-0.810488	-6.240068E+10	9.342951E-14	NaN
750	1.000000	0.338497	7.37239e+06	-39589.1	1005.82	-29793.3	0.000000	0.000000	6.338856	-0.029360	NaN	0.000000	0.001624	0.001679	28.0829	0.089011	0.002088	42.6315	60.0477	-164.046	-0.027007	0.337169	-0.768568	-0.769897	-0.029360	42.6315	-0.768052	-1.655074E+10	1.773951E-12	NaN
750	1.000000	0.380523	7.37239e+06	-39589.1	1005.82	-29793.3	0.000000	0.000000	6.380880	-0.034269	NaN	0.000000	0.001595	0.001761	28.083	0.104765	0.002030	51.6003	-107.921	11.0068	-0.079488	0.379115	-0.726543	-0.727951	-0.034269	51.6003	-0.726045	-4.435077E+9	7.726742E-12	NaN
750	1.000000	0.422533	7.37239e+06	-39589.1	1005.82	-29793.3	0.000000	0.000000	6.422893	0.009539	NaN	0.000000	0.001609	0.001702	28.0819	0.074351	0.001874	39.668	-11.4277	-165.634	0.037557	0.421261	-0.684533	-0.685805	0.009539	39.668	-0.684713	-1.209626E+9	-7.885514E-12	NaN
750	1.000000	0.464557	7.37239e+06	-39589.1	1005.82	-29793.3	0.000000	0.000000	6.464916	-0.002655	NaN	0.000000	0.001638	0.001683	28.0813	0.160434	0.002011	79.7667	-115.899	12.8055	0.058142	0.463254	-0.642509	-0.643812	-0.002655	79.7667	-0.642484	-3.194217E+8	8.311451E-12	NaN
750	1.000000	0.506583	7.37239e+06	-39589.1	1005.82	-29793.3	0.000000	0.000000	6.506944	0.033510	NaN	0.000000	0.001643	0.001705	28.0816	0.030823	0.001978	15.5798	79.6439	-168.05	-0.026524	0.505237	-0.600483	-0.601829	0.033510	15.5798	-0.602096	-8.898619E+7	-3.765800E-10	NaN
750	1.000000	0.548618	7.37239e+06	-39589.1	1005.82	-29793.3	0.000000	0.000000	6.548974	-0.068199	NaN	0.000000	0.001634	0.001726	28.0828	0.070379	0.002019	34.8583	-98.0328	12.8513	-0.065358	0.547207	-0.558448	-0.559859	-0.068199	34.8583	-0.556981	-2.121315E+7	3.214940E-9	NaN
750	1.000000	0.590630	7.37239e+06	-39589.1	1005.82	-29793.3	0.000000	0.000000	6.590990	0.028535	NaN	0.000000	0.001594	0.001738	28.0823	0.025201	0.001921	13.1163	102.916	-166.007	0.017781	0.589313	-0.516436	-0.517753	0.028535	13.1163	-0.518068	-6.11962e+06	-4.662877E-9	NaN
750	1.000000	0.632656	7.37239e+06	-39589.1	1005.82	-29793.3	0.000000	0.000000	6.633015	-0.011166	NaN	0.000000	0.001582	0.001758	28.0822	0.070308	0.002107	33.3629	77.5076	16.4694	0.060259	0.631282	-0.474409	-0.475784	-0.011166	33.3629	-0.474158	-1.49179e+06	7.485081E-9	NaN
750	1.000000	0.674651	7.37239e+06	-39589.1	1005.82	-29793.3	0.000000	0.000000	6.675011	0.005669	NaN	0.000000	0.001620	0.001696	28.0823	0.132596	0.001943	68.2469	-63.1497	-163.312	-0.073766	0.673316	-0.432415	-0.433750	0.005669	68.2469	-0.432477	-386452	-1.466950E-8	NaN
750	1.000000	0.716645	7.37239e+06	-39589.1	1005.82	-29793.3	0.000000	0.000000	6.717007	0.078706	NaN	0.000000	0.001594	0.001727	28.0808	0.058142	0.001976	29.4201	29.3024	13.2706	-0.026521	0.715291	-0.390421	-0.391775	0.078706	29.4201	-0.392428	-104203	-7.553080E-7	NaN
750	1.000000	0.758699	7.37239e+06	-39589.1	1005.82	-29793.3	0.000000	0.000000	6.759057	-0.037411	NaN	0.000000	0.001590	0.001732	28.0812	0.023578	0.002043	11.5417	-132.66	-164.845	-0.044235	0.757406	-0.348367	-0.349659	-0.037411	11.5417	-0.345936	-22282.7	1.678935E-6	NaN
750	1.000000	0.800680	7.37239e+06	-39589.1	1005.82	-29793.3	0.000000	0.000000	6.801038	-0.041925	NaN	0.000000	0.001588	0.001703	28.0808	0.080257	0.001967	40.8082	167.517	18.2733	-0.022062	0.799375	-0.306386	-0.307691	-0.041925	40.8082	-0.305615	-5702.73	7.351802E-6	NaN
750	1.000000	0.842763	7.37239e+06	-39589.1	1005.82	-29793.3	0.000000	0.000000	6.843122	-0.003225	NaN	0.000000	0.001618	0.001706	28.0821	0.063079	0.002004	31.469	-119.24	-165.803	-0.007897	0.841432	-0.264303	-0.265634	-0.003225	31.469	-0.264226	-1360.1	2.371036E-6	NaN
750	1.000000	0.884738	7.37239e+06	-39589.1	1005.82	-29793.3	0.000000	0.000000	6.885098	0.009278	NaN	0.000000	0.001599	0.001726	28.0825	0.030075	0.001999	15.0474	-64.3989	14.6647	-0.023530	0.883391	-0.222328	-0.223675	0.009278	15.0474	-0.222790	-307.742	-3.014915E-5	NaN
750	1.000000	0.926756	7.37239e+06	-39589.1	1005.82	-29793.3	0.000000	0.000000	6.927114	-0.019399	NaN	0.000000	0.001582	0.001683	28.0824	0.063199	0.001911	33.0656	-124.962	-163.618	0.053520	0.925459	-0.180310	-0.181607	-0.019399	33.0656	-0.179870	-60.7095	0.000320	NaN
750	1.000000	0.968798	7.37239e+06	-39589.1	1005.82	-29793.3	0.000000	0.000000	6.969158	0.016431	NaN	0.000000	0.001632	0.001688	28.0826	0.033211	0.002007	16.5438	-157.628	14.7392	0.036870	0.967398	-0.138268	-0.139668	0.016431	16.5438	-0.139013	-11.3342	-0.001450	NaN
750	1.000000	1.010768	7.37239e+06	-39589.1	1005.82	-29793.3	0.000000	0.000000	7.011128	0.004280	NaN	0.000000	0.001633	0.001686	28.0812	0.029025	0.001857	15.6295	-56.1479	-165.346	0.021107	1.009509	-0.096297	-0.097557	0.004280	15.6295	-0.096503	-1.525855	-0.002805	NaN
750	1.000000	1.052804	7.37239e+06	-39589.1	1005.82	-29793.3	0.000000	0.000000	7.053162	-0.035813	NaN	0.000000	0.001715	0.001674	28.0809	0.124519	0.001944	64.0623	-98.8251	10.2013	0.009374	1.051480	-0.054262	-0.055586	-0.035813	64.0623	-0.053843	-0.118994	0.300963	NaN
750	1.000000	1.094818	7.3724e+06	-39589.1	1005.82	-29793.3	0.000000	0.000000	7.095177	-0.020992	NaN	0.000000	0.001627	0.001726	28.0827	0.045719	0.002085	21.9296	-120.062	-166.45	-0.103760	1.093532	-0.012248	-0.013534	-0.020992	21.9296	-0.011530	-0.007260	2.891492	NaN
750	2.000000	1.120841	7.3724e+06	-39589.1	1005.82	-29793.3	0.000000	0.000000	7.121804	14.6871	NaN	0.000000	0.001597	0.001712	28.0826	13.8069	0.001761	7838.75	10.8245	1.686106	14.2565	1.120487	0.013775	0.013421	14.6871	7838.75	0.012370	0.011936	1230.49	65552.7
750	2.000000	1.131268	7.3724e+06	-39589.1	1005.82	-29793.3	0.000000	0.000000	7.133129	36.5409	NaN	0.000000	0.001636	0.001728	28.0825	24.1838	0.001881	12854.1	5.749402	-177.787	35.8502	1.130928	0.024202	0.023862	36.5409	12854.1	0.022070	0.025901	1410.82	72972.9
750	2.000000	1.141755	7.3724e+06	-39589.1	1005.82	-29793.3	0.000000	0.000000	7.144673	62.2819	NaN	0.000000	0.001608	0.001783	28.0831	33.5135	0.001850	18113.1	5.116437	-1.133041	60.754	1.141385	0.034689	0.034319	62.2819	18113.1	0.032110	0.045230	1377	77813
750	2.000000	1.152222	7.3724e+06	-39589.1	1005.82	-29793.3	0.000000	0.000000	7.156447	94.0505	NaN	0.000000	0.001621	0.001759	28.0826	43.4967	0.001778	24464.1	4.933147	176.333	91.7462	1.151895	0.045156	0.044829	94.0505	24464.1	0.042273	0.070035	1342.91	84459
750	2.000000	1.162846	7.3724e+06	-39589.1	1005.82	-29793.3	0.000000	0.000000	7.168620	131.764	NaN	0.000000	0.001588	0.001700	28.0815	54.767	0.001913	28622.9	9.355968	-7.950689	137.079	1.162331	0.055780	0.055265	131.764	28622.9	0.052328	0.099743	1321.03	82802.8
750	2.000000	1.173342	7.3724e+06	-39589.1	1005.82	-29793.3	0.000000	0.000000	7.181387	187.019	NaN	0.000000	0.001607	0.001706	28.0816	62.9578	0.001761	35757.8	5.432998	173.2	190.829	1.172867	0.066276	0.065801	187.019	35757.8	0.062353	0.134383	1391.69	89119.3
750	2.000000	1.183684	7.3724e+06	-39589.1	1005.82	-29793.3	0.000000	0.000000	7.194023	242.84	NaN	0.000000	0.001621	0.001732	28.083	74.0175	0.001798	41159.3	6.165773	-8.934291	239.391	1.183326	0.076618	0.076260	242.84	41159.3	0.072193	0.173124	1402.7	90378
750	2.000000	1.194130	7.3724e+06	-39589.1	1005.82	-29793.3	0.000000	0.000000	7.207326	312.373	NaN	0.000000	0.001627	0.001760	28.0828	83.6748	0.001791	46720.4	6.204229	170.392	309.142	1.193806	0.087064	0.086740	312.373	46720.4	0.082050	0.216529	1442.64	91732.2
750	2.000000	1.204620	7.3724e+06	-39589.1	1005.82	-29793.3	0.000000	0.000000	7.221057	391.232	NaN	0.000000	0.001624	0.001712	28.0827	92.8408	0.001774	52338.6	3.922649	-8.634200	386.438	1.204472	0.097554	0.097406	391.232	52338.6	0.091948	0.264658	1478.25	92950.7
750	2.000000	1.214069	7.3724e+06	-39589.1	1005.82	-29793.3	0.000000	0.000000	7.234006	476.424	NaN	0.000000	0.001720	0.001675	28.0817	98.6839	0.001826	54034.5	2.122052	173.608	468.961	1.213837	0.107003	0.106771	476.424	54034.5	0.100390	0.309251	1540.58	88774.7