File: remote_trans/data/nanoindenter/0828-1/data/Data_2025-08-06,11h17m57s/2025-07-22_16-23-58_1_532.txt
2025-07-22, 16:23:58, 1
Index	Phase	Displacement	Time	Pos X	Pos Y	Pos Z	Rot A	Rot B	Piezo Z	Force A	Force B	Gripper	Voltage A	Voltage B	Temperature	Amplitude force	Amplitude pos	Stiffness	Phase shift	Phase excitation	Force A raw	Displacement raw	HMax	HMax raw	Real Force	Real Stiffness	Contact Depth	Area	Hardness	Reduced Mod.
[#]	[#]	[um]	[s]	[um]	[um]	[um]	[m°]	[m°]	[um]	[uN]	[uN]	[V]	[V]	[V]	[°C]	[uN]	[um]	[N/m]	[°]	[°]	[uN]	[um]	[um]	[um]	[uN]	[N/m]	[um]	[um^2]	[MPa]	[MPa]
532	1.000000	0.003051	7.37025e+06	-50489.1	1005.82	-29755.5	0.000000	0.000000	6.002795	-0.057806	NaN	0.000000	0.001643	0.001820	28.0801	0.100526	0.000837	120.094	174.344	-165.531	-0.077081	0.001787	-1.097034	-1.098299	-0.057806	120.094	-1.096673	-4.522791E+14	1.278106E-16	NaN
532	1.000000	0.044972	7.37025e+06	-50489.1	1005.82	-29755.5	0.000000	0.000000	6.044718	-0.009005	NaN	0.000000	0.001616	0.001832	28.0804	0.064167	0.002080	30.8424	-42.3237	15.4416	0.013628	0.043573	-1.055113	-1.056513	-0.009005	30.8424	-1.054894	-1.242220E+14	7.249225E-17	NaN
532	1.000000	0.086992	7.37025e+06	-50489.1	1005.82	-29755.5	0.000000	0.000000	6.086742	0.087773	NaN	0.000000	0.001589	0.001774	28.0814	0.097577	0.001954	49.929	-57.8171	-165.817	0.064880	0.085724	-1.013093	-1.014361	0.087773	49.929	-1.014412	-3.546165E+13	-2.475148E-15	NaN
532	1.000000	0.129038	7.37025e+06	-50489.1	1005.82	-29755.5	0.000000	0.000000	6.128783	-0.017520	NaN	0.000000	0.001631	0.001754	28.0811	0.088734	0.002054	43.1977	-71.4729	17.02	-0.014547	0.127668	-0.971048	-0.972417	-0.017520	43.1977	-0.970743	-9.155506E+12	1.913620E-15	NaN
532	1.000000	0.171066	7.37025e+06	-50489.1	1005.82	-29755.5	0.000000	0.000000	6.170810	-0.036016	NaN	0.000000	0.001634	0.001777	28.081	0.026536	0.001960	13.5419	65.8276	-167.599	-0.014201	0.169743	-0.929020	-0.930343	-0.036016	13.5419	-0.927025	-2.355278E+12	1.529157E-14	NaN
532	1.000000	0.213060	7.37025e+06	-50489.1	1005.82	-29755.5	0.000000	0.000000	6.212808	0.057222	NaN	0.000000	0.001622	0.001809	28.0801	0.103868	0.001913	54.2907	48.9566	12.7154	0.081920	0.211681	-0.887026	-0.888405	0.057222	54.2907	-0.887816	-6.956536E+11	-8.225657E-14	NaN
532	1.000000	0.255080	7.37025e+06	-50489.1	1005.82	-29755.5	0.000000	0.000000	6.254826	0.001417	NaN	0.000000	0.001604	0.001770	28.0798	0.066252	0.001944	34.0865	-15.6589	-165.171	0.079321	0.253782	-0.845006	-0.846304	0.001417	34.0865	-0.845037	-1.834526E+11	-7.724691E-15	NaN
532	1.000000	0.297107	7.37025e+06	-50489.1	1005.82	-29755.5	0.000000	0.000000	6.296856	0.065048	NaN	0.000000	0.001639	0.001788	28.0804	0.129169	0.001953	66.1311	-144.919	17.1	-0.005665	0.295801	-0.802978	-0.804285	0.065048	66.1311	-0.803716	-5.050094E+10	-1.288046E-12	NaN
532	1.000000	0.339116	7.37025e+06	-50489.1	1005.82	-29755.5	0.000000	0.000000	6.338860	-0.051936	NaN	0.000000	0.001651	0.001779	28.0812	0.105824	0.001980	53.4343	-21.1241	-167.116	0.006984	0.337788	-0.760969	-0.762298	-0.051936	53.4343	-0.760240	-1.295896E+10	4.007731E-12	NaN
532	1.000000	0.381165	7.37025e+06	-50489.1	1005.82	-29755.5	0.000000	0.000000	6.380909	-0.040976	NaN	0.000000	0.001589	0.001768	28.0813	0.122847	0.002003	61.3353	149.617	12.3629	-0.068207	0.379776	-0.718921	-0.720309	-0.040976	61.3353	-0.718420	-3.490779E+9	1.173842E-11	NaN
532	1.000000	0.423140	7.37025e+06	-50489.1	1005.82	-29755.5	0.000000	0.000000	6.422885	-0.034496	NaN	0.000000	0.001558	0.001784	28.0811	0.075467	0.001935	39.0056	-111.107	-164.39	0.022542	0.421891	-0.676945	-0.678194	-0.034496	39.0056	-0.676282	-9.275761E+8	3.718893E-11	NaN
532	1.000000	0.465173	7.37026e+06	-50489.1	1005.82	-29755.5	0.000000	0.000000	6.464919	0.013478	NaN	0.000000	0.001563	0.001758	28.0807	0.087154	0.001901	45.8452	-127.455	13.5509	-0.025556	0.463823	-0.634913	-0.636262	0.013478	45.8452	-0.635133	-2.532215E+8	-5.322733E-11	NaN
532	1.000000	0.507229	7.37026e+06	-50489.1	1005.82	-29755.5	0.000000	0.000000	6.506974	-0.033459	NaN	0.000000	0.001573	0.001728	28.0802	0.070761	0.002038	34.7264	81.4322	-166.12	-0.049398	0.505879	-0.592856	-0.594207	-0.033459	34.7264	-0.592133	-6.487479E+7	5.157406E-10	NaN
532	1.000000	0.549218	7.37026e+06	-50489.1	1005.82	-29755.5	0.000000	0.000000	6.548964	-0.000206	NaN	0.000000	0.001590	0.001725	28.0802	0.029402	0.002207	13.3196	-71.7061	10.407	-0.032469	0.547853	-0.550867	-0.552233	-0.000206	13.3196	-0.550856	-1.745055E+7	1.180314E-11	NaN
532	1.000000	0.591224	7.37026e+06	-50489.1	1005.82	-29755.5	0.000000	0.000000	6.590968	-0.042927	NaN	0.000000	0.001578	0.001744	28.0801	0.079337	0.001899	41.7725	-154.36	-166.331	0.066764	0.589877	-0.508861	-0.510208	-0.042927	41.7725	-0.508091	-4.44444e+06	9.658614E-9	NaN
532	1.000000	0.633258	7.37026e+06	-50489.1	1005.82	-29755.5	0.000000	0.000000	6.633002	-0.050619	NaN	0.000000	0.001526	0.001799	28.0814	0.064429	0.002010	32.0491	-70.187	19.4689	0.128606	0.631892	-0.466827	-0.468193	-0.050619	32.0491	-0.465643	-1.13311e+06	4.467303E-8	NaN
532	1.000000	0.675252	7.37026e+06	-50489.1	1005.82	-29755.5	0.000000	0.000000	6.674995	-0.063943	NaN	0.000000	0.001563	0.001726	28.0811	0.118808	0.002088	56.9025	161.746	-165.553	-0.006507	0.673955	-0.424833	-0.426131	-0.063943	56.9025	-0.423991	-293079	2.181762E-7	NaN
532	1.000000	0.717313	7.37026e+06	-50489.1	1005.82	-29755.5	0.000000	0.000000	6.717056	-0.050606	NaN	0.000000	0.001558	0.001750	28.081	0.073677	0.001973	37.3341	171.004	16.6252	-0.019229	0.715926	-0.382773	-0.384159	-0.050606	37.3341	-0.381756	-73297.2	6.904152E-7	NaN
532	1.000000	0.759314	7.37026e+06	-50489.1	1005.82	-29755.5	0.000000	0.000000	6.759057	-0.068315	NaN	0.000000	0.001584	0.001720	28.08	0.130556	0.001949	66.989	-179.879	-165.601	-0.064560	0.758035	-0.340772	-0.342050	-0.068315	66.989	-0.340007	-18266.6	3.739882E-6	NaN
532	1.000000	0.801342	7.37026e+06	-50489.1	1005.82	-29755.5	0.000000	0.000000	6.801088	0.000817	NaN	0.000000	0.001553	0.001733	28.0798	0.003823	0.001973	1.937735	-177.209	16.1491	-0.004512	0.799929	-0.298744	-0.300157	0.000817	1.937735	-0.299060	-4556.58	-1.792145E-7	NaN
532	1.000000	0.843315	7.37026e+06	-50489.1	1005.82	-29755.5	0.000000	0.000000	6.843060	-0.014856	NaN	0.000000	0.001536	0.001722	28.0799	0.074332	0.002077	35.7878	-151.815	-165.359	-0.057462	0.841981	-0.256771	-0.258104	-0.014856	35.7878	-0.256460	-1034.12	1.436562E-5	NaN
532	1.000000	0.885329	7.37026e+06	-50489.1	1005.82	-29755.5	0.000000	0.000000	6.885073	-0.042752	NaN	0.000000	0.001633	0.001734	28.081	0.031194	0.001920	16.251	-72.4368	16.3757	-0.014043	0.883998	-0.214757	-0.216087	-0.042752	16.251	-0.212784	-212.724	0.000201	NaN
532	1.000000	0.927377	7.37026e+06	-50489.1	1005.82	-29755.5	0.000000	0.000000	6.927122	-0.011434	NaN	0.000000	0.001637	0.001745	28.0811	0.010656	0.002043	5.214978	18.8586	-167.41	-0.035574	0.926100	-0.172709	-0.173986	-0.011434	5.214978	-0.171065	-42.8627	0.000267	NaN
532	1.000000	0.969368	7.37026e+06	-50489.1	1005.82	-29755.5	0.000000	0.000000	6.969112	-0.053370	NaN	0.000000	0.001590	0.001726	28.0813	0.079174	0.002014	39.3041	-72.5447	14.4624	-0.015550	0.967997	-0.130718	-0.132089	-0.053370	39.3041	-0.129699	-7.519135	0.007098	NaN
532	1.000000	1.011372	7.37026e+06	-50489.1	1005.82	-29755.5	0.000000	0.000000	7.011119	0.017217	NaN	0.000000	0.001616	0.001713	28.0809	0.072209	0.002120	34.0604	-85.4165	-164.506	-0.042402	1.010106	-0.088713	-0.089980	0.017217	34.0604	-0.089092	-1.029119	-0.016730	NaN
532	1.000000	1.053387	7.37026e+06	-50489.1	1005.82	-29755.5	0.000000	0.000000	7.053131	-0.053682	NaN	0.000000	0.001618	0.001683	28.0798	0.010742	0.002127	5.051179	-131.694	15.0263	-0.052928	1.052103	-0.046698	-0.047983	-0.053682	5.051179	-0.038728	-0.041381	1.297240	NaN
532	1.000000	1.095433	7.37026e+06	-50489.1	1005.82	-29755.5	0.000000	0.000000	7.095181	0.052099	NaN	0.000000	0.001571	0.001751	28.0799	0.155429	0.002021	76.9223	7.830654	-160.314	-0.026669	1.094114	-0.004653	-0.005971	0.052099	76.9223	-0.005161	-0.003517	-14.8115	NaN
532	2.000000	1.114399	7.37026e+06	-50489.1	1005.82	-29755.5	0.000000	0.000000	7.115003	20.8473	NaN	0.000000	0.001612	0.001688	28.0799	18.4027	0.001869	9845.52	4.652625	6.648141	19.5941	1.114013	0.014314	0.013928	20.8473	9845.52	0.012726	0.012371	1685.14	80873.4
532	2.000000	1.124870	7.37026e+06	-50489.1	1005.82	-29755.5	0.000000	0.000000	7.126664	49.812	NaN	0.000000	0.001548	0.001723	28.0811	29.9317	0.001775	16859.6	5.525024	179.933	49.2075	1.124603	0.024785	0.024518	49.812	16859.6	0.022569	0.026740	1862.8	94196.6
532	2.000000	1.135316	7.37026e+06	-50489.1	1005.82	-29755.5	0.000000	0.000000	7.138397	81.1045	NaN	0.000000	0.001543	0.001746	28.0813	39.2468	0.001742	22528.7	4.734483	-2.292890	77.9743	1.134967	0.035230	0.034881	81.1045	22528.7	0.032530	0.046151	1757.36	95811.5
532	2.000000	1.145841	7.37026e+06	-50489.1	1005.82	-29755.5	0.000000	0.000000	7.150613	122.229	NaN	0.000000	0.001603	0.001693	28.0813	47.745	0.001690	28256	2.891254	178.737	121.314	1.145483	0.045755	0.045397	122.229	28256	0.042511	0.070679	1729.36	97104.4
532	2.000000	1.156312	7.37026e+06	-50489.1	1005.82	-29755.5	0.000000	0.000000	7.162877	165.819	NaN	0.000000	0.001620	0.001730	28.0799	55.3189	0.001661	33311.9	1.353551	-2.251122	161.632	1.156047	0.056227	0.055961	165.819	33311.9	0.052493	0.100276	1653.63	96111.2
532	2.000000	1.166872	7.37026e+06	-50489.1	1005.82	-29755.5	0.000000	0.000000	7.175978	227.615	NaN	0.000000	0.001595	0.001726	28.0799	68.7536	0.001905	36090.4	6.790556	172.522	231.09	1.166506	0.066786	0.066421	227.615	36090.4	0.062056	0.133285	1707.73	90317.9
532	2.000000	1.177276	7.37026e+06	-50489.1	1005.82	-29755.5	0.000000	0.000000	7.188717	284.386	NaN	0.000000	0.001563	0.001754	28.0797	77.3175	0.001821	42448.1	1.520076	-4.315388	280.688	1.177030	0.077191	0.076944	284.386	42448.1	0.072166	0.173011	1643.75	93238.4
532	2.000000	1.187812	7.37026e+06	-50489.1	1005.82	-29755.5	0.000000	0.000000	7.202361	359.996	NaN	0.000000	0.001574	0.001731	28.0815	88.1552	0.001844	47809.7	4.613098	173.085	360.468	1.187387	0.087726	0.087301	359.996	47809.7	0.082079	0.216663	1661.55	93841.9
532	2.000000	1.198293	7.37026e+06	-50489.1	1005.82	-29755.5	0.000000	0.000000	7.215908	434.541	NaN	0.000000	0.001656	0.001765	28.0813	99.3312	0.001880	52839.9	5.654191	-10.0978	432.373	1.197945	0.098207	0.097859	434.541	52839.9	0.092040	0.265124	1639.01	93758.5
532	2.000000	1.205364	7.37026e+06	-50489.1	1005.82	-29755.5	0.000000	0.000000	7.225430	494.142	NaN	0.000000	0.001633	0.001766	28.0815	103.535	0.001779	58212.5	5.262185	-9.455966	497.311	1.204841	0.105279	0.104755	494.142	58212.5	0.098912	0.301211	1640.52	96906.8