File: remote_trans/data/nanoindenter/0828-1/data/Data_2025-08-06,11h17m57s/2025-07-22_16-23-58_1_645.txt
2025-07-22, 16:23:58, 1
Index	Phase	Displacement	Time	Pos X	Pos Y	Pos Z	Rot A	Rot B	Piezo Z	Force A	Force B	Gripper	Voltage A	Voltage B	Temperature	Amplitude force	Amplitude pos	Stiffness	Phase shift	Phase excitation	Force A raw	Displacement raw	HMax	HMax raw	Real Force	Real Stiffness	Contact Depth	Area	Hardness	Reduced Mod.
[#]	[#]	[um]	[s]	[um]	[um]	[um]	[m°]	[m°]	[um]	[uN]	[uN]	[V]	[V]	[V]	[°C]	[uN]	[um]	[N/m]	[°]	[°]	[uN]	[um]	[um]	[um]	[uN]	[N/m]	[um]	[um^2]	[MPa]	[MPa]
645	1.000000	0.002909	7.37136e+06	-44839.1	1005.82	-29774.5	0.000000	0.000000	6.002814	0.074538	NaN	0.000000	0.001638	0.001715	28.0833	0.085152	0.001027	82.9411	-72.5413	-163.827	0.062693	0.001638	-1.158840	-1.160110	0.074538	82.9411	-1.159514	-3.150276E+15	-2.366070E-17	NaN
645	1.000000	0.046845	7.37136e+06	-44839.1	1005.82	-29774.5	0.000000	0.000000	6.046750	0.062335	NaN	0.000000	0.001617	0.001732	28.0829	0.025352	0.001972	12.8572	25.983	-166.023	0.012907	0.045548	-1.114903	-1.116201	0.062335	12.8572	-1.118539	-8.889452E+14	-7.012251E-17	NaN
645	1.000000	0.090902	7.37136e+06	-44839.1	1005.82	-29774.5	0.000000	0.000000	6.090806	0.062439	NaN	0.000000	0.001586	0.001720	28.0829	0.072468	0.001955	37.0771	-9.818485	-163.624	0.078188	0.089566	-1.070847	-1.072183	0.062439	37.0771	-1.072110	-2.116074E+14	-2.950720E-16	NaN
645	1.000000	0.134840	7.37136e+06	-44839.1	1005.82	-29774.5	0.000000	0.000000	6.134742	-0.000100	NaN	0.000000	0.001629	0.001755	28.084	0.063433	0.001966	32.2613	-75.6789	-163.926	-0.041189	0.133567	-1.026909	-1.028181	-0.000100	32.2613	-1.026906	-5.222374E+13	1.920204E-18	NaN
645	1.000000	0.178899	7.37136e+06	-44839.1	1005.82	-29774.5	0.000000	0.000000	6.178801	0.002388	NaN	0.000000	0.001639	0.001770	28.0842	0.022266	0.002069	10.7629	-9.185981	-163.086	0.030252	0.177605	-0.982850	-0.984143	0.002388	10.7629	-0.983016	-1.339806E+13	-1.782301E-16	NaN
645	1.000000	0.222911	7.37136e+06	-44839.1	1005.82	-29774.5	0.000000	0.000000	6.222812	-0.007771	NaN	0.000000	0.001655	0.001717	28.0844	0.050583	0.002007	25.1991	144.236	-161.259	-0.073222	0.221601	-0.938838	-0.940147	-0.007771	25.1991	-0.938606	-3.375480E+12	2.302086E-15	NaN
645	1.000000	0.266944	7.37136e+06	-44839.1	1005.82	-29774.5	0.000000	0.000000	6.266844	-0.056549	NaN	0.000000	0.001693	0.001707	28.0832	0.101799	0.001942	52.4157	-176.877	-163.989	0.016434	0.265637	-0.894804	-0.896111	-0.056549	52.4157	-0.893995	-8.431698E+11	6.706729E-14	NaN
645	1.000000	0.310928	7.37136e+06	-44839.1	1005.82	-29774.5	0.000000	0.000000	6.310832	0.065698	NaN	0.000000	0.001672	0.001707	28.0829	0.010945	0.001936	5.652519	2.769559	-165.377	0.006082	0.309629	-0.850821	-0.852119	0.065698	5.652519	-0.859538	-2.883151E+11	-2.278687E-13	NaN
645	1.000000	0.354991	7.37136e+06	-44839.1	1005.82	-29774.5	0.000000	0.000000	6.354895	0.038724	NaN	0.000000	0.001668	0.001709	28.083	0.066676	0.002001	33.3192	61.896	-164.523	0.003829	0.353644	-0.806757	-0.808104	0.038724	33.3192	-0.807629	-5.706897E+10	-6.785538E-13	NaN
645	1.000000	0.398966	7.37136e+06	-44839.1	1005.82	-29774.5	0.000000	0.000000	6.398867	-0.003617	NaN	0.000000	0.001568	0.001680	28.0844	0.069980	0.001980	35.3399	160.786	-164.667	0.045419	0.397713	-0.762783	-0.764035	-0.003617	35.3399	-0.762706	-1.399953E+10	2.583357E-13	NaN
645	1.000000	0.443013	7.37136e+06	-44839.1	1005.82	-29774.5	0.000000	0.000000	6.442919	0.099211	NaN	0.000000	0.001586	0.001698	28.0838	0.061699	0.001938	31.8313	-99.7681	-165.84	0.005293	0.441707	-0.718735	-0.720041	0.099211	31.8313	-0.721073	-3.794075E+9	-2.614891E-11	NaN
645	1.000000	0.487019	7.37136e+06	-44839.1	1005.82	-29774.5	0.000000	0.000000	6.486923	0.028826	NaN	0.000000	0.001625	0.001719	28.0841	0.044343	0.002072	21.4011	94.7147	-163.645	0.115289	0.485691	-0.674729	-0.676057	0.028826	21.4011	-0.675739	-9.118509E+8	-3.161283E-11	NaN
645	1.000000	0.531054	7.37136e+06	-44839.1	1005.82	-29774.5	0.000000	0.000000	6.530956	-0.009977	NaN	0.000000	0.001706	0.001684	28.0832	0.034447	0.002102	16.3886	64.7546	-162.734	-0.022419	0.529730	-0.630694	-0.632019	-0.009977	16.3886	-0.630237	-2.169122E+8	4.599521E-11	NaN
645	1.000000	0.575048	7.37136e+06	-44839.1	1005.82	-29774.5	0.000000	0.000000	6.574951	0.030917	NaN	0.000000	0.001614	0.001694	28.0832	0.012025	0.001894	6.347551	-27.4648	-163.61	0.062731	0.573698	-0.586700	-0.588050	0.030917	6.347551	-0.590353	-6.131076E+7	-5.042591E-10	NaN
645	1.000000	0.619081	7.37136e+06	-44839.1	1005.82	-29774.5	0.000000	0.000000	6.618986	0.089451	NaN	0.000000	0.001640	0.001693	28.0831	0.042140	0.002011	20.9517	58.169	-168.825	0.116335	0.617796	-0.542668	-0.543952	0.089451	20.9517	-0.545870	-1.488446E+7	-6.009679E-9	NaN
645	1.000000	0.663109	7.37136e+06	-44839.1	1005.82	-29774.5	0.000000	0.000000	6.663012	0.010559	NaN	0.000000	0.001629	0.001711	28.0843	0.067567	0.002048	32.9914	133.463	-162.364	-0.003050	0.661824	-0.498639	-0.499925	0.010559	32.9914	-0.498879	-3.30657e+06	-3.193316E-9	NaN
645	1.000000	0.707115	7.37136e+06	-44839.1	1005.82	-29774.5	0.000000	0.000000	6.707015	-0.048487	NaN	0.000000	0.001574	0.001720	28.0845	0.024987	0.001800	13.8801	-73.1571	-167.728	-0.075377	0.705745	-0.454633	-0.456003	-0.048487	13.8801	-0.452014	-728940	6.651748E-8	NaN
645	1.000000	0.751119	7.37136e+06	-44839.1	1005.82	-29774.5	0.000000	0.000000	6.751024	0.085784	NaN	0.000000	0.001617	0.001713	28.0844	0.153799	0.002073	74.1968	-171.99	-164.81	0.046160	0.749847	-0.410630	-0.411901	0.085784	74.1968	-0.411497	-194843	-4.402719E-7	NaN
645	1.000000	0.795175	7.37136e+06	-44839.1	1005.82	-29774.5	0.000000	0.000000	6.795080	0.084443	NaN	0.000000	0.001618	0.001738	28.0844	0.120533	0.002066	58.3478	179.21	-165.99	0.051838	0.793873	-0.366574	-0.367876	0.084443	58.3478	-0.367659	-45962	-1.837228E-6	NaN
645	1.000000	0.839180	7.37136e+06	-44839.1	1005.82	-29774.5	0.000000	0.000000	6.839086	0.083229	NaN	0.000000	0.001682	0.001732	28.0837	0.108899	0.001929	56.4651	-90.5088	-168.189	0.044857	0.837854	-0.322568	-0.323895	0.083229	56.4651	-0.323674	-10535.6	-7.899770E-6	NaN
645	1.000000	0.883188	7.37136e+06	-44839.1	1005.82	-29774.5	0.000000	0.000000	6.883093	0.054652	NaN	0.000000	0.001655	0.001734	28.0834	0.023468	0.001929	12.1649	-103.509	-164.782	0.065474	0.881881	-0.278560	-0.279867	0.054652	12.1649	-0.281930	-2523.83	-2.165448E-5	NaN
645	1.000000	0.927206	7.37136e+06	-44839.1	1005.82	-29774.5	0.000000	0.000000	6.927107	-0.032633	NaN	0.000000	0.001622	0.001712	28.084	0.050009	0.001914	26.1337	-0.133187	-161.028	0.036323	0.925840	-0.234543	-0.235909	-0.032633	26.1337	-0.233606	-456.397	7.150085E-5	NaN
645	1.000000	0.971210	7.37136e+06	-44839.1	1005.82	-29774.5	0.000000	0.000000	6.971115	0.053582	NaN	0.000000	0.001628	0.001697	28.0847	0.120866	0.001994	60.6215	103.941	-165.12	0.136903	0.969914	-0.190538	-0.191835	0.053582	60.6215	-0.191201	-94.2038	-0.000569	NaN
645	1.000000	1.015255	7.37136e+06	-44839.1	1005.82	-29774.5	0.000000	0.000000	7.015158	0.015722	NaN	0.000000	0.001642	0.001732	28.0846	0.013722	0.001993	6.885612	33.6832	-164.228	0.011672	1.013946	-0.146493	-0.147803	0.015722	6.885612	-0.148206	-16.7957	-0.000936	NaN
645	1.000000	1.059247	7.37136e+06	-44839.1	1005.82	-29774.5	0.000000	0.000000	7.059149	0.001130	NaN	0.000000	0.001715	0.001740	28.0845	0.163713	0.002146	76.2829	168.258	-162.999	-0.074860	1.058031	-0.102502	-0.103717	0.001130	76.2829	-0.102513	-2.075419	-0.000545	NaN
645	1.000000	1.103272	7.37136e+06	-44839.1	1005.82	-29774.5	0.000000	0.000000	7.103176	0.035494	NaN	0.000000	0.001713	0.001698	28.0832	0.191804	0.002086	91.9673	-170.103	-163.376	-0.024127	1.101956	-0.058476	-0.059793	0.035494	91.9673	-0.058765	-0.165936	-0.213903	NaN
645	1.000000	1.147285	7.37136e+06	-44839.1	1005.82	-29774.5	0.000000	0.000000	7.147188	0.031813	NaN	0.000000	0.001720	0.001665	28.0836	0.049040	0.001956	25.0735	98.5173	-164.218	0.044529	1.145951	-0.014463	-0.015797	0.031813	25.0735	-0.015415	-0.009525	-3.339765	NaN
645	2.000000	1.173852	7.37136e+06	-44839.1	1005.82	-29774.5	0.000000	0.000000	7.174369	14.9783	NaN	0.000000	0.001640	0.001677	28.0834	14.1164	0.001724	8190.27	5.282837	-173.403	14.8047	1.173572	0.012103	0.011823	14.9783	8190.27	0.010732	0.010006	1496.93	74806.7
645	2.000000	1.184791	7.37136e+06	-44839.1	1005.82	-29774.5	0.000000	0.000000	7.186366	40.7098	NaN	0.000000	0.001620	0.001682	28.0846	24.9183	0.001841	13532.8	6.898472	-178.092	38.7275	1.184426	0.023043	0.022677	40.7098	13532.8	0.020786	0.023793	1710.99	80155.8
645	2.000000	1.195753	7.37136e+06	-44839.1	1005.82	-29774.5	0.000000	0.000000	7.198783	76.1166	NaN	0.000000	0.001674	0.001616	28.0841	34.6636	0.001765	19644.4	2.880709	-178.486	73.9812	1.195524	0.034004	0.033775	76.1166	19644.4	0.031098	0.043050	1768.08	86501.6
645	2.000000	1.206816	7.37136e+06	-44839.1	1005.82	-29774.5	0.000000	0.000000	7.211631	119.524	NaN	0.000000	0.001645	0.001656	28.0847	46.328	0.001767	26217.2	4.947301	177.496	120.798	1.206465	0.045068	0.044717	119.524	26217.2	0.041649	0.068358	1748.49	91614.4
645	2.000000	1.217776	7.37137e+06	-44839.1	1005.82	-29774.5	0.000000	0.000000	7.224603	168.477	NaN	0.000000	0.001666	0.001688	28.0835	56.128	0.001970	28493.5	8.313174	173.62	168.964	1.217401	0.056027	0.055653	168.477	28493.5	0.051593	0.097400	1729.75	83414.1
645	2.000000	1.228694	7.37137e+06	-44839.1	1005.82	-29774.5	0.000000	0.000000	7.238003	228.828	NaN	0.000000	0.001655	0.001694	28.0832	63.6111	0.001851	34368.5	3.378897	176.459	226.865	1.228400	0.066946	0.066652	228.828	34368.5	0.061952	0.132902	1721.78	86132.7
645	2.000000	1.239813	7.37137e+06	-44839.1	1005.82	-29774.5	0.000000	0.000000	7.252197	303.657	NaN	0.000000	0.001687	0.001663	28.0831	77.375	0.001942	39851.4	7.473239	171.778	306.723	1.239395	0.078065	0.077647	303.657	39851.4	0.072350	0.173777	1747.39	87341.5
645	2.000000	1.250588	7.37137e+06	-44839.1	1005.82	-29774.5	0.000000	0.000000	7.266065	378.918	NaN	0.000000	0.001651	0.001676	28.0842	84.4307	0.001758	48018	0.676905	177.192	372.096	1.250352	0.088839	0.088604	378.918	48018	0.082921	0.220583	1717.8	93409.5
645	2.000000	1.261746	7.37137e+06	-44839.1	1005.82	-29774.5	0.000000	0.000000	7.280829	466.632	NaN	0.000000	0.001643	0.001694	28.0842	96.7027	0.001834	52718.2	6.906167	169.644	467.521	1.261404	0.099997	0.099656	466.632	52718.2	0.093359	0.271883	1716.3	92372.4
645	2.000000	1.266598	7.37137e+06	-44839.1	1005.82	-29774.5	0.000000	0.000000	7.287264	505.139	NaN	0.000000	0.001654	0.001697	28.0842	103.246	0.001841	56080	5.786788	170.15	498.118	1.266397	0.104850	0.104649	505.139	56080	0.098094	0.296803	1701.93	94047.6