File: remote_trans/data/nanoindenter/0828-1/data/Data_2025-08-06,11h17m57s/2025-07-22_16-23-58_1_1119.txt
2025-07-22, 16:23:58, 1
Index	Phase	Displacement	Time	Pos X	Pos Y	Pos Z	Rot A	Rot B	Piezo Z	Force A	Force B	Gripper	Voltage A	Voltage B	Temperature	Amplitude force	Amplitude pos	Stiffness	Phase shift	Phase excitation	Force A raw	Displacement raw	HMax	HMax raw	Real Force	Real Stiffness	Contact Depth	Area	Hardness	Reduced Mod.
[#]	[#]	[um]	[s]	[um]	[um]	[um]	[m°]	[m°]	[um]	[uN]	[uN]	[V]	[V]	[V]	[°C]	[uN]	[um]	[N/m]	[°]	[°]	[uN]	[um]	[um]	[um]	[uN]	[N/m]	[um]	[um^2]	[MPa]	[MPa]
1119	1.000000	0.002291	7.376e+06	-56089.1	1055.82	-29739.7	0.000000	0.000000	6.002785	0.033809	NaN	0.000000	0.001665	0.001765	28.0846	0.055764	0.000967	57.6527	-165.002	-165.807	0.024472	0.000967	-1.223264	-1.224587	0.033809	57.6527	-1.223704	-2.280729E+16	-1.482371E-18	NaN
1119	1.000000	0.046289	7.376e+06	-56089.1	1055.82	-29739.7	0.000000	0.000000	6.046779	-0.063855	NaN	0.000000	0.001627	0.001718	28.0849	0.076090	0.001863	40.8459	69.3388	-163.51	-0.020063	0.044943	-1.179266	-1.180612	-0.063855	40.8459	-1.178093	-5.588871E+15	1.142535E-17	NaN
1119	1.000000	0.090274	7.376e+06	-56089.1	1055.82	-29739.7	0.000000	0.000000	6.090767	-0.010855	NaN	0.000000	0.001672	0.001749	28.0846	0.039769	0.001949	20.4034	106.187	-164.094	-0.020609	0.088946	-1.135280	-1.136608	-0.010855	20.4034	-1.134881	-1.472614E+15	7.371386E-18	NaN
1119	1.000000	0.134316	7.376e+06	-56089.1	1055.82	-29739.7	0.000000	0.000000	6.134809	-0.011376	NaN	0.000000	0.001661	0.001755	28.0832	0.136351	0.002002	68.1124	159.134	-167.344	0.012993	0.132984	-1.091238	-1.092571	-0.011376	68.1124	-1.091113	-3.808525E+14	2.987022E-17	NaN
1119	1.000000	0.178300	7.376e+06	-56089.1	1055.82	-29739.7	0.000000	0.000000	6.178794	0.008776	NaN	0.000000	0.001645	0.001787	28.0835	0.033487	0.002077	16.1213	-174.607	-169.651	0.018840	0.177019	-1.047254	-1.048536	0.008776	16.1213	-1.047663	-9.930972E+13	-8.836905E-17	NaN
1119	1.000000	0.222302	7.376e+06	-56089.1	1055.82	-29739.7	0.000000	0.000000	6.222795	-0.023900	NaN	0.000000	0.001657	0.001769	28.0833	0.009786	0.002111	4.635490	34.4492	-166.338	-0.006107	0.221037	-1.003252	-1.004517	-0.023900	4.635490	-0.999385	-2.225828E+13	1.073738E-15	NaN
1119	1.000000	0.266333	7.376e+06	-56089.1	1055.82	-29739.7	0.000000	0.000000	6.266824	-0.050809	NaN	0.000000	0.001643	0.001783	28.0846	0.086929	0.002077	41.8601	-35.4644	-165.875	-0.093797	0.265063	-0.959222	-0.960492	-0.050809	41.8601	-0.958311	-6.224438E+12	8.162762E-15	NaN
1119	1.000000	0.310388	7.376e+06	-56089.1	1055.82	-29739.7	0.000000	0.000000	6.310880	-0.034339	NaN	0.000000	0.001651	0.001797	28.0855	0.033617	0.001945	17.2862	67.2073	-165.675	-0.082579	0.309039	-0.915167	-0.916516	-0.034339	17.2862	-0.913677	-1.555318E+12	2.207860E-14	NaN
1119	1.000000	0.354379	7.376e+06	-56089.1	1055.82	-29739.7	0.000000	0.000000	6.354870	-0.059839	NaN	0.000000	0.001706	0.001746	28.0847	0.043420	0.002013	21.5737	30.2717	-165.541	0.024288	0.353092	-0.871176	-0.872462	-0.059839	21.5737	-0.869095	-3.883325E+11	1.540924E-13	NaN
1119	1.000000	0.398398	7.376e+06	-56089.1	1055.82	-29739.7	0.000000	0.000000	6.398890	-0.023249	NaN	0.000000	0.001639	0.001747	28.0835	0.039233	0.002082	18.8468	-89.6296	-165.504	0.017431	0.397086	-0.827157	-0.828469	-0.023249	18.8468	-0.826232	-1.020239E+11	2.278743E-13	NaN
1119	1.000000	0.442370	7.376e+06	-56089.1	1055.82	-29739.7	0.000000	0.000000	6.442867	0.098833	NaN	0.000000	0.001604	0.001746	28.0831	0.079112	0.001940	40.771	-119.516	-162.531	0.049339	0.441102	-0.783185	-0.784452	0.098833	40.771	-0.785003	-2.813249E+10	-3.513119E-12	NaN
1119	1.000000	0.486461	7.376e+06	-56089.1	1055.82	-29739.7	0.000000	0.000000	6.486952	-0.051292	NaN	0.000000	0.001653	0.001706	28.083	0.027089	0.001938	13.9812	163.257	-168.139	0.030124	0.485154	-0.739093	-0.740401	-0.051292	13.9812	-0.736342	-6.126606E+9	8.372090E-12	NaN
1119	1.000000	0.530455	7.376e+06	-56089.1	1055.82	-29739.7	0.000000	0.000000	6.530949	0.023181	NaN	0.000000	0.001630	0.001713	28.0844	0.061130	0.001951	31.3291	61.5376	-165.353	0.012463	0.529143	-0.695099	-0.696412	0.023181	31.3291	-0.695654	-1.706766E+9	-1.358153E-11	NaN
1119	1.000000	0.574469	7.376e+06	-56089.1	1055.82	-29739.7	0.000000	0.000000	6.574961	-0.030096	NaN	0.000000	0.001605	0.001777	28.0844	0.008706	0.002093	4.159728	-11.7614	-165.199	0.020909	0.573196	-0.651085	-0.652359	-0.030096	4.159728	-0.645659	-3.531134E+8	8.523175E-11	NaN
1119	1.000000	0.618508	7.376e+06	-56089.1	1055.82	-29739.7	0.000000	0.000000	6.619000	-0.010611	NaN	0.000000	0.001614	0.001736	28.0847	0.040759	0.002072	19.6737	-62.2613	-162.582	-0.050645	0.617159	-0.607047	-0.608396	-0.010611	19.6737	-0.606642	-1.027801E+8	1.032392E-10	NaN
1119	1.000000	0.662505	7.376e+06	-56089.1	1055.82	-29739.7	0.000000	0.000000	6.662997	-0.021744	NaN	0.000000	0.001697	0.001737	28.0832	0.013782	0.002101	6.558763	-142.003	-163.702	0.050186	0.661181	-0.563050	-0.564373	-0.021744	6.558763	-0.560563	-2.377786E+7	9.144635E-10	NaN
1119	1.000000	0.706532	7.376e+06	-56089.1	1055.82	-29739.7	0.000000	0.000000	6.707024	-0.030475	NaN	0.000000	0.001695	0.001767	28.083	0.036183	0.001839	19.6799	10.0651	-163.499	0.056440	0.705190	-0.519023	-0.520364	-0.030475	19.6799	-0.517861	-6.07923e+06	5.012936E-9	NaN
1119	1.000000	0.750557	7.376e+06	-56089.1	1055.82	-29739.7	0.000000	0.000000	6.751050	-0.008860	NaN	0.000000	0.001690	0.001752	28.0829	0.028121	0.001996	14.0883	155.259	-164.308	-0.023396	0.749226	-0.474997	-0.476329	-0.008860	14.0883	-0.474526	-1.50957e+06	5.869056E-9	NaN
1119	1.000000	0.794581	7.376e+06	-56089.1	1055.82	-29739.7	0.000000	0.000000	6.795072	-0.059971	NaN	0.000000	0.001628	0.001754	28.0844	0.121166	0.001901	63.7444	162.106	-166.573	0.003055	0.793275	-0.430973	-0.432279	-0.059971	63.7444	-0.430268	-359622	1.667605E-7	NaN
1119	1.000000	0.838576	7.376e+06	-56089.1	1055.82	-29739.7	0.000000	0.000000	6.839069	0.000212	NaN	0.000000	0.001630	0.001756	28.0845	0.060758	0.002119	28.6787	16.7693	-162.527	0.013254	0.837275	-0.386979	-0.388280	0.000212	28.6787	-0.386984	-87098.2	-2.438365E-9	NaN
1119	1.000000	0.882588	7.376e+06	-56089.1	1055.82	-29739.7	0.000000	0.000000	6.883082	0.010928	NaN	0.000000	0.001643	0.001768	28.0843	0.112161	0.001975	56.7886	-144.153	-165.535	0.059918	0.881286	-0.342966	-0.344268	0.010928	56.7886	-0.343111	-20270.5	-5.391030E-7	NaN
1119	1.000000	0.926623	7.376e+06	-56089.1	1055.82	-29739.7	0.000000	0.000000	6.927115	-0.014461	NaN	0.000000	0.001646	0.001746	28.0833	0.014921	0.001982	7.529957	163.651	-164.516	-0.013099	0.925254	-0.298932	-0.300301	-0.014461	7.529957	-0.297491	-4317.78	3.349279E-6	NaN
1119	1.000000	0.970639	7.376e+06	-56089.1	1055.82	-29739.7	0.000000	0.000000	6.971132	-0.007088	NaN	0.000000	0.001635	0.001725	28.0832	0.009372	0.002015	4.651587	25.7207	-162.636	-0.026469	0.969335	-0.254915	-0.256220	-0.007088	4.651587	-0.253772	-940.166	7.538642E-6	NaN
1119	1.000000	1.014645	7.376e+06	-56089.1	1055.82	-29739.7	0.000000	0.000000	7.015132	-0.146151	NaN	0.000000	0.001573	0.001754	28.0829	0.065680	0.002129	30.8465	-160.398	-164.619	-0.061121	1.013385	-0.210910	-0.212170	-0.146151	30.8465	-0.207356	-173.75	0.000841	NaN
1119	1.000000	1.058691	7.376e+06	-56089.1	1055.82	-29739.7	0.000000	0.000000	7.059182	-0.033642	NaN	0.000000	0.001578	0.001750	28.0844	0.017490	0.001989	8.791611	28.8052	-165.834	-0.021312	1.057312	-0.166864	-0.168243	-0.033642	8.791611	-0.163994	-32.2565	0.001043	NaN
1119	1.000000	1.102694	7.376e+06	-56089.1	1055.82	-29739.7	0.000000	0.000000	7.103189	0.037053	NaN	0.000000	0.001631	0.001749	28.0844	0.060767	0.002169	28.0188	49.9786	-161.89	0.036047	1.101390	-0.122860	-0.124165	0.037053	28.0188	-0.123852	-5.770715	-0.006421	NaN
1119	1.000000	1.146708	7.376e+06	-56089.1	1055.82	-29739.7	0.000000	0.000000	7.147201	-0.004704	NaN	0.000000	0.001637	0.001754	28.0843	0.015577	0.002015	7.731842	57.4734	-164.617	0.019766	1.145371	-0.078846	-0.080183	-0.004704	7.731842	-0.078390	-0.563908	0.008342	NaN
1119	1.000000	1.190721	7.376e+06	-56089.1	1055.82	-29739.7	0.000000	0.000000	7.191212	-0.064702	NaN	0.000000	0.001633	0.001780	28.0845	0.041705	0.002009	20.7593	49.1434	-165.952	-0.026579	1.189424	-0.034833	-0.036130	-0.064702	20.7593	-0.032496	-0.027077	2.389549	NaN
1119	2.000000	1.233262	7.376e+06	-56089.1	1055.82	-29739.7	0.000000	0.000000	7.234149	9.581478	NaN	0.000000	0.001641	0.001783	28.0837	9.989921	0.001622	6159.74	9.874914	-175.731	9.067966	1.232910	0.007708	0.007356	9.581478	6159.74	0.006541	0.005584	1715.87	75311.5
1119	2.000000	1.244213	7.376e+06	-56089.1	1055.82	-29739.7	0.000000	0.000000	7.245934	29.8388	NaN	0.000000	0.001604	0.001738	28.0833	20.0723	0.001686	11905.5	2.598238	-173.174	29.577	1.243907	0.018659	0.018353	29.8388	11905.5	0.016779	0.017731	1682.82	81686.4
1119	2.000000	1.255186	7.376e+06	-56089.1	1055.82	-29739.7	0.000000	0.000000	7.258062	57.9239	NaN	0.000000	0.001648	0.001758	28.0837	31.788	0.001869	17006	4.384343	-177.634	57.5144	1.254919	0.029632	0.029365	57.9239	17006	0.027077	0.034903	1659.58	83166
1119	2.000000	1.266127	7.376e+06	-56089.1	1055.82	-29739.7	0.000000	0.000000	7.270443	92.9237	NaN	0.000000	0.001595	0.001752	28.085	43.2118	0.001870	23109.6	9.452245	174.715	90.8646	1.265794	0.040573	0.040239	92.9237	23109.6	0.037557	0.057867	1605.8	87770.3
1119	2.000000	1.277124	7.376e+06	-56089.1	1055.82	-29739.7	0.000000	0.000000	7.283212	135.998	NaN	0.000000	0.001662	0.001738	28.085	53.3614	0.001768	30188.2	6.303987	174.58	133.76	1.276783	0.051570	0.051228	135.998	30188.2	0.048191	0.086904	1564.93	93560.4
1119	2.000000	1.288174	7.376e+06	-56089.1	1055.82	-29739.7	0.000000	0.000000	7.296581	192.362	NaN	0.000000	0.001647	0.001719	28.0849	66.7057	0.001741	38314.9	4.784719	174.784	194.628	1.287817	0.062620	0.062263	192.362	38314.9	0.058854	0.121732	1580.2	100332
1119	2.000000	1.299002	7.376e+06	-56089.1	1055.82	-29739.7	0.000000	0.000000	7.310706	272.511	NaN	0.000000	0.001718	0.001757	28.0834	77.6106	0.001682	46134.3	4.370633	173.616	265.987	1.298696	0.073447	0.073141	272.511	46134.3	0.069017	0.160113	1701.99	105338
1119	2.000000	1.310091	7.376e+06	-56089.1	1055.82	-29739.7	0.000000	0.000000	7.325810	370.114	NaN	0.000000	0.001735	0.001782	28.0835	88.9065	0.001701	52275	3.489791	174.104	368.729	1.309680	0.084536	0.084126	370.114	52275	0.079226	0.203631	1817.57	105839
1119	2.000000	1.321113	7.376e+06	-56089.1	1055.82	-29739.7	0.000000	0.000000	7.341107	474.023	NaN	0.000000	0.001642	0.001743	28.0835	103.268	0.001843	56037.3	5.666988	171.264	472.972	1.320769	0.095558	0.095215	474.023	56037.3	0.089214	0.250912	1889.2	102209
1119	2.000000	1.331078	7.376e+06	-56089.1	1055.82	-29739.7	0.000000	0.000000	7.355193	574.165	NaN	0.000000	0.001646	0.001772	28.085	112.406	0.001851	60742.8	2.019385	174.34	571.569	1.330835	0.105524	0.105280	574.165	60742.8	0.098435	0.298632	1922.65	101555