File: remote_trans/data/nanoindenter/0828-1/data/Data_2025-08-06,11h17m57s/2025-07-22_16-23-58_1_35.txt
2025-07-22, 16:23:58, 1
Index	Phase	Displacement	Time	Pos X	Pos Y	Pos Z	Rot A	Rot B	Piezo Z	Force A	Force B	Gripper	Voltage A	Voltage B	Temperature	Amplitude force	Amplitude pos	Stiffness	Phase shift	Phase excitation	Force A raw	Displacement raw	HMax	HMax raw	Real Force	Real Stiffness	Contact Depth	Area	Hardness	Reduced Mod.
[#]	[#]	[um]	[s]	[um]	[um]	[um]	[m°]	[m°]	[um]	[uN]	[uN]	[V]	[V]	[V]	[°C]	[uN]	[um]	[N/m]	[°]	[°]	[uN]	[um]	[um]	[um]	[uN]	[N/m]	[um]	[um^2]	[MPa]	[MPa]
35	1.000000	0.002416	7.36538e+06	-40389.1	955.818	-29790.8	0.000000	0.000000	6.002807	-0.035380	NaN	0.000000	0.001621	0.001600	28.097	0.038102	0.000932	40.8854	-54.2286	-157.108	-0.014374	0.001175	-1.110594	-1.111834	-0.035380	40.8854	-1.109944	-6.816208E+14	5.190563E-17	NaN
35	1.000000	0.044362	7.36538e+06	-40389.1	955.819	-29790.8	0.000000	0.000000	6.044753	-0.048752	NaN	0.000000	0.001597	0.001649	28.1305	0.047532	0.001996	23.8159	133.742	15.0507	-0.033318	0.043079	-1.068647	-1.069930	-0.048752	23.8159	-1.067112	-1.812947E+14	2.689096E-16	NaN
35	1.000000	0.086381	7.36538e+06	-40389.1	955.819	-29790.8	0.000000	0.000000	6.086773	-0.006164	NaN	0.000000	0.001602	0.001584	28.0947	0.059282	0.001982	29.9091	30.0263	-163.369	-0.030842	0.085004	-1.026629	-1.028005	-0.006164	29.9091	-1.026474	-5.152879E+13	1.196212E-16	NaN
35	1.000000	0.128425	7.36538e+06	-40389.1	955.818	-29790.8	0.000000	0.000000	6.128819	0.023492	NaN	0.000000	0.001591	0.001620	28.0807	0.079775	0.001964	40.6139	4.696383	13.707	0.021148	0.127016	-0.984584	-0.985993	0.023492	40.6139	-0.985018	-1.425630E+13	-1.647845E-15	NaN
35	1.000000	0.170414	7.36538e+06	-40389.1	955.818	-29790.8	0.000000	0.000000	6.170806	-0.027572	NaN	0.000000	0.001590	0.001626	28.0971	0.074012	0.001971	37.545	-83.0081	-163.758	0.008448	0.169120	-0.942595	-0.943890	-0.027572	37.545	-0.942044	-3.755910E+12	7.340956E-15	NaN
35	1.000000	0.212405	7.36538e+06	-40389.1	955.818	-29790.8	0.000000	0.000000	6.212799	0.043091	NaN	0.000000	0.001562	0.001638	28.1321	0.074176	0.001931	38.4082	-58.9843	14.3151	-0.000445	0.211145	-0.900605	-0.901864	0.043091	38.4082	-0.901446	-1.063181E+12	-4.053043E-14	NaN
35	1.000000	0.254434	7.36538e+06	-40389.1	955.819	-29790.8	0.000000	0.000000	6.254824	-0.058446	NaN	0.000000	0.001591	0.001631	28.0964	0.100243	0.002029	49.4122	-174.608	-165.541	-0.105242	0.253168	-0.858576	-0.859842	-0.058446	49.4122	-0.857688	-2.721650E+11	2.147464E-13	NaN
35	1.000000	0.296452	7.36538e+06	-40389.1	955.818	-29790.8	0.000000	0.000000	6.296846	0.017565	NaN	0.000000	0.001584	0.001636	28.0791	0.076333	0.001981	38.5245	35.2752	16.5306	-0.047717	0.295111	-0.816557	-0.817899	0.017565	38.5245	-0.816899	-7.623553E+10	-2.304085E-13	NaN
35	1.000000	0.338481	7.36538e+06	-40389.1	955.818	-29790.8	0.000000	0.000000	6.338874	-0.002957	NaN	0.000000	0.001574	0.001640	28.0946	0.023339	0.001885	12.3816	-156.062	-165.869	0.029770	0.337207	-0.774528	-0.775802	-0.002957	12.3816	-0.774349	-2.015726E+10	1.466775E-13	NaN
35	1.000000	0.380497	7.36538e+06	-40389.1	955.818	-29790.8	0.000000	0.000000	6.380891	0.028768	NaN	0.000000	0.001617	0.001623	28.1315	0.002543	0.002012	1.264099	173.724	19.0091	-0.049239	0.379189	-0.732512	-0.733820	0.028768	1.264099	-0.749581	-9.279222E+9	-3.100301E-12	NaN
35	1.000000	0.422507	7.36538e+06	-40389.1	955.818	-29790.8	0.000000	0.000000	6.422896	-0.071281	NaN	0.000000	0.001609	0.001620	28.0983	0.058517	0.002029	28.8427	-129.018	-165.566	-0.005302	0.421199	-0.690503	-0.691810	-0.071281	28.8427	-0.688649	-1.369171E+9	5.206126E-11	NaN
35	1.000000	0.464557	7.36538e+06	-40389.1	955.818	-29790.8	0.000000	0.000000	6.464948	-0.030889	NaN	0.000000	0.001619	0.001592	28.0807	0.054834	0.001991	27.5402	71.4465	15.9826	-0.004220	0.463162	-0.648453	-0.649847	-0.030889	27.5402	-0.647612	-3.755701E+8	8.224475E-11	NaN
35	1.000000	0.506550	7.36538e+06	-40389.1	955.818	-29790.8	0.000000	0.000000	6.506941	-0.044997	NaN	0.000000	0.001627	0.001683	28.0959	0.117483	0.002041	57.5513	42.1666	-167.4	-0.101731	0.505253	-0.606459	-0.607757	-0.044997	57.5513	-0.605873	-1.003035E+8	4.486107E-10	NaN
35	1.000000	0.548576	7.36538e+06	-40389.1	955.818	-29790.8	0.000000	0.000000	6.548969	0.012890	NaN	0.000000	0.001667	0.001668	28.1307	0.061835	0.002100	29.44	-138.619	17.0531	-0.020572	0.547233	-0.564434	-0.565776	0.012890	29.44	-0.564762	-2.717914E+7	-4.742613E-10	NaN
35	1.000000	0.590586	7.36539e+06	-40389.1	955.818	-29790.8	0.000000	0.000000	6.590980	0.033922	NaN	0.000000	0.001640	0.001619	28.0986	0.105736	0.001876	56.3747	146.719	-162.583	0.080793	0.589259	-0.522424	-0.523751	0.033922	56.3747	-0.522875	-7.138e+06	-4.752243E-9	NaN
35	1.000000	0.632598	7.36539e+06	-40389.1	955.819	-29790.8	0.000000	0.000000	6.632991	0.001461	NaN	0.000000	0.001609	0.001691	28.0787	0.078978	0.001988	39.7231	129.24	15.1717	-0.071957	0.631306	-0.480411	-0.481703	0.001461	39.7231	-0.480439	-1.8267e+06	-7.998005E-10	NaN
35	1.000000	0.674619	7.36539e+06	-40389.1	955.818	-29790.8	0.000000	0.000000	6.675010	-0.037253	NaN	0.000000	0.001568	0.001650	28.0951	0.053531	0.002079	25.7454	-74.8088	-164.187	-0.028230	0.673292	-0.438391	-0.439717	-0.037253	25.7454	-0.437305	-452190	8.238464E-8	NaN
35	1.000000	0.716630	7.36539e+06	-40389.1	955.818	-29790.8	0.000000	0.000000	6.717024	0.008536	NaN	0.000000	0.001596	0.001651	28.131	0.146468	0.002072	70.7009	65.809	19.2081	-0.090749	0.715293	-0.396379	-0.397717	0.008536	70.7009	-0.396469	-119020	-7.172153E-8	NaN
35	1.000000	0.758635	7.36539e+06	-40389.1	955.819	-29790.8	0.000000	0.000000	6.759029	0.032609	NaN	0.000000	0.001585	0.001630	28.1011	0.083415	0.002145	38.895	73.207	-164.158	-0.082546	0.757344	-0.354374	-0.355665	0.032609	38.895	-0.355003	-30167.6	-1.080934E-6	NaN
35	1.000000	0.800711	7.36539e+06	-40389.1	955.818	-29790.8	0.000000	0.000000	6.801104	0.000694	NaN	0.000000	0.001579	0.001678	28.0802	0.095237	0.002039	46.7175	-119.042	14.0553	0.020804	0.799356	-0.312299	-0.313654	0.000694	46.7175	-0.312310	-7164.98	-9.691764E-8	NaN
35	1.000000	0.842698	7.36539e+06	-40389.1	955.818	-29790.8	0.000000	0.000000	6.843093	0.037539	NaN	0.000000	0.001559	0.001587	28.0945	0.071124	0.001981	35.8978	131.317	-163.812	0.030056	0.841344	-0.270311	-0.271666	0.037539	35.8978	-0.271095	-1730.56	-2.169176E-5	NaN
35	1.000000	0.884707	7.36539e+06	-40389.1	955.818	-29790.8	0.000000	0.000000	6.885099	-0.004349	NaN	0.000000	0.001638	0.001654	28.129	0.035443	0.002021	17.5342	-28.6267	14.1593	0.001858	0.883377	-0.228303	-0.229632	-0.004349	17.5342	-0.228116	-373.89	1.163286E-5	NaN
35	1.000000	0.926720	7.36539e+06	-40389.1	955.818	-29790.8	0.000000	0.000000	6.927112	-0.030697	NaN	0.000000	0.001625	0.001690	28.1014	0.093093	0.002069	44.9966	57.601	-166.823	-0.047665	0.925447	-0.186289	-0.187563	-0.030697	44.9966	-0.185777	-76.4231	0.000402	NaN
35	1.000000	0.968699	7.36539e+06	-40389.1	955.819	-29790.8	0.000000	0.000000	6.969091	-0.037183	NaN	0.000000	0.001610	0.001655	28.0795	0.072912	0.002040	35.7493	-44.1106	12.887	-0.019765	0.967387	-0.144310	-0.145623	-0.037183	35.7493	-0.143530	-13.7693	0.002700	NaN
35	1.000000	1.010766	7.36539e+06	-40389.1	955.818	-29790.8	0.000000	0.000000	7.011159	-0.008097	NaN	0.000000	0.001599	0.001640	28.095	0.075450	0.002172	34.7315	139.706	-162.108	-0.021627	1.009492	-0.102243	-0.103518	-0.008097	34.7315	-0.102068	-2.029434	0.003990	NaN
35	1.000000	1.052767	7.36539e+06	-40389.1	955.818	-29790.8	0.000000	0.000000	7.053159	-0.001832	NaN	0.000000	0.001614	0.001642	28.1302	0.117324	0.002090	56.1465	101.067	14.3973	0.027239	1.051423	-0.060243	-0.061587	-0.001832	56.1465	-0.060218	-0.182707	0.010025	NaN
35	1.000000	1.094778	7.36539e+06	-40389.1	955.817	-29790.8	0.000000	0.000000	7.095172	0.015724	NaN	0.000000	0.001596	0.001674	28.1025	0.137581	0.001862	73.8755	142.29	-168.961	0.019957	1.093471	-0.018231	-0.019538	0.015724	73.8755	-0.018391	-0.011425	-1.376246	NaN
35	2.000000	1.126914	7.36539e+06	-40389.1	955.818	-29790.8	0.000000	0.000000	7.127790	11.7564	NaN	0.000000	0.001592	0.001635	28.0782	12.6284	0.001817	6951.18	7.114786	7.973369	10.6194	1.126606	0.013905	0.013596	11.7564	6951.18	0.012637	0.012262	958.806	57353.4
35	2.000000	1.137354	7.36539e+06	-40389.1	955.819	-29790.8	0.000000	0.000000	7.138950	29.276	NaN	0.000000	0.001577	0.001675	28.0925	24.5005	0.001833	13367.7	9.537042	177.7	27.8972	1.137139	0.024345	0.024129	29.276	13367.7	0.022703	0.026968	1085.58	74370.9
35	2.000000	1.147805	7.36539e+06	-40389.1	955.818	-29790.8	0.000000	0.000000	7.150790	63.076	NaN	0.000000	0.001560	0.001666	28.1294	35.9928	0.001787	20137.9	2.051887	1.693867	59.245	1.147462	0.034795	0.034453	63.076	20137.9	0.032446	0.045966	1372.22	85815.6
35	2.000000	1.158319	7.36539e+06	-40389.1	955.82	-29790.8	0.000000	0.000000	7.162545	93.2775	NaN	0.000000	0.001544	0.001618	28.1042	45.5153	0.001806	25202.1	7.498044	174.565	92.7947	1.158033	0.045310	0.045023	93.2775	25202.1	0.042534	0.070740	1318.6	86572
35	2.000000	1.168795	7.36539e+06	-40389.1	955.818	-29790.8	0.000000	0.000000	7.174894	138.847	NaN	0.000000	0.001560	0.001653	28.08	55.3895	0.001784	31045.5	8.656573	-8.336444	135.769	1.168470	0.055786	0.055460	138.847	31045.5	0.052431	0.100076	1387.41	89661.4
35	2.000000	1.179335	7.36539e+06	-40389.1	955.817	-29790.8	0.000000	0.000000	7.188092	203.533	NaN	0.000000	0.001599	0.001641	28.0931	66.4121	0.001835	36187.9	9.836713	170.109	203.117	1.178933	0.066326	0.065924	203.533	36187.9	0.062107	0.133474	1524.89	90498.1
35	2.000000	1.189781	7.36539e+06	-40389.1	955.818	-29790.8	0.000000	0.000000	7.201201	268.33	NaN	0.000000	0.001577	0.001706	28.1291	76.1015	0.001800	42284.8	6.528900	-9.145865	266.877	1.189524	0.076771	0.076515	268.33	42284.8	0.072012	0.172368	1556.72	93052.7
35	2.000000	1.200235	7.36539e+06	-40389.1	955.818	-29790.8	0.000000	0.000000	7.215606	364.478	NaN	0.000000	0.001615	0.001628	28.1039	84.9623	0.001735	48963.3	2.136627	175.226	362.175	1.199869	0.087226	0.086860	364.478	48963.3	0.081643	0.214647	1698.04	96556.6
35	2.000000	1.210661	7.36539e+06	-40389.1	955.818	-29790.8	0.000000	0.000000	7.229320	444.475	NaN	0.000000	0.001576	0.001615	28.0795	95.5156	0.001789	53403.4	2.524424	-6.655049	436.276	1.210348	0.097652	0.097338	444.475	53403.4	0.091410	0.261924	1696.96	95335.4
35	2.000000	1.221276	7.36539e+06	-40389.1	955.817	-29790.8	0.000000	0.000000	7.243580	533.192	NaN	0.000000	0.001616	0.001650	28.0922	106.833	0.001913	55848.1	3.663531	172.357	534.699	1.220982	0.108266	0.107973	533.192	55848.1	0.101106	0.313181	1702.51	91176.7
35	2.000000	1.222375	7.36539e+06	-40389.1	955.817	-29790.8	0.000000	0.000000	7.244739	534.653	NaN	0.000000	0.001627	0.001652	28.1043	108.871	0.001824	59698.3	5.011187	170.985	539.93	1.221909	0.109365	0.108899	534.653	59698.3	0.102648	0.321729	1661.81	96159