File: remote_trans/data/nanoindenter/0828-1/data/Data_2025-08-06,11h17m57s/2025-07-22_16-23-58_1_1009.txt
2025-07-22, 16:23:58, 1
Index	Phase	Displacement	Time	Pos X	Pos Y	Pos Z	Rot A	Rot B	Piezo Z	Force A	Force B	Gripper	Voltage A	Voltage B	Temperature	Amplitude force	Amplitude pos	Stiffness	Phase shift	Phase excitation	Force A raw	Displacement raw	HMax	HMax raw	Real Force	Real Stiffness	Contact Depth	Area	Hardness	Reduced Mod.
[#]	[#]	[um]	[s]	[um]	[um]	[um]	[m°]	[m°]	[um]	[uN]	[uN]	[V]	[V]	[V]	[°C]	[uN]	[um]	[N/m]	[°]	[°]	[uN]	[um]	[um]	[um]	[uN]	[N/m]	[um]	[um^2]	[MPa]	[MPa]
1009	1.000000	0.002299	7.37492e+06	-50589.1	1055.82	-29755.1	0.000000	0.000000	6.002793	0.008750	NaN	0.000000	0.001606	0.001743	28.0839	0.113573	0.000975	116.507	42.2344	-162.064	-0.045301	0.001117	-1.171324	-1.172506	0.008750	116.507	-1.171380	-4.543414E+15	-1.925902E-18	NaN
1009	1.000000	0.046249	7.37492e+06	-50589.1	1055.82	-29755.1	0.000000	0.000000	6.046741	-0.029281	NaN	0.000000	0.001650	0.001749	28.0825	0.108939	0.001998	54.5183	-161.626	-167.862	-0.043249	0.044928	-1.127374	-1.128695	-0.029281	54.5183	-1.126972	-1.153453E+15	2.538588E-17	NaN
1009	1.000000	0.090243	7.37492e+06	-50589.1	1055.82	-29755	0.000000	0.000000	6.090735	-0.014475	NaN	0.000000	0.001712	0.001737	28.0827	0.185087	0.001968	94.0706	-74.7237	-165.868	-0.007523	0.088962	-1.083381	-1.084661	-0.014475	94.0706	-1.083265	-2.987951E+14	4.844608E-17	NaN
1009	1.000000	0.134276	7.37492e+06	-50589.1	1055.82	-29755	0.000000	0.000000	6.134767	-0.059614	NaN	0.000000	0.001724	0.001793	28.0829	0.070958	0.002026	35.0277	128.318	-167.298	0.049338	0.133009	-1.039347	-1.040614	-0.059614	35.0277	-1.038071	-7.379430E+13	8.078353E-16	NaN
1009	1.000000	0.178317	7.37492e+06	-50589.1	1055.82	-29755	0.000000	0.000000	6.178813	0.071543	NaN	0.000000	0.001647	0.001761	28.0839	0.180296	0.002020	89.2762	82.6822	-162.218	0.157766	0.176980	-0.995306	-0.996644	0.071543	89.2762	-0.995907	-1.998313E+13	-3.580147E-15	NaN
1009	1.000000	0.222338	7.37492e+06	-50589.1	1055.82	-29755	0.000000	0.000000	6.222832	0.006812	NaN	0.000000	0.001725	0.001788	28.0842	0.122567	0.001940	63.1675	46.2095	-167.615	-0.020573	0.221034	-0.951285	-0.952589	0.006812	63.1675	-0.951366	-5.017075E+12	-1.357695E-15	NaN
1009	1.000000	0.266350	7.37492e+06	-50589.1	1055.82	-29755	0.000000	0.000000	6.266843	0.002219	NaN	0.000000	0.001652	0.001757	28.0839	0.147548	0.001978	74.5923	177.895	-167.992	-0.042984	0.265012	-0.907274	-0.908611	0.002219	74.5923	-0.907296	-1.275380E+12	-1.739500E-15	NaN
1009	1.000000	0.310340	7.37492e+06	-50589.1	1055.82	-29755	0.000000	0.000000	6.310835	0.047335	NaN	0.000000	0.001643	0.001773	28.0838	0.079845	0.002058	38.8044	-26.0224	-162.935	-0.042053	0.309058	-0.863283	-0.864565	0.047335	38.8044	-0.864198	-3.333773E+11	-1.419871E-13	NaN
1009	1.000000	0.354350	7.37492e+06	-50589.1	1055.82	-29755	0.000000	0.000000	6.354847	0.091103	NaN	0.000000	0.001674	0.001774	28.0827	0.058136	0.001997	29.1066	123.254	-166.565	0.056819	0.353102	-0.819273	-0.820521	0.091103	29.1066	-0.821620	-8.834522E+10	-1.031214E-12	NaN
1009	1.000000	0.398437	7.37492e+06	-50589.1	1055.82	-29755	0.000000	0.000000	6.398933	0.058824	NaN	0.000000	0.001662	0.001771	28.0828	0.104884	0.001975	53.1028	-157.317	-165.445	0.070971	0.397104	-0.775186	-0.776519	0.058824	53.1028	-0.776017	-2.123740E+10	-2.769816E-12	NaN
1009	1.000000	0.442406	7.37492e+06	-50589.1	1055.82	-29755	0.000000	0.000000	6.442901	0.038873	NaN	0.000000	0.001653	0.001761	28.0826	0.088012	0.001927	45.6661	-79.7423	-166.45	0.027840	0.441058	-0.731217	-0.732565	0.038873	45.6661	-0.731856	-5.322253E+9	-7.303793E-12	NaN
1009	1.000000	0.486447	7.37492e+06	-50589.1	1055.82	-29755	0.000000	0.000000	6.486942	0.050195	NaN	0.000000	0.001643	0.001749	28.0841	0.109540	0.002169	50.508	-140.802	-163.478	0.029061	0.485135	-0.687177	-0.688488	0.050195	50.508	-0.687922	-1.338183E+9	-3.751009E-11	NaN
1009	1.000000	0.530477	7.37492e+06	-50589.1	1055.82	-29755	0.000000	0.000000	6.530973	0.071892	NaN	0.000000	0.001631	0.001746	28.0837	0.040291	0.002092	19.2588	118.59	-160.711	0.097854	0.529210	-0.643147	-0.644413	0.071892	19.2588	-0.645946	-3.563328E+8	-2.017538E-10	NaN
1009	1.000000	0.574450	7.37492e+06	-50589.1	1055.82	-29755	0.000000	0.000000	6.574946	0.075159	NaN	0.000000	0.001588	0.001808	28.0836	0.120638	0.001981	60.8836	7.192551	-168.328	0.041410	0.573147	-0.599173	-0.600476	0.075159	60.8836	-0.600099	-8.352638E+7	-8.998275E-10	NaN
1009	1.000000	0.618480	7.37492e+06	-50589.1	1055.82	-29755	0.000000	0.000000	6.618974	0.035870	NaN	0.000000	0.001678	0.001740	28.0827	0.060275	0.001905	31.6407	-37.2296	-164.023	0.050604	0.617182	-0.555144	-0.556442	0.035870	31.6407	-0.555994	-2.055636E+7	-1.744952E-9	NaN
1009	1.000000	0.662492	7.37492e+06	-50589.1	1055.82	-29755	0.000000	0.000000	6.662986	0.033590	NaN	0.000000	0.001674	0.001780	28.0828	0.073460	0.001934	37.989	95.6895	-163.285	-0.015894	0.661165	-0.511132	-0.512458	0.033590	37.989	-0.511795	-5.0051e+06	-6.711235E-9	NaN
1009	1.000000	0.706544	7.37492e+06	-50589.1	1055.82	-29755	0.000000	0.000000	6.707036	-0.025558	NaN	0.000000	0.001639	0.001703	28.083	0.018151	0.002049	8.858668	105.412	-165.166	-0.008320	0.705240	-0.467079	-0.468383	-0.025558	8.858668	-0.464915	-1.10677e+06	2.309246E-8	NaN
1009	1.000000	0.750553	7.37492e+06	-50589.1	1055.82	-29755	0.000000	0.000000	6.751048	0.034284	NaN	0.000000	0.001683	0.001721	28.0837	0.032960	0.002051	16.0675	-162.463	-165.148	0.017685	0.749314	-0.423070	-0.424309	0.034284	16.0675	-0.424671	-299653	-1.144131E-7	NaN
1009	1.000000	0.794589	7.37492e+06	-50589.1	1055.82	-29755	0.000000	0.000000	6.795084	0.025153	NaN	0.000000	0.001649	0.001710	28.0837	0.098416	0.002070	47.5424	-110.066	-166.883	0.006068	0.793246	-0.379034	-0.380378	0.025153	47.5424	-0.379431	-67876.3	-3.705697E-7	NaN
1009	1.000000	0.838616	7.37492e+06	-50589.1	1055.82	-29755	0.000000	0.000000	6.839112	0.061734	NaN	0.000000	0.001767	0.001689	28.0838	0.097630	0.002037	47.917	176.141	-166.112	0.015204	0.837285	-0.335007	-0.336338	0.061734	47.917	-0.335974	-15951.8	-3.870007E-6	NaN
1009	1.000000	0.882610	7.37492e+06	-50589.1	1055.82	-29755	0.000000	0.000000	6.883104	0.011647	NaN	0.000000	0.001702	0.001671	28.0829	0.064280	0.002006	32.0477	142.879	-167.331	-0.023094	0.881293	-0.291013	-0.292330	0.011647	32.0477	-0.291286	-3487.82	-3.339253E-6	NaN
1009	1.000000	0.926617	7.37492e+06	-50589.1	1055.82	-29755	0.000000	0.000000	6.927110	-0.002299	NaN	0.000000	0.001647	0.001647	28.0829	0.070219	0.002146	32.7154	12.7141	-165.647	0.056287	0.925317	-0.247007	-0.248306	-0.002299	32.7154	-0.246954	-737.543	3.116621E-6	NaN
1009	1.000000	0.970626	7.37492e+06	-50589.1	1055.82	-29755	0.000000	0.000000	6.971117	-0.032684	NaN	0.000000	0.001710	0.001715	28.0826	0.227739	0.002072	109.912	-89.5138	-164.564	-0.008356	0.969340	-0.202998	-0.204283	-0.032684	109.912	-0.202775	-146.286	0.000223	NaN
1009	1.000000	1.014669	7.37492e+06	-50589.1	1055.82	-29755	0.000000	0.000000	7.015166	0.088419	NaN	0.000000	0.001673	0.001692	28.0841	0.062524	0.001998	31.2865	-94.2896	-163.633	0.098798	1.013385	-0.158954	-0.160238	0.088419	31.2865	-0.161073	-28.6442	-0.003087	NaN
1009	1.000000	1.058701	7.37492e+06	-50589.1	1055.82	-29755	0.000000	0.000000	7.059194	0.006069	NaN	0.000000	0.001718	0.001697	28.0838	0.059533	0.002031	29.3094	-12.768	-166.949	-0.045194	1.057358	-0.114923	-0.116265	0.006069	29.3094	-0.115078	-3.834535	-0.001583	NaN
1009	1.000000	1.102687	7.37492e+06	-50589.1	1055.82	-29755	0.000000	0.000000	7.103183	0.060978	NaN	0.000000	0.001704	0.001693	28.0837	0.086667	0.001959	44.2348	-77.2142	-160.981	0.148135	1.101418	-0.070936	-0.072205	0.060978	44.2348	-0.071970	-0.384859	-0.158442	NaN
1009	1.000000	1.146732	7.37492e+06	-50589.1	1055.82	-29755	0.000000	0.000000	7.147227	0.056135	NaN	0.000000	0.001739	0.001715	28.0826	0.073412	0.001863	39.4073	-157.236	-165.094	0.070990	1.145403	-0.026892	-0.028220	0.056135	39.4073	-0.027960	-0.020225	-2.775531	NaN
1009	2.000000	1.183245	7.37492e+06	-50589.1	1055.82	-29755	0.000000	0.000000	7.184275	13.0514	NaN	0.000000	0.001714	0.001741	28.0836	12.0617	0.001692	7128.83	5.809994	-173.775	12.2654	1.182957	0.009622	0.009334	13.0514	7128.83	0.008249	0.007300	1787.97	76233.1
1009	2.000000	1.194131	7.37492e+06	-50589.1	1055.82	-29755	0.000000	0.000000	7.195888	30.7497	NaN	0.000000	0.001719	0.001713	28.0829	22.6231	0.001791	12628.3	8.430251	-179.841	28.6019	1.193768	0.020507	0.020145	30.7497	12628.3	0.018681	0.020512	1499.1	80558.8
1009	2.000000	1.205149	7.37492e+06	-50589.1	1055.82	-29755	0.000000	0.000000	7.207984	56.9277	NaN	0.000000	0.001706	0.001703	28.084	32.4551	0.001650	19673.2	2.091101	-177.41	54.0304	1.204732	0.031526	0.031108	56.9277	19673.2	0.029356	0.039419	1444.17	90530.3
1009	2.000000	1.216089	7.37492e+06	-50589.1	1055.82	-29755	0.000000	0.000000	7.220368	92.0699	NaN	0.000000	0.001650	0.001698	28.0841	43.6889	0.001806	24187.6	3.820588	178.664	88.8643	1.215780	0.042466	0.042156	92.0699	24187.6	0.039611	0.063027	1460.8	88024.2
1009	2.000000	1.227133	7.37492e+06	-50589.1	1055.82	-29755	0.000000	0.000000	7.233046	131.804	NaN	0.000000	0.001664	0.001722	28.0839	56.4742	0.001827	30907	4.874916	176.938	132.257	1.226707	0.053510	0.053084	131.804	30907	0.050311	0.093378	1411.52	92407.8
1009	2.000000	1.238061	7.37492e+06	-50589.1	1055.82	-29755	0.000000	0.000000	7.246175	185.347	NaN	0.000000	0.001650	0.001718	28.0825	66.2625	0.001810	36609.2	7.697159	172.326	182.18	1.237789	0.064437	0.064166	185.347	36609.2	0.060640	0.128113	1446.75	93447.2
1009	2.000000	1.249124	7.37492e+06	-50589.1	1055.82	-29755	0.000000	0.000000	7.260280	259.299	NaN	0.000000	0.001665	0.001726	28.0824	77.9954	0.001781	43795.7	5.876267	172.481	259.171	1.248735	0.075501	0.075112	259.299	43795.7	0.071060	0.168427	1539.53	97498.6
1009	2.000000	1.260082	7.37492e+06	-50589.1	1055.82	-29755	0.000000	0.000000	7.273810	321.845	NaN	0.000000	0.001667	0.001695	28.0828	87.1538	0.001697	51353.2	4.580553	172.184	319.424	1.259743	0.086459	0.086120	321.845	51353.2	0.081759	0.215182	1495.69	101144
1009	2.000000	1.271127	7.37493e+06	-50589.1	1055.82	-29755	0.000000	0.000000	7.287733	391.825	NaN	0.000000	0.001677	0.001694	28.0831	96.8947	0.001791	54086.5	0.801229	176.189	394.731	1.270822	0.097504	0.097199	391.825	54086.5	0.092071	0.265282	1477.01	95941.9
1009	2.000000	1.279027	7.37493e+06	-50589.1	1055.82	-29755	0.000000	0.000000	7.297915	447.32	NaN	0.000000	0.001696	0.001674	28.0839	105.485	0.001804	58473.4	3.885472	172.783	447.204	1.278778	0.105404	0.105155	447.32	58473.4	0.099667	0.305303	1465.17	96686.7