File: remote_trans/data/nanoindenter/0828-1/data/Data_2025-08-06,11h17m57s/2025-07-22_16-23-58_1_1063.txt
2025-07-22, 16:23:58, 1
Index	Phase	Displacement	Time	Pos X	Pos Y	Pos Z	Rot A	Rot B	Piezo Z	Force A	Force B	Gripper	Voltage A	Voltage B	Temperature	Amplitude force	Amplitude pos	Stiffness	Phase shift	Phase excitation	Force A raw	Displacement raw	HMax	HMax raw	Real Force	Real Stiffness	Contact Depth	Area	Hardness	Reduced Mod.
[#]	[#]	[um]	[s]	[um]	[um]	[um]	[m°]	[m°]	[um]	[uN]	[uN]	[V]	[V]	[V]	[°C]	[uN]	[um]	[N/m]	[°]	[°]	[uN]	[um]	[um]	[um]	[uN]	[N/m]	[um]	[um^2]	[MPa]	[MPa]
1063	1.000000	0.002556	7.37544e+06	-53289.1	1055.82	-29746.6	0.000000	0.000000	6.002784	0.050810	NaN	0.000000	0.001663	0.001632	28.0834	0.041190	0.001022	40.3017	99.9707	-162.714	-0.042391	0.001308	-1.106737	-1.107985	0.050810	40.3017	-1.107682	-6.356008E+14	-7.993981E-17	NaN
1063	1.000000	0.044549	7.37544e+06	-53289.1	1055.82	-29746.6	0.000000	0.000000	6.044774	-0.007369	NaN	0.000000	0.001647	0.001670	28.0822	0.087972	0.002030	43.3266	-119.473	12.0069	-0.054306	0.043178	-1.064744	-1.066115	-0.007369	43.3266	-1.064617	-1.678257E+14	4.390635E-17	NaN
1063	1.000000	0.086528	7.37544e+06	-53289.1	1055.82	-29746.6	0.000000	0.000000	6.086756	0.055606	NaN	0.000000	0.001612	0.001643	28.0822	0.107437	0.002089	51.4293	-103.236	-164.747	0.017781	0.085218	-1.022765	-1.024075	0.055606	51.4293	-1.023576	-4.710425E+13	-1.180496E-15	NaN
1063	1.000000	0.128554	7.37545e+06	-53289.1	1055.82	-29746.6	0.000000	0.000000	6.128781	0.043570	NaN	0.000000	0.001565	0.001729	28.0826	0.076556	0.002140	35.7801	-17.9525	12.403	0.059438	0.127188	-0.980740	-0.982106	0.043570	35.7801	-0.981653	-1.284334E+13	-3.392433E-15	NaN
1063	1.000000	0.170578	7.37545e+06	-53289.1	1055.82	-29746.6	0.000000	0.000000	6.170804	0.035851	NaN	0.000000	0.001615	0.001773	28.0835	0.111699	0.002074	53.8613	38.9842	-166.321	0.005588	0.169258	-0.938716	-0.940035	0.035851	53.8613	-0.939215	-3.439882E+12	-1.042211E-14	NaN
1063	1.000000	0.212580	7.37545e+06	-53289.1	1055.82	-29746.6	0.000000	0.000000	6.212808	0.064476	NaN	0.000000	0.001615	0.001689	28.0839	0.032419	0.002007	16.1558	79.1768	16.3049	0.058659	0.211199	-0.896713	-0.898094	0.064476	16.1558	-0.899706	-1.007160E+12	-6.401791E-14	NaN
1063	1.000000	0.254600	7.37545e+06	-53289.1	1055.82	-29746.6	0.000000	0.000000	6.254830	0.114709	NaN	0.000000	0.001585	0.001745	28.0837	0.118298	0.001922	61.5632	-154.057	-164.003	0.053983	0.253306	-0.854693	-0.855987	0.114709	61.5632	-0.856091	-2.589428E+11	-4.429906E-13	NaN
1063	1.000000	0.296617	7.37545e+06	-53289.1	1055.82	-29746.6	0.000000	0.000000	6.296844	0.037120	NaN	0.000000	0.001619	0.001743	28.0834	0.031220	0.002026	15.4077	-141.561	13.4939	0.016970	0.295297	-0.812676	-0.813997	0.037120	15.4077	-0.814483	-7.069446E+10	-5.250738E-13	NaN
1063	1.000000	0.338656	7.37545e+06	-53289.1	1055.82	-29746.6	0.000000	0.000000	6.338883	0.021753	NaN	0.000000	0.001621	0.001694	28.0825	0.055450	0.002088	26.5565	-153.743	-167.982	-0.028079	0.337345	-0.770637	-0.771948	0.021753	26.5565	-0.771251	-1.829425E+10	-1.189073E-12	NaN
1063	1.000000	0.380668	7.37545e+06	-53289.1	1055.82	-29746.6	0.000000	0.000000	6.380896	0.056164	NaN	0.000000	0.001612	0.001668	28.0823	0.068970	0.001854	37.2072	52.0551	15.0981	0.064246	0.379335	-0.728625	-0.729958	0.056164	37.2072	-0.729757	-4.983136E+9	-1.127086E-11	NaN
1063	1.000000	0.422675	7.37545e+06	-53289.1	1055.82	-29746.6	0.000000	0.000000	6.422901	0.004180	NaN	0.000000	0.001633	0.001685	28.0821	0.093806	0.002063	45.4638	-117.693	-168.415	-0.031715	0.421384	-0.686618	-0.687909	0.004180	45.4638	-0.686687	-1.287173E+9	-3.247386E-12	NaN
1063	1.000000	0.464705	7.37545e+06	-53289.1	1055.82	-29746.6	0.000000	0.000000	6.464932	0.015771	NaN	0.000000	0.001598	0.001666	28.0835	0.110516	0.002102	52.5845	103.523	15.1606	0.022098	0.463333	-0.644588	-0.645961	0.015771	52.5845	-0.644813	-3.438016E+8	-4.587184E-11	NaN
1063	1.000000	0.506723	7.37545e+06	-53289.1	1055.82	-29746.6	0.000000	0.000000	6.506949	0.008602	NaN	0.000000	0.001589	0.001671	28.0837	0.035809	0.001985	18.0426	168.366	-162.473	-0.007582	0.505306	-0.602570	-0.603987	0.008602	18.0426	-0.602928	-9.136366E+7	-9.414922E-11	NaN
1063	1.000000	0.548722	7.37545e+06	-53289.1	1055.82	-29746.6	0.000000	0.000000	6.548951	0.080985	NaN	0.000000	0.001599	0.001682	28.0837	0.024299	0.001981	12.2683	144.121	17.7424	0.086374	0.547443	-0.560571	-0.561850	0.080985	12.2683	-0.565522	-2.784471E+7	-2.908452E-9	NaN
1063	1.000000	0.590737	7.37545e+06	-53289.1	1055.82	-29746.6	0.000000	0.000000	6.590964	0.041074	NaN	0.000000	0.001640	0.001660	28.0828	0.042633	0.001850	23.0423	-138.271	-163.243	0.041147	0.589424	-0.518556	-0.519869	0.041074	23.0423	-0.519893	-6.48801e+06	-6.330726E-9	NaN
1063	1.000000	0.632784	7.37545e+06	-53289.1	1055.82	-29746.6	0.000000	0.000000	6.633009	0.010858	NaN	0.000000	0.001616	0.001657	28.0826	0.035611	0.002032	17.527	-108.334	16.3699	0.048299	0.631431	-0.476510	-0.477862	0.010858	17.527	-0.476974	-1.63364e+06	-6.646620E-9	NaN
1063	1.000000	0.674779	7.37545e+06	-53289.1	1055.82	-29746.6	0.000000	0.000000	6.675008	0.080978	NaN	0.000000	0.001650	0.001684	28.0828	0.028947	0.001854	15.6144	-25.681	-165.15	0.067700	0.673472	-0.434514	-0.435821	0.080978	15.6144	-0.438404	-468634	-1.727955E-7	NaN
1063	1.000000	0.716824	7.37545e+06	-53289.1	1055.82	-29746.6	0.000000	0.000000	6.717052	0.050960	NaN	0.000000	0.001641	0.001678	28.0842	0.105981	0.001953	54.2526	-115.374	15.8677	-0.017559	0.715432	-0.392469	-0.393861	0.050960	54.2526	-0.393173	-106792	-4.771858E-7	NaN
1063	1.000000	0.758796	7.37545e+06	-53289.1	1055.82	-29746.6	0.000000	0.000000	6.759023	0.027085	NaN	0.000000	0.001619	0.001718	28.0843	0.087679	0.001948	45.0049	173.494	-167.281	0.021968	0.757506	-0.350497	-0.351787	0.027085	45.0049	-0.350949	-26349.1	-1.027936E-6	NaN
1063	1.000000	0.800854	7.37545e+06	-53289.1	1055.82	-29746.6	0.000000	0.000000	6.801082	0.038714	NaN	0.000000	0.001627	0.001678	28.0841	0.084743	0.001884	44.9877	-48.4162	16.3481	-0.030216	0.799480	-0.308439	-0.309813	0.038714	44.9877	-0.309084	-6419.44	-6.030677E-6	NaN
1063	1.000000	0.842876	7.37545e+06	-53289.1	1055.82	-29746.6	0.000000	0.000000	6.843105	0.085092	NaN	0.000000	0.001580	0.001673	28.084	0.037110	0.002091	17.7485	-36.4436	-165.027	0.059188	0.841585	-0.266417	-0.267708	0.085092	17.7485	-0.270013	-1666.23	-5.106854E-5	NaN
1063	1.000000	0.884861	7.37545e+06	-53289.1	1055.82	-29746.6	0.000000	0.000000	6.885086	-0.023500	NaN	0.000000	0.001568	0.001661	28.0828	0.166329	0.001879	88.5272	19.9566	15.3681	-0.005899	0.883468	-0.224432	-0.225825	-0.023500	88.5272	-0.224233	-324.445	7.243222E-5	NaN
1063	1.000000	0.926892	7.37545e+06	-53289.1	1055.82	-29746.6	0.000000	0.000000	6.927117	-0.002840	NaN	0.000000	0.001618	0.001661	28.0827	0.061262	0.001893	32.3643	96.6964	-165.102	0.045044	0.925550	-0.182401	-0.183744	-0.002840	32.3643	-0.182336	-66.8521	4.248471E-5	NaN
1063	1.000000	0.968895	7.37545e+06	-53289.1	1055.82	-29746.6	0.000000	0.000000	6.969122	0.042671	NaN	0.000000	0.001593	0.001673	28.0825	0.046891	0.002052	22.8492	-42.6059	13.5335	-0.028153	0.967499	-0.140398	-0.141794	0.042671	22.8492	-0.141799	-12.7837	-0.003338	NaN
1063	1.000000	1.010928	7.37545e+06	-53289.1	1055.82	-29746.6	0.000000	0.000000	7.011153	-0.008886	NaN	0.000000	0.001573	0.001701	28.084	0.120053	0.001989	60.3634	-73.0568	-164.075	-0.031008	1.009626	-0.098365	-0.099667	-0.008886	60.3634	-0.098255	-1.670737	0.005319	NaN
1063	1.000000	1.052937	7.37545e+06	-53289.1	1055.82	-29746.6	0.000000	0.000000	7.053164	0.029018	NaN	0.000000	0.001601	0.001695	28.0839	0.154231	0.002025	76.1659	-143.985	17.5083	-0.018510	1.051593	-0.056356	-0.057700	0.029018	76.1659	-0.056641	-0.143924	-0.201620	NaN
1063	1.000000	1.094961	7.37545e+06	-53289.1	1055.82	-29746.6	0.000000	0.000000	7.095185	-0.025549	NaN	0.000000	0.001589	0.001673	28.0838	0.062431	0.002037	30.6523	58.3737	-167.133	0.026858	1.093666	-0.014333	-0.015627	-0.025549	30.6523	-0.013707	-0.008512	3.001442	NaN
1063	2.000000	1.126895	7.37545e+06	-53289.1	1055.82	-29746.6	0.000000	0.000000	7.127626	12.3053	NaN	0.000000	0.001571	0.001689	28.0827	13.061	0.001739	7511.91	4.873153	6.656889	11.1156	1.126609	0.017602	0.017316	12.3053	7511.91	0.016373	0.017160	717.092	52391.9
1063	2.000000	1.137377	7.37545e+06	-53289.1	1055.82	-29746.6	0.000000	0.000000	7.138852	30.3766	NaN	0.000000	0.001588	0.001699	28.0826	22.6307	0.001659	13641.6	5.202827	-179.012	28.9907	1.137068	0.028084	0.027775	30.3766	13641.6	0.026414	0.033638	903.032	67954.6
1063	2.000000	1.147816	7.37545e+06	-53289.1	1055.82	-29746.6	0.000000	0.000000	7.150295	54.7917	NaN	0.000000	0.001565	0.001718	28.0826	33.064	0.001978	16714.9	4.073646	2.104758	52.9974	1.147489	0.038522	0.038196	54.7917	16714.9	0.036064	0.054252	1009.94	65564.4
1063	2.000000	1.158326	7.37545e+06	-53289.1	1055.82	-29746.6	0.000000	0.000000	7.162165	87.8631	NaN	0.000000	0.001573	0.001654	28.0838	41.9092	0.001901	22040.1	9.238508	174.799	87.5432	1.157976	0.049033	0.048683	87.8631	22040.1	0.046043	0.080575	1090.45	70939
1063	2.000000	1.168776	7.37545e+06	-53289.1	1055.82	-29746.6	0.000000	0.000000	7.174270	128.084	NaN	0.000000	0.001538	0.001621	28.0837	50.8803	0.001786	28488.6	4.539186	-3.607145	124.909	1.168415	0.059483	0.059122	128.084	28488.6	0.056111	0.112234	1141.22	77693.2
1063	2.000000	1.179390	7.37545e+06	-53289.1	1055.82	-29746.6	0.000000	0.000000	7.186828	175.346	NaN	0.000000	0.001584	0.001639	28.0837	61.8043	0.001865	33144.7	7.000156	174.217	176.761	1.178962	0.070097	0.069669	175.346	33144.7	0.066129	0.148701	1179.19	78529.1
1063	2.000000	1.189809	7.37545e+06	-53289.1	1055.82	-29746.6	0.000000	0.000000	7.199048	219.14	NaN	0.000000	0.001586	0.001672	28.0838	71.4531	0.001773	40301.1	1.472087	-3.667056	218.701	1.189567	0.080516	0.080274	219.14	40301.1	0.076438	0.191257	1145.78	84193.9
1063	2.000000	1.200286	7.37545e+06	-53289.1	1055.82	-29746.6	0.000000	0.000000	7.212277	286.046	NaN	0.000000	0.001606	0.001635	28.0821	83.8225	0.001884	44500.9	6.447009	172.036	286.366	1.199883	0.090993	0.090590	286.046	44500.9	0.086172	0.236023	1211.94	83688.3
1063	2.000000	1.210808	7.37545e+06	-53289.1	1055.82	-29746.6	0.000000	0.000000	7.225474	351.093	NaN	0.000000	0.001553	0.001615	28.0821	92.5793	0.001852	49994.9	4.485605	-7.955128	350.172	1.210397	0.101515	0.101104	351.093	49994.9	0.096248	0.286964	1223.48	85268
1063	2.000000	1.221209	7.37545e+06	-53289.1	1055.82	-29746.6	0.000000	0.000000	7.239217	432.351	NaN	0.000000	0.001574	0.001644	28.0821	101.319	0.001890	53603.3	8.055621	168.589	428.467	1.220786	0.111915	0.111493	432.351	53603.3	0.105866	0.339911	1271.95	84000.5
1063	2.000000	1.222177	7.37545e+06	-53289.1	1055.82	-29746.6	0.000000	0.000000	7.240693	444.71	NaN	0.000000	0.001609	0.001640	28.0823	101.275	0.001831	55314.4	5.713303	170.556	439.957	1.221937	0.112884	0.112644	444.71	55314.4	0.106854	0.345586	1286.83	85967.4