File: remote_trans/data/nanoindenter/0828-1/data/Data_2025-08-06,11h17m57s/2025-07-22_16-23-58_1_400.txt
2025-07-22, 16:23:58, 1
Index	Phase	Displacement	Time	Pos X	Pos Y	Pos Z	Rot A	Rot B	Piezo Z	Force A	Force B	Gripper	Voltage A	Voltage B	Temperature	Amplitude force	Amplitude pos	Stiffness	Phase shift	Phase excitation	Force A raw	Displacement raw	HMax	HMax raw	Real Force	Real Stiffness	Contact Depth	Area	Hardness	Reduced Mod.
[#]	[#]	[um]	[s]	[um]	[um]	[um]	[m°]	[m°]	[um]	[uN]	[uN]	[V]	[V]	[V]	[°C]	[uN]	[um]	[N/m]	[°]	[°]	[uN]	[um]	[um]	[um]	[uN]	[N/m]	[um]	[um^2]	[MPa]	[MPa]
400	1.000000	0.002846	7.36897e+06	-57089.1	1005.82	-29737.7	0.000000	0.000000	6.002807	0.076966	NaN	0.000000	0.001636	0.001677	28.0799	0.068414	0.000987	69.3078	144.059	-155.485	0.055060	0.001549	-1.019767	-1.021064	0.076966	69.3078	-1.020600	-4.295618E+13	-1.791740E-15	NaN
400	1.000000	0.042780	7.36897e+06	-57089.1	1005.82	-29737.7	0.000000	0.000000	6.042739	0.021226	NaN	0.000000	0.001606	0.001707	28.0788	0.085061	0.001982	42.9228	5.861504	-160.998	0.034133	0.041492	-0.979833	-0.981122	0.021226	42.9228	-0.980204	-1.227892E+13	-1.728646E-15	NaN
400	1.000000	0.082767	7.36897e+06	-57089.1	1005.82	-29737.7	0.000000	0.000000	6.082725	-0.007422	NaN	0.000000	0.001687	0.001716	28.0786	0.052477	0.001921	27.3174	-50.6297	-167.68	-0.031710	0.081492	-0.939846	-0.941122	-0.007422	27.3174	-0.939642	-3.485862E+12	2.129194E-15	NaN
400	1.000000	0.122843	7.36897e+06	-57089.1	1005.82	-29737.7	0.000000	0.000000	6.122801	-0.008598	NaN	0.000000	0.001678	0.001676	28.0784	0.080658	0.001971	40.9126	-147.723	-164.046	-0.015806	0.121483	-0.899770	-0.901131	-0.008598	40.9126	-0.899612	-1.004218E+12	8.561875E-15	NaN
400	1.000000	0.162849	7.36897e+06	-57089.1	1005.82	-29737.7	0.000000	0.000000	6.162808	0.029693	NaN	0.000000	0.001703	0.001694	28.0784	0.065336	0.001957	33.3775	128.485	-164.265	-0.051402	0.161497	-0.859764	-0.861117	0.029693	33.3775	-0.860432	-2.964575E+11	-1.001606E-13	NaN
400	1.000000	0.202865	7.36897e+06	-57089.1	1005.82	-29737.7	0.000000	0.000000	6.202823	0.011065	NaN	0.000000	0.001694	0.001703	28.0801	0.082135	0.002136	38.4524	-133.311	-168.531	0.026137	0.201610	-0.819748	-0.821003	0.011065	38.4524	-0.819964	-8.389273E+10	-1.318954E-13	NaN
400	1.000000	0.242853	7.36897e+06	-57089.1	1005.82	-29737.7	0.000000	0.000000	6.242810	-0.030979	NaN	0.000000	0.001751	0.001699	28.0795	0.040836	0.001976	20.6664	-21.0581	-164.807	-0.027752	0.241583	-0.779760	-0.781030	-0.030979	20.6664	-0.778636	-2.305098E+10	1.343919E-12	NaN
400	1.000000	0.282866	7.36897e+06	-57089.1	1005.82	-29737.7	0.000000	0.000000	6.282822	-0.043544	NaN	0.000000	0.001658	0.001719	28.0793	0.049633	0.002095	23.6889	114.724	-165.037	-0.049266	0.281590	-0.739748	-0.741024	-0.043544	23.6889	-0.738369	-6.528896E+9	6.669391E-12	NaN
400	1.000000	0.322929	7.36897e+06	-57089.1	1005.82	-29737.7	0.000000	0.000000	6.322889	0.036555	NaN	0.000000	0.001655	0.001722	28.0785	0.063421	0.001990	31.873	-173.36	-165.455	0.012946	0.321607	-0.699684	-0.701007	0.036555	31.873	-0.700544	-1.990493E+9	-1.836470E-11	NaN
400	1.000000	0.362929	7.36897e+06	-57089.1	1005.82	-29737.7	0.000000	0.000000	6.362888	0.043406	NaN	0.000000	0.001719	0.001667	28.0785	0.065184	0.002069	31.5114	17.3796	-167.034	-0.043503	0.361593	-0.659685	-0.661020	0.043406	31.5114	-0.660718	-5.679382E+8	-7.642696E-11	NaN
400	1.000000	0.402886	7.36897e+06	-57089.1	1005.82	-29737.7	0.000000	0.000000	6.402844	-0.003175	NaN	0.000000	0.001693	0.001707	28.0783	0.042311	0.001823	23.2072	-0.761169	-164.112	0.086009	0.401622	-0.619727	-0.620992	-0.003175	23.2072	-0.619624	-1.550493E+8	2.047723E-11	NaN
400	1.000000	0.442961	7.36897e+06	-57089.1	1005.82	-29737.7	0.000000	0.000000	6.442921	0.060642	NaN	0.000000	0.001699	0.001730	28.0784	0.064849	0.002014	32.1914	151.346	-164.316	0.047521	0.441629	-0.579652	-0.580984	0.060642	32.1914	-0.581065	-4.564838E+7	-1.328452E-9	NaN
400	1.000000	0.482958	7.36898e+06	-57089.1	1005.82	-29737.7	0.000000	0.000000	6.482914	-0.050993	NaN	0.000000	0.001616	0.001746	28.0797	0.059134	0.002018	29.3025	-146.107	-163.176	-0.054354	0.481708	-0.539655	-0.540906	-0.050993	29.3025	-0.538350	-1.170769E+7	4.355521E-9	NaN
400	1.000000	0.522983	7.36898e+06	-57089.1	1005.82	-29737.7	0.000000	0.000000	6.522944	0.064677	NaN	0.000000	0.001589	0.001744	28.0799	0.080104	0.001993	40.2015	-22.7847	-163.346	0.089498	0.521666	-0.499630	-0.500947	0.064677	40.2015	-0.500837	-3.52118e+06	-1.836803E-8	NaN
400	1.000000	0.563007	7.36898e+06	-57089.1	1005.82	-29737.7	0.000000	0.000000	6.562963	-0.052315	NaN	0.000000	0.001581	0.001719	28.0799	0.096821	0.001935	50.0301	-130.521	-163.357	-0.124198	0.561734	-0.459606	-0.460879	-0.052315	50.0301	-0.458822	-908790	5.756592E-8	NaN
400	1.000000	0.603027	7.36898e+06	-57089.1	1005.82	-29737.7	0.000000	0.000000	6.602987	0.042368	NaN	0.000000	0.001606	0.001686	28.0788	0.056014	0.001993	28.1002	-99.0789	-161.835	0.025250	0.601678	-0.419586	-0.420935	0.042368	28.1002	-0.420717	-263380	-1.608621E-7	NaN
400	1.000000	0.643030	7.36898e+06	-57089.1	1005.82	-29737.7	0.000000	0.000000	6.642989	0.027439	NaN	0.000000	0.001666	0.001713	28.0785	0.025396	0.002094	12.1256	1.849615	-167.924	0.003346	0.641709	-0.379584	-0.380904	0.027439	12.1256	-0.381281	-72155	-3.802764E-7	NaN
400	1.000000	0.683056	7.36898e+06	-57089.1	1005.82	-29737.7	0.000000	0.000000	6.683014	0.002209	NaN	0.000000	0.001674	0.001716	28.0785	0.060206	0.002025	29.7256	-100.656	-163.244	-0.055634	0.681804	-0.339557	-0.340809	0.002209	29.7256	-0.339613	-18026.6	-1.225270E-7	NaN
400	1.000000	0.723069	7.36898e+06	-57089.1	1005.82	-29737.7	0.000000	0.000000	6.723025	-0.058397	NaN	0.000000	0.001688	0.001705	28.0784	0.059034	0.002030	29.0787	113.681	-166.167	-0.071424	0.721773	-0.299544	-0.300840	-0.058397	29.0787	-0.298038	-4399.57	1.327342E-5	NaN
400	1.000000	0.763082	7.36898e+06	-57089.1	1005.82	-29737.7	0.000000	0.000000	6.763040	6.095071E-5	NaN	0.000000	0.001677	0.001718	28.0796	0.079551	0.002009	39.6045	-66.7797	-165.505	-0.004354	0.761793	-0.259531	-0.260820	6.095071E-5	39.6045	-0.259532	-1152.77	-5.287309E-8	NaN
400	1.000000	0.803079	7.36898e+06	-57089.1	1005.82	-29737.7	0.000000	0.000000	6.803034	-0.064234	NaN	0.000000	0.001671	0.001752	28.0799	0.114955	0.001912	60.1285	-94.1249	-160.188	0.026085	0.801774	-0.219534	-0.220839	-0.064234	60.1285	-0.218733	-265.1	0.000242	NaN
400	1.000000	0.843130	7.36898e+06	-57089.1	1005.82	-29737.7	0.000000	0.000000	6.843088	0.008339	NaN	0.000000	0.001604	0.001751	28.0798	0.073291	0.002019	36.2957	92.2031	-164.75	-0.037833	0.841778	-0.179483	-0.180835	0.008339	36.2957	-0.179656	-60.2017	-0.000139	NaN
400	1.000000	0.883139	7.36898e+06	-57089.1	1005.82	-29737.7	0.000000	0.000000	6.883099	0.054255	NaN	0.000000	0.001599	0.001745	28.0786	0.052695	0.001898	27.7574	44.401	-167.679	0.049313	0.881883	-0.139474	-0.140730	0.054255	27.7574	-0.140940	-12.3197	-0.004404	NaN
400	1.000000	0.923145	7.36898e+06	-57089.1	1005.82	-29737.7	0.000000	0.000000	6.923103	0.006463	NaN	0.000000	0.001633	0.001758	28.0788	0.063622	0.001957	32.5125	-86.9078	-163.785	-0.051584	0.921812	-0.099468	-0.100801	0.006463	32.5125	-0.099617	-1.791784	-0.003607	NaN
400	1.000000	0.963183	7.36898e+06	-57089.1	1005.82	-29737.7	0.000000	0.000000	6.963142	0.036748	NaN	0.000000	0.001630	0.001738	28.0788	0.027247	0.001999	13.6271	-22.4384	-160.862	0.085541	0.961837	-0.059431	-0.060776	0.036748	13.6271	-0.061453	-0.198147	-0.185460	NaN
400	1.000000	1.003156	7.36898e+06	-57089.1	1005.82	-29737.7	0.000000	0.000000	7.003126	0.282049	NaN	0.000000	0.001648	0.001765	28.0801	0.422603	0.002062	204.939	43.8246	-164.903	0.200034	1.001909	-0.019457	-0.020704	0.282049	204.939	-0.020489	-0.012926	-21.8204	NaN
400	1.000000	1.043169	7.36898e+06	-57089.1	1005.82	-29737.7	0.000000	0.000000	7.043406	6.797950	NaN	0.000000	0.001638	0.001733	28.08	7.110394	0.001740	4086.66	16.5797	-169.522	5.527836	1.041863	0.020556	0.019249	6.797950	4086.66	0.019308	0.021467	316.675	25483.5
400	2.000000	1.054687	7.36898e+06	-57089.1	1005.82	-29737.7	0.000000	0.000000	7.055533	21.5831	NaN	0.000000	0.001617	0.001722	28.0801	17.7706	0.001811	9813.14	8.104007	-175.237	22.1182	1.054372	0.032073	0.031758	21.5831	9813.14	0.030424	0.041627	518.489	43943.5
400	2.000000	1.064622	7.36898e+06	-57089.1	1005.82	-29737.7	0.000000	0.000000	7.066269	41.0554	NaN	0.000000	0.001621	0.001714	28.0801	25.5582	0.001849	13826	10.3795	178.898	40.8539	1.064371	0.042008	0.041758	41.0554	13826	0.039781	0.063465	646.901	50142.4
400	2.000000	1.074638	7.36898e+06	-57089.1	1005.82	-29737.7	0.000000	0.000000	7.077337	66.6301	NaN	0.000000	0.001654	0.001696	28.079	34.9669	0.001848	18916.7	6.624951	178.424	66.538	1.074369	0.052025	0.051756	66.6301	18916.7	0.049383	0.090515	736.121	57445.7
400	2.000000	1.084568	7.36898e+06	-57089.1	1005.82	-29737.7	0.000000	0.000000	7.088695	101.342	NaN	0.000000	0.001643	0.001688	28.0791	45.0309	0.001855	24276.7	7.874437	175.62	98.6253	1.084312	0.061955	0.061699	101.342	24276.7	0.058824	0.121624	833.237	63599.5
400	2.000000	1.094620	7.36898e+06	-57089.1	1005.82	-29737.7	0.000000	0.000000	7.100311	139.366	NaN	0.000000	0.001653	0.001699	28.0788	54.0407	0.001894	28527.7	2.803445	179.427	142.219	1.094277	0.072006	0.071664	139.366	28527.7	0.068342	0.157410	885.366	65693.7
400	2.000000	1.104614	7.36898e+06	-57089.1	1005.82	-29737.7	0.000000	0.000000	7.112009	180.748	NaN	0.000000	0.001631	0.001688	28.0798	63.6136	0.001892	33615.5	5.517233	175.347	184.692	1.104327	0.082001	0.081714	180.748	33615.5	0.077968	0.198005	912.848	69020.1
400	2.000000	1.114619	7.36898e+06	-57089.1	1005.82	-29737.7	0.000000	0.000000	7.124258	235.298	NaN	0.000000	0.001655	0.001705	28.0799	72.6944	0.001779	40864.8	6.990288	172.031	237.076	1.114290	0.092006	0.091677	235.298	40864.8	0.087687	0.243386	966.766	75678.9
400	2.000000	1.124666	7.36898e+06	-57089.1	1005.82	-29737.7	0.000000	0.000000	7.136121	279.444	NaN	0.000000	0.001619	0.001770	28.0798	82.4598	0.001870	44106.5	2.864502	175.858	287.319	1.124354	0.102052	0.101740	279.444	44106.5	0.097301	0.292555	955.183	74502.6
400	2.000000	1.134556	7.36898e+06	-57089.1	1005.82	-29737.7	0.000000	0.000000	7.149167	356.155	NaN	0.000000	0.001664	0.001689	28.0798	91.0263	0.001801	50555	4.818161	172.945	356.013	1.134139	0.111943	0.111526	356.155	50555	0.106659	0.344462	1033.95	78698.5
400	2.000000	1.143543	7.36898e+06	-57089.1	1005.82	-29737.7	0.000000	0.000000	7.160755	419.355	NaN	0.000000	0.001661	0.001645	28.0786	97.4325	0.001774	54923.3	3.918837	173.17	418.545	1.143200	0.120930	0.120586	419.355	54923.3	0.115204	0.395327	1060.78	79808.9