File: remote_trans/data/nanoindenter/0828-1/data/Data_2025-08-06,11h17m57s/2025-07-22_16-23-58_1_1126.txt
2025-07-22, 16:23:58, 1
Index	Phase	Displacement	Time	Pos X	Pos Y	Pos Z	Rot A	Rot B	Piezo Z	Force A	Force B	Gripper	Voltage A	Voltage B	Temperature	Amplitude force	Amplitude pos	Stiffness	Phase shift	Phase excitation	Force A raw	Displacement raw	HMax	HMax raw	Real Force	Real Stiffness	Contact Depth	Area	Hardness	Reduced Mod.
[#]	[#]	[um]	[s]	[um]	[um]	[um]	[m°]	[m°]	[um]	[uN]	[uN]	[V]	[V]	[V]	[°C]	[uN]	[um]	[N/m]	[°]	[°]	[uN]	[um]	[um]	[um]	[uN]	[N/m]	[um]	[um^2]	[MPa]	[MPa]
1126	1.000000	0.002608	7.37607e+06	-56439.1	1055.82	-29738.9	0.000000	0.000000	6.002823	0.027009	NaN	0.000000	0.001553	0.001727	28.0827	0.021872	0.000829	26.385	-13.0322	-169.878	-0.028230	0.001333	-1.106540	-1.107815	0.027009	26.385	-1.107308	-6.282813E+14	-4.298857E-17	NaN
1126	1.000000	0.044539	7.37607e+06	-56439.1	1055.82	-29738.9	0.000000	0.000000	6.044755	0.024945	NaN	0.000000	0.001598	0.001751	28.0837	0.053231	0.002026	26.2693	101.56	15.943	0.090085	0.043161	-1.064608	-1.065986	0.024945	26.2693	-1.065321	-1.715208E+14	-1.454332E-16	NaN
1126	1.000000	0.086561	7.37607e+06	-56439.1	1055.82	-29738.9	0.000000	0.000000	6.086779	0.093576	NaN	0.000000	0.001650	0.001726	28.084	0.060908	0.002015	30.2218	-11.0894	-167.231	0.005113	0.085255	-1.022587	-1.023893	0.093576	30.2218	-1.024909	-4.909023E+13	-1.906211E-15	NaN
1126	1.000000	0.128559	7.37607e+06	-56439.1	1055.82	-29738.9	0.000000	0.000000	6.128772	-0.017536	NaN	0.000000	0.001559	0.001746	28.0842	0.059609	0.001998	29.8273	-113.874	15.1773	0.061975	0.127228	-0.980589	-0.981920	-0.017536	29.8273	-0.980148	-1.225759E+13	1.430604E-15	NaN
1126	1.000000	0.170558	7.37607e+06	-56439.1	1055.82	-29738.9	0.000000	0.000000	6.170773	0.032900	NaN	0.000000	0.001527	0.001741	28.0829	0.072382	0.002024	35.7686	159.377	-165.838	0.052394	0.169275	-0.938590	-0.939872	0.032900	35.7686	-0.939280	-3.446856E+12	-9.544950E-15	NaN
1126	1.000000	0.212602	7.37607e+06	-56439.1	1055.82	-29738.9	0.000000	0.000000	6.212817	-0.000430	NaN	0.000000	0.001558	0.001776	28.0829	0.084562	0.002079	40.6743	90.1762	18.0598	0.042679	0.211221	-0.896545	-0.897927	-0.000430	40.6743	-0.896537	-9.125912E+11	4.712357E-16	NaN
1126	1.000000	0.254577	7.37607e+06	-56439.1	1055.82	-29738.9	0.000000	0.000000	6.254792	0.001751	NaN	0.000000	0.001551	0.001720	28.0827	0.131119	0.001898	69.0657	-114.307	-164.437	0.031420	0.253273	-0.854571	-0.855875	0.001751	69.0657	-0.854590	-2.471040E+11	-7.087760E-15	NaN
1126	1.000000	0.296676	7.37607e+06	-56439.1	1055.82	-29738.9	0.000000	0.000000	6.296894	0.088861	NaN	0.000000	0.001522	0.001690	28.0836	0.068746	0.001954	35.1801	-136.987	14.5405	0.032249	0.295277	-0.812472	-0.813871	0.088861	35.1801	-0.814366	-7.043746E+10	-1.261555E-12	NaN
1126	1.000000	0.338669	7.37607e+06	-56439.1	1055.82	-29738.9	0.000000	0.000000	6.338883	-0.014862	NaN	0.000000	0.001559	0.001724	28.0838	0.094114	0.001944	48.4043	-162.42	-165.008	0.103757	0.337355	-0.770479	-0.771793	-0.014862	48.4043	-0.770248	-1.772897E+10	8.383095E-13	NaN
1126	1.000000	0.380693	7.37607e+06	-56439.1	1055.82	-29738.9	0.000000	0.000000	6.380907	0.005507	NaN	0.000000	0.001559	0.001726	28.084	0.030661	0.001969	15.5755	-162.852	13.7291	0.050134	0.379345	-0.728455	-0.729802	0.005507	15.5755	-0.728720	-4.823505E+9	-1.141729E-12	NaN
1126	1.000000	0.422673	7.37607e+06	-56439.1	1055.82	-29738.9	0.000000	0.000000	6.422889	0.048373	NaN	0.000000	0.001615	0.001739	28.0839	0.127603	0.002022	63.0977	-87.0677	-162.279	0.114792	0.421368	-0.686475	-0.687779	0.048373	63.0977	-0.687050	-1.301965E+9	-3.715394E-11	NaN
1126	1.000000	0.464698	7.37607e+06	-56439.1	1055.82	-29738.9	0.000000	0.000000	6.464919	0.162777	NaN	0.000000	0.001587	0.001709	28.0825	0.043728	0.001966	22.2393	67.6495	14.2049	0.080396	0.463303	-0.644450	-0.645845	0.162777	22.2393	-0.649939	-4.042092E+8	-4.027040E-10	NaN
1126	1.000000	0.506707	7.37607e+06	-56439.1	1055.82	-29738.9	0.000000	0.000000	6.506922	0.010969	NaN	0.000000	0.001589	0.001673	28.083	0.082330	0.001997	41.2328	138.199	-162.87	-0.046989	0.505409	-0.602441	-0.603739	0.010969	41.2328	-0.602640	-9.053538E+7	-1.211577E-10	NaN
1126	1.000000	0.548754	7.37607e+06	-56439.1	1055.82	-29738.9	0.000000	0.000000	6.548968	-0.007877	NaN	0.000000	0.001554	0.001712	28.0826	0.062879	0.001885	33.3634	-133.179	15.9459	-0.023446	0.547362	-0.560394	-0.561786	-0.007877	33.3634	-0.560216	-2.351647E+7	3.349540E-10	NaN
1126	1.000000	0.590740	7.37607e+06	-56439.1	1055.82	-29738.9	0.000000	0.000000	6.590957	0.056407	NaN	0.000000	0.001647	0.001710	28.0842	0.048262	0.001856	26.0038	-174.628	-167.828	0.006240	0.589451	-0.518408	-0.519697	0.056407	26.0038	-0.520035	-6.51746e+06	-8.654808E-9	NaN
1126	1.000000	0.632784	7.37607e+06	-56439.1	1055.82	-29738.9	0.000000	0.000000	6.632998	0.001157	NaN	0.000000	0.001667	0.001739	28.084	0.100804	0.001936	52.0797	-101.929	18.706	-0.061446	0.631379	-0.476364	-0.477769	0.001157	52.0797	-0.476381	-1.60267e+06	-7.219856E-10	NaN
1126	1.000000	0.674792	7.37607e+06	-56439.1	1055.82	-29738.9	0.000000	0.000000	6.675007	0.011106	NaN	0.000000	0.001613	0.001734	28.0838	0.048297	0.001897	25.458	64.8742	-163.574	0.059885	0.673520	-0.434356	-0.435628	0.011106	25.458	-0.434683	-415220	-2.674691E-8	NaN
1126	1.000000	0.716833	7.37607e+06	-56439.1	1055.82	-29738.9	0.000000	0.000000	6.717047	0.002554	NaN	0.000000	0.001605	0.001743	28.0826	0.022100	0.001969	11.2258	115.185	15.0925	0.026537	0.715430	-0.392315	-0.393718	0.002554	11.2258	-0.392486	-104403	-2.445932E-8	NaN
1126	1.000000	0.758840	7.37607e+06	-56439.1	1055.82	-29738.9	0.000000	0.000000	6.759054	-0.009555	NaN	0.000000	0.001595	0.001708	28.0825	0.047239	0.001962	24.0785	-127.874	-165.709	-0.008056	0.757576	-0.350308	-0.351572	-0.009555	24.0785	-0.350010	-25536	3.741832E-7	NaN
1126	1.000000	0.800871	7.37607e+06	-56439.1	1055.82	-29738.9	0.000000	0.000000	6.801085	-0.019898	NaN	0.000000	0.001534	0.001701	28.0824	0.076570	0.001914	40.0147	121.371	16.4465	0.044448	0.799459	-0.308277	-0.309689	-0.019898	40.0147	-0.307904	-6166.15	3.226911E-6	NaN
1126	1.000000	0.842879	7.37607e+06	-56439.1	1055.82	-29738.9	0.000000	0.000000	6.843094	0.016204	NaN	0.000000	0.001561	0.001719	28.0836	0.092520	0.001983	46.6476	-26.8804	-160.998	0.076778	0.841532	-0.266269	-0.267616	0.016204	46.6476	-0.266530	-1474.75	-1.098780E-5	NaN
1126	1.000000	0.884874	7.37607e+06	-56439.1	1055.82	-29738.9	0.000000	0.000000	6.885089	0.031997	NaN	0.000000	0.001555	0.001696	28.0837	0.078185	0.001944	40.2226	120.461	18.2985	0.100758	0.883549	-0.224274	-0.225599	0.031997	40.2226	-0.224871	-332.109	-9.634626E-5	NaN
1126	1.000000	0.926912	7.37607e+06	-56439.1	1055.82	-29738.9	0.000000	0.000000	6.927129	0.053496	NaN	0.000000	0.001525	0.001670	28.0841	0.026549	0.001917	13.8493	-29.1456	-164.445	0.045986	0.925566	-0.182236	-0.183582	0.053496	13.8493	-0.185133	-74.5366	-0.000718	NaN
1126	1.000000	0.968891	7.37607e+06	-56439.1	1055.82	-29738.9	0.000000	0.000000	6.969107	0.039623	NaN	0.000000	0.001563	0.001697	28.0839	0.061291	0.002026	30.2562	-92.5343	16.0497	-0.040631	0.967568	-0.140257	-0.141580	0.039623	30.2562	-0.141239	-12.4797	-0.003175	NaN
1126	1.000000	1.010910	7.37607e+06	-56439.1	1055.82	-29738.9	0.000000	0.000000	7.011128	0.085546	NaN	0.000000	0.001551	0.001716	28.0826	0.071227	0.002084	34.1859	-149.764	-168.836	0.048026	1.009635	-0.098238	-0.099513	0.085546	34.1859	-0.100114	-1.837843	-0.046547	NaN
1126	1.000000	1.052929	7.37607e+06	-56439.1	1055.82	-29738.9	0.000000	0.000000	7.053145	0.050355	NaN	0.000000	0.001558	0.001716	28.0826	0.106058	0.001964	53.9988	156.863	15.6932	-0.002057	1.051626	-0.056219	-0.057521	0.050355	53.9988	-0.056919	-0.146638	-0.343396	NaN
1126	1.000000	1.094980	7.37607e+06	-56439.1	1055.82	-29738.9	0.000000	0.000000	7.095195	0.014043	NaN	0.000000	0.001536	0.001684	28.0829	0.080685	0.001959	41.1804	-157.499	-162.844	0.038195	1.093656	-0.014168	-0.015492	0.014043	41.1804	-0.014424	-0.008933	-1.572083	NaN
1126	2.000000	1.122995	7.37607e+06	-56439.1	1055.82	-29738.9	0.000000	0.000000	7.123830	15.0869	NaN	0.000000	0.001558	0.001653	28.0839	14.3437	0.001739	8250.34	8.569640	4.459057	15.0558	1.122606	0.013848	0.013458	15.0869	8250.34	0.012476	0.012065	1250.44	68624.1
1126	2.000000	1.133482	7.37607e+06	-56439.1	1055.82	-29738.9	0.000000	0.000000	7.135117	34.5318	NaN	0.000000	0.001578	0.001692	28.0842	25.341	0.001776	14267.1	5.499662	-177.322	35.1315	1.133117	0.024334	0.023969	34.5318	14267.1	0.022519	0.026656	1295.45	79838
1126	2.000000	1.143913	7.37607e+06	-56439.1	1055.82	-29738.9	0.000000	0.000000	7.146668	61.7563	NaN	0.000000	0.001520	0.001739	28.084	33.7384	0.001825	18483.4	2.753967	2.375087	61.4633	1.143575	0.034765	0.034427	61.7563	18483.4	0.032259	0.045556	1355.61	79119.3
1126	2.000000	1.154283	7.37607e+06	-56439.1	1055.82	-29738.9	0.000000	0.000000	7.158473	96.647	NaN	0.000000	0.001530	0.001743	28.0822	44.6217	0.001846	24176.3	4.562813	179.057	92.4272	1.153995	0.045135	0.044847	96.647	24176.3	0.042137	0.069667	1387.28	83685.6
1126	2.000000	1.164866	7.37607e+06	-56439.1	1055.82	-29738.9	0.000000	0.000000	7.170834	139.875	NaN	0.000000	0.001639	0.001689	28.0823	53.9579	0.001786	30216.6	4.020996	-1.746074	139.571	1.164527	0.055718	0.055380	139.875	30216.6	0.052246	0.099481	1406.05	87528.2
1126	2.000000	1.175426	7.37607e+06	-56439.1	1055.82	-29738.9	0.000000	0.000000	7.183604	193.58	NaN	0.000000	0.001610	0.001705	28.0822	65.7112	0.001710	38430.7	7.270391	172.097	194.52	1.174992	0.066278	0.065844	193.58	38430.7	0.062500	0.134926	1434.71	95588
1126	2.000000	1.185861	7.37607e+06	-56439.1	1055.82	-29738.9	0.000000	0.000000	7.196225	246.715	NaN	0.000000	0.001607	0.001697	28.0836	75.7869	0.001792	42285.3	2.419544	-4.835582	243.884	1.185582	0.076713	0.076434	246.715	42285.3	0.072337	0.173724	1420.15	92690
1126	2.000000	1.196252	7.37607e+06	-56439.1	1055.82	-29738.9	0.000000	0.000000	7.209072	306.419	NaN	0.000000	0.001559	0.001698	28.0837	84.76	0.001734	48886.7	-0.796601	176.389	300.485	1.196034	0.087104	0.086887	306.419	48886.7	0.082403	0.218168	1404.51	95624.3
1126	2.000000	1.206704	7.37607e+06	-56439.1	1055.82	-29738.9	0.000000	0.000000	7.222705	383.709	NaN	0.000000	0.001590	0.001695	28.0838	94.8828	0.001780	53301.2	7.719303	-11.6704	374.199	1.206219	0.097556	0.097071	383.709	53301.2	0.092157	0.265723	1444.02	94470.4
1126	2.000000	1.216785	7.37607e+06	-56439.1	1055.82	-29738.9	0.000000	0.000000	7.235933	460.211	NaN	0.000000	0.001614	0.001715	28.0837	105.314	0.001895	55572.2	6.989052	-11.7034	456.694	1.216425	0.107637	0.107277	460.211	55572.2	0.101426	0.314948	1461.23	90471.4