File: remote_trans/data/nanoindenter/0828-1/data/Data_2025-08-06,11h17m57s/2025-07-22_16-23-58_1_428.txt
2025-07-22, 16:23:58, 1
Index	Phase	Displacement	Time	Pos X	Pos Y	Pos Z	Rot A	Rot B	Piezo Z	Force A	Force B	Gripper	Voltage A	Voltage B	Temperature	Amplitude force	Amplitude pos	Stiffness	Phase shift	Phase excitation	Force A raw	Displacement raw	HMax	HMax raw	Real Force	Real Stiffness	Contact Depth	Area	Hardness	Reduced Mod.
[#]	[#]	[um]	[s]	[um]	[um]	[um]	[m°]	[m°]	[um]	[uN]	[uN]	[V]	[V]	[V]	[°C]	[uN]	[um]	[N/m]	[°]	[°]	[uN]	[um]	[um]	[um]	[uN]	[N/m]	[um]	[um^2]	[MPa]	[MPa]
428	1.000000	0.002650	7.36924e+06	-55689.1	1005.82	-29741	0.000000	0.000000	6.002796	-0.014888	NaN	0.000000	0.001751	0.001763	28.0813	0.053106	0.001022	51.941	-58.9512	-170.295	0.076945	0.001423	-1.026714	-1.027941	-0.014888	51.941	-1.026500	-5.156962E+13	2.887022E-16	NaN
428	1.000000	0.042581	7.36924e+06	-55689.1	1005.82	-29741.1	0.000000	0.000000	6.042727	-0.036962	NaN	0.000000	0.001738	0.001742	28.0819	0.012597	0.001887	6.674956	-133.545	-166.435	-0.062598	0.041317	-0.986783	-0.988047	-0.036962	6.674956	-0.982630	-1.323844E+13	2.792005E-15	NaN
428	1.000000	0.082596	7.36924e+06	-55689.1	1005.82	-29741.1	0.000000	0.000000	6.082744	0.016150	NaN	0.000000	0.001716	0.001751	28.0815	0.100889	0.001983	50.8678	-144.367	-166.424	-0.001458	0.081299	-0.946768	-0.948065	0.016150	50.8678	-0.947007	-4.381811E+12	-3.685698E-15	NaN
428	1.000000	0.122628	7.36924e+06	-55689.1	1005.82	-29741.1	0.000000	0.000000	6.122774	-0.046689	NaN	0.000000	0.001719	0.001696	28.0811	0.076018	0.001911	39.7786	-151.286	-162.646	-0.069298	0.121360	-0.906736	-0.908005	-0.046689	39.7786	-0.905856	-1.219495E+12	3.828576E-14	NaN
428	1.000000	0.162675	7.36924e+06	-55689.1	1005.82	-29741.1	0.000000	0.000000	6.162822	-0.028094	NaN	0.000000	0.001717	0.001745	28.0797	0.104054	0.002099	49.5638	-25.0083	-169.569	-0.007080	0.161371	-0.866689	-0.867993	-0.028094	49.5638	-0.866264	-3.555415E+11	7.901828E-14	NaN
428	1.000000	0.202653	7.36925e+06	-55689.1	1005.82	-29741.1	0.000000	0.000000	6.202801	0.021298	NaN	0.000000	0.001730	0.001723	28.0798	0.111054	0.001968	56.4267	118.681	-168.648	0.068867	0.201321	-0.826711	-0.828043	0.021298	56.4267	-0.826994	-1.044821E+11	-2.038419E-13	NaN
428	1.000000	0.242681	7.36925e+06	-55689.1	1005.82	-29741.1	0.000000	0.000000	6.242828	-0.014716	NaN	0.000000	0.001711	0.001714	28.08	0.035986	0.001838	19.5748	37.9856	-167.551	-0.046791	0.241359	-0.786683	-0.788005	-0.014716	19.5748	-0.786119	-2.913208E+10	5.051636E-13	NaN
428	1.000000	0.282686	7.36925e+06	-55689.1	1005.82	-29741.1	0.000000	0.000000	6.282832	-0.027327	NaN	0.000000	0.001716	0.001737	28.0812	0.027189	0.002002	13.5812	-135.84	-167.923	0.024126	0.281382	-0.746678	-0.747982	-0.027327	13.5812	-0.745169	-8.080809E+9	3.381698E-12	NaN
428	1.000000	0.322717	7.36925e+06	-55689.1	1005.82	-29741.1	0.000000	0.000000	6.322861	-0.060776	NaN	0.000000	0.001689	0.001737	28.0809	0.076592	0.001851	41.3698	128.913	-166.353	-0.170380	0.321430	-0.706648	-0.707934	-0.060776	41.3698	-0.705546	-2.329444E+9	2.609039E-11	NaN
428	1.000000	0.362743	7.36925e+06	-55689.1	1005.82	-29741.1	0.000000	0.000000	6.362890	-0.018112	NaN	0.000000	0.001667	0.001754	28.0813	0.111247	0.001981	56.1523	-136.574	-167.085	0.012226	0.361428	-0.666621	-0.667936	-0.018112	56.1523	-0.666379	-6.789259E+8	2.667714E-11	NaN
428	1.000000	0.402740	7.36925e+06	-55689.1	1005.82	-29741.1	0.000000	0.000000	6.402885	-0.041824	NaN	0.000000	0.001723	0.001764	28.0802	0.046124	0.001937	23.8149	20.6541	-168.362	-0.026990	0.401441	-0.626625	-0.627924	-0.041824	23.8149	-0.625307	-1.855960E+8	2.253498E-10	NaN
428	1.000000	0.442790	7.36925e+06	-55689.1	1005.82	-29741.1	0.000000	0.000000	6.442938	0.006611	NaN	0.000000	0.001751	0.001750	28.0801	0.070755	0.002063	34.2935	32.8257	-164.896	0.069899	0.441525	-0.586574	-0.587839	0.006611	34.2935	-0.586718	-5.462800E+7	-1.210146E-10	NaN
428	1.000000	0.482782	7.36925e+06	-55689.1	1005.82	-29741.1	0.000000	0.000000	6.482931	0.022943	NaN	0.000000	0.001740	0.001749	28.0803	0.065486	0.001973	33.1965	-113.426	-164.463	0.024959	0.481473	-0.546582	-0.547891	0.022943	33.1965	-0.547100	-1.548045E+7	-1.482053E-9	NaN
428	1.000000	0.522764	7.36925e+06	-55689.1	1005.82	-29741.1	0.000000	0.000000	6.522912	0.016697	NaN	0.000000	0.001713	0.001756	28.0803	0.057236	0.002031	28.1768	152.624	-162.782	0.078185	0.521482	-0.506600	-0.507882	0.016697	28.1768	-0.507044	-4.29772e+06	-3.884980E-9	NaN
428	1.000000	0.562834	7.36925e+06	-55689.1	1005.82	-29741.1	0.000000	0.000000	6.562983	0.048958	NaN	0.000000	0.001725	0.001759	28.0816	0.090665	0.002134	42.4803	44.0825	-165.963	-0.037839	0.561537	-0.466530	-0.467827	0.048958	42.4803	-0.467394	-1.1991e+06	-4.082885E-8	NaN
428	1.000000	0.602842	7.36925e+06	-55689.1	1005.82	-29741.1	0.000000	0.000000	6.602989	-0.013047	NaN	0.000000	0.001758	0.001757	28.0815	0.067662	0.001965	34.4355	166.037	-164.603	-0.038747	0.601506	-0.426522	-0.427858	-0.013047	34.4355	-0.426238	-315366	4.137242E-8	NaN
428	1.000000	0.642848	7.36925e+06	-55689.1	1005.82	-29741.1	0.000000	0.000000	6.642996	0.004484	NaN	0.000000	0.001763	0.001769	28.0815	0.065179	0.002114	30.8253	13.053	-164.113	-0.035305	0.641536	-0.386516	-0.387828	0.004484	30.8253	-0.386625	-86072.9	-5.209003E-8	NaN
428	1.000000	0.682843	7.36925e+06	-55689.1	1005.82	-29741.1	0.000000	0.000000	6.682991	0.011581	NaN	0.000000	0.001799	0.001769	28.0803	0.093029	0.001946	47.814	46.21	-167.786	0.014608	0.681569	-0.346521	-0.347796	0.011581	47.814	-0.346703	-22861.9	-5.065761E-7	NaN
428	1.000000	0.722884	7.36925e+06	-55689.1	1005.82	-29741.1	0.000000	0.000000	6.723030	-0.020108	NaN	0.000000	0.001781	0.001781	28.0803	0.125068	0.002047	61.0907	41.724	-168.88	-0.075374	0.721571	-0.306480	-0.307793	-0.020108	61.0907	-0.306234	-5824.46	3.452312E-6	NaN
428	1.000000	0.762912	7.36925e+06	-55689.1	1005.82	-29741.1	0.000000	0.000000	6.763059	-0.009257	NaN	0.000000	0.001779	0.001768	28.0803	0.028490	0.002027	14.0525	53.4326	-168.933	0.078796	0.761600	-0.266452	-0.267764	-0.009257	14.0525	-0.265958	-1445.46	6.403903E-6	NaN
428	1.000000	0.802896	7.36925e+06	-55689.1	1005.82	-29741.1	0.000000	0.000000	6.803042	-0.021432	NaN	0.000000	0.001806	0.001754	28.0801	0.039540	0.001903	20.7802	-77.8347	-164.925	-0.016749	0.801615	-0.226468	-0.227749	-0.021432	20.7802	-0.225695	-342.269	6.261627E-5	NaN
428	1.000000	0.842897	7.36925e+06	-55689.1	1005.82	-29741.1	0.000000	0.000000	6.843045	0.023460	NaN	0.000000	0.001703	0.001723	28.0813	0.120263	0.002079	57.8478	8.776782	-169.927	0.042586	0.841659	-0.186468	-0.187705	0.023460	57.8478	-0.186772	-79.4229	-0.000295	NaN
428	1.000000	0.882981	7.36925e+06	-55689.1	1005.82	-29741.1	0.000000	0.000000	6.883126	-0.072789	NaN	0.000000	0.001722	0.001718	28.0813	0.038660	0.002144	18.028	-20.2576	-166.184	0.035159	0.881658	-0.146383	-0.147706	-0.072789	18.028	-0.143355	-13.6664	0.005326	NaN
428	1.000000	0.922929	7.36925e+06	-55689.1	1005.82	-29741.1	0.000000	0.000000	6.923074	-0.056912	NaN	0.000000	0.001732	0.001733	28.0813	0.091865	0.001959	46.8834	-77.616	-167.922	-0.153774	0.921728	-0.106435	-0.107636	-0.056912	46.8834	-0.105525	-2.412653	0.023589	NaN
428	1.000000	0.963014	7.36925e+06	-55689.1	1005.82	-29741.1	0.000000	0.000000	6.963164	0.076357	NaN	0.000000	0.001673	0.001723	28.0801	0.075549	0.002004	37.705	22.8849	-167.454	0.079007	0.961639	-0.066350	-0.067726	0.076357	37.705	-0.067869	-0.298801	-0.255545	NaN
428	1.000000	1.002992	7.36925e+06	-55689.1	1005.82	-29741.1	0.000000	0.000000	7.003139	-0.012550	NaN	0.000000	0.001748	0.001763	28.0803	0.035184	0.001999	17.6036	53.9276	-164.571	-0.023633	1.001680	-0.026372	-0.027684	-0.012550	17.6036	-0.025837	-0.017746	0.707179	NaN
428	2.000000	1.038590	7.36925e+06	-55689.1	1005.82	-29741.1	0.000000	0.000000	7.039162	10.3201	NaN	0.000000	0.001724	0.001739	28.0808	9.762683	0.001758	5554.85	10.1523	-177.482	9.384279	1.038302	0.009226	0.008937	10.3201	5554.85	0.007832	0.006870	1502.14	61229.1
428	2.000000	1.048461	7.36925e+06	-55689.1	1005.82	-29741.1	0.000000	0.000000	7.049749	27.7364	NaN	0.000000	0.001725	0.001765	28.0818	20.3021	0.001836	11059.7	5.980049	-178.347	25.2536	1.048230	0.019097	0.018866	27.7364	11059.7	0.017216	0.018355	1511.12	74583
428	2.000000	1.058531	7.36925e+06	-55689.1	1005.82	-29741.1	0.000000	0.000000	7.060811	51.833	NaN	0.000000	0.001659	0.001732	28.0814	30.0287	0.001784	16830.2	5.468738	179.828	53.8038	1.058232	0.029167	0.028867	51.833	16830.2	0.026857	0.034482	1503.2	82807.2
428	2.000000	1.068510	7.36925e+06	-55689.1	1005.82	-29741.1	0.000000	0.000000	7.072440	91.9482	NaN	0.000000	0.001694	0.001728	28.0813	41.0153	0.001858	22074.6	5.327597	178.368	92.7073	1.068076	0.039145	0.038712	91.9482	22074.6	0.036021	0.054151	1698	86668.7
428	2.000000	1.078433	7.36925e+06	-55689.1	1005.82	-29741.1	0.000000	0.000000	7.084163	135.718	NaN	0.000000	0.001696	0.001752	28.0814	49.4161	0.001747	28293	1.678530	179.913	134.008	1.078109	0.049068	0.048745	135.718	28293	0.045471	0.078930	1719.48	92009.6
428	2.000000	1.088528	7.36925e+06	-55689.1	1005.82	-29741.1	0.000000	0.000000	7.096299	185.308	NaN	0.000000	0.001713	0.001678	28.0802	60.2662	0.001769	34059.7	4.455591	175.184	190.025	1.088189	0.059164	0.058825	185.308	34059.7	0.055084	0.108772	1703.64	94353.1
428	2.000000	1.098365	7.36925e+06	-55689.1	1005.82	-29741.1	0.000000	0.000000	7.108784	249.671	NaN	0.000000	0.001675	0.001726	28.0801	69.6208	0.001782	39073.1	2.946309	174.871	245.704	1.098179	0.069001	0.068815	249.671	39073.1	0.064209	0.141331	1766.57	94958.1
428	2.000000	1.108484	7.36925e+06	-55689.1	1005.82	-29741.1	0.000000	0.000000	7.121538	313.717	NaN	0.000000	0.001722	0.001766	28.0802	79.5929	0.001744	45639.4	4.213874	172.655	316.445	1.108174	0.079120	0.078810	313.717	45639.4	0.073965	0.180590	1737.19	98122.1
428	2.000000	1.118384	7.36925e+06	-55689.1	1005.82	-29741.1	0.000000	0.000000	7.134889	397.624	NaN	0.000000	0.001716	0.001736	28.0814	88.9519	0.001725	51555.1	4.654788	171.393	393.259	1.118062	0.089020	0.088697	397.624	51555.1	0.083235	0.222056	1790.65	99957.2
428	2.000000	1.128409	7.36925e+06	-55689.1	1005.82	-29741.1	0.000000	0.000000	7.148754	490.965	NaN	0.000000	0.001731	0.001762	28.0815	100.195	0.001722	58179.9	6.764146	168.408	487.146	1.128029	0.099044	0.098665	490.965	58179.9	0.092715	0.268577	1828.02	102568
428	2.000000	1.135344	7.36925e+06	-55689.1	1005.82	-29741.1	0.000000	0.000000	7.158405	556.979	NaN	0.000000	0.001726	0.001748	28.0814	106.346	0.001791	59381.1	9.107472	166.74	552.422	1.134964	0.105980	0.105599	556.979	59381.1	0.098945	0.301389	1848.04	98823