File: remote_trans/data/nanoindenter/0828-1/data/Data_2025-08-06,11h17m57s/2025-07-22_16-23-58_1_1197.txt
2025-07-22, 16:23:58, 1
Index	Phase	Displacement	Time	Pos X	Pos Y	Pos Z	Rot A	Rot B	Piezo Z	Force A	Force B	Gripper	Voltage A	Voltage B	Temperature	Amplitude force	Amplitude pos	Stiffness	Phase shift	Phase excitation	Force A raw	Displacement raw	HMax	HMax raw	Real Force	Real Stiffness	Contact Depth	Area	Hardness	Reduced Mod.
[#]	[#]	[um]	[s]	[um]	[um]	[um]	[m°]	[m°]	[um]	[uN]	[uN]	[V]	[V]	[V]	[°C]	[uN]	[um]	[N/m]	[°]	[°]	[uN]	[um]	[um]	[um]	[uN]	[N/m]	[um]	[um^2]	[MPa]	[MPa]
1197	1.000000	0.002801	7.37675e+06	-55739.1	1105.82	-29740.7	0.000000	0.000000	6.002762	0.060711	NaN	0.000000	0.001561	0.001629	28.0814	0.055914	0.000911	61.3848	147.978	-167.25	0.026956	0.001615	-0.360943	-0.362129	0.060711	61.3848	-0.361685	-37686.7	-1.610927E-6	NaN
1197	1.000000	0.026815	7.37675e+06	-55739.1	1105.82	-29740.7	0.000000	0.000000	6.026775	0.031290	NaN	0.000000	0.001618	0.001619	28.0817	0.020428	0.001841	11.0986	-151.788	-165.755	0.002972	0.025501	-0.336929	-0.338244	0.031290	11.0986	-0.339043	-17684.9	-1.769290E-6	NaN
1197	1.000000	0.050779	7.37675e+06	-55739.1	1105.82	-29740.7	0.000000	0.000000	6.050737	0.011838	NaN	0.000000	0.001612	0.001640	28.0813	0.091026	0.001972	46.1486	135.831	-168.194	-0.127447	0.049459	-0.312965	-0.314285	0.011838	46.1486	-0.313157	-7374.65	-1.605226E-6	NaN
1197	1.000000	0.074827	7.37675e+06	-55739.1	1105.82	-29740.7	0.000000	0.000000	6.074784	-0.008057	NaN	0.000000	0.001596	0.001606	28.0813	0.063131	0.002087	30.2481	-65.5746	-168.266	0.032704	0.073511	-0.288917	-0.290233	-0.008057	30.2481	-0.288717	-3192.12	2.524110E-6	NaN
1197	1.000000	0.098831	7.37675e+06	-55739.1	1105.82	-29740.7	0.000000	0.000000	6.098789	0.000582	NaN	0.000000	0.001591	0.001610	28.0814	0.112426	0.001964	57.2472	-106.43	-166.44	0.057611	0.097562	-0.264913	-0.266182	0.000582	57.2472	-0.264921	-1393.74	-4.173090E-7	NaN
1197	1.000000	0.122837	7.37675e+06	-55739.1	1105.82	-29740.7	0.000000	0.000000	6.122795	0.006514	NaN	0.000000	0.001548	0.001559	28.0812	0.072961	0.002056	35.4949	-108.666	-165.198	0.108032	0.121525	-0.240907	-0.242219	0.006514	35.4949	-0.241044	-596.839	-1.091399E-5	NaN
1197	1.000000	0.146839	7.37675e+06	-55739.1	1105.82	-29740.7	0.000000	0.000000	6.146796	-0.019298	NaN	0.000000	0.001564	0.001639	28.0825	0.137554	0.002033	67.6612	-176.057	-164.767	-0.008296	0.145497	-0.216905	-0.218247	-0.019298	67.6612	-0.216691	-245.858	7.849200E-5	NaN
1197	1.000000	0.170839	7.37675e+06	-55739.1	1105.82	-29740.7	0.000000	0.000000	6.170798	0.028244	NaN	0.000000	0.001616	0.001643	28.0826	0.047237	0.002236	21.1291	142.024	-165.28	0.014556	0.169515	-0.192905	-0.194230	0.028244	21.1291	-0.193907	-104.493	-0.000270	NaN
1197	1.000000	0.194880	7.37675e+06	-55739.1	1105.82	-29740.7	0.000000	0.000000	6.194838	-0.010436	NaN	0.000000	0.001588	0.001666	28.0826	0.025245	0.002083	12.118	43.3334	-166.61	-0.060171	0.193547	-0.168864	-0.170197	-0.010436	12.118	-0.168218	-38.248	0.000273	NaN
1197	1.000000	0.218861	7.37675e+06	-55739.1	1105.82	-29740.7	0.000000	0.000000	6.218818	-0.005272	NaN	0.000000	0.001626	0.001650	28.0825	0.115382	0.001916	60.2268	64.779	-165.221	0.014304	0.217545	-0.144883	-0.146199	-0.005272	60.2268	-0.144818	-14.5478	0.000362	NaN
1197	1.000000	0.242888	7.37675e+06	-55739.1	1105.82	-29740.7	0.000000	0.000000	6.242847	0.016104	NaN	0.000000	0.001645	0.001667	28.0823	0.079256	0.002008	39.4628	28.7159	-167.233	0.011371	0.241577	-0.120856	-0.122167	0.016104	39.4628	-0.121162	-5.098933	-0.003158	NaN
1197	1.000000	0.266851	7.37675e+06	-55739.1	1105.82	-29740.7	0.000000	0.000000	6.266808	-0.021903	NaN	0.000000	0.001676	0.001640	28.0824	0.066318	0.001891	35.0677	-74.3022	-167.243	0.010061	0.265567	-0.096893	-0.098177	-0.021903	35.0677	-0.096424	-1.519645	0.014413	NaN
1197	1.000000	0.290885	7.37675e+06	-55739.1	1105.82	-29740.7	0.000000	0.000000	6.290841	-0.043979	NaN	0.000000	0.001627	0.001669	28.081	0.050817	0.001936	26.2422	-162.581	-166.753	-0.048984	0.289606	-0.072860	-0.074138	-0.043979	26.2422	-0.071603	-0.376342	0.116859	NaN
1197	1.000000	0.314870	7.37675e+06	-55739.1	1105.82	-29740.6	0.000000	0.000000	6.314828	0.014485	NaN	0.000000	0.001639	0.001628	28.0809	0.039282	0.002031	19.3439	52.9011	-165.164	-0.000521	0.313609	-0.048874	-0.050135	0.014485	19.3439	-0.049436	-0.087733	-0.165102	NaN
1197	1.000000	0.338905	7.37675e+06	-55739.1	1105.82	-29740.6	0.000000	0.000000	6.338864	0.016257	NaN	0.000000	0.001564	0.001633	28.0812	0.061242	0.001893	32.3443	57.6227	-166.62	0.040815	0.337591	-0.024839	-0.026153	0.016257	32.3443	-0.025216	-0.017091	-0.951211	NaN
1197	1.000000	0.362920	7.37675e+06	-55739.1	1105.82	-29740.6	0.000000	0.000000	6.362987	2.664679	NaN	0.000000	0.001550	0.001646	28.0811	0.488303	0.002034	240.052	5.696291	-167.348	2.586511	0.361616	-0.000825	-0.002128	2.664679	240.052	-0.009150	-0.005899	-451.686	NaN
1197	1.000000	0.386958	7.37675e+06	-55739.1	1105.82	-29740.7	0.000000	0.000000	6.387114	4.812776	NaN	0.000000	0.001551	0.001689	28.081	0.836000	0.002142	390.34	12.8313	-166.655	4.807447	0.385605	0.023214	0.021860	4.812776	390.34	0.013966	0.013932	345.455	3021.44
1197	1.000000	0.410934	7.37675e+06	-55739.1	1105.82	-29740.7	0.000000	0.000000	6.411145	6.161366	NaN	0.000000	0.001519	0.001669	28.0837	0.781780	0.002108	370.84	19.3566	-165.328	6.077032	0.409663	0.047190	0.045919	6.161366	370.84	0.034729	0.051117	120.536	1498.58
1197	1.000000	0.434968	7.37675e+06	-55739.1	1105.82	-29740.6	0.000000	0.000000	6.435241	7.662740	NaN	0.000000	0.001549	0.001637	28.0821	1.092239	0.002036	536.551	4.561217	-164.643	7.518365	0.433675	0.071224	0.069931	7.662740	536.551	0.060512	0.127652	60.0282	1372.05
1197	2.000000	0.454575	7.37675e+06	-55739.1	1105.82	-29740.6	0.000000	0.000000	6.454902	8.983937	NaN	0.000000	0.001557	0.001642	28.0821	1.325773	0.001971	672.654	8.077428	-164.089	9.159349	0.454227	0.090831	0.090483	8.983937	672.654	0.080814	0.210837	42.6107	1338.42
1197	2.000000	0.460499	7.37675e+06	-55739.1	1105.82	-29740.6	0.000000	0.000000	6.460835	9.198824	NaN	0.000000	0.001569	0.001657	28.0826	1.362407	0.001889	721.169	12.0214	-168.664	9.141898	0.460202	0.096755	0.096458	9.198824	721.169	0.087188	0.240951	38.1771	1342.29
1197	2.000000	0.466482	7.37675e+06	-55739.1	1105.82	-29740.7	0.000000	0.000000	6.466854	10.0674	NaN	0.000000	0.001554	0.001680	28.0824	1.498229	0.001790	837.052	7.183018	-166.373	10.0191	0.466137	0.102738	0.102393	10.0674	837.052	0.093718	0.273736	36.7775	1461.7
1197	2.000000	0.472450	7.37675e+06	-55739.1	1105.82	-29740.6	0.000000	0.000000	6.472849	10.7157	NaN	0.000000	0.001575	0.001650	28.0826	1.642144	0.001823	900.741	8.738768	-169.068	10.6425	0.472140	0.108706	0.108396	10.7157	900.741	0.099783	0.305938	35.0257	1487.84
1197	2.000000	0.478454	7.37675e+06	-55739.1	1105.82	-29740.6	0.000000	0.000000	6.478883	11.4642	NaN	0.000000	0.001595	0.001663	28.0812	1.725858	0.001869	923.339	7.954986	-169.939	11.4408	0.478114	0.114710	0.114370	11.4642	923.339	0.105398	0.337235	33.9948	1452.67
1197	2.000000	0.484437	7.37675e+06	-55739.1	1105.82	-29740.7	0.000000	0.000000	6.484910	12.5301	NaN	0.000000	0.001626	0.001660	28.0812	1.716383	0.001810	948.246	6.426386	-164.862	12.4385	0.484123	0.120693	0.120379	12.5301	948.246	0.110782	0.368595	33.9942	1426.98
1197	2.000000	0.490429	7.37675e+06	-55739.1	1105.82	-29740.6	0.000000	0.000000	6.490944	13.5474	NaN	0.000000	0.001594	0.001682	28.0812	2.039775	0.002127	959.182	9.633723	-167.317	13.5232	0.490160	0.126685	0.126416	13.5474	959.182	0.116092	0.400803	33.8006	1384.23
1197	2.000000	0.496450	7.37675e+06	-55739.1	1105.82	-29740.6	0.000000	0.000000	6.497005	14.5093	NaN	0.000000	0.001587	0.001655	28.0814	2.052493	0.001987	1033.13	10.6769	-166.86	14.4488	0.496117	0.132706	0.132373	14.5093	1033.13	0.122173	0.439268	33.0306	1424.18
1197	2.000000	0.502430	7.37675e+06	-55739.1	1105.82	-29740.6	0.000000	0.000000	6.503025	15.4842	NaN	0.000000	0.001593	0.001656	28.081	2.051394	0.001979	1036.74	7.910246	-165.838	15.446	0.502120	0.138686	0.138375	15.4842	1036.74	0.127484	0.474235	32.6509	1375.45
1197	2.000000	0.508412	7.37675e+06	-55739.1	1105.82	-29740.6	0.000000	0.000000	6.509032	16.0939	NaN	0.000000	0.001599	0.001671	28.081	2.129273	0.001969	1081.64	5.077080	-165.058	16.0132	0.508119	0.144668	0.144375	16.0939	1081.64	0.133509	0.515457	31.2226	1376.45
1197	2.000000	0.514407	7.37675e+06	-55739.1	1105.82	-29740.6	0.000000	0.000000	6.515068	17.0962	NaN	0.000000	0.001599	0.001683	28.0823	2.218077	0.002093	1059.97	7.769640	-166.643	17.0046	0.514083	0.150663	0.150339	17.0962	1059.97	0.138566	0.551343	31.0082	1304.23
1197	2.000000	0.520432	7.37675e+06	-55739.1	1105.82	-29740.7	0.000000	0.000000	6.521118	17.6832	NaN	0.000000	0.001653	0.001653	28.0823	2.244537	0.001987	1129.37	8.481426	-166.025	17.811	0.520022	0.156688	0.156277	17.6832	1129.37	0.144945	0.598290	29.5562	1333.99
1197	2.000000	0.526406	7.37676e+06	-55739.1	1105.82	-29740.6	0.000000	0.000000	6.527113	18.1964	NaN	0.000000	0.001642	0.001681	28.0822	2.319886	0.001985	1168.74	10.9315	-167.766	18.2956	0.526106	0.162662	0.162362	18.1964	1168.74	0.150985	0.644481	28.2342	1330.11
1197	2.000000	0.532364	7.37676e+06	-55739.1	1105.82	-29740.7	0.000000	0.000000	6.533102	18.9645	NaN	0.000000	0.001602	0.001665	28.0826	2.356025	0.002047	1150.69	9.173884	-166.856	18.972	0.532122	0.168620	0.168377	18.9645	1150.69	0.156259	0.686206	27.6368	1269.12
1197	2.000000	0.538382	7.37676e+06	-55739.1	1105.82	-29740.7	0.000000	0.000000	6.539146	19.5953	NaN	0.000000	0.001584	0.001688	28.0824	2.543983	0.001957	1300.23	6.728417	-167.42	19.6197	0.538038	0.174638	0.174293	19.5953	1300.23	0.163335	0.744233	26.3295	1377.01
1197	2.000000	0.544386	7.37676e+06	-55739.1	1105.82	-29740.7	0.000000	0.000000	6.545170	20.0789	NaN	0.000000	0.001589	0.001674	28.0822	2.682396	0.002171	1235.84	9.667105	-166.552	20.2044	0.544067	0.180642	0.180323	20.0789	1235.84	0.168456	0.787710	25.4902	1272.19
1197	2.000000	0.550359	7.37676e+06	-55739.1	1105.82	-29740.6	0.000000	0.000000	6.551166	20.6323	NaN	0.000000	0.001596	0.001669	28.0813	2.682296	0.001977	1356.86	8.046732	-164.968	20.5513	0.550084	0.186615	0.186339	20.6323	1356.86	0.175211	0.846960	24.3604	1347.02
1197	2.000000	0.551387	7.37676e+06	-55739.1	1105.82	-29740.7	0.000000	0.000000	6.552199	20.7698	NaN	0.000000	0.001573	0.001648	28.0814	2.611264	0.002032	1285.07	7.819475	-165.052	20.7723	0.551084	0.187643	0.187340	20.7698	1285.07	0.175521	0.849735	24.4427	1273.67