File: remote_trans/data/nanoindenter/0828-1/data/Data_2025-08-06,11h17m57s/2025-07-22_16-23-58_1_319.txt
2025-07-22, 16:23:58, 1
Index	Phase	Displacement	Time	Pos X	Pos Y	Pos Z	Rot A	Rot B	Piezo Z	Force A	Force B	Gripper	Voltage A	Voltage B	Temperature	Amplitude force	Amplitude pos	Stiffness	Phase shift	Phase excitation	Force A raw	Displacement raw	HMax	HMax raw	Real Force	Real Stiffness	Contact Depth	Area	Hardness	Reduced Mod.
[#]	[#]	[um]	[s]	[um]	[um]	[um]	[m°]	[m°]	[um]	[uN]	[uN]	[V]	[V]	[V]	[°C]	[uN]	[um]	[N/m]	[°]	[°]	[uN]	[um]	[um]	[um]	[uN]	[N/m]	[um]	[um^2]	[MPa]	[MPa]
319	1.000000	0.002360	7.36819e+06	-54589.1	955.818	-29743.4	0.000000	0.000000	6.002841	-0.035254	NaN	0.000000	0.001716	0.001714	28.0802	0.036029	0.000987	36.4933	122.493	-167.161	-0.041051	0.001073	-1.172580	-1.173867	-0.035254	36.4933	-1.171856	-4.610540E+15	7.646440E-18	NaN
319	1.000000	0.046266	7.36819e+06	-54589.1	955.818	-29743.4	0.000000	0.000000	6.046747	-0.044309	NaN	0.000000	0.001624	0.001690	28.0787	0.041233	0.001945	21.2045	37.3534	-165.682	-0.025033	0.044976	-1.128674	-1.129964	-0.044309	21.2045	-1.127107	-1.158281E+15	3.825437E-17	NaN
319	1.000000	0.090264	7.36819e+06	-54589.1	955.818	-29743.4	0.000000	0.000000	6.090749	0.071010	NaN	0.000000	0.001594	0.001707	28.0789	0.041592	0.001948	21.3471	-59.4452	-167.238	-0.005520	0.088967	-1.084676	-1.085974	0.071010	21.3471	-1.087171	-3.371528E+14	-2.106160E-16	NaN
319	1.000000	0.134323	7.36819e+06	-54589.1	955.819	-29743.4	0.000000	0.000000	6.134806	0.013106	NaN	0.000000	0.001620	0.001694	28.0788	0.135823	0.001874	72.4815	-117.429	-167.472	-0.027933	0.132960	-1.040617	-1.041981	0.013106	72.4815	-1.040753	-8.018395E+13	-1.634444E-16	NaN
319	1.000000	0.178296	7.36819e+06	-54589.1	955.818	-29743.4	0.000000	0.000000	6.178776	-0.045512	NaN	0.000000	0.001624	0.001723	28.0803	0.042508	0.002003	21.2217	-5.377962	-163.663	0.075422	0.177018	-0.996644	-0.997922	-0.045512	21.2217	-0.995036	-1.945037E+13	2.339922E-15	NaN
319	1.000000	0.222360	7.36819e+06	-54589.1	955.818	-29743.4	0.000000	0.000000	6.222841	-0.011281	NaN	0.000000	0.001576	0.001728	28.0798	0.059771	0.002155	27.735	21.7164	-167.086	-0.009186	0.221041	-0.952581	-0.953899	-0.011281	27.735	-0.952276	-5.160808E+12	2.185974E-15	NaN
319	1.000000	0.266364	7.36819e+06	-54589.1	955.819	-29743.4	0.000000	0.000000	6.266847	0.027567	NaN	0.000000	0.001611	0.001732	28.0797	0.095683	0.001887	50.7101	104.829	-166.187	0.027829	0.265010	-0.908577	-0.909930	0.027567	50.7101	-0.908984	-1.344138E+12	-2.050906E-14	NaN
319	1.000000	0.310371	7.36819e+06	-54589.1	955.818	-29743.4	0.000000	0.000000	6.310852	-0.030792	NaN	0.000000	0.001589	0.001672	28.0796	0.061543	0.001895	32.4703	117.119	-165.394	0.003829	0.309024	-0.864569	-0.865916	-0.030792	32.4703	-0.863858	-3.298627E+11	9.334759E-14	NaN
319	1.000000	0.354405	7.36819e+06	-54589.1	955.819	-29743.4	0.000000	0.000000	6.354885	-0.055850	NaN	0.000000	0.001629	0.001684	28.0786	0.032246	0.001970	16.3724	95.3484	-166.606	-0.032838	0.353094	-0.820536	-0.821847	-0.055850	16.3724	-0.817977	-7.884573E+10	7.083503E-13	NaN
319	1.000000	0.398398	7.36819e+06	-54589.1	955.819	-29743.4	0.000000	0.000000	6.398877	-0.061424	NaN	0.000000	0.001602	0.001718	28.0787	0.032726	0.001911	17.1255	70.7079	-166.27	-0.014709	0.397068	-0.776543	-0.777872	-0.061424	17.1255	-0.773853	-1.984648E+10	3.094951E-12	NaN
319	1.000000	0.442424	7.36819e+06	-54589.1	955.819	-29743.4	0.000000	0.000000	6.442905	-0.042169	NaN	0.000000	0.001608	0.001700	28.0788	0.069356	0.002021	34.3261	113.603	-166.665	-0.062075	0.441108	-0.732516	-0.733832	-0.042169	34.3261	-0.731595	-5.278863E+9	7.988222E-12	NaN
319	1.000000	0.486442	7.36819e+06	-54589.1	955.818	-29743.4	0.000000	0.000000	6.486925	0.022897	NaN	0.000000	0.001619	0.001700	28.0799	0.096011	0.002033	47.2174	-123.526	-165.838	0.041168	0.485105	-0.688498	-0.689835	0.022897	47.2174	-0.688862	-1.378369E+9	-1.661164E-11	NaN
319	1.000000	0.530469	7.36819e+06	-54589.1	955.819	-29743.4	0.000000	0.000000	6.530949	-0.049352	NaN	0.000000	0.001596	0.001693	28.0799	0.109989	0.002074	53.0398	-15.1198	-162.252	0.000705	0.529157	-0.644471	-0.645784	-0.049352	53.0398	-0.643773	-3.326998E+8	1.483392E-10	NaN
319	1.000000	0.574479	7.36819e+06	-54589.1	955.818	-29743.4	0.000000	0.000000	6.574961	0.013291	NaN	0.000000	0.001600	0.001667	28.0801	0.116776	0.002026	57.6252	28.9997	-167.81	-0.082440	0.573183	-0.600461	-0.601757	0.013291	57.6252	-0.600634	-8.495682E+7	-1.564438E-10	NaN
319	1.000000	0.618525	7.36819e+06	-54589.1	955.82	-29743.4	0.000000	0.000000	6.619006	-0.029894	NaN	0.000000	0.001576	0.001681	28.0788	0.086719	0.001988	43.6173	32.5463	-166.893	-0.001959	0.617200	-0.556415	-0.557740	-0.029894	43.6173	-0.555901	-2.049552E+7	1.458551E-9	NaN
319	1.000000	0.662565	7.36819e+06	-54589.1	955.819	-29743.4	0.000000	0.000000	6.663045	-0.034300	NaN	0.000000	0.001567	0.001679	28.0785	0.075678	0.002024	37.3896	126.936	-167.618	-0.050616	0.661250	-0.512376	-0.513690	-0.034300	37.3896	-0.511688	-4.98794e+06	6.876584E-9	NaN
319	1.000000	0.706519	7.36819e+06	-54589.1	955.819	-29743.4	0.000000	0.000000	6.707000	-0.028086	NaN	0.000000	0.001614	0.001670	28.0787	0.091056	0.002013	45.244	-179.769	-162.144	-0.112257	0.705257	-0.468421	-0.469683	-0.028086	45.244	-0.467956	-1.22105e+06	2.300183E-8	NaN
319	1.000000	0.750576	7.36819e+06	-54589.1	955.818	-29743.4	0.000000	0.000000	6.751055	-0.072181	NaN	0.000000	0.001676	0.001675	28.0802	0.085729	0.002035	42.1302	112.508	-170.714	-0.126812	0.749273	-0.424365	-0.425667	-0.072181	42.1302	-0.423080	-284496	2.537165E-7	NaN
319	1.000000	0.794563	7.36819e+06	-54589.1	955.819	-29743.4	0.000000	0.000000	6.795044	-0.033365	NaN	0.000000	0.001635	0.001640	28.0803	0.054397	0.002078	26.183	104.961	-166.423	0.018928	0.793303	-0.380377	-0.381637	-0.033365	26.183	-0.379422	-67855.8	4.917005E-7	NaN
319	1.000000	0.838591	7.36819e+06	-54589.1	955.819	-29743.4	0.000000	0.000000	6.839072	-0.024582	NaN	0.000000	0.001561	0.001685	28.0804	0.030790	0.002166	14.218	179.231	-164.517	-0.007342	0.837289	-0.336349	-0.337652	-0.024582	14.218	-0.335052	-15465.1	1.589541E-6	NaN
319	1.000000	0.882648	7.36819e+06	-54589.1	955.819	-29743.4	0.000000	0.000000	6.883128	-0.035980	NaN	0.000000	0.001636	0.001696	28.0788	0.136380	0.002061	66.1681	58.5538	-162.811	-0.072206	0.881294	-0.292293	-0.293647	-0.035980	66.1681	-0.291885	-3560.58	1.010501E-5	NaN
319	1.000000	0.926641	7.36819e+06	-54589.1	955.818	-29743.4	0.000000	0.000000	6.927120	-0.056511	NaN	0.000000	0.001627	0.001672	28.0789	0.076341	0.002112	36.1424	-49.9384	-165.228	0.006739	0.925298	-0.248300	-0.249643	-0.056511	36.1424	-0.247127	-742.124	7.614740E-5	NaN
319	1.000000	0.970662	7.36819e+06	-54589.1	955.82	-29743.4	0.000000	0.000000	6.971143	-0.028289	NaN	0.000000	0.001641	0.001662	28.0788	0.072868	0.002081	35.0209	160.988	-168.581	-0.031934	0.969374	-0.204278	-0.205567	-0.028289	35.0209	-0.203673	-151.317	0.000187	NaN
319	1.000000	1.014670	7.36819e+06	-54589.1	955.818	-29743.4	0.000000	0.000000	7.015149	-0.060548	NaN	0.000000	0.001613	0.001733	28.0806	0.105107	0.002069	50.7958	-177.862	-164.035	-0.049015	1.013404	-0.160271	-0.161536	-0.060548	50.7958	-0.159377	-26.724	0.002266	NaN
319	1.000000	1.058696	7.36819e+06	-54589.1	955.819	-29743.4	0.000000	0.000000	7.059177	-0.022994	NaN	0.000000	0.001659	0.001686	28.0804	0.071279	0.002077	34.3148	43.7136	-169.656	-0.121923	1.057414	-0.116244	-0.117526	-0.022994	34.3148	-0.115742	-3.957027	0.005811	NaN
319	1.000000	1.102700	7.36819e+06	-54589.1	955.819	-29743.4	0.000000	0.000000	7.103182	0.003162	NaN	0.000000	0.001649	0.001655	28.0803	0.047695	0.001941	24.5768	115.234	-165.973	-0.022122	1.101363	-0.072241	-0.073577	0.003162	24.5768	-0.072337	-0.393540	-0.008035	NaN
319	1.000000	1.146694	7.36819e+06	-54589.1	955.82	-29743.4	0.000000	0.000000	7.147174	-0.050004	NaN	0.000000	0.001628	0.001666	28.0792	0.081846	0.001890	43.3127	-61.2126	-164.531	-0.065304	1.145426	-0.028247	-0.029514	-0.050004	43.3127	-0.027381	-0.019509	2.563115	NaN
319	2.000000	1.184350	7.36819e+06	-54589.1	955.82	-29743.4	0.000000	0.000000	7.185280	10.891	NaN	0.000000	0.001629	0.001658	28.0789	9.935964	0.001725	5759.6	6.000991	-168.19	11.0812	1.183960	0.009410	0.009020	10.891	5759.6	0.007992	0.007034	1548.41	62744.5
319	2.000000	1.195240	7.36819e+06	-54589.1	955.82	-29743.4	0.000000	0.000000	7.196900	28.6165	NaN	0.000000	0.001606	0.001673	28.0796	20.396	0.001774	11496	8.854333	-179.874	28.5759	1.194895	0.020300	0.019954	28.6165	11496	0.018433	0.020140	1420.91	74010.6
319	2.000000	1.206205	7.36819e+06	-54589.1	955.819	-29743.4	0.000000	0.000000	7.209073	57.9986	NaN	0.000000	0.001697	0.001668	28.0801	30.5299	0.001702	17938.9	6.695830	178.158	56.2938	1.205879	0.031265	0.030938	57.9986	17938.9	0.028840	0.038373	1511.44	83666.9
319	2.000000	1.217257	7.36819e+06	-54589.1	955.82	-29743.4	0.000000	0.000000	7.221247	85.29	NaN	0.000000	0.001644	0.001684	28.0801	41.5674	0.001883	22071.3	7.159384	177.987	87.2539	1.216925	0.042317	0.041984	85.29	22071.3	0.039418	0.062534	1363.9	80638.7
319	2.000000	1.228154	7.36819e+06	-54589.1	955.82	-29743.4	0.000000	0.000000	7.233498	118.192	NaN	0.000000	0.001633	0.001676	28.08	50.9342	0.001764	28871.2	6.884938	173.317	114.675	1.228001	0.053213	0.053060	118.192	28871.2	0.050143	0.092856	1272.85	86563
319	2.000000	1.239140	7.36819e+06	-54589.1	955.82	-29743.4	0.000000	0.000000	7.246772	173.835	NaN	0.000000	0.001606	0.001635	28.0793	57.4038	0.001680	34169	-1.465744	-178.751	171.583	1.238860	0.064199	0.063920	173.835	34169	0.060384	0.127187	1366.76	87535.3
319	2.000000	1.250202	7.36819e+06	-54589.1	955.82	-29743.4	0.000000	0.000000	7.260275	233.162	NaN	0.000000	0.001663	0.001655	28.0788	73.0045	0.001756	41582.5	7.724464	170.482	234.465	1.249882	0.075262	0.074942	233.162	41582.5	0.071056	0.168412	1384.48	92575.8
319	2.000000	1.261197	7.36819e+06	-54589.1	955.821	-29743.4	0.000000	0.000000	7.274388	308.942	NaN	0.000000	0.001708	0.001654	28.0786	82.5027	0.001811	45549.1	4.937900	173.372	310.771	1.260726	0.086257	0.085786	308.942	45549.1	0.081170	0.212471	1454.05	90282.5
319	2.000000	1.272156	7.36819e+06	-54589.1	955.82	-29743.4	0.000000	0.000000	7.288287	380.419	NaN	0.000000	0.001704	0.001660	28.0798	93.1392	0.001778	52394.2	3.937180	172.703	380.031	1.271883	0.097216	0.096942	380.419	52394.2	0.091770	0.263753	1442.33	93209
319	2.000000	1.280624	7.36819e+06	-54589.1	955.82	-29743.4	0.000000	0.000000	7.299162	438.938	NaN	0.000000	0.001686	0.001691	28.0802	102.194	0.001713	59644.7	2.928994	-7.235614	435.605	1.280414	0.105684	0.105473	438.938	59644.7	0.100164	0.308017	1425.05	98187.8