File: remote_trans/data/nanoindenter/0828-1/data/Data_2025-08-06,11h17m57s/2025-07-22_16-23-58_1_661.txt
2025-07-22, 16:23:58, 1
Index	Phase	Displacement	Time	Pos X	Pos Y	Pos Z	Rot A	Rot B	Piezo Z	Force A	Force B	Gripper	Voltage A	Voltage B	Temperature	Amplitude force	Amplitude pos	Stiffness	Phase shift	Phase excitation	Force A raw	Displacement raw	HMax	HMax raw	Real Force	Real Stiffness	Contact Depth	Area	Hardness	Reduced Mod.
[#]	[#]	[um]	[s]	[um]	[um]	[um]	[m°]	[m°]	[um]	[uN]	[uN]	[V]	[V]	[V]	[°C]	[uN]	[um]	[N/m]	[°]	[°]	[uN]	[um]	[um]	[um]	[uN]	[N/m]	[um]	[um^2]	[MPa]	[MPa]
661	1.000000	0.002240	7.37152e+06	-44039.1	1005.82	-29776.9	0.000000	0.000000	6.002792	0.063031	NaN	0.000000	0.001623	0.001725	28.0837	0.062613	0.000830	75.4176	119.367	-166.474	0.018609	0.001005	-1.172449	-1.173685	0.063031	75.4176	-1.173076	-4.787405E+15	-1.316594E-17	NaN
661	1.000000	0.046218	7.37152e+06	-44039.1	1005.82	-29776.9	0.000000	0.000000	6.046770	0.072216	NaN	0.000000	0.001629	0.001679	28.0836	0.044180	0.002037	21.6932	77.701	-166.415	0.015606	0.044851	-1.128471	-1.129838	0.072216	21.6932	-1.130968	-1.304977E+15	-5.533916E-17	NaN
661	1.000000	0.090203	7.37152e+06	-44039.1	1005.82	-29776.9	0.000000	0.000000	6.090754	0.058863	NaN	0.000000	0.001693	0.001738	28.0838	0.112767	0.002011	56.0822	173.044	-166.979	0.064384	0.088893	-1.084487	-1.085796	0.058863	56.0822	-1.085274	-3.179415E+14	-1.851392E-16	NaN
661	1.000000	0.134208	7.37152e+06	-44039.1	1005.82	-29776.9	0.000000	0.000000	6.134758	0.036714	NaN	0.000000	0.001660	0.001709	28.0847	0.089405	0.002084	42.898	59.342	-166.483	-0.076782	0.132953	-1.040481	-1.041737	0.036714	42.898	-1.041123	-8.110973E+13	-4.526503E-16	NaN
661	1.000000	0.178237	7.37152e+06	-44039.1	1005.82	-29776.9	0.000000	0.000000	6.178787	0.032234	NaN	0.000000	0.001651	0.001699	28.0844	0.017684	0.002005	8.818904	-47.5047	-165.783	0.023877	0.176900	-0.996452	-0.997790	0.032234	8.818904	-0.999194	-2.212663E+13	-1.456811E-15	NaN
661	1.000000	0.222300	7.37152e+06	-44039.1	1005.82	-29776.9	0.000000	0.000000	6.222853	0.112180	NaN	0.000000	0.001641	0.001697	28.0845	0.055821	0.001982	28.1608	-49.1904	-167.554	0.108342	0.220935	-0.952390	-0.953754	0.112180	28.1608	-0.955377	-5.682555E+12	-1.974120E-14	NaN
661	1.000000	0.266303	7.37152e+06	-44039.1	1005.82	-29776.9	0.000000	0.000000	6.266855	0.077629	NaN	0.000000	0.001599	0.001666	28.0829	0.121316	0.001868	64.9561	17.1438	-167.809	0.053591	0.265011	-0.908386	-0.909679	0.077629	64.9561	-0.909283	-1.356673E+12	-5.722017E-14	NaN
661	1.000000	0.310298	7.37152e+06	-44039.1	1005.82	-29776.9	0.000000	0.000000	6.310848	0.021623	NaN	0.000000	0.001528	0.001666	28.0829	0.031469	0.001986	15.8441	85.1173	-169.314	0.028365	0.309033	-0.864391	-0.865656	0.021623	15.8441	-0.865415	-3.462575E+11	-6.244661E-14	NaN
661	1.000000	0.354319	7.37152e+06	-44039.1	1005.82	-29776.9	0.000000	0.000000	6.354866	-0.038348	NaN	0.000000	0.001534	0.001606	28.0831	0.107422	0.001965	54.6701	-177.15	-166.892	-0.048299	0.353028	-0.820370	-0.821661	-0.038348	54.6701	-0.819844	-8.357956E+10	4.588156E-13	NaN
661	1.000000	0.398339	7.37152e+06	-44039.1	1005.82	-29776.9	0.000000	0.000000	6.398890	0.038111	NaN	0.000000	0.001543	0.001684	28.0843	0.132936	0.002014	65.992	-160.093	-166.387	0.056459	0.397041	-0.776350	-0.777649	0.038111	65.992	-0.776783	-2.175277E+10	-1.751993E-12	NaN
661	1.000000	0.442331	7.37152e+06	-44039.1	1005.82	-29776.9	0.000000	0.000000	6.442880	5.790869E-5	NaN	0.000000	0.001526	0.001637	28.0845	0.048149	0.001890	25.473	118.71	-165.906	0.084963	0.440999	-0.732358	-0.733690	5.790869E-5	25.473	-0.732360	-5.407167E+9	-1.070962E-14	NaN
661	1.000000	0.486345	7.37152e+06	-44039.1	1005.82	-29776.9	0.000000	0.000000	6.486898	0.100340	NaN	0.000000	0.001583	0.001689	28.0843	0.057208	0.001850	30.9239	7.261416	-166.391	0.105934	0.485091	-0.688344	-0.689599	0.100340	30.9239	-0.690778	-1.464032E+9	-6.853694E-11	NaN
661	1.000000	0.530393	7.37152e+06	-44039.1	1005.82	-29776.9	0.000000	0.000000	6.530943	0.022473	NaN	0.000000	0.001610	0.001700	28.0841	0.052465	0.002028	25.8672	122.527	-166.014	-0.058880	0.529061	-0.644296	-0.645629	0.022473	25.8672	-0.644948	-3.452716E+8	-6.508890E-11	NaN
661	1.000000	0.574435	7.37152e+06	-44039.1	1005.82	-29776.9	0.000000	0.000000	6.574985	0.018024	NaN	0.000000	0.001671	0.001746	28.0829	0.043954	0.002087	21.0589	153.802	-167.759	0.042981	0.573097	-0.600254	-0.601592	0.018024	21.0589	-0.600896	-8.566462E+7	-2.104051E-10	NaN
661	1.000000	0.618450	7.37152e+06	-44039.1	1005.82	-29776.9	0.000000	0.000000	6.619002	0.059654	NaN	0.000000	0.001665	0.001718	28.0827	0.142278	0.002135	66.6384	-72.7108	-165.978	0.082858	0.617110	-0.556239	-0.557579	0.059654	66.6384	-0.556910	-2.116556E+7	-2.818446E-9	NaN
661	1.000000	0.662440	7.37152e+06	-44039.1	1005.82	-29776.9	0.000000	0.000000	6.662990	0.018606	NaN	0.000000	0.001661	0.001696	28.083	0.030545	0.002033	15.0263	170.362	-166.534	-0.011107	0.661148	-0.512249	-0.513542	0.018606	15.0263	-0.513178	-5.23201e+06	-3.556237E-9	NaN
661	1.000000	0.706456	7.37152e+06	-44039.1	1005.82	-29776.9	0.000000	0.000000	6.707007	0.057092	NaN	0.000000	0.001621	0.001686	28.0847	0.084578	0.001926	43.9064	-131.772	-170.047	0.040880	0.705140	-0.468234	-0.469550	0.057092	43.9064	-0.469209	-1.27148e+06	-4.490181E-8	NaN
661	1.000000	0.750471	7.37152e+06	-44039.1	1005.82	-29776.9	0.000000	0.000000	6.751019	-0.011403	NaN	0.000000	0.001539	0.001696	28.0844	0.121973	0.001939	62.9176	174.888	-169.241	0.042393	0.749199	-0.424219	-0.425490	-0.011403	62.9176	-0.424083	-293960	3.879071E-8	NaN
661	1.000000	0.794480	7.37152e+06	-44039.1	1005.82	-29776.9	0.000000	0.000000	6.795029	0.009344	NaN	0.000000	0.001578	0.001670	28.0844	0.019240	0.001907	10.0896	-124.137	-167.799	0.075017	0.793204	-0.380210	-0.381485	0.009344	10.0896	-0.380904	-71263	-1.311186E-7	NaN
661	1.000000	0.838505	7.37152e+06	-44039.1	1005.82	-29776.9	0.000000	0.000000	6.839055	0.011178	NaN	0.000000	0.001545	0.001667	28.0833	0.065775	0.002133	30.8361	80.2374	-166.544	0.051334	0.837249	-0.336184	-0.337440	0.011178	30.8361	-0.336456	-16212.6	-6.894649E-7	NaN
661	1.000000	0.882529	7.37152e+06	-44039.1	1005.82	-29776.9	0.000000	0.000000	6.883081	0.082136	NaN	0.000000	0.001557	0.001657	28.0834	0.074794	0.001974	37.8859	52.9264	-168.806	0.042458	0.881274	-0.292160	-0.293415	0.082136	37.8859	-0.293786	-3801.51	-2.160609E-5	NaN
661	1.000000	0.926578	7.37152e+06	-44039.1	1005.82	-29776.9	0.000000	0.000000	6.927129	0.045753	NaN	0.000000	0.001566	0.001660	28.0829	0.036795	0.001773	20.7492	-16.4479	-166.392	0.065333	0.925250	-0.248111	-0.249440	0.045753	20.7492	-0.249765	-815.329	-5.611615E-5	NaN
661	1.000000	0.970584	7.37152e+06	-44039.1	1005.82	-29776.9	0.000000	0.000000	6.971133	0.002622	NaN	0.000000	0.001636	0.001653	28.0843	0.127405	0.001969	64.7081	-64.0335	-163.893	-0.007746	0.969305	-0.204105	-0.205385	0.002622	64.7081	-0.204136	-153.976	-1.703147E-5	NaN
661	1.000000	1.014600	7.37152e+06	-44039.1	1005.82	-29777	0.000000	0.000000	7.015151	0.055869	NaN	0.000000	0.001580	0.001609	28.0846	0.048484	0.002001	24.2342	166.107	-163.936	0.070957	1.013277	-0.160089	-0.161412	0.055869	24.2342	-0.161818	-29.5273	-0.001892	NaN
661	1.000000	1.058616	7.37152e+06	-44039.1	1005.82	-29777	0.000000	0.000000	7.059164	-0.020126	NaN	0.000000	0.001573	0.001629	28.0844	0.060227	0.001940	31.0405	-160.238	-166.632	-0.071560	1.057258	-0.116074	-0.117432	-0.020126	31.0405	-0.115588	-3.928283	0.005123	NaN
661	1.000000	1.102608	7.37152e+06	-44039.1	1005.82	-29777	0.000000	0.000000	7.103177	0.504611	NaN	0.000000	0.001569	0.001633	28.0833	0.421676	0.001995	211.412	-1.158369	-167.93	0.456383	1.101338	-0.072082	-0.073352	0.504611	211.412	-0.073872	-0.431734	-1.168799	NaN
661	1.000000	1.146645	7.37152e+06	-44039.1	1005.82	-29777	0.000000	0.000000	7.147299	2.564139	NaN	0.000000	0.001561	0.001651	28.0829	0.937707	0.001964	477.412	19.5378	-169.433	2.511132	1.145319	-0.028044	-0.029371	2.564139	477.412	-0.032073	-0.026332	-97.3777	NaN
661	2.000000	1.181280	7.37152e+06	-44039.1	1005.82	-29777	0.000000	0.000000	7.182372	13.2312	NaN	0.000000	0.001621	0.001676	28.0831	10.7756	0.001647	6542.73	8.832535	-177.299	12.2418	1.180949	0.006590	0.006260	13.2312	6542.73	0.005074	0.004201	3149.82	92230.7
661	2.000000	1.192183	7.37152e+06	-44039.1	1005.82	-29777	0.000000	0.000000	7.194247	36.8738	NaN	0.000000	0.001561	0.001671	28.0843	22.7878	0.001718	13260.5	5.888973	-178.616	35.6284	1.191960	0.017493	0.017271	36.8738	13260.5	0.015408	0.015833	2328.89	96282.5
661	2.000000	1.203197	7.37152e+06	-44039.1	1005.82	-29777	0.000000	0.000000	7.206801	74.3344	NaN	0.000000	0.001585	0.001664	28.0845	33.856	0.001760	19234.1	6.542719	177.123	73.5268	1.202772	0.028507	0.028083	74.3344	19234.1	0.025609	0.032132	2313.37	98033.3
661	2.000000	1.214137	7.37152e+06	-44039.1	1005.82	-29777	0.000000	0.000000	7.219634	120.373	NaN	0.000000	0.001587	0.001632	28.0847	44.3811	0.001756	25275.8	4.029671	176.744	116.88	1.213864	0.039448	0.039174	120.373	25275.8	0.035876	0.053805	2237.2	99555.6
661	2.000000	1.225118	7.37152e+06	-44039.1	1005.82	-29777	0.000000	0.000000	7.232678	170.571	NaN	0.000000	0.001581	0.001687	28.0835	54.8361	0.001764	31094.5	7.934236	171.223	168.153	1.224805	0.050428	0.050116	170.571	31094.5	0.046314	0.081361	2096.47	99597.1
661	2.000000	1.236126	7.37152e+06	-44039.1	1005.82	-29777	0.000000	0.000000	7.246075	228.692	NaN	0.000000	0.001573	0.001668	28.0846	64.9598	0.001759	36925.2	5.970330	171.743	227.625	1.235811	0.061437	0.061122	228.692	36925.2	0.056792	0.114556	1996.33	99675.1
661	2.000000	1.247067	7.37152e+06	-44039.1	1005.82	-29777	0.000000	0.000000	7.260220	306.655	NaN	0.000000	0.001612	0.001646	28.0833	76.1067	0.001779	42769.4	7.675243	169.578	303.652	1.246701	0.072378	0.072011	306.655	42769.4	0.067000	0.152099	2016.15	100194
661	2.000000	1.258121	7.37152e+06	-44039.1	1005.82	-29777	0.000000	0.000000	7.273936	371.415	NaN	0.000000	0.001579	0.001663	28.0845	86.1104	0.001735	49619.5	2.032350	173.852	370.43	1.257690	0.083431	0.083000	371.415	49619.5	0.077817	0.197333	1882.17	102053
661	2.000000	1.269182	7.37152e+06	-44039.1	1005.82	-29777	0.000000	0.000000	7.288231	450.105	NaN	0.000000	0.001668	0.001706	28.0847	97.7222	0.001781	54858.8	4.522583	170.394	453.028	1.268883	0.094492	0.094194	450.105	54858.8	0.088339	0.246585	1825.35	100934
661	2.000000	1.276694	7.37152e+06	-44039.1	1005.82	-29777	0.000000	0.000000	7.298400	514.721	NaN	0.000000	0.001660	0.001729	28.0843	105.988	0.001853	57185.6	4.985075	-10.3528	515.959	1.276388	0.102005	0.101699	514.721	57185.6	0.095254	0.281734	1826.97	98432.9