File: remote_trans/data/nanoindenter/0828-1/data/Data_2025-08-06,11h17m57s/2025-07-22_16-23-58_1_339.txt
2025-07-22, 16:23:58, 1
Index	Phase	Displacement	Time	Pos X	Pos Y	Pos Z	Rot A	Rot B	Piezo Z	Force A	Force B	Gripper	Voltage A	Voltage B	Temperature	Amplitude force	Amplitude pos	Stiffness	Phase shift	Phase excitation	Force A raw	Displacement raw	HMax	HMax raw	Real Force	Real Stiffness	Contact Depth	Area	Hardness	Reduced Mod.
[#]	[#]	[um]	[s]	[um]	[um]	[um]	[m°]	[m°]	[um]	[uN]	[uN]	[V]	[V]	[V]	[°C]	[uN]	[um]	[N/m]	[°]	[°]	[uN]	[um]	[um]	[um]	[uN]	[N/m]	[um]	[um^2]	[MPa]	[MPa]
339	1.000000	0.002246	7.36838e+06	-55589.1	955.819	-29741.5	0.000000	0.000000	6.002806	-0.022947	NaN	0.000000	0.001542	0.001646	28.0794	0.023834	0.000981	24.2837	149.611	-164.207	-0.005302	0.000957	-1.090714	-1.092003	-0.022947	24.2837	-1.090005	-3.680250E+14	6.235044E-17	NaN
339	1.000000	0.044172	7.36838e+06	-55589.1	955.819	-29741.5	0.000000	0.000000	6.044733	0.017079	NaN	0.000000	0.001518	0.001709	28.079	0.059076	0.002002	29.5112	-150.989	13.9806	0.048035	0.042801	-1.048788	-1.050159	0.017079	29.5112	-1.049222	-1.042204E+14	-1.638777E-16	NaN
339	1.000000	0.086207	7.36838e+06	-55589.1	955.819	-29741.5	0.000000	0.000000	6.086768	0.012962	NaN	0.000000	0.001530	0.001704	28.0791	0.050037	0.002054	24.3574	-28.6938	-165.431	0.025601	0.084943	-1.006753	-1.008017	0.012962	24.3574	-1.007152	-2.831727E+13	-4.577389E-16	NaN
339	1.000000	0.128218	7.36838e+06	-55589.1	955.818	-29741.5	0.000000	0.000000	6.128777	-0.021428	NaN	0.000000	0.001487	0.001701	28.0802	0.080610	0.002029	39.7206	-3.689070	14.8979	-0.066132	0.126862	-0.964742	-0.966098	-0.021428	39.7206	-0.964338	-7.504903E+12	2.855197E-15	NaN
339	1.000000	0.170234	7.36838e+06	-55589.1	955.819	-29741.5	0.000000	0.000000	6.170793	-0.020361	NaN	0.000000	0.001484	0.001707	28.0804	0.080343	0.001998	40.2077	-135.357	-165.122	-0.049012	0.168913	-0.922726	-0.924047	-0.020361	40.2077	-0.922346	-2.036490E+12	9.997914E-15	NaN
339	1.000000	0.212250	7.36838e+06	-55589.1	955.818	-29741.5	0.000000	0.000000	6.212808	-0.042600	NaN	0.000000	0.001505	0.001692	28.0807	0.101329	0.001892	53.5577	-90.2015	13.9211	-0.057718	0.210874	-0.880710	-0.882086	-0.042600	53.5577	-0.880114	-5.473277E+11	7.783321E-14	NaN
339	1.000000	0.254281	7.36838e+06	-55589.1	955.818	-29741.5	0.000000	0.000000	6.254840	-0.042504	NaN	0.000000	0.001558	0.001717	28.0792	0.111473	0.001988	56.0743	157.353	-165.447	-0.066280	0.252924	-0.838679	-0.840036	-0.042504	56.0743	-0.838110	-1.478050E+11	2.875684E-13	NaN
339	1.000000	0.296311	7.36838e+06	-55589.1	955.819	-29741.5	0.000000	0.000000	6.296873	0.047014	NaN	0.000000	0.001519	0.001697	28.0793	0.039484	0.001995	19.789	-91.257	14.8894	0.063130	0.294848	-0.796649	-0.798112	0.047014	19.789	-0.798431	-4.281203E+10	-1.098150E-12	NaN
339	1.000000	0.338288	7.36838e+06	-55589.1	955.818	-29741.5	0.000000	0.000000	6.338846	-0.053840	NaN	0.000000	0.001536	0.001692	28.0793	0.021952	0.001961	11.1956	-123.77	-162.794	-0.015218	0.337020	-0.754672	-0.755940	-0.053840	11.1956	-0.751065	-9.721201E+9	5.538454E-12	NaN
339	1.000000	0.380362	7.36838e+06	-55589.1	955.82	-29741.5	0.000000	0.000000	6.380922	0.006017	NaN	0.000000	0.001538	0.001702	28.0806	0.080346	0.001967	40.8543	162.821	16.2386	-0.005647	0.378992	-0.712598	-0.713968	0.006017	40.8543	-0.712708	-2.917474E+9	-2.062238E-12	NaN
339	1.000000	0.422357	7.36838e+06	-55589.1	955.818	-29741.5	0.000000	0.000000	6.422916	-0.011579	NaN	0.000000	0.001545	0.001707	28.0808	0.060095	0.002010	29.8979	-40.1556	-163.617	-0.035408	0.421008	-0.670603	-0.671952	-0.011579	29.8979	-0.670313	-7.685475E+8	1.506633E-11	NaN
339	1.000000	0.464365	7.36838e+06	-55589.1	955.819	-29741.5	0.000000	0.000000	6.464924	-0.045411	NaN	0.000000	0.001489	0.001746	28.0803	0.083714	0.002111	39.6492	-37.442	15.877	-0.056936	0.463037	-0.628595	-0.629923	-0.045411	39.6492	-0.627736	-2.004128E+8	2.265860E-10	NaN
339	1.000000	0.506378	7.36838e+06	-55589.1	955.818	-29741.5	0.000000	0.000000	6.506938	-0.004302	NaN	0.000000	0.001531	0.001756	28.0791	0.098888	0.001904	51.9384	166.71	-166.472	-0.003126	0.505045	-0.586582	-0.587915	-0.004302	51.9384	-0.586520	-5.428507E+7	7.925274E-11	NaN
339	1.000000	0.548408	7.36838e+06	-55589.1	955.819	-29741.5	0.000000	0.000000	6.548969	0.019328	NaN	0.000000	0.001492	0.001738	28.0792	0.090655	0.002075	43.6809	-44.4922	17.4081	-0.048742	0.547060	-0.544552	-0.545900	0.019328	43.6809	-0.544884	-1.442359E+7	-1.340021E-9	NaN
339	1.000000	0.590438	7.36838e+06	-55589.1	955.82	-29741.5	0.000000	0.000000	6.590997	-0.022107	NaN	0.000000	0.001507	0.001752	28.0795	0.059591	0.001890	31.5355	107.345	-164.338	-0.018548	0.589090	-0.502522	-0.503870	-0.022107	31.5355	-0.501997	-3.65484e+06	6.048638E-9	NaN
339	1.000000	0.632419	7.36838e+06	-55589.1	955.819	-29741.5	0.000000	0.000000	6.632984	0.102997	NaN	0.000000	0.001572	0.001723	28.0796	0.073274	0.001905	38.4679	-63.3484	13.5223	0.147453	0.631035	-0.460541	-0.461925	0.102997	38.4679	-0.462549	-1.02524e+06	-1.004616E-7	NaN
339	1.000000	0.674461	7.36838e+06	-55589.1	955.818	-29741.5	0.000000	0.000000	6.675021	0.006358	NaN	0.000000	0.001559	0.001705	28.0806	0.102670	0.001858	55.2544	117.875	-164.003	-0.027377	0.673146	-0.418499	-0.419814	0.006358	55.2544	-0.418586	-245669	-2.588131E-8	NaN
339	1.000000	0.716486	7.36838e+06	-55589.1	955.819	-29741.5	0.000000	0.000000	6.717046	0.003372	NaN	0.000000	0.001546	0.001699	28.0805	0.063159	0.001925	32.8127	-65.9826	13.4881	-0.049831	0.715089	-0.376474	-0.377871	0.003372	32.8127	-0.376551	-61711.7	-5.463569E-8	NaN
339	1.000000	0.758479	7.36838e+06	-55589.1	955.819	-29741.5	0.000000	0.000000	6.759039	-0.003035	NaN	0.000000	0.001527	0.001694	28.0805	0.066260	0.002142	30.9319	-62.4361	-166.238	-0.022709	0.757171	-0.334481	-0.335789	-0.003035	30.9319	-0.334407	-15133.1	2.005679E-7	NaN
339	1.000000	0.800501	7.36838e+06	-55589.1	955.819	-29741.5	0.000000	0.000000	6.801061	-0.002813	NaN	0.000000	0.001527	0.001687	28.0793	0.158934	0.001917	82.927	46.5249	15.1696	-0.038770	0.799142	-0.292459	-0.293818	-0.002813	82.927	-0.292434	-3628.56	7.753514E-7	NaN
339	1.000000	0.842533	7.36838e+06	-55589.1	955.819	-29741.5	0.000000	0.000000	6.843093	-0.010227	NaN	0.000000	0.001485	0.001720	28.0795	0.016379	0.002172	7.542160	107.148	-165.264	0.023295	0.841227	-0.250427	-0.251733	-0.010227	7.542160	-0.249410	-805.084	1.270329E-5	NaN
339	1.000000	0.884532	7.36838e+06	-55589.1	955.818	-29741.5	0.000000	0.000000	6.885092	0.000213	NaN	0.000000	0.001522	0.001678	28.0795	0.110011	0.001999	55.0225	-172.943	15.6592	-0.003623	0.883164	-0.208428	-0.209796	0.000213	55.0225	-0.208431	-180.877	-1.176726E-6	NaN
339	1.000000	0.926549	7.36838e+06	-55589.1	955.819	-29741.5	0.000000	0.000000	6.927109	-0.000754	NaN	0.000000	0.001567	0.001746	28.0804	0.036893	0.001930	19.1195	134.907	-171.787	0.002547	0.925299	-0.166411	-0.167661	-0.000754	19.1195	-0.166381	-35.524	2.122494E-5	NaN
339	1.000000	0.968573	7.36838e+06	-55589.1	955.818	-29741.5	0.000000	0.000000	6.969132	-0.020475	NaN	0.000000	0.001496	0.001722	28.0804	0.087474	0.002069	42.2766	68.5164	17.5256	-0.017131	0.967240	-0.124387	-0.125720	-0.020475	42.2766	-0.124024	-5.816152	0.003520	NaN
339	1.000000	1.010589	7.36838e+06	-55589.1	955.818	-29741.5	0.000000	0.000000	7.011149	-0.000925	NaN	0.000000	0.001517	0.001738	28.0803	0.051840	0.002071	25.0299	-95.0648	-163.96	-0.000368	1.009268	-0.082371	-0.083692	-0.000925	25.0299	-0.082343	-0.707668	0.001307	NaN
339	1.000000	1.052611	7.36838e+06	-55589.1	955.819	-29741.5	0.000000	0.000000	7.053169	-0.045560	NaN	0.000000	0.001485	0.001723	28.0791	0.037916	0.002029	18.6886	140.372	16.3353	-0.080269	1.051257	-0.040349	-0.041703	-0.045560	18.6886	-0.038521	-0.040791	1.116916	NaN
339	1.000000	1.094618	7.36838e+06	-55589.1	955.819	-29741.5	0.000000	0.000000	7.095213	0.845927	NaN	0.000000	0.001524	0.001720	28.0798	1.330741	0.001941	685.461	9.472611	-166.467	0.197605	1.093328	0.001658	0.000368	0.845927	685.461	0.000733	0.000555	1522.85	26571.6
339	2.000000	1.110617	7.36838e+06	-55589.1	955.819	-29741.5	0.000000	0.000000	7.112139	23.3821	NaN	0.000000	0.001466	0.001685	28.0802	19.3755	0.001822	10633.4	10.2206	-0.092734	22.3598	1.110229	0.017657	0.017269	23.3821	10633.4	0.016008	0.016653	1404.09	75283.8
339	2.000000	1.121060	7.36838e+06	-55589.1	955.818	-29741.5	0.000000	0.000000	7.123424	43.8544	NaN	0.000000	0.001552	0.001664	28.08	29.9307	0.001755	17053.9	5.743265	179.708	42.4069	1.120728	0.028100	0.027768	43.8544	17053.9	0.026171	0.033181	1321.66	85536.4
339	2.000000	1.131550	7.36838e+06	-55589.1	955.819	-29741.5	0.000000	0.000000	7.135348	78.7094	NaN	0.000000	0.001415	0.001717	28.0806	38.9102	0.001860	20924.1	3.733569	3.067521	79.2781	1.131090	0.038590	0.038130	78.7094	20924.1	0.035769	0.053552	1469.78	82609.8
339	2.000000	1.142042	7.36838e+06	-55589.1	955.819	-29741.5	0.000000	0.000000	7.147295	114.077	NaN	0.000000	0.001530	0.001724	28.0805	47.578	0.001724	27597.9	3.790023	177.919	113.283	1.141719	0.049082	0.048759	114.077	27597.9	0.045981	0.080398	1418.91	88925.7
339	2.000000	1.152453	7.36838e+06	-55589.1	955.819	-29741.5	0.000000	0.000000	7.159532	158.471	NaN	0.000000	0.001476	0.001726	28.0808	58.7932	0.001909	30796.3	2.700720	-1.276707	154.354	1.152208	0.059493	0.059248	158.471	30796.3	0.055633	0.110617	1432.61	84598.2
339	2.000000	1.162992	7.36838e+06	-55589.1	955.819	-29741.5	0.000000	0.000000	7.172208	210.403	NaN	0.000000	0.001528	0.001745	28.0793	69.8487	0.001824	38293.8	5.109196	174.498	208.569	1.162675	0.070032	0.069715	210.403	38293.8	0.065911	0.147854	1423.04	90988.2
339	2.000000	1.173473	7.36838e+06	-55589.1	955.818	-29741.5	0.000000	0.000000	7.185437	277.205	NaN	0.000000	0.001552	0.001735	28.0792	78.9786	0.001787	44187.5	2.721043	-4.067368	273.562	1.173119	0.080513	0.080159	277.205	44187.5	0.075808	0.188512	1470.49	92982.8
339	2.000000	1.183974	7.36839e+06	-55589.1	955.82	-29741.5	0.000000	0.000000	7.198714	344.699	NaN	0.000000	0.001560	0.001737	28.0792	88.5506	0.001741	50862	5.984809	171.1	344.553	1.183668	0.091014	0.090708	344.699	50862	0.085931	0.234862	1467.66	95887
339	2.000000	1.194335	7.36839e+06	-55589.1	955.817	-29741.5	0.000000	0.000000	7.212244	421.721	NaN	0.000000	0.001465	0.001729	28.0806	98.3382	0.001810	54335.5	4.249439	-7.581923	410.776	1.193979	0.101375	0.101019	421.721	54335.5	0.095554	0.283305	1488.57	93267.2
339	2.000000	1.200337	7.36839e+06	-55589.1	955.818	-29741.5	0.000000	0.000000	7.220154	468.102	NaN	0.000000	0.001494	0.001739	28.0804	104.776	0.001677	62492.6	4.783356	-8.993210	458.984	1.200111	0.107377	0.107151	468.102	62492.6	0.101760	0.316791	1477.64	101442