File: remote_trans/data/nanoindenter/0828-1/data/Data_2025-08-06,11h17m57s/2025-07-22_16-23-58_1_795.txt
2025-07-22, 16:23:58, 1
Index	Phase	Displacement	Time	Pos X	Pos Y	Pos Z	Rot A	Rot B	Piezo Z	Force A	Force B	Gripper	Voltage A	Voltage B	Temperature	Amplitude force	Amplitude pos	Stiffness	Phase shift	Phase excitation	Force A raw	Displacement raw	HMax	HMax raw	Real Force	Real Stiffness	Contact Depth	Area	Hardness	Reduced Mod.
[#]	[#]	[um]	[s]	[um]	[um]	[um]	[m°]	[m°]	[um]	[uN]	[uN]	[V]	[V]	[V]	[°C]	[uN]	[um]	[N/m]	[°]	[°]	[uN]	[um]	[um]	[um]	[uN]	[N/m]	[um]	[um^2]	[MPa]	[MPa]
795	1.000000	0.002653	7.37283e+06	-39889.1	1055.82	-29792.1	0.000000	0.000000	6.002808	-0.100988	NaN	0.000000	0.001662	0.001716	28.083	0.132229	0.001043	126.735	22.674	-163.371	-0.092437	0.001408	-1.146460	-1.147706	-0.100988	126.735	-1.145862	-2.067026E+15	4.885661E-17	NaN
795	1.000000	0.044622	7.37283e+06	-39889.1	1055.82	-29792.1	0.000000	0.000000	6.044780	-0.034610	NaN	0.000000	0.001657	0.001700	28.0829	0.062224	0.002047	30.3907	-66.7882	14.9789	-0.067810	0.043184	-1.104491	-1.105929	-0.034610	30.3907	-1.103637	-5.609022E+14	6.170424E-17	NaN
795	1.000000	0.086608	7.37283e+06	-39889.1	1055.82	-29792.1	0.000000	0.000000	6.086765	-0.038369	NaN	0.000000	0.001674	0.001693	28.0828	0.095784	0.001890	50.6767	-106.781	-163.455	-0.082313	0.085276	-1.062505	-1.063837	-0.038369	50.6767	-1.061937	-1.544740E+14	2.483866E-16	NaN
795	1.000000	0.128621	7.37283e+06	-39889.1	1055.82	-29792.1	0.000000	0.000000	6.128780	-0.009032	NaN	0.000000	0.001636	0.001729	28.083	0.146134	0.001947	75.0494	-151.477	14.8816	-0.072238	0.127244	-1.020492	-1.021869	-0.009032	75.0494	-1.020402	-4.269316E+13	2.115556E-16	NaN
795	1.000000	0.170653	7.37283e+06	-39889.1	1055.82	-29792.1	0.000000	0.000000	6.170812	0.025085	NaN	0.000000	0.001684	0.001727	28.0815	0.086858	0.001895	45.8357	62.9713	-165.294	-0.031943	0.169287	-0.978461	-0.979826	0.025085	45.8357	-0.978871	-1.178161E+13	-2.129158E-15	NaN
795	1.000000	0.212637	7.37283e+06	-39889.1	1055.82	-29792.1	0.000000	0.000000	6.212794	-0.017708	NaN	0.000000	0.001634	0.001738	28.0815	0.051644	0.002092	24.69	116.329	16.0597	0.001952	0.211326	-0.936477	-0.937787	-0.017708	24.69	-0.935939	-3.107019E+12	5.699447E-15	NaN
795	1.000000	0.254661	7.37283e+06	-39889.1	1055.82	-29792.1	0.000000	0.000000	6.254819	-0.017599	NaN	0.000000	0.001586	0.001692	28.0815	0.068568	0.002074	33.061	-14.2253	-163.641	-0.057003	0.253376	-0.894453	-0.895737	-0.017599	33.061	-0.894053	-8.447030E+11	2.083408E-14	NaN
795	1.000000	0.296682	7.37283e+06	-39889.1	1055.82	-29792.1	0.000000	0.000000	6.296840	-0.012742	NaN	0.000000	0.001646	0.001724	28.0827	0.079817	0.001991	40.0979	43.132	14.1735	-0.017501	0.295369	-0.852432	-0.853744	-0.012742	40.0979	-0.852194	-2.293193E+11	5.556315E-14	NaN
795	1.000000	0.338681	7.37283e+06	-39889.1	1055.82	-29792.1	0.000000	0.000000	6.338836	-0.070902	NaN	0.000000	0.001626	0.001705	28.0829	0.031353	0.001959	16.0014	50.8477	-168.123	-0.092169	0.337423	-0.810433	-0.811690	-0.070902	16.0014	-0.807110	-5.615048E+10	1.262708E-12	NaN
795	1.000000	0.380732	7.37283e+06	-39889.1	1055.82	-29792.1	0.000000	0.000000	6.380889	-0.025261	NaN	0.000000	0.001782	0.001710	28.0834	0.074606	0.002015	37.0246	-138.722	17.3913	-0.028401	0.379385	-0.768382	-0.769729	-0.025261	37.0246	-0.767870	-1.645673E+10	1.535024E-12	NaN
795	1.000000	0.422732	7.37283e+06	-39889.1	1055.82	-29792.1	0.000000	0.000000	6.422890	-0.012135	NaN	0.000000	0.001709	0.001733	28.0819	0.078709	0.002023	38.9161	127.33	-167.759	-0.011297	0.421444	-0.726381	-0.727669	-0.012135	38.9161	-0.726147	-4.449337E+9	2.727419E-12	NaN
795	1.000000	0.464777	7.37283e+06	-39889.1	1055.82	-29792.1	0.000000	0.000000	6.464933	-0.066655	NaN	0.000000	0.001628	0.001751	28.0821	0.075951	0.001929	39.3711	-130.616	15.4976	-0.087174	0.463460	-0.684337	-0.685653	-0.066655	39.3711	-0.683067	-1.148535E+9	5.803452E-11	NaN
795	1.000000	0.506787	7.37283e+06	-39889.1	1055.82	-29792.1	0.000000	0.000000	6.506944	-0.042167	NaN	0.000000	0.001604	0.001743	28.0818	0.059807	0.002109	28.357	166.278	-164.536	-0.005467	0.505490	-0.642326	-0.643624	-0.042167	28.357	-0.641211	-3.068341E+8	1.374251E-10	NaN
795	1.000000	0.548792	7.37283e+06	-39889.1	1055.82	-29792.1	0.000000	0.000000	6.548947	-0.083554	NaN	0.000000	0.001575	0.001740	28.0833	0.117057	0.001977	59.201	105.741	14.4082	-0.098689	0.547493	-0.600322	-0.601620	-0.083554	59.201	-0.599263	-8.134111E+7	1.027201E-9	NaN
795	1.000000	0.590813	7.37283e+06	-39889.1	1055.82	-29792.1	0.000000	0.000000	6.590969	-0.047938	NaN	0.000000	0.001606	0.001725	28.0837	0.065845	0.001918	34.3249	56.5041	-169.883	-0.057141	0.589497	-0.558301	-0.559617	-0.047938	34.3249	-0.557253	-2.139814E+7	2.240278E-9	NaN
795	1.000000	0.632817	7.37283e+06	-39889.1	1055.82	-29792.1	0.000000	0.000000	6.632974	-0.048683	NaN	0.000000	0.001599	0.001738	28.0833	0.046590	0.002081	22.386	-78.1019	14.0394	-0.040790	0.631462	-0.516296	-0.517651	-0.048683	22.386	-0.514665	-5.4875e+06	8.871596E-9	NaN
795	1.000000	0.674857	7.37283e+06	-39889.1	1055.82	-29792.1	0.000000	0.000000	6.675015	-0.025000	NaN	0.000000	0.001579	0.001677	28.0833	0.013644	0.002074	6.579220	121.864	-167.763	-0.031823	0.673522	-0.474256	-0.475592	-0.025000	6.579220	-0.471406	-1.365e+06	1.831489E-8	NaN
795	1.000000	0.716842	7.37283e+06	-39889.1	1055.82	-29792.1	0.000000	0.000000	6.716996	-0.100566	NaN	0.000000	0.001581	0.001689	28.0819	0.054222	0.002066	26.2461	-40.7287	10.7387	-0.126032	0.715536	-0.432272	-0.433577	-0.100566	26.2461	-0.429398	-349580	2.876758E-7	NaN
795	1.000000	0.758916	7.37283e+06	-39889.1	1055.82	-29792.1	0.000000	0.000000	6.759072	-0.082031	NaN	0.000000	0.001614	0.001660	28.0818	0.058607	0.002051	28.5804	-90.1628	-166.266	-0.041553	0.757642	-0.390197	-0.391472	-0.082031	28.5804	-0.388044	-90195.4	9.094775E-7	NaN
795	1.000000	0.800898	7.37283e+06	-39889.1	1055.82	-29792.1	0.000000	0.000000	6.801053	-0.094433	NaN	0.000000	0.001639	0.001640	28.082	0.052999	0.002021	26.2239	-149.246	18.5979	-0.060452	0.799565	-0.348215	-0.349549	-0.094433	26.2239	-0.345515	-21970.6	4.298161E-6	NaN
795	1.000000	0.842925	7.37283e+06	-39889.1	1055.82	-29792.1	0.000000	0.000000	6.843082	-0.036368	NaN	0.000000	0.001654	0.001642	28.0832	0.031879	0.002027	15.7302	-162.586	-165.182	0.064443	0.841577	-0.306188	-0.307537	-0.036368	15.7302	-0.304454	-5480.92	6.635334E-6	NaN
795	1.000000	0.884945	7.37284e+06	-39889.1	1055.82	-29792.1	0.000000	0.000000	6.885102	-0.038024	NaN	0.000000	0.001679	0.001664	28.0831	0.061789	0.002000	30.8968	38.6964	17.3411	-0.076542	0.883644	-0.264169	-0.265469	-0.038024	30.8968	-0.263246	-1314	2.893758E-5	NaN
795	1.000000	0.927000	7.37284e+06	-39889.1	1055.82	-29792.1	0.000000	0.000000	6.927157	-0.039855	NaN	0.000000	0.001596	0.001632	28.0831	0.018428	0.002024	9.104578	-146.228	-165.081	-0.052386	0.925649	-0.222114	-0.223464	-0.039855	9.104578	-0.218830	-266.055	0.000150	NaN
795	1.000000	0.968982	7.37284e+06	-39889.1	1055.82	-29792.1	0.000000	0.000000	6.969141	0.013434	NaN	0.000000	0.001612	0.001700	28.0819	0.071843	0.002080	34.5402	65.5276	12.6825	0.037719	0.967615	-0.180131	-0.181499	0.013434	34.5402	-0.180423	-62.0383	-0.000217	NaN
795	1.000000	1.010988	7.37284e+06	-39889.1	1055.82	-29792.1	0.000000	0.000000	7.011146	-0.007880	NaN	0.000000	0.001613	0.001740	28.082	0.091623	0.001904	48.1286	-88.7564	-167.783	0.059033	1.009671	-0.138126	-0.139442	-0.007880	48.1286	-0.138003	-10.8476	0.000726	NaN
795	1.000000	1.053010	7.37284e+06	-39889.1	1055.82	-29792.1	0.000000	0.000000	7.053170	0.025366	NaN	0.000000	0.001641	0.001736	28.082	0.067236	0.001928	34.8695	169.658	9.636681	-0.089440	1.051641	-0.096103	-0.097472	0.025366	34.8695	-0.096649	-1.537470	-0.016498	NaN
795	1.000000	1.095043	7.37284e+06	-39889.1	1055.82	-29792.1	0.000000	0.000000	7.095198	-0.088945	NaN	0.000000	0.001562	0.001705	28.0832	0.051993	0.001996	26.0538	-64.3166	-164.942	-0.045414	1.093751	-0.054071	-0.055362	-0.088945	26.0538	-0.051510	-0.101339	0.877700	NaN
795	1.000000	1.137021	7.37284e+06	-39889.1	1055.82	-29792.1	0.000000	0.000000	7.137238	1.427127	NaN	0.000000	0.001619	0.001714	28.0833	0.839525	0.001836	457.201	31.5219	14.4112	2.008747	1.135686	-0.012093	-0.013428	1.427127	457.201	-0.014434	-0.008939	-159.659	NaN
795	2.000000	1.159594	7.37284e+06	-39889.1	1055.82	-29792.1	0.000000	0.000000	7.160483	17.7884	NaN	0.000000	0.001616	0.001702	28.0833	13.2946	0.001724	7712.71	11.0892	-179.903	17.831	1.159286	0.010480	0.010173	17.7884	7712.71	0.008751	0.007826	2273.07	79655.9
795	2.000000	1.170039	7.37284e+06	-39889.1	1055.82	-29792.1	0.000000	0.000000	7.172398	53.5387	NaN	0.000000	0.001587	0.001680	28.0835	24.4187	0.001872	13040.7	7.392505	-0.099901	52.6738	1.169715	0.020926	0.020601	53.5387	13040.7	0.017846	0.019270	2778.27	85827.7
795	2.000000	1.180543	7.37284e+06	-39889.1	1055.82	-29792.1	0.000000	0.000000	7.184577	94.3109	NaN	0.000000	0.001643	0.001716	28.0823	34.5407	0.001765	19567.1	5.795975	176.932	94.231	1.180288	0.031429	0.031175	94.3109	19567.1	0.027814	0.036335	2595.58	93785.7
795	2.000000	1.190958	7.37284e+06	-39889.1	1055.82	-29792.1	0.000000	0.000000	7.197329	151.154	NaN	0.000000	0.001656	0.001720	28.0821	45.0211	0.001858	24236.3	1.128860	0.239399	147.096	1.190639	0.041845	0.041525	151.154	24236.3	0.037167	0.056913	2655.88	92818.2
795	2.000000	1.201549	7.37284e+06	-39889.1	1055.82	-29792.1	0.000000	0.000000	7.210425	212.118	NaN	0.000000	0.001619	0.001712	28.0821	56.5454	0.001695	33352.6	5.170265	174.361	212.578	1.201179	0.052436	0.052066	212.118	33352.6	0.047666	0.085335	2485.7	104313
795	2.000000	1.211953	7.37284e+06	-39889.1	1055.82	-29792.1	0.000000	0.000000	7.223463	276.246	NaN	0.000000	0.001607	0.001739	28.0839	66.2847	0.001722	38490.2	3.140321	-5.101289	272.813	1.211560	0.062839	0.062447	276.246	38490.2	0.057456	0.116846	2364.2	102877
795	2.000000	1.222511	7.37284e+06	-39889.1	1055.82	-29792.1	0.000000	0.000000	7.236891	346.061	NaN	0.000000	0.001615	0.001715	28.0834	75.583	0.001769	42733.9	4.578721	172.801	346.79	1.222055	0.073398	0.072941	346.061	42733.9	0.067324	0.153373	2256.33	99694.3
795	2.000000	1.232882	7.37284e+06	-39889.1	1055.82	-29792.1	0.000000	0.000000	7.250495	424.751	NaN	0.000000	0.001589	0.001702	28.0833	84.6128	0.001815	46620	1.801017	-4.823320	418.77	1.232557	0.083769	0.083444	424.751	46620	0.076935	0.193439	2195.79	96844.1
795	2.000000	1.243405	7.37284e+06	-39889.1	1055.82	-29792.1	0.000000	0.000000	7.264441	508.046	NaN	0.000000	0.001599	0.001790	28.0824	94.2951	0.001794	52555.8	3.343049	172.871	506.638	1.243116	0.094292	0.094003	508.046	52555.8	0.087041	0.240236	2114.77	97965.8
795	2.000000	1.251412	7.37284e+06	-39889.1	1055.82	-29792.1	0.000000	0.000000	7.275163	574.098	NaN	0.000000	0.001589	0.001690	28.0822	102.809	0.001705	60311.8	1.183515	174.252	570.55	1.251129	0.102299	0.102015	574.098	60311.8	0.095159	0.281238	2041.32	103906