File: remote_trans/data/nanoindenter/0828-1/data/Data_2025-08-06,11h17m57s/2025-07-22_16-23-58_1_281.txt
2025-07-22, 16:23:58, 1
Index	Phase	Displacement	Time	Pos X	Pos Y	Pos Z	Rot A	Rot B	Piezo Z	Force A	Force B	Gripper	Voltage A	Voltage B	Temperature	Amplitude force	Amplitude pos	Stiffness	Phase shift	Phase excitation	Force A raw	Displacement raw	HMax	HMax raw	Real Force	Real Stiffness	Contact Depth	Area	Hardness	Reduced Mod.
[#]	[#]	[um]	[s]	[um]	[um]	[um]	[m°]	[m°]	[um]	[uN]	[uN]	[V]	[V]	[V]	[°C]	[uN]	[um]	[N/m]	[°]	[°]	[uN]	[um]	[um]	[um]	[uN]	[N/m]	[um]	[um^2]	[MPa]	[MPa]
281	1.000000	0.002282	7.3678e+06	-52689.1	955.818	-29748.6	0.000000	0.000000	6.002795	-0.036496	NaN	0.000000	0.001595	0.001712	28.0827	0.055420	0.000962	57.5831	-156.966	-160.115	0.049986	0.001017	-1.234556	-1.235820	-0.036496	57.5831	-1.234080	-3.140070E+16	1.162266E-18	NaN
281	1.000000	0.048209	7.3678e+06	-52689.1	955.819	-29748.6	0.000000	0.000000	6.048726	0.040465	NaN	0.000000	0.001599	0.001717	28.0816	0.028771	0.002025	14.2047	-177.546	19.0233	0.036371	0.046886	-1.188628	-1.189951	0.040465	14.2047	-1.190765	-8.261627E+15	-4.897959E-18	NaN
281	1.000000	0.094202	7.3678e+06	-52689.1	955.818	-29748.6	0.000000	0.000000	6.094713	-0.107509	NaN	0.000000	0.001590	0.001727	28.0815	0.081226	0.001979	41.0365	-174.593	-163.146	-0.126387	0.092936	-1.142636	-1.143902	-0.107509	41.0365	-1.140671	-1.760893E+15	6.105372E-17	NaN
281	1.000000	0.140280	7.3678e+06	-52689.1	955.817	-29748.6	0.000000	0.000000	6.140797	0.047698	NaN	0.000000	0.001650	0.001700	28.08	0.138799	0.002035	68.1939	-13.6412	14.4614	0.060448	0.138891	-1.096558	-1.097947	0.047698	68.1939	-1.097082	-4.580340E+14	-1.041374E-16	NaN
281	1.000000	0.186289	7.3678e+06	-52689.1	955.818	-29748.6	0.000000	0.000000	6.186802	-0.048709	NaN	0.000000	0.001613	0.001708	28.0801	0.056104	0.001955	28.7028	-148.182	-164.515	-0.022788	0.185013	-1.050548	-1.051825	-0.048709	28.7028	-1.049275	-1.043938E+14	4.665851E-16	NaN
281	1.000000	0.232282	7.3678e+06	-52689.1	955.819	-29748.6	0.000000	0.000000	6.232797	-0.012271	NaN	0.000000	0.001631	0.001722	28.0796	0.103995	0.002002	51.9368	23.2099	13.5394	-0.032216	0.230955	-1.004555	-1.005882	-0.012271	51.9368	-1.004378	-2.598425E+13	4.722302E-16	NaN
281	1.000000	0.278336	7.3678e+06	-52689.1	955.819	-29748.6	0.000000	0.000000	6.278853	0.029120	NaN	0.000000	0.001572	0.001698	28.0808	0.051025	0.002096	24.3456	15.3835	-165.496	-0.023285	0.277027	-0.958501	-0.959811	0.029120	24.3456	-0.959398	-6.438081E+12	-4.523069E-15	NaN
281	1.000000	0.324354	7.3678e+06	-52689.1	955.819	-29748.6	0.000000	0.000000	6.324869	-0.006008	NaN	0.000000	0.001588	0.001728	28.0814	0.086062	0.002079	41.4009	169.758	15.5142	-0.014902	0.322998	-0.912484	-0.913839	-0.006008	41.4009	-0.912375	-1.493614E+12	4.022704E-15	NaN
281	1.000000	0.370355	7.3678e+06	-52689.1	955.818	-29748.6	0.000000	0.000000	6.370873	0.053811	NaN	0.000000	0.001612	0.001730	28.0813	0.039795	0.001991	19.9874	123.297	-164.277	0.064816	0.369042	-0.866482	-0.867795	0.053811	19.9874	-0.868501	-3.812119E+11	-1.411588E-13	NaN
281	1.000000	0.416403	7.3678e+06	-52689.1	955.819	-29748.6	0.000000	0.000000	6.416921	0.072127	NaN	0.000000	0.001657	0.001707	28.0799	0.110536	0.001871	59.0726	159.35	17.1465	0.096452	0.415047	-0.820435	-0.821791	0.072127	59.0726	-0.821350	-8.760351E+10	-8.233307E-13	NaN
281	1.000000	0.462410	7.3678e+06	-52689.1	955.818	-29748.6	0.000000	0.000000	6.462922	-0.073439	NaN	0.000000	0.001655	0.001752	28.0801	0.055678	0.001953	28.5053	-97.9178	-163.813	-0.025806	0.461134	-0.774428	-0.775703	-0.073439	28.5053	-0.772495	-1.902094E+10	3.860953E-12	NaN
281	1.000000	0.508453	7.3678e+06	-52689.1	955.819	-29748.6	0.000000	0.000000	6.508968	0.007024	NaN	0.000000	0.001629	0.001750	28.0799	0.058544	0.001976	29.629	171.573	16.42	-0.015341	0.507074	-0.728385	-0.729763	0.007024	29.629	-0.728563	-4.799721E+9	-1.463512E-12	NaN
281	1.000000	0.554463	7.36781e+06	-52689.1	955.818	-29748.6	0.000000	0.000000	6.554979	0.003812	NaN	0.000000	0.001569	0.001763	28.0813	0.067890	0.002054	33.0603	113.481	-164.152	-0.001757	0.553124	-0.682374	-0.683714	0.003812	33.0603	-0.682461	-1.126824E+9	-3.382778E-12	NaN
281	1.000000	0.600481	7.36781e+06	-52689.1	955.819	-29748.6	0.000000	0.000000	6.600996	-0.001922	NaN	0.000000	0.001593	0.001705	28.0816	0.035307	0.002011	17.5585	-60.6356	15.0854	-0.043177	0.599112	-0.636357	-0.637725	-0.001922	17.5585	-0.636275	-2.625230E+8	7.321784E-12	NaN
281	1.000000	0.646480	7.36781e+06	-52689.1	955.819	-29748.6	0.000000	0.000000	6.646995	-0.001494	NaN	0.000000	0.001608	0.001763	28.0811	0.028420	0.002005	14.1755	-29.4225	-163.409	0.011330	0.645180	-0.590357	-0.591658	-0.001494	14.1755	-0.590278	-6.116484E+7	2.442986E-11	NaN
281	1.000000	0.692481	7.36781e+06	-52689.1	955.819	-29748.6	0.000000	0.000000	6.692995	-0.034613	NaN	0.000000	0.001611	0.001776	28.0803	0.098894	0.001935	51.1052	158.41	13.8979	-0.058389	0.691097	-0.544357	-0.545740	-0.034613	51.1052	-0.543849	-1.395473E+7	2.480353E-9	NaN
281	1.000000	0.738512	7.36781e+06	-52689.1	955.818	-29748.6	0.000000	0.000000	6.739028	0.002058	NaN	0.000000	0.001602	0.001751	28.08	0.103150	0.001868	55.2206	58.6005	-165.071	0.053072	0.737176	-0.498325	-0.499661	0.002058	55.2206	-0.498353	-3.25113e+06	-6.329323E-10	NaN
281	1.000000	0.784550	7.36781e+06	-52689.1	955.819	-29748.6	0.000000	0.000000	6.785067	0.041843	NaN	0.000000	0.001595	0.001705	28.08	0.085996	0.001928	44.6123	121.335	16.6349	-0.007100	0.783213	-0.452287	-0.453624	0.041843	44.6123	-0.452991	-752395	-5.561306E-8	NaN
281	1.000000	0.830548	7.36781e+06	-52689.1	955.818	-29748.6	0.000000	0.000000	6.831062	-0.047965	NaN	0.000000	0.001620	0.001716	28.0812	0.043365	0.001992	21.7651	54.6302	-167.124	-0.036993	0.829248	-0.406289	-0.407589	-0.047965	21.7651	-0.404636	-155620	3.082199E-7	NaN
281	1.000000	0.876575	7.36781e+06	-52689.1	955.818	-29748.6	0.000000	0.000000	6.877088	-0.041891	NaN	0.000000	0.001606	0.001730	28.0814	0.137331	0.002105	65.2273	-161.386	13.1575	-0.002083	0.875183	-0.360263	-0.361654	-0.041891	65.2273	-0.359781	-35373.5	1.184242E-6	NaN
281	1.000000	0.922605	7.36781e+06	-52689.1	955.818	-29748.6	0.000000	0.000000	6.923122	0.034764	NaN	0.000000	0.001597	0.001742	28.0811	0.024096	0.001989	12.1164	-79.4584	-165.42	0.080754	0.921272	-0.314233	-0.315565	0.034764	12.1164	-0.316384	-8229.47	-4.224354E-6	NaN
281	1.000000	0.968599	7.36781e+06	-52689.1	955.819	-29748.6	0.000000	0.000000	6.969116	0.033522	NaN	0.000000	0.001594	0.001760	28.0799	0.148408	0.002054	72.2537	143.074	15.2991	0.084163	0.967245	-0.268239	-0.269593	0.033522	72.2537	-0.268586	-1585.06	-2.114872E-5	NaN
281	1.000000	1.014631	7.36781e+06	-52689.1	955.819	-29748.6	0.000000	0.000000	7.015147	0.012280	NaN	0.000000	0.001652	0.001759	28.0799	0.044538	0.001964	22.6779	17.1136	-165.271	0.016490	1.013352	-0.222206	-0.223485	0.012280	22.6779	-0.222612	-305.744	-4.016529E-5	NaN
281	1.000000	1.060659	7.36781e+06	-52689.1	955.818	-29748.6	0.000000	0.000000	7.061173	-0.037172	NaN	0.000000	0.001607	0.001721	28.0797	0.117481	0.001928	60.9468	-18.1302	14.5211	-0.012688	1.059299	-0.176178	-0.177538	-0.037172	60.9468	-0.175720	-51.5643	0.000721	NaN
281	1.000000	1.106684	7.36781e+06	-52689.1	955.818	-29748.6	0.000000	0.000000	7.107200	0.009510	NaN	0.000000	0.001604	0.001740	28.0808	0.064265	0.002012	31.9423	-98.4183	-167.803	-0.023730	1.105345	-0.130153	-0.131492	0.009510	31.9423	-0.130376	-7.750236	-0.001227	NaN
281	1.000000	1.152701	7.36781e+06	-52689.1	955.818	-29748.6	0.000000	0.000000	7.153218	0.026097	NaN	0.000000	0.001594	0.001813	28.0811	0.040168	0.001835	21.8932	-25.8708	14.3431	0.014439	1.151314	-0.084136	-0.085523	0.026097	21.8932	-0.085030	-0.823005	-0.031710	NaN
281	1.000000	1.198704	7.36781e+06	-52689.1	955.819	-29748.6	0.000000	0.000000	7.199216	-0.069132	NaN	0.000000	0.001602	0.001775	28.0813	0.082853	0.001902	43.5608	-118.991	-164.037	-0.072964	1.197421	-0.038133	-0.039417	-0.069132	43.5608	-0.036943	-0.036573	1.890224	NaN
281	2.000000	1.244419	7.36781e+06	-52689.1	955.818	-29748.6	0.000000	0.000000	7.245322	9.409763	NaN	0.000000	0.001629	0.001794	28.0799	8.790618	0.001625	5408.87	11.5096	3.939542	7.814366	1.243348	0.007582	0.006511	9.409763	5408.87	0.006277	0.005330	1765.58	67691.4
281	2.000000	1.256186	7.36781e+06	-52689.1	955.818	-29748.6	0.000000	0.000000	7.258033	32.3651	NaN	0.000000	0.001695	0.001737	28.0806	21.7146	0.001604	13540.2	1.528957	-174.39	30.5117	1.255830	0.019349	0.018992	32.3651	13540.2	0.017556	0.018847	1717.26	90110.9
281	2.000000	1.267635	7.36781e+06	-52689.1	955.819	-29748.6	0.000000	0.000000	7.270725	62.5972	NaN	0.000000	0.001770	0.001775	28.08	35.5277	0.001848	19230	4.613672	-0.031553	59.3294	1.267347	0.030798	0.030509	62.5972	19230	0.028356	0.037405	1673.48	90841.6
281	2.000000	1.279130	7.36781e+06	-52689.1	955.818	-29748.6	0.000000	0.000000	7.283939	104.399	NaN	0.000000	0.001727	0.001728	28.0812	47.1089	0.001977	23830.7	11.5482	172.911	103.814	1.278764	0.042293	0.041927	104.399	23830.7	0.039007	0.061488	1697.88	87804.5
281	2.000000	1.290614	7.36781e+06	-52689.1	955.818	-29748.6	0.000000	0.000000	7.297805	162.296	NaN	0.000000	0.001730	0.001761	28.0817	57.4392	0.001783	32208.8	2.076260	-0.721273	159.62	1.290234	0.053777	0.053397	162.296	32208.8	0.049998	0.092407	1756.31	96804.3
281	2.000000	1.302111	7.36781e+06	-52689.1	955.819	-29748.6	0.000000	0.000000	7.312182	232.333	NaN	0.000000	0.001733	0.001691	28.0815	68.681	0.001774	38716.9	5.333346	174.168	230.407	1.301676	0.065274	0.064839	232.333	38716.9	0.060773	0.128596	1806.7	98641.7
281	2.000000	1.313534	7.36781e+06	-52689.1	955.819	-29748.6	0.000000	0.000000	7.326438	301.226	NaN	0.000000	0.001702	0.001723	28.0803	81.3536	0.001776	45795	7.553242	-8.950426	294.814	1.313122	0.076696	0.076285	301.226	45795	0.071763	0.171333	1758.13	101081
281	2.000000	1.325084	7.36781e+06	-52689.1	955.82	-29748.6	0.000000	0.000000	7.341773	393.247	NaN	0.000000	0.001748	0.001704	28.0808	93.1499	0.001805	51612.4	8.023316	169.499	392.891	1.324632	0.088246	0.087795	393.247	51612.4	0.082532	0.218769	1797.54	100817
281	2.000000	1.336566	7.36781e+06	-52689.1	955.821	-29748.6	0.000000	0.000000	7.357362	493.111	NaN	0.000000	0.001668	0.001708	28.0801	104.769	0.001807	57967	5.218010	-8.554382	488.863	1.336180	0.099728	0.099343	493.111	57967	0.093348	0.271829	1814.05	101580
281	2.000000	1.343081	7.36781e+06	-52689.1	955.819	-29748.6	0.000000	0.000000	7.366093	546.961	NaN	0.000000	0.001656	0.001741	28.0813	109.656	0.001772	61880.6	4.983523	170.981	545.765	1.342916	0.106244	0.106079	546.961	61880.6	0.099615	0.305021	1793.19	102368