File: remote_trans/data/nanoindenter/0828-1/data/Data_2025-08-06,11h17m57s/2025-07-22_16-23-58_1_491.txt
2025-07-22, 16:23:58, 1
Index	Phase	Displacement	Time	Pos X	Pos Y	Pos Z	Rot A	Rot B	Piezo Z	Force A	Force B	Gripper	Voltage A	Voltage B	Temperature	Amplitude force	Amplitude pos	Stiffness	Phase shift	Phase excitation	Force A raw	Displacement raw	HMax	HMax raw	Real Force	Real Stiffness	Contact Depth	Area	Hardness	Reduced Mod.
[#]	[#]	[um]	[s]	[um]	[um]	[um]	[m°]	[m°]	[um]	[uN]	[uN]	[V]	[V]	[V]	[°C]	[uN]	[um]	[N/m]	[°]	[°]	[uN]	[um]	[um]	[um]	[uN]	[N/m]	[um]	[um^2]	[MPa]	[MPa]
491	1.000000	0.002477	7.36986e+06	-52539.1	1005.82	-29749	0.000000	0.000000	6.002800	-0.057001	NaN	0.000000	0.001618	0.001706	28.0805	0.056679	0.001020	55.5675	128.695	-165.669	-0.009795	0.001210	-1.139378	-1.140645	-0.057001	55.5675	-1.138609	-1.652281E+15	3.449814E-17	NaN
491	1.000000	0.044436	7.36986e+06	-52539.1	1005.82	-29749	0.000000	0.000000	6.044760	-0.040883	NaN	0.000000	0.001576	0.001665	28.0818	0.072925	0.001947	37.4528	5.396280	15.1997	-0.052387	0.043119	-1.097419	-1.098736	-0.040883	37.4528	-1.096601	-4.512656E+14	9.059605E-17	NaN
491	1.000000	0.086409	7.36986e+06	-52539.1	1005.82	-29749	0.000000	0.000000	6.086736	0.030157	NaN	0.000000	0.001621	0.001671	28.0816	0.054014	0.001922	28.1092	-11.7932	-166.523	0.079628	0.085157	-1.055446	-1.056698	0.030157	28.1092	-1.056251	-1.295488E+14	-2.327854E-16	NaN
491	1.000000	0.128416	7.36986e+06	-52539.1	1005.82	-29749	0.000000	0.000000	6.128743	0.013026	NaN	0.000000	0.001647	0.001723	28.0816	0.113504	0.001892	59.9884	117.245	12.5084	-0.022057	0.127107	-1.013439	-1.014748	0.013026	59.9884	-1.013601	-3.458209E+13	-3.766562E-16	NaN
491	1.000000	0.170467	7.36986e+06	-52539.1	1005.82	-29749	0.000000	0.000000	6.170794	0.034618	NaN	0.000000	0.001614	0.001656	28.0804	0.020015	0.001996	10.0274	-144.774	-161.793	0.030455	0.169166	-0.971388	-0.972689	0.034618	10.0274	-0.973977	-1.012184E+13	-3.420150E-15	NaN
491	1.000000	0.212515	7.36986e+06	-52539.1	1005.82	-29749	0.000000	0.000000	6.212840	-0.011690	NaN	0.000000	0.001621	0.001640	28.0805	0.127376	0.001906	66.8292	-97.8417	16.2294	-0.031624	0.211095	-0.929340	-0.930760	-0.011690	66.8292	-0.929209	-2.520705E+12	4.637577E-15	NaN
491	1.000000	0.254522	7.36986e+06	-52539.1	1005.82	-29749	0.000000	0.000000	6.254844	-0.088591	NaN	0.000000	0.001614	0.001708	28.0804	0.065209	0.001973	33.0473	3.723763	-165.747	-0.051791	0.253179	-0.887333	-0.888676	-0.088591	33.0473	-0.885323	-6.436990E+11	1.376273E-13	NaN
491	1.000000	0.296528	7.36986e+06	-52539.1	1005.82	-29749	0.000000	0.000000	6.296852	-0.036684	NaN	0.000000	0.001644	0.001696	28.0812	0.070138	0.001957	35.8457	-15.9271	11.0052	0.009728	0.295183	-0.845327	-0.846672	-0.036684	35.8457	-0.844560	-1.807425E+11	2.029633E-13	NaN
491	1.000000	0.338537	7.36986e+06	-52539.1	1005.82	-29749	0.000000	0.000000	6.338861	-0.030358	NaN	0.000000	0.001680	0.001685	28.0814	0.046750	0.001883	24.8301	39.3077	-165.372	-0.045385	0.337253	-0.803318	-0.804602	-0.030358	24.8301	-0.802401	-4.846823E+10	6.263468E-13	NaN
491	1.000000	0.380583	7.36986e+06	-52539.1	1005.82	-29749	0.000000	0.000000	6.380908	-0.031529	NaN	0.000000	0.001616	0.001671	28.0814	0.089681	0.001873	47.8779	-38.9387	9.943422	0.021775	0.379261	-0.761272	-0.762594	-0.031529	47.8779	-0.760778	-1.317903E+10	2.392360E-12	NaN
491	1.000000	0.422582	7.36986e+06	-52539.1	1005.82	-29749	0.000000	0.000000	6.422906	-0.041279	NaN	0.000000	0.001664	0.001666	28.0813	0.092013	0.002021	45.519	75.734	-168.2	-0.001733	0.421297	-0.719273	-0.720558	-0.041279	45.519	-0.718593	-3.509799E+9	1.176115E-11	NaN
491	1.000000	0.464597	7.36986e+06	-52539.1	1005.82	-29749	0.000000	0.000000	6.464923	0.020057	NaN	0.000000	0.001592	0.001634	28.0801	0.036395	0.001984	18.3407	136.877	13.083	-0.002936	0.463253	-0.677258	-0.678602	0.020057	18.3407	-0.678078	-9.815716E+8	-2.043316E-11	NaN
491	1.000000	0.506599	7.36986e+06	-52539.1	1005.82	-29749	0.000000	0.000000	6.506924	-0.001559	NaN	0.000000	0.001604	0.001687	28.0803	0.064519	0.002070	31.1633	171.212	-166.729	-0.010768	0.505383	-0.635256	-0.636472	-0.001559	31.1633	-0.635219	-2.539070E+8	6.138354E-12	NaN
491	1.000000	0.548646	7.36986e+06	-52539.1	1005.82	-29749	0.000000	0.000000	6.548969	-0.076394	NaN	0.000000	0.001588	0.001666	28.0804	0.122304	0.002029	60.2836	107.743	13.8429	-0.034073	0.547306	-0.593209	-0.594549	-0.076394	60.2836	-0.592258	-6.513216E+7	1.172906E-9	NaN
491	1.000000	0.590656	7.36986e+06	-52539.1	1005.82	-29749	0.000000	0.000000	6.590981	-0.027041	NaN	0.000000	0.001614	0.001674	28.0817	0.032200	0.001904	16.9101	-87.0714	-164.898	-0.054072	0.589369	-0.551199	-0.552486	-0.027041	16.9101	-0.550000	-1.698054E+7	1.592483E-9	NaN
491	1.000000	0.632640	7.36986e+06	-52539.1	1005.82	-29749	0.000000	0.000000	6.632965	-0.010792	NaN	0.000000	0.001647	0.001687	28.0816	0.041747	0.002034	20.527	67.5347	11.0798	-0.033589	0.631306	-0.509215	-0.510549	-0.010792	20.527	-0.508821	-4.54979e+06	2.371867E-9	NaN
491	1.000000	0.674708	7.36986e+06	-52539.1	1005.82	-29749	0.000000	0.000000	6.675035	0.009380	NaN	0.000000	0.001653	0.001697	28.0815	0.098216	0.001988	49.4159	152.915	-166.195	-0.017832	0.673385	-0.467147	-0.468470	0.009380	49.4159	-0.467289	-1.19502e+06	-7.849046E-9	NaN
491	1.000000	0.716690	7.36986e+06	-52539.1	1005.82	-29749	0.000000	0.000000	6.717015	-0.016898	NaN	0.000000	0.001710	0.001684	28.0804	0.059096	0.001893	31.2239	-0.817644	13.8372	-0.021180	0.715270	-0.425165	-0.426585	-0.016898	31.2239	-0.424759	-300518	5.622904E-8	NaN
491	1.000000	0.758735	7.36986e+06	-52539.1	1005.82	-29749	0.000000	0.000000	6.759058	-0.063503	NaN	0.000000	0.001654	0.001698	28.0804	0.119002	0.001927	61.7682	-90.5318	-164.091	-0.027848	0.757453	-0.383120	-0.384402	-0.063503	61.7682	-0.382349	-74746.3	8.495849E-7	NaN
491	1.000000	0.800754	7.36986e+06	-52539.1	1005.82	-29749	0.000000	0.000000	6.801079	-0.017157	NaN	0.000000	0.001598	0.001680	28.0803	0.013114	0.001989	6.591992	151.413	14.7603	-0.006403	0.799325	-0.341101	-0.342530	-0.017157	6.591992	-0.339149	-17747.9	9.667125E-7	NaN
491	1.000000	0.842757	7.36986e+06	-52539.1	1005.82	-29749	0.000000	0.000000	6.843079	-0.086631	NaN	0.000000	0.001683	0.001654	28.0816	0.055967	0.002072	27.0047	-50.4265	-162.861	-0.050843	0.841407	-0.299098	-0.300448	-0.086631	27.0047	-0.296692	-4200.9	2.062198E-5	NaN
491	1.000000	0.884798	7.36986e+06	-52539.1	1005.82	-29749	0.000000	0.000000	6.885123	-0.029507	NaN	0.000000	0.001686	0.001721	28.0817	0.068601	0.001926	35.6113	103.83	12.5395	-0.089356	0.883398	-0.257057	-0.258457	-0.029507	35.6113	-0.256435	-1033.23	2.855745E-5	NaN
491	1.000000	0.926780	7.36986e+06	-52539.1	1005.82	-29749	0.000000	0.000000	6.927104	-0.037592	NaN	0.000000	0.001626	0.001694	28.0814	0.048812	0.001925	25.3535	-148.572	-166.452	-0.050284	0.925500	-0.215075	-0.216355	-0.037592	25.3535	-0.213963	-222.239	0.000169	NaN
491	1.000000	0.968792	7.36986e+06	-52539.1	1005.82	-29749	0.000000	0.000000	6.969117	-0.016432	NaN	0.000000	0.001640	0.001698	28.0827	0.062562	0.001941	32.2281	-68.1103	15.0497	0.019205	0.967428	-0.173063	-0.174427	-0.016432	32.2281	-0.172681	-45.712	0.000359	NaN
491	1.000000	1.010846	7.36986e+06	-52539.1	1005.82	-29749	0.000000	0.000000	7.011170	-0.055981	NaN	0.000000	0.001630	0.001694	28.0805	0.093653	0.002057	45.5185	144.708	-166.434	-0.050488	1.009511	-0.131009	-0.132344	-0.055981	45.5185	-0.130087	-7.650553	0.007317	NaN
491	1.000000	1.052864	7.36986e+06	-52539.1	1005.82	-29749	0.000000	0.000000	7.053191	0.023247	NaN	0.000000	0.001593	0.001714	28.0802	0.057971	0.002188	26.4997	-165.426	15.8142	0.031530	1.051457	-0.088990	-0.090397	0.023247	26.4997	-0.089648	-1.060619	-0.021918	NaN
491	1.000000	1.094843	7.36986e+06	-52539.1	1005.82	-29749	0.000000	0.000000	7.095170	0.011899	NaN	0.000000	0.001606	0.001684	28.0801	0.042191	0.002031	20.7781	-106.776	-166.318	0.041689	1.093534	-0.047012	-0.048321	0.011899	20.7781	-0.047441	-0.076302	-0.155952	NaN
491	1.000000	1.136861	7.36986e+06	-52539.1	1005.82	-29749	0.000000	0.000000	7.137196	0.234520	NaN	0.000000	0.001604	0.001657	28.0815	0.331226	0.001879	176.246	9.817533	13.686	0.044742	1.135517	-0.004994	-0.006338	0.234520	176.246	-0.005992	-0.004032	-58.1712	NaN
491	2.000000	1.156395	7.36986e+06	-52539.1	1005.82	-29749	0.000000	0.000000	7.157484	18.5623	NaN	0.000000	0.001589	0.001660	28.0817	15.2567	0.001787	8539.79	6.479091	-176.084	18.0051	1.156101	0.014540	0.014246	18.5623	8539.79	0.012909	0.012598	1473.47	69514.4
491	2.000000	1.166874	7.36986e+06	-52539.1	1005.82	-29749	0.000000	0.000000	7.168888	41.065	NaN	0.000000	0.001647	0.001722	28.0816	26.7734	0.001825	14668.5	8.002444	-2.960875	40.5152	1.166533	0.025019	0.024678	41.065	14668.5	0.022919	0.027338	1502.11	81053.9
491	2.000000	1.177318	7.36986e+06	-52539.1	1005.82	-29749	0.000000	0.000000	7.180643	72.9086	NaN	0.000000	0.001678	0.001717	28.0803	35.7395	0.001750	20421.2	7.274528	175.034	70.7776	1.177092	0.035463	0.035237	72.9086	20421.2	0.032786	0.046716	1560.69	86322.5
491	2.000000	1.187789	7.36986e+06	-52539.1	1005.82	-29749	0.000000	0.000000	7.192912	116.634	NaN	0.000000	0.001711	0.001679	28.0802	45.8483	0.001681	27278.2	7.148478	-6.677913	113.265	1.187414	0.045934	0.045559	116.634	27278.2	0.042727	0.071266	1636.61	93357.3
491	2.000000	1.198278	7.36986e+06	-52539.1	1005.82	-29749	0.000000	0.000000	7.205124	158.524	NaN	0.000000	0.001717	0.001730	28.0801	55.4233	0.001791	30947.4	3.678020	175.419	155.446	1.198004	0.056423	0.056149	158.524	30947.4	0.052582	0.100560	1576.41	89163
491	2.000000	1.208795	7.36986e+06	-52539.1	1005.82	-29749	0.000000	0.000000	7.218003	215.968	NaN	0.000000	0.001650	0.001656	28.0813	66.1828	0.001832	36126.7	2.274112	-4.038853	214.443	1.208496	0.066940	0.066641	215.968	36126.7	0.062457	0.134764	1602.56	89911.3
491	2.000000	1.219275	7.36986e+06	-52539.1	1005.82	-29749	0.000000	0.000000	7.231198	281.98	NaN	0.000000	0.001595	0.001692	28.0819	75.5275	0.001722	43856.5	4.216668	172.627	281.065	1.219009	0.077420	0.077154	281.98	43856.5	0.072597	0.174814	1613.03	95833.8
491	2.000000	1.229862	7.36986e+06	-52539.1	1005.82	-29749	0.000000	0.000000	7.244521	348.495	NaN	0.000000	0.001623	0.001685	28.0815	84.4735	0.001843	45838.6	4.776219	-8.477970	348.881	1.229385	0.088007	0.087530	348.495	45838.6	0.082305	0.217714	1600.7	89755.7
491	2.000000	1.240271	7.36986e+06	-52539.1	1005.82	-29749	0.000000	0.000000	7.258369	432.13	NaN	0.000000	0.001619	0.001671	28.0815	92.5403	0.001636	56574.7	7.097201	167.174	431.472	1.239975	0.098416	0.098120	432.13	56574.7	0.092687	0.268432	1609.83	99765.2
491	2.000000	1.247195	7.36986e+06	-52539.1	1005.82	-29749	0.000000	0.000000	7.267501	485.802	NaN	0.000000	0.001660	0.001663	28.0803	98.0724	0.001758	55798.8	3.314609	172.031	483.216	1.246842	0.105340	0.104987	485.802	55798.8	0.098811	0.300661	1615.78	92973.5