File: remote_trans/data/nanoindenter/0828-1/data/Data_2025-08-06,11h17m57s/2025-07-22_16-23-58_1_1101.txt
2025-07-22, 16:23:58, 1
Index	Phase	Displacement	Time	Pos X	Pos Y	Pos Z	Rot A	Rot B	Piezo Z	Force A	Force B	Gripper	Voltage A	Voltage B	Temperature	Amplitude force	Amplitude pos	Stiffness	Phase shift	Phase excitation	Force A raw	Displacement raw	HMax	HMax raw	Real Force	Real Stiffness	Contact Depth	Area	Hardness	Reduced Mod.
[#]	[#]	[um]	[s]	[um]	[um]	[um]	[m°]	[m°]	[um]	[uN]	[uN]	[V]	[V]	[V]	[°C]	[uN]	[um]	[N/m]	[°]	[°]	[uN]	[um]	[um]	[um]	[uN]	[N/m]	[um]	[um^2]	[MPa]	[MPa]
1101	1.000000	0.002410	7.37582e+06	-55189.1	1055.82	-29742	0.000000	0.000000	6.002811	-0.060303	NaN	0.000000	0.001723	0.001759	28.0841	0.061498	0.000855	71.8971	31.4223	-155.797	-0.126991	0.001133	-1.142919	-1.144196	-0.060303	71.8971	-1.142289	-1.851137E+15	3.257605E-17	NaN
1101	1.000000	0.044357	7.37582e+06	-55189.1	1055.82	-29742	0.000000	0.000000	6.044762	0.029005	NaN	0.000000	0.001724	0.001690	28.0838	0.041950	0.002082	20.1537	116.381	14.3811	-0.055558	0.043009	-1.100972	-1.102319	0.029005	20.1537	-1.102051	-5.340736E+14	-5.430808E-17	NaN
1101	1.000000	0.086354	7.37582e+06	-55189.1	1055.82	-29742	0.000000	0.000000	6.086758	0.006490	NaN	0.000000	0.001718	0.001684	28.083	0.059780	0.002105	28.4029	-166.325	-163.089	0.007465	0.085065	-1.058975	-1.060263	0.006490	28.4029	-1.059146	-1.416929E+14	-4.580249E-17	NaN
1101	1.000000	0.128341	7.37582e+06	-55189.1	1055.82	-29742	0.000000	0.000000	6.128746	0.032396	NaN	0.000000	0.001668	0.001720	28.0829	0.154747	0.001980	78.1491	-97.9146	12.5175	0.072330	0.127010	-1.016988	-1.018318	0.032396	78.1491	-1.017298	-3.877942E+13	-8.353980E-16	NaN
1101	1.000000	0.170394	7.37582e+06	-55189.1	1055.82	-29742	0.000000	0.000000	6.170800	0.042988	NaN	0.000000	0.001627	0.001649	28.0827	0.004941	0.001964	2.515740	108.099	-163.611	0.020965	0.169125	-0.974935	-0.976203	0.042988	2.515740	-0.987750	-1.551720E+13	-2.770359E-15	NaN
1101	1.000000	0.212424	7.37582e+06	-55189.1	1055.82	-29742	0.000000	0.000000	6.212824	-0.098218	NaN	0.000000	0.001644	0.001697	28.0826	0.030009	0.002070	14.4994	4.491056	12.1512	-0.090552	0.211076	-0.932905	-0.934252	-0.098218	14.4994	-0.927824	-2.414534E+12	4.067768E-14	NaN
1101	1.000000	0.254426	7.37582e+06	-55189.1	1055.82	-29742	0.000000	0.000000	6.254831	0.032192	NaN	0.000000	0.001672	0.001699	28.0836	0.072633	0.001974	36.7873	84.6607	-164.252	0.043304	0.253090	-0.890903	-0.892239	0.032192	36.7873	-0.891559	-7.816160E+11	-4.118595E-14	NaN
1101	1.000000	0.296449	7.37582e+06	-55189.1	1055.82	-29742	0.000000	0.000000	6.296851	-0.025428	NaN	0.000000	0.001681	0.001710	28.0838	0.063340	0.002053	30.8578	-73.46	14.7784	-0.002188	0.295042	-0.848880	-0.850286	-0.025428	30.8578	-0.848262	-2.028627E+11	1.253441E-13	NaN
1101	1.000000	0.338461	7.37582e+06	-55189.1	1055.82	-29742	0.000000	0.000000	6.338865	0.012267	NaN	0.000000	0.001648	0.001708	28.0834	0.095165	0.001873	50.8042	-134.945	-169.061	-0.036770	0.337109	-0.806868	-0.808219	0.012267	50.8042	-0.807049	-5.604352E+10	-2.188769E-13	NaN
1101	1.000000	0.380484	7.37582e+06	-55189.1	1055.82	-29742	0.000000	0.000000	6.380887	-0.024801	NaN	0.000000	0.001691	0.001702	28.0827	0.053787	0.002042	26.3349	174.555	13.6916	-0.025776	0.379115	-0.764844	-0.766213	-0.024801	26.3349	-0.764138	-1.464157E+10	1.693907E-12	NaN
1101	1.000000	0.422501	7.37582e+06	-55189.1	1055.82	-29742	0.000000	0.000000	6.422903	-0.030927	NaN	0.000000	0.001663	0.001687	28.0827	0.055885	0.001981	28.2104	-34.5528	-163.58	0.077301	0.421235	-0.722828	-0.724093	-0.030927	28.2104	-0.722006	-3.906828E+9	7.916187E-12	NaN
1101	1.000000	0.464533	7.37582e+06	-55189.1	1055.82	-29742	0.000000	0.000000	6.464934	-0.090365	NaN	0.000000	0.001660	0.001681	28.0828	0.062716	0.001954	32.0981	49.4405	14.5092	-0.091864	0.463175	-0.680795	-0.682154	-0.090365	32.0981	-0.678684	-1.000467E+9	9.032291E-11	NaN
1101	1.000000	0.506515	7.37582e+06	-55189.1	1055.82	-29742	0.000000	0.000000	6.506918	-0.011197	NaN	0.000000	0.001683	0.001661	28.0837	0.101112	0.002131	47.4484	95.6128	-167.195	-0.044719	0.505235	-0.638814	-0.640093	-0.011197	47.4484	-0.638637	-2.828678E+8	3.958441E-11	NaN
1101	1.000000	0.548552	7.37583e+06	-55189.1	1055.82	-29742	0.000000	0.000000	6.548955	-0.025843	NaN	0.000000	0.001662	0.001696	28.0835	0.035408	0.001947	18.1849	42.4934	12.0163	0.099471	0.547198	-0.596777	-0.598130	-0.025843	18.1849	-0.595711	-7.267305E+7	3.556115E-10	NaN
1101	1.000000	0.590569	7.37583e+06	-55189.1	1055.82	-29742	0.000000	0.000000	6.590972	-0.006935	NaN	0.000000	0.001651	0.001635	28.0835	0.030268	0.002008	15.077	-178.841	-168.063	-0.047886	0.589298	-0.554760	-0.556031	-0.006935	15.077	-0.554415	-1.954734E+7	3.547875E-10	NaN
1101	1.000000	0.632574	7.37583e+06	-55189.1	1055.82	-29742	0.000000	0.000000	6.632978	-0.009361	NaN	0.000000	0.001670	0.001717	28.0826	0.104685	0.002154	48.609	109.214	12.9455	0.051784	0.631255	-0.512754	-0.514074	-0.009361	48.609	-0.512610	-5.13757e+06	1.821996E-9	NaN
1101	1.000000	0.674603	7.37583e+06	-55189.1	1055.82	-29742	0.000000	0.000000	6.675007	0.004941	NaN	0.000000	0.001687	0.001712	28.0826	0.082969	0.001924	43.1321	130.222	-164.089	-0.072202	0.673295	-0.470725	-0.472034	0.004941	43.1321	-0.470811	-1.33902e+06	-3.690058E-9	NaN
1101	1.000000	0.716608	7.37583e+06	-55189.1	1055.82	-29742	0.000000	0.000000	6.717013	0.025382	NaN	0.000000	0.001716	0.001653	28.0826	0.073927	0.002065	35.7973	112.67	15.4189	0.054896	0.715256	-0.428720	-0.430073	0.025382	35.7973	-0.429252	-347918	-7.295405E-8	NaN
1101	1.000000	0.758642	7.37583e+06	-55189.1	1055.82	-29742	0.000000	0.000000	6.759048	0.065098	NaN	0.000000	0.001671	0.001677	28.0829	0.102152	0.001986	51.4402	151.719	-166.062	0.005308	0.757329	-0.386687	-0.388000	0.065098	51.4402	-0.387636	-88989.3	-7.315215E-7	NaN
1101	1.000000	0.800663	7.37583e+06	-55189.1	1055.82	-29742	0.000000	0.000000	6.801066	-0.017670	NaN	0.000000	0.001669	0.001647	28.0838	0.019094	0.002152	8.873111	-45.5573	14.4471	0.071557	0.799275	-0.344666	-0.346054	-0.017670	8.873111	-0.343172	-20312.4	8.699322E-7	NaN
1101	1.000000	0.842672	7.37583e+06	-55189.1	1055.82	-29742	0.000000	0.000000	6.843075	-0.021428	NaN	0.000000	0.001697	0.001752	28.0835	0.057410	0.001855	30.9535	95.3538	-167.792	-0.028073	0.841372	-0.302657	-0.303956	-0.021428	30.9535	-0.302138	-5063.34	4.231991E-6	NaN
1101	1.000000	0.884705	7.37583e+06	-55189.1	1055.82	-29742	0.000000	0.000000	6.885110	0.029294	NaN	0.000000	0.001725	0.001770	28.0832	0.122373	0.001986	61.6138	-86.0968	15.8546	-0.027604	0.883349	-0.260623	-0.261979	0.029294	61.6138	-0.260980	-1213.2	-2.414584E-5	NaN
1101	1.000000	0.926677	7.37583e+06	-55189.1	1055.82	-29742	0.000000	0.000000	6.927079	-0.031664	NaN	0.000000	0.001715	0.001715	28.0825	0.106900	0.001979	54.0062	118.027	-165.589	-0.017084	0.925404	-0.218652	-0.219925	-0.031664	54.0062	-0.218212	-260.061	0.000122	NaN
1101	1.000000	0.968725	7.37583e+06	-55189.1	1055.82	-29742	0.000000	0.000000	6.969127	-0.038292	NaN	0.000000	0.001771	0.001751	28.0822	0.050604	0.002081	24.3116	177.824	9.887228	-0.039165	0.967371	-0.176604	-0.177958	-0.038292	24.3116	-0.175422	-50.9606	0.000751	NaN
1101	1.000000	1.010731	7.37583e+06	-55189.1	1055.82	-29742	0.000000	0.000000	7.011136	0.049678	NaN	0.000000	0.001766	0.001750	28.0822	0.097649	0.001960	49.8215	-76.1258	-163.968	0.014515	1.009399	-0.134598	-0.135929	0.049678	49.8215	-0.135346	-9.658042	-0.005144	NaN
1101	1.000000	1.052763	7.37583e+06	-55189.1	1055.82	-29742	0.000000	0.000000	7.053166	-0.028214	NaN	0.000000	0.001732	0.001745	28.0833	0.077816	0.002016	38.599	98.4102	13.3251	0.051356	1.051416	-0.092566	-0.093912	-0.028214	38.599	-0.092017	-1.204670	0.023420	NaN
1101	1.000000	1.094750	7.37583e+06	-55189.1	1055.82	-29742	0.000000	0.000000	7.095153	-0.018232	NaN	0.000000	0.001735	0.001748	28.0834	0.038029	0.001937	19.6333	93.9735	-166.779	0.080059	1.093462	-0.050579	-0.051867	-0.018232	19.6333	-0.049882	-0.090504	0.201445	NaN
1101	1.000000	1.136775	7.37583e+06	-55189.1	1055.82	-29742	0.000000	0.000000	7.137178	-0.011818	NaN	0.000000	0.001685	0.001756	28.0834	0.058777	0.001913	30.7193	93.4697	13.7263	0.041904	1.135472	-0.008554	-0.009857	-0.011818	30.7193	-0.008265	-0.005387	2.193985	NaN
1101	2.000000	1.158334	7.37583e+06	-55189.1	1055.82	-29742	0.000000	0.000000	7.159423	16.6447	NaN	0.000000	0.001689	0.001700	28.0823	15.9403	0.001882	8471.88	5.038583	-172.447	17.1454	1.158061	0.013006	0.012733	16.6447	8471.88	0.011532	0.010934	1522.24	74021.2
1101	2.000000	1.168779	7.37583e+06	-55189.1	1055.82	-29742	0.000000	0.000000	7.170922	42.2731	NaN	0.000000	0.001658	0.001744	28.0822	26.2809	0.001775	14806.2	6.072725	-0.310670	40.6862	1.168527	0.023451	0.023199	42.2731	14806.2	0.021309	0.024641	1715.53	86175.5
1101	2.000000	1.179266	7.37583e+06	-55189.1	1055.82	-29742	0.000000	0.000000	7.182796	75.992	NaN	0.000000	0.001651	0.001719	28.0823	35.4482	0.001700	20856.2	3.592142	179.009	74.397	1.178952	0.033938	0.033623	75.992	20856.2	0.031205	0.043278	1755.9	91595.6
1101	2.000000	1.189781	7.37583e+06	-55189.1	1055.82	-29742	0.000000	0.000000	7.194857	113.584	NaN	0.000000	0.001676	0.001734	28.0826	45.5587	0.001656	27510.8	4.832136	-5.207234	111.98	1.189471	0.044452	0.044142	113.584	27510.8	0.041356	0.067579	1680.76	96687.3
1101	2.000000	1.200283	7.37583e+06	-55189.1	1055.82	-29742	0.000000	0.000000	7.207660	169.526	NaN	0.000000	0.001691	0.001786	28.0839	55.8258	0.001866	29914.5	5.744310	175.377	168.067	1.199812	0.054954	0.054483	169.526	29914.5	0.050704	0.094601	1792.02	88860.4
1101	2.000000	1.210707	7.37583e+06	-55189.1	1055.82	-29742	0.000000	0.000000	7.220383	225.406	NaN	0.000000	0.001683	0.001659	28.0837	64.965	0.001775	36598.4	0.269526	-2.126617	221.487	1.210387	0.065378	0.065058	225.406	36598.4	0.060759	0.128544	1753.53	93262.8
1101	2.000000	1.221149	7.37583e+06	-55189.1	1055.82	-29742	0.000000	0.000000	7.233529	291.116	NaN	0.000000	0.001707	0.001622	28.0838	76.116	0.001704	44668.8	4.240145	172.567	287.474	1.220871	0.075821	0.075543	291.116	44668.8	0.070933	0.167903	1733.83	99597.3
1101	2.000000	1.231711	7.37583e+06	-55189.1	1055.82	-29742	0.000000	0.000000	7.246783	356.546	NaN	0.000000	0.001665	0.001642	28.0823	86.8202	0.001835	47309.8	3.714384	-7.394724	352.875	1.231374	0.086383	0.086045	356.546	47309.8	0.080731	0.210457	1694.15	94219.8
1101	2.000000	1.242091	7.37583e+06	-55189.1	1055.82	-29742	0.000000	0.000000	7.260921	447.906	NaN	0.000000	0.001708	0.001640	28.0829	96.1827	0.001796	53548.8	6.068528	169.861	440.963	1.241704	0.096763	0.096375	447.906	53548.8	0.090489	0.257282	1740.92	96453.6
1101	2.000000	1.250214	7.37583e+06	-55189.1	1055.82	-29742	0.000000	0.000000	7.271743	513.536	NaN	0.000000	0.001696	0.001632	28.0827	103.1	0.001817	56739.9	7.088238	168.666	513.669	1.249798	0.104886	0.104469	513.536	56739.9	0.098098	0.296821	1730.12	95151.2