File: remote_trans/data/nanoindenter/0828-1/data/Data_2025-08-06,11h17m57s/2025-07-22_16-23-58_1_1120.txt
2025-07-22, 16:23:58, 1
Index	Phase	Displacement	Time	Pos X	Pos Y	Pos Z	Rot A	Rot B	Piezo Z	Force A	Force B	Gripper	Voltage A	Voltage B	Temperature	Amplitude force	Amplitude pos	Stiffness	Phase shift	Phase excitation	Force A raw	Displacement raw	HMax	HMax raw	Real Force	Real Stiffness	Contact Depth	Area	Hardness	Reduced Mod.
[#]	[#]	[um]	[s]	[um]	[um]	[um]	[m°]	[m°]	[um]	[uN]	[uN]	[V]	[V]	[V]	[°C]	[uN]	[um]	[N/m]	[°]	[°]	[uN]	[um]	[um]	[um]	[uN]	[N/m]	[um]	[um^2]	[MPa]	[MPa]
1120	1.000000	0.002098	7.37601e+06	-56139.1	1055.82	-29739.7	0.000000	0.000000	6.002795	0.056879	NaN	0.000000	0.001580	0.001712	28.0831	0.062531	0.001034	60.4795	67.4131	-159.401	-0.006716	0.000861	-1.080111	-1.081348	0.056879	60.4795	-1.080816	-2.770005E+14	-2.053398E-16	NaN
1120	1.000000	0.042037	7.37601e+06	-56139.1	1055.82	-29739.7	0.000000	0.000000	6.042730	-0.012843	NaN	0.000000	0.001552	0.001675	28.0828	0.074223	0.001942	38.2276	-157.105	-165.482	0.049354	0.040745	-1.040172	-1.041464	-0.012843	38.2276	-1.039920	-7.814422E+13	1.643481E-16	NaN
1120	1.000000	0.082094	7.37601e+06	-56139.1	1055.82	-29739.7	0.000000	0.000000	6.082788	0.003989	NaN	0.000000	0.001543	0.001711	28.0826	0.102901	0.002058	49.9969	-61.627	-166.418	0.043144	0.080790	-1.000115	-1.001419	0.003989	49.9969	-1.000175	-2.281015E+13	-1.749001E-16	NaN
1120	1.000000	0.122078	7.37601e+06	-56139.1	1055.82	-29739.7	0.000000	0.000000	6.122774	0.068618	NaN	0.000000	0.001569	0.001707	28.0841	0.096367	0.002120	45.4502	76.0618	-163.969	0.016029	0.120779	-0.960131	-0.961430	0.068618	45.4502	-0.961264	-6.821907E+12	-1.005845E-14	NaN
1120	1.000000	0.162085	7.37601e+06	-56139.1	1055.82	-29739.7	0.000000	0.000000	6.162777	-0.037126	NaN	0.000000	0.001554	0.001722	28.0842	0.048284	0.002097	23.0281	148.493	-165.239	0.066448	0.160811	-0.920125	-0.921398	-0.037126	23.0281	-0.918915	-1.830465E+12	2.028236E-14	NaN
1120	1.000000	0.202105	7.37601e+06	-56139.1	1055.82	-29739.7	0.000000	0.000000	6.202798	-0.037601	NaN	0.000000	0.001574	0.001662	28.0841	0.018097	0.001994	9.076705	-84.6383	-164.413	-0.027692	0.200780	-0.880104	-0.881429	-0.037601	9.076705	-0.876997	-4.966988E+11	7.570171E-14	NaN
1120	1.000000	0.242130	7.37601e+06	-56139.1	1055.82	-29739.7	0.000000	0.000000	6.242829	0.121468	NaN	0.000000	0.001550	0.001683	28.0827	0.046839	0.001987	23.5674	53.8998	-162.107	0.080264	0.240822	-0.840079	-0.841387	0.121468	23.5674	-0.843945	-1.773086E+11	-6.850645E-13	NaN
1120	1.000000	0.282146	7.37601e+06	-56139.1	1055.82	-29739.7	0.000000	0.000000	6.282843	0.056612	NaN	0.000000	0.001606	0.001685	28.0827	0.084207	0.002032	41.4383	-38.6159	-160.042	0.080043	0.280873	-0.800063	-0.801336	0.056612	41.4383	-0.801087	-4.651809E+10	-1.216986E-12	NaN
1120	1.000000	0.322165	7.37601e+06	-56139.1	1055.82	-29739.7	0.000000	0.000000	6.322857	-0.028906	NaN	0.000000	0.001569	0.001688	28.0823	0.024589	0.001978	12.4312	-131.034	-161.588	0.012229	0.320893	-0.760044	-0.761316	-0.028906	12.4312	-0.758300	-1.219491E+10	2.370307E-12	NaN
1120	1.000000	0.362217	7.37601e+06	-56139.1	1055.82	-29739.7	0.000000	0.000000	6.362910	-0.015290	NaN	0.000000	0.001615	0.001681	28.0826	0.133577	0.001967	67.912	-81.9193	-164.958	-0.096117	0.360886	-0.719992	-0.721323	-0.015290	67.912	-0.719824	-3.648104E+9	4.191181E-12	NaN
1120	1.000000	0.402201	7.37601e+06	-56139.1	1055.82	-29739.7	0.000000	0.000000	6.402894	-0.010947	NaN	0.000000	0.001576	0.001653	28.084	0.065431	0.002019	32.4043	67.5731	-164.997	0.081938	0.400884	-0.680008	-0.681325	-0.010947	32.4043	-0.679755	-1.034796E+9	1.057843E-11	NaN
1120	1.000000	0.442234	7.37601e+06	-56139.1	1055.82	-29739.7	0.000000	0.000000	6.442930	0.056250	NaN	0.000000	0.001605	0.001737	28.0843	0.129390	0.002059	62.8295	-77.2646	-167.277	0.073191	0.440873	-0.639975	-0.641336	0.056250	62.8295	-0.640646	-3.014105E+8	-1.866241E-10	NaN
1120	1.000000	0.482226	7.37601e+06	-56139.1	1055.82	-29739.7	0.000000	0.000000	6.482922	0.049875	NaN	0.000000	0.001605	0.001730	28.0843	0.081023	0.001900	42.6523	126.43	-165.54	0.027201	0.480955	-0.599983	-0.601254	0.049875	42.6523	-0.600860	-8.556566E+7	-5.828813E-10	NaN
1120	1.000000	0.522280	7.37601e+06	-56139.1	1055.82	-29739.7	0.000000	0.000000	6.522973	-0.001543	NaN	0.000000	0.001577	0.001726	28.0827	0.027590	0.002009	13.7363	-7.139622	-165.644	0.075047	0.520957	-0.559929	-0.561252	-0.001543	13.7363	-0.559845	-2.323999E+7	6.639522E-11	NaN
1120	1.000000	0.562275	7.37601e+06	-56139.1	1055.82	-29739.7	0.000000	0.000000	6.562970	0.042587	NaN	0.000000	0.001570	0.001748	28.0829	0.033643	0.002015	16.6965	32.0686	-165.275	0.077667	0.560923	-0.519934	-0.521286	0.042587	16.6965	-0.521847	-6.90695e+06	-6.165880E-9	NaN
1120	1.000000	0.602296	7.37601e+06	-56139.1	1055.82	-29739.7	0.000000	0.000000	6.602989	-0.007168	NaN	0.000000	0.001550	0.001738	28.0828	0.034698	0.002004	17.311	13.943	-162.336	-0.040658	0.600991	-0.479913	-0.481218	-0.007168	17.311	-0.479603	-1.77815e+06	4.030884E-9	NaN
1120	1.000000	0.642337	7.37601e+06	-56139.1	1055.82	-29739.7	0.000000	0.000000	6.643032	0.026046	NaN	0.000000	0.001613	0.001688	28.0834	0.038504	0.001902	20.2413	80.9711	-166.079	-0.064749	0.640977	-0.439872	-0.441232	0.026046	20.2413	-0.440837	-507201	-5.135198E-8	NaN
1120	1.000000	0.682271	7.37601e+06	-56139.1	1055.82	-29739.7	0.000000	0.000000	6.682962	-0.057910	NaN	0.000000	0.001612	0.001736	28.0834	0.093621	0.002030	46.1253	41.7084	-166.205	-0.084679	0.681003	-0.399938	-0.401206	-0.057910	46.1253	-0.398997	-129325	4.477875E-7	NaN
1120	1.000000	0.722347	7.37601e+06	-56139.1	1055.82	-29739.7	0.000000	0.000000	6.723041	0.011177	NaN	0.000000	0.001560	0.001681	28.0836	0.028864	0.002017	14.3117	130.229	-160.512	0.025509	0.720966	-0.359862	-0.361243	0.011177	14.3117	-0.360448	-36167.6	-3.090453E-7	NaN
1120	1.000000	0.762364	7.37601e+06	-56139.1	1055.82	-29739.7	0.000000	0.000000	6.763057	-0.022067	NaN	0.000000	0.001639	0.001715	28.0837	0.108204	0.001949	55.5066	-156.469	-167.331	-0.011487	0.761030	-0.319845	-0.321180	-0.022067	55.5066	-0.319547	-9161.65	2.408579E-6	NaN
1120	1.000000	0.802351	7.37601e+06	-56139.1	1055.82	-29739.7	0.000000	0.000000	6.803045	0.002392	NaN	0.000000	0.001644	0.001725	28.0824	0.023910	0.002001	11.9486	-103.224	-162.601	-0.018533	0.801063	-0.279858	-0.281146	0.002392	11.9486	-0.280008	-2360.99	-1.013296E-6	NaN
1120	1.000000	0.842384	7.37601e+06	-56139.1	1055.82	-29739.7	0.000000	0.000000	6.843081	0.063263	NaN	0.000000	0.001608	0.001758	28.0822	0.130451	0.001954	66.7694	178.868	-164.065	0.092775	0.841072	-0.239825	-0.241137	0.063263	66.7694	-0.240535	-586.02	-0.000108	NaN
1120	1.000000	0.882410	7.37601e+06	-56139.1	1055.82	-29739.7	0.000000	0.000000	6.883102	-0.037147	NaN	0.000000	0.001592	0.001766	28.0826	0.033820	0.002043	16.5556	109.187	-166.136	-0.013605	0.881132	-0.199799	-0.201078	-0.037147	16.5556	-0.198117	-122.66	0.000303	NaN
1120	1.000000	0.922399	7.37601e+06	-56139.1	1055.82	-29739.7	0.000000	0.000000	6.923092	-0.011148	NaN	0.000000	0.001627	0.001772	28.084	0.069921	0.002034	34.3824	30.3054	-166.529	-0.009453	0.921100	-0.159811	-0.161110	-0.011148	34.3824	-0.159567	-26.9336	0.000414	NaN
1120	1.000000	0.962437	7.37601e+06	-56139.1	1055.82	-29739.7	0.000000	0.000000	6.963133	0.043035	NaN	0.000000	0.001602	0.001736	28.0835	0.098204	0.001972	49.79	124.835	-171.546	-0.009645	0.961107	-0.119772	-0.121102	0.043035	49.79	-0.120420	-4.926727	-0.008735	NaN
1120	1.000000	1.002432	7.37601e+06	-56139.1	1055.82	-29739.7	0.000000	0.000000	7.003124	-0.048598	NaN	0.000000	0.001600	0.001724	28.0837	0.072477	0.001945	37.2595	40.613	-164.867	-0.002728	1.001156	-0.079777	-0.081053	-0.048598	37.2595	-0.078799	-0.577471	0.084157	NaN
1120	1.000000	1.042467	7.37601e+06	-56139.1	1055.82	-29739.7	0.000000	0.000000	7.043162	0.026421	NaN	0.000000	0.001593	0.001746	28.0839	0.085112	0.001865	45.6347	-37.3209	-165.488	-0.022777	1.041184	-0.039742	-0.041025	0.026421	45.6347	-0.040177	-0.045784	-0.577069	NaN
1120	1.000000	1.082462	7.37601e+06	-56139.1	1055.82	-29739.7	0.000000	0.000000	7.083343	4.558137	NaN	0.000000	0.001579	0.001776	28.0824	5.255000	0.001769	2970.12	8.109149	-166.279	3.308333	1.081098	0.000253	-0.001111	4.558137	2970.12	-0.000898	-0.000660	-6909.74	NaN
1120	2.000000	1.095053	7.37601e+06	-56139.1	1055.82	-29739.7	0.000000	0.000000	7.096706	23.3168	NaN	0.000000	0.001588	0.001772	28.0824	19.2877	0.001787	10792	7.007554	-178.002	23.7434	1.094738	0.012844	0.012529	23.3168	10792	0.011223	0.010573	2205.29	95890.3
1120	2.000000	1.104941	7.37601e+06	-56139.1	1055.82	-29739.7	0.000000	0.000000	7.107468	44.5586	NaN	0.000000	0.001587	0.001725	28.0822	28.296	0.001742	16239.6	0.211915	-176.364	42.5681	1.104678	0.022732	0.022469	44.5586	16239.6	0.020674	0.023613	1887.06	96555.5
1120	2.000000	1.115014	7.37601e+06	-56139.1	1055.82	-29739.7	0.000000	0.000000	7.118711	72.9874	NaN	0.000000	0.001600	0.001693	28.0838	38.1015	0.001848	20617.4	7.163071	176.013	75.3493	1.114672	0.032805	0.032463	72.9874	20617.4	0.030150	0.041055	1777.79	92965.8
1120	2.000000	1.124966	7.37601e+06	-56139.1	1055.82	-29739.7	0.000000	0.000000	7.130261	111.853	NaN	0.000000	0.001603	0.001721	28.0833	48.6608	0.001828	26616.7	8.693179	171.008	111.16	1.124653	0.042757	0.042444	111.853	26616.7	0.039605	0.063011	1775.13	96876.6
1120	2.000000	1.134920	7.37601e+06	-56139.1	1055.82	-29739.7	0.000000	0.000000	7.142162	159.182	NaN	0.000000	0.001563	0.001696	28.0837	58.0574	0.001889	30737.4	8.507911	170.796	156.943	1.134631	0.052710	0.052421	159.182	30737.4	0.048826	0.088820	1792.18	94229
1120	2.000000	1.144896	7.37601e+06	-56139.1	1055.82	-29739.7	0.000000	0.000000	7.154397	214.097	NaN	0.000000	0.001628	0.001743	28.0837	66.5785	0.001844	36098.6	6.188853	171.648	212.656	1.144603	0.062686	0.062394	214.097	36098.6	0.058238	0.119567	1790.6	95380.2
1120	2.000000	1.154837	7.37601e+06	-56139.1	1055.82	-29739.7	0.000000	0.000000	7.166762	272.988	NaN	0.000000	0.001595	0.001729	28.0825	75.6393	0.001780	42499	1.523022	175.195	268.054	1.154582	0.072628	0.072373	272.988	42499	0.067811	0.155297	1757.85	98530.6
1120	2.000000	1.164858	7.37601e+06	-56139.1	1055.82	-29739.7	0.000000	0.000000	7.179116	329.713	NaN	0.000000	0.001586	0.001748	28.0828	87.1745	0.001834	47527.3	4.366354	171.306	327.543	1.164683	0.082649	0.082474	329.713	47527.3	0.077446	0.195688	1684.89	98159.8
1120	2.000000	1.174834	7.37601e+06	-56139.1	1055.82	-29739.7	0.000000	0.000000	7.192436	410.99	NaN	0.000000	0.001640	0.001773	28.0827	96.836	0.001911	50659.7	2.414725	172.872	407.85	1.174592	0.092625	0.092383	410.99	50659.7	0.086540	0.237803	1728.28	94913.4
1120	2.000000	1.184377	7.37601e+06	-56139.1	1055.82	-29739.7	0.000000	0.000000	7.205085	486.487	NaN	0.000000	0.001592	0.001794	28.0838	104.004	0.001862	55860.9	4.986236	-10.0986	483.336	1.184068	0.102168	0.101859	486.487	55860.9	0.095636	0.283738	1714.56	95812.6