File: remote_trans/data/nanoindenter/0828-1/data/Data_2025-08-06,11h17m57s/2025-07-22_16-23-58_1_101.txt
2025-07-22, 16:23:58, 1
Index	Phase	Displacement	Time	Pos X	Pos Y	Pos Z	Rot A	Rot B	Piezo Z	Force A	Force B	Gripper	Voltage A	Voltage B	Temperature	Amplitude force	Amplitude pos	Stiffness	Phase shift	Phase excitation	Force A raw	Displacement raw	HMax	HMax raw	Real Force	Real Stiffness	Contact Depth	Area	Hardness	Reduced Mod.
[#]	[#]	[um]	[s]	[um]	[um]	[um]	[m°]	[m°]	[um]	[uN]	[uN]	[V]	[V]	[V]	[°C]	[uN]	[um]	[N/m]	[°]	[°]	[uN]	[um]	[um]	[um]	[uN]	[N/m]	[um]	[um^2]	[MPa]	[MPa]
101	1.000000	0.002930	7.36602e+06	-43689.1	955.819	-29778.8	0.000000	0.000000	6.002801	0.063942	NaN	0.000000	0.001569	0.001655	28.1005	0.101597	0.000981	103.577	-21.957	-167.099	0.091472	0.001701	-0.981113	-0.982342	0.063942	103.577	-0.981576	-1.281268E+13	-4.990491E-15	NaN
101	1.000000	0.040906	7.36603e+06	-43689.1	955.819	-29778.8	0.000000	0.000000	6.040777	0.071659	NaN	0.000000	0.001592	0.001626	28.1275	0.007810	0.001921	4.066663	-48.7217	14.2875	-0.011489	0.039515	-0.943137	-0.944527	0.071659	4.066663	-0.956353	-5.857277E+12	-1.223425E-14	NaN
101	1.000000	0.078881	7.36603e+06	-43689.1	955.819	-29778.8	0.000000	0.000000	6.078750	0.014886	NaN	0.000000	0.001600	0.001601	28.0905	0.036642	0.002014	18.1898	-127.688	-163.785	-0.009286	0.077622	-0.905161	-0.906421	0.014886	18.1898	-0.905775	-1.216450E+12	-1.223746E-14	NaN
101	1.000000	0.116884	7.36603e+06	-43689.1	955.819	-29778.8	0.000000	0.000000	6.116754	0.031168	NaN	0.000000	0.001590	0.001656	28.0757	0.061286	0.001969	31.1249	-105.603	13.0542	-0.016921	0.115505	-0.867159	-0.868537	0.031168	31.1249	-0.867910	-3.742515E+11	-8.328002E-14	NaN
101	1.000000	0.154918	7.36603e+06	-43689.1	955.819	-29778.8	0.000000	0.000000	6.154787	-0.000545	NaN	0.000000	0.001562	0.001650	28.0985	0.052158	0.001781	29.28	59.0467	-165.537	0.045511	0.153618	-0.829124	-0.830425	-0.000545	29.28	-0.829111	-1.116164E+11	4.884399E-15	NaN
101	1.000000	0.192966	7.36603e+06	-43689.1	955.819	-29778.8	0.000000	0.000000	6.192836	0.018643	NaN	0.000000	0.001619	0.001627	28.1259	0.110104	0.002150	51.2056	158.148	14.4175	-0.010491	0.191637	-0.791076	-0.792406	0.018643	51.2056	-0.791349	-3.430906E+10	-5.433931E-13	NaN
101	1.000000	0.230955	7.36603e+06	-43689.1	955.819	-29778.8	0.000000	0.000000	6.230822	-0.036041	NaN	0.000000	0.001583	0.001685	28.091	0.077374	0.002053	37.6934	174.872	-165.735	0.019903	0.229647	-0.753088	-0.754395	-0.036041	37.6934	-0.752371	-1.012727E+10	3.558766E-12	NaN
101	1.000000	0.269003	7.36603e+06	-43689.1	955.818	-29778.8	0.000000	0.000000	6.268867	-0.096775	NaN	0.000000	0.001581	0.001687	28.0782	0.158873	0.001971	80.6038	143.288	13.2361	-0.127037	0.267641	-0.715040	-0.716402	-0.096775	80.6038	-0.714140	-3.051638E+9	3.171239E-11	NaN
101	1.000000	0.307029	7.36603e+06	-43689.1	955.818	-29778.8	0.000000	0.000000	6.306898	-0.000308	NaN	0.000000	0.001561	0.001666	28.1019	0.146142	0.002052	71.2209	-171.901	-162.93	0.068923	0.305698	-0.677014	-0.678344	-0.000308	71.2209	-0.677010	-9.491051E+8	3.242296E-13	NaN
101	1.000000	0.344998	7.36603e+06	-43689.1	955.818	-29778.8	0.000000	0.000000	6.344867	0.029296	NaN	0.000000	0.001579	0.001665	28.1262	0.077466	0.001924	40.256	-105.705	10.1512	0.062543	0.343665	-0.639045	-0.640378	0.029296	40.256	-0.639591	-2.915252E+8	-1.004924E-10	NaN
101	1.000000	0.383034	7.36603e+06	-43689.1	955.818	-29778.8	0.000000	0.000000	6.382904	0.025503	NaN	0.000000	0.001559	0.001651	28.0897	0.028819	0.001910	15.0904	34.7736	-163.466	-0.039886	0.381751	-0.601009	-0.602291	0.025503	15.0904	-0.602276	-8.949620E+7	-2.849588E-10	NaN
101	1.000000	0.421055	7.36603e+06	-43689.1	955.82	-29778.8	0.000000	0.000000	6.420923	-0.017310	NaN	0.000000	0.001564	0.001661	28.0771	0.103134	0.002061	50.0389	-158.734	14.1766	0.024328	0.419694	-0.562988	-0.564349	-0.017310	50.0389	-0.562728	-2.547515E+7	6.795033E-10	NaN
101	1.000000	0.459044	7.36603e+06	-43689.1	955.818	-29778.8	0.000000	0.000000	6.458909	-0.088368	NaN	0.000000	0.001644	0.001703	28.1005	0.112283	0.001808	62.1202	166.23	-165.016	-0.043110	0.457733	-0.524999	-0.526310	-0.088368	62.1202	-0.523932	-7.38357e+06	1.196824E-8	NaN
101	1.000000	0.497043	7.36603e+06	-43689.1	955.818	-29778.8	0.000000	0.000000	6.496911	-0.026609	NaN	0.000000	0.001583	0.001693	28.1272	0.070229	0.002085	33.686	-160.164	14.362	0.008081	0.495690	-0.487000	-0.488353	-0.026609	33.686	-0.486407	-2.21396e+06	1.201873E-8	NaN
101	1.000000	0.535110	7.36603e+06	-43689.1	955.819	-29778.8	0.000000	0.000000	6.534977	-0.020234	NaN	0.000000	0.001635	0.001698	28.0891	0.035147	0.002000	17.5743	159.516	-165.308	0.012038	0.533761	-0.448933	-0.450282	-0.020234	17.5743	-0.448070	-641434	3.154460E-8	NaN
101	1.000000	0.573097	7.36603e+06	-43689.1	955.819	-29778.8	0.000000	0.000000	6.572966	0.003007	NaN	0.000000	0.001576	0.001672	28.0793	0.052525	0.002043	25.706	-142.172	12.9376	-0.054691	0.571799	-0.410945	-0.412243	0.003007	25.706	-0.411033	-191907	-1.567009E-8	NaN
101	1.000000	0.611114	7.36603e+06	-43689.1	955.819	-29778.8	0.000000	0.000000	6.610986	0.097834	NaN	0.000000	0.001597	0.001688	28.1016	0.029442	0.001946	15.1266	67.9927	-167.007	0.048981	0.609847	-0.372929	-0.374196	0.097834	15.1266	-0.377780	-64270.8	-1.522222E-6	NaN
101	1.000000	0.649134	7.36603e+06	-43689.1	955.818	-29778.8	0.000000	0.000000	6.649003	0.002378	NaN	0.000000	0.001643	0.001659	28.1268	0.067656	0.001805	37.4764	-100.168	16.6582	0.010308	0.647803	-0.334908	-0.336240	0.002378	37.4764	-0.334956	-15415	-1.542449E-7	NaN
101	1.000000	0.687137	7.36603e+06	-43689.1	955.819	-29778.8	0.000000	0.000000	6.687004	-0.026545	NaN	0.000000	0.001599	0.001684	28.0871	0.078018	0.001947	40.0636	-59.2449	-167.45	-0.072662	0.685823	-0.296906	-0.298219	-0.026545	40.0636	-0.296409	-4160.27	6.380594E-6	NaN
101	1.000000	0.725176	7.36603e+06	-43689.1	955.818	-29778.8	0.000000	0.000000	6.725049	0.086625	NaN	0.000000	0.001579	0.001724	28.0771	0.032287	0.002053	15.7305	20.628	13.7178	-0.004523	0.723844	-0.258866	-0.260199	0.086625	15.7305	-0.262996	-1302.52	-6.650606E-5	NaN
101	1.000000	0.763174	7.36603e+06	-43689.1	955.818	-29778.8	0.000000	0.000000	6.763045	0.056710	NaN	0.000000	0.001551	0.001640	28.1032	0.010020	0.001958	5.118384	32.4749	-167.843	-0.000879	0.761848	-0.220869	-0.222195	0.056710	5.118384	-0.229179	-388.636	-0.000146	NaN
101	1.000000	0.801242	7.36603e+06	-43689.1	955.818	-29778.8	0.000000	0.000000	6.801109	-0.049392	NaN	0.000000	0.001551	0.001679	28.1278	0.054817	0.002061	26.5999	-156.869	14.5671	0.061766	0.799850	-0.182800	-0.184193	-0.049392	26.5999	-0.181408	-64.4741	0.000766	NaN
101	1.000000	0.839214	7.36603e+06	-43689.1	955.818	-29778.8	0.000000	0.000000	6.839080	-0.049951	NaN	0.000000	0.001627	0.001683	28.0879	0.041995	0.001914	21.9395	-110.433	-168.291	-0.019894	0.837927	-0.144829	-0.146116	-0.049951	21.9395	-0.143121	-13.5305	0.003692	NaN
101	1.000000	0.877233	7.36603e+06	-43689.1	955.818	-29778.8	0.000000	0.000000	6.877101	-0.029482	NaN	0.000000	0.001618	0.001688	28.0785	0.075861	0.001993	38.0556	65.1275	9.469036	-0.046358	0.875843	-0.106809	-0.108200	-0.029482	38.0556	-0.106228	-2.498212	0.011801	NaN
101	1.000000	0.915254	7.36603e+06	-43689.1	955.819	-29778.8	0.000000	0.000000	6.915122	-0.005009	NaN	0.000000	0.001533	0.001691	28.1022	0.080525	0.001898	42.4172	-152.35	-167.037	-0.084509	0.913946	-0.068789	-0.070097	-0.005009	42.4172	-0.068700	-0.314714	0.015916	NaN
101	1.000000	0.953278	7.36603e+06	-43689.1	955.817	-29778.8	0.000000	0.000000	6.953147	0.011060	NaN	0.000000	0.001588	0.001684	28.1261	0.056562	0.001940	29.1526	95.3036	12.734	-0.007966	0.951902	-0.030765	-0.032140	0.011060	29.1526	-0.031049	-0.024626	-0.449098	NaN
101	2.000000	0.990762	7.36603e+06	-43689.1	955.819	-29778.8	0.000000	0.000000	6.991039	9.934682	NaN	0.000000	0.001539	0.001685	28.0862	7.710420	0.001693	4554.35	10.7273	-176.847	7.803874	0.989840	0.006720	0.005798	9.934682	4554.35	0.005084	0.004210	2359.91	64131.5
101	2.000000	1.000373	7.36603e+06	-43689.1	955.819	-29778.8	0.000000	0.000000	7.001271	25.0563	NaN	0.000000	0.001526	0.001637	28.08	18.15	0.001946	9327.77	8.176507	2.931214	23.6798	1.000061	0.016330	0.016018	25.0563	9327.77	0.014315	0.014383	1742.05	71059.6
101	2.000000	1.009867	7.36603e+06	-43689.1	955.819	-29778.8	0.000000	0.000000	7.011786	49.8851	NaN	0.000000	0.001570	0.001683	28.1041	26.6639	0.001790	14893.6	7.628484	178.653	48.4472	1.009611	0.025825	0.025568	49.8851	14893.6	0.023313	0.028017	1780.5	81293.8
101	2.000000	1.019357	7.36603e+06	-43689.1	955.82	-29778.8	0.000000	0.000000	7.023110	94.4975	NaN	0.000000	0.001585	0.001694	28.1265	36.5552	0.001749	20903.9	5.579561	-2.970033	94.333	1.018952	0.035315	0.034909	94.4975	20903.9	0.031924	0.044827	2108.06	90205.2
101	2.000000	1.028805	7.36603e+06	-43689.1	955.821	-29778.8	0.000000	0.000000	7.034846	150.177	NaN	0.000000	0.001599	0.001711	28.0876	46.0161	0.001827	25182.7	5.207254	175.763	148.817	1.028507	0.044762	0.044464	150.177	25182.7	0.040290	0.064779	2318.3	90398.1
101	2.000000	1.038307	7.36603e+06	-43689.1	955.821	-29778.8	0.000000	0.000000	7.046777	209.27	NaN	0.000000	0.001625	0.001682	28.0783	54.9996	0.001677	32797.9	5.623983	-6.944041	207.457	1.038022	0.054264	0.053979	209.27	32797.9	0.049479	0.090809	2304.52	99438.8
101	2.000000	1.047793	7.36603e+06	-43689.1	955.822	-29778.8	0.000000	0.000000	7.058793	270.808	NaN	0.000000	0.001526	0.001673	28.1035	63.1985	0.001854	34080.1	6.510306	172.872	269.382	1.047491	0.063750	0.063448	270.808	34080.1	0.057791	0.118006	2294.87	90640.6
101	2.000000	1.057302	7.36603e+06	-43689.1	955.821	-29778.8	0.000000	0.000000	7.070882	333.606	NaN	0.000000	0.001523	0.001699	28.1251	71.7741	0.001930	37195.7	5.010343	-6.623607	331.792	1.056941	0.073259	0.072898	333.606	37195.7	0.066532	0.150269	2220.06	87666
101	2.000000	1.066740	7.36603e+06	-43689.1	955.82	-29778.8	0.000000	0.000000	7.083088	400.931	NaN	0.000000	0.001517	0.001693	28.0856	78.7963	0.001823	43235.1	5.398666	171.256	398.764	1.066514	0.082697	0.082472	400.931	43235.1	0.075742	0.188228	2130.02	91047.4
101	2.000000	1.076251	7.36603e+06	-43689.1	955.821	-29778.8	0.000000	0.000000	7.094772	453.8	NaN	0.000000	0.001536	0.001653	28.0794	84.6236	0.001814	46640.4	3.582459	-6.958447	449.723	1.076023	0.092208	0.091981	453.8	46640.4	0.084911	0.229976	1973.25	88857.4
101	2.000000	1.085742	7.36603e+06	-43689.1	955.822	-29778.8	0.000000	0.000000	7.107170	524.543	NaN	0.000000	0.001574	0.001637	28.1067	92.7661	0.001765	52550.6	2.782241	172.639	523.408	1.085460	0.101699	0.101418	524.543	52550.6	0.094213	0.276301	1898.45	91339.6
101	2.000000	1.089142	7.36603e+06	-43689.1	955.821	-29778.8	0.000000	0.000000	7.111666	551.193	NaN	0.000000	0.001543	0.001683	28.1255	95.9519	0.001773	54117.5	6.900986	-11.6763	543.554	1.088817	0.105099	0.104774	551.193	54117.5	0.097460	0.293406	1878.6	91280.1