File: remote_trans/data/nanoindenter/0828-1/data/Data_2025-08-06,11h17m57s/2025-07-22_16-23-58_1_755.txt
2025-07-22, 16:23:58, 1
Index	Phase	Displacement	Time	Pos X	Pos Y	Pos Z	Rot A	Rot B	Piezo Z	Force A	Force B	Gripper	Voltage A	Voltage B	Temperature	Amplitude force	Amplitude pos	Stiffness	Phase shift	Phase excitation	Force A raw	Displacement raw	HMax	HMax raw	Real Force	Real Stiffness	Contact Depth	Area	Hardness	Reduced Mod.
[#]	[#]	[um]	[s]	[um]	[um]	[um]	[m°]	[m°]	[um]	[uN]	[uN]	[V]	[V]	[V]	[°C]	[uN]	[um]	[N/m]	[°]	[°]	[uN]	[um]	[um]	[um]	[uN]	[N/m]	[um]	[um^2]	[MPa]	[MPa]
755	1.000000	0.002725	7.37244e+06	-39339.1	1005.82	-29794.2	0.000000	0.000000	6.002817	0.005146	NaN	0.000000	0.001691	0.001690	28.0837	0.096452	0.000959	100.58	-33.1691	-162.356	0.005458	0.001424	-1.104624	-1.105925	0.005146	100.58	-1.104662	-5.789588E+14	-8.888216E-18	NaN
755	1.000000	0.044666	7.37244e+06	-39339.1	1005.82	-29794.2	0.000000	0.000000	6.044757	-0.003574	NaN	0.000000	0.001654	0.001705	28.0825	0.010437	0.002054	5.082467	-92.387	15.4831	-0.075735	0.043268	-1.062683	-1.064081	-0.003574	5.082467	-1.062155	-1.555201E+14	2.297976E-17	NaN
755	1.000000	0.086673	7.37244e+06	-39339.1	1005.82	-29794.2	0.000000	0.000000	6.086766	0.026907	NaN	0.000000	0.001669	0.001692	28.0841	0.042535	0.002103	20.2266	-69.0691	-165.399	0.022030	0.085431	-1.020675	-1.021918	0.026907	20.2266	-1.021673	-4.440819E+13	-6.059084E-16	NaN
755	1.000000	0.128677	7.37244e+06	-39339.1	1005.82	-29794.2	0.000000	0.000000	6.128766	-0.067162	NaN	0.000000	0.001677	0.001688	28.0841	0.039801	0.001988	20.0198	60.5864	13.6409	-0.060300	0.127344	-0.978672	-0.980005	-0.067162	20.0198	-0.976156	-1.082976E+13	6.201622E-15	NaN
755	1.000000	0.170700	7.37244e+06	-39339.1	1005.82	-29794.2	0.000000	0.000000	6.170790	-0.032329	NaN	0.000000	0.001670	0.001691	28.084	0.099415	0.001971	50.4384	60.1239	-165.172	-0.020554	0.169368	-0.936649	-0.937981	-0.032329	50.4384	-0.936168	-3.129248E+12	1.033118E-14	NaN
755	1.000000	0.212739	7.37244e+06	-39339.1	1005.82	-29794.2	0.000000	0.000000	6.212832	0.025216	NaN	0.000000	0.001615	0.001706	28.0827	0.034140	0.002104	16.2271	119.817	13.0844	-0.003067	0.211358	-0.894610	-0.895991	0.025216	16.2271	-0.895775	-8.911955E+11	-2.829499E-14	NaN
755	1.000000	0.254740	7.37244e+06	-39339.1	1005.82	-29794.2	0.000000	0.000000	6.254830	-0.038732	NaN	0.000000	0.001666	0.001654	28.0828	0.039721	0.002249	17.6593	136.467	-167.601	-0.032911	0.253447	-0.852608	-0.853902	-0.038732	17.6593	-0.850964	-2.206910E+11	1.755046E-13	NaN
755	1.000000	0.296753	7.37244e+06	-39339.1	1005.82	-29794.2	0.000000	0.000000	6.296845	-0.011923	NaN	0.000000	0.001677	0.001637	28.0821	0.079130	0.002074	38.1569	-156.546	13.1456	0.079655	0.295413	-0.810595	-0.811936	-0.011923	38.1569	-0.810361	-6.215392E+10	1.918300E-13	NaN
755	1.000000	0.338797	7.37244e+06	-39339.1	1005.82	-29794.2	0.000000	0.000000	6.338886	-0.061281	NaN	0.000000	0.001621	0.001665	28.084	0.094815	0.002046	46.3473	114.079	-164.358	-0.039218	0.337495	-0.768552	-0.769854	-0.061281	46.3473	-0.767560	-1.629775E+10	3.760085E-12	NaN
755	1.000000	0.380788	7.37244e+06	-39339.1	1005.82	-29794.2	0.000000	0.000000	6.380882	0.053097	NaN	0.000000	0.001643	0.001649	28.084	0.078782	0.002031	38.785	166.79	12.8332	0.082666	0.379449	-0.726561	-0.727900	0.053097	38.785	-0.727587	-4.655026E+9	-1.140636E-11	NaN
755	1.000000	0.422807	7.37244e+06	-39339.1	1005.82	-29794.2	0.000000	0.000000	6.422899	-0.009341	NaN	0.000000	0.001668	0.001661	28.084	0.071271	0.001996	35.7026	-9.740349	-165.191	0.103687	0.421507	-0.684541	-0.685842	-0.009341	35.7026	-0.684345	-1.195694E+9	7.812362E-12	NaN
755	1.000000	0.464833	7.37244e+06	-39339.1	1005.82	-29794.2	0.000000	0.000000	6.464923	-0.018336	NaN	0.000000	0.001667	0.001666	28.084	0.043140	0.001998	21.5935	-156.06	11.6769	0.047321	0.463513	-0.642516	-0.643836	-0.018336	21.5935	-0.641879	-3.133810E+8	5.850996E-11	NaN
755	1.000000	0.506874	7.37244e+06	-39339.1	1005.82	-29794.2	0.000000	0.000000	6.506965	-0.023373	NaN	0.000000	0.001674	0.001693	28.0828	0.034060	0.002038	16.7096	-165.244	-163.658	-0.057347	0.505568	-0.600474	-0.601781	-0.023373	16.7096	-0.599425	-8.176065E+7	2.858664E-10	NaN
755	1.000000	0.548865	7.37244e+06	-39339.1	1005.82	-29794.2	0.000000	0.000000	6.548958	0.033133	NaN	0.000000	0.001657	0.001715	28.0831	0.049649	0.002027	24.495	-131.105	11.6639	-0.033634	0.547520	-0.558483	-0.559828	0.033133	24.495	-0.559498	-2.298431E+7	-1.441570E-9	NaN
755	1.000000	0.590876	7.37244e+06	-39339.1	1005.82	-29794.2	0.000000	0.000000	6.590967	-0.009941	NaN	0.000000	0.001674	0.001643	28.0829	0.149698	0.001914	78.2241	96.0714	-165.17	-0.084905	0.589594	-0.516473	-0.517754	-0.009941	78.2241	-0.516378	-5.79705e+06	1.714908E-9	NaN
755	1.000000	0.632889	7.37244e+06	-39339.1	1005.82	-29794.2	0.000000	0.000000	6.632982	0.017775	NaN	0.000000	0.001667	0.001672	28.0841	0.014885	0.001964	7.579341	-168.206	14.129	0.038695	0.631533	-0.474460	-0.475815	0.017775	7.579341	-0.476218	-1.5943e+06	-1.114920E-8	NaN
755	1.000000	0.674901	7.37244e+06	-39339.1	1005.82	-29794.2	0.000000	0.000000	6.674990	-0.069307	NaN	0.000000	0.001667	0.001720	28.0839	0.092520	0.001948	47.4959	-93.3743	-165.055	-0.052515	0.673577	-0.432448	-0.433772	-0.069307	47.4959	-0.431353	-372565	1.860262E-7	NaN
755	1.000000	0.716927	7.37244e+06	-39339.1	1005.82	-29794.2	0.000000	0.000000	6.717014	-0.128077	NaN	0.000000	0.001657	0.001747	28.084	0.067771	0.002143	31.6209	-125.285	14.4889	-0.104331	0.715568	-0.390422	-0.391781	-0.128077	31.6209	-0.387384	-88252.4	1.451254E-6	NaN
755	1.000000	0.758962	7.37244e+06	-39339.1	1005.82	-29794.2	0.000000	0.000000	6.759053	-0.017730	NaN	0.000000	0.001623	0.001752	28.0827	0.101316	0.001993	50.83	119.266	-165.622	0.039370	0.757660	-0.348387	-0.349689	-0.017730	50.83	-0.348125	-23976.4	7.394863E-7	NaN
755	1.000000	0.800975	7.37244e+06	-39339.1	1005.82	-29794.2	0.000000	0.000000	6.801068	0.038755	NaN	0.000000	0.001601	0.001764	28.0828	0.088741	0.001884	47.0943	-104.275	10.5397	0.070984	0.799604	-0.306374	-0.307745	0.038755	47.0943	-0.306991	-5977.04	-6.484054E-6	NaN
755	1.000000	0.842982	7.37244e+06	-39339.1	1005.82	-29794.2	0.000000	0.000000	6.843074	0.012382	NaN	0.000000	0.001687	0.001785	28.0827	0.055818	0.002051	27.2206	153.999	-164.773	0.057626	0.841670	-0.264367	-0.265679	0.012382	27.2206	-0.264708	-1383.34	-8.950943E-6	NaN
755	1.000000	0.885033	7.37244e+06	-39339.1	1005.82	-29794.2	0.000000	0.000000	6.885125	-0.001641	NaN	0.000000	0.001634	0.001802	28.0841	0.072285	0.001966	36.7734	159.21	15.1633	0.032532	0.883666	-0.222315	-0.223683	-0.001641	36.7734	-0.222282	-302.059	5.431991E-6	NaN
755	1.000000	0.927036	7.37244e+06	-39339.1	1005.82	-29794.2	0.000000	0.000000	6.927128	-0.007497	NaN	0.000000	0.001667	0.001760	28.0839	0.046443	0.002032	22.8604	-58.6755	-165.286	-0.015101	0.925715	-0.180312	-0.181633	-0.007497	22.8604	-0.180066	-61.1783	0.000123	NaN
755	1.000000	0.969039	7.37244e+06	-39339.1	1005.82	-29794.2	0.000000	0.000000	6.969130	-0.023427	NaN	0.000000	0.001635	0.001779	28.084	0.054209	0.002014	26.9215	-145.954	10.8492	-0.019428	0.967716	-0.138310	-0.139632	-0.023427	26.9215	-0.137657	-10.6855	0.002192	NaN
755	1.000000	1.011067	7.37244e+06	-39339.1	1005.82	-29794.2	0.000000	0.000000	7.011157	-0.034515	NaN	0.000000	0.001625	0.001753	28.0841	0.069738	0.001984	35.1551	176.691	-168.603	-0.053429	1.009746	-0.096281	-0.097602	-0.034515	35.1551	-0.095545	-1.451501	0.023779	NaN
755	1.000000	1.053077	7.37244e+06	-39339.1	1005.82	-29794.2	0.000000	0.000000	7.053174	0.124545	NaN	0.000000	0.001655	0.001754	28.0826	0.289837	0.002033	142.576	12.2644	11.7101	0.127907	1.051718	-0.054272	-0.055631	0.124545	142.576	-0.054927	-0.128140	-0.971942	NaN
755	1.000000	1.095101	7.37244e+06	-39339.1	1005.82	-29794.2	0.000000	0.000000	7.095266	1.783738	NaN	0.000000	0.001637	0.001762	28.0829	1.209970	0.001840	657.662	11.8851	-167.734	1.668024	1.093824	-0.012248	-0.013525	1.783738	657.662	-0.014282	-0.008849	-201.577	NaN
755	2.000000	1.121111	7.37244e+06	-39339.1	1005.82	-29794.2	0.000000	0.000000	7.121842	15.5745	NaN	0.000000	0.001628	0.001716	28.0829	12.7013	0.001901	6682.1	9.213301	4.744519	15.2121	1.120738	0.013762	0.013389	15.5745	6682.1	0.012014	0.011507	1353.51	56912.7
755	2.000000	1.131587	7.37244e+06	-39339.1	1005.82	-29794.2	0.000000	0.000000	7.132794	27.1533	NaN	0.000000	0.001580	0.001809	28.0842	19.7446	0.001825	10821.1	6.033261	-176.905	26.6246	1.131196	0.024238	0.023848	27.1533	10821.1	0.022356	0.026381	1029.29	60869.7
755	2.000000	1.142029	7.37244e+06	-39339.1	1005.82	-29794.2	0.000000	0.000000	7.143967	44.9291	NaN	0.000000	0.001642	0.001809	28.0843	27.7189	0.001818	15247.9	5.880539	-0.065925	44.2374	1.141628	0.034680	0.034279	44.9291	15247.9	0.032470	0.046020	976.303	64939.9
755	2.000000	1.152505	7.37244e+06	-39339.1	1005.82	-29794.2	0.000000	0.000000	7.155465	69.7996	NaN	0.000000	0.001640	0.001774	28.0843	37.3216	0.001821	20498.7	8.937321	174.331	68.8579	1.152159	0.045156	0.044811	69.7996	20498.7	0.042602	0.070926	984.113	70322.8
755	2.000000	1.163028	7.37245e+06	-39339.1	1005.82	-29794.2	0.000000	0.000000	7.167266	100.901	NaN	0.000000	0.001689	0.001806	28.0833	45.4557	0.001865	24375.1	4.954739	-2.442956	100.305	1.162659	0.055679	0.055310	100.901	24375.1	0.052575	0.100537	1003.62	70235.6
755	2.000000	1.173524	7.37245e+06	-39339.1	1005.82	-29794.2	0.000000	0.000000	7.179787	150.166	NaN	0.000000	0.001707	0.001746	28.0835	54.846	0.001680	32645.3	2.672644	176.05	149.945	1.173266	0.066176	0.065917	150.166	32645.3	0.062726	0.135763	1106.09	80947.4
755	2.000000	1.183967	7.37245e+06	-39339.1	1005.82	-29794.2	0.000000	0.000000	7.192547	206.556	NaN	0.000000	0.001696	0.001759	28.0833	64.9026	0.001863	34831.2	3.822265	-4.558176	204.221	1.183603	0.076619	0.076255	206.556	34831.2	0.072171	0.173031	1193.75	76503.3
755	2.000000	1.194424	7.37245e+06	-39339.1	1005.82	-29794.2	0.000000	0.000000	7.206091	281.7	NaN	0.000000	0.001679	0.001747	28.0844	73.2613	0.001787	41000.3	2.422202	175.824	278.485	1.194079	0.087075	0.086730	281.7	41000.3	0.081922	0.215937	1304.55	80611.4
755	2.000000	1.204852	7.37245e+06	-39339.1	1005.82	-29794.2	0.000000	0.000000	7.220483	378.159	NaN	0.000000	0.001641	0.001784	28.0842	83.6095	0.001870	44713.1	3.446193	-6.248270	371.267	1.204412	0.097503	0.097063	378.159	44713.1	0.091160	0.260661	1450.77	80014.7
755	2.000000	1.214412	7.37245e+06	-39339.1	1005.82	-29794.2	0.000000	0.000000	7.234044	475.524	NaN	0.000000	0.001609	0.001785	28.0842	92.775	0.001712	54192.1	4.693847	171.356	472.654	1.214021	0.107063	0.106673	475.524	54192.1	0.100482	0.309753	1535.17	88961.3