File: remote_trans/data/nanoindenter/0828-1/data/Data_2025-08-06,11h17m57s/2025-07-22_16-23-58_1_370.txt
2025-07-22, 16:23:58, 1
Index	Phase	Displacement	Time	Pos X	Pos Y	Pos Z	Rot A	Rot B	Piezo Z	Force A	Force B	Gripper	Voltage A	Voltage B	Temperature	Amplitude force	Amplitude pos	Stiffness	Phase shift	Phase excitation	Force A raw	Displacement raw	HMax	HMax raw	Real Force	Real Stiffness	Contact Depth	Area	Hardness	Reduced Mod.
[#]	[#]	[um]	[s]	[um]	[um]	[um]	[m°]	[m°]	[um]	[uN]	[uN]	[V]	[V]	[V]	[°C]	[uN]	[um]	[N/m]	[°]	[°]	[uN]	[um]	[um]	[um]	[uN]	[N/m]	[um]	[um^2]	[MPa]	[MPa]
370	1.000000	0.002333	7.36868e+06	-57139.1	955.818	-29737.6	0.000000	0.000000	6.002795	0.050317	NaN	0.000000	0.001579	0.001771	28.082	0.086977	0.000914	95.1267	3.547886	-163.249	-0.026317	0.001056	-1.073729	-1.075006	0.050317	95.1267	-1.074126	-2.252262E+14	-2.234070E-16	NaN
370	1.000000	0.042268	7.36868e+06	-57139.1	955.817	-29737.7	0.000000	0.000000	6.042726	-0.042588	NaN	0.000000	0.001615	0.001749	28.082	0.081906	0.001997	41.0049	-72.8801	-166.595	0.050846	0.040988	-1.033794	-1.035074	-0.042588	41.0049	-1.033015	-6.310092E+13	6.749241E-16	NaN
370	1.000000	0.082311	7.36868e+06	-57139.1	955.818	-29737.7	0.000000	0.000000	6.082772	0.018982	NaN	0.000000	0.001715	0.001746	28.081	0.056826	0.002047	27.7552	108.113	-160.325	0.055434	0.080962	-0.993751	-0.995100	0.018982	27.7552	-0.994264	-1.899044E+13	-9.995474E-16	NaN
370	1.000000	0.122342	7.36868e+06	-57139.1	955.819	-29737.7	0.000000	0.000000	6.122803	0.031855	NaN	0.000000	0.001692	0.001762	28.0809	0.102008	0.001956	52.1513	-20.0314	-167.363	0.040935	0.121019	-0.953720	-0.955043	0.031855	52.1513	-0.954178	-5.474877E+12	-5.818383E-15	NaN
370	1.000000	0.162350	7.36868e+06	-57139.1	955.819	-29737.7	0.000000	0.000000	6.162809	-0.001134	NaN	0.000000	0.001609	0.001686	28.081	0.065124	0.001959	33.247	172.095	-164.097	0.065609	0.161038	-0.913712	-0.915024	-0.001134	33.247	-0.913687	-1.555808E+12	7.287864E-16	NaN
370	1.000000	0.202332	7.36868e+06	-57139.1	955.819	-29737.7	0.000000	0.000000	6.202792	0.003278	NaN	0.000000	0.001639	0.001720	28.081	0.051975	0.002019	25.7367	130.119	-165.533	0.034916	0.201054	-0.873730	-0.875008	0.003278	25.7367	-0.873825	-4.499792E+11	-7.284626E-15	NaN
370	1.000000	0.242357	7.36868e+06	-57139.1	955.818	-29737.7	0.000000	0.000000	6.242816	-0.012503	NaN	0.000000	0.001629	0.001754	28.082	0.068906	0.002144	32.1394	3.961321	-164.761	0.036290	0.241023	-0.833705	-0.835039	-0.012503	32.1394	-0.833413	-1.276575E+11	9.794115E-14	NaN
370	1.000000	0.282384	7.36868e+06	-57139.1	955.819	-29737.7	0.000000	0.000000	6.282842	-0.040688	NaN	0.000000	0.001678	0.001721	28.0822	0.058684	0.002033	28.8696	141.038	-163.662	-0.000940	0.281082	-0.793678	-0.794980	-0.040688	28.8696	-0.792621	-3.570091E+10	1.139680E-12	NaN
370	1.000000	0.322426	7.36868e+06	-57139.1	955.818	-29737.7	0.000000	0.000000	6.322885	-0.021159	NaN	0.000000	0.001700	0.001716	28.0823	0.012645	0.002011	6.286643	130.297	-168.77	0.000505	0.321107	-0.753636	-0.754955	-0.021159	6.286643	-0.751111	-9.735256E+9	2.173466E-12	NaN
370	1.000000	0.362439	7.36868e+06	-57139.1	955.817	-29737.7	0.000000	0.000000	6.362898	-0.030717	NaN	0.000000	0.001770	0.001728	28.081	0.131281	0.002123	61.8478	-23.3242	-165.868	-0.030561	0.361112	-0.713623	-0.714951	-0.030717	61.8478	-0.713250	-2.967561E+9	1.035077E-11	NaN
370	1.000000	0.402466	7.36869e+06	-57139.1	955.818	-29737.7	0.000000	0.000000	6.402926	0.008899	NaN	0.000000	0.001727	0.001697	28.0809	0.055200	0.001960	28.1688	-134.563	-165.485	-0.017513	0.401111	-0.673596	-0.674951	0.008899	28.1688	-0.673833	-8.586974E+8	-1.036375E-11	NaN
370	1.000000	0.442476	7.36869e+06	-57139.1	955.818	-29737.7	0.000000	0.000000	6.442934	-0.034635	NaN	0.000000	0.001709	0.001758	28.0807	0.023777	0.001830	12.994	-160.975	-164.658	-0.021096	0.441111	-0.633586	-0.634951	-0.034635	12.994	-0.631587	-2.263673E+8	1.530042E-10	NaN
370	1.000000	0.482487	7.36869e+06	-57139.1	955.818	-29737.7	0.000000	0.000000	6.482945	-0.027254	NaN	0.000000	0.001757	0.001741	28.0817	0.058968	0.001957	30.1393	-8.852378	-163.826	-0.055361	0.481191	-0.593575	-0.594871	-0.027254	30.1393	-0.592897	-6.646614E+7	4.100400E-10	NaN
370	1.000000	0.522503	7.36869e+06	-57139.1	955.817	-29737.7	0.000000	0.000000	6.522962	-0.032139	NaN	0.000000	0.001711	0.001742	28.0819	0.091281	0.001999	45.6667	156.747	-166.597	-0.003788	0.521205	-0.553559	-0.554857	-0.032139	45.6667	-0.553031	-1.870387E+7	1.718320E-9	NaN
370	1.000000	0.562497	7.36869e+06	-57139.1	955.818	-29737.7	0.000000	0.000000	6.562957	0.008916	NaN	0.000000	0.001774	0.001716	28.0818	0.105639	0.002020	52.3078	-21.5371	-166.967	-0.056696	0.561192	-0.513565	-0.514870	0.008916	52.3078	-0.513693	-5.31918e+06	-1.676205E-9	NaN
370	1.000000	0.602550	7.36869e+06	-57139.1	955.819	-29737.7	0.000000	0.000000	6.603008	-0.042349	NaN	0.000000	0.001665	0.001734	28.082	0.045393	0.001906	23.8111	-45.5271	-164.35	-0.042049	0.601220	-0.473512	-0.474842	-0.042349	23.8111	-0.472178	-1.39943e+06	3.026151E-8	NaN
370	1.000000	0.642527	7.36869e+06	-57139.1	955.818	-29737.7	0.000000	0.000000	6.642985	-0.028504	NaN	0.000000	0.001616	0.001705	28.0807	0.048630	0.002056	23.6552	82.4257	-166.829	-0.044751	0.641305	-0.433536	-0.434758	-0.028504	23.6552	-0.432632	-388403	7.338748E-8	NaN
370	1.000000	0.682599	7.36869e+06	-57139.1	955.818	-29737.7	0.000000	0.000000	6.683060	0.011073	NaN	0.000000	0.001745	0.001704	28.0808	0.064579	0.001952	33.08	-31.026	-164.197	0.088713	0.681246	-0.393463	-0.394816	0.011073	33.08	-0.393714	-108708	-1.018641E-7	NaN
370	1.000000	0.722586	7.36869e+06	-57139.1	955.817	-29737.7	0.000000	0.000000	6.723047	0.015978	NaN	0.000000	0.001717	0.001710	28.0808	0.043476	0.002015	21.581	-117.634	-169.517	0.010800	0.721291	-0.353476	-0.354771	0.015978	21.581	-0.354031	-29205.3	-5.470843E-7	NaN
370	1.000000	0.762586	7.36869e+06	-57139.1	955.819	-29737.7	0.000000	0.000000	6.763044	-0.038664	NaN	0.000000	0.001703	0.001611	28.0837	0.044182	0.001878	23.5215	-57.3264	-167.106	0.010711	0.761275	-0.313477	-0.314787	-0.038664	23.5215	-0.312244	-7148.92	5.408347E-6	NaN
370	1.000000	0.802639	7.36869e+06	-57139.1	955.818	-29737.7	0.000000	0.000000	6.803099	-0.008951	NaN	0.000000	0.001658	0.001650	28.0826	0.182308	0.001948	93.5985	110.833	-168.325	-0.058934	0.801315	-0.273423	-0.274747	-0.008951	93.5985	-0.273351	-1872.48	4.780160E-6	NaN
370	1.000000	0.842616	7.36869e+06	-57139.1	955.818	-29737.7	0.000000	0.000000	6.843073	-0.070675	NaN	0.000000	0.001616	0.001669	28.0822	0.076657	0.001966	39.0005	169.444	-167.443	-0.105987	0.841343	-0.233446	-0.234719	-0.070675	39.0005	-0.232087	-431.95	0.000164	NaN
370	1.000000	0.882611	7.36869e+06	-57139.1	955.818	-29737.7	0.000000	0.000000	6.883068	-0.050696	NaN	0.000000	0.001644	0.001661	28.082	0.018959	0.001901	9.974774	77.6393	-164.665	0.046222	0.881302	-0.193451	-0.194760	-0.050696	9.974774	-0.189640	-88.7164	0.000571	NaN
370	1.000000	0.922685	7.36869e+06	-57139.1	955.817	-29737.7	0.000000	0.000000	6.923140	-0.097619	NaN	0.000000	0.001625	0.001634	28.0808	0.100058	0.001975	50.6684	-19.6407	-165.17	-0.150498	0.921364	-0.153378	-0.154698	-0.097619	50.6684	-0.151933	-19.6407	0.004970	NaN
370	1.000000	0.962675	7.36869e+06	-57139.1	955.818	-29737.7	0.000000	0.000000	6.963133	-0.045832	NaN	0.000000	0.001735	0.001659	28.0808	0.037241	0.001899	19.6122	118.775	-170.195	-0.031897	0.961344	-0.113387	-0.114718	-0.045832	19.6122	-0.111635	-3.252427	0.014092	NaN
370	1.000000	1.002704	7.36869e+06	-57139.1	955.819	-29737.7	0.000000	0.000000	7.003162	-0.042328	NaN	0.000000	0.001709	0.001625	28.0809	0.045882	0.001956	23.4528	-153.238	-168.918	-0.079791	1.001353	-0.073358	-0.074709	-0.042328	23.4528	-0.072004	-0.385661	0.109754	NaN
370	1.000000	1.042680	7.36869e+06	-57139.1	955.819	-29737.7	0.000000	0.000000	7.043136	-0.080161	NaN	0.000000	0.001708	0.001562	28.0822	0.137630	0.001958	70.2947	7.456139	-167.748	-0.076699	1.041366	-0.033383	-0.034697	-0.080161	70.2947	-0.032527	-0.027134	2.954275	NaN
370	1.000000	1.082673	7.36869e+06	-57139.1	955.819	-29737.7	0.000000	0.000000	7.083320	4.550185	NaN	0.000000	0.001647	0.001585	28.082	5.546782	0.001883	2946.24	15.0803	-171.073	3.334446	1.081361	0.006611	0.005299	4.550185	2946.24	0.005453	0.004550	999.964	39904.2
370	2.000000	1.095258	7.36869e+06	-57139.1	955.82	-29737.7	0.000000	0.000000	7.096667	23.087	NaN	0.000000	0.001632	0.001568	28.0819	19.5168	0.001955	9983.92	5.492925	-174.521	23.8623	1.094983	0.019195	0.018921	23.087	9983.92	0.017461	0.018709	1234.03	66688.9
370	2.000000	1.105212	7.36869e+06	-57139.1	955.819	-29737.7	0.000000	0.000000	7.107659	48.2963	NaN	0.000000	0.001614	0.001610	28.0805	29.7552	0.001777	16740.7	3.494791	-178.047	48.0317	1.104932	0.029150	0.028870	48.2963	16740.7	0.026986	0.034729	1390.68	82073.5
370	2.000000	1.115219	7.36869e+06	-57139.1	955.82	-29737.7	0.000000	0.000000	7.118940	79.2811	NaN	0.000000	0.001567	0.001667	28.0805	40.5225	0.001782	22740.1	2.818924	179.84	80.9407	1.114856	0.039157	0.038794	79.2811	22740.1	0.036542	0.055397	1431.14	88271.8
370	2.000000	1.125221	7.36869e+06	-57139.1	955.82	-29737.7	0.000000	0.000000	7.130480	116.642	NaN	0.000000	0.001600	0.001660	28.0805	50.9584	0.001812	28123.2	9.166937	172.508	118.248	1.124888	0.049159	0.048826	116.642	28123.2	0.046048	0.080591	1447.34	90510
370	2.000000	1.135120	7.36869e+06	-57139.1	955.819	-29737.7	0.000000	0.000000	7.142262	162.42	NaN	0.000000	0.001593	0.001671	28.0803	60.2831	0.001832	32904.5	3.774995	175.493	159.77	1.134916	0.059058	0.058853	162.42	32904.5	0.055356	0.109683	1480.81	90773.5
370	2.000000	1.145116	7.36869e+06	-57139.1	955.82	-29737.7	0.000000	0.000000	7.154247	210.757	NaN	0.000000	0.001562	0.001672	28.0817	69.6014	0.001835	37932.1	1.675334	176.478	207.402	1.144915	0.069053	0.068853	210.757	37932.1	0.064886	0.143911	1464.5	91355.3
370	2.000000	1.155154	7.36869e+06	-57139.1	955.819	-29737.7	0.000000	0.000000	7.166847	273.048	NaN	0.000000	0.001628	0.001676	28.0815	79.7261	0.001933	41246.3	4.168835	173.982	272.277	1.154962	0.079091	0.078900	273.048	41246.3	0.074126	0.181278	1506.24	88508.6
370	2.000000	1.165077	7.36869e+06	-57139.1	955.818	-29737.7	0.000000	0.000000	7.179795	346.554	NaN	0.000000	0.001588	0.001652	28.0819	89.3007	0.001848	48316	6.508233	169.982	343.804	1.164810	0.089015	0.088748	346.554	48316	0.083635	0.223934	1547.57	93283.4
370	2.000000	1.175061	7.36869e+06	-57139.1	955.82	-29737.7	0.000000	0.000000	7.192889	422.15	NaN	0.000000	0.001639	0.001660	28.0804	96.234	0.001700	56624.4	3.860609	171.986	417.144	1.174800	0.098998	0.098738	422.15	56624.4	0.093407	0.272132	1551.27	99171.7
370	2.000000	1.184671	7.36869e+06	-57139.1	955.819	-29737.7	0.000000	0.000000	7.206043	508.278	NaN	0.000000	0.001591	0.001675	28.0805	107.775	0.001777	60645.9	7.939194	-11.3993	507.977	1.184231	0.108609	0.108168	508.278	60645.9	0.102323	0.319919	1588.77	97961.2