File: remote_trans/data/nanoindenter/0828-1/data/Data_2025-08-06,11h17m57s/2025-07-22_16-23-58_1_519.txt
2025-07-22, 16:23:58, 1
Index	Phase	Displacement	Time	Pos X	Pos Y	Pos Z	Rot A	Rot B	Piezo Z	Force A	Force B	Gripper	Voltage A	Voltage B	Temperature	Amplitude force	Amplitude pos	Stiffness	Phase shift	Phase excitation	Force A raw	Displacement raw	HMax	HMax raw	Real Force	Real Stiffness	Contact Depth	Area	Hardness	Reduced Mod.
[#]	[#]	[um]	[s]	[um]	[um]	[um]	[m°]	[m°]	[um]	[uN]	[uN]	[V]	[V]	[V]	[°C]	[uN]	[um]	[N/m]	[°]	[°]	[uN]	[um]	[um]	[um]	[uN]	[N/m]	[um]	[um^2]	[MPa]	[MPa]
519	1.000000	0.002938	7.37013e+06	-51139.1	1005.82	-29753.3	0.000000	0.000000	6.002796	0.006857	NaN	0.000000	0.001641	0.001707	28.0812	0.010807	0.000914	11.8176	-125.14	-162.683	0.064815	0.001681	-1.126407	-1.127664	0.006857	11.8176	-1.126842	-1.148858E+15	-5.968943E-18	NaN
519	1.000000	0.044869	7.37013e+06	-51139.1	1005.82	-29753.3	0.000000	0.000000	6.044724	-0.045261	NaN	0.000000	0.001608	0.001681	28.0823	0.105846	0.002010	52.6558	-11.5744	16.2199	0.013935	0.043531	-1.084476	-1.085814	-0.045261	52.6558	-1.083832	-3.040745E+14	1.488475E-16	NaN
519	1.000000	0.086899	7.37013e+06	-51139.1	1005.82	-29753.3	0.000000	0.000000	6.086754	-0.058443	NaN	0.000000	0.001610	0.001655	28.0823	0.054914	0.002107	26.0637	58.7839	-168.659	-0.041846	0.085611	-1.042446	-1.043734	-0.058443	26.0637	-1.040764	-8.021340E+13	7.285884E-16	NaN
519	1.000000	0.128915	7.37013e+06	-51139.1	1005.82	-29753.3	0.000000	0.000000	6.128771	-0.023339	NaN	0.000000	0.001649	0.001688	28.0822	0.039982	0.002029	19.7013	-107.922	14.2018	0.018059	0.127584	-1.000430	-1.001762	-0.023339	19.7013	-0.999542	-2.236653E+13	1.043490E-15	NaN
519	1.000000	0.170905	7.37013e+06	-51139.1	1005.82	-29753.3	0.000000	0.000000	6.170763	0.024701	NaN	0.000000	0.001613	0.001663	28.0823	0.063705	0.001946	32.7402	-81.4306	-165.558	-0.015009	0.169623	-0.958440	-0.959723	0.024701	32.7402	-0.959006	-6.360187E+12	-3.883654E-15	NaN
519	1.000000	0.212932	7.37013e+06	-51139.1	1005.82	-29753.3	0.000000	0.000000	6.212787	-0.055008	NaN	0.000000	0.001608	0.001678	28.0812	0.007555	0.001876	4.026672	-85.8305	14.4947	0.034155	0.211583	-0.916413	-0.917762	-0.055008	4.026672	-0.906167	-1.231376E+12	4.467224E-14	NaN
519	1.000000	0.254990	7.37013e+06	-51139.1	1005.82	-29753.3	0.000000	0.000000	6.254846	-0.036116	NaN	0.000000	0.001607	0.001721	28.0813	0.063438	0.002025	31.3275	140.119	-167.172	-0.044643	0.253686	-0.874355	-0.875660	-0.036116	31.3275	-0.873490	-4.453055E+11	8.110487E-14	NaN
519	1.000000	0.296997	7.37013e+06	-51139.1	1005.82	-29753.3	0.000000	0.000000	6.296851	-0.069968	NaN	0.000000	0.001648	0.001713	28.0813	0.043971	0.002038	21.5729	-3.958657	11.9473	-0.055476	0.295671	-0.832348	-0.833674	-0.069968	21.5729	-0.829916	-1.144579E+11	6.113008E-13	NaN
519	1.000000	0.339028	7.37013e+06	-51139.1	1005.82	-29753.3	0.000000	0.000000	6.338882	-0.089538	NaN	0.000000	0.001646	0.001692	28.0825	0.009511	0.002023	4.702472	-26.5065	-169.133	-0.054613	0.337758	-0.790317	-0.791587	-0.089538	4.702472	-0.776036	-2.125014E+10	4.213537E-12	NaN
519	1.000000	0.381029	7.37013e+06	-51139.1	1005.82	-29753.3	0.000000	0.000000	6.380884	-0.053948	NaN	0.000000	0.001666	0.001692	28.0822	0.091453	0.001952	46.8579	136.256	10.8851	-0.015875	0.379713	-0.748316	-0.749632	-0.053948	46.8579	-0.747453	-8.680482E+9	6.214817E-12	NaN
519	1.000000	0.423059	7.37013e+06	-51139.1	1005.82	-29753.3	0.000000	0.000000	6.422914	-0.054062	NaN	0.000000	0.001605	0.001719	28.0821	0.091479	0.001987	46.0488	47.4676	-165.781	-0.037857	0.421743	-0.706286	-0.707602	-0.054062	46.0488	-0.705406	-2.319230E+9	2.331051E-11	NaN
519	1.000000	0.465065	7.37013e+06	-51139.1	1005.82	-29753.3	0.000000	0.000000	6.464921	-0.046766	NaN	0.000000	0.001591	0.001715	28.081	0.118577	0.001885	62.8926	-130.359	19.0467	-0.097419	0.463735	-0.664280	-0.665611	-0.046766	62.8926	-0.663722	-6.243784E+8	7.490040E-11	NaN
519	1.000000	0.507086	7.37013e+06	-51139.1	1005.82	-29753.3	0.000000	0.000000	6.506940	-0.077395	NaN	0.000000	0.001583	0.001742	28.0809	0.038219	0.002055	18.5989	-54.4217	-166.451	0.014355	0.505775	-0.622259	-0.623570	-0.077395	18.5989	-0.619138	-1.526831E+8	5.069005E-10	NaN
519	1.000000	0.549073	7.37013e+06	-51139.1	1005.82	-29753.3	0.000000	0.000000	6.548931	0.017726	NaN	0.000000	0.001630	0.001774	28.081	0.049534	0.001822	27.1873	-5.652000	16.7203	-0.053154	0.547734	-0.580272	-0.581611	0.017726	27.1873	-0.580761	-4.520995E+7	-3.920769E-10	NaN
519	1.000000	0.591110	7.37013e+06	-51139.1	1005.82	-29753.3	0.000000	0.000000	6.590968	0.009051	NaN	0.000000	0.001633	0.001724	28.0823	0.074775	0.001965	38.0571	-142.721	-166.139	-0.061886	0.589828	-0.538235	-0.539517	0.009051	38.0571	-0.538413	-1.173141E+7	-7.715388E-10	NaN
519	1.000000	0.633129	7.37013e+06	-51139.1	1005.82	-29753.3	0.000000	0.000000	6.632987	-0.004175	NaN	0.000000	0.001655	0.001713	28.0822	0.097244	0.001914	50.8163	120.14	12.2042	-0.044309	0.631721	-0.496216	-0.497625	-0.004175	50.8163	-0.496154	-3.02933e+06	1.378280E-9	NaN
519	1.000000	0.675154	7.37013e+06	-51139.1	1005.82	-29753.3	0.000000	0.000000	6.675012	0.012305	NaN	0.000000	0.001672	0.001766	28.0823	0.098195	0.002038	48.1716	-29.9005	-166.296	0.001518	0.673866	-0.454191	-0.455479	0.012305	48.1716	-0.454383	-787114	-1.563274E-8	NaN
519	1.000000	0.717186	7.37013e+06	-51139.1	1005.82	-29753.3	0.000000	0.000000	6.717042	-0.049956	NaN	0.000000	0.001663	0.001803	28.0823	0.022710	0.001948	11.6566	154.663	14.3803	-0.021266	0.715870	-0.412159	-0.413476	-0.049956	11.6566	-0.408945	-179223	2.787375E-7	NaN
519	1.000000	0.759214	7.37013e+06	-51139.1	1005.82	-29753.3	0.000000	0.000000	6.759072	-0.007779	NaN	0.000000	0.001645	0.001696	28.081	0.067551	0.001876	36.0043	-33.2059	-163.987	-0.066560	0.757864	-0.370131	-0.371481	-0.007779	36.0043	-0.369969	-49622.3	1.567665E-7	NaN
519	1.000000	0.801205	7.37013e+06	-51139.1	1005.82	-29753.3	0.000000	0.000000	6.801062	-0.007398	NaN	0.000000	0.001699	0.001635	28.0809	0.027907	0.002029	13.7577	66.4268	13.1432	-0.026461	0.799851	-0.328140	-0.329494	-0.007398	13.7577	-0.327737	-12086.2	6.120877E-7	NaN
519	1.000000	0.843243	7.37013e+06	-51139.1	1005.82	-29753.3	0.000000	0.000000	6.843095	-0.116788	NaN	0.000000	0.001660	0.001693	28.0814	0.065779	0.001918	34.289	-74.8911	-168.26	0.034532	0.841899	-0.286102	-0.287447	-0.116788	34.289	-0.283548	-2669.49	4.374917E-5	NaN
519	1.000000	0.885260	7.37013e+06	-51139.1	1005.82	-29753.3	0.000000	0.000000	6.885117	-0.003500	NaN	0.000000	0.001656	0.001675	28.0825	0.069442	0.002055	33.7945	-120.195	12.2399	0.009512	0.883937	-0.244086	-0.245408	-0.003500	33.7945	-0.244008	-663.783	5.273318E-6	NaN
519	1.000000	0.927267	7.37013e+06	-51139.1	1005.82	-29753.3	0.000000	0.000000	6.927125	0.031161	NaN	0.000000	0.001582	0.001724	28.0823	0.024092	0.001983	12.1475	-165.737	-168.082	0.027456	0.925979	-0.202079	-0.203367	0.031161	12.1475	-0.204002	-153.206	-0.000203	NaN
519	1.000000	0.969277	7.37013e+06	-51139.1	1005.82	-29753.3	0.000000	0.000000	6.969131	-0.072844	NaN	0.000000	0.001615	0.001693	28.0825	0.150682	0.001912	78.8268	-124.089	15.0395	-0.038406	0.967942	-0.160068	-0.161403	-0.072844	78.8268	-0.159375	-26.7225	0.002726	NaN
519	1.000000	1.011285	7.37013e+06	-51139.1	1005.82	-29753.3	0.000000	0.000000	7.011140	-0.077457	NaN	0.000000	0.001612	0.001697	28.0813	0.056425	0.002040	27.6642	111.089	-164.763	-0.170562	1.009938	-0.118060	-0.119408	-0.077457	27.6642	-0.115960	-3.998071	0.019374	NaN
519	1.000000	1.053306	7.37013e+06	-51139.1	1005.82	-29753.3	0.000000	0.000000	7.053160	-0.076321	NaN	0.000000	0.001555	0.001733	28.0813	0.075437	0.002037	37.0271	-51.0004	13.909	-0.122802	1.051931	-0.076039	-0.077415	-0.076321	37.0271	-0.074493	-0.448109	0.170318	NaN
519	1.000000	1.095325	7.37013e+06	-51139.1	1005.82	-29753.3	0.000000	0.000000	7.095182	-0.018921	NaN	0.000000	0.001612	0.001754	28.0814	0.076074	0.002065	36.8316	-69.8894	-167.278	-0.029369	1.094036	-0.034020	-0.035309	-0.018921	36.8316	-0.033635	-0.029210	0.647765	NaN
519	1.000000	1.137346	7.37013e+06	-51139.1	1005.82	-29753.3	0.000000	0.000000	7.137294	2.202406	NaN	0.000000	0.001589	0.001681	28.0828	3.025034	0.001814	1667.81	9.788141	12.4413	1.081309	1.135996	0.008001	0.006651	2.202406	1667.81	0.007010	0.006044	364.402	19600.3
519	2.000000	1.151943	7.37013e+06	-51139.1	1005.82	-29753.3	0.000000	0.000000	7.152597	19.3778	NaN	0.000000	0.001623	0.001660	28.0831	17.5492	0.001860	9433.99	7.503755	-175.272	19.5381	1.151600	0.022598	0.022255	19.3778	9433.99	0.021057	0.024231	799.714	55371.2
519	2.000000	1.162415	7.37013e+06	-51139.1	1005.82	-29753.3	0.000000	0.000000	7.164187	46.5764	NaN	0.000000	0.001650	0.001652	28.0822	28.8058	0.001791	16085.9	5.878309	1.345250	47.2405	1.161947	0.033069	0.032602	46.5764	16085.9	0.030898	0.042625	1092.7	71184.7
519	2.000000	1.172812	7.37013e+06	-51139.1	1005.82	-29753.3	0.000000	0.000000	7.176063	82.5393	NaN	0.000000	0.001658	0.001662	28.0825	38.4707	0.001750	21984	1.140113	-178.799	79.6064	1.172565	0.043466	0.043219	82.5393	21984	0.040650	0.065720	1255.92	78348.5
519	2.000000	1.183363	7.37013e+06	-51139.1	1005.82	-29753.3	0.000000	0.000000	7.188412	126.241	NaN	0.000000	0.001696	0.001708	28.0809	48.3161	0.001857	26020.9	7.139553	-5.310302	123.766	1.182978	0.054018	0.053633	126.241	26020.9	0.050380	0.093590	1348.86	77710.6
519	2.000000	1.193825	7.37013e+06	-51139.1	1005.82	-29753.3	0.000000	0.000000	7.200756	171.996	NaN	0.000000	0.001713	0.001698	28.0807	58.5819	0.001756	33365	7.622581	171.765	170.732	1.193450	0.064480	0.064105	171.996	33365	0.060614	0.128019	1343.52	85197.4
519	2.000000	1.204323	7.37013e+06	-51139.1	1005.82	-29753.3	0.000000	0.000000	7.213767	233.118	NaN	0.000000	0.001672	0.001689	28.0811	67.6573	0.001810	37373.5	5.516988	-7.329698	230.939	1.204004	0.074978	0.074658	233.118	37373.5	0.070300	0.165311	1410.18	83982.1
519	2.000000	1.214822	7.37013e+06	-51139.1	1005.82	-29753.3	0.000000	0.000000	7.226797	294.682	NaN	0.000000	0.001607	0.001696	28.0823	77.7959	0.001763	44138.3	5.987636	170.62	293.581	1.214539	0.085476	0.085194	294.682	44138.3	0.080469	0.209263	1408.19	88154.2
519	2.000000	1.225242	7.37013e+06	-51139.1	1005.82	-29753.3	0.000000	0.000000	7.240384	371.691	NaN	0.000000	0.001620	0.001630	28.0826	88.2253	0.001799	49036.3	1.201308	-4.472999	366.48	1.224885	0.095897	0.095540	371.691	49036.3	0.090212	0.255889	1452.55	88565.6
519	2.000000	1.235714	7.37013e+06	-51139.1	1005.82	-29753.3	0.000000	0.000000	7.254309	455.657	NaN	0.000000	0.001684	0.001653	28.0822	97.7662	0.001784	54803.3	7.655808	168.208	450.826	1.235339	0.106368	0.105994	455.657	54803.3	0.100133	0.307843	1480.16	90243.2
519	2.000000	1.241352	7.37013e+06	-51139.1	1005.82	-29753.3	0.000000	0.000000	7.261409	491.212	NaN	0.000000	0.001685	0.001632	28.0828	104.306	0.001782	58546.1	4.329665	-9.017193	491.024	1.241133	0.112006	0.111787	491.212	58546.1	0.105714	0.339039	1448.83	91864.1