File: remote_trans/data/nanoindenter/0828-1/data/Data_2025-08-06,11h17m57s/2025-07-22_16-23-58_1_327.txt
2025-07-22, 16:23:58, 1
Index	Phase	Displacement	Time	Pos X	Pos Y	Pos Z	Rot A	Rot B	Piezo Z	Force A	Force B	Gripper	Voltage A	Voltage B	Temperature	Amplitude force	Amplitude pos	Stiffness	Phase shift	Phase excitation	Force A raw	Displacement raw	HMax	HMax raw	Real Force	Real Stiffness	Contact Depth	Area	Hardness	Reduced Mod.
[#]	[#]	[um]	[s]	[um]	[um]	[um]	[m°]	[m°]	[um]	[uN]	[uN]	[V]	[V]	[V]	[°C]	[uN]	[um]	[N/m]	[°]	[°]	[uN]	[um]	[um]	[um]	[uN]	[N/m]	[um]	[um^2]	[MPa]	[MPa]
327	1.000000	0.002801	7.36826e+06	-54989.1	955.819	-29742.7	0.000000	0.000000	6.002780	-0.026212	NaN	0.000000	0.001590	0.001604	28.0807	0.160908	0.000955	168.424	-169.03	-162.323	-0.033336	0.001576	-1.153990	-1.155214	-0.026212	168.424	-1.153873	-2.646904E+15	9.902827E-18	NaN
327	1.000000	0.046769	7.36826e+06	-54989.1	955.818	-29742.7	0.000000	0.000000	6.046748	-0.023403	NaN	0.000000	0.001609	0.001666	28.0808	0.085707	0.001968	43.5459	143.721	-164.732	-0.013230	0.045435	-1.110021	-1.111355	-0.023403	43.5459	-1.109618	-6.747772E+14	3.468209E-17	NaN
327	1.000000	0.090803	7.36826e+06	-54989.1	955.819	-29742.7	0.000000	0.000000	6.090781	-0.057835	NaN	0.000000	0.001587	0.001657	28.079	0.087255	0.002130	40.9706	4.460247	-164.31	-0.029033	0.089427	-1.065987	-1.067363	-0.057835	40.9706	-1.064929	-1.694542E+14	3.413003E-16	NaN
327	1.000000	0.134789	7.36826e+06	-54989.1	955.819	-29742.7	0.000000	0.000000	6.134767	-0.052515	NaN	0.000000	0.001640	0.001729	28.0791	0.063910	0.001875	34.0823	98.5887	-162.975	-0.006693	0.133460	-1.022001	-1.023331	-0.052515	34.0823	-1.020845	-4.328400E+13	1.213261E-15	NaN
327	1.000000	0.178845	7.36826e+06	-54989.1	955.819	-29742.7	0.000000	0.000000	6.178823	-0.055355	NaN	0.000000	0.001604	0.001699	28.0792	0.018233	0.002002	9.109108	113.63	-166.449	-0.025555	0.177507	-0.977945	-0.979283	-0.055355	9.109108	-0.973387	-9.938331E+12	5.569856E-15	NaN
327	1.000000	0.222824	7.36826e+06	-54989.1	955.82	-29742.7	0.000000	0.000000	6.222804	0.010517	NaN	0.000000	0.001629	0.001683	28.0804	0.014709	0.001928	7.627466	-90.7428	-166.183	-0.049140	0.221523	-0.933966	-0.935267	0.010517	7.627466	-0.935000	-3.017720E+12	-3.485011E-15	NaN
327	1.000000	0.266855	7.36826e+06	-54989.1	955.819	-29742.7	0.000000	0.000000	6.266832	-0.080980	NaN	0.000000	0.001584	0.001698	28.0802	0.105959	0.002062	51.3755	92.7598	-168.147	-0.057197	0.265564	-0.889935	-0.891226	-0.080980	51.3755	-0.888753	-7.162385E+11	1.130628E-13	NaN
327	1.000000	0.310894	7.36826e+06	-54989.1	955.819	-29742.7	0.000000	0.000000	6.310875	0.034923	NaN	0.000000	0.001565	0.001697	28.08	0.054404	0.001922	28.3033	53.696	-167.147	0.028937	0.309620	-0.845896	-0.847171	0.034923	28.3033	-0.846822	-1.939535E+11	-1.800607E-13	NaN
327	1.000000	0.354886	7.36826e+06	-54989.1	955.82	-29742.7	0.000000	0.000000	6.354865	-0.020257	NaN	0.000000	0.001667	0.001659	28.079	0.042875	0.001913	22.4123	-49.1789	-167.079	0.054349	0.353575	-0.801905	-0.803215	-0.020257	22.4123	-0.801227	-4.672126E+10	4.335770E-13	NaN
327	1.000000	0.398887	7.36826e+06	-54989.1	955.818	-29742.7	0.000000	0.000000	6.398866	-0.027380	NaN	0.000000	0.001684	0.001670	28.079	0.114370	0.001916	59.6896	25.018	-164.674	-0.026785	0.397632	-0.757903	-0.759158	-0.027380	59.6896	-0.757559	-1.191511E+10	2.297959E-12	NaN
327	1.000000	0.442956	7.36826e+06	-54989.1	955.819	-29742.7	0.000000	0.000000	6.442936	-0.001226	NaN	0.000000	0.001682	0.001657	28.0791	0.025795	0.002089	12.3509	-69.9037	-165.171	-0.052483	0.441645	-0.713834	-0.715145	-0.001226	12.3509	-0.713760	-3.015433E+9	4.066587E-13	NaN
327	1.000000	0.486973	7.36827e+06	-54989.1	955.818	-29742.7	0.000000	0.000000	6.486951	-0.037174	NaN	0.000000	0.001675	0.001653	28.0804	0.051762	0.001957	26.4558	-135.379	-161.256	-0.055626	0.485598	-0.669817	-0.671192	-0.037174	26.4558	-0.668764	-7.319270E+8	5.078866E-11	NaN
327	1.000000	0.530980	7.36827e+06	-54989.1	955.819	-29742.7	0.000000	0.000000	6.530964	0.092425	NaN	0.000000	0.001705	0.001651	28.0804	0.090809	0.001977	45.9222	-176.166	-166.584	-0.026009	0.529658	-0.625810	-0.627132	0.092425	45.9222	-0.627319	-1.977917E+8	-4.672870E-10	NaN
327	1.000000	0.575010	7.36827e+06	-54989.1	955.818	-29742.7	0.000000	0.000000	6.574987	-0.064887	NaN	0.000000	0.001678	0.001639	28.0802	0.107112	0.001957	54.7301	-88.125	-166.545	-0.102765	0.573705	-0.581781	-0.583085	-0.064887	54.7301	-0.580891	-4.539722E+7	1.429324E-9	NaN
327	1.000000	0.618996	7.36827e+06	-54989.1	955.818	-29742.7	0.000000	0.000000	6.618972	-0.106216	NaN	0.000000	0.001730	0.001681	28.0793	0.050390	0.001978	25.4701	-169.513	-168.09	-0.105789	0.617674	-0.537794	-0.539116	-0.106216	25.4701	-0.534666	-1.040775E+7	1.020544E-8	NaN
327	1.000000	0.663040	7.36827e+06	-54989.1	955.818	-29742.7	0.000000	0.000000	6.663018	-0.039024	NaN	0.000000	0.001668	0.001677	28.079	0.094542	0.001908	49.5475	39.4838	-163.326	0.002668	0.661684	-0.493751	-0.495106	-0.039024	49.5475	-0.493160	-2.7513e+06	1.418376E-8	NaN
327	1.000000	0.707017	7.36827e+06	-54989.1	955.82	-29742.7	0.000000	0.000000	6.706999	0.053567	NaN	0.000000	0.001660	0.001697	28.0789	0.052536	0.002107	24.9367	78.6797	-164.333	0.005904	0.705698	-0.449774	-0.451092	0.053567	24.9367	-0.451385	-714234	-7.499947E-8	NaN
327	1.000000	0.751078	7.36827e+06	-54989.1	955.818	-29742.7	0.000000	0.000000	6.751057	-0.035904	NaN	0.000000	0.001644	0.001661	28.08	0.103856	0.002105	49.3483	146.589	-165.889	0.001246	0.749663	-0.405712	-0.407128	-0.035904	49.3483	-0.405166	-158349	2.267413E-7	NaN
327	1.000000	0.795079	7.36827e+06	-54989.1	955.819	-29742.7	0.000000	0.000000	6.795058	-0.013119	NaN	0.000000	0.001687	0.001685	28.0803	0.092811	0.001865	49.7692	167.091	-164.744	0.037982	0.793732	-0.361712	-0.363059	-0.013119	49.7692	-0.361514	-37473.4	3.500756E-7	NaN
327	1.000000	0.839114	7.36827e+06	-54989.1	955.818	-29742.7	0.000000	0.000000	6.839093	-0.026732	NaN	0.000000	0.001708	0.001681	28.0808	0.046598	0.002047	22.7655	-16.8256	-165.965	0.023205	0.837760	-0.317676	-0.319030	-0.026732	22.7655	-0.316796	-8345.12	3.203286E-6	NaN
327	1.000000	0.883114	7.36827e+06	-54989.1	955.819	-29742.7	0.000000	0.000000	6.883091	-0.076443	NaN	0.000000	0.001692	0.001645	28.0793	0.114431	0.001902	60.1731	24.3198	-163.592	-0.104182	0.881879	-0.273676	-0.274911	-0.076443	60.1731	-0.272724	-1831.89	4.172882E-5	NaN
327	1.000000	0.927158	7.36827e+06	-54989.1	955.818	-29742.7	0.000000	0.000000	6.927135	-0.078774	NaN	0.000000	0.001754	0.001688	28.0792	0.033040	0.001925	17.1617	93.7786	-166.597	-0.064886	0.925800	-0.229632	-0.230990	-0.078774	17.1617	-0.226190	-348.51	0.000226	NaN
327	1.000000	0.971170	7.36827e+06	-54989.1	955.82	-29742.7	0.000000	0.000000	6.971146	-0.098677	NaN	0.000000	0.001710	0.001680	28.0794	0.057519	0.002156	26.6774	93.9899	-167.227	-0.151697	0.969894	-0.185620	-0.186896	-0.098677	26.6774	-0.182846	-68.1958	0.001447	NaN
327	1.000000	1.015206	7.36827e+06	-54989.1	955.819	-29742.7	0.000000	0.000000	7.015186	0.003889	NaN	0.000000	0.001734	0.001704	28.0805	0.119792	0.001822	65.7637	-93.0557	-163.336	-0.004504	1.013851	-0.141585	-0.142939	0.003889	65.7637	-0.141629	-12.6908	-0.000306	NaN
327	1.000000	1.059203	7.36827e+06	-54989.1	955.817	-29742.7	0.000000	0.000000	7.059179	-0.093140	NaN	0.000000	0.001739	0.001664	28.0806	0.031025	0.002066	15.0143	169.788	-166.57	-0.115462	1.057850	-0.097587	-0.098940	-0.093140	15.0143	-0.092935	-1.264966	0.073631	NaN
327	1.000000	1.103218	7.36827e+06	-54989.1	955.819	-29742.7	0.000000	0.000000	7.103196	-0.057139	NaN	0.000000	0.001796	0.001667	28.0806	0.104006	0.002099	49.5415	-121.088	-165.881	-0.124493	1.101907	-0.053572	-0.054883	-0.057139	49.5415	-0.052707	-0.110070	0.519114	NaN
327	1.000000	1.147238	7.36827e+06	-54989.1	955.817	-29742.7	0.000000	0.000000	7.147217	-0.046448	NaN	0.000000	0.001733	0.001706	28.0797	0.022831	0.002010	11.3594	104.41	-164.4	-0.104150	1.145907	-0.009552	-0.010884	-0.046448	11.3594	-0.006485	-0.004331	10.7242	NaN
327	2.000000	1.172827	7.36827e+06	-54989.1	955.819	-29742.7	0.000000	0.000000	7.173455	15.7575	NaN	0.000000	0.001695	0.001668	28.0792	15.2792	0.001878	8135.18	4.515798	-172.988	15.6708	1.172471	0.016037	0.015681	15.7575	8135.18	0.014584	0.014735	1069.4	61230.3
327	2.000000	1.183806	7.36827e+06	-54989.1	955.817	-29742.7	0.000000	0.000000	7.185547	42.7908	NaN	0.000000	0.001650	0.001676	28.0794	26.3617	0.001730	15240	7.290941	179.045	43.4879	1.183440	0.027016	0.026650	42.7908	15240	0.024910	0.030852	1386.96	79270.9
327	2.000000	1.194775	7.36827e+06	-54989.1	955.818	-29742.7	0.000000	0.000000	7.197818	74.4626	NaN	0.000000	0.001763	0.001662	28.0792	37.2828	0.001863	20009.5	5.686201	178.272	73.8781	1.194380	0.037984	0.037590	74.4626	20009.5	0.035193	0.052197	1426.57	80017.7
327	2.000000	1.205676	7.36827e+06	-54989.1	955.818	-29742.7	0.000000	0.000000	7.210563	119.283	NaN	0.000000	0.001776	0.001646	28.0803	49.1368	0.001783	27561.5	5.020304	175.438	116.004	1.205398	0.048886	0.048607	119.283	27561.5	0.045640	0.079414	1502.04	89356.6
327	2.000000	1.216641	7.36827e+06	-54989.1	955.818	-29742.7	0.000000	0.000000	7.223733	172.899	NaN	0.000000	0.001728	0.001615	28.0803	59.8168	0.001898	31516.8	4.807978	174.22	168.093	1.216503	0.059851	0.059713	172.899	31516.8	0.055736	0.110965	1558.14	86441.7
327	2.000000	1.227678	7.36827e+06	-54989.1	955.819	-29742.7	0.000000	0.000000	7.237587	241.369	NaN	0.000000	0.001755	0.001651	28.0806	68.5774	0.001817	37749.5	3.654691	174.365	239.399	1.227354	0.070888	0.070564	241.369	37749.5	0.066093	0.148557	1624.75	89482.3
327	2.000000	1.238709	7.36827e+06	-54989.1	955.818	-29742.7	0.000000	0.000000	7.251813	319.026	NaN	0.000000	0.001727	0.001614	28.0791	79.1849	0.001813	43667.4	5.182400	171.133	316.236	1.238340	0.081919	0.081549	319.026	43667.4	0.076439	0.191265	1667.98	91224.8
327	2.000000	1.249742	7.36827e+06	-54989.1	955.818	-29742.7	0.000000	0.000000	7.266160	399.597	NaN	0.000000	0.001686	0.001644	28.0789	88.0852	0.001691	52087.5	5.270367	170.286	401.314	1.249377	0.092951	0.092587	399.597	52087.5	0.087198	0.240997	1658.1	96939.6
327	2.000000	1.260668	7.36827e+06	-54989.1	955.817	-29742.7	0.000000	0.000000	7.280863	491.419	NaN	0.000000	0.001679	0.001609	28.0789	99.3308	0.001730	57403.5	3.722930	171.447	492.517	1.260417	0.103878	0.103626	491.419	57403.5	0.097457	0.293391	1674.96	96825.2
327	2.000000	1.265164	7.36827e+06	-54989.1	955.819	-29742.7	0.000000	0.000000	7.286837	527.323	NaN	0.000000	0.001622	0.001637	28.0804	104.821	0.001864	56224.7	5.425678	-9.883324	523.929	1.264687	0.108374	0.107897	527.323	56224.7	0.101340	0.314473	1676.85	91602.9