File: remote_trans/data/nanoindenter/0828-1/data/Data_2025-08-06,11h17m57s/2025-07-22_16-23-58_1_459.txt
2025-07-22, 16:23:58, 1
Index	Phase	Displacement	Time	Pos X	Pos Y	Pos Z	Rot A	Rot B	Piezo Z	Force A	Force B	Gripper	Voltage A	Voltage B	Temperature	Amplitude force	Amplitude pos	Stiffness	Phase shift	Phase excitation	Force A raw	Displacement raw	HMax	HMax raw	Real Force	Real Stiffness	Contact Depth	Area	Hardness	Reduced Mod.
[#]	[#]	[um]	[s]	[um]	[um]	[um]	[m°]	[m°]	[um]	[uN]	[uN]	[V]	[V]	[V]	[°C]	[uN]	[um]	[N/m]	[°]	[°]	[uN]	[um]	[um]	[um]	[uN]	[N/m]	[um]	[um^2]	[MPa]	[MPa]
459	1.000000	0.002179	7.36955e+06	-54139.1	1005.82	-29744.3	0.000000	0.000000	6.002795	0.014225	NaN	0.000000	0.001675	0.001738	28.0804	0.142354	0.000978	145.617	2.302739	-156.311	-0.070065	0.000884	-1.117030	-1.118325	0.014225	145.617	-1.117104	-8.503776E+14	-1.672823E-17	NaN
459	1.000000	0.044122	7.36955e+06	-54139.1	1005.82	-29744.3	0.000000	0.000000	6.044739	0.036665	NaN	0.000000	0.001642	0.001773	28.0803	0.088658	0.001995	44.4443	-72.8457	12.7557	0.027420	0.042767	-1.075088	-1.076443	0.036665	44.4443	-1.075707	-2.365105E+14	-1.550250E-16	NaN
459	1.000000	0.086141	7.36955e+06	-54139.1	1005.82	-29744.3	0.000000	0.000000	6.086759	0.070456	NaN	0.000000	0.001629	0.001810	28.0803	0.041087	0.001892	21.72	10.1052	-166.503	0.098253	0.084872	-1.033069	-1.034338	0.070456	21.72	-1.035502	-6.815144E+13	-1.033816E-15	NaN
459	1.000000	0.128189	7.36955e+06	-54139.1	1005.82	-29744.3	0.000000	0.000000	6.128806	0.027309	NaN	0.000000	0.001601	0.001783	28.0817	0.075748	0.002078	36.459	-59.5576	13.9929	-0.064337	0.126819	-0.991020	-0.992391	0.027309	36.459	-0.991582	-1.747516E+13	-1.562755E-15	NaN
459	1.000000	0.170177	7.36955e+06	-54139.1	1005.82	-29744.3	0.000000	0.000000	6.170793	0.006443	NaN	0.000000	0.001542	0.001790	28.0812	0.097755	0.002063	47.3953	131.699	-164.588	-0.063873	0.168870	-0.949032	-0.950339	0.006443	47.3953	-0.949134	-4.681140E+12	-1.376477E-15	NaN
459	1.000000	0.212228	7.36955e+06	-54139.1	1005.82	-29744.3	0.000000	0.000000	6.212847	0.073293	NaN	0.000000	0.001517	0.001793	28.0814	0.139188	0.001756	79.2567	-56.2547	19.2421	-0.040737	0.210838	-0.906981	-0.908371	0.073293	79.2567	-0.907675	-1.290491E+12	-5.679504E-14	NaN
459	1.000000	0.254230	7.36955e+06	-54139.1	1005.82	-29744.3	0.000000	0.000000	6.254845	-0.029662	NaN	0.000000	0.001563	0.001798	28.0802	0.058048	0.001990	29.1648	33.8974	-165.154	-0.107866	0.252942	-0.864979	-0.866268	-0.029662	29.1648	-0.864216	-3.335677E+11	8.892302E-14	NaN
459	1.000000	0.296229	7.36955e+06	-54139.1	1005.82	-29744.3	0.000000	0.000000	6.296845	-0.012758	NaN	0.000000	0.001587	0.001793	28.08	0.097799	0.002145	45.5909	10.1274	18.9145	0.098648	0.294877	-0.822980	-0.824332	-0.012758	45.5909	-0.822770	-9.157423E+10	1.393154E-13	NaN
459	1.000000	0.338254	7.36955e+06	-54139.1	1005.82	-29744.4	0.000000	0.000000	6.338868	-0.040722	NaN	0.000000	0.001592	0.001788	28.0799	0.064455	0.002055	31.3702	-66.5971	-166.458	-0.133138	0.337001	-0.780956	-0.782208	-0.040722	31.3702	-0.779982	-2.404313E+10	1.693715E-12	NaN
459	1.000000	0.380293	7.36955e+06	-54139.1	1005.82	-29744.4	0.000000	0.000000	6.380908	-0.009264	NaN	0.000000	0.001545	0.001768	28.0813	0.102651	0.001982	51.7993	84.7962	12.808	-0.046399	0.378938	-0.738916	-0.740271	-0.009264	51.7993	-0.738782	-6.614054E+9	1.400649E-12	NaN
459	1.000000	0.422259	7.36955e+06	-54139.1	1005.82	-29744.4	0.000000	0.000000	6.422877	0.048968	NaN	0.000000	0.001542	0.001760	28.0811	0.032628	0.001986	16.4284	175.042	-163.259	0.004745	0.420989	-0.696950	-0.698221	0.048968	16.4284	-0.699186	-1.907280E+9	-2.567399E-11	NaN
459	1.000000	0.464347	7.36955e+06	-54139.1	1005.82	-29744.4	0.000000	0.000000	6.464961	-0.046282	NaN	0.000000	0.001557	0.001753	28.0809	0.081307	0.002072	39.244	66.1728	16.1608	0.038623	0.462881	-0.654862	-0.656329	-0.046282	39.244	-0.653977	-4.591495E+8	1.007994E-10	NaN
459	1.000000	0.506300	7.36955e+06	-54139.1	1005.82	-29744.4	0.000000	0.000000	6.506918	0.034000	NaN	0.000000	0.001552	0.001774	28.0811	0.051944	0.001951	26.6292	130.632	-165.821	-0.002168	0.505009	-0.612909	-0.614201	0.034000	26.6292	-0.613866	-1.292116E+8	-2.631327E-10	NaN
459	1.000000	0.548359	7.36955e+06	-54139.1	1005.82	-29744.4	0.000000	0.000000	6.548971	-0.080259	NaN	0.000000	0.001551	0.001780	28.0799	0.070377	0.002146	32.7908	4.415927	14.2639	-0.036540	0.546989	-0.570851	-0.572220	-0.080259	32.7908	-0.569015	-3.111881E+7	2.579131E-9	NaN
459	1.000000	0.590355	7.36955e+06	-54139.1	1005.82	-29744.4	0.000000	0.000000	6.590971	0.017676	NaN	0.000000	0.001547	0.001763	28.0805	0.051534	0.001964	26.2417	14.2124	-163.064	0.019029	0.589047	-0.528855	-0.530162	0.017676	26.2417	-0.529360	-8.7838e+06	-2.012396E-9	NaN
459	1.000000	0.632367	7.36955e+06	-54139.1	1005.82	-29744.4	0.000000	0.000000	6.632983	-0.001859	NaN	0.000000	0.001565	0.001777	28.0801	0.058759	0.002038	28.8324	-165.791	16.3028	-0.087889	0.631035	-0.486843	-0.488174	-0.001859	28.8324	-0.486794	-2.24172e+06	8.291181E-10	NaN
459	1.000000	0.674416	7.36955e+06	-54139.1	1005.82	-29744.4	0.000000	0.000000	6.675031	-0.025946	NaN	0.000000	0.001568	0.001767	28.0815	0.054595	0.001895	28.8155	-54.0448	-167.077	-0.030340	0.673141	-0.444793	-0.446068	-0.025946	28.8155	-0.444118	-564224	4.598523E-8	NaN
459	1.000000	0.716407	7.36955e+06	-54139.1	1005.82	-29744.4	0.000000	0.000000	6.717023	0.012505	NaN	0.000000	0.001539	0.001790	28.0815	0.095155	0.001856	51.2637	60.466	16.8874	-0.019727	0.715065	-0.402802	-0.404144	0.012505	51.2637	-0.402985	-147417	-8.482550E-8	NaN
459	1.000000	0.758435	7.36955e+06	-54139.1	1005.82	-29744.4	0.000000	0.000000	6.759047	-0.077168	NaN	0.000000	0.001558	0.001819	28.0816	0.024011	0.002084	11.5212	-171.81	-165.696	-0.034327	0.757100	-0.360775	-0.362110	-0.077168	11.5212	-0.355751	-30929.7	2.494940E-6	NaN
459	1.000000	0.800484	7.36955e+06	-54139.1	1005.82	-29744.4	0.000000	0.000000	6.801101	0.028453	NaN	0.000000	0.001546	0.001762	28.0803	0.105904	0.002117	50.0203	-1.144026	15.7415	0.029761	0.799086	-0.318726	-0.320124	0.028453	50.0203	-0.319152	-9039.78	-3.147502E-6	NaN
459	1.000000	0.842462	7.36955e+06	-54139.1	1005.82	-29744.4	0.000000	0.000000	6.843077	-0.013431	NaN	0.000000	0.001578	0.001809	28.0812	0.115429	0.002014	57.3016	-54.7719	-166.731	-0.037383	0.841162	-0.276747	-0.278048	-0.013431	57.3016	-0.276572	-2095	6.411175E-6	NaN
459	1.000000	0.884468	7.36955e+06	-54139.1	1005.82	-29744.4	0.000000	0.000000	6.885083	-0.032587	NaN	0.000000	0.001564	0.001818	28.0803	0.082667	0.001931	42.814	125.921	13.8705	-0.043955	0.883140	-0.234741	-0.236069	-0.032587	42.814	-0.234170	-465.818	6.995584E-5	NaN
459	1.000000	0.926474	7.36955e+06	-54139.1	1005.82	-29744.4	0.000000	0.000000	6.927086	-0.080391	NaN	0.000000	0.001547	0.001809	28.0814	0.072308	0.001928	37.513	100.307	-165.552	-0.079783	0.925224	-0.192736	-0.193985	-0.080391	37.513	-0.191129	-93.9429	0.000856	NaN
459	1.000000	0.968512	7.36955e+06	-54139.1	1005.82	-29744.4	0.000000	0.000000	6.969127	-0.009804	NaN	0.000000	0.001573	0.001751	28.0811	0.005308	0.001999	2.654651	-123.183	14.4299	-0.028592	0.967207	-0.150698	-0.152003	-0.009804	2.654651	-0.147928	-16.6	0.000591	NaN
459	1.000000	1.010545	7.36955e+06	-54139.1	1005.82	-29744.4	0.000000	0.000000	7.011164	0.063726	NaN	0.000000	0.001586	0.001810	28.0812	0.122889	0.001982	62.004	-93.862	-166.3	0.032812	1.009233	-0.108664	-0.109976	0.063726	62.004	-0.109435	-2.923759	-0.021796	NaN
459	1.000000	1.052525	7.36955e+06	-54139.1	1005.82	-29744.4	0.000000	0.000000	7.053142	0.025199	NaN	0.000000	0.001611	0.001808	28.0815	0.135361	0.002032	66.609	2.529574	11.7439	0.067818	1.051186	-0.066685	-0.068023	0.025199	66.609	-0.066968	-0.282362	-0.089243	NaN
459	1.000000	1.094560	7.36955e+06	-54139.1	1005.82	-29744.4	0.000000	0.000000	7.095174	-0.030090	NaN	0.000000	0.001639	0.001778	28.0804	0.104425	0.001878	55.6055	49.0576	-164.98	0.014102	1.093224	-0.024650	-0.025985	-0.030090	55.6055	-0.024244	-0.016123	1.866237	NaN
459	2.000000	1.130593	7.36955e+06	-54139.1	1005.82	-29744.4	0.000000	0.000000	7.131765	13.5188	NaN	0.000000	0.001596	0.001762	28.0803	11.323	0.001585	7142.58	2.984153	8.712379	12.6568	1.130235	0.011384	0.011026	13.5188	7142.58	0.009964	0.009142	1478.78	68251.4
459	2.000000	1.141020	7.36955e+06	-54139.1	1005.82	-29744.4	0.000000	0.000000	7.143015	33.5414	NaN	0.000000	0.001578	0.001815	28.0804	21.6552	0.001771	12230.5	6.736729	-177.979	32.5708	1.140811	0.021810	0.021601	33.5414	12230.5	0.019753	0.022156	1513.86	75070.7
459	2.000000	1.151511	7.36955e+06	-54139.1	1005.82	-29744.4	0.000000	0.000000	7.154724	63.1457	NaN	0.000000	0.001529	0.001731	28.0815	31.8567	0.001688	18869.7	3.174159	1.439216	60.4676	1.151158	0.032302	0.031949	63.1457	18869.7	0.029792	0.040313	1566.37	85864.3
459	2.000000	1.162021	7.36955e+06	-54139.1	1005.82	-29744.4	0.000000	0.000000	7.166779	100.702	NaN	0.000000	0.001555	0.001746	28.0815	42.1229	0.001774	23745.9	4.417141	178.483	100.907	1.161698	0.042812	0.042489	100.702	23745.9	0.039631	0.063078	1596.46	86381.5
459	2.000000	1.172487	7.36955e+06	-54139.1	1005.82	-29744.4	0.000000	0.000000	7.179161	147.283	NaN	0.000000	0.001561	0.001762	28.0813	51.9106	0.001807	28720.9	4.359543	-2.534384	146.774	1.172065	0.053278	0.052855	147.283	28720.9	0.049432	0.090664	1624.49	87147
459	2.000000	1.182965	7.36955e+06	-54139.1	1005.82	-29744.4	0.000000	0.000000	7.191820	200.31	NaN	0.000000	0.001644	0.001776	28.0801	62.549	0.001729	36175.8	4.981953	174.634	198.261	1.182737	0.063755	0.063528	200.31	36175.8	0.059602	0.124386	1610.39	93714
459	2.000000	1.193405	7.36955e+06	-54139.1	1005.82	-29744.4	0.000000	0.000000	7.204796	261.958	NaN	0.000000	0.001623	0.001757	28.0802	73.5354	0.001749	42039.2	5.533645	-7.230951	257.01	1.193058	0.074195	0.073848	261.958	42039.2	0.069522	0.162149	1615.54	95383
459	2.000000	1.203930	7.36955e+06	-54139.1	1005.82	-29744.4	0.000000	0.000000	7.217433	313.305	NaN	0.000000	0.001532	0.001736	28.0801	84.1005	0.001754	47952	5.369188	171.066	311.291	1.203738	0.084721	0.084528	313.305	47952	0.079820	0.206314	1518.58	96452.9
459	2.000000	1.214509	7.36955e+06	-54139.1	1005.82	-29744.4	0.000000	0.000000	7.231640	401.503	NaN	0.000000	0.001562	0.001765	28.0812	93.5476	0.001741	53738.8	7.422549	-10.8409	402.071	1.214229	0.095299	0.095019	401.503	53738.8	0.089696	0.253310	1585.02	97551.7
459	2.000000	1.225009	7.36955e+06	-54139.1	1005.82	-29744.4	0.000000	0.000000	7.245706	488.195	NaN	0.000000	0.001594	0.001775	28.0812	102.366	0.001951	52455.3	2.294362	174.951	491.814	1.224477	0.105799	0.105267	488.195	52455.3	0.098819	0.300708	1623.49	87395.8
459	2.000000	1.226877	7.36955e+06	-54139.1	1005.82	-29744.4	0.000000	0.000000	7.248392	508.071	NaN	0.000000	0.001592	0.001761	28.0814	104.929	0.001758	59691.5	7.182641	168.529	504.198	1.226619	0.107668	0.107409	508.071	59691.5	0.101284	0.314163	1617.22	97298.9