File: remote_trans/data/nanoindenter/0828-1/data/Data_2025-08-06,11h17m57s/2025-07-22_16-23-58_1_356.txt
2025-07-22, 16:23:58, 1
Index	Phase	Displacement	Time	Pos X	Pos Y	Pos Z	Rot A	Rot B	Piezo Z	Force A	Force B	Gripper	Voltage A	Voltage B	Temperature	Amplitude force	Amplitude pos	Stiffness	Phase shift	Phase excitation	Force A raw	Displacement raw	HMax	HMax raw	Real Force	Real Stiffness	Contact Depth	Area	Hardness	Reduced Mod.
[#]	[#]	[um]	[s]	[um]	[um]	[um]	[m°]	[m°]	[um]	[uN]	[uN]	[V]	[V]	[V]	[°C]	[uN]	[um]	[N/m]	[°]	[°]	[uN]	[um]	[um]	[um]	[uN]	[N/m]	[um]	[um^2]	[MPa]	[MPa]
356	1.000000	0.002296	7.36854e+06	-56439.1	955.818	-29739.3	0.000000	0.000000	6.002788	-0.024794	NaN	0.000000	0.001590	0.001770	28.0792	0.103375	0.000924	111.848	-164.069	-161.843	-0.065314	0.001018	-1.032261	-1.033539	-0.024794	111.848	-1.032095	-6.132789E+13	4.042857E-16	NaN
356	1.000000	0.042284	7.36854e+06	-56439.1	955.818	-29739.3	0.000000	0.000000	6.042777	-0.007182	NaN	0.000000	0.001629	0.001718	28.0792	0.074080	0.002003	36.9913	-152.733	-164.073	0.010696	0.040975	-0.992273	-0.993582	-0.007182	36.9913	-0.992127	-1.777301E+13	4.040913E-16	NaN
356	1.000000	0.082280	7.36854e+06	-56439.1	955.819	-29739.3	0.000000	0.000000	6.082772	-0.028587	NaN	0.000000	0.001547	0.001701	28.0796	0.177943	0.001907	93.3026	174.231	-167.319	0.057953	0.081012	-0.952276	-0.953545	-0.028587	93.3026	-0.952047	-5.124237E+12	5.578726E-15	NaN
356	1.000000	0.122287	7.36854e+06	-56439.1	955.818	-29739.3	0.000000	0.000000	6.122778	-0.064033	NaN	0.000000	0.001510	0.001701	28.0795	0.022263	0.002140	10.4038	26.4689	-163.794	-0.102564	0.120975	-0.912269	-0.913582	-0.064033	10.4038	-0.907653	-1.289622E+12	4.965284E-14	NaN
356	1.000000	0.162308	7.36854e+06	-56439.1	955.819	-29739.3	0.000000	0.000000	6.162797	-0.104978	NaN	0.000000	0.001564	0.001746	28.0805	0.069046	0.001996	34.5953	-149.974	-165.879	-0.029728	0.160994	-0.872249	-0.873563	-0.104978	34.5953	-0.869973	-3.990970E+11	2.630399E-13	NaN
356	1.000000	0.202315	7.36854e+06	-56439.1	955.818	-29739.3	0.000000	0.000000	6.202807	-0.027614	NaN	0.000000	0.001553	0.001709	28.0806	0.018010	0.001933	9.318594	-164.355	-163.804	-0.057985	0.201031	-0.832242	-0.833526	-0.027614	9.318594	-0.830019	-1.148270E+11	2.404830E-13	NaN
356	1.000000	0.242360	7.36854e+06	-56439.1	955.818	-29739.3	0.000000	0.000000	6.242850	-0.091256	NaN	0.000000	0.001508	0.001671	28.0808	0.031038	0.001984	15.6418	22.4486	-165.854	-0.087684	0.240987	-0.792196	-0.793569	-0.091256	15.6418	-0.787821	-3.072447E+10	2.970142E-12	NaN
356	1.000000	0.282370	7.36854e+06	-56439.1	955.818	-29739.3	0.000000	0.000000	6.282861	-0.044199	NaN	0.000000	0.001603	0.001773	28.0795	0.112274	0.001998	56.1872	-141.937	-160.918	0.046321	0.281038	-0.752187	-0.753519	-0.044199	56.1872	-0.751597	-9.884597E+9	4.471508E-12	NaN
356	1.000000	0.322375	7.36854e+06	-56439.1	955.819	-29739.3	0.000000	0.000000	6.322865	-0.076936	NaN	0.000000	0.001538	0.001779	28.0794	0.050588	0.001942	26.0562	119.19	-165.989	-0.036521	0.321094	-0.712182	-0.713463	-0.076936	26.0562	-0.709967	-2.676705E+9	2.874298E-11	NaN
356	1.000000	0.362400	7.36854e+06	-56439.1	955.819	-29739.3	0.000000	0.000000	6.362890	-0.074564	NaN	0.000000	0.001510	0.001778	28.0791	0.051948	0.001896	27.3935	23.9691	-168.342	-0.047057	0.361089	-0.672156	-0.673468	-0.074564	27.3935	-0.670115	-7.637720E+8	9.762642E-11	NaN
356	1.000000	0.402387	7.36854e+06	-56439.1	955.818	-29739.3	0.000000	0.000000	6.402878	-0.058209	NaN	0.000000	0.001562	0.001739	28.0805	0.173555	0.001861	93.2584	120.492	-162.59	-0.036480	0.401120	-0.632169	-0.633437	-0.058209	93.2584	-0.631701	-2.271880E+8	2.562144E-10	NaN
356	1.000000	0.442449	7.36854e+06	-56439.1	955.818	-29739.3	0.000000	0.000000	6.442938	-0.093811	NaN	0.000000	0.001499	0.001800	28.0804	0.022615	0.001961	11.5326	161.399	-165.175	-0.061461	0.441158	-0.592108	-0.593399	-0.093811	11.5326	-0.586007	-5.340805E+7	1.756489E-9	NaN
356	1.000000	0.482455	7.36854e+06	-56439.1	955.818	-29739.3	0.000000	0.000000	6.482946	-0.049177	NaN	0.000000	0.001491	0.001749	28.0806	0.045927	0.002078	22.1028	109.845	-160.698	-0.059378	0.481134	-0.552102	-0.553423	-0.049177	22.1028	-0.550433	-1.721703E+7	2.856288E-9	NaN
356	1.000000	0.522485	7.36854e+06	-56439.1	955.819	-29739.3	0.000000	0.000000	6.522974	-0.098597	NaN	0.000000	0.001505	0.001706	28.0805	0.092088	0.002057	44.7713	-158.304	-164.528	-0.092552	0.521129	-0.512072	-0.513427	-0.098597	44.7713	-0.510420	-4.78924e+06	2.058714E-8	NaN
356	1.000000	0.562503	7.36854e+06	-56439.1	955.818	-29739.3	0.000000	0.000000	6.562993	-0.074550	NaN	0.000000	0.001540	0.001702	28.0794	0.091141	0.002059	44.2538	130.057	-161.541	-0.053387	0.561154	-0.472054	-0.473402	-0.074550	44.2538	-0.470790	-1.3381e+06	5.571281E-8	NaN
356	1.000000	0.602521	7.36854e+06	-56439.1	955.819	-29739.3	0.000000	0.000000	6.603012	-0.036666	NaN	0.000000	0.001555	0.001680	28.0794	0.003605	0.001899	1.898454	108.23	-169.212	0.016685	0.601175	-0.432036	-0.433382	-0.036666	1.898454	-0.417551	-237502	1.543832E-7	NaN
356	1.000000	0.642504	7.36854e+06	-56439.1	955.818	-29739.3	0.000000	0.000000	6.642996	-0.044863	NaN	0.000000	0.001552	0.001691	28.0795	0.042571	0.002050	20.7695	-86.4559	-165.225	-0.099687	0.641168	-0.392053	-0.393389	-0.044863	20.7695	-0.390432	-97578.2	4.597683E-7	NaN
356	1.000000	0.682518	7.36854e+06	-56439.1	955.819	-29739.3	0.000000	0.000000	6.683010	-0.032927	NaN	0.000000	0.001527	0.001683	28.0805	0.064906	0.001993	32.5735	70.8694	-164.36	0.032265	0.681170	-0.352039	-0.353387	-0.032927	32.5735	-0.351281	-26643	1.235853E-6	NaN
356	1.000000	0.722558	7.36855e+06	-56439.1	955.818	-29739.3	0.000000	0.000000	6.723047	-0.098013	NaN	0.000000	0.001489	0.001685	28.0806	0.052025	0.001920	27.1011	-164.238	-165.753	-0.049961	0.721242	-0.311999	-0.313314	-0.098013	27.1011	-0.309287	-6463.9	1.516310E-5	NaN
356	1.000000	0.762528	7.36855e+06	-56439.1	955.818	-29739.3	0.000000	0.000000	6.763019	-0.044091	NaN	0.000000	0.001523	0.001690	28.0807	0.082530	0.002056	40.1389	-140.482	-166.251	-0.082900	0.761255	-0.272029	-0.273302	-0.044091	40.1389	-0.271205	-1737.23	2.538004E-5	NaN
356	1.000000	0.802605	7.36855e+06	-56439.1	955.819	-29739.3	0.000000	0.000000	6.803096	-0.055853	NaN	0.000000	0.001604	0.001689	28.0805	0.100679	0.002010	50.0999	154.876	-164.947	-0.044915	0.801226	-0.231952	-0.233330	-0.055853	50.0999	-0.231115	-416.984	0.000134	NaN
356	1.000000	0.842597	7.36855e+06	-56439.1	955.818	-29739.3	0.000000	0.000000	6.843087	-0.075902	NaN	0.000000	0.001591	0.001714	28.0793	0.045348	0.001978	22.9238	-35.8011	-163.394	-0.043150	0.841282	-0.191959	-0.193275	-0.075902	22.9238	-0.189476	-88.1598	0.000861	NaN
356	1.000000	0.882600	7.36855e+06	-56439.1	955.819	-29739.3	0.000000	0.000000	6.883090	-0.072988	NaN	0.000000	0.001624	0.001645	28.0793	0.079803	0.002026	39.3824	57.5615	-167.576	-0.003061	0.881333	-0.151956	-0.153224	-0.072988	39.3824	-0.150566	-18.5493	0.003935	NaN
356	1.000000	0.922606	7.36855e+06	-56439.1	955.819	-29739.3	0.000000	0.000000	6.923097	-0.067018	NaN	0.000000	0.001511	0.001666	28.0791	0.076169	0.002062	36.9336	9.664949	-165.764	-0.069992	0.921329	-0.111950	-0.113228	-0.067018	36.9336	-0.110589	-3.092314	0.021672	NaN
356	1.000000	0.962648	7.36855e+06	-56439.1	955.819	-29739.3	0.000000	0.000000	6.963137	-0.103226	NaN	0.000000	0.001500	0.001695	28.0803	0.090119	0.002036	44.2639	-4.787328	-163.536	-0.129911	0.961314	-0.071909	-0.073243	-0.103226	44.2639	-0.070160	-0.344481	0.299657	NaN
356	1.000000	1.002664	7.36855e+06	-56439.1	955.818	-29739.3	0.000000	0.000000	7.003156	-0.017233	NaN	0.000000	0.001582	0.001680	28.0805	0.083814	0.002070	40.4975	-22.5308	-166.317	-0.055306	1.001313	-0.031893	-0.033244	-0.017233	40.4975	-0.031574	-0.025484	0.676235	NaN
356	1.000000	1.042639	7.36855e+06	-56439.1	955.818	-29739.3	0.000000	0.000000	7.043383	6.106276	NaN	0.000000	0.001572	0.001668	28.0805	6.132963	0.001794	3419.48	10.6015	-168.325	4.788426	1.041336	0.008082	0.006779	6.106276	3419.48	0.006743	0.005781	1056.25	41089.3
356	2.000000	1.054249	7.36855e+06	-56439.1	955.818	-29739.3	0.000000	0.000000	7.055521	18.9482	NaN	0.000000	0.001579	0.001651	28.0793	17.2461	0.001758	9812.53	7.052955	-176.964	18.6778	1.053965	0.019692	0.019408	18.9482	9812.53	0.018244	0.019857	954.215	63619.9
356	2.000000	1.064192	7.36855e+06	-56439.1	955.818	-29739.3	0.000000	0.000000	7.066339	40.205	NaN	0.000000	0.001577	0.001632	28.0792	26.1093	0.001883	13865.4	5.886921	-176.49	39.4364	1.063936	0.029635	0.029380	40.205	13865.4	0.027460	0.035644	1127.97	67098.6
356	2.000000	1.074171	7.36855e+06	-56439.1	955.818	-29739.3	0.000000	0.000000	7.077402	66.5409	NaN	0.000000	0.001547	0.001687	28.0791	34.8879	0.001810	19271.4	1.676930	-177.211	64.681	1.073894	0.039614	0.039338	66.5409	19271.4	0.037025	0.056566	1176.35	74030.3
356	2.000000	1.084203	7.36855e+06	-56439.1	955.818	-29739.3	0.000000	0.000000	7.088664	96.4525	NaN	0.000000	0.001500	0.001684	28.0792	45.3224	0.001855	24431.1	3.553977	178.638	96.6325	1.083956	0.049646	0.049399	96.4525	24431.1	0.046685	0.082444	1169.91	77738.7
356	2.000000	1.094161	7.36855e+06	-56439.1	955.818	-29739.3	0.000000	0.000000	7.100160	133.817	NaN	0.000000	0.001563	0.001729	28.0803	54.4919	0.001793	30398.7	3.297866	176.386	132.825	1.093974	0.059605	0.059417	133.817	30398.7	0.056303	0.112886	1185.41	82662.3
356	2.000000	1.104162	7.36855e+06	-56439.1	955.818	-29739.3	0.000000	0.000000	7.112459	189.678	NaN	0.000000	0.001528	0.001675	28.0803	63.5536	0.001761	36097.8	4.629224	175.097	190.696	1.103820	0.069605	0.069263	189.678	36097.8	0.065664	0.146900	1291.21	86048.5
356	2.000000	1.114055	7.36855e+06	-56439.1	955.818	-29739.3	0.000000	0.000000	7.124871	250.921	NaN	0.000000	0.001511	0.001691	28.0804	72.1561	0.001909	37795.6	2.673244	176.883	246.432	1.113825	0.079498	0.079268	250.921	37795.6	0.074519	0.182956	1371.48	80731.1
356	2.000000	1.124151	7.36855e+06	-56439.1	955.819	-29739.3	0.000000	0.000000	7.137058	301.744	NaN	0.000000	0.001515	0.001700	28.0791	80.8743	0.001843	43871.6	3.141384	174.78	300.441	1.123892	0.089594	0.089335	301.744	43871.6	0.084436	0.227717	1325.08	83996
356	2.000000	1.134091	7.36855e+06	-56439.1	955.82	-29739.3	0.000000	0.000000	7.150192	379.377	NaN	0.000000	0.001536	0.001742	28.0789	90.6256	0.001813	49996.2	3.883331	172.982	375.937	1.133800	0.099534	0.099243	379.377	49996.2	0.093843	0.274386	1382.64	87202.6
356	2.000000	1.143098	7.36855e+06	-56439.1	955.819	-29739.3	0.000000	0.000000	7.161943	446.086	NaN	0.000000	0.001549	0.001737	28.079	96.3992	0.001697	56812.4	3.623635	172.5	445.142	1.142842	0.108541	0.108285	446.086	56812.4	0.102652	0.321751	1386.43	91507.4