File: remote_trans/data/nanoindenter/0828-1/data/Data_2025-08-06,11h17m57s/2025-07-22_16-23-58_1_355.txt
2025-07-22, 16:23:58, 1
Index	Phase	Displacement	Time	Pos X	Pos Y	Pos Z	Rot A	Rot B	Piezo Z	Force A	Force B	Gripper	Voltage A	Voltage B	Temperature	Amplitude force	Amplitude pos	Stiffness	Phase shift	Phase excitation	Force A raw	Displacement raw	HMax	HMax raw	Real Force	Real Stiffness	Contact Depth	Area	Hardness	Reduced Mod.
[#]	[#]	[um]	[s]	[um]	[um]	[um]	[m°]	[m°]	[um]	[uN]	[uN]	[V]	[V]	[V]	[°C]	[uN]	[um]	[N/m]	[°]	[°]	[uN]	[um]	[um]	[um]	[uN]	[N/m]	[um]	[um^2]	[MPa]	[MPa]
355	1.000000	0.002324	7.36853e+06	-56389.1	955.818	-29739.3	0.000000	0.000000	6.002796	0.035165	NaN	0.000000	0.001526	0.001722	28.0817	0.046361	0.001070	43.3304	-158.338	-169.357	0.016769	0.001067	-1.137846	-1.139103	0.035165	43.3304	-1.138455	-1.644441E+15	-2.138437E-17	NaN
355	1.000000	0.044297	7.36853e+06	-56389.1	955.819	-29739.3	0.000000	0.000000	6.044768	0.019300	NaN	0.000000	0.001479	0.001711	28.0809	0.112481	0.002054	54.7508	14.1443	17.6825	-0.010989	0.042895	-1.095874	-1.097275	0.019300	54.7508	-1.096138	-4.448595E+14	-4.338354E-17	NaN
355	1.000000	0.086257	7.36853e+06	-56389.1	955.818	-29739.3	0.000000	0.000000	6.086729	0.035009	NaN	0.000000	0.001544	0.001699	28.0804	0.079163	0.001941	40.7892	-66.7276	-163.866	0.016575	0.084965	-1.053913	-1.055206	0.035009	40.7892	-1.054557	-1.229321E+14	-2.847845E-16	NaN
355	1.000000	0.128314	7.36853e+06	-56389.1	955.818	-29739.3	0.000000	0.000000	6.128785	0.013415	NaN	0.000000	0.001505	0.001689	28.0801	0.058387	0.002030	28.7689	116.375	17.0028	0.034820	0.126916	-1.011856	-1.013254	0.013415	28.7689	-1.012206	-3.311880E+13	-4.050521E-16	NaN
355	1.000000	0.170330	7.36853e+06	-56389.1	955.818	-29739.3	0.000000	0.000000	6.170801	-0.001915	NaN	0.000000	0.001585	0.001741	28.0801	0.061302	0.001936	31.6645	85.9255	-165.249	0.097893	0.169010	-0.969840	-0.971160	-0.001915	31.6645	-0.969795	-8.889919E+12	2.154555E-16	NaN
355	1.000000	0.212369	7.36853e+06	-56389.1	955.818	-29739.3	0.000000	0.000000	6.212839	0.001462	NaN	0.000000	0.001558	0.001736	28.081	0.083377	0.001997	41.7614	-90.8176	13.3926	-0.018549	0.210959	-0.927802	-0.929211	0.001462	41.7614	-0.927828	-2.414787E+12	-6.053130E-16	NaN
355	1.000000	0.254334	7.36853e+06	-56389.1	955.818	-29739.3	0.000000	0.000000	6.254808	0.061391	NaN	0.000000	0.001616	0.001664	28.0813	0.057320	0.002233	25.6695	-102.264	-162.086	0.155512	0.253063	-0.885836	-0.887107	0.061391	25.6695	-0.887629	-6.916208E+11	-8.876449E-14	NaN
355	1.000000	0.296366	7.36853e+06	-56389.1	955.818	-29739.3	0.000000	0.000000	6.296840	0.078778	NaN	0.000000	0.001543	0.001678	28.0814	0.074565	0.001971	37.8313	12.7651	13.9021	-0.008071	0.295010	-0.843804	-0.845160	0.078778	37.8313	-0.845366	-1.853423E+11	-4.250430E-13	NaN
355	1.000000	0.338377	7.36853e+06	-56389.1	955.818	-29739.3	0.000000	0.000000	6.338848	0.026195	NaN	0.000000	0.001550	0.001688	28.0804	0.021847	0.001961	11.138	-86.0193	-164.096	-0.007378	0.337108	-0.801794	-0.803062	0.026195	11.138	-0.803557	-5.025148E+10	-5.212795E-13	NaN
355	1.000000	0.380386	7.36853e+06	-56389.1	955.818	-29739.3	0.000000	0.000000	6.380858	0.022090	NaN	0.000000	0.001512	0.001679	28.0802	0.024312	0.001980	12.2807	-78.5738	13.9522	0.061066	0.379038	-0.759784	-0.761132	0.022090	12.2807	-0.761133	-1.332648E+10	-1.657636E-12	NaN
355	1.000000	0.422455	7.36853e+06	-56389.1	955.819	-29739.3	0.000000	0.000000	6.422929	0.069752	NaN	0.000000	0.001559	0.001698	28.08	0.122950	0.002075	59.2644	160.036	-165.116	0.054000	0.421079	-0.717715	-0.719091	0.069752	59.2644	-0.718598	-3.510343E+9	-1.987052E-11	NaN
355	1.000000	0.464468	7.36853e+06	-56389.1	955.818	-29739.3	0.000000	0.000000	6.464939	-0.001701	NaN	0.000000	0.001540	0.001688	28.0814	0.072519	0.002001	36.2435	144.851	14.9108	0.031685	0.463056	-0.675702	-0.677115	-0.001701	36.2435	-0.675667	-9.097848E+8	1.870186E-12	NaN
355	1.000000	0.506477	7.36853e+06	-56389.1	955.818	-29739.3	0.000000	0.000000	6.506947	-0.006222	NaN	0.000000	0.001532	0.001676	28.0814	0.110641	0.001931	57.2862	20.6643	-163.877	-0.021064	0.505135	-0.633693	-0.635036	-0.006222	57.2862	-0.633612	-2.413337E+8	2.578372E-11	NaN
355	1.000000	0.548493	7.36853e+06	-56389.1	955.819	-29739.3	0.000000	0.000000	6.548969	0.128609	NaN	0.000000	0.001521	0.001704	28.0815	0.033004	0.002029	16.2666	121.154	19.1712	0.127569	0.547136	-0.591677	-0.593034	0.128609	16.2666	-0.597607	-7.717885E+7	-1.666381E-9	NaN
355	1.000000	0.590529	7.36853e+06	-56389.1	955.817	-29739.3	0.000000	0.000000	6.591002	0.048637	NaN	0.000000	0.001541	0.001692	28.0807	0.121446	0.002066	58.7777	-27.5099	-162.668	0.035305	0.589229	-0.549641	-0.550941	0.048637	58.7777	-0.550262	-1.712294E+7	-2.840453E-9	NaN
355	1.000000	0.632508	7.36853e+06	-56389.1	955.819	-29739.3	0.000000	0.000000	6.632977	-0.023933	NaN	0.000000	0.001556	0.001700	28.0803	0.015152	0.001936	7.826600	-126.899	16.86	-0.001541	0.631128	-0.507663	-0.509042	-0.023933	7.826600	-0.505369	-4.07277e+06	5.876317E-9	NaN
355	1.000000	0.674556	7.36854e+06	-56389.1	955.819	-29739.3	0.000000	0.000000	6.675026	-0.007472	NaN	0.000000	0.001514	0.001704	28.08	0.026389	0.002027	13.0213	-44.6431	-170.349	0.012423	0.673245	-0.465614	-0.466925	-0.007472	13.0213	-0.465184	-1.11643e+06	6.692379E-9	NaN
355	1.000000	0.716541	7.36854e+06	-56389.1	955.819	-29739.3	0.000000	0.000000	6.717012	0.011783	NaN	0.000000	0.001520	0.001752	28.0798	0.099042	0.002017	49.1107	-124.845	17.399	0.011657	0.715154	-0.423629	-0.425016	0.011783	49.1107	-0.423809	-291350	-4.044160E-8	NaN
355	1.000000	0.758594	7.36854e+06	-56389.1	955.818	-29739.3	0.000000	0.000000	6.759066	0.041789	NaN	0.000000	0.001536	0.001775	28.0812	0.089288	0.001995	44.7539	61.1406	-162.383	0.064850	0.757200	-0.381577	-0.382970	0.041789	44.7539	-0.382277	-74568.2	-5.604193E-7	NaN
355	1.000000	0.800602	7.36854e+06	-56389.1	955.818	-29739.3	0.000000	0.000000	6.801072	-0.027741	NaN	0.000000	0.001497	0.001733	28.081	0.009059	0.001989	4.554756	113.326	13.253	-0.110839	0.799228	-0.339568	-0.340942	-0.027741	4.554756	-0.335000	-15437.8	1.796958E-6	NaN
355	1.000000	0.842606	7.36854e+06	-56389.1	955.817	-29739.3	0.000000	0.000000	6.843081	0.096548	NaN	0.000000	0.001472	0.001757	28.081	0.088200	0.001916	46.0225	165.578	-165.685	0.076741	0.841362	-0.297564	-0.298808	0.096548	46.0225	-0.299137	-4568.63	-2.113291E-5	NaN
355	1.000000	0.884618	7.36854e+06	-56389.1	955.818	-29739.3	0.000000	0.000000	6.885089	0.004018	NaN	0.000000	0.001496	0.001710	28.0798	0.075553	0.001954	38.6655	-141.566	16.0931	0.048691	0.883266	-0.255552	-0.256904	0.004018	38.6655	-0.255630	-1004.18	-4.000858E-6	NaN
355	1.000000	0.926662	7.36854e+06	-56389.1	955.818	-29739.3	0.000000	0.000000	6.927134	0.022015	NaN	0.000000	0.001479	0.001678	28.0799	0.040678	0.002058	19.7627	128.632	-163.342	-0.050433	0.925358	-0.213508	-0.214813	0.022015	19.7627	-0.214343	-225.398	-9.767367E-5	NaN
355	1.000000	0.968665	7.36854e+06	-56389.1	955.818	-29739.3	0.000000	0.000000	6.969138	0.053736	NaN	0.000000	0.001514	0.001708	28.0799	0.058181	0.001922	30.2701	132.731	14.8143	-0.011149	0.967304	-0.171505	-0.172866	0.053736	30.2701	-0.172837	-45.9968	-0.001168	NaN
355	1.000000	1.010668	7.36854e+06	-56389.1	955.82	-29739.3	0.000000	0.000000	7.011140	0.018273	NaN	0.000000	0.001471	0.001696	28.0814	0.103621	0.002001	51.7932	-141.011	-163.957	0.021233	1.009370	-0.129502	-0.130800	0.018273	51.7932	-0.129767	-7.541836	-0.002423	NaN
355	1.000000	1.052696	7.36854e+06	-56389.1	955.819	-29739.3	0.000000	0.000000	7.053166	-0.028665	NaN	0.000000	0.001535	0.001712	28.081	0.013284	0.001879	7.071329	-82.7677	17.4591	0.001414	1.051353	-0.087474	-0.088817	-0.028665	7.071329	-0.084434	-0.796067	0.036009	NaN
355	1.000000	1.094712	7.36854e+06	-56389.1	955.82	-29739.3	0.000000	0.000000	7.095185	0.042435	NaN	0.000000	0.001530	0.001697	28.0809	0.120730	0.002043	59.0937	-46.5192	-160.843	0.085679	1.093423	-0.045458	-0.046747	0.042435	59.0937	-0.045996	-0.068937	-0.615568	NaN
355	1.000000	1.136726	7.36854e+06	-56389.1	955.82	-29739.3	0.000000	0.000000	7.137203	0.141310	NaN	0.000000	0.001489	0.001737	28.0807	0.097194	0.002080	46.733	68.4268	16.6518	0.154161	1.135389	-0.003444	-0.004781	0.141310	46.733	-0.005712	-0.003860	-36.6127	NaN
355	2.000000	1.157307	7.36854e+06	-56389.1	955.819	-29739.3	0.000000	0.000000	7.158620	20.4686	NaN	0.000000	0.001523	0.001690	28.0801	16.4677	0.001678	9811.4	10.8647	-178.645	19.8816	1.156972	0.017137	0.016802	20.4686	9811.4	0.015572	0.016056	1274.81	70742.9
355	2.000000	1.167750	7.36854e+06	-56389.1	955.819	-29739.3	0.000000	0.000000	7.169859	39.8122	NaN	0.000000	0.001561	0.001739	28.0802	27.3729	0.001873	14610.8	6.955191	1.099349	37.3716	1.167413	0.027580	0.027243	39.8122	14610.8	0.025536	0.031998	1244.21	74625.4
355	2.000000	1.178272	7.36854e+06	-56389.1	955.819	-29739.3	0.000000	0.000000	7.181659	70.8832	NaN	0.000000	0.001531	0.001686	28.0803	35.9445	0.001736	20701.3	5.355522	179.363	72.3917	1.177953	0.038102	0.037783	70.8832	20701.3	0.035534	0.052996	1337.51	82157.9
355	2.000000	1.188680	7.36854e+06	-56389.1	955.818	-29739.3	0.000000	0.000000	7.193142	97.0048	NaN	0.000000	0.001531	0.001670	28.0815	46.2478	0.001761	26259.3	2.163893	-0.089465	93.8637	1.188480	0.048510	0.048310	97.0048	26259.3	0.045740	0.079701	1217.11	84981.5
355	2.000000	1.199275	7.36854e+06	-56389.1	955.819	-29739.3	0.000000	0.000000	7.205696	144.628	NaN	0.000000	0.001583	0.001684	28.0816	57.2897	0.001774	32300	2.949521	177.567	146.327	1.199034	0.059105	0.058864	144.628	32300	0.055747	0.111001	1302.95	88575.3
355	2.000000	1.209825	7.36854e+06	-56389.1	955.82	-29739.3	0.000000	0.000000	7.218118	190.145	NaN	0.000000	0.001539	0.001665	28.0814	68.146	0.001854	36746.4	3.629163	-4.274615	194.333	1.209682	0.069655	0.069512	190.145	36746.4	0.065774	0.147323	1290.67	87468.9
355	2.000000	1.220079	7.36854e+06	-56389.1	955.819	-29739.3	0.000000	0.000000	7.231265	260.432	NaN	0.000000	0.001545	0.001685	28.0803	77.338	0.001810	42721.9	4.296756	174.095	253.938	1.219902	0.079909	0.079732	260.432	42721.9	0.075337	0.186475	1396.61	90388.8
355	2.000000	1.230673	7.36854e+06	-56389.1	955.819	-29739.3	0.000000	0.000000	7.244803	332.004	NaN	0.000000	0.001547	0.001653	28.0802	85.3187	0.001623	52582.7	3.622759	-6.241771	328.9	1.230291	0.090503	0.090121	332.004	52582.7	0.085767	0.234075	1418.36	99297.5
355	2.000000	1.241089	7.36854e+06	-56389.1	955.819	-29739.3	0.000000	0.000000	7.258148	403.2	NaN	0.000000	0.001534	0.001689	28.0804	97.1901	0.001892	51379.2	6.842986	170.087	399.211	1.240744	0.100918	0.100574	403.2	51379.2	0.095033	0.280576	1437.05	88620.9
355	2.000000	1.248662	7.36854e+06	-56389.1	955.821	-29739.3	0.000000	0.000000	7.268126	461.658	NaN	0.000000	0.001543	0.001690	28.0805	103.009	0.001827	56376	6.625333	-9.987013	456.888	1.248225	0.108492	0.108055	461.658	56376	0.102350	0.320070	1442.36	91042.6