File: remote_trans/data/nanoindenter/0828-1/data/Data_2025-08-06,11h17m57s/2025-07-22_16-23-58_1_185.txt
2025-07-22, 16:23:58, 1
Index	Phase	Displacement	Time	Pos X	Pos Y	Pos Z	Rot A	Rot B	Piezo Z	Force A	Force B	Gripper	Voltage A	Voltage B	Temperature	Amplitude force	Amplitude pos	Stiffness	Phase shift	Phase excitation	Force A raw	Displacement raw	HMax	HMax raw	Real Force	Real Stiffness	Contact Depth	Area	Hardness	Reduced Mod.
[#]	[#]	[um]	[s]	[um]	[um]	[um]	[m°]	[m°]	[um]	[uN]	[uN]	[V]	[V]	[V]	[°C]	[uN]	[um]	[N/m]	[°]	[°]	[uN]	[um]	[um]	[um]	[uN]	[N/m]	[um]	[um^2]	[MPa]	[MPa]
185	1.000000	0.002955	7.36685e+06	-47889.1	955.819	-29764.9	0.000000	0.000000	6.002837	0.035319	NaN	0.000000	0.001619	0.001678	28.0797	0.082615	0.001081	76.4516	-109.724	-169.56	0.031525	0.001698	-1.005758	-1.007016	0.035319	76.4516	-1.006105	-2.741282E+13	-1.288399E-15	NaN
185	1.000000	0.040902	7.36685e+06	-47889.1	955.818	-29764.9	0.000000	0.000000	6.040784	0.044116	NaN	0.000000	0.001577	0.001677	28.0799	0.057695	0.001901	30.3551	71.2557	16.385	-0.011425	0.039535	-0.967811	-0.969179	0.044116	30.3551	-0.968901	-8.646817E+12	-5.102009E-15	NaN
185	1.000000	0.078917	7.36685e+06	-47889.1	955.818	-29764.9	0.000000	0.000000	6.078795	-0.037891	NaN	0.000000	0.001594	0.001690	28.0782	0.123845	0.001995	62.0866	150.469	-162.457	0.081648	0.077598	-0.929797	-0.931116	-0.037891	62.0866	-0.929339	-2.530942E+12	1.497107E-14	NaN
185	1.000000	0.116910	7.36685e+06	-47889.1	955.819	-29764.9	0.000000	0.000000	6.116790	-0.008386	NaN	0.000000	0.001657	0.001687	28.0781	0.069929	0.002054	34.0475	36.9301	12.544	-0.016545	0.115457	-0.891803	-0.893257	-0.008386	34.0475	-0.891619	-7.830593E+11	1.070877E-14	NaN
185	1.000000	0.154933	7.36685e+06	-47889.1	955.819	-29764.9	0.000000	0.000000	6.154814	0.031103	NaN	0.000000	0.001645	0.001645	28.0783	0.013263	0.002044	6.489913	78.1358	-166.224	0.062274	0.153594	-0.853780	-0.855120	0.031103	6.489913	-0.857375	-2.695172E+11	-1.154014E-13	NaN
185	1.000000	0.192946	7.36685e+06	-47889.1	955.818	-29764.9	0.000000	0.000000	6.192826	-0.005180	NaN	0.000000	0.001667	0.001691	28.0798	0.056623	0.001938	29.211	-98.3004	16.101	-0.045233	0.191583	-0.815768	-0.817131	-0.005180	29.211	-0.815635	-7.328418E+10	7.068189E-14	NaN
185	1.000000	0.230908	7.36685e+06	-47889.1	955.818	-29764.9	0.000000	0.000000	6.230787	-0.001229	NaN	0.000000	0.001585	0.001704	28.0795	0.032123	0.002054	15.6383	-7.867135	-164.896	0.100413	0.229671	-0.777806	-0.779042	-0.001229	15.6383	-0.777747	-2.241894E+10	5.481774E-14	NaN
185	1.000000	0.268980	7.36685e+06	-47889.1	955.819	-29764.9	0.000000	0.000000	6.268859	-0.016520	NaN	0.000000	0.001634	0.001742	28.0793	0.058161	0.002041	28.501	-144.884	16.1529	0.013693	0.267564	-0.739734	-0.741150	-0.016520	28.501	-0.739299	-6.722244E+9	2.457545E-12	NaN
185	1.000000	0.306964	7.36685e+06	-47889.1	955.818	-29764.9	0.000000	0.000000	6.306845	0.018385	NaN	0.000000	0.001657	0.001682	28.0795	0.077285	0.002010	38.4571	166.621	-167.922	-0.034171	0.305650	-0.701749	-0.703064	0.018385	38.4571	-0.702108	-2.090819E+9	-8.793108E-12	NaN
185	1.000000	0.344973	7.36685e+06	-47889.1	955.818	-29764.9	0.000000	0.000000	6.344854	0.038861	NaN	0.000000	0.001671	0.001694	28.078	0.043756	0.001916	22.8423	102.237	17.9729	0.000766	0.343670	-0.663741	-0.665044	0.038861	22.8423	-0.665017	-6.503893E+8	-5.975076E-11	NaN
185	1.000000	0.383033	7.36685e+06	-47889.1	955.819	-29764.9	0.000000	0.000000	6.382912	-0.005897	NaN	0.000000	0.001655	0.001636	28.0784	0.092319	0.002059	44.8471	-36.5223	-165.149	-0.013949	0.381657	-0.625681	-0.627057	-0.005897	44.8471	-0.625583	-1.872181E+8	3.149583E-11	NaN
185	1.000000	0.421044	7.36685e+06	-47889.1	955.819	-29764.9	0.000000	0.000000	6.420925	0.025358	NaN	0.000000	0.001611	0.001700	28.0782	0.018125	0.002077	8.724667	155.853	15.2227	0.039347	0.419698	-0.587670	-0.589016	0.025358	8.724667	-0.589850	-6.033834E+7	-4.202612E-10	NaN
185	1.000000	0.459011	7.36685e+06	-47889.1	955.819	-29764.9	0.000000	0.000000	6.458892	0.033790	NaN	0.000000	0.001621	0.001692	28.0782	0.024066	0.002233	10.7757	-146.225	-164.226	0.025278	0.457727	-0.549702	-0.550987	0.033790	10.7757	-0.552054	-1.813037E+7	-1.863732E-9	NaN
185	1.000000	0.497090	7.36685e+06	-47889.1	955.819	-29764.9	0.000000	0.000000	6.496970	0.014501	NaN	0.000000	0.001633	0.001683	28.0794	0.079393	0.001989	39.9087	-33.9219	15.8149	0.006291	0.495709	-0.511624	-0.513005	0.014501	39.9087	-0.511896	-5.02141e+06	-2.887818E-9	NaN
185	1.000000	0.535075	7.36685e+06	-47889.1	955.819	-29764.9	0.000000	0.000000	6.534958	0.077097	NaN	0.000000	0.001680	0.001669	28.0796	0.054457	0.001997	27.2742	-174.674	-162.235	0.099283	0.533761	-0.473639	-0.474953	0.077097	27.2742	-0.475759	-1.57086e+06	-4.907966E-8	NaN
185	1.000000	0.573089	7.36685e+06	-47889.1	955.818	-29764.9	0.000000	0.000000	6.572971	0.031860	NaN	0.000000	0.001616	0.001711	28.0795	0.116423	0.002050	56.7876	132.005	15.5649	0.003881	0.571726	-0.435624	-0.436988	0.031860	56.7876	-0.436045	-434030	-7.340390E-8	NaN
185	1.000000	0.611085	7.36685e+06	-47889.1	955.818	-29764.9	0.000000	0.000000	6.610965	0.011619	NaN	0.000000	0.001614	0.001697	28.0784	0.019639	0.002031	9.668331	-77.7607	-168.32	0.060598	0.609774	-0.397629	-0.398940	0.011619	9.668331	-0.398531	-127360	-9.122581E-8	NaN
185	1.000000	0.649125	7.36685e+06	-47889.1	955.819	-29764.9	0.000000	0.000000	6.649004	-0.009624	NaN	0.000000	0.001580	0.001732	28.0788	0.015640	0.002029	7.706597	76.7367	13.65	-0.031563	0.647726	-0.359589	-0.360987	-0.009624	7.706597	-0.358652	-34068.8	2.824764E-7	NaN
185	1.000000	0.687158	7.36685e+06	-47889.1	955.818	-29764.9	0.000000	0.000000	6.687036	-0.033280	NaN	0.000000	0.001590	0.001721	28.0784	0.076604	0.001896	40.4078	-133.875	-163.628	-0.030156	0.685842	-0.321556	-0.322872	-0.033280	40.4078	-0.320938	-9603.88	3.465306E-6	NaN
185	1.000000	0.725167	7.36685e+06	-47889.1	955.819	-29764.9	0.000000	0.000000	6.725047	0.008177	NaN	0.000000	0.001659	0.001695	28.0785	0.007927	0.002037	3.892065	-149.349	12.1772	0.043888	0.723790	-0.283547	-0.284924	0.008177	3.892065	-0.285122	-2819.06	-2.900570E-6	NaN
185	1.000000	0.763167	7.36685e+06	-47889.1	955.819	-29764.9	0.000000	0.000000	6.763047	-0.000534	NaN	0.000000	0.001651	0.001694	28.0796	0.109321	0.002048	53.3874	-1.534201	-165.291	-0.029329	0.761861	-0.245546	-0.246853	-0.000534	53.3874	-0.245539	-701.171	7.619403E-7	NaN
185	1.000000	0.801201	7.36685e+06	-47889.1	955.82	-29764.9	0.000000	0.000000	6.801083	0.062025	NaN	0.000000	0.001575	0.001658	28.0798	0.139711	0.001984	70.4076	-161.547	15.8253	-0.032413	0.799838	-0.207513	-0.208876	0.062025	70.4076	-0.208174	-179.145	-0.000346	NaN
185	1.000000	0.839206	7.36686e+06	-47889.1	955.819	-29764.9	0.000000	0.000000	6.839089	0.092659	NaN	0.000000	0.001596	0.001721	28.0797	0.072846	0.001956	37.2367	95.6999	-164.034	0.006193	0.837857	-0.169508	-0.170857	0.092659	37.2367	-0.171375	-43.3957	-0.002135	NaN
185	1.000000	0.877235	7.36686e+06	-47889.1	955.818	-29764.9	0.000000	0.000000	6.877114	-0.033315	NaN	0.000000	0.001622	0.001744	28.0785	0.119820	0.002133	56.1877	145.18	15.0111	0.041726	0.875888	-0.131479	-0.132825	-0.033315	56.1877	-0.131034	-7.981021	0.004174	NaN
185	1.000000	0.915214	7.36686e+06	-47889.1	955.818	-29764.9	0.000000	0.000000	6.915095	0.029514	NaN	0.000000	0.001729	0.001747	28.0782	0.068202	0.002092	32.5948	-94.1508	-163.57	-0.060134	0.913931	-0.093500	-0.094783	0.029514	32.5948	-0.094179	-1.351017	-0.021846	NaN
185	1.000000	0.953250	7.36686e+06	-47889.1	955.818	-29764.9	0.000000	0.000000	6.953130	-0.000893	NaN	0.000000	0.001664	0.001687	28.0782	0.100761	0.001947	51.7583	-172.559	14.1633	0.051084	0.951885	-0.055464	-0.056829	-0.000893	51.7583	-0.055451	-0.132786	0.006722	NaN
185	1.000000	0.991275	7.36686e+06	-47889.1	955.817	-29764.9	0.000000	0.000000	6.991156	0.032546	NaN	0.000000	0.001695	0.001672	28.0786	0.043741	0.001900	23.0219	-48.68	-162.629	0.050367	0.989976	-0.017439	-0.018738	0.032546	23.0219	-0.018499	-0.011499	-2.830281	NaN
185	2.000000	1.021302	7.36686e+06	-47889.1	955.818	-29764.9	0.000000	0.000000	7.021798	14.9869	NaN	0.000000	0.001602	0.001671	28.08	13.0865	0.001776	7368.27	8.459376	5.384538	13.921	1.020947	0.012588	0.012234	14.9869	7368.27	0.011063	0.010387	1442.88	66053.7
185	2.000000	1.030803	7.36686e+06	-47889.1	955.818	-29764.9	0.000000	0.000000	7.032267	38.5385	NaN	0.000000	0.001668	0.001718	28.0801	23.5779	0.001767	13341.6	4.729978	-175.168	38.8493	1.030372	0.022089	0.021658	38.5385	13341.6	0.019923	0.022421	1718.83	81404.7
185	2.000000	1.040229	7.36686e+06	-47889.1	955.817	-29764.9	0.000000	0.000000	7.043066	71.9401	NaN	0.000000	0.001592	0.001684	28.0799	33.4958	0.001806	18543.2	3.840723	2.068571	72.0795	1.039804	0.031515	0.031090	71.9401	18543.2	0.028605	0.037903	1898.01	87020.8
185	2.000000	1.049695	7.36686e+06	-47889.1	955.818	-29764.9	0.000000	0.000000	7.054189	112.238	NaN	0.000000	0.001600	0.001744	28.0802	42.3641	0.001874	22601.7	6.718924	177.879	110.498	1.049304	0.040981	0.040591	112.238	22601.7	0.037257	0.057131	1964.56	86392.8
185	2.000000	1.059204	7.36686e+06	-47889.1	955.817	-29764.9	0.000000	0.000000	7.065526	156.674	NaN	0.000000	0.001595	0.001748	28.0787	51.2907	0.001769	28991.8	-0.384928	1.998703	156.352	1.058937	0.050491	0.050223	156.674	28991.8	0.046438	0.081721	1917.2	92657.9
185	2.000000	1.068624	7.36686e+06	-47889.1	955.818	-29764.9	0.000000	0.000000	7.077100	209.073	NaN	0.000000	0.001569	0.001699	28.0791	60.6937	0.001798	33747.6	3.778973	176.233	208.135	1.068361	0.059910	0.059647	209.073	33747.6	0.055264	0.109376	1911.52	93229.9
185	2.000000	1.078098	7.36686e+06	-47889.1	955.818	-29764.9	0.000000	0.000000	7.088752	262.062	NaN	0.000000	0.001607	0.001663	28.0788	70.1224	0.001824	38453	3.442428	-4.411204	256.972	1.077818	0.069384	0.069104	262.062	38453	0.064273	0.141576	1851.04	93370.4
185	2.000000	1.087776	7.36686e+06	-47889.1	955.816	-29764.9	0.000000	0.000000	7.101096	326.912	NaN	0.000000	0.001555	0.001678	28.0804	77.6544	0.001731	44867.5	2.071145	175.975	332.798	1.087428	0.079062	0.078714	326.912	44867.5	0.073597	0.179028	1826.04	96882.5
185	2.000000	1.097164	7.36686e+06	-47889.1	955.817	-29764.9	0.000000	0.000000	7.113314	395.74	NaN	0.000000	0.001670	0.001710	28.08	88.7792	0.001853	47900.7	5.684591	-7.113499	394.86	1.096562	0.088450	0.087848	395.74	47900.7	0.082254	0.217477	1819.69	93844.5
185	2.000000	1.106554	7.36686e+06	-47889.1	955.818	-29764.9	0.000000	0.000000	7.125617	466.609	NaN	0.000000	0.001643	0.001710	28.0801	95.9904	0.001804	53220.1	4.344838	172.569	463.523	1.106312	0.097840	0.097598	466.609	53220.1	0.091264	0.261187	1786.49	95142.2
185	2.000000	1.115941	7.36686e+06	-47889.1	955.816	-29764.9	0.000000	0.000000	7.138295	546.633	NaN	0.000000	0.001634	0.001732	28.0801	104.224	0.001793	58119.2	4.381695	-7.625461	535.657	1.115656	0.107227	0.106943	546.633	58119.2	0.100173	0.308064	1774.42	95669.3
185	2.000000	1.117089	7.36686e+06	-47889.1	955.818	-29764.9	0.000000	0.000000	7.139877	557.175	NaN	0.000000	0.001629	0.001723	28.08	106.259	0.001822	58308	6.468266	-9.666048	553.98	1.116751	0.108375	0.108037	557.175	58308	0.101209	0.313747	1775.87	95106.8