File: remote_trans/data/nanoindenter/0828-1/data/Data_2025-08-06,11h17m57s/2025-07-22_16-23-58_1_478.txt
2025-07-22, 16:23:58, 1
Index	Phase	Displacement	Time	Pos X	Pos Y	Pos Z	Rot A	Rot B	Piezo Z	Force A	Force B	Gripper	Voltage A	Voltage B	Temperature	Amplitude force	Amplitude pos	Stiffness	Phase shift	Phase excitation	Force A raw	Displacement raw	HMax	HMax raw	Real Force	Real Stiffness	Contact Depth	Area	Hardness	Reduced Mod.
[#]	[#]	[um]	[s]	[um]	[um]	[um]	[m°]	[m°]	[um]	[uN]	[uN]	[V]	[V]	[V]	[°C]	[uN]	[um]	[N/m]	[°]	[°]	[uN]	[um]	[um]	[um]	[uN]	[N/m]	[um]	[um^2]	[MPa]	[MPa]
478	1.000000	0.002563	7.36973e+06	-53189.1	1005.82	-29747	0.000000	0.000000	6.002802	0.064443	NaN	0.000000	0.001570	0.001764	28.0829	0.064247	0.001006	63.8728	39.5669	-162.919	0.067511	0.001318	-1.167633	-1.168878	0.064443	63.8728	-1.168389	-4.142897E+15	-1.555512E-17	NaN
478	1.000000	0.044493	7.36973e+06	-53189.1	1005.82	-29747	0.000000	0.000000	6.044729	-0.018581	NaN	0.000000	0.001631	0.001753	28.0824	0.058778	0.001984	29.6209	54.4326	16.5456	-0.015583	0.043193	-1.125702	-1.127003	-0.018581	29.6209	-1.125232	-1.093102E+15	1.699886E-17	NaN
478	1.000000	0.086516	7.36973e+06	-53189.1	1005.82	-29747	0.000000	0.000000	6.086756	0.067734	NaN	0.000000	0.001652	0.001765	28.0817	0.108976	0.002057	52.9724	75.3375	-165.696	0.041248	0.085260	-1.083679	-1.084935	0.067734	52.9724	-1.084638	-3.117533E+14	-2.172671E-16	NaN
478	1.000000	0.128507	7.36973e+06	-53189.1	1005.82	-29747	0.000000	0.000000	6.128746	0.060120	NaN	0.000000	0.001575	0.001778	28.0813	0.076331	0.001899	40.2008	-34.0641	16.7906	0.071060	0.127194	-1.041689	-1.043002	0.060120	40.2008	-1.042810	-8.545836E+13	-7.035023E-16	NaN
478	1.000000	0.170562	7.36973e+06	-53189.1	1005.82	-29747	0.000000	0.000000	6.170799	0.024338	NaN	0.000000	0.001558	0.001779	28.081	0.056900	0.002018	28.2028	-0.604334	-167.504	-0.010667	0.169238	-0.999634	-1.000958	0.024338	28.2028	-1.000281	-2.288500E+13	-1.063497E-15	NaN
478	1.000000	0.212585	7.36973e+06	-53189.1	1005.82	-29747	0.000000	0.000000	6.212825	0.082107	NaN	0.000000	0.001564	0.001774	28.0824	0.061949	0.001905	32.5198	-133.224	18.1752	0.046882	0.211260	-0.957610	-0.958936	0.082107	32.5198	-0.959504	-6.459272E+12	-1.271156E-14	NaN
478	1.000000	0.254579	7.36973e+06	-53189.1	1005.82	-29747	0.000000	0.000000	6.254818	0.059488	NaN	0.000000	0.001632	0.001779	28.0826	0.076247	0.002070	36.8298	84.4127	-164.207	0.121528	0.253284	-0.915616	-0.916912	0.059488	36.8298	-0.916828	-1.715430E+12	-3.467815E-14	NaN
478	1.000000	0.296612	7.36973e+06	-53189.1	1005.82	-29747	0.000000	0.000000	6.296847	-0.036761	NaN	0.000000	0.001610	0.001769	28.0824	0.052557	0.002076	25.3225	16.7955	17.0571	0.008897	0.295244	-0.873583	-0.874952	-0.036761	25.3225	-0.872495	-4.317091E+11	8.515116E-14	NaN
478	1.000000	0.338648	7.36973e+06	-53189.1	1005.82	-29747	0.000000	0.000000	6.338884	-0.026601	NaN	0.000000	0.001575	0.001757	28.0814	0.048079	0.002021	23.7876	107.534	-162.709	0.012487	0.337343	-0.831547	-0.832852	-0.026601	23.7876	-0.830708	-1.173241E+11	2.267306E-13	NaN
478	1.000000	0.380646	7.36973e+06	-53189.1	1005.82	-29747	0.000000	0.000000	6.380885	0.055218	NaN	0.000000	0.001564	0.001765	28.0814	0.103341	0.001917	53.9002	164.475	14.4093	0.108604	0.379300	-0.789550	-0.790896	0.055218	53.9002	-0.790318	-3.322006E+10	-1.662192E-12	NaN
478	1.000000	0.422685	7.36973e+06	-53189.1	1005.82	-29747	0.000000	0.000000	6.422924	0.037762	NaN	0.000000	0.001649	0.001776	28.0814	0.068548	0.002135	32.1017	95.9416	-165.04	0.117207	0.421316	-0.747510	-0.748879	0.037762	32.1017	-0.748392	-8.939948E+9	-4.223984E-12	NaN
478	1.000000	0.464673	7.36973e+06	-53189.1	1005.82	-29747	0.000000	0.000000	6.464910	0.019752	NaN	0.000000	0.001658	0.001717	28.0827	0.140324	0.001995	70.3463	118.075	15.982	-0.017556	0.463367	-0.705523	-0.706829	0.019752	70.3463	-0.705733	-2.343218E+9	-8.429304E-12	NaN
478	1.000000	0.506712	7.36973e+06	-53189.1	1005.82	-29747	0.000000	0.000000	6.506950	0.035437	NaN	0.000000	0.001647	0.001730	28.0831	0.124830	0.002036	61.3145	-12.5728	-164.189	0.026682	0.505426	-0.663484	-0.664770	0.035437	61.3145	-0.663917	-6.282324E+8	-5.640773E-11	NaN
478	1.000000	0.548736	7.36973e+06	-53189.1	1005.82	-29747	0.000000	0.000000	6.548975	0.056988	NaN	0.000000	0.001576	0.001737	28.083	0.077460	0.002044	37.8912	23.6882	18.2133	0.095833	0.547352	-0.621459	-0.622843	0.056988	37.8912	-0.622587	-1.702901E+8	-3.346534E-10	NaN
478	1.000000	0.590748	7.36973e+06	-53189.1	1005.82	-29747	0.000000	0.000000	6.590984	-0.037077	NaN	0.000000	0.001610	0.001769	28.0827	0.032161	0.002077	15.4863	-152.912	-164.307	-0.030281	0.589408	-0.579447	-0.580788	-0.037077	15.4863	-0.577651	-4.095501E+7	9.053212E-10	NaN
478	1.000000	0.632747	7.36973e+06	-53189.1	1005.82	-29747	0.000000	0.000000	6.632983	-0.022061	NaN	0.000000	0.001583	0.001734	28.0818	0.102059	0.002012	50.7193	101.465	15.6802	0.007671	0.631427	-0.537448	-0.538768	-0.022061	50.7193	-0.537122	-1.125739E+7	1.959668E-9	NaN
478	1.000000	0.674755	7.36973e+06	-53189.1	1005.82	-29747	0.000000	0.000000	6.674992	0.004552	NaN	0.000000	0.001621	0.001734	28.0817	0.028610	0.001914	14.9443	-101.897	-166.339	0.009214	0.673429	-0.495441	-0.496766	0.004552	14.9443	-0.495669	-2.98248e+06	-1.526133E-9	NaN
478	1.000000	0.716790	7.36973e+06	-53189.1	1005.82	-29747	0.000000	0.000000	6.717027	0.019351	NaN	0.000000	0.001604	0.001769	28.0816	0.104776	0.001985	52.793	-141.483	18.9248	-0.046922	0.715449	-0.453405	-0.454746	0.019351	52.793	-0.453680	-769398	-2.515115E-8	NaN
478	1.000000	0.758812	7.36973e+06	-53189.1	1005.82	-29747	0.000000	0.000000	6.759046	-0.056096	NaN	0.000000	0.001616	0.001772	28.083	0.048994	0.002092	23.4156	80.1768	-164.255	-0.068848	0.757452	-0.411383	-0.412743	-0.056096	23.4156	-0.409587	-183031	3.064823E-7	NaN
478	1.000000	0.800828	7.36973e+06	-53189.1	1005.82	-29747	0.000000	0.000000	6.801067	0.062881	NaN	0.000000	0.001640	0.001762	28.083	0.092086	0.002087	44.1257	166.669	17.7557	0.060365	0.799472	-0.369368	-0.370723	0.062881	44.1257	-0.370437	-50398.4	-1.247679E-6	NaN
478	1.000000	0.842852	7.36973e+06	-53189.1	1005.82	-29747	0.000000	0.000000	6.843091	0.047307	NaN	0.000000	0.001593	0.001739	28.0833	0.074598	0.001918	38.8941	-50.4994	-161.96	0.046020	0.841529	-0.327343	-0.328666	0.047307	38.8941	-0.328255	-12299.6	-3.846258E-6	NaN
478	1.000000	0.884826	7.36973e+06	-53189.1	1005.82	-29747	0.000000	0.000000	6.885064	0.027771	NaN	0.000000	0.001614	0.001736	28.0817	0.022835	0.001992	11.4606	52.7128	13.5623	0.005349	0.883540	-0.285369	-0.286655	0.027771	11.4606	-0.287187	-3027.72	-9.172352E-6	NaN
478	1.000000	0.926853	7.36973e+06	-53189.1	1005.82	-29747	0.000000	0.000000	6.927088	-0.032787	NaN	0.000000	0.001611	0.001725	28.0818	0.058642	0.001982	29.5806	-134.955	-163.637	-0.059604	0.925556	-0.243343	-0.244639	-0.032787	29.5806	-0.242511	-629.111	5.211593E-5	NaN
478	1.000000	0.968894	7.36973e+06	-53189.1	1005.82	-29747	0.000000	0.000000	6.969130	-0.032675	NaN	0.000000	0.001576	0.001811	28.0815	0.087265	0.001969	44.3194	-17.3925	13.7381	-0.060562	0.967526	-0.201301	-0.202670	-0.032675	44.3194	-0.200748	-135.516	0.000241	NaN
478	1.000000	1.010912	7.36973e+06	-53189.1	1005.82	-29747	0.000000	0.000000	7.011148	-0.000949	NaN	0.000000	0.001613	0.001846	28.0833	0.042498	0.001938	21.9312	-121.226	-167.579	-0.012505	1.009588	-0.159284	-0.160608	-0.000949	21.9312	-0.159251	-26.5871	3.570129E-5	NaN
478	1.000000	1.052907	7.36973e+06	-53189.1	1005.82	-29747	0.000000	0.000000	7.053145	0.023912	NaN	0.000000	0.001589	0.001765	28.0831	0.068572	0.002052	33.4243	108.295	16.3421	0.056363	1.051598	-0.117288	-0.118598	0.023912	33.4243	-0.117825	-4.364983	-0.005478	NaN
478	1.000000	1.094957	7.36973e+06	-53189.1	1005.82	-29747	0.000000	0.000000	7.095193	0.001440	NaN	0.000000	0.001540	0.001783	28.083	0.044688	0.002026	22.0565	-77.1435	-165.48	-0.015350	1.093645	-0.075239	-0.076551	0.001440	22.0565	-0.075288	-0.469847	-0.003065	NaN
478	1.000000	1.136950	7.36973e+06	-53189.1	1005.82	-29747	0.000000	0.000000	7.137187	0.031112	NaN	0.000000	0.001541	0.001823	28.0831	0.052494	0.002187	24.003	160.987	13.357	0.108504	1.135600	-0.033246	-0.034595	0.031112	24.003	-0.034218	-0.030376	-1.024233	NaN
478	2.000000	1.174583	7.36973e+06	-53189.1	1005.82	-29747	0.000000	0.000000	7.175245	10.3492	NaN	0.000000	0.001543	0.001766	28.0816	10.2661	0.001729	5938.5	10.5351	-174.921	9.583677	1.174298	0.004387	0.004102	10.3492	5938.5	0.003080	0.002448	4228.48	109670
478	2.000000	1.185044	7.36973e+06	-53189.1	1005.82	-29747	0.000000	0.000000	7.186593	31.9132	NaN	0.000000	0.001520	0.001862	28.0816	22.7556	0.001711	13297.2	3.713370	4.237437	31.3468	1.184655	0.014849	0.014460	31.9132	13297.2	0.013049	0.012770	2498.98	107506
478	2.000000	1.195500	7.36973e+06	-53189.1	1005.82	-29747	0.000000	0.000000	7.198275	61.7154	NaN	0.000000	0.001527	0.001751	28.0817	33.8011	0.001576	21453.7	5.357313	177.253	59.9374	1.195165	0.025305	0.024970	61.7154	21453.7	0.023147	0.027731	2225.5	117704
478	2.000000	1.205949	7.36973e+06	-53189.1	1005.82	-29747	0.000000	0.000000	7.210513	105.214	NaN	0.000000	0.001523	0.001765	28.0844	44.3741	0.001767	25111.9	3.439203	-0.991543	101.634	1.205602	0.035754	0.035407	105.214	25111.9	0.032611	0.046330	2270.97	106591
478	2.000000	1.216532	7.36973e+06	-53189.1	1005.82	-29747	0.000000	0.000000	7.222745	145.316	NaN	0.000000	0.001533	0.001781	28.0837	54.2187	0.001791	30272.4	7.764788	173.528	148.171	1.216152	0.046336	0.045957	145.316	30272.4	0.042736	0.071290	2038.38	103587
478	2.000000	1.226942	7.36973e+06	-53189.1	1005.82	-29747	0.000000	0.000000	7.235391	199.671	NaN	0.000000	0.001588	0.001878	28.0833	62.9693	0.001813	34730.1	6.757629	-6.277376	197.114	1.226617	0.056746	0.056422	199.671	34730.1	0.052434	0.100085	1995.01	100298
478	2.000000	1.237473	7.36973e+06	-53189.1	1005.82	-29747	0.000000	0.000000	7.248350	258.689	NaN	0.000000	0.001593	0.001835	28.082	72.9519	0.001797	40588.7	3.185786	175.885	257.885	1.237193	0.067277	0.066998	258.689	40588.7	0.062497	0.134916	1917.41	100960
478	2.000000	1.247905	7.36974e+06	-53189.1	1005.82	-29747	0.000000	0.000000	7.261594	327.067	NaN	0.000000	0.001584	0.001870	28.0821	83.3857	0.001806	46171.3	4.953184	-7.038783	322.473	1.247593	0.077710	0.077397	327.067	46171.3	0.072397	0.173974	1879.98	101135
478	2.000000	1.258349	7.36974e+06	-53189.1	1005.82	-29747	0.000000	0.000000	7.275583	413.26	NaN	0.000000	0.001634	0.001881	28.0818	92.5962	0.001778	52093.1	4.357368	172.908	408.484	1.257970	0.088153	0.087774	413.26	52093.1	0.082204	0.217243	1902.3	102113
478	2.000000	1.268886	7.36974e+06	-53189.1	1005.82	-29747	0.000000	0.000000	7.288979	482.769	NaN	0.000000	0.001637	0.001816	28.0831	102.992	0.001757	58620	3.473485	-7.556366	478.284	1.268585	0.098690	0.098389	482.769	58620	0.092514	0.267543	1804.45	103543
478	2.000000	1.271371	7.36974e+06	-53189.1	1005.82	-29747	0.000000	0.000000	7.292471	507.254	NaN	0.000000	0.001584	0.001832	28.0833	105.017	0.001673	62772.6	1.655933	174.396	504.974	1.270957	0.101175	0.100761	507.254	62772.6	0.095114	0.281003	1805.16	108190