File: remote_trans/data/nanoindenter/0828-1/data/Data_2025-08-06,11h17m57s/2025-07-22_16-23-58_1_604.txt
2025-07-22, 16:23:58, 1
Index	Phase	Displacement	Time	Pos X	Pos Y	Pos Z	Rot A	Rot B	Piezo Z	Force A	Force B	Gripper	Voltage A	Voltage B	Temperature	Amplitude force	Amplitude pos	Stiffness	Phase shift	Phase excitation	Force A raw	Displacement raw	HMax	HMax raw	Real Force	Real Stiffness	Contact Depth	Area	Hardness	Reduced Mod.
[#]	[#]	[um]	[s]	[um]	[um]	[um]	[m°]	[m°]	[um]	[uN]	[uN]	[V]	[V]	[V]	[°C]	[uN]	[um]	[N/m]	[°]	[°]	[uN]	[um]	[um]	[um]	[uN]	[N/m]	[um]	[um^2]	[MPa]	[MPa]
604	1.000000	0.002680	7.37096e+06	-46889.1	1005.82	-29767.7	0.000000	0.000000	6.002817	0.035791	NaN	0.000000	0.001536	0.001730	28.0815	0.121248	0.000942	128.674	-109.953	-160.449	0.082534	0.001423	-1.148160	-1.149417	0.035791	128.674	-1.148369	-2.233336E+15	-1.602558E-17	NaN
604	1.000000	0.044616	7.37096e+06	-46889.1	1005.82	-29767.7	0.000000	0.000000	6.044753	0.014504	NaN	0.000000	0.001538	0.001742	28.081	0.069397	0.001911	36.3171	-103.214	14.1089	-0.048124	0.043251	-1.106224	-1.107589	0.014504	36.3171	-1.106524	-6.132463E+14	-2.365078E-17	NaN
604	1.000000	0.086610	7.37096e+06	-46889.1	1005.82	-29767.7	0.000000	0.000000	6.086745	-0.035778	NaN	0.000000	0.001504	0.001769	28.0824	0.046196	0.002092	22.0876	133.842	-163.407	0.007017	0.085352	-1.064230	-1.065488	-0.035778	22.0876	-1.063015	-1.597110E+14	2.240157E-16	NaN
604	1.000000	0.128630	7.37096e+06	-46889.1	1005.82	-29767.7	0.000000	0.000000	6.128767	0.033506	NaN	0.000000	0.001549	0.001792	28.0821	0.036421	0.002171	16.7755	-161.583	12.9812	-0.005735	0.127275	-1.022210	-1.023565	0.033506	16.7755	-1.023708	-4.729801E+13	-7.083926E-16	NaN
604	1.000000	0.170660	7.37096e+06	-46889.1	1005.82	-29767.7	0.000000	0.000000	6.170799	0.066828	NaN	0.000000	0.001589	0.001767	28.0824	0.114848	0.001957	58.6892	-170.099	-165.284	0.072457	0.169341	-0.980180	-0.981499	0.066828	58.6892	-0.981034	-1.259930E+13	-5.304131E-15	NaN
604	1.000000	0.212686	7.37096e+06	-46889.1	1005.82	-29767.7	0.000000	0.000000	6.212820	-0.042609	NaN	0.000000	0.001532	0.001778	28.0813	0.105608	0.001867	56.5518	-177.368	12.1339	-0.040060	0.211293	-0.938154	-0.939547	-0.042609	56.5518	-0.937589	-3.270477E+12	1.302847E-14	NaN
604	1.000000	0.254685	7.37096e+06	-46889.1	1005.82	-29767.7	0.000000	0.000000	6.254824	0.063535	NaN	0.000000	0.001532	0.001755	28.0815	0.074908	0.001862	40.2215	-170.337	-164.58	-0.008100	0.253388	-0.896155	-0.897452	0.063535	40.2215	-0.897340	-9.356599E+11	-6.790443E-14	NaN
604	1.000000	0.296725	7.37096e+06	-46889.1	1005.82	-29767.7	0.000000	0.000000	6.296861	0.011903	NaN	0.000000	0.001487	0.001771	28.0812	0.147002	0.002002	73.4136	81.4753	16.2913	-0.024820	0.295365	-0.854115	-0.855475	0.011903	73.4136	-0.854237	-2.444040E+11	-4.870327E-14	NaN
604	1.000000	0.338709	7.37096e+06	-46889.1	1005.82	-29767.7	0.000000	0.000000	6.338843	-0.048762	NaN	0.000000	0.001522	0.001767	28.0822	0.070080	0.001990	35.2175	106.131	-165.36	-0.053018	0.337413	-0.812131	-0.813427	-0.048762	35.2175	-0.811093	-6.359108E+10	7.668095E-13	NaN
604	1.000000	0.380766	7.37096e+06	-46889.1	1005.82	-29767.7	0.000000	0.000000	6.380907	0.111394	NaN	0.000000	0.001527	0.001768	28.0827	0.045903	0.001967	23.3344	37.8324	14.8757	0.089225	0.379419	-0.770074	-0.771421	0.111394	23.3344	-0.773654	-1.972369E+10	-5.647715E-12	NaN
604	1.000000	0.422764	7.37096e+06	-46889.1	1005.82	-29767.7	0.000000	0.000000	6.422897	-0.059155	NaN	0.000000	0.001546	0.001763	28.0824	0.078304	0.002053	38.1492	100.195	-167.647	-0.017406	0.421493	-0.728077	-0.729347	-0.059155	38.1492	-0.726914	-4.557628E+9	1.297941E-11	NaN
604	1.000000	0.464790	7.37096e+06	-46889.1	1005.82	-29767.7	0.000000	0.000000	6.464928	0.048875	NaN	0.000000	0.001494	0.001760	28.0824	0.112976	0.001983	56.9645	-15.3542	10.4968	0.007178	0.463385	-0.686050	-0.687456	0.048875	56.9645	-0.686693	-1.287434E+9	-3.796327E-11	NaN
604	1.000000	0.506806	7.37096e+06	-46889.1	1005.82	-29767.7	0.000000	0.000000	6.506943	0.026188	NaN	0.000000	0.001569	0.001744	28.0812	0.058463	0.001984	29.4716	-74.7197	-166.746	-0.076613	0.505505	-0.644034	-0.645335	0.026188	29.4716	-0.644701	-3.425866E+8	-7.644148E-11	NaN
604	1.000000	0.548839	7.37096e+06	-46889.1	1005.82	-29767.7	0.000000	0.000000	6.548977	0.022834	NaN	0.000000	0.001579	0.001798	28.0812	0.086442	0.001909	45.2707	100.54	13.7438	0.000243	0.547434	-0.602001	-0.603406	0.022834	45.2707	-0.602379	-8.978819E+7	-2.543142E-10	NaN
604	1.000000	0.590860	7.37096e+06	-46889.1	1005.82	-29767.7	0.000000	0.000000	6.591000	0.085867	NaN	0.000000	0.001598	0.001780	28.0816	0.064459	0.001938	33.2653	-41.5572	-164.544	0.046799	0.589551	-0.559980	-0.561289	0.085867	33.2653	-0.561916	-2.482431E+7	-3.458973E-9	NaN
604	1.000000	0.632863	7.37096e+06	-46889.1	1005.82	-29767.7	0.000000	0.000000	6.632999	0.000708	NaN	0.000000	0.001533	0.001759	28.0828	0.048173	0.001885	25.555	12.3105	16.5902	0.056416	0.631460	-0.517977	-0.519380	0.000708	25.555	-0.517998	-6.10596e+06	-1.160293E-10	NaN
604	1.000000	0.674870	7.37096e+06	-46889.1	1005.82	-29767.7	0.000000	0.000000	6.675007	0.010272	NaN	0.000000	0.001558	0.001859	28.0827	0.057291	0.001960	29.2326	-178.226	-168.222	-0.025789	0.673500	-0.475970	-0.477340	0.010272	29.2326	-0.476233	-1.59507e+06	-6.439783E-9	NaN
604	1.000000	0.716865	7.37096e+06	-46889.1	1005.82	-29767.7	0.000000	0.000000	6.717002	0.014510	NaN	0.000000	0.001517	0.001799	28.0826	0.052225	0.001903	27.4399	27.9196	12.1042	0.146957	0.715557	-0.433975	-0.435283	0.014510	27.4399	-0.434372	-411032	-3.530228E-8	NaN
604	1.000000	0.758896	7.37096e+06	-46889.1	1005.82	-29767.7	0.000000	0.000000	6.759031	-0.039935	NaN	0.000000	0.001539	0.001841	28.0815	0.073869	0.001770	41.7304	-149.201	-166.01	-0.029241	0.757596	-0.391944	-0.393244	-0.039935	41.7304	-0.391226	-100162	3.987029E-7	NaN
604	1.000000	0.800907	7.37096e+06	-46889.1	1005.82	-29767.7	0.000000	0.000000	6.801045	0.036291	NaN	0.000000	0.001534	0.001836	28.0815	0.067912	0.002004	33.8833	162.342	15.3579	0.005432	0.799578	-0.349933	-0.351262	0.036291	33.8833	-0.350736	-26163.1	-1.387086E-6	NaN
604	1.000000	0.842943	7.37096e+06	-46889.1	1005.82	-29767.7	0.000000	0.000000	6.843080	0.027639	NaN	0.000000	0.001528	0.001836	28.0813	0.024978	0.002010	12.4272	-26.7947	-167.888	0.070651	0.841578	-0.307897	-0.309262	0.027639	12.4272	-0.309565	-6525.61	-4.235425E-6	NaN
604	1.000000	0.884946	7.37096e+06	-46889.1	1005.82	-29767.7	0.000000	0.000000	6.885082	-0.003143	NaN	0.000000	0.001538	0.001819	28.0826	0.054506	0.002147	25.3851	112.849	11.1847	0.097184	0.883620	-0.265894	-0.267220	-0.003143	25.3851	-0.265801	-1437.53	2.186135E-6	NaN
604	1.000000	0.926993	7.37096e+06	-46889.1	1005.82	-29767.7	0.000000	0.000000	6.927131	0.035789	NaN	0.000000	0.001588	0.001807	28.0827	0.106729	0.002013	53.0161	-172.627	-164.975	0.033778	0.925647	-0.223847	-0.225193	0.035789	53.0161	-0.224353	-325.882	-0.000110	NaN
604	1.000000	0.968986	7.37096e+06	-46889.1	1005.82	-29767.7	0.000000	0.000000	6.969121	-0.025907	NaN	0.000000	0.001527	0.001808	28.0826	0.103916	0.002000	51.9497	-148.576	10.4595	0.042999	0.967637	-0.181855	-0.183203	-0.025907	51.9497	-0.181480	-64.6576	0.000401	NaN
604	1.000000	1.010991	7.37096e+06	-46889.1	1005.82	-29767.7	0.000000	0.000000	7.011128	-0.001173	NaN	0.000000	0.001576	0.001797	28.0827	0.115263	0.001849	62.3229	-110.61	-163.322	-0.006008	1.009691	-0.139849	-0.141149	-0.001173	62.3229	-0.139835	-11.7452	9.990114E-5	NaN
604	1.000000	1.053042	7.37096e+06	-46889.1	1005.82	-29767.7	0.000000	0.000000	7.053175	-0.063140	NaN	0.000000	0.001537	0.001804	28.0817	0.076322	0.001983	38.4942	-76.5886	15.0049	-0.069713	1.051713	-0.097799	-0.099127	-0.063140	38.4942	-0.096568	-1.531068	0.041239	NaN
604	1.000000	1.095041	7.37096e+06	-46889.1	1005.82	-29767.7	0.000000	0.000000	7.095176	-0.009317	NaN	0.000000	0.001518	0.001789	28.0815	0.115676	0.002084	55.5044	126.852	-166.823	-0.005578	1.093732	-0.055799	-0.057108	-0.009317	55.5044	-0.055674	-0.134807	0.069110	NaN
604	1.000000	1.137033	7.37096e+06	-46889.1	1005.82	-29767.7	0.000000	0.000000	7.137167	-0.051898	NaN	0.000000	0.001518	0.001772	28.0814	0.061653	0.001996	30.8944	105.965	12.8809	-0.019983	1.135655	-0.013807	-0.015185	-0.051898	30.8944	-0.012547	-0.007842	6.618194	NaN
604	2.000000	1.159650	7.37096e+06	-46889.1	1005.82	-29767.7	0.000000	0.000000	7.160572	19.1285	NaN	0.000000	0.001494	0.001829	28.0828	16.4094	0.001755	9352.42	5.366269	-175.93	18.1811	1.159347	0.008809	0.008507	19.1285	9352.42	0.007275	0.006308	3032.56	107587
604	2.000000	1.170145	7.37096e+06	-46889.1	1005.82	-29767.7	0.000000	0.000000	7.171996	41.7017	NaN	0.000000	0.001490	0.001829	28.0827	26.717	0.001882	14197.9	6.339024	0.206916	40.1706	1.169789	0.019305	0.018949	41.7017	14197.9	0.017102	0.018192	2292.33	96174.2
604	2.000000	1.180581	7.37096e+06	-46889.1	1005.82	-29767.7	0.000000	0.000000	7.183793	74.819	NaN	0.000000	0.001515	0.001849	28.0827	36.6705	0.001810	20264.5	6.884592	176.893	74.9091	1.180270	0.029741	0.029430	74.819	20264.5	0.026971	0.034700	2156.17	99390.5
604	2.000000	1.191078	7.37097e+06	-46889.1	1005.82	-29767.7	0.000000	0.000000	7.195991	116.187	NaN	0.000000	0.001461	0.001843	28.0819	45.6224	0.001739	26234	4.484370	-3.683015	113.67	1.190702	0.040238	0.039861	116.187	26234	0.036916	0.056301	2063.67	101013
604	2.000000	1.201579	7.37097e+06	-46889.1	1005.82	-29767.7	0.000000	0.000000	7.208301	160.195	NaN	0.000000	0.001496	0.001812	28.082	56.3911	0.001755	32129.2	5.150675	174.779	158.533	1.201214	0.050739	0.050374	160.195	32129.2	0.046999	0.083365	1921.62	101667
604	2.000000	1.211981	7.37097e+06	-46889.1	1005.82	-29767.7	0.000000	0.000000	7.220529	204.62	NaN	0.000000	0.001518	0.001821	28.0827	66.7318	0.002040	32705.2	7.428553	-7.905319	199.707	1.211761	0.061141	0.060921	204.62	32705.2	0.056448	0.113382	1804.7	88739.8
604	2.000000	1.222487	7.37097e+06	-46889.1	1005.82	-29767.7	0.000000	0.000000	7.233301	259.712	NaN	0.000000	0.001531	0.001820	28.0832	75.2012	0.001857	40496.8	6.123325	171.777	254.908	1.222192	0.071647	0.071352	259.712	40496.8	0.066837	0.151461	1714.71	95069.9
604	2.000000	1.233052	7.37097e+06	-46889.1	1005.82	-29767.7	0.000000	0.000000	7.246570	325.503	NaN	0.000000	0.001493	0.001873	28.0827	83.6732	0.001763	47449.2	5.799341	-8.799277	323.849	1.232656	0.082212	0.081816	325.503	47449.2	0.077067	0.194016	1677.71	98419.9
604	2.000000	1.243459	7.37097e+06	-46889.1	1005.82	-29767.7	0.000000	0.000000	7.260092	401.266	NaN	0.000000	0.001500	0.001817	28.0828	93.3145	0.001851	50414.1	8.203138	168.757	397.015	1.243036	0.092619	0.092196	401.266	50414.1	0.086650	0.238334	1683.63	94347.9
604	2.000000	1.251535	7.37097e+06	-46889.1	1005.82	-29767.7	0.000000	0.000000	7.270487	457.67	NaN	0.000000	0.001550	0.001847	28.0826	101.091	0.001796	56271.6	4.858319	171.285	459.339	1.251170	0.100695	0.100330	457.67	56271.6	0.094595	0.278292	1644.57	97456.8