File: remote_trans/data/nanoindenter/0828-1/data/Data_2025-08-06,11h17m57s/2025-07-22_16-23-58_1_453.txt
2025-07-22, 16:23:58, 1
Index	Phase	Displacement	Time	Pos X	Pos Y	Pos Z	Rot A	Rot B	Piezo Z	Force A	Force B	Gripper	Voltage A	Voltage B	Temperature	Amplitude force	Amplitude pos	Stiffness	Phase shift	Phase excitation	Force A raw	Displacement raw	HMax	HMax raw	Real Force	Real Stiffness	Contact Depth	Area	Hardness	Reduced Mod.
[#]	[#]	[um]	[s]	[um]	[um]	[um]	[m°]	[m°]	[um]	[uN]	[uN]	[V]	[V]	[V]	[°C]	[uN]	[um]	[N/m]	[°]	[°]	[uN]	[um]	[um]	[um]	[uN]	[N/m]	[um]	[um^2]	[MPa]	[MPa]
453	1.000000	0.002506	7.36949e+06	-54439.1	1005.82	-29743.7	0.000000	0.000000	6.002784	-0.058157	NaN	0.000000	0.001647	0.001776	28.0803	0.048567	0.001073	45.2742	-88.3157	-168.913	-0.096690	0.001231	-1.031448	-1.032723	-0.058157	45.2742	-1.030485	-5.834464E+13	9.967794E-16	NaN
453	1.000000	0.042465	7.36949e+06	-54439.1	1005.82	-29743.7	0.000000	0.000000	6.042746	-0.014772	NaN	0.000000	0.001659	0.001757	28.0805	0.061963	0.001839	33.6893	15.4147	-163.092	0.106565	0.041182	-0.991489	-0.992772	-0.014772	33.6893	-0.991160	-1.724775E+13	8.564624E-16	NaN
453	1.000000	0.082493	7.36949e+06	-54439.1	1005.82	-29743.7	0.000000	0.000000	6.082773	-0.036629	NaN	0.000000	0.001662	0.001769	28.0805	0.078926	0.002099	37.6069	-160.589	-168.268	0.018427	0.081199	-0.951461	-0.952754	-0.036629	37.6069	-0.950730	-4.918955E+12	7.446452E-15	NaN
453	1.000000	0.122482	7.36949e+06	-54439.1	1005.82	-29743.7	0.000000	0.000000	6.122762	-0.021055	NaN	0.000000	0.001618	0.001794	28.0813	0.059671	0.002083	28.6499	110.461	-166.736	-0.028109	0.121164	-0.911472	-0.912790	-0.021055	28.6499	-0.910921	-1.427583E+12	1.474880E-14	NaN
453	1.000000	0.162502	7.36949e+06	-54439.1	1005.82	-29743.7	0.000000	0.000000	6.162783	-0.016496	NaN	0.000000	0.001679	0.001790	28.0814	0.073177	0.001914	38.2377	-51.705	-165.987	-0.001788	0.161251	-0.871451	-0.872703	-0.016496	38.2377	-0.871128	-4.137155E+11	3.987356E-14	NaN
453	1.000000	0.202551	7.36949e+06	-54439.1	1005.82	-29743.7	0.000000	0.000000	6.202830	-0.033709	NaN	0.000000	0.001689	0.001829	28.0815	0.103447	0.001964	52.6709	143.106	-163.62	-0.002631	0.201119	-0.831403	-0.832834	-0.033709	52.6709	-0.830923	-1.181126E+11	2.853980E-13	NaN
453	1.000000	0.242544	7.36949e+06	-54439.1	1005.82	-29743.7	0.000000	0.000000	6.242825	-0.008849	NaN	0.000000	0.001642	0.001759	28.0802	0.084189	0.001984	42.4375	3.398197	-163.903	-0.060820	0.241269	-0.791410	-0.792685	-0.008849	42.4375	-0.791253	-3.420618E+10	2.587029E-13	NaN
453	1.000000	0.282588	7.36949e+06	-54439.1	1005.82	-29743.7	0.000000	0.000000	6.282867	-0.055692	NaN	0.000000	0.001681	0.001793	28.0801	0.016151	0.002078	7.772982	-77.9991	-163.704	-0.108213	0.281305	-0.751366	-0.752649	-0.055692	7.772982	-0.745993	-8.292077E+9	6.716233E-12	NaN
453	1.000000	0.322588	7.36949e+06	-54439.1	1005.82	-29743.7	0.000000	0.000000	6.322869	-0.007809	NaN	0.000000	0.001671	0.001768	28.0803	0.098761	0.002044	48.3139	-130.208	-166.197	-0.007236	0.321298	-0.711365	-0.712655	-0.007809	48.3139	-0.711244	-2.786292E+9	2.802696E-12	NaN
453	1.000000	0.362619	7.36949e+06	-54439.1	1005.82	-29743.7	0.000000	0.000000	6.362899	-0.043707	NaN	0.000000	0.001708	0.001849	28.0804	0.052377	0.001975	26.5249	25.6467	-166.41	0.009058	0.361293	-0.671335	-0.672660	-0.043707	26.5249	-0.670099	-7.633834E+8	5.725485E-11	NaN
453	1.000000	0.402621	7.36949e+06	-54439.1	1005.82	-29743.7	0.000000	0.000000	6.402902	0.004232	NaN	0.000000	0.001655	0.001807	28.0816	0.048346	0.001958	24.6929	-85.6612	-163.379	0.007348	0.401307	-0.631333	-0.632647	0.004232	24.6929	-0.631461	-2.254701E+8	-1.876956E-11	NaN
453	1.000000	0.442625	7.36949e+06	-54439.1	1005.82	-29743.7	0.000000	0.000000	6.442905	-0.022322	NaN	0.000000	0.001698	0.001773	28.0815	0.205568	0.001914	107.384	178.262	-161.632	-0.070699	0.441350	-0.591329	-0.592604	-0.022322	107.384	-0.591173	-6.292750E+7	3.547275E-10	NaN
453	1.000000	0.482630	7.36949e+06	-54439.1	1005.82	-29743.7	0.000000	0.000000	6.482912	0.018217	NaN	0.000000	0.001699	0.001786	28.0814	0.060546	0.001924	31.4702	155.336	-168.395	0.006096	0.481342	-0.551324	-0.552612	0.018217	31.4702	-0.551758	-1.795990E+7	-1.014309E-9	NaN
453	1.000000	0.522672	7.36949e+06	-54439.1	1005.82	-29743.7	0.000000	0.000000	6.522954	0.010278	NaN	0.000000	0.001668	0.001794	28.0804	0.100253	0.001931	51.9067	68.1391	-161.64	-0.006835	0.521364	-0.511282	-0.512589	0.010278	51.9067	-0.511430	-4.9469e+06	-2.077665E-9	NaN
453	1.000000	0.562707	7.36949e+06	-54439.1	1005.82	-29743.7	0.000000	0.000000	6.562986	-0.054468	NaN	0.000000	0.001671	0.001794	28.0804	0.026546	0.001990	13.3409	104.562	-164.924	-0.115197	0.561339	-0.471246	-0.472614	-0.054468	13.3409	-0.468184	-1.23009e+06	4.427921E-8	NaN
453	1.000000	0.602695	7.36949e+06	-54439.1	1005.82	-29743.7	0.000000	0.000000	6.602975	-0.017979	NaN	0.000000	0.001641	0.001778	28.0804	0.031514	0.002116	14.8905	3.243828	-166.182	0.034926	0.601439	-0.431259	-0.432515	-0.017979	14.8905	-0.430353	-360626	4.985625E-8	NaN
453	1.000000	0.642732	7.36949e+06	-54439.1	1005.82	-29743.7	0.000000	0.000000	6.643009	-0.090678	NaN	0.000000	0.001687	0.001801	28.0815	0.043010	0.001954	22.0106	94.3352	-165.742	-0.020028	0.641418	-0.391222	-0.392535	-0.090678	22.0106	-0.388132	-90457.2	1.002439E-6	NaN
453	1.000000	0.682747	7.36949e+06	-54439.1	1005.82	-29743.7	0.000000	0.000000	6.683027	-0.041431	NaN	0.000000	0.001647	0.001780	28.0816	0.058376	0.002034	28.6942	130.479	-165.752	-0.027918	0.681422	-0.351207	-0.352531	-0.041431	28.6942	-0.350124	-25632.8	1.616341E-6	NaN
453	1.000000	0.722702	7.36949e+06	-54439.1	1005.82	-29743.7	0.000000	0.000000	6.722978	-0.117419	NaN	0.000000	0.001673	0.001782	28.0818	0.077400	0.001852	41.8015	-113.557	-163.17	-0.039100	0.721445	-0.311252	-0.312508	-0.117419	41.8015	-0.309145	-6432.9	1.825282E-5	NaN
453	1.000000	0.762774	7.36949e+06	-54439.1	1005.82	-29743.7	0.000000	0.000000	6.763053	-0.053694	NaN	0.000000	0.001657	0.001771	28.0818	0.148015	0.002095	70.6482	120.978	-165.272	-0.075163	0.761456	-0.271180	-0.272497	-0.053694	70.6482	-0.270610	-1701.41	3.155827E-5	NaN
453	1.000000	0.802781	7.36949e+06	-54439.1	1005.82	-29743.7	0.000000	0.000000	6.803058	-0.100456	NaN	0.000000	0.001694	0.001799	28.0807	0.005786	0.001935	2.989711	-41.1742	-164.378	-0.041101	0.801469	-0.231173	-0.232485	-0.100456	2.989711	-0.205972	-164.97	0.000609	NaN
453	1.000000	0.842824	7.36949e+06	-54439.1	1005.82	-29743.7	0.000000	0.000000	6.843106	0.013180	NaN	0.000000	0.001644	0.001806	28.0805	0.018244	0.001941	9.398982	167.435	-164.479	0.039543	0.841459	-0.191129	-0.192494	0.013180	9.398982	-0.192181	-97.8129	-0.000135	NaN
453	1.000000	0.882784	7.36949e+06	-54439.1	1005.82	-29743.7	0.000000	0.000000	6.883061	-0.106338	NaN	0.000000	0.001653	0.001747	28.0807	0.113411	0.002115	53.6287	-159.808	-167.411	-0.003574	0.881522	-0.151170	-0.152432	-0.106338	53.6287	-0.149682	-17.8736	0.005949	NaN
453	1.000000	0.922838	7.36949e+06	-54439.1	1005.82	-29743.7	0.000000	0.000000	6.923116	-0.089922	NaN	0.000000	0.001635	0.001795	28.0817	0.022377	0.001864	12.0069	40.1463	-164.961	-0.062214	0.921517	-0.111115	-0.112437	-0.089922	12.0069	-0.105498	-2.409497	0.037320	NaN
453	1.000000	0.962840	7.36949e+06	-54439.1	1005.82	-29743.7	0.000000	0.000000	6.963119	-0.046759	NaN	0.000000	0.001676	0.001780	28.0816	0.017882	0.002121	8.429577	146.807	-164.139	-0.128232	0.961567	-0.071114	-0.072387	-0.046759	8.429577	-0.066953	-0.282099	0.165754	NaN
453	1.000000	1.002858	7.36949e+06	-54439.1	1005.82	-29743.7	0.000000	0.000000	7.003138	-0.024151	NaN	0.000000	0.001628	0.001784	28.0817	0.077883	0.001951	39.917	56.5135	-166.563	-0.064837	1.001584	-0.031096	-0.032370	-0.024151	39.917	-0.030642	-0.023985	1.006913	NaN
453	2.000000	1.042385	7.36949e+06	-54439.1	1005.82	-29743.7	0.000000	0.000000	7.042979	7.603222	NaN	0.000000	0.001675	0.001755	28.0817	8.694626	0.001731	5021.79	14.1266	-175.521	7.179538	1.041559	0.008431	0.007605	7.603222	5021.79	0.007296	0.006328	1201.54	57676.9
453	2.000000	1.052455	7.36949e+06	-54439.1	1005.82	-29743.7	0.000000	0.000000	7.053721	23.9398	NaN	0.000000	0.001639	0.001822	28.0805	20.0389	0.001761	11376.8	8.283567	179.756	22.2038	1.052242	0.018501	0.018289	23.9398	11376.8	0.016923	0.017936	1334.75	77612.9
453	2.000000	1.062529	7.36949e+06	-54439.1	1005.82	-29743.7	0.000000	0.000000	7.064643	44.5597	NaN	0.000000	0.001695	0.001790	28.0806	29.7244	0.001895	15682.6	7.645805	-179.659	46.9585	1.062144	0.028575	0.028190	44.5597	15682.6	0.026444	0.033696	1322.42	78055.7
453	2.000000	1.072458	7.36949e+06	-54439.1	1005.82	-29743.7	0.000000	0.000000	7.075874	76.1968	NaN	0.000000	0.001642	0.001762	28.0805	39.3593	0.001903	20683.1	3.427311	179.719	75.948	1.072212	0.038505	0.038258	76.1968	20683.1	0.035742	0.053487	1424.58	81708.1
453	2.000000	1.082457	7.36949e+06	-54439.1	1005.82	-29743.7	0.000000	0.000000	7.087547	116.912	NaN	0.000000	0.001692	0.001774	28.0818	48.6681	0.001833	26555.3	4.190000	176.451	117.932	1.082132	0.048503	0.048179	116.912	26555.3	0.045201	0.078160	1495.81	86782.7
453	2.000000	1.092460	7.36949e+06	-54439.1	1005.82	-29743.7	0.000000	0.000000	7.099444	162.966	NaN	0.000000	0.001715	0.001735	28.0818	58.5958	0.001890	31002.2	3.816991	175.619	163.86	1.092191	0.058506	0.058237	162.966	31002.2	0.054563	0.107038	1522.5	86575.8
453	2.000000	1.102367	7.36949e+06	-54439.1	1005.82	-29743.7	0.000000	0.000000	7.111779	221.985	NaN	0.000000	0.001763	0.001788	28.0815	66.7399	0.001816	36760.1	2.606313	176.138	220.931	1.102086	0.068413	0.068132	221.985	36760.1	0.063884	0.140104	1584.44	89727.6
453	2.000000	1.112434	7.36949e+06	-54439.1	1005.82	-29743.7	0.000000	0.000000	7.124514	286.835	NaN	0.000000	0.001725	0.001758	28.0812	76.2808	0.001775	42978.7	8.433693	169.599	288.41	1.111950	0.078480	0.077997	286.835	42978.7	0.073474	0.178508	1606.84	92939
453	2.000000	1.122330	7.36949e+06	-54439.1	1005.82	-29743.7	0.000000	0.000000	7.136918	347.812	NaN	0.000000	0.001680	0.001813	28.0804	85.1225	0.001771	48062.2	5.427100	171.632	343.742	1.121968	0.088377	0.088014	347.812	48062.2	0.082949	0.220715	1575.84	93467.6
453	2.000000	1.132310	7.36949e+06	-54439.1	1005.82	-29743.7	0.000000	0.000000	7.149468	410.304	NaN	0.000000	0.001687	0.001730	28.0805	94.5618	0.001794	52719.9	4.051984	171.825	406.049	1.132061	0.098356	0.098107	410.304	52719.9	0.092519	0.267570	1533.45	93117.1
453	2.000000	1.140686	7.3695e+06	-54439.1	1005.82	-29743.7	0.000000	0.000000	7.160687	479.409	NaN	0.000000	0.001694	0.001766	28.0803	98.9475	0.001740	56857.5	2.529587	-7.057292	467.034	1.140433	0.106732	0.106480	479.409	56857.5	0.100408	0.309350	1549.73	93397.6