File: remote_trans/data/nanoindenter/0828-1/data/Data_2025-08-06,11h17m57s/2025-07-22_16-23-58_1_338.txt
2025-07-22, 16:23:58, 1
Index	Phase	Displacement	Time	Pos X	Pos Y	Pos Z	Rot A	Rot B	Piezo Z	Force A	Force B	Gripper	Voltage A	Voltage B	Temperature	Amplitude force	Amplitude pos	Stiffness	Phase shift	Phase excitation	Force A raw	Displacement raw	HMax	HMax raw	Real Force	Real Stiffness	Contact Depth	Area	Hardness	Reduced Mod.
[#]	[#]	[um]	[s]	[um]	[um]	[um]	[m°]	[m°]	[um]	[uN]	[uN]	[V]	[V]	[V]	[°C]	[uN]	[um]	[N/m]	[°]	[°]	[uN]	[um]	[um]	[um]	[uN]	[N/m]	[um]	[um^2]	[MPa]	[MPa]
338	1.000000	0.002752	7.36837e+06	-55539.1	955.819	-29741.6	0.000000	0.000000	6.002801	0.053006	NaN	0.000000	0.001472	0.001663	28.0804	0.076399	0.000970	78.7627	75.5993	-165.646	0.007967	0.001546	-1.059945	-1.061151	0.053006	78.7627	-1.060449	-1.475231E+14	-3.593047E-16	NaN
338	1.000000	0.042689	7.36837e+06	-55539.1	955.818	-29741.6	0.000000	0.000000	6.042738	0.031065	NaN	0.000000	0.001510	0.001656	28.0797	0.094713	0.001965	48.2016	161.686	-167.428	0.016319	0.041399	-1.020007	-1.021297	0.031065	48.2016	-1.020491	-4.281092E+13	-7.256243E-16	NaN
338	1.000000	0.082710	7.36837e+06	-55539.1	955.818	-29741.6	0.000000	0.000000	6.082757	0.006010	NaN	0.000000	0.001543	0.001667	28.0811	0.014961	0.001931	7.748364	33.1145	-163.317	0.091208	0.081374	-0.979987	-0.981323	0.006010	7.748364	-0.980568	-1.241843E+13	-4.839492E-16	NaN
338	1.000000	0.122700	7.36837e+06	-55539.1	955.819	-29741.6	0.000000	0.000000	6.122748	0.017023	NaN	0.000000	0.001529	0.001718	28.0812	0.079011	0.002033	38.8664	-163.729	-163.463	0.005795	0.121393	-0.939997	-0.941304	0.017023	38.8664	-0.940325	-3.560616E+12	-4.781041E-15	NaN
338	1.000000	0.162731	7.36837e+06	-55539.1	955.819	-29741.6	0.000000	0.000000	6.162778	-0.005047	NaN	0.000000	0.001631	0.001712	28.0818	0.059429	0.001947	30.5297	-117.371	-162.382	0.013660	0.161405	-0.899965	-0.901292	-0.005047	30.5297	-0.899841	-1.011393E+12	4.989888E-15	NaN
338	1.000000	0.202767	7.36837e+06	-55539.1	955.818	-29741.6	0.000000	0.000000	6.202817	0.070234	NaN	0.000000	0.001525	0.001698	28.0806	0.048281	0.001960	24.6392	140.056	-165.115	-0.014005	0.201424	-0.859930	-0.861273	0.070234	24.6392	-0.862068	-3.119645E+11	-2.251334E-13	NaN
338	1.000000	0.242794	7.36837e+06	-55539.1	955.818	-29741.6	0.000000	0.000000	6.242843	0.056178	NaN	0.000000	0.001582	0.001641	28.0803	0.094369	0.001929	48.9194	149.245	-162.447	0.041170	0.241468	-0.819903	-0.821228	0.056178	48.9194	-0.820764	-8.601544E+10	-6.531186E-13	NaN
338	1.000000	0.282803	7.36837e+06	-55539.1	955.818	-29741.6	0.000000	0.000000	6.282851	0.034801	NaN	0.000000	0.001528	0.001684	28.0799	0.127602	0.001971	64.7268	-53.0085	-165.191	0.121853	0.281461	-0.779894	-0.781235	0.034801	64.7268	-0.780297	-2.428095E+10	-1.433268E-12	NaN
338	1.000000	0.322796	7.36837e+06	-55539.1	955.818	-29741.6	0.000000	0.000000	6.322847	0.078256	NaN	0.000000	0.001541	0.001631	28.0799	0.097089	0.002019	48.0935	-158.79	-163.919	0.131024	0.321468	-0.739900	-0.741228	0.078256	48.0935	-0.741121	-7.117356E+9	-1.099507E-11	NaN
338	1.000000	0.362834	7.36837e+06	-55539.1	955.818	-29741.6	0.000000	0.000000	6.362880	-0.006182	NaN	0.000000	0.001489	0.001658	28.0813	0.072239	0.002123	34.0301	-12.2147	-162.186	-0.000865	0.361521	-0.699863	-0.701176	-0.006182	34.0301	-0.699727	-1.939983E+9	3.186742E-12	NaN
338	1.000000	0.402864	7.36837e+06	-55539.1	955.819	-29741.6	0.000000	0.000000	6.402913	0.045963	NaN	0.000000	0.001547	0.001672	28.0814	0.028769	0.001990	14.4556	-52.2696	-168.162	0.053502	0.401544	-0.659832	-0.661152	0.045963	14.4556	-0.662217	-5.954333E+8	-7.719253E-11	NaN
338	1.000000	0.442885	7.36837e+06	-55539.1	955.818	-29741.6	0.000000	0.000000	6.442933	0.020514	NaN	0.000000	0.001490	0.001651	28.081	0.034684	0.002016	17.2056	-121.556	-167.662	0.004711	0.441553	-0.619812	-0.621144	0.020514	17.2056	-0.620706	-1.604500E+8	-1.278531E-10	NaN
338	1.000000	0.482877	7.36837e+06	-55539.1	955.819	-29741.6	0.000000	0.000000	6.482926	0.058543	NaN	0.000000	0.001540	0.001684	28.0799	0.115111	0.001989	57.8715	-112.438	-163.851	0.004328	0.481505	-0.579820	-0.581191	0.058543	57.8715	-0.580578	-4.494789E+7	-1.302473E-9	NaN
338	1.000000	0.522902	7.36837e+06	-55539.1	955.818	-29741.6	0.000000	0.000000	6.522951	0.045074	NaN	0.000000	0.001498	0.001711	28.0797	0.094048	0.002204	42.6645	-70.7225	-166.984	0.061307	0.521537	-0.539795	-0.541159	0.045074	42.6645	-0.540587	-1.257477E+7	-3.584500E-9	NaN
338	1.000000	0.562926	7.36837e+06	-55539.1	955.819	-29741.6	0.000000	0.000000	6.562975	0.050722	NaN	0.000000	0.001494	0.001724	28.0799	0.059020	0.002018	29.2438	-128.533	-163.564	0.042115	0.561575	-0.499771	-0.501121	0.050722	29.2438	-0.501072	-3.54785e+06	-1.429657E-8	NaN
338	1.000000	0.602924	7.36837e+06	-55539.1	955.818	-29741.6	0.000000	0.000000	6.602969	-0.049444	NaN	0.000000	0.001495	0.001754	28.0801	0.105386	0.001921	54.8473	128.884	-164.266	-0.064943	0.601657	-0.459772	-0.461040	-0.049444	54.8473	-0.459096	-916884	5.392644E-8	NaN
338	1.000000	0.642945	7.36837e+06	-55539.1	955.819	-29741.6	0.000000	0.000000	6.642996	0.102670	NaN	0.000000	0.001509	0.001747	28.0813	0.070894	0.002056	34.4773	-26.4011	-164.841	0.068731	0.641695	-0.419752	-0.421001	0.102670	34.4773	-0.421985	-274514	-3.740066E-7	NaN
338	1.000000	0.682991	7.36837e+06	-55539.1	955.819	-29741.6	0.000000	0.000000	6.683042	0.097502	NaN	0.000000	0.001503	0.001738	28.0813	0.030526	0.001911	15.9765	105.731	-167.474	0.131909	0.681659	-0.379705	-0.381037	0.097502	15.9765	-0.384282	-79671.7	-1.223797E-6	NaN
338	1.000000	0.723001	7.36837e+06	-55539.1	955.818	-29741.6	0.000000	0.000000	6.723049	0.009171	NaN	0.000000	0.001527	0.001688	28.0813	0.021631	0.002064	10.4805	-0.631711	-164.994	-0.007096	0.721660	-0.339695	-0.341036	0.009171	10.4805	-0.340351	-18478.9	-4.962945E-7	NaN
338	1.000000	0.762982	7.36837e+06	-55539.1	955.819	-29741.6	0.000000	0.000000	6.763031	0.064305	NaN	0.000000	0.001530	0.001707	28.08	0.067927	0.002121	32.0325	-155.344	-165.668	0.061126	0.761683	-0.299715	-0.301014	0.064305	32.0325	-0.301221	-4906.8	-1.310531E-5	NaN
338	1.000000	0.803011	7.36837e+06	-55539.1	955.819	-29741.6	0.000000	0.000000	6.803060	0.047101	NaN	0.000000	0.001532	0.001686	28.0802	0.039026	0.001966	19.8513	-138.842	-162.334	0.085738	0.801732	-0.259686	-0.260965	0.047101	19.8513	-0.261465	-1234.12	-3.816526E-5	NaN
338	1.000000	0.843038	7.36837e+06	-55539.1	955.818	-29741.6	0.000000	0.000000	6.843086	0.021988	NaN	0.000000	0.001493	0.001705	28.0803	0.027379	0.001995	13.7238	128.392	-166.75	0.022054	0.841750	-0.219658	-0.220947	0.021988	13.7238	-0.220860	-286.688	-7.669515E-5	NaN
338	1.000000	0.883033	7.36837e+06	-55539.1	955.819	-29741.6	0.000000	0.000000	6.883083	0.065928	NaN	0.000000	0.001491	0.001716	28.0811	0.080055	0.001998	40.0729	-29.4891	-167.664	0.063089	0.881709	-0.179663	-0.180988	0.065928	40.0729	-0.180897	-63.2002	-0.001043	NaN
338	1.000000	0.923078	7.36837e+06	-55539.1	955.819	-29741.6	0.000000	0.000000	6.923123	-0.033498	NaN	0.000000	0.001534	0.001652	28.0814	0.065921	0.002084	31.6363	-101.674	-166.34	-0.016598	0.921764	-0.139619	-0.140933	-0.033498	31.6363	-0.138825	-11.2421	0.002980	NaN
338	1.000000	0.963082	7.36837e+06	-55539.1	955.819	-29741.6	0.000000	0.000000	6.963130	0.004566	NaN	0.000000	0.001468	0.001730	28.0813	0.098784	0.001980	49.8891	86.5949	-162.218	0.057004	0.961726	-0.099614	-0.100971	0.004566	49.8891	-0.099683	-1.797772	-0.002540	NaN
338	1.000000	1.003086	7.36837e+06	-55539.1	955.819	-29741.6	0.000000	0.000000	7.003131	-0.049086	NaN	0.000000	0.001490	0.001729	28.0812	0.066231	0.002013	32.9056	148.58	-166.223	-0.039399	1.001768	-0.059610	-0.060928	-0.049086	32.9056	-0.058492	-0.162938	0.301255	NaN
338	1.000000	1.043093	7.36837e+06	-55539.1	955.818	-29741.6	0.000000	0.000000	7.043142	0.043998	NaN	0.000000	0.001486	0.001674	28.0801	0.112370	0.001948	57.6711	47.5891	-165.771	0.078504	1.041784	-0.019604	-0.020912	0.043998	57.6711	-0.020176	-0.012691	-3.466860	NaN
338	2.000000	1.074659	7.36837e+06	-55539.1	955.819	-29741.6	0.000000	0.000000	7.075211	12.2699	NaN	0.000000	0.001508	0.001767	28.0803	12.0952	0.001735	6969.53	8.643922	-174.582	12.0167	1.074350	0.011963	0.011654	12.2699	6969.53	0.010642	0.009904	1238.9	63984.4
338	2.000000	1.084584	7.36837e+06	-55539.1	955.818	-29741.6	0.000000	0.000000	7.086047	34.4244	NaN	0.000000	0.001523	0.001723	28.0805	23.2065	0.001781	13030.5	8.101479	179.65	32.6166	1.084284	0.021888	0.021588	34.4244	13030.5	0.019906	0.022395	1537.14	79552.9
338	2.000000	1.094540	7.36837e+06	-55539.1	955.819	-29741.6	0.000000	0.000000	7.097208	63.7133	NaN	0.000000	0.001497	0.001694	28.0818	33.29	0.001831	18183.6	4.420191	-178.481	62.0488	1.094266	0.031843	0.031570	63.7133	18183.6	0.029215	0.039133	1628.12	83981.1
338	2.000000	1.104567	7.36837e+06	-55539.1	955.818	-29741.6	0.000000	0.000000	7.108792	101.542	NaN	0.000000	0.001523	0.001707	28.0817	43.3355	0.001842	23521.2	3.678321	179.631	101.128	1.104150	0.041871	0.041454	101.542	23521.2	0.038633	0.060543	1677.18	87337.4
338	2.000000	1.114546	7.36837e+06	-55539.1	955.819	-29741.6	0.000000	0.000000	7.120743	149.496	NaN	0.000000	0.001515	0.001756	28.0816	53.4487	0.001683	31762.1	5.254768	175.642	148.719	1.114178	0.051850	0.051481	149.496	31762.1	0.048319	0.087290	1712.64	98220.2
338	2.000000	1.124470	7.36837e+06	-55539.1	955.818	-29741.6	0.000000	0.000000	7.132851	202.577	NaN	0.000000	0.001484	0.001711	28.0813	61.9097	0.001819	34040.3	6.772073	172.98	198.865	1.124166	0.061773	0.061470	202.577	34040.3	0.057310	0.116339	1741.25	91180.7
338	2.000000	1.134452	7.36838e+06	-55539.1	955.818	-29741.6	0.000000	0.000000	7.145333	263.348	NaN	0.000000	0.001504	0.001722	28.08	71.7915	0.001713	41913.4	5.102052	173.424	258.683	1.134200	0.071756	0.071503	263.348	41913.4	0.067043	0.152269	1729.5	98134.3
338	2.000000	1.144568	7.36838e+06	-55539.1	955.818	-29741.6	0.000000	0.000000	7.157888	322.637	NaN	0.000000	0.001550	0.001739	28.0801	82.3854	0.001826	45116.1	4.408845	173.597	322.786	1.144293	0.081872	0.081596	322.637	45116.1	0.076508	0.191566	1684.21	94177
338	2.000000	1.154411	7.36838e+06	-55539.1	955.819	-29741.6	0.000000	0.000000	7.171318	409.855	NaN	0.000000	0.001516	0.001718	28.08	91.3767	0.001853	49324	5.644478	171.802	405.97	1.154148	0.091714	0.091452	409.855	49324	0.085482	0.232707	1761.25	93417.3
338	2.000000	1.164387	7.36838e+06	-55539.1	955.82	-29741.6	0.000000	0.000000	7.184543	488.794	NaN	0.000000	0.001504	0.001748	28.0814	100.606	0.001817	55368.7	6.093928	170.582	483.56	1.164105	0.101691	0.101409	488.794	55368.7	0.095070	0.280769	1740.91	95469.1
338	2.000000	1.170520	7.36838e+06	-55539.1	955.82	-29741.6	0.000000	0.000000	7.192919	543.343	NaN	0.000000	0.001541	0.001761	28.0812	105.311	0.001697	62065.3	6.406630	170.046	543.38	1.170066	0.107824	0.107369	543.343	62065.3	0.101258	0.314019	1730.29	101191