File: remote_trans/data/nanoindenter/0828-1/data/Data_2025-08-06,11h17m57s/2025-07-22_16-23-58_1_1122.txt
2025-07-22, 16:23:58, 1
Index	Phase	Displacement	Time	Pos X	Pos Y	Pos Z	Rot A	Rot B	Piezo Z	Force A	Force B	Gripper	Voltage A	Voltage B	Temperature	Amplitude force	Amplitude pos	Stiffness	Phase shift	Phase excitation	Force A raw	Displacement raw	HMax	HMax raw	Real Force	Real Stiffness	Contact Depth	Area	Hardness	Reduced Mod.
[#]	[#]	[um]	[s]	[um]	[um]	[um]	[m°]	[m°]	[um]	[uN]	[uN]	[V]	[V]	[V]	[°C]	[uN]	[um]	[N/m]	[°]	[°]	[uN]	[um]	[um]	[um]	[uN]	[N/m]	[um]	[um^2]	[MPa]	[MPa]
1122	1.000000	0.002884	7.37603e+06	-56239.1	1055.82	-29739.5	0.000000	0.000000	6.002777	0.057463	NaN	0.000000	0.001550	0.001753	28.0824	0.011047	0.000959	11.5189	-31.3102	-163.96	0.050090	0.001644	-1.000442	-1.001682	0.057463	11.5189	-1.004184	-2.582801E+13	-2.224846E-15	NaN
1122	1.000000	0.040874	7.37603e+06	-56239.1	1055.82	-29739.5	0.000000	0.000000	6.040767	0.041328	NaN	0.000000	0.001546	0.001731	28.0825	0.071461	0.001945	36.7407	-179.608	16.3839	0.016577	0.039504	-0.962452	-0.963822	0.041328	36.7407	-0.963295	-7.265987E+12	-5.687938E-15	NaN
1122	1.000000	0.078870	7.37603e+06	-56239.1	1055.82	-29739.5	0.000000	0.000000	6.078762	0.030363	NaN	0.000000	0.001558	0.001723	28.0821	0.078411	0.001973	39.7366	10.6263	-164.466	-0.047171	0.077560	-0.924456	-0.925766	0.030363	39.7366	-0.925030	-2.213637E+12	-1.371640E-14	NaN
1122	1.000000	0.116871	7.37603e+06	-56239.1	1055.82	-29739.5	0.000000	0.000000	6.116764	0.060968	NaN	0.000000	0.001548	0.001768	28.0825	0.096921	0.002087	46.444	-127.657	14.9	0.002928	0.115498	-0.886455	-0.887828	0.060968	46.444	-0.887440	-6.875481E+11	-8.867461E-14	NaN
1122	1.000000	0.154903	7.37603e+06	-56239.1	1055.82	-29739.5	0.000000	0.000000	6.154796	0.046577	NaN	0.000000	0.001644	0.001761	28.081	0.063162	0.001963	32.183	146.339	-164.896	0.058560	0.153570	-0.848423	-0.849756	0.046577	32.183	-0.849508	-2.108999E+11	-2.208479E-13	NaN
1122	1.000000	0.192927	7.37603e+06	-56239.1	1055.82	-29739.5	0.000000	0.000000	6.192822	0.084469	NaN	0.000000	0.001608	0.001767	28.081	0.062054	0.001931	32.1319	40.587	11.7015	0.053959	0.191565	-0.810399	-0.811761	0.084469	32.1319	-0.812371	-6.618067E+10	-1.276337E-12	NaN
1122	1.000000	0.230916	7.37603e+06	-56239.1	1055.82	-29739.5	0.000000	0.000000	6.230809	0.041385	NaN	0.000000	0.001670	0.001730	28.0806	0.029043	0.001892	15.3495	111.617	-165.92	0.015902	0.229654	-0.772410	-0.773672	0.041385	15.3495	-0.774432	-2.020970E+10	-2.047794E-12	NaN
1122	1.000000	0.268909	7.37603e+06	-56239.1	1055.82	-29739.5	0.000000	0.000000	6.268802	0.039606	NaN	0.000000	0.001627	0.001753	28.0805	0.029563	0.002040	14.49	-69.6267	16.4547	-0.017248	0.267587	-0.734417	-0.735739	0.039606	14.49	-0.736467	-6.150774E+9	-6.439215E-12	NaN
1122	1.000000	0.306972	7.37603e+06	-56239.1	1055.82	-29739.5	0.000000	0.000000	6.306862	-0.040565	NaN	0.000000	0.001595	0.001745	28.0818	0.084818	0.002012	42.1582	-137.809	-164.378	0.028144	0.305679	-0.696354	-0.697647	-0.040565	42.1582	-0.695632	-1.705576E+9	2.378363E-11	NaN
1122	1.000000	0.344967	7.37603e+06	-56239.1	1055.82	-29739.5	0.000000	0.000000	6.344860	0.051602	NaN	0.000000	0.001566	0.001742	28.0817	0.040195	0.001991	20.1853	-61.6865	16.4532	0.003290	0.343644	-0.658359	-0.659682	0.051602	20.1853	-0.660277	-5.600922E+8	-9.213096E-11	NaN
1122	1.000000	0.382989	7.37603e+06	-56239.1	1055.82	-29739.5	0.000000	0.000000	6.382880	0.020518	NaN	0.000000	0.001577	0.001755	28.0816	0.071897	0.002004	35.8799	-114.338	-166.315	-0.009714	0.381633	-0.620338	-0.621693	0.020518	35.8799	-0.620766	-1.607563E+8	-1.276311E-10	NaN
1122	1.000000	0.421039	7.37603e+06	-56239.1	1055.82	-29739.5	0.000000	0.000000	6.420931	0.020804	NaN	0.000000	0.001617	0.001771	28.0805	0.144461	0.001983	72.8362	10.4592	16.6156	-0.010118	0.419612	-0.582287	-0.583714	0.020804	72.8362	-0.582501	-4.777924E+7	-4.354177E-10	NaN
1122	1.000000	0.459022	7.37603e+06	-56239.1	1055.82	-29739.5	0.000000	0.000000	6.458912	-0.001256	NaN	0.000000	0.001710	0.001741	28.0805	0.033723	0.002039	16.5353	178.89	-166.857	0.024179	0.457733	-0.544304	-0.545593	-0.001256	16.5353	-0.544248	-1.413350E+7	8.883343E-11	NaN
1122	1.000000	0.497043	7.37603e+06	-56239.1	1055.82	-29739.5	0.000000	0.000000	6.496937	0.087962	NaN	0.000000	0.001572	0.001760	28.0806	0.035234	0.001986	17.7367	116.165	12.0839	0.111424	0.495694	-0.506283	-0.507632	0.087962	17.7367	-0.510003	-4.72559e+06	-1.861404E-8	NaN
1122	1.000000	0.535070	7.37603e+06	-56239.1	1055.82	-29739.5	0.000000	0.000000	6.534961	0.002386	NaN	0.000000	0.001653	0.001756	28.0806	0.069989	0.002098	33.3632	-18.1704	-164.844	0.026455	0.533739	-0.468256	-0.469587	0.002386	33.3632	-0.468310	-1.23509e+06	-1.932179E-9	NaN
1122	1.000000	0.573096	7.37603e+06	-56239.1	1055.82	-29739.5	0.000000	0.000000	6.572987	-0.000935	NaN	0.000000	0.001616	0.001805	28.0819	0.052096	0.002052	25.393	-118.537	17.5017	-0.050082	0.571743	-0.430230	-0.431583	-0.000935	25.393	-0.430203	-358863	2.605427E-9	NaN
1122	1.000000	0.611073	7.37603e+06	-56239.1	1055.82	-29739.5	0.000000	0.000000	6.610962	-0.049407	NaN	0.000000	0.001546	0.001761	28.0819	0.008035	0.002045	3.929345	-148.994	-164.643	0.002309	0.609771	-0.392253	-0.393555	-0.049407	3.929345	-0.382823	-75923.8	6.507490E-7	NaN
1122	1.000000	0.649123	7.37603e+06	-56239.1	1055.82	-29739.5	0.000000	0.000000	6.649011	-0.057114	NaN	0.000000	0.001620	0.001766	28.0821	0.074691	0.002071	36.0588	21.3113	15.3792	-0.064093	0.647699	-0.354203	-0.355627	-0.057114	36.0588	-0.353015	-28231.8	2.023041E-6	NaN
1122	1.000000	0.687137	7.37603e+06	-56239.1	1055.82	-29739.5	0.000000	0.000000	6.687030	0.045140	NaN	0.000000	0.001568	0.001778	28.0806	0.013102	0.001907	6.872084	-72.7203	-167.948	0.033196	0.685845	-0.316189	-0.317481	0.045140	6.872084	-0.321115	-9661.62	-4.672120E-6	NaN
1122	1.000000	0.725137	7.37603e+06	-56239.1	1055.82	-29739.5	0.000000	0.000000	6.725025	-0.081232	NaN	0.000000	0.001654	0.001779	28.0807	0.118682	0.002046	58.0046	120.915	12.7151	-0.006121	0.723763	-0.278189	-0.279563	-0.081232	58.0046	-0.277138	-2136.76	3.801646E-5	NaN
1122	1.000000	0.763149	7.37603e+06	-56239.1	1055.82	-29739.5	0.000000	0.000000	6.763040	0.003252	NaN	0.000000	0.001574	0.001761	28.0807	0.117243	0.002014	58.224	-27.265	-163.554	0.085683	0.761830	-0.240177	-0.241497	0.003252	58.224	-0.240219	-579.389	-5.612536E-6	NaN
1122	1.000000	0.801157	7.37603e+06	-56239.1	1055.82	-29739.5	0.000000	0.000000	6.801052	0.106288	NaN	0.000000	0.001639	0.001745	28.0806	0.045302	0.001900	23.8371	113.192	18.2656	0.105457	0.799796	-0.202169	-0.203531	0.106288	23.8371	-0.205514	-162.156	-0.000655	NaN
1122	1.000000	0.839188	7.37603e+06	-56239.1	1055.82	-29739.5	0.000000	0.000000	6.839079	0.020996	NaN	0.000000	0.001669	0.001744	28.0824	0.015848	0.002074	7.641692	-74.8861	-166.129	0.007596	0.837896	-0.164138	-0.165430	0.020996	7.641692	-0.166199	-35.264	-0.000595	NaN
1122	1.000000	0.877197	7.37603e+06	-56239.1	1055.82	-29739.5	0.000000	0.000000	6.877088	-0.005855	NaN	0.000000	0.001605	0.001732	28.0821	0.043303	0.001869	23.1725	-79.6624	13.8106	-0.005924	0.875866	-0.126129	-0.127460	-0.005855	23.1725	-0.125939	-6.346734	0.000923	NaN
1122	1.000000	0.915220	7.37603e+06	-56239.1	1055.82	-29739.5	0.000000	0.000000	6.915109	-0.036101	NaN	0.000000	0.001566	0.001728	28.0821	0.140272	0.001968	71.2744	37.644	-166.238	-0.078461	0.913873	-0.088106	-0.089453	-0.036101	71.2744	-0.087726	-0.955210	0.037794	NaN
1122	1.000000	0.953244	7.37603e+06	-56239.1	1055.82	-29739.5	0.000000	0.000000	6.953136	0.045905	NaN	0.000000	0.001597	0.001737	28.0821	0.041821	0.001972	21.2022	-144.796	19.5309	0.036135	0.951889	-0.050083	-0.051437	0.045905	21.2022	-0.051706	-0.102724	-0.446881	NaN
1122	1.000000	0.991232	7.37603e+06	-56239.1	1055.82	-29739.5	0.000000	0.000000	6.991124	0.037965	NaN	0.000000	0.001580	0.001757	28.0814	0.189408	0.001989	95.2352	-171.17	-164.649	-0.031945	0.989999	-0.012095	-0.013327	0.037965	95.2352	-0.012393	-0.007754	-4.896386	NaN
1122	2.000000	1.013258	7.37603e+06	-56239.1	1055.82	-29739.5	0.000000	0.000000	7.013759	14.8329	NaN	0.000000	0.001622	0.001763	28.0809	15.418	0.001662	9279.36	5.442708	4.746905	13.7012	1.013016	0.009932	0.009690	14.8329	9279.36	0.008733	0.007807	1899.9	95949.6
1122	2.000000	1.022724	7.37603e+06	-56239.1	1055.82	-29739.5	0.000000	0.000000	7.024119	36.5663	NaN	0.000000	0.001569	0.001725	28.081	25.2486	0.001790	14107.3	6.122642	-178.451	35.2261	1.022421	0.019398	0.019095	36.5663	14107.3	0.017454	0.018698	1955.63	94258.6
1122	2.000000	1.032129	7.37603e+06	-56239.1	1055.82	-29739.5	0.000000	0.000000	7.034597	62.6387	NaN	0.000000	0.001596	0.001736	28.0833	34.7305	0.001702	20402.6	6.000267	-2.815696	59.7321	1.031881	0.028803	0.028555	62.6387	20402.6	0.026501	0.033803	1853.07	101387
1122	2.000000	1.041623	7.37603e+06	-56239.1	1055.82	-29739.5	0.000000	0.000000	7.045503	96.9541	NaN	0.000000	0.001603	0.001754	28.0827	43.1359	0.001805	23896.6	2.556850	-179.376	94.0122	1.041356	0.038297	0.038030	96.9541	23896.6	0.035254	0.052340	1852.4	95432
1122	2.000000	1.051202	7.37603e+06	-56239.1	1055.82	-29739.5	0.000000	0.000000	7.056521	131.935	NaN	0.000000	0.001594	0.001766	28.0822	53.4888	0.001852	28876.8	8.562580	-7.008411	133.352	1.050739	0.047876	0.047413	131.935	28876.8	0.044449	0.076032	1735.27	95680.7
1122	2.000000	1.060595	7.37603e+06	-56239.1	1055.82	-29739.5	0.000000	0.000000	7.067781	177.319	NaN	0.000000	0.001613	0.001713	28.0823	60.244	0.001686	35734.6	2.108055	177.04	172.682	1.060246	0.057269	0.056920	177.319	35734.6	0.053548	0.103693	1710.03	101388
1122	2.000000	1.070103	7.37603e+06	-56239.1	1055.82	-29739.5	0.000000	0.000000	7.079194	223.628	NaN	0.000000	0.001568	0.001780	28.0808	70.9406	0.001900	37346.1	5.271867	-6.285317	219.191	1.069749	0.066777	0.066423	223.628	37346.1	0.062286	0.134134	1667.2	93164.2
1122	2.000000	1.079619	7.37603e+06	-56239.1	1055.82	-29739.5	0.000000	0.000000	7.090725	272.62	NaN	0.000000	0.001573	0.001752	28.0809	79.0712	0.001744	45344.1	0.798709	176.275	271.807	1.079410	0.076293	0.076084	272.62	45344.1	0.071784	0.171419	1590.38	100061
1122	2.000000	1.089099	7.37603e+06	-56239.1	1055.82	-29739.5	0.000000	0.000000	7.102850	336.897	NaN	0.000000	0.001581	0.001767	28.0805	87.7907	0.001743	50353.4	3.267775	-6.592730	333.712	1.088778	0.085773	0.085452	336.897	50353.4	0.080755	0.210568	1599.94	100255
1122	2.000000	1.098653	7.37603e+06	-56239.1	1055.82	-29739.5	0.000000	0.000000	7.115099	402.407	NaN	0.000000	0.001645	0.001723	28.0824	94.9538	0.001728	54959.3	4.713825	171.657	405.667	1.098289	0.095327	0.094963	402.407	54959.3	0.089835	0.254006	1584.24	99630.4
1122	2.000000	1.106608	7.37603e+06	-56239.1	1055.82	-29739.5	0.000000	0.000000	7.125459	460.856	NaN	0.000000	0.001628	0.001738	28.0819	103.763	0.001755	59113	3.409963	171.156	461.496	1.106355	0.103282	0.103029	460.856	59113	0.097435	0.293270	1571.44	99729.3