File: remote_trans/data/nanoindenter/0828-1/data/Data_2025-08-06,11h17m57s/2025-07-22_16-23-58_1_1015.txt
2025-07-22, 16:23:58, 1
Index	Phase	Displacement	Time	Pos X	Pos Y	Pos Z	Rot A	Rot B	Piezo Z	Force A	Force B	Gripper	Voltage A	Voltage B	Temperature	Amplitude force	Amplitude pos	Stiffness	Phase shift	Phase excitation	Force A raw	Displacement raw	HMax	HMax raw	Real Force	Real Stiffness	Contact Depth	Area	Hardness	Reduced Mod.
[#]	[#]	[um]	[s]	[um]	[um]	[um]	[m°]	[m°]	[um]	[uN]	[uN]	[V]	[V]	[V]	[°C]	[uN]	[um]	[N/m]	[°]	[°]	[uN]	[um]	[um]	[um]	[uN]	[N/m]	[um]	[um^2]	[MPa]	[MPa]
1015	1.000000	0.003367	7.37498e+06	-50889.1	1055.82	-29754.1	0.000000	0.000000	6.002780	0.049562	NaN	0.000000	0.001553	0.001665	28.0844	0.103053	0.000927	111.178	49.913	170.725	0.062131	0.002076	-1.102736	-1.104027	0.049562	111.178	-1.103071	-5.511706E+14	-8.992097E-17	NaN
1015	1.000000	0.045266	7.37498e+06	-50889.1	1055.82	-29754.1	0.000000	0.000000	6.044678	0.011941	NaN	0.000000	0.001593	0.001695	28.0832	0.047680	0.001917	24.8672	177.696	-4.246853	0.028019	0.043884	-1.060837	-1.062220	0.011941	24.8672	-1.061197	-1.509767E+14	-7.908978E-17	NaN
1015	1.000000	0.087250	7.37498e+06	-50889.1	1055.82	-29754.1	0.000000	0.000000	6.086659	-0.056057	NaN	0.000000	0.001598	0.001695	28.0834	0.008408	0.001881	4.469228	-57.5246	176.665	0.016697	0.085938	-1.018853	-1.020165	-0.056057	4.469228	-1.009446	-3.040379E+13	1.843763E-15	NaN
1015	1.000000	0.129296	7.37498e+06	-50889.1	1055.82	-29754.1	0.000000	0.000000	6.128707	-0.012424	NaN	0.000000	0.001645	0.001685	28.0833	0.054677	0.001976	27.6756	-6.292545	-3.286363	-0.033187	0.127923	-0.976808	-0.978181	-0.012424	27.6756	-0.976471	-1.093609E+13	1.136096E-15	NaN
1015	1.000000	0.171333	7.37498e+06	-50889.1	1055.82	-29754.1	0.000000	0.000000	6.170746	0.030707	NaN	0.000000	0.001613	0.001735	28.085	0.053253	0.002151	24.7622	-73.0914	176.606	0.079839	0.170035	-0.934770	-0.936069	0.030707	24.7622	-0.935700	-3.084074E+12	-9.956696E-15	NaN
1015	1.000000	0.213361	7.37498e+06	-50889.1	1055.82	-29754.1	0.000000	0.000000	6.212772	0.002047	NaN	0.000000	0.001592	0.001681	28.0845	0.082531	0.002030	40.6464	134.691	-1.709155	-0.081476	0.211976	-0.892743	-0.894127	0.002047	40.6464	-0.892780	-8.118931E+11	-2.520733E-15	NaN
1015	1.000000	0.255355	7.37498e+06	-50889.1	1055.82	-29754.1	0.000000	0.000000	6.254765	-0.025950	NaN	0.000000	0.001589	0.001685	28.0845	0.069833	0.001962	35.5934	86.0143	175.951	0.048369	0.254030	-0.850749	-0.852073	-0.025950	35.5934	-0.850202	-2.155127E+11	1.204113E-13	NaN
1015	1.000000	0.297356	7.37498e+06	-50889.1	1055.82	-29754.1	0.000000	0.000000	6.296766	-0.024301	NaN	0.000000	0.001583	0.001668	28.0844	0.121375	0.001868	64.9719	-126.766	-6.056970	0.010408	0.296051	-0.808748	-0.810052	-0.024301	64.9719	-0.808467	-5.858324E+10	4.148042E-13	NaN
1015	1.000000	0.339375	7.37498e+06	-50889.1	1055.82	-29754.1	0.000000	0.000000	6.338788	0.039238	NaN	0.000000	0.001501	0.001665	28.0833	0.040600	0.001940	20.929	-33.604	177.946	-0.041000	0.338082	-0.766728	-0.768021	0.039238	20.929	-0.768134	-1.659337E+10	-2.364687E-12	NaN
1015	1.000000	0.381415	7.37498e+06	-50889.1	1055.82	-29754.1	0.000000	0.000000	6.380827	0.018927	NaN	0.000000	0.001519	0.001718	28.0834	0.102704	0.002091	49.1168	172.144	-0.045191	-0.022654	0.380092	-0.724688	-0.726011	0.018927	49.1168	-0.724977	-4.288834E+9	-4.413179E-12	NaN
1015	1.000000	0.423405	7.37498e+06	-50889.1	1055.82	-29754.1	0.000000	0.000000	6.422818	0.037278	NaN	0.000000	0.001509	0.001690	28.0835	0.025279	0.002059	12.2749	-27.6676	178.518	0.002129	0.422107	-0.682698	-0.683996	0.037278	12.2749	-0.684976	-1.219689E+9	-3.056390E-11	NaN
1015	1.000000	0.465428	7.37498e+06	-50889.1	1055.82	-29754.1	0.000000	0.000000	6.464840	-0.003074	NaN	0.000000	0.001562	0.001677	28.0846	0.120098	0.002038	58.9271	-82.6123	-1.395991	-0.008109	0.464085	-0.640675	-0.642018	-0.003074	58.9271	-0.640636	-3.013095E+8	1.020224E-11	NaN
1015	1.000000	0.507475	7.37498e+06	-50889.1	1055.82	-29754.1	0.000000	0.000000	6.506887	0.005041	NaN	0.000000	0.001555	0.001703	28.0844	0.147253	0.002111	69.7447	154.584	177.594	0.016522	0.506142	-0.598628	-0.599961	0.005041	69.7447	-0.598682	-7.985721E+7	-6.312736E-11	NaN
1015	1.000000	0.549477	7.37498e+06	-50889.1	1055.82	-29754.1	0.000000	0.000000	6.548886	-0.051854	NaN	0.000000	0.001559	0.001676	28.0845	0.018512	0.001960	9.446208	-177.181	-4.255855	0.001631	0.548158	-0.556626	-0.557945	-0.051854	9.446208	-0.552509	-1.839530E+7	2.818882E-9	NaN
1015	1.000000	0.591471	7.37498e+06	-50889.1	1055.82	-29754.1	0.000000	0.000000	6.590886	0.072770	NaN	0.000000	0.001527	0.001659	28.0835	0.085319	0.002075	41.1086	-40.4774	-176.025	0.048273	0.590134	-0.514632	-0.515970	0.072770	41.1086	-0.515960	-5.71988e+06	-1.272228E-8	NaN
1015	1.000000	0.633506	7.37498e+06	-50889.1	1055.82	-29754.1	0.000000	0.000000	6.632920	0.068856	NaN	0.000000	0.001548	0.001680	28.0833	0.145506	0.001952	74.5539	56.4363	0.317512	0.047521	0.632173	-0.472597	-0.473930	0.068856	74.5539	-0.473290	-1.45055e+06	-4.746893E-8	NaN
1015	1.000000	0.675526	7.37498e+06	-50889.1	1055.82	-29754.1	0.000000	0.000000	6.674938	0.020432	NaN	0.000000	0.001586	0.001624	28.0833	0.125312	0.001981	63.2646	-171.699	179.284	-0.043037	0.674232	-0.430578	-0.431871	0.020432	63.2646	-0.430820	-366149	-5.580158E-8	NaN
1015	1.000000	0.717552	7.37498e+06	-50889.1	1055.82	-29754.1	0.000000	0.000000	6.716965	0.032335	NaN	0.000000	0.001529	0.001744	28.0845	0.028435	0.001970	14.4352	154.176	-4.664834	-0.028974	0.716145	-0.388551	-0.389958	0.032335	14.4352	-0.390231	-96932.9	-3.335855E-7	NaN
1015	1.000000	0.759554	7.37498e+06	-50889.1	1055.82	-29754.1	0.000000	0.000000	6.758965	0.004254	NaN	0.000000	0.001567	0.001720	28.0845	0.021531	0.002028	10.618	-59.8414	177.923	0.033627	0.758264	-0.346550	-0.347839	0.004254	10.618	-0.346850	-22974.9	-1.851423E-7	NaN
1015	1.000000	0.801577	7.37498e+06	-50889.1	1055.82	-29754.1	0.000000	0.000000	6.800984	-0.104712	NaN	0.000000	0.001565	0.001701	28.0846	0.084251	0.002043	41.2374	-43.4107	-2.607619	-0.060838	0.800201	-0.304526	-0.305903	-0.104712	41.2374	-0.302621	-5147.89	2.034085E-5	NaN
1015	1.000000	0.843593	7.37498e+06	-50889.1	1055.82	-29754.1	0.000000	0.000000	6.843002	-0.042058	NaN	0.000000	0.001586	0.001696	28.0851	0.093265	0.001953	47.7464	74.4461	175.883	-0.080142	0.842333	-0.262511	-0.263770	-0.042058	47.7464	-0.261850	-1250.98	3.362004E-5	NaN
1015	1.000000	0.885637	7.37498e+06	-50889.1	1055.82	-29754.1	0.000000	0.000000	6.885049	0.022633	NaN	0.000000	0.001563	0.001688	28.0836	0.101357	0.002059	49.2271	157.755	-5.535164	-0.016796	0.884278	-0.220466	-0.221825	0.022633	49.2271	-0.220811	-286.174	-7.908956E-5	NaN
1015	1.000000	0.927643	7.37498e+06	-50889.1	1055.82	-29754.1	0.000000	0.000000	6.927056	0.027896	NaN	0.000000	0.001587	0.001714	28.0835	0.024086	0.002015	11.9529	16.1658	170.232	0.018790	0.926294	-0.178460	-0.179809	0.027896	11.9529	-0.180210	-61.5238	-0.000453	NaN
1015	1.000000	0.969662	7.37498e+06	-50889.1	1055.82	-29754.1	0.000000	0.000000	6.969076	0.058902	NaN	0.000000	0.001568	0.001719	28.0836	0.011186	0.002090	5.351759	-96.7644	-4.826042	0.047880	0.968241	-0.136441	-0.137862	0.058902	5.351759	-0.144696	-14.4723	-0.004070	NaN
1015	1.000000	1.011676	7.37498e+06	-50889.1	1055.82	-29754.1	0.000000	0.000000	7.011088	0.016094	NaN	0.000000	0.001525	0.001706	28.0851	0.020933	0.002012	10.4058	-22.1904	177.203	0.005963	1.010345	-0.094427	-0.095759	0.016094	10.4058	-0.095587	-1.454704	-0.011063	NaN
1015	1.000000	1.053685	7.37498e+06	-50889.1	1055.82	-29754.1	0.000000	0.000000	7.053095	-0.024849	NaN	0.000000	0.001572	0.001739	28.0848	0.027432	0.001935	14.1735	-36.0791	-4.619707	-0.001538	1.052338	-0.052419	-0.053766	-0.024849	14.1735	-0.051104	-0.098526	0.252205	NaN
1015	1.000000	1.095679	7.37498e+06	-50889.1	1055.82	-29754.1	0.000000	0.000000	7.095091	0.005154	NaN	0.000000	0.001550	0.001718	28.0849	0.075521	0.001944	38.8486	18.1967	177.211	0.020833	1.094391	-0.010424	-0.011712	0.005154	38.8486	-0.010523	-0.006686	-0.770764	NaN
1015	2.000000	1.117783	7.37498e+06	-50889.1	1055.82	-29754.1	0.000000	0.000000	7.117858	16.156	NaN	0.000000	0.001618	0.001746	28.0834	16.1694	0.001815	8909.89	10.8234	-15.5269	15.7147	1.117465	0.011679	0.011362	16.156	8909.89	0.010319	0.009538	1693.78	83350.3
1015	2.000000	1.128343	7.37498e+06	-50889.1	1055.82	-29754.1	0.000000	0.000000	7.129332	38.3655	NaN	0.000000	0.001587	0.001716	28.0828	28.0072	0.001736	16128.8	11.965	158.473	41.1367	1.127888	0.022240	0.021785	38.3655	16128.8	0.020456	0.023263	1649.18	96613.6
1015	2.000000	1.138700	7.37498e+06	-50889.1	1055.82	-29754.1	0.000000	0.000000	7.140560	59.5382	NaN	0.000000	0.001573	0.001773	28.0835	38.7873	0.001765	21974	4.063375	-19.6003	57.05	1.138424	0.032597	0.032321	59.5382	21974	0.030565	0.041922	1420.21	98052.8
1015	2.000000	1.149226	7.37498e+06	-50889.1	1055.82	-29754.1	0.000000	0.000000	7.152734	99.607	NaN	0.000000	0.001565	0.001731	28.0847	50.3527	0.001770	28445.3	5.552791	157.449	98.834	1.148853	0.043123	0.042750	99.607	28445.3	0.040497	0.065319	1524.94	101687
1015	2.000000	1.159638	7.37498e+06	-50889.1	1055.82	-29754.1	0.000000	0.000000	7.165390	154.188	NaN	0.000000	0.001592	0.001735	28.0848	60.5971	0.001610	37648.2	2.822320	-22.9509	148.771	1.159338	0.053535	0.053234	154.188	37648.2	0.050463	0.093851	1642.9	112279
1015	2.000000	1.170185	7.37498e+06	-50889.1	1055.82	-29754.1	0.000000	0.000000	7.179280	235.486	NaN	0.000000	0.001616	0.001770	28.0848	74.2665	0.001783	41651.8	4.285241	155.227	233.074	1.169826	0.064082	0.063723	235.486	41651.8	0.059841	0.125240	1880.28	107532
1015	2.000000	1.180763	7.37498e+06	-50889.1	1055.82	-29754.1	0.000000	0.000000	7.193686	328.576	NaN	0.000000	0.001621	0.001748	28.0847	88.972	0.001833	48531.5	7.488036	-30.037	331.279	1.180452	0.074659	0.074349	328.576	48531.5	0.069582	0.162390	2023.38	110032
1015	2.000000	1.191076	7.37498e+06	-50889.1	1055.82	-29754.1	0.000000	0.000000	7.209264	456.608	NaN	0.000000	0.001595	0.001718	28.0837	99.1197	0.001821	54417.7	2.541379	154.455	449.799	1.190769	0.084972	0.084666	456.608	54417.7	0.078679	0.201175	2269.7	110848
1015	2.000000	1.201556	7.37498e+06	-50889.1	1055.82	-29754.1	0.000000	0.000000	7.225818	604.283	NaN	0.000000	0.001595	0.001752	28.0834	108.525	0.001695	64009.9	5.499652	-29.2035	597.974	1.201150	0.095453	0.095047	604.283	64009.9	0.088373	0.246753	2448.94	117730
1015	2.000000	1.209565	7.37498e+06	-50889.1	1055.82	-29754.1	0.000000	0.000000	7.238596	720.256	NaN	0.000000	0.001615	0.001765	28.0834	117.113	0.001700	68890.4	4.729150	-29.2657	711.967	1.209185	0.103462	0.103082	720.256	68890.4	0.095621	0.283659	2539.16	118177