File: remote_trans/data/nanoindenter/0828-1/data/Data_2025-08-06,11h17m57s/2025-07-22_16-23-58_1_375.txt
2025-07-22, 16:23:58, 1
Index	Phase	Displacement	Time	Pos X	Pos Y	Pos Z	Rot A	Rot B	Piezo Z	Force A	Force B	Gripper	Voltage A	Voltage B	Temperature	Amplitude force	Amplitude pos	Stiffness	Phase shift	Phase excitation	Force A raw	Displacement raw	HMax	HMax raw	Real Force	Real Stiffness	Contact Depth	Area	Hardness	Reduced Mod.
[#]	[#]	[um]	[s]	[um]	[um]	[um]	[m°]	[m°]	[um]	[uN]	[uN]	[V]	[V]	[V]	[°C]	[uN]	[um]	[N/m]	[°]	[°]	[uN]	[um]	[um]	[um]	[uN]	[N/m]	[um]	[um^2]	[MPa]	[MPa]
375	1.000000	0.002382	7.36873e+06	-57389.1	955.819	-29737.3	0.000000	0.000000	6.002806	-0.042710	NaN	0.000000	0.001682	0.001639	28.0789	0.159612	0.000982	162.498	-37.6779	-171.643	0.030164	0.001162	-1.104861	-1.106080	-0.042710	162.498	-1.104663	-5.789819E+14	7.376786E-17	NaN
375	1.000000	0.044314	7.36873e+06	-57389.1	955.818	-29737.3	0.000000	0.000000	6.044739	-0.031644	NaN	0.000000	0.001680	0.001647	28.0803	0.064166	0.001979	32.4276	141.596	15.8311	-0.023195	0.042987	-1.062928	-1.064255	-0.031644	32.4276	-1.062196	-1.557149E+14	2.032153E-16	NaN
375	1.000000	0.086326	7.36873e+06	-57389.1	955.818	-29737.3	0.000000	0.000000	6.086751	-0.038874	NaN	0.000000	0.001636	0.001665	28.0801	0.095762	0.001953	49.0255	61.7023	-168.08	-0.035710	0.085018	-1.020916	-1.022224	-0.038874	49.0255	-1.020321	-4.258634E+13	9.128236E-16	NaN
375	1.000000	0.128338	7.36873e+06	-57389.1	955.819	-29737.3	0.000000	0.000000	6.128764	-0.007539	NaN	0.000000	0.001587	0.001664	28.08	0.178487	0.001951	91.4749	-158.012	15.0831	-0.002361	0.127023	-0.978904	-0.980219	-0.007539	91.4749	-0.978842	-1.177106E+13	6.405012E-16	NaN
375	1.000000	0.170362	7.36873e+06	-57389.1	955.819	-29737.3	0.000000	0.000000	6.170789	0.022371	NaN	0.000000	0.001607	0.001593	28.0788	0.118457	0.001918	61.7711	-143.512	-167.112	0.031824	0.169069	-0.936880	-0.938173	0.022371	61.7711	-0.937151	-3.226287E+12	-6.933943E-15	NaN
375	1.000000	0.212409	7.36873e+06	-57389.1	955.818	-29737.3	0.000000	0.000000	6.212833	-0.061137	NaN	0.000000	0.001653	0.001657	28.0789	0.058682	0.002011	29.177	-131.453	12.731	-0.007067	0.211015	-0.894833	-0.896227	-0.061137	29.177	-0.893262	-8.241409E+11	7.418222E-14	NaN
375	1.000000	0.254428	7.36873e+06	-57389.1	955.817	-29737.3	0.000000	0.000000	6.254852	-0.058958	NaN	0.000000	0.001697	0.001666	28.0788	0.044990	0.002093	21.4924	-95.5084	-165.869	0.064885	0.253100	-0.852814	-0.854142	-0.058958	21.4924	-0.850757	-2.192744E+11	2.688759E-13	NaN
375	1.000000	0.296441	7.36873e+06	-57389.1	955.818	-29737.3	0.000000	0.000000	6.296867	-0.009103	NaN	0.000000	0.001643	0.001666	28.0799	0.041703	0.001995	20.9081	-149.596	14.9695	-0.055810	0.295025	-0.810801	-0.812217	-0.009103	20.9081	-0.810474	-6.237469E+10	1.459406E-13	NaN
375	1.000000	0.338443	7.36873e+06	-57389.1	955.819	-29737.3	0.000000	0.000000	6.338869	-0.002635	NaN	0.000000	0.001629	0.001650	28.0798	0.050012	0.001969	25.3945	-124.653	-166.837	-0.011190	0.337150	-0.768799	-0.770092	-0.002635	25.3945	-0.768722	-1.690145E+10	1.558928E-13	NaN
375	1.000000	0.380463	7.36873e+06	-57389.1	955.818	-29737.3	0.000000	0.000000	6.380888	-0.009105	NaN	0.000000	0.001608	0.001608	28.0799	0.049730	0.001928	25.7875	-16.413	17.3497	0.040438	0.379084	-0.726779	-0.728159	-0.009105	25.7875	-0.726515	-4.500918E+9	2.022897E-12	NaN
375	1.000000	0.422461	7.36873e+06	-57389.1	955.819	-29737.3	0.000000	0.000000	6.422891	0.093977	NaN	0.000000	0.001633	0.001673	28.0799	0.054114	0.001900	28.4873	40.0525	-166.665	0.073030	0.421229	-0.684781	-0.686013	0.093977	28.4873	-0.687255	-1.310400E+9	-7.171622E-11	NaN
375	1.000000	0.464481	7.36873e+06	-57389.1	955.818	-29737.3	0.000000	0.000000	6.464907	-0.002147	NaN	0.000000	0.001636	0.001661	28.0791	0.020596	0.002011	10.2443	176.15	13.9816	0.046488	0.463151	-0.642761	-0.644092	-0.002147	10.2443	-0.642604	-3.206369E+8	6.696114E-12	NaN
375	1.000000	0.506516	7.36873e+06	-57389.1	955.819	-29737.3	0.000000	0.000000	6.506944	0.051692	NaN	0.000000	0.001609	0.001627	28.0789	0.132069	0.001857	71.1076	-112.899	-166.277	0.005476	0.505122	-0.600727	-0.602120	0.051692	71.1076	-0.601272	-8.669116E+7	-5.962766E-10	NaN
375	1.000000	0.548538	7.36873e+06	-57389.1	955.818	-29737.3	0.000000	0.000000	6.548965	0.038544	NaN	0.000000	0.001660	0.001624	28.0787	0.010371	0.002043	5.074986	117.268	15.71	0.073876	0.547203	-0.558704	-0.560039	0.038544	5.074986	-0.564401	-2.686824E+7	-1.434563E-9	NaN
375	1.000000	0.590544	7.36873e+06	-57389.1	955.818	-29737.3	0.000000	0.000000	6.590970	0.006983	NaN	0.000000	0.001641	0.001649	28.0799	0.079117	0.001981	39.9405	73.8131	-166.868	0.034921	0.589237	-0.516698	-0.518005	0.006983	39.9405	-0.516829	-5.88153e+06	-1.187221E-9	NaN
375	1.000000	0.632584	7.36873e+06	-57389.1	955.819	-29737.3	0.000000	0.000000	6.633010	-0.001278	NaN	0.000000	0.001618	0.001658	28.0798	0.022366	0.002023	11.057	128.658	11.88	0.004963	0.631156	-0.474658	-0.476086	-0.001278	11.057	-0.474572	-1.51181e+06	8.454921E-10	NaN
375	1.000000	0.674561	7.36873e+06	-57389.1	955.819	-29737.3	0.000000	0.000000	6.674988	0.036886	NaN	0.000000	0.001611	0.001667	28.08	0.095894	0.001919	49.96	-44.8699	-164.86	-0.013226	0.673319	-0.432681	-0.433923	0.036886	49.96	-0.433235	-396105	-9.312081E-8	NaN
375	1.000000	0.716614	7.36873e+06	-57389.1	955.819	-29737.3	0.000000	0.000000	6.717038	-0.059515	NaN	0.000000	0.001592	0.001631	28.0784	0.072459	0.001929	37.5679	131.461	14.0254	-0.028404	0.715287	-0.390628	-0.391955	-0.059515	37.5679	-0.389440	-94439	6.301955E-7	NaN
375	1.000000	0.758634	7.36873e+06	-57389.1	955.819	-29737.3	0.000000	0.000000	6.759061	0.019198	NaN	0.000000	0.001595	0.001676	28.0787	0.071219	0.002005	35.5261	-172.868	-167.674	0.020611	0.757267	-0.348608	-0.349975	0.019198	35.5261	-0.349013	-24698.9	-7.772708E-7	NaN
375	1.000000	0.800612	7.36873e+06	-57389.1	955.818	-29737.3	0.000000	0.000000	6.801037	-0.016452	NaN	0.000000	0.001617	0.001635	28.0786	0.051139	0.002183	23.4212	-68.3859	14.8444	0.054769	0.799295	-0.306630	-0.307947	-0.016452	23.4212	-0.306104	-5798.68	2.837156E-6	NaN
375	1.000000	0.842629	7.36873e+06	-57389.1	955.819	-29737.3	0.000000	0.000000	6.843055	0.013922	NaN	0.000000	0.001597	0.001673	28.0797	0.018201	0.001886	9.649196	108.546	-164.288	0.018634	0.841366	-0.264613	-0.265876	0.013922	9.649196	-0.265696	-1432.19	-9.720670E-6	NaN
375	1.000000	0.884643	7.36873e+06	-57389.1	955.819	-29737.3	0.000000	0.000000	6.885067	-0.068920	NaN	0.000000	0.001577	0.001639	28.0797	0.063469	0.001955	32.4592	82.8687	13.9505	-0.062322	0.883344	-0.222599	-0.223899	-0.068920	32.4592	-0.221006	-288.235	0.000239	NaN
375	1.000000	0.926721	7.36874e+06	-57389.1	955.819	-29737.3	0.000000	0.000000	6.927144	-0.082554	NaN	0.000000	0.001578	0.001616	28.0797	0.074647	0.001916	38.9602	41.1614	-166.439	-0.008238	0.925346	-0.180521	-0.181896	-0.082554	38.9602	-0.178932	-58.5166	0.001411	NaN
375	1.000000	0.968721	7.36874e+06	-57389.1	955.82	-29737.3	0.000000	0.000000	6.969147	-0.005789	NaN	0.000000	0.001651	0.001691	28.0797	0.023868	0.002028	11.7705	-8.292019	15.4383	0.055196	0.967333	-0.138521	-0.139909	-0.005789	11.7705	-0.138152	-10.9182	0.000530	NaN
375	1.000000	1.010729	7.36874e+06	-57389.1	955.819	-29737.3	0.000000	0.000000	7.011154	-0.045606	NaN	0.000000	0.001701	0.001650	28.0785	0.039977	0.002041	19.5903	-137.328	-164.384	0.023603	1.009473	-0.096513	-0.097769	-0.045606	19.5903	-0.094767	-1.393475	0.032728	NaN
375	1.000000	1.052710	7.36874e+06	-57389.1	955.819	-29737.3	0.000000	0.000000	7.053135	-0.033609	NaN	0.000000	0.001600	0.001659	28.0783	0.122095	0.002050	59.5622	-112.732	14.2051	-0.004070	1.051403	-0.054532	-0.055839	-0.033609	59.5622	-0.054109	-0.121181	0.277349	NaN
375	1.000000	1.094725	7.36874e+06	-57389.1	955.821	-29737.3	0.000000	0.000000	7.095148	-0.090845	NaN	0.000000	0.001691	0.001642	28.0783	0.088631	0.002015	43.9755	-119.029	-164.068	-0.094101	1.093485	-0.012517	-0.013757	-0.090845	43.9755	-0.010967	-0.006939	13.0912	NaN
375	2.000000	1.119864	7.36874e+06	-57389.1	955.82	-29737.3	0.000000	0.000000	7.120915	15.174	NaN	0.000000	0.001650	0.001639	28.0796	14.0403	0.001934	7260.88	6.998629	5.453497	14.2677	1.119496	0.012622	0.012254	15.174	7260.88	0.011055	0.010377	1462.24	65121.1
375	2.000000	1.130296	7.36874e+06	-57389.1	955.821	-29737.3	0.000000	0.000000	7.132054	32.3789	NaN	0.000000	0.001656	0.001616	28.0798	22.7783	0.001735	13127.8	-0.081937	-172.6	30.7384	1.129925	0.023054	0.022683	32.3789	13127.8	0.021204	0.024469	1323.24	76675
375	2.000000	1.140750	7.36874e+06	-57389.1	955.82	-29737.3	0.000000	0.000000	7.143456	55.417	NaN	0.000000	0.001690	0.001615	28.08	33.1443	0.001766	18770.6	4.407309	-0.415478	51.7744	1.140443	0.033508	0.033201	55.417	18770.6	0.031294	0.043468	1274.89	82255.9
375	2.000000	1.151294	7.36874e+06	-57389.1	955.82	-29737.3	0.000000	0.000000	7.155472	91.1934	NaN	0.000000	0.001602	0.001621	28.0786	43.4132	0.001889	22986.9	7.162269	176.494	90.731	1.150934	0.044052	0.043692	91.1934	22986.9	0.041077	0.066840	1364.35	81233.3
375	2.000000	1.161803	7.36874e+06	-57389.1	955.819	-29737.3	0.000000	0.000000	7.167686	132.627	NaN	0.000000	0.001632	0.001609	28.0787	54.1938	0.001950	27788.1	11.2447	-9.835086	133.717	1.161445	0.054561	0.054203	132.627	27788.1	0.050981	0.095470	1389.2	82167.1
375	2.000000	1.172336	7.36874e+06	-57389.1	955.82	-29737.3	0.000000	0.000000	7.180317	183.618	NaN	0.000000	0.001572	0.001598	28.0786	65.6141	0.001803	36389.6	5.987287	173.321	186.129	1.171964	0.065094	0.064721	183.618	36389.6	0.061309	0.130546	1406.54	92017.3
375	2.000000	1.182874	7.36874e+06	-57389.1	955.819	-29737.3	0.000000	0.000000	7.193129	238.877	NaN	0.000000	0.001586	0.001643	28.0799	77.3214	0.001792	43148.4	5.669111	-7.794133	244.999	1.182488	0.075632	0.075246	238.877	43148.4	0.071480	0.170160	1403.84	95567.3
375	2.000000	1.193142	7.36874e+06	-57389.1	955.82	-29737.3	0.000000	0.000000	7.206131	305.348	NaN	0.000000	0.001589	0.001619	28.0798	85.4834	0.001788	47802.3	0.765231	175.761	299.797	1.192850	0.085899	0.085608	305.348	47802.3	0.081109	0.212189	1439.04	94811.4
375	2.000000	1.203651	7.36874e+06	-57389.1	955.82	-29737.3	0.000000	0.000000	7.219722	380.242	NaN	0.000000	0.001574	0.001601	28.08	95.1586	0.001807	52649.6	5.119558	-8.790718	375.495	1.203187	0.096409	0.095945	380.242	52649.6	0.090992	0.259814	1463.52	94370.7
375	2.000000	1.212977	7.36874e+06	-57389.1	955.819	-29737.3	0.000000	0.000000	7.230428	413.787	NaN	0.000000	0.001580	0.001671	28.0801	104.362	0.001884	55404.9	3.518447	-8.017238	426.755	1.212820	0.105735	0.105578	413.787	55404.9	0.100134	0.307849	1344.12	91233