File: remote_trans/data/nanoindenter/0828-1/data/Data_2025-08-06,11h17m57s/2025-07-22_16-23-58_1_689.txt
2025-07-22, 16:23:58, 1
Index	Phase	Displacement	Time	Pos X	Pos Y	Pos Z	Rot A	Rot B	Piezo Z	Force A	Force B	Gripper	Voltage A	Voltage B	Temperature	Amplitude force	Amplitude pos	Stiffness	Phase shift	Phase excitation	Force A raw	Displacement raw	HMax	HMax raw	Real Force	Real Stiffness	Contact Depth	Area	Hardness	Reduced Mod.
[#]	[#]	[um]	[s]	[um]	[um]	[um]	[m°]	[m°]	[um]	[uN]	[uN]	[V]	[V]	[V]	[°C]	[uN]	[um]	[N/m]	[°]	[°]	[uN]	[um]	[um]	[um]	[uN]	[N/m]	[um]	[um^2]	[MPa]	[MPa]
689	1.000000	0.002698	7.37179e+06	-42639.1	1005.82	-29781.9	0.000000	0.000000	6.002787	-0.062611	NaN	0.000000	0.001724	0.001742	28.0803	0.111676	0.000955	116.957	139.961	-167.662	-0.081512	0.001404	-1.178033	-1.179327	-0.062611	116.957	-1.177632	-5.509919E+15	1.136324E-17	NaN
689	1.000000	0.046649	7.37179e+06	-42639.1	1005.82	-29781.9	0.000000	0.000000	6.046739	-0.041952	NaN	0.000000	0.001777	0.001748	28.0807	0.096343	0.002043	47.1579	-53.0073	-167.585	0.020340	0.045355	-1.134082	-1.135376	-0.041952	47.1579	-1.133414	-1.407401E+15	2.980841E-17	NaN
689	1.000000	0.090675	7.37179e+06	-42639.1	1005.82	-29781.9	0.000000	0.000000	6.090770	0.080355	NaN	0.000000	0.001721	0.001737	28.0807	0.014112	0.001918	7.359536	-151.697	-164.317	-0.019807	0.089369	-1.090056	-1.091362	0.080355	7.359536	-1.098245	-4.747980E+14	-1.692410E-16	NaN
689	1.000000	0.134673	7.37179e+06	-42639.1	1005.82	-29781.9	0.000000	0.000000	6.134767	0.039408	NaN	0.000000	0.001755	0.001756	28.0814	0.061199	0.001968	31.0957	-140.087	-166.468	0.026621	0.133356	-1.046058	-1.047375	0.039408	31.0957	-1.047008	-9.731799E+13	-4.049421E-16	NaN
689	1.000000	0.178716	7.37179e+06	-42639.1	1005.82	-29781.9	0.000000	0.000000	6.178806	-0.044770	NaN	0.000000	0.001715	0.001720	28.0816	0.098195	0.002077	47.2675	-130.909	-166.041	-0.059415	0.177317	-1.002015	-1.003414	-0.044770	47.2675	-1.001305	-2.362301E+13	1.895174E-15	NaN
689	1.000000	0.222701	7.37179e+06	-42639.1	1005.82	-29781.9	0.000000	0.000000	6.222795	0.044285	NaN	0.000000	0.001732	0.001728	28.0816	0.051522	0.002015	25.572	-125.799	-164.158	0.045567	0.221458	-0.958030	-0.959273	0.044285	25.572	-0.959329	-6.424203E+12	-6.893457E-15	NaN
689	1.000000	0.266750	7.37179e+06	-42639.1	1005.82	-29781.9	0.000000	0.000000	6.266844	0.062610	NaN	0.000000	0.001718	0.001785	28.0807	0.042623	0.002106	20.2425	148.193	-168.12	0.062901	0.265456	-0.913981	-0.915275	0.062610	20.2425	-0.916301	-1.687555E+12	-3.710120E-14	NaN
689	1.000000	0.310798	7.37179e+06	-42639.1	1005.82	-29781.9	0.000000	0.000000	6.310890	0.000987	NaN	0.000000	0.001738	0.001799	28.0804	0.054364	0.002072	26.2325	143.609	-165.882	-0.024534	0.309505	-0.869933	-0.871226	0.000987	26.2325	-0.869961	-3.989500E+11	-2.473389E-15	NaN
689	1.000000	0.354758	7.37179e+06	-42639.1	1005.82	-29781.9	0.000000	0.000000	6.354852	0.055128	NaN	0.000000	0.001707	0.001797	28.0805	0.094397	0.002018	46.7688	85.4228	-163.286	0.010047	0.353438	-0.825973	-0.827293	0.055128	46.7688	-0.826857	-1.040352E+11	-5.299007E-13	NaN
689	1.000000	0.398787	7.37179e+06	-42639.1	1005.82	-29781.9	0.000000	0.000000	6.398875	-0.089517	NaN	0.000000	0.001679	0.001814	28.0818	0.084918	0.001982	42.85	-93.7583	-163.351	-0.153909	0.397467	-0.781944	-0.783264	-0.089517	42.85	-0.780377	-2.434174E+10	3.677530E-12	NaN
689	1.000000	0.442790	7.37179e+06	-42639.1	1005.82	-29781.9	0.000000	0.000000	6.442880	-0.030823	NaN	0.000000	0.001732	0.001792	28.0818	0.048821	0.001960	24.9099	-108.023	-164.992	-0.039811	0.441498	-0.737941	-0.739233	-0.030823	24.9099	-0.737013	-6.257033E+9	4.926068E-12	NaN
689	1.000000	0.486834	7.37179e+06	-42639.1	1005.82	-29781.9	0.000000	0.000000	6.486925	-0.001441	NaN	0.000000	0.001716	0.001768	28.0819	0.059688	0.002011	29.6738	4.293113	-165.377	-0.045913	0.485522	-0.693897	-0.695209	-0.001441	29.6738	-0.693861	-1.613147E+9	8.931666E-13	NaN
689	1.000000	0.530876	7.37179e+06	-42639.1	1005.82	-29781.9	0.000000	0.000000	6.530968	0.011876	NaN	0.000000	0.001673	0.001797	28.0808	0.017164	0.002033	8.441920	135.342	-164.023	0.086752	0.529524	-0.649855	-0.651207	0.011876	8.441920	-0.650910	-4.167853E+8	-2.849517E-11	NaN
689	1.000000	0.574893	7.37179e+06	-42639.1	1005.82	-29781.9	0.000000	0.000000	6.574986	0.020881	NaN	0.000000	0.001676	0.001816	28.0806	0.078054	0.002007	38.8889	91.4403	-167.646	0.047817	0.573583	-0.605838	-0.607148	0.020881	38.8889	-0.606241	-1.014803E+8	-2.057658E-10	NaN
689	1.000000	0.618887	7.37179e+06	-42639.1	1005.82	-29781.9	0.000000	0.000000	6.618979	0.006945	NaN	0.000000	0.001700	0.001862	28.0807	0.069290	0.002117	32.7372	-78.3916	-168.017	-0.014806	0.617576	-0.561844	-0.563155	0.006945	32.7372	-0.562003	-2.489329E+7	-2.789852E-10	NaN
689	1.000000	0.662927	7.37179e+06	-42639.1	1005.82	-29781.9	0.000000	0.000000	6.663019	0.010335	NaN	0.000000	0.001728	0.001799	28.0819	0.053870	0.002013	26.7589	-85.3786	-165.715	0.058183	0.661614	-0.517804	-0.519117	0.010335	26.7589	-0.518094	-6.12469e+06	-1.687397E-9	NaN
689	1.000000	0.706923	7.37179e+06	-42639.1	1005.82	-29781.9	0.000000	0.000000	6.707014	-0.016823	NaN	0.000000	0.001714	0.001871	28.082	0.066704	0.001930	34.5637	-19.7616	-167.169	-0.050601	0.705634	-0.473808	-0.475097	-0.016823	34.5637	-0.473443	-1.45772e+06	1.154043E-8	NaN
689	1.000000	0.750954	7.37179e+06	-42639.1	1005.82	-29781.9	0.000000	0.000000	6.751044	-0.038663	NaN	0.000000	0.001699	0.001765	28.0816	0.076453	0.001909	40.0562	49.8448	-167.015	-0.026664	0.749648	-0.429777	-0.431083	-0.038663	40.0562	-0.429053	-345667	1.118498E-7	NaN
689	1.000000	0.794945	7.37179e+06	-42639.1	1005.82	-29781.9	0.000000	0.000000	6.795038	0.045869	NaN	0.000000	0.001759	0.001794	28.0804	0.071599	0.002044	35.034	-129.843	-168.061	0.029147	0.793627	-0.385786	-0.387104	0.045869	35.034	-0.386768	-86479.8	-5.303986E-7	NaN
689	1.000000	0.838958	7.37179e+06	-42639.1	1005.82	-29781.9	0.000000	0.000000	6.839049	-0.030229	NaN	0.000000	0.001778	0.001789	28.0801	0.039873	0.001909	20.8869	-69.949	-166.162	0.003115	0.837659	-0.341773	-0.343072	-0.030229	20.8869	-0.340687	-18688.3	1.617514E-6	NaN
689	1.000000	0.883038	7.37179e+06	-42639.1	1005.82	-29781.9	0.000000	0.000000	6.883130	0.016116	NaN	0.000000	0.001714	0.001829	28.0803	0.009014	0.002080	4.332635	150.543	-164.736	-0.007710	0.881647	-0.297693	-0.299084	0.016116	4.332635	-0.300483	-4784.36	-3.368422E-6	NaN
689	1.000000	0.926995	7.37179e+06	-42639.1	1005.82	-29781.9	0.000000	0.000000	6.927087	0.011900	NaN	0.000000	0.001706	0.001796	28.0816	0.092930	0.001906	48.7475	41.0201	-167.392	0.071153	0.925695	-0.253736	-0.255036	0.011900	48.7475	-0.253919	-945.088	-1.259187E-5	NaN
689	1.000000	0.971037	7.37179e+06	-42639.1	1005.82	-29781.9	0.000000	0.000000	6.971128	-0.020710	NaN	0.000000	0.001679	0.001766	28.082	0.022437	0.002037	11.0121	7.314701	-163.684	0.009259	0.969749	-0.209694	-0.210982	-0.020710	11.0121	-0.208283	-179.88	0.000115	NaN
689	1.000000	1.015056	7.37179e+06	-42639.1	1005.82	-29781.9	0.000000	0.000000	7.015148	0.019426	NaN	0.000000	0.001718	0.001784	28.082	0.025823	0.002023	12.7666	-141.134	-171.194	-0.009301	1.013768	-0.165675	-0.166963	0.019426	12.7666	-0.166816	-36.1523	-0.000537	NaN
689	1.000000	1.059085	7.37179e+06	-42639.1	1005.82	-29781.9	0.000000	0.000000	7.059178	0.030023	NaN	0.000000	0.001715	0.001823	28.0805	0.101775	0.002022	50.3302	-172.373	-168.019	0.030719	1.057762	-0.121646	-0.122969	0.030023	50.3302	-0.122094	-5.323007	-0.005640	NaN
689	1.000000	1.103091	7.37179e+06	-42639.1	1005.82	-29781.9	0.000000	0.000000	7.103187	0.100446	NaN	0.000000	0.001756	0.001757	28.0807	0.046716	0.002040	22.8967	-107.615	-166.833	0.019453	1.101732	-0.077640	-0.078999	0.100446	22.8967	-0.080930	-0.652943	-0.153836	NaN
689	1.000000	1.147131	7.37179e+06	-42639.1	1005.82	-29781.9	0.000000	0.000000	7.147223	-0.008853	NaN	0.000000	0.001745	0.001777	28.0808	0.098585	0.002044	48.241	80.6076	-166.803	0.036794	1.145792	-0.033600	-0.034939	-0.008853	48.241	-0.033462	-0.028874	0.306611	NaN
689	2.000000	1.185687	7.37179e+06	-42639.1	1005.82	-29781.9	0.000000	0.000000	7.186141	8.825580	NaN	0.000000	0.001680	0.001847	28.0818	10.3402	0.001842	5613.02	8.418362	-173.723	8.840183	1.185526	0.004956	0.004795	8.825580	5613.02	0.003776	0.003044	2899.4	92950.5
689	2.000000	1.196607	7.37179e+06	-42639.1	1005.82	-29781.9	0.000000	0.000000	7.198005	31.785	NaN	0.000000	0.001726	0.001813	28.0822	22.7129	0.001808	12559.8	5.559843	-177.925	30.7286	1.196339	0.015876	0.015608	31.785	12559.8	0.013978	0.013947	2279.01	97166.7
689	2.000000	1.207663	7.37179e+06	-42639.1	1005.82	-29781.9	0.000000	0.000000	7.210286	61.59	NaN	0.000000	0.001702	0.001835	28.082	32.19	0.001750	18390.8	4.337751	-179.462	62.7471	1.207282	0.026932	0.026551	61.59	18390.8	0.024420	0.029970	2055.08	97058.4
689	2.000000	1.218591	7.3718e+06	-42639.1	1005.82	-29781.9	0.000000	0.000000	7.222769	99.4112	NaN	0.000000	0.001682	0.001811	28.0811	44.5446	0.001925	23142.4	6.396367	175.692	98.1751	1.218310	0.037860	0.037579	99.4112	23142.4	0.034639	0.050908	1952.76	93710.6
689	2.000000	1.229582	7.3718e+06	-42639.1	1005.82	-29781.9	0.000000	0.000000	7.235786	148.721	NaN	0.000000	0.001695	0.001797	28.0809	54.4745	0.001818	29962.7	7.494136	172.675	148.504	1.229302	0.048851	0.048571	148.721	29962.7	0.045128	0.077952	1907.86	98048.4
689	2.000000	1.240480	7.3718e+06	-42639.1	1005.82	-29781.9	0.000000	0.000000	7.249239	210.871	NaN	0.000000	0.001696	0.001801	28.0807	64.4103	0.001925	33464	8.842131	171.127	206.537	1.240103	0.059749	0.059372	210.871	33464	0.055023	0.108569	1942.27	92789.4
689	2.000000	1.251587	7.3718e+06	-42639.1	1005.82	-29781.9	0.000000	0.000000	7.262984	275.061	NaN	0.000000	0.001794	0.001790	28.081	73.7727	0.001689	43686.4	3.272069	173.573	276.37	1.251338	0.070856	0.070607	275.061	43686.4	0.066134	0.148717	1849.56	103500
689	2.000000	1.262448	7.3718e+06	-42639.1	1005.82	-29781.9	0.000000	0.000000	7.277179	356.172	NaN	0.000000	0.001801	0.001831	28.0819	83.2147	0.001675	49683.6	4.144909	172.673	349.987	1.262104	0.081717	0.081374	356.172	49683.6	0.076341	0.190834	1866.4	103910
689	2.000000	1.273550	7.3718e+06	-42639.1	1005.82	-29781.9	0.000000	0.000000	7.291503	434.578	NaN	0.000000	0.001811	0.001787	28.0823	95.7271	0.001812	52833.6	5.602586	170.326	435.668	1.273326	0.092819	0.092595	434.578	52833.6	0.086650	0.238336	1823.39	98875.6
689	2.000000	1.282490	7.3718e+06	-42639.1	1005.82	-29781.9	0.000000	0.000000	7.303824	516.841	NaN	0.000000	0.001758	0.001765	28.0822	103.329	0.001774	58259.6	3.258776	172.482	512.905	1.282217	0.101759	0.101486	516.841	58259.6	0.095106	0.280957	1839.57	100420