File: remote_trans/data/nanoindenter/0828-1/data/Data_2025-08-06,11h17m57s/2025-07-22_16-23-58_1_782.txt
2025-07-22, 16:23:58, 1
Index	Phase	Displacement	Time	Pos X	Pos Y	Pos Z	Rot A	Rot B	Piezo Z	Force A	Force B	Gripper	Voltage A	Voltage B	Temperature	Amplitude force	Amplitude pos	Stiffness	Phase shift	Phase excitation	Force A raw	Displacement raw	HMax	HMax raw	Real Force	Real Stiffness	Contact Depth	Area	Hardness	Reduced Mod.
[#]	[#]	[um]	[s]	[um]	[um]	[um]	[m°]	[m°]	[um]	[uN]	[uN]	[V]	[V]	[V]	[°C]	[uN]	[um]	[N/m]	[°]	[°]	[uN]	[um]	[um]	[um]	[uN]	[N/m]	[um]	[um^2]	[MPa]	[MPa]
782	1.000000	0.002202	7.3727e+06	-39239.1	1055.82	-29794.6	0.000000	0.000000	6.002787	0.073524	NaN	0.000000	0.001660	0.001738	28.0804	0.048942	0.000898	54.4823	-104.57	-163.907	0.066770	0.000954	-1.063080	-1.064328	0.073524	54.4823	-1.064092	-1.651221E+14	-4.452675E-16	NaN
782	1.000000	0.042165	7.3727e+06	-39239.1	1055.82	-29794.6	0.000000	0.000000	6.042748	0.014520	NaN	0.000000	0.001657	0.001731	28.0804	0.109248	0.001916	57.0314	100.15	-169.034	0.010220	0.040815	-1.023117	-1.024467	0.014520	57.0314	-1.023308	-4.671458E+13	-3.108133E-16	NaN
782	1.000000	0.082197	7.3727e+06	-39239.1	1055.82	-29794.6	0.000000	0.000000	6.082781	0.050049	NaN	0.000000	0.001675	0.001707	28.08	0.167038	0.002003	83.3918	-19.9307	-163.992	0.118292	0.080858	-0.983085	-0.984424	0.050049	83.3918	-0.983535	-1.361536E+13	-3.675918E-15	NaN
782	1.000000	0.122176	7.3727e+06	-39239.1	1055.82	-29794.6	0.000000	0.000000	6.122755	-0.079555	NaN	0.000000	0.001668	0.001680	28.0814	0.120211	0.001869	64.3287	-169.979	-166.554	-0.090304	0.120947	-0.943106	-0.944334	-0.079555	64.3287	-0.942178	-3.771604E+12	2.109320E-14	NaN
782	1.000000	0.162240	7.3727e+06	-39239.1	1055.82	-29794.6	0.000000	0.000000	6.162821	-0.027719	NaN	0.000000	0.001621	0.001708	28.0814	0.084823	0.001907	44.4694	21.7623	-164.606	-0.002886	0.160907	-0.903042	-0.904375	-0.027719	44.4694	-0.902574	-1.101159E+12	2.517289E-14	NaN
782	1.000000	0.202215	7.3727e+06	-39239.1	1055.82	-29794.6	0.000000	0.000000	6.202801	0.081270	NaN	0.000000	0.001697	0.001740	28.0816	0.007934	0.001749	4.536105	157.778	-161.375	0.110785	0.200861	-0.863067	-0.864420	0.081270	4.536105	-0.876504	-4.891286E+11	-1.661531E-13	NaN
782	1.000000	0.242240	7.3727e+06	-39239.1	1055.82	-29794.6	0.000000	0.000000	6.242823	0.007411	NaN	0.000000	0.001598	0.001703	28.0814	0.042098	0.002029	20.7446	-172.776	-168.211	0.020037	0.240940	-0.823041	-0.824341	0.007411	20.7446	-0.823309	-9.312844E+10	-7.957584E-14	NaN
782	1.000000	0.282272	7.3727e+06	-39239.1	1055.82	-29794.6	0.000000	0.000000	6.282855	0.015036	NaN	0.000000	0.001655	0.001695	28.0801	0.072908	0.001995	36.5441	158.676	-165.552	0.003628	0.280988	-0.783010	-0.784294	0.015036	36.5441	-0.783318	-2.668836E+10	-5.633934E-13	NaN
782	1.000000	0.322261	7.3727e+06	-39239.1	1055.82	-29794.6	0.000000	0.000000	6.322844	0.011088	NaN	0.000000	0.001658	0.001693	28.0799	0.059913	0.001896	31.5959	-119.09	-165.92	0.034968	0.320949	-0.743020	-0.744332	0.011088	31.5959	-0.743283	-7.616814E+9	-1.455789E-12	NaN
782	1.000000	0.362291	7.3727e+06	-39239.1	1055.82	-29794.6	0.000000	0.000000	6.362874	0.011064	NaN	0.000000	0.001677	0.001732	28.08	0.027118	0.001902	14.256	141.873	-167.149	-0.008215	0.360997	-0.702990	-0.704285	0.011064	14.256	-0.703572	-2.189323E+9	-5.053490E-12	NaN
782	1.000000	0.402318	7.3727e+06	-39239.1	1055.82	-29794.6	0.000000	0.000000	6.402901	0.007162	NaN	0.000000	0.001645	0.001698	28.0812	0.068929	0.002179	31.6291	37.6195	-163.458	-0.042401	0.400992	-0.662963	-0.664289	0.007162	31.6291	-0.663133	-6.128859E+8	-1.168495E-11	NaN
782	1.000000	0.442322	7.3727e+06	-39239.1	1055.82	-29794.6	0.000000	0.000000	6.442905	-0.002941	NaN	0.000000	0.001663	0.001682	28.0811	0.096239	0.002021	47.6309	56.8658	-167.228	-0.056702	0.440985	-0.622959	-0.624296	-0.002941	47.6309	-0.622913	-1.720547E+8	1.709363E-11	NaN
782	1.000000	0.482332	7.3727e+06	-39239.1	1055.82	-29794.6	0.000000	0.000000	6.482914	-0.010905	NaN	0.000000	0.001630	0.001679	28.0811	0.089301	0.002023	44.1461	155.41	-162.557	-0.057021	0.481004	-0.582950	-0.584278	-0.010905	44.1461	-0.582764	-4.818060E+7	2.263266E-10	NaN
782	1.000000	0.522361	7.3727e+06	-39239.1	1055.82	-29794.6	0.000000	0.000000	6.522943	0.001941	NaN	0.000000	0.001625	0.001697	28.0811	0.076778	0.002090	36.7359	-163.382	-166.666	0.039814	0.521082	-0.542921	-0.544200	0.001941	36.7359	-0.542961	-1.356475E+7	-1.430548E-10	NaN
782	1.000000	0.562370	7.3727e+06	-39239.1	1055.82	-29794.6	0.000000	0.000000	6.562953	0.008787	NaN	0.000000	0.001659	0.001717	28.0799	0.061690	0.002154	28.6446	-146.366	-167.079	0.063146	0.561087	-0.502911	-0.504195	0.008787	28.6446	-0.503142	-3.79171e+06	-2.317457E-9	NaN
782	1.000000	0.602430	7.3727e+06	-39239.1	1055.82	-29794.6	0.000000	0.000000	6.603013	0.021132	NaN	0.000000	0.001650	0.001737	28.0801	0.048809	0.002075	23.5186	71.9657	-164.819	-0.002819	0.601053	-0.462852	-0.464229	0.021132	23.5186	-0.463526	-1.05816e+06	-1.997022E-8	NaN
782	1.000000	0.642410	7.3727e+06	-39239.1	1055.82	-29794.6	0.000000	0.000000	6.642995	0.068598	NaN	0.000000	0.001635	0.001697	28.0799	0.087764	0.001931	45.439	-172.662	-163.008	0.046364	0.641085	-0.422871	-0.424196	0.068598	45.439	-0.424004	-293203	-2.339603E-7	NaN
782	1.000000	0.682421	7.37271e+06	-39239.1	1055.82	-29794.6	0.000000	0.000000	6.683003	-0.005055	NaN	0.000000	0.001625	0.001673	28.0811	0.038633	0.002102	18.3783	21.1642	-166.008	-0.039712	0.681108	-0.382861	-0.384173	-0.005055	18.3783	-0.382654	-75503	6.695309E-8	NaN
782	1.000000	0.722476	7.37271e+06	-39239.1	1055.82	-29794.6	0.000000	0.000000	6.723060	0.035988	NaN	0.000000	0.001620	0.001661	28.0811	0.014942	0.001929	7.745361	145.826	-162.783	0.064537	0.721188	-0.342805	-0.344094	0.035988	7.745361	-0.346290	-22548.5	-1.596020E-6	NaN
782	1.000000	0.762454	7.37271e+06	-39239.1	1055.82	-29794.6	0.000000	0.000000	6.763038	0.043681	NaN	0.000000	0.001629	0.001646	28.0813	0.057753	0.001975	29.2457	-51.7594	-164.265	0.116508	0.761157	-0.302828	-0.304125	0.043681	29.2457	-0.303948	-5386.91	-8.108741E-6	NaN
782	1.000000	0.802471	7.37271e+06	-39239.1	1055.82	-29794.6	0.000000	0.000000	6.803054	0.024845	NaN	0.000000	0.001599	0.001626	28.081	0.049460	0.002098	23.5708	-90.1582	-162.692	0.026042	0.801168	-0.262811	-0.264114	0.024845	23.5708	-0.263601	-1330.55	-1.867275E-5	NaN
782	1.000000	0.842488	7.37271e+06	-39239.1	1055.82	-29794.6	0.000000	0.000000	6.843071	0.021453	NaN	0.000000	0.001637	0.001659	28.0798	0.061959	0.002132	29.0644	-25.1077	-162.922	0.003154	0.841182	-0.222793	-0.224100	0.021453	29.0644	-0.223347	-314.09	-6.830351E-5	NaN
782	1.000000	0.882507	7.37271e+06	-39239.1	1055.82	-29794.6	0.000000	0.000000	6.883089	-0.005577	NaN	0.000000	0.001644	0.001679	28.0797	0.059294	0.001941	30.5456	-7.324317	-166.28	-0.006337	0.881199	-0.182775	-0.184082	-0.005577	30.5456	-0.182638	-67.6454	8.244630E-5	NaN
782	1.000000	0.922525	7.37271e+06	-39239.1	1055.82	-29794.6	0.000000	0.000000	6.923108	0.021539	NaN	0.000000	0.001705	0.001619	28.0797	0.049185	0.002068	23.785	-6.439265	-163.164	-0.023958	0.921242	-0.142757	-0.144040	0.021539	23.785	-0.143436	-13.7142	-0.001571	NaN
782	1.000000	0.962528	7.37271e+06	-39239.1	1055.82	-29794.6	0.000000	0.000000	6.963112	0.027325	NaN	0.000000	0.001703	0.001634	28.0809	0.018199	0.001953	9.316985	107.897	-164.233	-0.005165	0.961214	-0.102753	-0.104068	0.027325	9.316985	-0.104953	-2.345066	-0.011652	NaN
782	1.000000	1.002560	7.37271e+06	-39239.1	1055.82	-29794.6	0.000000	0.000000	7.003144	0.018537	NaN	0.000000	0.001690	0.001654	28.0811	0.063928	0.001853	34.5057	176.92	-164.85	0.004644	1.001292	-0.062721	-0.063990	0.018537	34.5057	-0.063124	-0.220903	-0.083916	NaN
782	1.000000	1.042556	7.37271e+06	-39239.1	1055.82	-29794.6	0.000000	0.000000	7.043138	0.004574	NaN	0.000000	0.001696	0.001646	28.0812	0.109241	0.001920	56.8888	143.007	-161.544	-0.030742	1.041249	-0.022726	-0.024033	0.004574	56.8888	-0.022786	-0.014789	-0.309312	NaN
782	2.000000	1.073222	7.37271e+06	-39239.1	1055.82	-29794.6	0.000000	0.000000	7.074375	13.8897	NaN	0.000000	0.001675	0.001660	28.0799	12.4203	0.001732	7170.09	5.528046	-171.695	13.4588	1.072826	0.007940	0.007544	13.8897	7170.09	0.006487	0.005532	2510.88	88077.4
782	2.000000	1.083176	7.37271e+06	-39239.1	1055.82	-29794.6	0.000000	0.000000	7.085102	32.6983	NaN	0.000000	0.001680	0.001694	28.0806	23.2568	0.001849	12578.7	8.866533	-178.896	33.1267	1.082804	0.017895	0.017523	32.6983	12578.7	0.015945	0.016566	1973.79	89288.4
782	2.000000	1.093112	7.37271e+06	-39239.1	1055.82	-29794.6	0.000000	0.000000	7.096400	65.8579	NaN	0.000000	0.001707	0.001665	28.0808	33.5866	0.001774	18935.8	6.509431	178.621	63.8082	1.092815	0.027830	0.027533	65.8579	18935.8	0.025222	0.031420	2096.04	97600.8
782	2.000000	1.103097	7.37271e+06	-39239.1	1055.82	-29794.6	0.000000	0.000000	7.107891	102.496	NaN	0.000000	0.001716	0.001663	28.0806	43.0981	0.001814	23762.6	4.001578	178.946	101.724	1.102712	0.037815	0.037431	102.496	23762.6	0.034580	0.050774	2018.69	96349.2
782	2.000000	1.113135	7.37271e+06	-39239.1	1055.82	-29794.6	0.000000	0.000000	7.119977	152.323	NaN	0.000000	0.001666	0.001712	28.0816	52.6345	0.001840	28604.7	5.059252	177.279	155.662	1.112799	0.047854	0.047517	152.323	28604.7	0.043860	0.074383	2047.82	95823.7
782	2.000000	1.123048	7.37271e+06	-39239.1	1055.82	-29794.6	0.000000	0.000000	7.132177	208.001	NaN	0.000000	0.001709	0.001703	28.0814	59.7596	0.001807	33077.1	3.427072	177.22	204.581	1.122671	0.057766	0.057389	208.001	33077.1	0.053050	0.102072	2037.79	94590.5
782	2.000000	1.133044	7.37271e+06	-39239.1	1055.82	-29794.6	0.000000	0.000000	7.144544	265.684	NaN	0.000000	0.001702	0.001672	28.0812	69.0428	0.001724	40049.1	5.109647	173.689	264.293	1.132725	0.067762	0.067443	265.684	40049.1	0.062787	0.135991	1953.69	99222.8
782	2.000000	1.142905	7.37271e+06	-39239.1	1055.82	-29794.6	0.000000	0.000000	7.157128	331.93	NaN	0.000000	0.001677	0.001637	28.08	79.3196	0.001867	42484	8.215759	170.302	324.88	1.142582	0.077624	0.077300	331.93	42484	0.071764	0.171337	1937.3	93772
782	2.000000	1.153003	7.37271e+06	-39239.1	1055.82	-29794.6	0.000000	0.000000	7.170244	405.374	NaN	0.000000	0.001657	0.001669	28.0798	86.4259	0.001869	46248.2	5.583378	172.989	404.189	1.152582	0.087722	0.087300	405.374	46248.2	0.081148	0.212369	1908.81	91690
782	2.000000	1.163010	7.37271e+06	-39239.1	1055.82	-29794.6	0.000000	0.000000	7.183508	484.629	NaN	0.000000	0.001589	0.001610	28.0798	94.9499	0.001654	57423.1	6.351548	170.175	482.118	1.162638	0.097729	0.097356	484.629	57423.1	0.091399	0.261870	1850.64	102522
782	2.000000	1.168467	7.37271e+06	-39239.1	1055.82	-29794.6	0.000000	0.000000	7.190994	534.02	NaN	0.000000	0.001630	0.001636	28.08	99.9746	0.001797	55620.3	6.521405	-9.671671	527.809	1.168041	0.103185	0.102760	534.02	55620.3	0.095984	0.285573	1870	95092.9