File: remote_trans/data/nanoindenter/0828-1/data/Data_2025-08-06,11h17m57s/2025-07-22_16-23-58_1_517.txt
2025-07-22, 16:23:58, 1
Index	Phase	Displacement	Time	Pos X	Pos Y	Pos Z	Rot A	Rot B	Piezo Z	Force A	Force B	Gripper	Voltage A	Voltage B	Temperature	Amplitude force	Amplitude pos	Stiffness	Phase shift	Phase excitation	Force A raw	Displacement raw	HMax	HMax raw	Real Force	Real Stiffness	Contact Depth	Area	Hardness	Reduced Mod.
[#]	[#]	[um]	[s]	[um]	[um]	[um]	[m°]	[m°]	[um]	[uN]	[uN]	[V]	[V]	[V]	[°C]	[uN]	[um]	[N/m]	[°]	[°]	[uN]	[um]	[um]	[um]	[uN]	[N/m]	[um]	[um^2]	[MPa]	[MPa]
517	1.000000	0.003193	7.37011e+06	-51239.1	1005.82	-29753	0.000000	0.000000	6.002805	-0.017968	NaN	0.000000	0.001624	0.001702	28.0822	0.032355	0.001024	31.6083	160.926	-165.302	-0.083372	0.001954	-1.100911	-1.102151	-0.017968	31.6083	-1.100485	-5.088366E+14	3.531118E-17	NaN
517	1.000000	0.045142	7.37011e+06	-51239.1	1005.82	-29753	0.000000	0.000000	6.044755	0.009190	NaN	0.000000	0.001587	0.001684	28.083	0.082484	0.002079	39.6728	-58.04	13.9448	0.041610	0.043770	-1.058962	-1.060334	0.009190	39.6728	-1.059136	-1.416476E+14	-6.487812E-17	NaN
517	1.000000	0.087149	7.37011e+06	-51239.1	1005.82	-29753	0.000000	0.000000	6.086759	-0.046377	NaN	0.000000	0.001622	0.001693	28.083	0.061028	0.001926	31.6823	58.4252	-167.208	-0.036321	0.085881	-1.016956	-1.018224	-0.046377	31.6823	-1.015858	-3.708675E+13	1.250497E-15	NaN
517	1.000000	0.129164	7.37011e+06	-51239.1	1005.82	-29753	0.000000	0.000000	6.128779	0.057851	NaN	0.000000	0.001616	0.001753	28.0831	0.064825	0.001955	33.156	-59.1776	18.1975	0.031029	0.127808	-0.974940	-0.976297	0.057851	33.156	-0.976249	-1.086106E+13	-5.326422E-15	NaN
517	1.000000	0.171161	7.37011e+06	-51239.1	1005.82	-29753	0.000000	0.000000	6.170776	0.070182	NaN	0.000000	0.001621	0.001754	28.0821	0.089137	0.002018	44.1682	32.0072	-166.808	0.017150	0.169861	-0.932943	-0.934243	0.070182	44.1682	-0.934135	-2.937668E+12	-2.389032E-14	NaN
517	1.000000	0.213196	7.37011e+06	-51239.1	1005.82	-29753	0.000000	0.000000	6.212806	-0.056264	NaN	0.000000	0.001623	0.001707	28.082	0.030260	0.002042	14.8189	151.122	13.5572	0.005569	0.211810	-0.890909	-0.892295	-0.056264	14.8189	-0.888061	-7.009828E+11	8.026444E-14	NaN
517	1.000000	0.255208	7.37011e+06	-51239.1	1005.82	-29753	0.000000	0.000000	6.254820	0.004239	NaN	0.000000	0.001624	0.001727	28.0819	0.135129	0.002020	66.9049	-65.8793	-165.669	0.016136	0.253923	-0.848897	-0.850182	0.004239	66.9049	-0.848944	-2.072251E+11	-2.045514E-14	NaN
517	1.000000	0.297247	7.37011e+06	-51239.1	1005.82	-29753	0.000000	0.000000	6.296857	-0.048858	NaN	0.000000	0.001610	0.001733	28.082	0.046872	0.002010	23.322	68.898	13.8911	-0.116935	0.295850	-0.806858	-0.808255	-0.048858	23.322	-0.805287	-5.304174E+10	9.211217E-13	NaN
517	1.000000	0.339243	7.37011e+06	-51239.1	1005.82	-29753	0.000000	0.000000	6.338854	-0.027674	NaN	0.000000	0.001598	0.001672	28.0833	0.103640	0.001975	52.4769	-166.839	-161.424	0.071707	0.337952	-0.764862	-0.766153	-0.027674	52.4769	-0.764466	-1.479292E+10	1.870766E-12	NaN
517	1.000000	0.381280	7.37011e+06	-51239.1	1005.82	-29753	0.000000	0.000000	6.380890	-0.067678	NaN	0.000000	0.001601	0.001720	28.0832	0.045487	0.001833	24.8181	94.5685	14.8542	-0.037650	0.379884	-0.722824	-0.724221	-0.067678	24.8181	-0.720779	-3.759231E+9	1.800304E-11	NaN
517	1.000000	0.423294	7.37011e+06	-51239.1	1005.82	-29753	0.000000	0.000000	6.422908	0.063180	NaN	0.000000	0.001585	0.001750	28.0835	0.087887	0.002014	43.6285	131.227	-159.354	0.025394	0.421940	-0.680811	-0.682164	0.063180	43.6285	-0.681897	-1.107003E+9	-5.707308E-11	NaN
517	1.000000	0.465319	7.37011e+06	-51239.1	1005.82	-29753	0.000000	0.000000	6.464929	-0.035846	NaN	0.000000	0.001618	0.001644	28.0821	0.175056	0.001936	90.4318	136.934	15.5897	-0.029574	0.463922	-0.638786	-0.640182	-0.035846	90.4318	-0.638489	-2.815473E+8	1.273183E-10	NaN
517	1.000000	0.507350	7.37011e+06	-51239.1	1005.82	-29753	0.000000	0.000000	6.506963	0.003910	NaN	0.000000	0.001609	0.001598	28.0822	0.053390	0.002013	26.5225	36.6834	-165.53	0.088450	0.506044	-0.596754	-0.598061	0.003910	26.5225	-0.596865	-7.538314E+7	-5.187399E-11	NaN
517	1.000000	0.549354	7.37011e+06	-51239.1	1005.82	-29753	0.000000	0.000000	6.548963	-0.070497	NaN	0.000000	0.001643	0.001591	28.0819	0.113118	0.002135	52.984	-145.377	14.8168	0.057698	0.548028	-0.554751	-0.556077	-0.070497	52.984	-0.553753	-1.913907E+7	3.683402E-9	NaN
517	1.000000	0.591356	7.37011e+06	-51239.1	1005.82	-29753	0.000000	0.000000	6.590967	-0.028761	NaN	0.000000	0.001594	0.001594	28.0832	0.087321	0.001898	46.0138	80.4451	-167.033	-0.026718	0.590085	-0.512748	-0.514020	-0.028761	46.0138	-0.512280	-5.08348e+06	5.657786E-9	NaN
517	1.000000	0.633402	7.37011e+06	-51239.1	1005.82	-29753	0.000000	0.000000	6.633013	-0.027168	NaN	0.000000	0.001645	0.001607	28.0832	0.007976	0.002065	3.862462	104.792	16.4809	0.011472	0.631975	-0.470702	-0.472130	-0.027168	3.862462	-0.465427	-1.12523e+06	2.414482E-8	NaN
517	1.000000	0.675396	7.37011e+06	-51239.1	1005.82	-29753	0.000000	0.000000	6.675010	0.033232	NaN	0.000000	0.001653	0.001645	28.0836	0.079220	0.001898	41.729	-8.760525	-162.636	-0.015345	0.674093	-0.428708	-0.430012	0.033232	41.729	-0.429306	-348529	-9.534980E-8	NaN
517	1.000000	0.717381	7.37011e+06	-51239.1	1005.82	-29753	0.000000	0.000000	6.716993	-0.010663	NaN	0.000000	0.001618	0.001701	28.0822	0.121184	0.001949	62.1728	123.564	17.5433	-0.004569	0.716126	-0.386724	-0.387978	-0.010663	62.1728	-0.386595	-85986.9	1.240050E-7	NaN
517	1.000000	0.759461	7.37011e+06	-51239.1	1005.82	-29753	0.000000	0.000000	6.759074	0.023571	NaN	0.000000	0.001653	0.001646	28.0819	0.069502	0.002131	32.6109	-148.863	-164.556	0.005395	0.758095	-0.344644	-0.346009	0.023571	32.6109	-0.345186	-21730.2	-1.084696E-6	NaN
517	1.000000	0.801432	7.37011e+06	-51239.1	1005.82	-29753	0.000000	0.000000	6.801044	0.003555	NaN	0.000000	0.001622	0.001677	28.0818	0.098360	0.002067	47.5887	-90.7074	13.5888	-0.102907	0.800048	-0.302673	-0.304057	0.003555	47.5887	-0.302729	-5166.89	-6.881142E-7	NaN
517	1.000000	0.843481	7.37011e+06	-51239.1	1005.82	-29753	0.000000	0.000000	6.843092	-0.028320	NaN	0.000000	0.001642	0.001670	28.0821	0.113960	0.001952	58.3829	-175.841	-163.941	-0.037131	0.842148	-0.260623	-0.261957	-0.028320	58.3829	-0.260260	-1182.76	2.394421E-5	NaN
517	1.000000	0.885496	7.37011e+06	-51239.1	1005.82	-29753	0.000000	0.000000	6.885109	0.018793	NaN	0.000000	0.001660	0.001702	28.0834	0.051094	0.001902	26.8694	68.4156	20.6516	0.004273	0.884154	-0.218608	-0.219951	0.018793	26.8694	-0.219133	-269.036	-6.985361E-5	NaN
517	1.000000	0.927519	7.37011e+06	-51239.1	1005.82	-29753	0.000000	0.000000	6.927132	0.033837	NaN	0.000000	0.001699	0.001681	28.0833	0.155101	0.001987	78.0386	62.5285	-164.404	-0.073670	0.926216	-0.176586	-0.177888	0.033837	78.0386	-0.176911	-54.0455	-0.000626	NaN
517	1.000000	0.969503	7.37011e+06	-51239.1	1005.82	-29753	0.000000	0.000000	6.969114	-0.035952	NaN	0.000000	0.001711	0.001671	28.0834	0.118409	0.002041	58.0201	-132.493	20.3526	-0.114803	0.968179	-0.134601	-0.135926	-0.035952	58.0201	-0.134136	-9.157576	0.003926	NaN
517	1.000000	1.011535	7.37011e+06	-51239.1	1005.82	-29753	0.000000	0.000000	7.011147	-0.001541	NaN	0.000000	0.001712	0.001704	28.0821	0.053010	0.001923	27.5616	10.7326	-164.272	-0.076680	1.010251	-0.092569	-0.093854	-0.001541	27.5616	-0.092527	-1.237862	0.001245	NaN
517	1.000000	1.053554	7.37011e+06	-51239.1	1005.82	-29753	0.000000	0.000000	7.053166	0.002996	NaN	0.000000	0.001619	0.001648	28.0819	0.073991	0.002046	36.1655	30.1332	12.6538	0.009484	1.052231	-0.050551	-0.051874	0.002996	36.1655	-0.050613	-0.095227	-0.031466	NaN
517	1.000000	1.095585	7.37011e+06	-51239.1	1005.82	-29753	0.000000	0.000000	7.095195	-0.041755	NaN	0.000000	0.001695	0.001666	28.0819	0.042830	0.002093	20.4662	172.78	-164.325	0.010764	1.094222	-0.008520	-0.009883	-0.041755	20.4662	-0.006990	-0.004634	9.009726	NaN
517	2.000000	1.114577	7.37011e+06	-51239.1	1005.82	-29753	0.000000	0.000000	7.115095	22.0236	NaN	0.000000	0.001663	0.001686	28.0832	18.2037	0.001827	9962.82	7.184021	3.554513	20.9168	1.114245	0.010472	0.010140	22.0236	9962.82	0.008814	0.007893	2790.1	102452
517	2.000000	1.125070	7.37011e+06	-51239.1	1005.82	-29753	0.000000	0.000000	7.126431	42.5386	NaN	0.000000	0.001628	0.001725	28.0829	26.193	0.001705	15366.5	2.005957	-174.424	42.7472	1.124754	0.020965	0.020649	42.5386	15366.5	0.018889	0.020826	2042.55	97284.2
517	2.000000	1.135569	7.37011e+06	-51239.1	1005.82	-29753	0.000000	0.000000	7.138145	72.0818	NaN	0.000000	0.001632	0.001653	28.083	36.5536	0.001831	19962.6	4.851693	-0.662903	70.3676	1.135160	0.031464	0.031056	72.0818	19962.6	0.028756	0.038205	1886.73	93311
517	2.000000	1.146016	7.37011e+06	-51239.1	1005.82	-29753	0.000000	0.000000	7.150108	108.929	NaN	0.000000	0.001640	0.001661	28.0817	45.5009	0.001742	26115.5	3.343019	179.295	108.237	1.145659	0.041911	0.041555	108.929	26115.5	0.038783	0.060921	1788.03	96669
517	2.000000	1.156460	7.37011e+06	-51239.1	1005.82	-29753	0.000000	0.000000	7.162380	153.383	NaN	0.000000	0.001607	0.001685	28.0817	54.9094	0.001669	32893.6	6.492129	-6.407736	149.83	1.156237	0.052355	0.052133	153.383	32893.6	0.048858	0.088917	1725.02	100784
517	2.000000	1.166979	7.37011e+06	-51239.1	1005.82	-29753	0.000000	0.000000	7.175115	207.267	NaN	0.000000	0.001574	0.001656	28.0819	65.6472	0.001829	35895.5	3.283832	176.562	203.445	1.166615	0.062874	0.062511	207.267	35895.5	0.058544	0.120638	1718.09	94421.4
517	2.000000	1.177443	7.37011e+06	-51239.1	1005.82	-29753	0.000000	0.000000	7.188114	268.921	NaN	0.000000	0.001570	0.001657	28.0819	75.1832	0.001786	42102.6	3.263608	-4.681035	265.839	1.177232	0.073338	0.073128	268.921	42102.6	0.068548	0.158231	1699.55	96702.3
517	2.000000	1.187902	7.37011e+06	-51239.1	1005.82	-29753	0.000000	0.000000	7.200836	323.925	NaN	0.000000	0.001581	0.001664	28.0834	86.776	0.001740	49874.2	3.974221	173.151	318.844	1.187722	0.083798	0.083618	323.925	49874.2	0.078927	0.202284	1601.34	101314
517	2.000000	1.198504	7.37011e+06	-51239.1	1005.82	-29753	0.000000	0.000000	7.215073	412.327	NaN	0.000000	0.001613	0.001687	28.0835	94.3071	0.001720	54815.3	0.900216	-3.973532	411.884	1.198233	0.094400	0.094128	412.327	54815.3	0.088758	0.248655	1658.23	100433
517	2.000000	1.205373	7.37011e+06	-51239.1	1005.82	-29753	0.000000	0.000000	7.224442	473.136	NaN	0.000000	0.001629	0.001705	28.0833	102.194	0.001732	59017.1	5.594834	-9.018602	468.079	1.205115	0.101268	0.101011	473.136	59017.1	0.095255	0.281740	1679.33	101584