File: remote_trans/data/nanoindenter/0828-1/data/Data_2025-08-06,11h17m57s/2025-07-22_16-23-58_1_156.txt
2025-07-22, 16:23:58, 1
Index	Phase	Displacement	Time	Pos X	Pos Y	Pos Z	Rot A	Rot B	Piezo Z	Force A	Force B	Gripper	Voltage A	Voltage B	Temperature	Amplitude force	Amplitude pos	Stiffness	Phase shift	Phase excitation	Force A raw	Displacement raw	HMax	HMax raw	Real Force	Real Stiffness	Contact Depth	Area	Hardness	Reduced Mod.
[#]	[#]	[um]	[s]	[um]	[um]	[um]	[m°]	[m°]	[um]	[uN]	[uN]	[V]	[V]	[V]	[°C]	[uN]	[um]	[N/m]	[°]	[°]	[uN]	[um]	[um]	[um]	[uN]	[N/m]	[um]	[um^2]	[MPa]	[MPa]
156	1.000000	0.002634	7.36657e+06	-46439.1	955.818	-29769.6	0.000000	0.000000	6.002805	0.036221	NaN	0.000000	0.001637	0.001657	28.109	0.060117	0.000883	68.0664	-122.173	-171.105	0.011375	0.001377	-1.094217	-1.095474	0.036221	68.0664	-1.094616	-4.244193E+14	-8.534191E-17	NaN
156	1.000000	0.044575	7.36657e+06	-46439.1	955.819	-29769.6	0.000000	0.000000	6.044742	-0.088622	NaN	0.000000	0.001672	0.001630	28.1295	0.018473	0.002072	8.915801	-166.551	12.8217	-0.103777	0.043234	-1.052276	-1.053617	-0.088622	8.915801	-1.044821	-9.094641E+13	9.744430E-16	NaN
156	1.000000	0.086618	7.36657e+06	-46439.1	955.819	-29769.6	0.000000	0.000000	6.086789	0.036900	NaN	0.000000	0.001668	0.001649	28.0904	0.147160	0.001993	73.8512	-139.555	-165.129	-0.094438	0.085277	-1.010233	-1.011574	0.036900	73.8512	-1.010608	-3.151828E+13	-1.170756E-15	NaN
156	1.000000	0.128602	7.36657e+06	-46439.1	955.818	-29769.6	0.000000	0.000000	6.128772	-0.008232	NaN	0.000000	0.001681	0.001621	28.0814	0.081216	0.001945	41.7613	110.18	14.0941	-0.020662	0.127326	-0.968249	-0.969525	-0.008232	41.7613	-0.968101	-8.434737E+12	9.759533E-16	NaN
156	1.000000	0.170643	7.36657e+06	-46439.1	955.819	-29769.6	0.000000	0.000000	6.170813	-0.002094	NaN	0.000000	0.001660	0.001658	28.1071	0.088140	0.001948	45.2564	86.2574	-163.786	-0.038620	0.169264	-0.926208	-0.927587	-0.002094	45.2564	-0.926174	-2.293766E+12	9.130626E-16	NaN
156	1.000000	0.212632	7.36657e+06	-46439.1	955.818	-29769.6	0.000000	0.000000	6.212799	-0.057256	NaN	0.000000	0.001739	0.001679	28.1305	0.088098	0.001909	46.1533	-156.085	15.8036	-0.102350	0.211273	-0.884219	-0.885578	-0.057256	46.1533	-0.883289	-6.042050E+11	9.476307E-14	NaN
156	1.000000	0.254650	7.36657e+06	-46439.1	955.818	-29769.6	0.000000	0.000000	6.254821	0.023897	NaN	0.000000	0.001729	0.001572	28.0928	0.055141	0.001916	28.7793	138.638	-163.007	0.043275	0.253333	-0.842201	-0.843519	0.023897	28.7793	-0.842824	-1.712161E+11	-1.395734E-13	NaN
156	1.000000	0.296685	7.36657e+06	-46439.1	955.819	-29769.6	0.000000	0.000000	6.296852	-0.065831	NaN	0.000000	0.001749	0.001645	28.0822	0.031961	0.001922	16.6272	-121.206	14.0416	-0.030638	0.295329	-0.800166	-0.801522	-0.065831	16.6272	-0.797196	-4.119091E+10	1.598200E-12	NaN
156	1.000000	0.338702	7.36657e+06	-46439.1	955.818	-29769.6	0.000000	0.000000	6.338869	-0.048917	NaN	0.000000	0.001683	0.001638	28.1064	0.029100	0.002032	14.3184	-128.877	-165.685	0.033323	0.337466	-0.758150	-0.759385	-0.048917	14.3184	-0.755587	-1.120116E+10	4.367095E-12	NaN
156	1.000000	0.380722	7.36657e+06	-46439.1	955.818	-29769.6	0.000000	0.000000	6.380890	-0.034046	NaN	0.000000	0.001729	0.001690	28.1294	0.104670	0.001944	53.8473	-162.882	14.7845	-0.048351	0.379350	-0.716129	-0.717501	-0.034046	53.8473	-0.715655	-3.200401E+9	1.063819E-11	NaN
156	1.000000	0.422759	7.36657e+06	-46439.1	955.819	-29769.6	0.000000	0.000000	6.422930	0.034970	NaN	0.000000	0.001666	0.001615	28.0927	0.078524	0.001988	39.5082	-110.093	-166.607	0.042755	0.421442	-0.674092	-0.675409	0.034970	39.5082	-0.674756	-8.840317E+8	-3.955738E-11	NaN
156	1.000000	0.464750	7.36657e+06	-46439.1	955.819	-29769.6	0.000000	0.000000	6.464920	0.010910	NaN	0.000000	0.001728	0.001614	28.0793	0.073379	0.002073	35.3936	-19.9681	15.5687	0.022257	0.463389	-0.632101	-0.633462	0.010910	35.3936	-0.632332	-2.317663E+8	-4.707371E-11	NaN
156	1.000000	0.506797	7.36657e+06	-46439.1	955.818	-29769.6	0.000000	0.000000	6.506964	-0.054540	NaN	0.000000	0.001639	0.001637	28.1056	0.132080	0.001912	69.0747	-53.5988	-162.379	-0.013496	0.505464	-0.590055	-0.591388	-0.054540	69.0747	-0.589462	-5.960118E+7	9.150813E-10	NaN
156	1.000000	0.548829	7.36657e+06	-46439.1	955.819	-29769.6	0.000000	0.000000	6.549001	0.048023	NaN	0.000000	0.001661	0.001659	28.1309	0.056482	0.002005	28.1715	66.9092	15.8972	0.026445	0.547471	-0.548022	-0.549380	0.048023	28.1715	-0.549300	-1.660604E+7	-2.891916E-9	NaN
156	1.000000	0.590817	7.36657e+06	-46439.1	955.818	-29769.6	0.000000	0.000000	6.590986	-0.019143	NaN	0.000000	0.001638	0.001626	28.0932	0.123380	0.002038	60.5364	-63.4573	-166.221	-0.155362	0.589529	-0.506034	-0.507323	-0.019143	60.5364	-0.505797	-4.12903e+06	4.636165E-9	NaN
156	1.000000	0.632869	7.36657e+06	-46439.1	955.818	-29769.6	0.000000	0.000000	6.633039	0.022078	NaN	0.000000	0.001703	0.001695	28.0802	0.031934	0.002068	15.4389	-171.52	13.3761	0.005903	0.631399	-0.463983	-0.465452	0.022078	15.4389	-0.465055	-1.11179e+06	-1.985794E-8	NaN
156	1.000000	0.674857	7.36657e+06	-46439.1	955.818	-29769.6	0.000000	0.000000	6.675028	0.020447	NaN	0.000000	0.001613	0.001696	28.104	0.069033	0.002011	34.3335	95.4583	-166.753	0.030972	0.673529	-0.421994	-0.423323	0.020447	34.3335	-0.422440	-278621	-7.338698E-8	NaN
156	1.000000	0.716872	7.36657e+06	-46439.1	955.817	-29769.6	0.000000	0.000000	6.717042	-0.005314	NaN	0.000000	0.001631	0.001726	28.1309	0.114715	0.001967	58.3257	170.895	14.7593	-0.005862	0.715521	-0.379979	-0.381330	-0.005314	58.3257	-0.379911	-68961.3	7.705900E-8	NaN
156	1.000000	0.758880	7.36657e+06	-46439.1	955.818	-29769.6	0.000000	0.000000	6.759046	-0.087806	NaN	0.000000	0.001645	0.001672	28.093	0.052641	0.002142	24.571	-76.4714	-164.702	-0.082979	0.757520	-0.337971	-0.339331	-0.087806	24.571	-0.335291	-15589.7	5.632286E-6	NaN
156	1.000000	0.800871	7.36657e+06	-46439.1	955.818	-29769.6	0.000000	0.000000	6.801039	-0.039969	NaN	0.000000	0.001615	0.001689	28.0814	0.059684	0.002050	29.1081	69.3056	15.8717	-0.064235	0.799564	-0.295980	-0.297287	-0.039969	29.1081	-0.294950	-3956.84	1.010134E-5	NaN
156	1.000000	0.842909	7.36657e+06	-46439.1	955.819	-29769.6	0.000000	0.000000	6.843079	-0.004404	NaN	0.000000	0.001610	0.001664	28.1035	0.116522	0.001963	59.3554	-80.4847	-166.709	-0.044375	0.841634	-0.253942	-0.255217	-0.004404	59.3554	-0.253886	-943.977	4.665766E-6	NaN
156	1.000000	0.884919	7.36657e+06	-46439.1	955.818	-29769.6	0.000000	0.000000	6.885088	-0.029677	NaN	0.000000	0.001602	0.001647	28.1316	0.038556	0.002083	18.5129	-84.6945	16.7744	-0.100273	0.883620	-0.211932	-0.213231	-0.029677	18.5129	-0.210730	-197.073	0.000151	NaN
156	1.000000	0.926960	7.36657e+06	-46439.1	955.819	-29769.6	0.000000	0.000000	6.927129	-0.003732	NaN	0.000000	0.001655	0.001698	28.0928	0.088293	0.001997	44.2232	140.777	-162.794	-0.070550	0.925611	-0.169891	-0.171240	-0.003732	44.2232	-0.169828	-40.7971	9.147139E-5	NaN
156	1.000000	0.968957	7.36657e+06	-46439.1	955.818	-29769.6	0.000000	0.000000	6.969129	0.048285	NaN	0.000000	0.001642	0.001694	28.0817	0.128423	0.002052	62.597	-151.418	14.2218	0.074583	0.967603	-0.127894	-0.129248	0.048285	62.597	-0.128472	-7.116295	-0.006785	NaN
156	1.000000	1.010948	7.36657e+06	-46439.1	955.819	-29769.6	0.000000	0.000000	7.011119	0.026786	NaN	0.000000	0.001641	0.001744	28.1018	0.044096	0.001872	23.5598	-24.9491	-167.655	0.032936	1.009642	-0.085903	-0.087209	0.026786	23.5598	-0.086756	-0.905597	-0.029578	NaN
156	1.000000	1.052985	7.36657e+06	-46439.1	955.819	-29769.6	0.000000	0.000000	7.053151	-0.095616	NaN	0.000000	0.001591	0.001690	28.1324	0.080818	0.002127	37.9937	71.9986	10.6079	-0.091102	1.051627	-0.043866	-0.045224	-0.095616	37.9937	-0.041979	-0.051955	1.840361	NaN
156	1.000000	1.095025	7.36657e+06	-46439.1	955.819	-29769.6	0.000000	0.000000	7.095197	0.051531	NaN	0.000000	0.001599	0.001658	28.0946	0.120139	0.001883	63.7879	13.1839	-163.123	0.007165	1.093664	-0.001826	-0.003187	0.051531	63.7879	-0.002432	-0.001737	-29.6709	NaN
156	2.000000	1.114040	7.36657e+06	-46439.1	955.819	-29769.6	0.000000	0.000000	7.114982	18.7774	NaN	0.000000	0.001625	0.001630	28.0816	15.5644	0.001904	8172.86	7.061631	7.427630	18.1421	1.113649	0.017189	0.016798	18.7774	8172.86	0.015466	0.015912	1180.07	59194.8
156	2.000000	1.124485	7.36657e+06	-46439.1	955.819	-29769.6	0.000000	0.000000	7.126275	39.4112	NaN	0.000000	0.001596	0.001670	28.1002	24.9244	0.001770	14080.3	6.654999	-178.771	37.9034	1.124168	0.027634	0.027317	39.4112	14080.3	0.025535	0.031996	1231.77	71918.4
156	2.000000	1.135000	7.36657e+06	-46439.1	955.819	-29769.6	0.000000	0.000000	7.137908	66.6135	NaN	0.000000	0.001546	0.001667	28.1316	35.9711	0.001742	20649.4	4.907360	-1.529678	65.065	1.134680	0.038149	0.037829	66.6135	20649.4	0.035730	0.053459	1246.08	81596.6
156	2.000000	1.145466	7.36657e+06	-46439.1	955.819	-29769.6	0.000000	0.000000	7.149957	105.12	NaN	0.000000	0.001617	0.001728	28.0941	45.1494	0.001742	25912.1	5.601844	176.939	104.815	1.145172	0.048615	0.048321	105.12	25912.1	0.045573	0.079221	1326.92	84111.7
156	2.000000	1.155952	7.36657e+06	-46439.1	955.819	-29769.6	0.000000	0.000000	7.162143	146.477	NaN	0.000000	0.001591	0.001733	28.0826	54.6341	0.001732	31550.5	6.178812	-5.717347	143.949	1.155675	0.059101	0.058823	146.477	31550.5	0.055619	0.110568	1324.77	86689.1
156	2.000000	1.166490	7.36657e+06	-46439.1	955.819	-29769.6	0.000000	0.000000	7.175140	206.298	NaN	0.000000	0.001627	0.001695	28.1005	63.3393	0.001732	36561.4	4.555216	176.897	205.996	1.165992	0.069638	0.069141	206.298	36561.4	0.065407	0.145906	1413.91	87449.9
156	2.000000	1.176906	7.36657e+06	-46439.1	955.82	-29769.6	0.000000	0.000000	7.187722	258.974	NaN	0.000000	0.001707	0.001676	28.1327	74.0222	0.001765	41928.2	4.736746	-5.881291	256.712	1.176577	0.080055	0.079726	258.974	41928.2	0.075423	0.186844	1386.05	88621.7
156	2.000000	1.187370	7.36657e+06	-46439.1	955.819	-29769.6	0.000000	0.000000	7.201051	328.668	NaN	0.000000	0.001713	0.001698	28.0942	82.9363	0.001744	47559.1	1.703466	175.488	323.829	1.187174	0.090519	0.090323	328.668	47559.1	0.085336	0.232007	1416.63	90210.4
156	2.000000	1.197866	7.36657e+06	-46439.1	955.82	-29769.6	0.000000	0.000000	7.214721	405.873	NaN	0.000000	0.001679	0.001692	28.0812	91.9019	0.001849	49702.9	7.782737	-9.997457	399.571	1.197433	0.101015	0.100582	405.873	49702.9	0.094890	0.279831	1450.42	85843.4
156	2.000000	1.204877	7.36657e+06	-46439.1	955.819	-29769.6	0.000000	0.000000	7.224008	461.226	NaN	0.000000	0.001646	0.001698	28.1305	99.8145	0.001799	55475.3	7.574440	-11.3401	456.7	1.204446	0.108026	0.107595	461.226	55475.3	0.101791	0.316964	1455.14	90026