File: remote_trans/data/nanoindenter/0828-1/data/Data_2025-08-06,11h17m57s/2025-07-22_16-23-58_1_716.txt
2025-07-22, 16:23:58, 1
Index	Phase	Displacement	Time	Pos X	Pos Y	Pos Z	Rot A	Rot B	Piezo Z	Force A	Force B	Gripper	Voltage A	Voltage B	Temperature	Amplitude force	Amplitude pos	Stiffness	Phase shift	Phase excitation	Force A raw	Displacement raw	HMax	HMax raw	Real Force	Real Stiffness	Contact Depth	Area	Hardness	Reduced Mod.
[#]	[#]	[um]	[s]	[um]	[um]	[um]	[m°]	[m°]	[um]	[uN]	[uN]	[V]	[V]	[V]	[°C]	[uN]	[um]	[N/m]	[°]	[°]	[uN]	[um]	[um]	[um]	[uN]	[N/m]	[um]	[um^2]	[MPa]	[MPa]
716	1.000000	0.002425	7.37206e+06	-41289.1	1005.82	-29786.6	0.000000	0.000000	6.002808	0.035765	NaN	0.000000	0.001598	0.001759	28.0824	0.094874	0.000981	96.7263	118.456	-157.17	0.043775	0.001124	-1.179212	-1.180512	0.035765	96.7263	-1.179489	-5.834764E+15	-6.129639E-18	NaN
716	1.000000	0.046396	7.37206e+06	-41289.1	1005.82	-29786.6	0.000000	0.000000	6.046782	0.098513	NaN	0.000000	0.001650	0.001769	28.0823	0.054442	0.002057	26.4728	142.418	-164.973	-0.033183	0.045000	-1.135240	-1.136637	0.098513	26.4728	-1.138031	-1.623039E+15	-6.069661E-17	NaN
716	1.000000	0.090353	7.37206e+06	-41289.1	1005.82	-29786.6	0.000000	0.000000	6.090734	-0.012724	NaN	0.000000	0.001586	0.001731	28.0826	0.148987	0.001850	80.5433	51.4189	-171.214	0.007413	0.089083	-1.091283	-1.092554	-0.012724	80.5433	-1.091165	-3.814629E+14	3.335597E-17	NaN
716	1.000000	0.134370	7.37206e+06	-41289.1	1005.82	-29786.6	0.000000	0.000000	6.134755	0.077279	NaN	0.000000	0.001590	0.001761	28.0811	0.099870	0.001945	51.3356	-21.1331	-162.306	0.066465	0.133085	-1.047266	-1.048552	0.077279	51.3356	-1.048395	-1.015882E+14	-7.607099E-16	NaN
716	1.000000	0.178398	7.37206e+06	-41289.1	1005.82	-29786.6	0.000000	0.000000	6.178785	0.113364	NaN	0.000000	0.001626	0.001713	28.0811	0.126290	0.002043	61.8089	-105.103	-164.895	0.094802	0.177130	-1.003238	-1.004507	0.113364	61.8089	-1.004613	-2.617439E+13	-4.331088E-15	NaN
716	1.000000	0.222434	7.37206e+06	-41289.1	1005.82	-29786.6	0.000000	0.000000	6.222815	-0.012823	NaN	0.000000	0.001644	0.001718	28.0809	0.042617	0.001945	21.9154	-139.874	-163.736	-0.035813	0.221163	-0.959202	-0.960473	-0.012823	21.9154	-0.958764	-6.312483E+12	2.031443E-15	NaN
716	1.000000	0.266430	7.37206e+06	-41289.1	1005.82	-29786.6	0.000000	0.000000	6.266811	-0.014619	NaN	0.000000	0.001650	0.001706	28.0818	0.169857	0.001896	89.5717	-177.54	-166.839	0.004643	0.265160	-0.915206	-0.916476	-0.014619	89.5717	-0.915083	-1.624865E+12	8.997245E-15	NaN
716	1.000000	0.310461	7.37206e+06	-41289.1	1005.82	-29786.6	0.000000	0.000000	6.310845	0.057480	NaN	0.000000	0.001630	0.001704	28.0822	0.146120	0.001999	73.0798	106.466	-165.643	0.032405	0.309136	-0.871175	-0.872501	0.057480	73.0798	-0.871765	-4.220121E+11	-1.362034E-13	NaN
716	1.000000	0.354502	7.37206e+06	-41289.1	1005.82	-29786.6	0.000000	0.000000	6.354885	0.032707	NaN	0.000000	0.001594	0.001725	28.0819	0.058810	0.001969	29.8651	34.9948	-166.226	-0.005268	0.353217	-0.827135	-0.828419	0.032707	29.8651	-0.827956	-1.076661E+11	-3.037812E-13	NaN
716	1.000000	0.398482	7.37206e+06	-41289.1	1005.82	-29786.6	0.000000	0.000000	6.398866	0.062763	NaN	0.000000	0.001584	0.001683	28.0807	0.110636	0.002094	52.8378	156.377	-166.41	-0.017227	0.397225	-0.783155	-0.784411	0.062763	52.8378	-0.784046	-2.730238E+10	-2.298810E-12	NaN
716	1.000000	0.442543	7.37206e+06	-41289.1	1005.82	-29786.6	0.000000	0.000000	6.442927	0.051725	NaN	0.000000	0.001651	0.001713	28.081	0.155618	0.002026	76.7959	-123.482	-166.031	0.041837	0.441259	-0.739093	-0.740377	0.051725	76.7959	-0.739598	-6.785483E+9	-7.622858E-12	NaN
716	1.000000	0.486534	7.37206e+06	-41289.1	1005.82	-29786.6	0.000000	0.000000	6.486917	0.031766	NaN	0.000000	0.001608	0.001730	28.081	0.090002	0.001904	47.2662	112.971	-166.7	-0.008102	0.485210	-0.695102	-0.696426	0.031766	47.2662	-0.695606	-1.704192E+9	-1.863997E-11	NaN
716	1.000000	0.530577	7.37206e+06	-41289.1	1005.82	-29786.6	0.000000	0.000000	6.530959	-0.000507	NaN	0.000000	0.001548	0.001722	28.082	0.053665	0.002040	26.3009	114.401	-166.159	0.035095	0.529263	-0.651059	-0.652373	-0.000507	26.3009	-0.651045	-4.185585E+8	1.210340E-12	NaN
716	1.000000	0.574607	7.37206e+06	-41289.1	1005.82	-29786.6	0.000000	0.000000	6.574991	0.060071	NaN	0.000000	0.001617	0.001674	28.0822	0.143598	0.001973	72.779	177.924	-164.905	-0.014021	0.573271	-0.607029	-0.608365	0.060071	72.779	-0.607648	-1.061089E+8	-5.661287E-10	NaN
716	1.000000	0.618566	7.37206e+06	-41289.1	1005.82	-29786.6	0.000000	0.000000	6.618946	-0.037120	NaN	0.000000	0.001615	0.001733	28.0823	0.072873	0.002009	36.2749	91.3	-165.909	0.052335	0.617332	-0.563070	-0.564304	-0.037120	36.2749	-0.562303	-2.513194E+7	1.477000E-9	NaN
716	1.000000	0.662609	7.37206e+06	-41289.1	1005.82	-29786.6	0.000000	0.000000	6.662990	-0.016017	NaN	0.000000	0.001617	0.001683	28.0808	0.031164	0.001968	15.8326	-3.770760	-166.688	0.029786	0.661297	-0.519027	-0.520339	-0.016017	15.8326	-0.518268	-6.159e+06	2.600638E-9	NaN
716	1.000000	0.706643	7.37206e+06	-41289.1	1005.82	-29786.6	0.000000	0.000000	6.707024	-0.000599	NaN	0.000000	0.001632	0.001681	28.0809	0.096032	0.002004	47.912	-10.3547	-165.371	0.065432	0.705344	-0.474994	-0.476292	-0.000599	47.912	-0.474984	-1.53207e+06	3.909487E-10	NaN
716	1.000000	0.750677	7.37206e+06	-41289.1	1005.82	-29786.6	0.000000	0.000000	6.751058	-0.018826	NaN	0.000000	0.001613	0.001701	28.0809	0.099241	0.002095	47.3712	88.2058	-165.548	0.009271	0.749338	-0.430959	-0.432299	-0.018826	47.3712	-0.430661	-364261	5.168288E-8	NaN
716	1.000000	0.794684	7.37206e+06	-41289.1	1005.82	-29786.6	0.000000	0.000000	6.795066	0.004464	NaN	0.000000	0.001640	0.001738	28.0822	0.066449	0.001993	33.3375	-73.5234	-163.112	-0.014240	0.793394	-0.386952	-0.388242	0.004464	33.3375	-0.387053	-87294.8	-5.113403E-8	NaN
716	1.000000	0.838691	7.37206e+06	-41289.1	1005.82	-29786.6	0.000000	0.000000	6.839074	0.040679	NaN	0.000000	0.001598	0.001710	28.0821	0.042487	0.001949	21.7939	-139.442	-168.711	0.052110	0.837350	-0.342946	-0.344286	0.040679	21.7939	-0.344345	-21126.8	-1.925468E-6	NaN
716	1.000000	0.882706	7.37206e+06	-41289.1	1005.82	-29786.6	0.000000	0.000000	6.883090	0.057406	NaN	0.000000	0.001626	0.001704	28.0821	0.087232	0.002023	43.1251	119.941	-166.589	0.080580	0.881405	-0.298930	-0.300231	0.057406	43.1251	-0.299928	-4694.29	-1.222895E-5	NaN
716	1.000000	0.926730	7.37206e+06	-41289.1	1005.82	-29786.6	0.000000	0.000000	6.927113	0.031681	NaN	0.000000	0.001717	0.001754	28.0811	0.073199	0.001952	37.492	-117.057	-166.56	-0.021464	0.925423	-0.254906	-0.256213	0.031681	37.492	-0.255540	-1000.97	-3.164981E-5	NaN
716	1.000000	0.970786	7.37206e+06	-41289.1	1005.82	-29786.6	0.000000	0.000000	6.971170	0.074740	NaN	0.000000	0.001694	0.001722	28.0812	0.073228	0.001953	37.502	46.1036	-167.471	0.020893	0.969474	-0.210851	-0.212162	0.074740	37.502	-0.212345	-209.285	-0.000357	NaN
716	1.000000	1.014745	7.37206e+06	-41289.1	1005.82	-29786.6	0.000000	0.000000	7.015126	-0.016498	NaN	0.000000	0.001656	0.001717	28.0812	0.046584	0.002083	22.3672	-141.976	-166.447	-0.045752	1.013383	-0.166891	-0.168254	-0.016498	22.3672	-0.166338	-35.4616	0.000465	NaN
716	1.000000	1.058759	7.37206e+06	-41289.1	1005.82	-29786.6	0.000000	0.000000	7.059143	0.058537	NaN	0.000000	0.001651	0.001675	28.0823	0.032317	0.001898	17.0297	-38.0825	-164.063	-0.023346	1.057495	-0.122877	-0.124142	0.058537	17.0297	-0.125455	-6.208530	-0.009428	NaN
716	1.000000	1.102800	7.37206e+06	-41289.1	1005.82	-29786.6	0.000000	0.000000	7.103185	0.088070	NaN	0.000000	0.001605	0.001670	28.0842	0.110839	0.001942	57.0729	-83.703	-163.938	0.051510	1.101431	-0.078836	-0.080206	0.088070	57.0729	-0.079994	-0.618772	-0.142330	NaN
716	1.000000	1.146814	7.37206e+06	-41289.1	1005.82	-29786.6	0.000000	0.000000	7.147196	0.024901	NaN	0.000000	0.001647	0.001710	28.0823	0.125377	0.001976	63.4369	79.5038	-166.329	0.012152	1.145525	-0.034823	-0.036111	0.024901	63.4369	-0.035117	-0.032280	-0.771419	NaN
716	2.000000	1.189466	7.37206e+06	-41289.1	1005.82	-29786.6	0.000000	0.000000	7.190203	8.655904	NaN	0.000000	0.001646	0.001695	28.0819	7.995113	0.001588	5033.41	6.373948	-173.214	8.321183	1.189081	0.007830	0.007445	8.655904	5033.41	0.006540	0.005583	1550.37	61545.6
716	2.000000	1.200422	7.37206e+06	-41289.1	1005.82	-29786.6	0.000000	0.000000	7.201845	25.3356	NaN	0.000000	0.001626	0.001712	28.0815	18.8867	0.001808	10448.2	4.348312	-175.753	24.0074	1.200118	0.018786	0.018481	25.3356	10448.2	0.016967	0.017999	1407.6	71151.9
716	2.000000	1.211342	7.37206e+06	-41289.1	1005.82	-29786.6	0.000000	0.000000	7.214123	58.3605	NaN	0.000000	0.001655	0.001750	28.081	28.3983	0.001789	15872.2	4.831661	-179.246	55.814	1.211020	0.029706	0.029384	58.3605	15872.2	0.026949	0.034656	1683.98	77897.1
716	2.000000	1.222332	7.37206e+06	-41289.1	1005.82	-29786.6	0.000000	0.000000	7.226641	95.5667	NaN	0.000000	0.001610	0.001737	28.0806	40.1744	0.001964	20457.1	6.177298	178.699	95.1597	1.222046	0.040695	0.040410	95.5667	20457.1	0.037192	0.056972	1677.42	78304.3
716	2.000000	1.233325	7.37206e+06	-41289.1	1005.82	-29786.6	0.000000	0.000000	7.239680	145.345	NaN	0.000000	0.001636	0.001730	28.0821	49.6086	0.001831	27100.7	7.108047	174.367	144.044	1.232973	0.051689	0.051337	145.345	27100.7	0.047666	0.085337	1703.19	84759.1
716	2.000000	1.244290	7.37206e+06	-41289.1	1005.82	-29786.6	0.000000	0.000000	7.252886	199.878	NaN	0.000000	0.001663	0.001746	28.0826	57.8319	0.001843	31376.8	1.522113	178.66	197.149	1.243992	0.062654	0.062355	199.878	31376.8	0.057876	0.118304	1689.53	83345.6
716	2.000000	1.255314	7.37206e+06	-41289.1	1005.82	-29786.6	0.000000	0.000000	7.266844	271.25	NaN	0.000000	0.001627	0.001730	28.082	67.7454	0.001717	39452.6	1.818264	176.932	269.733	1.255010	0.073678	0.073374	271.25	39452.6	0.068522	0.158126	1715.41	90645.7
716	2.000000	1.266339	7.37206e+06	-41289.1	1005.82	-29786.6	0.000000	0.000000	7.280589	337.453	NaN	0.000000	0.001599	0.001740	28.0809	79.5956	0.001851	43011.1	4.751482	172.948	338.864	1.265958	0.084702	0.084322	337.453	43011.1	0.078818	0.201797	1672.24	87477.6
716	2.000000	1.277196	7.37206e+06	-41289.1	1005.82	-29786.6	0.000000	0.000000	7.294821	419.557	NaN	0.000000	0.001647	0.001736	28.0811	87.845	0.001825	48139.7	2.992559	174.053	415.106	1.277007	0.095560	0.095371	419.557	48139.7	0.089024	0.249969	1678.44	87969.8
716	2.000000	1.287218	7.37206e+06	-41289.1	1005.82	-29786.6	0.000000	0.000000	7.308569	510.257	NaN	0.000000	0.001589	0.001713	28.0811	97.3069	0.001746	55733.3	2.792478	173.061	505.609	1.286952	0.105581	0.105316	510.257	55733.3	0.098715	0.300144	1700.04	92944.3