File: remote_trans/data/nanoindenter/0828-1/data/Data_2025-08-06,11h17m57s/2025-07-22_16-23-58_1_713.txt
2025-07-22, 16:23:58, 1
Index	Phase	Displacement	Time	Pos X	Pos Y	Pos Z	Rot A	Rot B	Piezo Z	Force A	Force B	Gripper	Voltage A	Voltage B	Temperature	Amplitude force	Amplitude pos	Stiffness	Phase shift	Phase excitation	Force A raw	Displacement raw	HMax	HMax raw	Real Force	Real Stiffness	Contact Depth	Area	Hardness	Reduced Mod.
[#]	[#]	[um]	[s]	[um]	[um]	[um]	[m°]	[m°]	[um]	[uN]	[uN]	[V]	[V]	[V]	[°C]	[uN]	[um]	[N/m]	[°]	[°]	[uN]	[um]	[um]	[um]	[uN]	[N/m]	[um]	[um^2]	[MPa]	[MPa]
713	1.000000	0.002329	7.37203e+06	-41439.1	1005.82	-29786.1	0.000000	0.000000	6.002789	0.012063	NaN	0.000000	0.001615	0.001714	28.0842	0.107052	0.001083	98.8893	22.1081	-172.729	0.043619	0.001076	-1.119438	-1.120691	0.012063	98.8893	-1.119530	-9.165690E+14	-1.316131E-17	NaN
713	1.000000	0.044290	7.37203e+06	-41439.1	1005.82	-29786.1	0.000000	0.000000	6.044750	0.004327	NaN	0.000000	0.001603	0.001732	28.0835	0.043015	0.001920	22.4042	144.657	13.0481	-0.057209	0.042985	-1.077478	-1.078783	0.004327	22.4042	-1.077623	-2.509507E+14	-1.724131E-17	NaN
713	1.000000	0.086311	7.37203e+06	-41439.1	1005.82	-29786.1	0.000000	0.000000	6.086768	-0.075235	NaN	0.000000	0.001637	0.001737	28.083	0.065956	0.002084	31.6509	-168.19	-166.072	-0.080406	0.084972	-1.035456	-1.036795	-0.075235	31.6509	-1.033674	-6.440078E+13	1.168237E-15	NaN
713	1.000000	0.128344	7.37203e+06	-41439.1	1005.82	-29786.1	0.000000	0.000000	6.128803	-0.016979	NaN	0.000000	0.001642	0.001724	28.0828	0.122450	0.002085	58.7243	130.107	13.7106	0.014493	0.126960	-0.993423	-0.994807	-0.016979	58.7243	-0.993206	-1.837774E+13	9.238752E-16	NaN
713	1.000000	0.170344	7.37203e+06	-41439.1	1005.82	-29786.2	0.000000	0.000000	6.170800	-0.073599	NaN	0.000000	0.001664	0.001710	28.0841	0.047691	0.001889	25.2435	45.7016	-168.517	-0.045795	0.169002	-0.951424	-0.952766	-0.073599	25.2435	-0.949237	-4.696107E+12	1.567234E-14	NaN
713	1.000000	0.212336	7.37203e+06	-41439.1	1005.82	-29786.2	0.000000	0.000000	6.212795	-0.015403	NaN	0.000000	0.001643	0.001705	28.084	0.024721	0.001968	12.5641	38.996	12.1993	-0.011534	0.210969	-0.909431	-0.910799	-0.015403	12.5641	-0.908512	-1.324530E+12	1.162926E-14	NaN
713	1.000000	0.254355	7.37203e+06	-41439.1	1005.82	-29786.2	0.000000	0.000000	6.254813	-0.047222	NaN	0.000000	0.001640	0.001699	28.0837	0.043318	0.002045	21.1818	-6.642663	-164.974	-0.006145	0.253045	-0.867413	-0.868723	-0.047222	21.1818	-0.865741	-3.497938E+11	1.349984E-13	NaN
713	1.000000	0.296396	7.37203e+06	-41439.1	1005.82	-29786.2	0.000000	0.000000	6.296854	-0.042424	NaN	0.000000	0.001632	0.001690	28.0828	0.081175	0.002129	38.1205	95.6297	14.5682	-0.085403	0.295000	-0.825371	-0.826768	-0.042424	38.1205	-0.824536	-9.676584E+10	4.384193E-13	NaN
713	1.000000	0.338432	7.37203e+06	-41439.1	1005.82	-29786.2	0.000000	0.000000	6.338892	0.009353	NaN	0.000000	0.001653	0.001680	28.0826	0.042460	0.002007	21.1564	132.133	-163.563	0.000949	0.337110	-0.783336	-0.784657	0.009353	21.1564	-0.783667	-2.698114E+10	-3.466453E-13	NaN
713	1.000000	0.380419	7.37203e+06	-41439.1	1005.82	-29786.2	0.000000	0.000000	6.380879	0.001281	NaN	0.000000	0.001644	0.001726	28.0824	0.080159	0.001844	43.4616	156.657	10.8778	-0.053155	0.379078	-0.741349	-0.742690	0.001281	43.4616	-0.741371	-7.173430E+9	-1.786259E-13	NaN
713	1.000000	0.422461	7.37203e+06	-41439.1	1005.82	-29786.2	0.000000	0.000000	6.422922	0.042131	NaN	0.000000	0.001588	0.001708	28.0835	0.050736	0.001969	25.762	-61.1403	-167.198	0.009847	0.421107	-0.699306	-0.700660	0.042131	25.762	-0.700533	-1.989802E+9	-2.117355E-11	NaN
713	1.000000	0.464462	7.37203e+06	-41439.1	1005.82	-29786.2	0.000000	0.000000	6.464922	0.025520	NaN	0.000000	0.001572	0.001708	28.0837	0.007842	0.001984	3.953365	-149.002	14.8094	-0.101250	0.463087	-0.657306	-0.658681	0.025520	3.953365	-0.662147	-5.941270E+8	-4.295349E-11	NaN
713	1.000000	0.506498	7.37203e+06	-41439.1	1005.82	-29786.2	0.000000	0.000000	6.506958	0.012804	NaN	0.000000	0.001608	0.001726	28.0837	0.064296	0.002010	31.99	62.9747	-164.758	-0.014923	0.505174	-0.615270	-0.616594	0.012804	31.99	-0.615570	-1.363740E+8	-9.389092E-11	NaN
713	1.000000	0.548509	7.37203e+06	-41439.1	1005.82	-29786.2	0.000000	0.000000	6.548968	-0.014260	NaN	0.000000	0.001614	0.001701	28.0836	0.079775	0.001983	40.2356	95.3711	12.7234	-0.027508	0.547140	-0.573259	-0.574627	-0.014260	40.2356	-0.572993	-3.531676E+7	4.037709E-10	NaN
713	1.000000	0.590530	7.37203e+06	-41439.1	1005.82	-29786.2	0.000000	0.000000	6.590987	-0.057415	NaN	0.000000	0.001684	0.001674	28.0828	0.141977	0.001954	72.6506	72.5467	-166.365	-0.045961	0.589199	-0.531238	-0.532569	-0.057415	72.6506	-0.530645	-9.15239e+06	6.273204E-9	NaN
713	1.000000	0.632503	7.37203e+06	-41439.1	1005.82	-29786.2	0.000000	0.000000	6.632962	-0.037355	NaN	0.000000	0.001597	0.001694	28.0828	0.050786	0.001957	25.9561	51.594	15.455	-0.015388	0.631199	-0.489264	-0.490569	-0.037355	25.9561	-0.488185	-2.34435e+06	1.593406E-8	NaN
713	1.000000	0.674543	7.37203e+06	-41439.1	1005.82	-29786.2	0.000000	0.000000	6.675002	-0.029861	NaN	0.000000	0.001627	0.001694	28.0829	0.074456	0.002049	36.3339	-97.9591	-166.108	-0.055784	0.673296	-0.447224	-0.448471	-0.029861	36.3339	-0.446608	-611724	4.881395E-8	NaN
713	1.000000	0.716571	7.37203e+06	-41439.1	1005.82	-29786.2	0.000000	0.000000	6.717026	-0.105726	NaN	0.000000	0.001649	0.001730	28.0839	0.105981	0.001942	54.5772	-145.578	11.7724	-0.088055	0.715225	-0.405197	-0.406543	-0.105726	54.5772	-0.403744	-151132	6.995616E-7	NaN
713	1.000000	0.758569	7.37203e+06	-41439.1	1005.82	-29786.2	0.000000	0.000000	6.759030	0.017343	NaN	0.000000	0.001637	0.001644	28.0843	0.032343	0.001943	16.6452	20.5596	-167.633	0.014939	0.757333	-0.363198	-0.364435	0.017343	16.6452	-0.363980	-40675.1	-4.263855E-7	NaN
713	1.000000	0.800604	7.37203e+06	-41439.1	1005.82	-29786.2	0.000000	0.000000	6.801061	-0.072940	NaN	0.000000	0.001628	0.001652	28.0842	0.066665	0.002036	32.7413	-0.579670	16.3506	-0.114385	0.799276	-0.321163	-0.322491	-0.072940	32.7413	-0.319493	-9144.67	7.976274E-6	NaN
713	1.000000	0.842611	7.37203e+06	-41439.1	1005.82	-29786.2	0.000000	0.000000	6.843070	-0.020580	NaN	0.000000	0.001629	0.001669	28.083	0.040983	0.002012	20.3721	170.427	-165.146	-0.068800	0.841295	-0.279156	-0.280472	-0.020580	20.3721	-0.278399	-2232.53	9.218374E-6	NaN
713	1.000000	0.884638	7.37203e+06	-41439.1	1005.82	-29786.2	0.000000	0.000000	6.885100	0.059504	NaN	0.000000	0.001575	0.001662	28.0829	0.091223	0.002038	44.7606	-22.2837	11.6974	-0.028797	0.883253	-0.237129	-0.238514	0.059504	44.7606	-0.238126	-537.35	-0.000111	NaN
713	1.000000	0.926641	7.37203e+06	-41439.1	1005.82	-29786.2	0.000000	0.000000	6.927096	-0.093748	NaN	0.000000	0.001630	0.001660	28.0828	0.048852	0.002120	23.045	-85.5181	-162.395	0.000215	0.925281	-0.195127	-0.196486	-0.093748	23.045	-0.192076	-97.4195	0.000962	NaN
713	1.000000	0.968684	7.37203e+06	-41439.1	1005.82	-29786.2	0.000000	0.000000	6.969142	-0.040351	NaN	0.000000	0.001659	0.001662	28.084	0.048689	0.002005	24.2776	-48.2795	12.5082	-0.100353	0.967263	-0.153084	-0.154504	-0.040351	24.2776	-0.151837	-19.5628	0.002063	NaN
713	1.000000	1.010682	7.37203e+06	-41439.1	1005.82	-29786.2	0.000000	0.000000	7.011138	-0.096643	NaN	0.000000	0.001596	0.001664	28.0837	0.113480	0.001943	58.3998	24.2189	-168.964	-0.154992	1.009399	-0.111085	-0.112368	-0.096643	58.3998	-0.109844	-2.982514	0.032403	NaN
713	1.000000	1.052692	7.37203e+06	-41439.1	1005.82	-29786.2	0.000000	0.000000	7.053152	0.002813	NaN	0.000000	0.001547	0.001687	28.0836	0.141050	0.001956	72.0966	-145.192	13.0672	-0.010221	1.051321	-0.069075	-0.070446	0.002813	72.0966	-0.069105	-0.322722	-0.008716	NaN
713	1.000000	1.094696	7.37203e+06	-41439.1	1005.82	-29786.2	0.000000	0.000000	7.095154	-0.042043	NaN	0.000000	0.001563	0.001702	28.0838	0.031237	0.001949	16.0291	-152.448	-165.547	-0.042165	1.093445	-0.027071	-0.028323	-0.042043	16.0291	-0.025104	-0.016976	2.476552	NaN
713	2.000000	1.127783	7.37203e+06	-41439.1	1005.82	-29786.2	0.000000	0.000000	7.128701	11.1396	NaN	0.000000	0.001573	0.001654	28.0826	12.0801	0.001757	6874.38	5.287839	7.642747	10.4716	1.127440	0.006016	0.005673	11.1396	6874.38	0.004800	0.003952	2818.87	99910.1
713	2.000000	1.138241	7.37203e+06	-41439.1	1005.82	-29786.2	0.000000	0.000000	7.140044	32.6963	NaN	0.000000	0.001527	0.001691	28.0826	23.6112	0.001823	12954.2	4.808608	-177.543	32.5724	1.137916	0.016473	0.016148	32.6963	12954.2	0.014580	0.014730	2219.74	97518
713	2.000000	1.148703	7.37203e+06	-41439.1	1005.82	-29786.2	0.000000	0.000000	7.151858	65.5807	NaN	0.000000	0.001520	0.001662	28.0832	33.1019	0.001697	19502.2	1.782623	0.960391	62.8592	1.148298	0.026936	0.026530	65.5807	19502.2	0.024414	0.029958	2189.1	102944
713	2.000000	1.159189	7.37203e+06	-41439.1	1005.82	-29786.2	0.000000	0.000000	7.163949	104.62	NaN	0.000000	0.001543	0.001690	28.0851	44.603	0.001879	23738.3	1.908527	179.441	103.589	1.158954	0.037422	0.037186	104.62	23738.3	0.034116	0.049708	2104.67	97276.5
713	2.000000	1.169721	7.37203e+06	-41439.1	1005.82	-29786.2	0.000000	0.000000	7.176548	154.926	NaN	0.000000	0.001626	0.001690	28.0842	53.3701	0.001801	29633.3	-0.976685	0.845192	154.548	1.169413	0.047953	0.047645	154.926	29633.3	0.044032	0.074864	2069.44	98950.3
713	2.000000	1.180155	7.37203e+06	-41439.1	1005.82	-29786.2	0.000000	0.000000	7.189858	224.891	NaN	0.000000	0.001551	0.001680	28.0842	64.2195	0.001688	38051.1	3.232454	174.932	221.592	1.179890	0.058388	0.058123	224.891	38051.1	0.053955	0.105030	2141.22	107272
713	2.000000	1.190620	7.37203e+06	-41439.1	1005.82	-29786.2	0.000000	0.000000	7.203003	290.106	NaN	0.000000	0.001556	0.001658	28.083	75.677	0.001780	42506.1	5.119981	-7.790615	285.634	1.190236	0.068853	0.068469	290.106	42506.1	0.063734	0.139537	2079.06	103963
713	2.000000	1.201044	7.37203e+06	-41439.1	1005.82	-29786.2	0.000000	0.000000	7.216457	363.845	NaN	0.000000	0.001568	0.001687	28.0829	84.1733	0.001737	48450.7	1.944477	174.464	359.314	1.200785	0.079276	0.079017	363.845	48450.7	0.073644	0.179227	2030.08	104561
713	2.000000	1.211640	7.37203e+06	-41439.1	1005.82	-29786.2	0.000000	0.000000	7.230420	445.775	NaN	0.000000	0.001631	0.001649	28.0831	95.0717	0.001764	53894.3	3.677532	-8.077057	443.265	1.211263	0.089872	0.089495	445.775	53894.3	0.083669	0.224093	1989.24	104017
713	2.000000	1.222093	7.37203e+06	-41439.1	1005.82	-29786.2	0.000000	0.000000	7.244598	536.413	NaN	0.000000	0.001631	0.001658	28.0841	106.806	0.001853	57627.8	5.822583	169.068	535.239	1.221796	0.100326	0.100028	536.413	57627.8	0.093344	0.271809	1973.49	100989
713	2.000000	1.223008	7.37203e+06	-41439.1	1005.82	-29786.2	0.000000	0.000000	7.246057	549.665	NaN	0.000000	0.001605	0.001656	28.0838	106.27	0.001696	62657	7.554039	167.481	542.153	1.222800	0.101240	0.101033	549.665	62657	0.094661	0.278632	1972.73	108449