File: remote_trans/data/nanoindenter/0828-1/data/Data_2025-08-06,11h17m57s/2025-07-22_16-23-58_1_307.txt
2025-07-22, 16:23:58, 1
Index	Phase	Displacement	Time	Pos X	Pos Y	Pos Z	Rot A	Rot B	Piezo Z	Force A	Force B	Gripper	Voltage A	Voltage B	Temperature	Amplitude force	Amplitude pos	Stiffness	Phase shift	Phase excitation	Force A raw	Displacement raw	HMax	HMax raw	Real Force	Real Stiffness	Contact Depth	Area	Hardness	Reduced Mod.
[#]	[#]	[um]	[s]	[um]	[um]	[um]	[m°]	[m°]	[um]	[uN]	[uN]	[V]	[V]	[V]	[°C]	[uN]	[um]	[N/m]	[°]	[°]	[uN]	[um]	[um]	[um]	[uN]	[N/m]	[um]	[um^2]	[MPa]	[MPa]
307	1.000000	0.002642	7.36807e+06	-53989.1	955.819	-29745	0.000000	0.000000	6.002777	-0.030642	NaN	0.000000	0.001601	0.001601	28.0788	0.057054	0.001009	56.5693	95.7916	-168.625	-0.030389	0.001416	-1.001600	-1.002827	-0.030642	56.5693	-1.001194	-2.354203E+13	1.301580E-15	NaN
307	1.000000	0.042649	7.36807e+06	-53989.1	955.819	-29745	0.000000	0.000000	6.042785	0.004383	NaN	0.000000	0.001636	0.001635	28.0792	0.123702	0.002125	58.2186	-28.0033	-165.921	0.010514	0.041304	-0.961594	-0.962939	0.004383	58.2186	-0.961650	-6.904241E+12	-6.347708E-16	NaN
307	1.000000	0.082657	7.36807e+06	-53989.1	955.819	-29745	0.000000	0.000000	6.082792	-0.014776	NaN	0.000000	0.001668	0.001649	28.0787	0.143886	0.002034	70.7428	138.724	-166.701	0.029990	0.081330	-0.921586	-0.922912	-0.014776	70.7428	-0.921429	-1.979239E+12	7.465282E-15	NaN
307	1.000000	0.122653	7.36807e+06	-53989.1	955.819	-29745	0.000000	0.000000	6.122791	0.042277	NaN	0.000000	0.001642	0.001637	28.0799	0.084974	0.001904	44.6208	-173.172	-163.534	-0.028118	0.121262	-0.881589	-0.882980	0.042277	44.6208	-0.882300	-5.858819E+11	-7.216040E-14	NaN
307	1.000000	0.162668	7.36807e+06	-53989.1	955.819	-29745	0.000000	0.000000	6.162802	-0.038203	NaN	0.000000	0.001629	0.001651	28.0797	0.059896	0.002053	29.1788	140.599	-163.376	-0.026876	0.161335	-0.841575	-0.842908	-0.038203	29.1788	-0.840593	-1.597074E+11	2.392068E-13	NaN
307	1.000000	0.202681	7.36807e+06	-53989.1	955.818	-29745	0.000000	0.000000	6.202816	-0.028402	NaN	0.000000	0.001600	0.001633	28.0797	0.197793	0.002060	95.9945	-9.498062	-165.04	-0.063355	0.201374	-0.801561	-0.802868	-0.028402	95.9945	-0.801339	-4.688571E+10	6.057676E-13	NaN
307	1.000000	0.242700	7.36807e+06	-53989.1	955.818	-29745	0.000000	0.000000	6.242836	0.011843	NaN	0.000000	0.001661	0.001625	28.0783	0.046240	0.002034	22.7362	-129.027	-162.59	0.026190	0.241365	-0.761543	-0.762877	0.011843	22.7362	-0.761933	-1.366478E+10	-8.666631E-13	NaN
307	1.000000	0.282694	7.36807e+06	-53989.1	955.817	-29745	0.000000	0.000000	6.282829	-0.033667	NaN	0.000000	0.001681	0.001667	28.0784	0.116124	0.001976	58.7809	-24.9482	-165.52	0.011085	0.281352	-0.721549	-0.722890	-0.033667	58.7809	-0.721119	-3.799564E+9	8.860866E-12	NaN
307	1.000000	0.322707	7.36807e+06	-53989.1	955.819	-29745	0.000000	0.000000	6.322843	-0.022111	NaN	0.000000	0.001659	0.001658	28.0784	0.047921	0.002009	23.8497	91.686	-163.584	0.011815	0.321441	-0.681535	-0.682801	-0.022111	23.8497	-0.680840	-1.070755E+9	2.065012E-11	NaN
307	1.000000	0.362738	7.36807e+06	-53989.1	955.819	-29745	0.000000	0.000000	6.362873	-0.031181	NaN	0.000000	0.001666	0.001640	28.0786	0.022193	0.001999	11.0999	154.423	-164.459	-0.147608	0.361392	-0.641504	-0.642850	-0.031181	11.0999	-0.639398	-2.897507E+8	1.076145E-10	NaN
307	1.000000	0.402735	7.36807e+06	-53989.1	955.819	-29745	0.000000	0.000000	6.402869	-0.057636	NaN	0.000000	0.001651	0.001700	28.0795	0.137301	0.001926	71.2761	110.953	-166.084	-0.084132	0.401421	-0.601507	-0.602822	-0.057636	71.2761	-0.600900	-8.567641E+7	6.727193E-10	NaN
307	1.000000	0.442782	7.36807e+06	-53989.1	955.819	-29745	0.000000	0.000000	6.442920	0.043824	NaN	0.000000	0.001624	0.001673	28.0795	0.013971	0.002064	6.767756	92.3383	-164.304	0.019044	0.441482	-0.561460	-0.562760	0.043824	6.767756	-0.566317	-2.855791E+7	-1.534552E-9	NaN
307	1.000000	0.482803	7.36807e+06	-53989.1	955.818	-29745	0.000000	0.000000	6.482939	-0.026323	NaN	0.000000	0.001594	0.001687	28.0796	0.059999	0.001789	33.5369	-85.3427	-163.705	0.040390	0.481474	-0.521439	-0.522768	-0.026323	33.5369	-0.520850	-6.68997e+06	3.934678E-9	NaN
307	1.000000	0.522820	7.36807e+06	-53989.1	955.818	-29745	0.000000	0.000000	6.522953	-0.073055	NaN	0.000000	0.001611	0.001708	28.0785	0.095259	0.002029	46.9404	78.7707	-167.447	-0.105010	0.521567	-0.481423	-0.482676	-0.073055	46.9404	-0.480256	-1.81595e+06	4.022966E-8	NaN
307	1.000000	0.562833	7.36807e+06	-53989.1	955.817	-29745	0.000000	0.000000	6.562968	-0.039149	NaN	0.000000	0.001627	0.001647	28.0784	0.024194	0.001926	12.5642	-143.159	-165.436	-0.039725	0.561540	-0.441409	-0.442703	-0.039149	12.5642	-0.439072	-478928	8.174221E-8	NaN
307	1.000000	0.602855	7.36807e+06	-53989.1	955.818	-29745	0.000000	0.000000	6.602990	-0.045536	NaN	0.000000	0.001628	0.001693	28.0784	0.054497	0.001988	27.4094	-127.511	-164.586	-0.020294	0.601575	-0.401387	-0.402667	-0.045536	27.4094	-0.400141	-134279	3.391164E-7	NaN
307	1.000000	0.642892	7.36807e+06	-53989.1	955.819	-29745	0.000000	0.000000	6.643027	-0.026906	NaN	0.000000	0.001582	0.001694	28.0785	0.056449	0.002049	27.5523	-129.664	-163.905	-0.068583	0.641546	-0.361351	-0.362697	-0.026906	27.5523	-0.360618	-36373.3	7.397192E-7	NaN
307	1.000000	0.682884	7.36807e+06	-53989.1	955.818	-29745	0.000000	0.000000	6.683018	-0.049856	NaN	0.000000	0.001554	0.001639	28.0798	0.127339	0.002041	62.3959	-69.7487	-165.401	-0.106204	0.681601	-0.321359	-0.322641	-0.049856	62.3959	-0.320759	-9545.81	5.222819E-6	NaN
307	1.000000	0.722894	7.36807e+06	-53989.1	955.817	-29745	0.000000	0.000000	6.723032	0.024041	NaN	0.000000	0.001570	0.001679	28.0798	0.016329	0.001911	8.542756	-153.597	-163.277	0.075627	0.721603	-0.281348	-0.282639	0.024041	8.542756	-0.283459	-2661.25	-9.033588E-6	NaN
307	1.000000	0.762910	7.36807e+06	-53989.1	955.818	-29745	0.000000	0.000000	6.763046	-0.003741	NaN	0.000000	0.001570	0.001680	28.0798	0.091071	0.002114	43.0839	-52.0738	-164.49	-0.067133	0.761587	-0.241332	-0.242656	-0.003741	43.0839	-0.241267	-601.633	6.218212E-6	NaN
307	1.000000	0.802907	7.36807e+06	-53989.1	955.82	-29745	0.000000	0.000000	6.803042	-0.033653	NaN	0.000000	0.001645	0.001609	28.0787	0.041747	0.001902	21.9517	158.172	-165.832	-0.131786	0.801633	-0.201335	-0.202610	-0.033653	21.9517	-0.200185	-132.661	0.000254	NaN
307	1.000000	0.842953	7.36807e+06	-53989.1	955.818	-29745	0.000000	0.000000	6.843089	-0.009278	NaN	0.000000	0.001699	0.001641	28.0788	0.061514	0.001950	31.5406	-112.924	-165.67	-0.000272	0.841620	-0.161289	-0.162622	-0.009278	31.5406	-0.161069	-28.6387	0.000324	NaN
307	1.000000	0.882956	7.36807e+06	-53989.1	955.818	-29745	0.000000	0.000000	6.883093	0.010407	NaN	0.000000	0.001641	0.001652	28.0783	0.095247	0.002091	45.543	101.366	-166.191	-0.047293	0.881679	-0.121287	-0.122564	0.010407	45.543	-0.121458	-5.169175	-0.002013	NaN
307	1.000000	0.923001	7.36807e+06	-53989.1	955.819	-29745	0.000000	0.000000	6.923137	-0.006602	NaN	0.000000	0.001647	0.001680	28.0797	0.061630	0.001926	32.0061	66.1306	-164.892	0.031788	0.921719	-0.081241	-0.082524	-0.006602	32.0061	-0.081087	-0.658812	0.010021	NaN
307	1.000000	0.963009	7.36807e+06	-53989.1	955.819	-29745	0.000000	0.000000	6.963145	0.008820	NaN	0.000000	0.001650	0.001670	28.0797	0.120987	0.002064	58.6109	50.2624	-166.649	0.021423	0.961713	-0.041234	-0.042529	0.008820	58.6109	-0.041347	-0.049698	-0.177475	NaN
307	1.000000	1.003017	7.36807e+06	-53989.1	955.819	-29745	0.000000	0.000000	7.003152	-0.023702	NaN	0.000000	0.001691	0.001643	28.0807	0.101104	0.002073	48.7781	104.682	-166.409	-0.011709	1.001723	-0.001226	-0.002520	-0.023702	48.7781	-0.000861	-0.000633	37.4409	NaN
307	1.000000	1.043028	7.36807e+06	-53989.1	955.818	-29745	0.000000	0.000000	7.043186	0.529894	NaN	0.000000	0.001610	0.001659	28.0796	0.501101	0.002095	239.146	21.8325	-164.599	0.454416	1.041758	0.038785	0.037515	0.529894	239.146	0.037124	0.056806	9.328116	916.723
307	1.000000	1.083050	7.36807e+06	-53989.1	955.817	-29745	0.000000	0.000000	7.083284	2.392400	NaN	0.000000	0.001624	0.001656	28.0784	2.527713	0.002090	1209.65	29.3907	-167.349	2.350672	1.081731	0.078807	0.077489	2.392400	1209.65	0.077324	0.195151	12.2592	2501.78
307	2.000000	1.104661	7.36807e+06	-53989.1	955.818	-29745	0.000000	0.000000	7.105161	8.850517	NaN	0.000000	0.001624	0.001713	28.0781	6.867069	0.001953	3516.77	14.085	-171.959	8.781980	1.104299	0.100418	0.100056	8.850517	3516.77	0.098531	0.299152	29.5854	5874.5
307	2.000000	1.114635	7.36807e+06	-53989.1	955.818	-29745	0.000000	0.000000	7.115178	9.887854	NaN	0.000000	0.001618	0.001674	28.0791	8.574926	0.002087	4108.58	9.935817	-167.807	10.0304	1.114238	0.110393	0.109996	9.887854	4108.58	0.108588	0.355654	27.8019	6294.35
307	2.000000	1.124587	7.36807e+06	-53989.1	955.818	-29745	0.000000	0.000000	7.125338	14.9447	NaN	0.000000	0.001637	0.001632	28.0801	11.641	0.001964	5926.66	12.4488	-173.749	14.8427	1.124338	0.120344	0.120095	14.9447	5926.66	0.118453	0.415538	35.9647	8399.97
307	2.000000	1.134601	7.36807e+06	-53989.1	955.818	-29745	0.000000	0.000000	7.135760	24.8715	NaN	0.000000	0.001675	0.001612	28.0797	15.9157	0.001873	8497.16	10.4131	-175.83	25.1529	1.134266	0.130358	0.130024	24.8715	8497.16	0.128163	0.478794	51.9462	11219.5
307	2.000000	1.144528	7.36807e+06	-53989.1	955.818	-29745	0.000000	0.000000	7.146966	55.9617	NaN	0.000000	0.001676	0.001632	28.0801	29.7457	0.001825	16296.9	6.063058	-179.768	54.1342	1.144209	0.140285	0.139967	55.9617	16296.9	0.137710	0.545184	102.647	20165.4
307	2.000000	1.154524	7.36807e+06	-53989.1	955.818	-29745	0.000000	0.000000	7.158288	88.1889	NaN	0.000000	0.001675	0.001629	28.0798	39.8815	0.001845	21610.3	7.059704	175.867	87.0258	1.154267	0.150282	0.150024	88.1889	21610.3	0.147221	0.615500	143.28	25166.4
307	2.000000	1.164546	7.36807e+06	-53989.1	955.818	-29745	0.000000	0.000000	7.169735	122.842	NaN	0.000000	0.001631	0.001614	28.0785	47.381	0.001926	24597.9	4.627811	177.871	121.832	1.164236	0.160304	0.159994	122.842	24597.9	0.156558	0.688610	178.391	27082.3
307	2.000000	1.174507	7.36807e+06	-53989.1	955.818	-29745	0.000000	0.000000	7.181261	160.901	NaN	0.000000	0.001623	0.001610	28.0783	55.3982	0.001877	29509.8	5.591069	174.804	160.756	1.174209	0.170264	0.169966	160.901	29509.8	0.166175	0.768190	209.455	30761.3
307	2.000000	1.184651	7.36807e+06	-53989.1	955.819	-29745	0.000000	0.000000	7.193172	203.836	NaN	0.000000	0.001632	0.001627	28.0781	65.2098	0.001799	36238.8	3.612783	175.08	210.353	1.184208	0.180409	0.179965	203.836	36238.8	0.176190	0.855736	238.199	35791.3
307	2.000000	1.194479	7.36807e+06	-53989.1	955.818	-29745	0.000000	0.000000	7.205323	260.313	NaN	0.000000	0.001644	0.001638	28.0795	71.9521	0.001739	41368.1	1.951498	175.834	260.398	1.194203	0.190236	0.189960	260.313	41368.1	0.185517	0.941591	276.461	38950.1
307	2.000000	1.196995	7.36807e+06	-53989.1	955.818	-29745	0.000000	0.000000	7.208273	270.875	NaN	0.000000	0.001658	0.001631	28.0796	75.015	0.001913	39211.5	5.226175	-6.560920	267.494	1.196648	0.192752	0.192406	270.875	39211.5	0.187571	0.961067	281.849	36543.4