File: remote_trans/data/nanoindenter/0828-1/data/Data_2025-08-06,11h17m57s/2025-07-22_16-23-58_1_1140.txt
2025-07-22, 16:23:58, 1
Index	Phase	Displacement	Time	Pos X	Pos Y	Pos Z	Rot A	Rot B	Piezo Z	Force A	Force B	Gripper	Voltage A	Voltage B	Temperature	Amplitude force	Amplitude pos	Stiffness	Phase shift	Phase excitation	Force A raw	Displacement raw	HMax	HMax raw	Real Force	Real Stiffness	Contact Depth	Area	Hardness	Reduced Mod.
[#]	[#]	[um]	[s]	[um]	[um]	[um]	[m°]	[m°]	[um]	[uN]	[uN]	[V]	[V]	[V]	[°C]	[uN]	[um]	[N/m]	[°]	[°]	[uN]	[um]	[um]	[um]	[uN]	[N/m]	[um]	[um^2]	[MPa]	[MPa]
1140	1.000000	0.002888	7.37621e+06	-57139.1	1055.82	-29737.3	0.000000	0.000000	6.002812	-0.014985	NaN	0.000000	0.001684	0.001739	28.0841	0.053612	0.001032	51.9464	110.475	-164.327	0.065123	0.001660	-1.075590	-1.076819	-0.014985	51.9464	-1.075374	-2.340876E+14	6.401510E-17	NaN
1140	1.000000	0.044846	7.37621e+06	-57139.1	1055.82	-29737.3	0.000000	0.000000	6.044769	-0.032891	NaN	0.000000	0.001629	0.001723	28.0842	0.024357	0.002011	12.1116	119.922	13.601	-0.040394	0.043468	-1.033633	-1.035010	-0.032891	12.1116	-1.031596	-6.038758E+13	5.446620E-16	NaN
1140	1.000000	0.086846	7.37621e+06	-57139.1	1055.82	-29737.3	0.000000	0.000000	6.086772	0.028676	NaN	0.000000	0.001641	0.001725	28.0828	0.033619	0.002045	16.4395	131.43	-160.639	-0.042633	0.085492	-0.991632	-0.992986	0.028676	16.4395	-0.992940	-1.822682E+13	-1.573294E-15	NaN
1140	1.000000	0.128884	7.37621e+06	-57139.1	1055.82	-29737.3	0.000000	0.000000	6.128805	-0.061337	NaN	0.000000	0.001602	0.001700	28.0827	0.052454	0.001950	26.9025	139.358	13.1319	-0.079013	0.127549	-0.949595	-0.950930	-0.061337	26.9025	-0.947885	-4.502964E+12	1.362155E-14	NaN
1140	1.000000	0.170875	7.37621e+06	-57139.1	1055.82	-29737.4	0.000000	0.000000	6.170800	0.025046	NaN	0.000000	0.001653	0.001715	28.0827	0.056104	0.002022	27.746	109.309	-164.183	-0.002971	0.169550	-0.907604	-0.908928	0.025046	27.746	-0.908281	-1.315042E+12	-1.904549E-14	NaN
1140	1.000000	0.212880	7.37621e+06	-57139.1	1055.82	-29737.4	0.000000	0.000000	6.212803	-0.037305	NaN	0.000000	0.001664	0.001748	28.0842	0.072180	0.001954	36.947	80.1388	15.416	-0.006519	0.211597	-0.865598	-0.866881	-0.037305	36.947	-0.864841	-3.401246E+11	1.096798E-13	NaN
1140	1.000000	0.254892	7.37621e+06	-57139.1	1055.82	-29737.4	0.000000	0.000000	6.254814	-0.060019	NaN	0.000000	0.001627	0.001725	28.0844	0.049889	0.002083	23.9471	166.2	-164.664	-0.118749	0.253618	-0.823586	-0.824860	-0.060019	23.9471	-0.821706	-8.858264E+10	6.775464E-13	NaN
1140	1.000000	0.296966	7.37621e+06	-57139.1	1055.82	-29737.4	0.000000	0.000000	6.296890	-0.007405	NaN	0.000000	0.001627	0.001754	28.0839	0.108804	0.001938	56.1464	-130.508	15.3871	0.060366	0.295558	-0.781512	-0.782920	-0.007405	56.1464	-0.781413	-2.514407E+10	2.945089E-13	NaN
1140	1.000000	0.338921	7.37621e+06	-57139.1	1055.82	-29737.4	0.000000	0.000000	6.338845	-0.004689	NaN	0.000000	0.001608	0.001785	28.0825	0.009961	0.002019	4.933163	-132.141	-165.068	-0.021808	0.337614	-0.739558	-0.740864	-0.004689	4.933163	-0.738845	-6.627050E+9	7.074904E-13	NaN
1140	1.000000	0.380958	7.37621e+06	-57139.1	1055.82	-29737.4	0.000000	0.000000	6.380883	0.007881	NaN	0.000000	0.001635	0.001767	28.0826	0.030697	0.001966	15.6099	-135.798	15.9758	0.053284	0.379561	-0.697520	-0.698917	0.007881	15.6099	-0.697899	-1.831623E+9	-4.302713E-12	NaN
1140	1.000000	0.422994	7.37621e+06	-57139.1	1055.82	-29737.4	0.000000	0.000000	6.422920	0.035079	NaN	0.000000	0.001620	0.001760	28.0826	0.099273	0.001894	52.4152	-35.6203	-165.823	0.108983	0.421690	-0.655484	-0.656789	0.035079	52.4152	-0.655986	-4.891930E+8	-7.170712E-11	NaN
1140	1.000000	0.465003	7.37621e+06	-57139.1	1055.82	-29737.4	0.000000	0.000000	6.464926	-0.040758	NaN	0.000000	0.001696	0.001734	28.0823	0.066754	0.002037	32.7713	-90.0047	16.6145	0.016318	0.463642	-0.613475	-0.614836	-0.040758	32.7713	-0.612542	-1.239047E+8	3.289455E-10	NaN
1140	1.000000	0.507022	7.37621e+06	-57139.1	1055.82	-29737.4	0.000000	0.000000	6.506948	0.030932	NaN	0.000000	0.001615	0.001768	28.0839	0.074005	0.002029	36.4665	158.476	-165.712	0.038730	0.505763	-0.571456	-0.572715	0.030932	36.4665	-0.572092	-3.431917E+7	-9.012912E-10	NaN
1140	1.000000	0.549026	7.37621e+06	-57139.1	1055.82	-29737.4	0.000000	0.000000	6.548953	0.063427	NaN	0.000000	0.001653	0.001713	28.0836	0.088328	0.002002	44.1214	-122.065	16.6362	-0.007474	0.547693	-0.529452	-0.530785	0.063427	44.1214	-0.530530	-9.11877e+06	-6.955672E-9	NaN
1140	1.000000	0.591080	7.37621e+06	-57139.1	1055.82	-29737.4	0.000000	0.000000	6.591007	0.066704	NaN	0.000000	0.001653	0.001667	28.0835	0.098012	0.001965	49.8744	-18.5038	-164.314	0.071363	0.589786	-0.487398	-0.488692	0.066704	49.8744	-0.488401	-2.36074e+06	-2.825574E-8	NaN
1140	1.000000	0.633054	7.37621e+06	-57139.1	1055.82	-29737.4	0.000000	0.000000	6.632979	0.012224	NaN	0.000000	0.001735	0.001676	28.0825	0.079250	0.002037	38.9145	107.53	16.8618	-0.091237	0.631664	-0.445424	-0.446815	0.012224	38.9145	-0.445659	-593182	-2.060813E-8	NaN
1140	1.000000	0.675073	7.37621e+06	-57139.1	1055.82	-29737.4	0.000000	0.000000	6.674996	-0.044398	NaN	0.000000	0.001737	0.001682	28.0828	0.006195	0.001941	3.191211	-94.9662	-164.654	-0.009843	0.673765	-0.403405	-0.404713	-0.044398	3.191211	-0.392971	-106083	4.185183E-7	NaN
1140	1.000000	0.717099	7.37621e+06	-57139.1	1055.82	-29737.4	0.000000	0.000000	6.717021	-0.047752	NaN	0.000000	0.001708	0.001710	28.0831	0.054508	0.002058	26.4904	-87.6911	14.5219	0.040640	0.715729	-0.361380	-0.362749	-0.047752	26.4904	-0.360028	-35665.2	1.338907E-6	NaN
1140	1.000000	0.759091	7.37621e+06	-57139.1	1055.82	-29737.4	0.000000	0.000000	6.759015	0.005399	NaN	0.000000	0.001700	0.001658	28.0842	0.047117	0.001976	23.846	-80.9546	-163.38	-0.010038	0.757789	-0.319387	-0.320690	0.005399	23.846	-0.319557	-9164.75	-5.891096E-7	NaN
1140	1.000000	0.801108	7.37621e+06	-57139.1	1055.82	-29737.4	0.000000	0.000000	6.801033	0.021183	NaN	0.000000	0.001650	0.001654	28.0842	0.126529	0.001878	67.3721	-80.3999	17.5233	-0.000136	0.799734	-0.277371	-0.278744	0.021183	67.3721	-0.277606	-2171.84	-9.753251E-6	NaN
1140	1.000000	0.843148	7.37621e+06	-57139.1	1055.82	-29737.4	0.000000	0.000000	6.843072	0.006887	NaN	0.000000	0.001630	0.001655	28.0842	0.071771	0.001961	36.6045	22.1562	-161.324	-0.002781	0.841825	-0.235331	-0.236654	0.006887	36.6045	-0.235472	-488.262	-1.410549E-5	NaN
1140	1.000000	0.885153	7.37621e+06	-57139.1	1055.82	-29737.4	0.000000	0.000000	6.885080	0.071599	NaN	0.000000	0.001631	0.001681	28.083	0.043428	0.002001	21.6984	48.9771	12.1795	-0.034051	0.883746	-0.193326	-0.194732	0.071599	21.6984	-0.195800	-112.318	-0.000637	NaN
1140	1.000000	0.927198	7.37621e+06	-57139.1	1055.82	-29737.4	0.000000	0.000000	6.927123	0.012237	NaN	0.000000	0.001673	0.001676	28.0827	0.041281	0.002000	20.6452	66.3055	-164.594	0.029013	0.925910	-0.151280	-0.152568	0.012237	20.6452	-0.151725	-19.4711	-0.000628	NaN
1140	1.000000	0.969219	7.37621e+06	-57139.1	1055.82	-29737.4	0.000000	0.000000	6.969142	-0.049740	NaN	0.000000	0.001633	0.001674	28.0831	0.111958	0.002003	55.9054	72.2837	11.4996	-0.044392	0.967839	-0.109259	-0.110639	-0.049740	55.9054	-0.108592	-2.805934	0.017727	NaN
1140	1.000000	1.011243	7.37621e+06	-57139.1	1055.82	-29737.4	0.000000	0.000000	7.011167	-0.027113	NaN	0.000000	0.001695	0.001662	28.0828	0.070547	0.001941	36.348	126.841	-164.537	-0.062796	1.009860	-0.067235	-0.068619	-0.027113	36.348	-0.066675	-0.277194	0.097813	NaN
1140	1.000000	1.053248	7.37621e+06	-57139.1	1055.82	-29737.4	0.000000	0.000000	7.053173	0.003511	NaN	0.000000	0.001663	0.001678	28.084	0.026985	0.002010	13.4259	58.8606	14.0238	-0.011029	1.051894	-0.025230	-0.026584	0.003511	13.4259	-0.025426	-0.017309	-0.202848	NaN
1140	2.000000	1.090923	7.37621e+06	-57139.1	1055.82	-29737.4	0.000000	0.000000	7.091203	8.647706	NaN	0.000000	0.001658	0.001722	28.0841	10.0591	0.001639	6137.04	9.672848	-172.434	9.176023	1.090588	0.012444	0.012110	8.647706	6137.04	0.011387	0.010765	803.351	54042.4
1140	2.000000	1.101303	7.37621e+06	-57139.1	1055.82	-29737.4	0.000000	0.000000	7.102174	23.0174	NaN	0.000000	0.001670	0.001699	28.084	20.073	0.001777	11297.4	6.077227	5.811990	21.4747	1.100993	0.022824	0.022515	23.0174	11297.4	0.021296	0.024620	934.897	65781.6
1140	2.000000	1.111711	7.37621e+06	-57139.1	1055.82	-29737.4	0.000000	0.000000	7.113377	42.3366	NaN	0.000000	0.001649	0.001654	28.0825	30.7198	0.001831	16782.1	5.477074	-178.841	39.5326	1.111460	0.033232	0.032982	42.3366	16782.1	0.031340	0.043568	971.74	73457.5
1140	2.000000	1.122262	7.37621e+06	-57139.1	1055.82	-29737.4	0.000000	0.000000	7.125358	77.0799	NaN	0.000000	0.001652	0.001648	28.0827	41.9144	0.001923	21796.1	6.511580	-1.774109	75.937	1.121835	0.043784	0.043357	77.0799	21796.1	0.041132	0.066986	1150.69	76941.3
1140	2.000000	1.132708	7.37621e+06	-57139.1	1055.82	-29737.4	0.000000	0.000000	7.138018	130.889	NaN	0.000000	0.001725	0.001682	28.0827	50.8112	0.001730	29371.8	1.689248	179.646	128.166	1.132394	0.054230	0.053916	130.889	29371.8	0.050888	0.095177	1375.22	86983.6
1140	2.000000	1.143237	7.37621e+06	-57139.1	1055.82	-29737.4	0.000000	0.000000	7.151369	199.471	NaN	0.000000	0.001709	0.001666	28.084	60.6722	0.001717	35330.4	3.881805	-3.827191	197.998	1.142882	0.064759	0.064403	199.471	35330.4	0.060525	0.127696	1562.08	90330.2
1140	2.000000	1.153682	7.37621e+06	-57139.1	1055.82	-29737.4	0.000000	0.000000	7.164837	272.955	NaN	0.000000	0.001703	0.001664	28.0839	72.1958	0.001825	39550.1	2.633015	177.152	269.501	1.153373	0.075204	0.074894	272.955	39550.1	0.070028	0.164200	1662.33	89173.2
1140	2.000000	1.164196	7.37621e+06	-57139.1	1055.82	-29737.4	0.000000	0.000000	7.178975	361.028	NaN	0.000000	0.001679	0.001658	28.0843	84.1719	0.001899	44327.8	6.418128	-7.919488	356.57	1.163868	0.085718	0.085389	361.028	44327.8	0.079610	0.205361	1758.01	89369.7
1140	2.000000	1.174633	7.37621e+06	-57139.1	1055.82	-29737.4	0.000000	0.000000	7.193429	458.657	NaN	0.000000	0.001721	0.001643	28.0831	92.9877	0.001720	54060.4	5.323435	171.476	452.728	1.174327	0.096155	0.095849	458.657	54060.4	0.089792	0.253790	1807.23	98042.7
1140	2.000000	1.185175	7.37621e+06	-57139.1	1055.82	-29737.4	0.000000	0.000000	7.208221	561.978	NaN	0.000000	0.001687	0.001684	28.0832	103.758	0.001893	54804.3	8.358233	-11.6667	557.013	1.184774	0.106697	0.106295	561.978	54804.3	0.099006	0.301717	1862.6	91156.6
1140	2.000000	1.187568	7.37621e+06	-57139.1	1055.82	-29737.4	0.000000	0.000000	7.211648	587.086	NaN	0.000000	0.001636	0.001704	28.0828	104.899	0.001914	54807.8	4.620511	172.545	580.491	1.187255	0.109090	0.108777	587.086	54807.8	0.101056	0.312909	1876.22	89517.3