File: remote_trans/data/nanoindenter/0828-1/data/Data_2025-08-06,11h17m57s/2025-07-22_16-23-58_1_586.txt
2025-07-22, 16:23:58, 1
Index	Phase	Displacement	Time	Pos X	Pos Y	Pos Z	Rot A	Rot B	Piezo Z	Force A	Force B	Gripper	Voltage A	Voltage B	Temperature	Amplitude force	Amplitude pos	Stiffness	Phase shift	Phase excitation	Force A raw	Displacement raw	HMax	HMax raw	Real Force	Real Stiffness	Contact Depth	Area	Hardness	Reduced Mod.
[#]	[#]	[um]	[s]	[um]	[um]	[um]	[m°]	[m°]	[um]	[uN]	[uN]	[V]	[V]	[V]	[°C]	[uN]	[um]	[N/m]	[°]	[°]	[uN]	[um]	[um]	[um]	[uN]	[N/m]	[um]	[um^2]	[MPa]	[MPa]
586	1.000000	0.003474	7.37078e+06	-47789.1	1005.82	-29764.7	0.000000	0.000000	6.002784	-0.018869	NaN	0.000000	0.001694	0.001753	28.0778	0.107976	0.000904	119.48	-37.1027	-160.987	-0.048527	0.002177	-1.058311	-1.059607	-0.018869	119.48	-1.058192	-1.375711E+14	1.371594E-16	NaN
586	1.000000	0.043461	7.37078e+06	-47789.1	1005.82	-29764.7	0.000000	0.000000	6.042775	0.054985	NaN	0.000000	0.001633	0.001779	28.0777	0.099657	0.002020	49.3448	23.947	-168.865	0.081373	0.042145	-1.018323	-1.019640	0.054985	49.3448	-1.019159	-4.108064E+13	-1.338472E-15	NaN
586	1.000000	0.083449	7.37078e+06	-47789.1	1005.82	-29764.7	0.000000	0.000000	6.082759	-0.008947	NaN	0.000000	0.001587	0.001770	28.0777	0.040484	0.001965	20.6	88.8973	-166.909	-0.052797	0.082172	-0.978336	-0.979612	-0.008947	20.6	-0.978010	-1.147105E+13	7.799577E-16	NaN
586	1.000000	0.123455	7.37078e+06	-47789.1	1005.82	-29764.7	0.000000	0.000000	6.122762	-0.093888	NaN	0.000000	0.001575	0.001753	28.0784	0.095144	0.002093	45.4596	-33.3239	-163.903	-0.044954	0.122106	-0.938329	-0.939678	-0.093888	45.4596	-0.936780	-3.189325E+12	2.943817E-14	NaN
586	1.000000	0.163482	7.37078e+06	-47789.1	1005.82	-29764.7	0.000000	0.000000	6.162794	0.018018	NaN	0.000000	0.001585	0.001810	28.0786	0.095369	0.002045	46.6281	-71.0851	-163.005	0.031171	0.162198	-0.898302	-0.899586	0.018018	46.6281	-0.898592	-9.728461E+11	-1.852065E-14	NaN
586	1.000000	0.203511	7.37078e+06	-47789.1	1005.82	-29764.7	0.000000	0.000000	6.202823	0.018921	NaN	0.000000	0.001567	0.001756	28.0785	0.005774	0.002093	2.759162	151.731	-164.406	-0.012653	0.202165	-0.858274	-0.859620	0.018921	2.759162	-0.863417	-3.253628E+11	-5.815457E-14	NaN
586	1.000000	0.243531	7.37078e+06	-47789.1	1005.82	-29764.7	0.000000	0.000000	6.242843	0.027667	NaN	0.000000	0.001584	0.001755	28.0784	0.113055	0.002002	56.469	66.6105	-165.186	-0.014630	0.242160	-0.818253	-0.819624	0.027667	56.469	-0.818621	-8.044637E+10	-3.439158E-13	NaN
586	1.000000	0.283545	7.37078e+06	-47789.1	1005.82	-29764.7	0.000000	0.000000	6.282854	-0.062158	NaN	0.000000	0.001530	0.001743	28.0773	0.052859	0.002108	25.0706	-35.399	-163.433	-0.026127	0.282207	-0.778239	-0.779577	-0.062158	25.0706	-0.776380	-2.147986E+10	2.893800E-12	NaN
586	1.000000	0.323535	7.37078e+06	-47789.1	1005.82	-29764.7	0.000000	0.000000	6.322849	0.070032	NaN	0.000000	0.001556	0.001772	28.0773	0.048955	0.002107	23.2353	-128.148	-167.013	0.080755	0.322235	-0.738250	-0.739550	0.070032	23.2353	-0.740510	-6.982459E+9	-1.002967E-11	NaN
586	1.000000	0.363552	7.37078e+06	-47789.1	1005.82	-29764.7	0.000000	0.000000	6.362864	0.025282	NaN	0.000000	0.001562	0.001749	28.0775	0.032459	0.001984	16.358	-69.8405	-168.361	0.083357	0.362264	-0.698232	-0.699521	0.025282	16.358	-0.699392	-1.919647E+9	-1.317024E-11	NaN
586	1.000000	0.403605	7.37078e+06	-47789.1	1005.82	-29764.7	0.000000	0.000000	6.402919	0.068796	NaN	0.000000	0.001615	0.001758	28.0787	0.025682	0.002111	12.1665	6.117551	-164.949	0.084921	0.402309	-0.658180	-0.659475	0.068796	12.1665	-0.662421	-5.992682E+8	-1.148007E-10	NaN
586	1.000000	0.443579	7.37078e+06	-47789.1	1005.82	-29764.7	0.000000	0.000000	6.442888	-0.035150	NaN	0.000000	0.001600	0.001786	28.0786	0.010559	0.001989	5.307509	25.257	-167.31	-0.035754	0.442300	-0.618206	-0.619485	-0.035150	5.307509	-0.613239	-1.266691E+8	2.774926E-10	NaN
586	1.000000	0.483631	7.37078e+06	-47789.1	1005.82	-29764.7	0.000000	0.000000	6.482942	0.004461	NaN	0.000000	0.001597	0.001817	28.0784	0.074853	0.001976	37.8746	176.631	-166.183	0.070258	0.482306	-0.578154	-0.579479	0.004461	37.8746	-0.578242	-4.173112E+7	-1.069050E-10	NaN
586	1.000000	0.523616	7.37078e+06	-47789.1	1005.82	-29764.7	0.000000	0.000000	6.522929	0.052045	NaN	0.000000	0.001594	0.001741	28.0772	0.046296	0.001901	24.3597	-154.731	-166.664	0.028094	0.522304	-0.538168	-0.539480	0.052045	24.3597	-0.539771	-1.225119E+7	-4.248131E-9	NaN
586	1.000000	0.563669	7.37078e+06	-47789.1	1005.82	-29764.7	0.000000	0.000000	6.562982	0.032894	NaN	0.000000	0.001571	0.001772	28.0772	0.073602	0.002116	34.791	-109.289	-166.989	-0.028653	0.562337	-0.498115	-0.499448	0.032894	34.791	-0.498824	-3.30077e+06	-9.965559E-9	NaN
586	1.000000	0.603667	7.37078e+06	-47789.1	1005.82	-29764.7	0.000000	0.000000	6.602978	0.008870	NaN	0.000000	0.001583	0.001849	28.0774	0.094302	0.001864	50.5998	-85.0686	-164.725	0.043901	0.602374	-0.458118	-0.459410	0.008870	50.5998	-0.458249	-892099	-9.942941E-9	NaN
586	1.000000	0.643663	7.37078e+06	-47789.1	1005.82	-29764.7	0.000000	0.000000	6.642974	-8.892505E-6	NaN	0.000000	0.001596	0.001761	28.0773	0.065298	0.002059	31.7089	-170.912	-165.248	-0.022462	0.642375	-0.418122	-0.419409	-8.892505E-6	31.7089	-0.418122	-241975	3.674973E-11	NaN
586	1.000000	0.683668	7.37078e+06	-47789.1	1005.82	-29764.7	0.000000	0.000000	6.682980	0.018968	NaN	0.000000	0.001575	0.001734	28.0784	0.033077	0.002003	16.5149	-173.872	-162.162	0.036687	0.682414	-0.378116	-0.379371	0.018968	16.5149	-0.378978	-66867.3	-2.836709E-7	NaN
586	1.000000	0.723704	7.37078e+06	-47789.1	1005.82	-29764.7	0.000000	0.000000	6.723016	0.024713	NaN	0.000000	0.001619	0.001735	28.0785	0.088761	0.001943	45.6891	137.727	-167.156	0.038668	0.722426	-0.338080	-0.339359	0.024713	45.6891	-0.338486	-17357	-1.423805E-6	NaN
586	1.000000	0.763727	7.37078e+06	-47789.1	1005.82	-29764.7	0.000000	0.000000	6.763037	-0.028160	NaN	0.000000	0.001596	0.001741	28.0787	0.002692	0.001918	1.403845	22.1887	-162.195	-0.012743	0.762444	-0.298058	-0.299341	-0.028160	1.403845	-0.283013	-2620.48	1.074597E-5	NaN
586	1.000000	0.803759	7.37078e+06	-47789.1	1005.82	-29764.7	0.000000	0.000000	6.803069	-0.019744	NaN	0.000000	0.001592	0.001817	28.0773	0.095020	0.002045	46.4722	-86.5231	-167.236	0.075978	0.802498	-0.258026	-0.259287	-0.019744	46.4722	-0.257707	-1080.8	1.826795E-5	NaN
586	1.000000	0.843777	7.37078e+06	-47789.1	1005.82	-29764.7	0.000000	0.000000	6.843087	-0.038477	NaN	0.000000	0.001586	0.001742	28.0772	0.094710	0.002043	46.3567	-81.1909	-169.921	-0.001903	0.842381	-0.218007	-0.219403	-0.038477	46.3567	-0.217385	-252.239	0.000153	NaN
586	1.000000	0.883820	7.37078e+06	-47789.1	1005.82	-29764.7	0.000000	0.000000	6.883131	0.006980	NaN	0.000000	0.001633	0.001788	28.0772	0.108567	0.002019	53.7687	-75.7527	-165.895	0.033513	0.882449	-0.177965	-0.179335	0.006980	53.7687	-0.178062	-56.5501	-0.000123	NaN
586	1.000000	0.923846	7.37078e+06	-47789.1	1005.82	-29764.7	0.000000	0.000000	6.923158	0.025510	NaN	0.000000	0.001601	0.001755	28.0772	0.060054	0.002082	28.8507	178.738	-167.785	0.057081	0.922482	-0.137939	-0.139302	0.025510	28.8507	-0.138602	-11.134	-0.002291	NaN
586	1.000000	0.963817	7.37078e+06	-47789.1	1005.82	-29764.7	0.000000	0.000000	6.963126	-0.029583	NaN	0.000000	0.001575	0.001781	28.0784	0.078433	0.001994	39.3412	-145.304	-167.827	-0.014793	0.962482	-0.097968	-0.099302	-0.029583	39.3412	-0.097404	-1.598901	0.018502	NaN
586	1.000000	1.003811	7.37078e+06	-47789.1	1005.82	-29764.7	0.000000	0.000000	7.003121	-0.012844	NaN	0.000000	0.001580	0.001741	28.0785	0.057321	0.002031	28.2215	-163.658	-169.105	-0.013684	1.002484	-0.057974	-0.059300	-0.012844	28.2215	-0.057633	-0.153843	0.083490	NaN
586	1.000000	1.043849	7.37078e+06	-47789.1	1005.82	-29764.7	0.000000	0.000000	7.043161	0.015336	NaN	0.000000	0.001567	0.001733	28.0785	0.014245	0.001951	7.302862	11.3182	-168.098	0.009153	1.042554	-0.017935	-0.019230	0.015336	7.302862	-0.019510	-0.012205	-1.256487	NaN
586	2.000000	1.071417	7.37078e+06	-47789.1	1005.82	-29764.7	0.000000	0.000000	7.071279	13.4111	NaN	0.000000	0.001570	0.001763	28.0788	14.0554	0.001789	7858.52	4.817050	-172.51	13.018	1.071049	0.009632	0.009265	13.4111	7858.52	0.008352	0.007407	1810.56	83423.6
586	2.000000	1.081282	7.37079e+06	-47789.1	1005.82	-29764.7	0.000000	0.000000	7.081946	32.9072	NaN	0.000000	0.001588	0.001761	28.0781	23.7279	0.001786	13286	4.006295	-177.306	30.8402	1.081040	0.019498	0.019255	32.9072	13286	0.017640	0.018969	1734.8	88134.9
586	2.000000	1.091299	7.37079e+06	-47789.1	1005.82	-29764.7	0.000000	0.000000	7.092945	56.796	NaN	0.000000	0.001595	0.001770	28.0787	35.1499	0.001955	17980.1	8.404188	176.361	56.4996	1.091048	0.029515	0.029264	56.796	17980.1	0.027145	0.035035	1621.13	87763.7
586	2.000000	1.101254	7.37079e+06	-47789.1	1005.82	-29764.7	0.000000	0.000000	7.104320	91.3466	NaN	0.000000	0.001588	0.001802	28.0791	44.9183	0.001838	24439.7	5.832413	175.401	90.5314	1.100951	0.039469	0.039166	91.3466	24439.7	0.036666	0.055696	1640.1	94614.7
586	2.000000	1.111344	7.37079e+06	-47789.1	1005.82	-29764.7	0.000000	0.000000	7.116034	130.844	NaN	0.000000	0.001582	0.001774	28.0794	54.4317	0.001947	27958.7	8.929716	171.903	135.142	1.111019	0.049559	0.049235	130.844	27958.7	0.046049	0.080594	1623.5	89978.4
586	2.000000	1.121236	7.37079e+06	-47789.1	1005.82	-29764.7	0.000000	0.000000	7.128076	183.142	NaN	0.000000	0.001606	0.001810	28.0788	62.5473	0.001816	34444.4	1.899613	177.226	182.137	1.120946	0.059451	0.059161	183.142	34444.4	0.055463	0.110045	1664.24	94865
586	2.000000	1.131208	7.37079e+06	-47789.1	1005.82	-29764.7	0.000000	0.000000	7.140508	242.963	NaN	0.000000	0.001624	0.001739	28.0788	73.6766	0.001868	39440.4	4.725196	173.67	241.892	1.130829	0.069424	0.069044	242.963	39440.4	0.064804	0.143595	1692	95092.3
586	2.000000	1.141170	7.37079e+06	-47789.1	1005.82	-29764.7	0.000000	0.000000	7.153163	308.46	NaN	0.000000	0.001609	0.001783	28.0774	81.2818	0.001705	47672.5	4.616348	171.837	304.621	1.140938	0.079385	0.079154	308.46	47672.5	0.074532	0.183012	1685.46	101813
586	2.000000	1.151226	7.37079e+06	-47789.1	1005.82	-29764.7	0.000000	0.000000	7.165976	375.513	NaN	0.000000	0.001658	0.001762	28.0776	93.4738	0.001816	51475.9	2.204260	173.689	374.639	1.150984	0.089442	0.089199	375.513	51475.9	0.083970	0.225515	1665.14	99035.3
586	2.000000	1.161169	7.37079e+06	-47789.1	1005.82	-29764.7	0.000000	0.000000	7.179382	459.746	NaN	0.000000	0.001643	0.001785	28.0774	105.667	0.001889	55928.2	8.363196	167.225	459.369	1.160851	0.099385	0.099066	459.746	55928.2	0.093219	0.271165	1695.45	98126.7
586	2.000000	1.165556	7.37079e+06	-47789.1	1005.82	-29764.7	0.000000	0.000000	7.185303	497.056	NaN	0.000000	0.001669	0.001763	28.0773	107.894	0.001766	61096.3	5.375135	-10.4814	487.352	1.165309	0.103772	0.103524	497.056	61096.3	0.097670	0.294527	1687.64	102855