File: remote_trans/data/nanoindenter/0828-1/data/Data_2025-08-06,11h17m57s/2025-07-22_16-23-58_1_630.txt
2025-07-22, 16:23:58, 1
Index	Phase	Displacement	Time	Pos X	Pos Y	Pos Z	Rot A	Rot B	Piezo Z	Force A	Force B	Gripper	Voltage A	Voltage B	Temperature	Amplitude force	Amplitude pos	Stiffness	Phase shift	Phase excitation	Force A raw	Displacement raw	HMax	HMax raw	Real Force	Real Stiffness	Contact Depth	Area	Hardness	Reduced Mod.
[#]	[#]	[um]	[s]	[um]	[um]	[um]	[m°]	[m°]	[um]	[uN]	[uN]	[V]	[V]	[V]	[°C]	[uN]	[um]	[N/m]	[°]	[°]	[uN]	[um]	[um]	[um]	[uN]	[N/m]	[um]	[um^2]	[MPa]	[MPa]
630	1.000000	0.002821	7.37121e+06	-45589.1	1005.82	-29771.9	0.000000	0.000000	6.002815	0.052612	NaN	0.000000	0.001646	0.001675	28.0815	0.043952	0.001109	39.6403	55.3159	-168.168	0.015914	0.001541	-1.105539	-1.106819	0.052612	39.6403	-1.106534	-6.134383E+14	-8.576638E-17	NaN
630	1.000000	0.044739	7.37121e+06	-45589.1	1005.82	-29771.9	0.000000	0.000000	6.044732	0.041827	NaN	0.000000	0.001584	0.001675	28.0808	0.019744	0.002089	9.450412	-153.893	10.7027	0.066748	0.043356	-1.063621	-1.065003	0.041827	9.450412	-1.066940	-1.803360E+14	-2.319402E-16	NaN
630	1.000000	0.086796	7.37121e+06	-45589.1	1005.82	-29771.9	0.000000	0.000000	6.086787	0.002733	NaN	0.000000	0.001591	0.001651	28.0807	0.049905	0.001932	25.8281	-172.137	-162.938	0.023129	0.085463	-1.021564	-1.022897	0.002733	25.8281	-1.021643	-4.436687E+13	-6.160224E-17	NaN
630	1.000000	0.128786	7.37121e+06	-45589.1	1005.82	-29771.9	0.000000	0.000000	6.128776	-0.023470	NaN	0.000000	0.001554	0.001651	28.082	0.093441	0.001963	47.5945	-76.6184	16.8961	0.032573	0.127457	-0.979574	-0.980902	-0.023470	47.5945	-0.979204	-1.190384E+13	1.971621E-15	NaN
630	1.000000	0.170761	7.37121e+06	-45589.1	1005.82	-29771.9	0.000000	0.000000	6.170752	0.002739	NaN	0.000000	0.001605	0.001645	28.082	0.022777	0.002011	11.3259	-108.235	-163.988	-0.001838	0.169479	-0.937599	-0.938881	0.002739	11.3259	-0.937780	-3.289943E+12	-8.324471E-16	NaN
630	1.000000	0.212805	7.37121e+06	-45589.1	1005.82	-29771.9	0.000000	0.000000	6.212797	0.015467	NaN	0.000000	0.001621	0.001668	28.082	0.067537	0.002085	32.3919	-158.315	14.0761	-0.001112	0.211501	-0.895555	-0.896859	0.015467	32.3919	-0.895913	-8.950292E+11	-1.728101E-14	NaN
630	1.000000	0.254822	7.37121e+06	-45589.1	1005.82	-29771.9	0.000000	0.000000	6.254814	0.008691	NaN	0.000000	0.001575	0.001709	28.0807	0.155364	0.001936	80.2311	-115.796	-171.056	0.050992	0.253549	-0.853538	-0.854811	0.008691	80.2311	-0.853619	-2.397404E+11	-3.625286E-14	NaN
630	1.000000	0.296862	7.37122e+06	-45589.1	1005.82	-29771.9	0.000000	0.000000	6.296854	0.014848	NaN	0.000000	0.001661	0.001720	28.0808	0.106761	0.001880	56.801	133.694	10.9258	0.035552	0.295474	-0.811498	-0.812886	0.014848	56.801	-0.811694	-6.479636E+10	-2.291475E-13	NaN
630	1.000000	0.338876	7.37122e+06	-45589.1	1005.82	-29771.9	0.000000	0.000000	6.338871	0.071133	NaN	0.000000	0.001565	0.001676	28.0806	0.095137	0.001959	48.5667	-132.27	-167.552	0.047609	0.337569	-0.769483	-0.770790	0.071133	48.5667	-0.770582	-1.791502E+10	-3.970588E-12	NaN
630	1.000000	0.380888	7.37122e+06	-45589.1	1005.82	-29771.9	0.000000	0.000000	6.380881	0.037131	NaN	0.000000	0.001599	0.001715	28.0822	0.104006	0.002040	50.9769	70.4917	14.1922	0.060404	0.379501	-0.727472	-0.728858	0.037131	50.9769	-0.728018	-4.718419E+9	-7.869351E-12	NaN
630	1.000000	0.422935	7.37122e+06	-45589.1	1005.82	-29771.9	0.000000	0.000000	6.422928	0.032603	NaN	0.000000	0.001572	0.001738	28.0818	0.083100	0.001915	43.4009	83.2606	-163.619	0.014935	0.421596	-0.685424	-0.686763	0.032603	43.4009	-0.685988	-1.259154E+9	-2.589246E-11	NaN
630	1.000000	0.464948	7.37122e+06	-45589.1	1005.82	-29771.9	0.000000	0.000000	6.464941	0.050871	NaN	0.000000	0.001584	0.001753	28.0818	0.076690	0.001926	39.8273	-150.948	13.2382	0.005191	0.463536	-0.643412	-0.644823	0.050871	39.8273	-0.644370	-3.390251E+8	-1.500499E-10	NaN
630	1.000000	0.506931	7.37122e+06	-45589.1	1005.82	-29771.9	0.000000	0.000000	6.506922	-0.006565	NaN	0.000000	0.001679	0.001726	28.0807	0.092191	0.002081	44.303	-94.601	-165.74	-0.041025	0.505620	-0.601429	-0.602739	-0.006565	44.303	-0.601317	-8.681658E+7	7.562288E-11	NaN
630	1.000000	0.548966	7.37122e+06	-45589.1	1005.82	-29771.9	0.000000	0.000000	6.548958	0.010678	NaN	0.000000	0.001636	0.001736	28.0806	0.052620	0.002016	26.0946	50.0735	10.9248	0.017224	0.547645	-0.559394	-0.560715	0.010678	26.0946	-0.559701	-2.313332E+7	-4.615828E-10	NaN
630	1.000000	0.590988	7.37122e+06	-45589.1	1005.82	-29771.9	0.000000	0.000000	6.590979	-0.011334	NaN	0.000000	0.001633	0.001761	28.0808	0.054970	0.002006	27.4007	-122.558	-164.088	-0.000719	0.589622	-0.517371	-0.518738	-0.011334	27.4007	-0.517061	-5.92537e+06	1.912843E-9	NaN
630	1.000000	0.632976	7.37122e+06	-45589.1	1005.82	-29771.9	0.000000	0.000000	6.632966	-0.023048	NaN	0.000000	0.001616	0.001729	28.0809	0.091951	0.001926	47.7456	36.7538	11.7975	0.011538	0.631600	-0.475384	-0.476759	-0.023048	47.7456	-0.475022	-1.53394e+06	1.502537E-8	NaN
630	1.000000	0.675030	7.37122e+06	-45589.1	1005.82	-29771.9	0.000000	0.000000	6.675023	0.020098	NaN	0.000000	0.001625	0.001734	28.0821	0.067343	0.002098	32.1	5.458956	-165.568	-0.071179	0.673736	-0.433329	-0.434624	0.020098	32.1	-0.433799	-403441	-4.981677E-8	NaN
630	1.000000	0.717024	7.37122e+06	-45589.1	1005.82	-29771.9	0.000000	0.000000	6.717016	0.021175	NaN	0.000000	0.001691	0.001752	28.0821	0.106856	0.002062	51.8226	-90.278	13.2501	0.067342	0.715644	-0.391336	-0.392715	0.021175	51.8226	-0.391642	-101544	-2.085338E-7	NaN
630	1.000000	0.759070	7.37122e+06	-45589.1	1005.82	-29771.9	0.000000	0.000000	6.759061	-0.016482	NaN	0.000000	0.001683	0.001735	28.0818	0.089742	0.001876	47.8414	-94.1572	-165.678	-0.026872	0.757665	-0.349289	-0.350695	-0.016482	47.8414	-0.349031	-24713.6	6.669350E-7	NaN
630	1.000000	0.801085	7.37122e+06	-45589.1	1005.82	-29771.9	0.000000	0.000000	6.801076	-3.906294E-5	NaN	0.000000	0.001560	0.001755	28.081	0.102250	0.002062	49.5949	123.38	13.1411	0.000743	0.799710	-0.307275	-0.308650	-3.906294E-5	49.5949	-0.307274	-6035.07	6.472662E-9	NaN
630	1.000000	0.843076	7.37122e+06	-45589.1	1005.82	-29771.9	0.000000	0.000000	6.843067	-0.018024	NaN	0.000000	0.001565	0.001747	28.0809	0.057009	0.002089	27.2858	-100.81	-165.952	0.031909	0.841744	-0.265283	-0.266615	-0.018024	27.2858	-0.264788	-1387.24	1.299276E-5	NaN
630	1.000000	0.885095	7.37122e+06	-45589.1	1005.82	-29771.9	0.000000	0.000000	6.885087	0.018372	NaN	0.000000	0.001596	0.001728	28.0808	0.108838	0.001939	56.1437	102.136	11.3715	0.016279	0.883770	-0.223264	-0.224589	0.018372	56.1437	-0.223510	-315.969	-5.814570E-5	NaN
630	1.000000	0.927116	7.37122e+06	-45589.1	1005.82	-29771.9	0.000000	0.000000	6.927105	-0.048369	NaN	0.000000	0.001599	0.001685	28.082	0.057856	0.001945	29.7402	166.781	-162.127	-0.051381	0.925864	-0.181244	-0.182496	-0.048369	29.7402	-0.180024	-61.0764	0.000792	NaN
630	1.000000	0.969142	7.37122e+06	-45589.1	1005.82	-29771.9	0.000000	0.000000	6.969134	0.008242	NaN	0.000000	0.001571	0.001686	28.0822	0.055520	0.002028	27.373	147.991	15.6489	0.059585	0.967794	-0.139218	-0.140565	0.008242	27.373	-0.139444	-11.548	-0.000714	NaN
630	1.000000	1.011170	7.37122e+06	-45589.1	1005.82	-29771.9	0.000000	0.000000	7.011162	0.003743	NaN	0.000000	0.001680	0.001700	28.0821	0.115304	0.002004	57.5324	-163.132	-163.206	-0.046555	1.009866	-0.097189	-0.098494	0.003743	57.5324	-0.097238	-1.585232	-0.002361	NaN
630	1.000000	1.053157	7.37122e+06	-45589.1	1005.82	-29771.9	0.000000	0.000000	7.053147	-0.028058	NaN	0.000000	0.001642	0.001725	28.0808	0.087978	0.002087	42.1567	-28.7498	14.6397	0.046444	1.051832	-0.055202	-0.056528	-0.028058	42.1567	-0.054703	-0.126201	0.222325	NaN
630	1.000000	1.095196	7.37122e+06	-45589.1	1005.82	-29771.9	0.000000	0.000000	7.095185	-0.042074	NaN	0.000000	0.001645	0.001680	28.0807	0.032017	0.001999	16.015	44.4312	-167.6	-0.064973	1.093879	-0.013164	-0.014481	-0.042074	16.015	-0.011193	-0.007068	5.952375	NaN
630	2.000000	1.119303	7.37122e+06	-45589.1	1005.82	-29771.9	0.000000	0.000000	7.119953	16.0209	NaN	0.000000	0.001687	0.001689	28.0805	14.6655	0.001814	8084.47	5.850187	6.096148	15.0044	1.118934	0.010943	0.010574	16.0209	8084.47	0.009457	0.008584	1866.33	79721.5
630	2.000000	1.129727	7.37122e+06	-45589.1	1005.82	-29771.9	0.000000	0.000000	7.131704	48.3236	NaN	0.000000	0.001663	0.001673	28.0807	26.8027	0.001858	14427.8	7.015933	179.126	48.3803	1.129407	0.021367	0.021048	48.3236	14427.8	0.018855	0.020775	2326.08	91454.8
630	2.000000	1.140218	7.37122e+06	-45589.1	1005.82	-29771.9	0.000000	0.000000	7.143591	82.2537	NaN	0.000000	0.001629	0.001703	28.082	36.3927	0.002014	18067.9	5.820451	-0.545345	80.29	1.139762	0.031859	0.031402	82.2537	18067.9	0.028444	0.037581	2188.72	85152.9
630	2.000000	1.150717	7.37122e+06	-45589.1	1005.82	-29771.9	0.000000	0.000000	7.155438	115.06	NaN	0.000000	0.001581	0.001673	28.0819	43.8434	0.001722	25454.4	5.258361	175.162	114.347	1.150471	0.042357	0.042111	115.06	25454.4	0.038967	0.061386	1874.36	93864.2
630	2.000000	1.161152	7.37122e+06	-45589.1	1005.82	-29771.9	0.000000	0.000000	7.167945	165.455	NaN	0.000000	0.001591	0.001663	28.0822	53.6785	0.001856	28917.1	2.016482	-1.544068	162.579	1.160757	0.052793	0.052397	165.455	28917.1	0.048501	0.087838	1883.65	89143.3
630	2.000000	1.171653	7.37122e+06	-45589.1	1005.82	-29771.9	0.000000	0.000000	7.180709	220.519	NaN	0.000000	0.001599	0.001684	28.0811	63.2476	0.001820	34749.8	3.174313	176.157	218.579	1.171324	0.063293	0.062964	220.519	34749.8	0.058533	0.120602	1828.48	91421.5
630	2.000000	1.182151	7.37122e+06	-45589.1	1005.82	-29771.9	0.000000	0.000000	7.193602	278.776	NaN	0.000000	0.001619	0.001673	28.0811	73.4496	0.001814	40484.4	2.931244	-5.603437	274.703	1.181867	0.073791	0.073507	278.776	40484.4	0.068627	0.158547	1758.31	92892.7
630	2.000000	1.192754	7.37122e+06	-45589.1	1005.82	-29771.9	0.000000	0.000000	7.206983	346.37	NaN	0.000000	0.001648	0.001673	28.0809	82.6206	0.001939	42599.7	5.172826	172.422	351.015	1.192366	0.084394	0.084006	346.37	42599.7	0.078296	0.199461	1736.52	87146.5
630	2.000000	1.203046	7.37122e+06	-45589.1	1005.82	-29771.9	0.000000	0.000000	7.220568	426.453	NaN	0.000000	0.001630	0.001684	28.0821	90.0259	0.001837	49000.6	3.896762	-7.577033	418.753	1.202746	0.094686	0.094386	426.453	49000.6	0.088159	0.245701	1735.66	90317.3
630	2.000000	1.211505	7.37122e+06	-45589.1	1005.82	-29771.9	0.000000	0.000000	7.231885	495.97	NaN	0.000000	0.001653	0.001720	28.0824	98.5263	0.001867	52774.7	4.615925	171.496	485.949	1.211210	0.103146	0.102851	495.97	52774.7	0.096097	0.286169	1733.14	90133.8