File: remote_trans/data/nanoindenter/0828-1/data/Data_2025-08-06,11h17m57s/2025-07-22_16-23-58_1_164.txt
2025-07-22, 16:23:58, 1
Index	Phase	Displacement	Time	Pos X	Pos Y	Pos Z	Rot A	Rot B	Piezo Z	Force A	Force B	Gripper	Voltage A	Voltage B	Temperature	Amplitude force	Amplitude pos	Stiffness	Phase shift	Phase excitation	Force A raw	Displacement raw	HMax	HMax raw	Real Force	Real Stiffness	Contact Depth	Area	Hardness	Reduced Mod.
[#]	[#]	[um]	[s]	[um]	[um]	[um]	[m°]	[m°]	[um]	[uN]	[uN]	[V]	[V]	[V]	[°C]	[uN]	[um]	[N/m]	[°]	[°]	[uN]	[um]	[um]	[um]	[uN]	[N/m]	[um]	[um^2]	[MPa]	[MPa]
164	1.000000	0.002543	7.36664e+06	-46839.1	955.818	-29768.3	0.000000	0.000000	6.002801	-0.016874	NaN	0.000000	0.001543	0.001823	28.1257	0.048752	0.000917	53.1401	68.8243	-163.685	0.018694	0.001254	-1.118900	-1.120190	-0.016874	53.1401	-1.118662	-8.923140E+14	1.891043E-17	NaN
164	1.000000	0.044512	7.36664e+06	-46839.1	955.819	-29768.3	0.000000	0.000000	6.044774	0.067416	NaN	0.000000	0.001551	0.001791	28.0855	0.047053	0.001960	24.0117	-13.4834	17.3674	-0.017094	0.043123	-1.076931	-1.078321	0.067416	24.0117	-1.079037	-2.621685E+14	-2.571476E-16	NaN
164	1.000000	0.086524	7.36664e+06	-46839.1	955.818	-29768.3	0.000000	0.000000	6.086785	0.036770	NaN	0.000000	0.001585	0.001796	28.0825	0.050414	0.001942	25.9599	119.219	-165.507	-5.666410E-5	0.085173	-1.034919	-1.036270	0.036770	25.9599	-1.035981	-6.917103E+13	-5.315755E-16	NaN
164	1.000000	0.128539	7.36664e+06	-46839.1	955.818	-29768.3	0.000000	0.000000	6.128799	0.008349	NaN	0.000000	0.001578	0.001749	28.1153	0.164287	0.001969	83.4387	28.4758	13.6243	-0.020477	0.127165	-0.992904	-0.994278	0.008349	83.4387	-0.992979	-1.824860E+13	-4.574969E-16	NaN
164	1.000000	0.170566	7.36664e+06	-46839.1	955.818	-29768.3	0.000000	0.000000	6.170828	0.083534	NaN	0.000000	0.001593	0.001760	28.1266	0.090994	0.001936	47.0049	-66.024	-165.116	0.069793	0.169264	-0.950878	-0.952179	0.083534	47.0049	-0.952210	-5.150368E+12	-1.621904E-14	NaN
164	1.000000	0.212559	7.36664e+06	-46839.1	955.818	-29768.3	0.000000	0.000000	6.212820	0.053769	NaN	0.000000	0.001565	0.001728	28.0863	0.133606	0.001820	73.4165	-151.296	15.8658	0.047682	0.211177	-0.908885	-0.910267	0.053769	73.4165	-0.909434	-1.363066E+12	-3.944716E-14	NaN
164	1.000000	0.254591	7.36664e+06	-46839.1	955.818	-29768.3	0.000000	0.000000	6.254850	-0.010478	NaN	0.000000	0.001611	0.001723	28.0836	0.073134	0.001926	37.9656	135.849	-162.927	-0.004881	0.253243	-0.866852	-0.868200	-0.010478	37.9656	-0.866645	-3.597878E+11	2.912371E-14	NaN
164	1.000000	0.296571	7.36664e+06	-46839.1	955.818	-29768.3	0.000000	0.000000	6.296832	0.028529	NaN	0.000000	0.001586	0.001731	28.1177	0.108656	0.002144	50.6778	14.5867	16.1326	-0.005781	0.295288	-0.824872	-0.826155	0.028529	50.6778	-0.825294	-9.908123E+10	-2.879397E-13	NaN
164	1.000000	0.338607	7.36664e+06	-46839.1	955.818	-29768.3	0.000000	0.000000	6.338867	0.018646	NaN	0.000000	0.001576	0.001726	28.1252	0.067425	0.001881	35.8505	168.344	-162.18	-0.065213	0.337301	-0.782836	-0.784143	0.018646	35.8505	-0.783226	-2.661133E+10	-7.006796E-13	NaN
164	1.000000	0.380622	7.36664e+06	-46839.1	955.819	-29768.3	0.000000	0.000000	6.380882	0.041850	NaN	0.000000	0.001606	0.001766	28.0862	0.022964	0.001935	11.8683	-36.4748	15.1848	0.067987	0.379269	-0.740822	-0.742174	0.041850	11.8683	-0.743466	-7.660623E+9	-5.462970E-12	NaN
164	1.000000	0.422642	7.36664e+06	-46839.1	955.818	-29768.3	0.000000	0.000000	6.422898	-0.062099	NaN	0.000000	0.001612	0.001774	28.0824	0.123279	0.001915	64.3783	-163.337	-166.74	-0.062441	0.421280	-0.698801	-0.700163	-0.062099	64.3783	-0.698078	-1.841955E+9	3.371364E-11	NaN
164	1.000000	0.464695	7.36664e+06	-46839.1	955.819	-29768.3	0.000000	0.000000	6.464951	-0.075343	NaN	0.000000	0.001628	0.001736	28.1163	0.038385	0.002089	18.3723	64.2056	15.3942	-0.055180	0.463339	-0.656748	-0.658104	-0.075343	18.3723	-0.653672	-4.547500E+8	1.656811E-10	NaN
164	1.000000	0.506656	7.36664e+06	-46839.1	955.818	-29768.3	0.000000	0.000000	6.506915	0.013349	NaN	0.000000	0.001613	0.001799	28.1268	0.111609	0.001919	58.1492	153.154	-164.355	0.084150	0.505397	-0.614787	-0.616046	0.013349	58.1492	-0.614960	-1.337622E+8	-9.979821E-11	NaN
164	1.000000	0.548694	7.36664e+06	-46839.1	955.818	-29768.3	0.000000	0.000000	6.548954	0.004275	NaN	0.000000	0.001669	0.001772	28.0891	0.068027	0.002031	33.4943	135.836	14.5842	-0.016119	0.547365	-0.572749	-0.574079	0.004275	33.4943	-0.572844	-3.515023E+7	-1.216164E-10	NaN
164	1.000000	0.590710	7.36665e+06	-46839.1	955.818	-29768.3	0.000000	0.000000	6.590973	0.096842	NaN	0.000000	0.001610	0.001738	28.0823	0.033849	0.002083	16.2501	172.386	-165.582	0.084296	0.589399	-0.530733	-0.532044	0.096842	16.2501	-0.535203	-1.058774E+7	-9.146654E-9	NaN
164	1.000000	0.632723	7.36665e+06	-46839.1	955.818	-29768.3	0.000000	0.000000	6.632979	-0.065588	NaN	0.000000	0.001566	0.001769	28.1151	0.036688	0.001990	18.4342	-90.247	14.8428	0.006320	0.631391	-0.488721	-0.490052	-0.065588	18.4342	-0.486052	-2.18879e+06	2.996543E-8	NaN
164	1.000000	0.674778	7.36665e+06	-46839.1	955.817	-29768.3	0.000000	0.000000	6.675036	-0.018100	NaN	0.000000	0.001597	0.001776	28.1259	0.070099	0.001955	35.8494	-70.9859	-166.875	0.070173	0.673468	-0.446665	-0.447976	-0.018100	35.8494	-0.446287	-605383	2.989797E-8	NaN
164	1.000000	0.716787	7.36665e+06	-46839.1	955.818	-29768.3	0.000000	0.000000	6.717045	-0.028302	NaN	0.000000	0.001593	0.001702	28.0863	0.109263	0.002147	50.8905	51.322	14.8296	-0.012559	0.715416	-0.404656	-0.406027	-0.028302	50.8905	-0.404239	-153607	1.842512E-7	NaN
164	1.000000	0.758761	7.36665e+06	-46839.1	955.818	-29768.3	0.000000	0.000000	6.759021	0.028689	NaN	0.000000	0.001603	0.001753	28.0815	0.034841	0.002078	16.7645	129.774	-164.892	0.047097	0.757477	-0.362683	-0.363966	0.028689	16.7645	-0.363966	-40656.9	-7.056404E-7	NaN
164	1.000000	0.800790	7.36665e+06	-46839.1	955.818	-29768.3	0.000000	0.000000	6.801051	0.071105	NaN	0.000000	0.001649	0.001712	28.114	0.049884	0.002005	24.885	179.866	13.2548	0.095683	0.799499	-0.320654	-0.321944	0.071105	24.885	-0.322797	-10227.6	-6.952280E-6	NaN
164	1.000000	0.842797	7.36665e+06	-46839.1	955.818	-29768.3	0.000000	0.000000	6.843056	0.018212	NaN	0.000000	0.001549	0.001764	28.1275	0.058198	0.002120	27.45	30.7338	-163.934	0.005928	0.841475	-0.278646	-0.279969	0.018212	27.45	-0.279144	-2291.15	-7.948793E-6	NaN
164	1.000000	0.884839	7.36665e+06	-46839.1	955.818	-29768.3	0.000000	0.000000	6.885098	-0.002899	NaN	0.000000	0.001559	0.001737	28.0861	0.077197	0.001890	40.8528	52.5047	17.5845	0.001630	0.883451	-0.236604	-0.237992	-0.002899	40.8528	-0.236551	-507.671	5.710447E-6	NaN
164	1.000000	0.926855	7.36665e+06	-46839.1	955.818	-29768.3	0.000000	0.000000	6.927117	0.081492	NaN	0.000000	0.001571	0.001739	28.0783	0.034345	0.002003	17.1483	-129.951	-164.456	0.010451	0.925508	-0.194588	-0.195935	0.081492	17.1483	-0.198152	-122.827	-0.000663	NaN
164	1.000000	0.968879	7.36665e+06	-46839.1	955.817	-29768.3	0.000000	0.000000	6.969140	0.032592	NaN	0.000000	0.001558	0.001769	28.1116	0.118751	0.001980	59.9834	-29.3992	16.3134	0.004097	0.967512	-0.152564	-0.153932	0.032592	59.9834	-0.152971	-20.5107	-0.001589	NaN
164	1.000000	1.010892	7.36665e+06	-46839.1	955.819	-29768.3	0.000000	0.000000	7.011153	0.060509	NaN	0.000000	0.001593	0.001762	28.1275	0.084070	0.002044	41.1326	20.0127	-166.835	-0.036181	1.009613	-0.110551	-0.111830	0.060509	41.1326	-0.111655	-3.255567	-0.018586	NaN
164	1.000000	1.052892	7.36665e+06	-46839.1	955.819	-29768.3	0.000000	0.000000	7.053155	0.091669	NaN	0.000000	0.001544	0.001629	28.088	0.013522	0.002038	6.633442	-67.5191	14.8314	0.088027	1.051535	-0.068551	-0.069908	0.091669	6.633442	-0.078915	-0.581390	-0.157672	NaN
164	1.000000	1.094921	7.36665e+06	-46839.1	955.819	-29768.3	0.000000	0.000000	7.095185	0.118584	NaN	0.000000	0.001573	0.001677	28.0818	0.135351	0.001951	69.3789	113.554	-167.805	0.058463	1.093595	-0.026522	-0.027848	0.118584	69.3789	-0.027804	-0.020029	-5.920761	NaN
164	2.000000	1.131895	7.36665e+06	-46839.1	955.819	-29768.3	0.000000	0.000000	7.132604	10.9603	NaN	0.000000	0.001573	0.001646	28.1114	11.7471	0.001719	6834.39	9.918417	5.361478	11.2963	1.131576	0.010451	0.010132	10.9603	6834.39	0.009249	0.008358	1311.29	68298.7
164	2.000000	1.142336	7.36665e+06	-46839.1	955.819	-29768.3	0.000000	0.000000	7.143815	29.6827	NaN	0.000000	0.001603	0.001663	28.1281	22.0967	0.001564	14127.5	0.275019	-172.222	28.7902	1.141988	0.020893	0.020545	29.6827	14127.5	0.019317	0.021481	1381.84	88067.3
164	2.000000	1.152839	7.36665e+06	-46839.1	955.819	-29768.3	0.000000	0.000000	7.155319	54.0377	NaN	0.000000	0.001588	0.001660	28.0871	33.9263	0.001896	17891.3	4.460397	2.702144	55.4113	1.152460	0.031395	0.031017	54.0377	17891.3	0.029130	0.038960	1387.01	82814.6
164	2.000000	1.163291	7.36665e+06	-46839.1	955.82	-29768.3	0.000000	0.000000	7.167256	90.1459	NaN	0.000000	0.001577	0.001633	28.0801	43.603	0.001795	24284.9	5.631068	177.263	88.4593	1.162955	0.041848	0.041512	90.1459	24284.9	0.039064	0.061631	1462.67	89373.9
164	2.000000	1.173765	7.36665e+06	-46839.1	955.819	-29768.3	0.000000	0.000000	7.179650	136.839	NaN	0.000000	0.001582	0.001668	28.111	52.2693	0.001736	30101.9	4.566731	-3.306616	133.792	1.173430	0.052322	0.051987	136.839	30101.9	0.048912	0.089081	1536.12	92145.3
164	2.000000	1.184178	7.36665e+06	-46839.1	955.819	-29768.3	0.000000	0.000000	7.192062	185.483	NaN	0.000000	0.001547	0.001626	28.1302	64.2206	0.001757	36542.3	1.226466	178.318	179.103	1.183950	0.062734	0.062507	185.483	36542.3	0.058928	0.121991	1520.46	95588.4
164	2.000000	1.194687	7.36665e+06	-46839.1	955.819	-29768.3	0.000000	0.000000	7.204824	240.286	NaN	0.000000	0.001624	0.001683	28.0886	74.752	0.001853	40331.7	3.613699	-4.787156	234.821	1.194385	0.073244	0.072942	240.286	40331.7	0.068776	0.159143	1509.88	92369
164	2.000000	1.205167	7.36665e+06	-46839.1	955.819	-29768.3	0.000000	0.000000	7.218186	310.383	NaN	0.000000	0.001598	0.001655	28.0817	82.2188	0.001747	47074.4	4.051266	173.349	305.09	1.204886	0.083723	0.083443	310.383	47074.4	0.078778	0.201619	1539.46	95784
164	2.000000	1.215763	7.36665e+06	-46839.1	955.82	-29768.3	0.000000	0.000000	7.231507	376.675	NaN	0.000000	0.001569	0.001611	28.1082	95.1698	0.001791	53146.8	7.463169	-10.8063	374.379	1.215465	0.094320	0.094022	376.675	53146.8	0.089004	0.249873	1507.47	97138.4
164	2.000000	1.226061	7.36665e+06	-46839.1	955.818	-29768.3	0.000000	0.000000	7.245298	461.638	NaN	0.000000	0.001596	0.001654	28.1297	103.045	0.001825	56459.8	1.652695	174.767	451.634	1.225926	0.104618	0.104483	461.638	56459.8	0.098486	0.298907	1544.42	94350.7
164	2.000000	1.228632	7.36665e+06	-46839.1	955.819	-29768.3	0.000000	0.000000	7.248783	483.869	NaN	0.000000	0.001661	0.001617	28.0896	106.604	0.001803	59141.6	2.490657	-6.241801	476.807	1.228324	0.107189	0.106881	483.869	59141.6	0.101053	0.312889	1546.45	96598.6