File: remote_trans/data/nanoindenter/0828-1/data/Data_2025-08-06,11h17m57s/2025-07-22_16-23-58_1_450.txt
2025-07-22, 16:23:58, 1
Index	Phase	Displacement	Time	Pos X	Pos Y	Pos Z	Rot A	Rot B	Piezo Z	Force A	Force B	Gripper	Voltage A	Voltage B	Temperature	Amplitude force	Amplitude pos	Stiffness	Phase shift	Phase excitation	Force A raw	Displacement raw	HMax	HMax raw	Real Force	Real Stiffness	Contact Depth	Area	Hardness	Reduced Mod.
[#]	[#]	[um]	[s]	[um]	[um]	[um]	[m°]	[m°]	[um]	[uN]	[uN]	[V]	[V]	[V]	[°C]	[uN]	[um]	[N/m]	[°]	[°]	[uN]	[um]	[um]	[um]	[uN]	[N/m]	[um]	[um^2]	[MPa]	[MPa]
450	1.000000	0.002983	7.36946e+06	-54589.1	1005.82	-29743.4	0.000000	0.000000	6.002818	0.012999	NaN	0.000000	0.001518	0.001704	28.0829	0.084725	0.000902	93.9295	-146.93	-163.236	0.053074	0.001704	-1.027962	-1.029241	0.012999	93.9295	-1.028066	-5.413366E+13	-2.401314E-16	NaN
450	1.000000	0.042911	7.36946e+06	-54589.1	1005.82	-29743.4	0.000000	0.000000	6.042749	0.069933	NaN	0.000000	0.001638	0.001692	28.0818	0.046439	0.001914	24.2682	-31.1531	-167.613	0.046954	0.041583	-0.988034	-0.989362	0.069933	24.2682	-0.990195	-1.673938E+13	-4.177748E-15	NaN
450	1.000000	0.082924	7.36946e+06	-54589.1	1005.82	-29743.4	0.000000	0.000000	6.082760	0.040977	NaN	0.000000	0.001599	0.001732	28.0816	0.128001	0.002082	61.4713	115.373	-166.978	0.051170	0.081598	-0.948021	-0.949347	0.040977	61.4713	-0.948521	-4.592861E+12	-8.921814E-15	NaN
450	1.000000	0.122954	7.36946e+06	-54589.1	1005.82	-29743.4	0.000000	0.000000	6.122790	0.038134	NaN	0.000000	0.001710	0.001723	28.0818	0.095675	0.001952	49.0075	31.7586	-166.155	0.051749	0.121619	-0.907991	-0.909326	0.038134	49.0075	-0.908575	-1.327124E+12	-2.873418E-14	NaN
450	1.000000	0.162958	7.36946e+06	-54589.1	1005.82	-29743.4	0.000000	0.000000	6.162795	0.024118	NaN	0.000000	0.001696	0.001779	28.0815	0.072693	0.002057	35.3423	-122.17	-167.992	0.091377	0.161674	-0.867986	-0.869271	0.024118	35.3423	-0.868498	-3.811765E+11	-6.327131E-14	NaN
450	1.000000	0.202994	7.36946e+06	-54589.1	1005.82	-29743.4	0.000000	0.000000	6.202832	0.054685	NaN	0.000000	0.001716	0.001735	28.0826	0.107661	0.001956	55.0535	-29.5566	-164.222	-0.062142	0.201630	-0.827951	-0.829315	0.054685	55.0535	-0.828696	-1.101801E+11	-4.963232E-13	NaN
450	1.000000	0.242963	7.36946e+06	-54589.1	1005.82	-29743.4	0.000000	0.000000	6.242801	0.070036	NaN	0.000000	0.001631	0.001704	28.0825	0.063734	0.002007	31.7583	66.8607	-163.591	0.040913	0.241672	-0.787982	-0.789273	0.070036	31.7583	-0.789636	-3.251909E+10	-2.153697E-12	NaN
450	1.000000	0.283001	7.36946e+06	-54589.1	1005.82	-29743.4	0.000000	0.000000	6.282835	-0.030365	NaN	0.000000	0.001642	0.001674	28.0829	0.037190	0.002016	18.45	125.926	-165.293	-0.058383	0.281715	-0.747943	-0.749230	-0.030365	18.45	-0.746709	-8.480453E+9	3.580591E-12	NaN
450	1.000000	0.323023	7.36946e+06	-54589.1	1005.82	-29743.4	0.000000	0.000000	6.322862	0.087093	NaN	0.000000	0.001652	0.001719	28.0817	0.030056	0.001981	15.1755	-165.659	-164.344	0.053115	0.321764	-0.707922	-0.709181	0.087093	15.1755	-0.712226	-2.873621E+9	-3.030761E-11	NaN
450	1.000000	0.363046	7.36946e+06	-54589.1	1005.82	-29743.4	0.000000	0.000000	6.362881	-0.010157	NaN	0.000000	0.001685	0.001720	28.0817	0.054304	0.002027	26.7923	-167.555	-166.506	0.035257	0.361645	-0.667899	-0.669300	-0.010157	26.7923	-0.667615	-7.058924E+8	1.438937E-11	NaN
450	1.000000	0.403101	7.36946e+06	-54589.1	1005.82	-29743.4	0.000000	0.000000	6.402937	0.020950	NaN	0.000000	0.001594	0.001717	28.0816	0.048645	0.002102	23.1378	149.671	-165.158	0.029105	0.401713	-0.627844	-0.629232	0.020950	23.1378	-0.628523	-2.054643E+8	-1.019625E-10	NaN
450	1.000000	0.443080	7.36946e+06	-54589.1	1005.82	-29743.4	0.000000	0.000000	6.442914	-0.035213	NaN	0.000000	0.001606	0.001696	28.0819	0.074807	0.001954	38.2806	-37.5533	-166.874	-0.033811	0.441777	-0.587865	-0.589167	-0.035213	38.2806	-0.587175	-5.542613E+7	6.353090E-10	NaN
450	1.000000	0.483087	7.36946e+06	-54589.1	1005.82	-29743.4	0.000000	0.000000	6.482924	0.046716	NaN	0.000000	0.001615	0.001764	28.0825	0.167580	0.002128	78.7426	-176.631	-166.463	0.033907	0.481797	-0.547858	-0.549148	0.046716	78.7426	-0.548303	-1.608578E+7	-2.904165E-9	NaN
450	1.000000	0.523108	7.36946e+06	-54589.1	1005.82	-29743.4	0.000000	0.000000	6.522946	0.077027	NaN	0.000000	0.001644	0.001772	28.0826	0.044731	0.001998	22.3925	-158.145	-167.071	-0.012171	0.521838	-0.507837	-0.509107	0.077027	22.3925	-0.510417	-4.78877e+06	-1.608493E-8	NaN
450	1.000000	0.563117	7.36946e+06	-54589.1	1005.82	-29743.4	0.000000	0.000000	6.562951	-0.044610	NaN	0.000000	0.001547	0.001733	28.0827	0.055286	0.002098	26.3545	-55.6658	-164.81	-0.004172	0.561798	-0.467828	-0.469147	-0.044610	26.3545	-0.466558	-1.16713e+06	3.822173E-8	NaN
450	1.000000	0.603150	7.36946e+06	-54589.1	1005.82	-29743.4	0.000000	0.000000	6.602983	-0.037790	NaN	0.000000	0.001583	0.001784	28.0814	0.055080	0.002016	27.3202	155.207	-164.569	0.021070	0.601798	-0.427795	-0.429147	-0.037790	27.3202	-0.426758	-320755	1.178140E-7	NaN
450	1.000000	0.643165	7.36946e+06	-54589.1	1005.82	-29743.4	0.000000	0.000000	6.643001	0.021708	NaN	0.000000	0.001563	0.001770	28.0815	0.074542	0.002004	37.2004	-128.437	-164.128	0.013839	0.641911	-0.387780	-0.389034	0.021708	37.2004	-0.388217	-90710.9	-2.393094E-7	NaN
450	1.000000	0.683169	7.36946e+06	-54589.1	1005.82	-29743.4	0.000000	0.000000	6.683007	0.074170	NaN	0.000000	0.001587	0.001765	28.0818	0.060612	0.001921	31.5541	-159.925	-163.302	0.047547	0.681918	-0.347776	-0.349027	0.074170	31.5541	-0.349539	-25136.6	-2.950680E-6	NaN
450	1.000000	0.723201	7.36946e+06	-54589.1	1005.82	-29743.4	0.000000	0.000000	6.723037	0.024323	NaN	0.000000	0.001605	0.001741	28.0831	0.000177	0.001855	0.095673	-144.471	-168.178	0.050841	0.721906	-0.307744	-0.309039	0.024323	0.095673	-0.498415	-3.25767e+06	-7.466312E-9	NaN
450	1.000000	0.763208	7.36946e+06	-54589.1	1005.82	-29743.4	0.000000	0.000000	6.763044	0.019980	NaN	0.000000	0.001645	0.001786	28.0827	0.047843	0.002037	23.4925	93.094	-166.953	0.002289	0.761966	-0.267737	-0.268978	0.019980	23.4925	-0.268375	-1573.35	-1.269899E-5	NaN
450	1.000000	0.803225	7.36946e+06	-54589.1	1005.82	-29743.4	0.000000	0.000000	6.803063	0.054841	NaN	0.000000	0.001603	0.001765	28.0827	0.072379	0.001814	39.8914	112.512	-166.514	0.047494	0.801909	-0.227720	-0.229036	0.054841	39.8914	-0.228751	-382.628	-0.000143	NaN
450	1.000000	0.843203	7.36946e+06	-54589.1	1005.82	-29743.4	0.000000	0.000000	6.843036	-0.056744	NaN	0.000000	0.001584	0.001823	28.0828	0.094432	0.002004	47.1276	142.555	-166.076	-0.001654	0.841952	-0.187742	-0.188993	-0.056744	47.1276	-0.186839	-79.6291	0.000713	NaN
450	1.000000	0.883251	7.36946e+06	-54589.1	1005.82	-29743.4	0.000000	0.000000	6.883083	-0.071434	NaN	0.000000	0.001592	0.001828	28.0813	0.067927	0.002039	33.3192	-70.9961	-166.212	-0.033500	0.881923	-0.147694	-0.149022	-0.071434	33.3192	-0.146086	-15.354	0.004653	NaN
450	1.000000	0.923277	7.36946e+06	-54589.1	1005.82	-29743.4	0.000000	0.000000	6.923112	-0.005494	NaN	0.000000	0.001569	0.001787	28.0814	0.011413	0.002079	5.489590	35.6014	-166.387	0.076641	0.921936	-0.107668	-0.109009	-0.005494	5.489590	-0.106917	-2.584580	0.002126	NaN
450	1.000000	0.963309	7.36946e+06	-54589.1	1005.82	-29743.4	0.000000	0.000000	6.963147	0.069587	NaN	0.000000	0.001563	0.001776	28.0811	0.111024	0.001811	61.3181	27.1028	-167.809	0.054265	0.961987	-0.067636	-0.068958	0.069587	61.3181	-0.068487	-0.310555	-0.224073	NaN
450	1.000000	1.003297	7.36946e+06	-54589.1	1005.82	-29743.4	0.000000	0.000000	7.003130	-0.041594	NaN	0.000000	0.001588	0.001802	28.0823	0.139395	0.001953	71.3571	-129.137	-164.36	0.050404	1.002051	-0.027648	-0.028894	-0.041594	71.3571	-0.027211	-0.019305	2.154552	NaN
450	2.000000	1.042742	7.36946e+06	-54589.1	1005.82	-29743.4	0.000000	0.000000	7.042927	8.491150	NaN	0.000000	0.001580	0.001794	28.0826	7.886770	0.001597	4939.98	8.023711	-172.856	8.309837	1.041990	0.011797	0.011045	8.491150	4939.98	0.010508	0.009752	870.745	45704.7
450	2.000000	1.052793	7.36946e+06	-54589.1	1005.82	-29743.4	0.000000	0.000000	7.053542	22.204	NaN	0.000000	0.001617	0.001771	28.0826	18.0643	0.001888	9570.13	6.840084	-176.884	22.3143	1.052485	0.021848	0.021540	22.204	9570.13	0.020108	0.022713	977.607	58017.3
450	2.000000	1.062740	7.36946e+06	-54589.1	1005.82	-29743.4	0.000000	0.000000	7.064661	50.6867	NaN	0.000000	0.001598	0.001783	28.0826	28.1658	0.001736	16226.1	4.474890	179.901	49.2577	1.062461	0.031796	0.031516	50.6867	16226.1	0.029453	0.039617	1279.42	74481.1
450	2.000000	1.072746	7.36946e+06	-54589.1	1005.82	-29743.4	0.000000	0.000000	7.076037	84.0308	NaN	0.000000	0.001549	0.001785	28.0815	38.7016	0.001833	21109.3	3.186798	-179.898	83.0218	1.072443	0.041801	0.041498	84.0308	21109.3	0.038815	0.061002	1377.51	78086.5
450	2.000000	1.082795	7.36946e+06	-54589.1	1005.82	-29743.4	0.000000	0.000000	7.087870	127.369	NaN	0.000000	0.001602	0.001733	28.0812	48.9696	0.001851	26451	7.540372	173.172	131.195	1.082469	0.051851	0.051525	127.369	26451	0.048239	0.087048	1463.21	81909.7
450	2.000000	1.092744	7.36947e+06	-54589.1	1005.82	-29743.4	0.000000	0.000000	7.100024	180.975	NaN	0.000000	0.001645	0.001813	28.0811	59.0146	0.001773	33283.7	4.890515	174.718	180.257	1.092324	0.061799	0.061380	180.975	33283.7	0.057721	0.117764	1536.76	88613.2
450	2.000000	1.102642	7.36947e+06	-54589.1	1005.82	-29743.4	0.000000	0.000000	7.112205	236.481	NaN	0.000000	0.001661	0.001770	28.0824	69.7114	0.001832	38058.6	4.579626	173.172	233.84	1.102475	0.071697	0.071530	236.481	38058.6	0.067037	0.152244	1553.3	89115.9
450	2.000000	1.112662	7.36947e+06	-54589.1	1005.82	-29743.4	0.000000	0.000000	7.124958	302.91	NaN	0.000000	0.001630	0.001809	28.0825	78.4225	0.001797	43637.2	4.294757	172.901	299.303	1.112239	0.081718	0.081294	302.91	43637.2	0.076511	0.191580	1581.12	91086.8
450	2.000000	1.122626	7.36947e+06	-54589.1	1005.82	-29743.4	0.000000	0.000000	7.137600	368.017	NaN	0.000000	0.001614	0.001762	28.0825	88.6198	0.001770	50063.9	4.514974	170.946	364.451	1.122449	0.091681	0.091504	368.017	50063.9	0.086168	0.236006	1559.36	94153.5
450	2.000000	1.132607	7.36947e+06	-54589.1	1005.82	-29743.4	0.000000	0.000000	7.150776	445.712	NaN	0.000000	0.001616	0.001796	28.0811	96.671	0.001743	55460.3	1.390125	174.071	442.048	1.132447	0.101662	0.101502	445.712	55460.3	0.095635	0.283732	1570.89	95126.5
450	2.000000	1.141170	7.36947e+06	-54589.1	1005.82	-29743.4	0.000000	0.000000	7.162511	522.812	NaN	0.000000	0.001650	0.001736	28.0813	103.616	0.001713	60482.9	5.687412	-11.5127	520.851	1.140787	0.110225	0.109842	522.812	60482.9	0.103742	0.327856	1594.64	96508.2