File: remote_trans/data/nanoindenter/0828-1/data/Data_2025-08-06,11h17m57s/2025-07-22_16-23-58_1_553.txt
2025-07-22, 16:23:58, 1
Index	Phase	Displacement	Time	Pos X	Pos Y	Pos Z	Rot A	Rot B	Piezo Z	Force A	Force B	Gripper	Voltage A	Voltage B	Temperature	Amplitude force	Amplitude pos	Stiffness	Phase shift	Phase excitation	Force A raw	Displacement raw	HMax	HMax raw	Real Force	Real Stiffness	Contact Depth	Area	Hardness	Reduced Mod.
[#]	[#]	[um]	[s]	[um]	[um]	[um]	[m°]	[m°]	[um]	[uN]	[uN]	[V]	[V]	[V]	[°C]	[uN]	[um]	[N/m]	[°]	[°]	[uN]	[um]	[um]	[um]	[uN]	[N/m]	[um]	[um^2]	[MPa]	[MPa]
553	1.000000	0.002798	7.37046e+06	-49439.1	1005.82	-29758.9	0.000000	0.000000	6.002821	-0.040764	NaN	0.000000	0.001713	0.001699	28.0816	0.043811	0.000867	50.5341	165.52	-162.664	-0.010664	0.001544	-1.208149	-1.209403	-0.040764	50.5341	-1.207544	-1.385993E+16	2.941154E-18	NaN
553	1.000000	0.046710	7.37046e+06	-49439.1	1005.82	-29758.9	0.000000	0.000000	6.046732	-0.069958	NaN	0.000000	0.001687	0.001709	28.0814	0.041868	0.001905	21.9757	-53.1983	-165.638	-0.063766	0.045424	-1.164237	-1.165523	-0.069958	21.9757	-1.161849	-3.385750E+15	2.066241E-17	NaN
553	1.000000	0.090738	7.37046e+06	-49439.1	1005.82	-29758.9	0.000000	0.000000	6.090761	-0.042691	NaN	0.000000	0.001712	0.001688	28.0828	0.054945	0.001976	27.8061	19.7154	-164.331	-0.030122	0.089440	-1.120210	-1.121507	-0.042691	27.8061	-1.119058	-9.033054E+14	4.726037E-17	NaN
553	1.000000	0.134749	7.37046e+06	-49439.1	1005.82	-29758.9	0.000000	0.000000	6.134773	-0.020384	NaN	0.000000	0.001637	0.001668	28.0829	0.041246	0.002033	20.293	-96.9273	-163.957	-0.039811	0.133435	-1.076198	-1.077512	-0.020384	20.293	-1.075444	-2.346005E+14	8.688942E-17	NaN
553	1.000000	0.178796	7.37046e+06	-49439.1	1005.82	-29758.9	0.000000	0.000000	6.178820	-0.008199	NaN	0.000000	0.001585	0.001699	28.0833	0.039621	0.001933	20.4997	-166.667	-166.935	-0.067575	0.177444	-1.032151	-1.033503	-0.008199	20.4997	-1.031851	-6.086661E+13	1.347086E-16	NaN
553	1.000000	0.222789	7.37046e+06	-49439.1	1005.82	-29758.9	0.000000	0.000000	6.222812	-0.058694	NaN	0.000000	0.001656	0.001715	28.0816	0.041391	0.002058	20.1145	29.6072	-164.829	0.025387	0.221495	-0.988158	-0.989452	-0.058694	20.1145	-0.985969	-1.468333E+13	3.997334E-15	NaN
553	1.000000	0.266845	7.37046e+06	-49439.1	1005.82	-29758.9	0.000000	0.000000	6.266869	-0.022748	NaN	0.000000	0.001621	0.001697	28.0816	0.122906	0.002167	56.7091	142.907	-165.532	-0.059985	0.265504	-0.944102	-0.945443	-0.022748	56.7091	-0.943801	-3.966565E+12	5.735020E-15	NaN
553	1.000000	0.310832	7.37046e+06	-49439.1	1005.82	-29758.9	0.000000	0.000000	6.310856	-0.001585	NaN	0.000000	0.001616	0.001693	28.0818	0.024291	0.002069	11.7424	-150.34	-164.078	0.014223	0.309506	-0.900116	-0.901441	-0.001585	11.7424	-0.900014	-1.016857E+12	1.558549E-15	NaN
553	1.000000	0.354844	7.37046e+06	-49439.1	1005.82	-29758.9	0.000000	0.000000	6.354865	-0.094136	NaN	0.000000	0.001581	0.001696	28.0828	0.035843	0.002101	17.0583	-81.6464	-165.108	-0.112697	0.353596	-0.856103	-0.857351	-0.094136	17.0583	-0.851964	-2.276847E+11	4.134493E-13	NaN
553	1.000000	0.398849	7.37046e+06	-49439.1	1005.82	-29758.9	0.000000	0.000000	6.398872	-0.046252	NaN	0.000000	0.001616	0.001720	28.0828	0.038975	0.002089	18.6536	-75.9819	-164.629	0.031236	0.397580	-0.812098	-0.813367	-0.046252	18.6536	-0.810238	-6.191639E+10	7.470110E-13	NaN
553	1.000000	0.442894	7.37046e+06	-49439.1	1005.82	-29758.9	0.000000	0.000000	6.442916	-0.076196	NaN	0.000000	0.001595	0.001751	28.0829	0.069144	0.001965	35.1848	-124.648	-159.793	-0.099799	0.441545	-0.768053	-0.769402	-0.076196	35.1848	-0.766429	-1.573063E+10	4.843787E-12	NaN
553	1.000000	0.486889	7.37046e+06	-49439.1	1005.82	-29758.9	0.000000	0.000000	6.486914	0.009583	NaN	0.000000	0.001522	0.001742	28.0817	0.136616	0.002029	67.3261	86.914	-163.947	-0.032387	0.485644	-0.724058	-0.725303	0.009583	67.3261	-0.724165	-4.180841E+9	-2.292239E-12	NaN
553	1.000000	0.530920	7.37046e+06	-49439.1	1005.82	-29758.9	0.000000	0.000000	6.530945	0.010479	NaN	0.000000	0.001552	0.001690	28.0816	0.078147	0.002090	37.3928	80.086	-166.996	-0.044700	0.529631	-0.680027	-0.681316	0.010479	37.3928	-0.680238	-1.050640E+9	-9.973730E-12	NaN
553	1.000000	0.574915	7.37046e+06	-49439.1	1005.82	-29758.9	0.000000	0.000000	6.574937	-0.050127	NaN	0.000000	0.001644	0.001691	28.0816	0.086001	0.001929	44.5803	72.8401	-171.087	0.008552	0.573671	-0.636032	-0.637276	-0.050127	44.5803	-0.635189	-2.536695E+8	1.976086E-10	NaN
553	1.000000	0.618939	7.37046e+06	-49439.1	1005.82	-29758.9	0.000000	0.000000	6.618963	-0.008139	NaN	0.000000	0.001635	0.001717	28.0816	0.036772	0.002046	17.9739	-96.2775	-168.717	0.009234	0.617713	-0.592008	-0.593234	-0.008139	17.9739	-0.591668	-6.392448E+7	1.273231E-10	NaN
553	1.000000	0.663013	7.37046e+06	-49439.1	1005.82	-29758.9	0.000000	0.000000	6.663037	-0.007008	NaN	0.000000	0.001689	0.001725	28.083	0.070077	0.002101	33.353	-11.6472	-167.86	0.005384	0.661678	-0.547934	-0.549269	-0.007008	33.353	-0.547777	-1.581816E+7	4.430173E-10	NaN
553	1.000000	0.707003	7.37046e+06	-49439.1	1005.82	-29758.9	0.000000	0.000000	6.707029	0.017870	NaN	0.000000	0.001655	0.001694	28.0826	0.156241	0.002012	77.6626	145.352	-165.109	0.054781	0.705706	-0.503944	-0.505241	0.017870	77.6626	-0.504116	-3.91225e+06	-4.567722E-9	NaN
553	1.000000	0.751037	7.37046e+06	-49439.1	1005.82	-29758.9	0.000000	0.000000	6.751063	0.029266	NaN	0.000000	0.001619	0.001658	28.0829	0.035498	0.001913	18.5608	-58.3774	-163.487	0.052890	0.749686	-0.459910	-0.461262	0.029266	18.5608	-0.461092	-978065	-2.992204E-8	NaN
553	1.000000	0.795055	7.37046e+06	-49439.1	1005.82	-29758.9	0.000000	0.000000	6.795078	-0.041983	NaN	0.000000	0.001592	0.001660	28.0816	0.086363	0.002041	42.3065	94.5434	-168.333	-0.083872	0.793739	-0.415892	-0.417208	-0.041983	42.3065	-0.415148	-219562	1.912143E-7	NaN
553	1.000000	0.839059	7.37046e+06	-49439.1	1005.82	-29758.9	0.000000	0.000000	6.839083	-0.011245	NaN	0.000000	0.001592	0.001667	28.0814	0.110649	0.002021	54.7514	115.844	-165.783	-0.005283	0.837675	-0.371888	-0.373272	-0.011245	54.7514	-0.371734	-52613.2	2.137337E-7	NaN
553	1.000000	0.883079	7.37046e+06	-49439.1	1005.82	-29758.9	0.000000	0.000000	6.883104	0.022857	NaN	0.000000	0.001642	0.001704	28.0815	0.044475	0.002179	20.4099	63.2721	-163.781	0.027222	0.881752	-0.327868	-0.329195	0.022857	20.4099	-0.328708	-12489.1	-1.830193E-6	NaN
553	1.000000	0.927071	7.37046e+06	-49439.1	1005.82	-29758.9	0.000000	0.000000	6.927097	0.017693	NaN	0.000000	0.001611	0.001699	28.0829	0.061240	0.001967	31.1337	13.1023	-165.138	0.082939	0.925731	-0.283876	-0.285216	0.017693	31.1337	-0.284302	-2740.16	-6.456765E-6	NaN
553	1.000000	0.971123	7.37046e+06	-49439.1	1005.82	-29758.9	0.000000	0.000000	6.971151	0.088340	NaN	0.000000	0.001595	0.001684	28.0826	0.043733	0.002062	21.2092	-65.7436	-163.502	-0.004152	0.969794	-0.239824	-0.241153	0.088340	21.2092	-0.242948	-639.049	-0.000138	NaN
553	1.000000	1.015097	7.37046e+06	-49439.1	1005.82	-29758.9	0.000000	0.000000	7.015123	0.029443	NaN	0.000000	0.001565	0.001676	28.0826	0.076874	0.001965	39.1217	-52.8997	-166.187	-0.017154	1.013856	-0.195850	-0.197091	0.029443	39.1217	-0.196414	-114.975	-0.000256	NaN
553	1.000000	1.059120	7.37046e+06	-49439.1	1005.82	-29758.9	0.000000	0.000000	7.059145	0.019668	NaN	0.000000	0.001597	0.001750	28.0819	0.054015	0.001904	28.3651	97.142	-164.423	-0.087020	1.057884	-0.151827	-0.153063	0.019668	28.3651	-0.152347	-19.9838	-0.000984	NaN
553	1.000000	1.103136	7.37046e+06	-49439.1	1005.82	-29758.9	0.000000	0.000000	7.103160	-0.010940	NaN	0.000000	0.001597	0.001716	28.0818	0.097008	0.002002	48.4562	-138.527	-167.499	-0.098117	1.101823	-0.107812	-0.109124	-0.010940	48.4562	-0.107642	-2.678429	0.004085	NaN
553	1.000000	1.147177	7.37046e+06	-49439.1	1005.82	-29758.9	0.000000	0.000000	7.147203	0.027293	NaN	0.000000	0.001583	0.001707	28.0826	0.049033	0.001966	24.9347	-77.0195	-167.959	0.033964	1.145804	-0.063770	-0.065143	0.027293	24.9347	-0.064591	-0.242787	-0.112416	NaN
553	1.000000	1.191211	7.37046e+06	-49439.1	1005.82	-29758.9	0.000000	0.000000	7.191238	0.068133	NaN	0.000000	0.001583	0.001685	28.0828	0.070638	0.002141	32.9868	-147.829	-164.516	-0.022765	1.189840	-0.019736	-0.021107	0.068133	32.9868	-0.021286	-0.013542	-5.031160	NaN
553	2.000000	1.222773	7.37046e+06	-49439.1	1005.82	-29758.9	0.000000	0.000000	7.223387	14.3442	NaN	0.000000	0.001632	0.001732	28.0837	12.2947	0.001629	7545.61	5.716396	-175.836	14.5761	1.222494	0.011826	0.011547	14.3442	7545.61	0.010400	0.009629	1489.67	70254.4
553	2.000000	1.233740	7.37046e+06	-49439.1	1005.82	-29758.9	0.000000	0.000000	7.235295	37.2159	NaN	0.000000	0.001595	0.001741	28.0829	22.1192	0.001754	12612.9	6.320388	-177.733	37.6795	1.233433	0.022793	0.022486	37.2159	12612.9	0.020580	0.023461	1586.28	75233.6
553	2.000000	1.244694	7.37046e+06	-49439.1	1005.82	-29758.9	0.000000	0.000000	7.247293	62.5952	NaN	0.000000	0.001606	0.001734	28.0817	32.935	0.001812	18179.4	7.102570	176.638	62.8332	1.244402	0.033747	0.033455	62.5952	18179.4	0.031165	0.043192	1449.22	79918.9
553	2.000000	1.255689	7.37046e+06	-49439.1	1005.82	-29758.9	0.000000	0.000000	7.259530	92.8101	NaN	0.000000	0.001602	0.001707	28.0819	43.1136	0.001957	22027.1	5.661086	176.971	94.3764	1.255417	0.044742	0.044470	92.8101	22027.1	0.041582	0.068181	1361.24	77072.5
553	2.000000	1.266734	7.37046e+06	-49439.1	1005.82	-29758.9	0.000000	0.000000	7.272320	135.248	NaN	0.000000	0.001620	0.001724	28.0819	51.4928	0.001800	28606.4	4.455052	176.317	140.097	1.266327	0.055787	0.055379	135.248	28606.4	0.052241	0.099465	1359.76	82870.8
553	2.000000	1.277592	7.37046e+06	-49439.1	1005.82	-29758.9	0.000000	0.000000	7.285365	188.439	NaN	0.000000	0.001612	0.001684	28.0827	63.6162	0.001874	33944.9	5.567153	172.808	185.769	1.277351	0.066645	0.066404	188.439	33944.9	0.062481	0.134855	1397.35	84452.8
553	2.000000	1.288697	7.37046e+06	-49439.1	1005.82	-29758.9	0.000000	0.000000	7.298951	248.771	NaN	0.000000	0.001583	0.001710	28.0826	73.3727	0.001809	40557.8	3.404759	173.842	249.166	1.288223	0.077750	0.077276	248.771	40557.8	0.073150	0.177135	1404.41	88043
553	2.000000	1.299560	7.37047e+06	-49439.1	1005.82	-29758.9	0.000000	0.000000	7.312515	314.45	NaN	0.000000	0.001556	0.001745	28.0826	84.0915	0.001889	44505.4	4.386419	172.619	310.06	1.299230	0.088613	0.088283	314.45	44505.4	0.083314	0.222424	1413.74	86217.4
553	2.000000	1.310623	7.37047e+06	-49439.1	1005.82	-29758.9	0.000000	0.000000	7.326939	396.191	NaN	0.000000	0.001590	0.001721	28.0817	94.1064	0.001736	54201.5	3.949856	171.182	395.809	1.310241	0.099676	0.099294	396.191	54201.5	0.094194	0.276203	1434.42	94225.8
553	2.000000	1.317122	7.37047e+06	-49439.1	1005.82	-29758.9	0.000000	0.000000	7.335479	445.838	NaN	0.000000	0.001583	0.001741	28.0815	100.897	0.001764	57210.5	8.011611	-13.5769	445.363	1.316754	0.106175	0.105806	445.838	57210.5	0.100330	0.308924	1443.2	94042.3