File: remote_trans/data/nanoindenter/0828-1/data/Data_2025-08-06,11h17m57s/2025-07-22_16-23-58_1_429.txt
2025-07-22, 16:23:58, 1
Index	Phase	Displacement	Time	Pos X	Pos Y	Pos Z	Rot A	Rot B	Piezo Z	Force A	Force B	Gripper	Voltage A	Voltage B	Temperature	Amplitude force	Amplitude pos	Stiffness	Phase shift	Phase excitation	Force A raw	Displacement raw	HMax	HMax raw	Real Force	Real Stiffness	Contact Depth	Area	Hardness	Reduced Mod.
[#]	[#]	[um]	[s]	[um]	[um]	[um]	[m°]	[m°]	[um]	[uN]	[uN]	[V]	[V]	[V]	[°C]	[uN]	[um]	[N/m]	[°]	[°]	[uN]	[um]	[um]	[um]	[uN]	[N/m]	[um]	[um^2]	[MPa]	[MPa]
429	1.000000	0.002584	7.36925e+06	-55639.1	1005.82	-29741.2	0.000000	0.000000	6.002795	-0.087625	NaN	0.000000	0.001674	0.001738	28.0799	0.159666	0.001007	158.479	149.1	-162.131	-0.077612	0.001317	-1.101468	-1.102735	-0.087625	158.479	-1.101053	-5.178487E+14	1.692103E-16	NaN
429	1.000000	0.044545	7.36925e+06	-55639.1	1005.82	-29741.2	0.000000	0.000000	6.044761	0.054466	NaN	0.000000	0.001719	0.001744	28.0807	0.100765	0.002077	48.5097	-151.621	11.7649	-0.003470	0.043152	-1.059508	-1.060900	0.054466	48.5097	-1.060350	-1.470684E+14	-3.703454E-16	NaN
429	1.000000	0.086559	7.36925e+06	-55639.1	1005.82	-29741.2	0.000000	0.000000	6.086772	-0.015691	NaN	0.000000	0.001698	0.001739	28.0815	0.034759	0.001952	17.8087	-160.462	-163.25	-0.055461	0.085278	-1.017493	-1.018774	-0.015691	17.8087	-1.016833	-3.822371E+13	4.105014E-16	NaN
429	1.000000	0.128549	7.36925e+06	-55639.1	1005.82	-29741.2	0.000000	0.000000	6.128766	0.050248	NaN	0.000000	0.001698	0.001735	28.0814	0.068133	0.002009	33.9176	-25.2648	14.4899	0.021150	0.127239	-0.975503	-0.976813	0.050248	33.9176	-0.976614	-1.098469E+13	-4.574325E-15	NaN
429	1.000000	0.170596	7.36925e+06	-55639.1	1005.82	-29741.2	0.000000	0.000000	6.170813	0.067302	NaN	0.000000	0.001716	0.001717	28.0813	0.085518	0.002145	39.8616	108.397	-164.713	0.017721	0.169239	-0.933456	-0.934813	0.067302	39.8616	-0.934723	-2.991780E+12	-2.249550E-14	NaN
429	1.000000	0.212595	7.36925e+06	-55639.1	1005.82	-29741.2	0.000000	0.000000	6.212811	0.054362	NaN	0.000000	0.001721	0.001733	28.0799	0.099957	0.002024	49.384	-59.1863	17.1555	0.052968	0.211294	-0.891457	-0.892759	0.054362	49.384	-0.892283	-7.994222E+11	-6.800099E-14	NaN
429	1.000000	0.254625	7.36925e+06	-55639.1	1005.82	-29741.2	0.000000	0.000000	6.254841	0.041514	NaN	0.000000	0.001680	0.001733	28.08	0.021334	0.002043	10.4435	-11.0634	-165.009	0.022671	0.253299	-0.849427	-0.850753	0.041514	10.4435	-0.852408	-2.308594E+11	-1.798248E-13	NaN
429	1.000000	0.296600	7.36925e+06	-55639.1	1005.82	-29741.2	0.000000	0.000000	6.296818	0.086172	NaN	0.000000	0.001684	0.001743	28.08	0.031195	0.001994	15.6414	117.335	15.9083	0.126666	0.295277	-0.807452	-0.808776	0.086172	15.6414	-0.811584	-6.457361E+10	-1.334476E-12	NaN
429	1.000000	0.338658	7.36926e+06	-55639.1	1005.82	-29741.2	0.000000	0.000000	6.338872	-0.001739	NaN	0.000000	0.001701	0.001754	28.0812	0.072302	0.002051	35.2492	-23.2683	-165.941	0.083433	0.337383	-0.765394	-0.766669	-0.001739	35.2492	-0.765357	-1.521158E+10	1.143140E-13	NaN
429	1.000000	0.380658	7.36926e+06	-55639.1	1005.82	-29741.2	0.000000	0.000000	6.380871	-0.034560	NaN	0.000000	0.001657	0.001694	28.0811	0.116620	0.002008	58.0636	107.965	18.0518	-0.074020	0.379305	-0.723394	-0.724747	-0.034560	58.0636	-0.722948	-4.024137E+9	8.588208E-12	NaN
429	1.000000	0.422703	7.36926e+06	-55639.1	1005.82	-29741.2	0.000000	0.000000	6.422921	0.067850	NaN	0.000000	0.001774	0.001703	28.0812	0.055504	0.002015	27.5464	-172.418	-163.712	0.032048	0.421370	-0.681349	-0.682682	0.067850	27.5464	-0.683196	-1.153213E+9	-5.883576E-11	NaN
429	1.000000	0.464702	7.36926e+06	-55639.1	1005.82	-29741.2	0.000000	0.000000	6.464917	-0.001011	NaN	0.000000	0.001757	0.001723	28.0801	0.068392	0.002007	34.0799	135.85	12.9326	0.054656	0.463355	-0.639350	-0.640697	-0.001011	34.0799	-0.639328	-2.891103E+8	3.498508E-12	NaN
429	1.000000	0.506703	7.36926e+06	-55639.1	1005.82	-29741.2	0.000000	0.000000	6.506920	0.076379	NaN	0.000000	0.001748	0.001743	28.0799	0.034609	0.001995	17.347	-40.471	-164.185	0.003444	0.505429	-0.597349	-0.598623	0.076379	17.347	-0.600651	-8.500270E+7	-8.985435E-10	NaN
429	1.000000	0.548750	7.36926e+06	-55639.1	1005.82	-29741.2	0.000000	0.000000	6.548965	0.030223	NaN	0.000000	0.001727	0.001702	28.0797	0.043796	0.001929	22.7008	108.352	13.2812	0.004689	0.547396	-0.555302	-0.556657	0.030223	22.7008	-0.556301	-2.075829E+7	-1.455930E-9	NaN
429	1.000000	0.590786	7.36926e+06	-55639.1	1005.82	-29741.2	0.000000	0.000000	6.591001	0.026013	NaN	0.000000	0.001736	0.001668	28.0805	0.138428	0.001980	69.9301	-82.7561	-166.641	0.005838	0.589445	-0.513267	-0.514607	0.026013	69.9301	-0.513546	-5.29405e+06	-4.913551E-9	NaN
429	1.000000	0.632778	7.36926e+06	-55639.1	1005.82	-29741.2	0.000000	0.000000	6.632993	0.006389	NaN	0.000000	0.001648	0.001700	28.081	0.117705	0.001918	61.372	59.3093	14.2721	0.033309	0.631414	-0.471274	-0.472638	0.006389	61.372	-0.471352	-1.3626e+06	-4.688733E-9	NaN
429	1.000000	0.674790	7.36926e+06	-55639.1	1005.82	-29741.2	0.000000	0.000000	6.675005	0.019467	NaN	0.000000	0.001655	0.001689	28.081	0.063055	0.002081	30.2989	-83.691	-166.856	0.015750	0.673524	-0.429262	-0.430528	0.019467	30.2989	-0.429744	-353540	-5.506198E-8	NaN
429	1.000000	0.716806	7.36926e+06	-55639.1	1005.82	-29741.2	0.000000	0.000000	6.717018	-0.043418	NaN	0.000000	0.001690	0.001699	28.081	0.073923	0.002020	36.5931	-160.79	14.0347	-0.056842	0.715433	-0.387246	-0.388619	-0.043418	36.5931	-0.386356	-85313.1	5.089256E-7	NaN
429	1.000000	0.758862	7.36926e+06	-55639.1	1005.82	-29741.2	0.000000	0.000000	6.759076	-0.002528	NaN	0.000000	0.001664	0.001712	28.0799	0.104347	0.002001	52.1439	-112.036	-162.585	0.026977	0.757479	-0.345190	-0.346573	-0.002528	52.1439	-0.345154	-21706.6	1.164727E-7	NaN
429	1.000000	0.800848	7.36926e+06	-55639.1	1005.82	-29741.2	0.000000	0.000000	6.801064	0.045837	NaN	0.000000	0.001659	0.001692	28.0799	0.093107	0.001862	50.0046	-130.758	14.9388	0.078067	0.799434	-0.303204	-0.304618	0.045837	50.0046	-0.303892	-5376.54	-8.525315E-6	NaN
429	1.000000	0.842884	7.36926e+06	-55639.1	1005.82	-29741.2	0.000000	0.000000	6.843099	0.026766	NaN	0.000000	0.001700	0.001677	28.0799	0.103643	0.002128	48.7132	152.2	-164.659	0.037913	0.841544	-0.261168	-0.262508	0.026766	48.7132	-0.261580	-1239.15	-2.160059E-5	NaN
429	1.000000	0.884883	7.36926e+06	-55639.1	1005.82	-29741.2	0.000000	0.000000	6.885096	-0.039786	NaN	0.000000	0.001688	0.001705	28.0813	0.022517	0.001989	11.3235	100.402	13.2605	-0.021469	0.883522	-0.219169	-0.220530	-0.039786	11.3235	-0.216534	-244.431	0.000163	NaN
429	1.000000	0.926893	7.36926e+06	-55639.1	1005.82	-29741.2	0.000000	0.000000	6.927104	-0.065065	NaN	0.000000	0.001660	0.001678	28.0812	0.087078	0.001968	44.2505	-145.996	-167.937	-0.024549	0.925572	-0.177160	-0.178480	-0.065065	44.2505	-0.176057	-52.254	0.001245	NaN
429	1.000000	0.968899	7.36926e+06	-55639.1	1005.82	-29741.2	0.000000	0.000000	6.969131	0.430052	NaN	0.000000	0.001694	0.001703	28.0814	0.157955	0.001953	80.8666	19.8427	17.1763	0.314341	0.967605	-0.135153	-0.136447	0.430052	80.8666	-0.139142	-11.398	-0.037731	NaN
429	1.000000	1.010922	7.36926e+06	-55639.1	1005.82	-29741.2	0.000000	0.000000	7.011198	1.500856	NaN	0.000000	0.001697	0.001742	28.08	0.362660	0.001983	182.874	22.7963	-163.416	1.415490	1.009651	-0.093130	-0.094401	1.500856	182.874	-0.099286	-1.761602	-0.851983	NaN
429	1.000000	1.052954	7.36926e+06	-55639.1	1005.82	-29741.2	0.000000	0.000000	7.053259	2.204819	NaN	0.000000	0.001697	0.001744	28.0797	0.361380	0.001962	184.165	27.5462	15.1102	2.209105	1.051609	-0.051098	-0.052443	2.204819	184.165	-0.060077	-0.181017	-12.1802	NaN
429	1.000000	1.094963	7.36926e+06	-55639.1	1005.82	-29741.2	0.000000	0.000000	7.095277	2.405574	NaN	0.000000	0.001718	0.001773	28.0801	0.622079	0.002102	295.981	24.9034	-165.393	2.361358	1.093660	-0.009089	-0.010392	2.405574	295.981	-0.015184	-0.009386	-256.292	NaN
429	2.000000	1.117079	7.36926e+06	-55639.1	1005.82	-29741.2	0.000000	0.000000	7.118018	17.599	NaN	0.000000	0.001682	0.001747	28.0809	15.4121	0.001794	8589.86	5.637671	6.605807	16.795	1.116708	0.013027	0.012656	17.599	8589.86	0.011491	0.010886	1616.7	75219.5
429	2.000000	1.127573	7.36926e+06	-55639.1	1005.82	-29741.2	0.000000	0.000000	7.129312	37.0703	NaN	0.000000	0.001682	0.001744	28.0817	26.3394	0.001767	14906.8	6.716746	-179.201	40.7547	1.127356	0.023521	0.023304	37.0703	14906.8	0.021655	0.025211	1470.42	85775.6
429	2.000000	1.137970	7.36926e+06	-55639.1	1005.82	-29741.2	0.000000	0.000000	7.141038	69.3844	NaN	0.000000	0.001721	0.001731	28.0826	36.475	0.001720	21211.2	6.120693	-2.477745	66.9654	1.137661	0.033918	0.033609	69.3844	21211.2	0.031464	0.043833	1582.92	92562.7
429	2.000000	1.148459	7.36926e+06	-55639.1	1005.82	-29741.2	0.000000	0.000000	7.153052	106.441	NaN	0.000000	0.001694	0.001738	28.0815	46.2088	0.001790	25817.4	2.976175	-179.68	105.031	1.148183	0.044407	0.044131	106.441	25817.4	0.041315	0.067470	1577.62	90809.6
429	2.000000	1.158949	7.36926e+06	-55639.1	1005.82	-29741.2	0.000000	0.000000	7.165482	153.585	NaN	0.000000	0.001713	0.001697	28.08	57.1315	0.001762	32426.3	3.402724	-2.512094	151.103	1.158557	0.054897	0.054505	153.585	32426.3	0.051345	0.096616	1589.65	95311.7
429	2.000000	1.169455	7.36926e+06	-55639.1	1005.82	-29741.2	0.000000	0.000000	7.178078	204.397	NaN	0.000000	0.001772	0.001699	28.0801	66.9464	0.001827	36652.8	4.357312	175.819	203.762	1.169123	0.065403	0.065071	204.397	36652.8	0.061221	0.130223	1569.6	92797.6
429	2.000000	1.179928	7.36926e+06	-55639.1	1005.82	-29741.2	0.000000	0.000000	7.190959	262.931	NaN	0.000000	0.001678	0.001710	28.0802	78.5976	0.001792	43865.9	4.335957	-5.725569	261.284	1.179585	0.075876	0.075533	262.931	43865.9	0.071381	0.169750	1548.93	97273.5
429	2.000000	1.190409	7.36926e+06	-55639.1	1005.82	-29741.2	0.000000	0.000000	7.204122	328.136	NaN	0.000000	0.001683	0.001697	28.0816	88.9606	0.001717	51811.3	1.172485	176.048	324.338	1.190116	0.086357	0.086064	328.136	51811.3	0.081607	0.214482	1529.9	102212
429	2.000000	1.200873	7.36926e+06	-55639.1	1005.82	-29741.2	0.000000	0.000000	7.218183	415.567	NaN	0.000000	0.001688	0.001720	28.0818	100.952	0.001809	55812.5	8.002800	-11.354	411.206	1.200620	0.096821	0.096568	415.567	55812.5	0.091236	0.261046	1591.93	99803.6
429	2.000000	1.209015	7.36926e+06	-55639.1	1005.82	-29741.2	0.000000	0.000000	7.228477	467.872	NaN	0.000000	0.001771	0.001767	28.0815	107.006	0.001750	61150.9	7.059735	-11.0383	471.25	1.208734	0.104963	0.104682	467.872	61150.9	0.099225	0.302903	1544.63	101514