File: remote_trans/data/nanoindenter/0828-1/data/Data_2025-08-06,11h17m57s/2025-07-22_16-23-58_1_1189.txt
2025-07-22, 16:23:58, 1
Index	Phase	Displacement	Time	Pos X	Pos Y	Pos Z	Rot A	Rot B	Piezo Z	Force A	Force B	Gripper	Voltage A	Voltage B	Temperature	Amplitude force	Amplitude pos	Stiffness	Phase shift	Phase excitation	Force A raw	Displacement raw	HMax	HMax raw	Real Force	Real Stiffness	Contact Depth	Area	Hardness	Reduced Mod.
[#]	[#]	[um]	[s]	[um]	[um]	[um]	[m°]	[m°]	[um]	[uN]	[uN]	[V]	[V]	[V]	[°C]	[uN]	[um]	[N/m]	[°]	[°]	[uN]	[um]	[um]	[um]	[uN]	[N/m]	[um]	[um^2]	[MPa]	[MPa]
1189	1.000000	0.002162	7.37667e+06	-56139.1	1105.82	-29739.6	0.000000	0.000000	6.002791	0.041012	NaN	0.000000	0.001528	0.001744	28.0804	0.085720	0.001034	82.8954	59.7155	-169.29	-0.019538	0.000891	-1.079306	-1.080578	0.041012	82.8954	-1.079677	-2.674161E+14	-1.533640E-16	NaN
1189	1.000000	0.042105	7.37667e+06	-56139.1	1105.82	-29739.6	0.000000	0.000000	6.042732	0.017704	NaN	0.000000	0.001591	0.001760	28.0803	0.033255	0.001931	17.2217	-172.313	-168.021	0.002663	0.040819	-1.039364	-1.040649	0.017704	17.2217	-1.040135	-7.866481E+13	-2.250595E-16	NaN
1189	1.000000	0.082110	7.37667e+06	-56139.1	1105.82	-29739.6	0.000000	0.000000	6.082738	0.034569	NaN	0.000000	0.001581	0.001742	28.0805	0.136015	0.001954	69.6178	175.311	-164.122	0.099851	0.080788	-0.999358	-1.000680	0.034569	69.6178	-0.999731	-2.249810E+13	-1.536529E-15	NaN
1189	1.000000	0.122127	7.37667e+06	-56139.1	1105.82	-29739.6	0.000000	0.000000	6.122753	-0.019155	NaN	0.000000	0.001550	0.001749	28.0815	0.021339	0.001983	10.7621	-97.9214	-165.335	0.036581	0.120847	-0.959342	-0.960621	-0.019155	10.7621	-0.958007	-6.165893E+12	3.106638E-15	NaN
1189	1.000000	0.162181	7.37667e+06	-56139.1	1105.82	-29739.6	0.000000	0.000000	6.162807	-0.026743	NaN	0.000000	0.001547	0.001768	28.0817	0.041328	0.002009	20.5707	107.977	-166.001	-0.039818	0.160866	-0.919287	-0.920603	-0.026743	20.5707	-0.918312	-1.796465E+12	1.488625E-14	NaN
1189	1.000000	0.202180	7.37667e+06	-56139.1	1105.82	-29739.6	0.000000	0.000000	6.202807	0.015132	NaN	0.000000	0.001652	0.001759	28.0815	0.053231	0.002093	25.4304	-52.334	-167.668	-0.041192	0.200862	-0.879288	-0.880607	0.015132	25.4304	-0.879735	-5.409052E+11	-2.797580E-14	NaN
1189	1.000000	0.242215	7.37667e+06	-56139.1	1105.82	-29739.6	0.000000	0.000000	6.242842	-0.019088	NaN	0.000000	0.001593	0.001697	28.0806	0.025059	0.001953	12.83	164.528	-165.126	0.051349	0.240894	-0.839253	-0.840574	-0.019088	12.83	-0.838137	-1.479295E+11	1.290327E-13	NaN
1189	1.000000	0.282237	7.37668e+06	-56139.1	1105.82	-29739.6	0.000000	0.000000	6.282862	-0.053905	NaN	0.000000	0.001534	0.001768	28.0804	0.049898	0.001953	25.5549	-152.402	-165.932	-0.029961	0.280956	-0.799232	-0.800512	-0.053905	25.5549	-0.797650	-4.177867E+10	1.290263E-12	NaN
1189	1.000000	0.322224	7.37668e+06	-56139.1	1105.82	-29739.6	0.000000	0.000000	6.322849	-0.051688	NaN	0.000000	0.001568	0.001726	28.0804	0.039727	0.002022	19.6502	-179.83	-165.311	-0.033945	0.320916	-0.759245	-0.760552	-0.051688	19.6502	-0.757272	-1.180820E+10	4.377336E-12	NaN
1189	1.000000	0.362236	7.37668e+06	-56139.1	1105.82	-29739.6	0.000000	0.000000	6.362864	0.024173	NaN	0.000000	0.001587	0.001754	28.0816	0.097936	0.001921	50.9906	146.211	-166.017	-0.013305	0.360898	-0.719233	-0.720570	0.024173	50.9906	-0.719588	-3.621235E+9	-6.675458E-12	NaN
1189	1.000000	0.402262	7.37668e+06	-56139.1	1105.82	-29739.6	0.000000	0.000000	6.402889	0.001291	NaN	0.000000	0.001563	0.001778	28.0816	0.080201	0.001979	40.5267	-73.3108	-168.197	0.061350	0.400920	-0.679206	-0.680548	0.001291	40.5267	-0.679230	-1.017834E+9	-1.268086E-12	NaN
1189	1.000000	0.442269	7.37668e+06	-56139.1	1105.82	-29739.6	0.000000	0.000000	6.442895	-0.012036	NaN	0.000000	0.001562	0.001732	28.0814	0.146393	0.001976	74.0724	-87.0548	-165.399	-0.013955	0.440939	-0.639200	-0.640529	-0.012036	74.0724	-0.639078	-2.868363E+8	4.196014E-11	NaN
1189	1.000000	0.482278	7.37668e+06	-56139.1	1105.82	-29739.6	0.000000	0.000000	6.482907	0.031944	NaN	0.000000	0.001560	0.001731	28.0815	0.049040	0.001875	26.1591	10.1227	-169.517	-0.015256	0.481029	-0.599190	-0.600440	0.031944	26.1591	-0.600106	-8.354443E+7	-3.823547E-10	NaN
1189	1.000000	0.522294	7.37668e+06	-56139.1	1105.82	-29739.6	0.000000	0.000000	6.522920	-0.024615	NaN	0.000000	0.001566	0.001735	28.0804	0.034076	0.002010	16.956	81.9595	-163.529	-0.029727	0.521015	-0.559174	-0.560453	-0.024615	16.956	-0.558085	-2.197301E+7	1.120229E-9	NaN
1189	1.000000	0.562326	7.37668e+06	-56139.1	1105.82	-29739.6	0.000000	0.000000	6.562952	-0.016798	NaN	0.000000	0.001565	0.001737	28.0803	0.051688	0.001931	26.7716	102.683	-164.847	0.033655	0.561100	-0.519143	-0.520368	-0.016798	26.7716	-0.518672	-6.23916e+06	2.692345E-9	NaN
1189	1.000000	0.602349	7.37668e+06	-56139.1	1105.82	-29739.6	0.000000	0.000000	6.602973	-0.050488	NaN	0.000000	0.001539	0.001728	28.0803	0.115736	0.002006	57.6839	178.861	-165.803	-0.016176	0.601025	-0.479120	-0.480443	-0.050488	57.6839	-0.478463	-1.71401e+06	2.945621E-8	NaN
1189	1.000000	0.642375	7.37668e+06	-56139.1	1105.82	-29739.6	0.000000	0.000000	6.643001	-0.014661	NaN	0.000000	0.001642	0.001753	28.0815	0.074118	0.001844	40.1979	65.719	-164.771	-0.019587	0.641047	-0.439094	-0.440422	-0.014661	40.1979	-0.438820	-475017	3.086390E-8	NaN
1189	1.000000	0.682374	7.37668e+06	-56139.1	1105.82	-29739.6	0.000000	0.000000	6.683002	0.007405	NaN	0.000000	0.001546	0.001746	28.0817	0.031937	0.002072	15.4141	104.818	-165.112	0.019986	0.681055	-0.399094	-0.400414	0.007405	15.4141	-0.399454	-131284	-5.640343E-8	NaN
1189	1.000000	0.722355	7.37668e+06	-56139.1	1105.82	-29739.6	0.000000	0.000000	6.722982	0.008079	NaN	0.000000	0.001568	0.001693	28.0819	0.073034	0.002004	36.4426	-120.086	-164.108	0.097803	0.721108	-0.359113	-0.360360	0.008079	36.4426	-0.359280	-34788.2	-2.322215E-7	NaN
1189	1.000000	0.762449	7.37668e+06	-56139.1	1105.82	-29739.6	0.000000	0.000000	6.763077	0.033434	NaN	0.000000	0.001561	0.001792	28.0819	0.046769	0.002029	23.054	42.6811	-165.866	0.042499	0.761053	-0.319020	-0.320416	0.033434	23.054	-0.320107	-9337.21	-3.580727E-6	NaN
1189	1.000000	0.802440	7.37668e+06	-56139.1	1105.82	-29739.6	0.000000	0.000000	6.803067	-0.002487	NaN	0.000000	0.001536	0.001736	28.0803	0.082809	0.001985	41.7261	-129.183	-163.255	-0.048543	0.801098	-0.279029	-0.280370	-0.002487	41.7261	-0.278984	-2278.44	1.091385E-6	NaN
1189	1.000000	0.842440	7.37668e+06	-56139.1	1105.82	-29739.6	0.000000	0.000000	6.843065	-0.051246	NaN	0.000000	0.001592	0.001680	28.0805	0.054544	0.001756	31.0605	103.714	-167.703	-0.100334	0.841176	-0.239028	-0.240293	-0.051246	31.0605	-0.237791	-530.896	9.652773E-5	NaN
1189	1.000000	0.882473	7.37668e+06	-56139.1	1105.82	-29739.6	0.000000	0.000000	6.883099	-0.025460	NaN	0.000000	0.001542	0.001690	28.0804	0.019210	0.001889	10.1697	-89.4166	-167.631	0.015826	0.881169	-0.198996	-0.200299	-0.025460	10.1697	-0.197118	-118.094	0.000216	NaN
1189	1.000000	0.922480	7.37668e+06	-56139.1	1105.82	-29739.6	0.000000	0.000000	6.923107	-0.017481	NaN	0.000000	0.001547	0.001686	28.0814	0.097119	0.001951	49.7705	141.643	-166.295	-0.062451	0.921147	-0.158988	-0.160322	-0.017481	49.7705	-0.158725	-26.0188	0.000672	NaN
1189	1.000000	0.962499	7.37668e+06	-56139.1	1105.82	-29739.6	0.000000	0.000000	6.963123	-0.071487	NaN	0.000000	0.001575	0.001718	28.0812	0.032720	0.001959	16.6992	96.9335	-169.21	-0.090841	0.961227	-0.118969	-0.120241	-0.071487	16.6992	-0.115759	-3.960192	0.018051	NaN
1189	1.000000	1.002498	7.37668e+06	-56139.1	1105.82	-29739.6	0.000000	0.000000	7.003124	-0.010287	NaN	0.000000	0.001571	0.001727	28.0815	0.070486	0.002134	33.0294	-90.3563	-166.088	-0.041935	1.001182	-0.078971	-0.080287	-0.010287	33.0294	-0.078737	-0.575401	0.017879	NaN
1189	1.000000	1.042539	7.37668e+06	-56139.1	1105.82	-29739.6	0.000000	0.000000	7.043165	-0.030504	NaN	0.000000	0.001562	0.001691	28.0802	0.068772	0.002059	33.4076	8.664279	-166.424	-0.020286	1.041226	-0.038929	-0.040243	-0.030504	33.4076	-0.038244	-0.040014	0.762328	NaN
1189	1.000000	1.082432	7.37668e+06	-56139.1	1105.82	-29739.6	0.000000	0.000000	7.083369	7.533167	NaN	0.000000	0.001523	0.001755	28.0803	6.053809	0.001762	3435.01	12.1193	-171.54	5.749037	1.081174	0.000964	-0.000294	7.533167	3435.01	-0.000681	-0.000502	-15003.8	NaN
1189	2.000000	1.093172	7.37668e+06	-56139.1	1105.82	-29739.6	0.000000	0.000000	7.094921	27.2836	NaN	0.000000	0.001581	0.001738	28.0802	15.5021	0.001745	8881.63	3.035677	-173.178	26.5749	1.092819	0.011704	0.011351	27.2836	8881.63	0.009400	0.008522	3201.58	87901.8
1189	2.000000	1.103187	7.37668e+06	-56139.1	1105.82	-29739.6	0.000000	0.000000	7.105851	49.5112	NaN	0.000000	0.001578	0.001691	28.0803	25.3104	0.001876	13490.4	2.747659	-175.064	49.9801	1.102882	0.021719	0.021414	49.5112	13490.4	0.018966	0.020944	2364.01	85167.2
1189	2.000000	1.113089	7.37668e+06	-56139.1	1105.82	-29739.6	0.000000	0.000000	7.116774	74.3431	NaN	0.000000	0.001571	0.001737	28.0814	34.8554	0.001815	19203.6	6.084126	177.378	72.4271	1.112880	0.031621	0.031412	74.3431	19203.6	0.028717	0.038127	1949.9	89855
1189	2.000000	1.123056	7.37668e+06	-56139.1	1105.82	-29739.6	0.000000	0.000000	7.128231	110.546	NaN	0.000000	0.001568	0.001755	28.0816	43.978	0.001771	24831.2	8.318930	174.058	108.173	1.122669	0.041588	0.041201	110.546	24831.2	0.038249	0.059581	1855.4	92943.3
1189	2.000000	1.133092	7.37668e+06	-56139.1	1105.82	-29739.6	0.000000	0.000000	7.139794	147.669	NaN	0.000000	0.001590	0.001700	28.0816	53.0462	0.001886	28127.8	6.638086	174.881	146.687	1.132696	0.051623	0.051227	147.669	28127.8	0.047686	0.085395	1729.26	87941.3
1189	2.000000	1.143034	7.37668e+06	-56139.1	1105.82	-29739.6	0.000000	0.000000	7.151561	192.034	NaN	0.000000	0.001605	0.001729	28.0803	60.5329	0.001878	32226.5	5.886907	173.7	189.132	1.142802	0.061565	0.061334	192.034	32226.5	0.057096	0.115602	1661.16	86597
1189	2.000000	1.153049	7.37668e+06	-56139.1	1105.82	-29739.6	0.000000	0.000000	7.163167	230.688	NaN	0.000000	0.001576	0.001716	28.0803	70.2511	0.001742	40339.3	3.952867	173.67	228.142	1.152819	0.071581	0.071351	230.688	40339.3	0.067292	0.153246	1505.34	94147
1189	2.000000	1.163090	7.37668e+06	-56139.1	1105.82	-29739.6	0.000000	0.000000	7.175685	290.901	NaN	0.000000	0.001577	0.001710	28.0803	79.2989	0.001774	44708.7	5.934624	171.645	293.748	1.162746	0.081622	0.081277	290.901	44708.7	0.076742	0.192589	1510.48	93078.4
1189	2.000000	1.173038	7.37668e+06	-56139.1	1105.82	-29739.6	0.000000	0.000000	7.188348	356.924	NaN	0.000000	0.001492	0.001737	28.0805	86.1804	0.001677	51390.1	1.003684	175.732	357.369	1.172654	0.091569	0.091186	356.924	51390.1	0.086360	0.236933	1506.43	96458.4
1189	2.000000	1.181998	7.37668e+06	-56139.1	1105.82	-29739.6	0.000000	0.000000	7.199763	416.592	NaN	0.000000	0.001587	0.001747	28.0815	92.5679	0.001701	54412.8	3.878563	172.215	411.672	1.181733	0.100529	0.100265	416.592	54412.8	0.094787	0.279293	1491.6	94068.5