File: remote_trans/data/nanoindenter/0828-1/data/Data_2025-08-06,11h17m57s/2025-07-22_16-23-58_1_1112.txt
2025-07-22, 16:23:58, 1
Index	Phase	Displacement	Time	Pos X	Pos Y	Pos Z	Rot A	Rot B	Piezo Z	Force A	Force B	Gripper	Voltage A	Voltage B	Temperature	Amplitude force	Amplitude pos	Stiffness	Phase shift	Phase excitation	Force A raw	Displacement raw	HMax	HMax raw	Real Force	Real Stiffness	Contact Depth	Area	Hardness	Reduced Mod.
[#]	[#]	[um]	[s]	[um]	[um]	[um]	[m°]	[m°]	[um]	[uN]	[uN]	[V]	[V]	[V]	[°C]	[uN]	[um]	[N/m]	[°]	[°]	[uN]	[um]	[um]	[um]	[uN]	[N/m]	[um]	[um^2]	[MPa]	[MPa]
1112	1.000000	0.002240	7.37593e+06	-55739.1	1055.82	-29740.7	0.000000	0.000000	6.002813	0.049141	NaN	0.000000	0.001627	0.001755	28.0837	0.193306	0.001046	184.742	102.885	-170.45	-0.045590	0.000943	-1.129820	-1.131117	0.049141	184.742	-1.130020	-1.267312E+15	-3.877551E-17	NaN
1112	1.000000	0.044175	7.37593e+06	-55739.1	1055.82	-29740.7	0.000000	0.000000	6.044746	-0.015326	NaN	0.000000	0.001595	0.001709	28.0841	0.082888	0.001938	42.7732	157.893	15.0664	0.058560	0.042832	-1.087884	-1.089228	-0.015326	42.7732	-1.087616	-3.418195E+14	4.483594E-17	NaN
1112	1.000000	0.086212	7.37593e+06	-55739.1	1055.82	-29740.7	0.000000	0.000000	6.086781	-0.048011	NaN	0.000000	0.001633	0.001698	28.0837	0.018982	0.002045	9.280925	167.111	-163.416	-0.062464	0.084920	-1.045848	-1.047140	-0.048011	9.280925	-1.041968	-8.325877E+13	5.766437E-16	NaN
1112	1.000000	0.128207	7.37593e+06	-55739.1	1055.82	-29740.7	0.000000	0.000000	6.128777	-0.037431	NaN	0.000000	0.001575	0.001730	28.0823	0.065358	0.002015	32.4431	68.3269	13.3041	-0.034409	0.126835	-1.003852	-1.005225	-0.037431	32.4431	-1.002987	-2.488769E+13	1.503982E-15	NaN
1112	1.000000	0.170220	7.37593e+06	-55739.1	1055.82	-29740.7	0.000000	0.000000	6.170792	0.021669	NaN	0.000000	0.001581	0.001724	28.0822	0.012164	0.001921	6.332773	78.5465	-162.716	0.050060	0.168926	-0.961840	-0.963134	0.021669	6.332773	-0.964406	-7.520895E+12	-2.881127E-15	NaN
1112	1.000000	0.212238	7.37593e+06	-55739.1	1055.82	-29740.7	0.000000	0.000000	6.212810	0.013397	NaN	0.000000	0.001568	0.001731	28.0825	0.065604	0.001974	33.2422	-170.533	13.8427	-0.007660	0.210882	-0.919822	-0.921177	0.013397	33.2422	-0.920124	-1.900545E+12	-7.048902E-15	NaN
1112	1.000000	0.254249	7.37593e+06	-55739.1	1055.82	-29740.7	0.000000	0.000000	6.254820	-0.001735	NaN	0.000000	0.001580	0.001704	28.0839	0.096291	0.001972	48.8171	-75.7194	-166.801	-0.042149	0.252938	-0.877811	-0.879121	-0.001735	48.8171	-0.877784	-5.090242E+11	3.407971E-15	NaN
1112	1.000000	0.296288	7.37593e+06	-55739.1	1055.82	-29740.7	0.000000	0.000000	6.296857	-0.052776	NaN	0.000000	0.001567	0.001671	28.0836	0.058155	0.001980	29.3762	-22.5138	12.2772	-0.045460	0.294918	-0.835772	-0.837142	-0.052776	29.3762	-0.834424	-1.317491E+11	4.005779E-13	NaN
1112	1.000000	0.338297	7.37593e+06	-55739.1	1055.82	-29740.7	0.000000	0.000000	6.338868	0.013323	NaN	0.000000	0.001553	0.001707	28.0841	0.067629	0.002015	33.5568	109.092	-164.145	-0.007229	0.337025	-0.793763	-0.795034	0.013323	33.5568	-0.794061	-3.734458E+10	-3.567610E-13	NaN
1112	1.000000	0.380313	7.37593e+06	-55739.1	1055.82	-29740.7	0.000000	0.000000	6.380883	-0.025387	NaN	0.000000	0.001544	0.001767	28.0825	0.036329	0.001977	18.3721	115.292	15.3073	-0.039105	0.378941	-0.751747	-0.753118	-0.025387	18.3721	-0.750711	-9.613735E+9	2.640732E-12	NaN
1112	1.000000	0.422329	7.37593e+06	-55739.1	1055.82	-29740.7	0.000000	0.000000	6.422904	0.082959	NaN	0.000000	0.001563	0.001715	28.0827	0.114634	0.001874	61.1626	-67.1211	-166.14	0.109301	0.421011	-0.709731	-0.711049	0.082959	61.1626	-0.710748	-2.743188E+9	-3.024200E-11	NaN
1112	1.000000	0.464367	7.37593e+06	-55739.1	1055.82	-29740.7	0.000000	0.000000	6.464938	0.005449	NaN	0.000000	0.001533	0.001736	28.0826	0.119363	0.001998	59.7388	147.778	14.1723	-0.055006	0.462959	-0.667693	-0.669101	0.005449	59.7388	-0.667761	-7.091679E+8	-7.683118E-12	NaN
1112	1.000000	0.506363	7.37593e+06	-55739.1	1055.82	-29740.7	0.000000	0.000000	6.506933	-0.036440	NaN	0.000000	0.001490	0.001762	28.0833	0.102694	0.001946	52.7781	43.365	-167.692	-0.038982	0.505025	-0.625697	-0.627035	-0.036440	52.7781	-0.625179	-1.848421E+8	1.971391E-10	NaN
1112	1.000000	0.548390	7.37593e+06	-55739.1	1055.82	-29740.7	0.000000	0.000000	6.548959	-0.049572	NaN	0.000000	0.001527	0.001703	28.0838	0.010836	0.001982	5.468320	22.3775	17.7176	-0.059659	0.547037	-0.583670	-0.585023	-0.049572	5.468320	-0.576871	-3.995163E+7	1.240792E-9	NaN
1112	1.000000	0.590434	7.37593e+06	-55739.1	1055.82	-29740.7	0.000000	0.000000	6.591006	0.016710	NaN	0.000000	0.001560	0.001699	28.0841	0.085753	0.002054	41.7491	-150.597	-165.87	-0.007453	0.589086	-0.541625	-0.542974	0.016710	41.7491	-0.541925	-1.312372E+7	-1.273296E-9	NaN
1112	1.000000	0.632427	7.37593e+06	-55739.1	1055.82	-29740.7	0.000000	0.000000	6.632998	-0.016412	NaN	0.000000	0.001503	0.001721	28.0839	0.010521	0.001966	5.350480	-93.7144	15.8924	0.084287	0.631056	-0.499632	-0.501004	-0.016412	5.350480	-0.497332	-3.14619e+06	5.216584E-9	NaN
1112	1.000000	0.674449	7.37593e+06	-55739.1	1055.82	-29740.7	0.000000	0.000000	6.675017	-0.075694	NaN	0.000000	0.001540	0.001726	28.0828	0.033993	0.001909	17.8109	-159.083	-165.246	-0.002571	0.673135	-0.457611	-0.458924	-0.075694	17.8109	-0.454424	-788151	9.604051E-8	NaN
1112	1.000000	0.716485	7.37593e+06	-55739.1	1055.82	-29740.7	0.000000	0.000000	6.717054	-0.036732	NaN	0.000000	0.001592	0.001755	28.0828	0.055004	0.002057	26.734	-114.563	16.196	-0.148122	0.715086	-0.415575	-0.416974	-0.036732	26.734	-0.414544	-215271	1.706299E-7	NaN
1112	1.000000	0.758476	7.37593e+06	-55739.1	1055.82	-29740.7	0.000000	0.000000	6.759044	-0.069122	NaN	0.000000	0.001530	0.001764	28.083	0.132271	0.002043	64.7425	39.6832	-165.044	-0.048867	0.757141	-0.373584	-0.374918	-0.069122	64.7425	-0.372783	-54473.3	1.268922E-6	NaN
1112	1.000000	0.800477	7.37593e+06	-55739.1	1055.82	-29740.8	0.000000	0.000000	6.801046	-0.041301	NaN	0.000000	0.001579	0.001760	28.0841	0.021508	0.002128	10.1092	114.809	14.5087	-0.081654	0.799149	-0.331583	-0.332911	-0.041301	10.1092	-0.328519	-12409.4	3.328195E-6	NaN
1112	1.000000	0.842510	7.37593e+06	-55739.1	1055.82	-29740.8	0.000000	0.000000	6.843080	-0.045218	NaN	0.000000	0.001577	0.001734	28.0844	0.072599	0.002157	33.6636	-56.9494	-162.898	-0.087522	0.841216	-0.289549	-0.290844	-0.045218	33.6636	-0.288542	-3172.82	1.425172E-5	NaN
1112	1.000000	0.884532	7.37593e+06	-55739.1	1055.82	-29740.8	0.000000	0.000000	6.885103	-0.009821	NaN	0.000000	0.001578	0.001696	28.0845	0.034087	0.002059	16.5525	8.517467	16.533	0.019445	0.883206	-0.247528	-0.248853	-0.009821	16.5525	-0.247083	-740.945	1.325462E-5	NaN
1112	1.000000	0.926550	7.37593e+06	-55739.1	1055.82	-29740.8	0.000000	0.000000	6.927121	0.005319	NaN	0.000000	0.001553	0.001684	28.083	0.066909	0.001890	35.3987	45.8252	-164.762	0.005559	0.925193	-0.205510	-0.206867	0.005319	35.3987	-0.205622	-162.819	-3.266877E-5	NaN
1112	1.000000	0.968556	7.37593e+06	-55739.1	1055.82	-29740.8	0.000000	0.000000	6.969128	0.019736	NaN	0.000000	0.001568	0.001731	28.0826	0.088865	0.002079	42.7434	112.755	16.7928	-0.009478	0.967136	-0.163504	-0.164924	0.019736	42.7434	-0.163850	-32.0688	-0.000615	NaN
1112	1.000000	1.010583	7.37593e+06	-55739.1	1055.82	-29740.8	0.000000	0.000000	7.011149	-0.116499	NaN	0.000000	0.001611	0.001710	28.0827	0.077123	0.002071	37.2307	-92.6513	-164.193	-0.060997	1.009247	-0.121477	-0.122812	-0.116499	37.2307	-0.119130	-4.639714	0.025109	NaN
1112	1.000000	1.052612	7.37593e+06	-55739.1	1055.82	-29740.8	0.000000	0.000000	7.053178	-0.116165	NaN	0.000000	0.001581	0.001705	28.0835	0.044891	0.002073	21.6598	9.901249	15.2926	-0.163176	1.051260	-0.079448	-0.080800	-0.116165	21.6598	-0.075426	-0.473712	0.245223	NaN
1112	1.000000	1.094615	7.37593e+06	-55739.1	1055.82	-29740.8	0.000000	0.000000	7.095183	-0.083115	NaN	0.000000	0.001601	0.001685	28.0843	0.093948	0.001906	49.2855	23.9529	-166.478	-0.032943	1.093301	-0.037445	-0.038759	-0.083115	49.2855	-0.036180	-0.034706	2.394855	NaN
1112	1.000000	1.136602	7.37593e+06	-55739.1	1055.82	-29740.8	0.000000	0.000000	7.137295	2.964942	NaN	0.000000	0.001520	0.001721	28.0841	3.844317	0.001774	2166.45	8.466984	11.9339	1.520763	1.135209	0.004542	0.003149	2.964942	2166.45	0.003516	0.002819	1051.85	37281.3
1112	2.000000	1.151087	7.37593e+06	-55739.1	1055.82	-29740.8	0.000000	0.000000	7.152507	20.6382	NaN	0.000000	0.001560	0.001712	28.0843	18.0334	0.001920	9394.18	7.087883	-174.713	20.0709	1.150827	0.019028	0.018767	20.6382	9394.18	0.017380	0.018591	1110.11	62947.5
1112	2.000000	1.161582	7.37593e+06	-55739.1	1055.82	-29740.8	0.000000	0.000000	7.163908	42.6444	NaN	0.000000	0.001537	0.001752	28.0828	29.0841	0.001746	16661.8	7.786543	-1.937676	41.5728	1.161210	0.029522	0.029150	42.6444	16661.8	0.027603	0.035922	1187.15	80318.8
1112	2.000000	1.172047	7.37593e+06	-55739.1	1055.82	-29740.8	0.000000	0.000000	7.175736	75.7952	NaN	0.000000	0.001597	0.001731	28.0829	38.7267	0.001726	22433.3	6.036332	177.374	73.2507	1.171767	0.039987	0.039707	75.7952	22433.3	0.037453	0.057613	1315.6	85390.1
1112	2.000000	1.182566	7.37593e+06	-55739.1	1055.82	-29740.8	0.000000	0.000000	7.188016	118.616	NaN	0.000000	0.001617	0.001738	28.0832	49.1797	0.001765	27857.2	3.556555	-1.029949	117.68	1.182140	0.050506	0.050081	118.616	27857.2	0.047312	0.084287	1407.28	87665.6
1112	2.000000	1.193085	7.37593e+06	-55739.1	1055.82	-29740.8	0.000000	0.000000	7.200703	171.309	NaN	0.000000	0.001669	0.001759	28.0842	60.5022	0.001831	33037.7	7.187480	174.858	171.64	1.192555	0.061025	0.060496	171.309	33037.7	0.057136	0.115739	1480.13	88724.2
1112	2.000000	1.203504	7.37593e+06	-55739.1	1055.82	-29740.8	0.000000	0.000000	7.213146	220.495	NaN	0.000000	0.001645	0.001761	28.0843	71.0317	0.001870	37987.9	3.164496	-3.894809	217.451	1.203246	0.071444	0.071187	220.495	37987.9	0.067091	0.152456	1446.29	88888.7
1112	2.000000	1.213931	7.37593e+06	-55739.1	1055.82	-29740.8	0.000000	0.000000	7.226257	285.745	NaN	0.000000	0.001593	0.001719	28.0844	81.2554	0.001746	46539.5	5.065711	173.304	283.82	1.213590	0.081871	0.081530	285.745	46539.5	0.077267	0.194897	1466.13	96314.6
1112	2.000000	1.224488	7.37593e+06	-55739.1	1055.82	-29740.8	0.000000	0.000000	7.240005	363.309	NaN	0.000000	0.001569	0.001705	28.0831	90.4769	0.001902	47562.4	5.999785	-7.906201	361.421	1.223966	0.092428	0.091906	363.309	47562.4	0.086699	0.238575	1522.83	88966.2
1112	2.000000	1.234976	7.37594e+06	-55739.1	1055.82	-29740.8	0.000000	0.000000	7.253093	426.516	NaN	0.000000	0.001506	0.001720	28.083	99.8129	0.001729	57741.6	1.126681	175.371	426.157	1.234679	0.102916	0.102620	426.516	57741.6	0.097376	0.292959	1455.89	97467.3
1112	2.000000	1.240503	7.37594e+06	-55739.1	1055.82	-29740.8	0.000000	0.000000	7.260897	481.86	NaN	0.000000	0.001555	0.001760	28.0829	105.621	0.001811	58326.4	5.969851	-9.014021	481.714	1.240044	0.108443	0.107984	481.86	58326.4	0.102247	0.319495	1508.2	94277.1