File: remote_trans/data/nanoindenter/0828-1/data/Data_2025-08-06,11h17m57s/2025-07-22_16-23-58_1_611.txt
2025-07-22, 16:23:58, 1
Index	Phase	Displacement	Time	Pos X	Pos Y	Pos Z	Rot A	Rot B	Piezo Z	Force A	Force B	Gripper	Voltage A	Voltage B	Temperature	Amplitude force	Amplitude pos	Stiffness	Phase shift	Phase excitation	Force A raw	Displacement raw	HMax	HMax raw	Real Force	Real Stiffness	Contact Depth	Area	Hardness	Reduced Mod.
[#]	[#]	[um]	[s]	[um]	[um]	[um]	[m°]	[m°]	[um]	[uN]	[uN]	[V]	[V]	[V]	[°C]	[uN]	[um]	[N/m]	[°]	[°]	[uN]	[um]	[um]	[um]	[uN]	[N/m]	[um]	[um^2]	[MPa]	[MPa]
611	1.000000	0.003040	7.37103e+06	-46539.1	1005.82	-29768.8	0.000000	0.000000	6.002785	-0.018096	NaN	0.000000	0.001548	0.001669	28.0832	0.118412	0.001042	113.666	-87.6187	-162.005	-0.000241	0.001769	-1.144075	-1.145346	-0.018096	113.666	-1.143956	-1.948863E+15	9.285627E-18	NaN
611	1.000000	0.045007	7.37103e+06	-46539.1	1005.82	-29768.8	0.000000	0.000000	6.044754	0.021445	NaN	0.000000	0.001603	0.001644	28.0826	0.059738	0.002075	28.7853	175.347	14.2478	-0.039968	0.043654	-1.102108	-1.103461	0.021445	28.7853	-1.102667	-5.443316E+14	-3.939705E-17	NaN
611	1.000000	0.087026	7.37103e+06	-46539.1	1005.82	-29768.8	0.000000	0.000000	6.086775	0.071496	NaN	0.000000	0.001585	0.001618	28.0828	0.110581	0.002100	52.6548	94.5814	-164.223	-0.010572	0.085638	-1.060089	-1.061477	0.071496	52.6548	-1.061108	-1.505584E+14	-4.748699E-16	NaN
611	1.000000	0.129034	7.37103e+06	-46539.1	1005.82	-29768.8	0.000000	0.000000	6.128777	-0.070278	NaN	0.000000	0.001615	0.001622	28.0814	0.024771	0.001833	13.5144	138.334	13.9909	-0.003816	0.127647	-1.018081	-1.019468	-0.070278	13.5144	-1.014181	-3.520836E+13	1.996048E-15	NaN
611	1.000000	0.171048	7.37103e+06	-46539.1	1005.82	-29768.8	0.000000	0.000000	6.170793	-0.015039	NaN	0.000000	0.001644	0.001697	28.0817	0.079359	0.001979	40.1049	165.055	-162.945	-0.039897	0.169715	-0.976067	-0.977400	-0.015039	40.1049	-0.975786	-1.070607E+13	1.404720E-15	NaN
611	1.000000	0.213087	7.37103e+06	-46539.1	1005.82	-29768.8	0.000000	0.000000	6.212830	-0.062637	NaN	0.000000	0.001652	0.001636	28.0812	0.082033	0.002107	38.9414	162.303	14.8714	-0.014053	0.211700	-0.934028	-0.935415	-0.062637	38.9414	-0.932822	-2.820209E+12	2.221018E-14	NaN
611	1.000000	0.255066	7.37103e+06	-46539.1	1005.82	-29768.8	0.000000	0.000000	6.254811	-0.022479	NaN	0.000000	0.001639	0.001671	28.0825	0.043754	0.001985	22.04	15.7233	-167.718	0.018154	0.253807	-0.892049	-0.893308	-0.022479	22.04	-0.891284	-7.749554E+11	2.900741E-14	NaN
611	1.000000	0.297118	7.37103e+06	-46539.1	1005.82	-29768.8	0.000000	0.000000	6.296864	0.007474	NaN	0.000000	0.001625	0.001632	28.0826	0.096280	0.001965	48.9902	-46.676	17.3666	-0.054192	0.295686	-0.849997	-0.851429	0.007474	48.9902	-0.850112	-2.149062E+11	-3.477861E-14	NaN
611	1.000000	0.339108	7.37103e+06	-46539.1	1005.82	-29768.8	0.000000	0.000000	6.338852	-0.058872	NaN	0.000000	0.001585	0.001658	28.0829	0.014778	0.002084	7.090756	-24.3219	-167.524	-0.029923	0.337781	-0.808007	-0.809334	-0.058872	7.090756	-0.801780	-4.753575E+10	1.238469E-12	NaN
611	1.000000	0.381142	7.37103e+06	-46539.1	1005.82	-29768.8	0.000000	0.000000	6.380888	-0.008028	NaN	0.000000	0.001631	0.001668	28.0813	0.063744	0.002058	30.9743	-153.254	18.4952	-0.003956	0.379793	-0.765973	-0.767322	-0.008028	30.9743	-0.765779	-1.541357E+10	5.208577E-13	NaN
611	1.000000	0.423171	7.37103e+06	-46539.1	1005.82	-29768.8	0.000000	0.000000	6.422918	0.040792	NaN	0.000000	0.001611	0.001693	28.0812	0.069308	0.002083	33.2749	-142.317	-164.939	0.047662	0.421877	-0.723944	-0.725238	0.040792	33.2749	-0.724864	-4.273619E+9	-9.545106E-12	NaN
611	1.000000	0.465146	7.37103e+06	-46539.1	1005.82	-29768.8	0.000000	0.000000	6.464895	0.061024	NaN	0.000000	0.001596	0.001691	28.0814	0.092009	0.002037	45.1625	89.7818	14.7124	0.085041	0.463806	-0.681969	-0.683309	0.061024	45.1625	-0.682982	-1.145479E+9	-5.327350E-11	NaN
611	1.000000	0.507194	7.37103e+06	-46539.1	1005.82	-29768.8	0.000000	0.000000	6.506944	0.100043	NaN	0.000000	0.001606	0.001689	28.0815	0.018493	0.002089	8.852861	-93.1129	-167.142	0.041973	0.505860	-0.639921	-0.641255	0.100043	8.852861	-0.648396	-3.849871E+8	-2.598595E-10	NaN
611	1.000000	0.549208	7.37103e+06	-46539.1	1005.82	-29768.8	0.000000	0.000000	6.548952	-0.037017	NaN	0.000000	0.001564	0.001703	28.0829	0.106714	0.002046	52.145	-147.794	10.7393	0.008335	0.547829	-0.597907	-0.599286	-0.037017	52.145	-0.597375	-7.661266E+7	4.831766E-10	NaN
611	1.000000	0.591222	7.37103e+06	-46539.1	1005.82	-29768.8	0.000000	0.000000	6.590969	0.025281	NaN	0.000000	0.001584	0.001722	28.0832	0.085044	0.001863	45.6395	51.48	-165.899	0.066063	0.589933	-0.555893	-0.557182	0.025281	45.6395	-0.556308	-2.076319E+7	-1.217587E-9	NaN
611	1.000000	0.633268	7.37103e+06	-46539.1	1005.82	-29768.8	0.000000	0.000000	6.633012	-0.030244	NaN	0.000000	0.001622	0.001736	28.0827	0.058996	0.002026	29.1246	-2.012031	15.6957	-0.046587	0.631892	-0.513847	-0.515223	-0.030244	29.1246	-0.513069	-5.21372e+06	5.800800E-9	NaN
611	1.000000	0.675270	7.37103e+06	-46539.1	1005.82	-29768.8	0.000000	0.000000	6.675017	0.047815	NaN	0.000000	0.001621	0.001709	28.0816	0.036064	0.002089	17.2612	-56.1364	-164.922	0.014468	0.673943	-0.471845	-0.473172	0.047815	17.2612	-0.473923	-1.48049e+06	-3.229637E-8	NaN
611	1.000000	0.717278	7.37103e+06	-46539.1	1005.82	-29768.8	0.000000	0.000000	6.717024	-0.009650	NaN	0.000000	0.001676	0.001722	28.0816	0.049512	0.002090	23.6883	-44.8994	17.4994	0.062533	0.715937	-0.429837	-0.431178	-0.009650	23.6883	-0.429531	-351096	2.748621E-8	NaN
611	1.000000	0.759305	7.37103e+06	-46539.1	1005.82	-29768.8	0.000000	0.000000	6.759048	-0.077212	NaN	0.000000	0.001580	0.001790	28.0817	0.060825	0.001827	33.2837	-102.128	-165.057	-0.036493	0.757980	-0.387810	-0.389135	-0.077212	33.2837	-0.386070	-84510.8	9.136381E-7	NaN
611	1.000000	0.801326	7.37103e+06	-46539.1	1005.82	-29768.8	0.000000	0.000000	6.801072	0.010531	NaN	0.000000	0.001578	0.001710	28.0829	0.054591	0.002069	26.3831	-62.6232	14.6547	-0.017319	0.799940	-0.345789	-0.347175	0.010531	26.3831	-0.346089	-22396.9	-4.702049E-7	NaN
611	1.000000	0.843350	7.37103e+06	-46539.1	1005.82	-29768.8	0.000000	0.000000	6.843097	0.018576	NaN	0.000000	0.001580	0.001715	28.0824	0.045406	0.002035	22.3122	52.1776	-162.55	0.012748	0.842013	-0.303765	-0.305102	0.018576	22.3122	-0.304389	-5468.71	-3.396696E-6	NaN
611	1.000000	0.885344	7.37103e+06	-46539.1	1005.82	-29768.8	0.000000	0.000000	6.885090	0.004141	NaN	0.000000	0.001611	0.001686	28.0827	0.038784	0.001952	19.8688	-136.886	16.7256	-0.002720	0.884040	-0.261771	-0.263075	0.004141	19.8688	-0.261927	-1254.39	-3.301061E-6	NaN
611	1.000000	0.927329	7.37103e+06	-46539.1	1005.82	-29768.8	0.000000	0.000000	6.927073	-0.034038	NaN	0.000000	0.001622	0.001729	28.0814	0.033484	0.002022	16.5618	67.4039	-164.254	-0.043614	0.926069	-0.219786	-0.221046	-0.034038	16.5618	-0.218245	-260.373	0.000131	NaN
611	1.000000	0.969396	7.37103e+06	-46539.1	1005.82	-29768.8	0.000000	0.000000	6.969143	0.016143	NaN	0.000000	0.001639	0.001690	28.0813	0.051523	0.001968	26.1772	-86.9793	15.6866	-0.051204	0.968033	-0.177719	-0.179082	0.016143	26.1772	-0.178181	-56.8155	-0.000284	NaN
611	1.000000	1.011410	7.37103e+06	-46539.1	1005.82	-29768.8	0.000000	0.000000	7.011154	-0.039615	NaN	0.000000	0.001597	0.001713	28.0812	0.093330	0.002002	46.6139	120.08	-163.781	-0.042955	1.010135	-0.135705	-0.136980	-0.039615	46.6139	-0.135068	-9.540848	0.004152	NaN
611	1.000000	1.053424	7.37103e+06	-46539.1	1005.82	-29768.8	0.000000	0.000000	7.053169	-0.028948	NaN	0.000000	0.001614	0.001692	28.0812	0.158901	0.002001	79.4235	86.2389	15.2671	-0.066356	1.052012	-0.093691	-0.095103	-0.028948	79.4235	-0.093418	-1.297772	0.022306	NaN
611	1.000000	1.095448	7.37103e+06	-46539.1	1005.82	-29768.8	0.000000	0.000000	7.095194	0.016402	NaN	0.000000	0.001605	0.001716	28.0823	0.050834	0.002035	24.9841	149.158	-166.71	-0.098253	1.094155	-0.051667	-0.052960	0.016402	24.9841	-0.052160	-0.105993	-0.154746	NaN
611	1.000000	1.137443	7.37103e+06	-46539.1	1005.82	-29768.8	0.000000	0.000000	7.137188	-0.002274	NaN	0.000000	0.001576	0.001676	28.0825	0.100168	0.001902	52.6545	-77.7246	18.7601	0.116254	1.136100	-0.009672	-0.011015	-0.002274	52.6545	-0.009640	-0.006181	0.367896	NaN
611	2.000000	1.165053	7.37103e+06	-46539.1	1005.82	-29768.8	0.000000	0.000000	7.165349	13.36	NaN	0.000000	0.001587	0.001721	28.0825	12.7777	0.001829	6986.59	5.608536	-172.552	13.1202	1.164764	0.017938	0.017649	13.36	6986.59	0.016504	0.017344	770.304	48469.2
611	2.000000	1.175476	7.37103e+06	-46539.1	1005.82	-29768.8	0.000000	0.000000	7.176650	34.7503	NaN	0.000000	0.001673	0.001714	28.0812	23.1627	0.001831	12652	6.589453	0.206283	31.5661	1.175148	0.028361	0.028033	34.7503	12652	0.026301	0.033425	1039.66	63226.5
611	2.000000	1.185985	7.37103e+06	-46539.1	1005.82	-29768.8	0.000000	0.000000	7.188510	67.6213	NaN	0.000000	0.001710	0.001697	28.0813	34.7011	0.001734	20015.2	3.966523	178.714	66.8335	1.185727	0.038870	0.038612	67.6213	20015.2	0.036336	0.054902	1231.68	78044.3
611	2.000000	1.196557	7.37103e+06	-46539.1	1005.82	-29768.8	0.000000	0.000000	7.200948	112.981	NaN	0.000000	0.001696	0.001733	28.0813	43.655	0.001781	24506	7.322950	-4.743131	115.995	1.196091	0.049442	0.048976	112.981	24506	0.045984	0.080406	1405.13	78958.8
611	2.000000	1.206961	7.37103e+06	-46539.1	1005.82	-29768.8	0.000000	0.000000	7.213515	165.611	NaN	0.000000	0.001623	0.001737	28.0827	54.3017	0.001820	29837.8	4.561679	176.305	164.072	1.206559	0.059846	0.059444	165.611	29837.8	0.055683	0.110784	1494.9	81903.3
611	2.000000	1.217373	7.37103e+06	-46539.1	1005.82	-29768.8	0.000000	0.000000	7.226434	226.6	NaN	0.000000	0.001615	0.001715	28.0829	64.9303	0.001746	37181.3	3.685571	-5.065524	221.193	1.217044	0.070258	0.069929	226.6	37181.3	0.065687	0.146986	1541.64	88605.3
611	2.000000	1.227984	7.37103e+06	-46539.1	1005.82	-29768.8	0.000000	0.000000	7.239595	288.615	NaN	0.000000	0.001636	0.001709	28.0831	75.1722	0.001807	41610.8	4.248270	173.137	289.767	1.227611	0.080869	0.080496	288.615	41610.8	0.075667	0.187900	1536	87703.1
611	2.000000	1.238446	7.37103e+06	-46539.1	1005.82	-29768.8	0.000000	0.000000	7.253244	366.128	NaN	0.000000	0.001681	0.001715	28.0817	84.2232	0.001743	48317.9	3.774842	-7.906095	363.986	1.238041	0.091331	0.090926	366.128	48317.9	0.085648	0.233503	1567.98	91355.5
611	2.000000	1.248880	7.37103e+06	-46539.1	1005.82	-29768.8	0.000000	0.000000	7.267087	449.066	NaN	0.000000	0.001586	0.001761	28.0815	92.2349	0.001772	52065.9	2.612496	172.588	445.269	1.248474	0.101765	0.101359	449.066	52065.9	0.095297	0.281957	1592.68	89585
611	2.000000	1.258857	7.37104e+06	-46539.1	1005.82	-29768.8	0.000000	0.000000	7.280339	528.728	NaN	0.000000	0.001629	0.001724	28.0816	103.215	0.001866	55308.5	5.611917	169.292	526.372	1.258603	0.111742	0.111488	528.728	55308.5	0.104573	0.332546	1589.94	87627.3