File: remote_trans/data/nanoindenter/0828-1/data/Data_2025-08-06,11h17m57s/2025-07-22_16-23-58_1_610.txt
2025-07-22, 16:23:58, 1
Index	Phase	Displacement	Time	Pos X	Pos Y	Pos Z	Rot A	Rot B	Piezo Z	Force A	Force B	Gripper	Voltage A	Voltage B	Temperature	Amplitude force	Amplitude pos	Stiffness	Phase shift	Phase excitation	Force A raw	Displacement raw	HMax	HMax raw	Real Force	Real Stiffness	Contact Depth	Area	Hardness	Reduced Mod.
[#]	[#]	[um]	[s]	[um]	[um]	[um]	[m°]	[m°]	[um]	[uN]	[uN]	[V]	[V]	[V]	[°C]	[uN]	[um]	[N/m]	[°]	[°]	[uN]	[um]	[um]	[um]	[uN]	[N/m]	[um]	[um^2]	[MPa]	[MPa]
610	1.000000	0.002287	7.37102e+06	-46589.1	1005.82	-29768.7	0.000000	0.000000	6.002800	-0.044283	NaN	0.000000	0.001586	0.001743	28.0801	0.018241	0.000851	21.4452	9.592918	-164.116	0.027521	0.001018	-1.138680	-1.139948	-0.044283	21.4452	-1.137131	-1.578575E+15	2.805246E-17	NaN
610	1.000000	0.044234	7.37102e+06	-46589.1	1005.82	-29768.7	0.000000	0.000000	6.044750	0.012377	NaN	0.000000	0.001593	0.001768	28.0813	0.036116	0.001968	18.3559	-78.6183	12.9641	0.029460	0.042890	-1.096732	-1.098077	0.012377	18.3559	-1.097238	-4.602410E+14	-2.689208E-17	NaN
610	1.000000	0.086256	7.37102e+06	-46589.1	1005.82	-29768.7	0.000000	0.000000	6.086772	0.031488	NaN	0.000000	0.001597	0.001804	28.081	0.077648	0.002027	38.3008	129.686	-164.129	-0.017664	0.084956	-1.054711	-1.056010	0.031488	38.3008	-1.055327	-1.258987E+14	-2.501077E-16	NaN
610	1.000000	0.128277	7.37102e+06	-46589.1	1005.82	-29768.7	0.000000	0.000000	6.128793	-0.001679	NaN	0.000000	0.001615	0.001755	28.0812	0.037269	0.001999	18.6393	71.0724	13.3215	-0.012863	0.126885	-1.012689	-1.014081	-0.001679	18.6393	-1.012622	-3.354798E+13	5.003784E-17	NaN
610	1.000000	0.170287	7.37102e+06	-46589.1	1005.82	-29768.7	0.000000	0.000000	6.170799	-0.068132	NaN	0.000000	0.001583	0.001771	28.0804	0.034271	0.001852	18.5076	-93.5028	-167.743	-0.048717	0.168943	-0.970680	-0.972024	-0.068132	18.5076	-0.967919	-8.387104E+12	8.123483E-15	NaN
610	1.000000	0.212300	7.37102e+06	-46589.1	1005.82	-29768.7	0.000000	0.000000	6.212814	-0.035305	NaN	0.000000	0.001596	0.001755	28.0799	0.088990	0.001892	47.0381	22.4306	9.515465	-0.075815	0.210908	-0.928666	-0.930058	-0.035305	47.0381	-0.928103	-2.435537E+12	1.449570E-14	NaN
610	1.000000	0.254336	7.37102e+06	-46589.1	1005.82	-29768.7	0.000000	0.000000	6.254851	-0.000576	NaN	0.000000	0.001622	0.001761	28.08	0.055625	0.001984	28.038	95.9703	-168.517	0.083340	0.253046	-0.886631	-0.887921	-0.000576	28.038	-0.886615	-6.701248E+11	8.592879E-16	NaN
610	1.000000	0.296342	7.37102e+06	-46589.1	1005.82	-29768.7	0.000000	0.000000	6.296856	-0.036674	NaN	0.000000	0.001657	0.001751	28.08	0.040073	0.002006	19.9816	-70.0201	11.1521	-0.038354	0.294967	-0.844624	-0.845999	-0.036674	19.9816	-0.843248	-1.734961E+11	2.113830E-13	NaN
610	1.000000	0.338345	7.37102e+06	-46589.1	1005.82	-29768.7	0.000000	0.000000	6.338857	-0.082065	NaN	0.000000	0.001614	0.001785	28.0813	0.058464	0.002036	28.7102	44.8719	-163.294	-0.055380	0.336988	-0.802621	-0.803978	-0.082065	28.7102	-0.800477	-4.563975E+10	1.798105E-12	NaN
610	1.000000	0.380385	7.37102e+06	-46589.1	1005.82	-29768.7	0.000000	0.000000	6.380901	0.014114	NaN	0.000000	0.001606	0.001733	28.0817	0.014858	0.002092	7.103370	-19.999	15.9521	-0.004671	0.378923	-0.760581	-0.762043	0.014114	7.103370	-0.762071	-1.372397E+10	-1.028400E-12	NaN
610	1.000000	0.422362	7.37102e+06	-46589.1	1005.82	-29768.7	0.000000	0.000000	6.422877	-0.023459	NaN	0.000000	0.001603	0.001751	28.0815	0.071926	0.001999	35.9725	77.7016	-165.736	-0.061353	0.421112	-0.718604	-0.719854	-0.023459	35.9725	-0.718115	-3.457522E+9	6.785015E-12	NaN
610	1.000000	0.464402	7.37102e+06	-46589.1	1005.82	-29768.7	0.000000	0.000000	6.464918	0.019041	NaN	0.000000	0.001574	0.001772	28.0801	0.119010	0.001998	59.5499	1.559180	14.4928	-0.024096	0.463053	-0.676564	-0.677914	0.019041	59.5499	-0.676804	-9.429580E+8	-2.019272E-11	NaN
610	1.000000	0.506442	7.37102e+06	-46589.1	1005.82	-29768.7	0.000000	0.000000	6.506957	-0.030042	NaN	0.000000	0.001640	0.001782	28.0801	0.001801	0.001890	0.953054	-115.745	-165.216	-0.003314	0.505166	-0.634524	-0.635800	-0.030042	0.953054	-0.610883	-1.175604E+8	2.555415E-10	NaN
610	1.000000	0.548419	7.37102e+06	-46589.1	1005.82	-29768.7	0.000000	0.000000	6.548934	-0.009828	NaN	0.000000	0.001624	0.001756	28.0799	0.080554	0.002053	39.2447	85.9053	14.1189	-0.033987	0.547119	-0.592548	-0.593847	-0.009828	39.2447	-0.592360	-6.534282E+7	1.504059E-10	NaN
610	1.000000	0.590477	7.37102e+06	-46589.1	1005.82	-29768.7	0.000000	0.000000	6.590991	-0.029332	NaN	0.000000	0.001583	0.001753	28.0813	0.069880	0.002150	32.5029	88.716	-166.454	0.012926	0.589126	-0.550490	-0.551840	-0.029332	32.5029	-0.549813	-1.687977E+7	1.737714E-9	NaN
610	1.000000	0.632466	7.37102e+06	-46589.1	1005.82	-29768.7	0.000000	0.000000	6.632980	-0.049199	NaN	0.000000	0.001574	0.001705	28.0814	0.087219	0.001957	44.5664	148.14	17.8949	-0.024075	0.631094	-0.508500	-0.509872	-0.049199	44.5664	-0.507672	-4.38518e+06	1.121935E-8	NaN
610	1.000000	0.674512	7.37102e+06	-46589.1	1005.82	-29768.7	0.000000	0.000000	6.675025	-0.048802	NaN	0.000000	0.001602	0.001629	28.0816	0.015285	0.002117	7.219581	-54.3981	-164.486	-0.047495	0.673193	-0.466455	-0.467773	-0.048802	7.219581	-0.461385	-987370	4.942642E-8	NaN
610	1.000000	0.716519	7.37102e+06	-46589.1	1005.82	-29768.7	0.000000	0.000000	6.717037	0.060771	NaN	0.000000	0.001612	0.001707	28.0801	0.043637	0.001925	22.6728	-156.257	15.1327	0.062452	0.715160	-0.424447	-0.425806	0.060771	22.6728	-0.426457	-317629	-1.913257E-7	NaN
610	1.000000	0.758546	7.37102e+06	-46589.1	1005.82	-29768.7	0.000000	0.000000	6.759062	0.008234	NaN	0.000000	0.001668	0.001722	28.08	0.011256	0.001893	5.946111	95.8957	-163.017	0.011049	0.757273	-0.382421	-0.383694	0.008234	5.946111	-0.383459	-77536.1	-1.061971E-7	NaN
610	1.000000	0.800546	7.37102e+06	-46589.1	1005.82	-29768.7	0.000000	0.000000	6.801064	0.052169	NaN	0.000000	0.001562	0.001675	28.0801	0.029193	0.001892	15.4265	160.955	15.1342	0.020907	0.799198	-0.340420	-0.341768	0.052169	15.4265	-0.342957	-20166.2	-2.586940E-6	NaN
610	1.000000	0.842550	7.37102e+06	-46589.1	1005.82	-29768.7	0.000000	0.000000	6.843067	0.048929	NaN	0.000000	0.001620	0.001693	28.0801	0.050331	0.001930	26.083	-120.558	-165.348	0.032661	0.841252	-0.298417	-0.299715	0.048929	26.083	-0.299824	-4677.47	-1.046059E-5	NaN
610	1.000000	0.884598	7.37102e+06	-46589.1	1005.82	-29768.7	0.000000	0.000000	6.885116	0.051399	NaN	0.000000	0.001611	0.001677	28.0816	0.048153	0.002013	23.9233	3.236367	18.1516	0.010023	0.883193	-0.256368	-0.257773	0.051399	23.9233	-0.257980	-1091.25	-4.710095E-5	NaN
610	1.000000	0.926587	7.37102e+06	-46589.1	1005.82	-29768.7	0.000000	0.000000	6.927102	-0.008250	NaN	0.000000	0.001612	0.001696	28.0814	0.066552	0.001869	35.5991	-127.62	-168.12	0.010283	0.925328	-0.214379	-0.215639	-0.008250	35.5991	-0.214205	-224.246	3.678973E-5	NaN
610	1.000000	0.968594	7.37102e+06	-46589.1	1005.82	-29768.7	0.000000	0.000000	6.969109	-0.000568	NaN	0.000000	0.001609	0.001723	28.0815	0.047083	0.002004	23.4986	-149.792	14.5979	0.052944	0.967264	-0.172373	-0.173702	-0.000568	23.4986	-0.172354	-45.1227	1.259046E-5	NaN
610	1.000000	1.010630	7.37102e+06	-46589.1	1005.82	-29768.7	0.000000	0.000000	7.011144	-0.019975	NaN	0.000000	0.001663	0.001740	28.0804	0.061746	0.001975	31.264	-109.166	-162.275	-0.018459	1.009258	-0.130337	-0.131708	-0.019975	31.264	-0.129858	-7.572567	0.002638	NaN
610	1.000000	1.052662	7.37102e+06	-46589.1	1005.82	-29768.7	0.000000	0.000000	7.053179	0.036080	NaN	0.000000	0.001649	0.001729	28.0803	0.140038	0.002015	69.5017	-109.499	15.45	0.009830	1.051301	-0.088304	-0.089665	0.036080	69.5017	-0.088693	-1.007021	-0.035828	NaN
610	1.000000	1.094636	7.37102e+06	-46589.1	1005.82	-29768.7	0.000000	0.000000	7.095153	0.020312	NaN	0.000000	0.001637	0.001729	28.08	0.028697	0.002103	13.6485	-92.452	-163.537	-0.047332	1.093339	-0.046330	-0.047627	0.020312	13.6485	-0.047446	-0.076328	-0.266114	NaN
610	1.000000	1.136688	7.37102e+06	-46589.1	1005.82	-29768.7	0.000000	0.000000	7.137220	0.402967	NaN	0.000000	0.001694	0.001699	28.0817	0.826226	0.002000	413.069	21.5009	13.762	0.144790	1.135335	-0.004279	-0.005631	0.402967	413.069	-0.005011	-0.003423	-117.714	NaN
610	2.000000	1.153271	7.37102e+06	-46589.1	1005.82	-29768.7	0.000000	0.000000	7.154663	21.325	NaN	0.000000	0.001728	0.001711	28.0817	16.8634	0.001721	9798.18	5.901006	-175.708	21.3828	1.152945	0.012305	0.011978	21.325	9798.18	0.010672	0.009938	2145.71	89796.5
610	2.000000	1.163735	7.37102e+06	-46589.1	1005.82	-29768.7	0.000000	0.000000	7.166065	44.1314	NaN	0.000000	0.001628	0.001724	28.0819	26.7215	0.001840	14525.9	3.318900	5.555006	43.2716	1.163375	0.022769	0.022409	44.1314	14525.9	0.020490	0.023319	1892.52	86908.3
610	2.000000	1.174196	7.37102e+06	-46589.1	1005.82	-29768.7	0.000000	0.000000	7.178067	81.6258	NaN	0.000000	0.001614	0.001675	28.0806	37.1323	0.001919	19346.7	3.038579	-177.714	79.908	1.173824	0.033230	0.032858	81.6258	19346.7	0.030065	0.040879	1996.74	87423.2
610	2.000000	1.184664	7.37102e+06	-46589.1	1005.82	-29768.7	0.000000	0.000000	7.190581	131.405	NaN	0.000000	0.001556	0.001729	28.081	46.2098	0.001677	27557	3.683195	-1.469864	128.665	1.184243	0.043697	0.043277	131.405	27557	0.040121	0.064341	2042.31	99256.8
610	2.000000	1.195193	7.37102e+06	-46589.1	1005.82	-29768.7	0.000000	0.000000	7.203121	180.314	NaN	0.000000	0.001606	0.001763	28.0802	56.8654	0.001788	31801.7	1.951031	178.845	177.282	1.194910	0.054227	0.053943	180.314	31801.7	0.049974	0.092334	1952.85	95618.8
610	2.000000	1.205707	7.37102e+06	-46589.1	1005.82	-29768.7	0.000000	0.000000	7.216234	243.536	NaN	0.000000	0.001600	0.001740	28.0803	67.1928	0.001814	37044.4	0.931559	-1.170966	242.569	1.205352	0.064741	0.064386	243.536	37044.4	0.059810	0.125128	1946.29	95679.3
610	2.000000	1.216167	7.37102e+06	-46589.1	1005.82	-29768.7	0.000000	0.000000	7.229401	309.371	NaN	0.000000	0.001545	0.001772	28.0816	76.7629	0.001801	42614.1	1.746374	176.191	308.256	1.215837	0.075201	0.074871	309.371	42614.1	0.069756	0.163096	1896.86	96406.2
610	2.000000	1.226582	7.37102e+06	-46589.1	1005.82	-29768.7	0.000000	0.000000	7.242851	383.216	NaN	0.000000	0.001553	0.001733	28.0817	87.0501	0.001828	47618.2	7.831398	-10.2974	377.644	1.226184	0.085615	0.085217	383.216	47618.2	0.079579	0.205224	1867.3	96035.5
610	2.000000	1.237152	7.37102e+06	-46589.1	1005.82	-29768.7	0.000000	0.000000	7.256892	467.623	NaN	0.000000	0.001594	0.001775	28.0814	95.798	0.001843	51986	8.517814	168.981	467.257	1.236782	0.096186	0.095816	467.623	51986	0.089440	0.252034	1855.39	94608.4
610	2.000000	1.243106	7.37103e+06	-46589.1	1005.82	-29768.7	0.000000	0.000000	7.265053	521.301	NaN	0.000000	0.001556	0.001757	28.0803	99.6587	0.001853	53790.3	3.344309	173.778	519.21	1.242672	0.102140	0.101706	521.301	53790.3	0.094872	0.279733	1863.57	92919.2