File: remote_trans/data/nanoindenter/0828-1/data/Data_2025-08-06,11h17m57s/2025-07-22_16-23-58_1_224.txt
2025-07-22, 16:23:58, 1
Index	Phase	Displacement	Time	Pos X	Pos Y	Pos Z	Rot A	Rot B	Piezo Z	Force A	Force B	Gripper	Voltage A	Voltage B	Temperature	Amplitude force	Amplitude pos	Stiffness	Phase shift	Phase excitation	Force A raw	Displacement raw	HMax	HMax raw	Real Force	Real Stiffness	Contact Depth	Area	Hardness	Reduced Mod.
[#]	[#]	[um]	[s]	[um]	[um]	[um]	[m°]	[m°]	[um]	[uN]	[uN]	[V]	[V]	[V]	[°C]	[uN]	[um]	[N/m]	[°]	[°]	[uN]	[um]	[um]	[um]	[uN]	[N/m]	[um]	[um^2]	[MPa]	[MPa]
224	1.000000	0.002367	7.36723e+06	-49839.1	955.818	-29758	0.000000	0.000000	6.002804	-0.025313	NaN	0.000000	0.001624	0.001688	28.0785	0.080512	0.001015	79.3535	51.6136	-164.556	0.020972	0.001140	-1.096504	-1.097732	-0.025313	79.3535	-1.096265	-4.466091E+14	5.667714E-17	NaN
224	1.000000	0.044304	7.36723e+06	-49839.1	955.819	-29758	0.000000	0.000000	6.044744	0.058783	NaN	0.000000	0.001577	0.001703	28.0785	0.008020	0.001945	4.122713	99.7103	14.7804	0.038580	0.042953	-1.054567	-1.055919	0.058783	4.122713	-1.065261	-1.712053E+14	-3.433508E-16	NaN
224	1.000000	0.086328	7.36723e+06	-49839.1	955.817	-29758	0.000000	0.000000	6.086764	-0.015337	NaN	0.000000	0.001599	0.001686	28.0786	0.074482	0.001999	37.2658	47.4528	-166.125	0.056025	0.085025	-1.012544	-1.013846	-0.015337	37.2658	-1.012235	-3.314872E+13	4.626713E-16	NaN
224	1.000000	0.128319	7.36723e+06	-49839.1	955.818	-29758	0.000000	0.000000	6.128755	-0.021848	NaN	0.000000	0.001600	0.001695	28.0772	0.022340	0.001968	11.3513	-88.1375	11.5791	0.070326	0.126966	-0.970553	-0.971906	-0.021848	11.3513	-0.969109	-8.702824E+12	2.510400E-15	NaN
224	1.000000	0.170353	7.36724e+06	-49839.1	955.818	-29758	0.000000	0.000000	6.170794	0.105223	NaN	0.000000	0.001586	0.001679	28.0771	0.129298	0.002006	64.4485	106.893	-163.822	0.090566	0.169035	-0.928519	-0.929836	0.105223	64.4485	-0.929743	-2.562905E+12	-4.105596E-14	NaN
224	1.000000	0.212385	7.36724e+06	-49839.1	955.818	-29758	0.000000	0.000000	6.212821	-0.017506	NaN	0.000000	0.001590	0.001683	28.0772	0.035759	0.002013	17.7668	166.198	15.8113	0.050216	0.211002	-0.886487	-0.887870	-0.017506	17.7668	-0.885748	-6.522784E+11	2.683785E-14	NaN
224	1.000000	0.254390	7.36724e+06	-49839.1	955.818	-29758	0.000000	0.000000	6.254827	-0.003184	NaN	0.000000	0.001623	0.001711	28.0773	0.113370	0.002115	53.5958	153.103	-166.453	-0.036541	0.253087	-0.844481	-0.845784	-0.003184	53.5958	-0.844437	-1.800506E+11	1.768668E-14	NaN
224	1.000000	0.296428	7.36724e+06	-49839.1	955.818	-29758	0.000000	0.000000	6.296866	-0.000853	NaN	0.000000	0.001604	0.001655	28.0782	0.083592	0.002040	40.9708	-83.8076	15.3774	-0.026855	0.295101	-0.802443	-0.803771	-0.000853	40.9708	-0.802428	-4.850802E+10	1.758240E-14	NaN
224	1.000000	0.338433	7.36724e+06	-49839.1	955.817	-29758	0.000000	0.000000	6.338872	0.051752	NaN	0.000000	0.001568	0.001681	28.0785	0.048576	0.001899	25.5844	113.85	-165.599	0.075604	0.337089	-0.760439	-0.761783	0.051752	25.5844	-0.761956	-1.367439E+10	-3.784576E-12	NaN
224	1.000000	0.380440	7.36724e+06	-49839.1	955.818	-29758	0.000000	0.000000	6.380875	-0.071738	NaN	0.000000	0.001604	0.001707	28.0783	0.050793	0.002064	24.6035	110.406	16.7105	-0.038989	0.379118	-0.718431	-0.719754	-0.071738	24.6035	-0.716245	-3.260242E+9	2.200377E-11	NaN
224	1.000000	0.422457	7.36724e+06	-49839.1	955.818	-29758	0.000000	0.000000	6.422893	-0.028013	NaN	0.000000	0.001572	0.001676	28.0772	0.068386	0.001936	35.3222	128.498	-168.129	0.056828	0.421180	-0.676414	-0.677691	-0.028013	35.3222	-0.675820	-9.141635E+8	3.064366E-11	NaN
224	1.000000	0.464502	7.36724e+06	-49839.1	955.817	-29758	0.000000	0.000000	6.464938	-0.043302	NaN	0.000000	0.001595	0.001698	28.0771	0.080220	0.001915	41.8831	73.679	13.8224	-0.053808	0.463107	-0.634370	-0.635765	-0.043302	41.8831	-0.633594	-2.411978E+8	1.795281E-10	NaN
224	1.000000	0.506514	7.36724e+06	-49839.1	955.818	-29758	0.000000	0.000000	6.506953	0.030035	NaN	0.000000	0.001622	0.001709	28.077	0.077410	0.001935	39.9999	110.015	-166.445	0.008848	0.505237	-0.592357	-0.593634	0.030035	39.9999	-0.592921	-6.651570E+7	-4.515477E-10	NaN
224	1.000000	0.548514	7.36724e+06	-49839.1	955.818	-29758	0.000000	0.000000	6.548950	-0.030909	NaN	0.000000	0.001571	0.001677	28.0782	0.111675	0.002063	54.1208	-99.852	11.6036	-0.078173	0.547193	-0.550358	-0.551679	-0.030909	54.1208	-0.549929	-1.694254E+7	1.824315E-9	NaN
224	1.000000	0.590563	7.36724e+06	-49839.1	955.819	-29758	0.000000	0.000000	6.590999	-0.034377	NaN	0.000000	0.001583	0.001676	28.0782	0.044379	0.001937	22.9116	-159.397	-162.559	-0.036030	0.589240	-0.508308	-0.509632	-0.034377	22.9116	-0.507183	-4.31685e+06	7.963541E-9	NaN
224	1.000000	0.632561	7.36724e+06	-49839.1	955.818	-29758	0.000000	0.000000	6.632999	0.009210	NaN	0.000000	0.001576	0.001707	28.0783	0.050676	0.002007	25.2461	-125.02	12.5816	-0.006540	0.631166	-0.466310	-0.467706	0.009210	25.2461	-0.466584	-1.1681e+06	-7.884152E-9	NaN
224	1.000000	0.674564	7.36724e+06	-49839.1	955.818	-29758	0.000000	0.000000	6.675002	0.027550	NaN	0.000000	0.001568	0.001713	28.0773	0.039240	0.002008	19.5383	89.2994	-166.164	0.040736	0.673271	-0.424308	-0.425601	0.027550	19.5383	-0.425365	-306518	-8.988197E-8	NaN
224	1.000000	0.716557	7.36724e+06	-49839.1	955.818	-29758	0.000000	0.000000	6.716994	-0.004497	NaN	0.000000	0.001562	0.001765	28.077	0.151761	0.002131	71.2175	44.9297	14.2574	-0.017795	0.715190	-0.382315	-0.383681	-0.004497	71.2175	-0.382268	-74545.1	6.032372E-8	NaN
224	1.000000	0.758605	7.36724e+06	-49839.1	955.817	-29758	0.000000	0.000000	6.759045	0.044775	NaN	0.000000	0.001609	0.001771	28.0765	0.026243	0.002063	12.7192	-61.9431	-165.013	0.038529	0.757267	-0.340266	-0.341605	0.044775	12.7192	-0.342906	-20132.2	-2.224022E-6	NaN
224	1.000000	0.800639	7.36724e+06	-49839.1	955.818	-29758	0.000000	0.000000	6.801075	-0.016838	NaN	0.000000	0.001618	0.001771	28.0769	0.044803	0.001947	23.0075	154.359	16.2636	-0.058007	0.799227	-0.298233	-0.299645	-0.016838	23.0075	-0.297684	-4346.45	3.873945E-6	NaN
224	1.000000	0.842651	7.36724e+06	-49839.1	955.818	-29758	0.000000	0.000000	6.843089	0.002222	NaN	0.000000	0.001582	0.001760	28.0778	0.037146	0.002084	17.8248	-132.215	-166.951	-0.039658	0.841344	-0.256220	-0.257527	0.002222	17.8248	-0.256314	-1028.79	-2.160205E-6	NaN
224	1.000000	0.884659	7.36724e+06	-49839.1	955.817	-29758	0.000000	0.000000	6.885094	-0.055796	NaN	0.000000	0.001632	0.001720	28.078	0.049046	0.002040	24.0366	-141.853	16.0033	-0.067770	0.883318	-0.214212	-0.215553	-0.055796	24.0366	-0.212471	-210.268	0.000265	NaN
224	1.000000	0.926664	7.36724e+06	-49839.1	955.819	-29758	0.000000	0.000000	6.927101	-0.006718	NaN	0.000000	0.001670	0.001736	28.0782	0.094804	0.002119	44.7303	-145.81	-170.372	0.002228	0.925392	-0.172207	-0.173479	-0.006718	44.7303	-0.172095	-44.6587	0.000150	NaN
224	1.000000	0.968696	7.36724e+06	-49839.1	955.818	-29758	0.000000	0.000000	6.969134	0.014181	NaN	0.000000	0.001651	0.001711	28.0766	0.062917	0.001985	31.6982	-5.696731	12.1415	0.005496	0.967347	-0.130176	-0.131525	0.014181	31.6982	-0.130511	-7.797046	-0.001819	NaN
224	1.000000	1.010685	7.36724e+06	-49839.1	955.817	-29758	0.000000	0.000000	7.011121	-0.023854	NaN	0.000000	0.001579	0.001720	28.0765	0.033724	0.002154	15.6543	112.704	-162.342	-0.009985	1.009375	-0.088187	-0.089497	-0.023854	15.6543	-0.087044	-0.920078	0.025926	NaN
224	1.000000	1.052732	7.36724e+06	-49839.1	955.819	-29758	0.000000	0.000000	7.053168	-0.026088	NaN	0.000000	0.001604	0.001693	28.0764	0.159574	0.002031	78.5516	54.8988	13.3552	0.021859	1.051335	-0.046140	-0.047537	-0.026088	78.5516	-0.045891	-0.068426	0.381253	NaN
224	1.000000	1.094753	7.36724e+06	-49839.1	955.819	-29758	0.000000	0.000000	7.095189	-0.030378	NaN	0.000000	0.001582	0.001741	28.0779	0.126912	0.002090	60.7147	-140.517	-165.219	-0.038085	1.093396	-0.004118	-0.005475	-0.030378	60.7147	-0.003743	-0.002612	11.6313	NaN
224	2.000000	1.114728	7.36724e+06	-49839.1	955.819	-29758	0.000000	0.000000	7.115832	16.2215	NaN	0.000000	0.001604	0.001737	28.0777	16.1984	0.001769	9159.07	7.740926	1.957671	15.1768	1.114390	0.015856	0.015518	16.2215	9159.07	0.014528	0.014661	1106.41	69109.6
224	2.000000	1.125184	7.36724e+06	-49839.1	955.819	-29758	0.000000	0.000000	7.127028	34.2191	NaN	0.000000	0.001590	0.001769	28.0777	24.1349	0.001711	14105.2	7.181968	179.405	32.9865	1.124886	0.026312	0.026014	34.2191	14105.2	0.024493	0.030099	1136.89	74280.8
224	2.000000	1.135649	7.36724e+06	-49839.1	955.819	-29758	0.000000	0.000000	7.138536	59.5722	NaN	0.000000	0.001563	0.001697	28.0777	35.1565	0.001871	18789.2	4.594199	-0.666037	56.6822	1.135255	0.036778	0.036383	59.5722	18789.2	0.034400	0.050357	1182.99	76498
224	2.000000	1.146159	7.36724e+06	-49839.1	955.819	-29758	0.000000	0.000000	7.150615	97.7294	NaN	0.000000	0.001592	0.001690	28.077	44.4682	0.001634	27211	6.375847	174.5	97.4774	1.145786	0.047287	0.046915	97.7294	27211	0.044594	0.076438	1278.54	89921.2
224	2.000000	1.156581	7.36724e+06	-49839.1	955.819	-29758	0.000000	0.000000	7.162639	136.68	NaN	0.000000	0.001608	0.001752	28.0765	54.6176	0.001846	29594.3	5.707746	-5.440381	132.491	1.156282	0.057710	0.057411	136.68	29594.3	0.054246	0.105987	1289.59	83052.8
224	2.000000	1.167074	7.36724e+06	-49839.1	955.819	-29758	0.000000	0.000000	7.175250	188.199	NaN	0.000000	0.001553	0.001699	28.0765	65.8289	0.001856	35461.9	7.617396	170.807	184.998	1.166826	0.068203	0.067955	188.199	35461.9	0.064222	0.141383	1331.13	86166
224	2.000000	1.177611	7.36724e+06	-49839.1	955.819	-29758	0.000000	0.000000	7.188020	242.516	NaN	0.000000	0.001527	0.001710	28.0776	76.4456	0.001865	40997.3	8.094191	-10.5217	239.851	1.177281	0.078739	0.078409	242.516	40997.3	0.074303	0.182030	1332.29	87792.3
224	2.000000	1.188088	7.36724e+06	-49839.1	955.82	-29758	0.000000	0.000000	7.201291	310.447	NaN	0.000000	0.001533	0.001704	28.0778	84.4655	0.001837	45969	6.550178	170.462	310.802	1.187830	0.089217	0.088959	310.447	45969	0.084152	0.226372	1371.4	88272.9
224	2.000000	1.198550	7.36724e+06	-49839.1	955.82	-29758	0.000000	0.000000	7.214420	375.299	NaN	0.000000	0.001549	0.001737	28.0779	94.4046	0.001758	53707.3	5.789815	-9.893744	370.285	1.198206	0.099679	0.099334	375.299	53707.3	0.094438	0.277472	1352.57	93153.1
224	2.000000	1.206150	7.36724e+06	-49839.1	955.821	-29758	0.000000	0.000000	7.223963	422.578	NaN	0.000000	0.001556	0.001700	28.0768	101.766	0.001757	57910.4	6.516621	168.569	427.883	1.205691	0.107278	0.106820	422.578	57910.4	0.101805	0.317044	1332.87	93965.8