File: remote_trans/data/nanoindenter/0828-1/data/Data_2025-08-06,11h17m57s/2025-07-22_16-23-58_1_247.txt
2025-07-22, 16:23:58, 1
Index	Phase	Displacement	Time	Pos X	Pos Y	Pos Z	Rot A	Rot B	Piezo Z	Force A	Force B	Gripper	Voltage A	Voltage B	Temperature	Amplitude force	Amplitude pos	Stiffness	Phase shift	Phase excitation	Force A raw	Displacement raw	HMax	HMax raw	Real Force	Real Stiffness	Contact Depth	Area	Hardness	Reduced Mod.
[#]	[#]	[um]	[s]	[um]	[um]	[um]	[m°]	[m°]	[um]	[uN]	[uN]	[V]	[V]	[V]	[°C]	[uN]	[um]	[N/m]	[°]	[°]	[uN]	[um]	[um]	[um]	[uN]	[N/m]	[um]	[um^2]	[MPa]	[MPa]
247	1.000000	0.002771	7.36746e+06	-50989.1	955.818	-29754.1	0.000000	0.000000	6.002828	-0.033402	NaN	0.000000	0.001595	0.001602	28.0784	0.117261	0.001058	110.853	-82.3954	-158.153	-0.011732	0.001463	-1.152078	-1.153386	-0.033402	110.853	-1.151852	-2.486859E+15	1.343125E-17	NaN
247	1.000000	0.046706	7.36746e+06	-50989.1	955.819	-29754.1	0.000000	0.000000	6.046766	0.035052	NaN	0.000000	0.001652	0.001609	28.0785	0.142381	0.002014	70.7113	179.388	-167.307	-0.060285	0.045429	-1.108143	-1.109420	0.035052	70.7113	-1.108514	-6.521540E+14	-5.374747E-17	NaN
247	1.000000	0.090710	7.36746e+06	-50989.1	955.819	-29754.1	0.000000	0.000000	6.090770	0.040697	NaN	0.000000	0.001634	0.001576	28.0798	0.050726	0.001884	26.9184	-113.093	-167.31	0.058207	0.089415	-1.064139	-1.065434	0.040697	26.9184	-1.065272	-1.712657E+14	-2.376250E-16	NaN
247	1.000000	0.134724	7.36747e+06	-50989.1	955.817	-29754.1	0.000000	0.000000	6.134783	0.031116	NaN	0.000000	0.001634	0.001605	28.0799	0.109615	0.002099	52.2255	30.9556	-163.383	0.087031	0.133441	-1.020125	-1.021408	0.031116	52.2255	-1.020572	-4.291871E+13	-7.250060E-16	NaN
247	1.000000	0.178733	7.36747e+06	-50989.1	955.818	-29754.1	0.000000	0.000000	6.178792	0.027420	NaN	0.000000	0.001596	0.001630	28.0802	0.084987	0.001799	47.2468	66.0941	-164.323	5.712939E-5	0.177400	-0.976116	-0.977449	0.027420	47.2468	-0.976552	-1.096353E+13	-2.501012E-15	NaN
247	1.000000	0.222756	7.36747e+06	-50989.1	955.817	-29754.1	0.000000	0.000000	6.222816	0.026925	NaN	0.000000	0.001639	0.001643	28.0797	0.096618	0.002013	48.0022	73.6997	-164.715	0.011125	0.221456	-0.932093	-0.933393	0.026925	48.0022	-0.932513	-2.793301E+12	-9.639027E-15	NaN
247	1.000000	0.266786	7.36747e+06	-50989.1	955.819	-29754.1	0.000000	0.000000	6.266845	0.021979	NaN	0.000000	0.001572	0.001611	28.0786	0.046007	0.001968	23.3768	-155.928	-166.196	0.022369	0.265497	-0.888063	-0.889352	0.021979	23.3768	-0.888769	-7.165875E+11	-3.067167E-14	NaN
247	1.000000	0.310804	7.36747e+06	-50989.1	955.818	-29754.1	0.000000	0.000000	6.310861	-0.031773	NaN	0.000000	0.001565	0.001611	28.0786	0.038027	0.002028	18.7489	107.612	-163.76	0.001694	0.309500	-0.844045	-0.845349	-0.031773	18.7489	-0.842774	-1.709493E+11	1.858613E-13	NaN
247	1.000000	0.354812	7.36747e+06	-50989.1	955.818	-29754.1	0.000000	0.000000	6.354870	-0.021685	NaN	0.000000	0.001575	0.001576	28.0786	0.109248	0.002001	54.5947	34.3588	-166.807	-0.052074	0.353523	-0.800037	-0.801326	-0.021685	54.5947	-0.799739	-4.459817E+10	4.862314E-13	NaN
247	1.000000	0.398842	7.36747e+06	-50989.1	955.819	-29754.1	0.000000	0.000000	6.398898	-0.043185	NaN	0.000000	0.001574	0.001590	28.0799	0.086864	0.002019	43.0233	38.8863	-167.05	-0.087330	0.397555	-0.756007	-0.757294	-0.043185	43.0233	-0.755254	-1.108492E+10	3.895876E-12	NaN
247	1.000000	0.442851	7.36747e+06	-50989.1	955.818	-29754.1	0.000000	0.000000	6.442910	0.021422	NaN	0.000000	0.001550	0.001561	28.0797	0.085047	0.002008	42.3641	133.52	-167.188	-0.025269	0.441502	-0.711998	-0.713347	0.021422	42.3641	-0.712377	-2.887251E+9	-7.419685E-12	NaN
247	1.000000	0.486887	7.36747e+06	-50989.1	955.818	-29754.1	0.000000	0.000000	6.486945	-0.011782	NaN	0.000000	0.001579	0.001625	28.0797	0.062583	0.001994	31.386	88.8939	-163.73	0.018019	0.485477	-0.667962	-0.669372	-0.011782	31.386	-0.667680	-7.073575E+8	1.665637E-11	NaN
247	1.000000	0.530891	7.36747e+06	-50989.1	955.819	-29754.1	0.000000	0.000000	6.530947	-0.061426	NaN	0.000000	0.001667	0.001605	28.0786	0.091036	0.001975	46.0923	76.9121	-166.671	-0.006986	0.529572	-0.623958	-0.625277	-0.061426	46.0923	-0.622958	-1.723026E+8	3.565010E-10	NaN
247	1.000000	0.574923	7.36747e+06	-50989.1	955.819	-29754.1	0.000000	0.000000	6.574982	0.015061	NaN	0.000000	0.001648	0.001585	28.0788	0.088596	0.001969	44.9864	178.657	-167.964	-0.011436	0.573599	-0.579926	-0.581250	0.015061	44.9864	-0.580177	-4.437850E+7	-3.393808E-10	NaN
247	1.000000	0.618943	7.36747e+06	-50989.1	955.819	-29754.1	0.000000	0.000000	6.619000	-0.034516	NaN	0.000000	0.001651	0.001620	28.0786	0.053047	0.001957	27.101	-36.4678	-165.32	-0.047902	0.617634	-0.535906	-0.537215	-0.034516	27.101	-0.534951	-1.050275E+7	3.286375E-9	NaN
247	1.000000	0.662955	7.36747e+06	-50989.1	955.818	-29754.1	0.000000	0.000000	6.663013	-0.010509	NaN	0.000000	0.001613	0.001605	28.0796	0.039791	0.002062	19.3015	-45.0945	-165.312	-0.015906	0.661595	-0.491894	-0.493254	-0.010509	19.3015	-0.491486	-2.60708e+06	4.031106E-9	NaN
247	1.000000	0.706962	7.36747e+06	-50989.1	955.818	-29754.1	0.000000	0.000000	6.707018	-0.044613	NaN	0.000000	0.001628	0.001601	28.0797	0.158417	0.002005	79.023	-173.878	-167.401	-0.084560	0.705685	-0.447887	-0.449164	-0.044613	79.023	-0.447463	-628944	7.093251E-8	NaN
247	1.000000	0.750970	7.36747e+06	-50989.1	955.818	-29754.1	0.000000	0.000000	6.751026	-0.049176	NaN	0.000000	0.001644	0.001595	28.0799	0.047095	0.001879	25.0703	77.2848	-166.72	-0.040198	0.749663	-0.403879	-0.405186	-0.049176	25.0703	-0.402408	-144650	3.399686E-7	NaN
247	1.000000	0.795022	7.36747e+06	-50989.1	955.819	-29754.1	0.000000	0.000000	6.795080	-0.005250	NaN	0.000000	0.001603	0.001626	28.0787	0.099287	0.001961	50.6362	-81.9348	-166.625	-0.079901	0.793698	-0.359827	-0.361151	-0.005250	50.6362	-0.359749	-35336	1.485862E-7	NaN
247	1.000000	0.839047	7.36747e+06	-50989.1	955.818	-29754.1	0.000000	0.000000	6.839105	0.006469	NaN	0.000000	0.001619	0.001679	28.0785	0.075477	0.002007	37.6006	26.6599	-168.588	0.006431	0.837645	-0.315802	-0.317204	0.006469	37.6006	-0.315931	-8103.73	-7.982194E-7	NaN
247	1.000000	0.883016	7.36747e+06	-50989.1	955.818	-29754.1	0.000000	0.000000	6.883073	-0.029167	NaN	0.000000	0.001566	0.001656	28.0791	0.030138	0.002078	14.5068	93.7921	-170.233	-0.043327	0.881768	-0.271833	-0.273081	-0.029167	14.5068	-0.270325	-1684.57	1.731441E-5	NaN
247	1.000000	0.927058	7.36747e+06	-50989.1	955.818	-29754.1	0.000000	0.000000	6.927114	-0.042913	NaN	0.000000	0.001643	0.001692	28.0795	0.090524	0.001947	46.4984	-158.477	-168.018	0.031472	0.925744	-0.227791	-0.229105	-0.042913	46.4984	-0.227099	-360.273	0.000119	NaN
247	1.000000	0.971078	7.36747e+06	-50989.1	955.818	-29754.1	0.000000	0.000000	6.971138	0.028810	NaN	0.000000	0.001590	0.001678	28.0797	0.048056	0.002077	23.1339	123.119	-168.057	0.002383	0.969770	-0.183771	-0.185079	0.028810	23.1339	-0.184705	-73.3081	-0.000393	NaN
247	1.000000	1.015134	7.36747e+06	-50989.1	955.819	-29754.1	0.000000	0.000000	7.015191	-0.032462	NaN	0.000000	0.001624	0.001682	28.0797	0.037785	0.001960	19.279	-119.474	-168.362	-0.038505	1.013802	-0.139715	-0.141047	-0.032462	19.279	-0.138452	-11.0616	0.002935	NaN
247	1.000000	1.059139	7.36747e+06	-50989.1	955.819	-29754.1	0.000000	0.000000	7.059196	-0.045124	NaN	0.000000	0.001656	0.001679	28.0782	0.044969	0.002096	21.4517	-153.315	-164.98	-0.002115	1.057778	-0.095710	-0.097071	-0.045124	21.4517	-0.094132	-1.347688	0.033482	NaN
247	1.000000	1.103159	7.36747e+06	-50989.1	955.817	-29754.1	0.000000	0.000000	7.103215	-0.044129	NaN	0.000000	0.001608	0.001641	28.0781	0.113609	0.002000	56.7901	129.112	-166.94	-0.121757	1.101823	-0.051690	-0.053026	-0.044129	56.7901	-0.051108	-0.098551	0.447775	NaN
247	1.000000	1.147148	7.36747e+06	-50989.1	955.818	-29754.1	0.000000	0.000000	7.147204	-0.041368	NaN	0.000000	0.001658	0.001607	28.0781	0.071255	0.002016	35.3514	68.5535	-164.787	-0.039928	1.145826	-0.007701	-0.009023	-0.041368	35.3514	-0.006824	-0.004535	9.122266	NaN
247	2.000000	1.172686	7.36747e+06	-50989.1	955.818	-29754.1	0.000000	0.000000	7.173407	16.1016	NaN	0.000000	0.001593	0.001691	28.0797	15.0401	0.001895	7938.49	7.458082	-174.774	15.7208	1.172382	0.017837	0.017533	16.1016	7938.49	0.016316	0.017081	942.671	55495.3
247	2.000000	1.183677	7.36747e+06	-50989.1	955.817	-29754.1	0.000000	0.000000	7.185344	39.1241	NaN	0.000000	0.001619	0.001701	28.0797	26.0218	0.001801	14450.9	6.671831	179.416	39.5394	1.183403	0.028828	0.028554	39.1241	14450.9	0.026797	0.034367	1138.42	71219.2
247	2.000000	1.194655	7.36747e+06	-50989.1	955.819	-29754.1	0.000000	0.000000	7.197946	78.609	NaN	0.000000	0.001668	0.001734	28.0795	36.6427	0.001722	21279.4	9.025223	173.222	79.5263	1.194322	0.039806	0.039473	78.609	21279.4	0.037036	0.056592	1389.04	81724.7
247	2.000000	1.205617	7.36747e+06	-50989.1	955.819	-29754.1	0.000000	0.000000	7.210897	126.994	NaN	0.000000	0.001645	0.001707	28.0782	49.6912	0.001886	26351.6	8.924152	171.98	126.917	1.205269	0.050768	0.050420	126.994	26351.6	0.047153	0.083818	1515.12	83159.6
247	2.000000	1.216541	7.36747e+06	-50989.1	955.82	-29754.1	0.000000	0.000000	7.224441	190.697	NaN	0.000000	0.001625	0.001701	28.0786	58.1858	0.001754	33164.1	3.860756	174.692	186.988	1.216302	0.061692	0.061453	190.697	33164.1	0.057379	0.116578	1635.79	88743
247	2.000000	1.227515	7.36747e+06	-50989.1	955.82	-29754.1	0.000000	0.000000	7.238032	254.348	NaN	0.000000	0.001659	0.001692	28.0783	68.5235	0.001848	37084.2	6.587226	170.933	247.836	1.227219	0.072666	0.072370	254.348	37084.2	0.067522	0.154153	1649.97	86295.1
247	2.000000	1.238698	7.36747e+06	-50989.1	955.82	-29754.1	0.000000	0.000000	7.251782	316.768	NaN	0.000000	0.001638	0.001601	28.0793	80.5969	0.001864	43249.1	5.992610	170.623	324.165	1.238305	0.083849	0.083456	316.768	43249.1	0.078356	0.199728	1586	88416
247	2.000000	1.249547	7.36747e+06	-50989.1	955.82	-29754.1	0.000000	0.000000	7.266216	403.935	NaN	0.000000	0.001638	0.001720	28.0794	89.4354	0.001809	49438.3	5.960385	169.754	401.141	1.249158	0.094698	0.094309	403.935	49438.3	0.088570	0.247726	1630.58	90751
247	2.000000	1.260502	7.36747e+06	-50989.1	955.819	-29754.1	0.000000	0.000000	7.280572	486.628	NaN	0.000000	0.001585	0.001700	28.0796	98.1976	0.001793	54757.1	7.189212	168.348	482.729	1.260076	0.105653	0.105227	486.628	54757.1	0.098987	0.301617	1613.4	91093.2
247	2.000000	1.265107	7.36747e+06	-50989.1	955.819	-29754.1	0.000000	0.000000	7.286325	514.563	NaN	0.000000	0.001610	0.001700	28.0795	102.481	0.001761	58198.4	5.548375	-11.0081	515.231	1.264884	0.110258	0.110035	514.563	58198.4	0.103627	0.327207	1572.59	92955