File: remote_trans/data/nanoindenter/0828-1/data/Data_2025-08-06,11h17m57s/2025-07-22_16-23-58_1_579.txt
2025-07-22, 16:23:58, 1
Index	Phase	Displacement	Time	Pos X	Pos Y	Pos Z	Rot A	Rot B	Piezo Z	Force A	Force B	Gripper	Voltage A	Voltage B	Temperature	Amplitude force	Amplitude pos	Stiffness	Phase shift	Phase excitation	Force A raw	Displacement raw	HMax	HMax raw	Real Force	Real Stiffness	Contact Depth	Area	Hardness	Reduced Mod.
[#]	[#]	[um]	[s]	[um]	[um]	[um]	[m°]	[m°]	[um]	[uN]	[uN]	[V]	[V]	[V]	[°C]	[uN]	[um]	[N/m]	[°]	[°]	[uN]	[um]	[um]	[um]	[uN]	[N/m]	[um]	[um^2]	[MPa]	[MPa]
579	1.000000	0.002723	7.37071e+06	-48139.1	1005.82	-29763.4	0.000000	0.000000	6.002791	-0.017136	NaN	0.000000	0.001627	0.001758	28.0805	0.023407	0.001086	21.5558	30.7318	-164.267	-0.024284	0.001439	-1.154924	-1.156208	-0.017136	21.5558	-1.154328	-2.684374E+15	6.383544E-18	NaN
579	1.000000	0.044698	7.37071e+06	-48139.1	1005.82	-29763.4	0.000000	0.000000	6.044766	-0.041526	NaN	0.000000	0.001631	0.001780	28.0801	0.092077	0.001905	48.3386	-72.7423	13.4962	-0.040911	0.043315	-1.112949	-1.114333	-0.041526	48.3386	-1.112305	-7.331874E+14	5.663821E-17	NaN
579	1.000000	0.086719	7.37071e+06	-48139.1	1005.82	-29763.4	0.000000	0.000000	6.086787	-0.037750	NaN	0.000000	0.001602	0.001728	28.08	0.070592	0.002048	34.4648	15.8107	-164.921	-0.017736	0.085386	-1.070928	-1.072261	-0.037750	34.4648	-1.070107	-1.988961E+14	1.897992E-16	NaN
579	1.000000	0.128689	7.37071e+06	-48139.1	1005.82	-29763.4	0.000000	0.000000	6.128758	-0.017876	NaN	0.000000	0.001594	0.001746	28.0798	0.070232	0.001894	37.0714	122.106	14.4629	-0.080333	0.127347	-1.028958	-1.030300	-0.017876	37.0714	-1.028596	-5.503004E+13	3.248413E-16	NaN
579	1.000000	0.170733	7.37071e+06	-48139.1	1005.82	-29763.4	0.000000	0.000000	6.170802	-0.002894	NaN	0.000000	0.001566	0.001729	28.0809	0.062914	0.002003	31.4068	159.274	-167.365	-0.004985	0.169440	-0.986914	-0.988207	-0.002894	31.4068	-0.986845	-1.508753E+13	1.917925E-16	NaN
579	1.000000	0.212728	7.37071e+06	-48139.1	1005.82	-29763.4	0.000000	0.000000	6.212798	0.023776	NaN	0.000000	0.001557	0.001745	28.0811	0.063350	0.002022	31.3369	176.774	12.0957	-0.007180	0.211347	-0.944919	-0.946300	0.023776	31.3369	-0.945488	-4.180012E+12	-5.688051E-15	NaN
579	1.000000	0.254752	7.37071e+06	-48139.1	1005.82	-29763.4	0.000000	0.000000	6.254820	-0.050198	NaN	0.000000	0.001675	0.001782	28.0811	0.092614	0.002004	46.2082	-117.026	-165.561	0.025270	0.253475	-0.902895	-0.904172	-0.050198	46.2082	-0.902080	-1.084351E+12	4.629349E-14	NaN
579	1.000000	0.296780	7.37071e+06	-48139.1	1005.82	-29763.4	0.000000	0.000000	6.296847	-0.057747	NaN	0.000000	0.001593	0.001748	28.0812	0.038403	0.002117	18.139	-112.433	12.8936	-0.009861	0.295391	-0.860867	-0.862256	-0.057747	18.139	-0.858479	-2.789576E+11	2.070086E-13	NaN
579	1.000000	0.338804	7.37071e+06	-48139.1	1005.82	-29763.4	0.000000	0.000000	6.338870	-0.081398	NaN	0.000000	0.001636	0.001733	28.0799	0.098659	0.001921	51.362	-72.2775	-163.63	-0.035548	0.337486	-0.818843	-0.820161	-0.081398	51.362	-0.817654	-7.805499E+10	1.042827E-12	NaN
579	1.000000	0.380801	7.37071e+06	-48139.1	1005.82	-29763.4	0.000000	0.000000	6.380869	-0.035759	NaN	0.000000	0.001562	0.001747	28.0794	0.049531	0.001942	25.5042	-44.8984	14.0594	-0.029206	0.379442	-0.776846	-0.778205	-0.035759	25.5042	-0.775794	-2.108981E+10	1.695538E-12	NaN
579	1.000000	0.422837	7.37071e+06	-48139.1	1005.82	-29763.4	0.000000	0.000000	6.422907	0.024807	NaN	0.000000	0.001559	0.001779	28.0794	0.055409	0.001996	27.7614	121.41	-164.548	0.051755	0.421548	-0.734810	-0.736099	0.024807	27.7614	-0.735480	-5.963319E+9	-4.160008E-12	NaN
579	1.000000	0.464845	7.37071e+06	-48139.1	1005.82	-29763.4	0.000000	0.000000	6.464913	-0.032550	NaN	0.000000	0.001547	0.001743	28.0805	0.102620	0.001907	53.8164	-112.413	11.0517	-0.073475	0.463463	-0.692802	-0.694184	-0.032550	53.8164	-0.692349	-1.538197E+9	2.116133E-11	NaN
579	1.000000	0.506885	7.37071e+06	-48139.1	1005.82	-29763.4	0.000000	0.000000	6.506955	0.015940	NaN	0.000000	0.001566	0.001731	28.0804	0.096083	0.002120	45.3128	85.538	-168.348	-0.067392	0.505616	-0.650762	-0.652031	0.015940	45.3128	-0.651026	-4.183131E+8	-3.810643E-11	NaN
579	1.000000	0.548873	7.37071e+06	-48139.1	1005.82	-29763.4	0.000000	0.000000	6.548941	-0.033048	NaN	0.000000	0.001576	0.001741	28.0805	0.056359	0.001980	28.4646	-72.2339	11.5585	-0.043287	0.547507	-0.608774	-0.610140	-0.033048	28.4646	-0.607903	-1.069701E+8	3.089489E-10	NaN
579	1.000000	0.590887	7.37071e+06	-48139.1	1005.82	-29763.4	0.000000	0.000000	6.590955	-0.051341	NaN	0.000000	0.001563	0.001735	28.0793	0.023597	0.002049	11.5173	-136.958	-163.763	-0.007079	0.589583	-0.566760	-0.568064	-0.051341	11.5173	-0.563417	-2.603940E+7	1.971680E-9	NaN
579	1.000000	0.632947	7.37071e+06	-48139.1	1005.82	-29763.4	0.000000	0.000000	6.633017	0.016322	NaN	0.000000	0.001584	0.001752	28.0793	0.040129	0.002080	19.2949	-124.812	14.0745	-0.020841	0.631575	-0.524701	-0.526072	0.016322	19.2949	-0.525335	-7.72269e+06	-2.113515E-9	NaN
579	1.000000	0.674919	7.37071e+06	-48139.1	1005.82	-29763.4	0.000000	0.000000	6.674985	-0.079755	NaN	0.000000	0.001541	0.001798	28.0796	0.112845	0.002011	56.1156	-154.755	-165.352	-0.114837	0.673671	-0.482728	-0.483976	-0.079755	56.1156	-0.481662	-1.90015e+06	4.197274E-8	NaN
579	1.000000	0.716971	7.37071e+06	-48139.1	1005.82	-29763.4	0.000000	0.000000	6.717039	-0.042285	NaN	0.000000	0.001548	0.001740	28.0806	0.078209	0.002068	37.8244	116.362	14.3482	-0.052016	0.715564	-0.440676	-0.442084	-0.042285	37.8244	-0.439837	-490986	8.612158E-8	NaN
579	1.000000	0.758978	7.37071e+06	-48139.1	1005.82	-29763.4	0.000000	0.000000	6.759048	0.012202	NaN	0.000000	0.001567	0.001798	28.0806	0.139802	0.001848	75.6687	-125.204	-166.678	-0.000688	0.757647	-0.398669	-0.400000	0.012202	75.6687	-0.398790	-128449	-9.499683E-8	NaN
579	1.000000	0.801001	7.37071e+06	-48139.1	1005.82	-29763.4	0.000000	0.000000	6.801069	-0.026876	NaN	0.000000	0.001534	0.001764	28.0806	0.094160	0.002074	45.3988	-153.149	11.2432	-0.059295	0.799621	-0.356646	-0.358026	-0.026876	45.3988	-0.356202	-31398.3	8.559621E-7	NaN
579	1.000000	0.843022	7.37072e+06	-48139.1	1005.82	-29763.4	0.000000	0.000000	6.843091	-0.015875	NaN	0.000000	0.001559	0.001734	28.0806	0.028244	0.002007	14.076	77.2707	-164.989	0.014790	0.841749	-0.314625	-0.315898	-0.015875	14.076	-0.313779	-7532.24	2.107544E-6	NaN
579	1.000000	0.885043	7.37072e+06	-48139.1	1005.82	-29763.4	0.000000	0.000000	6.885114	0.040792	NaN	0.000000	0.001568	0.001768	28.0794	0.055392	0.002078	26.653	-158.965	14.6446	-0.069384	0.883691	-0.272604	-0.273956	0.040792	26.653	-0.273752	-1898.87	-2.148235E-5	NaN
579	1.000000	0.927042	7.37072e+06	-48139.1	1005.82	-29763.4	0.000000	0.000000	6.927110	-0.029662	NaN	0.000000	0.001577	0.001759	28.0794	0.006738	0.002046	3.293000	67.5884	-166.39	-0.098685	0.925742	-0.230606	-0.231906	-0.029662	3.293000	-0.223850	-319.93	9.271421E-5	NaN
579	1.000000	0.969077	7.37072e+06	-48139.1	1005.82	-29763.4	0.000000	0.000000	6.969145	-0.039253	NaN	0.000000	0.001555	0.001750	28.0795	0.012662	0.001883	6.724083	-37.8083	14.1181	-0.098517	0.967702	-0.188570	-0.189945	-0.039253	6.724083	-0.184191	-71.8613	0.000546	NaN
579	1.000000	1.011080	7.37072e+06	-48139.1	1005.82	-29763.4	0.000000	0.000000	7.011149	-0.000158	NaN	0.000000	0.001551	0.001744	28.0806	0.046286	0.001996	23.1927	-158.116	-167.103	0.014334	1.009745	-0.146567	-0.147902	-0.000158	23.1927	-0.146562	-15.6674	1.009077E-5	NaN
579	1.000000	1.053112	7.37072e+06	-48139.1	1005.82	-29763.4	0.000000	0.000000	7.053180	-0.048824	NaN	0.000000	0.001556	0.001764	28.0806	0.073684	0.001965	37.4995	73.1191	16.2039	-0.027209	1.051741	-0.104535	-0.105907	-0.048824	37.4995	-0.103558	-2.187338	0.022321	NaN
579	1.000000	1.095143	7.37072e+06	-48139.1	1005.82	-29763.4	0.000000	0.000000	7.095212	-0.007726	NaN	0.000000	0.001583	0.001791	28.0809	0.072090	0.001963	36.73	-68.3095	-167.014	-0.019279	1.093874	-0.062505	-0.063773	-0.007726	36.73	-0.062347	-0.210041	0.036784	NaN
579	1.000000	1.137147	7.37072e+06	-48139.1	1005.82	-29763.4	0.000000	0.000000	7.137215	-0.024319	NaN	0.000000	0.001586	0.001732	28.0793	0.053200	0.002001	26.5888	-20.5045	12.2014	-0.045041	1.135707	-0.020500	-0.021940	-0.024319	26.5888	-0.019814	-0.012425	1.957289	NaN
579	2.000000	1.166714	7.37072e+06	-48139.1	1005.82	-29763.4	0.000000	0.000000	7.167324	13.1542	NaN	0.000000	0.001579	0.001712	28.0792	12.6075	0.001709	7377.35	3.362700	-170.777	12.3772	1.166338	0.009067	0.008690	13.1542	7377.35	0.007729	0.006765	1944.36	81946.4
579	2.000000	1.177139	7.37072e+06	-48139.1	1005.82	-29763.4	0.000000	0.000000	7.178568	33.0677	NaN	0.000000	0.001608	0.001773	28.0799	23.98	0.001834	13075.9	11.5509	-4.237614	32.7922	1.176790	0.019492	0.019143	33.0677	13075.9	0.017596	0.018904	1749.24	86889.8
579	2.000000	1.187641	7.37072e+06	-48139.1	1005.82	-29763.4	0.000000	0.000000	7.190204	60.643	NaN	0.000000	0.001601	0.001789	28.081	33.2871	0.001764	18866	4.329561	178.555	60.0942	1.187416	0.029994	0.029769	60.643	18866	0.027583	0.035883	1690.03	90993.7
579	2.000000	1.198212	7.37072e+06	-48139.1	1005.82	-29763.4	0.000000	0.000000	7.202216	95.7049	NaN	0.000000	0.001591	0.001748	28.081	43.7414	0.001756	24909.3	8.460741	-6.143816	100.625	1.197705	0.040565	0.040058	95.7049	24909.3	0.037683	0.058177	1645.05	94353.3
579	2.000000	1.208620	7.37072e+06	-48139.1	1005.82	-29763.4	0.000000	0.000000	7.214642	144.79	NaN	0.000000	0.001589	0.001724	28.0806	53.6116	0.001741	30787.3	2.488197	177.161	142.199	1.208262	0.050972	0.050615	144.79	30787.3	0.047445	0.084680	1709.84	96661.5
579	2.000000	1.219060	7.37072e+06	-48139.1	1005.82	-29763.4	0.000000	0.000000	7.226984	191.036	NaN	0.000000	0.001584	0.001739	28.0803	64.5474	0.001843	35019	3.136742	-4.902970	188.439	1.218802	0.061413	0.061155	191.036	35019	0.057322	0.116379	1641.49	93786.3
579	2.000000	1.229537	7.37072e+06	-48139.1	1005.82	-29763.4	0.000000	0.000000	7.240337	260.997	NaN	0.000000	0.001569	0.001750	28.0789	72.7431	0.001752	41511.2	0.873856	176.259	258.278	1.229249	0.071890	0.071602	260.997	41511.2	0.067174	0.152784	1708.27	97028.6
579	2.000000	1.239936	7.37072e+06	-48139.1	1005.82	-29763.4	0.000000	0.000000	7.253612	330.936	NaN	0.000000	0.001621	0.001755	28.0792	83.9808	0.001759	47751.3	4.079116	-7.920006	323.225	1.239698	0.082289	0.082051	330.936	47751.3	0.077091	0.194123	1704.78	99019.4
579	2.000000	1.250491	7.37072e+06	-48139.1	1005.82	-29763.4	0.000000	0.000000	7.267066	401.468	NaN	0.000000	0.001640	0.001742	28.0792	93.3186	0.001763	52940.1	3.767137	171.366	397.783	1.250348	0.092844	0.092701	401.468	52940.1	0.087156	0.240794	1667.27	98567.9
579	2.000000	1.260980	7.37072e+06	-48139.1	1005.82	-29763.4	0.000000	0.000000	7.281277	492.001	NaN	0.000000	0.001596	0.001751	28.0801	105.558	0.001758	60053.9	8.816192	-13.5465	488.797	1.260475	0.103333	0.102828	492.001	60053.9	0.097188	0.291955	1685.2	101545