File: remote_trans/data/nanoindenter/0828-1/data/Data_2025-08-06,11h17m57s/2025-07-22_16-23-58_1_22.txt
2025-07-22, 16:23:58, 1
Index	Phase	Displacement	Time	Pos X	Pos Y	Pos Z	Rot A	Rot B	Piezo Z	Force A	Force B	Gripper	Voltage A	Voltage B	Temperature	Amplitude force	Amplitude pos	Stiffness	Phase shift	Phase excitation	Force A raw	Displacement raw	HMax	HMax raw	Real Force	Real Stiffness	Contact Depth	Area	Hardness	Reduced Mod.
[#]	[#]	[um]	[s]	[um]	[um]	[um]	[m°]	[m°]	[um]	[uN]	[uN]	[V]	[V]	[V]	[°C]	[uN]	[um]	[N/m]	[°]	[°]	[uN]	[um]	[um]	[um]	[uN]	[N/m]	[um]	[um^2]	[MPa]	[MPa]
22	1.000000	0.002325	7.36525e+06	-39739.1	955.819	-29793.4	0.000000	0.000000	6.002782	-0.067482	NaN	0.000000	0.001575	0.001659	28.0936	0.017160	0.000891	19.2634	51.555	-170.316	-0.054785	0.001084	-1.088782	-1.090023	-0.067482	19.2634	-1.086154	-3.267157E+14	2.065455E-16	NaN
22	1.000000	0.044304	7.36525e+06	-39739.1	955.819	-29793.4	0.000000	0.000000	6.044761	-0.057066	NaN	0.000000	0.001527	0.001687	28.0798	0.035053	0.001912	18.3368	75.6546	16.6921	-0.017181	0.042911	-1.046803	-1.048196	-0.057066	18.3368	-1.044469	-8.996096E+13	6.343452E-16	NaN
22	1.000000	0.086320	7.36525e+06	-39739.1	955.818	-29793.4	0.000000	0.000000	6.086780	0.031538	NaN	0.000000	0.001544	0.001680	28.0989	0.066109	0.001924	34.3585	144.415	-162.708	0.031682	0.084980	-1.004787	-1.006126	0.031538	34.3585	-1.005475	-2.688321E+13	-1.173159E-15	NaN
22	1.000000	0.128328	7.36525e+06	-39739.1	955.817	-29793.4	0.000000	0.000000	6.128787	-0.022291	NaN	0.000000	0.001541	0.001607	28.1313	0.099016	0.001864	53.1123	0.973841	17.3799	-0.040541	0.126920	-0.962778	-0.964186	-0.022291	53.1123	-0.962464	-7.080777E+12	3.148170E-15	NaN
22	1.000000	0.170345	7.36525e+06	-39739.1	955.818	-29793.4	0.000000	0.000000	6.170805	0.002071	NaN	0.000000	0.001554	0.001678	28.0959	0.030354	0.002002	15.1622	-172.493	-165.675	-0.020036	0.169043	-0.920761	-0.922064	0.002071	15.1622	-0.920864	-1.944756E+12	-1.065030E-15	NaN
22	1.000000	0.212363	7.36525e+06	-39739.1	955.819	-29793.4	0.000000	0.000000	6.212821	-0.047627	NaN	0.000000	0.001604	0.001644	28.081	0.063490	0.001954	32.4982	-9.448657	13.682	-0.068489	0.210998	-0.878743	-0.880109	-0.047627	32.4982	-0.877644	-5.068089E+11	9.397377E-14	NaN
22	1.000000	0.254396	7.36526e+06	-39739.1	955.819	-29793.4	0.000000	0.000000	6.254856	0.014451	NaN	0.000000	0.001619	0.001657	28.0992	0.075688	0.001950	38.8145	137.419	-165.467	-0.023855	0.253088	-0.836711	-0.838018	0.014451	38.8145	-0.836990	-1.427293E+11	-1.012490E-13	NaN
22	1.000000	0.296421	7.36526e+06	-39739.1	955.818	-29793.4	0.000000	0.000000	6.296881	0.012695	NaN	0.000000	0.001627	0.001678	28.1316	0.087769	0.002126	41.2881	157.257	12.6858	-0.067229	0.295047	-0.794686	-0.796060	0.012695	41.2881	-0.794916	-3.835704E+10	-3.309691E-13	NaN
22	1.000000	0.338415	7.36526e+06	-39739.1	955.819	-29793.4	0.000000	0.000000	6.338877	0.036298	NaN	0.000000	0.001628	0.001661	28.0942	0.043489	0.001885	23.0695	128.16	-163.551	0.026299	0.337138	-0.752691	-0.753969	0.036298	23.0695	-0.753871	-1.061475E+10	-3.419554E-12	NaN
22	1.000000	0.380417	7.36526e+06	-39739.1	955.818	-29793.4	0.000000	0.000000	6.380877	0.018712	NaN	0.000000	0.001568	0.001734	28.0799	0.050317	0.002102	23.9398	111.611	15.3653	-0.023063	0.379089	-0.710690	-0.712018	0.018712	23.9398	-0.711276	-2.789100E+9	-6.709009E-12	NaN
22	1.000000	0.422431	7.36526e+06	-39739.1	955.818	-29793.4	0.000000	0.000000	6.422887	-0.086437	NaN	0.000000	0.001613	0.001697	28.0987	0.086367	0.001940	44.5128	-130.21	-164.973	-0.044303	0.421127	-0.668675	-0.669979	-0.086437	44.5128	-0.667219	-6.971433E+8	1.239877E-10	NaN
22	1.000000	0.464481	7.36526e+06	-39739.1	955.819	-29793.4	0.000000	0.000000	6.464942	0.013981	NaN	0.000000	0.001638	0.001727	28.1327	0.054850	0.001955	28.0529	-102.818	10.2145	-0.004093	0.463087	-0.626625	-0.628020	0.013981	28.0529	-0.626999	-1.957960E+8	-7.140536E-11	NaN
22	1.000000	0.506519	7.36526e+06	-39739.1	955.818	-29793.4	0.000000	0.000000	6.506977	-0.041578	NaN	0.000000	0.001516	0.001664	28.0982	0.116653	0.002027	57.5606	179.843	-165.23	-0.059317	0.505218	-0.584588	-0.585889	-0.041578	57.5606	-0.584046	-5.018244E+7	8.285374E-10	NaN
22	1.000000	0.548504	7.36526e+06	-39739.1	955.819	-29793.4	0.000000	0.000000	6.548966	0.068667	NaN	0.000000	0.001562	0.001695	28.0791	0.047999	0.001916	25.0559	-32.8467	18.2032	0.101673	0.547133	-0.542603	-0.543974	0.068667	25.0559	-0.544658	-1.432002E+7	-4.795190E-9	NaN
22	1.000000	0.590549	7.36526e+06	-39739.1	955.82	-29793.4	0.000000	0.000000	6.591007	-0.041461	NaN	0.000000	0.001572	0.001671	28.0966	0.048197	0.002063	23.3653	100.378	-168.1	-0.000810	0.589270	-0.500557	-0.501836	-0.041461	23.3653	-0.499227	-3.34369e+06	1.239962E-8	NaN
22	1.000000	0.632528	7.36526e+06	-39739.1	955.819	-29793.4	0.000000	0.000000	6.632988	0.029346	NaN	0.000000	0.001583	0.001679	28.1306	0.052426	0.002045	25.6346	97.4016	11.841	-0.056467	0.631144	-0.458579	-0.459963	0.029346	25.6346	-0.459438	-927074	-3.165465E-8	NaN
22	1.000000	0.674573	7.36526e+06	-39739.1	955.819	-29793.4	0.000000	0.000000	6.675034	0.021948	NaN	0.000000	0.001591	0.001672	28.0987	0.040891	0.002076	19.6929	-82.4575	-166.451	0.032961	0.673258	-0.416533	-0.417849	0.021948	19.6929	-0.417369	-236097	-9.296368E-8	NaN
22	1.000000	0.716538	7.36526e+06	-39739.1	955.819	-29793.4	0.000000	0.000000	6.716996	-0.017699	NaN	0.000000	0.001504	0.001658	28.0789	0.064737	0.001856	34.8814	-45.1324	11.9949	0.063007	0.715240	-0.374569	-0.375867	-0.017699	34.8814	-0.374188	-57069.3	3.101293E-7	NaN
22	1.000000	0.758602	7.36526e+06	-39739.1	955.819	-29793.4	0.000000	0.000000	6.759062	-0.006332	NaN	0.000000	0.001504	0.001693	28.0974	0.063156	0.002058	30.6911	-103.299	-167.999	0.033629	0.757253	-0.332504	-0.333853	-0.006332	30.6911	-0.332350	-14120.2	4.484636E-7	NaN
22	1.000000	0.800618	7.36526e+06	-39739.1	955.818	-29793.4	0.000000	0.000000	6.801079	0.031927	NaN	0.000000	0.001512	0.001664	28.1319	0.108619	0.002028	53.5495	108.364	15.5108	0.037404	0.799228	-0.290489	-0.291878	0.031927	53.5495	-0.290936	-3446.02	-9.264994E-6	NaN
22	1.000000	0.842605	7.36526e+06	-39739.1	955.818	-29793.4	0.000000	0.000000	6.843063	-0.047007	NaN	0.000000	0.001549	0.001627	28.0985	0.036301	0.001974	18.3858	-157.905	-163.313	-0.018659	0.841288	-0.248501	-0.249818	-0.047007	18.3858	-0.246584	-727.853	6.458320E-5	NaN
22	1.000000	0.884637	7.36526e+06	-39739.1	955.819	-29793.4	0.000000	0.000000	6.885095	-0.030869	NaN	0.000000	0.001556	0.001672	28.0788	0.060813	0.002000	30.4028	-161.135	12.7866	-0.033092	0.883275	-0.206470	-0.207831	-0.030869	30.4028	-0.205708	-163.346	0.000189	NaN
22	1.000000	0.926664	7.36526e+06	-39739.1	955.819	-29793.4	0.000000	0.000000	6.927122	-0.045350	NaN	0.000000	0.001578	0.001645	28.0955	0.030123	0.002139	14.0824	52.3532	-165.918	-0.058113	0.925351	-0.164442	-0.165756	-0.045350	14.0824	-0.162027	-29.7793	0.001523	NaN
22	1.000000	0.968719	7.36526e+06	-39739.1	955.818	-29793.4	0.000000	0.000000	6.969177	-0.050549	NaN	0.000000	0.001540	0.001676	28.1314	0.054461	0.002003	27.1964	-30.29	10.552	-0.058973	0.967361	-0.122387	-0.123745	-0.050549	27.1964	-0.120993	-5.059332	0.009991	NaN
22	1.000000	1.010709	7.36526e+06	-39739.1	955.82	-29793.4	0.000000	0.000000	7.011167	-0.023599	NaN	0.000000	0.001616	0.001649	28.1003	0.016791	0.001984	8.461828	47.7463	-165.508	0.019862	1.009390	-0.080398	-0.081717	-0.023599	8.461828	-0.078306	-0.561168	0.042053	NaN
22	1.000000	1.052695	7.36526e+06	-39739.1	955.817	-29793.4	0.000000	0.000000	7.053153	-0.022284	NaN	0.000000	0.001628	0.001643	28.0795	0.030114	0.001931	15.5979	-88.4438	17.2837	-0.078212	1.051347	-0.038412	-0.039759	-0.022284	15.5979	-0.037340	-0.037589	0.592844	NaN
22	1.000000	1.094695	7.36526e+06	-39739.1	955.819	-29793.4	0.000000	0.000000	7.095192	0.911066	NaN	0.000000	0.001606	0.001676	28.0946	1.488131	0.002044	727.884	6.797309	-167.284	0.162309	1.093387	0.003588	0.002280	0.911066	727.884	0.002650	0.002087	436.513	14556.6
22	2.000000	1.111616	7.36526e+06	-39739.1	955.819	-29793.4	0.000000	0.000000	7.113326	30.4246	NaN	0.000000	0.001607	0.001710	28.1303	20.5549	0.001611	12762.1	1.498137	4.656206	28.9257	1.111296	0.020509	0.020190	30.4246	12762.1	0.018721	0.020573	1478.89	81292.3
22	2.000000	1.122115	7.36526e+06	-39739.1	955.819	-29793.4	0.000000	0.000000	7.125035	59.8604	NaN	0.000000	0.001593	0.001653	28.0997	31.8394	0.001863	17086.7	5.198511	178.963	59.0215	1.121743	0.031009	0.030636	59.8604	17086.7	0.028381	0.037455	1598.18	80663.2
22	2.000000	1.132568	7.36526e+06	-39739.1	955.818	-29793.4	0.000000	0.000000	7.137013	96.9877	NaN	0.000000	0.001544	0.001627	28.0786	41.6375	0.001824	22821.9	9.012025	-7.154551	92.9919	1.132198	0.041461	0.041092	96.9877	22821.9	0.038274	0.059644	1626.12	85377.5
22	2.000000	1.143137	7.36526e+06	-39739.1	955.82	-29793.4	0.000000	0.000000	7.149274	138.145	NaN	0.000000	0.001599	0.001626	28.0954	50.2157	0.001760	28532.8	5.682463	175.059	140.803	1.142714	0.052031	0.051608	138.145	28532.8	0.048399	0.087530	1578.25	88112.8
22	2.000000	1.153531	7.36526e+06	-39739.1	955.819	-29793.4	0.000000	0.000000	7.162153	198.623	NaN	0.000000	0.001626	0.001648	28.1316	60.8136	0.001822	33370.7	5.674462	-5.378927	194.576	1.153124	0.062424	0.062018	198.623	33370.7	0.057960	0.118595	1674.79	88533
22	2.000000	1.163998	7.36526e+06	-39739.1	955.82	-29793.4	0.000000	0.000000	7.174889	253.841	NaN	0.000000	0.001608	0.001663	28.1012	71.2482	0.001748	40759.1	2.126277	174.997	249.172	1.163756	0.072891	0.072649	253.841	40759.1	0.068220	0.156923	1617.61	94005.7
22	2.000000	1.174432	7.36526e+06	-39739.1	955.82	-29793.4	0.000000	0.000000	7.188574	332.967	NaN	0.000000	0.001579	0.001653	28.08	82.9	0.001925	43063.1	3.321013	-5.846032	325.146	1.174103	0.083325	0.082996	332.967	43063.1	0.077526	0.196043	1698.44	88859.2
22	2.000000	1.184992	7.36526e+06	-39739.1	955.821	-29793.4	0.000000	0.000000	7.202633	418.097	NaN	0.000000	0.001519	0.001615	28.0925	90.7751	0.001835	49458.8	2.158689	174.29	414.705	1.184574	0.093886	0.093468	418.097	49458.8	0.087546	0.242694	1722.73	91724.9
22	2.000000	1.195455	7.36526e+06	-39739.1	955.82	-29793.4	0.000000	0.000000	7.216251	494.872	NaN	0.000000	0.001562	0.001653	28.131	101.476	0.001742	58250.4	3.669232	-9.265245	488.799	1.195138	0.104349	0.104032	494.872	58250.4	0.097977	0.296173	1670.88	97791
22	2.000000	1.201829	7.36526e+06	-39739.1	955.821	-29793.4	0.000000	0.000000	7.225039	553.622	NaN	0.000000	0.001502	0.001646	28.1027	107.296	0.001866	57513.9	1.962560	173.545	543.21	1.201633	0.110722	0.110526	553.622	57513.9	0.103503	0.326512	1695.56	91959.5