File: remote_trans/data/nanoindenter/0828-1/data/Data_2025-08-06,11h17m57s/2025-07-22_16-23-58_1_71.txt
2025-07-22, 16:23:58, 1
Index	Phase	Displacement	Time	Pos X	Pos Y	Pos Z	Rot A	Rot B	Piezo Z	Force A	Force B	Gripper	Voltage A	Voltage B	Temperature	Amplitude force	Amplitude pos	Stiffness	Phase shift	Phase excitation	Force A raw	Displacement raw	HMax	HMax raw	Real Force	Real Stiffness	Contact Depth	Area	Hardness	Reduced Mod.
[#]	[#]	[um]	[s]	[um]	[um]	[um]	[m°]	[m°]	[um]	[uN]	[uN]	[V]	[V]	[V]	[°C]	[uN]	[um]	[N/m]	[°]	[°]	[uN]	[um]	[um]	[um]	[uN]	[N/m]	[um]	[um^2]	[MPa]	[MPa]
71	1.000000	0.002563	7.36574e+06	-42189.1	955.819	-29784.2	0.000000	0.000000	6.002796	-0.067438	NaN	0.000000	0.001689	0.001681	28.114	0.048220	0.000874	55.1848	157.379	-166.217	-0.142023	0.001346	-1.083657	-1.084873	-0.067438	55.1848	-1.082741	-2.939866E+14	2.293904E-16	NaN
71	1.000000	0.042545	7.36574e+06	-42189.1	955.818	-29784.2	0.000000	0.000000	6.042778	-0.078284	NaN	0.000000	0.001671	0.001645	28.1136	0.041391	0.002212	18.7116	-64.4282	-165.556	-0.087786	0.041233	-1.043675	-1.044987	-0.078284	18.7116	-1.040537	-7.965080E+13	9.828397E-16	NaN
71	1.000000	0.082566	7.36574e+06	-42189.1	955.818	-29784.2	0.000000	0.000000	6.082801	-0.035840	NaN	0.000000	0.001677	0.001731	28.1149	0.000830	0.002006	0.413599	-72.4281	-161.455	-0.064994	0.081213	-1.003654	-1.005006	-0.035840	0.413599	-0.938663	-3.381467E+12	1.059897E-14	NaN
71	1.000000	0.122529	7.36574e+06	-42189.1	955.818	-29784.2	0.000000	0.000000	6.122762	-0.101325	NaN	0.000000	0.001591	0.001697	28.1141	0.074776	0.002115	35.3499	-149.098	-165.72	-0.099380	0.121220	-0.963691	-0.965000	-0.101325	35.3499	-0.961541	-6.880850E+12	1.472566E-14	NaN
71	1.000000	0.162563	7.36574e+06	-42189.1	955.818	-29784.2	0.000000	0.000000	6.162799	-0.022495	NaN	0.000000	0.001633	0.001688	28.1146	0.019566	0.002041	9.584709	-49.7091	-162.991	-0.046327	0.161261	-0.923657	-0.924959	-0.022495	9.584709	-0.921897	-2.008219E+12	1.120130E-14	NaN
71	1.000000	0.202600	7.36574e+06	-42189.1	955.818	-29784.2	0.000000	0.000000	6.202834	-0.057794	NaN	0.000000	0.001592	0.001669	28.1124	0.004744	0.002058	2.304644	144.308	-165.359	-0.040264	0.201292	-0.883620	-0.884928	-0.057794	2.304644	-0.864812	-3.398228E+11	1.700698E-13	NaN
71	1.000000	0.242624	7.36574e+06	-42189.1	955.819	-29784.2	0.000000	0.000000	6.242858	-0.057138	NaN	0.000000	0.001622	0.001680	28.1142	0.099197	0.001908	52.0008	125.049	-163.959	-0.097418	0.241293	-0.843596	-0.844927	-0.057138	52.0008	-0.842772	-1.709390E+11	3.342589E-13	NaN
71	1.000000	0.282606	7.36574e+06	-42189.1	955.818	-29784.2	0.000000	0.000000	6.282841	-0.045730	NaN	0.000000	0.001608	0.001659	28.1136	0.112204	0.002056	54.5806	175.931	-168.323	-0.064202	0.281312	-0.803613	-0.804908	-0.045730	54.5806	-0.802985	-4.936033E+10	9.264497E-13	NaN
71	1.000000	0.322646	7.36574e+06	-42189.1	955.819	-29784.2	0.000000	0.000000	6.322879	-0.092464	NaN	0.000000	0.001557	0.001662	28.116	0.120156	0.001913	62.819	81.5185	-166.19	-0.119329	0.321336	-0.763574	-0.764884	-0.092464	62.819	-0.762470	-1.389636E+10	6.653826E-12	NaN
71	1.000000	0.362675	7.36574e+06	-42189.1	955.818	-29784.2	0.000000	0.000000	6.362908	-0.094892	NaN	0.000000	0.001587	0.001675	28.115	0.058283	0.001993	29.2473	111.952	-164.257	-0.072706	0.361300	-0.723544	-0.724920	-0.094892	29.2473	-0.721111	-3.798616E+9	2.498073E-11	NaN
71	1.000000	0.402699	7.36574e+06	-42189.1	955.818	-29784.2	0.000000	0.000000	6.402936	0.025402	NaN	0.000000	0.001571	0.001657	28.1162	0.106677	0.001974	54.0393	108.727	-168.52	0.005433	0.401322	-0.683521	-0.684898	0.025402	54.0393	-0.683874	-1.178085E+9	-2.156195E-11	NaN
71	1.000000	0.442661	7.36574e+06	-42189.1	955.818	-29784.2	0.000000	0.000000	6.442894	-0.087378	NaN	0.000000	0.001568	0.001600	28.1144	0.032123	0.001956	16.4265	-102.1	-165.018	-0.033046	0.441350	-0.643559	-0.644870	-0.087378	16.4265	-0.639570	-2.913286E+8	2.999284E-10	NaN
71	1.000000	0.482692	7.36574e+06	-42189.1	955.818	-29784.2	0.000000	0.000000	6.482926	-0.061239	NaN	0.000000	0.001644	0.001611	28.1153	0.069209	0.002071	33.4196	-57.4564	-165.782	-0.041458	0.481455	-0.603528	-0.604765	-0.061239	33.4196	-0.602153	-8.914870E+7	6.869278E-10	NaN
71	1.000000	0.522737	7.36574e+06	-42189.1	955.818	-29784.2	0.000000	0.000000	6.522971	-0.060160	NaN	0.000000	0.001624	0.001645	28.1147	0.096574	0.002173	44.4432	126.197	-164.062	-0.010874	0.521384	-0.563483	-0.564836	-0.060160	44.4432	-0.562468	-2.526472E+7	2.381176E-9	NaN
71	1.000000	0.562750	7.36574e+06	-42189.1	955.819	-29784.2	0.000000	0.000000	6.562983	-0.084164	NaN	0.000000	0.001587	0.001659	28.1157	0.050255	0.002160	23.2705	69.6766	-166.852	-0.148842	0.561452	-0.523470	-0.524768	-0.084164	23.2705	-0.520757	-6.67001e+06	1.261828E-8	NaN
71	1.000000	0.602737	7.36574e+06	-42189.1	955.819	-29784.2	0.000000	0.000000	6.602969	-0.131230	NaN	0.000000	0.001580	0.001643	28.1165	0.123638	0.002132	57.9972	-37.8155	-166.877	-0.161983	0.601434	-0.483482	-0.484786	-0.131230	57.9972	-0.481785	-1.90774e+06	6.878834E-8	NaN
71	1.000000	0.642795	7.36574e+06	-42189.1	955.818	-29784.2	0.000000	0.000000	6.643030	-0.037510	NaN	0.000000	0.001600	0.001651	28.1182	0.127724	0.002070	61.6894	-11.4446	-165.376	-0.043976	0.641503	-0.443425	-0.444717	-0.037510	61.6894	-0.442969	-543566	6.900720E-8	NaN
71	1.000000	0.682795	7.36574e+06	-42189.1	955.819	-29784.2	0.000000	0.000000	6.683029	-0.047605	NaN	0.000000	0.001578	0.001666	28.1163	0.161281	0.002116	76.2276	-143.274	-164.352	-0.124470	0.681485	-0.403425	-0.404734	-0.047605	76.2276	-0.402957	-147280	3.232314E-7	NaN
71	1.000000	0.722777	7.36574e+06	-42189.1	955.818	-29784.2	0.000000	0.000000	6.723012	-0.037754	NaN	0.000000	0.001586	0.001657	28.1172	0.101354	0.002022	50.1312	47.9813	-165.98	-0.046258	0.721498	-0.363443	-0.364722	-0.037754	50.1312	-0.362878	-39212.6	9.628029E-7	NaN
71	1.000000	0.762810	7.36574e+06	-42189.1	955.818	-29784.2	0.000000	0.000000	6.763046	-0.019053	NaN	0.000000	0.001632	0.001679	28.1162	0.069231	0.001881	36.8065	-175.011	-166.11	-0.040686	0.761484	-0.323410	-0.324736	-0.019053	36.8065	-0.323022	-10305.7	1.848772E-6	NaN
71	1.000000	0.802833	7.36574e+06	-42189.1	955.819	-29784.2	0.000000	0.000000	6.803067	-0.052191	NaN	0.000000	0.001656	0.001698	28.1175	0.191629	0.002112	90.7398	-130.099	-164.544	0.039821	0.801563	-0.283387	-0.284657	-0.052191	90.7398	-0.282956	-2615.26	1.995652E-5	NaN
71	1.000000	0.842848	7.36574e+06	-42189.1	955.818	-29784.2	0.000000	0.000000	6.843083	-0.050297	NaN	0.000000	0.001653	0.001634	28.1158	0.026966	0.001912	14.1016	-169.268	-166.312	-0.041640	0.841558	-0.243371	-0.244662	-0.050297	14.1016	-0.240696	-589.42	8.533247E-5	NaN
71	1.000000	0.882845	7.36574e+06	-42189.1	955.818	-29784.2	0.000000	0.000000	6.883079	-0.053517	NaN	0.000000	0.001589	0.001683	28.1184	0.064292	0.002066	31.1215	-39.0781	-165.359	-0.066573	0.881589	-0.203375	-0.204631	-0.053517	31.1215	-0.202085	-142.533	0.000375	NaN
71	1.000000	0.922872	7.36574e+06	-42189.1	955.818	-29784.2	0.000000	0.000000	6.923105	-0.099284	NaN	0.000000	0.001583	0.001637	28.1172	0.057703	0.001913	30.1607	-147.947	-166.781	-0.076238	0.921590	-0.163347	-0.164629	-0.099284	30.1607	-0.160878	-28.4171	0.003494	NaN
71	1.000000	0.962917	7.36574e+06	-42189.1	955.818	-29784.2	0.000000	0.000000	6.963152	-0.038765	NaN	0.000000	0.001680	0.001703	28.1192	0.138445	0.001962	70.5466	139.911	-165.736	-0.108605	0.961614	-0.123302	-0.124606	-0.038765	70.5466	-0.122890	-5.521757	0.007020	NaN
71	1.000000	1.002916	7.36574e+06	-42189.1	955.818	-29784.2	0.000000	0.000000	7.003151	-0.032835	NaN	0.000000	0.001640	0.001660	28.1174	0.062306	0.001931	32.2718	23.758	-165.968	-0.034424	1.001621	-0.083304	-0.084599	-0.032835	32.2718	-0.082541	-0.715620	0.045884	NaN
71	1.000000	1.042939	7.36574e+06	-42189.1	955.818	-29784.2	0.000000	0.000000	7.043173	-0.056144	NaN	0.000000	0.001567	0.001691	28.1183	0.042822	0.001905	22.4813	-90.187	-166.542	-0.082840	1.041691	-0.043281	-0.044529	-0.056144	22.4813	-0.041408	-0.049913	1.124840	NaN
71	1.000000	1.082964	7.36574e+06	-42189.1	955.819	-29784.2	0.000000	0.000000	7.083196	-0.115013	NaN	0.000000	0.001577	0.001623	28.1173	0.041241	0.002013	20.4879	7.975072	-167.389	-0.113047	1.081643	-0.003256	-0.004577	-0.115013	20.4879	0.000954	0.000726	-158.319	694.487
71	2.000000	1.101507	7.36574e+06	-42189.1	955.819	-29784.2	0.000000	0.000000	7.102598	20.7884	NaN	0.000000	0.001540	0.001684	28.1194	16.8618	0.001915	8806.01	6.207362	-175.147	20.5721	1.101210	0.015288	0.014990	20.7884	8806.01	0.013517	0.013358	1556.19	69610.4
71	2.000000	1.111465	7.36574e+06	-42189.1	955.819	-29784.2	0.000000	0.000000	7.113544	44.8311	NaN	0.000000	0.001583	0.001729	28.1191	26.1655	0.001713	15278.8	3.507336	-178.63	44.7998	1.111097	0.025245	0.024877	44.8311	15278.8	0.023045	0.027554	1627.03	84095.1
71	2.000000	1.121473	7.36574e+06	-42189.1	955.819	-29784.2	0.000000	0.000000	7.124870	76.8777	NaN	0.000000	0.001559	0.001699	28.1199	36.6599	0.001681	21806.1	4.229237	177.925	78.1025	1.121189	0.035254	0.034969	76.8777	21806.1	0.032610	0.046326	1659.49	92563.1
71	2.000000	1.131454	7.36574e+06	-42189.1	955.817	-29784.2	0.000000	0.000000	7.136443	115.627	NaN	0.000000	0.001515	0.001685	28.1192	45.9358	0.001877	24479.2	7.038341	174.649	117.747	1.131165	0.045234	0.044945	115.627	24479.2	0.041692	0.068473	1688.64	85469.1
71	2.000000	1.141395	7.36574e+06	-42189.1	955.818	-29784.2	0.000000	0.000000	7.148144	158.453	NaN	0.000000	0.001535	0.001665	28.1191	54.7614	0.001865	29360.4	3.924419	176.349	156.667	1.141070	0.055175	0.054851	158.453	29360.4	0.051128	0.095930	1651.75	86607.8
71	2.000000	1.151493	7.36574e+06	-42189.1	955.818	-29784.2	0.000000	0.000000	7.160276	207.937	NaN	0.000000	0.001523	0.001703	28.1182	63.6979	0.001759	36212.6	3.190481	175.375	213.544	1.151197	0.065273	0.064977	207.937	36212.6	0.060967	0.129297	1608.21	92010.6
71	2.000000	1.161358	7.36574e+06	-42189.1	955.818	-29784.2	0.000000	0.000000	7.173059	278.947	NaN	0.000000	0.001618	0.001677	28.1195	73.7095	0.001800	40950	5.298173	172.25	276.854	1.160958	0.075138	0.074738	278.947	40950	0.070029	0.164207	1698.75	92327.5
71	2.000000	1.171423	7.36574e+06	-42189.1	955.818	-29784.2	0.000000	0.000000	7.186067	350.546	NaN	0.000000	0.001558	0.001692	28.1204	83.9943	0.001919	43779.8	5.003382	172.45	352.388	1.171037	0.085203	0.084818	350.546	43779.8	0.079198	0.203503	1722.56	88667
71	2.000000	1.181345	7.36574e+06	-42189.1	955.818	-29784.2	0.000000	0.000000	7.198600	414.081	NaN	0.000000	0.001633	0.001695	28.122	94.3205	0.001808	52166.3	6.135461	169.198	411.987	1.181174	0.095125	0.094955	414.081	52166.3	0.089172	0.250702	1651.68	95188.4
71	2.000000	1.191318	7.36575e+06	-42189.1	955.819	-29784.2	0.000000	0.000000	7.212097	499.827	NaN	0.000000	0.001565	0.001727	28.1218	100.742	0.001667	60431.7	4.682027	170.223	496.759	1.190976	0.105098	0.104756	499.827	60431.7	0.098895	0.301117	1659.91	100617
71	2.000000	1.192832	7.36575e+06	-42189.1	955.818	-29784.2	0.000000	0.000000	7.213973	508.645	NaN	0.000000	0.001574	0.001695	28.1198	102.16	0.001846	55333.9	5.629251	-10.4429	503.706	1.192483	0.106612	0.106263	508.645	55333.9	0.099718	0.305580	1664.52	91453.9