File: remote_trans/data/nanoindenter/0828-1/data/Data_2025-08-06,11h17m57s/2025-07-22_16-23-58_1_607.txt
2025-07-22, 16:23:58, 1
Index	Phase	Displacement	Time	Pos X	Pos Y	Pos Z	Rot A	Rot B	Piezo Z	Force A	Force B	Gripper	Voltage A	Voltage B	Temperature	Amplitude force	Amplitude pos	Stiffness	Phase shift	Phase excitation	Force A raw	Displacement raw	HMax	HMax raw	Real Force	Real Stiffness	Contact Depth	Area	Hardness	Reduced Mod.
[#]	[#]	[um]	[s]	[um]	[um]	[um]	[m°]	[m°]	[um]	[uN]	[uN]	[V]	[V]	[V]	[°C]	[uN]	[um]	[N/m]	[°]	[°]	[uN]	[um]	[um]	[um]	[uN]	[N/m]	[um]	[um^2]	[MPa]	[MPa]
607	1.000000	0.002260	7.37099e+06	-46739.1	1005.82	-29768.2	0.000000	0.000000	6.002808	-0.029429	NaN	0.000000	0.001566	0.001800	28.0826	0.060070	0.001053	57.0341	-18.766	-167.938	-0.024165	0.000982	-1.074563	-1.075841	-0.029429	57.0341	-1.074176	-2.255751E+14	1.304625E-16	NaN
607	1.000000	0.042222	7.37099e+06	-46739.1	1005.82	-29768.2	0.000000	0.000000	6.042771	-0.008270	NaN	0.000000	0.001546	0.001901	28.0827	0.115448	0.001913	60.3576	-4.869741	-167.986	-0.050313	0.040901	-1.034601	-1.035922	-0.008270	60.3576	-1.034498	-6.606622E+13	1.251738E-16	NaN
607	1.000000	0.082236	7.37099e+06	-46739.1	1005.82	-29768.2	0.000000	0.000000	6.082782	-0.056483	NaN	0.000000	0.001526	0.001805	28.0825	0.084161	0.002045	41.1458	81.4465	-164.148	-0.039125	0.080943	-0.994588	-0.995880	-0.056483	41.1458	-0.993558	-1.857924E+13	3.040119E-15	NaN
607	1.000000	0.122241	7.37099e+06	-46739.1	1005.82	-29768.2	0.000000	0.000000	6.122787	-0.078153	NaN	0.000000	0.001592	0.001884	28.0811	0.102910	0.002038	50.5025	94.3407	-166.77	-0.041459	0.120929	-0.954582	-0.955894	-0.078153	50.5025	-0.953421	-5.347656E+12	1.461448E-14	NaN
607	1.000000	0.162246	7.37099e+06	-46739.1	1005.82	-29768.2	0.000000	0.000000	6.162792	-0.061649	NaN	0.000000	0.001524	0.001854	28.081	0.053982	0.001873	28.8231	-122.398	-165.595	-0.082671	0.160989	-0.914577	-0.915834	-0.061649	28.8231	-0.912973	-1.521663E+12	4.051430E-14	NaN
607	1.000000	0.202268	7.37099e+06	-46739.1	1005.82	-29768.2	0.000000	0.000000	6.202814	-0.059454	NaN	0.000000	0.001551	0.001895	28.0811	0.047221	0.001866	25.3046	10.1946	-164.961	-0.043273	0.200962	-0.874555	-0.875861	-0.059454	25.3046	-0.872793	-4.357457E+11	1.364430E-13	NaN
607	1.000000	0.242286	7.37099e+06	-46739.1	1005.82	-29768.2	0.000000	0.000000	6.242833	-0.055986	NaN	0.000000	0.001544	0.001889	28.0814	0.049045	0.001964	24.9775	86.8936	-168.551	-0.064953	0.241040	-0.834537	-0.835783	-0.055986	24.9775	-0.832856	-1.254563E+11	4.462616E-13	NaN
607	1.000000	0.282318	7.37099e+06	-46739.1	1005.82	-29768.2	0.000000	0.000000	6.282866	-0.021497	NaN	0.000000	0.001595	0.001928	28.0826	0.048012	0.001970	24.3729	-61.4629	-168.704	-0.026894	0.281002	-0.794505	-0.795821	-0.021497	24.3729	-0.793843	-3.709138E+10	5.795713E-13	NaN
607	1.000000	0.322335	7.37099e+06	-46739.1	1005.82	-29768.2	0.000000	0.000000	6.322883	-0.012363	NaN	0.000000	0.001622	0.001877	28.0828	0.100351	0.001996	50.2758	150.784	-166.485	0.009680	0.320948	-0.754488	-0.755875	-0.012363	50.2758	-0.754304	-1.075964E+10	1.149048E-12	NaN
607	1.000000	0.362317	7.37099e+06	-46739.1	1005.82	-29768.2	0.000000	0.000000	6.362864	-0.050911	NaN	0.000000	0.001631	0.001867	28.0826	0.133006	0.001952	68.1339	-107.397	-162.431	-0.065886	0.360970	-0.714506	-0.715853	-0.050911	68.1339	-0.713946	-3.033097E+9	1.678518E-11	NaN
607	1.000000	0.402355	7.37099e+06	-46739.1	1005.82	-29768.3	0.000000	0.000000	6.402902	-0.039328	NaN	0.000000	0.001589	0.001884	28.0818	0.037651	0.001943	19.3795	144.569	-166.704	-0.088184	0.401104	-0.674468	-0.675719	-0.039328	19.3795	-0.672946	-8.350510E+8	4.709688E-11	NaN
607	1.000000	0.442351	7.37099e+06	-46739.1	1005.82	-29768.3	0.000000	0.000000	6.442897	-0.081080	NaN	0.000000	0.001556	0.001858	28.0818	0.077721	0.002066	37.6189	-116.992	-165.886	-0.000198	0.441070	-0.634472	-0.635753	-0.081080	37.6189	-0.632855	-2.356297E+8	3.441004E-10	NaN
607	1.000000	0.482371	7.37099e+06	-46739.1	1005.82	-29768.3	0.000000	0.000000	6.482917	-0.070984	NaN	0.000000	0.001553	0.001840	28.0822	0.209264	0.002111	99.1467	12.4184	-167.167	-0.085021	0.481066	-0.594452	-0.595757	-0.070984	99.1467	-0.593915	-6.864937E+7	1.034009E-9	NaN
607	1.000000	0.522401	7.37099e+06	-46739.1	1005.82	-29768.3	0.000000	0.000000	6.522946	-0.089648	NaN	0.000000	0.001557	0.001874	28.0829	0.014797	0.002075	7.131712	-156.683	-165.538	-0.032226	0.521083	-0.554422	-0.555740	-0.089648	7.131712	-0.544994	-1.447433E+7	6.193554E-9	NaN
607	1.000000	0.562421	7.37099e+06	-46739.1	1005.82	-29768.3	0.000000	0.000000	6.562968	-0.060975	NaN	0.000000	0.001547	0.001848	28.0825	0.027414	0.002144	12.7852	145.846	-164.828	-0.093462	0.561125	-0.514402	-0.515698	-0.060975	12.7852	-0.510825	-4.85183e+06	1.256750E-8	NaN
607	1.000000	0.602440	7.37099e+06	-46739.1	1005.82	-29768.3	0.000000	0.000000	6.602985	-0.091981	NaN	0.000000	0.001609	0.001834	28.0827	0.057676	0.001965	29.3509	155.088	-167.264	-0.081278	0.601097	-0.474384	-0.475726	-0.091981	29.3509	-0.472033	-1.39289e+06	6.603574E-8	NaN
607	1.000000	0.642465	7.37099e+06	-46739.1	1005.82	-29768.3	0.000000	0.000000	6.643011	-0.079765	NaN	0.000000	0.001574	0.001856	28.0826	0.100869	0.001915	52.6755	-149.73	-166.405	-0.118819	0.641175	-0.434358	-0.435648	-0.079765	52.6755	-0.433222	-395938	2.014578E-7	NaN
607	1.000000	0.682476	7.37099e+06	-46739.1	1005.82	-29768.3	0.000000	0.000000	6.683021	-0.117355	NaN	0.000000	0.001557	0.001862	28.0814	0.090896	0.002111	43.0646	152.464	-165.793	-0.087371	0.681180	-0.394347	-0.395643	-0.117355	43.0646	-0.392303	-103776	1.130855E-6	NaN
607	1.000000	0.722520	7.37099e+06	-46739.1	1005.82	-29768.3	0.000000	0.000000	6.723068	-0.023107	NaN	0.000000	0.001618	0.001812	28.0814	0.049660	0.001949	25.4739	164.159	-167.935	-0.112668	0.721164	-0.354303	-0.355659	-0.023107	25.4739	-0.353623	-28809.9	8.020534E-7	NaN
607	1.000000	0.762501	7.37099e+06	-46739.1	1005.82	-29768.3	0.000000	0.000000	6.763043	-0.158487	NaN	0.000000	0.001657	0.001780	28.0817	0.050766	0.001914	26.5192	-154.096	-164.259	-0.108859	0.761202	-0.314322	-0.315621	-0.158487	26.5192	-0.309840	-6587.05	2.406044E-5	NaN
607	1.000000	0.802525	7.37099e+06	-46739.1	1005.82	-29768.3	0.000000	0.000000	6.803072	-0.043037	NaN	0.000000	0.001584	0.001854	28.0834	0.097769	0.002102	46.5104	176.189	-163.542	-0.032392	0.801149	-0.274298	-0.275674	-0.043037	46.5104	-0.273604	-1889.11	2.278169E-5	NaN
607	1.000000	0.842537	7.37099e+06	-46739.1	1005.82	-29768.3	0.000000	0.000000	6.843083	-0.069637	NaN	0.000000	0.001517	0.001883	28.083	0.058205	0.002040	28.5338	-112.254	-168.523	-0.042861	0.841224	-0.234286	-0.235599	-0.069637	28.5338	-0.232456	-437.762	0.000159	NaN
607	1.000000	0.882545	7.37099e+06	-46739.1	1005.82	-29768.3	0.000000	0.000000	6.883092	-0.037521	NaN	0.000000	0.001467	0.001830	28.0829	0.029046	0.002029	14.314	-31.5253	-164.386	-0.120968	0.881207	-0.194279	-0.195616	-0.037521	14.314	-0.192313	-98.307	0.000382	NaN
607	1.000000	0.922547	7.37099e+06	-46739.1	1005.82	-29768.3	0.000000	0.000000	6.923092	-0.092329	NaN	0.000000	0.001513	0.001821	28.083	0.090294	0.002153	41.9359	25.7276	-169.002	-0.112014	0.921216	-0.154276	-0.155607	-0.092329	41.9359	-0.152625	-20.2162	0.004567	NaN
607	1.000000	0.962590	7.37099e+06	-46739.1	1005.82	-29768.3	0.000000	0.000000	6.963136	-0.070418	NaN	0.000000	0.001547	0.001864	28.0819	0.105481	0.001915	55.0932	103.699	-168.446	-0.093469	0.961306	-0.114233	-0.115517	-0.070418	55.0932	-0.113274	-3.518780	0.020012	NaN
607	1.000000	1.002600	7.37099e+06	-46739.1	1005.82	-29768.3	0.000000	0.000000	7.003146	-0.087399	NaN	0.000000	0.001594	0.001846	28.0818	0.100002	0.001952	51.2342	-178.986	-165.08	-0.007290	1.001283	-0.074223	-0.075540	-0.087399	51.2342	-0.072943	-0.408252	0.214081	NaN
607	1.000000	1.042595	7.37099e+06	-46739.1	1005.82	-29768.3	0.000000	0.000000	7.043143	-0.023400	NaN	0.000000	0.001610	0.001862	28.0815	0.124794	0.001989	62.7326	102.518	-165.444	-0.013474	1.041279	-0.034228	-0.035544	-0.023400	62.7326	-0.033949	-0.029831	0.784422	NaN
607	2.000000	1.082095	7.37099e+06	-46739.1	1005.82	-29768.3	0.000000	0.000000	7.082957	7.636102	NaN	0.000000	0.001539	0.001853	28.083	7.930886	0.001635	4850.38	10.4496	-172.057	7.458828	1.081247	0.005271	0.004424	7.636102	4850.38	0.004091	0.003319	2301.01	76925.9
607	2.000000	1.092208	7.37099e+06	-46739.1	1005.82	-29768.3	0.000000	0.000000	7.093685	22.584	NaN	0.000000	0.001564	0.001879	28.0832	19.8664	0.001874	10599.4	5.944878	-175.218	22.1356	1.091841	0.015385	0.015018	22.584	10599.4	0.013786	0.013701	1648.33	82732.8
607	2.000000	1.102171	7.37099e+06	-46739.1	1005.82	-29768.3	0.000000	0.000000	7.104747	49.3272	NaN	0.000000	0.001524	0.001817	28.0841	30.4208	0.001824	16681.5	4.290034	-179.177	49.1816	1.101998	0.025347	0.025175	49.3272	16681.5	0.023130	0.027701	1780.72	91571.8
607	2.000000	1.112118	7.37099e+06	-46739.1	1005.82	-29768.3	0.000000	0.000000	7.116298	88.3143	NaN	0.000000	0.001604	0.001762	28.082	41.4413	0.001815	22832.4	6.346979	175.202	84.6588	1.111854	0.035295	0.035031	88.3143	22832.4	0.032394	0.045852	1926.07	97419.5
607	2.000000	1.122078	7.37099e+06	-46739.1	1005.82	-29768.3	0.000000	0.000000	7.128137	134.031	NaN	0.000000	0.001612	0.001771	28.082	50.0604	0.001774	28214	7.005136	173.752	130.644	1.121804	0.045255	0.044981	134.031	28214	0.041692	0.068473	1957.43	98509.4
607	2.000000	1.132104	7.37099e+06	-46739.1	1005.82	-29768.3	0.000000	0.000000	7.140194	183.423	NaN	0.000000	0.001577	0.001744	28.0816	60.9402	0.001817	33547	2.996874	175.784	183.025	1.131921	0.055281	0.055098	183.423	33547	0.051180	0.096096	1908.75	98872.2
607	2.000000	1.142148	7.37099e+06	-46739.1	1005.82	-29768.3	0.000000	0.000000	7.153010	250.851	NaN	0.000000	0.001605	0.001764	28.0817	70.9609	0.001746	40633	6.937736	170.74	250.144	1.141715	0.065325	0.064892	250.851	40633	0.060695	0.128311	1955.02	103638
607	2.000000	1.152146	7.37099e+06	-46739.1	1005.82	-29768.3	0.000000	0.000000	7.165637	314.81	NaN	0.000000	0.001613	0.001737	28.0828	79.3066	0.001768	44865.7	4.319906	172.287	315.43	1.151868	0.075323	0.075045	314.81	44865.7	0.070060	0.164332	1915.69	101118
607	2.000000	1.162130	7.37099e+06	-46739.1	1005.82	-29768.3	0.000000	0.000000	7.178566	386.423	NaN	0.000000	0.001611	0.001757	28.0826	89.7979	0.001841	48773.7	4.829009	171.319	389.296	1.161894	0.085307	0.085071	386.423	48773.7	0.079365	0.204258	1891.84	98598.4
607	2.000000	1.172053	7.37099e+06	-46739.1	1005.82	-29768.3	0.000000	0.000000	7.191662	463.63	NaN	0.000000	0.001557	0.001731	28.0825	99.9748	0.001874	53349.5	2.156748	173.165	461.447	1.171788	0.095230	0.094965	463.63	53349.5	0.088712	0.248428	1866.25	97792.1
607	2.000000	1.180533	7.371e+06	-46739.1	1005.82	-29768.3	0.000000	0.000000	7.203494	545.156	NaN	0.000000	0.001580	0.001761	28.0816	106.568	0.001809	58909.7	2.571155	-7.342882	541.304	1.180351	0.103710	0.103528	545.156	58909.7	0.096770	0.289729	1881.61	99991.7