File: remote_trans/data/nanoindenter/0828-1/data/Data_2025-08-06,11h17m57s/2025-07-22_16-23-58_1_548.txt
2025-07-22, 16:23:58, 1
Index	Phase	Displacement	Time	Pos X	Pos Y	Pos Z	Rot A	Rot B	Piezo Z	Force A	Force B	Gripper	Voltage A	Voltage B	Temperature	Amplitude force	Amplitude pos	Stiffness	Phase shift	Phase excitation	Force A raw	Displacement raw	HMax	HMax raw	Real Force	Real Stiffness	Contact Depth	Area	Hardness	Reduced Mod.
[#]	[#]	[um]	[s]	[um]	[um]	[um]	[m°]	[m°]	[um]	[uN]	[uN]	[V]	[V]	[V]	[°C]	[uN]	[um]	[N/m]	[°]	[°]	[uN]	[um]	[um]	[um]	[uN]	[N/m]	[um]	[um^2]	[MPa]	[MPa]
548	1.000000	0.002635	7.37041e+06	-49689.1	1005.82	-29758.1	0.000000	0.000000	6.002792	-0.020775	NaN	0.000000	0.001724	0.001772	28.0808	0.010574	0.000841	12.5768	88.283	-169.553	0.000626	0.001389	-1.089136	-1.090383	-0.020775	12.5768	-1.087897	-3.448099E+14	6.025201E-17	NaN
548	1.000000	0.044572	7.37041e+06	-49689.1	1005.82	-29758.1	0.000000	0.000000	6.044730	-0.001818	NaN	0.000000	0.001624	0.001719	28.0804	0.099689	0.001859	53.6175	0.918940	15.3023	-0.067663	0.043300	-1.047199	-1.048471	-0.001818	53.6175	-1.047174	-9.781854E+13	1.858773E-17	NaN
548	1.000000	0.086569	7.37041e+06	-49689.1	1005.82	-29758.1	0.000000	0.000000	6.086727	-0.016691	NaN	0.000000	0.001692	0.001717	28.0818	0.061771	0.001955	31.5914	-59.9897	-161.506	-0.016081	0.085311	-1.005202	-1.006460	-0.016691	31.5914	-1.004806	-2.633120E+13	6.338774E-16	NaN
548	1.000000	0.128579	7.37041e+06	-49689.1	1005.82	-29758.1	0.000000	0.000000	6.128737	-0.017330	NaN	0.000000	0.001673	0.001776	28.0818	0.039300	0.002022	19.4392	-80.3849	13.6849	0.046157	0.127310	-0.963192	-0.964461	-0.017330	19.4392	-0.962523	-7.093851E+12	2.443026E-15	NaN
548	1.000000	0.170641	7.37041e+06	-49689.1	1005.82	-29758.1	0.000000	0.000000	6.170800	0.005856	NaN	0.000000	0.001709	0.001805	28.0815	0.059719	0.001999	29.868	7.160531	-168.189	-0.012102	0.169297	-0.921130	-0.922475	0.005856	29.868	-0.921277	-1.969912E+12	-2.972758E-15	NaN
548	1.000000	0.212642	7.37041e+06	-49689.1	1005.82	-29758.1	0.000000	0.000000	6.212800	-0.019576	NaN	0.000000	0.001696	0.001802	28.0804	0.069258	0.002094	33.0704	21.2701	12.7488	0.058329	0.211250	-0.879129	-0.880521	-0.019576	33.0704	-0.878685	-5.235040E+11	3.739466E-14	NaN
548	1.000000	0.254682	7.37041e+06	-49689.1	1005.82	-29758.1	0.000000	0.000000	6.254840	-0.001808	NaN	0.000000	0.001694	0.001762	28.0805	0.129399	0.001866	69.3575	-104.756	-163.639	-0.008492	0.253336	-0.837089	-0.838435	-0.001808	69.3575	-0.837070	-1.430837E+11	1.263310E-14	NaN
548	1.000000	0.296666	7.37041e+06	-49689.1	1005.82	-29758.1	0.000000	0.000000	6.296825	0.015601	NaN	0.000000	0.001660	0.001759	28.0804	0.090063	0.001961	45.9163	174.629	14.4374	-0.008075	0.295357	-0.795105	-0.796414	0.015601	45.9163	-0.795360	-3.889292E+10	-4.011142E-13	NaN
548	1.000000	0.338722	7.37041e+06	-49689.1	1005.82	-29758.1	0.000000	0.000000	6.338882	0.046382	NaN	0.000000	0.001664	0.001742	28.0818	0.154135	0.002018	76.3833	-150.017	-162.691	0.053346	0.337390	-0.753049	-0.754381	0.046382	76.3833	-0.753505	-1.049348E+10	-4.420087E-12	NaN
548	1.000000	0.380720	7.37041e+06	-49689.1	1005.82	-29758.1	0.000000	0.000000	6.380879	-0.007852	NaN	0.000000	0.001622	0.001758	28.0817	0.025387	0.002099	12.0977	6.311173	17.5865	0.044308	0.379335	-0.711051	-0.712436	-0.007852	12.0977	-0.710564	-2.727360E+9	2.878910E-12	NaN
548	1.000000	0.422725	7.37041e+06	-49689.1	1005.82	-29758.1	0.000000	0.000000	6.422883	-0.016982	NaN	0.000000	0.001606	0.001781	28.0816	0.014975	0.001985	7.544319	-111.265	-169.459	-0.005369	0.421405	-0.669046	-0.670366	-0.016982	7.544319	-0.667357	-7.001934E+8	2.425387E-11	NaN
548	1.000000	0.464780	7.37041e+06	-49689.1	1005.82	-29758.1	0.000000	0.000000	6.464940	0.035338	NaN	0.000000	0.001582	0.001749	28.0816	0.157626	0.002016	78.2054	26.1552	11.6113	-0.021853	0.463378	-0.626991	-0.628393	0.035338	78.2054	-0.627330	-1.978567E+8	-1.786025E-10	NaN
548	1.000000	0.506775	7.37041e+06	-49689.1	1005.82	-29758.1	0.000000	0.000000	6.506933	-0.020271	NaN	0.000000	0.001565	0.001739	28.0804	0.037487	0.002047	18.3103	133.155	-165.176	-0.055429	0.505478	-0.584996	-0.586293	-0.020271	18.3103	-0.584165	-5.037343E+7	4.024211E-10	NaN
548	1.000000	0.548775	7.37041e+06	-49689.1	1005.82	-29758.1	0.000000	0.000000	6.548936	0.051696	NaN	0.000000	0.001635	0.001721	28.0803	0.049484	0.002045	24.1965	-130.531	10.8983	0.050448	0.547449	-0.542996	-0.544322	0.051696	24.1965	-0.544598	-1.429264E+7	-3.616966E-9	NaN
548	1.000000	0.590824	7.37041e+06	-49689.1	1005.82	-29758.1	0.000000	0.000000	6.590983	0.007729	NaN	0.000000	0.001635	0.001731	28.0804	0.138234	0.001919	72.0362	-56.7774	-165.038	0.067572	0.589513	-0.500947	-0.502258	0.007729	72.0362	-0.501027	-3.54278e+06	-2.181585E-9	NaN
548	1.000000	0.632857	7.37041e+06	-49689.1	1005.82	-29758.1	0.000000	0.000000	6.633017	0.036280	NaN	0.000000	0.001672	0.001756	28.0818	0.088589	0.002086	42.4737	-170.97	12.9626	0.017373	0.631500	-0.458914	-0.460271	0.036280	42.4737	-0.459555	-930590	-3.898609E-8	NaN
548	1.000000	0.674854	7.37041e+06	-49689.1	1005.82	-29758.1	0.000000	0.000000	6.675011	-0.047205	NaN	0.000000	0.001649	0.001740	28.0817	0.117101	0.001955	59.8981	-85.7295	-165.813	-0.059240	0.673584	-0.416917	-0.418187	-0.047205	59.8981	-0.416326	-228182	2.068753E-7	NaN
548	1.000000	0.716869	7.37041e+06	-49689.1	1005.82	-29758.1	0.000000	0.000000	6.717028	0.019101	NaN	0.000000	0.001599	0.001722	28.0819	0.074919	0.002011	37.251	169.242	15.0974	0.009738	0.715510	-0.374902	-0.376261	0.019101	37.251	-0.375287	-59182.7	-3.227509E-7	NaN
548	1.000000	0.758899	7.37041e+06	-49689.1	1005.82	-29758.1	0.000000	0.000000	6.759059	0.023975	NaN	0.000000	0.001610	0.001698	28.0808	0.053285	0.001950	27.33	58.439	-165.501	0.012454	0.757591	-0.332872	-0.334180	0.023975	27.33	-0.333530	-14692.6	-1.631783E-6	NaN
548	1.000000	0.800883	7.37041e+06	-49689.1	1005.82	-29758.1	0.000000	0.000000	6.801046	0.098570	NaN	0.000000	0.001646	0.001739	28.0808	0.022714	0.002004	11.3328	-161.158	14.4381	0.085715	0.799526	-0.290888	-0.292245	0.098570	11.3328	-0.297411	-4305.94	-2.289168E-5	NaN
548	1.000000	0.842945	7.37041e+06	-49689.1	1005.82	-29758.1	0.000000	0.000000	6.843103	-0.000201	NaN	0.000000	0.001596	0.001758	28.0809	0.109363	0.002119	51.6209	167.449	-163.272	0.011517	0.841580	-0.248826	-0.250191	-0.000201	51.6209	-0.248824	-788.426	2.545454E-7	NaN
548	1.000000	0.884943	7.37041e+06	-49689.1	1005.82	-29758.1	0.000000	0.000000	6.885102	0.004688	NaN	0.000000	0.001690	0.001724	28.0821	0.061413	0.002052	29.9346	-145.128	14.5425	-0.008523	0.883556	-0.206828	-0.208215	0.004688	29.9346	-0.206945	-171.098	-2.739714E-5	NaN
548	1.000000	0.926962	7.37041e+06	-49689.1	1005.82	-29758.1	0.000000	0.000000	6.927121	0.016952	NaN	0.000000	0.001617	0.001702	28.0821	0.006446	0.002019	3.192473	111.469	-167.081	0.013987	0.925637	-0.164810	-0.166134	0.016952	3.192473	-0.168792	-39.1389	-0.000433	NaN
548	1.000000	0.968977	7.37041e+06	-49689.1	1005.82	-29758.1	0.000000	0.000000	6.969135	-0.007345	NaN	0.000000	0.001595	0.001707	28.0822	0.102369	0.001957	52.3055	-177.355	10.6996	-0.037793	0.967626	-0.122794	-0.124145	-0.007345	52.3055	-0.122689	-5.470868	0.001343	NaN
548	1.000000	1.011001	7.37041e+06	-49689.1	1005.82	-29758.1	0.000000	0.000000	7.011158	-0.039550	NaN	0.000000	0.001597	0.001689	28.0819	0.032356	0.001959	16.5204	-130.698	-165.927	-0.015349	1.009655	-0.080770	-0.082116	-0.039550	16.5204	-0.078974	-0.583368	0.067795	NaN
548	1.000000	1.053000	7.37041e+06	-49689.1	1005.82	-29758.1	0.000000	0.000000	7.053156	-0.051426	NaN	0.000000	0.001626	0.001671	28.0806	0.161888	0.001917	84.4586	106.116	13.2614	-0.053695	1.051673	-0.038771	-0.040098	-0.051426	84.4586	-0.038314	-0.040210	1.278926	NaN
548	1.000000	1.095029	7.37041e+06	-49689.1	1005.82	-29758.1	0.000000	0.000000	7.095255	1.654455	NaN	0.000000	0.001650	0.001758	28.0808	2.325430	0.001878	1238	8.138851	-166.423	0.609591	1.093716	0.003258	0.001945	1.654455	1238	0.002256	0.001763	938.685	26941.7
548	2.000000	1.109052	7.37041e+06	-49689.1	1005.82	-29758.1	0.000000	0.000000	7.110250	25.2762	NaN	0.000000	0.001602	0.001738	28.0809	18.6318	0.001944	9583.67	7.501384	3.736430	24.7793	1.108684	0.017281	0.016913	25.2762	9583.67	0.015303	0.015691	1610.83	69899.4
548	2.000000	1.119511	7.37041e+06	-49689.1	1005.82	-29758.1	0.000000	0.000000	7.121789	51.5403	NaN	0.000000	0.001660	0.001819	28.083	28.4897	0.001896	15024.1	4.657985	-178.693	50.8014	1.119116	0.027740	0.027345	51.5403	15024.1	0.025167	0.031320	1645.62	77562.5
548	2.000000	1.129944	7.37041e+06	-49689.1	1005.82	-29758.1	0.000000	0.000000	7.133813	90.2193	NaN	0.000000	0.001561	0.001790	28.0822	36.763	0.001675	21944.4	0.194694	2.112127	86.9233	1.129684	0.038173	0.037913	90.2193	21944.4	0.035090	0.051955	1736.47	87959.4
548	2.000000	1.140398	7.37041e+06	-49689.1	1005.82	-29758.1	0.000000	0.000000	7.146018	132.803	NaN	0.000000	0.001595	0.001794	28.0818	47.3259	0.001765	26813	4.463023	176.931	129.091	1.140144	0.048627	0.048373	132.803	26813	0.044913	0.077339	1717.14	88088.4
548	2.000000	1.151017	7.37041e+06	-49689.1	1005.82	-29758.1	0.000000	0.000000	7.158620	181.029	NaN	0.000000	0.001603	0.001776	28.0806	57.0988	0.001750	32637	3.343004	-4.486174	181.575	1.150675	0.059246	0.058904	181.029	32637	0.055086	0.108781	1664.16	90408
548	2.000000	1.161454	7.37042e+06	-49689.1	1005.82	-29758.1	0.000000	0.000000	7.171360	237.058	NaN	0.000000	0.001562	0.001790	28.0807	67.4534	0.001863	36208	-0.857795	179.24	234.756	1.161268	0.069683	0.069497	237.058	36208	0.064772	0.143475	1652.26	87335.2
548	2.000000	1.171865	7.37042e+06	-49689.1	1005.82	-29758.1	0.000000	0.000000	7.184932	313.931	NaN	0.000000	0.001568	0.001817	28.0806	79.0562	0.001744	45326.7	4.428941	-7.884742	307.368	1.171552	0.080094	0.079781	313.931	45326.7	0.074900	0.184588	1700.71	96388.6
548	2.000000	1.182451	7.37042e+06	-49689.1	1005.82	-29758.1	0.000000	0.000000	7.198461	385.484	NaN	0.000000	0.001594	0.001803	28.0821	88.4673	0.001912	46267.1	4.837816	172.341	385.93	1.182081	0.090680	0.090310	385.484	46267.1	0.084432	0.227698	1692.97	88586.2
548	2.000000	1.192957	7.37042e+06	-49689.1	1005.82	-29758.1	0.000000	0.000000	7.212047	460.41	NaN	0.000000	0.001618	0.001869	28.0818	97.5092	0.001665	58553.6	6.431955	-12.0878	460.809	1.192796	0.101186	0.101025	460.41	58553.6	0.095289	0.281916	1633.15	100755
548	2.000000	1.198421	7.37042e+06	-49689.1	1005.82	-29758.1	0.000000	0.000000	7.219854	517.397	NaN	0.000000	0.001641	0.001829	28.0819	103.716	0.001781	58246.9	3.346979	171.679	518.578	1.198227	0.106650	0.106456	517.397	58246.9	0.099987	0.307051	1685.05	96037.4