File: remote_trans/data/nanoindenter/0828-1/data/Data_2025-08-06,11h17m57s/2025-07-22_16-23-58_1_306.txt
2025-07-22, 16:23:58, 1
Index	Phase	Displacement	Time	Pos X	Pos Y	Pos Z	Rot A	Rot B	Piezo Z	Force A	Force B	Gripper	Voltage A	Voltage B	Temperature	Amplitude force	Amplitude pos	Stiffness	Phase shift	Phase excitation	Force A raw	Displacement raw	HMax	HMax raw	Real Force	Real Stiffness	Contact Depth	Area	Hardness	Reduced Mod.
[#]	[#]	[um]	[s]	[um]	[um]	[um]	[m°]	[m°]	[um]	[uN]	[uN]	[V]	[V]	[V]	[°C]	[uN]	[um]	[N/m]	[°]	[°]	[uN]	[um]	[um]	[um]	[uN]	[N/m]	[um]	[um^2]	[MPa]	[MPa]
306	1.000000	0.002268	7.36806e+06	-53939.1	955.819	-29745.1	0.000000	0.000000	6.002828	0.006612	NaN	0.000000	0.001562	0.001773	28.0797	0.170703	0.000882	193.47	54.0734	-157.831	-0.093866	0.001000	-1.039171	-1.040439	0.006612	193.47	-1.039197	-7.641310E+13	-8.652644E-17	NaN
306	1.000000	0.042185	7.36806e+06	-53939.1	955.819	-29745.2	0.000000	0.000000	6.042745	-0.010121	NaN	0.000000	0.001591	0.001735	28.0801	0.099121	0.001936	51.1917	166.53	-164.917	-0.025926	0.040864	-0.999254	-1.000575	-0.010121	51.1917	-0.999105	-2.206600E+13	4.586860E-16	NaN
306	1.000000	0.082201	7.36806e+06	-53939.1	955.819	-29745.2	0.000000	0.000000	6.082760	-0.023991	NaN	0.000000	0.001612	0.001716	28.0814	0.071336	0.001862	38.3151	-98.3162	-163.308	0.007076	0.080888	-0.959238	-0.960551	-0.023991	38.3151	-0.958768	-6.313415E+12	3.799992E-15	NaN
306	1.000000	0.122216	7.36806e+06	-53939.1	955.819	-29745.2	0.000000	0.000000	6.122774	-0.054635	NaN	0.000000	0.001623	0.001774	28.0813	0.083894	0.001999	41.9777	37.7598	-164.089	-0.070511	0.120933	-0.919223	-0.920506	-0.054635	41.9777	-0.918247	-1.792817E+12	3.047454E-14	NaN
306	1.000000	0.162217	7.36806e+06	-53939.1	955.82	-29745.2	0.000000	0.000000	6.162777	-0.024141	NaN	0.000000	0.001643	0.001691	28.081	0.027930	0.001994	14.0047	-50.3205	-164.161	-0.033932	0.160958	-0.879222	-0.880481	-0.024141	14.0047	-0.877929	-5.113237E+11	4.721200E-14	NaN
306	1.000000	0.202237	7.36806e+06	-53939.1	955.818	-29745.2	0.000000	0.000000	6.202798	0.026038	NaN	0.000000	0.001652	0.001731	28.0798	0.095911	0.001988	48.2437	90.816	-166.014	0.103618	0.200959	-0.839202	-0.840480	0.026038	48.2437	-0.839607	-1.548703E+11	-1.681264E-13	NaN
306	1.000000	0.242281	7.36806e+06	-53939.1	955.818	-29745.2	0.000000	0.000000	6.242841	-0.008068	NaN	0.000000	0.001612	0.001696	28.0797	0.126196	0.002018	62.5328	-157.884	-163.192	0.039112	0.240955	-0.799158	-0.800484	-0.008068	62.5328	-0.799061	-4.366380E+10	1.847823E-13	NaN
306	1.000000	0.282290	7.36806e+06	-53939.1	955.818	-29745.2	0.000000	0.000000	6.282850	-0.009512	NaN	0.000000	0.001590	0.001641	28.0796	0.134509	0.002005	67.0864	-64.7852	-167.062	-0.017509	0.280978	-0.759149	-0.760461	-0.009512	67.0864	-0.759042	-1.248168E+10	7.620538E-13	NaN
306	1.000000	0.322297	7.36806e+06	-53939.1	955.819	-29745.2	0.000000	0.000000	6.322855	-0.050534	NaN	0.000000	0.001635	0.001640	28.0802	0.089898	0.001967	45.6922	-168.036	-167.616	-0.126922	0.320995	-0.719142	-0.720444	-0.050534	45.6922	-0.718313	-3.479067E+9	1.452504E-11	NaN
306	1.000000	0.362312	7.36806e+06	-53939.1	955.819	-29745.2	0.000000	0.000000	6.362868	-0.098670	NaN	0.000000	0.001609	0.001605	28.0814	0.118849	0.001854	64.1114	-147.941	-163.846	-0.121907	0.361046	-0.679127	-0.680393	-0.098670	64.1114	-0.677972	-9.783021E+8	1.008588E-10	NaN
306	1.000000	0.402330	7.36806e+06	-53939.1	955.819	-29745.2	0.000000	0.000000	6.402888	-0.052424	NaN	0.000000	0.001644	0.001622	28.0814	0.055762	0.001946	28.6537	67.6172	-165.513	-0.011095	0.400994	-0.639109	-0.640445	-0.052424	28.6537	-0.637736	-2.749345E+8	1.906796E-10	NaN
306	1.000000	0.442348	7.36806e+06	-53939.1	955.819	-29745.2	0.000000	0.000000	6.442906	-0.040000	NaN	0.000000	0.001571	0.001651	28.0814	0.081511	0.002050	39.7651	42.1356	-162.649	-0.076855	0.441055	-0.599091	-0.600384	-0.040000	39.7651	-0.598337	-7.898605E+7	5.064247E-10	NaN
306	1.000000	0.482381	7.36806e+06	-53939.1	955.819	-29745.2	0.000000	0.000000	6.482939	-0.048844	NaN	0.000000	0.001598	0.001620	28.0802	0.056828	0.002110	26.9348	-50.9494	-166.621	-0.102349	0.481111	-0.559058	-0.560328	-0.048844	26.9348	-0.557698	-2.170316E+7	2.250531E-9	NaN
306	1.000000	0.522379	7.36806e+06	-53939.1	955.819	-29745.2	0.000000	0.000000	6.522937	-0.045045	NaN	0.000000	0.001603	0.001613	28.08	0.152393	0.001911	79.7297	-18.921	-165.398	0.015809	0.521044	-0.519060	-0.520395	-0.045045	79.7297	-0.518636	-6.23203e+06	7.227976E-9	NaN
306	1.000000	0.562397	7.36806e+06	-53939.1	955.818	-29745.2	0.000000	0.000000	6.562957	-0.008280	NaN	0.000000	0.001585	0.001604	28.0802	0.068619	0.001884	36.4263	153.855	-162.883	0.013313	0.561094	-0.479042	-0.480345	-0.008280	36.4263	-0.478871	-1.73669e+06	4.767853E-9	NaN
306	1.000000	0.602426	7.36806e+06	-53939.1	955.819	-29745.2	0.000000	0.000000	6.602984	-0.051097	NaN	0.000000	0.001522	0.001655	28.0814	0.055120	0.001784	30.8985	58.8608	-167.853	-0.012496	0.601104	-0.439013	-0.440335	-0.051097	30.8985	-0.437773	-459111	1.112959E-7	NaN
306	1.000000	0.642448	7.36806e+06	-53939.1	955.819	-29745.2	0.000000	0.000000	6.643009	0.018358	NaN	0.000000	0.001583	0.001651	28.081	0.025866	0.001926	13.4319	-45.6597	-164.903	-0.049959	0.641149	-0.398991	-0.400290	0.018358	13.4319	-0.400016	-133726	-1.372800E-7	NaN
306	1.000000	0.682463	7.36806e+06	-53939.1	955.818	-29745.2	0.000000	0.000000	6.683019	-0.081160	NaN	0.000000	0.001636	0.001657	28.0808	0.069587	0.002003	34.7493	-131.613	-162.747	-0.114137	0.681135	-0.358976	-0.360304	-0.081160	34.7493	-0.357225	-32486.6	2.498268E-6	NaN
306	1.000000	0.722485	7.36806e+06	-53939.1	955.818	-29745.2	0.000000	0.000000	6.723044	-0.039453	NaN	0.000000	0.001692	0.001640	28.0809	0.071895	0.001869	38.474	134.022	-166.806	-0.023169	0.721096	-0.318954	-0.320343	-0.039453	38.474	-0.318185	-8747.98	4.509959E-6	NaN
306	1.000000	0.762505	7.36806e+06	-53939.1	955.819	-29745.2	0.000000	0.000000	6.763063	-0.033747	NaN	0.000000	0.001719	0.001606	28.0799	0.087934	0.002019	43.553	14.9318	-166.459	-0.055456	0.761213	-0.278934	-0.280226	-0.033747	43.553	-0.278353	-2229.01	1.513971E-5	NaN
306	1.000000	0.802536	7.36806e+06	-53939.1	955.818	-29745.2	0.000000	0.000000	6.803092	-0.100444	NaN	0.000000	0.001610	0.001604	28.0796	0.123562	0.001959	63.0672	88.216	-165.264	-0.063160	0.801248	-0.238903	-0.240191	-0.100444	63.0672	-0.237708	-529.316	0.000190	NaN
306	1.000000	0.842550	7.36806e+06	-53939.1	955.819	-29745.2	0.000000	0.000000	6.843109	-0.023044	NaN	0.000000	0.001607	0.001625	28.0797	0.123551	0.002087	59.2102	-114.554	-163.648	0.037394	0.841230	-0.198889	-0.200209	-0.023044	59.2102	-0.198597	-124.918	0.000184	NaN
306	1.000000	0.882523	7.36806e+06	-53939.1	955.819	-29745.2	0.000000	0.000000	6.883080	-0.056230	NaN	0.000000	0.001592	0.001656	28.0813	0.073371	0.002064	35.5439	74.1043	-166.814	-0.018272	0.881213	-0.158916	-0.160226	-0.056230	35.5439	-0.157730	-24.9765	0.002251	NaN
306	1.000000	0.922561	7.36806e+06	-53939.1	955.818	-29745.2	0.000000	0.000000	6.923122	0.007898	NaN	0.000000	0.001622	0.001652	28.0815	0.126991	0.001890	67.1755	4.292428	-162.89	0.023070	0.921201	-0.118878	-0.120238	0.007898	67.1755	-0.118966	-4.604315	-0.001715	NaN
306	1.000000	0.962565	7.36806e+06	-53939.1	955.817	-29745.2	0.000000	0.000000	6.963125	-0.000855	NaN	0.000000	0.001606	0.001689	28.0816	0.059824	0.002039	29.3362	83.7144	-165.173	-0.013589	0.961296	-0.078874	-0.080143	-0.000855	29.3362	-0.078852	-0.579259	0.001476	NaN
306	1.000000	1.002571	7.36806e+06	-53939.1	955.82	-29745.2	0.000000	0.000000	7.003129	-0.061209	NaN	0.000000	0.001600	0.001655	28.0813	0.030804	0.002093	14.721	20.701	-166.401	0.020256	1.001269	-0.038868	-0.040170	-0.061209	14.721	-0.035749	-0.033699	1.816324	NaN
306	1.000000	1.042606	7.36806e+06	-53939.1	955.817	-29745.2	0.000000	0.000000	7.043177	0.270978	NaN	0.000000	0.001562	0.001648	28.0799	0.718993	0.001992	361.005	9.492899	-163.721	-0.059797	1.041309	0.001167	-0.000130	0.270978	361.005	0.000604	0.000457	593.498	15435.8
306	2.000000	1.059151	7.36806e+06	-53939.1	955.819	-29745.2	0.000000	0.000000	7.060557	20.5543	NaN	0.000000	0.001600	0.001649	28.0799	17.9516	0.001834	9790.36	7.815118	-175.739	20.5011	1.058848	0.017712	0.017409	20.5543	9790.36	0.016138	0.016833	1221.08	68943.6
306	2.000000	1.069080	7.36806e+06	-53939.1	955.818	-29745.2	0.000000	0.000000	7.071477	44.672	NaN	0.000000	0.001639	0.001577	28.0802	28.2219	0.001823	15478.1	5.744507	-179.402	42.9371	1.068793	0.027641	0.027354	44.672	15478.1	0.025476	0.031887	1400.93	79192
306	2.000000	1.079057	7.36806e+06	-53939.1	955.818	-29745.2	0.000000	0.000000	7.083038	83.171	NaN	0.000000	0.001688	0.001580	28.0815	37.751	0.001823	20706.8	6.501406	178.413	81.1977	1.078723	0.037618	0.037284	83.171	20706.8	0.034605	0.050831	1636.23	83911.5
306	2.000000	1.089047	7.36806e+06	-53939.1	955.818	-29745.2	0.000000	0.000000	7.094665	122.951	NaN	0.000000	0.001613	0.001581	28.0814	48.6104	0.001906	25503.2	2.480216	-178.59	121.47	1.088725	0.047608	0.047286	122.951	25503.2	0.043993	0.074753	1644.76	85222.5
306	2.000000	1.099057	7.36806e+06	-53939.1	955.818	-29745.2	0.000000	0.000000	7.106524	167.901	NaN	0.000000	0.001619	0.001588	28.0815	60.0509	0.001925	31190.9	8.095859	173.149	167.653	1.098765	0.057619	0.057326	167.901	31190.9	0.053581	0.103803	1617.49	88449.5
306	2.000000	1.109043	7.36806e+06	-53939.1	955.819	-29745.2	0.000000	0.000000	7.118694	221.022	NaN	0.000000	0.001599	0.001565	28.08	67.932	0.001911	35552.2	5.126734	175.275	220.229	1.108736	0.067604	0.067297	221.022	35552.2	0.062941	0.136567	1618.42	87895.7
306	2.000000	1.119095	7.36806e+06	-53939.1	955.816	-29745.2	0.000000	0.000000	7.130865	272.52	NaN	0.000000	0.001605	0.001593	28.0801	76.9692	0.001823	42210	3.104030	175.07	272.837	1.118906	0.077656	0.077467	272.52	42210	0.072814	0.175723	1550.85	91997.3
306	2.000000	1.128982	7.36806e+06	-53939.1	955.818	-29745.2	0.000000	0.000000	7.144192	356.171	NaN	0.000000	0.001646	0.001567	28.0801	86.2544	0.001834	47041.2	2.544657	175.849	354.313	1.128703	0.087543	0.087264	356.171	47041.2	0.081864	0.215671	1651.46	92545.7
306	2.000000	1.138999	7.36806e+06	-53939.1	955.818	-29745.2	0.000000	0.000000	7.157372	433.054	NaN	0.000000	0.001611	0.001583	28.0801	96.1432	0.001749	54958.7	1.717370	175.791	431.252	1.138603	0.097560	0.097164	433.054	54958.7	0.091651	0.263146	1645.68	97883.9
306	2.000000	1.148904	7.36806e+06	-53939.1	955.819	-29745.2	0.000000	0.000000	7.170703	516.339	NaN	0.000000	0.001666	0.001677	28.0813	106.992	0.001829	58484.8	8.414987	167.595	511.531	1.148682	0.107465	0.107243	516.339	58484.8	0.100844	0.311739	1656.32	95701.8
306	2.000000	1.149939	7.36806e+06	-53939.1	955.819	-29745.2	0.000000	0.000000	7.172290	529.791	NaN	0.000000	0.001641	0.001674	28.0816	107.725	0.001837	58648.7	8.672393	167.578	525.777	1.149666	0.108500	0.108227	529.791	58648.7	0.101725	0.316598	1673.39	95230.8