File: remote_trans/data/nanoindenter/0828-1/data/Data_2025-08-06,11h17m57s/2025-07-22_16-23-58_1_1175.txt
2025-07-22, 16:23:58, 1
Index	Phase	Displacement	Time	Pos X	Pos Y	Pos Z	Rot A	Rot B	Piezo Z	Force A	Force B	Gripper	Voltage A	Voltage B	Temperature	Amplitude force	Amplitude pos	Stiffness	Phase shift	Phase excitation	Force A raw	Displacement raw	HMax	HMax raw	Real Force	Real Stiffness	Contact Depth	Area	Hardness	Reduced Mod.
[#]	[#]	[um]	[s]	[um]	[um]	[um]	[m°]	[m°]	[um]	[uN]	[uN]	[V]	[V]	[V]	[°C]	[uN]	[um]	[N/m]	[°]	[°]	[uN]	[um]	[um]	[um]	[uN]	[N/m]	[um]	[um^2]	[MPa]	[MPa]
1175	1.000000	0.002849	7.37654e+06	-56839.1	1105.82	-29737.8	0.000000	0.000000	6.002782	-0.065112	NaN	0.000000	0.001556	0.001706	28.0836	0.090786	0.000912	99.5488	-65.3034	-168.03	-0.059615	0.001608	-1.102389	-1.103630	-0.065112	99.5488	-1.101899	-5.315631E+14	1.224914E-16	NaN
1175	1.000000	0.044813	7.37654e+06	-56839.1	1105.82	-29737.8	0.000000	0.000000	6.044748	-0.009599	NaN	0.000000	0.001528	0.001707	28.0822	0.027753	0.001941	14.2973	-126.278	17.0784	0.038918	0.043449	-1.060426	-1.061790	-0.009599	14.2973	-1.059923	-1.451375E+14	6.613491E-17	NaN
1175	1.000000	0.086850	7.37654e+06	-56839.1	1105.82	-29737.8	0.000000	0.000000	6.086785	-0.022739	NaN	0.000000	0.001526	0.001692	28.0821	0.055193	0.001956	28.2193	145.43	-165.826	-0.087516	0.085525	-1.018389	-1.019713	-0.022739	28.2193	-1.017784	-3.936753E+13	5.775992E-16	NaN
1175	1.000000	0.128847	7.37654e+06	-56839.1	1105.82	-29737.8	0.000000	0.000000	6.128783	0.008658	NaN	0.000000	0.001540	0.001736	28.0817	0.080439	0.002057	39.1052	-111.489	13.1871	-0.010222	0.127522	-0.976392	-0.977716	0.008658	39.1052	-0.976558	-1.096556E+13	-7.896025E-16	NaN
1175	1.000000	0.170827	7.37654e+06	-56839.1	1105.82	-29737.8	0.000000	0.000000	6.170761	-0.035426	NaN	0.000000	0.001540	0.001696	28.0823	0.093619	0.002034	46.0281	-121.372	-166.158	-0.061286	0.169540	-0.934412	-0.935698	-0.035426	46.0281	-0.933835	-2.910380E+12	1.217220E-14	NaN
1175	1.000000	0.212904	7.37654e+06	-56839.1	1105.82	-29737.8	0.000000	0.000000	6.212838	-0.027412	NaN	0.000000	0.001498	0.001711	28.0832	0.166972	0.001895	88.1037	105.532	14.2172	0.047279	0.211508	-0.892335	-0.893731	-0.027412	88.1037	-0.892102	-7.949202E+11	3.448358E-14	NaN
1175	1.000000	0.254901	7.37654e+06	-56839.1	1105.82	-29737.8	0.000000	0.000000	6.254836	-0.003826	NaN	0.000000	0.001530	0.001703	28.0831	0.083456	0.002112	39.5185	-79.756	-166.536	0.016491	0.253577	-0.850338	-0.851662	-0.003826	39.5185	-0.850265	-2.159364E+11	1.771614E-14	NaN
1175	1.000000	0.296900	7.37654e+06	-56839.1	1105.82	-29737.8	0.000000	0.000000	6.296832	-0.091757	NaN	0.000000	0.001591	0.001730	28.0833	0.073510	0.002153	34.1463	-177.643	16.1656	-0.022051	0.295518	-0.808338	-0.809721	-0.091757	34.1463	-0.806323	-5.478728E+10	1.674779E-12	NaN
1175	1.000000	0.338946	7.37654e+06	-56839.1	1105.82	-29737.8	0.000000	0.000000	6.338880	-0.031131	NaN	0.000000	0.001551	0.001720	28.0819	0.147003	0.001856	79.1912	-163.442	-166.381	0.047700	0.337598	-0.766293	-0.767641	-0.031131	79.1912	-0.765998	-1.551978E+10	2.005895E-12	NaN
1175	1.000000	0.380961	7.37654e+06	-56839.1	1105.82	-29737.8	0.000000	0.000000	6.380896	-0.015468	NaN	0.000000	0.001568	0.001679	28.0819	0.156676	0.002007	78.0499	-138.851	12.2376	-0.070003	0.379579	-0.724278	-0.725659	-0.015468	78.0499	-0.724129	-4.176157E+9	3.703928E-12	NaN
1175	1.000000	0.422947	7.37654e+06	-56839.1	1105.82	-29737.8	0.000000	0.000000	6.422879	-0.070130	NaN	0.000000	0.001564	0.001662	28.082	0.043542	0.002000	21.7742	126.267	-168.482	-0.170310	0.421640	-0.682292	-0.683599	-0.070130	21.7742	-0.679877	-1.038766E+9	6.751250E-11	NaN
1175	1.000000	0.464968	7.37654e+06	-56839.1	1105.82	-29737.8	0.000000	0.000000	6.464902	-0.026694	NaN	0.000000	0.001566	0.001702	28.0829	0.098092	0.002081	47.1408	129.063	12.7647	0.024248	0.463612	-0.640271	-0.641627	-0.026694	47.1408	-0.639846	-2.938849E+8	9.083307E-11	NaN
1175	1.000000	0.507009	7.37654e+06	-56839.1	1105.82	-29737.8	0.000000	0.000000	6.506944	-0.013064	NaN	0.000000	0.001589	0.001669	28.0831	0.021156	0.001880	11.2506	66.3912	-166.078	0.035095	0.505655	-0.598230	-0.599584	-0.013064	11.2506	-0.597359	-7.657379E+7	1.706128E-10	NaN
1175	1.000000	0.549037	7.37654e+06	-56839.1	1105.82	-29737.8	0.000000	0.000000	6.548972	-0.004010	NaN	0.000000	0.001554	0.001705	28.083	0.094572	0.001968	48.0634	-98.8226	13.7981	-0.022216	0.547684	-0.556202	-0.557555	-0.004010	48.0634	-0.556139	-2.065188E+7	1.941543E-10	NaN
1175	1.000000	0.591014	7.37654e+06	-56839.1	1105.82	-29737.8	0.000000	0.000000	6.590950	0.020766	NaN	0.000000	0.001534	0.001776	28.0817	0.037583	0.001943	19.3477	-127.188	-164.17	-0.014530	0.589676	-0.514225	-0.515563	0.020766	19.3477	-0.515030	-5.55204e+06	-3.740316E-9	NaN
1175	1.000000	0.633066	7.37654e+06	-56839.1	1105.82	-29737.8	0.000000	0.000000	6.633001	-0.011420	NaN	0.000000	0.001518	0.001706	28.0816	0.173037	0.001925	89.8853	123.777	15.507	-0.003711	0.631683	-0.472172	-0.473556	-0.011420	89.8853	-0.472077	-1.39486e+06	8.187093E-9	NaN
1175	1.000000	0.675094	7.37654e+06	-56839.1	1105.82	-29737.8	0.000000	0.000000	6.675027	-0.057951	NaN	0.000000	0.001586	0.001721	28.0834	0.060943	0.001812	33.6356	173.514	-165.305	-0.047660	0.673734	-0.430145	-0.431504	-0.057951	33.6356	-0.428853	-343424	1.687448E-7	NaN
1175	1.000000	0.717123	7.37654e+06	-56839.1	1105.82	-29737.8	0.000000	0.000000	6.717059	-0.002272	NaN	0.000000	0.001551	0.001731	28.0826	0.050169	0.002002	25.0546	56.0624	14.5645	-0.008370	0.715701	-0.388115	-0.389538	-0.002272	25.0546	-0.388047	-90203.7	2.519112E-8	NaN
1175	1.000000	0.759093	7.37654e+06	-56839.1	1105.82	-29737.8	0.000000	0.000000	6.759028	-0.013464	NaN	0.000000	0.001601	0.001679	28.083	0.070456	0.002002	35.1934	-161.202	-166.929	-0.030447	0.757790	-0.346145	-0.347449	-0.013464	35.1934	-0.345859	-22225	6.058196E-7	NaN
1175	1.000000	0.801110	7.37654e+06	-56839.1	1105.82	-29737.8	0.000000	0.000000	6.801045	-0.013897	NaN	0.000000	0.001574	0.001711	28.0831	0.049589	0.001900	26.105	114.458	15.3068	0.047267	0.799707	-0.304128	-0.305532	-0.013897	26.105	-0.303729	-5346.71	2.599105E-6	NaN
1175	1.000000	0.843126	7.37655e+06	-56839.1	1105.82	-29737.8	0.000000	0.000000	6.843062	0.015065	NaN	0.000000	0.001598	0.001773	28.0831	0.054446	0.002001	27.2131	-60.4598	-164.574	-0.087145	0.841826	-0.262113	-0.263413	0.015065	27.2131	-0.262528	-1281.23	-1.175810E-5	NaN
1175	1.000000	0.885155	7.37655e+06	-56839.1	1105.82	-29737.8	0.000000	0.000000	6.885090	-0.016439	NaN	0.000000	0.001516	0.001743	28.0816	0.009055	0.001872	4.836908	124.973	10.147	0.025819	0.883798	-0.220083	-0.221441	-0.016439	4.836908	-0.217534	-253.636	6.481478E-5	NaN
1175	1.000000	0.927194	7.37655e+06	-56839.1	1105.82	-29737.8	0.000000	0.000000	6.927130	-0.004741	NaN	0.000000	0.001597	0.001761	28.0816	0.115857	0.002044	56.6798	-38.7734	-164.518	-0.015416	0.925878	-0.178044	-0.179361	-0.004741	56.6798	-0.177982	-56.3713	8.410353E-5	NaN
1175	1.000000	0.969201	7.37655e+06	-56839.1	1105.82	-29737.8	0.000000	0.000000	6.969135	-0.047649	NaN	0.000000	0.001557	0.001753	28.0818	0.062677	0.002045	30.6455	139.873	12.3316	0.023487	0.967787	-0.136037	-0.137452	-0.047649	30.6455	-0.134871	-9.458626	0.005038	NaN
1175	1.000000	1.011214	7.37655e+06	-56839.1	1105.82	-29737.8	0.000000	0.000000	7.011148	-0.041797	NaN	0.000000	0.001564	0.001706	28.083	0.166936	0.002058	81.1225	109.656	-163.42	-0.064582	1.009910	-0.094025	-0.095329	-0.041797	81.1225	-0.093638	-1.313012	0.031833	NaN
1175	1.000000	1.053254	7.37655e+06	-56839.1	1105.82	-29737.8	0.000000	0.000000	7.053189	-0.009689	NaN	0.000000	0.001558	0.001677	28.0826	0.060705	0.002006	30.2547	157.619	17.1721	0.009953	1.051878	-0.051985	-0.053361	-0.009689	30.2547	-0.051745	-0.102998	0.094072	NaN
1175	1.000000	1.095245	7.37655e+06	-56839.1	1105.82	-29737.8	0.000000	0.000000	7.095184	0.076512	NaN	0.000000	0.001547	0.001710	28.0826	0.129480	0.002032	63.7166	9.377693	-165.286	-0.003246	1.093970	-0.009993	-0.011269	0.076512	63.7166	-0.010894	-0.006898	-11.0926	NaN
1175	2.000000	1.116325	7.37655e+06	-56839.1	1105.82	-29737.8	0.000000	0.000000	7.117082	19.9659	NaN	0.000000	0.001573	0.001726	28.082	17.6442	0.001655	10660.5	5.010500	4.301957	19.007	1.116050	0.011086	0.010812	19.9659	10660.5	0.009682	0.008830	2261.19	103651
1175	2.000000	1.126797	7.37655e+06	-56839.1	1105.82	-29737.8	0.000000	0.000000	7.128692	47.6126	NaN	0.000000	0.001537	0.001737	28.0816	29.2524	0.001771	16513.5	3.007555	-176.228	47.5313	1.126470	0.021559	0.021231	47.6126	16513.5	0.019396	0.021602	2204.06	102651
1175	2.000000	1.137283	7.37655e+06	-56839.1	1105.82	-29737.8	0.000000	0.000000	7.140760	86.0905	NaN	0.000000	0.001642	0.001686	28.0819	40.8086	0.001744	23394.4	2.532200	-0.475216	85.2271	1.137048	0.032044	0.031810	86.0905	23394.4	0.029284	0.039273	2192.09	107854
1175	2.000000	1.147724	7.37655e+06	-56839.1	1105.82	-29737.8	0.000000	0.000000	7.153498	141.907	NaN	0.000000	0.001613	0.001653	28.0828	51.3555	0.001711	30012.1	6.519663	175.015	140.223	1.147378	0.042485	0.042139	141.907	30012.1	0.038939	0.061315	2314.39	110735
1175	2.000000	1.158240	7.37655e+06	-56839.1	1105.82	-29737.8	0.000000	0.000000	7.166315	197.824	NaN	0.000000	0.001557	0.001712	28.0828	61.4174	0.001785	34415.3	1.637748	-1.801514	195.524	1.157922	0.053002	0.052683	197.824	34415.3	0.048691	0.088409	2237.61	105749
1175	2.000000	1.168642	7.37655e+06	-56839.1	1105.82	-29737.9	0.000000	0.000000	7.179292	260.432	NaN	0.000000	0.001558	0.001720	28.0827	72.5276	0.001779	40761.6	8.654927	171.059	254.765	1.168325	0.063403	0.063086	260.432	40761.6	0.058611	0.120874	2154.57	107117
1175	2.000000	1.179258	7.37655e+06	-56839.1	1105.82	-29737.9	0.000000	0.000000	7.192966	334.738	NaN	0.000000	0.001598	0.001707	28.0829	81.4852	0.001698	47983.5	5.010545	-7.634795	333.927	1.178978	0.074020	0.073739	334.738	47983.5	0.068787	0.159190	2102.75	109877
1175	2.000000	1.189676	7.37655e+06	-56839.1	1105.82	-29737.9	0.000000	0.000000	7.206710	415.587	NaN	0.000000	0.001606	0.001714	28.0816	92.5992	0.001819	50917.5	3.156466	173.999	413.286	1.189428	0.084437	0.084189	415.587	50917.5	0.078316	0.199550	2082.62	104139
1175	2.000000	1.200226	7.37655e+06	-56839.1	1105.82	-29737.9	0.000000	0.000000	7.220744	500.26	NaN	0.000000	0.001562	0.001702	28.0816	100.467	0.001776	56557.7	4.362074	-7.929650	500.081	1.199832	0.094987	0.094593	500.26	56557.7	0.088354	0.246659	2028.15	104044
1175	2.000000	1.207567	7.37655e+06	-56839.1	1105.82	-29737.9	0.000000	0.000000	7.230628	562.085	NaN	0.000000	0.001545	0.001713	28.0816	107.245	0.001856	57786.3	3.705151	172.527	554.458	1.207324	0.102328	0.102085	562.085	57786.3	0.095033	0.280577	2003.32	99671.9