File: remote_trans/data/nanoindenter/0828-1/data/Data_2025-08-06,11h17m57s/2025-07-22_16-23-58_1_522.txt
2025-07-22, 16:23:58, 1
Index	Phase	Displacement	Time	Pos X	Pos Y	Pos Z	Rot A	Rot B	Piezo Z	Force A	Force B	Gripper	Voltage A	Voltage B	Temperature	Amplitude force	Amplitude pos	Stiffness	Phase shift	Phase excitation	Force A raw	Displacement raw	HMax	HMax raw	Real Force	Real Stiffness	Contact Depth	Area	Hardness	Reduced Mod.
[#]	[#]	[um]	[s]	[um]	[um]	[um]	[m°]	[m°]	[um]	[uN]	[uN]	[V]	[V]	[V]	[°C]	[uN]	[um]	[N/m]	[°]	[°]	[uN]	[um]	[um]	[um]	[uN]	[N/m]	[um]	[um^2]	[MPa]	[MPa]
522	1.000000	0.002655	7.37016e+06	-50989.1	1005.82	-29753.8	0.000000	0.000000	6.002800	-0.041132	NaN	0.000000	0.001694	0.001760	28.0837	0.094569	0.000932	101.493	153.848	-159.999	0.004236	0.001391	-1.120487	-1.121751	-0.041132	101.493	-1.120183	-9.352624E+14	4.397877E-17	NaN
522	1.000000	0.044596	7.37016e+06	-50989.1	1005.82	-29753.8	0.000000	0.000000	6.044742	-0.034879	NaN	0.000000	0.001607	0.001740	28.0825	0.045525	0.001978	23.0149	133.917	12.5322	-0.007082	0.043283	-1.078546	-1.079859	-0.034879	23.0149	-1.077410	-2.493042E+14	1.399059E-16	NaN
522	1.000000	0.086625	7.37016e+06	-50989.1	1005.82	-29753.8	0.000000	0.000000	6.086770	-0.064887	NaN	0.000000	0.001618	0.001766	28.0828	0.072835	0.002024	35.9802	77.8881	-164.921	0.054995	0.085321	-1.036517	-1.037821	-0.064887	35.9802	-1.035165	-6.744400E+13	9.620931E-16	NaN
522	1.000000	0.128605	7.37016e+06	-50989.1	1005.82	-29753.8	0.000000	0.000000	6.128749	-0.068790	NaN	0.000000	0.001554	0.001831	28.0824	0.083032	0.001964	42.282	137.975	13.9711	-0.042157	0.127275	-0.994537	-0.995867	-0.068790	42.282	-0.993317	-1.844094E+13	3.730308E-15	NaN
522	1.000000	0.170654	7.37016e+06	-50989.1	1005.82	-29753.8	0.000000	0.000000	6.170801	-0.001895	NaN	0.000000	0.001619	0.001783	28.0829	0.041140	0.001885	21.8284	73.8514	-166.209	-0.009298	0.169319	-0.952488	-0.953823	-0.001895	21.8284	-0.952423	-5.184478E+12	3.656084E-16	NaN
522	1.000000	0.212666	7.37016e+06	-50989.1	1005.82	-29753.8	0.000000	0.000000	6.212812	-0.018677	NaN	0.000000	0.001609	0.001827	28.0838	0.060939	0.002072	29.4139	48.6948	13.5678	0.026718	0.211339	-0.910476	-0.911803	-0.018677	29.4139	-0.910000	-1.387280E+12	1.346323E-14	NaN
522	1.000000	0.254706	7.37016e+06	-50989.1	1005.82	-29753.8	0.000000	0.000000	6.254852	-0.038062	NaN	0.000000	0.001641	0.001820	28.084	0.070927	0.002057	34.4772	132.624	-163.577	-0.016210	0.253358	-0.868436	-0.869784	-0.038062	34.4772	-0.867608	-3.707478E+11	1.026639E-13	NaN
522	1.000000	0.296733	7.37016e+06	-50989.1	1005.82	-29753.8	0.000000	0.000000	6.296879	-0.038648	NaN	0.000000	0.001589	0.001833	28.0838	0.142109	0.001919	74.0696	-19.2755	17.4459	-0.078964	0.295349	-0.826409	-0.827793	-0.038648	74.0696	-0.826018	-1.013453E+11	3.813524E-13	NaN
522	1.000000	0.338733	7.37016e+06	-50989.1	1005.82	-29753.8	0.000000	0.000000	6.338880	-0.013820	NaN	0.000000	0.001586	0.001813	28.0825	0.094116	0.002030	46.3662	-70.1966	-167.136	0.004903	0.337381	-0.784409	-0.785761	-0.013820	46.3662	-0.784185	-2.742191E+10	5.039882E-13	NaN
522	1.000000	0.380785	7.37016e+06	-50989.1	1005.82	-29753.8	0.000000	0.000000	6.380932	-0.010669	NaN	0.000000	0.001660	0.001850	28.0826	0.094038	0.001969	47.7527	174.672	13.6152	-0.086733	0.379330	-0.742357	-0.743812	-0.010669	47.7527	-0.742190	-7.359983E+9	1.449616E-12	NaN
522	1.000000	0.422748	7.37016e+06	-50989.1	1005.82	-29753.8	0.000000	0.000000	6.422896	0.000327	NaN	0.000000	0.001595	0.001773	28.0828	0.032743	0.002023	16.1881	-178.747	-165.459	-0.016522	0.421475	-0.700394	-0.701667	0.000327	16.1881	-0.700409	-1.982045E+9	-1.648312E-13	NaN
522	1.000000	0.464782	7.37016e+06	-50989.1	1005.82	-29753.8	0.000000	0.000000	6.464929	-0.014785	NaN	0.000000	0.001606	0.001837	28.0838	0.069631	0.001979	35.1872	-13.3557	14.435	0.007447	0.463361	-0.658360	-0.659781	-0.014785	35.1872	-0.658045	-5.220228E+8	2.832226E-11	NaN
522	1.000000	0.506784	7.37016e+06	-50989.1	1005.82	-29753.8	0.000000	0.000000	6.506931	-0.020908	NaN	0.000000	0.001613	0.001769	28.0838	0.079341	0.002067	38.3798	167.576	-163.764	0.069211	0.505452	-0.616358	-0.617690	-0.020908	38.3798	-0.615949	-1.380194E+8	1.514868E-10	NaN
522	1.000000	0.548793	7.37016e+06	-50989.1	1005.82	-29753.8	0.000000	0.000000	6.548939	-0.030954	NaN	0.000000	0.001727	0.001746	28.0838	0.075788	0.002057	36.8519	14.1431	16.7584	0.008533	0.547483	-0.574349	-0.575660	-0.030954	36.8519	-0.573719	-3.614133E+7	8.564632E-10	NaN
522	1.000000	0.590878	7.37016e+06	-50989.1	1005.82	-29753.8	0.000000	0.000000	6.591026	0.021231	NaN	0.000000	0.001641	0.001808	28.0825	0.128050	0.002028	63.1538	-151.752	-167.503	-0.042538	0.589538	-0.532264	-0.533604	0.021231	63.1538	-0.532516	-9.71659e+06	-2.184982E-9	NaN
522	1.000000	0.632863	7.37016e+06	-50989.1	1005.82	-29753.8	0.000000	0.000000	6.633008	-0.064390	NaN	0.000000	0.001620	0.001834	28.0826	0.065783	0.001936	33.985	-159.873	15.4249	-0.124323	0.631520	-0.490279	-0.491622	-0.064390	33.985	-0.488858	-2.3957e+06	2.687742E-8	NaN
522	1.000000	0.674877	7.37016e+06	-50989.1	1005.82	-29753.8	0.000000	0.000000	6.675021	-0.078564	NaN	0.000000	0.001647	0.001768	28.0824	0.107834	0.002011	53.6169	84.2542	-162.585	-0.077102	0.673559	-0.448265	-0.449583	-0.078564	53.6169	-0.447166	-622901	1.261261E-7	NaN
522	1.000000	0.716864	7.37016e+06	-50989.1	1005.82	-29753.8	0.000000	0.000000	6.717010	-0.018122	NaN	0.000000	0.001611	0.001776	28.0825	0.130787	0.001937	67.5181	-176.556	14.9173	-0.087907	0.715515	-0.406278	-0.407627	-0.018122	67.5181	-0.406077	-163149	1.110761E-7	NaN
522	1.000000	0.758894	7.37016e+06	-50989.1	1005.82	-29753.8	0.000000	0.000000	6.759040	-0.019214	NaN	0.000000	0.001618	0.001795	28.0839	0.040223	0.002148	18.7252	102.488	-164.419	-0.027232	0.757572	-0.364248	-0.365570	-0.019214	18.7252	-0.363479	-40003.6	4.803149E-7	NaN
522	1.000000	0.800923	7.37016e+06	-50989.1	1005.82	-29753.8	0.000000	0.000000	6.801069	-0.034827	NaN	0.000000	0.001588	0.001821	28.0843	0.088568	0.001962	45.1485	89.583	15.4544	-0.037826	0.799545	-0.322219	-0.323597	-0.034827	45.1485	-0.321641	-9835	3.541172E-6	NaN
522	1.000000	0.842912	7.37016e+06	-50989.1	1005.82	-29753.8	0.000000	0.000000	6.843059	0.008365	NaN	0.000000	0.001627	0.001792	28.0845	0.076831	0.001917	40.0749	-70.1702	-166.772	-0.018910	0.841600	-0.280231	-0.281542	0.008365	40.0749	-0.280387	-2392.26	-3.496513E-6	NaN
522	1.000000	0.884969	7.37016e+06	-50989.1	1005.82	-29753.8	0.000000	0.000000	6.885119	0.049405	NaN	0.000000	0.001640	0.001823	28.0829	0.063376	0.002052	30.8869	-145.353	17.8466	0.040995	0.883582	-0.238173	-0.239560	0.049405	30.8869	-0.239373	-562.018	-8.790575E-5	NaN
522	1.000000	0.926956	7.37016e+06	-50989.1	1005.82	-29753.8	0.000000	0.000000	6.927101	-0.045667	NaN	0.000000	0.001604	0.001840	28.0827	0.033329	0.001897	17.5657	-17.42	-164.197	0.001706	0.925680	-0.196186	-0.197462	-0.045667	17.5657	-0.194236	-105.815	0.000432	NaN
522	1.000000	0.968973	7.37016e+06	-50989.1	1005.82	-29753.8	0.000000	0.000000	6.969118	-0.039772	NaN	0.000000	0.001690	0.001829	28.0827	0.059241	0.001993	29.7309	69.5484	14.1205	-0.009358	0.967604	-0.154169	-0.155538	-0.039772	29.7309	-0.153166	-20.6776	0.001923	NaN
522	1.000000	1.010988	7.37016e+06	-50989.1	1005.82	-29753.8	0.000000	0.000000	7.011132	-0.073566	NaN	0.000000	0.001677	0.001824	28.0843	0.052968	0.002014	26.2992	145.476	-167.294	-0.107241	1.009677	-0.112154	-0.113465	-0.073566	26.2992	-0.110056	-3.013400	0.024413	NaN
522	1.000000	1.052999	7.37016e+06	-50989.1	1005.82	-29753.8	0.000000	0.000000	7.053144	-0.053743	NaN	0.000000	0.001699	0.001839	28.0841	0.076921	0.002087	36.8608	55.0068	16.0788	-0.012596	1.051692	-0.070144	-0.071450	-0.053743	36.8608	-0.069050	-0.321631	0.167096	NaN
522	1.000000	1.095036	7.37016e+06	-50989.1	1005.82	-29753.8	0.000000	0.000000	7.095181	-0.078739	NaN	0.000000	0.001548	0.001871	28.084	0.050677	0.001868	27.1258	65.7361	-164.771	-0.116877	1.093752	-0.028106	-0.029390	-0.078739	27.1258	-0.025929	-0.017845	4.412418	NaN
522	2.000000	1.131089	7.37016e+06	-50989.1	1005.82	-29753.8	0.000000	0.000000	7.131712	11.5588	NaN	0.000000	0.001593	0.001843	28.0826	10.7262	0.001733	6189.64	4.269651	9.277888	10.5561	1.130780	0.007947	0.007637	11.5588	6189.64	0.006546	0.005589	2068	75640.9
522	2.000000	1.141496	7.37016e+06	-50989.1	1005.82	-29753.8	0.000000	0.000000	7.142824	28.7124	NaN	0.000000	0.001658	0.001878	28.0824	21.1725	0.001881	11254.7	6.271497	-175.97	28.2691	1.141172	0.018354	0.018030	28.7124	11254.7	0.016441	0.017255	1664.02	78280
522	2.000000	1.152027	7.37016e+06	-50989.1	1005.82	-29753.8	0.000000	0.000000	7.154461	55.6187	NaN	0.000000	0.001615	0.001865	28.0827	31.741	0.001903	16683.4	5.961384	0.482685	55.6061	1.151667	0.028885	0.028525	55.6187	16683.4	0.026384	0.033582	1656.19	83176.6
522	2.000000	1.162463	7.37016e+06	-50989.1	1005.82	-29753.8	0.000000	0.000000	7.166407	92.3145	NaN	0.000000	0.001628	0.001841	28.0826	40.7333	0.001739	23420.2	8.178856	175.325	91.7516	1.162135	0.039321	0.038993	92.3145	23420.2	0.036365	0.054972	1679.3	91262.7
522	2.000000	1.172949	7.37016e+06	-50989.1	1005.82	-29753.8	0.000000	0.000000	7.178748	137.444	NaN	0.000000	0.001636	0.001859	28.0839	51.3624	0.001824	28159.2	4.146340	-2.488503	134.041	1.172565	0.049807	0.049423	137.444	28159.2	0.046146	0.080874	1699.49	90467
522	2.000000	1.183473	7.37016e+06	-50989.1	1005.82	-29753.8	0.000000	0.000000	7.191434	189.991	NaN	0.000000	0.001596	0.001830	28.0838	60.6246	0.001784	33979	5.855674	174.769	189.371	1.183154	0.060331	0.060012	189.991	33979	0.056138	0.112324	1691.46	92629.3
522	2.000000	1.193876	7.37016e+06	-50989.1	1005.82	-29753.8	0.000000	0.000000	7.204330	250.631	NaN	0.000000	0.001624	0.001842	28.0836	71.4936	0.001865	38341.7	4.792914	-5.727337	245.678	1.193578	0.070734	0.070436	250.631	38341.7	0.065831	0.147545	1698.68	91197.6
522	2.000000	1.204422	7.37016e+06	-50989.1	1005.82	-29753.8	0.000000	0.000000	7.217389	311.726	NaN	0.000000	0.001626	0.001826	28.0823	80.4133	0.001802	44620.2	3.623358	174.476	311.471	1.204083	0.081280	0.080941	311.726	44620.2	0.076041	0.189525	1644.78	93642.2
522	2.000000	1.214810	7.37016e+06	-50989.1	1005.82	-29753.8	0.000000	0.000000	7.230896	387.577	NaN	0.000000	0.001628	0.001874	28.0821	89.7925	0.001804	49774.3	6.209669	-8.952464	380.841	1.214554	0.091668	0.091412	387.577	49774.3	0.085828	0.234369	1653.7	93935.2
522	2.000000	1.225334	7.37016e+06	-50989.1	1005.82	-29753.8	0.000000	0.000000	7.244663	466.443	NaN	0.000000	0.001654	0.001855	28.0822	99.4616	0.001780	55881.3	2.673114	174.048	463.167	1.224952	0.102192	0.101810	466.443	55881.3	0.095931	0.285294	1634.95	95585.8
522	2.000000	1.227275	7.37016e+06	-50989.1	1005.82	-29753.8	0.000000	0.000000	7.247052	477.339	NaN	0.000000	0.001618	0.001899	28.0825	102.155	0.001695	60263.1	3.616380	172.439	471.452	1.227142	0.104133	0.104000	477.339	60263.1	0.098192	0.297328	1605.43	100973