File: remote_trans/data/nanoindenter/0828-1/data/Data_2025-08-06,11h17m57s/2025-07-22_16-23-58_1_647.txt
2025-07-22, 16:23:58, 1
Index	Phase	Displacement	Time	Pos X	Pos Y	Pos Z	Rot A	Rot B	Piezo Z	Force A	Force B	Gripper	Voltage A	Voltage B	Temperature	Amplitude force	Amplitude pos	Stiffness	Phase shift	Phase excitation	Force A raw	Displacement raw	HMax	HMax raw	Real Force	Real Stiffness	Contact Depth	Area	Hardness	Reduced Mod.
[#]	[#]	[um]	[s]	[um]	[um]	[um]	[m°]	[m°]	[um]	[uN]	[uN]	[V]	[V]	[V]	[°C]	[uN]	[um]	[N/m]	[°]	[°]	[uN]	[um]	[um]	[um]	[uN]	[N/m]	[um]	[um^2]	[MPa]	[MPa]
647	1.000000	0.003107	7.37138e+06	-44739.1	1005.82	-29774.9	0.000000	0.000000	6.002803	0.156042	NaN	0.000000	0.001577	0.001667	28.0838	0.090258	0.000979	92.1656	-153.587	-164.298	0.119955	0.001828	-1.042316	-1.043594	0.156042	92.1656	-1.043586	-8.753492E+13	-1.782621E-15	NaN
647	1.000000	0.043055	7.37138e+06	-44739.1	1005.82	-29774.9	0.000000	0.000000	6.042747	0.053967	NaN	0.000000	0.001582	0.001588	28.0823	0.046306	0.001977	23.4274	-67.2256	-167.376	0.084547	0.041746	-1.002368	-1.003676	0.053967	23.4274	-1.004096	-2.575770E+13	-2.095174E-15	NaN
647	1.000000	0.083062	7.37138e+06	-44739.1	1005.82	-29774.9	0.000000	0.000000	6.082755	0.070722	NaN	0.000000	0.001554	0.001703	28.082	0.054375	0.002049	26.5386	60.4545	-166.717	0.055031	0.081772	-0.962360	-0.963651	0.070722	26.5386	-0.964359	-7.509863E+12	-9.417248E-15	NaN
647	1.000000	0.123103	7.37138e+06	-44739.1	1005.82	-29774.9	0.000000	0.000000	6.122795	0.039291	NaN	0.000000	0.001574	0.001664	28.0819	0.067209	0.002004	33.539	100.92	-161.269	0.052841	0.121728	-0.922320	-0.923695	0.039291	33.539	-0.923198	-2.091163E+12	-1.878909E-14	NaN
647	1.000000	0.163104	7.37138e+06	-44739.1	1005.82	-29774.9	0.000000	0.000000	6.162796	0.042678	NaN	0.000000	0.001546	0.001672	28.0817	0.078188	0.002092	37.3736	74.564	-162.173	-0.034361	0.161755	-0.882319	-0.883668	0.042678	37.3736	-0.883175	-6.020720E+11	-7.088562E-14	NaN
647	1.000000	0.203105	7.37138e+06	-44739.1	1005.82	-29774.9	0.000000	0.000000	6.202797	0.026475	NaN	0.000000	0.001641	0.001645	28.083	0.132789	0.002009	66.085	128.577	-166.777	0.057007	0.201815	-0.842317	-0.843608	0.026475	66.085	-0.842618	-1.701202E+11	-1.556280E-13	NaN
647	1.000000	0.243112	7.37138e+06	-44739.1	1005.82	-29774.9	0.000000	0.000000	6.242804	0.060816	NaN	0.000000	0.001614	0.001659	28.0831	0.040291	0.001976	20.3936	168.587	-166.223	0.057062	0.241818	-0.802311	-0.803605	0.060816	20.3936	-0.804548	-5.183082E+10	-1.173365E-12	NaN
647	1.000000	0.283134	7.37138e+06	-44739.1	1005.82	-29774.9	0.000000	0.000000	6.282826	0.050958	NaN	0.000000	0.001517	0.001661	28.0838	0.028925	0.002050	14.1082	90.1842	-164.597	0.032768	0.281896	-0.762289	-0.763527	0.050958	14.1082	-0.764998	-1.504115E+10	-3.387901E-12	NaN
647	1.000000	0.323192	7.37138e+06	-44739.1	1005.82	-29774.9	0.000000	0.000000	6.322885	0.064864	NaN	0.000000	0.001616	0.001600	28.0819	0.076041	0.001966	38.6748	20.4503	-166.805	0.045234	0.321888	-0.722231	-0.723535	0.064864	38.6748	-0.723489	-4.093018E+9	-1.584746E-11	NaN
647	1.000000	0.363182	7.37138e+06	-44739.1	1005.82	-29774.9	0.000000	0.000000	6.362874	0.051468	NaN	0.000000	0.001600	0.001661	28.082	0.038288	0.002178	17.5797	-142.595	-166.367	-0.026307	0.361862	-0.682241	-0.683561	0.051468	17.5797	-0.684436	-1.199141E+9	-4.292094E-11	NaN
647	1.000000	0.403208	7.37138e+06	-44739.1	1005.82	-29774.9	0.000000	0.000000	6.402900	0.035923	NaN	0.000000	0.001609	0.001648	28.082	0.048198	0.002000	24.0945	47.9205	-165.231	0.048058	0.401868	-0.642214	-0.643555	0.035923	24.0945	-0.643332	-3.281003E+8	-1.094866E-10	NaN
647	1.000000	0.443248	7.37138e+06	-44739.1	1005.82	-29774.9	0.000000	0.000000	6.442938	-0.006320	NaN	0.000000	0.001634	0.001725	28.0829	0.150155	0.001969	76.2559	-146.418	-168.329	0.044518	0.441886	-0.602175	-0.603536	-0.006320	76.2559	-0.602112	-8.903268E+7	7.098069E-11	NaN
647	1.000000	0.483241	7.37138e+06	-44739.1	1005.82	-29774.9	0.000000	0.000000	6.482931	0.001418	NaN	0.000000	0.001605	0.001687	28.0832	0.141304	0.002062	68.5389	-64.5982	-163.901	0.013591	0.481963	-0.562182	-0.563459	0.001418	68.5389	-0.562197	-2.504796E+7	-5.661310E-11	NaN
647	1.000000	0.523281	7.37138e+06	-44739.1	1005.82	-29774.9	0.000000	0.000000	6.522972	0.018733	NaN	0.000000	0.001624	0.001738	28.0831	0.018372	0.002038	9.015829	75.8071	-164.385	0.052927	0.521914	-0.522142	-0.523509	0.018733	9.015829	-0.523700	-7.32897e+06	-2.555956E-9	NaN
647	1.000000	0.563270	7.37138e+06	-44739.1	1005.82	-29774.9	0.000000	0.000000	6.562962	0.052784	NaN	0.000000	0.001603	0.001658	28.083	0.120184	0.001952	61.5838	88.0375	-166.704	0.065488	0.561964	-0.482153	-0.483459	0.052784	61.5838	-0.482796	-1.97087e+06	-2.678218E-8	NaN
647	1.000000	0.603291	7.37138e+06	-44739.1	1005.82	-29774.9	0.000000	0.000000	6.602981	0.012992	NaN	0.000000	0.001579	0.001745	28.0818	0.069624	0.002012	34.6014	40.5084	-164.974	0.067713	0.601998	-0.442132	-0.443425	0.012992	34.6014	-0.442414	-533851	-2.433551E-8	NaN
647	1.000000	0.643316	7.37138e+06	-44739.1	1005.82	-29774.9	0.000000	0.000000	6.643011	0.114264	NaN	0.000000	0.001560	0.001641	28.0816	0.160148	0.001962	81.6317	127.478	-163.239	0.103999	0.641994	-0.402107	-0.403428	0.114264	81.6317	-0.403157	-148249	-7.707622E-7	NaN
647	1.000000	0.683319	7.37138e+06	-44739.1	1005.82	-29774.9	0.000000	0.000000	6.683012	0.069125	NaN	0.000000	0.001642	0.001652	28.0817	0.055000	0.001912	28.7631	67.0653	-167.393	0.096876	0.681988	-0.362104	-0.363435	0.069125	28.7631	-0.363907	-40576.5	-1.703569E-6	NaN
647	1.000000	0.723337	7.37138e+06	-44739.1	1005.82	-29774.9	0.000000	0.000000	6.723033	0.163103	NaN	0.000000	0.001673	0.001646	28.0832	0.070061	0.001992	35.177	-166.435	-164.918	0.086803	0.722032	-0.322086	-0.323390	0.163103	35.177	-0.325564	-11230.8	-1.452289E-5	NaN
647	1.000000	0.763377	7.37138e+06	-44739.1	1005.82	-29774.9	0.000000	0.000000	6.763070	0.063473	NaN	0.000000	0.001630	0.001633	28.0831	0.066371	0.002025	32.7681	-31.3035	-167.918	0.106165	0.762036	-0.282046	-0.283387	0.063473	32.7681	-0.283498	-2664.9	-2.381803E-5	NaN
647	1.000000	0.803355	7.37138e+06	-44739.1	1005.82	-29774.9	0.000000	0.000000	6.803047	0.032265	NaN	0.000000	0.001606	0.001661	28.0831	0.156173	0.002004	77.9371	91.504	-168.115	0.065132	0.802028	-0.242068	-0.243395	0.032265	77.9371	-0.242378	-626.112	-5.153241E-5	NaN
647	1.000000	0.843379	7.37138e+06	-44739.1	1005.82	-29774.9	0.000000	0.000000	6.843070	0.018889	NaN	0.000000	0.001635	0.001671	28.0832	0.046065	0.001961	23.489	-121.696	-164.719	0.022007	0.842040	-0.202044	-0.203383	0.018889	23.489	-0.202647	-145.584	-0.000130	NaN
647	1.000000	0.883411	7.37138e+06	-44739.1	1005.82	-29774.9	0.000000	0.000000	6.883102	0.018879	NaN	0.000000	0.001607	0.001627	28.082	0.134048	0.002074	64.6322	73.1841	-164.569	-0.059455	0.882083	-0.162012	-0.163340	0.018879	64.6322	-0.162231	-30.0277	-0.000629	NaN
647	1.000000	0.923435	7.37138e+06	-44739.1	1005.82	-29774.9	0.000000	0.000000	6.923129	0.089033	NaN	0.000000	0.001610	0.001676	28.0821	0.082819	0.001857	44.6041	-34.0162	-167.499	-0.040575	0.922116	-0.121987	-0.123307	0.089033	44.6041	-0.123484	-5.674353	-0.015690	NaN
647	1.000000	0.963431	7.37138e+06	-44739.1	1005.82	-29774.9	0.000000	0.000000	6.963123	0.034186	NaN	0.000000	0.001641	0.001658	28.0821	0.064320	0.002078	30.9588	55.8453	-166.75	0.015055	0.962167	-0.081992	-0.083255	0.034186	30.9588	-0.082820	-0.727008	-0.047023	NaN
647	1.000000	1.003473	7.37138e+06	-44739.1	1005.82	-29774.9	0.000000	0.000000	7.003167	0.098396	NaN	0.000000	0.001637	0.001608	28.0833	0.139159	0.002071	67.1952	137.16	-164.998	0.011141	1.002096	-0.041950	-0.043327	0.098396	67.1952	-0.043048	-0.056015	-1.756607	NaN
647	1.000000	1.043456	7.37138e+06	-44739.1	1005.82	-29774.9	0.000000	0.000000	7.043214	1.649768	NaN	0.000000	0.001592	0.001631	28.0834	2.311794	0.002001	1155.3	6.511535	-165.33	0.684509	1.042164	-0.001967	-0.003259	1.649768	1155.3	-0.003038	-0.002146	-768.857	NaN
647	2.000000	1.058974	7.37138e+06	-44739.1	1005.82	-29774.9	0.000000	0.000000	7.059487	20.0151	NaN	0.000000	0.001631	0.001677	28.0833	17.8002	0.001873	9502.53	5.198161	-172.851	19.1911	1.058688	0.013551	0.013265	20.0151	9502.53	0.011972	0.011456	1747.1	81113.5
647	2.000000	1.068993	7.37138e+06	-44739.1	1005.82	-29774.9	0.000000	0.000000	7.070499	44.1751	NaN	0.000000	0.001571	0.001696	28.0832	28.3764	0.001848	15352.8	0.788841	-175.721	43.7616	1.068634	0.023570	0.023212	44.1751	15352.8	0.021412	0.024810	1780.56	89053.1
647	2.000000	1.078931	7.37138e+06	-44739.1	1005.82	-29774.9	0.000000	0.000000	7.081731	75.6707	NaN	0.000000	0.001666	0.001632	28.0821	38.7382	0.001752	22106.2	7.966818	174.006	75.7628	1.078660	0.033508	0.033237	75.6707	22106.2	0.030941	0.042716	1771.49	97722
647	2.000000	1.088904	7.37138e+06	-44739.1	1005.82	-29774.9	0.000000	0.000000	7.093282	114.054	NaN	0.000000	0.001683	0.001637	28.0821	48.3877	0.001775	27257.8	3.104334	176.642	112.551	1.088688	0.043481	0.043265	114.054	27257.8	0.040343	0.064917	1756.91	97742.8
647	2.000000	1.098949	7.37138e+06	-44739.1	1005.82	-29774.9	0.000000	0.000000	7.105408	164.671	NaN	0.000000	0.001667	0.001649	28.0822	59.1034	0.001897	31154.5	4.458532	175.081	165.9	1.098636	0.053526	0.053214	164.671	31154.5	0.049562	0.091064	1808.29	94323.7
647	2.000000	1.108936	7.37138e+06	-44739.1	1005.82	-29774.9	0.000000	0.000000	7.118024	228.622	NaN	0.000000	0.001647	0.001672	28.0835	68.8323	0.001876	36699	6.174571	172.11	230.55	1.108588	0.063513	0.063165	228.622	36699	0.058841	0.121686	1878.79	96118.7
647	2.000000	1.118919	7.37139e+06	-44739.1	1005.82	-29774.9	0.000000	0.000000	7.130789	296.292	NaN	0.000000	0.001610	0.001664	28.0835	77.6204	0.001682	46154.1	7.063029	168.676	299.16	1.118663	0.073497	0.073240	296.292	46154.1	0.068682	0.158767	1866.2	105829
647	2.000000	1.128876	7.37139e+06	-44739.1	1005.82	-29774.9	0.000000	0.000000	7.143856	371.972	NaN	0.000000	0.001587	0.001667	28.0834	86.8574	0.001753	49543.8	5.119625	170.993	371.622	1.128491	0.083453	0.083068	371.972	49543.8	0.077822	0.197356	1884.78	101891
647	2.000000	1.138896	7.37139e+06	-44739.1	1005.82	-29774.9	0.000000	0.000000	7.157119	450.846	NaN	0.000000	0.001665	0.001650	28.0822	95.6666	0.001796	53258.8	4.606816	170.549	450.75	1.138539	0.093474	0.093116	450.846	53258.8	0.087125	0.240642	1873.51	99192.5
647	2.000000	1.148896	7.37139e+06	-44739.1	1005.82	-29774.9	0.000000	0.000000	7.170404	530.783	NaN	0.000000	0.001649	0.001663	28.0819	106.981	0.001808	59159.1	5.110250	169.814	534.171	1.148573	0.103473	0.103150	530.783	59159.1	0.096744	0.289594	1832.85	100438
647	2.000000	1.149272	7.37139e+06	-44739.1	1005.82	-29774.9	0.000000	0.000000	7.171003	536.207	NaN	0.000000	0.001621	0.001678	28.082	106.088	0.001751	60593.2	1.802033	-6.999402	529.218	1.149031	0.103849	0.103608	536.207	60593.2	0.097212	0.292084	1835.8	102434