File: remote_trans/data/nanoindenter/0828-1/data/Data_2025-08-06,11h17m57s/2025-07-22_16-23-58_1_1187.txt
2025-07-22, 16:23:58, 1
Index	Phase	Displacement	Time	Pos X	Pos Y	Pos Z	Rot A	Rot B	Piezo Z	Force A	Force B	Gripper	Voltage A	Voltage B	Temperature	Amplitude force	Amplitude pos	Stiffness	Phase shift	Phase excitation	Force A raw	Displacement raw	HMax	HMax raw	Real Force	Real Stiffness	Contact Depth	Area	Hardness	Reduced Mod.
[#]	[#]	[um]	[s]	[um]	[um]	[um]	[m°]	[m°]	[um]	[uN]	[uN]	[V]	[V]	[V]	[°C]	[uN]	[um]	[N/m]	[°]	[°]	[uN]	[um]	[um]	[um]	[uN]	[N/m]	[um]	[um^2]	[MPa]	[MPa]
1187	1.000000	0.002354	7.37665e+06	-56239.1	1105.82	-29739.3	0.000000	0.000000	6.002791	0.001328	NaN	0.000000	0.001569	0.001637	28.0815	0.086036	0.000948	90.7189	118.864	-158.311	-0.033562	0.001110	-1.121053	-1.122297	0.001328	90.7189	-1.121064	-9.610571E+14	-1.381751E-18	NaN
1187	1.000000	0.044339	7.37665e+06	-56239.1	1105.82	-29739.3	0.000000	0.000000	6.044772	-0.113336	NaN	0.000000	0.001587	0.001656	28.0816	0.059550	0.002008	29.6556	145.897	15.62	-0.074976	0.042971	-1.079068	-1.080436	-0.113336	29.6556	-1.076201	-2.401579E+14	4.719235E-16	NaN
1187	1.000000	0.086343	7.37666e+06	-56239.1	1105.82	-29739.3	0.000000	0.000000	6.086775	-0.122868	NaN	0.000000	0.001588	0.001620	28.0826	0.063634	0.002019	31.5216	125.146	-162.465	-0.076940	0.085054	-1.037064	-1.038353	-0.122868	31.5216	-1.034141	-6.533900E+13	1.880469E-15	NaN
1187	1.000000	0.128331	7.37666e+06	-56239.1	1105.82	-29739.3	0.000000	0.000000	6.128768	-0.012029	NaN	0.000000	0.001577	0.001650	28.0826	0.029678	0.002013	14.7417	165.519	16.1298	-0.034839	0.126969	-0.995076	-0.996437	-0.012029	14.7417	-0.994464	-1.910871E+13	6.294973E-16	NaN
1187	1.000000	0.170368	7.37666e+06	-56239.1	1105.82	-29739.3	0.000000	0.000000	6.170801	-0.105307	NaN	0.000000	0.001567	0.001640	28.0821	0.113752	0.002029	56.0628	167.41	-165.702	-0.096611	0.169049	-0.953039	-0.954358	-0.105307	56.0628	-0.951630	-5.058420E+12	2.081811E-14	NaN
1187	1.000000	0.212383	7.37666e+06	-56239.1	1105.82	-29739.3	0.000000	0.000000	6.212820	0.007321	NaN	0.000000	0.001614	0.001670	28.0824	0.047226	0.001967	24.0044	-92.46	15.7784	-0.022378	0.211006	-0.911024	-0.912400	0.007321	24.0044	-0.911253	-1.442403E+12	-5.075460E-15	NaN
1187	1.000000	0.254353	7.37666e+06	-56239.1	1105.82	-29739.3	0.000000	0.000000	6.254788	-0.065763	NaN	0.000000	0.001593	0.001646	28.0816	0.060843	0.002005	30.3397	23.4031	-163.433	-0.108540	0.253082	-0.869053	-0.870324	-0.065763	30.3397	-0.867428	-3.686723E+11	1.783773E-13	NaN
1187	1.000000	0.296445	7.37666e+06	-56239.1	1105.82	-29739.3	0.000000	0.000000	6.296878	-0.117055	NaN	0.000000	0.001591	0.001624	28.0814	0.056765	0.002088	27.1861	-58.5562	15.4773	-0.151179	0.295018	-0.826961	-0.828389	-0.117055	27.1861	-0.823732	-9.436621E+10	1.240436E-12	NaN
1187	1.000000	0.338429	7.37666e+06	-56239.1	1105.82	-29739.3	0.000000	0.000000	6.338860	-0.172966	NaN	0.000000	0.001635	0.001634	28.0814	0.158177	0.001929	82.0031	82.2707	-163.226	-0.089135	0.337108	-0.784978	-0.786299	-0.172966	82.0031	-0.783396	-2.675287E+10	6.465318E-12	NaN
1187	1.000000	0.380437	7.37666e+06	-56239.1	1105.82	-29739.3	0.000000	0.000000	6.380870	-0.092995	NaN	0.000000	0.001605	0.001655	28.0825	0.044719	0.001885	23.7195	-68.7508	14.2656	-0.076522	0.379066	-0.742970	-0.744341	-0.092995	23.7195	-0.740030	-6.877939E+9	1.352074E-11	NaN
1187	1.000000	0.422481	7.37666e+06	-56239.1	1105.82	-29739.3	0.000000	0.000000	6.422917	-0.037456	NaN	0.000000	0.001570	0.001602	28.0824	0.064118	0.001975	32.4664	131.232	-163.029	-0.049471	0.421234	-0.700925	-0.702173	-0.037456	32.4664	-0.700060	-1.960437E+9	1.910618E-11	NaN
1187	1.000000	0.464467	7.37666e+06	-56239.1	1105.82	-29739.3	0.000000	0.000000	6.464901	-0.059477	NaN	0.000000	0.001672	0.001640	28.0824	0.103433	0.001908	54.2128	8.020920	18.0011	0.001837	0.463128	-0.658940	-0.660279	-0.059477	54.2128	-0.658117	-5.232153E+8	1.136768E-10	NaN
1187	1.000000	0.506499	7.37666e+06	-56239.1	1105.82	-29739.3	0.000000	0.000000	6.506934	-0.071544	NaN	0.000000	0.001662	0.001622	28.0813	0.052479	0.002031	25.8451	-22.6182	-164.716	-0.139040	0.505232	-0.616908	-0.618175	-0.071544	25.8451	-0.614831	-1.332209E+8	5.370362E-10	NaN
1187	1.000000	0.548508	7.37666e+06	-56239.1	1105.82	-29739.3	0.000000	0.000000	6.548943	-0.064593	NaN	0.000000	0.001687	0.001620	28.0813	0.081071	0.001895	42.7872	-145.511	14.6733	-0.053248	0.547129	-0.574899	-0.576278	-0.064593	42.7872	-0.573767	-3.619645E+7	1.784499E-9	NaN
1187	1.000000	0.590519	7.37666e+06	-56239.1	1105.82	-29739.3	0.000000	0.000000	6.590954	-0.068726	NaN	0.000000	0.001693	0.001634	28.0811	0.022560	0.002060	10.9538	-55.2228	-170.133	-0.083241	0.589291	-0.532887	-0.534116	-0.068726	10.9538	-0.528182	-8.45904e+06	8.124527E-9	NaN
1187	1.000000	0.632563	7.37666e+06	-56239.1	1105.82	-29739.3	0.000000	0.000000	6.632998	-0.059535	NaN	0.000000	0.001666	0.001640	28.0824	0.061568	0.002053	29.9952	148.519	14.1379	-0.075228	0.631171	-0.490844	-0.492236	-0.059535	29.9952	-0.489355	-2.43434e+06	2.445621E-8	NaN
1187	1.000000	0.674546	7.37666e+06	-56239.1	1105.82	-29739.3	0.000000	0.000000	6.674981	-0.059247	NaN	0.000000	0.001677	0.001649	28.0823	0.063681	0.001906	33.4099	132.014	-166.97	-0.051395	0.673263	-0.448860	-0.450144	-0.059247	33.4099	-0.447530	-630313	9.399633E-8	NaN
1187	1.000000	0.716580	7.37666e+06	-56239.1	1105.82	-29739.3	0.000000	0.000000	6.717014	-0.083121	NaN	0.000000	0.001666	0.001641	28.0822	0.067613	0.001961	34.4743	-49.0797	17.5378	-0.118875	0.715298	-0.406826	-0.408109	-0.083121	34.4743	-0.405018	-157582	5.274774E-7	NaN
1187	1.000000	0.758594	7.37666e+06	-56239.1	1105.82	-29739.3	0.000000	0.000000	6.759029	-0.065996	NaN	0.000000	0.001604	0.001615	28.0823	0.080101	0.002003	39.9817	141.875	-167.421	-0.108620	0.757272	-0.364813	-0.366135	-0.065996	39.9817	-0.363575	-40131.8	1.644477E-6	NaN
1187	1.000000	0.800602	7.37666e+06	-56239.1	1105.82	-29739.3	0.000000	0.000000	6.801035	-0.092444	NaN	0.000000	0.001615	0.001590	28.081	0.100781	0.001898	53.0955	-168.646	13.5373	-0.052332	0.799283	-0.322805	-0.324124	-0.092444	53.0955	-0.321499	-9788.11	9.444497E-6	NaN
1187	1.000000	0.842636	7.37666e+06	-56239.1	1105.82	-29739.3	0.000000	0.000000	6.843069	-0.108403	NaN	0.000000	0.001680	0.001606	28.0809	0.029315	0.001935	15.1509	-19.8758	-165.419	-0.080766	0.841318	-0.280770	-0.282089	-0.108403	15.1509	-0.275404	-2011.5	5.389161E-5	NaN
1187	1.000000	0.884676	7.37666e+06	-56239.1	1105.82	-29739.3	0.000000	0.000000	6.885111	-0.060834	NaN	0.000000	0.001642	0.001648	28.081	0.094073	0.001937	48.5683	-78.1623	14.1347	-0.094761	0.883325	-0.238731	-0.240082	-0.060834	48.5683	-0.237791	-530.901	0.000115	NaN
1187	1.000000	0.926676	7.37666e+06	-56239.1	1105.82	-29739.3	0.000000	0.000000	6.927108	-0.122796	NaN	0.000000	0.001652	0.001589	28.0826	0.051177	0.001990	25.7125	88.8218	-166.198	-0.108521	0.925364	-0.196731	-0.198042	-0.122796	25.7125	-0.193149	-101.508	0.001210	NaN
1187	1.000000	0.968708	7.37666e+06	-56239.1	1105.82	-29739.3	0.000000	0.000000	6.969144	-0.040592	NaN	0.000000	0.001638	0.001630	28.0825	0.082553	0.001936	42.6505	-42.9132	16.9176	-0.038055	0.967343	-0.154698	-0.156064	-0.040592	42.6505	-0.153985	-21.3937	0.001897	NaN
1187	1.000000	1.010713	7.37666e+06	-56239.1	1105.82	-29739.3	0.000000	0.000000	7.011154	0.102511	NaN	0.000000	0.001682	0.001652	28.0825	0.144283	0.002110	68.3685	31.0834	-163.528	0.028506	1.009449	-0.112694	-0.113958	0.102511	68.3685	-0.113819	-3.611527	-0.028384	NaN
1187	1.000000	1.052724	7.37666e+06	-56239.1	1105.82	-29739.3	0.000000	0.000000	7.053229	1.643710	NaN	0.000000	0.001638	0.001736	28.0812	0.613951	0.001966	312.286	12.5789	9.791373	1.596512	1.051364	-0.070683	-0.072043	1.643710	312.286	-0.074631	-0.451807	-3.638078	NaN
1187	1.000000	1.094732	7.37666e+06	-56239.1	1105.82	-29739.3	0.000000	0.000000	7.095307	3.342590	NaN	0.000000	0.001589	0.001689	28.0812	1.046057	0.001956	534.787	25.9585	-169.703	3.284367	1.093479	-0.028675	-0.029928	3.342590	534.787	-0.033362	-0.028683	-116.537	NaN
1187	2.000000	1.127816	7.37666e+06	-56239.1	1105.82	-29739.3	0.000000	0.000000	7.128750	12.0548	NaN	0.000000	0.001577	0.001796	28.0808	10.0914	0.001742	5794.02	5.491999	7.883170	11.05	1.127421	0.004409	0.004015	12.0548	5794.02	0.002849	0.002253	5350.11	111521
1187	2.000000	1.138258	7.37666e+06	-56239.1	1105.82	-29739.3	0.000000	0.000000	7.139927	29.9322	NaN	0.000000	0.001598	0.001717	28.0822	20.8798	0.001798	11613.9	6.788908	-178.507	29.8002	1.137971	0.014851	0.014564	29.9322	11613.9	0.012918	0.012609	2373.92	94496.9
1187	2.000000	1.148738	7.37666e+06	-56239.1	1105.82	-29739.3	0.000000	0.000000	7.151411	54.334	NaN	0.000000	0.001528	0.001709	28.0824	28.8321	0.001707	16887.7	3.482591	0.917903	52.8729	1.148432	0.025331	0.025025	54.334	16887.7	0.022918	0.027337	1987.55	93318.2
1187	2.000000	1.159187	7.37666e+06	-56239.1	1105.82	-29739.3	0.000000	0.000000	7.163118	84.9377	NaN	0.000000	0.001570	0.001738	28.0834	39.5648	0.001761	22473.3	7.258905	175.071	83.2934	1.158879	0.035780	0.035472	84.9377	22473.3	0.032945	0.047070	1804.52	94639.2
1187	2.000000	1.169684	7.37666e+06	-56239.1	1105.82	-29739.3	0.000000	0.000000	7.175171	122.732	NaN	0.000000	0.001585	0.001741	28.0826	48.6462	0.001765	27554.4	3.476024	-3.220738	119.767	1.169476	0.046277	0.046069	122.732	27554.4	0.042937	0.071838	1708.45	93926.3
1187	2.000000	1.180159	7.37666e+06	-56239.1	1105.82	-29739.3	0.000000	0.000000	7.187734	173.482	NaN	0.000000	0.001554	0.001693	28.0813	60.0716	0.001784	33680.7	7.231748	171.496	172.44	1.179935	0.056752	0.056528	173.482	33680.7	0.052889	0.101553	1708.29	96562.5
1187	2.000000	1.190669	7.37666e+06	-56239.1	1105.82	-29739.3	0.000000	0.000000	7.200467	227.544	NaN	0.000000	0.001590	0.001758	28.0811	68.7665	0.001759	39084.8	3.169326	-6.250786	225.524	1.190443	0.067262	0.067036	227.544	39084.8	0.062896	0.136396	1668.26	96690
1187	2.000000	1.201137	7.37666e+06	-56239.1	1105.82	-29739.3	0.000000	0.000000	7.213475	289.282	NaN	0.000000	0.001569	0.001707	28.0813	78.7808	0.001711	46053.3	1.899563	173.826	286.982	1.200970	0.077730	0.077563	289.282	46053.3	0.073019	0.176585	1638.2	100128
1187	2.000000	1.211655	7.37666e+06	-56239.1	1105.82	-29739.3	0.000000	0.000000	7.227323	370.194	NaN	0.000000	0.001575	0.001719	28.0823	88.4183	0.001718	51469.2	2.992453	-7.161687	365.402	1.211267	0.088248	0.087860	370.194	51469.2	0.082854	0.220271	1680.63	100194
1187	2.000000	1.222124	7.37666e+06	-56239.1	1105.82	-29739.3	0.000000	0.000000	7.240976	447.62	NaN	0.000000	0.001544	0.001726	28.0822	99.6227	0.001877	53084.6	6.398307	169.057	445.984	1.221792	0.098717	0.098385	447.62	53084.6	0.092393	0.266925	1676.95	93874.6
1187	2.000000	1.223154	7.37666e+06	-56239.1	1105.82	-29739.3	0.000000	0.000000	7.242402	457.216	NaN	0.000000	0.001537	0.001727	28.0823	98.93	0.001680	58876	4.102661	170.48	455.845	1.222756	0.099747	0.099349	457.216	58876	0.093923	0.274798	1663.82	102613