File: remote_trans/data/nanoindenter/0828-1/data/Data_2025-08-06,11h17m57s/2025-07-22_16-23-58_1_631.txt
2025-07-22, 16:23:58, 1
Index	Phase	Displacement	Time	Pos X	Pos Y	Pos Z	Rot A	Rot B	Piezo Z	Force A	Force B	Gripper	Voltage A	Voltage B	Temperature	Amplitude force	Amplitude pos	Stiffness	Phase shift	Phase excitation	Force A raw	Displacement raw	HMax	HMax raw	Real Force	Real Stiffness	Contact Depth	Area	Hardness	Reduced Mod.
[#]	[#]	[um]	[s]	[um]	[um]	[um]	[m°]	[m°]	[um]	[uN]	[uN]	[V]	[V]	[V]	[°C]	[uN]	[um]	[N/m]	[°]	[°]	[uN]	[um]	[um]	[um]	[uN]	[N/m]	[um]	[um^2]	[MPa]	[MPa]
631	1.000000	0.002579	7.37122e+06	-45539.1	1005.82	-29772.1	0.000000	0.000000	6.002795	0.051098	NaN	0.000000	0.001545	0.001768	28.0823	0.045791	0.000940	48.7393	117.117	-162.937	0.118500	0.001319	-1.035506	-1.036766	0.051098	48.7393	-1.036292	-6.983987E+13	-7.316436E-16	NaN
631	1.000000	0.042528	7.37122e+06	-45539.1	1005.82	-29772.1	0.000000	0.000000	6.042743	0.018842	NaN	0.000000	0.001624	0.001772	28.0827	0.081649	0.001979	41.2537	-89.5514	-167.538	-0.073885	0.041211	-0.995556	-0.996873	0.018842	41.2537	-0.995899	-1.997782E+13	-9.431478E-16	NaN
631	1.000000	0.082565	7.37122e+06	-45539.1	1005.82	-29772.1	0.000000	0.000000	6.082777	-0.067647	NaN	0.000000	0.001661	0.001732	28.0821	0.054946	0.002150	25.559	-75.7917	-165.027	-0.116997	0.081258	-0.955519	-0.956827	-0.067647	25.559	-0.953534	-5.366463E+12	1.260545E-14	NaN
631	1.000000	0.122539	7.37122e+06	-45539.1	1005.82	-29772.1	0.000000	0.000000	6.122752	-0.045949	NaN	0.000000	0.001586	0.001705	28.0834	0.049847	0.002128	23.4233	29.3485	-166.271	0.038756	0.121243	-0.915545	-0.916841	-0.045949	23.4233	-0.914074	-1.574645E+12	2.918027E-14	NaN
631	1.000000	0.162578	7.37122e+06	-45539.1	1005.82	-29772.1	0.000000	0.000000	6.162793	0.001695	NaN	0.000000	0.001629	0.001704	28.0829	0.142308	0.001967	72.3464	-32.3114	-162.111	0.031224	0.161267	-0.875506	-0.876817	0.001695	72.3464	-0.875524	-4.744230E+11	-3.573443E-15	NaN
631	1.000000	0.202590	7.37122e+06	-45539.1	1005.82	-29772.1	0.000000	0.000000	6.202805	0.028475	NaN	0.000000	0.001634	0.001708	28.0832	0.025146	0.001953	12.876	86.1281	-163.419	-0.034652	0.201303	-0.835495	-0.836781	0.028475	12.876	-0.837153	-1.434580E+11	-1.984926E-13	NaN
631	1.000000	0.242630	7.37122e+06	-45539.1	1005.82	-29772.1	0.000000	0.000000	6.242842	-0.059786	NaN	0.000000	0.001651	0.001715	28.0816	0.021435	0.001996	10.7395	-65.4266	-172.471	-0.000525	0.241327	-0.795455	-0.796758	-0.059786	10.7395	-0.791279	-3.423410E+10	1.746380E-12	NaN
631	1.000000	0.282630	7.37122e+06	-45539.1	1005.82	-29772.1	0.000000	0.000000	6.282844	-0.006390	NaN	0.000000	0.001635	0.001700	28.0819	0.014242	0.001910	7.456672	33.4979	-164.372	-0.076271	0.281334	-0.755454	-0.756750	-0.006390	7.456672	-0.754811	-1.093215E+10	5.845363E-13	NaN
631	1.000000	0.322630	7.37122e+06	-45539.1	1005.82	-29772.1	0.000000	0.000000	6.322844	-0.024948	NaN	0.000000	0.001592	0.001706	28.0817	0.023316	0.002092	11.1457	-161.329	-163.777	0.003211	0.321325	-0.715454	-0.716759	-0.024948	11.1457	-0.713775	-3.016923E+9	8.269195E-12	NaN
631	1.000000	0.362640	7.37123e+06	-45539.1	1005.82	-29772.1	0.000000	0.000000	6.362856	0.040259	NaN	0.000000	0.001593	0.001711	28.0829	0.067851	0.001934	35.0811	-61.4164	-164.148	-0.096345	0.361320	-0.675444	-0.676764	0.040259	35.0811	-0.676305	-9.282462E+8	-4.337125E-11	NaN
631	1.000000	0.402683	7.37123e+06	-45539.1	1005.82	-29772.1	0.000000	0.000000	6.402896	-0.025475	NaN	0.000000	0.001587	0.001709	28.083	0.070481	0.001992	35.3765	-152.088	-165.258	-0.070684	0.401338	-0.635402	-0.636747	-0.025475	35.3765	-0.634861	-2.510557E+8	1.014703E-10	NaN
631	1.000000	0.442708	7.37123e+06	-45539.1	1005.82	-29772.1	0.000000	0.000000	6.442919	-0.084890	NaN	0.000000	0.001591	0.001721	28.0829	0.156260	0.001996	78.2988	155.912	-167.288	-0.018646	0.441399	-0.595376	-0.596686	-0.084890	78.2988	-0.594563	-7.007512E+7	1.211414E-9	NaN
631	1.000000	0.482727	7.37123e+06	-45539.1	1005.82	-29772.1	0.000000	0.000000	6.482940	-0.023387	NaN	0.000000	0.001562	0.001720	28.0829	0.047003	0.002226	21.1199	-28.5636	-163.129	-0.024486	0.481424	-0.555357	-0.556661	-0.023387	21.1199	-0.554527	-1.961727E+7	1.192149E-9	NaN
631	1.000000	0.522740	7.37123e+06	-45539.1	1005.82	-29772.1	0.000000	0.000000	6.522956	0.036150	NaN	0.000000	0.001613	0.001716	28.0816	0.080517	0.002079	38.7207	-169.94	-170.195	0.018084	0.521442	-0.515345	-0.516642	0.036150	38.7207	-0.516045	-5.73552e+06	-6.302779E-9	NaN
631	1.000000	0.562728	7.37123e+06	-45539.1	1005.82	-29772.1	0.000000	0.000000	6.562940	-0.067992	NaN	0.000000	0.001642	0.001729	28.0815	0.083582	0.002021	41.3539	-143.038	-164.78	-0.072622	0.561456	-0.475356	-0.476628	-0.067992	41.3539	-0.474123	-1.4901e+06	4.562891E-8	NaN
631	1.000000	0.602750	7.37123e+06	-45539.1	1005.82	-29772.1	0.000000	0.000000	6.602963	-0.020564	NaN	0.000000	0.001602	0.001719	28.082	0.093261	0.002024	46.0677	139.71	-167.332	0.017995	0.601442	-0.435335	-0.436643	-0.020564	46.0677	-0.435000	-419522	4.901880E-8	NaN
631	1.000000	0.642768	7.37123e+06	-45539.1	1005.82	-29772.1	0.000000	0.000000	6.642981	-0.016586	NaN	0.000000	0.001629	0.001708	28.083	0.003197	0.002079	1.537523	44.5709	-165.024	0.038703	0.641460	-0.395317	-0.396625	-0.016586	1.537523	-0.387226	-87795.3	1.889172E-7	NaN
631	1.000000	0.682810	7.37123e+06	-45539.1	1005.82	-29772.1	0.000000	0.000000	6.683023	-0.021621	NaN	0.000000	0.001609	0.001726	28.0829	0.041959	0.001926	21.789	40.0285	-163.351	0.034333	0.681466	-0.355275	-0.356619	-0.021621	21.789	-0.354531	-29696	7.280811E-7	NaN
631	1.000000	0.722802	7.37123e+06	-45539.1	1005.82	-29772.1	0.000000	0.000000	6.723016	-0.008504	NaN	0.000000	0.001592	0.001683	28.0829	0.117893	0.001979	59.561	158.678	-165.294	0.057761	0.721520	-0.315282	-0.316565	-0.008504	59.561	-0.315175	-7898.29	1.076628E-6	NaN
631	1.000000	0.762856	7.37123e+06	-45539.1	1005.82	-29772.1	0.000000	0.000000	6.763070	-0.006461	NaN	0.000000	0.001620	0.001716	28.083	0.092478	0.001899	48.6921	-50.7134	-165.625	0.069096	0.761507	-0.275229	-0.276578	-0.006461	48.6921	-0.275129	-1992.29	3.243035E-6	NaN
631	1.000000	0.802868	7.37123e+06	-45539.1	1005.82	-29772.1	0.000000	0.000000	6.803082	-0.019909	NaN	0.000000	0.001619	0.001681	28.0822	0.133052	0.002025	65.6904	83.3879	-166.766	-0.011121	0.801540	-0.235216	-0.236544	-0.019909	65.6904	-0.234989	-479.819	4.149337E-5	NaN
631	1.000000	0.842882	7.37123e+06	-45539.1	1005.82	-29772.1	0.000000	0.000000	6.843095	-0.032732	NaN	0.000000	0.001632	0.001699	28.0817	0.017376	0.002084	8.339316	-75.1946	-168.604	-0.011383	0.841516	-0.195203	-0.196568	-0.032732	8.339316	-0.192259	-98.1048	0.000334	NaN
631	1.000000	0.882874	7.37123e+06	-45539.1	1005.82	-29772.1	0.000000	0.000000	6.883087	-0.033578	NaN	0.000000	0.001623	0.001657	28.0818	0.067994	0.001955	34.7745	-114.643	-163.991	-0.005114	0.881603	-0.155211	-0.156481	-0.033578	34.7745	-0.154486	-21.844	0.001537	NaN
631	1.000000	0.922878	7.37123e+06	-45539.1	1005.82	-29772.1	0.000000	0.000000	6.923093	0.012175	NaN	0.000000	0.001587	0.001670	28.0833	0.108692	0.002023	53.725	151.629	-165.136	-0.073184	0.921626	-0.115206	-0.116458	0.012175	53.725	-0.115376	-3.889181	-0.003131	NaN
631	1.000000	0.962917	7.37123e+06	-45539.1	1005.82	-29772.1	0.000000	0.000000	6.963132	0.038345	NaN	0.000000	0.001620	0.001707	28.0831	0.080643	0.001874	43.024	-92.6666	-168.5	0.042398	0.961576	-0.075168	-0.076509	0.038345	43.024	-0.075836	-0.485395	-0.078997	NaN
631	1.000000	1.002940	7.37123e+06	-45539.1	1005.82	-29772.1	0.000000	0.000000	7.003154	0.013987	NaN	0.000000	0.001563	0.001705	28.0831	0.084677	0.001926	43.9569	-59.4684	-167.517	-0.007475	1.001672	-0.035145	-0.036412	0.013987	43.9569	-0.035384	-0.032870	-0.425528	NaN
631	1.000000	1.042918	7.37123e+06	-45539.1	1005.82	-29772.1	0.000000	0.000000	7.043365	5.657780	NaN	0.000000	0.001634	0.001681	28.0817	5.929349	0.001815	3266.22	11.7656	-171.191	4.083909	1.041579	0.004833	0.003494	5.657780	3266.22	0.003534	0.002834	1996.15	56052.2
631	2.000000	1.054547	7.37123e+06	-45539.1	1005.82	-29772.1	0.000000	0.000000	7.055850	26.4902	NaN	0.000000	0.001616	0.001709	28.0813	18.3232	0.001827	10029.2	5.273056	-175.5	24.5556	1.054315	0.016462	0.016230	26.4902	10029.2	0.014481	0.014600	1814.39	75833.8
631	2.000000	1.064540	7.37123e+06	-45539.1	1005.82	-29772.1	0.000000	0.000000	7.066995	54.4849	NaN	0.000000	0.001628	0.001672	28.0815	28.2019	0.001818	15516.4	2.318763	-176.15	52.8627	1.064262	0.026456	0.026177	54.4849	15516.4	0.023822	0.028908	1884.76	83378.5
631	2.000000	1.074562	7.37123e+06	-45539.1	1005.82	-29772.1	0.000000	0.000000	7.078669	94.7013	NaN	0.000000	0.001620	0.001736	28.082	38.2666	0.001764	21695.4	4.065399	-179.369	95.9853	1.074182	0.036477	0.036098	94.7013	21695.4	0.033204	0.047646	1987.61	90808.9
631	2.000000	1.084544	7.37123e+06	-45539.1	1005.82	-29772.1	0.000000	0.000000	7.090471	138.976	NaN	0.000000	0.001604	0.001726	28.0836	49.1477	0.001917	25642.6	6.969139	176.076	139.795	1.084157	0.046460	0.046073	138.976	25642.6	0.042395	0.070364	1975.11	88320.3
631	2.000000	1.094517	7.37123e+06	-45539.1	1005.82	-29772.1	0.000000	0.000000	7.102811	196.555	NaN	0.000000	0.001591	0.001715	28.0834	59.2464	0.001862	31813.7	5.771989	174.897	196.749	1.094168	0.056433	0.056083	196.555	31813.7	0.051799	0.098054	2004.56	92822.8
631	2.000000	1.104501	7.37123e+06	-45539.1	1005.82	-29772.1	0.000000	0.000000	7.115343	258.517	NaN	0.000000	0.001588	0.001715	28.0833	68.8256	0.001782	38631.9	3.569442	174.425	257.134	1.104205	0.066417	0.066120	258.517	38631.9	0.061398	0.130870	1975.38	97566.3
631	2.000000	1.114402	7.37123e+06	-45539.1	1005.82	-29772.2	0.000000	0.000000	7.128581	339.718	NaN	0.000000	0.001611	0.001717	28.0821	79.1913	0.001717	46133.8	1.317789	176.015	335.158	1.114180	0.076318	0.076096	339.718	46133.8	0.070795	0.167336	2030.16	103038
631	2.000000	1.124349	7.37123e+06	-45539.1	1005.82	-29772.2	0.000000	0.000000	7.141538	412.937	NaN	0.000000	0.001593	0.001711	28.0817	90.303	0.001780	50743.1	1.402851	175.186	406.841	1.124203	0.086264	0.086119	412.937	50743.1	0.080161	0.207860	1986.62	101687
631	2.000000	1.134361	7.37123e+06	-45539.1	1005.82	-29772.2	0.000000	0.000000	7.155094	499.159	NaN	0.000000	0.001589	0.001719	28.082	99.8586	0.001830	54574.9	5.435294	170.68	494.6	1.134176	0.096276	0.096091	499.159	54574.9	0.089417	0.251920	1981.42	99342.6
631	2.000000	1.143981	7.37123e+06	-45539.1	1005.82	-29772.2	0.000000	0.000000	7.168360	587.86	NaN	0.000000	0.001575	0.001703	28.082	109.411	0.001775	61651.7	2.030623	-6.419090	585.17	1.143647	0.105896	0.105563	587.86	61651.7	0.098745	0.300306	1957.54	102787