File: remote_trans/data/nanoindenter/0828-1/data/Data_2025-08-06,11h17m57s/2025-07-22_16-23-58_1_244.txt
2025-07-22, 16:23:58, 1
Index	Phase	Displacement	Time	Pos X	Pos Y	Pos Z	Rot A	Rot B	Piezo Z	Force A	Force B	Gripper	Voltage A	Voltage B	Temperature	Amplitude force	Amplitude pos	Stiffness	Phase shift	Phase excitation	Force A raw	Displacement raw	HMax	HMax raw	Real Force	Real Stiffness	Contact Depth	Area	Hardness	Reduced Mod.
[#]	[#]	[um]	[s]	[um]	[um]	[um]	[m°]	[m°]	[um]	[uN]	[uN]	[V]	[V]	[V]	[°C]	[uN]	[um]	[N/m]	[°]	[°]	[uN]	[um]	[um]	[um]	[uN]	[N/m]	[um]	[um^2]	[MPa]	[MPa]
244	1.000000	0.002237	7.36743e+06	-50839.1	955.819	-29754.7	0.000000	0.000000	6.002798	0.013738	NaN	0.000000	0.001553	0.001705	28.0777	0.038918	0.000993	39.1842	-80.8067	-162.423	0.039181	0.000954	-1.069534	-1.070817	0.013738	39.1842	-1.069797	-1.969955E+14	-6.973685E-17	NaN
244	1.000000	0.042190	7.36743e+06	-50839.1	955.819	-29754.7	0.000000	0.000000	6.042751	0.014954	NaN	0.000000	0.001628	0.001695	28.0792	0.049862	0.001906	26.1582	174.135	-165.774	0.071245	0.040828	-1.029581	-1.030943	0.014954	26.1582	-1.030010	-5.749243E+13	-2.601064E-16	NaN
244	1.000000	0.082215	7.36743e+06	-50839.1	955.818	-29754.7	0.000000	0.000000	6.082776	0.031642	NaN	0.000000	0.001578	0.001687	28.0793	0.037088	0.001960	18.9206	145.864	-166.143	0.035146	0.080918	-0.989556	-0.990853	0.031642	18.9206	-0.990810	-1.706176E+13	-1.854537E-15	NaN
244	1.000000	0.122183	7.36743e+06	-50839.1	955.819	-29754.7	0.000000	0.000000	6.122745	0.069572	NaN	0.000000	0.001574	0.001716	28.0789	0.065451	0.002041	32.065	141.187	-166.522	0.084164	0.120919	-0.949588	-0.950852	0.069572	32.065	-0.951216	-4.993709E+12	-1.393185E-14	NaN
244	1.000000	0.162235	7.36743e+06	-50839.1	955.818	-29754.7	0.000000	0.000000	6.162795	0.016572	NaN	0.000000	0.001652	0.001706	28.0792	0.108115	0.001959	55.1876	-162.461	-165.202	-0.018561	0.160949	-0.909536	-0.910822	0.016572	55.1876	-0.909762	-1.377031E+12	-1.203478E-14	NaN
244	1.000000	0.202237	7.36743e+06	-50839.1	955.819	-29754.7	0.000000	0.000000	6.202799	0.038387	NaN	0.000000	0.001655	0.001697	28.0779	0.019195	0.001980	9.695095	37.1314	-168.704	0.089491	0.200978	-0.869534	-0.870793	0.038387	9.695095	-0.872503	-4.318259E+11	-8.889352E-14	NaN
244	1.000000	0.242247	7.36743e+06	-50839.1	955.818	-29754.7	0.000000	0.000000	6.242806	-0.032344	NaN	0.000000	0.001582	0.001675	28.0779	0.032188	0.002201	14.6266	63.0864	-163.824	-0.048342	0.240934	-0.829524	-0.830837	-0.032344	14.6266	-0.827865	-1.073616E+11	3.012644E-13	NaN
244	1.000000	0.282306	7.36743e+06	-50839.1	955.819	-29754.7	0.000000	0.000000	6.282867	0.010494	NaN	0.000000	0.001574	0.001646	28.0781	0.093266	0.001995	46.7527	-89.3504	-168.243	0.043793	0.280956	-0.789465	-0.790815	0.010494	46.7527	-0.789633	-3.251605E+10	-3.227270E-13	NaN
244	1.000000	0.322277	7.36743e+06	-50839.1	955.819	-29754.7	0.000000	0.000000	6.322838	0.018391	NaN	0.000000	0.001612	0.001646	28.079	0.047559	0.001920	24.7756	178.035	-165.047	0.073963	0.320958	-0.749494	-0.750813	0.018391	24.7756	-0.750051	-9.416989E+9	-1.952988E-12	NaN
244	1.000000	0.362314	7.36743e+06	-50839.1	955.819	-29754.7	0.000000	0.000000	6.362874	0.004699	NaN	0.000000	0.001570	0.001678	28.0788	0.089041	0.001952	45.6117	-168.67	-167.976	0.040177	0.361057	-0.709457	-0.710714	0.004699	45.6117	-0.709534	-2.640530E+9	-1.779392E-12	NaN
244	1.000000	0.402367	7.36743e+06	-50839.1	955.819	-29754.7	0.000000	0.000000	6.402924	-0.072751	NaN	0.000000	0.001629	0.001704	28.0788	0.081465	0.002079	39.1926	84.7783	-166.209	-0.039124	0.400986	-0.669404	-0.670785	-0.072751	39.1926	-0.668012	-7.147957E+8	1.017793E-10	NaN
244	1.000000	0.442367	7.36743e+06	-50839.1	955.818	-29754.7	0.000000	0.000000	6.442927	-0.019713	NaN	0.000000	0.001618	0.001653	28.0789	0.075809	0.001991	38.0771	-27.426	-166.596	0.064642	0.441048	-0.629404	-0.630723	-0.019713	38.0771	-0.629015	-2.086900E+8	9.446033E-11	NaN
244	1.000000	0.482397	7.36743e+06	-50839.1	955.819	-29754.7	0.000000	0.000000	6.482957	0.000974	NaN	0.000000	0.001635	0.001704	28.0777	0.161179	0.002017	79.9	39.9792	-167.392	0.022930	0.481040	-0.589374	-0.590731	0.000974	79.9	-0.589383	-5.945127E+7	-1.638134E-11	NaN
244	1.000000	0.522365	7.36743e+06	-50839.1	955.818	-29754.7	0.000000	0.000000	6.522927	0.056610	NaN	0.000000	0.001618	0.001681	28.0779	0.055975	0.002072	27.0155	128.141	-165.332	0.025440	0.521122	-0.549406	-0.550649	0.056610	27.0155	-0.550978	-1.751851E+7	-3.231465E-9	NaN
244	1.000000	0.562412	7.36743e+06	-50839.1	955.819	-29754.7	0.000000	0.000000	6.562974	0.031406	NaN	0.000000	0.001630	0.001697	28.0778	0.045815	0.001898	24.1374	-79.7745	-163.977	0.007032	0.561138	-0.509359	-0.510633	0.031406	24.1374	-0.510335	-4.77613e+06	-6.575647E-9	NaN
244	1.000000	0.602426	7.36744e+06	-50839.1	955.819	-29754.7	0.000000	0.000000	6.602984	-0.047342	NaN	0.000000	0.001582	0.001693	28.0788	0.088009	0.002031	43.333	-78.3667	-164.877	-0.027900	0.601108	-0.469345	-0.470663	-0.047342	43.333	-0.468526	-1.24373e+06	3.806479E-8	NaN
244	1.000000	0.642435	7.36744e+06	-50839.1	955.819	-29754.7	0.000000	0.000000	6.642997	0.046752	NaN	0.000000	0.001575	0.001735	28.0787	0.152960	0.001990	76.856	14.2211	-164.412	-0.012634	0.641050	-0.429336	-0.430721	0.046752	76.856	-0.429792	-354092	-1.320328E-7	NaN
244	1.000000	0.682466	7.36744e+06	-50839.1	955.819	-29754.7	0.000000	0.000000	6.683026	0.012046	NaN	0.000000	0.001570	0.001760	28.0786	0.031829	0.001901	16.7437	-1.480441	-169.18	-0.008473	0.681173	-0.389305	-0.390598	0.012046	16.7437	-0.389845	-95708	-1.258600E-7	NaN
244	1.000000	0.722460	7.36744e+06	-50839.1	955.819	-29754.7	0.000000	0.000000	6.723024	0.075742	NaN	0.000000	0.001603	0.001724	28.0775	0.071922	0.002010	35.7854	73.4969	-167.545	0.085452	0.721093	-0.349311	-0.350678	0.075742	35.7854	-0.350898	-26304.7	-2.879408E-6	NaN
244	1.000000	0.762480	7.36744e+06	-50839.1	955.819	-29754.7	0.000000	0.000000	6.763044	0.099811	NaN	0.000000	0.001592	0.001701	28.0776	0.021555	0.001907	11.3049	-44.3035	-165.537	0.039716	0.761153	-0.309291	-0.310618	0.099811	11.3049	-0.315913	-8098.78	-1.232416E-5	NaN
244	1.000000	0.802524	7.36744e+06	-50839.1	955.818	-29754.7	0.000000	0.000000	6.803087	0.054239	NaN	0.000000	0.001580	0.001714	28.0778	0.055321	0.002139	25.8597	87.593	-166.109	-0.024678	0.801220	-0.269247	-0.270551	0.054239	25.8597	-0.270820	-1713.95	-3.164563E-5	NaN
244	1.000000	0.842557	7.36744e+06	-50839.1	955.819	-29754.7	0.000000	0.000000	6.843121	0.082669	NaN	0.000000	0.001667	0.001713	28.0775	0.060478	0.001996	30.3036	49.1764	-166.355	0.050263	0.841199	-0.229214	-0.230572	0.082669	30.3036	-0.231260	-419.177	-0.000197	NaN
244	1.000000	0.882557	7.36744e+06	-50839.1	955.818	-29754.7	0.000000	0.000000	6.883116	-0.033765	NaN	0.000000	0.001599	0.001657	28.0788	0.093779	0.002128	44.0592	-152.836	-165.418	-0.089684	0.881206	-0.189214	-0.190565	-0.033765	44.0592	-0.188639	-85.3631	0.000396	NaN
244	1.000000	0.922560	7.36744e+06	-50839.1	955.818	-29754.7	0.000000	0.000000	6.923119	-0.028892	NaN	0.000000	0.001637	0.001658	28.0789	0.036176	0.001910	18.9375	151.086	-165.078	-0.009418	0.921185	-0.149211	-0.150586	-0.028892	18.9375	-0.148066	-16.6972	0.001730	NaN
244	1.000000	0.962594	7.36744e+06	-50839.1	955.818	-29754.7	0.000000	0.000000	6.963153	-0.024707	NaN	0.000000	0.001607	0.001684	28.0801	0.126383	0.002039	61.9738	-145.115	-169.506	-0.070007	0.961246	-0.109177	-0.110525	-0.024707	61.9738	-0.108878	-2.845508	0.008683	NaN
244	1.000000	1.002591	7.36744e+06	-50839.1	955.817	-29754.7	0.000000	0.000000	7.003152	0.026214	NaN	0.000000	0.001592	0.001704	28.0777	0.082480	0.002149	38.3834	-140.637	-165.574	0.012179	1.001246	-0.069180	-0.070525	0.026214	38.3834	-0.069692	-0.334682	-0.078324	NaN
244	1.000000	1.042586	7.36744e+06	-50839.1	955.818	-29754.7	0.000000	0.000000	7.043148	0.058610	NaN	0.000000	0.001579	0.001729	28.0776	0.051302	0.002070	24.7819	-172.494	-160.294	0.065280	1.041288	-0.029185	-0.030483	0.058610	24.7819	-0.030959	-0.024483	-2.393930	NaN
244	1.000000	1.082453	7.36744e+06	-50839.1	955.819	-29754.7	0.000000	0.000000	7.083337	7.861665	NaN	0.000000	0.001592	0.001666	28.0773	8.053512	0.001816	4435.9	13.5994	-174.373	6.060932	1.081202	0.010682	0.009431	7.861665	4435.9	0.009353	0.008471	928.028	44033
244	2.000000	1.093099	7.36744e+06	-50839.1	955.819	-29754.7	0.000000	0.000000	7.094582	22.4298	NaN	0.000000	0.001603	0.001688	28.0775	19.3835	0.001771	10942.9	4.836489	-176.892	22.038	1.092877	0.021328	0.021106	22.4298	10942.9	0.019791	0.022215	1009.69	67078.7
244	2.000000	1.103021	7.36744e+06	-50839.1	955.819	-29754.7	0.000000	0.000000	7.105496	46.5755	NaN	0.000000	0.001609	0.001655	28.079	30.0145	0.001886	15917.1	3.558067	-178.084	44.6431	1.102724	0.031250	0.030953	46.5755	15917.1	0.029055	0.038808	1200.14	73820.2
244	2.000000	1.113001	7.36744e+06	-50839.1	955.818	-29754.7	0.000000	0.000000	7.116625	74.5219	NaN	0.000000	0.001598	0.001706	28.0787	39.1382	0.001897	20632	3.848971	178.502	72.2047	1.112767	0.041230	0.040996	74.5219	20632	0.038521	0.060262	1236.64	76788.2
244	2.000000	1.123034	7.36744e+06	-50839.1	955.819	-29754.7	0.000000	0.000000	7.128222	112.532	NaN	0.000000	0.001578	0.001692	28.0787	47.6443	0.001746	27291.7	4.121774	175.499	112.633	1.122789	0.051263	0.051018	112.532	27291.7	0.048171	0.086843	1295.82	84613
244	2.000000	1.132956	7.36744e+06	-50839.1	955.82	-29754.7	0.000000	0.000000	7.140092	159.924	NaN	0.000000	0.001572	0.001718	28.0775	56.4148	0.001656	34067.5	2.640116	176.534	157.755	1.132508	0.061185	0.060737	159.924	34067.5	0.057664	0.117564	1360.31	90776.9
244	2.000000	1.142938	7.36744e+06	-50839.1	955.819	-29754.7	0.000000	0.000000	7.152298	213.986	NaN	0.000000	0.001594	0.001629	28.0775	67.8766	0.001831	37075.7	2.930220	175.2	211.004	1.142640	0.071167	0.070869	213.986	37075.7	0.066839	0.151466	1412.76	87037.1
244	2.000000	1.153009	7.36744e+06	-50839.1	955.819	-29754.7	0.000000	0.000000	7.164511	266.085	NaN	0.000000	0.001597	0.001615	28.0778	77.917	0.001784	43665.8	7.975320	169.023	267.322	1.152665	0.081238	0.080894	266.085	43665.8	0.076668	0.192264	1383.96	90984.1
244	2.000000	1.162939	7.36744e+06	-50839.1	955.819	-29754.7	0.000000	0.000000	7.177303	335.695	NaN	0.000000	0.001608	0.001682	28.0783	86.5456	0.001858	46571.6	1.538403	175.061	332.225	1.162598	0.091168	0.090827	335.695	46571.6	0.085762	0.234048	1434.3	87951.2
244	2.000000	1.173001	7.36744e+06	-50839.1	955.819	-29754.7	0.000000	0.000000	7.190353	408.341	NaN	0.000000	0.001591	0.001698	28.0792	95.5624	0.001805	52932.3	5.862496	169.693	409.445	1.172606	0.101230	0.100835	408.341	52932.3	0.095444	0.282730	1444.28	90951
244	2.000000	1.181972	7.36744e+06	-50839.1	955.82	-29754.7	0.000000	0.000000	7.202475	484.966	NaN	0.000000	0.001614	0.001691	28.0788	102.767	0.001896	54198.8	6.921718	168.696	486.447	1.181781	0.110201	0.110010	484.966	54198.8	0.103490	0.326439	1485.63	86668.6