File: remote_trans/data/nanoindenter/0828-1/data/Data_2025-08-06,11h17m57s/2025-07-22_16-23-58_1_342.txt
2025-07-22, 16:23:58, 1
Index	Phase	Displacement	Time	Pos X	Pos Y	Pos Z	Rot A	Rot B	Piezo Z	Force A	Force B	Gripper	Voltage A	Voltage B	Temperature	Amplitude force	Amplitude pos	Stiffness	Phase shift	Phase excitation	Force A raw	Displacement raw	HMax	HMax raw	Real Force	Real Stiffness	Contact Depth	Area	Hardness	Reduced Mod.
[#]	[#]	[um]	[s]	[um]	[um]	[um]	[m°]	[m°]	[um]	[uN]	[uN]	[V]	[V]	[V]	[°C]	[uN]	[um]	[N/m]	[°]	[°]	[uN]	[um]	[um]	[um]	[uN]	[N/m]	[um]	[um^2]	[MPa]	[MPa]
342	1.000000	0.002557	7.36841e+06	-55739.1	955.818	-29741.1	0.000000	0.000000	6.002828	0.032227	NaN	0.000000	0.001562	0.001710	28.0798	0.069725	0.001080	64.5365	-11.7982	-161.957	0.015155	0.001244	-1.072650	-1.073963	0.032227	64.5365	-1.073025	-2.176836E+14	-1.480439E-16	NaN
342	1.000000	0.042466	7.36841e+06	-55739.1	955.818	-29741.1	0.000000	0.000000	6.042736	0.002456	NaN	0.000000	0.001544	0.001749	28.0794	0.088575	0.002085	42.4735	168.434	-166.385	0.021646	0.041188	-1.032741	-1.034019	0.002456	42.4735	-1.032785	-6.265173E+13	-3.919841E-17	NaN
342	1.000000	0.082482	7.36841e+06	-55739.1	955.818	-29741.1	0.000000	0.000000	6.082752	-0.008815	NaN	0.000000	0.001540	0.001725	28.08	0.029615	0.001931	15.3403	43.4971	-164.701	-0.024946	0.081159	-0.992724	-0.994048	-0.008815	15.3403	-0.992293	-1.786484E+13	4.934049E-16	NaN
342	1.000000	0.122511	7.36841e+06	-55739.1	955.818	-29741.1	0.000000	0.000000	6.122782	0.022158	NaN	0.000000	0.001550	0.001720	28.0809	0.076948	0.002088	36.8439	158.197	-163.505	-0.017483	0.121245	-0.952696	-0.953962	0.022158	36.8439	-0.953147	-5.302343E+12	-4.178908E-15	NaN
342	1.000000	0.162532	7.36841e+06	-55739.1	955.819	-29741.1	0.000000	0.000000	6.162803	0.030243	NaN	0.000000	0.001541	0.001696	28.081	0.038030	0.002000	19.0149	61.2993	-165.796	-0.038449	0.161196	-0.912675	-0.914011	0.030243	19.0149	-0.913868	-1.564608E+12	-1.932954E-14	NaN
342	1.000000	0.202544	7.36841e+06	-55739.1	955.818	-29741.1	0.000000	0.000000	6.202815	0.016215	NaN	0.000000	0.001504	0.001667	28.081	0.083921	0.001815	46.233	-166.094	-160.797	0.038424	0.201191	-0.872663	-0.874016	0.016215	46.233	-0.872926	-4.375526E+11	-3.705953E-14	NaN
342	1.000000	0.242560	7.36841e+06	-55739.1	955.818	-29741.1	0.000000	0.000000	6.242831	0.028497	NaN	0.000000	0.001524	0.001749	28.0809	0.090135	0.001981	45.5085	23.6756	-164.091	0.072488	0.241218	-0.832647	-0.833989	0.028497	45.5085	-0.833117	-1.264807E+11	-2.253062E-13	NaN
342	1.000000	0.282557	7.36841e+06	-55739.1	955.818	-29741.1	0.000000	0.000000	6.282828	0.040122	NaN	0.000000	0.001548	0.001699	28.0797	0.059201	0.002132	27.7721	51.0754	-167.935	-0.042878	0.281246	-0.792650	-0.793960	0.040122	27.7721	-0.793734	-3.696484E+10	-1.085405E-12	NaN
342	1.000000	0.322610	7.36841e+06	-55739.1	955.819	-29741.1	0.000000	0.000000	6.322880	-0.001960	NaN	0.000000	0.001541	0.001652	28.0801	0.111221	0.002065	53.8645	159.495	-165.339	0.015301	0.321238	-0.752597	-0.753969	-0.001960	53.8645	-0.752569	-1.019040E+10	1.923748E-13	NaN
342	1.000000	0.362606	7.36841e+06	-55739.1	955.818	-29741.1	0.000000	0.000000	6.362876	-0.011263	NaN	0.000000	0.001555	0.001703	28.0801	0.028783	0.002098	13.7198	-22.5458	-163.97	0.046320	0.361227	-0.712601	-0.713980	-0.011263	13.7198	-0.711985	-2.851908E+9	3.949410E-12	NaN
342	1.000000	0.402643	7.36841e+06	-55739.1	955.818	-29741.1	0.000000	0.000000	6.402912	-0.023726	NaN	0.000000	0.001543	0.001731	28.0814	0.041371	0.001908	21.6823	54.373	-161.933	0.019619	0.401313	-0.672564	-0.673894	-0.023726	21.6823	-0.671743	-8.039805E+8	2.951081E-11	NaN
342	1.000000	0.442651	7.36841e+06	-55739.1	955.818	-29741.1	0.000000	0.000000	6.442920	-0.014375	NaN	0.000000	0.001562	0.001691	28.0808	0.053642	0.001947	27.5551	-1.433563	-166.055	-0.005769	0.441353	-0.632556	-0.633854	-0.014375	27.5551	-0.632165	-2.305413E+8	6.235486E-11	NaN
342	1.000000	0.482643	7.36841e+06	-55739.1	955.818	-29741.1	0.000000	0.000000	6.482915	0.048530	NaN	0.000000	0.001548	0.001708	28.081	0.045129	0.002076	21.7352	-68.6776	-166.611	0.016301	0.481377	-0.592564	-0.593830	0.048530	21.7352	-0.594239	-6.935736E+7	-6.997043E-10	NaN
342	1.000000	0.522657	7.36841e+06	-55739.1	955.818	-29741.1	0.000000	0.000000	6.522931	0.076233	NaN	0.000000	0.001513	0.001683	28.081	0.139023	0.002115	65.7391	-156.214	-166.292	0.058885	0.521372	-0.552549	-0.553835	0.076233	65.7391	-0.553419	-1.893671E+7	-4.025671E-9	NaN
342	1.000000	0.562706	7.36841e+06	-55739.1	955.819	-29741.1	0.000000	0.000000	6.562978	0.043495	NaN	0.000000	0.001529	0.001703	28.0798	0.121189	0.002136	56.7265	8.619454	-163.626	0.023003	0.561373	-0.512501	-0.513834	0.043495	56.7265	-0.513076	-5.21496e+06	-8.340505E-9	NaN
342	1.000000	0.602706	7.36841e+06	-55739.1	955.818	-29741.1	0.000000	0.000000	6.602975	-0.026803	NaN	0.000000	0.001636	0.001738	28.0795	0.117280	0.002155	54.4292	-106.746	-166.364	-0.051345	0.601368	-0.472501	-0.473839	-0.026803	54.4292	-0.472132	-1.39733e+06	1.918142E-8	NaN
342	1.000000	0.642764	7.36841e+06	-55739.1	955.818	-29741.1	0.000000	0.000000	6.643034	-0.002145	NaN	0.000000	0.001563	0.001675	28.0797	0.062972	0.002102	29.9576	93.8313	-165.462	-0.025486	0.641434	-0.432443	-0.433773	-0.002145	29.9576	-0.432389	-385345	5.566716E-9	NaN
342	1.000000	0.682746	7.36841e+06	-55739.1	955.819	-29741.1	0.000000	0.000000	6.683016	-0.007593	NaN	0.000000	0.001597	0.001683	28.081	0.048227	0.001893	25.4829	85.7459	-165.285	0.076825	0.681417	-0.392461	-0.393790	-0.007593	25.4829	-0.392237	-103552	7.332850E-8	NaN
342	1.000000	0.722771	7.36841e+06	-55739.1	955.818	-29741.1	0.000000	0.000000	6.723038	-0.080575	NaN	0.000000	0.001597	0.001662	28.0809	0.015661	0.002148	7.290152	2.865010	-163.33	-0.045967	0.721415	-0.352436	-0.353792	-0.080575	7.290152	-0.344146	-20986.3	3.839392E-6	NaN
342	1.000000	0.762777	7.36841e+06	-55739.1	955.818	-29741.1	0.000000	0.000000	6.763046	-0.030683	NaN	0.000000	0.001552	0.001691	28.081	0.076254	0.001936	39.3909	-45.8675	-164.374	-0.012957	0.761494	-0.312430	-0.313713	-0.030683	39.3909	-0.311846	-7052.73	4.350464E-6	NaN
342	1.000000	0.802790	7.36841e+06	-55739.1	955.819	-29741.1	0.000000	0.000000	6.803061	0.020867	NaN	0.000000	0.001604	0.001665	28.0803	0.064052	0.002081	30.7836	108.487	-167.516	-0.046100	0.801471	-0.272417	-0.273736	0.020867	30.7836	-0.272925	-1844.84	-1.131119E-5	NaN
342	1.000000	0.842818	7.36841e+06	-55739.1	955.819	-29741.1	0.000000	0.000000	6.843089	0.023724	NaN	0.000000	0.001596	0.001676	28.0802	0.015061	0.001928	7.813677	165.422	-164.926	0.007850	0.841514	-0.232389	-0.233693	0.023724	7.813677	-0.234667	-474.254	-5.002364E-5	NaN
342	1.000000	0.882838	7.36841e+06	-55739.1	955.818	-29741.1	0.000000	0.000000	6.883109	0.033315	NaN	0.000000	0.001614	0.001690	28.0803	0.143198	0.001968	72.7487	-169.101	-162.42	0.026240	0.881539	-0.192369	-0.193668	0.033315	72.7487	-0.192713	-99.8257	-0.000334	NaN
342	1.000000	0.922836	7.36841e+06	-55739.1	955.818	-29741.1	0.000000	0.000000	6.923105	-0.026817	NaN	0.000000	0.001610	0.001650	28.0802	0.126548	0.001977	64.026	-82.429	-166.839	-0.008535	0.921565	-0.152371	-0.153642	-0.026817	64.026	-0.152057	-19.7432	0.001358	NaN
342	1.000000	0.962827	7.36841e+06	-55739.1	955.818	-29741.1	0.000000	0.000000	6.963093	-0.091482	NaN	0.000000	0.001560	0.001664	28.0814	0.093967	0.002138	43.9533	-7.039032	-164.319	0.047496	0.961576	-0.112380	-0.113631	-0.091482	43.9533	-0.110819	-3.126839	0.029257	NaN
342	1.000000	1.002862	7.36841e+06	-55739.1	955.819	-29741.1	0.000000	0.000000	7.003131	-0.024797	NaN	0.000000	0.001554	0.001680	28.0814	0.064998	0.002075	31.3227	21.0792	-163.657	-0.133067	1.001598	-0.072345	-0.073609	-0.024797	31.3227	-0.071751	-0.379769	0.065296	NaN
342	1.000000	1.042880	7.36841e+06	-55739.1	955.819	-29741.1	0.000000	0.000000	7.043146	-0.108549	NaN	0.000000	0.001620	0.001693	28.0812	0.060754	0.001913	31.7516	35.7165	-163.661	-0.040635	1.041603	-0.032327	-0.033604	-0.108549	31.7516	-0.029763	-0.022666	4.789179	NaN
342	1.000000	1.082849	7.36841e+06	-55739.1	955.819	-29741.1	0.000000	0.000000	7.083418	7.257480	NaN	0.000000	0.001592	0.001705	28.0799	6.704648	0.001663	4030.84	8.168548	-170.836	5.303710	1.081540	0.007642	0.006333	7.257480	4030.84	0.006292	0.005343	1358.2	50380
342	2.000000	1.094301	7.36841e+06	-55739.1	955.819	-29741.1	0.000000	0.000000	7.095748	28.6053	NaN	0.000000	0.001635	0.001700	28.0803	20.3824	0.001755	11612.6	6.265386	-179.071	27.2227	1.094041	0.019094	0.018834	28.6053	11612.6	0.017247	0.018399	1554.68	78216.7
342	2.000000	1.104274	7.36841e+06	-55739.1	955.819	-29741.1	0.000000	0.000000	7.106718	52.825	NaN	0.000000	0.001560	0.001705	28.0799	29.0895	0.001657	17550.4	1.301980	-177.564	50.8821	1.104078	0.029068	0.028871	52.825	17550.4	0.026810	0.034391	1536.01	86464.2
342	2.000000	1.114279	7.36841e+06	-55739.1	955.82	-29741.1	0.000000	0.000000	7.118029	84.5981	NaN	0.000000	0.001590	0.001701	28.08	41.4852	0.001916	21657.1	8.626103	174.613	85.1128	1.114005	0.039072	0.038798	84.5981	21657.1	0.036142	0.054439	1553.99	84804.2
342	2.000000	1.124227	7.36841e+06	-55739.1	955.819	-29741.1	0.000000	0.000000	7.129672	125.792	NaN	0.000000	0.001550	0.001687	28.0814	49.529	0.001811	27348.6	-0.714466	-179.059	122.838	1.124049	0.049020	0.048842	125.792	27348.6	0.045570	0.079214	1588	88778.3
342	2.000000	1.134260	7.36841e+06	-55739.1	955.82	-29741.1	0.000000	0.000000	7.141984	181.18	NaN	0.000000	0.001604	0.001746	28.0816	59.7888	0.001643	36398.6	6.444465	171.716	182.864	1.133969	0.059054	0.058762	181.18	36398.6	0.055320	0.109564	1653.64	100467
342	2.000000	1.144230	7.36841e+06	-55739.1	955.819	-29741.1	0.000000	0.000000	7.154451	241.881	NaN	0.000000	0.001593	0.001760	28.0813	69.817	0.001743	40056.5	2.145637	175.572	240.622	1.143977	0.069023	0.068770	241.881	40056.5	0.064495	0.142417	1698.4	96976.3
342	2.000000	1.154234	7.36841e+06	-55739.1	955.818	-29741.1	0.000000	0.000000	7.167206	308.754	NaN	0.000000	0.001592	0.001741	28.0801	79.6834	0.001776	44861.4	2.918643	173.983	308.132	1.153916	0.079027	0.078709	308.754	44861.4	0.073865	0.180165	1713.73	96563
342	2.000000	1.164279	7.36841e+06	-55739.1	955.819	-29741.1	0.000000	0.000000	7.179693	368.112	NaN	0.000000	0.001575	0.001742	28.0799	89.4421	0.001846	48447.1	6.706201	169.665	369.19	1.164062	0.089072	0.088855	368.112	48447.1	0.083373	0.222703	1652.93	93794.7
342	2.000000	1.174126	7.36841e+06	-55739.1	955.819	-29741.1	0.000000	0.000000	7.192747	446.08	NaN	0.000000	0.001578	0.001769	28.0799	97.2169	0.001748	55624.1	1.672930	173.732	440.884	1.173928	0.098919	0.098721	446.08	55624.1	0.092904	0.269544	1654.94	97886.2
342	2.000000	1.183237	7.36841e+06	-55739.1	955.82	-29741.1	0.000000	0.000000	7.205303	529.801	NaN	0.000000	0.001592	0.001696	28.0799	106.728	0.001652	64601	5.805228	169.255	533.027	1.182851	0.108030	0.107644	529.801	64601	0.101879	0.317455	1668.9	104754