File: remote_trans/data/nanoindenter/0828-1/data/Data_2025-08-06,11h17m57s/2025-07-22_16-23-58_1_493.txt
2025-07-22, 16:23:58, 1
Index	Phase	Displacement	Time	Pos X	Pos Y	Pos Z	Rot A	Rot B	Piezo Z	Force A	Force B	Gripper	Voltage A	Voltage B	Temperature	Amplitude force	Amplitude pos	Stiffness	Phase shift	Phase excitation	Force A raw	Displacement raw	HMax	HMax raw	Real Force	Real Stiffness	Contact Depth	Area	Hardness	Reduced Mod.
[#]	[#]	[um]	[s]	[um]	[um]	[um]	[m°]	[m°]	[um]	[uN]	[uN]	[V]	[V]	[V]	[°C]	[uN]	[um]	[N/m]	[°]	[°]	[uN]	[um]	[um]	[um]	[uN]	[N/m]	[um]	[um^2]	[MPa]	[MPa]
493	1.000000	0.002586	7.36988e+06	-52439.1	1005.82	-29749.2	0.000000	0.000000	6.002824	0.036265	NaN	0.000000	0.001609	0.001845	28.0829	0.105649	0.001070	98.732	141.184	-167.921	0.042939	0.001267	-1.062775	-1.064094	0.036265	98.732	-1.063051	-1.598897E+14	-2.268148E-16	NaN
493	1.000000	0.042508	7.36988e+06	-52439.1	1005.82	-29749.3	0.000000	0.000000	6.042744	-0.023088	NaN	0.000000	0.001627	0.001775	28.0836	0.045074	0.002099	21.4761	-144.082	-164.549	-0.095120	0.041207	-1.022853	-1.024154	-0.023088	21.4761	-1.022047	-4.492493E+13	5.139220E-16	NaN
493	1.000000	0.082498	7.36988e+06	-52439.1	1005.82	-29749.3	0.000000	0.000000	6.082733	-0.055961	NaN	0.000000	0.001610	0.001814	28.0822	0.027417	0.002013	13.6188	179.735	-165.23	0.013473	0.081241	-0.982863	-0.984120	-0.055961	13.6188	-0.979781	-1.211881E+13	4.617735E-15	NaN
493	1.000000	0.122547	7.36988e+06	-52439.1	1005.82	-29749.3	0.000000	0.000000	6.122786	0.068371	NaN	0.000000	0.001605	0.001836	28.0823	0.139143	0.002008	69.278	73.3112	-161.696	-0.033087	0.121267	-0.942814	-0.944094	0.068371	69.278	-0.943555	-3.936321E+12	-1.736930E-14	NaN
493	1.000000	0.162554	7.36988e+06	-52439.1	1005.82	-29749.3	0.000000	0.000000	6.162790	-0.016403	NaN	0.000000	0.001627	0.001786	28.082	0.066619	0.001998	33.3444	179.807	-165.669	0.057545	0.161254	-0.902807	-0.904107	-0.016403	33.3444	-0.902438	-1.096504E+12	1.495914E-14	NaN
493	1.000000	0.202585	7.36988e+06	-52439.1	1005.82	-29749.3	0.000000	0.000000	6.202820	-0.051454	NaN	0.000000	0.001578	0.001782	28.0832	0.020627	0.002015	10.2381	-157.573	-161.043	0.073386	0.201269	-0.862776	-0.864092	-0.051454	10.2381	-0.859007	-2.835803E+11	1.814433E-13	NaN
493	1.000000	0.242607	7.36988e+06	-52439.1	1005.82	-29749.3	0.000000	0.000000	6.242840	-0.090595	NaN	0.000000	0.001578	0.001828	28.0829	0.081133	0.001882	43.1089	-114.384	-164.379	-0.014726	0.241241	-0.822754	-0.824120	-0.090595	43.1089	-0.821178	-8.713412E+10	1.039717E-12	NaN
493	1.000000	0.282612	7.36988e+06	-52439.1	1005.82	-29749.3	0.000000	0.000000	6.282847	-0.032107	NaN	0.000000	0.001609	0.001772	28.0831	0.025733	0.001938	13.2751	22.3536	-165.565	-0.036141	0.281304	-0.782749	-0.784057	-0.032107	13.2751	-0.780935	-2.477061E+10	1.296183E-12	NaN
493	1.000000	0.322619	7.36988e+06	-52439.1	1005.82	-29749.3	0.000000	0.000000	6.322857	0.025941	NaN	0.000000	0.001597	0.001804	28.0832	0.042314	0.002017	20.9753	-92.9886	-164.597	-0.001960	0.321297	-0.742742	-0.744064	0.025941	20.9753	-0.743669	-7.709519E+9	-3.364803E-12	NaN
493	1.000000	0.362625	7.36988e+06	-52439.1	1005.82	-29749.3	0.000000	0.000000	6.362862	0.001475	NaN	0.000000	0.001581	0.001806	28.082	0.093712	0.002001	46.8269	22.2265	-162.126	0.023806	0.361376	-0.702736	-0.703985	0.001475	46.8269	-0.702759	-2.134072E+9	-6.913169E-13	NaN
493	1.000000	0.402641	7.36988e+06	-52439.1	1005.82	-29749.3	0.000000	0.000000	6.402874	-0.075764	NaN	0.000000	0.001571	0.001793	28.0821	0.039016	0.002003	19.4766	179.947	-162.239	-0.004869	0.401361	-0.662721	-0.664000	-0.075764	19.4766	-0.659803	-5.517855E+8	1.373077E-10	NaN
493	1.000000	0.442664	7.36988e+06	-52439.1	1005.82	-29749.3	0.000000	0.000000	6.442900	0.002036	NaN	0.000000	0.001589	0.001822	28.0826	0.070839	0.002049	34.5727	173.355	-167.852	-0.029981	0.441374	-0.622697	-0.623987	0.002036	34.5727	-0.622742	-1.711247E+8	-1.189960E-11	NaN
493	1.000000	0.482700	7.36988e+06	-52439.1	1005.82	-29749.3	0.000000	0.000000	6.482939	0.062000	NaN	0.000000	0.001590	0.001831	28.0834	0.101602	0.001924	52.7965	107.258	-167.053	0.062657	0.481405	-0.582661	-0.583956	0.062000	52.7965	-0.583542	-4.938510E+7	-1.255436E-9	NaN
493	1.000000	0.522726	7.36988e+06	-52439.1	1005.82	-29749.3	0.000000	0.000000	6.522964	0.010568	NaN	0.000000	0.001588	0.001797	28.0833	0.100514	0.001973	50.9342	-108.675	-163.454	-0.042724	0.521401	-0.542635	-0.543960	0.010568	50.9342	-0.542790	-1.349112E+7	-7.833056E-10	NaN
493	1.000000	0.562739	7.36988e+06	-52439.1	1005.82	-29749.3	0.000000	0.000000	6.562975	-0.008996	NaN	0.000000	0.001587	0.001795	28.0832	0.088348	0.001977	44.6988	-157.91	-163.958	0.023933	0.561419	-0.502622	-0.503942	-0.008996	44.6988	-0.502471	-3.71097e+06	2.424222E-9	NaN
493	1.000000	0.602720	7.36988e+06	-52439.1	1005.82	-29749.3	0.000000	0.000000	6.602956	-0.013037	NaN	0.000000	0.001594	0.001802	28.0821	0.075172	0.002028	37.071	-177.893	-166.207	-0.087491	0.601383	-0.462641	-0.463978	-0.013037	37.071	-0.462377	-1.01957e+06	1.278655E-8	NaN
493	1.000000	0.642758	7.36988e+06	-52439.1	1005.82	-29749.3	0.000000	0.000000	6.642993	-0.041680	NaN	0.000000	0.001596	0.001754	28.0821	0.052206	0.001987	26.2776	-24.1655	-163.337	-0.026484	0.641476	-0.422603	-0.423885	-0.041680	26.2776	-0.421413	-269433	1.546966E-7	NaN
493	1.000000	0.682781	7.36988e+06	-52439.1	1005.82	-29749.3	0.000000	0.000000	6.683019	0.043186	NaN	0.000000	0.001608	0.001807	28.082	0.045830	0.002056	22.2885	172.433	-164.856	-0.000284	0.681427	-0.382580	-0.383934	0.043186	22.2885	-0.384034	-79020.1	-5.465183E-7	NaN
493	1.000000	0.722782	7.36988e+06	-52439.1	1005.82	-29749.3	0.000000	0.000000	6.723020	0.035800	NaN	0.000000	0.001552	0.001791	28.082	0.033784	0.002002	16.874	-119.558	-165.351	0.013676	0.721506	-0.342579	-0.343855	0.035800	16.874	-0.344170	-21003	-1.704522E-6	NaN
493	1.000000	0.762803	7.36988e+06	-52439.1	1005.82	-29749.3	0.000000	0.000000	6.763040	0.001084	NaN	0.000000	0.001566	0.001767	28.0836	0.080865	0.002012	40.1885	163.382	-161.57	0.017250	0.761482	-0.302558	-0.303879	0.001084	40.1885	-0.302578	-5140.3	-2.109647E-7	NaN
493	1.000000	0.802800	7.36988e+06	-52439.1	1005.82	-29749.3	0.000000	0.000000	6.803038	0.050996	NaN	0.000000	0.001601	0.001797	28.0837	0.094692	0.002004	47.2464	-53.9263	-165.057	-0.011768	0.801483	-0.262561	-0.263878	0.050996	47.2464	-0.263371	-1319.8	-3.863887E-5	NaN
493	1.000000	0.842845	7.36988e+06	-52439.1	1005.82	-29749.3	0.000000	0.000000	6.843083	0.034947	NaN	0.000000	0.001560	0.001796	28.0833	0.075962	0.001928	39.4032	-54.1651	-165.983	0.059097	0.841538	-0.222516	-0.223823	0.034947	39.4032	-0.223182	-312.191	-0.000112	NaN
493	1.000000	0.882864	7.36988e+06	-52439.1	1005.82	-29749.3	0.000000	0.000000	6.883098	-0.045874	NaN	0.000000	0.001582	0.001773	28.0821	0.060593	0.001874	32.3388	124.813	-165.587	0.037773	0.881504	-0.182497	-0.183857	-0.045874	32.3388	-0.181433	-64.539	0.000711	NaN
493	1.000000	0.922884	7.36988e+06	-52439.1	1005.82	-29749.3	0.000000	0.000000	6.923124	0.071528	NaN	0.000000	0.001584	0.001762	28.0821	0.073840	0.002005	36.832	-17.6984	-165.554	0.056093	0.921554	-0.142477	-0.143807	0.071528	36.832	-0.143933	-14.0088	-0.005106	NaN
493	1.000000	0.962914	7.36988e+06	-52439.1	1005.82	-29749.3	0.000000	0.000000	6.963151	0.023419	NaN	0.000000	0.001649	0.001741	28.082	0.057353	0.002071	27.6878	93.7622	-167.441	-0.024260	0.961575	-0.102447	-0.103786	0.023419	27.6878	-0.103082	-2.135656	-0.010966	NaN
493	1.000000	1.002904	7.36988e+06	-52439.1	1005.82	-29749.3	0.000000	0.000000	7.003138	-0.054204	NaN	0.000000	0.001646	0.001808	28.0819	0.134808	0.002133	63.1929	177.357	-166.209	0.027538	1.001572	-0.062457	-0.063789	-0.054204	63.1929	-0.061814	-0.202875	0.267180	NaN
493	1.000000	1.042922	7.36988e+06	-52439.1	1005.82	-29749.3	0.000000	0.000000	7.043156	-0.071859	NaN	0.000000	0.001694	0.001788	28.0832	0.083717	0.002052	40.8046	139.462	-164.874	-0.018596	1.041624	-0.022439	-0.023737	-0.071859	40.8046	-0.021118	-0.013410	5.358537	NaN
493	2.000000	1.072515	7.36988e+06	-52439.1	1005.82	-29749.3	0.000000	0.000000	7.073272	12.6565	NaN	0.000000	0.001647	0.001793	28.0832	13.2075	0.001793	7366.85	9.094448	-174.649	12.8443	1.072195	0.007153	0.006834	12.6565	7366.85	0.005865	0.004937	2563.8	95794.4
493	2.000000	1.082468	7.36988e+06	-52439.1	1005.82	-29749.3	0.000000	0.000000	7.083950	30.2933	NaN	0.000000	0.001615	0.001807	28.0832	24.3214	0.001743	13951.1	5.657857	-177.745	30.685	1.082144	0.017107	0.016783	30.2933	13951.1	0.015478	0.015928	1901.85	100994
493	2.000000	1.092436	7.36988e+06	-52439.1	1005.82	-29749.3	0.000000	0.000000	7.094986	56.2477	NaN	0.000000	0.001628	0.001827	28.082	33.9565	0.001721	19725.5	6.328051	179.085	56.1307	1.092044	0.027075	0.026683	56.2477	19725.5	0.024936	0.030900	1820.31	102523
493	2.000000	1.102444	7.36988e+06	-52439.1	1005.82	-29749.3	0.000000	0.000000	7.106130	83.8671	NaN	0.000000	0.001580	0.001794	28.0822	43.1611	0.001841	23444	5.383449	178.355	85.1361	1.102079	0.037083	0.036718	83.8671	23444	0.034400	0.050359	1665.39	95448
493	2.000000	1.112417	7.36988e+06	-52439.1	1005.82	-29749.3	0.000000	0.000000	7.117913	127.89	NaN	0.000000	0.001668	0.001747	28.0824	53.7879	0.001840	29238.1	7.257781	174.103	128.127	1.112058	0.047056	0.046697	127.89	29238.1	0.043775	0.074148	1724.79	98100.7
493	2.000000	1.122422	7.36988e+06	-52439.1	1005.82	-29749.3	0.000000	0.000000	7.129903	176.144	NaN	0.000000	0.001603	0.001757	28.0826	63.1851	0.001732	36482.8	7.784284	173.03	176.691	1.121967	0.057061	0.056606	176.144	36482.8	0.053440	0.103341	1704.49	103687
493	2.000000	1.132367	7.36988e+06	-52439.1	1005.82	-29749.3	0.000000	0.000000	7.142099	230.872	NaN	0.000000	0.001572	0.001784	28.0833	76.0536	0.001851	41091.3	4.999757	173.981	231.802	1.132079	0.067006	0.066718	230.872	41091.3	0.062792	0.136011	1697.45	101797
493	2.000000	1.142280	7.36988e+06	-52439.1	1005.82	-29749.3	0.000000	0.000000	7.154488	291.09	NaN	0.000000	0.001638	0.001780	28.0834	83.9257	0.001718	48848.2	3.286819	174.618	286.154	1.142034	0.076919	0.076673	291.09	48848.2	0.072449	0.174194	1671.07	106931
493	2.000000	1.152246	7.36988e+06	-52439.1	1005.82	-29749.3	0.000000	0.000000	7.167233	358.656	NaN	0.000000	0.001615	0.001779	28.0832	93.1422	0.001780	52329.7	1.911165	175.087	352.942	1.152079	0.086885	0.086718	358.656	52329.7	0.081745	0.215117	1667.26	103082
493	2.000000	1.162287	7.36988e+06	-52439.1	1005.82	-29749.3	0.000000	0.000000	7.180524	437.674	NaN	0.000000	0.001618	0.001812	28.0822	104.763	0.001799	58244.3	2.044561	174.402	433.507	1.161962	0.096926	0.096601	437.674	58244.3	0.091290	0.261320	1674.86	104098
493	2.000000	1.167227	7.36988e+06	-52439.1	1005.82	-29749.3	0.000000	0.000000	7.187281	481.859	NaN	0.000000	0.001588	0.001767	28.0823	108.453	0.001681	64508.5	4.484599	171.416	475.856	1.166954	0.101866	0.101593	481.859	64508.5	0.096263	0.287046	1678.68	110006