File: remote_trans/data/nanoindenter/0828-1/data/Data_2025-08-06,11h17m57s/2025-07-22_16-23-58_1_303.txt
2025-07-22, 16:23:58, 1
Index	Phase	Displacement	Time	Pos X	Pos Y	Pos Z	Rot A	Rot B	Piezo Z	Force A	Force B	Gripper	Voltage A	Voltage B	Temperature	Amplitude force	Amplitude pos	Stiffness	Phase shift	Phase excitation	Force A raw	Displacement raw	HMax	HMax raw	Real Force	Real Stiffness	Contact Depth	Area	Hardness	Reduced Mod.
[#]	[#]	[um]	[s]	[um]	[um]	[um]	[m°]	[m°]	[um]	[uN]	[uN]	[V]	[V]	[V]	[°C]	[uN]	[um]	[N/m]	[°]	[°]	[uN]	[um]	[um]	[um]	[uN]	[N/m]	[um]	[um^2]	[MPa]	[MPa]
303	1.000000	0.002705	7.36803e+06	-53789.1	955.818	-29745.6	0.000000	0.000000	6.002819	-0.008619	NaN	0.000000	0.001657	0.001672	28.0814	0.067149	0.000933	71.9961	-113.363	-168.05	0.006151	0.001443	-1.072786	-1.074049	-0.008619	71.9961	-1.072696	-2.154836E+14	3.999682E-17	NaN
303	1.000000	0.042655	7.36803e+06	-53789.1	955.818	-29745.6	0.000000	0.000000	6.042767	-0.060693	NaN	0.000000	0.001676	0.001702	28.0811	0.082448	0.002079	39.6634	128.811	-167.1	-0.038746	0.041344	-1.032836	-1.034147	-0.060693	39.6634	-1.031689	-6.056091E+13	1.002186E-15	NaN
303	1.000000	0.082635	7.36803e+06	-53789.1	955.818	-29745.6	0.000000	0.000000	6.082748	-0.019600	NaN	0.000000	0.001651	0.001682	28.0801	0.040237	0.002030	19.8215	-97.408	-167.679	0.046254	0.081348	-0.992857	-0.994143	-0.019600	19.8215	-0.992115	-1.776639E+13	1.103222E-15	NaN
303	1.000000	0.122650	7.36803e+06	-53789.1	955.818	-29745.6	0.000000	0.000000	6.122761	-0.064815	NaN	0.000000	0.001677	0.001677	28.0805	0.043571	0.001997	21.8222	58.2577	-167.073	-0.031009	0.121349	-0.952842	-0.954142	-0.064815	21.8222	-0.950615	-4.901361E+12	1.322379E-14	NaN
303	1.000000	0.162652	7.36803e+06	-53789.1	955.819	-29745.6	0.000000	0.000000	6.162765	-0.021942	NaN	0.000000	0.001735	0.001651	28.08	0.065576	0.002008	32.661	-34.1862	-167.992	0.031158	0.161346	-0.912840	-0.914146	-0.021942	32.661	-0.912336	-1.491820E+12	1.470835E-14	NaN
303	1.000000	0.202667	7.36803e+06	-53789.1	955.818	-29745.6	0.000000	0.000000	6.202779	-0.048583	NaN	0.000000	0.001721	0.001711	28.0798	0.064127	0.002071	30.9701	-14.6758	-163.225	0.057920	0.201417	-0.872825	-0.874075	-0.048583	30.9701	-0.871648	-4.204808E+11	1.155409E-13	NaN
303	1.000000	0.242718	7.36803e+06	-53789.1	955.818	-29745.6	0.000000	0.000000	6.242831	-0.031895	NaN	0.000000	0.001680	0.001649	28.0811	0.072783	0.001918	37.946	57.1483	-165.606	0.065335	0.241339	-0.832774	-0.834152	-0.031895	37.946	-0.832143	-1.226968E+11	2.599472E-13	NaN
303	1.000000	0.282716	7.36803e+06	-53789.1	955.819	-29745.6	0.000000	0.000000	6.282829	-0.021579	NaN	0.000000	0.001638	0.001641	28.0812	0.100993	0.002038	49.5634	-67.3257	-166.546	-0.082326	0.281462	-0.792776	-0.794030	-0.021579	49.5634	-0.792449	-3.550952E+10	6.076918E-13	NaN
303	1.000000	0.322739	7.36803e+06	-53789.1	955.819	-29745.6	0.000000	0.000000	6.322850	-0.093095	NaN	0.000000	0.001638	0.001611	28.0814	0.082699	0.002100	39.3778	-155.136	-165.066	-0.121982	0.321495	-0.752752	-0.753997	-0.093095	39.3778	-0.750979	-9.694997E+9	9.602418E-12	NaN
303	1.000000	0.362791	7.36803e+06	-53789.1	955.819	-29745.6	0.000000	0.000000	6.362905	0.001196	NaN	0.000000	0.001660	0.001629	28.08	0.062921	0.001916	32.8316	16.7158	-165.446	-0.020225	0.361475	-0.712700	-0.714017	0.001196	32.8316	-0.712728	-2.919235E+9	-4.098653E-13	NaN
303	1.000000	0.402790	7.36803e+06	-53789.1	955.819	-29745.6	0.000000	0.000000	6.402905	0.029298	NaN	0.000000	0.001635	0.001649	28.0802	0.023738	0.001853	12.8137	-172.622	-166.749	0.048107	0.401469	-0.672702	-0.674022	0.029298	12.8137	-0.674417	-8.746417E+8	-3.349703E-11	NaN
303	1.000000	0.442809	7.36803e+06	-53789.1	955.819	-29745.6	0.000000	0.000000	6.442923	0.009237	NaN	0.000000	0.001657	0.001635	28.0803	0.076904	0.001938	39.6811	62.7001	-161.257	-0.043449	0.441544	-0.632683	-0.633948	0.009237	39.6811	-0.632857	-2.356432E+8	-3.919773E-11	NaN
303	1.000000	0.482815	7.36803e+06	-53789.1	955.818	-29745.6	0.000000	0.000000	6.482928	-0.009881	NaN	0.000000	0.001594	0.001665	28.0803	0.106322	0.001930	55.0893	29.5719	-167.203	-0.028097	0.481470	-0.592677	-0.594021	-0.009881	55.0893	-0.592542	-6.572244E+7	1.503499E-10	NaN
303	1.000000	0.522829	7.36803e+06	-53789.1	955.818	-29745.6	0.000000	0.000000	6.522943	0.013653	NaN	0.000000	0.001648	0.001628	28.0815	0.088187	0.002038	43.2781	-19.1172	-164.162	0.106617	0.521501	-0.552663	-0.553991	0.013653	43.2781	-0.552900	-1.862564E+7	-7.330209E-10	NaN
303	1.000000	0.562838	7.36803e+06	-53789.1	955.818	-29745.6	0.000000	0.000000	6.562952	0.005408	NaN	0.000000	0.001614	0.001624	28.0812	0.043417	0.002038	21.3008	-159.494	-166.058	0.027260	0.561572	-0.512654	-0.513919	0.005408	21.3008	-0.512845	-5.1764e+06	-1.044740E-9	NaN
303	1.000000	0.602842	7.36803e+06	-53789.1	955.818	-29745.6	0.000000	0.000000	6.602956	-0.010816	NaN	0.000000	0.001662	0.001594	28.0812	0.041424	0.001898	21.8289	-59.0168	-164.463	-0.075490	0.601568	-0.472649	-0.473924	-0.010816	21.8289	-0.472278	-1.40394e+06	7.704083E-9	NaN
303	1.000000	0.642886	7.36803e+06	-53789.1	955.819	-29745.6	0.000000	0.000000	6.642998	-0.035052	NaN	0.000000	0.001648	0.001574	28.0803	0.109487	0.001991	54.9853	41.0241	-167.356	-0.018680	0.641587	-0.432606	-0.433904	-0.035052	54.9853	-0.432128	-382084	9.173786E-8	NaN
303	1.000000	0.682914	7.36803e+06	-53789.1	955.818	-29745.6	0.000000	0.000000	6.683026	-0.039051	NaN	0.000000	0.001649	0.001545	28.0799	0.106886	0.002079	51.4035	-89.4366	-168.853	-0.035972	0.681566	-0.392578	-0.393926	-0.039051	51.4035	-0.392008	-102774	3.799672E-7	NaN
303	1.000000	0.722925	7.36803e+06	-53789.1	955.819	-29745.6	0.000000	0.000000	6.723039	0.000542	NaN	0.000000	0.001615	0.001601	28.0803	0.058517	0.002031	28.8173	103.551	-168.058	-0.062536	0.721650	-0.352567	-0.353842	0.000542	28.8173	-0.352581	-27825.3	-1.948167E-8	NaN
303	1.000000	0.762952	7.36803e+06	-53789.1	955.818	-29745.6	0.000000	0.000000	6.763068	0.044342	NaN	0.000000	0.001646	0.001678	28.0814	0.024396	0.002033	12.0008	-150.12	-169.122	0.066663	0.761624	-0.312540	-0.313867	0.044342	12.0008	-0.315311	-7934.86	-5.588235E-6	NaN
303	1.000000	0.802957	7.36803e+06	-53789.1	955.819	-29745.6	0.000000	0.000000	6.803074	0.082970	NaN	0.000000	0.001634	0.001625	28.0813	0.023472	0.001971	11.9087	-99.0486	-170.308	0.110554	0.801633	-0.272535	-0.273859	0.082970	11.9087	-0.277761	-2183.52	-3.799830E-5	NaN
303	1.000000	0.842970	7.36803e+06	-53789.1	955.819	-29745.6	0.000000	0.000000	6.843083	-0.028826	NaN	0.000000	0.001649	0.001660	28.0813	0.043265	0.001892	22.8629	-37.0917	-167.906	0.048583	0.841637	-0.232521	-0.233854	-0.028826	22.8629	-0.231576	-424.01	6.798397E-5	NaN
303	1.000000	0.882984	7.36803e+06	-53789.1	955.819	-29745.6	0.000000	0.000000	6.883100	0.031135	NaN	0.000000	0.001609	0.001685	28.0814	0.101555	0.002091	48.5781	159.154	-166.841	-0.000481	0.881691	-0.192507	-0.193800	0.031135	48.5781	-0.192988	-100.882	-0.000309	NaN
303	1.000000	0.922952	7.36803e+06	-53789.1	955.819	-29745.6	0.000000	0.000000	6.923066	0.001090	NaN	0.000000	0.001652	0.001643	28.0808	0.077420	0.002030	38.1338	88.0841	-163.901	0.056220	0.921707	-0.152540	-0.153784	0.001090	38.1338	-0.152561	-20.1628	-5.406952E-5	NaN
303	1.000000	0.963033	7.36803e+06	-53789.1	955.819	-29745.6	0.000000	0.000000	6.963143	-0.083274	NaN	0.000000	0.001680	0.001659	28.0806	0.022382	0.002060	10.863	39.5836	-167.322	-0.112538	0.961695	-0.112459	-0.113797	-0.083274	10.863	-0.106709	-2.558249	0.032551	NaN
303	1.000000	1.003022	7.36803e+06	-53789.1	955.819	-29745.6	0.000000	0.000000	7.003136	-0.003311	NaN	0.000000	0.001622	0.001653	28.0804	0.013030	0.002079	6.268667	156.719	-163.276	-0.021745	1.001745	-0.072470	-0.073747	-0.003311	6.268667	-0.072073	-0.387287	0.008549	NaN
303	1.000000	1.043068	7.36803e+06	-53789.1	955.819	-29745.6	0.000000	0.000000	7.043179	-0.069452	NaN	0.000000	0.001681	0.001650	28.0815	0.004152	0.002081	1.995380	-61.0265	-166.422	-0.145598	1.041762	-0.032424	-0.033730	-0.069452	1.995380	-0.006319	-0.004231	16.4162	NaN
303	1.000000	1.083058	7.36803e+06	-53789.1	955.82	-29745.6	0.000000	0.000000	7.083421	6.051878	NaN	0.000000	0.001618	0.001633	28.0815	6.247937	0.001820	3432.58	21.6481	-174.207	5.607454	1.081727	0.007566	0.006236	6.051878	3432.58	0.006244	0.005297	1142.42	43088.6
303	2.000000	1.095615	7.36803e+06	-53789.1	955.82	-29745.6	0.000000	0.000000	7.096498	18.6996	NaN	0.000000	0.001613	0.001642	28.0813	18.1907	0.001821	9991.04	6.482656	-175.586	19.0618	1.095315	0.020124	0.019823	18.6996	9991.04	0.018720	0.020571	909.046	63644.4
303	2.000000	1.105506	7.36803e+06	-53789.1	955.82	-29745.6	0.000000	0.000000	7.107231	39.1724	NaN	0.000000	0.001693	0.001656	28.0813	28.6992	0.001810	15858.2	5.768814	178.913	36.4662	1.105239	0.030014	0.029748	39.1724	15858.2	0.028162	0.037020	1058.15	75302.9
303	2.000000	1.115554	7.36804e+06	-53789.1	955.82	-29745.6	0.000000	0.000000	7.118298	63.9404	NaN	0.000000	0.001645	0.001654	28.0802	37.7587	0.001792	21074.8	4.133820	178.465	63.26	1.115150	0.040062	0.039658	63.9404	21074.8	0.037787	0.058434	1094.23	79653.3
303	2.000000	1.125457	7.36804e+06	-53789.1	955.82	-29745.6	0.000000	0.000000	7.129598	97.907	NaN	0.000000	0.001666	0.001675	28.0802	46.8902	0.001680	27907.1	4.699512	174.641	95.0015	1.125170	0.049965	0.049678	97.907	27907.1	0.047334	0.084352	1160.7	87789.2
303	2.000000	1.135522	7.36804e+06	-53789.1	955.819	-29745.6	0.000000	0.000000	7.140940	128.96	NaN	0.000000	0.001699	0.001707	28.0803	56.0301	0.001768	31691.3	0.796437	178.359	129.94	1.135182	0.060030	0.059690	128.96	31691.3	0.056978	0.115195	1119.49	85309.2
303	2.000000	1.145553	7.36804e+06	-53789.1	955.821	-29745.6	0.000000	0.000000	7.152294	161.124	NaN	0.000000	0.001667	0.001692	28.0817	67.1866	0.001822	36868.9	5.577298	172.246	162.09	1.145301	0.070061	0.069810	161.124	36868.9	0.066783	0.151250	1065.28	86613.5
303	2.000000	1.155407	7.36804e+06	-53789.1	955.82	-29745.6	0.000000	0.000000	7.164529	218.996	NaN	0.000000	0.001686	0.001717	28.0817	75.1365	0.001819	41305.3	1.791214	175.478	214.123	1.155134	0.079915	0.079642	218.996	41305.3	0.075939	0.189083	1158.2	86786.6
303	2.000000	1.165439	7.36804e+06	-53789.1	955.819	-29745.6	0.000000	0.000000	7.176502	266.195	NaN	0.000000	0.001619	0.001678	28.0812	86.0318	0.001827	47091.3	2.940330	172.553	261.558	1.165335	0.089947	0.089844	266.195	47091.3	0.085707	0.233788	1138.62	88982.2
303	2.000000	1.175471	7.36804e+06	-53789.1	955.818	-29745.6	0.000000	0.000000	7.189240	331.975	NaN	0.000000	0.001580	0.001649	28.0802	95.5193	0.001871	51042	4.668713	170.406	331.043	1.175270	0.099980	0.099778	331.975	51042	0.095102	0.280936	1181.68	87982.7
303	2.000000	1.184991	7.36804e+06	-53789.1	955.819	-29745.6	0.000000	0.000000	7.201823	406.46	NaN	0.000000	0.001595	0.001684	28.0801	104.341	0.001688	61830	4.705384	-10.2193	404.622	1.184557	0.109499	0.109065	406.46	61830	0.104569	0.332523	1222.35	97962.9