File: remote_trans/data/nanoindenter/0828-1/data/Data_2025-08-06,11h17m57s/2025-07-22_16-23-58_1_1028.txt
2025-07-22, 16:23:58, 1
Index	Phase	Displacement	Time	Pos X	Pos Y	Pos Z	Rot A	Rot B	Piezo Z	Force A	Force B	Gripper	Voltage A	Voltage B	Temperature	Amplitude force	Amplitude pos	Stiffness	Phase shift	Phase excitation	Force A raw	Displacement raw	HMax	HMax raw	Real Force	Real Stiffness	Contact Depth	Area	Hardness	Reduced Mod.
[#]	[#]	[um]	[s]	[um]	[um]	[um]	[m°]	[m°]	[um]	[uN]	[uN]	[V]	[V]	[V]	[°C]	[uN]	[um]	[N/m]	[°]	[°]	[uN]	[um]	[um]	[um]	[uN]	[N/m]	[um]	[um^2]	[MPa]	[MPa]
1028	1.000000	0.002096	7.3751e+06	-51539.1	1055.82	-29751.9	0.000000	0.000000	6.002812	0.010556	NaN	0.000000	0.001633	0.001759	28.0844	0.105230	0.000948	111.033	-114.684	-166.122	-0.021790	0.000810	-1.126913	-1.128199	0.010556	111.033	-1.126984	-1.153889E+15	-9.148096E-18	NaN
1028	1.000000	0.044039	7.3751e+06	-51539.1	1055.82	-29751.9	0.000000	0.000000	6.044756	0.025390	NaN	0.000000	0.001597	0.001762	28.0841	0.069295	0.001955	35.443	-43.4197	10.8207	0.049788	0.042628	-1.084969	-1.086380	0.025390	35.443	-1.085507	-3.202399E+14	-7.928568E-17	NaN
1028	1.000000	0.086041	7.3751e+06	-51539.1	1055.82	-29751.9	0.000000	0.000000	6.086762	0.103220	NaN	0.000000	0.001617	0.001769	28.083	0.089540	0.002075	43.1591	-108.435	-162.869	0.103583	0.084688	-1.042967	-1.044320	0.103220	43.1591	-1.044761	-9.077832E+13	-1.137053E-15	NaN
1028	1.000000	0.128072	7.3751e+06	-51539.1	1055.82	-29751.9	0.000000	0.000000	6.128790	0.041208	NaN	0.000000	0.001674	0.001791	28.0832	0.057939	0.002078	27.8794	65.9837	14.2765	0.021912	0.126718	-1.000936	-1.002290	0.041208	27.8794	-1.002045	-2.417124E+13	-1.704856E-15	NaN
1028	1.000000	0.170092	7.3751e+06	-51539.1	1055.82	-29751.9	0.000000	0.000000	6.170807	-0.010419	NaN	0.000000	0.001612	0.001771	28.0832	0.162080	0.001923	84.2706	-68.7115	-164.342	-0.084754	0.168813	-0.958917	-0.960196	-0.010419	84.2706	-0.958824	-6.324332E+12	1.647407E-15	NaN
1028	1.000000	0.212071	7.3751e+06	-51539.1	1055.82	-29751.9	0.000000	0.000000	6.212791	0.093295	NaN	0.000000	0.001632	0.001769	28.0846	0.133235	0.001919	69.4319	-84.5836	16.0275	-0.039727	0.210783	-0.916937	-0.918226	0.093295	69.4319	-0.917945	-1.776054E+12	-5.252949E-14	NaN
1028	1.000000	0.254110	7.3751e+06	-51539.1	1055.82	-29751.9	0.000000	0.000000	6.254829	0.086015	NaN	0.000000	0.001637	0.001758	28.0844	0.044261	0.001923	23.0187	38.7501	-167.442	0.071943	0.252848	-0.874899	-0.876161	0.086015	23.0187	-0.877701	-5.077147E+11	-1.694167E-13	NaN
1028	1.000000	0.296154	7.3751e+06	-51539.1	1055.82	-29751.9	0.000000	0.000000	6.296868	-0.045150	NaN	0.000000	0.001672	0.001728	28.0845	0.075339	0.002066	36.4632	17.9979	14.6744	0.002788	0.294756	-0.832854	-0.834253	-0.045150	36.4632	-0.831926	-1.218669E+11	3.704871E-13	NaN
1028	1.000000	0.338175	7.3751e+06	-51539.1	1055.82	-29751.9	0.000000	0.000000	6.338892	0.034656	NaN	0.000000	0.001720	0.001765	28.0831	0.155052	0.001918	80.8366	120.658	-165.604	0.022334	0.336844	-0.790834	-0.792164	0.034656	80.8366	-0.791155	-3.410154E+10	-1.016247E-12	NaN
1028	1.000000	0.380172	7.3751e+06	-51539.1	1055.82	-29751.9	0.000000	0.000000	6.380890	0.048022	NaN	0.000000	0.001663	0.001773	28.0832	0.145180	0.002090	69.4626	-30.8417	13.791	0.074075	0.378812	-0.748837	-0.750197	0.048022	69.4626	-0.749355	-9.213909E+9	-5.211895E-12	NaN
1028	1.000000	0.422167	7.37511e+06	-51539.1	1055.82	-29751.9	0.000000	0.000000	6.422884	0.025203	NaN	0.000000	0.001699	0.001807	28.0838	0.051082	0.001808	28.2479	33.331	-168.99	0.020786	0.420907	-0.706841	-0.708101	0.025203	28.2479	-0.707511	-2.477835E+9	-1.017118E-11	NaN
1028	1.000000	0.464226	7.37511e+06	-51539.1	1055.82	-29751.9	0.000000	0.000000	6.464941	-0.022594	NaN	0.000000	0.001577	0.001775	28.084	0.094203	0.002028	46.4447	135.38	12.7781	0.105848	0.462829	-0.664783	-0.666179	-0.022594	46.4447	-0.664418	-6.382222E+8	3.540107E-11	NaN
1028	1.000000	0.506207	7.37511e+06	-51539.1	1055.82	-29751.9	0.000000	0.000000	6.506923	-0.003979	NaN	0.000000	0.001626	0.001773	28.0837	0.061294	0.001933	31.7081	140.99	-167.368	-0.033992	0.504909	-0.622801	-0.624099	-0.003979	31.7081	-0.622707	-1.709380E+8	2.327749E-11	NaN
1028	1.000000	0.548253	7.37511e+06	-51539.1	1055.82	-29751.9	0.000000	0.000000	6.548970	0.003585	NaN	0.000000	0.001706	0.001772	28.0839	0.102214	0.002097	48.734	-7.970537	14.0214	-0.034766	0.546894	-0.580755	-0.582114	0.003585	48.734	-0.580810	-4.528024E+7	-7.917094E-11	NaN
1028	1.000000	0.590268	7.37511e+06	-51539.1	1055.82	-29751.9	0.000000	0.000000	6.590984	-0.010878	NaN	0.000000	0.001643	0.001765	28.0839	0.051244	0.002087	24.5495	-89.8934	-165.165	-0.061871	0.588942	-0.538740	-0.540066	-0.010878	24.5495	-0.538408	-1.172934E+7	9.273997E-10	NaN
1028	1.000000	0.632261	7.37511e+06	-51539.1	1055.82	-29751.9	0.000000	0.000000	6.632981	0.084953	NaN	0.000000	0.001681	0.001747	28.0828	0.033000	0.002050	16.0998	31.4759	13.3499	0.092491	0.630867	-0.496747	-0.498141	0.084953	16.0998	-0.500705	-3.5063e+06	-2.422877E-8	NaN
1028	1.000000	0.674301	7.37511e+06	-51539.1	1055.82	-29751.9	0.000000	0.000000	6.675019	0.036670	NaN	0.000000	0.001601	0.001754	28.0827	0.073861	0.001946	37.9532	6.638757	-167.961	0.090542	0.672954	-0.454707	-0.456054	0.036670	37.9532	-0.455432	-814314	-4.503167E-8	NaN
1028	1.000000	0.716317	7.37511e+06	-51539.1	1055.82	-29751.9	0.000000	0.000000	6.717033	-0.017246	NaN	0.000000	0.001617	0.001751	28.0827	0.018876	0.002063	9.151888	59.1227	17.3681	-0.012375	0.714992	-0.412691	-0.414016	-0.017246	9.151888	-0.411278	-193450	8.915134E-8	NaN
1028	1.000000	0.758311	7.37511e+06	-51539.1	1055.82	-29751.9	0.000000	0.000000	6.759026	-0.017125	NaN	0.000000	0.001689	0.001755	28.0839	0.047973	0.002159	22.2166	166.813	-164.915	-0.005216	0.757011	-0.370698	-0.371997	-0.017125	22.2166	-0.370120	-49871.2	3.433795E-7	NaN
1028	1.000000	0.800322	7.37511e+06	-51539.1	1055.82	-29751.9	0.000000	0.000000	6.801037	-0.016613	NaN	0.000000	0.001614	0.001797	28.084	0.079637	0.001964	40.5579	141.679	18.5677	0.061566	0.798977	-0.328686	-0.330031	-0.016613	40.5579	-0.328379	-12351.1	1.345033E-6	NaN
1028	1.000000	0.842380	7.37511e+06	-51539.1	1055.82	-29751.9	0.000000	0.000000	6.843097	0.028599	NaN	0.000000	0.001600	0.001736	28.0842	0.070192	0.002000	35.092	103.677	-161.121	0.016616	0.841106	-0.286628	-0.287902	0.028599	35.092	-0.287240	-3033.26	-9.428413E-6	NaN
1028	1.000000	0.884362	7.37511e+06	-51539.1	1055.82	-29751.9	0.000000	0.000000	6.885079	0.014887	NaN	0.000000	0.001609	0.001681	28.0829	0.121505	0.002087	58.2276	177.042	10.9975	0.064391	0.883019	-0.244647	-0.245989	0.014887	58.2276	-0.244838	-683.815	-2.177000E-5	NaN
1028	1.000000	0.926412	7.37511e+06	-51539.1	1055.82	-29751.9	0.000000	0.000000	6.927129	0.008658	NaN	0.000000	0.001573	0.001665	28.0829	0.049892	0.001950	25.5905	-108.54	-164.982	-0.011012	0.925087	-0.202596	-0.203921	0.008658	25.5905	-0.202850	-146.702	-5.901551E-5	NaN
1028	1.000000	0.968403	7.37511e+06	-51539.1	1055.82	-29751.9	0.000000	0.000000	6.969119	-0.007938	NaN	0.000000	0.001558	0.001683	28.0827	0.029522	0.001964	15.0334	27.2865	18.4027	0.026164	0.967031	-0.160606	-0.161977	-0.007938	15.0334	-0.160210	-27.6511	0.000287	NaN
1028	1.000000	1.010453	7.37511e+06	-51539.1	1055.82	-29751.9	0.000000	0.000000	7.011171	0.041468	NaN	0.000000	0.001559	0.001648	28.0841	0.044216	0.002073	21.3252	27.2682	-167.904	0.105089	1.009139	-0.118555	-0.119869	0.041468	21.3252	-0.120014	-4.834581	-0.008577	NaN
1028	1.000000	1.052445	7.37511e+06	-51539.1	1055.82	-29751.9	0.000000	0.000000	7.053160	-0.017553	NaN	0.000000	0.001585	0.001672	28.0839	0.065105	0.002024	32.1709	143.119	15.5469	-0.067814	1.051060	-0.076564	-0.077948	-0.017553	32.1709	-0.076155	-0.494620	0.035487	NaN
1028	1.000000	1.094461	7.37511e+06	-51539.1	1055.82	-29751.9	0.000000	0.000000	7.095178	0.017904	NaN	0.000000	0.001602	0.001656	28.0839	0.036386	0.002063	17.6411	-99.6809	-163.945	0.045104	1.093103	-0.034547	-0.035906	0.017904	17.6411	-0.035309	-0.032703	-0.547487	NaN
1028	2.000000	1.136183	7.37511e+06	-51539.1	1055.82	-29751.9	0.000000	0.000000	7.137226	7.962493	NaN	0.000000	0.001566	0.001643	28.0839	7.582378	0.001673	4532.68	7.741555	11.1	6.758469	1.135070	0.007174	0.006062	7.962493	4532.68	0.005857	0.004929	1615.47	58986.6
1028	2.000000	1.147014	7.37511e+06	-51539.1	1055.82	-29751.9	0.000000	0.000000	7.148525	19.3126	NaN	0.000000	0.001577	0.001647	28.0828	17.8087	0.001763	10099.1	7.022792	-175.294	18.8498	1.146674	0.018006	0.017666	19.3126	10099.1	0.016572	0.017439	1107.46	69871.3
1028	2.000000	1.157452	7.37511e+06	-51539.1	1055.82	-29751.9	0.000000	0.000000	7.159666	36.4192	NaN	0.000000	0.001540	0.001711	28.0831	28.2592	0.001814	15582	6.339679	0.433213	34.7297	1.157074	0.028444	0.028066	36.4192	15582	0.026691	0.034164	1066.01	77021.8
1028	2.000000	1.167950	7.37511e+06	-51539.1	1055.82	-29751.9	0.000000	0.000000	7.171287	63.7367	NaN	0.000000	0.001547	0.001627	28.0832	36.9606	0.001706	21664.4	8.170869	175.13	62.4218	1.167639	0.038941	0.038631	63.7367	21664.4	0.036735	0.055862	1140.96	83745.4
1028	2.000000	1.178409	7.37511e+06	-51539.1	1055.82	-29751.9	0.000000	0.000000	7.183067	95.871	NaN	0.000000	0.001569	0.001535	28.0843	46.681	0.001783	26177.2	5.009001	-3.314056	93.1855	1.178125	0.049400	0.049116	95.871	26177.2	0.046653	0.082350	1164.19	83342
1028	2.000000	1.188997	7.37511e+06	-51539.1	1055.82	-29751.9	0.000000	0.000000	7.195391	138.063	NaN	0.000000	0.001558	0.001625	28.0842	58.4862	0.001796	32560.2	7.990717	172.755	140.047	1.188630	0.059988	0.059622	138.063	32560.2	0.056808	0.114613	1204.61	87870.8
1028	2.000000	1.199380	7.37511e+06	-51539.1	1055.82	-29751.9	0.000000	0.000000	7.208105	194.745	NaN	0.000000	0.001558	0.001633	28.0837	68.6371	0.001850	37103.9	8.640276	-9.297708	190.417	1.198961	0.070372	0.069953	194.745	37103.9	0.066435	0.149889	1299.26	87560.4
1028	2.000000	1.209930	7.37511e+06	-51539.1	1055.82	-29751.9	0.000000	0.000000	7.220355	236.083	NaN	0.000000	0.001605	0.001647	28.0834	77.5026	0.001785	43407.1	2.501284	175.242	235.005	1.209869	0.080922	0.080860	236.083	43407.1	0.076843	0.193033	1223.02	90264.7
1028	2.000000	1.220354	7.37511e+06	-51539.1	1055.82	-29751.9	0.000000	0.000000	7.235118	341.584	NaN	0.000000	0.001570	0.001665	28.0829	87.6686	0.001742	50315	5.830565	-8.131774	335.847	1.219842	0.091346	0.090834	341.584	50315	0.086254	0.236421	1444.81	94542.6
1028	2.000000	1.230761	7.37511e+06	-51539.1	1055.82	-29751.9	0.000000	0.000000	7.248689	418.534	NaN	0.000000	0.001563	0.001614	28.0827	97.8424	0.001753	55818.3	3.464096	173.168	411.04	1.230575	0.101753	0.101567	418.534	55818.3	0.096129	0.286337	1461.68	95303.9
1028	2.000000	1.234876	7.37511e+06	-51539.1	1055.82	-29751.9	0.000000	0.000000	7.254524	460.364	NaN	0.000000	0.001585	0.001588	28.083	101.342	0.001679	60358.6	5.946094	170.051	458.524	1.234530	0.105867	0.105521	460.364	60358.6	0.100147	0.307921	1495.07	99378.6