File: remote_trans/data/nanoindenter/0828-1/data/Data_2025-08-06,11h17m57s/2025-07-22_16-23-58_1_38.txt
2025-07-22, 16:23:58, 1
Index	Phase	Displacement	Time	Pos X	Pos Y	Pos Z	Rot A	Rot B	Piezo Z	Force A	Force B	Gripper	Voltage A	Voltage B	Temperature	Amplitude force	Amplitude pos	Stiffness	Phase shift	Phase excitation	Force A raw	Displacement raw	HMax	HMax raw	Real Force	Real Stiffness	Contact Depth	Area	Hardness	Reduced Mod.
[#]	[#]	[um]	[s]	[um]	[um]	[um]	[m°]	[m°]	[um]	[uN]	[uN]	[V]	[V]	[V]	[°C]	[uN]	[um]	[N/m]	[°]	[°]	[uN]	[um]	[um]	[um]	[uN]	[N/m]	[um]	[um^2]	[MPa]	[MPa]
38	1.000000	0.002181	7.36541e+06	-40539.1	955.818	-29790.3	0.000000	0.000000	6.002788	0.068034	NaN	0.000000	0.001610	0.001761	28.0861	0.022568	0.000952	23.7099	145.108	-167.532	0.063826	0.000977	-1.050124	-1.051328	0.068034	23.7099	-1.052276	-1.145535E+14	-5.939098E-16	NaN
38	1.000000	0.042131	7.36541e+06	-40539.1	955.819	-29790.3	0.000000	0.000000	6.042737	0.031222	NaN	0.000000	0.001622	0.001800	28.087	0.037003	0.002028	18.2482	21.3694	-164.506	0.006728	0.040827	-1.010174	-1.011478	0.031222	18.2482	-1.011457	-3.235854E+13	-9.648824E-16	NaN
38	1.000000	0.082155	7.36541e+06	-40539.1	955.818	-29790.3	0.000000	0.000000	6.082761	0.041549	NaN	0.000000	0.001657	0.001782	28.0853	0.104845	0.002074	50.5546	-38.4153	-165.809	0.002237	0.080849	-0.970150	-0.971455	0.041549	50.5546	-0.970766	-9.161962E+12	-4.534978E-15	NaN
38	1.000000	0.122188	7.36541e+06	-40539.1	955.818	-29790.3	0.000000	0.000000	6.122796	0.066457	NaN	0.000000	0.001687	0.001784	28.0873	0.051614	0.001997	25.8499	-70.325	-163.917	-0.061222	0.120902	-0.930116	-0.931403	0.066457	25.8499	-0.932044	-2.752886E+12	-2.414071E-14	NaN
38	1.000000	0.162173	7.36541e+06	-40539.1	955.818	-29790.3	0.000000	0.000000	6.162780	0.041996	NaN	0.000000	0.001625	0.001805	28.0877	0.146616	0.002126	68.9528	-104.684	-164.138	-0.026914	0.160890	-0.890131	-0.891414	0.041996	68.9528	-0.890588	-7.583380E+11	-5.537834E-14	NaN
38	1.000000	0.202202	7.36541e+06	-40539.1	955.818	-29790.3	0.000000	0.000000	6.202808	0.039889	NaN	0.000000	0.001659	0.001912	28.0875	0.072673	0.002024	35.9097	-127.966	-160.338	0.085548	0.200889	-0.850103	-0.851415	0.039889	35.9097	-0.850936	-2.205000E+11	-1.809040E-13	NaN
38	1.000000	0.242237	7.36541e+06	-40539.1	955.818	-29790.3	0.000000	0.000000	6.242843	0.043330	NaN	0.000000	0.001603	0.001795	28.0885	0.015845	0.001988	7.969070	107.323	-166.385	0.085416	0.240933	-0.810068	-0.811372	0.043330	7.969070	-0.814146	-6.995364E+10	-6.194140E-13	NaN
38	1.000000	0.282227	7.36541e+06	-40539.1	955.818	-29790.3	0.000000	0.000000	6.282835	0.071569	NaN	0.000000	0.001629	0.001747	28.0871	0.107899	0.001898	56.8473	85.3273	-163.562	0.015977	0.280939	-0.770077	-0.771366	0.071569	56.8473	-0.771022	-1.816336E+10	-3.940303E-12	NaN
38	1.000000	0.322223	7.36541e+06	-40539.1	955.819	-29790.3	0.000000	0.000000	6.322826	-0.025985	NaN	0.000000	0.001615	0.001758	28.0868	0.034008	0.002013	16.8961	107.181	-163.291	-0.056893	0.320962	-0.730082	-0.731342	-0.025985	16.8961	-0.728928	-4.855160E+9	5.352104E-12	NaN
38	1.000000	0.362283	7.36541e+06	-40539.1	955.818	-29790.3	0.000000	0.000000	6.362890	0.058931	NaN	0.000000	0.001646	0.001771	28.0858	0.068453	0.001935	35.3684	103.073	-164.292	0.124773	0.360965	-0.690022	-0.691339	0.058931	35.3684	-0.691272	-1.486944E+9	-3.963240E-11	NaN
38	1.000000	0.402296	7.36541e+06	-40539.1	955.819	-29790.3	0.000000	0.000000	6.402900	0.002451	NaN	0.000000	0.001592	0.001770	28.089	0.062711	0.001987	31.5676	-174.205	-166.481	-0.004096	0.400990	-0.650009	-0.651315	0.002451	31.5676	-0.650067	-4.058426E+8	-6.039442E-12	NaN
38	1.000000	0.442298	7.36541e+06	-40539.1	955.818	-29790.4	0.000000	0.000000	6.442905	0.042839	NaN	0.000000	0.001599	0.001757	28.0874	0.054501	0.002151	25.3414	-72.9749	-162.918	0.039215	0.441019	-0.610006	-0.611286	0.042839	25.3414	-0.611274	-1.190255E+8	-3.599124E-10	NaN
38	1.000000	0.482312	7.36541e+06	-40539.1	955.819	-29790.4	0.000000	0.000000	6.482921	0.104622	NaN	0.000000	0.001588	0.001783	28.0876	0.072867	0.001980	36.8074	113.146	-164.936	0.098736	0.481010	-0.569992	-0.571294	0.104622	36.8074	-0.572124	-3.435387E+7	-3.045418E-9	NaN
38	1.000000	0.522363	7.36541e+06	-40539.1	955.819	-29790.4	0.000000	0.000000	6.522966	-0.055269	NaN	0.000000	0.001579	0.001800	28.0876	0.089908	0.001989	45.2126	75.2983	-163.083	-0.022863	0.520996	-0.529941	-0.531308	-0.055269	45.2126	-0.529024	-8.69012e+06	6.359935E-9	NaN
38	1.000000	0.562357	7.36541e+06	-40539.1	955.818	-29790.4	0.000000	0.000000	6.562963	0.023355	NaN	0.000000	0.001580	0.001746	28.0864	0.089147	0.001859	47.9449	-90.9436	-164.234	0.076858	0.561063	-0.489947	-0.491241	0.023355	47.9449	-0.490313	-2.51051e+06	-9.303084E-9	NaN
38	1.000000	0.602359	7.36541e+06	-40539.1	955.819	-29790.4	0.000000	0.000000	6.602965	0.021594	NaN	0.000000	0.001607	0.001725	28.0864	0.019417	0.002134	9.098866	-141.052	-163.011	-0.001100	0.601113	-0.449945	-0.451191	0.021594	9.098866	-0.451725	-722162	-2.990251E-8	NaN
38	1.000000	0.642410	7.36541e+06	-40539.1	955.819	-29790.4	0.000000	0.000000	6.643018	0.089711	NaN	0.000000	0.001569	0.001785	28.0865	0.046545	0.001964	23.7018	-24.8217	-160.396	0.115982	0.641095	-0.409895	-0.411210	0.089711	23.7018	-0.412733	-202887	-4.421700E-7	NaN
38	1.000000	0.682406	7.36541e+06	-40539.1	955.818	-29790.4	0.000000	0.000000	6.683011	0.018397	NaN	0.000000	0.001562	0.001704	28.0893	0.078095	0.002107	37.066	-21.2094	-167.958	0.081840	0.681095	-0.369898	-0.371209	0.018397	37.066	-0.370271	-50121.6	-3.670496E-7	NaN
38	1.000000	0.722429	7.36541e+06	-40539.1	955.818	-29790.4	0.000000	0.000000	6.723036	0.067160	NaN	0.000000	0.001639	0.001735	28.0875	0.104875	0.001963	53.4279	113.435	-163.281	0.035898	0.721084	-0.329876	-0.331221	0.067160	53.4279	-0.330819	-13410.3	-5.008129E-6	NaN
38	1.000000	0.762417	7.36541e+06	-40539.1	955.818	-29790.4	0.000000	0.000000	6.763024	0.045469	NaN	0.000000	0.001574	0.001771	28.0887	0.050062	0.001901	26.3374	152.487	-164.614	0.092345	0.761146	-0.289887	-0.291158	0.045469	26.3374	-0.291182	-3475.37	-1.308318E-5	NaN
38	1.000000	0.802445	7.36541e+06	-40539.1	955.819	-29790.4	0.000000	0.000000	6.803051	0.036170	NaN	0.000000	0.001595	0.001733	28.0869	0.042864	0.002014	21.2847	148.937	-160.986	0.048264	0.801123	-0.249859	-0.251182	0.036170	21.2847	-0.251134	-856.033	-4.225290E-5	NaN
38	1.000000	0.842486	7.36542e+06	-40539.1	955.819	-29790.4	0.000000	0.000000	6.843092	0.021769	NaN	0.000000	0.001594	0.001695	28.0873	0.042966	0.002065	20.8101	-133.727	-162.815	0.057055	0.841195	-0.209818	-0.211109	0.021769	20.8101	-0.210603	-196.145	-0.000111	NaN
38	1.000000	0.882526	7.36542e+06	-40539.1	955.818	-29790.4	0.000000	0.000000	6.883132	0.041780	NaN	0.000000	0.001595	0.001714	28.0871	0.033287	0.002102	15.8359	-66.9597	-164.178	0.049268	0.881180	-0.169779	-0.171125	0.041780	15.8359	-0.171758	-44.0634	-0.000948	NaN
38	1.000000	0.922495	7.36542e+06	-40539.1	955.818	-29790.4	0.000000	0.000000	6.923101	0.035019	NaN	0.000000	0.001626	0.001722	28.0884	0.144431	0.001971	73.2701	2.370863	-163.462	-0.070833	0.921184	-0.129809	-0.131120	0.035019	73.2701	-0.130168	-7.678410	-0.004561	NaN
38	1.000000	0.962546	7.36542e+06	-40539.1	955.818	-29790.4	0.000000	0.000000	6.963152	0.022175	NaN	0.000000	0.001594	0.001774	28.0902	0.059032	0.002031	29.0635	14.0837	-164.188	0.028592	0.961229	-0.089758	-0.091075	0.022175	29.0635	-0.090331	-1.100437	-0.020151	NaN
38	1.000000	1.002531	7.36542e+06	-40539.1	955.818	-29790.4	0.000000	0.000000	7.003138	0.036371	NaN	0.000000	0.001644	0.001733	28.0899	0.019706	0.002062	9.556329	-27.4757	-162.12	0.047972	1.001263	-0.049773	-0.051041	0.036371	9.556329	-0.052628	-0.109467	-0.332258	NaN
38	1.000000	1.042573	7.36542e+06	-40539.1	955.817	-29790.4	0.000000	0.000000	7.043176	-0.020709	NaN	0.000000	0.001634	0.001744	28.0898	0.027547	0.001812	15.2007	-19.21	-164.45	0.009885	1.041248	-0.009732	-0.011056	-0.020709	15.2007	-0.008710	-0.005645	3.668317	NaN
38	2.000000	1.067134	7.36542e+06	-40539.1	955.818	-29790.4	0.000000	0.000000	7.068445	17.1855	NaN	0.000000	0.001615	0.001754	28.0898	14.9926	0.001848	8110.75	7.725982	-175.071	17.1681	1.066862	0.014830	0.014558	17.1855	8110.75	0.013241	0.013010	1320.91	64966.6
38	2.000000	1.077039	7.36542e+06	-40539.1	955.819	-29790.4	0.000000	0.000000	7.079371	42.0257	NaN	0.000000	0.001638	0.001727	28.0887	25.7718	0.001863	13835.2	0.943418	-173.618	39.7961	1.076793	0.024735	0.024488	42.0257	13835.2	0.022457	0.026551	1582.84	77574.7
38	2.000000	1.087063	7.36542e+06	-40539.1	955.82	-29790.4	0.000000	0.000000	7.090923	79.2091	NaN	0.000000	0.001598	0.001756	28.0893	35.561	0.001811	19640.6	4.877963	-179.835	78.4338	1.086767	0.034759	0.034462	79.2091	19640.6	0.031734	0.044414	1783.41	85146.5
38	2.000000	1.096981	7.36542e+06	-40539.1	955.82	-29790.4	0.000000	0.000000	7.102769	126.129	NaN	0.000000	0.001591	0.001729	28.0896	44.6087	0.001710	26085.8	0.841366	-179.04	122.888	1.096744	0.044677	0.044439	126.129	26085.8	0.041050	0.066771	1888.97	92232.3
38	2.000000	1.107031	7.36542e+06	-40539.1	955.818	-29790.4	0.000000	0.000000	7.115057	180.569	NaN	0.000000	0.001587	0.001715	28.0909	56.1434	0.001720	32643.5	6.003590	173.744	179.474	1.106793	0.054727	0.054489	180.569	32643.5	0.050578	0.094209	1916.68	97167.9
38	2.000000	1.116983	7.36542e+06	-40539.1	955.819	-29790.4	0.000000	0.000000	7.127689	245.802	NaN	0.000000	0.001605	0.001743	28.091	65.541	0.001869	35067.9	5.178025	174.469	244.296	1.116687	0.064679	0.064383	245.802	35067.9	0.059422	0.123743	1986.39	91080
38	2.000000	1.126958	7.36542e+06	-40539.1	955.818	-29790.4	0.000000	0.000000	7.140490	314.562	NaN	0.000000	0.001615	0.001735	28.0918	75.4725	0.001803	41859	8.199224	169.971	311.984	1.126729	0.074653	0.074425	314.562	41859	0.069017	0.160113	1964.63	95576.1
38	2.000000	1.136949	7.36542e+06	-40539.1	955.819	-29790.4	0.000000	0.000000	7.153594	390.325	NaN	0.000000	0.001605	0.001738	28.089	84.1708	0.001802	46709.3	3.359122	174.223	387.356	1.136793	0.084645	0.084489	390.325	46709.3	0.078377	0.199825	1953.33	95466.6
38	2.000000	1.146961	7.36542e+06	-40539.1	955.819	-29790.4	0.000000	0.000000	7.167363	481.736	NaN	0.000000	0.001595	0.001737	28.0902	92.5548	0.001736	53302.5	2.955297	173.944	479.783	1.146687	0.094656	0.094382	481.736	53302.5	0.087878	0.244321	1971.73	98523.5
38	2.000000	1.156946	7.36542e+06	-40539.1	955.818	-29790.4	0.000000	0.000000	7.181329	578.615	NaN	0.000000	0.001629	0.001764	28.0899	103.106	0.001707	60388.7	3.447180	172.376	575.69	1.156677	0.104641	0.104373	578.615	60388.7	0.097455	0.293379	1972.25	101863
38	2.000000	1.160424	7.36542e+06	-40539.1	955.819	-29790.4	0.000000	0.000000	7.186578	621.691	NaN	0.000000	0.001612	0.001738	28.1292	107.532	0.001837	58529.6	3.973126	-7.438764	618.156	1.160021	0.108120	0.107716	621.691	58529.6	0.100153	0.307956	2018.77	96361.7