File: remote_trans/data/nanoindenter/0828-1/data/Data_2025-08-06,11h17m57s/2025-07-22_16-23-58_1_235.txt
2025-07-22, 16:23:58, 1
Index	Phase	Displacement	Time	Pos X	Pos Y	Pos Z	Rot A	Rot B	Piezo Z	Force A	Force B	Gripper	Voltage A	Voltage B	Temperature	Amplitude force	Amplitude pos	Stiffness	Phase shift	Phase excitation	Force A raw	Displacement raw	HMax	HMax raw	Real Force	Real Stiffness	Contact Depth	Area	Hardness	Reduced Mod.
[#]	[#]	[um]	[s]	[um]	[um]	[um]	[m°]	[m°]	[um]	[uN]	[uN]	[V]	[V]	[V]	[°C]	[uN]	[um]	[N/m]	[°]	[°]	[uN]	[um]	[um]	[um]	[uN]	[N/m]	[um]	[um^2]	[MPa]	[MPa]
235	1.000000	0.002716	7.36734e+06	-50389.1	955.818	-29756.1	0.000000	0.000000	6.002810	0.063293	NaN	0.000000	0.001613	0.001623	28.0773	0.065283	0.001016	64.28	-13.9948	-166.075	-0.007843	0.001423	-1.154492	-1.155785	0.063293	64.28	-1.155230	-2.760150E+15	-2.293099E-17	NaN
235	1.000000	0.046671	7.36734e+06	-50389.1	955.817	-29756.1	0.000000	0.000000	6.046763	0.003833	NaN	0.000000	0.001589	0.001597	28.0791	0.076773	0.001969	38.9848	145.49	-168.898	-0.024963	0.045310	-1.110537	-1.111897	0.003833	38.9848	-1.110610	-6.957887E+14	-5.509014E-18	NaN
235	1.000000	0.090655	7.36734e+06	-50389.1	955.818	-29756.1	0.000000	0.000000	6.090749	0.052776	NaN	0.000000	0.001625	0.001607	28.0785	0.052592	0.001983	26.5166	166.053	-169.664	0.048341	0.089380	-1.066552	-1.067827	0.052776	26.5166	-1.068045	-1.866031E+14	-2.828248E-16	NaN
235	1.000000	0.134697	7.36734e+06	-50389.1	955.819	-29756.1	0.000000	0.000000	6.134790	0.021003	NaN	0.000000	0.001623	0.001621	28.0784	0.061121	0.002166	28.2246	47.6036	-166.345	0.023777	0.133372	-1.022510	-1.023835	0.021003	28.2246	-1.023068	-4.636970E+13	-4.529485E-16	NaN
235	1.000000	0.178719	7.36734e+06	-50389.1	955.819	-29756.1	0.000000	0.000000	6.178813	0.055710	NaN	0.000000	0.001604	0.001619	28.0775	0.106911	0.002069	51.6745	94.1286	-163.843	0.101337	0.177390	-0.978488	-0.979817	0.055710	51.6745	-0.979297	-1.193808E+13	-4.666590E-15	NaN
235	1.000000	0.222735	7.36734e+06	-50389.1	955.818	-29756.1	0.000000	0.000000	6.222828	0.027432	NaN	0.000000	0.001655	0.001599	28.0771	0.058057	0.002072	28.024	148.089	-164.226	0.032943	0.221389	-0.934472	-0.935818	0.027432	28.024	-0.935206	-3.037085E+12	-9.032397E-15	NaN
235	1.000000	0.266747	7.36734e+06	-50389.1	955.818	-29756.1	0.000000	0.000000	6.266838	-0.011211	NaN	0.000000	0.001688	0.001658	28.077	0.072000	0.002007	35.8708	-158.136	-168.515	0.036947	0.265442	-0.890460	-0.891766	-0.011211	35.8708	-0.890226	-7.498347E+11	1.495128E-14	NaN
235	1.000000	0.310755	7.36734e+06	-50389.1	955.819	-29756.1	0.000000	0.000000	6.310846	-0.024439	NaN	0.000000	0.001629	0.001630	28.0784	0.080679	0.002030	39.7372	135.848	-165.885	-0.027015	0.309473	-0.846452	-0.847734	-0.024439	39.7372	-0.845991	-1.889909E+11	1.293147E-13	NaN
235	1.000000	0.354770	7.36735e+06	-50389.1	955.818	-29756.1	0.000000	0.000000	6.354862	0.010233	NaN	0.000000	0.001646	0.001624	28.0786	0.077853	0.002000	38.925	136.799	-163.466	0.086275	0.353493	-0.802437	-0.803714	0.010233	38.925	-0.802634	-4.882243E+10	-2.095876E-13	NaN
235	1.000000	0.398770	7.36735e+06	-50389.1	955.819	-29756.1	0.000000	0.000000	6.398864	0.055475	NaN	0.000000	0.001639	0.001569	28.0789	0.028179	0.001937	14.5494	142.142	-168.849	-0.025977	0.397491	-0.758438	-0.759716	0.055475	14.5494	-0.761297	-1.339525E+10	-4.141427E-12	NaN
235	1.000000	0.442808	7.36735e+06	-50389.1	955.819	-29756.1	0.000000	0.000000	6.442899	-0.001470	NaN	0.000000	0.001600	0.001611	28.0775	0.065365	0.002042	32.0121	-163.812	-166.826	-0.066356	0.441552	-0.714399	-0.715656	-0.001470	32.0121	-0.714365	-3.073324E+9	4.782864E-13	NaN
235	1.000000	0.486856	7.36735e+06	-50389.1	955.819	-29756.1	0.000000	0.000000	6.486953	0.118571	NaN	0.000000	0.001587	0.001552	28.0773	0.074923	0.001975	37.9262	-41.6283	-167.953	0.075400	0.485550	-0.670351	-0.671658	0.118571	37.9262	-0.672696	-8.284872E+8	-1.431180E-10	NaN
235	1.000000	0.530840	7.36735e+06	-50389.1	955.818	-29756.1	0.000000	0.000000	6.530932	0.007563	NaN	0.000000	0.001545	0.001573	28.077	0.049621	0.001958	25.3403	-1.452825	-169.527	0.004611	0.529547	-0.626367	-0.627660	0.007563	25.3403	-0.626591	-1.932845E+8	-3.913005E-11	NaN
235	1.000000	0.574901	7.36735e+06	-50389.1	955.819	-29756.1	0.000000	0.000000	6.574994	0.023925	NaN	0.000000	0.001582	0.001586	28.0774	0.195833	0.002028	96.567	130.826	-163.322	-0.002397	0.573587	-0.582306	-0.583620	0.023925	96.567	-0.582492	-4.776564E+7	-5.008853E-10	NaN
235	1.000000	0.618895	7.36735e+06	-50389.1	955.818	-29756.1	0.000000	0.000000	6.618987	-0.005989	NaN	0.000000	0.001620	0.001572	28.0787	0.112829	0.001935	58.3164	-149.555	-166.769	0.000603	0.617574	-0.538312	-0.539634	-0.005989	58.3164	-0.538235	-1.166475E+7	5.134272E-10	NaN
235	1.000000	0.662940	7.36735e+06	-50389.1	955.819	-29756.1	0.000000	0.000000	6.663031	-0.031765	NaN	0.000000	0.001566	0.001622	28.0785	0.050294	0.001980	25.4054	45.2588	-166.082	-0.097232	0.661611	-0.494267	-0.495596	-0.031765	25.4054	-0.493329	-2.76633e+06	1.148255E-8	NaN
235	1.000000	0.706902	7.36735e+06	-50389.1	955.818	-29756.1	0.000000	0.000000	6.706995	0.029881	NaN	0.000000	0.001606	0.001558	28.0786	0.082060	0.001937	42.3704	2.010685	-166.089	0.000423	0.705656	-0.450305	-0.451551	0.029881	42.3704	-0.450834	-701594	-4.258959E-8	NaN
235	1.000000	0.750958	7.36735e+06	-50389.1	955.82	-29756.1	0.000000	0.000000	6.751051	0.020504	NaN	0.000000	0.001554	0.001569	28.0776	0.161211	0.001864	86.4827	155.121	-166.24	-0.009765	0.749628	-0.406249	-0.407580	0.020504	86.4827	-0.406427	-165030	-1.242438E-7	NaN
235	1.000000	0.794975	7.36735e+06	-50389.1	955.818	-29756.1	0.000000	0.000000	6.795069	0.054138	NaN	0.000000	0.001611	0.001596	28.0771	0.102505	0.001918	53.4402	-27.8074	-163.309	0.132732	0.793631	-0.362232	-0.363576	0.054138	53.4402	-0.362992	-39361.7	-1.375409E-6	NaN
235	1.000000	0.838999	7.36735e+06	-50389.1	955.818	-29756.1	0.000000	0.000000	6.839093	0.059795	NaN	0.000000	0.001589	0.001638	28.0773	0.101705	0.001954	52.0578	105.077	-164.572	0.017487	0.837680	-0.318208	-0.319528	0.059795	52.0578	-0.319070	-9014.56	-6.633145E-6	NaN
235	1.000000	0.882990	7.36735e+06	-50389.1	955.818	-29756.1	0.000000	0.000000	6.883081	-0.004089	NaN	0.000000	0.001570	0.001594	28.0786	0.040427	0.002106	19.1994	-40.7541	-166.704	-0.030770	0.881725	-0.274217	-0.275483	-0.004089	19.1994	-0.274058	-1919.23	2.130534E-6	NaN
235	1.000000	0.927013	7.36735e+06	-50389.1	955.819	-29756.1	0.000000	0.000000	6.927105	0.018034	NaN	0.000000	0.001550	0.001580	28.0782	0.078753	0.002025	38.8959	-174.767	-165.483	0.006026	0.925748	-0.230195	-0.231460	0.018034	38.8959	-0.230542	-408.395	-4.415723E-5	NaN
235	1.000000	0.971013	7.36735e+06	-50389.1	955.819	-29756.1	0.000000	0.000000	6.971104	-0.004754	NaN	0.000000	0.001560	0.001612	28.0786	0.119636	0.001941	61.6341	-150.58	-165.572	-0.023807	0.969721	-0.186195	-0.187486	-0.004754	61.6341	-0.186137	-77.4947	6.134911E-5	NaN
235	1.000000	1.015054	7.36735e+06	-50389.1	955.82	-29756.1	0.000000	0.000000	7.015146	0.023984	NaN	0.000000	0.001614	0.001645	28.0775	0.095059	0.001988	47.812	-102.07	-164.843	0.096347	1.013792	-0.142153	-0.143415	0.023984	47.812	-0.142530	-13.1916	-0.001818	NaN
235	1.000000	1.059088	7.36735e+06	-50389.1	955.819	-29756.1	0.000000	0.000000	7.059182	0.045005	NaN	0.000000	0.001595	0.001628	28.0772	0.115875	0.001991	58.1923	-38.0317	-163.694	0.004327	1.057792	-0.098119	-0.099415	0.045005	58.1923	-0.098699	-1.709358	-0.026329	NaN
235	1.000000	1.103085	7.36735e+06	-50389.1	955.819	-29756.1	0.000000	0.000000	7.103181	0.093896	NaN	0.000000	0.001651	0.001624	28.0772	0.010835	0.002136	5.071824	66.9263	-165.163	0.109624	1.101808	-0.054122	-0.055399	0.093896	5.071824	-0.068007	-0.301386	-0.311548	NaN
235	1.000000	1.147104	7.36735e+06	-50389.1	955.819	-29756.1	0.000000	0.000000	7.147197	0.031750	NaN	0.000000	0.001604	0.001601	28.0787	0.089688	0.002045	43.8528	-105.217	-160.688	0.085472	1.145781	-0.010103	-0.011426	0.031750	43.8528	-0.010646	-0.006756	-4.699324	NaN
235	2.000000	1.176616	7.36735e+06	-50389.1	955.82	-29756.1	0.000000	0.000000	7.177297	14.3362	NaN	0.000000	0.001602	0.001639	28.0788	14.4285	0.001750	8242.54	7.629644	-176.375	13.8008	1.176351	0.019408	0.019144	14.3362	8242.54	0.018104	0.019650	729.589	53722.4
235	2.000000	1.187576	7.36735e+06	-50389.1	955.818	-29756.1	0.000000	0.000000	7.189237	38.1714	NaN	0.000000	0.001578	0.001586	28.0784	25.0306	0.001737	14411.8	5.575134	-179.63	37.3437	1.187292	0.030368	0.030084	38.1714	14411.8	0.028382	0.037457	1019.08	68033.9
235	2.000000	1.198540	7.36735e+06	-50389.1	955.82	-29756.1	0.000000	0.000000	7.201299	64.8648	NaN	0.000000	0.001576	0.001581	28.0773	34.5553	0.001780	19408.6	5.529280	178.283	64.3698	1.198246	0.041333	0.041038	64.8648	19408.6	0.038826	0.061030	1062.83	71778.6
235	2.000000	1.209525	7.36735e+06	-50389.1	955.819	-29756.1	0.000000	0.000000	7.214123	109.578	NaN	0.000000	0.001593	0.001561	28.077	46.1118	0.001877	24561.5	2.048909	-179.498	109.632	1.209197	0.052318	0.051990	109.578	24561.5	0.048972	0.089262	1227.59	75109.4
235	2.000000	1.220474	7.36735e+06	-50389.1	955.819	-29756.1	0.000000	0.000000	7.227336	164.623	NaN	0.000000	0.001534	0.001620	28.078	55.8234	0.001802	30986.9	4.003718	176.483	163.633	1.220150	0.063267	0.062943	164.623	30986.9	0.059283	0.123249	1335.7	80641.7
235	2.000000	1.231374	7.36735e+06	-50389.1	955.82	-29756.1	0.000000	0.000000	7.240959	230.875	NaN	0.000000	0.001527	0.001540	28.0785	64.9551	0.001776	36579.1	6.980763	172.366	225.169	1.231174	0.074166	0.073967	230.875	36579.1	0.069433	0.161788	1427.03	83087
235	2.000000	1.242464	7.36735e+06	-50389.1	955.82	-29756.1	0.000000	0.000000	7.254633	293.717	NaN	0.000000	0.001549	0.001642	28.0785	76.9383	0.001736	44321.7	3.211187	174.703	289.907	1.242108	0.085256	0.084901	293.717	44321.7	0.080286	0.208429	1409.19	88697.3
235	2.000000	1.253436	7.36735e+06	-50389.1	955.82	-29756.1	0.000000	0.000000	7.268610	366.786	NaN	0.000000	0.001555	0.001594	28.0782	85.9225	0.001895	45352.8	2.210304	175.61	363.636	1.253100	0.096229	0.095892	366.786	45352.8	0.090163	0.255646	1434.74	81951.7
235	2.000000	1.264513	7.36735e+06	-50389.1	955.82	-29756.1	0.000000	0.000000	7.282538	436.095	NaN	0.000000	0.001564	0.001625	28.0773	96.2277	0.001910	50368.2	2.983354	173.676	437.505	1.264313	0.107306	0.107105	436.095	50368.2	0.100812	0.311568	1399.68	82442.9
235	2.000000	1.270515	7.36735e+06	-50389.1	955.82	-29756.1	0.000000	0.000000	7.290563	485.298	NaN	0.000000	0.001534	0.001647	28.0771	100.204	0.001677	59761.2	3.153090	172.455	486.407	1.270143	0.113308	0.112936	485.298	59761.2	0.107217	0.347684	1395.8	92597.7