File: remote_trans/data/nanoindenter/0828-1/data/Data_2025-08-06,11h17m57s/2025-07-22_16-23-58_1_1176.txt
2025-07-22, 16:23:58, 1
Index	Phase	Displacement	Time	Pos X	Pos Y	Pos Z	Rot A	Rot B	Piezo Z	Force A	Force B	Gripper	Voltage A	Voltage B	Temperature	Amplitude force	Amplitude pos	Stiffness	Phase shift	Phase excitation	Force A raw	Displacement raw	HMax	HMax raw	Real Force	Real Stiffness	Contact Depth	Area	Hardness	Reduced Mod.
[#]	[#]	[um]	[s]	[um]	[um]	[um]	[m°]	[m°]	[um]	[uN]	[uN]	[V]	[V]	[V]	[°C]	[uN]	[um]	[N/m]	[°]	[°]	[uN]	[um]	[um]	[um]	[uN]	[N/m]	[um]	[um^2]	[MPa]	[MPa]
1176	1.000000	0.002615	7.37655e+06	-56789.1	1105.82	-29737.9	0.000000	0.000000	6.002817	-0.029481	NaN	0.000000	0.001584	0.001732	28.0826	0.033057	0.000984	33.609	-83.2598	-160.955	-0.017236	0.001364	-1.185741	-1.186992	-0.029481	33.609	-1.185083	-6.933712E+15	4.251883E-18	NaN
1176	1.000000	0.046532	7.37655e+06	-56789.1	1105.82	-29737.9	0.000000	0.000000	6.046733	-0.048200	NaN	0.000000	0.001574	0.001705	28.0815	0.029285	0.001912	15.3192	-11.2687	-162.689	0.021503	0.045228	-1.141823	-1.143128	-0.048200	15.3192	-1.139464	-1.696467E+15	2.841181E-17	NaN
1176	1.000000	0.090584	7.37655e+06	-56789.1	1105.82	-29737.9	0.000000	0.000000	6.090786	-0.011602	NaN	0.000000	0.001598	0.001714	28.0817	0.070583	0.001895	37.2563	-174.229	-164.48	0.030911	0.089236	-1.097772	-1.099120	-0.011602	37.2563	-1.097538	-4.645400E+14	2.497550E-17	NaN
1176	1.000000	0.134593	7.37655e+06	-56789.1	1105.82	-29737.9	0.000000	0.000000	6.134791	-0.110557	NaN	0.000000	0.001522	0.001718	28.0815	0.019055	0.002141	8.898407	42.4418	-162.985	-0.036034	0.133281	-1.053763	-1.055075	-0.110557	8.898407	-1.044445	-8.989443E+13	1.229850E-15	NaN
1176	1.000000	0.178603	7.37655e+06	-56789.1	1105.82	-29737.9	0.000000	0.000000	6.178806	0.003352	NaN	0.000000	0.001486	0.001692	28.0826	0.077993	0.002124	36.7211	-73.1653	-159.902	-0.044364	0.177270	-1.009753	-1.011086	0.003352	36.7211	-1.009821	-3.075909E+13	-1.089680E-16	NaN
1176	1.000000	0.222618	7.37655e+06	-56789.1	1105.82	-29737.9	0.000000	0.000000	6.222821	-0.008630	NaN	0.000000	0.001478	0.001703	28.083	0.065650	0.001886	34.8016	1.123412	-163.024	-0.046012	0.221294	-0.965737	-0.967062	-0.008630	34.8016	-0.965551	-7.792963E+12	1.107468E-15	NaN
1176	1.000000	0.266628	7.37655e+06	-56789.1	1105.82	-29737.9	0.000000	0.000000	6.266830	-0.027700	NaN	0.000000	0.001518	0.001703	28.0827	0.076239	0.002098	36.331	-22.5301	-166.313	-0.090990	0.265389	-0.921728	-0.922967	-0.027700	36.331	-0.921156	-1.962520E+12	1.411429E-14	NaN
1176	1.000000	0.310656	7.37655e+06	-56789.1	1105.82	-29737.9	0.000000	0.000000	6.310856	-0.076895	NaN	0.000000	0.001549	0.001689	28.0817	0.056386	0.001886	29.8898	-143.633	-160.445	-0.033820	0.309320	-0.877699	-0.879036	-0.076895	29.8898	-0.875770	-4.780744E+11	1.608435E-13	NaN
1176	1.000000	0.354673	7.37655e+06	-56789.1	1105.82	-29737.9	0.000000	0.000000	6.354877	0.017849	NaN	0.000000	0.001452	0.001689	28.0815	0.079660	0.001862	42.7738	43.5041	-167.755	-0.026692	0.353314	-0.833683	-0.835042	0.017849	42.7738	-0.833996	-1.299997E+11	-1.373028E-13	NaN
1176	1.000000	0.398687	7.37655e+06	-56789.1	1105.82	-29737.9	0.000000	0.000000	6.398888	-0.032717	NaN	0.000000	0.001489	0.001693	28.0813	0.106104	0.002037	52.0777	-33.7903	-164.174	0.042817	0.397400	-0.789669	-0.790955	-0.032717	52.0777	-0.789198	-3.207670E+10	1.019959E-12	NaN
1176	1.000000	0.442718	7.37655e+06	-56789.1	1105.82	-29737.9	0.000000	0.000000	6.442921	-0.013793	NaN	0.000000	0.001510	0.001664	28.0829	0.096381	0.002021	47.6935	-1.443125	-164.199	-0.016752	0.441415	-0.745637	-0.746941	-0.013793	47.6935	-0.745420	-8.144654E+9	1.693489E-12	NaN
1176	1.000000	0.486727	7.37655e+06	-56789.1	1105.82	-29737.9	0.000000	0.000000	6.486931	0.013455	NaN	0.000000	0.001543	0.001665	28.0829	0.107061	0.001992	53.7365	49.8435	-165.353	0.036896	0.485418	-0.701629	-0.702937	0.013455	53.7365	-0.701817	-2.071758E+9	-6.494488E-12	NaN
1176	1.000000	0.530763	7.37655e+06	-56789.1	1105.82	-29737.9	0.000000	0.000000	6.530965	-0.032710	NaN	0.000000	0.001565	0.001695	28.0826	0.025232	0.001946	12.969	-75.9852	-158.053	-0.028202	0.529443	-0.657592	-0.658912	-0.032710	12.969	-0.655701	-4.848069E+8	6.747048E-11	NaN
1176	1.000000	0.574765	7.37655e+06	-56789.1	1105.82	-29737.9	0.000000	0.000000	6.574967	-0.009126	NaN	0.000000	0.001545	0.001705	28.0816	0.101903	0.001956	52.0968	73.3786	-164.662	-0.021462	0.573458	-0.613591	-0.614898	-0.009126	52.0968	-0.613460	-1.275578E+8	7.154424E-11	NaN
1176	1.000000	0.618791	7.37655e+06	-56789.1	1105.82	-29737.9	0.000000	0.000000	6.618993	-0.017503	NaN	0.000000	0.001556	0.001689	28.0817	0.095766	0.002054	46.6232	50.171	-168.312	-0.024556	0.617506	-0.569565	-0.570849	-0.017503	46.6232	-0.569283	-3.138556E+7	5.576848E-10	NaN
1176	1.000000	0.662794	7.37655e+06	-56789.1	1105.82	-29737.9	0.000000	0.000000	6.662997	-0.012514	NaN	0.000000	0.001505	0.001694	28.0816	0.072206	0.002008	35.9654	-114.148	-165.451	-0.063078	0.661465	-0.525561	-0.526891	-0.012514	35.9654	-0.525300	-7.71412e+06	1.622251E-9	NaN
1176	1.000000	0.706801	7.37655e+06	-56789.1	1105.82	-29737.9	0.000000	0.000000	6.707005	0.015982	NaN	0.000000	0.001546	0.001701	28.0834	0.067441	0.002037	33.1141	-122.322	-168.42	0.032931	0.705521	-0.481555	-0.482835	0.015982	33.1141	-0.481917	-1.91581e+06	-8.342243E-9	NaN
1176	1.000000	0.750836	7.37655e+06	-56789.1	1105.82	-29737.9	0.000000	0.000000	6.751037	-0.039783	NaN	0.000000	0.001540	0.001688	28.0832	0.084687	0.001937	43.7244	41.603	-165.646	-0.062366	0.749560	-0.437520	-0.438796	-0.039783	43.7244	-0.436837	-445360	8.932827E-8	NaN
1176	1.000000	0.794873	7.37655e+06	-56789.1	1105.82	-29737.9	0.000000	0.000000	6.795077	0.029429	NaN	0.000000	0.001560	0.001669	28.0831	0.100730	0.002057	48.96	178.183	-167.796	-0.019821	0.793567	-0.393483	-0.394789	0.029429	48.96	-0.393934	-109497	-2.687672E-7	NaN
1176	1.000000	0.838861	7.37655e+06	-56789.1	1105.82	-29737.9	0.000000	0.000000	6.839067	0.056617	NaN	0.000000	0.001500	0.001698	28.0817	0.063205	0.002051	30.8182	9.755375	-164.801	0.048750	0.837586	-0.349495	-0.350770	0.056617	30.8182	-0.350873	-26282.3	-2.154195E-6	NaN
1176	1.000000	0.882911	7.37655e+06	-56789.1	1105.82	-29737.9	0.000000	0.000000	6.883115	0.008907	NaN	0.000000	0.001514	0.001678	28.0816	0.065127	0.001952	33.3687	15.9467	-164.93	0.006699	0.881593	-0.305445	-0.306763	0.008907	33.3687	-0.305645	-5708.53	-1.560371E-6	NaN
1176	1.000000	0.926920	7.37656e+06	-56789.1	1105.82	-29737.9	0.000000	0.000000	6.927125	0.047215	NaN	0.000000	0.001576	0.001697	28.0817	0.082652	0.002039	40.5278	161.898	-167.864	0.024200	0.925640	-0.261435	-0.262715	0.047215	40.5278	-0.262309	-1271.38	-3.713669E-5	NaN
1176	1.000000	0.970924	7.37656e+06	-56789.1	1105.82	-29737.9	0.000000	0.000000	6.971127	-0.005342	NaN	0.000000	0.001551	0.001650	28.0831	0.046699	0.001958	23.8522	171.198	-165.984	-0.035037	0.969641	-0.217432	-0.218714	-0.005342	23.8522	-0.217264	-251.113	2.127222E-5	NaN
1176	1.000000	1.014973	7.37656e+06	-56789.1	1105.82	-29737.9	0.000000	0.000000	7.015177	0.005641	NaN	0.000000	0.001538	0.001677	28.083	0.019603	0.002082	9.413450	-84.3947	-168.546	-0.015835	1.013658	-0.173383	-0.174698	0.005641	9.413450	-0.173832	-47.8505	-0.000118	NaN
1176	1.000000	1.058962	7.37656e+06	-56789.1	1105.82	-29737.9	0.000000	0.000000	7.059165	0.000828	NaN	0.000000	0.001515	0.001665	28.0826	0.068862	0.002070	33.2591	-124.295	-168.945	-0.005283	1.057657	-0.129394	-0.130698	0.000828	33.2591	-0.129413	-7.423206	-0.000111	NaN
1176	1.000000	1.102949	7.37656e+06	-56789.1	1105.82	-29737.9	0.000000	0.000000	7.103151	-0.048140	NaN	0.000000	0.001614	0.001700	28.0818	0.034385	0.002070	16.6104	-162.251	-166.164	-0.057937	1.101623	-0.085406	-0.086732	-0.048140	16.6104	-0.083233	-0.744154	0.064691	NaN
1176	1.000000	1.147031	7.37656e+06	-56789.1	1105.82	-29737.9	0.000000	0.000000	7.147234	-0.001864	NaN	0.000000	0.001553	0.001688	28.0815	0.030776	0.001972	15.6081	-96.2494	-167.398	0.008175	1.145676	-0.041325	-0.042679	-0.001864	15.6081	-0.041235	-0.049310	0.037795	NaN
1176	1.000000	1.191013	7.37656e+06	-56789.1	1105.82	-29737.9	0.000000	0.000000	7.191250	0.830380	NaN	0.000000	0.001560	0.001707	28.0815	1.350304	0.001904	709.026	9.888670	-166.815	0.129476	1.189691	0.002657	0.001335	0.830380	709.026	0.001779	0.001377	603.247	17460
1176	2.000000	1.206474	7.37656e+06	-56789.1	1105.82	-29737.9	0.000000	0.000000	7.207557	21.3761	NaN	0.000000	0.001520	0.001691	28.0819	16.7936	0.001689	9940.21	3.145346	-174.301	20.3839	1.206165	0.018118	0.017809	21.3761	9940.21	0.016506	0.017346	1232.35	68956.1
1176	2.000000	1.217462	7.37656e+06	-56789.1	1105.82	-29737.9	0.000000	0.000000	7.219313	40.0507	NaN	0.000000	0.001552	0.001694	28.0826	27.5483	0.001811	15212.8	8.797890	177.999	39.9645	1.217127	0.029106	0.028771	40.0507	15212.8	0.027131	0.035008	1144.05	74285
1176	2.000000	1.228476	7.37656e+06	-56789.1	1105.82	-29737.9	0.000000	0.000000	7.231385	65.7485	NaN	0.000000	0.001549	0.001731	28.0827	37.3329	0.001780	20973.9	6.147874	176.612	65.6503	1.228131	0.040121	0.039775	65.7485	20973.9	0.037770	0.058392	1125.99	79300.7
1176	2.000000	1.239360	7.37656e+06	-56789.1	1105.82	-29737.9	0.000000	0.000000	7.243533	96.5117	NaN	0.000000	0.001520	0.001730	28.0827	46.9265	0.001840	25509.3	4.051098	176.713	93.8179	1.239054	0.051004	0.050699	96.5117	25509.3	0.048166	0.086830	1111.51	79092.9
1176	2.000000	1.250421	7.37656e+06	-56789.1	1105.82	-29737.9	0.000000	0.000000	7.256372	139.694	NaN	0.000000	0.001525	0.001710	28.0814	55.8735	0.001697	32932.6	3.827435	174.626	139.543	1.250174	0.062066	0.061818	139.694	32932.6	0.058884	0.121838	1146.55	86200
1176	2.000000	1.261458	7.37656e+06	-56789.1	1105.82	-29737.9	0.000000	0.000000	7.269634	193.78	NaN	0.000000	0.001565	0.001691	28.0815	68.3279	0.001699	40218	3.586095	173.704	197.996	1.261127	0.073103	0.072771	193.78	40218	0.069489	0.162015	1196.06	91288.4
1176	2.000000	1.272362	7.37656e+06	-56789.1	1105.82	-29737.9	0.000000	0.000000	7.283182	258.05	NaN	0.000000	0.001540	0.001686	28.0814	78.2379	0.001725	45344	4.250232	172.697	255.345	1.272027	0.084006	0.083671	258.05	45344	0.079738	0.205940	1253.03	91289.8
1176	2.000000	1.283291	7.37656e+06	-56789.1	1105.82	-29737.9	0.000000	0.000000	7.296512	316.396	NaN	0.000000	0.001535	0.001725	28.0824	88.5196	0.001748	50636.3	7.044227	168.146	310.404	1.283086	0.094936	0.094731	316.396	50636.3	0.090249	0.256078	1235.55	91421.7
1176	2.000000	1.294379	7.37656e+06	-56789.1	1105.82	-29737.9	0.000000	0.000000	7.311503	411.275	NaN	0.000000	0.001557	0.001680	28.0824	98.9368	0.001848	53548.1	3.209699	172.235	410.272	1.294000	0.106024	0.105644	411.275	53548.1	0.100263	0.308558	1332.89	88074.3
1176	2.000000	1.295427	7.37656e+06	-56789.1	1105.82	-29737.9	0.000000	0.000000	7.312864	418.884	NaN	0.000000	0.001552	0.001665	28.0826	100.104	0.001759	56923.2	8.112513	167.879	420.524	1.294900	0.107071	0.106544	418.884	56923.2	0.101552	0.315645	1327.07	92568.4