File: remote_trans/data/nanoindenter/0828-1/data/Data_2025-08-06,11h17m57s/2025-07-22_16-23-58_1_321.txt
2025-07-22, 16:23:58, 1
Index	Phase	Displacement	Time	Pos X	Pos Y	Pos Z	Rot A	Rot B	Piezo Z	Force A	Force B	Gripper	Voltage A	Voltage B	Temperature	Amplitude force	Amplitude pos	Stiffness	Phase shift	Phase excitation	Force A raw	Displacement raw	HMax	HMax raw	Real Force	Real Stiffness	Contact Depth	Area	Hardness	Reduced Mod.
[#]	[#]	[um]	[s]	[um]	[um]	[um]	[m°]	[m°]	[um]	[uN]	[uN]	[V]	[V]	[V]	[°C]	[uN]	[um]	[N/m]	[°]	[°]	[uN]	[um]	[um]	[um]	[uN]	[N/m]	[um]	[um^2]	[MPa]	[MPa]
321	1.000000	0.002292	7.36821e+06	-54689.1	955.818	-29743.3	0.000000	0.000000	6.002806	-0.057914	NaN	0.000000	0.001657	0.001757	28.077	0.073317	0.000962	76.2426	-47.4302	-163.123	-0.022570	0.001061	-1.098808	-1.100039	-0.057914	76.2426	-1.098238	-4.746963E+14	1.220032E-16	NaN
321	1.000000	0.044237	7.36821e+06	-54689.1	955.818	-29743.3	0.000000	0.000000	6.044750	-0.061781	NaN	0.000000	0.001643	0.001711	28.0773	0.124534	0.002056	60.5659	176.669	15.4816	-0.085755	0.042907	-1.056864	-1.058193	-0.061781	60.5659	-1.056098	-1.289396E+14	4.791493E-16	NaN
321	1.000000	0.086267	7.36821e+06	-54689.1	955.818	-29743.3	0.000000	0.000000	6.086780	-0.060245	NaN	0.000000	0.001673	0.001719	28.0786	0.053423	0.001951	27.3776	28.7289	-169.275	-0.033034	0.084973	-1.014833	-1.016127	-0.060245	27.3776	-1.013183	-3.413612E+13	1.764840E-15	NaN
321	1.000000	0.128255	7.36821e+06	-54689.1	955.819	-29743.3	0.000000	0.000000	6.128768	-0.066275	NaN	0.000000	0.001649	0.001745	28.0784	0.081034	0.002000	40.5256	-170.782	13.176	-0.027563	0.126910	-0.972845	-0.974190	-0.066275	40.5256	-0.971619	-9.407597E+12	7.044869E-15	NaN
321	1.000000	0.170253	7.36821e+06	-54689.1	955.817	-29743.3	0.000000	0.000000	6.170768	-0.018814	NaN	0.000000	0.001632	0.001725	28.0784	0.037633	0.001865	20.1792	160.954	-164.611	-0.078659	0.168953	-0.930847	-0.932148	-0.018814	20.1792	-0.930148	-2.595307E+12	7.249077E-15	NaN
321	1.000000	0.212318	7.36821e+06	-54689.1	955.819	-29743.3	0.000000	0.000000	6.212833	-0.012411	NaN	0.000000	0.001678	0.001701	28.0775	0.025120	0.002088	12.0332	-142.252	15.8349	0.013107	0.210962	-0.888782	-0.890139	-0.012411	12.0332	-0.888008	-6.998291E+11	1.773457E-14	NaN
321	1.000000	0.254330	7.36821e+06	-54689.1	955.818	-29743.3	0.000000	0.000000	6.254845	-0.012357	NaN	0.000000	0.001675	0.001727	28.0774	0.035933	0.002107	17.0539	-47.4882	-165.7	-0.009697	0.253012	-0.846770	-0.848088	-0.012357	17.0539	-0.846227	-1.903884E+11	6.490636E-14	NaN
321	1.000000	0.296324	7.36821e+06	-54689.1	955.817	-29743.3	0.000000	0.000000	6.296836	-0.087279	NaN	0.000000	0.001633	0.001702	28.0772	0.060194	0.001929	31.2113	-73.4646	14.1281	-0.119262	0.294980	-0.804776	-0.806120	-0.087279	31.2113	-0.802679	-4.889046E+10	1.785189E-12	NaN
321	1.000000	0.338342	7.36821e+06	-54689.1	955.818	-29743.3	0.000000	0.000000	6.338857	-0.021334	NaN	0.000000	0.001668	0.001695	28.0788	0.194062	0.002002	96.9447	39.9608	-167.247	-0.021197	0.337041	-0.762758	-0.764060	-0.021334	96.9447	-0.762593	-1.395010E+10	1.529326E-12	NaN
321	1.000000	0.380389	7.36821e+06	-54689.1	955.818	-29743.3	0.000000	0.000000	6.380901	-0.081006	NaN	0.000000	0.001665	0.001711	28.0784	0.130700	0.002045	63.9228	43.4984	14.9634	-0.080735	0.378996	-0.720712	-0.722104	-0.081006	63.9228	-0.719761	-3.640966E+9	2.224838E-11	NaN
321	1.000000	0.422372	7.36821e+06	-54689.1	955.818	-29743.3	0.000000	0.000000	6.422890	0.061083	NaN	0.000000	0.001638	0.001733	28.0783	0.047808	0.001993	23.9824	-33.6326	-164.881	-0.023429	0.421111	-0.678728	-0.679990	0.061083	23.9824	-0.680638	-1.063988E+9	-5.740947E-11	NaN
321	1.000000	0.464423	7.36821e+06	-54689.1	955.818	-29743.3	0.000000	0.000000	6.464934	-0.100469	NaN	0.000000	0.001605	0.001699	28.0771	0.031884	0.001998	15.9563	-66.5685	17.2878	-0.082047	0.463034	-0.636678	-0.638066	-0.100469	15.9563	-0.631955	-2.290185E+8	4.386921E-10	NaN
321	1.000000	0.506424	7.36821e+06	-54689.1	955.818	-29743.3	0.000000	0.000000	6.506939	-0.003254	NaN	0.000000	0.001628	0.001719	28.0769	0.053647	0.001940	27.6545	163.967	-162.777	0.021295	0.505104	-0.594677	-0.595996	-0.003254	27.6545	-0.594588	-7.013064E+7	4.639906E-11	NaN
321	1.000000	0.548429	7.36821e+06	-54689.1	955.819	-29743.3	0.000000	0.000000	6.548944	-0.012083	NaN	0.000000	0.001640	0.001717	28.0768	0.035473	0.002011	17.6369	-164.505	16.2755	0.025942	0.547128	-0.552671	-0.553973	-0.012083	17.6369	-0.552157	-1.818993E+7	6.642657E-10	NaN
321	1.000000	0.590475	7.36821e+06	-54689.1	955.818	-29743.3	0.000000	0.000000	6.590990	-0.027243	NaN	0.000000	0.001662	0.001747	28.077	0.104168	0.002099	49.636	-77.9356	-163.529	-0.041217	0.589162	-0.510625	-0.511938	-0.027243	49.636	-0.510213	-4.7576e+06	5.726298E-9	NaN
321	1.000000	0.632451	7.36821e+06	-54689.1	955.818	-29743.3	0.000000	0.000000	6.632965	-0.041387	NaN	0.000000	0.001675	0.001703	28.0784	0.121396	0.002017	60.1771	-148.384	15.5946	-0.083202	0.631139	-0.468649	-0.469961	-0.041387	60.1771	-0.468133	-1.22806e+06	3.370129E-8	NaN
321	1.000000	0.674511	7.36821e+06	-54689.1	955.818	-29743.3	0.000000	0.000000	6.675025	-0.035930	NaN	0.000000	0.001654	0.001686	28.0785	0.099401	0.002097	47.4122	-179.228	-163.857	-0.097553	0.673184	-0.426590	-0.427917	-0.035930	47.4122	-0.426021	-313146	1.147390E-7	NaN
321	1.000000	0.716495	7.36821e+06	-54689.1	955.819	-29743.3	0.000000	0.000000	6.717010	-0.023517	NaN	0.000000	0.001626	0.001724	28.0783	0.043201	0.001995	21.6536	69.0491	15.6614	-0.062742	0.715196	-0.384605	-0.385904	-0.023517	21.6536	-0.383790	-78388.4	3.000093E-7	NaN
321	1.000000	0.758520	7.36821e+06	-54689.1	955.818	-29743.3	0.000000	0.000000	6.759034	-0.039499	NaN	0.000000	0.001676	0.001742	28.0773	0.044190	0.001970	22.4333	81.9583	-167.862	-0.057513	0.757244	-0.342580	-0.343856	-0.039499	22.4333	-0.341260	-19050.8	2.073363E-6	NaN
321	1.000000	0.800580	7.36821e+06	-54689.1	955.817	-29743.3	0.000000	0.000000	6.801096	0.011648	NaN	0.000000	0.001669	0.001757	28.0776	0.030104	0.002054	14.6593	111.903	17.2131	0.027456	0.799181	-0.300520	-0.301919	0.011648	14.6593	-0.301116	-4889.25	-2.382449E-6	NaN
321	1.000000	0.842576	7.36821e+06	-54689.1	955.819	-29743.3	0.000000	0.000000	6.843088	-0.070816	NaN	0.000000	0.001644	0.001769	28.0774	0.046375	0.001986	23.3565	-95.5263	-163.597	-0.057590	0.841244	-0.258524	-0.259856	-0.070816	23.3565	-0.256251	-1026.49	6.898801E-5	NaN
321	1.000000	0.884600	7.36821e+06	-54689.1	955.818	-29743.3	0.000000	0.000000	6.885113	-0.053762	NaN	0.000000	0.001627	0.001745	28.0787	0.079263	0.002070	38.2999	177.932	12.6984	-0.100485	0.883253	-0.216500	-0.217847	-0.053762	38.2999	-0.215447	-234.805	0.000229	NaN
321	1.000000	0.926592	7.36821e+06	-54689.1	955.819	-29743.3	0.000000	0.000000	6.927106	-0.042855	NaN	0.000000	0.001656	0.001722	28.0784	0.106143	0.002016	52.6632	77.1737	-165.56	-0.008149	0.925306	-0.174508	-0.175794	-0.042855	52.6632	-0.173898	-47.9752	0.000893	NaN
321	1.000000	0.968602	7.36821e+06	-54689.1	955.819	-29743.3	0.000000	0.000000	6.969113	-0.103861	NaN	0.000000	0.001670	0.001739	28.0781	0.086606	0.001946	44.5143	98.0065	13.2218	-0.066087	0.967297	-0.132498	-0.133803	-0.103861	44.5143	-0.130748	-7.879979	0.013180	NaN
321	1.000000	1.010632	7.36821e+06	-54689.1	955.818	-29743.3	0.000000	0.000000	7.011145	-0.063021	NaN	0.000000	0.001567	0.001724	28.0769	0.056428	0.002079	27.1367	-118.685	-164.804	-0.038213	1.009305	-0.090468	-0.091795	-0.063021	27.1367	-0.088726	-1.008823	0.062470	NaN
321	1.000000	1.052673	7.36821e+06	-54689.1	955.817	-29743.3	0.000000	0.000000	7.053187	-0.034805	NaN	0.000000	0.001604	0.001738	28.077	0.075417	0.002014	37.4502	43.9878	13.4726	-0.115938	1.051304	-0.048427	-0.049796	-0.034805	37.4502	-0.047730	-0.077865	0.446991	NaN
321	1.000000	1.094658	7.36821e+06	-54689.1	955.82	-29743.3	0.000000	0.000000	7.095170	-0.074059	NaN	0.000000	0.001572	0.001741	28.077	0.066018	0.001897	34.7959	-46.1134	-165.45	-0.023910	1.093370	-0.006443	-0.007731	-0.074059	34.7959	-0.004846	-0.003320	22.3075	NaN
321	2.000000	1.117647	7.36821e+06	-54689.1	955.818	-29743.3	0.000000	0.000000	7.118896	17.8462	NaN	0.000000	0.001585	0.001722	28.077	16.3199	0.001836	8886.45	8.226741	3.218179	16.9152	1.117372	0.016546	0.016272	17.8462	8886.45	0.015040	0.015339	1163.45	65554.4
321	2.000000	1.128102	7.36821e+06	-54689.1	955.819	-29743.3	0.000000	0.000000	7.130215	38.848	NaN	0.000000	0.001618	0.001681	28.0782	26.4726	0.001799	14717.1	6.295240	-178.142	36.7091	1.127782	0.027002	0.026682	38.848	14717.1	0.025022	0.031056	1250.91	76299.9
321	2.000000	1.138622	7.36821e+06	-54689.1	955.817	-29743.3	0.000000	0.000000	7.141764	63.8582	NaN	0.000000	0.001596	0.001737	28.0791	36.2658	0.001759	20621.1	1.990298	2.535109	63.8612	1.138339	0.037521	0.037239	63.8582	20621.1	0.035199	0.052210	1223.1	82453.3
321	2.000000	1.149065	7.36821e+06	-54689.1	955.818	-29743.3	0.000000	0.000000	7.153877	104.46	NaN	0.000000	0.001577	0.001729	28.0785	46.5083	0.001747	26625.5	4.073609	177.966	102.583	1.148790	0.047965	0.047690	104.46	26625.5	0.045022	0.077650	1345.26	87297.2
321	2.000000	1.159571	7.36821e+06	-54689.1	955.819	-29743.3	0.000000	0.000000	7.166087	145.862	NaN	0.000000	0.001616	0.001684	28.077	55.9992	0.001709	32758.4	1.981877	-1.140615	145.179	1.159327	0.058471	0.058227	145.862	32758.4	0.055132	0.108932	1339.02	90681.6
321	2.000000	1.170091	7.36821e+06	-54689.1	955.82	-29743.3	0.000000	0.000000	7.178697	196.692	NaN	0.000000	0.001652	0.001731	28.0773	67.5633	0.001847	36575.9	5.360945	174.938	196.964	1.169654	0.068990	0.068554	196.692	36575.9	0.064957	0.144182	1364.19	88006
321	2.000000	1.180513	7.36821e+06	-54689.1	955.82	-29743.3	0.000000	0.000000	7.191287	249.393	NaN	0.000000	0.001683	0.001706	28.0769	78.137	0.001881	41542.7	5.872418	-7.619543	246.731	1.180319	0.079412	0.079218	249.393	41542.7	0.074910	0.184632	1350.76	88331.2
321	2.000000	1.190977	7.36821e+06	-54689.1	955.82	-29743.3	0.000000	0.000000	7.204376	313.201	NaN	0.000000	0.001689	0.001728	28.0783	86.629	0.001733	49993.1	0.773010	176.187	310.467	1.190679	0.089877	0.089579	313.201	49993.1	0.085178	0.231251	1354.38	94982
321	2.000000	1.201428	7.36821e+06	-54689.1	955.819	-29743.3	0.000000	0.000000	7.218074	392.138	NaN	0.000000	0.001660	0.001633	28.078	97.7517	0.001882	51930.7	5.059933	-8.233882	385.033	1.201073	0.100328	0.099972	392.138	51930.7	0.094664	0.278652	1407.27	89880.7
321	2.000000	1.210080	7.36821e+06	-54689.1	955.82	-29743.3	0.000000	0.000000	7.230151	475.402	NaN	0.000000	0.001644	0.001664	28.0782	105.1	0.001706	61609.8	4.088219	172.112	476.231	1.209653	0.108980	0.108552	475.402	61609.8	0.103192	0.324771	1463.81	98772.1