File: remote_trans/data/nanoindenter/0828-1/data/Data_2025-08-06,11h17m57s/2025-07-22_16-23-58_1_285.txt
2025-07-22, 16:23:58, 1
Index	Phase	Displacement	Time	Pos X	Pos Y	Pos Z	Rot A	Rot B	Piezo Z	Force A	Force B	Gripper	Voltage A	Voltage B	Temperature	Amplitude force	Amplitude pos	Stiffness	Phase shift	Phase excitation	Force A raw	Displacement raw	HMax	HMax raw	Real Force	Real Stiffness	Contact Depth	Area	Hardness	Reduced Mod.
[#]	[#]	[um]	[s]	[um]	[um]	[um]	[m°]	[m°]	[um]	[uN]	[uN]	[V]	[V]	[V]	[°C]	[uN]	[um]	[N/m]	[°]	[°]	[uN]	[um]	[um]	[um]	[uN]	[N/m]	[um]	[um^2]	[MPa]	[MPa]
285	1.000000	0.002395	7.36784e+06	-52889.1	955.818	-29748.3	0.000000	0.000000	6.002825	0.076811	NaN	0.000000	0.001570	0.001735	28.0799	0.101451	0.000928	109.269	-113.438	-172.099	0.115170	0.001145	-1.067200	-1.068450	0.076811	109.269	-1.067727	-1.847774E+14	-4.156923E-16	NaN
285	1.000000	0.042329	7.36784e+06	-52889.1	955.819	-29748.3	0.000000	0.000000	6.042754	-0.023376	NaN	0.000000	0.001533	0.001714	28.0797	0.082339	0.002019	40.7911	-154.578	-161.635	0.059552	0.040978	-1.027266	-1.028617	-0.023376	40.7911	-1.026836	-5.211025E+13	4.485820E-16	NaN
285	1.000000	0.082350	7.36784e+06	-52889.1	955.818	-29748.3	0.000000	0.000000	6.082776	0.006703	NaN	0.000000	0.001590	0.001724	28.0782	0.086322	0.001982	43.5561	-77.875	-164.683	-0.043281	0.081042	-0.987245	-0.988552	0.006703	43.5561	-0.987361	-1.533074E+13	-4.372519E-16	NaN
285	1.000000	0.122355	7.36784e+06	-52889.1	955.819	-29748.3	0.000000	0.000000	6.122781	-0.020277	NaN	0.000000	0.001678	0.001765	28.0787	0.017408	0.001900	9.161729	79.0348	-164.37	-0.049600	0.121014	-0.947240	-0.948581	-0.020277	9.161729	-0.945580	-4.191873E+12	4.837301E-15	NaN
285	1.000000	0.162371	7.36784e+06	-52889.1	955.818	-29748.3	0.000000	0.000000	6.162797	-0.005975	NaN	0.000000	0.001540	0.001709	28.0781	0.076393	0.002028	37.6768	89.0628	-166.802	0.056629	0.161067	-0.907224	-0.908527	-0.005975	37.6768	-0.907105	-1.267812E+12	4.712894E-15	NaN
285	1.000000	0.202363	7.36784e+06	-52889.1	955.818	-29748.3	0.000000	0.000000	6.202790	0.024150	NaN	0.000000	0.001578	0.001662	28.0792	0.084950	0.002112	40.2296	13.1914	-163.817	0.043355	0.201078	-0.867232	-0.868517	0.024150	40.2296	-0.867682	-3.716024E+11	-6.498783E-14	NaN
285	1.000000	0.242430	7.36784e+06	-52889.1	955.818	-29748.3	0.000000	0.000000	6.242855	-0.039146	NaN	0.000000	0.001601	0.001684	28.079	0.043068	0.002017	21.3489	-96.8297	-164.841	0.001564	0.241117	-0.827165	-0.828478	-0.039146	21.3489	-0.825790	-1.006260E+11	3.890293E-13	NaN
285	1.000000	0.282419	7.36784e+06	-52889.1	955.819	-29748.3	0.000000	0.000000	6.282843	-0.068294	NaN	0.000000	0.001624	0.001694	28.0791	0.088462	0.001959	45.1466	-71.3365	-166.052	-0.089984	0.281136	-0.787176	-0.788458	-0.068294	45.1466	-0.786041	-2.906102E+10	2.350016E-12	NaN
285	1.000000	0.322444	7.36784e+06	-52889.1	955.819	-29748.3	0.000000	0.000000	6.322871	0.011954	NaN	0.000000	0.001533	0.001718	28.0791	0.119074	0.002098	56.7437	79.98	-162.63	-0.074630	0.321139	-0.747151	-0.748456	0.011954	56.7437	-0.747309	-8.641448E+9	-1.383331E-12	NaN
285	1.000000	0.362457	7.36784e+06	-52889.1	955.818	-29748.3	0.000000	0.000000	6.362883	-0.006325	NaN	0.000000	0.001576	0.001705	28.0781	0.035861	0.002045	17.5382	19.6369	-165.394	-0.023524	0.361112	-0.707138	-0.708483	-0.006325	17.5382	-0.706868	-2.428263E+9	2.604599E-12	NaN
285	1.000000	0.402494	7.36784e+06	-52889.1	955.818	-29748.3	0.000000	0.000000	6.402919	-0.021171	NaN	0.000000	0.001634	0.001682	28.078	0.045332	0.002089	21.6998	-55.9177	-164.77	-0.033386	0.401163	-0.667101	-0.668432	-0.021171	21.6998	-0.666369	-6.787188E+8	3.119331E-11	NaN
285	1.000000	0.442499	7.36784e+06	-52889.1	955.818	-29748.3	0.000000	0.000000	6.442927	0.061475	NaN	0.000000	0.001573	0.001665	28.0782	0.123909	0.002026	61.1523	-110.783	-164.765	0.041966	0.441156	-0.627096	-0.628439	0.061475	61.1523	-0.627850	-2.011400E+8	-3.056347E-10	NaN
285	1.000000	0.482494	7.36784e+06	-52889.1	955.819	-29748.3	0.000000	0.000000	6.482920	-0.006065	NaN	0.000000	0.001602	0.001693	28.0795	0.067051	0.002015	33.2743	177.762	-164.171	-0.037273	0.481198	-0.587101	-0.588397	-0.006065	33.2743	-0.586964	-5.505565E+7	1.101571E-10	NaN
285	1.000000	0.522492	7.36784e+06	-52889.1	955.818	-29748.3	0.000000	0.000000	6.522918	-0.007425	NaN	0.000000	0.001632	0.001676	28.0794	0.028871	0.001982	14.569	135.912	-163.95	0.074726	0.521198	-0.547102	-0.548397	-0.007425	14.569	-0.546720	-1.529389E+7	4.855000E-10	NaN
285	1.000000	0.562535	7.36784e+06	-52889.1	955.819	-29748.3	0.000000	0.000000	6.562963	0.043368	NaN	0.000000	0.001602	0.001685	28.0793	0.055307	0.001941	28.501	-141.759	-168.187	0.064163	0.561215	-0.507060	-0.508379	0.043368	28.501	-0.508201	-4.46018e+06	-9.723358E-9	NaN
285	1.000000	0.602541	7.36785e+06	-52889.1	955.818	-29748.3	0.000000	0.000000	6.602967	-0.006096	NaN	0.000000	0.001605	0.001674	28.0795	0.038104	0.002055	18.5452	-57.099	-167.42	0.029593	0.601253	-0.467053	-0.468342	-0.006096	18.5452	-0.466807	-1.17655e+06	5.181437E-9	NaN
285	1.000000	0.642594	7.36785e+06	-52889.1	955.819	-29748.3	0.000000	0.000000	6.643018	-0.047209	NaN	0.000000	0.001629	0.001612	28.0785	0.047690	0.002154	22.1391	151.097	-165.357	-0.045014	0.641217	-0.427001	-0.428378	-0.047209	22.1391	-0.425402	-306881	1.538331E-7	NaN
285	1.000000	0.682597	7.36785e+06	-52889.1	955.818	-29748.3	0.000000	0.000000	6.683025	0.032637	NaN	0.000000	0.001676	0.001590	28.0782	0.036662	0.001961	18.6993	72.8776	-167.222	0.002879	0.681354	-0.386997	-0.388241	0.032637	18.6993	-0.388306	-90977.7	-3.587323E-7	NaN
285	1.000000	0.722602	7.36785e+06	-52889.1	955.819	-29748.3	0.000000	0.000000	6.723028	0.005757	NaN	0.000000	0.001589	0.001631	28.0782	0.070122	0.001978	35.4489	141.239	-164.281	-0.086531	0.721326	-0.346993	-0.348269	0.005757	35.4489	-0.347115	-23179.6	-2.483572E-7	NaN
285	1.000000	0.762625	7.36785e+06	-52889.1	955.818	-29748.3	0.000000	0.000000	6.763047	-0.099213	NaN	0.000000	0.001668	0.001613	28.0795	0.054176	0.002071	26.1605	-102.929	-166.581	-0.073552	0.761301	-0.306970	-0.308294	-0.099213	26.1605	-0.304126	-5419.75	1.830593E-5	NaN
285	1.000000	0.802625	7.36785e+06	-52889.1	955.818	-29748.3	0.000000	0.000000	6.803051	0.009448	NaN	0.000000	0.001630	0.001640	28.0799	0.053051	0.001945	27.2782	-68.5406	-165.931	-0.026541	0.801309	-0.266970	-0.268286	0.009448	27.2782	-0.267230	-1511.45	-6.251257E-6	NaN
285	1.000000	0.842658	7.36785e+06	-52889.1	955.817	-29748.3	0.000000	0.000000	6.843085	0.023808	NaN	0.000000	0.001609	0.001650	28.0794	0.029389	0.002022	14.5374	147.031	-165.164	-0.063707	0.841355	-0.226937	-0.228240	0.023808	14.5374	-0.228165	-374.554	-6.356381E-5	NaN
285	1.000000	0.882674	7.36785e+06	-52889.1	955.818	-29748.3	0.000000	0.000000	6.883096	-0.112899	NaN	0.000000	0.001659	0.001639	28.0784	0.129942	0.001983	65.5329	-29.5974	-167.89	-0.020092	0.881376	-0.186921	-0.188219	-0.112899	65.5329	-0.185629	-75.9837	0.001486	NaN
285	1.000000	0.922723	7.36785e+06	-52889.1	955.819	-29748.3	0.000000	0.000000	6.923150	0.007563	NaN	0.000000	0.001606	0.001659	28.0781	0.017322	0.001978	8.755385	-151.783	-164.473	-0.000477	0.921428	-0.146872	-0.148167	0.007563	8.755385	-0.147519	-16.3158	-0.000464	NaN
285	1.000000	0.962684	7.36785e+06	-52889.1	955.818	-29748.3	0.000000	0.000000	6.963107	-0.069824	NaN	0.000000	0.001626	0.001664	28.0782	0.106289	0.001954	54.4044	-94.1618	-166.487	0.017592	0.961416	-0.106911	-0.108178	-0.069824	54.4044	-0.105949	-2.463872	0.028339	NaN
285	1.000000	1.002734	7.36785e+06	-52889.1	955.817	-29748.3	0.000000	0.000000	7.003161	0.019035	NaN	0.000000	0.001622	0.001656	28.0782	0.053876	0.002011	26.7863	111.17	-164.591	-0.047521	1.001392	-0.066861	-0.068203	0.019035	26.7863	-0.067394	-0.290025	-0.065632	NaN
285	1.000000	1.042749	7.36785e+06	-52889.1	955.819	-29748.3	0.000000	0.000000	7.043172	-0.081601	NaN	0.000000	0.001648	0.001641	28.0791	0.077920	0.002030	38.3931	171.734	-163.829	-0.120506	1.041407	-0.026845	-0.028188	-0.081601	38.3931	-0.025251	-0.017128	4.764265	NaN
285	2.000000	1.080426	7.36785e+06	-52889.1	955.818	-29748.3	0.000000	0.000000	7.081161	7.515657	NaN	0.000000	0.001603	0.001637	28.0795	9.041122	0.001812	4988.97	13.035	-174.946	7.688421	1.080083	0.010831	0.010489	7.515657	4988.97	0.009701	0.008851	849.14	48449.6
285	2.000000	1.090273	7.36785e+06	-52889.1	955.818	-29748.3	0.000000	0.000000	7.091725	24.933	NaN	0.000000	0.001649	0.001655	28.0795	20.1455	0.001875	10742.7	7.215153	-176.403	22.8774	1.089994	0.020678	0.020399	24.933	10742.7	0.018938	0.020900	1192.94	67890.6
285	2.000000	1.100292	7.36785e+06	-52889.1	955.819	-29748.3	0.000000	0.000000	7.102812	50.903	NaN	0.000000	0.001675	0.001677	28.0782	30.8339	0.001759	17529.1	4.290221	-178.831	51.0572	1.100040	0.030698	0.030445	50.903	17529.1	0.028520	0.037731	1349.09	82448.5
285	2.000000	1.110238	7.36785e+06	-52889.1	955.819	-29748.3	0.000000	0.000000	7.114137	84.4382	NaN	0.000000	0.001532	0.001639	28.0782	40.895	0.001806	22638.7	5.380567	177.888	83.3627	1.109990	0.040643	0.040395	84.4382	22638.7	0.037845	0.058579	1441.45	85458.5
285	2.000000	1.120246	7.36785e+06	-52889.1	955.818	-29748.3	0.000000	0.000000	7.125921	127.622	NaN	0.000000	0.001585	0.001661	28.078	50.0188	0.001736	28811.9	4.005163	177.337	126.574	1.119917	0.050651	0.050322	127.622	28811.9	0.047329	0.084337	1513.24	90643.3
285	2.000000	1.130215	7.36785e+06	-52889.1	955.819	-29748.3	0.000000	0.000000	7.137980	178.436	NaN	0.000000	0.001626	0.001642	28.0781	59.5061	0.001779	33447.3	6.626241	173.988	177.919	1.129893	0.060620	0.060298	178.436	33447.3	0.056619	0.113965	1565.72	90520.9
285	2.000000	1.140205	7.36785e+06	-52889.1	955.818	-29748.3	0.000000	0.000000	7.150272	234.409	NaN	0.000000	0.001531	0.001674	28.0794	67.5016	0.001786	37800	1.040322	177.48	232.239	1.139982	0.070610	0.070387	234.409	37800	0.065959	0.148039	1583.42	89758.6
285	2.000000	1.150228	7.36785e+06	-52889.1	955.819	-29748.3	0.000000	0.000000	7.163025	300.785	NaN	0.000000	0.001561	0.001678	28.0798	77.754	0.001738	44747.2	7.997770	170.845	301.603	1.149831	0.080633	0.080236	300.785	44747.2	0.075592	0.187576	1603.53	94395.1
285	2.000000	1.160114	7.36785e+06	-52889.1	955.818	-29748.3	0.000000	0.000000	7.175825	371.646	NaN	0.000000	0.001581	0.001695	28.0795	86.9516	0.001898	45812.2	1.428402	176.398	367.128	1.159871	0.090519	0.090276	371.646	45812.2	0.084434	0.227711	1632.1	87712.7
285	2.000000	1.170156	7.36785e+06	-52889.1	955.819	-29748.3	0.000000	0.000000	7.188926	446.012	NaN	0.000000	0.001579	0.001688	28.0783	96.389	0.001797	53644.3	4.741032	171.59	443.425	1.170030	0.100561	0.100435	446.012	53644.3	0.094325	0.276887	1610.81	93142
285	2.000000	1.178123	7.36785e+06	-52889.1	955.82	-29748.3	0.000000	0.000000	7.199817	517.106	NaN	0.000000	0.001510	0.001647	28.0777	102.198	0.001720	59424.9	4.343011	171.082	512.631	1.177968	0.108528	0.108374	517.106	59424.9	0.102002	0.318133	1625.44	96258.2