File: remote_trans/data/nanoindenter/0828-1/data/Data_2025-08-06,11h17m57s/2025-07-22_16-23-58_1_528.txt
2025-07-22, 16:23:58, 1
Index	Phase	Displacement	Time	Pos X	Pos Y	Pos Z	Rot A	Rot B	Piezo Z	Force A	Force B	Gripper	Voltage A	Voltage B	Temperature	Amplitude force	Amplitude pos	Stiffness	Phase shift	Phase excitation	Force A raw	Displacement raw	HMax	HMax raw	Real Force	Real Stiffness	Contact Depth	Area	Hardness	Reduced Mod.
[#]	[#]	[um]	[s]	[um]	[um]	[um]	[m°]	[m°]	[um]	[uN]	[uN]	[V]	[V]	[V]	[°C]	[uN]	[um]	[N/m]	[°]	[°]	[uN]	[um]	[um]	[um]	[uN]	[N/m]	[um]	[um^2]	[MPa]	[MPa]
528	1.000000	0.002657	7.37021e+06	-50689.1	1005.82	-29754.8	0.000000	0.000000	6.002780	-0.041474	NaN	0.000000	0.001673	0.001780	28.0809	0.073056	0.000913	79.9956	-134.493	-162.217	-0.018014	0.001403	-1.119762	-1.121016	-0.041474	79.9956	-1.119373	-9.121497E+14	4.546886E-17	NaN
528	1.000000	0.044595	7.37021e+06	-50689.1	1005.82	-29754.8	0.000000	0.000000	6.044723	0.050528	NaN	0.000000	0.001661	0.001749	28.0817	0.017785	0.001872	9.501112	64.78	12.3391	0.107082	0.043319	-1.077824	-1.079100	0.050528	9.501112	-1.081812	-2.856684E+14	-1.768755E-16	NaN
528	1.000000	0.086654	7.37021e+06	-50689.1	1005.82	-29754.8	0.000000	0.000000	6.086780	0.015723	NaN	0.000000	0.001640	0.001771	28.0816	0.025382	0.002201	11.5307	-117.141	-164.572	0.032323	0.085362	-1.035765	-1.037057	0.015723	11.5307	-1.036788	-7.092055E+13	-2.217018E-16	NaN
528	1.000000	0.128670	7.37021e+06	-50689.1	1005.82	-29754.8	0.000000	0.000000	6.128797	0.035238	NaN	0.000000	0.001609	0.001808	28.0819	0.120297	0.001912	62.9104	-114.627	15.424	0.009133	0.127290	-0.993749	-0.995129	0.035238	62.9104	-0.994169	-1.893473E+13	-1.861018E-15	NaN
528	1.000000	0.170639	7.37021e+06	-50689.1	1005.82	-29754.8	0.000000	0.000000	6.170768	0.090724	NaN	0.000000	0.001599	0.001671	28.0807	0.100071	0.001940	51.5782	-121.883	-167.269	0.047560	0.169356	-0.951780	-0.953064	0.090724	51.5782	-0.953099	-5.294450E+12	-1.713560E-14	NaN
528	1.000000	0.212697	7.37021e+06	-50689.1	1005.82	-29754.8	0.000000	0.000000	6.212820	-0.036080	NaN	0.000000	0.001600	0.001722	28.0807	0.061963	0.001987	31.1782	-97.0587	10.9332	-0.051157	0.211315	-0.909722	-0.911104	-0.036080	31.1782	-0.908855	-1.338722E+12	2.695138E-14	NaN
528	1.000000	0.254671	7.37021e+06	-50689.1	1005.82	-29754.9	0.000000	0.000000	6.254796	-0.000674	NaN	0.000000	0.001604	0.001688	28.0805	0.086529	0.002042	42.3821	-30.9623	-167.341	-0.044664	0.253382	-0.867748	-0.869038	-0.000674	42.3821	-0.867736	-3.722329E+11	1.810606E-15	NaN
528	1.000000	0.296716	7.37021e+06	-50689.1	1005.82	-29754.9	0.000000	0.000000	6.296842	0.012451	NaN	0.000000	0.001609	0.001674	28.0817	0.014022	0.002031	6.905126	-56.4652	15.2971	-0.054253	0.295316	-0.825703	-0.827103	0.012451	6.905126	-0.827055	-1.046814E+11	-1.189387E-13	NaN
528	1.000000	0.338749	7.37022e+06	-50689.1	1005.82	-29754.9	0.000000	0.000000	6.338873	-0.009848	NaN	0.000000	0.001624	0.001747	28.0816	0.092890	0.002034	45.6644	-170.354	-164.122	0.017930	0.337418	-0.783671	-0.785001	-0.009848	45.6644	-0.783509	-2.684774E+10	3.668093E-13	NaN
528	1.000000	0.380776	7.37022e+06	-50689.1	1005.82	-29754.9	0.000000	0.000000	6.380902	0.000802	NaN	0.000000	0.001554	0.001690	28.082	0.017595	0.002035	8.644205	-114.079	16.5848	-0.010656	0.379411	-0.741643	-0.743008	0.000802	8.644205	-0.741712	-7.250688E+9	-1.105894E-13	NaN
528	1.000000	0.422757	7.37022e+06	-50689.1	1005.82	-29754.9	0.000000	0.000000	6.422880	-0.054693	NaN	0.000000	0.001588	0.001674	28.0812	0.146507	0.002137	68.5687	154.263	-164.008	-0.083503	0.421485	-0.699663	-0.700934	-0.054693	68.5687	-0.699064	-1.899998E+9	2.878582E-11	NaN
528	1.000000	0.464813	7.37022e+06	-50689.1	1005.82	-29754.9	0.000000	0.000000	6.464940	0.060454	NaN	0.000000	0.001607	0.001756	28.081	0.040653	0.002027	20.0547	-19.8356	13.4896	0.042411	0.463421	-0.657607	-0.658998	0.060454	20.0547	-0.659868	-5.529093E+8	-1.093385E-10	NaN
528	1.000000	0.506774	7.37022e+06	-50689.1	1005.82	-29754.9	0.000000	0.000000	6.506899	0.001764	NaN	0.000000	0.001557	0.001717	28.0808	0.150283	0.002027	74.1481	173.168	-163.714	0.057425	0.505489	-0.615645	-0.616930	0.001764	74.1481	-0.615663	-1.367747E+8	-1.290052E-11	NaN
528	1.000000	0.548841	7.37022e+06	-50689.1	1005.82	-29754.9	0.000000	0.000000	6.548965	-0.020847	NaN	0.000000	0.001599	0.001745	28.0807	0.114058	0.002008	56.7913	100.002	15.3463	0.014078	0.547484	-0.573578	-0.574935	-0.020847	56.7913	-0.573303	-3.566662E+7	5.845037E-10	NaN
528	1.000000	0.590872	7.37022e+06	-50689.1	1005.82	-29754.9	0.000000	0.000000	6.590999	0.056106	NaN	0.000000	0.001595	0.001783	28.0823	0.071985	0.002021	35.6231	157.692	-165.276	0.053702	0.589522	-0.531547	-0.532897	0.056106	35.6231	-0.532729	-9.78279e+06	-5.735139E-9	NaN
528	1.000000	0.632879	7.37022e+06	-50689.1	1005.82	-29754.9	0.000000	0.000000	6.633003	-0.036139	NaN	0.000000	0.001593	0.001770	28.0822	0.082061	0.002018	40.6664	108.7	11.3005	-0.048963	0.631489	-0.489540	-0.490930	-0.036139	40.6664	-0.488873	-2.39689e+06	1.507752E-8	NaN
528	1.000000	0.674896	7.37022e+06	-50689.1	1005.82	-29754.9	0.000000	0.000000	6.675017	-0.095857	NaN	0.000000	0.001656	0.001723	28.0824	0.106461	0.002053	51.8686	73.2939	-169.053	-0.024381	0.673601	-0.447523	-0.448818	-0.095857	51.8686	-0.446137	-602450	1.591123E-7	NaN
528	1.000000	0.716928	7.37022e+06	-50689.1	1005.82	-29754.9	0.000000	0.000000	6.717052	-0.041330	NaN	0.000000	0.001664	0.001675	28.0811	0.014523	0.002174	6.681428	49.666	14.3489	-0.043566	0.715563	-0.405491	-0.406856	-0.041330	6.681428	-0.400852	-137449	3.006970E-7	NaN
528	1.000000	0.758934	7.37022e+06	-50689.1	1005.82	-29754.9	0.000000	0.000000	6.759062	0.063403	NaN	0.000000	0.001623	0.001713	28.081	0.038868	0.002091	18.5889	-39.9002	-165.217	0.065275	0.757647	-0.363485	-0.364773	0.063403	18.5889	-0.366043	-43561.8	-1.455462E-6	NaN
528	1.000000	0.800930	7.37022e+06	-50689.1	1005.82	-29754.9	0.000000	0.000000	6.801054	-0.046601	NaN	0.000000	0.001589	0.001730	28.0814	0.028651	0.002137	13.4047	131.646	13.336	-0.086795	0.799606	-0.321489	-0.322814	-0.046601	13.4047	-0.318882	-8957.17	5.202645E-6	NaN
528	1.000000	0.842967	7.37022e+06	-50689.1	1005.82	-29754.9	0.000000	0.000000	6.843094	0.052484	NaN	0.000000	0.001610	0.001719	28.0824	0.118787	0.002027	58.6096	116.684	-165.54	0.072863	0.841633	-0.279452	-0.280786	0.052484	58.6096	-0.280124	-2370.48	-2.214046E-5	NaN
528	1.000000	0.884958	7.37022e+06	-50689.1	1005.82	-29754.9	0.000000	0.000000	6.885082	-0.024759	NaN	0.000000	0.001622	0.001701	28.0823	0.067999	0.001934	35.1631	-109.227	16.901	-0.018276	0.883615	-0.237461	-0.238804	-0.024759	35.1631	-0.236933	-514.723	4.810078E-5	NaN
528	1.000000	0.926970	7.37022e+06	-50689.1	1005.82	-29754.9	0.000000	0.000000	6.927097	0.046253	NaN	0.000000	0.001632	0.001692	28.0825	0.112853	0.002042	55.2592	-9.852866	-166.975	0.039474	0.925698	-0.195450	-0.196722	0.046253	55.2592	-0.196078	-113.511	-0.000407	NaN
528	1.000000	0.968983	7.37022e+06	-50689.1	1005.82	-29754.9	0.000000	0.000000	6.969109	0.023843	NaN	0.000000	0.001607	0.001706	28.0812	0.072191	0.002006	35.9808	104.609	17.3067	0.008578	0.967608	-0.153436	-0.154811	0.023843	35.9808	-0.153933	-21.3482	-0.001117	NaN
528	1.000000	1.011031	7.37022e+06	-50689.1	1005.82	-29754.9	0.000000	0.000000	7.011157	0.028935	NaN	0.000000	0.001567	0.001666	28.0809	0.040430	0.002027	19.9438	39.781	-166.468	-0.020212	1.009743	-0.111389	-0.112676	0.028935	19.9438	-0.112477	-3.386888	-0.008543	NaN
528	1.000000	1.053027	7.37022e+06	-50689.1	1005.82	-29754.9	0.000000	0.000000	7.053153	0.027122	NaN	0.000000	0.001609	0.001668	28.0812	0.087786	0.002009	43.7036	23.5537	14.8352	-0.009321	1.051698	-0.069392	-0.070721	0.027122	43.7036	-0.069857	-0.338121	-0.080215	NaN
528	1.000000	1.095045	7.37022e+06	-50689.1	1005.82	-29754.9	0.000000	0.000000	7.095170	-0.002660	NaN	0.000000	0.001650	0.001689	28.0811	0.023282	0.002024	11.505	9.743530	-164.466	0.001712	1.093761	-0.027374	-0.028658	-0.002660	11.505	-0.027201	-0.019293	0.137857	NaN
528	2.000000	1.131126	7.37022e+06	-50689.1	1005.82	-29754.9	0.000000	0.000000	7.131659	9.919630	NaN	0.000000	0.001579	0.001659	28.0823	9.337473	0.001741	5362.34	6.571055	8.377568	9.026603	1.130796	0.008706	0.008377	9.919630	5362.34	0.007319	0.006351	1561.87	61475.6
528	2.000000	1.141577	7.37022e+06	-50689.1	1005.82	-29754.9	0.000000	0.000000	7.142789	26.4335	NaN	0.000000	0.001628	0.001718	28.0824	19.7989	0.001813	10920.9	4.109066	-175.084	24.9654	1.141272	0.019158	0.018853	26.4335	10920.9	0.017342	0.018537	1425.98	73284
528	2.000000	1.152030	7.37022e+06	-50689.1	1005.82	-29754.9	0.000000	0.000000	7.154561	58.5037	NaN	0.000000	0.001641	0.001677	28.0821	29.5778	0.001845	16029.9	1.309310	5.104562	56.8077	1.151700	0.029610	0.029280	58.5037	16029.9	0.026873	0.034512	1695.19	78835.4
528	2.000000	1.162505	7.37022e+06	-50689.1	1005.82	-29754.9	0.000000	0.000000	7.166307	89.4158	NaN	0.000000	0.001643	0.001734	28.0811	40.595	0.001932	21015.3	4.890077	178.669	87.4167	1.162227	0.040085	0.039808	89.4158	21015.3	0.036894	0.056248	1589.66	80956.7
528	2.000000	1.173015	7.37022e+06	-50689.1	1005.82	-29754.9	0.000000	0.000000	7.178684	134.824	NaN	0.000000	0.001619	0.001708	28.0811	49.606	0.001722	28807.5	7.151268	-6.693441	132.576	1.172619	0.050595	0.050200	134.824	28807.5	0.047085	0.083617	1612.39	91018.7
528	2.000000	1.183593	7.37022e+06	-50689.1	1005.82	-29754.9	0.000000	0.000000	7.191490	189.001	NaN	0.000000	0.001613	0.001765	28.081	60.8622	0.001829	33280.6	11.9694	167.936	190.511	1.183216	0.061174	0.060797	189.001	33280.6	0.056915	0.114977	1643.81	89672.3
528	2.000000	1.194027	7.37022e+06	-50689.1	1005.82	-29754.9	0.000000	0.000000	7.204477	251.078	NaN	0.000000	0.001626	0.001703	28.0825	69.5232	0.001806	38500.9	-0.481331	-0.883559	249.55	1.193674	0.071608	0.071255	251.078	38500.9	0.066717	0.150989	1662.89	90525.7
528	2.000000	1.204372	7.37022e+06	-50689.1	1005.82	-29754.9	0.000000	0.000000	7.217583	318.235	NaN	0.000000	0.001578	0.001735	28.0819	78.7695	0.001734	45428.7	2.460051	174.947	312.268	1.204130	0.081952	0.081711	318.235	45428.7	0.076699	0.192399	1654.03	94624.2
528	2.000000	1.214856	7.37022e+06	-50689.1	1005.82	-29754.9	0.000000	0.000000	7.231617	404.551	NaN	0.000000	0.001630	0.001795	28.082	87.4634	0.001709	51173.2	1.800864	-4.806883	396.05	1.214608	0.092437	0.092189	404.551	51173.2	0.086507	0.237645	1702.33	95907.3
528	2.000000	1.225418	7.37022e+06	-50689.1	1005.82	-29754.9	0.000000	0.000000	7.245876	494.458	NaN	0.000000	0.001590	0.001766	28.0813	97.3043	0.001782	54616.7	4.054521	172.126	493.664	1.225123	0.102999	0.102704	494.458	54616.7	0.096209	0.286759	1724.3	93183.8
528	2.000000	1.227368	7.37022e+06	-50689.1	1005.82	-29754.9	0.000000	0.000000	7.248565	512.43	NaN	0.000000	0.001565	0.001769	28.0806	100.413	0.001830	54865.4	4.033994	172.123	506.042	1.227042	0.104948	0.104622	512.43	54865.4	0.097944	0.295994	1731.22	92136.1