File: remote_trans/data/nanoindenter/0828-1/data/Data_2025-08-06,11h17m57s/2025-07-22_16-23-58_1_256.txt
2025-07-22, 16:23:58, 1
Index	Phase	Displacement	Time	Pos X	Pos Y	Pos Z	Rot A	Rot B	Piezo Z	Force A	Force B	Gripper	Voltage A	Voltage B	Temperature	Amplitude force	Amplitude pos	Stiffness	Phase shift	Phase excitation	Force A raw	Displacement raw	HMax	HMax raw	Real Force	Real Stiffness	Contact Depth	Area	Hardness	Reduced Mod.
[#]	[#]	[um]	[s]	[um]	[um]	[um]	[m°]	[m°]	[um]	[uN]	[uN]	[V]	[V]	[V]	[°C]	[uN]	[um]	[N/m]	[°]	[°]	[uN]	[um]	[um]	[um]	[uN]	[N/m]	[um]	[um^2]	[MPa]	[MPa]
256	1.000000	0.002719	7.36756e+06	-51439.1	955.818	-29752.5	0.000000	0.000000	6.002802	0.046366	NaN	0.000000	0.001605	0.001680	28.0791	0.049327	0.000927	53.1946	16.4538	-163.808	0.055679	0.001476	-1.148153	-1.149396	0.046366	53.1946	-1.148806	-2.263700E+15	-2.048251E-17	NaN
256	1.000000	0.044686	7.36756e+06	-51439.1	955.819	-29752.5	0.000000	0.000000	6.044767	0.012207	NaN	0.000000	0.001564	0.001689	28.0775	0.047035	0.002035	23.1117	-6.030465	12.8121	-0.016230	0.043296	-1.106186	-1.107576	0.012207	23.1117	-1.106582	-6.143522E+14	-1.986966E-17	NaN
256	1.000000	0.086681	7.36756e+06	-51439.1	955.819	-29752.5	0.000000	0.000000	6.086761	-0.023465	NaN	0.000000	0.001597	0.001670	28.0774	0.099941	0.001978	50.5387	24.2449	-166.806	-0.013367	0.085335	-1.064191	-1.065537	-0.023465	50.5387	-1.063842	-1.638536E+14	1.432102E-16	NaN
256	1.000000	0.128710	7.36756e+06	-51439.1	955.818	-29752.5	0.000000	0.000000	6.128790	-0.004717	NaN	0.000000	0.001567	0.001725	28.0776	0.025233	0.002029	12.4363	31.6404	16.4853	0.046760	0.127337	-1.022162	-1.023535	-0.004717	12.4363	-1.021878	-4.469047E+13	1.055588E-16	NaN
256	1.000000	0.170715	7.36756e+06	-51439.1	955.818	-29752.5	0.000000	0.000000	6.170796	0.020836	NaN	0.000000	0.001725	0.001688	28.0781	0.055441	0.001916	28.941	-121.966	-163.066	0.027498	0.169416	-0.980157	-0.981456	0.020836	28.941	-0.980697	-1.246810E+13	-1.671127E-15	NaN
256	1.000000	0.212729	7.36756e+06	-51439.1	955.818	-29752.5	0.000000	0.000000	6.212809	-0.011255	NaN	0.000000	0.001682	0.001689	28.0787	0.025133	0.002114	11.8877	97.679	13.021	-0.013491	0.211339	-0.938143	-0.939533	-0.011255	11.8877	-0.937433	-3.254635E+12	3.458149E-15	NaN
256	1.000000	0.254755	7.36756e+06	-51439.1	955.818	-29752.5	0.000000	0.000000	6.254836	0.008374	NaN	0.000000	0.001635	0.001658	28.0786	0.002446	0.002003	1.220862	-75.6677	-165.092	-0.028571	0.253484	-0.896117	-0.897388	0.008374	1.220862	-0.901261	-1.057074E+12	-7.922052E-15	NaN
256	1.000000	0.296776	7.36756e+06	-51439.1	955.819	-29752.5	0.000000	0.000000	6.296856	-0.004201	NaN	0.000000	0.001590	0.001665	28.0789	0.086147	0.001886	45.6754	112.05	13.1724	-0.043662	0.295460	-0.854096	-0.855412	-0.004201	45.6754	-0.854027	-2.428086E+11	1.730120E-14	NaN
256	1.000000	0.338780	7.36756e+06	-51439.1	955.819	-29752.5	0.000000	0.000000	6.338860	-0.011683	NaN	0.000000	0.001635	0.001673	28.0776	0.059094	0.001933	30.5791	178.606	-164.593	0.007205	0.337456	-0.812092	-0.813416	-0.011683	30.5791	-0.811806	-6.502300E+10	1.796814E-13	NaN
256	1.000000	0.380803	7.36756e+06	-51439.1	955.818	-29752.5	0.000000	0.000000	6.380885	0.049090	NaN	0.000000	0.001617	0.001669	28.0779	0.157221	0.002018	77.8911	35.4648	15.0645	0.035975	0.379438	-0.770069	-0.771434	0.049090	77.8911	-0.770542	-1.789254E+10	-2.743616E-12	NaN
256	1.000000	0.422816	7.36756e+06	-51439.1	955.818	-29752.5	0.000000	0.000000	6.422896	0.003134	NaN	0.000000	0.001606	0.001672	28.0776	0.156981	0.002064	76.0702	89.5738	-165.674	-0.035491	0.421549	-0.728056	-0.729323	0.003134	76.0702	-0.728087	-4.728671E+9	-6.627807E-13	NaN
256	1.000000	0.464860	7.36756e+06	-51439.1	955.818	-29752.5	0.000000	0.000000	6.464938	-0.064816	NaN	0.000000	0.001610	0.001655	28.0789	0.080670	0.002040	39.5394	169.79	15.4221	-0.086952	0.463488	-0.686012	-0.687384	-0.064816	39.5394	-0.684782	-1.212266E+9	5.346706E-11	NaN
256	1.000000	0.506840	7.36756e+06	-51439.1	955.819	-29752.5	0.000000	0.000000	6.506920	-0.024066	NaN	0.000000	0.001627	0.001655	28.0784	0.013446	0.002042	6.583025	15.8502	-167.839	-0.036025	0.505531	-0.644032	-0.645341	-0.024066	6.583025	-0.641290	-3.076009E+8	7.823652E-11	NaN
256	1.000000	0.548862	7.36756e+06	-51439.1	955.819	-29752.5	0.000000	0.000000	6.548941	-0.027394	NaN	0.000000	0.001605	0.001688	28.0786	0.045775	0.001986	23.0519	8.214233	17.1755	-0.060261	0.547574	-0.602010	-0.603299	-0.027394	23.0519	-0.601119	-8.627237E+7	3.175250E-10	NaN
256	1.000000	0.590890	7.36756e+06	-51439.1	955.818	-29752.5	0.000000	0.000000	6.590968	-0.065713	NaN	0.000000	0.001597	0.001646	28.0776	0.056680	0.002137	26.5206	-165.205	-162.849	0.068222	0.589604	-0.559982	-0.561268	-0.065713	26.5206	-0.558123	-2.199966E+7	2.987016E-9	NaN
256	1.000000	0.632918	7.36756e+06	-51439.1	955.818	-29752.5	0.000000	0.000000	6.632999	0.016210	NaN	0.000000	0.001633	0.001706	28.0774	0.097084	0.002009	48.3299	-42.1015	14.8267	0.064787	0.631557	-0.517954	-0.519315	0.016210	48.3299	-0.518206	-6.14668e+06	-2.637197E-9	NaN
256	1.000000	0.674938	7.36756e+06	-51439.1	955.818	-29752.5	0.000000	0.000000	6.675018	0.007279	NaN	0.000000	0.001688	0.001679	28.0776	0.043486	0.002000	21.7439	98.2204	-161.137	-0.023071	0.673639	-0.475935	-0.477233	0.007279	21.7439	-0.476186	-1.59262e+06	-4.570461E-9	NaN
256	1.000000	0.716950	7.36756e+06	-51439.1	955.819	-29752.5	0.000000	0.000000	6.717030	-0.014990	NaN	0.000000	0.001688	0.001683	28.078	0.051834	0.001910	27.1401	2.312623	18.2043	0.010400	0.715607	-0.433922	-0.435265	-0.014990	27.1401	-0.433508	-399640	3.750832E-8	NaN
256	1.000000	0.758957	7.36756e+06	-51439.1	955.818	-29752.5	0.000000	0.000000	6.759034	-0.076909	NaN	0.000000	0.001695	0.001686	28.0785	0.056852	0.001920	29.6038	-110.068	-164.447	0.018138	0.757651	-0.391915	-0.393221	-0.076909	29.6038	-0.389967	-96093.4	8.003538E-7	NaN
256	1.000000	0.800979	7.36756e+06	-51439.1	955.819	-29752.5	0.000000	0.000000	6.801059	0.011530	NaN	0.000000	0.001592	0.001661	28.0785	0.020023	0.001898	10.5488	-131.646	14.6329	-0.007859	0.799614	-0.349894	-0.351258	0.011530	10.5488	-0.350713	-26142.9	-4.410541E-7	NaN
256	1.000000	0.842996	7.36756e+06	-51439.1	955.817	-29752.5	0.000000	0.000000	6.843079	0.063295	NaN	0.000000	0.001602	0.001654	28.0786	0.028941	0.001878	15.4139	51.7266	-164.193	0.028545	0.841682	-0.307876	-0.309190	0.063295	15.4139	-0.310956	-6842.31	-9.250526E-6	NaN
256	1.000000	0.885017	7.36756e+06	-51439.1	955.819	-29752.5	0.000000	0.000000	6.885097	0.002159	NaN	0.000000	0.001647	0.001651	28.0774	0.048425	0.002021	23.9625	-22.5901	16.1118	-0.048273	0.883699	-0.265855	-0.267173	0.002159	23.9625	-0.265923	-1443.67	-1.495829E-6	NaN
256	1.000000	0.927060	7.36756e+06	-51439.1	955.817	-29752.5	0.000000	0.000000	6.927141	-0.004229	NaN	0.000000	0.001612	0.001665	28.0779	0.073278	0.002021	36.2569	3.397522	-164.267	-0.012195	0.925704	-0.223812	-0.225168	-0.004229	36.2569	-0.223724	-318.46	1.328035E-5	NaN
256	1.000000	0.969033	7.36756e+06	-51439.1	955.817	-29752.5	0.000000	0.000000	6.969114	0.002106	NaN	0.000000	0.001620	0.001630	28.0778	0.088606	0.002096	42.2733	-99.5057	16.8035	-0.044456	0.967680	-0.181839	-0.183192	0.002106	42.2733	-0.181876	-65.665	-3.207156E-5	NaN
256	1.000000	1.011071	7.36756e+06	-51439.1	955.818	-29752.5	0.000000	0.000000	7.011148	-0.072778	NaN	0.000000	0.001621	0.001644	28.0788	0.108844	0.001817	59.8921	-57.6432	-167.681	-0.120528	1.009726	-0.139801	-0.141146	-0.072778	59.8921	-0.138890	-11.2741	0.006455	NaN
256	1.000000	1.053078	7.36756e+06	-51439.1	955.819	-29752.5	0.000000	0.000000	7.053159	0.012952	NaN	0.000000	0.001660	0.001635	28.0788	0.108163	0.002004	53.9804	105.669	11.4626	0.007025	1.051721	-0.097794	-0.099151	0.012952	53.9804	-0.097974	-1.646696	-0.007866	NaN
256	1.000000	1.095070	7.36756e+06	-51439.1	955.818	-29752.5	0.000000	0.000000	7.095151	0.003897	NaN	0.000000	0.001611	0.001667	28.0789	0.062275	0.001879	33.1375	179.479	-164.86	-0.006963	1.093810	-0.055802	-0.057062	0.003897	33.1375	-0.055890	-0.136797	-0.028485	NaN
256	1.000000	1.137100	7.36756e+06	-51439.1	955.816	-29752.5	0.000000	0.000000	7.137180	-0.004038	NaN	0.000000	0.001640	0.001624	28.0777	0.090414	0.002020	44.7617	-153.283	12.5497	-0.031221	1.135804	-0.013773	-0.015068	-0.004038	44.7617	-0.013705	-0.008511	0.474506	NaN
256	2.000000	1.164682	7.36756e+06	-51439.1	955.817	-29752.5	0.000000	0.000000	7.165370	14.7866	NaN	0.000000	0.001627	0.001584	28.0779	13.6071	0.001686	8071.95	3.619760	-172.673	15.0147	1.164306	0.013810	0.013434	14.7866	8071.95	0.012436	0.012016	1230.55	67276.9
256	2.000000	1.175133	7.36756e+06	-51439.1	955.817	-29752.5	0.000000	0.000000	7.176678	35.6243	NaN	0.000000	0.001625	0.001628	28.078	24.0053	0.001884	12739.1	7.295454	2.840078	36.6829	1.174720	0.024261	0.023847	35.6243	12739.1	0.022163	0.026056	1367.21	72103.4
256	2.000000	1.185553	7.36756e+06	-51439.1	955.817	-29752.5	0.000000	0.000000	7.188421	67.774	NaN	0.000000	0.001608	0.001611	28.0782	33.4491	0.001815	18426.6	5.840772	179.709	67.5808	1.185272	0.034681	0.034400	67.774	18426.6	0.031923	0.044823	1512.04	79518.6
256	2.000000	1.196082	7.36756e+06	-51439.1	955.818	-29752.5	0.000000	0.000000	7.200607	108.085	NaN	0.000000	0.001572	0.001636	28.079	42.2207	0.001663	25393	6.311966	-4.144345	106.877	1.195688	0.045210	0.044816	108.085	25393	0.042017	0.069346	1558.64	88100.3
256	2.000000	1.206523	7.36756e+06	-51439.1	955.819	-29752.5	0.000000	0.000000	7.212739	149.199	NaN	0.000000	0.001678	0.001608	28.0797	53.1425	0.001783	29805	1.370157	179.77	147.444	1.206290	0.055651	0.055418	149.199	29805	0.051896	0.098365	1516.79	86824.4
256	2.000000	1.217039	7.36756e+06	-51439.1	955.818	-29752.5	0.000000	0.000000	7.225541	204.791	NaN	0.000000	0.001586	0.001615	28.0787	62.4081	0.001872	33336.7	2.116619	-1.622687	202.965	1.216800	0.066166	0.065928	204.791	33336.7	0.061559	0.131458	1557.84	84004.3
256	2.000000	1.227532	7.36756e+06	-51439.1	955.818	-29752.5	0.000000	0.000000	7.238651	268.4	NaN	0.000000	0.001680	0.001619	28.0772	72.3196	0.001795	40281.4	3.613082	174.819	269.078	1.227273	0.076660	0.076401	268.4	40281.4	0.071663	0.170919	1570.33	89019.1
256	2.000000	1.237917	7.36756e+06	-51439.1	955.819	-29752.5	0.000000	0.000000	7.252331	348.531	NaN	0.000000	0.001624	0.001606	28.0771	80.7139	0.001693	47686.6	1.291549	-3.570732	342.808	1.237613	0.087045	0.086741	348.531	47686.6	0.081563	0.214281	1626.51	94119.1
256	2.000000	1.248425	7.36756e+06	-51439.1	955.82	-29752.5	0.000000	0.000000	7.266178	429.728	NaN	0.000000	0.001665	0.001616	28.0774	91.222	0.001880	48521.9	5.903542	171.885	426.1	1.248128	0.097553	0.097256	429.728	48521.9	0.090911	0.259403	1656.6	87040.9
256	2.000000	1.258353	7.36756e+06	-51439.1	955.818	-29752.5	0.000000	0.000000	7.279323	507.948	NaN	0.000000	0.001686	0.001592	28.0787	98.052	0.001667	58831.1	3.497898	172.722	500.679	1.258103	0.107481	0.107231	507.948	58831.1	0.101006	0.312630	1624.76	96131.4