File: remote_trans/data/nanoindenter/0828-1/data/Data_2025-08-06,11h17m57s/2025-07-22_16-23-58_1_266.txt
2025-07-22, 16:23:58, 1
Index	Phase	Displacement	Time	Pos X	Pos Y	Pos Z	Rot A	Rot B	Piezo Z	Force A	Force B	Gripper	Voltage A	Voltage B	Temperature	Amplitude force	Amplitude pos	Stiffness	Phase shift	Phase excitation	Force A raw	Displacement raw	HMax	HMax raw	Real Force	Real Stiffness	Contact Depth	Area	Hardness	Reduced Mod.
[#]	[#]	[um]	[s]	[um]	[um]	[um]	[m°]	[m°]	[um]	[uN]	[uN]	[V]	[V]	[V]	[°C]	[uN]	[um]	[N/m]	[°]	[°]	[uN]	[um]	[um]	[um]	[uN]	[N/m]	[um]	[um^2]	[MPa]	[MPa]
266	1.000000	0.002320	7.36765e+06	-51939.1	955.818	-29750.9	0.000000	0.000000	6.002780	0.004456	NaN	0.000000	0.001692	0.001709	28.0786	0.072854	0.001031	70.6516	148.673	-165.926	-0.035640	0.001133	-1.127433	-1.128621	0.004456	70.6516	-1.127481	-1.171731E+15	-3.802922E-18	NaN
266	1.000000	0.044326	7.36765e+06	-51939.1	955.818	-29750.9	0.000000	0.000000	6.044787	0.018731	NaN	0.000000	0.001682	0.001680	28.0798	0.090378	0.001875	48.2122	80.4777	14.8155	0.051682	0.042931	-1.085427	-1.086823	0.018731	48.2122	-1.085719	-3.223456E+14	-5.810857E-17	NaN
266	1.000000	0.086322	7.36766e+06	-51939.1	955.819	-29750.9	0.000000	0.000000	6.086780	-0.042559	NaN	0.000000	0.001713	0.001700	28.079	0.071350	0.001858	38.3969	37.585	-164.623	-0.006068	0.084996	-1.043432	-1.044758	-0.042559	38.3969	-1.042600	-8.490470E+13	5.012612E-16	NaN
266	1.000000	0.128351	7.36766e+06	-51939.1	955.818	-29750.9	0.000000	0.000000	6.128810	-0.011851	NaN	0.000000	0.001692	0.001661	28.0784	0.024795	0.001992	12.4466	158.021	15.1582	0.035450	0.126920	-1.001403	-1.002833	-0.011851	12.4466	-1.000689	-2.317606E+13	5.113653E-16	NaN
266	1.000000	0.170349	7.36766e+06	-51939.1	955.819	-29750.9	0.000000	0.000000	6.170808	-0.019585	NaN	0.000000	0.001706	0.001685	28.0773	0.062749	0.002026	30.9791	65.9579	-166.115	-0.010074	0.169042	-0.959404	-0.960712	-0.019585	30.9791	-0.958930	-6.345216E+12	3.086500E-15	NaN
266	1.000000	0.212351	7.36766e+06	-51939.1	955.818	-29750.9	0.000000	0.000000	6.212811	0.005655	NaN	0.000000	0.001664	0.001701	28.0773	0.114388	0.002077	55.062	97.4179	16.5832	-0.058306	0.211020	-0.917403	-0.918733	0.005655	55.062	-0.917480	-1.750575E+12	-3.230533E-15	NaN
266	1.000000	0.254364	7.36766e+06	-51939.1	955.819	-29750.9	0.000000	0.000000	6.254822	-0.029076	NaN	0.000000	0.001746	0.001711	28.0775	0.045912	0.001983	23.1556	-123.897	-161.263	-0.107775	0.253106	-0.875390	-0.876648	-0.029076	23.1556	-0.874448	-4.587968E+11	6.337491E-14	NaN
266	1.000000	0.296398	7.36766e+06	-51939.1	955.819	-29750.9	0.000000	0.000000	6.296858	-0.011408	NaN	0.000000	0.001722	0.001691	28.0788	0.033438	0.002036	16.4198	146.537	9.576848	-0.053010	0.295044	-0.833355	-0.834710	-0.011408	16.4198	-0.832834	-1.253706E+11	9.099693E-14	NaN
266	1.000000	0.338431	7.36766e+06	-51939.1	955.819	-29750.9	0.000000	0.000000	6.338893	0.057332	NaN	0.000000	0.001766	0.001649	28.0786	0.132184	0.001995	66.2549	91.6182	-161.85	-0.025732	0.337054	-0.791323	-0.792700	0.057332	66.2549	-0.791972	-3.498324E+10	-1.638841E-12	NaN
266	1.000000	0.380429	7.36766e+06	-51939.1	955.818	-29750.9	0.000000	0.000000	6.380891	0.045035	NaN	0.000000	0.001680	0.001686	28.0786	0.074346	0.001975	37.6499	-151.643	17.1377	0.059005	0.379087	-0.749324	-0.750667	0.045035	37.6499	-0.750221	-9.467441E+9	-4.756834E-12	NaN
266	1.000000	0.422446	7.36766e+06	-51939.1	955.818	-29750.9	0.000000	0.000000	6.422908	0.040456	NaN	0.000000	0.001725	0.001697	28.0787	0.137957	0.001989	69.3446	-96.7762	-165.969	0.033966	0.421119	-0.707307	-0.708634	0.040456	69.3446	-0.707745	-2.496143E+9	-1.620746E-11	NaN
266	1.000000	0.464476	7.36766e+06	-51939.1	955.819	-29750.9	0.000000	0.000000	6.464936	0.004153	NaN	0.000000	0.001714	0.001706	28.0775	0.069356	0.001966	35.2864	-68.4672	15.7068	0.023732	0.463094	-0.665277	-0.666660	0.004153	35.2864	-0.665366	-6.575831E+8	-6.315980E-12	NaN
266	1.000000	0.506476	7.36766e+06	-51939.1	955.819	-29750.9	0.000000	0.000000	6.506933	-0.058043	NaN	0.000000	0.001764	0.001652	28.0775	0.041885	0.002124	19.7229	-162.499	-164.022	-0.040512	0.505184	-0.623278	-0.624570	-0.058043	19.7229	-0.621071	-1.623120E+8	3.576019E-10	NaN
266	1.000000	0.548484	7.36766e+06	-51939.1	955.819	-29750.9	0.000000	0.000000	6.548945	0.033150	NaN	0.000000	0.001701	0.001689	28.0774	0.025756	0.001862	13.8318	120.438	14.0977	0.037501	0.547161	-0.581269	-0.582593	0.033150	13.8318	-0.583067	-4.864596E+7	-6.814575E-10	NaN
266	1.000000	0.590509	7.36766e+06	-51939.1	955.817	-29750.9	0.000000	0.000000	6.590967	-0.051522	NaN	0.000000	0.001690	0.001671	28.0788	0.031145	0.001975	15.766	44.3901	-165.543	0.001960	0.589235	-0.539245	-0.540518	-0.051522	15.766	-0.536794	-1.113986E+7	4.625033E-9	NaN
266	1.000000	0.632537	7.36766e+06	-51939.1	955.818	-29750.9	0.000000	0.000000	6.632997	-0.005042	NaN	0.000000	0.001686	0.001673	28.0798	0.108106	0.001937	55.8158	-1.757166	15.4067	-0.060814	0.631221	-0.497216	-0.498532	-0.005042	55.8158	-0.497149	-3.12772e+06	1.612107E-9	NaN
266	1.000000	0.674551	7.36766e+06	-51939.1	955.818	-29750.9	0.000000	0.000000	6.675011	0.017205	NaN	0.000000	0.001644	0.001706	28.0786	0.158329	0.001998	79.2371	-52.145	-166.483	0.026356	0.673241	-0.455203	-0.456513	0.017205	79.2371	-0.455365	-812565	-2.117422E-8	NaN
266	1.000000	0.716560	7.36766e+06	-51939.1	955.818	-29750.9	0.000000	0.000000	6.717017	-0.087941	NaN	0.000000	0.001656	0.001716	28.0773	0.057401	0.001936	29.6484	-142.63	14.9127	-0.016849	0.715266	-0.413193	-0.414488	-0.087941	29.6484	-0.410969	-191502	4.592144E-7	NaN
266	1.000000	0.758596	7.36766e+06	-51939.1	955.818	-29750.9	0.000000	0.000000	6.759054	-0.040284	NaN	0.000000	0.001566	0.001666	28.0773	0.027630	0.001963	14.0782	-127.806	-165.652	-0.026100	0.757305	-0.371158	-0.372448	-0.040284	14.0782	-0.369012	-48072.1	8.379925E-7	NaN
266	1.000000	0.800630	7.36766e+06	-51939.1	955.819	-29750.9	0.000000	0.000000	6.801090	-0.007898	NaN	0.000000	0.001603	0.001648	28.0775	0.071222	0.002001	35.599	142.342	13.6261	0.008514	0.799212	-0.329124	-0.330542	-0.007898	35.599	-0.328957	-12594.3	6.271021E-7	NaN
266	1.000000	0.842621	7.36766e+06	-51939.1	955.819	-29750.9	0.000000	0.000000	6.843082	0.044023	NaN	0.000000	0.001608	0.001688	28.0785	0.010440	0.001996	5.229631	-82.4651	-169.997	-0.003906	0.841344	-0.287133	-0.288410	0.044023	5.229631	-0.293447	-3757.32	-1.171667E-5	NaN
266	1.000000	0.884629	7.36766e+06	-51939.1	955.819	-29750.9	0.000000	0.000000	6.885089	0.004440	NaN	0.000000	0.001579	0.001691	28.0789	0.110333	0.001962	56.2342	-103.379	14.026	-0.062784	0.883257	-0.245125	-0.246496	0.004440	56.2342	-0.245184	-692.325	-6.413797E-6	NaN
266	1.000000	0.926668	7.36766e+06	-51939.1	955.819	-29750.9	0.000000	0.000000	6.927125	-0.050018	NaN	0.000000	0.001597	0.001690	28.0793	0.089636	0.001934	46.3474	14.0554	-169.95	0.012543	0.925310	-0.203086	-0.204443	-0.050018	46.3474	-0.202276	-143.564	0.000348	NaN
266	1.000000	0.968662	7.36766e+06	-51939.1	955.819	-29750.9	0.000000	0.000000	6.969121	-0.023027	NaN	0.000000	0.001595	0.001638	28.0792	0.137094	0.002131	64.3339	-65.0703	11.3726	-0.082372	0.967308	-0.161091	-0.162445	-0.023027	64.3339	-0.160823	-28.3525	0.000812	NaN
266	1.000000	1.010660	7.36766e+06	-51939.1	955.818	-29750.9	0.000000	0.000000	7.011120	-0.007247	NaN	0.000000	0.001617	0.001667	28.078	0.154625	0.001895	81.6048	40.3564	-166.483	-0.022445	1.009335	-0.119093	-0.120419	-0.007247	81.6048	-0.119027	-4.617445	0.001569	NaN
266	1.000000	1.052676	7.36766e+06	-51939.1	955.819	-29750.9	0.000000	0.000000	7.053136	0.000309	NaN	0.000000	0.001632	0.001717	28.0777	0.057670	0.001959	29.4408	-82.2083	13.0439	-0.019432	1.051360	-0.077077	-0.078394	0.000309	29.4408	-0.077085	-0.522489	-0.000592	NaN
266	1.000000	1.094722	7.36766e+06	-51939.1	955.819	-29750.9	0.000000	0.000000	7.095181	-0.026700	NaN	0.000000	0.001583	0.001661	28.0778	0.027789	0.001961	14.168	-82.2843	-165.446	0.005923	1.093534	-0.035031	-0.036219	-0.026700	14.168	-0.033618	-0.029176	0.915125	NaN
266	1.000000	1.136703	7.36766e+06	-51939.1	955.819	-29750.9	0.000000	0.000000	7.137433	6.572843	NaN	0.000000	0.001652	0.001671	28.0791	6.848351	0.001740	3935.85	16.9038	3.828525	5.494466	1.135315	0.006949	0.005561	6.572843	3935.85	0.005696	0.004778	1375.66	52022.4
266	2.000000	1.149167	7.36766e+06	-51939.1	955.818	-29750.9	0.000000	0.000000	7.150704	26.1969	NaN	0.000000	0.001604	0.001687	28.0799	20.3277	0.001822	11155.2	5.531223	-178.131	24.2468	1.148925	0.019414	0.019172	26.1969	11155.2	0.017652	0.018986	1379.77	73965.4
266	2.000000	1.159693	7.36766e+06	-51939.1	955.82	-29750.9	0.000000	0.000000	7.162436	55.5111	NaN	0.000000	0.001568	0.001691	28.0797	30.878	0.001684	18334.7	3.521634	-0.259550	53.7357	1.159312	0.029939	0.029559	55.5111	18334.7	0.027668	0.036050	1539.85	88226.1
266	2.000000	1.170110	7.36766e+06	-51939.1	955.819	-29750.9	0.000000	0.000000	7.174164	87.3853	NaN	0.000000	0.001597	0.001742	28.0781	41.8626	0.001804	23202.5	5.410076	175.046	84.544	1.169850	0.040357	0.040097	87.3853	23202.5	0.037532	0.057806	1511.7	88170
266	2.000000	1.180612	7.36766e+06	-51939.1	955.821	-29750.9	0.000000	0.000000	7.186563	133.518	NaN	0.000000	0.001653	0.001718	28.078	50.0082	0.001777	28146.2	5.288510	-5.492346	130.133	1.180273	0.050859	0.050520	133.518	28146.2	0.047301	0.084253	1584.72	88593.2
266	2.000000	1.191107	7.36766e+06	-51939.1	955.82	-29750.9	0.000000	0.000000	7.199195	185.484	NaN	0.000000	0.001590	0.001728	28.0779	59.5418	0.001688	35279.7	7.425261	171.889	183.428	1.190654	0.061354	0.060900	185.484	35279.7	0.057411	0.116687	1589.58	94359.7
266	2.000000	1.201691	7.36766e+06	-51939.1	955.82	-29750.9	0.000000	0.000000	7.211835	235.48	NaN	0.000000	0.001580	0.001701	28.0793	71.3764	0.001830	39008	2.225916	-5.164177	237.046	1.201492	0.071937	0.071738	235.48	39008	0.067409	0.153709	1531.98	90902.7
266	2.000000	1.212088	7.36766e+06	-51939.1	955.819	-29750.9	0.000000	0.000000	7.225220	308.141	NaN	0.000000	0.001619	0.001680	28.0795	81.0222	0.001851	43780.5	3.901316	172.609	305.957	1.211756	0.082334	0.082003	308.141	43780.5	0.077055	0.193965	1588.64	90822.2
266	2.000000	1.222520	7.36766e+06	-51939.1	955.819	-29750.9	0.000000	0.000000	7.238619	380.281	NaN	0.000000	0.001542	0.001690	28.079	89.8099	0.001757	51124.2	4.617825	-9.056642	372.462	1.222213	0.092766	0.092459	380.281	51124.2	0.087187	0.240945	1578.29	95156.9
266	2.000000	1.233021	7.36766e+06	-51939.1	955.819	-29750.9	0.000000	0.000000	7.252868	471.4	NaN	0.000000	0.001589	0.001687	28.0788	100.563	0.001775	56641.8	3.966075	171.043	467.985	1.232628	0.103267	0.102875	471.4	56641.8	0.097025	0.291089	1619.44	95917.4
266	2.000000	1.238009	7.36766e+06	-51939.1	955.82	-29750.9	0.000000	0.000000	7.259256	505.454	NaN	0.000000	0.001595	0.001766	28.0775	106.45	0.001846	57672.6	2.009123	172.948	501.236	1.237801	0.108256	0.108047	505.454	57672.6	0.101683	0.316365	1597.69	93680.3