File: remote_trans/data/nanoindenter/0828-1/data/Data_2025-08-06,11h17m57s/2025-07-22_16-23-58_1_526.txt
2025-07-22, 16:23:58, 1
Index	Phase	Displacement	Time	Pos X	Pos Y	Pos Z	Rot A	Rot B	Piezo Z	Force A	Force B	Gripper	Voltage A	Voltage B	Temperature	Amplitude force	Amplitude pos	Stiffness	Phase shift	Phase excitation	Force A raw	Displacement raw	HMax	HMax raw	Real Force	Real Stiffness	Contact Depth	Area	Hardness	Reduced Mod.
[#]	[#]	[um]	[s]	[um]	[um]	[um]	[m°]	[m°]	[um]	[uN]	[uN]	[V]	[V]	[V]	[°C]	[uN]	[um]	[N/m]	[°]	[°]	[uN]	[um]	[um]	[um]	[uN]	[N/m]	[um]	[um^2]	[MPa]	[MPa]
526	1.000000	0.002011	7.37019e+06	-50789.1	1005.82	-29754.7	0.000000	0.000000	6.002810	0.112441	NaN	0.000000	0.001597	0.001770	28.0802	0.015174	0.000878	17.2736	142.649	-162.527	0.071116	0.000727	-0.948564	-0.949848	0.112441	17.2736	-0.953446	-5.351857E+12	-2.100972E-14	NaN
526	1.000000	0.039952	7.37019e+06	-50789.1	1005.82	-29754.7	0.000000	0.000000	6.040745	-0.023195	NaN	0.000000	0.001600	0.001702	28.0799	0.035984	0.001939	18.5578	152.006	11.0609	-0.007405	0.038549	-0.910623	-0.912026	-0.023195	18.5578	-0.909686	-1.373791E+12	1.688376E-14	NaN
526	1.000000	0.077939	7.3702e+06	-50789.1	1005.82	-29754.7	0.000000	0.000000	6.078733	-0.015256	NaN	0.000000	0.001573	0.001712	28.0787	0.033488	0.002042	16.398	66.5746	-166.651	-0.006276	0.076672	-0.872636	-0.873903	-0.015256	16.398	-0.871938	-4.242931E+11	3.595544E-14	NaN
526	1.000000	0.115982	7.3702e+06	-50789.1	1005.82	-29754.7	0.000000	0.000000	6.116776	-0.006564	NaN	0.000000	0.001590	0.001733	28.0786	0.042113	0.001965	21.4299	123.111	18.5056	0.027155	0.114641	-0.834594	-0.835934	-0.006564	21.4299	-0.834364	-1.315003E+11	4.991967E-14	NaN
526	1.000000	0.153973	7.3702e+06	-50789.1	1005.82	-29754.7	0.000000	0.000000	6.154766	-0.021423	NaN	0.000000	0.001607	0.001727	28.0788	0.095776	0.002037	47.0239	33.6054	-164.532	0.017185	0.152632	-0.796603	-0.797943	-0.021423	47.0239	-0.796261	-4.000390E+10	5.355187E-13	NaN
526	1.000000	0.192002	7.3702e+06	-50789.1	1005.82	-29754.7	0.000000	0.000000	6.192794	-0.052406	NaN	0.000000	0.001611	0.001701	28.0798	0.016675	0.002067	8.066937	148.885	12.6462	0.022289	0.190673	-0.758574	-0.759903	-0.052406	8.066937	-0.753701	-1.055842E+10	4.963387E-12	NaN
526	1.000000	0.230018	7.3702e+06	-50789.1	1005.82	-29754.7	0.000000	0.000000	6.230813	0.022874	NaN	0.000000	0.001621	0.001728	28.0798	0.125962	0.002009	62.7005	-172.499	-167.213	-0.013614	0.228736	-0.720557	-0.721839	0.022874	62.7005	-0.720831	-3.765345E+9	-6.074788E-12	NaN
526	1.000000	0.268067	7.3702e+06	-50789.1	1005.82	-29754.7	0.000000	0.000000	6.268862	0.020057	NaN	0.000000	0.001579	0.001710	28.0798	0.063813	0.002095	30.461	-18.1834	14.1246	0.068872	0.266679	-0.682508	-0.683896	0.020057	30.461	-0.683002	-1.146193E+9	-1.749898E-11	NaN
526	1.000000	0.306071	7.3702e+06	-50789.1	1005.82	-29754.7	0.000000	0.000000	6.306866	0.018868	NaN	0.000000	0.001643	0.001747	28.0799	0.055537	0.002058	26.9805	-114.938	-166.578	0.033912	0.304775	-0.644504	-0.645800	0.018868	26.9805	-0.645029	-3.461545E+8	-5.450730E-11	NaN
526	1.000000	0.344055	7.3702e+06	-50789.1	1005.82	-29754.7	0.000000	0.000000	6.344849	-0.007720	NaN	0.000000	0.001601	0.001740	28.0785	0.100873	0.001977	51.0208	85.4461	13.2181	0.012496	0.342682	-0.606520	-0.607893	-0.007720	51.0208	-0.606407	-1.020160E+8	7.567461E-11	NaN
526	1.000000	0.382101	7.3702e+06	-50789.1	1005.82	-29754.7	0.000000	0.000000	6.382893	-0.036445	NaN	0.000000	0.001579	0.001742	28.0783	0.111293	0.002012	55.3064	146.679	-165.838	0.017438	0.380745	-0.568475	-0.569830	-0.036445	55.3064	-0.567980	-3.011088E+7	1.210360E-9	NaN
526	1.000000	0.420095	7.3702e+06	-50789.1	1005.82	-29754.7	0.000000	0.000000	6.420887	-0.054839	NaN	0.000000	0.001564	0.001733	28.0784	0.044352	0.002033	21.817	-169.574	16.5304	-0.079101	0.418747	-0.530480	-0.531828	-0.054839	21.817	-0.528595	-8.57161e+06	6.397772E-9	NaN
526	1.000000	0.458137	7.3702e+06	-50789.1	1005.82	-29754.7	0.000000	0.000000	6.458929	-0.042494	NaN	0.000000	0.001528	0.001702	28.0796	0.045752	0.001895	24.1499	170.727	-164.908	-0.054002	0.456804	-0.492439	-0.493772	-0.042494	24.1499	-0.491119	-2.57649e+06	1.649304E-8	NaN
526	1.000000	0.496154	7.3702e+06	-50789.1	1005.82	-29754.7	0.000000	0.000000	6.496948	0.008096	NaN	0.000000	0.001514	0.001714	28.0797	0.119716	0.001966	60.8894	-57.3171	16.0385	0.063194	0.494792	-0.454422	-0.455783	0.008096	60.8894	-0.454521	-790648	-1.023913E-8	NaN
526	1.000000	0.534163	7.3702e+06	-50789.1	1005.82	-29754.7	0.000000	0.000000	6.534956	-0.034884	NaN	0.000000	0.001531	0.001748	28.0798	0.098570	0.001875	52.5744	128.736	-164.91	-0.056432	0.532849	-0.416412	-0.417727	-0.034884	52.5744	-0.415915	-225136	1.549470E-7	NaN
526	1.000000	0.572180	7.3702e+06	-50789.1	1005.82	-29754.7	0.000000	0.000000	6.572973	-0.047153	NaN	0.000000	0.001537	0.001716	28.0797	0.128890	0.001963	65.661	64.5762	13.169	-0.005756	0.570801	-0.378395	-0.379775	-0.047153	65.661	-0.377857	-64434.1	7.318014E-7	NaN
526	1.000000	0.610190	7.3702e+06	-50789.1	1005.82	-29754.7	0.000000	0.000000	6.610983	-0.021413	NaN	0.000000	0.001593	0.001766	28.0788	0.098240	0.001916	51.2847	-63.5273	-163.398	-0.003166	0.608846	-0.340386	-0.341729	-0.021413	51.2847	-0.340072	-18306.7	1.169703E-6	NaN
526	1.000000	0.648217	7.3702e+06	-50789.1	1005.82	-29754.7	0.000000	0.000000	6.649012	0.016662	NaN	0.000000	0.001584	0.001733	28.0789	0.116049	0.002006	57.8606	-102.157	12.9177	0.078253	0.646873	-0.302358	-0.303703	0.016662	57.8606	-0.302574	-5139.5	-3.241856E-6	NaN
526	1.000000	0.686215	7.3702e+06	-50789.1	1005.82	-29754.7	0.000000	0.000000	6.687009	-0.025443	NaN	0.000000	0.001558	0.001758	28.0786	0.096055	0.001945	49.387	83.7436	-164.128	-0.017905	0.684914	-0.264360	-0.265661	-0.025443	49.387	-0.263974	-1348.09	1.887377E-5	NaN
526	1.000000	0.724261	7.3702e+06	-50789.1	1005.82	-29754.7	0.000000	0.000000	6.725054	-0.016819	NaN	0.000000	0.001596	0.001749	28.0786	0.017137	0.002050	8.357979	8.895930	20.9044	-0.016657	0.722879	-0.226315	-0.227696	-0.016819	8.357979	-0.224805	-331.318	5.076505E-5	NaN
526	1.000000	0.762253	7.3702e+06	-50789.1	1005.82	-29754.7	0.000000	0.000000	6.763048	0.034780	NaN	0.000000	0.001647	0.001768	28.0798	0.090321	0.001910	47.2932	138.897	-165.43	0.029900	0.760934	-0.188323	-0.189641	0.034780	47.2932	-0.188874	-86.1399	-0.000404	NaN
526	1.000000	0.800256	7.3702e+06	-50789.1	1005.82	-29754.7	0.000000	0.000000	6.801053	0.051510	NaN	0.000000	0.001576	0.001751	28.0802	0.049426	0.002096	23.5868	-23.3697	13.3578	0.053350	0.798888	-0.150319	-0.151688	0.051510	23.5868	-0.151957	-19.6608	-0.002620	NaN
526	1.000000	0.838284	7.3702e+06	-50789.1	1005.82	-29754.7	0.000000	0.000000	6.839075	-0.056146	NaN	0.000000	0.001576	0.001788	28.0799	0.106064	0.002091	50.7329	82.617	-165.575	-0.045683	0.837014	-0.112292	-0.113561	-0.056146	50.7329	-0.111462	-3.225463	0.017407	NaN
526	1.000000	0.876298	7.3702e+06	-50789.1	1005.82	-29754.7	0.000000	0.000000	6.877090	-0.042624	NaN	0.000000	0.001599	0.001773	28.0788	0.096689	0.001989	48.6018	-153.312	14.0048	-0.027559	0.874913	-0.074277	-0.075662	-0.042624	48.6018	-0.073620	-0.425245	0.100234	NaN
526	1.000000	0.914286	7.3702e+06	-50789.1	1005.82	-29754.7	0.000000	0.000000	6.915080	0.009645	NaN	0.000000	0.001579	0.001795	28.0787	0.078343	0.001941	40.3605	-47.5811	-167.909	0.010943	0.913024	-0.036290	-0.037552	0.009645	40.3605	-0.036469	-0.035400	-0.272455	NaN
526	1.000000	0.952307	7.3702e+06	-50789.1	1005.82	-29754.7	0.000000	0.000000	6.953288	4.540220	NaN	0.000000	0.001576	0.001723	28.079	5.169422	0.001805	2863.8	7.366026	11.593	2.767865	0.951007	0.001731	0.000432	4.540220	2863.8	0.000542	0.000410	11087	129296
526	2.000000	0.963912	7.3702e+06	-50789.1	1005.82	-29754.7	0.000000	0.000000	6.965556	20.6545	NaN	0.000000	0.001629	0.001736	28.0786	16.4053	0.001699	9657.43	1.595206	-174.186	19.6647	0.963547	0.013337	0.012972	20.6545	9657.43	0.011733	0.011172	1848.84	83479
526	2.000000	0.973372	7.3702e+06	-50789.1	1005.82	-29754.7	0.000000	0.000000	6.975752	38.5602	NaN	0.000000	0.001637	0.001701	28.0799	26.3116	0.001881	13985.6	4.834715	1.445149	37.2771	0.973036	0.022797	0.022461	38.5602	13985.6	0.020729	0.023701	1626.94	82998.9
526	2.000000	0.982953	7.3702e+06	-50789.1	1005.82	-29754.7	0.000000	0.000000	6.986321	62.6018	NaN	0.000000	0.001640	0.001738	28.0798	34.3981	0.001719	20011.5	3.927629	178.71	64.5628	0.982551	0.032377	0.031976	62.6018	20011.5	0.030031	0.040808	1534.05	90506.2
526	2.000000	0.992306	7.3702e+06	-50789.1	1005.82	-29754.7	0.000000	0.000000	6.997215	100.07	NaN	0.000000	0.001679	0.001754	28.0804	42.4038	0.001792	23668.3	7.632374	-5.768051	97.8442	0.991984	0.041730	0.041409	100.07	23668.3	0.038559	0.060358	1657.94	88018.5
526	2.000000	1.001767	7.3702e+06	-50789.1	1005.82	-29754.7	0.000000	0.000000	7.008395	141.866	NaN	0.000000	0.001574	0.001759	28.0786	52.0975	0.001799	28961.4	5.513288	174.256	137.93	1.001422	0.051192	0.050847	141.866	28961.4	0.047518	0.084897	1671.04	90812.9
526	2.000000	1.011291	7.3702e+06	-50789.1	1005.82	-29754.7	0.000000	0.000000	7.019607	182.914	NaN	0.000000	0.001578	0.001741	28.0785	60.6073	0.001851	32749.7	4.769036	-4.426266	181.033	1.010847	0.060715	0.060272	182.914	32749.7	0.056527	0.113648	1609.47	88756.1
526	2.000000	1.020795	7.3702e+06	-50789.1	1005.82	-29754.7	0.000000	0.000000	7.031068	230.497	NaN	0.000000	0.001549	0.001750	28.0786	69.1723	0.001856	37267.4	6.489324	172.127	228.304	1.020454	0.070220	0.069878	230.497	37267.4	0.065581	0.146579	1572.51	88933.8
526	2.000000	1.030259	7.3702e+06	-50789.1	1005.82	-29754.7	0.000000	0.000000	7.043025	291.116	NaN	0.000000	0.001618	0.001712	28.0789	77.2968	0.001827	42306.9	7.015490	-9.683700	288.653	1.029875	0.079684	0.079300	291.116	42306.9	0.074523	0.182971	1591.05	90363.4
526	2.000000	1.039820	7.3702e+06	-50789.1	1005.82	-29754.7	0.000000	0.000000	7.054926	348.017	NaN	0.000000	0.001609	0.001734	28.0803	85.919	0.001849	46462.5	6.023777	170.382	347.926	1.039365	0.089245	0.088790	348.017	46462.5	0.083627	0.223897	1554.36	89712.1
526	2.000000	1.049274	7.3702e+06	-50789.1	1005.82	-29754.7	0.000000	0.000000	7.067032	412.502	NaN	0.000000	0.001583	0.001725	28.0799	93.2361	0.001697	54937.1	1.749828	-6.453422	409.043	1.049019	0.098699	0.098444	412.502	54937.1	0.093067	0.270383	1525.62	96527
526	2.000000	1.053614	7.3702e+06	-50789.1	1005.82	-29754.7	0.000000	0.000000	7.072696	444.707	NaN	0.000000	0.001562	0.001707	28.0803	97.8727	0.001666	58743.5	4.121477	170.08	434.395	1.053263	0.103039	0.102688	444.707	58743.5	0.097361	0.292877	1518.41	99172.2