File: remote_trans/data/nanoindenter/0828-1/data/Data_2025-08-06,11h17m57s/2025-07-22_16-23-58_1_283.txt
2025-07-22, 16:23:58, 1
Index	Phase	Displacement	Time	Pos X	Pos Y	Pos Z	Rot A	Rot B	Piezo Z	Force A	Force B	Gripper	Voltage A	Voltage B	Temperature	Amplitude force	Amplitude pos	Stiffness	Phase shift	Phase excitation	Force A raw	Displacement raw	HMax	HMax raw	Real Force	Real Stiffness	Contact Depth	Area	Hardness	Reduced Mod.
[#]	[#]	[um]	[s]	[um]	[um]	[um]	[m°]	[m°]	[um]	[uN]	[uN]	[V]	[V]	[V]	[°C]	[uN]	[um]	[N/m]	[°]	[°]	[uN]	[um]	[um]	[um]	[uN]	[N/m]	[um]	[um^2]	[MPa]	[MPa]
283	1.000000	0.002647	7.36782e+06	-52789.1	955.819	-29748.5	0.000000	0.000000	6.002795	0.013996	NaN	0.000000	0.001705	0.001719	28.0784	0.107207	0.001052	101.916	-134.836	-159.317	-0.088460	0.001381	-1.125980	-1.127246	0.013996	101.916	-1.126083	-1.122219E+15	-1.247186E-17	NaN
283	1.000000	0.044587	7.36782e+06	-52789.1	955.818	-29748.5	0.000000	0.000000	6.044734	-0.000199	NaN	0.000000	0.001715	0.001767	28.0791	0.075317	0.001962	38.3822	-173.782	11.8829	-0.099670	0.043252	-1.084041	-1.085375	-0.000199	38.3822	-1.084037	-3.060090E+14	6.518238E-19	NaN
283	1.000000	0.086603	7.36782e+06	-52789.1	955.818	-29748.5	0.000000	0.000000	6.086746	-0.096082	NaN	0.000000	0.001713	0.001709	28.0795	0.013502	0.001955	6.905685	179.937	-168.576	-0.096445	0.085304	-1.042024	-1.043323	-0.096082	6.905685	-1.031589	-6.037484E+13	1.591424E-15	NaN
283	1.000000	0.128643	7.36782e+06	-52789.1	955.818	-29748.5	0.000000	0.000000	6.128788	-0.078531	NaN	0.000000	0.001716	0.001716	28.0797	0.046387	0.002052	22.6108	156.044	10.9018	-0.045998	0.127241	-0.999984	-1.001387	-0.078531	22.6108	-0.997379	-2.091611E+13	3.754570E-15	NaN
283	1.000000	0.170645	7.36782e+06	-52789.1	955.819	-29748.5	0.000000	0.000000	6.170794	0.035432	NaN	0.000000	0.001696	0.001732	28.0798	0.140128	0.002100	66.7407	67.9046	-164.896	0.071007	0.169347	-0.957982	-0.959280	0.035432	66.7407	-0.958381	-6.237861E+12	-5.680161E-15	NaN
283	1.000000	0.212678	7.36782e+06	-52789.1	955.819	-29748.5	0.000000	0.000000	6.212830	0.090570	NaN	0.000000	0.001651	0.001691	28.0794	0.049804	0.001999	24.9146	-59.4754	9.408575	0.007917	0.211305	-0.915949	-0.917322	0.090570	24.9146	-0.918675	-1.816849E+12	-4.984985E-14	NaN
283	1.000000	0.254699	7.36782e+06	-52789.1	955.818	-29748.5	0.000000	0.000000	6.254847	0.020063	NaN	0.000000	0.001592	0.001732	28.0783	0.032843	0.001878	17.4869	21.5306	-169.071	-0.038489	0.253330	-0.873928	-0.875297	0.020063	17.4869	-0.874789	-4.636885E+11	-4.326755E-14	NaN
283	1.000000	0.296706	7.36782e+06	-52789.1	955.818	-29748.5	0.000000	0.000000	6.296854	0.013506	NaN	0.000000	0.001680	0.001738	28.0787	0.075850	0.001995	38.0287	112.07	13.1702	-0.002313	0.295356	-0.831921	-0.833271	0.013506	38.0287	-0.832187	-1.228653E+11	-1.099282E-13	NaN
283	1.000000	0.338741	7.36782e+06	-52789.1	955.819	-29748.5	0.000000	0.000000	6.338888	-0.006724	NaN	0.000000	0.001670	0.001671	28.0783	0.074210	0.002038	36.4107	-174.019	-167.94	-0.019836	0.337463	-0.789887	-0.791165	-0.006724	36.4107	-0.789748	-3.263355E+10	2.060438E-13	NaN
283	1.000000	0.380750	7.36782e+06	-52789.1	955.819	-29748.5	0.000000	0.000000	6.380894	-0.074546	NaN	0.000000	0.001653	0.001682	28.0796	0.008844	0.002009	4.403009	30.0795	13.3616	-0.025165	0.379392	-0.747878	-0.749235	-0.074546	4.403009	-0.735180	-5.907323E+9	1.261922E-11	NaN
283	1.000000	0.422758	7.36782e+06	-52789.1	955.818	-29748.5	0.000000	0.000000	6.422906	0.009781	NaN	0.000000	0.001689	0.001695	28.0796	0.126435	0.002079	60.8166	92.6486	-166.326	0.036321	0.421456	-0.705869	-0.707171	0.009781	60.8166	-0.705990	-2.362205E+9	-4.140829E-12	NaN
283	1.000000	0.464811	7.36782e+06	-52789.1	955.817	-29748.5	0.000000	0.000000	6.464954	-0.108714	NaN	0.000000	0.001672	0.001740	28.0795	0.067746	0.002068	32.7652	64.9927	13.2816	-0.156300	0.463414	-0.663816	-0.665213	-0.108714	32.7652	-0.661327	-5.789629E+8	1.877737E-10	NaN
283	1.000000	0.506790	7.36782e+06	-52789.1	955.819	-29748.5	0.000000	0.000000	6.506939	0.033737	NaN	0.000000	0.001693	0.001689	28.0783	0.044955	0.001923	23.3737	48.1647	-169.637	0.034712	0.505478	-0.621837	-0.623149	0.033737	23.3737	-0.622920	-1.720915E+8	-1.960386E-10	NaN
283	1.000000	0.548788	7.36782e+06	-52789.1	955.818	-29748.5	0.000000	0.000000	6.548932	-0.088733	NaN	0.000000	0.001678	0.001698	28.0782	0.086804	0.001969	44.0805	-33.7348	12.6467	-0.085089	0.547522	-0.579839	-0.581105	-0.088733	44.0805	-0.578329	-4.184727E+7	2.120404E-9	NaN
283	1.000000	0.590802	7.36783e+06	-52789.1	955.818	-29748.5	0.000000	0.000000	6.590946	-0.083078	NaN	0.000000	0.001653	0.001727	28.0781	0.054019	0.001966	27.4799	77.4586	-166.779	-0.077768	0.589547	-0.537825	-0.539080	-0.083078	27.4799	-0.535558	-1.070864E+7	7.757992E-9	NaN
283	1.000000	0.632833	7.36783e+06	-52789.1	955.819	-29748.5	0.000000	0.000000	6.632979	-0.037146	NaN	0.000000	0.001643	0.001714	28.0795	0.052092	0.001970	26.4429	20.0661	14.9403	-0.060628	0.631518	-0.495794	-0.497110	-0.037146	26.4429	-0.494740	-2.89474e+06	1.283239E-8	NaN
283	1.000000	0.674868	7.36783e+06	-52789.1	955.819	-29748.5	0.000000	0.000000	6.675014	-0.036396	NaN	0.000000	0.001649	0.001730	28.0795	0.069587	0.002145	32.4373	-126.238	-167.127	0.059502	0.673568	-0.453760	-0.455060	-0.036396	32.4373	-0.452918	-750628	4.848730E-8	NaN
283	1.000000	0.716906	7.36783e+06	-52789.1	955.818	-29748.5	0.000000	0.000000	6.717051	-0.061788	NaN	0.000000	0.001715	0.001709	28.0796	0.036036	0.001971	18.2863	-74.1348	16.7738	-0.053997	0.715530	-0.411721	-0.413097	-0.061788	18.2863	-0.409187	-180649	3.420345E-7	NaN
283	1.000000	0.758897	7.36783e+06	-52789.1	955.818	-29748.5	0.000000	0.000000	6.759044	-0.020074	NaN	0.000000	0.001652	0.001722	28.0798	0.047010	0.002027	23.1863	60.1545	-170.48	-0.103646	0.757591	-0.369730	-0.371036	-0.020074	23.1863	-0.369081	-48181.9	4.166231E-7	NaN
283	1.000000	0.800935	7.36783e+06	-52789.1	955.818	-29748.5	0.000000	0.000000	6.801080	-0.044009	NaN	0.000000	0.001623	0.001680	28.0782	0.086320	0.002046	42.1865	-108.607	13.0756	-0.003295	0.799528	-0.327692	-0.329099	-0.044009	42.1865	-0.326910	-11753.5	3.744333E-6	NaN
283	1.000000	0.842940	7.36783e+06	-52789.1	955.819	-29748.5	0.000000	0.000000	6.843085	-0.061351	NaN	0.000000	0.001641	0.001724	28.0781	0.087945	0.002013	43.6822	14.6211	-165.725	-0.075312	0.841678	-0.285687	-0.286950	-0.061351	43.6822	-0.284634	-2771.78	2.213415E-5	NaN
283	1.000000	0.884956	7.36783e+06	-52789.1	955.819	-29748.5	0.000000	0.000000	6.885102	-0.021816	NaN	0.000000	0.001616	0.001738	28.0783	0.096759	0.002165	44.6989	96.6354	12.139	0.007258	0.883624	-0.243672	-0.245004	-0.021816	44.6989	-0.243305	-647.285	3.370334E-5	NaN
283	1.000000	0.926996	7.36783e+06	-52789.1	955.818	-29748.5	0.000000	0.000000	6.927141	-0.065697	NaN	0.000000	0.001598	0.001772	28.0795	0.024940	0.001960	12.7239	111.471	-165.86	-0.032514	0.925643	-0.201631	-0.202984	-0.065697	12.7239	-0.197758	-121.002	0.000543	NaN
283	1.000000	0.968952	7.36783e+06	-52789.1	955.819	-29748.5	0.000000	0.000000	6.969098	-0.039197	NaN	0.000000	0.001636	0.001741	28.0797	0.030752	0.001984	15.4963	-23.3526	14.5661	0.014188	0.967565	-0.159675	-0.161062	-0.039197	15.4963	-0.157778	-25.0264	0.001566	NaN
283	1.000000	1.011009	7.36783e+06	-52789.1	955.819	-29748.5	0.000000	0.000000	7.011156	-0.021967	NaN	0.000000	0.001635	0.001738	28.0796	0.061049	0.001979	30.8502	-178.041	-166.977	0.009735	1.009710	-0.117618	-0.118917	-0.021967	30.8502	-0.117084	-4.215772	0.005211	NaN
283	1.000000	1.053026	7.36783e+06	-52789.1	955.819	-29748.5	0.000000	0.000000	7.053172	-0.045148	NaN	0.000000	0.001620	0.001742	28.0783	0.091358	0.001935	47.2042	74.0763	13.9098	-0.044907	1.051690	-0.075601	-0.076937	-0.045148	47.2042	-0.074884	-0.458676	0.098431	NaN
283	1.000000	1.095033	7.36783e+06	-52789.1	955.818	-29748.5	0.000000	0.000000	7.095181	0.005549	NaN	0.000000	0.001700	0.001684	28.0784	0.035828	0.002014	17.7883	81.2367	-168.044	0.050011	1.093722	-0.033594	-0.034905	0.005549	17.7883	-0.033828	-0.029591	-0.187511	NaN
283	1.000000	1.137038	7.36783e+06	-52789.1	955.819	-29748.5	0.000000	0.000000	7.137431	5.971182	NaN	0.000000	0.001603	0.001682	28.0784	6.542144	0.001874	3490.71	14.5892	5.999104	4.379440	1.135679	0.008410	0.007052	5.971182	3490.71	0.007127	0.006160	969.331	40634.3
283	2.000000	1.149532	7.36783e+06	-52789.1	955.819	-29748.5	0.000000	0.000000	7.150659	23.8347	NaN	0.000000	0.001605	0.001685	28.0803	19.2598	0.001894	10171.3	6.357026	-176.476	24.609	1.149293	0.020904	0.020665	23.8347	10171.3	0.019147	0.021219	1123.26	63794.8
283	2.000000	1.160035	7.36783e+06	-52789.1	955.82	-29748.5	0.000000	0.000000	7.162301	51.5074	NaN	0.000000	0.001650	0.001696	28.0807	29.3341	0.001693	17325.2	6.282921	-2.673941	52.1147	1.159722	0.031408	0.031094	51.5074	17325.2	0.029178	0.039057	1318.77	80094.1
283	2.000000	1.170465	7.36783e+06	-52789.1	955.819	-29748.5	0.000000	0.000000	7.174131	85.5352	NaN	0.000000	0.001617	0.001683	28.0798	39.6375	0.001810	21902.5	7.942983	174.175	84.2703	1.170156	0.041838	0.041529	85.5352	21902.5	0.038909	0.061239	1396.74	80863.2
283	2.000000	1.180961	7.36783e+06	-52789.1	955.82	-29748.5	0.000000	0.000000	7.186298	126.19	NaN	0.000000	0.001581	0.001734	28.0799	48.8187	0.001793	27225.4	2.906403	-3.027760	124.668	1.180605	0.052333	0.051977	126.19	27225.4	0.048857	0.088913	1419.25	83419
283	2.000000	1.191404	7.36783e+06	-52789.1	955.819	-29748.5	0.000000	0.000000	7.198968	180.321	NaN	0.000000	0.001553	0.001751	28.0786	59.6637	0.001785	33419.9	4.541059	173.769	175.225	1.191148	0.062777	0.062521	180.321	33419.9	0.058730	0.121294	1486.65	87671.6
283	2.000000	1.201959	7.36783e+06	-52789.1	955.82	-29748.5	0.000000	0.000000	7.211641	231.804	NaN	0.000000	0.001592	0.001733	28.0784	69.3258	0.001806	38378.8	-0.856069	-1.745148	229.926	1.201668	0.073332	0.073040	231.804	38378.8	0.068802	0.159250	1455.6	87866.9
283	2.000000	1.212394	7.36783e+06	-52789.1	955.82	-29748.5	0.000000	0.000000	7.225285	309.849	NaN	0.000000	0.001602	0.001750	28.0784	78.9744	0.001674	47167.2	2.561689	173.984	306.106	1.212014	0.083767	0.083387	309.849	47167.2	0.078840	0.201894	1534.71	95907.3
283	2.000000	1.222903	7.36783e+06	-52789.1	955.82	-29748.5	0.000000	0.000000	7.238603	378.13	NaN	0.000000	0.001625	0.001741	28.0795	90.9884	0.001795	50703.2	7.639559	-12.044	376.426	1.222514	0.094276	0.093887	378.13	50703.2	0.088683	0.248283	1522.98	92968.3
283	2.000000	1.233249	7.36783e+06	-52789.1	955.82	-29748.5	0.000000	0.000000	7.252261	458.666	NaN	0.000000	0.001634	0.001727	28.0797	100.335	0.001809	55451.4	4.299469	170.679	450.25	1.233002	0.104622	0.104374	458.666	55451.4	0.098418	0.298544	1536.34	92721.7
283	2.000000	1.238380	7.36783e+06	-52789.1	955.82	-29748.5	0.000000	0.000000	7.259224	503.204	NaN	0.000000	0.001662	0.001723	28.0799	106.142	0.001757	60395.1	5.605469	169.358	501.569	1.238042	0.109753	0.109415	503.204	60395.1	0.103504	0.326519	1541.11	96565.2