File: remote_trans/data/nanoindenter/0828-1/data/Data_2025-08-06,11h17m57s/2025-07-22_16-23-58_1_668.txt
2025-07-22, 16:23:58, 1
Index	Phase	Displacement	Time	Pos X	Pos Y	Pos Z	Rot A	Rot B	Piezo Z	Force A	Force B	Gripper	Voltage A	Voltage B	Temperature	Amplitude force	Amplitude pos	Stiffness	Phase shift	Phase excitation	Force A raw	Displacement raw	HMax	HMax raw	Real Force	Real Stiffness	Contact Depth	Area	Hardness	Reduced Mod.
[#]	[#]	[um]	[s]	[um]	[um]	[um]	[m°]	[m°]	[um]	[uN]	[uN]	[V]	[V]	[V]	[°C]	[uN]	[um]	[N/m]	[°]	[°]	[uN]	[um]	[um]	[um]	[uN]	[N/m]	[um]	[um^2]	[MPa]	[MPa]
668	1.000000	0.002457	7.37158e+06	-43689.1	1005.82	-29778.2	0.000000	0.000000	6.002817	0.029050	NaN	0.000000	0.001611	0.001746	28.0849	0.037754	0.000946	39.9105	-150.99	-167.545	0.029199	0.001221	-1.104933	-1.106168	0.029050	39.9105	-1.105478	-5.937503E+14	-4.892552E-17	NaN
668	1.000000	0.044373	7.37158e+06	-43689.1	1005.82	-29778.2	0.000000	0.000000	6.044732	-0.007828	NaN	0.000000	0.001671	0.001709	28.0836	0.117923	0.001963	60.0798	-27.6542	14.9955	-0.011736	0.042988	-1.063016	-1.064401	-0.007828	60.0798	-1.062918	-1.592348E+14	4.916064E-17	NaN
668	1.000000	0.086433	7.37159e+06	-43689.1	1005.82	-29778.2	0.000000	0.000000	6.086792	-0.000921	NaN	0.000000	0.001626	0.001747	28.0833	0.059645	0.002034	29.3229	-139.786	-166.794	0.076176	0.085122	-1.020957	-1.022267	-0.000921	29.3229	-1.020933	-4.340184E+13	2.121009E-17	NaN
668	1.000000	0.128419	7.37159e+06	-43689.1	1005.82	-29778.2	0.000000	0.000000	6.128777	-0.041529	NaN	0.000000	0.001696	0.001759	28.0834	0.113152	0.001829	61.8698	157.123	12.8623	-0.102350	0.127033	-0.978970	-0.980356	-0.041529	61.8698	-0.978467	-1.163462E+13	3.569470E-15	NaN
668	1.000000	0.170440	7.37159e+06	-43689.1	1005.82	-29778.2	0.000000	0.000000	6.170795	-0.102384	NaN	0.000000	0.001649	0.001746	28.0835	0.101142	0.002030	49.818	-162.108	-164.764	-0.095499	0.169090	-0.936949	-0.938300	-0.102384	49.818	-0.935408	-3.056156E+12	3.350078E-14	NaN
668	1.000000	0.212442	7.37159e+06	-43689.1	1005.82	-29778.2	0.000000	0.000000	6.212803	0.024248	NaN	0.000000	0.001651	0.001724	28.0844	0.101538	0.002058	49.3286	71.9414	12.8853	-0.098637	0.211116	-0.894947	-0.896273	0.024248	49.3286	-0.895316	-8.785448E+11	-2.760071E-14	NaN
668	1.000000	0.254491	7.37159e+06	-43689.1	1005.82	-29778.2	0.000000	0.000000	6.254849	-0.028282	NaN	0.000000	0.001632	0.001712	28.0845	0.130619	0.001954	66.85	155.185	-164.965	-0.011469	0.253155	-0.852899	-0.854234	-0.028282	66.85	-0.852581	-2.321074E+11	1.218488E-13	NaN
668	1.000000	0.296495	7.37159e+06	-43689.1	1005.82	-29778.2	0.000000	0.000000	6.296854	-0.021257	NaN	0.000000	0.001622	0.001729	28.0846	0.074765	0.002067	36.1732	-22.4528	15.0708	0.057640	0.295134	-0.810894	-0.812256	-0.021257	36.1732	-0.810454	-6.233407E+10	3.410102E-13	NaN
668	1.000000	0.338474	7.37159e+06	-43689.1	1005.82	-29778.2	0.000000	0.000000	6.338832	-0.015719	NaN	0.000000	0.001595	0.001755	28.0831	0.110485	0.001960	56.3645	-13.4581	-167.929	-0.009911	0.337196	-0.768916	-0.770194	-0.015719	56.3645	-0.768707	-1.689352E+10	9.304576E-13	NaN
668	1.000000	0.380513	7.37159e+06	-43689.1	1005.82	-29778.2	0.000000	0.000000	6.380871	-0.045780	NaN	0.000000	0.001587	0.001725	28.0831	0.043607	0.002174	20.0598	-78.9019	14.2454	-0.040643	0.379205	-0.726876	-0.728185	-0.045780	20.0598	-0.725164	-4.314123E+9	1.061155E-11	NaN
668	1.000000	0.422518	7.37159e+06	-43689.1	1005.82	-29778.2	0.000000	0.000000	6.422873	-0.119540	NaN	0.000000	0.001611	0.001712	28.0833	0.042239	0.002095	20.1649	-37.4333	-162.179	-0.076743	0.421205	-0.684871	-0.686184	-0.119540	20.1649	-0.680425	-1.056859E+9	1.131092E-10	NaN
668	1.000000	0.464538	7.37159e+06	-43689.1	1005.82	-29778.2	0.000000	0.000000	6.464892	-0.122428	NaN	0.000000	0.001637	0.001728	28.0842	0.045982	0.001898	24.232	65.6488	13.4521	-0.041169	0.463225	-0.642852	-0.644164	-0.122428	24.232	-0.639063	-2.867004E+8	4.270250E-10	NaN
668	1.000000	0.506583	7.37159e+06	-43689.1	1005.82	-29778.2	0.000000	0.000000	6.506943	0.030599	NaN	0.000000	0.001634	0.001698	28.0844	0.038224	0.002062	18.5374	-110.019	-166.055	0.046877	0.505272	-0.600807	-0.602117	0.030599	18.5374	-0.602045	-8.884248E+7	-3.444201E-10	NaN
668	1.000000	0.548614	7.37159e+06	-43689.1	1005.82	-29778.2	0.000000	0.000000	6.548973	-0.021541	NaN	0.000000	0.001662	0.001696	28.0841	0.063941	0.002008	31.8425	-7.882881	11.0915	-0.045664	0.547280	-0.558775	-0.560109	-0.021541	31.8425	-0.558268	-2.210091E+7	9.746879E-10	NaN
668	1.000000	0.590609	7.37159e+06	-43689.1	1005.82	-29778.2	0.000000	0.000000	6.590966	-0.032621	NaN	0.000000	0.001684	0.001725	28.0833	0.076145	0.002027	37.5614	91.9816	-160.946	0.023034	0.589305	-0.516781	-0.518084	-0.032621	37.5614	-0.516130	-5.75113e+06	5.672163E-9	NaN
668	1.000000	0.632633	7.37159e+06	-43689.1	1005.82	-29778.2	0.000000	0.000000	6.632991	-0.037203	NaN	0.000000	0.001697	0.001766	28.0833	0.063874	0.001998	31.9653	77.5817	15.6071	-0.047785	0.631216	-0.474757	-0.476173	-0.037203	31.9653	-0.473884	-1.47863e+06	2.516043E-8	NaN
668	1.000000	0.674645	7.37159e+06	-43689.1	1005.82	-29778.2	0.000000	0.000000	6.675003	-0.023764	NaN	0.000000	0.001699	0.001754	28.0832	0.072504	0.001985	36.527	32.5835	-166.217	-0.032957	0.673333	-0.432744	-0.434056	-0.023764	36.527	-0.432256	-383685	6.193573E-8	NaN
668	1.000000	0.716668	7.37159e+06	-43689.1	1005.82	-29778.2	0.000000	0.000000	6.717026	-0.034644	NaN	0.000000	0.001649	0.001700	28.0831	0.075208	0.002107	35.6939	72.9963	14.359	-0.010568	0.715290	-0.390721	-0.392099	-0.034644	35.6939	-0.389993	-96177.1	3.602117E-7	NaN
668	1.000000	0.758699	7.37159e+06	-43689.1	1005.82	-29778.2	0.000000	0.000000	6.759056	-0.052116	NaN	0.000000	0.001648	0.001724	28.0841	0.019873	0.002028	9.798916	41.4048	-165.505	0.035263	0.757398	-0.348691	-0.349992	-0.052116	9.798916	-0.344702	-21380.4	2.437561E-6	NaN
668	1.000000	0.800683	7.37159e+06	-43689.1	1005.82	-29778.2	0.000000	0.000000	6.801042	0.004237	NaN	0.000000	0.001611	0.001720	28.084	0.017860	0.001970	9.067300	139.708	10.7164	0.019522	0.799349	-0.306707	-0.308040	0.004237	9.067300	-0.307057	-5990.55	-7.072221E-7	NaN
668	1.000000	0.842730	7.37159e+06	-43689.1	1005.82	-29778.2	0.000000	0.000000	6.843086	-0.076164	NaN	0.000000	0.001619	0.001738	28.0844	0.072230	0.001943	37.1745	107.155	-165.131	-0.053226	0.841440	-0.264660	-0.265949	-0.076164	37.1745	-0.263123	-1308.35	5.821413E-5	NaN
668	1.000000	0.884759	7.37159e+06	-43689.1	1005.82	-29778.2	0.000000	0.000000	6.885114	-0.096629	NaN	0.000000	0.001640	0.001744	28.083	0.103909	0.001947	53.3609	34.7771	13.1297	-0.026913	0.883374	-0.222630	-0.224015	-0.096629	53.3609	-0.221272	-291.066	0.000332	NaN
668	1.000000	0.926737	7.37159e+06	-43689.1	1005.82	-29778.2	0.000000	0.000000	6.927095	-0.034191	NaN	0.000000	0.001600	0.001777	28.0829	0.059629	0.001899	31.3948	65.6957	-165.319	-0.065585	0.925451	-0.180652	-0.181938	-0.034191	31.3948	-0.179835	-60.6272	0.000564	NaN
668	1.000000	0.968776	7.37159e+06	-43689.1	1005.82	-29778.2	0.000000	0.000000	6.969134	-0.034913	NaN	0.000000	0.001598	0.001709	28.0827	0.044469	0.002031	21.8903	-50.1001	15.0238	-0.057699	0.967423	-0.138613	-0.139966	-0.034913	21.8903	-0.137417	-10.5741	0.003302	NaN
668	1.000000	1.010806	7.37159e+06	-43689.1	1005.82	-29778.2	0.000000	0.000000	7.011165	-0.020824	NaN	0.000000	0.001626	0.001766	28.084	0.014637	0.001935	7.563220	-62.0692	-166.479	0.028763	1.009512	-0.096583	-0.097878	-0.020824	7.563220	-0.094518	-1.375373	0.015140	NaN
668	1.000000	1.052806	7.37159e+06	-43689.1	1005.82	-29778.2	0.000000	0.000000	7.053164	-0.034398	NaN	0.000000	0.001655	0.001747	28.0839	0.140761	0.002057	68.4445	79.6984	12.1432	-0.033732	1.051459	-0.054583	-0.055930	-0.034398	68.4445	-0.054206	-0.121990	0.281975	NaN
668	1.000000	1.094810	7.37159e+06	-43689.1	1005.82	-29778.2	0.000000	0.000000	7.095166	-0.068315	NaN	0.000000	0.001637	0.001755	28.0841	0.085976	0.001955	43.9879	121.558	-167.641	0.001596	1.093533	-0.012580	-0.013856	-0.068315	43.9879	-0.011415	-0.007195	9.495326	NaN
668	2.000000	1.118892	7.37159e+06	-43689.1	1005.82	-29778.2	0.000000	0.000000	7.120005	18.3328	NaN	0.000000	0.001584	0.001723	28.0835	15.7924	0.001716	9201.54	4.958302	5.867506	18.3684	1.118509	0.011503	0.011120	18.3328	9201.54	0.010008	0.009191	1994.72	87691.9
668	2.000000	1.129294	7.37159e+06	-43689.1	1005.82	-29778.2	0.000000	0.000000	7.131198	37.5996	NaN	0.000000	0.001610	0.001735	28.0831	25.9239	0.001810	14325.3	4.946862	-178.157	36.2121	1.129024	0.021904	0.021634	37.5996	14325.3	0.019936	0.022441	1675.47	87368.2
668	2.000000	1.139819	7.37159e+06	-43689.1	1005.82	-29778.2	0.000000	0.000000	7.142915	66.5741	NaN	0.000000	0.001595	0.001750	28.0833	34.8092	0.001732	20094.3	1.754795	2.535881	65.1728	1.139418	0.032430	0.032029	66.5741	20094.3	0.029945	0.040630	1638.55	91080
668	2.000000	1.150313	7.37159e+06	-43689.1	1005.82	-29778.2	0.000000	0.000000	7.154975	104.682	NaN	0.000000	0.001643	0.001767	28.0832	43.515	0.001648	26408.4	2.006171	179.923	103.908	1.149934	0.042924	0.042544	104.682	26408.4	0.039951	0.063901	1638.2	95447.1
668	2.000000	1.160701	7.37159e+06	-43689.1	1005.82	-29778.2	0.000000	0.000000	7.167512	156.959	NaN	0.000000	0.001634	0.001748	28.0845	56.4316	0.001829	30849.8	4.521922	-4.107043	151.817	1.160356	0.053311	0.052967	156.959	30849.8	0.049496	0.090860	1727.47	93505.7
668	2.000000	1.171298	7.37159e+06	-43689.1	1005.82	-29778.2	0.000000	0.000000	7.180135	206.253	NaN	0.000000	0.001663	0.001703	28.0847	68.1314	0.001774	38413.5	4.913104	174.457	209.14	1.170957	0.063909	0.063568	206.253	38413.5	0.059882	0.125385	1644.96	99113.9
668	2.000000	1.181752	7.37159e+06	-43689.1	1005.82	-29778.2	0.000000	0.000000	7.193611	279.789	NaN	0.000000	0.001626	0.001732	28.0849	76.3304	0.001798	42459.5	0.929074	-2.551917	277.129	1.181442	0.074362	0.074052	279.789	42459.5	0.069420	0.161737	1729.9	96459.2
668	2.000000	1.192209	7.37159e+06	-43689.1	1005.82	-29778.2	0.000000	0.000000	7.206988	350.811	NaN	0.000000	0.001602	0.001729	28.0839	87.5652	0.001706	51314.5	2.301009	174.06	348.049	1.191850	0.084820	0.084461	350.811	51314.5	0.079692	0.205735	1705.16	103362
668	2.000000	1.202757	7.37159e+06	-43689.1	1005.82	-29778.2	0.000000	0.000000	7.220471	422.232	NaN	0.000000	0.001602	0.001705	28.0843	99.0512	0.001878	52746.5	4.620977	-8.453275	420.615	1.202469	0.095367	0.095080	422.232	52746.5	0.089364	0.251657	1677.81	96064.4
668	2.000000	1.211264	7.37159e+06	-43689.1	1005.82	-29778.2	0.000000	0.000000	7.231802	490.933	NaN	0.000000	0.001577	0.001716	28.0833	106.748	0.001758	60733.8	3.829159	171.698	493.11	1.211008	0.103874	0.103619	490.933	60733.8	0.097812	0.295286	1662.57	102113