File: remote_trans/data/nanoindenter/0828-1/data/Data_2025-08-06,11h17m57s/2025-07-22_16-23-58_1_664.txt
2025-07-22, 16:23:58, 1
Index	Phase	Displacement	Time	Pos X	Pos Y	Pos Z	Rot A	Rot B	Piezo Z	Force A	Force B	Gripper	Voltage A	Voltage B	Temperature	Amplitude force	Amplitude pos	Stiffness	Phase shift	Phase excitation	Force A raw	Displacement raw	HMax	HMax raw	Real Force	Real Stiffness	Contact Depth	Area	Hardness	Reduced Mod.
[#]	[#]	[um]	[s]	[um]	[um]	[um]	[m°]	[m°]	[um]	[uN]	[uN]	[V]	[V]	[V]	[°C]	[uN]	[um]	[N/m]	[°]	[°]	[uN]	[um]	[um]	[um]	[uN]	[N/m]	[um]	[um^2]	[MPa]	[MPa]
664	1.000000	0.002594	7.37155e+06	-43889.1	1005.82	-29777.4	0.000000	0.000000	6.002809	0.006315	NaN	0.000000	0.001584	0.001782	28.0838	0.018416	0.000768	23.9659	-156.585	-165.573	0.039717	0.001323	-1.183117	-1.184389	0.006315	23.9659	-1.183315	-6.565636E+15	-9.618419E-19	NaN
664	1.000000	0.046533	7.37155e+06	-43889.1	1005.82	-29777.4	0.000000	0.000000	6.046744	-0.067458	NaN	0.000000	0.001595	0.001748	28.083	0.080040	0.001983	40.3557	84.4325	-163.066	-0.115429	0.045246	-1.139179	-1.140465	-0.067458	40.3557	-1.137925	-1.617767E+15	4.169823E-17	NaN
664	1.000000	0.090558	7.37155e+06	-43889.1	1005.82	-29777.4	0.000000	0.000000	6.090771	-0.034600	NaN	0.000000	0.001597	0.001798	28.0831	0.055080	0.001998	27.574	137.933	-164.002	-0.032709	0.089257	-1.095154	-1.096454	-0.034600	27.574	-1.094213	-4.191537E+14	8.254675E-17	NaN
664	1.000000	0.134595	7.37155e+06	-43889.1	1005.82	-29777.4	0.000000	0.000000	6.134809	-0.014556	NaN	0.000000	0.001622	0.001752	28.083	0.019290	0.002000	9.646825	87.5791	-165.978	0.038635	0.133332	-1.051117	-1.052380	-0.014556	9.646825	-1.049985	-1.067119E+14	1.364047E-16	NaN
664	1.000000	0.178534	7.37155e+06	-43889.1	1005.82	-29777.4	0.000000	0.000000	6.178750	0.044105	NaN	0.000000	0.001613	0.001708	28.0842	0.131813	0.001965	67.0682	84.104	-167.598	0.034881	0.177227	-1.007177	-1.008485	0.044105	67.0682	-1.007671	-2.877589E+13	-1.532707E-15	NaN
664	1.000000	0.222585	7.37155e+06	-43889.1	1005.82	-29777.4	0.000000	0.000000	6.222799	-0.020335	NaN	0.000000	0.001585	0.001715	28.0842	0.086110	0.001865	46.173	3.786516	-164.33	-0.073416	0.221340	-0.963126	-0.964372	-0.020335	46.173	-0.962796	-7.154255E+12	2.842317E-15	NaN
664	1.000000	0.266639	7.37155e+06	-43889.1	1005.82	-29777.4	0.000000	0.000000	6.266854	0.020360	NaN	0.000000	0.001596	0.001752	28.0842	0.012553	0.001982	6.334257	67.9998	-169.355	0.006524	0.265325	-0.919073	-0.920387	0.020360	6.334257	-0.921483	-1.982588E+12	-1.026948E-14	NaN
664	1.000000	0.310647	7.37155e+06	-43889.1	1005.82	-29777.4	0.000000	0.000000	6.310862	-0.002559	NaN	0.000000	0.001565	0.001737	28.0831	0.132652	0.002165	61.2586	-86.5233	-161.632	-0.055517	0.309353	-0.875064	-0.876359	-0.002559	61.2586	-0.875033	-4.672276E+11	5.477324E-15	NaN
664	1.000000	0.354650	7.37155e+06	-43889.1	1005.82	-29777.4	0.000000	0.000000	6.354864	-0.005029	NaN	0.000000	0.001604	0.001738	28.0829	0.036754	0.002030	18.107	-151.378	-167.03	-0.017054	0.353353	-0.831061	-0.832358	-0.005029	18.107	-0.830853	-1.178550E+11	4.267061E-14	NaN
664	1.000000	0.398671	7.37155e+06	-43889.1	1005.82	-29777.4	0.000000	0.000000	6.398884	-0.022054	NaN	0.000000	0.001677	0.001732	28.0831	0.109791	0.001958	56.0674	-150.629	-163.305	-0.035911	0.397400	-0.787041	-0.788311	-0.022054	56.0674	-0.786746	-2.970882E+10	7.423280E-13	NaN
664	1.000000	0.442722	7.37155e+06	-43889.1	1005.82	-29777.4	0.000000	0.000000	6.442934	-0.049297	NaN	0.000000	0.001672	0.001763	28.084	0.126702	0.002100	60.3291	24.1988	-164.372	-0.013393	0.441398	-0.742990	-0.744314	-0.049297	60.3291	-0.742377	-7.403367E+9	6.658745E-12	NaN
664	1.000000	0.486729	7.37155e+06	-43889.1	1005.82	-29777.4	0.000000	0.000000	6.486943	-0.008504	NaN	0.000000	0.001678	0.001757	28.0842	0.002516	0.001963	1.281604	-22.266	-163.189	0.011653	0.485391	-0.698982	-0.700321	-0.008504	1.281604	-0.694006	-1.620532E+9	5.247449E-12	NaN
664	1.000000	0.530706	7.37155e+06	-43889.1	1005.82	-29777.4	0.000000	0.000000	6.530920	-0.006101	NaN	0.000000	0.001654	0.001735	28.0842	0.058464	0.001969	29.6937	-101.898	-165.729	-0.036518	0.529494	-0.655006	-0.656217	-0.006101	29.6937	-0.654852	-4.719922E+8	1.292625E-11	NaN
664	1.000000	0.574754	7.37155e+06	-43889.1	1005.82	-29777.4	0.000000	0.000000	6.574967	-0.032956	NaN	0.000000	0.001702	0.001773	28.084	0.116594	0.001857	62.7935	119.777	-167.284	-0.091458	0.573461	-0.610957	-0.612250	-0.032956	62.7935	-0.610564	-1.163777E+8	2.831793E-10	NaN
664	1.000000	0.618777	7.37155e+06	-43889.1	1005.82	-29777.4	0.000000	0.000000	6.618989	-0.055178	NaN	0.000000	0.001702	0.001783	28.0834	0.119422	0.002170	55.0242	-144.373	-165.743	-0.053199	0.617462	-0.566935	-0.568250	-0.055178	55.0242	-0.566183	-2.843651E+7	1.940385E-9	NaN
664	1.000000	0.662782	7.37155e+06	-43889.1	1005.82	-29777.4	0.000000	0.000000	6.662994	-0.051394	NaN	0.000000	0.001619	0.001771	28.0831	0.055591	0.001941	28.6372	-35.5835	-162.821	0.025599	0.661480	-0.522929	-0.524232	-0.051394	28.6372	-0.521583	-6.84883e+06	7.503990E-9	NaN
664	1.000000	0.706831	7.37155e+06	-43889.1	1005.82	-29777.4	0.000000	0.000000	6.707044	-0.045822	NaN	0.000000	0.001613	0.001774	28.0832	0.046859	0.002026	23.1332	29.4173	-165.001	-0.028948	0.705444	-0.478880	-0.480267	-0.045822	23.1332	-0.477395	-1.65594e+06	2.767138E-8	NaN
664	1.000000	0.750829	7.37155e+06	-43889.1	1005.82	-29777.4	0.000000	0.000000	6.751045	0.037083	NaN	0.000000	0.001627	0.001757	28.0844	0.060733	0.001889	32.1427	-63.2277	-167.753	0.014520	0.749524	-0.434883	-0.436188	0.037083	32.1427	-0.435748	-429854	-8.626833E-8	NaN
664	1.000000	0.794837	7.37155e+06	-43889.1	1005.82	-29777.4	0.000000	0.000000	6.795052	0.018748	NaN	0.000000	0.001635	0.001798	28.0844	0.163686	0.001909	85.7428	93.5664	-164.498	0.007339	0.793559	-0.390874	-0.392152	0.018748	85.7428	-0.391038	-99544	-1.883362E-7	NaN
664	1.000000	0.838880	7.37155e+06	-43889.1	1005.82	-29777.4	0.000000	0.000000	6.839094	-0.018793	NaN	0.000000	0.001667	0.001719	28.0849	0.041237	0.002016	20.4501	95.832	-163.22	0.084194	0.837621	-0.346831	-0.348090	-0.018793	20.4501	-0.346142	-22436.9	8.375839E-7	NaN
664	1.000000	0.882876	7.37155e+06	-43889.1	1005.82	-29777.4	0.000000	0.000000	6.883090	-0.024900	NaN	0.000000	0.001718	0.001733	28.0829	0.164735	0.001959	84.091	-118.971	-169.298	-0.007929	0.881604	-0.302835	-0.304108	-0.024900	84.091	-0.302613	-5146.41	4.838418E-6	NaN
664	1.000000	0.926892	7.37155e+06	-43889.1	1005.82	-29777.4	0.000000	0.000000	6.927108	0.041252	NaN	0.000000	0.001765	0.001744	28.0829	0.068070	0.002052	33.1746	9.409639	-164.948	0.038711	0.925548	-0.258820	-0.260163	0.041252	33.1746	-0.259753	-1161.78	-3.550765E-5	NaN
664	1.000000	0.970951	7.37155e+06	-43889.1	1005.82	-29777.4	0.000000	0.000000	6.971162	-0.084744	NaN	0.000000	0.001747	0.001770	28.0832	0.071600	0.001988	36.0131	151.611	-168.929	0.023908	0.969604	-0.214760	-0.216107	-0.084744	36.0131	-0.212995	-214.4	0.000395	NaN
664	1.000000	1.014930	7.37155e+06	-43889.1	1005.82	-29777.4	0.000000	0.000000	7.015141	-0.069264	NaN	0.000000	0.001695	0.001732	28.0842	0.049199	0.001989	24.7412	-41.347	-167.91	0.067467	1.013616	-0.170782	-0.172095	-0.069264	24.7412	-0.168682	-38.9668	0.001778	NaN
664	1.000000	1.058936	7.37155e+06	-43889.1	1005.82	-29777.4	0.000000	0.000000	7.059147	-0.079079	NaN	0.000000	0.001643	0.001732	28.0842	0.030968	0.001971	15.7091	159.295	-169.564	-0.028280	1.057630	-0.126776	-0.128082	-0.079079	15.7091	-0.123000	-5.549747	0.014249	NaN
664	1.000000	1.102972	7.37155e+06	-43889.1	1005.82	-29777.4	0.000000	0.000000	7.103186	-0.004420	NaN	0.000000	0.001597	0.001720	28.0842	0.055997	0.001984	28.2314	47.7656	-166.989	0.046513	1.101651	-0.082739	-0.084060	-0.004420	28.2314	-0.082622	-0.718918	0.006148	NaN
664	1.000000	1.147000	7.37155e+06	-43889.1	1005.82	-29777.4	0.000000	0.000000	7.147214	-0.009406	NaN	0.000000	0.001665	0.001774	28.0828	0.062913	0.002154	29.202	-171.78	-164.964	0.011213	1.145647	-0.038711	-0.040064	-0.009406	29.202	-0.038470	-0.040646	0.231423	NaN
664	2.000000	1.190361	7.37155e+06	-43889.1	1005.82	-29777.4	0.000000	0.000000	7.190978	9.793535	NaN	0.000000	0.001581	0.001746	28.0829	9.689421	0.001649	5875.4	7.144897	-170.662	9.142096	1.189607	0.004650	0.003895	9.793535	5875.4	0.003400	0.002719	3601.72	102943
664	2.000000	1.201370	7.37155e+06	-43889.1	1005.82	-29777.4	0.000000	0.000000	7.202922	32.5403	NaN	0.000000	0.001633	0.001741	28.0828	22.4689	0.001782	12607.1	5.485855	-177.53	31.1105	1.201114	0.015659	0.015402	32.5403	12607.1	0.013723	0.013620	2389.15	98695.9
664	2.000000	1.212377	7.37155e+06	-43889.1	1005.82	-29777.4	0.000000	0.000000	7.215375	67.7263	NaN	0.000000	0.001618	0.001768	28.0841	32.3991	0.001616	20052.5	0.380071	-176.662	64.5835	1.211972	0.026666	0.026260	67.7263	20052.5	0.024133	0.029457	2299.2	106746
664	2.000000	1.223356	7.37155e+06	-43889.1	1005.82	-29777.4	0.000000	0.000000	7.228107	110.364	NaN	0.000000	0.001729	0.001764	28.0842	44.0891	0.001895	23272.1	5.306496	178.107	108.684	1.223004	0.037645	0.037293	110.364	23272.1	0.034088	0.049644	2223.1	95427.8
664	2.000000	1.234290	7.37155e+06	-43889.1	1005.82	-29777.4	0.000000	0.000000	7.241337	166.24	NaN	0.000000	0.001698	0.001756	28.084	54.1151	0.001856	29151	6.926216	174.859	162.862	1.233993	0.048579	0.048281	166.24	29151	0.044301	0.075617	2198.46	96854
664	2.000000	1.245303	7.37155e+06	-43889.1	1005.82	-29777.4	0.000000	0.000000	7.254633	221.769	NaN	0.000000	0.001718	0.001785	28.0826	62.3641	0.001689	36923.7	2.905946	175.544	219.8	1.245045	0.059591	0.059333	221.769	36923.7	0.055087	0.108782	2038.66	102282
664	2.000000	1.256331	7.37155e+06	-43889.1	1005.82	-29777.4	0.000000	0.000000	7.268548	292.015	NaN	0.000000	0.001638	0.001727	28.0828	74.7708	0.001835	40751.5	6.238765	172.227	290.893	1.255945	0.070619	0.070233	292.015	40751.5	0.065245	0.145285	2009.94	97680
664	2.000000	1.267195	7.37155e+06	-43889.1	1005.82	-29777.4	0.000000	0.000000	7.282107	357.589	NaN	0.000000	0.001671	0.001793	28.0826	85.2574	0.001844	46243.3	4.439830	173.074	350.597	1.266885	0.081483	0.081174	357.589	46243.3	0.075684	0.187974	1902.33	97447.9
664	2.000000	1.278268	7.37155e+06	-43889.1	1005.82	-29777.4	0.000000	0.000000	7.296891	447.88	NaN	0.000000	0.001659	0.001802	28.0836	93.6237	0.001817	51539.8	3.485401	173.655	447.092	1.277970	0.092556	0.092259	447.88	51539.8	0.086039	0.235382	1902.78	97057.7
664	2.000000	1.288756	7.37155e+06	-43889.1	1005.82	-29777.4	0.000000	0.000000	7.310983	535.548	NaN	0.000000	0.001720	0.001737	28.0838	101.573	0.001737	58480.4	4.580305	-8.160003	529.583	1.288386	0.103044	0.102674	535.548	58480.4	0.096176	0.286585	1868.72	99806