File: remote_trans/data/nanoindenter/0828-1/data/Data_2025-08-06,11h17m57s/2025-07-22_16-23-58_1_305.txt
2025-07-22, 16:23:58, 1
Index	Phase	Displacement	Time	Pos X	Pos Y	Pos Z	Rot A	Rot B	Piezo Z	Force A	Force B	Gripper	Voltage A	Voltage B	Temperature	Amplitude force	Amplitude pos	Stiffness	Phase shift	Phase excitation	Force A raw	Displacement raw	HMax	HMax raw	Real Force	Real Stiffness	Contact Depth	Area	Hardness	Reduced Mod.
[#]	[#]	[um]	[s]	[um]	[um]	[um]	[m°]	[m°]	[um]	[uN]	[uN]	[V]	[V]	[V]	[°C]	[uN]	[um]	[N/m]	[°]	[°]	[uN]	[um]	[um]	[um]	[uN]	[N/m]	[um]	[um^2]	[MPa]	[MPa]
305	1.000000	0.002561	7.36805e+06	-53889.1	955.817	-29745.4	0.000000	0.000000	6.002820	0.013241	NaN	0.000000	0.001602	0.001699	28.0785	0.077498	0.000948	81.7433	-41.0257	-174.917	0.089635	0.001267	-0.965546	-0.966840	0.013241	81.7433	-0.965667	-7.821116E+12	-1.693044E-15	NaN
305	1.000000	0.040477	7.36805e+06	-53889.1	955.819	-29745.4	0.000000	0.000000	6.040739	0.074086	NaN	0.000000	0.001658	0.001684	28.0787	0.019969	0.001962	10.176	112.139	13.0318	-0.013025	0.039110	-0.927630	-0.928996	0.074086	10.176	-0.933090	-2.843808E+12	-2.605159E-14	NaN
305	1.000000	0.078484	7.36805e+06	-53889.1	955.818	-29745.4	0.000000	0.000000	6.078744	0.022668	NaN	0.000000	0.001642	0.001689	28.0778	0.017719	0.002092	8.468547	-162.6	-164.508	0.036633	0.077196	-0.889623	-0.890910	0.022668	8.468547	-0.891630	-7.833420E+11	-2.893708E-14	NaN
305	1.000000	0.116523	7.36805e+06	-53889.1	955.819	-29745.4	0.000000	0.000000	6.116785	0.083630	NaN	0.000000	0.001664	0.001681	28.0778	0.083891	0.002071	40.5096	163.156	10.5936	0.045757	0.115197	-0.851584	-0.852909	0.083630	40.5096	-0.853132	-2.361289E+11	-3.541690E-13	NaN
305	1.000000	0.154552	7.36805e+06	-53889.1	955.818	-29745.4	0.000000	0.000000	6.154812	0.043617	NaN	0.000000	0.001602	0.001682	28.0773	0.044028	0.001965	22.4061	139.371	-166.583	-0.022615	0.153178	-0.813555	-0.814928	0.043617	22.4061	-0.815015	-7.187897E+10	-6.068079E-13	NaN
305	1.000000	0.192528	7.36805e+06	-53889.1	955.819	-29745.4	0.000000	0.000000	6.192787	0.017594	NaN	0.000000	0.001622	0.001684	28.0774	0.117223	0.001897	61.7811	75.2875	13.342	0.019059	0.191238	-0.775579	-0.776869	0.017594	61.7811	-0.775792	-2.108864E+10	-8.342737E-13	NaN
305	1.000000	0.230551	7.36805e+06	-53889.1	955.819	-29745.4	0.000000	0.000000	6.230812	0.051389	NaN	0.000000	0.001630	0.001716	28.0787	0.033785	0.001970	17.1518	-36.0776	-169.074	-0.015624	0.229276	-0.737556	-0.738831	0.051389	17.1518	-0.739803	-6.829220E+9	-7.524806E-12	NaN
305	1.000000	0.268601	7.36805e+06	-53889.1	955.819	-29745.4	0.000000	0.000000	6.268861	0.016905	NaN	0.000000	0.001630	0.001732	28.0787	0.072785	0.002028	35.888	70.01	13.3825	0.100573	0.267195	-0.699506	-0.700912	0.016905	35.888	-0.699859	-1.948074E+9	-8.678045E-12	NaN
305	1.000000	0.306608	7.36805e+06	-53889.1	955.819	-29745.4	0.000000	0.000000	6.306868	0.032179	NaN	0.000000	0.001626	0.001728	28.079	0.076024	0.001944	39.1096	-33.539	-165.719	0.065245	0.305302	-0.661498	-0.662805	0.032179	39.1096	-0.662116	-5.935318E+8	-5.421576E-11	NaN
305	1.000000	0.344592	7.36805e+06	-53889.1	955.819	-29745.4	0.000000	0.000000	6.344853	0.051125	NaN	0.000000	0.001636	0.001686	28.0789	0.210386	0.001893	111.146	173.7	10.7143	-0.009350	0.343206	-0.623514	-0.624901	0.051125	111.146	-0.623859	-1.772853E+8	-2.883750E-10	NaN
305	1.000000	0.382628	7.36805e+06	-53889.1	955.818	-29745.4	0.000000	0.000000	6.382888	0.010922	NaN	0.000000	0.001631	0.001687	28.0775	0.006340	0.002048	3.096058	153.389	-164.684	-0.007102	0.381286	-0.585478	-0.586821	0.010922	3.096058	-0.588124	-5.712215E+7	-1.912086E-10	NaN
305	1.000000	0.420640	7.36805e+06	-53889.1	955.818	-29745.4	0.000000	0.000000	6.420901	0.043592	NaN	0.000000	0.001608	0.001672	28.0777	0.030266	0.002037	14.8549	2.851409	14.2534	-0.023683	0.419297	-0.547466	-0.548810	0.043592	14.8549	-0.549667	-1.680144E+7	-2.594534E-9	NaN
305	1.000000	0.458652	7.36805e+06	-53889.1	955.819	-29745.4	0.000000	0.000000	6.458914	0.077620	NaN	0.000000	0.001598	0.001690	28.0777	0.032762	0.001970	16.6334	4.808998	-168.53	0.043182	0.457391	-0.509454	-0.510716	0.077620	16.6334	-0.512954	-5.19464e+06	-1.494236E-8	NaN
305	1.000000	0.496695	7.36805e+06	-53889.1	955.819	-29745.4	0.000000	0.000000	6.496957	0.053474	NaN	0.000000	0.001657	0.001704	28.079	0.002734	0.001942	1.407411	51.5717	10.3724	0.047957	0.495298	-0.471411	-0.472808	0.053474	1.407411	-0.499907	-3.41759e+06	-1.564662E-8	NaN
305	1.000000	0.534667	7.36805e+06	-53889.1	955.818	-29745.4	0.000000	0.000000	6.534925	-0.008313	NaN	0.000000	0.001708	0.001709	28.0791	0.025176	0.002013	12.5042	100.39	-166.366	-0.091759	0.533367	-0.433440	-0.434739	-0.008313	12.5042	-0.432941	-392338	2.118812E-8	NaN
305	1.000000	0.572738	7.36805e+06	-53889.1	955.819	-29745.4	0.000000	0.000000	6.572999	0.045412	NaN	0.000000	0.001662	0.001680	28.0791	0.020209	0.002039	9.909520	-29.4262	12.9811	-0.002634	0.571369	-0.395368	-0.396738	0.045412	9.909520	-0.398805	-128515	-3.533579E-7	NaN
305	1.000000	0.610728	7.36805e+06	-53889.1	955.818	-29745.4	0.000000	0.000000	6.610987	0.004760	NaN	0.000000	0.001646	0.001705	28.0793	0.091197	0.001970	46.288	-162.415	-170.871	0.044609	0.609390	-0.357379	-0.358717	0.004760	46.288	-0.357456	-32738.1	-1.454037E-7	NaN
305	1.000000	0.648718	7.36805e+06	-53889.1	955.819	-29745.4	0.000000	0.000000	6.648979	0.054082	NaN	0.000000	0.001641	0.001711	28.0778	0.099804	0.001871	53.331	-7.688591	15.5543	0.053748	0.647362	-0.319388	-0.320745	0.054082	53.331	-0.320149	-9350.39	-5.783952E-6	NaN
305	1.000000	0.686754	7.36805e+06	-53889.1	955.817	-29745.4	0.000000	0.000000	6.687017	0.086659	NaN	0.000000	0.001671	0.001703	28.0778	0.051011	0.001980	25.7596	-95.5364	-164.665	0.030160	0.685363	-0.281352	-0.282743	0.086659	25.7596	-0.283875	-2699.94	-3.209677E-5	NaN
305	1.000000	0.724797	7.36805e+06	-53889.1	955.819	-29745.4	0.000000	0.000000	6.725055	-0.007290	NaN	0.000000	0.001597	0.001683	28.0776	0.075688	0.001844	41.0393	-67.6071	12.0822	-0.087220	0.723399	-0.243310	-0.244708	-0.007290	41.0393	-0.243177	-644.305	1.131492E-5	NaN
305	1.000000	0.762815	7.36805e+06	-53889.1	955.818	-29745.4	0.000000	0.000000	6.763073	-0.014444	NaN	0.000000	0.001618	0.001693	28.0792	0.072871	0.001913	38.1012	99.4168	-165.287	-0.000320	0.761475	-0.205292	-0.206632	-0.014444	38.1012	-0.205007	-159.103	9.078592E-5	NaN
305	1.000000	0.800796	7.36805e+06	-53889.1	955.82	-29745.4	0.000000	0.000000	6.801055	0.011877	NaN	0.000000	0.001653	0.001681	28.0788	0.124963	0.001832	68.1938	137.998	11.3177	-0.062034	0.799444	-0.167311	-0.168663	0.011877	68.1938	-0.167441	-37.073	-0.000320	NaN
305	1.000000	0.838799	7.36805e+06	-53889.1	955.819	-29745.4	0.000000	0.000000	6.839058	-0.001555	NaN	0.000000	0.001612	0.001661	28.079	0.120125	0.001929	62.2652	-167.743	-164.811	-0.063308	0.837628	-0.129308	-0.130479	-0.001555	62.2652	-0.129289	-7.382201	0.000211	NaN
305	1.000000	0.876840	7.36805e+06	-53889.1	955.818	-29745.4	0.000000	0.000000	6.877099	0.005338	NaN	0.000000	0.001641	0.001653	28.0789	0.128566	0.001943	66.174	171.423	14.733	0.009451	0.875517	-0.091267	-0.092589	0.005338	66.174	-0.091327	-1.161006	-0.004598	NaN
305	1.000000	0.914850	7.36805e+06	-53889.1	955.818	-29745.4	0.000000	0.000000	6.915110	0.021140	NaN	0.000000	0.001604	0.001680	28.0779	0.028230	0.001964	14.3714	-163.108	-167.31	0.137181	0.913569	-0.053256	-0.054538	0.021140	14.3714	-0.054359	-0.123275	-0.171484	NaN
305	1.000000	0.952869	7.36805e+06	-53889.1	955.819	-29745.4	0.000000	0.000000	6.953126	-0.047548	NaN	0.000000	0.001588	0.001681	28.0778	0.048870	0.001889	25.8667	-142.571	12.4717	0.031432	0.951489	-0.015237	-0.016617	-0.047548	25.8667	-0.013859	-0.008601	5.528399	NaN
305	2.000000	0.982488	7.36805e+06	-53889.1	955.818	-29745.4	0.000000	0.000000	6.983198	10.9732	NaN	0.000000	0.001629	0.001717	28.0786	10.7744	0.001765	6103.22	8.208902	-173.944	10.7186	0.982230	0.014381	0.014124	10.9732	6103.22	0.013033	0.012751	860.57	49380.8
305	2.000000	0.991949	7.36805e+06	-53889.1	955.818	-29745.4	0.000000	0.000000	6.993289	26.2977	NaN	0.000000	0.001626	0.001660	28.0789	20.5739	0.001938	10617.5	8.367185	1.930272	26.1596	0.991567	0.023842	0.023461	26.2977	10617.5	0.021984	0.025757	1020.99	60443.3
305	2.000000	1.001393	7.36805e+06	-53889.1	955.818	-29745.4	0.000000	0.000000	7.003546	46.0479	NaN	0.000000	0.001633	0.001657	28.0798	28.1518	0.001800	15638.4	8.329112	177.415	44.2282	1.001097	0.033286	0.032990	46.0479	15638.4	0.031078	0.043008	1070.69	68895.7
305	2.000000	1.010872	7.36805e+06	-53889.1	955.818	-29745.4	0.000000	0.000000	7.014287	76.7233	NaN	0.000000	0.001628	0.001720	28.0793	35.144	0.001747	20116.7	5.436883	-1.390726	74.0251	1.010498	0.042766	0.042392	76.7233	20116.7	0.039905	0.063783	1202.88	72773.9
305	2.000000	1.020364	7.36805e+06	-53889.1	955.818	-29745.4	0.000000	0.000000	7.025453	117.428	NaN	0.000000	0.001705	0.001722	28.0791	44.5494	0.001758	25344.4	5.316808	176.299	115.671	1.020019	0.052258	0.051913	117.428	25344.4	0.048783	0.088688	1324.06	77754
305	2.000000	1.029855	7.36805e+06	-53889.1	955.819	-29745.4	0.000000	0.000000	7.036558	156.661	NaN	0.000000	0.001606	0.001720	28.078	53.6923	0.001783	30114.3	5.001518	-5.231858	154.773	1.029497	0.061748	0.061391	156.661	30114.3	0.057847	0.118200	1325.38	80027.1
305	2.000000	1.039334	7.36805e+06	-53889.1	955.819	-29745.4	0.000000	0.000000	7.047832	200.3	NaN	0.000000	0.001615	0.001704	28.0777	62.3019	0.001821	34221	3.619447	176.057	199.038	1.039011	0.071227	0.070904	200.3	34221	0.066837	0.151461	1322.45	80336.9
305	2.000000	1.048837	7.36805e+06	-53889.1	955.819	-29745.4	0.000000	0.000000	7.059480	252.452	NaN	0.000000	0.001676	0.001751	28.078	71.9649	0.001702	42293.8	3.342694	-6.199711	250.072	1.048466	0.080730	0.080360	252.452	42293.8	0.076253	0.190452	1325.54	88543.6
305	2.000000	1.058308	7.36805e+06	-53889.1	955.818	-29745.4	0.000000	0.000000	7.071660	318.322	NaN	0.000000	0.001674	0.001701	28.0779	81.5751	0.001923	42414.4	8.048031	170.454	316.795	1.057961	0.090201	0.089854	318.322	42414.4	0.084572	0.228365	1393.92	81090.8
305	2.000000	1.067827	7.36805e+06	-53889.1	955.819	-29745.4	0.000000	0.000000	7.084074	388.697	NaN	0.000000	0.001657	0.001693	28.0792	88.4008	0.001901	46514.2	7.713224	-10.0252	384.878	1.067343	0.099720	0.099236	388.697	46514.2	0.093453	0.272367	1427.11	81429.5
305	2.000000	1.077289	7.36806e+06	-53889.1	955.819	-29745.4	0.000000	0.000000	7.096158	452.425	NaN	0.000000	0.001652	0.001712	28.0788	95.8038	0.001696	56485	3.592202	172.246	451.438	1.077011	0.109183	0.108904	452.425	56485	0.103176	0.324677	1393.46	90569.2
305	2.000000	1.078397	7.36806e+06	-53889.1	955.818	-29745.4	0.000000	0.000000	7.097431	456.453	NaN	0.000000	0.001666	0.001740	28.0788	97.6689	0.001754	55686.3	3.522296	172.224	460.162	1.078021	0.110290	0.109914	456.453	55686.3	0.104142	0.330113	1382.72	88550.3