File: remote_trans/data/nanoindenter/0828-1/data/Data_2025-08-06,11h17m57s/2025-07-22_16-23-58_1_175.txt
2025-07-22, 16:23:58, 1
Index	Phase	Displacement	Time	Pos X	Pos Y	Pos Z	Rot A	Rot B	Piezo Z	Force A	Force B	Gripper	Voltage A	Voltage B	Temperature	Amplitude force	Amplitude pos	Stiffness	Phase shift	Phase excitation	Force A raw	Displacement raw	HMax	HMax raw	Real Force	Real Stiffness	Contact Depth	Area	Hardness	Reduced Mod.
[#]	[#]	[um]	[s]	[um]	[um]	[um]	[m°]	[m°]	[um]	[uN]	[uN]	[V]	[V]	[V]	[°C]	[uN]	[um]	[N/m]	[°]	[°]	[uN]	[um]	[um]	[um]	[uN]	[N/m]	[um]	[um^2]	[MPa]	[MPa]
175	1.000000	0.001953	7.36675e+06	-47389.1	955.819	-29766.5	0.000000	0.000000	6.002795	0.055467	NaN	0.000000	0.001523	0.001680	28.1319	0.086088	0.000975	88.314	126.563	-163.933	-0.046059	0.000681	-1.180447	-1.181720	0.055467	88.314	-1.180918	-6.097790E+15	-9.096278E-18	NaN
175	1.000000	0.045924	7.36675e+06	-47389.1	955.819	-29766.5	0.000000	0.000000	6.046761	-0.046918	NaN	0.000000	0.001592	0.001706	28.0807	0.080643	0.001917	42.0659	170.698	-164.635	-0.139794	0.044611	-1.136476	-1.137789	-0.046918	42.0659	-1.135640	-1.507524E+15	3.112240E-17	NaN
175	1.000000	0.089928	7.36675e+06	-47389.1	955.819	-29766.5	0.000000	0.000000	6.090767	0.007298	NaN	0.000000	0.001530	0.001694	28.1316	0.046665	0.002027	23.0224	129.593	-163.523	0.005878	0.088611	-1.092473	-1.093790	0.007298	23.0224	-1.092710	-4.001336E+14	-1.823937E-17	NaN
175	1.000000	0.133928	7.36675e+06	-47389.1	955.818	-29766.5	0.000000	0.000000	6.134769	0.051434	NaN	0.000000	0.001536	0.001738	28.0774	0.100399	0.001957	51.2931	95.1418	-166.21	-0.007368	0.132660	-1.048473	-1.049740	0.051434	51.2931	-1.049225	-1.042307E+14	-4.934664E-16	NaN
175	1.000000	0.177977	7.36675e+06	-47389.1	955.819	-29766.5	0.000000	0.000000	6.178816	-0.003926	NaN	0.000000	0.001555	0.001672	28.1289	0.108571	0.002019	53.7761	72.6838	-167.406	-0.002030	0.176669	-1.004423	-1.005731	-0.003926	53.7761	-1.004369	-2.597665E+13	1.511196E-16	NaN
175	1.000000	0.221985	7.36675e+06	-47389.1	955.819	-29766.5	0.000000	0.000000	6.222826	0.054582	NaN	0.000000	0.001571	0.001681	28.0791	0.025741	0.001938	13.2848	11.1553	-165.781	0.066988	0.220669	-0.960415	-0.961732	0.054582	13.2848	-0.963497	-7.311516E+12	-7.465147E-15	NaN
175	1.000000	0.266006	7.36675e+06	-47389.1	955.819	-29766.5	0.000000	0.000000	6.266847	0.056118	NaN	0.000000	0.001564	0.001689	28.1304	0.093051	0.001996	46.6204	-80.8407	-167.15	0.062964	0.264669	-0.916395	-0.917731	0.056118	46.6204	-0.917297	-1.740661E+12	-3.223953E-14	NaN
175	1.000000	0.310021	7.36675e+06	-47389.1	955.82	-29766.5	0.000000	0.000000	6.310858	-0.037134	NaN	0.000000	0.001528	0.001657	28.0798	0.038369	0.001839	20.8621	-157.434	-165.931	0.109497	0.308682	-0.872380	-0.873719	-0.037134	20.8621	-0.871045	-4.126437E+11	8.999162E-14	NaN
175	1.000000	0.354027	7.36675e+06	-47389.1	955.819	-29766.5	0.000000	0.000000	6.354864	-0.050336	NaN	0.000000	0.001617	0.001667	28.1307	0.045454	0.001949	23.3259	-103.338	-164.291	-0.062462	0.352768	-0.828373	-0.829633	-0.050336	23.3259	-0.826755	-1.037038E+11	4.853809E-13	NaN
175	1.000000	0.398063	7.36675e+06	-47389.1	955.818	-29766.5	0.000000	0.000000	6.398902	-0.002043	NaN	0.000000	0.001509	0.001706	28.0801	0.142770	0.001861	76.7287	108.516	-169.949	0.019380	0.396770	-0.784338	-0.785630	-0.002043	76.7287	-0.784318	-2.753574E+10	7.417930E-14	NaN
175	1.000000	0.442100	7.36675e+06	-47389.1	955.818	-29766.5	0.000000	0.000000	6.442939	0.022064	NaN	0.000000	0.001519	0.001715	28.129	0.093272	0.001994	46.7804	148.064	-165.581	0.007586	0.440769	-0.740301	-0.741632	0.022064	46.7804	-0.740655	-7.014107E+9	-3.145595E-12	NaN
175	1.000000	0.486119	7.36675e+06	-47389.1	955.819	-29766.5	0.000000	0.000000	6.486957	-0.001755	NaN	0.000000	0.001549	0.001734	28.0792	0.108206	0.002135	50.6823	-25.0764	-163.735	-0.064208	0.484763	-0.696282	-0.697638	-0.001755	50.6823	-0.696256	-1.739390E+9	1.008700E-12	NaN
175	1.000000	0.530107	7.36675e+06	-47389.1	955.819	-29766.5	0.000000	0.000000	6.530945	-0.018742	NaN	0.000000	0.001547	0.001690	28.13	0.011973	0.002104	5.691342	155.074	-167.438	-9.637601E-5	0.528775	-0.652293	-0.653626	-0.018742	5.691342	-0.649824	-4.027350E+8	4.653579E-11	NaN
175	1.000000	0.574116	7.36675e+06	-47389.1	955.819	-29766.5	0.000000	0.000000	6.574960	0.111513	NaN	0.000000	0.001511	0.001690	28.08	0.037867	0.002049	18.4787	-106.3	-164.305	0.060152	0.572818	-0.608285	-0.609582	0.111513	18.4787	-0.612811	-1.249620E+8	-8.923730E-10	NaN
175	1.000000	0.618150	7.36675e+06	-47389.1	955.819	-29766.5	0.000000	0.000000	6.618989	-0.000702	NaN	0.000000	0.001518	0.001710	28.1312	0.070381	0.002007	35.0609	67.9117	-163.775	0.045718	0.616818	-0.564250	-0.565583	-0.000702	35.0609	-0.564235	-2.672701E+7	2.626021E-11	NaN
175	1.000000	0.662193	7.36675e+06	-47389.1	955.818	-29766.5	0.000000	0.000000	6.663034	0.038569	NaN	0.000000	0.001552	0.001724	28.0804	0.063819	0.002081	30.6647	30.9513	-166.392	-0.018291	0.660872	-0.520207	-0.521529	0.038569	30.6647	-0.521151	-6.75459e+06	-5.710023E-9	NaN
175	1.000000	0.706209	7.36675e+06	-47389.1	955.819	-29766.5	0.000000	0.000000	6.707048	-0.002764	NaN	0.000000	0.001553	0.001771	28.1301	0.067010	0.002054	32.6256	-10.7176	-166.041	-0.018115	0.704889	-0.476192	-0.477511	-0.002764	32.6256	-0.476128	-1.58966e+06	1.738476E-9	NaN
175	1.000000	0.750194	7.36675e+06	-47389.1	955.818	-29766.5	0.000000	0.000000	6.751033	0.009315	NaN	0.000000	0.001510	0.001743	28.0787	0.122992	0.002099	58.5987	-13.3223	-162.737	-0.001538	0.748843	-0.432207	-0.433558	0.009315	58.5987	-0.432326	-384555	-2.422340E-8	NaN
175	1.000000	0.794237	7.36675e+06	-47389.1	955.819	-29766.5	0.000000	0.000000	6.795077	0.025365	NaN	0.000000	0.001518	0.001702	28.13	0.040995	0.001929	21.2523	43.8777	-167.638	0.063438	0.792887	-0.388163	-0.389514	0.025365	21.2523	-0.389058	-93259.8	-2.719777E-7	NaN
175	1.000000	0.838226	7.36675e+06	-47389.1	955.818	-29766.5	0.000000	0.000000	6.839068	0.064809	NaN	0.000000	0.001526	0.001719	28.0805	0.116777	0.001921	60.8045	-150.809	-165.052	0.035666	0.836986	-0.344174	-0.345414	0.064809	60.8045	-0.344974	-21576.1	-3.003713E-6	NaN
175	1.000000	0.882256	7.36675e+06	-47389.1	955.818	-29766.5	0.000000	0.000000	6.883097	0.067301	NaN	0.000000	0.001531	0.001711	28.1308	0.041233	0.001931	21.3582	-51.5481	-165.009	0.068600	0.880927	-0.300145	-0.301474	0.067301	21.3582	-0.302508	-5127.99	-1.312430E-5	NaN
175	1.000000	0.926293	7.36675e+06	-47389.1	955.818	-29766.5	0.000000	0.000000	6.927137	0.120865	NaN	0.000000	0.001577	0.001685	28.0799	0.043365	0.001889	22.9543	18.619	-163.322	0.029901	0.924995	-0.256107	-0.257406	0.120865	22.9543	-0.260056	-1174.31	-0.000103	NaN
175	1.000000	0.970293	7.36675e+06	-47389.1	955.818	-29766.5	0.000000	0.000000	6.971135	0.086574	NaN	0.000000	0.001580	0.001706	28.1296	0.050928	0.001997	25.4987	113.522	-165.961	0.002869	0.968943	-0.212108	-0.213458	0.086574	25.4987	-0.214654	-228.007	-0.000380	NaN
175	1.000000	1.014302	7.36675e+06	-47389.1	955.819	-29766.5	0.000000	0.000000	7.015140	-0.020068	NaN	0.000000	0.001540	0.001697	28.0785	0.134457	0.002027	66.3391	-83.2494	-162.243	-0.035919	1.012994	-0.168099	-0.169406	-0.020068	66.3391	-0.167872	-37.7204	0.000532	NaN
175	1.000000	1.058336	7.36675e+06	-47389.1	955.817	-29766.5	0.000000	0.000000	7.059174	-0.030704	NaN	0.000000	0.001539	0.001757	28.1286	0.028619	0.002070	13.8246	96.2661	-163.828	-0.013340	1.056992	-0.124065	-0.125408	-0.030704	13.8246	-0.122399	-5.398378	0.005688	NaN
175	1.000000	1.102353	7.36675e+06	-47389.1	955.818	-29766.5	0.000000	0.000000	7.103190	-0.034276	NaN	0.000000	0.001577	0.001717	28.0812	0.029935	0.002001	14.9568	-13.7389	-166.936	0.027929	1.101015	-0.080048	-0.081386	-0.034276	14.9568	-0.078329	-0.561921	0.060997	NaN
175	1.000000	1.146345	7.36675e+06	-47389.1	955.819	-29766.5	0.000000	0.000000	7.147183	-0.012035	NaN	0.000000	0.001558	0.001719	28.1292	0.006731	0.001982	3.395761	-120.195	-164.008	0.080094	1.145053	-0.036056	-0.037347	-0.012035	3.395761	-0.033398	-0.028750	0.418616	NaN
175	2.000000	1.189827	7.36675e+06	-47389.1	955.818	-29766.5	0.000000	0.000000	7.191011	8.399530	NaN	0.000000	0.001621	0.001708	28.0814	8.464672	0.001645	5145.31	10.8308	-174.735	7.525646	1.188993	0.007426	0.006593	8.399530	5145.31	0.006202	0.005257	1597.8	64836.4
175	2.000000	1.200955	7.36675e+06	-47389.1	955.818	-29766.5	0.000000	0.000000	7.202756	23.404	NaN	0.000000	0.001654	0.001727	28.1291	18.2905	0.001665	10988.4	7.143970	-176.852	23.6767	1.200631	0.018555	0.018231	23.404	10988.4	0.016957	0.017985	1301.34	74861
175	2.000000	1.211914	7.36675e+06	-47389.1	955.819	-29766.5	0.000000	0.000000	7.214752	48.6257	NaN	0.000000	0.001619	0.001733	28.0797	28.4074	0.001925	14754.9	4.367619	-175.827	47.8037	1.211581	0.029513	0.029181	48.6257	14754.9	0.027042	0.034835	1395.88	72227.2
175	2.000000	1.222882	7.36675e+06	-47389.1	955.819	-29766.5	0.000000	0.000000	7.227054	81.0705	NaN	0.000000	0.001672	0.001745	28.1279	39.1712	0.001787	21915.8	2.715878	-179.162	80.9572	1.222635	0.040482	0.040234	81.0705	21915.8	0.037707	0.058238	1392.06	82971.3
175	2.000000	1.233968	7.36675e+06	-47389.1	955.819	-29766.5	0.000000	0.000000	7.239766	120.627	NaN	0.000000	0.001676	0.001730	28.0817	49.9254	0.001835	27201	3.361958	179.052	125.018	1.233604	0.051567	0.051203	120.627	27201	0.048241	0.087054	1385.66	84229.3
175	2.000000	1.244906	7.36675e+06	-47389.1	955.819	-29766.5	0.000000	0.000000	7.253216	181.741	NaN	0.000000	0.001641	0.001729	28.1293	59.126	0.001790	33032.5	4.531862	176.431	180.762	1.244459	0.062505	0.062058	181.741	33032.5	0.058378	0.120058	1513.77	87100.2
175	2.000000	1.255879	7.36675e+06	-47389.1	955.819	-29766.5	0.000000	0.000000	7.266496	237.84	NaN	0.000000	0.001619	0.001726	28.081	72.6357	0.001882	38604.8	4.295988	174.755	237.526	1.255570	0.073478	0.073169	237.84	38604.8	0.068858	0.159471	1491.43	88322.9
175	2.000000	1.266844	7.36675e+06	-47389.1	955.819	-29766.5	0.000000	0.000000	7.280308	307.091	NaN	0.000000	0.001590	0.001760	28.1282	83.0807	0.001838	45201.4	6.931721	171.259	307.438	1.266477	0.084443	0.084077	307.091	45201.4	0.079348	0.204179	1504.02	91394.3
175	2.000000	1.277799	7.36675e+06	-47389.1	955.819	-29766.5	0.000000	0.000000	7.294729	391.399	NaN	0.000000	0.001613	0.001787	28.078	92.2125	0.001877	49124.7	5.671231	171.821	389.024	1.277479	0.095398	0.095079	391.399	49124.7	0.089422	0.251949	1553.49	89416.3
175	2.000000	1.288327	7.36675e+06	-47389.1	955.819	-29766.5	0.000000	0.000000	7.308181	462.509	NaN	0.000000	0.001593	0.001739	28.0889	100.705	0.001835	54878.8	2.412703	-5.924376	460.069	1.287992	0.105926	0.105591	462.509	54878.8	0.099605	0.304970	1516.57	90792.4