File: remote_trans/data/nanoindenter/0828-1/data/Data_2025-08-06,11h17m57s/2025-07-22_16-23-58_1_329.txt
2025-07-22, 16:23:58, 1
Index	Phase	Displacement	Time	Pos X	Pos Y	Pos Z	Rot A	Rot B	Piezo Z	Force A	Force B	Gripper	Voltage A	Voltage B	Temperature	Amplitude force	Amplitude pos	Stiffness	Phase shift	Phase excitation	Force A raw	Displacement raw	HMax	HMax raw	Real Force	Real Stiffness	Contact Depth	Area	Hardness	Reduced Mod.
[#]	[#]	[um]	[s]	[um]	[um]	[um]	[m°]	[m°]	[um]	[uN]	[uN]	[V]	[V]	[V]	[°C]	[uN]	[um]	[N/m]	[°]	[°]	[uN]	[um]	[um]	[um]	[uN]	[N/m]	[um]	[um^2]	[MPa]	[MPa]
329	1.000000	0.002655	7.36828e+06	-55089.1	955.817	-29742.5	0.000000	0.000000	6.002814	-0.007055	NaN	0.000000	0.001799	0.001704	28.0789	0.062114	0.001004	61.8375	123.031	-166.502	0.037094	0.001390	-1.178371	-1.179637	-0.007055	61.8375	-1.178285	-5.622112E+15	1.254883E-18	NaN
329	1.000000	0.046588	7.36828e+06	-55089.1	955.818	-29742.5	0.000000	0.000000	6.046746	-0.020384	NaN	0.000000	0.001701	0.001686	28.0792	0.034096	0.001930	17.6659	-94.7349	-169.105	-0.010994	0.045256	-1.134438	-1.135771	-0.020384	17.6659	-1.133572	-1.414287E+15	1.441286E-17	NaN
329	1.000000	0.090576	7.36828e+06	-55089.1	955.818	-29742.5	0.000000	0.000000	6.090732	-0.078510	NaN	0.000000	0.001740	0.001775	28.0778	0.055821	0.001905	29.3084	121.223	-165.252	-0.052297	0.089294	-1.090450	-1.091732	-0.078510	29.3084	-1.088441	-3.506519E+14	2.238967E-16	NaN
329	1.000000	0.134618	7.36828e+06	-55089.1	955.818	-29742.5	0.000000	0.000000	6.134777	0.023208	NaN	0.000000	0.001709	0.001679	28.0778	0.043685	0.002090	20.9027	39.5183	-163.71	-0.047474	0.133309	-1.046408	-1.047717	0.023208	20.9027	-1.047241	-9.802250E+13	-2.367659E-16	NaN
329	1.000000	0.178633	7.36828e+06	-55089.1	955.818	-29742.5	0.000000	0.000000	6.178790	-0.048416	NaN	0.000000	0.001773	0.001713	28.0786	0.051157	0.002139	23.9188	-19.3323	-166.584	-0.038335	0.177296	-1.002393	-1.003730	-0.048416	23.9188	-1.000875	-2.331036E+13	2.077035E-15	NaN
329	1.000000	0.222673	7.36828e+06	-55089.1	955.818	-29742.5	0.000000	0.000000	6.222833	0.024507	NaN	0.000000	0.001784	0.001693	28.0786	0.047760	0.001941	24.6039	89.416	-170.871	-0.019742	0.221410	-0.958353	-0.959616	0.024507	24.6039	-0.959100	-6.378703E+12	-3.842060E-15	NaN
329	1.000000	0.266678	7.36828e+06	-55089.1	955.818	-29742.5	0.000000	0.000000	6.266834	-0.075632	NaN	0.000000	0.001763	0.001692	28.0786	0.146652	0.001924	76.2398	21.5673	-165.879	-0.114852	0.265319	-0.914348	-0.915707	-0.075632	76.2398	-0.913604	-1.551800E+12	4.873850E-14	NaN
329	1.000000	0.310675	7.36828e+06	-55089.1	955.818	-29742.5	0.000000	0.000000	6.310828	-0.132992	NaN	0.000000	0.001708	0.001700	28.0774	0.091843	0.002150	42.7222	-56.1291	-167.382	-0.052317	0.309430	-0.870351	-0.871596	-0.132992	42.7222	-0.868016	-3.754972E+11	3.541761E-13	NaN
329	1.000000	0.354717	7.36828e+06	-55089.1	955.818	-29742.5	0.000000	0.000000	6.354875	-0.006092	NaN	0.000000	0.001693	0.001675	28.0776	0.076630	0.001931	39.6868	-82.7678	-167.117	-0.046465	0.353406	-0.826309	-0.827620	-0.006092	39.6868	-0.826194	-1.019044E+11	5.978450E-14	NaN
329	1.000000	0.398734	7.36828e+06	-55089.1	955.818	-29742.5	0.000000	0.000000	6.398891	-0.041471	NaN	0.000000	0.001662	0.001655	28.0774	0.042064	0.002051	20.5114	119.784	-170.497	-0.030681	0.397428	-0.782292	-0.783598	-0.041471	20.5114	-0.780776	-2.464754E+10	1.682560E-12	NaN
329	1.000000	0.442738	7.36828e+06	-55089.1	955.818	-29742.5	0.000000	0.000000	6.442897	0.014331	NaN	0.000000	0.001693	0.001673	28.0784	0.172042	0.001911	90.0045	-117.289	-166.289	-0.001339	0.441428	-0.738288	-0.739599	0.014331	90.0045	-0.738408	-6.536825E+9	-2.192414E-12	NaN
329	1.000000	0.486782	7.36828e+06	-55089.1	955.818	-29742.5	0.000000	0.000000	6.486940	-0.015067	NaN	0.000000	0.001731	0.001669	28.0784	0.043742	0.001930	22.6638	-69.568	-163.582	-0.082867	0.485470	-0.694244	-0.695556	-0.015067	22.6638	-0.693746	-1.607312E+9	9.374034E-12	NaN
329	1.000000	0.530819	7.36828e+06	-55089.1	955.817	-29742.5	0.000000	0.000000	6.530977	-0.004903	NaN	0.000000	0.001714	0.001711	28.0793	0.044086	0.002073	21.2657	61.633	-166.654	-0.040927	0.529453	-0.650208	-0.651573	-0.004903	21.2657	-0.650035	-4.054274E+8	1.209337E-11	NaN
329	1.000000	0.574839	7.36828e+06	-55089.1	955.817	-29742.5	0.000000	0.000000	6.574996	-0.024276	NaN	0.000000	0.001723	0.001689	28.0776	0.118069	0.002004	58.9248	43.8408	-168.409	-0.007976	0.573485	-0.606188	-0.607542	-0.024276	58.9248	-0.605879	-1.003223E+8	2.419784E-10	NaN
329	1.000000	0.618826	7.36829e+06	-55089.1	955.817	-29742.5	0.000000	0.000000	6.618982	-0.048192	NaN	0.000000	0.001701	0.001707	28.0774	0.025705	0.002082	12.3471	-88.8141	-162.437	-0.028828	0.617533	-0.562200	-0.563493	-0.048192	12.3471	-0.559273	-2.282033E+7	2.111808E-9	NaN
329	1.000000	0.662839	7.36829e+06	-55089.1	955.818	-29742.5	0.000000	0.000000	6.662996	-0.026977	NaN	0.000000	0.001686	0.001717	28.0776	0.012814	0.001973	6.495222	-120.151	-163.129	-0.006775	0.661565	-0.518187	-0.519461	-0.026977	6.495222	-0.515072	-5.55956e+06	4.852293E-9	NaN
329	1.000000	0.706875	7.36829e+06	-55089.1	955.818	-29742.5	0.000000	0.000000	6.707032	-0.045022	NaN	0.000000	0.001658	0.001730	28.0788	0.102941	0.001944	52.9553	42.6894	-167.321	-0.049486	0.705532	-0.474151	-0.475495	-0.045022	52.9553	-0.473513	-1.46106e+06	3.081449E-8	NaN
329	1.000000	0.750908	7.36829e+06	-55089.1	955.817	-29742.5	0.000000	0.000000	6.751065	-0.018259	NaN	0.000000	0.001654	0.001682	28.079	0.084444	0.002009	42.0238	-56.2304	-164.452	-0.036405	0.749615	-0.430119	-0.431411	-0.018259	42.0238	-0.429793	-354102	5.156445E-8	NaN
329	1.000000	0.794931	7.36829e+06	-55089.1	955.818	-29742.5	0.000000	0.000000	6.795092	0.041643	NaN	0.000000	0.001693	0.001695	28.0789	0.057972	0.002040	28.4213	161.467	-164.098	0.001248	0.793589	-0.386095	-0.387438	0.041643	28.4213	-0.387194	-87701	-4.748305E-7	NaN
329	1.000000	0.838909	7.36829e+06	-55089.1	955.818	-29742.5	0.000000	0.000000	6.839064	-0.076693	NaN	0.000000	0.001693	0.001728	28.0782	0.096547	0.002106	45.8398	-42.4438	-165.256	-0.010317	0.837610	-0.342117	-0.343416	-0.076693	45.8398	-0.340862	-18798.5	4.079746E-6	NaN
329	1.000000	0.882953	7.36829e+06	-55089.1	955.819	-29742.5	0.000000	0.000000	6.883110	-0.032918	NaN	0.000000	0.001689	0.001696	28.0775	0.117590	0.002107	55.8168	87.1249	-166.293	0.070746	0.881676	-0.298073	-0.299351	-0.032918	55.8168	-0.297631	-4338.55	7.587424E-6	NaN
329	1.000000	0.926953	7.36829e+06	-55089.1	955.819	-29742.5	0.000000	0.000000	6.927109	-0.075664	NaN	0.000000	0.001692	0.001679	28.0775	0.178258	0.001990	89.5577	173.27	-165.895	-0.084728	0.925651	-0.254073	-0.255375	-0.075664	89.5577	-0.253439	-929.124	8.143542E-5	NaN
329	1.000000	0.970970	7.36829e+06	-55089.1	955.818	-29742.5	0.000000	0.000000	6.971129	-0.000477	NaN	0.000000	0.001767	0.001673	28.0779	0.064087	0.002005	31.9577	-79.8368	-165.547	0.015721	0.969659	-0.210056	-0.211367	-0.000477	31.9577	-0.210045	-192.109	2.482355E-6	NaN
329	1.000000	1.015006	7.36829e+06	-55089.1	955.817	-29742.5	0.000000	0.000000	7.015160	-0.105191	NaN	0.000000	0.001704	0.001692	28.079	0.115371	0.001943	59.3889	-1.354279	-160.715	-0.094790	1.013659	-0.166020	-0.167367	-0.105191	59.3889	-0.164692	-33.1814	0.003170	NaN
329	1.000000	1.059002	7.36829e+06	-55089.1	955.818	-29742.5	0.000000	0.000000	7.059159	-0.033515	NaN	0.000000	0.001708	0.001681	28.0787	0.068317	0.001908	35.797	-100.355	-167.314	0.030219	1.057757	-0.122024	-0.123269	-0.033515	35.797	-0.121322	-5.136815	0.006525	NaN
329	1.000000	1.103036	7.36829e+06	-55089.1	955.817	-29742.5	0.000000	0.000000	7.103195	0.007710	NaN	0.000000	0.001649	0.001732	28.0788	0.078707	0.002021	38.9391	-149.109	-161.192	0.007080	1.101690	-0.077990	-0.079336	0.007710	38.9391	-0.078138	-0.555701	-0.013874	NaN
329	1.000000	1.147049	7.36829e+06	-55089.1	955.819	-29742.5	0.000000	0.000000	7.147207	-0.014257	NaN	0.000000	0.001685	0.001648	28.078	0.049467	0.001987	24.8904	96.1164	-167.042	-0.048422	1.145750	-0.033977	-0.035276	-0.014257	24.8904	-0.033547	-0.029039	0.490945	NaN
329	2.000000	1.190572	7.36829e+06	-55089.1	955.818	-29742.5	0.000000	0.000000	7.191048	7.716906	NaN	0.000000	0.001684	0.001686	28.078	7.640032	0.001591	4803.26	9.321408	-168.807	7.776861	1.189687	0.009546	0.008661	7.716906	4803.26	0.008341	0.007396	1043.45	51029.8
329	2.000000	1.201610	7.36829e+06	-55089.1	955.818	-29742.5	0.000000	0.000000	7.202843	26.1174	NaN	0.000000	0.001670	0.001701	28.0775	19.2117	0.001801	10666	5.705331	-175.092	25.2759	1.201218	0.020584	0.020192	26.1174	10666	0.018747	0.020612	1267.09	67875.8
329	2.000000	1.212627	7.36829e+06	-55089.1	955.819	-29742.5	0.000000	0.000000	7.214982	53.3971	NaN	0.000000	0.001706	0.001667	28.0788	30.138	0.001804	16704.3	8.857264	177.843	53.199	1.212308	0.031601	0.031282	53.3971	16704.3	0.029203	0.039109	1365.35	77172.8
329	2.000000	1.223542	7.36829e+06	-55089.1	955.822	-29742.5	0.000000	0.000000	7.227469	91.6074	NaN	0.000000	0.001692	0.001685	28.0787	40.5605	0.001758	23068.2	3.120398	179.875	89.0573	1.223282	0.042516	0.042256	91.6074	23068.2	0.039537	0.062838	1457.83	84076.6
329	2.000000	1.234590	7.36829e+06	-55089.1	955.821	-29742.5	0.000000	0.000000	7.240394	137.256	NaN	0.000000	0.001692	0.001661	28.0794	51.933	0.001773	29294.9	3.173235	177.239	135.483	1.234326	0.053563	0.053300	137.256	29294.9	0.050049	0.092566	1482.79	87970.8
329	2.000000	1.245567	7.36829e+06	-55089.1	955.821	-29742.5	0.000000	0.000000	7.253748	195.032	NaN	0.000000	0.001660	0.001678	28.0771	61.099	0.001701	35917.5	2.568768	177.468	195.551	1.245245	0.064540	0.064219	195.032	35917.5	0.060468	0.127492	1529.76	91905
329	2.000000	1.256677	7.36829e+06	-55089.1	955.821	-29742.5	0.000000	0.000000	7.267493	259.075	NaN	0.000000	0.001671	0.001689	28.0773	73.6125	0.001773	41508.9	5.901509	172.597	265.448	1.256329	0.075651	0.075303	259.075	41508.9	0.070969	0.168054	1541.62	92510.3
329	2.000000	1.267513	7.36829e+06	-55089.1	955.821	-29742.5	0.000000	0.000000	7.281874	345.254	NaN	0.000000	0.001655	0.001669	28.0774	82.6666	0.001800	45935.6	4.032238	173.878	344.525	1.267226	0.086487	0.086200	345.254	45935.6	0.080850	0.211004	1636.25	91364.6
329	2.000000	1.278487	7.36829e+06	-55089.1	955.82	-29742.5	0.000000	0.000000	7.296450	432.813	NaN	0.000000	0.001688	0.001687	28.0787	92.9393	0.001803	51533.6	10.6245	168.143	430.76	1.277974	0.097461	0.096948	432.813	51533.6	0.091162	0.260672	1660.37	92218.1
329	2.000000	1.289025	7.36829e+06	-55089.1	955.822	-29742.5	0.000000	0.000000	7.310785	525.112	NaN	0.000000	0.001680	0.001688	28.0786	99.6967	0.001772	56277.6	1.273594	-4.412795	523.355	1.288650	0.107999	0.107624	525.112	56277.6	0.101001	0.312601	1679.81	91963