File: remote_trans/data/nanoindenter/0828-1/data/Data_2025-08-06,11h17m57s/2025-07-22_16-23-58_1_246.txt
2025-07-22, 16:23:58, 1
Index	Phase	Displacement	Time	Pos X	Pos Y	Pos Z	Rot A	Rot B	Piezo Z	Force A	Force B	Gripper	Voltage A	Voltage B	Temperature	Amplitude force	Amplitude pos	Stiffness	Phase shift	Phase excitation	Force A raw	Displacement raw	HMax	HMax raw	Real Force	Real Stiffness	Contact Depth	Area	Hardness	Reduced Mod.
[#]	[#]	[um]	[s]	[um]	[um]	[um]	[m°]	[m°]	[um]	[uN]	[uN]	[V]	[V]	[V]	[°C]	[uN]	[um]	[N/m]	[°]	[°]	[uN]	[um]	[um]	[um]	[uN]	[N/m]	[um]	[um^2]	[MPa]	[MPa]
246	1.000000	0.002568	7.36745e+06	-50939.1	955.818	-29754.3	0.000000	0.000000	6.002806	0.042750	NaN	0.000000	0.001685	0.001657	28.0794	0.115435	0.000942	122.583	118.037	-168.679	0.040673	0.001259	-1.127063	-1.128372	0.042750	122.583	-1.127325	-1.166109E+15	-3.666002E-17	NaN
246	1.000000	0.044515	7.36745e+06	-50939.1	955.818	-29754.3	0.000000	0.000000	6.044753	0.040209	NaN	0.000000	0.001687	0.001617	28.0791	0.099723	0.002052	48.6048	-40.4053	11.8208	0.060282	0.043133	-1.085116	-1.086498	0.040209	48.6048	-1.085736	-3.225224E+14	-1.246714E-16	NaN
246	1.000000	0.086523	7.36746e+06	-50939.1	955.819	-29754.3	0.000000	0.000000	6.086761	0.021631	NaN	0.000000	0.001620	0.001637	28.0789	0.044503	0.002082	21.377	95.3303	-166.415	0.112227	0.085255	-1.043107	-1.044376	0.021631	21.377	-1.043866	-8.829866E+13	-2.449724E-16	NaN
246	1.000000	0.128518	7.36746e+06	-50939.1	955.819	-29754.3	0.000000	0.000000	6.128753	-0.023744	NaN	0.000000	0.001611	0.001623	28.0788	0.071144	0.001921	37.0268	10.1695	18.049	0.010039	0.127181	-1.001113	-1.002450	-0.023744	37.0268	-1.000632	-2.313564E+13	1.026278E-15	NaN
246	1.000000	0.170538	7.36746e+06	-50939.1	955.82	-29754.3	0.000000	0.000000	6.170776	0.026284	NaN	0.000000	0.001572	0.001616	28.08	0.060010	0.001919	31.2793	-45.8646	-165.3	0.040049	0.169234	-0.959092	-0.960397	0.026284	31.2793	-0.959723	-6.503234E+12	-4.041606E-15	NaN
246	1.000000	0.212597	7.36746e+06	-50939.1	955.819	-29754.3	0.000000	0.000000	6.212832	-0.041701	NaN	0.000000	0.001591	0.001572	28.0797	0.043836	0.002075	21.1291	-52.0561	13.6515	0.040957	0.211187	-0.917034	-0.918444	-0.041701	21.1291	-0.915554	-1.648810E+12	2.529186E-14	NaN
246	1.000000	0.254601	7.36746e+06	-50939.1	955.819	-29754.3	0.000000	0.000000	6.254834	-0.071897	NaN	0.000000	0.001662	0.001663	28.0798	0.041747	0.002053	20.337	1.309292	-165.238	-0.038909	0.253247	-0.875030	-0.876384	-0.071897	20.337	-0.872379	-4.301557E+11	1.671418E-13	NaN
246	1.000000	0.296612	7.36746e+06	-50939.1	955.819	-29754.3	0.000000	0.000000	6.296851	0.059367	NaN	0.000000	0.001600	0.001652	28.0783	0.032561	0.002043	15.9345	15.8901	13.7671	0.049766	0.295262	-0.833019	-0.834369	0.059367	15.9345	-0.835814	-1.375853E+11	-4.314956E-13	NaN
246	1.000000	0.338627	7.36746e+06	-50939.1	955.818	-29754.3	0.000000	0.000000	6.338866	0.057297	NaN	0.000000	0.001558	0.001617	28.0781	0.079722	0.002057	38.7601	94.8187	-165.27	-0.026414	0.337356	-0.791004	-0.792275	0.057297	38.7601	-0.792113	-3.513810E+10	-1.630635E-12	NaN
246	1.000000	0.380639	7.36746e+06	-50939.1	955.818	-29754.3	0.000000	0.000000	6.380874	-0.041381	NaN	0.000000	0.001627	0.001652	28.0784	0.084587	0.001937	43.6585	-48.6358	14.4808	0.023979	0.379339	-0.748992	-0.750292	-0.041381	43.6585	-0.748281	-8.908731E+9	4.644969E-12	NaN
246	1.000000	0.422657	7.36746e+06	-50939.1	955.818	-29754.3	0.000000	0.000000	6.422892	-0.038949	NaN	0.000000	0.001608	0.001661	28.0797	0.073455	0.001998	36.7574	-162.487	-165.684	-0.022622	0.421349	-0.706974	-0.708282	-0.038949	36.7574	-0.706179	-2.376272E+9	1.639097E-11	NaN
246	1.000000	0.464682	7.36746e+06	-50939.1	955.818	-29754.3	0.000000	0.000000	6.464918	-0.013323	NaN	0.000000	0.001621	0.001634	28.0799	0.081577	0.001987	41.0594	-65.943	16.2549	0.020353	0.463363	-0.664949	-0.666268	-0.013323	41.0594	-0.664706	-6.440416E+8	2.068708E-11	NaN
246	1.000000	0.506714	7.36746e+06	-50939.1	955.818	-29754.3	0.000000	0.000000	6.506950	-0.014157	NaN	0.000000	0.001638	0.001611	28.0797	0.064351	0.001924	33.4452	9.417960	-164.548	0.015528	0.505439	-0.622917	-0.624192	-0.014157	33.4452	-0.622599	-1.703561E+8	8.310497E-11	NaN
246	1.000000	0.548694	7.36746e+06	-50939.1	955.818	-29754.3	0.000000	0.000000	6.548931	-0.006307	NaN	0.000000	0.001624	0.001609	28.0787	0.152060	0.002128	71.4638	-159.873	13.037	-0.031515	0.547355	-0.580937	-0.582276	-0.006307	71.4638	-0.580870	-4.536675E+7	1.390167E-10	NaN
246	1.000000	0.590765	7.36746e+06	-50939.1	955.818	-29754.3	0.000000	0.000000	6.591001	-0.019411	NaN	0.000000	0.001621	0.001654	28.0786	0.085228	0.002027	42.0404	-15.802	-163.446	-0.091344	0.589414	-0.538866	-0.540216	-0.019411	42.0404	-0.538519	-1.177122E+7	1.649028E-9	NaN
246	1.000000	0.632769	7.36746e+06	-50939.1	955.818	-29754.3	0.000000	0.000000	6.633006	0.009187	NaN	0.000000	0.001620	0.001630	28.0785	0.048404	0.001897	25.5211	-143.981	17.2258	0.016895	0.631403	-0.496862	-0.498228	0.009187	25.5211	-0.497132	-3.12603e+06	-2.938981E-9	NaN
246	1.000000	0.674766	7.36746e+06	-50939.1	955.819	-29754.3	0.000000	0.000000	6.675002	-0.016316	NaN	0.000000	0.001591	0.001607	28.0787	0.113116	0.001943	58.2194	120.504	-167.334	-0.003592	0.673431	-0.454865	-0.456200	-0.016316	58.2194	-0.454654	-794064	2.054697E-8	NaN
246	1.000000	0.716816	7.36746e+06	-50939.1	955.819	-29754.3	0.000000	0.000000	6.717053	0.012524	NaN	0.000000	0.001561	0.001609	28.0801	0.063504	0.001932	32.8729	-83.9744	15.72	-0.093072	0.715460	-0.412815	-0.414171	0.012524	32.8729	-0.413100	-205338	-6.099025E-8	NaN
246	1.000000	0.758832	7.36746e+06	-50939.1	955.819	-29754.3	0.000000	0.000000	6.759070	0.029625	NaN	0.000000	0.001599	0.001587	28.0802	0.047151	0.002017	23.3753	139.193	-166.762	0.002002	0.757516	-0.370798	-0.372115	0.029625	23.3753	-0.371749	-52638.9	-5.627916E-7	NaN
246	1.000000	0.800831	7.36746e+06	-50939.1	955.819	-29754.3	0.000000	0.000000	6.801069	0.018819	NaN	0.000000	0.001595	0.001619	28.0802	0.051946	0.001869	27.7988	-131.346	14.5546	0.011551	0.799434	-0.328799	-0.330197	0.018819	27.7988	-0.329307	-12743.9	-1.476718E-6	NaN
246	1.000000	0.842813	7.36746e+06	-50939.1	955.819	-29754.3	0.000000	0.000000	6.843052	0.047104	NaN	0.000000	0.001669	0.001597	28.0786	0.055554	0.002099	26.4682	-90.396	-168.104	-0.011757	0.841566	-0.286818	-0.288065	0.047104	26.4682	-0.288152	-3130.44	-1.504715E-5	NaN
246	1.000000	0.884890	7.36746e+06	-50939.1	955.818	-29754.3	0.000000	0.000000	6.885129	0.057273	NaN	0.000000	0.001625	0.001665	28.0786	0.082142	0.001926	42.6546	-158.16	14.666	-0.038057	0.883477	-0.244741	-0.246154	0.057273	42.6546	-0.245748	-706.426	-8.107408E-5	NaN
246	1.000000	0.926895	7.36746e+06	-50939.1	955.817	-29754.3	0.000000	0.000000	6.927130	-0.034737	NaN	0.000000	0.001608	0.001672	28.0785	0.056459	0.001987	28.4186	157.158	-164.751	0.012244	0.925591	-0.202736	-0.204040	-0.034737	28.4186	-0.201819	-141.11	0.000246	NaN
246	1.000000	0.968893	7.36746e+06	-50939.1	955.818	-29754.3	0.000000	0.000000	6.969129	-0.019740	NaN	0.000000	0.001665	0.001658	28.0797	0.035653	0.001791	19.9028	-65.6646	12.6156	-0.007456	0.967557	-0.160738	-0.162074	-0.019740	19.9028	-0.159994	-27.4083	0.000720	NaN
246	1.000000	1.010906	7.36746e+06	-50939.1	955.816	-29754.3	0.000000	0.000000	7.011138	-0.095652	NaN	0.000000	0.001628	0.001686	28.0795	0.078454	0.002088	37.5691	-93.9283	-168.803	-0.042927	1.009538	-0.118725	-0.120093	-0.095652	37.5691	-0.116816	-4.162797	0.022978	NaN
246	1.000000	1.052917	7.36746e+06	-50939.1	955.817	-29754.3	0.000000	0.000000	7.053154	0.003081	NaN	0.000000	0.001603	0.001664	28.0794	0.147960	0.002085	70.9609	-61.4337	12.0858	0.012762	1.051606	-0.076714	-0.078025	0.003081	70.9609	-0.076746	-0.512189	-0.006016	NaN
246	1.000000	1.094925	7.36746e+06	-50939.1	955.818	-29754.3	0.000000	0.000000	7.095159	-0.053557	NaN	0.000000	0.001619	0.001648	28.0784	0.064022	0.002076	30.8463	-39.6464	-163.764	-0.025956	1.093662	-0.034706	-0.035969	-0.053557	30.8463	-0.033404	-0.028763	1.862035	NaN
246	1.000000	1.136917	7.36746e+06	-50939.1	955.817	-29754.3	0.000000	0.000000	7.137465	7.585162	NaN	0.000000	0.001638	0.001685	28.0786	7.100514	0.001904	3729.56	12.9618	5.525266	6.710654	1.135531	0.007286	0.005900	7.585162	3729.56	0.005760	0.004838	1567.8	48988.4
246	2.000000	1.148469	7.36746e+06	-50939.1	955.817	-29754.3	0.000000	0.000000	7.149752	25.4378	NaN	0.000000	0.001595	0.001650	28.0786	19.3817	0.001709	11337.9	8.484318	-179.176	25.2292	1.148160	0.018838	0.018529	25.4378	11337.9	0.017155	0.018268	1392.48	76640.7
246	2.000000	1.158946	7.36746e+06	-50939.1	955.818	-29754.3	0.000000	0.000000	7.161405	54.0466	NaN	0.000000	0.001589	0.001635	28.0786	29.3037	0.001811	16179.2	3.758609	1.700631	52.6055	1.158644	0.029315	0.029014	54.0466	16179.2	0.026809	0.034390	1571.59	79710.5
246	2.000000	1.169436	7.36746e+06	-50939.1	955.818	-29754.3	0.000000	0.000000	7.173486	92.7252	NaN	0.000000	0.001637	0.001669	28.0797	39.6006	0.001710	23157.2	5.587845	175.564	91.2741	1.169053	0.039805	0.039422	92.7252	23157.2	0.036802	0.056026	1655.04	89385.1
246	2.000000	1.179894	7.36746e+06	-50939.1	955.817	-29754.3	0.000000	0.000000	7.185771	137.158	NaN	0.000000	0.001570	0.001658	28.0797	49.6116	0.001800	27563.1	3.346012	-2.450738	135.808	1.179561	0.050263	0.049931	137.158	27563.1	0.046531	0.081993	1672.79	87945.1
246	2.000000	1.190345	7.36746e+06	-50939.1	955.817	-29754.3	0.000000	0.000000	7.198264	186.804	NaN	0.000000	0.001639	0.001628	28.0799	61.0688	0.001805	33830.1	5.216247	173.067	182.733	1.190101	0.060714	0.060470	186.804	33830.1	0.056573	0.113807	1641.41	91620.2
246	2.000000	1.200900	7.36746e+06	-50939.1	955.819	-29754.3	0.000000	0.000000	7.211692	256.673	NaN	0.000000	0.001628	0.001606	28.0786	71.2645	0.001901	37488.5	6.747859	-8.611507	255.304	1.200478	0.071269	0.070847	256.673	37488.5	0.066134	0.148719	1725.9	88815.4
246	2.000000	1.211357	7.36746e+06	-50939.1	955.818	-29754.3	0.000000	0.000000	7.224865	322.74	NaN	0.000000	0.001637	0.001602	28.0786	82.5199	0.001929	42788.1	2.566330	174.742	322.295	1.211006	0.081726	0.081375	322.74	42788.1	0.076069	0.189647	1701.79	89768.5
246	2.000000	1.221823	7.36746e+06	-50939.1	955.818	-29754.3	0.000000	0.000000	7.238482	399.34	NaN	0.000000	0.001616	0.001617	28.0787	91.1488	0.001740	52393.5	6.193296	-10.8774	395.461	1.221500	0.092192	0.091869	399.34	52393.5	0.086476	0.237493	1681.48	98225.8
246	2.000000	1.232412	7.36746e+06	-50939.1	955.819	-29754.3	0.000000	0.000000	7.252876	491.869	NaN	0.000000	0.001613	0.001611	28.0797	99.0791	0.001715	57764.7	1.755982	174.035	493.054	1.231954	0.102782	0.102323	491.869	57764.7	0.096395	0.287744	1709.4	98385.7
246	2.000000	1.236892	7.36746e+06	-50939.1	955.818	-29754.3	0.000000	0.000000	7.259007	532.017	NaN	0.000000	0.001591	0.001606	28.0798	105.492	0.001763	59847	7.975641	-12.8032	530.906	1.236497	0.107262	0.106866	532.017	59847	0.100594	0.310371	1714.14	98146.6