File: remote_trans/data/nanoindenter/0828-1/data/Data_2025-08-06,11h17m57s/2025-07-22_16-23-58_1_721.txt
2025-07-22, 16:23:58, 1
Index	Phase	Displacement	Time	Pos X	Pos Y	Pos Z	Rot A	Rot B	Piezo Z	Force A	Force B	Gripper	Voltage A	Voltage B	Temperature	Amplitude force	Amplitude pos	Stiffness	Phase shift	Phase excitation	Force A raw	Displacement raw	HMax	HMax raw	Real Force	Real Stiffness	Contact Depth	Area	Hardness	Reduced Mod.
[#]	[#]	[um]	[s]	[um]	[um]	[um]	[m°]	[m°]	[um]	[uN]	[uN]	[V]	[V]	[V]	[°C]	[uN]	[um]	[N/m]	[°]	[°]	[uN]	[um]	[um]	[um]	[uN]	[N/m]	[um]	[um^2]	[MPa]	[MPa]
721	1.000000	0.002085	7.37211e+06	-41039.1	1005.82	-29787.6	0.000000	0.000000	6.002778	-0.010827	NaN	0.000000	0.001588	0.001711	28.082	0.121088	0.000896	135.205	79.0871	-158.513	-0.030320	0.000840	-1.120264	-1.121509	-0.010827	135.205	-1.120203	-9.358406E+14	1.156980E-17	NaN
721	1.000000	0.044068	7.37211e+06	-41039.1	1005.82	-29787.6	0.000000	0.000000	6.044759	-0.067944	NaN	0.000000	0.001572	0.001694	28.0821	0.160084	0.001934	82.7918	-159.916	19.1673	-0.013736	0.042768	-1.078281	-1.079581	-0.067944	82.7918	-1.077665	-2.512804E+14	2.703892E-16	NaN
721	1.000000	0.086063	7.37211e+06	-41039.1	1005.82	-29787.6	0.000000	0.000000	6.086758	0.031127	NaN	0.000000	0.001554	0.001689	28.0831	0.110474	0.001948	56.7111	120.042	-164.273	-0.034659	0.084751	-1.036286	-1.037597	0.031127	56.7111	-1.036697	-7.072246E+13	-4.401291E-16	NaN
721	1.000000	0.128088	7.37211e+06	-41039.1	1005.82	-29787.6	0.000000	0.000000	6.128781	-0.035833	NaN	0.000000	0.001582	0.001683	28.0836	0.039655	0.001987	19.9564	-131.171	14.0885	-0.054931	0.126649	-0.994260	-0.995700	-0.035833	19.9564	-0.992914	-1.821169E+13	1.967581E-15	NaN
721	1.000000	0.170109	7.37211e+06	-41039.1	1005.82	-29787.6	0.000000	0.000000	6.170802	-0.020936	NaN	0.000000	0.001574	0.001694	28.0837	0.046785	0.002089	22.3909	-62.0371	-163.482	-0.000153	0.168772	-0.952239	-0.953577	-0.020936	22.3909	-0.951538	-5.043925E+12	4.150674E-15	NaN
721	1.000000	0.212108	7.37211e+06	-41039.1	1005.82	-29787.6	0.000000	0.000000	6.212801	-0.036172	NaN	0.000000	0.001553	0.001713	28.0834	0.023556	0.001978	11.908	-166.297	15.7825	-0.113302	0.210785	-0.910240	-0.911563	-0.036172	11.908	-0.907962	-1.302073E+12	2.778051E-14	NaN
721	1.000000	0.254153	7.37211e+06	-41039.1	1005.82	-29787.6	0.000000	0.000000	6.254847	-0.001712	NaN	0.000000	0.001622	0.001760	28.082	0.046485	0.001988	23.3833	60.194	-165.185	-0.029127	0.252850	-0.868196	-0.869499	-0.001712	23.3833	-0.868141	-3.769561E+11	4.541710E-15	NaN
721	1.000000	0.296150	7.37211e+06	-41039.1	1005.82	-29787.6	0.000000	0.000000	6.296842	-0.055099	NaN	0.000000	0.001626	0.001718	28.0823	0.060489	0.002099	28.8146	173.148	18.9111	0.005036	0.294851	-0.826199	-0.827497	-0.055099	28.8146	-0.824764	-9.745677E+10	5.653716E-13	NaN
721	1.000000	0.338173	7.37211e+06	-41039.1	1005.82	-29787.6	0.000000	0.000000	6.338870	0.056938	NaN	0.000000	0.001621	0.001718	28.0821	0.052267	0.001980	26.4012	-139.787	-163.392	0.053826	0.336876	-0.784175	-0.785472	0.056938	26.4012	-0.785793	-2.883605E+10	-1.974541E-12	NaN
721	1.000000	0.380185	7.37211e+06	-41039.1	1005.82	-29787.6	0.000000	0.000000	6.380879	0.016055	NaN	0.000000	0.001641	0.001730	28.0834	0.117775	0.001987	59.2808	-1.616017	12.5621	-0.034860	0.378845	-0.742164	-0.743504	0.016055	59.2808	-0.742367	-7.400989E+9	-2.169283E-12	NaN
721	1.000000	0.422214	7.37211e+06	-41039.1	1005.82	-29787.6	0.000000	0.000000	6.422907	-0.023049	NaN	0.000000	0.001678	0.001673	28.0832	0.160121	0.001963	81.549	-41.9223	-166.001	0.032634	0.420952	-0.700135	-0.701396	-0.023049	81.549	-0.699923	-1.951991E+9	1.180776E-11	NaN
721	1.000000	0.464250	7.37211e+06	-41039.1	1005.82	-29787.6	0.000000	0.000000	6.464942	-0.040406	NaN	0.000000	0.001638	0.001712	28.0833	0.045552	0.002012	22.6357	0.488477	15.0031	-0.061670	0.462892	-0.658099	-0.659457	-0.040406	22.6357	-0.656760	-5.012803E+8	8.060484E-11	NaN
721	1.000000	0.506231	7.37211e+06	-41039.1	1005.82	-29787.6	0.000000	0.000000	6.506923	-0.041802	NaN	0.000000	0.001663	0.001720	28.0818	0.049846	0.002010	24.7979	88.8749	-165.554	-0.035873	0.504940	-0.616118	-0.617408	-0.041802	24.7979	-0.614854	-1.333151E+8	3.135563E-10	NaN
721	1.000000	0.548266	7.37211e+06	-41039.1	1005.82	-29787.6	0.000000	0.000000	6.548959	-0.017682	NaN	0.000000	0.001598	0.001753	28.0815	0.071750	0.001995	35.9577	-22.325	18.3454	-0.051628	0.546898	-0.574083	-0.575451	-0.017682	35.9577	-0.573714	-3.613612E+7	4.893291E-10	NaN
721	1.000000	0.590284	7.37211e+06	-41039.1	1005.82	-29787.6	0.000000	0.000000	6.590974	-0.084801	NaN	0.000000	0.001618	0.001771	28.082	0.058385	0.001963	29.7395	59.8995	-166.202	-0.095121	0.588978	-0.532065	-0.533371	-0.084801	29.7395	-0.529926	-8.94437e+06	9.480981E-9	NaN
721	1.000000	0.632284	7.37211e+06	-41039.1	1005.82	-29787.6	0.000000	0.000000	6.632975	-0.085535	NaN	0.000000	0.001610	0.001698	28.0832	0.115722	0.002070	55.9006	174.825	18.2877	-0.034925	0.630973	-0.490064	-0.491376	-0.085535	55.9006	-0.488917	-2.40023e+06	3.563601E-8	NaN
721	1.000000	0.674316	7.37211e+06	-41039.1	1005.82	-29787.6	0.000000	0.000000	6.675009	-0.028872	NaN	0.000000	0.001619	0.001733	28.0833	0.132123	0.002030	65.0943	-85.2053	-164.195	-0.033384	0.673028	-0.448032	-0.449321	-0.028872	65.0943	-0.447700	-633780	4.555501E-8	NaN
721	1.000000	0.716320	7.37211e+06	-41039.1	1005.82	-29787.6	0.000000	0.000000	6.717013	-0.029457	NaN	0.000000	0.001567	0.001720	28.0837	0.104412	0.001990	52.4681	-23.8376	15.7951	-0.100500	0.714961	-0.406029	-0.407387	-0.029457	52.4681	-0.405608	-160657	1.833519E-7	NaN
721	1.000000	0.758368	7.37211e+06	-41039.1	1005.82	-29787.6	0.000000	0.000000	6.759060	-0.037216	NaN	0.000000	0.001607	0.001728	28.0834	0.058920	0.001939	30.3903	28.1458	-165.561	-0.012870	0.757021	-0.363981	-0.365328	-0.037216	30.3903	-0.363062	-39453.6	9.432779E-7	NaN
721	1.000000	0.800391	7.37211e+06	-41039.1	1005.82	-29787.6	0.000000	0.000000	6.801082	-0.065534	NaN	0.000000	0.001587	0.001727	28.0823	0.088397	0.002080	42.4917	-165.005	15.4556	-0.096302	0.799019	-0.321958	-0.323330	-0.065534	42.4917	-0.320801	-9559.31	6.855553E-6	NaN
721	1.000000	0.842423	7.37211e+06	-41039.1	1005.82	-29787.6	0.000000	0.000000	6.843118	0.008103	NaN	0.000000	0.001589	0.001743	28.0825	0.186109	0.002079	89.5132	-79.9485	-163.348	-0.022324	0.841075	-0.279925	-0.281274	0.008103	89.5132	-0.279993	-2359.75	-3.433788E-6	NaN
721	1.000000	0.884400	7.37211e+06	-41039.1	1005.82	-29787.6	0.000000	0.000000	6.885092	-0.028656	NaN	0.000000	0.001581	0.001731	28.0824	0.054811	0.002065	26.5449	-6.342926	14.1506	-0.029126	0.883085	-0.237949	-0.239264	-0.028656	26.5449	-0.237139	-518.565	5.526032E-5	NaN
721	1.000000	0.926434	7.37211e+06	-41039.1	1005.82	-29787.6	0.000000	0.000000	6.927126	-0.043207	NaN	0.000000	0.001560	0.001704	28.0838	0.138626	0.002082	66.5798	176.553	-166.318	0.021647	0.925078	-0.195914	-0.197271	-0.043207	66.5798	-0.195428	-110.735	0.000390	NaN
721	1.000000	0.968441	7.37211e+06	-41039.1	1005.82	-29787.6	0.000000	0.000000	6.969133	-0.039770	NaN	0.000000	0.001553	0.001728	28.0834	0.087712	0.001892	46.3476	78.7211	16.9628	-0.052745	0.967099	-0.153907	-0.155250	-0.039770	46.3476	-0.153264	-20.7618	0.001916	NaN
721	1.000000	1.010463	7.37211e+06	-41039.1	1005.82	-29787.6	0.000000	0.000000	7.011155	-0.035861	NaN	0.000000	0.001540	0.001711	28.0835	0.093800	0.002116	44.3355	141.159	-163.713	-0.036672	1.009167	-0.111885	-0.113182	-0.035861	44.3355	-0.111279	-3.197112	0.011217	NaN
721	1.000000	1.052469	7.37211e+06	-41039.1	1005.82	-29787.6	0.000000	0.000000	7.053161	-0.022482	NaN	0.000000	0.001614	0.001692	28.0822	0.140069	0.001946	71.9639	-86.0636	15.6564	-0.071062	1.051134	-0.069880	-0.071214	-0.022482	71.9639	-0.069646	-0.333725	0.067366	NaN
721	1.000000	1.094509	7.37211e+06	-41039.1	1005.82	-29787.6	0.000000	0.000000	7.095216	0.300547	NaN	0.000000	0.001610	0.001715	28.0822	0.457211	0.001916	238.579	15.2482	-165.845	0.130614	1.093200	-0.027839	-0.029148	0.300547	238.579	-0.028784	-0.021299	-14.1111	NaN
721	2.000000	1.126587	7.37211e+06	-41039.1	1005.82	-29787.6	0.000000	0.000000	7.127675	9.593755	NaN	0.000000	0.001592	0.001694	28.082	9.659888	0.001835	5263.19	7.590609	9.582248	9.690276	1.126248	0.004238	0.003899	9.593755	5263.19	0.002871	0.002272	4222.83	100886
721	2.000000	1.137027	7.37211e+06	-41039.1	1005.82	-29787.6	0.000000	0.000000	7.138759	25.2603	NaN	0.000000	0.001574	0.001696	28.083	22.2289	0.001954	11375.3	11.2535	179.615	25.4999	1.136695	0.014678	0.014346	25.2603	11375.3	0.013013	0.012726	1984.94	92128.2
721	2.000000	1.147462	7.37211e+06	-41039.1	1005.82	-29787.6	0.000000	0.000000	7.150402	54.6608	NaN	0.000000	0.001584	0.001688	28.0834	31.8843	0.001797	17747.7	5.297628	-0.012476	52.3612	1.147109	0.025113	0.024760	54.6608	17747.7	0.022803	0.027140	2014.03	98426
721	2.000000	1.157963	7.37211e+06	-41039.1	1005.82	-29787.6	0.000000	0.000000	7.162302	88.6821	NaN	0.000000	0.001596	0.001738	28.0835	42.2468	0.001826	23142.1	6.983835	176.055	87.5081	1.157677	0.035615	0.035329	88.6821	23142.1	0.032741	0.046616	1902.38	97928
721	2.000000	1.168465	7.37211e+06	-41039.1	1005.82	-29787.6	0.000000	0.000000	7.174535	130.818	NaN	0.000000	0.001668	0.001726	28.0835	50.2387	0.001639	30647.8	2.323904	-1.755022	129.069	1.168170	0.046117	0.045822	130.818	30647.8	0.042915	0.071779	1822.5	104514
721	2.000000	1.178913	7.37211e+06	-41039.1	1005.82	-29787.6	0.000000	0.000000	7.187335	188.049	NaN	0.000000	0.001617	0.001758	28.0823	63.3232	0.001818	34835.4	8.824600	171.42	184.858	1.178574	0.056564	0.056226	188.049	34835.4	0.052515	0.100347	1874	100472
721	2.000000	1.189527	7.37211e+06	-41039.1	1005.82	-29787.6	0.000000	0.000000	7.199936	236.408	NaN	0.000000	0.001618	0.001730	28.0824	72.6115	0.001792	40518.4	6.038638	-7.696752	238.551	1.189231	0.067178	0.066882	236.408	40518.4	0.062802	0.136047	1737.69	100364
721	2.000000	1.199923	7.37211e+06	-41039.1	1005.82	-29787.6	0.000000	0.000000	7.213757	319.72	NaN	0.000000	0.001632	0.001727	28.0822	82.6913	0.001716	48201.6	3.124029	173.943	318.29	1.199533	0.077575	0.077184	319.72	48201.6	0.072600	0.174825	1828.8	105325
721	2.000000	1.210326	7.37211e+06	-41039.1	1005.82	-29787.6	0.000000	0.000000	7.227616	403.819	NaN	0.000000	0.001660	0.001755	28.0836	92.4181	0.001828	50564.1	4.229771	-7.269146	397.389	1.210038	0.087978	0.087689	403.819	50564.1	0.081988	0.216243	1867.44	99344.7
721	2.000000	1.220848	7.37211e+06	-41039.1	1005.82	-29787.6	0.000000	0.000000	7.241933	496.176	NaN	0.000000	0.001611	0.001754	28.0836	100.066	0.001816	55104	3.359460	173.685	494.773	1.220525	0.098499	0.098176	496.176	55104	0.091746	0.263631	1882.08	98052.4
721	2.000000	1.221981	7.37211e+06	-41039.1	1005.82	-29787.6	0.000000	0.000000	7.243315	502.235	NaN	0.000000	0.001626	0.001746	28.0835	101.645	0.001705	59619	5.820768	170.782	504.509	1.221515	0.099633	0.099166	502.235	59619	0.093315	0.271656	1848.79	104508