File: remote_trans/data/nanoindenter/0828-1/data/Data_2025-08-06,11h17m57s/2025-07-22_16-23-58_1_229.txt
2025-07-22, 16:23:58, 1
Index	Phase	Displacement	Time	Pos X	Pos Y	Pos Z	Rot A	Rot B	Piezo Z	Force A	Force B	Gripper	Voltage A	Voltage B	Temperature	Amplitude force	Amplitude pos	Stiffness	Phase shift	Phase excitation	Force A raw	Displacement raw	HMax	HMax raw	Real Force	Real Stiffness	Contact Depth	Area	Hardness	Reduced Mod.
[#]	[#]	[um]	[s]	[um]	[um]	[um]	[m°]	[m°]	[um]	[uN]	[uN]	[V]	[V]	[V]	[°C]	[uN]	[um]	[N/m]	[°]	[°]	[uN]	[um]	[um]	[um]	[uN]	[N/m]	[um]	[um^2]	[MPa]	[MPa]
229	1.000000	0.002249	7.36729e+06	-50089.1	955.817	-29757.3	0.000000	0.000000	6.002809	-0.002991	NaN	0.000000	0.001499	0.001616	28.0761	0.045841	0.001021	44.9154	-105.817	-159.789	-0.079451	0.001021	-1.039187	-1.040415	-0.002991	44.9154	-1.039137	-7.627138E+13	3.921637E-17	NaN
229	1.000000	0.042196	7.36729e+06	-50089.1	955.818	-29757.3	0.000000	0.000000	6.042753	-0.054437	NaN	0.000000	0.001525	0.001627	28.0758	0.074271	0.001986	37.3911	150.048	-162.944	0.050432	0.040898	-0.999240	-1.000537	-0.054437	37.3911	-0.998148	-2.142061E+13	2.541331E-15	NaN
229	1.000000	0.082201	7.36729e+06	-50089.1	955.818	-29757.3	0.000000	0.000000	6.082757	-0.104168	NaN	0.000000	0.001545	0.001567	28.0758	0.076511	0.002005	38.1538	-177.719	-166.209	-0.076483	0.080905	-0.959234	-0.960530	-0.104168	38.1538	-0.957187	-6.010895E+12	1.732990E-14	NaN
229	1.000000	0.122226	7.36729e+06	-50089.1	955.818	-29757.3	0.000000	0.000000	6.122785	-0.013625	NaN	0.000000	0.001560	0.001639	28.0757	0.078369	0.002172	36.0805	72.4037	-164.368	-0.067729	0.120903	-0.919210	-0.920532	-0.013625	36.0805	-0.918926	-1.831095E+12	7.441105E-15	NaN
229	1.000000	0.162221	7.36729e+06	-50089.1	955.818	-29757.3	0.000000	0.000000	6.162782	0.017749	NaN	0.000000	0.001544	0.001579	28.077	0.045686	0.001911	23.9018	7.872219	-165.718	-0.050545	0.160948	-0.879214	-0.880487	0.017749	23.9018	-0.879771	-5.415157E+11	-3.277727E-14	NaN
229	1.000000	0.202255	7.36729e+06	-50089.1	955.818	-29757.3	0.000000	0.000000	6.202814	-0.025471	NaN	0.000000	0.001600	0.001571	28.0774	0.080086	0.001931	41.4771	46.9983	-165.009	-0.053823	0.200982	-0.839181	-0.840453	-0.025471	41.4771	-0.838720	-1.506451E+11	1.690815E-13	NaN
229	1.000000	0.242288	7.36729e+06	-50089.1	955.819	-29757.3	0.000000	0.000000	6.242848	0.001428	NaN	0.000000	0.001521	0.001662	28.0773	0.107592	0.002003	53.7177	-132.447	-165.746	-0.072279	0.240959	-0.799147	-0.800477	0.001428	53.7177	-0.799167	-4.380864E+10	-3.258842E-14	NaN
229	1.000000	0.282275	7.36729e+06	-50089.1	955.818	-29757.3	0.000000	0.000000	6.282836	0.035060	NaN	0.000000	0.001569	0.001662	28.076	0.014974	0.001912	7.831419	166.751	-166.071	0.048477	0.280980	-0.759160	-0.760456	0.035060	7.831419	-0.762518	-1.391732E+10	-2.519128E-12	NaN
229	1.000000	0.322293	7.36729e+06	-50089.1	955.817	-29757.3	0.000000	0.000000	6.322851	-0.065345	NaN	0.000000	0.001599	0.001675	28.0759	0.056005	0.001935	28.9483	52.4707	-164.056	-0.070964	0.320940	-0.719142	-0.720495	-0.065345	28.9483	-0.717449	-3.385944E+9	1.929881E-11	NaN
229	1.000000	0.362310	7.36729e+06	-50089.1	955.818	-29757.3	0.000000	0.000000	6.362871	0.024336	NaN	0.000000	0.001632	0.001631	28.076	0.129170	0.002119	60.9625	-8.412030	-167.018	0.066675	0.360997	-0.679126	-0.680439	0.024336	60.9625	-0.679425	-1.024103E+9	-2.376349E-11	NaN
229	1.000000	0.402322	7.36729e+06	-50089.1	955.819	-29757.3	0.000000	0.000000	6.402883	0.042453	NaN	0.000000	0.001558	0.001638	28.0763	0.056022	0.002021	27.7177	41.338	-164.668	-0.046708	0.400993	-0.639114	-0.640443	0.042453	27.7177	-0.640262	-2.977769E+8	-1.425673E-10	NaN
229	1.000000	0.442355	7.36729e+06	-50089.1	955.819	-29757.3	0.000000	0.000000	6.442915	0.004995	NaN	0.000000	0.001558	0.001644	28.0776	0.134917	0.002023	66.6873	-170.368	-167.599	0.040165	0.441046	-0.599081	-0.600389	0.004995	66.6873	-0.599137	-8.101617E+7	-6.165407E-11	NaN
229	1.000000	0.482370	7.36729e+06	-50089.1	955.818	-29757.3	0.000000	0.000000	6.482932	0.048862	NaN	0.000000	0.001545	0.001692	28.0775	0.049378	0.002185	22.6033	178.245	-165.161	0.017923	0.481028	-0.559065	-0.560408	0.048862	22.6033	-0.560686	-2.387118E+7	-2.046914E-9	NaN
229	1.000000	0.522376	7.36729e+06	-50089.1	955.818	-29757.3	0.000000	0.000000	6.522936	0.017224	NaN	0.000000	0.001571	0.001693	28.0777	0.072682	0.002041	35.6098	74.6402	-165.85	0.043034	0.521052	-0.519060	-0.520383	0.017224	35.6098	-0.519423	-6.39097e+06	-2.694982E-9	NaN
229	1.000000	0.562395	7.36729e+06	-50089.1	955.818	-29757.3	0.000000	0.000000	6.562952	-0.052041	NaN	0.000000	0.001525	0.001670	28.0763	0.030802	0.001913	16.1052	19.2801	-168.707	0.017407	0.561027	-0.479041	-0.480408	-0.052041	16.1052	-0.476617	-1.61495e+06	3.222444E-8	NaN
229	1.000000	0.602441	7.36729e+06	-50089.1	955.818	-29757.3	0.000000	0.000000	6.603002	0.027537	NaN	0.000000	0.001581	0.001633	28.0762	0.036652	0.002102	17.4367	-153.31	-160.687	0.003144	0.601112	-0.438994	-0.440324	0.027537	17.4367	-0.440179	-496461	-5.546588E-8	NaN
229	1.000000	0.642443	7.36729e+06	-50089.1	955.819	-29757.3	0.000000	0.000000	6.643000	-0.065819	NaN	0.000000	0.001580	0.001751	28.0762	0.037104	0.001918	19.3408	30.7048	-167.347	-0.000471	0.641086	-0.398992	-0.400349	-0.065819	19.3408	-0.396440	-118905	5.535438E-7	NaN
229	1.000000	0.682444	7.36729e+06	-50089.1	955.819	-29757.3	0.000000	0.000000	6.683003	-0.022704	NaN	0.000000	0.001616	0.001738	28.0774	0.041843	0.002022	20.6928	33.0729	-165.494	0.010428	0.681185	-0.358991	-0.360251	-0.022704	20.6928	-0.358168	-33524.2	6.772512E-7	NaN
229	1.000000	0.722482	7.36729e+06	-50089.1	955.819	-29757.3	0.000000	0.000000	6.723043	-0.000361	NaN	0.000000	0.001542	0.001714	28.0772	0.068578	0.002060	33.2869	-72.2297	-165.576	0.006802	0.721175	-0.318953	-0.320260	-0.000361	33.2869	-0.318945	-8976.42	4.023422E-8	NaN
229	1.000000	0.762492	7.36729e+06	-50089.1	955.818	-29757.3	0.000000	0.000000	6.763051	-0.027314	NaN	0.000000	0.001594	0.001677	28.0773	0.024836	0.002108	11.7842	-126.965	-168.386	-0.007097	0.761180	-0.278943	-0.280255	-0.027314	11.7842	-0.277205	-2141.71	1.275353E-5	NaN
229	1.000000	0.802519	7.36729e+06	-50089.1	955.819	-29757.3	0.000000	0.000000	6.803078	-0.036286	NaN	0.000000	0.001581	0.001661	28.0771	0.110570	0.002062	53.6189	46.7562	-167.461	-0.015119	0.801204	-0.238916	-0.240231	-0.036286	53.6189	-0.238409	-542.848	6.684360E-5	NaN
229	1.000000	0.842556	7.36729e+06	-50089.1	955.819	-29757.3	0.000000	0.000000	6.843113	-0.071976	NaN	0.000000	0.001544	0.001641	28.076	0.053458	0.002061	25.9382	113.784	-165.859	-0.013741	0.841220	-0.198879	-0.200215	-0.071976	25.9382	-0.196798	-116.666	0.000617	NaN
229	1.000000	0.882522	7.36729e+06	-50089.1	955.819	-29757.3	0.000000	0.000000	6.883082	-0.000877	NaN	0.000000	0.001579	0.001662	28.0759	0.072389	0.001979	36.5776	121.131	-168.911	-0.004396	0.881294	-0.158914	-0.160142	-0.000877	36.5776	-0.158896	-26.2023	3.345571E-5	NaN
229	1.000000	0.922548	7.36729e+06	-50089.1	955.819	-29757.3	0.000000	0.000000	6.923109	0.027142	NaN	0.000000	0.001555	0.001685	28.0762	0.054897	0.001936	28.3497	-115.636	-162.963	0.031748	0.921205	-0.118887	-0.120230	0.027142	28.3497	-0.119605	-4.743623	-0.005722	NaN
229	1.000000	0.962565	7.36729e+06	-50089.1	955.818	-29757.3	0.000000	0.000000	6.963125	0.015617	NaN	0.000000	0.001565	0.001647	28.0774	0.075501	0.001902	39.6989	-89.0402	-164.941	-0.058589	0.961282	-0.078871	-0.080154	0.015617	39.6989	-0.079166	-0.589887	-0.026474	NaN
229	1.000000	1.002579	7.36729e+06	-50089.1	955.819	-29757.3	0.000000	0.000000	7.003138	-0.024570	NaN	0.000000	0.001578	0.001689	28.0777	0.033075	0.001827	18.1068	117.829	-168.811	-0.036854	1.001305	-0.038857	-0.040131	-0.024570	18.1068	-0.037839	-0.038906	0.631527	NaN
229	1.000000	1.042612	7.36729e+06	-50089.1	955.819	-29757.3	0.000000	0.000000	7.043187	0.369322	NaN	0.000000	0.001583	0.001653	28.078	0.742716	0.001889	393.102	13.0365	-165.52	-0.038397	1.041298	0.001176	-0.000137	0.369322	393.102	0.000472	0.000356	1037.82	19038.7
229	2.000000	1.059116	7.36729e+06	-50089.1	955.818	-29757.3	0.000000	0.000000	7.060417	18.012	NaN	0.000000	0.001583	0.001647	28.0777	17.5886	0.001977	8898.44	11.8117	-178.765	18.5205	1.058783	0.017681	0.017348	18.012	8898.44	0.016163	0.016867	1067.86	62598.6
229	2.000000	1.069024	7.36729e+06	-50089.1	955.819	-29757.3	0.000000	0.000000	7.071090	36.6086	NaN	0.000000	0.001597	0.001654	28.0767	26.8575	0.001747	15369.8	1.976808	-175.165	34.2482	1.068760	0.027589	0.027325	36.6086	15369.8	0.025802	0.032492	1126.71	77903.4
229	2.000000	1.079010	7.36729e+06	-50089.1	955.818	-29757.3	0.000000	0.000000	7.082163	63.0613	NaN	0.000000	0.001565	0.001678	28.0765	36.5244	0.001794	20364.9	2.531363	-178.903	60.9091	1.078757	0.037574	0.037321	63.0613	20364.9	0.035252	0.052334	1204.97	81332.1
229	2.000000	1.089053	7.36729e+06	-50089.1	955.818	-29757.3	0.000000	0.000000	7.093703	99.4481	NaN	0.000000	0.001598	0.001653	28.0769	46.0383	0.001769	26030.3	5.369211	175.795	100.707	1.088799	0.047618	0.047364	99.4481	26030.3	0.044753	0.076887	1293.44	85768.3
229	2.000000	1.099054	7.36729e+06	-50089.1	955.817	-29757.3	0.000000	0.000000	7.105260	137.283	NaN	0.000000	0.001589	0.001635	28.0777	55.9008	0.001739	32146.7	4.920563	175.283	139.947	1.098749	0.057619	0.057314	137.283	32146.7	0.054416	0.106550	1288.44	89977.3
229	2.000000	1.109008	7.36729e+06	-50089.1	955.818	-29757.3	0.000000	0.000000	7.117146	184.299	NaN	0.000000	0.001569	0.001674	28.0776	65.7497	0.001793	36661.7	3.035922	175.706	185.63	1.108800	0.067572	0.067365	184.299	36661.7	0.063802	0.139794	1318.36	89586.3
229	2.000000	1.118980	7.36729e+06	-50089.1	955.819	-29757.3	0.000000	0.000000	7.129156	233.86	NaN	0.000000	0.001564	0.001687	28.0776	74.5365	0.001936	38496.5	4.836692	173.846	232.714	1.118742	0.077544	0.077307	233.86	38496.5	0.072988	0.176455	1325.32	83729.3
229	2.000000	1.129020	7.36729e+06	-50089.1	955.818	-29757.3	0.000000	0.000000	7.142172	306.219	NaN	0.000000	0.001569	0.001668	28.0761	83.7278	0.001784	46930.3	7.485918	169.806	311.027	1.128612	0.087585	0.087177	306.219	46930.3	0.082691	0.219509	1395.01	91516.5
229	2.000000	1.138921	7.36729e+06	-50089.1	955.819	-29757.3	0.000000	0.000000	7.155310	384.953	NaN	0.000000	0.001557	0.001678	28.0762	93.2435	0.001795	51946.7	2.643762	173.628	381.846	1.138705	0.097485	0.097270	384.953	51946.7	0.091927	0.264553	1455.11	92273.2
229	2.000000	1.148976	7.36729e+06	-50089.1	955.819	-29757.3	0.000000	0.000000	7.168714	466.387	NaN	0.000000	0.001612	0.001681	28.0764	102.802	0.001782	57676.5	4.836124	170.829	467.25	1.148763	0.107540	0.107328	466.387	57676.5	0.101476	0.315221	1479.56	93856.7
229	2.000000	1.149885	7.36729e+06	-50089.1	955.819	-29757.3	0.000000	0.000000	7.170331	483.596	NaN	0.000000	0.001605	0.001702	28.0762	102.505	0.001813	56541.4	5.699705	170.8	482.006	1.149475	0.108450	0.108040	483.596	56541.4	0.102035	0.318319	1519.22	91560.6