File: remote_trans/data/nanoindenter/0828-1/data/Data_2025-08-06,11h17m57s/2025-07-22_16-23-58_1_65.txt
2025-07-22, 16:23:58, 1
Index	Phase	Displacement	Time	Pos X	Pos Y	Pos Z	Rot A	Rot B	Piezo Z	Force A	Force B	Gripper	Voltage A	Voltage B	Temperature	Amplitude force	Amplitude pos	Stiffness	Phase shift	Phase excitation	Force A raw	Displacement raw	HMax	HMax raw	Real Force	Real Stiffness	Contact Depth	Area	Hardness	Reduced Mod.
[#]	[#]	[um]	[s]	[um]	[um]	[um]	[m°]	[m°]	[um]	[uN]	[uN]	[V]	[V]	[V]	[°C]	[uN]	[um]	[N/m]	[°]	[°]	[uN]	[um]	[um]	[um]	[uN]	[N/m]	[um]	[um^2]	[MPa]	[MPa]
65	1.000000	0.002279	7.36568e+06	-41889.1	955.818	-29784.6	0.000000	0.000000	6.002830	0.056425	NaN	0.000000	0.001565	0.001640	28.0946	0.076122	0.000959	79.3436	160.465	-169.25	-0.001054	0.000986	-1.788162	-1.789455	0.056425	79.3436	-1.788695	-7.658124E+23	-7.367933E-26	NaN
65	1.000000	0.062233	7.36568e+06	-41889.1	955.819	-29784.6	0.000000	0.000000	6.062783	0.023546	NaN	0.000000	0.001588	0.001669	28.102	0.063011	0.002057	30.6279	-87.1681	-164.071	0.049140	0.060920	-1.728208	-1.729521	0.023546	30.6279	-1.728785	-1.226766E+23	-1.919381E-25	NaN
65	1.000000	0.122248	7.36568e+06	-41889.1	955.818	-29784.6	0.000000	0.000000	6.122796	-0.025959	NaN	0.000000	0.001613	0.001676	28.092	0.037580	0.001929	19.4769	-127.157	-163.972	0.011399	0.120945	-1.668193	-1.669496	-0.025959	19.4769	-1.667193	-1.864397E+22	1.392349E-24	NaN
65	1.000000	0.182251	7.36568e+06	-41889.1	955.818	-29784.6	0.000000	0.000000	6.182801	0.032308	NaN	0.000000	0.001593	0.001652	28.0991	0.055459	0.002123	26.1275	99.8864	-163.137	0.077426	0.180942	-1.608190	-1.609499	0.032308	26.1275	-1.609118	-3.151275E+21	-1.025227E-23	NaN
65	1.000000	0.242270	7.36568e+06	-41889.1	955.819	-29784.6	0.000000	0.000000	6.242822	0.072653	NaN	0.000000	0.001622	0.001667	28.095	0.067402	0.001963	34.3306	-50.4114	-166.767	0.129154	0.241021	-1.548170	-1.549420	0.072653	34.3306	-1.549758	-5.114117E+20	-1.420634E-22	NaN
65	1.000000	0.302287	7.36568e+06	-41889.1	955.818	-29784.6	0.000000	0.000000	6.302839	0.077682	NaN	0.000000	0.001648	0.001624	28.1007	0.126347	0.002116	59.7152	96.1775	-165.765	0.111054	0.300999	-1.488154	-1.489442	0.077682	59.7152	-1.489129	-7.971149E+19	-9.745443E-22	NaN
65	1.000000	0.362345	7.36568e+06	-41889.1	955.818	-29784.6	0.000000	0.000000	6.362893	-0.008598	NaN	0.000000	0.001665	0.001677	28.0942	0.038213	0.002077	18.3985	11.996	-163.865	0.010764	0.360995	-1.428096	-1.429446	-0.008598	18.3985	-1.427746	-1.211951E+19	7.094051E-22	NaN
65	1.000000	0.422353	7.36568e+06	-41889.1	955.818	-29784.6	0.000000	0.000000	6.422904	0.032505	NaN	0.000000	0.001575	0.001645	28.0976	0.118495	0.002017	58.7586	-22.9461	-165.884	0.031892	0.421013	-1.368087	-1.369428	0.032505	58.7586	-1.368502	-1.964285E+18	-1.654817E-20	NaN
65	1.000000	0.482376	7.36568e+06	-41889.1	955.819	-29784.6	0.000000	0.000000	6.482923	-0.043041	NaN	0.000000	0.001554	0.001707	28.0947	0.074369	0.001894	39.2572	2.657543	-163.865	-0.016112	0.481096	-1.308064	-1.309345	-0.043041	39.2572	-1.307242	-2.986528E+17	1.441160E-19	NaN
65	1.000000	0.542429	7.36568e+06	-41889.1	955.818	-29784.6	0.000000	0.000000	6.542980	0.045989	NaN	0.000000	0.001582	0.001671	28.0992	0.089673	0.001971	45.5067	-21.2684	-165.763	0.099393	0.541126	-1.248012	-1.249315	0.045989	45.5067	-1.248770	-4.937042E+16	-9.315151E-19	NaN
65	1.000000	0.602432	7.36568e+06	-41889.1	955.819	-29784.6	0.000000	0.000000	6.602984	0.063578	NaN	0.000000	0.001593	0.001649	28.0959	0.070942	0.002016	35.1854	-31.8403	-168.634	0.067029	0.601109	-1.188009	-1.189332	0.063578	35.1854	-1.189364	-7.912313E+15	-8.035327E-18	NaN
65	1.000000	0.662435	7.36568e+06	-41889.1	955.818	-29784.5	0.000000	0.000000	6.662984	0.006107	NaN	0.000000	0.001576	0.001688	28.0979	0.070357	0.002007	35.0548	44.2099	-164.231	0.007254	0.661095	-1.128006	-1.129345	0.006107	35.0548	-1.128137	-1.195714E+15	-5.107617E-18	NaN
65	1.000000	0.722488	7.36568e+06	-41889.1	955.819	-29784.5	0.000000	0.000000	6.723042	0.114881	NaN	0.000000	0.001554	0.001683	28.0959	0.034549	0.001999	17.2861	-98.5964	-160.643	0.144120	0.721158	-1.067952	-1.069282	0.114881	17.2861	-1.072937	-2.170919E+14	-5.291809E-16	NaN
65	1.000000	0.782504	7.36568e+06	-41889.1	955.818	-29784.5	0.000000	0.000000	6.783057	0.095130	NaN	0.000000	0.001518	0.001624	28.0971	0.201934	0.002136	94.5386	-111.881	-162.611	0.061259	0.781149	-1.007937	-1.009292	0.095130	94.5386	-1.008692	-2.970100E+13	-3.202914E-15	NaN
65	1.000000	0.842549	7.36568e+06	-41889.1	955.818	-29784.5	0.000000	0.000000	6.843097	-0.023969	NaN	0.000000	0.001561	0.001654	28.0971	0.021877	0.001936	11.2996	-135.64	-161.07	0.000389	0.841246	-0.947891	-0.949195	-0.023969	11.2996	-0.946300	-4.286771E+12	5.591433E-15	NaN
65	1.000000	0.902534	7.36568e+06	-41889.1	955.818	-29784.5	0.000000	0.000000	6.903084	0.028633	NaN	0.000000	0.001544	0.001687	28.0967	0.060873	0.001978	30.7809	177.648	-168.08	-0.028454	0.901270	-0.887907	-0.889171	0.028633	30.7809	-0.888604	-7.129329E+11	-4.016287E-14	NaN
65	1.000000	0.962561	7.36568e+06	-41889.1	955.817	-29784.5	0.000000	0.000000	6.963110	0.010284	NaN	0.000000	0.001501	0.001696	28.0975	0.061425	0.002069	29.6921	-68.4169	-163.316	0.085033	0.961307	-0.827880	-0.829134	0.010284	29.6921	-0.828140	-1.082858E+11	-9.497004E-14	NaN
65	1.000000	1.022580	7.36568e+06	-41889.1	955.819	-29784.5	0.000000	0.000000	7.023129	0.000298	NaN	0.000000	0.001521	0.001657	28.0963	0.078654	0.001984	39.6486	84.6436	-164.862	-0.104253	1.021298	-0.767861	-0.769143	0.000298	39.6486	-0.767867	-1.645506E+10	-1.810663E-14	NaN
65	1.000000	1.082638	7.36568e+06	-41889.1	955.819	-29784.5	0.000000	0.000000	7.083186	-0.021994	NaN	0.000000	0.001598	0.001692	28.0985	0.077192	0.001956	39.4557	150.013	-167.576	-0.034312	1.081305	-0.707802	-0.709136	-0.021994	39.4557	-0.707384	-2.468026E+9	8.911643E-12	NaN
65	1.000000	1.142626	7.36568e+06	-41889.1	955.819	-29784.5	0.000000	0.000000	7.143176	0.008112	NaN	0.000000	0.001562	0.001701	28.0966	0.021997	0.001893	11.6209	-110.316	-163.14	-0.019115	1.141365	-0.647814	-0.649076	0.008112	11.6209	-0.648338	-3.842827E+8	-2.111004E-11	NaN
65	1.000000	1.202681	7.36568e+06	-41889.1	955.82	-29784.5	0.000000	0.000000	7.203230	-0.007212	NaN	0.000000	0.001592	0.001706	28.0992	0.083220	0.001985	41.9244	-44.3315	-162.606	0.003192	1.201401	-0.587759	-0.589040	-0.007212	41.9244	-0.587630	-5.623321E+7	1.282531E-10	NaN
65	1.000000	1.262702	7.36568e+06	-41889.1	955.82	-29784.5	0.000000	0.000000	7.263252	0.027412	NaN	0.000000	0.001556	0.001711	28.0953	0.092176	0.002114	43.595	118.726	-167.313	-0.049327	1.261453	-0.527739	-0.528988	0.027412	43.595	-0.528210	-8.46671e+06	-3.237665E-9	NaN
65	1.000000	1.322708	7.36568e+06	-41889.1	955.819	-29784.5	0.000000	0.000000	7.323258	0.045943	NaN	0.000000	0.001611	0.001755	28.0979	0.071178	0.002029	35.0778	-162.621	-167.256	-0.045404	1.321432	-0.467733	-0.469008	0.045943	35.0778	-0.468716	-1.25139e+06	-3.671354E-8	NaN
65	1.000000	1.382774	7.36568e+06	-41889.1	955.82	-29784.5	0.000000	0.000000	7.383323	-0.016575	NaN	0.000000	0.001540	0.001747	28.094	0.072829	0.001925	37.837	-77.6043	-166.107	0.013641	1.381437	-0.407667	-0.409004	-0.016575	37.837	-0.407338	-170032	9.748283E-8	NaN
65	1.000000	1.442790	7.36568e+06	-41889.1	955.82	-29784.5	0.000000	0.000000	7.443339	-0.010962	NaN	0.000000	0.001583	0.001728	28.1016	0.025888	0.002087	12.4046	-15.6174	-167.282	0.016392	1.441510	-0.347651	-0.348931	-0.010962	12.4046	-0.346988	-23081	4.749481E-7	NaN
65	1.000000	1.502804	7.36568e+06	-41889.1	955.82	-29784.5	0.000000	0.000000	7.503353	0.009022	NaN	0.000000	0.001541	0.001718	28.0935	0.113429	0.002000	56.7042	-145.572	-165.077	-0.007297	1.501542	-0.287637	-0.288899	0.009022	56.7042	-0.287756	-3087.9	-2.921672E-6	NaN
65	1.000000	1.562847	7.36568e+06	-41889.1	955.82	-29784.5	0.000000	0.000000	7.563399	0.077489	NaN	0.000000	0.001538	0.001720	28.0997	0.028561	0.002035	14.032	116.671	-165.529	-0.030529	1.561498	-0.227594	-0.228943	0.077489	14.032	-0.231735	-426.474	-0.000182	NaN
65	1.000000	1.622882	7.36568e+06	-41889.1	955.819	-29784.5	0.000000	0.000000	7.623430	-0.010385	NaN	0.000000	0.001625	0.001769	28.0934	0.148058	0.002067	71.627	-175.898	-167.531	0.062988	1.621591	-0.167559	-0.168850	-0.010385	71.627	-0.167450	-37.0861	0.000280	NaN
65	1.000000	1.682902	7.36568e+06	-41889.1	955.82	-29784.5	0.000000	0.000000	7.683452	0.038557	NaN	0.000000	0.001644	0.001696	28.1023	0.033041	0.001889	17.4935	79.6225	-164.213	0.067867	1.681598	-0.107539	-0.108843	0.038557	17.4935	-0.109192	-2.889372	-0.013344	NaN
65	1.000000	1.742913	7.36569e+06	-41889.1	955.82	-29784.5	0.000000	0.000000	7.743464	0.046108	NaN	0.000000	0.001632	0.001740	28.0929	0.115102	0.002022	56.9376	173.21	-167.784	0.019109	1.741625	-0.047527	-0.048815	0.046108	56.9376	-0.048135	-0.080104	-0.575600	NaN
65	2.000000	1.800593	7.36569e+06	-41889.1	955.82	-29784.5	0.000000	0.000000	7.801465	7.852321	NaN	0.000000	0.001624	0.001753	28.1004	8.560492	0.001711	5002.6	5.296033	-169.011	7.493635	1.800299	0.010152	0.009858	7.852321	5002.6	0.008975	0.008065	973.672	50895.2
65	2.000000	1.815510	7.36569e+06	-41889.1	955.819	-29784.5	0.000000	0.000000	7.817626	38.1195	NaN	0.000000	0.001574	0.001768	28.0924	24.193	0.001732	13965.5	6.990662	-179.141	39.3507	1.815210	0.025069	0.024769	38.1195	13965.5	0.023022	0.027515	1385.39	76920.3
65	2.000000	1.830445	7.36569e+06	-41889.1	955.82	-29784.5	0.000000	0.000000	7.834413	83.1798	NaN	0.000000	0.001563	0.001729	28.1038	38.2044	0.001795	21288.1	5.277529	178.245	81.7696	1.830123	0.040005	0.039682	83.1798	21288.1	0.037074	0.056686	1467.39	81690.7
65	2.000000	1.845356	7.36569e+06	-41889.1	955.82	-29784.5	0.000000	0.000000	7.851950	147.095	NaN	0.000000	0.001536	0.001771	28.0944	49.9953	0.001771	28225.8	1.132145	-179.562	143.777	1.845162	0.054915	0.054721	147.095	28225.8	0.051007	0.095550	1539.46	83426.5
65	2.000000	1.860380	7.36569e+06	-41889.1	955.819	-29784.5	0.000000	0.000000	7.869969	219.952	NaN	0.000000	0.001666	0.001744	28.1018	64.8644	0.001799	36064.4	5.148642	174.447	217.644	1.860154	0.069939	0.069713	219.952	36064.4	0.065365	0.145747	1509.13	86308
65	2.000000	1.875455	7.36569e+06	-41889.1	955.819	-29784.5	0.000000	0.000000	7.888717	309.347	NaN	0.000000	0.001641	0.001688	28.0909	77.1872	0.001864	41407.1	4.901576	173.811	310.691	1.875087	0.085014	0.084646	309.347	41407.1	0.079411	0.204462	1512.98	83664.5
65	2.000000	1.890409	7.36569e+06	-41889.1	955.819	-29784.5	0.000000	0.000000	7.907786	409.454	NaN	0.000000	0.001646	0.001718	28.1037	91.2406	0.001838	49630.5	3.614683	173.704	411.891	1.890112	0.099969	0.099672	409.454	49630.5	0.093781	0.274064	1494.01	86615.6
65	2.000000	1.898362	7.36569e+06	-41889.1	955.82	-29784.5	0.000000	0.000000	7.918313	472.094	NaN	0.000000	0.001662	0.001746	28.1036	98.0662	0.001942	50490.8	1.743423	175.522	469.991	1.898002	0.107921	0.107561	472.094	50490.8	0.100909	0.312096	1512.66	82573.6