File: remote_trans/data/nanoindenter/0828-1/data/Data_2025-08-06,11h17m57s/2025-07-22_16-23-58_1_479.txt
2025-07-22, 16:23:58, 1
Index	Phase	Displacement	Time	Pos X	Pos Y	Pos Z	Rot A	Rot B	Piezo Z	Force A	Force B	Gripper	Voltage A	Voltage B	Temperature	Amplitude force	Amplitude pos	Stiffness	Phase shift	Phase excitation	Force A raw	Displacement raw	HMax	HMax raw	Real Force	Real Stiffness	Contact Depth	Area	Hardness	Reduced Mod.
[#]	[#]	[um]	[s]	[um]	[um]	[um]	[m°]	[m°]	[um]	[uN]	[uN]	[V]	[V]	[V]	[°C]	[uN]	[um]	[N/m]	[°]	[°]	[uN]	[um]	[um]	[um]	[uN]	[N/m]	[um]	[um^2]	[MPa]	[MPa]
479	1.000000	0.002663	7.36974e+06	-53139.1	1005.82	-29747.3	0.000000	0.000000	6.002835	0.056814	NaN	0.000000	0.001594	0.001762	28.0807	0.020082	0.001006	19.9571	143.717	-163.975	0.080316	0.001425	-1.048764	-1.050002	0.056814	19.9571	-1.050899	-1.097743E+14	-5.175566E-16	NaN
479	1.000000	0.042621	7.36974e+06	-53139.1	1005.82	-29747.3	0.000000	0.000000	6.042792	0.037341	NaN	0.000000	0.001582	0.001743	28.0808	0.039985	0.001990	20.0957	153.175	-164.245	0.012340	0.041292	-1.008806	-1.010135	0.037341	20.0957	-1.010200	-3.112223E+13	-1.199833E-15	NaN
479	1.000000	0.082571	7.36974e+06	-53139.1	1005.82	-29747.3	0.000000	0.000000	6.082744	0.080254	NaN	0.000000	0.001584	0.001682	28.0819	0.099628	0.002056	48.4463	-147.303	-165.199	0.075077	0.081316	-0.968856	-0.970111	0.080254	48.4463	-0.970098	-8.973974E+12	-8.943014E-15	NaN
479	1.000000	0.122602	7.36974e+06	-53139.1	1005.82	-29747.3	0.000000	0.000000	6.122773	0.030032	NaN	0.000000	0.001627	0.001702	28.0818	0.015642	0.001955	8.002338	130.646	-164.419	0.026647	0.121281	-0.928825	-0.930146	0.030032	8.002338	-0.931640	-2.718508E+12	-1.104720E-14	NaN
479	1.000000	0.162613	7.36974e+06	-53139.1	1005.82	-29747.3	0.000000	0.000000	6.162785	0.053569	NaN	0.000000	0.001569	0.001717	28.0817	0.092853	0.002016	46.0511	-119.712	-163.873	0.109930	0.161310	-0.888814	-0.890117	0.053569	46.0511	-0.889687	-7.373618E+11	-7.264972E-14	NaN
479	1.000000	0.202660	7.36974e+06	-53139.1	1005.82	-29747.3	0.000000	0.000000	6.202830	-0.008741	NaN	0.000000	0.001619	0.001722	28.0804	0.069555	0.001984	35.0606	59.2178	-165.853	-0.055087	0.201317	-0.848767	-0.850110	-0.008741	35.0606	-0.848580	-2.048815E+11	4.266177E-14	NaN
479	1.000000	0.242624	7.36974e+06	-53139.1	1005.82	-29747.3	0.000000	0.000000	6.242796	0.066275	NaN	0.000000	0.001617	0.001744	28.0804	0.065119	0.002056	31.6654	15.2663	-164.876	0.064005	0.241397	-0.808803	-0.810030	0.066275	31.6654	-0.810373	-6.217724E+10	-1.065899E-12	NaN
479	1.000000	0.282655	7.36974e+06	-53139.1	1005.82	-29747.3	0.000000	0.000000	6.282826	0.015183	NaN	0.000000	0.001633	0.001717	28.0804	0.063397	0.002059	30.793	-78.3592	-164.677	-0.017854	0.281326	-0.768771	-0.770101	0.015183	30.793	-0.769141	-1.712496E+10	-8.866053E-13	NaN
479	1.000000	0.322694	7.36974e+06	-53139.1	1005.82	-29747.3	0.000000	0.000000	6.322861	-0.061090	NaN	0.000000	0.001601	0.001715	28.0811	0.059435	0.001979	30.0317	-140.978	-162.222	0.047877	0.321379	-0.728733	-0.730048	-0.061090	30.0317	-0.727207	-4.599839E+9	1.328090E-11	NaN
479	1.000000	0.362688	7.36974e+06	-53139.1	1005.82	-29747.3	0.000000	0.000000	6.362859	0.043029	NaN	0.000000	0.001634	0.001729	28.0818	0.137858	0.002042	67.4994	164.684	-163.7	0.074151	0.361394	-0.688739	-0.690032	0.043029	67.4994	-0.689217	-1.393870E+9	-3.087046E-11	NaN
479	1.000000	0.402736	7.36974e+06	-53139.1	1005.82	-29747.3	0.000000	0.000000	6.402904	-0.043075	NaN	0.000000	0.001666	0.001709	28.0822	0.061966	0.002083	29.7446	146.314	-167.876	-0.010896	0.401424	-0.648691	-0.650003	-0.043075	29.7446	-0.647605	-3.754872E+8	1.147182E-10	NaN
479	1.000000	0.442744	7.36974e+06	-53139.1	1005.82	-29747.3	0.000000	0.000000	6.442914	0.008139	NaN	0.000000	0.001597	0.001739	28.0818	0.025272	0.002014	12.547	107.897	-165.772	0.039685	0.441436	-0.608683	-0.609991	0.008139	12.547	-0.609170	-1.113503E+8	-7.309295E-11	NaN
479	1.000000	0.482731	7.36974e+06	-53139.1	1005.82	-29747.3	0.000000	0.000000	6.482902	0.024133	NaN	0.000000	0.001665	0.001724	28.0804	0.036854	0.002021	18.2372	63.7391	-165.292	-0.052487	0.481454	-0.568696	-0.569972	0.024133	18.2372	-0.569688	-3.179264E+7	-7.590658E-10	NaN
479	1.000000	0.522753	7.36974e+06	-53139.1	1005.82	-29747.3	0.000000	0.000000	6.522922	-0.024196	NaN	0.000000	0.001534	0.001725	28.0805	0.074844	0.001996	37.4946	-20.8266	-166.068	-0.058802	0.521449	-0.528674	-0.529978	-0.024196	37.4946	-0.528190	-8.46125e+06	2.859632E-9	NaN
479	1.000000	0.562806	7.36974e+06	-53139.1	1005.82	-29747.3	0.000000	0.000000	6.562974	-0.056302	NaN	0.000000	0.001531	0.001773	28.0806	0.041448	0.001970	21.035	-121.519	-165.57	-0.069298	0.561482	-0.488620	-0.489945	-0.056302	21.035	-0.486613	-2.22868e+06	2.526234E-8	NaN
479	1.000000	0.602820	7.36974e+06	-53139.1	1005.82	-29747.3	0.000000	0.000000	6.602992	0.060860	NaN	0.000000	0.001543	0.001704	28.0817	0.046313	0.001995	23.2097	141.958	-166.704	-0.000700	0.601469	-0.448607	-0.449958	0.060860	23.2097	-0.450573	-695689	-8.748098E-8	NaN
479	1.000000	0.642841	7.36974e+06	-53139.1	1005.82	-29747.3	0.000000	0.000000	6.643010	-0.019679	NaN	0.000000	0.001583	0.001704	28.0818	0.070424	0.002116	33.2857	102.843	-164.407	0.012987	0.641459	-0.408586	-0.409967	-0.019679	33.2857	-0.408143	-174576	1.127254E-7	NaN
479	1.000000	0.682830	7.36974e+06	-53139.1	1005.82	-29747.3	0.000000	0.000000	6.683000	0.024951	NaN	0.000000	0.001534	0.001715	28.0817	0.044825	0.002088	21.4631	-16.8315	-162.823	0.083803	0.681533	-0.368597	-0.369894	0.024951	21.4631	-0.369469	-48807	-5.112237E-7	NaN
479	1.000000	0.722865	7.36974e+06	-53139.1	1005.82	-29747.3	0.000000	0.000000	6.723033	-0.033518	NaN	0.000000	0.001549	0.001707	28.0817	0.101014	0.002205	45.8076	6.537039	-165.582	0.051449	0.721528	-0.328562	-0.329899	-0.033518	45.8076	-0.328013	-12199.5	2.747479E-6	NaN
479	1.000000	0.762894	7.36974e+06	-53139.1	1005.82	-29747.3	0.000000	0.000000	6.763065	0.044849	NaN	0.000000	0.001516	0.001702	28.0805	0.051044	0.002117	24.1097	-83.0487	-166.695	0.117034	0.761579	-0.288533	-0.289848	0.044849	24.1097	-0.289928	-3328.35	-1.347501E-5	NaN
479	1.000000	0.802872	7.36974e+06	-53139.1	1005.82	-29747.3	0.000000	0.000000	6.803043	0.026941	NaN	0.000000	0.001560	0.001734	28.0805	0.042945	0.002057	20.874	-31.7567	-168.706	-0.011005	0.801595	-0.248555	-0.249832	0.026941	20.874	-0.249523	-808.318	-3.332959E-5	NaN
479	1.000000	0.842879	7.36974e+06	-53139.1	1005.82	-29747.3	0.000000	0.000000	6.843050	0.023927	NaN	0.000000	0.001586	0.001717	28.0804	0.089788	0.002011	44.6445	168.238	-165.995	0.027796	0.841614	-0.208548	-0.209813	0.023927	44.6445	-0.208950	-184.417	-0.000130	NaN
479	1.000000	0.882961	7.36974e+06	-53139.1	1005.82	-29747.3	0.000000	0.000000	6.883132	0.028360	NaN	0.000000	0.001615	0.001719	28.0816	0.022679	0.002080	10.9057	66.9322	-166.232	-0.015950	0.881622	-0.168465	-0.169805	0.028360	10.9057	-0.170416	-41.7668	-0.000679	NaN
479	1.000000	0.922950	7.36974e+06	-53139.1	1005.82	-29747.3	0.000000	0.000000	6.923119	-0.000727	NaN	0.000000	0.001609	0.001716	28.0819	0.160870	0.001948	82.5992	-104.573	-162.872	0.044055	0.921654	-0.128477	-0.129773	-0.000727	82.5992	-0.128471	-7.115822	0.000102	NaN
479	1.000000	0.962979	7.36974e+06	-53139.1	1005.82	-29747.3	0.000000	0.000000	6.963149	0.004598	NaN	0.000000	0.001606	0.001703	28.0818	0.044850	0.001946	23.0443	159.269	-167.771	0.023706	0.961652	-0.088448	-0.089775	0.004598	23.0443	-0.088598	-1.001774	-0.004590	NaN
479	1.000000	1.002990	7.36974e+06	-53139.1	1005.82	-29747.3	0.000000	0.000000	7.003159	-0.020897	NaN	0.000000	0.001562	0.001660	28.0818	0.068648	0.001973	34.7916	103.53	-167.813	0.003586	1.001631	-0.048436	-0.049796	-0.020897	34.7916	-0.047986	-0.079273	0.263605	NaN
479	1.000000	1.042983	7.36974e+06	-53139.1	1005.82	-29747.3	0.000000	0.000000	7.043152	-0.020384	NaN	0.000000	0.001662	0.001703	28.0804	0.101933	0.001994	51.1091	36.0626	-164.07	-0.063694	1.041715	-0.008444	-0.009712	-0.020384	51.1091	-0.008145	-0.005316	3.834269	NaN
479	2.000000	1.061498	7.36974e+06	-53139.1	1005.82	-29747.3	0.000000	0.000000	7.062556	21.5796	NaN	0.000000	0.001669	0.001721	28.0806	16.956	0.001837	9228.96	7.765864	-177.35	21.4016	1.061237	0.010072	0.009810	21.5796	9228.96	0.008318	0.007371	2927.51	98209.4
479	2.000000	1.071410	7.36974e+06	-53139.1	1005.82	-29747.3	0.000000	0.000000	7.073579	48.6133	NaN	0.000000	0.001683	0.001738	28.0805	26.5469	0.001859	14281.6	5.591031	-179.557	46.4632	1.071164	0.019983	0.019738	48.6133	14281.6	0.017430	0.018663	2604.74	95511
479	2.000000	1.081421	7.36974e+06	-53139.1	1005.82	-29747.3	0.000000	0.000000	7.084797	77.9454	NaN	0.000000	0.001707	0.001705	28.0817	35.9136	0.001835	19567.4	5.676703	178.292	77.6386	1.081124	0.029994	0.029697	77.9454	19567.4	0.027007	0.034768	2241.9	95877.9
479	2.000000	1.091387	7.36974e+06	-53139.1	1005.82	-29747.3	0.000000	0.000000	7.096386	117.417	NaN	0.000000	0.001614	0.001713	28.0816	44.4002	0.001923	23083.6	1.336631	-179.557	114.724	1.091184	0.039960	0.039757	117.417	23083.6	0.036145	0.054446	2156.58	90384.4
479	2.000000	1.101364	7.36974e+06	-53139.1	1005.82	-29747.3	0.000000	0.000000	7.108419	167.391	NaN	0.000000	0.001612	0.001733	28.0818	53.0877	0.001816	29229.5	3.350443	176.555	164.906	1.101022	0.049937	0.049595	167.391	29229.5	0.045642	0.079421	2107.62	94760.3
479	2.000000	1.111383	7.36974e+06	-53139.1	1005.82	-29747.3	0.000000	0.000000	7.120487	217.214	NaN	0.000000	0.001605	0.001695	28.0806	63.1353	0.001799	35097.7	3.241115	175.242	216.37	1.111102	0.059956	0.059675	217.214	35097.7	0.055314	0.109544	1982.89	96885.3
479	2.000000	1.121405	7.36974e+06	-53139.1	1005.82	-29747.3	0.000000	0.000000	7.133056	279.147	NaN	0.000000	0.001612	0.001689	28.0804	73.4777	0.001816	40461	7.292836	169.901	279.045	1.121129	0.069978	0.069702	279.147	40461	0.064804	0.143596	1943.97	97552.4
479	2.000000	1.131340	7.36974e+06	-53139.1	1005.82	-29747.3	0.000000	0.000000	7.145879	349.35	NaN	0.000000	0.001594	0.001709	28.0804	81.7544	0.001877	43557.9	1.506269	175.744	346.213	1.131026	0.079913	0.079599	349.35	43557.9	0.073898	0.180306	1937.54	93720.6
479	2.000000	1.141384	7.36975e+06	-53139.1	1005.82	-29747.3	0.000000	0.000000	7.159005	424.289	NaN	0.000000	0.001603	0.001712	28.0803	91.995	0.001846	49829.1	4.498298	171.657	424.066	1.141045	0.089957	0.089618	424.289	49829.1	0.083571	0.223633	1897.25	96269.3
479	2.000000	1.151335	7.36975e+06	-53139.1	1005.82	-29747.3	0.000000	0.000000	7.172272	504.913	NaN	0.000000	0.001619	0.001754	28.0816	98.5634	0.001668	59087	2.779403	172.342	504.355	1.151095	0.099908	0.099668	504.913	59087	0.093499	0.272606	1852.17	103394
479	2.000000	1.152777	7.36975e+06	-53139.1	1005.82	-29747.3	0.000000	0.000000	7.174769	530.557	NaN	0.000000	0.001624	0.001726	28.082	100.936	0.001820	55461.4	7.726102	-12.0208	523.565	1.152369	0.101350	0.100942	530.557	55461.4	0.094175	0.276108	1921.56	96432.9