File: remote_trans/data/nanoindenter/0828-1/data/Data_2025-08-06,11h17m57s/2025-07-22_16-23-58_1_152.txt
2025-07-22, 16:23:58, 1
Index	Phase	Displacement	Time	Pos X	Pos Y	Pos Z	Rot A	Rot B	Piezo Z	Force A	Force B	Gripper	Voltage A	Voltage B	Temperature	Amplitude force	Amplitude pos	Stiffness	Phase shift	Phase excitation	Force A raw	Displacement raw	HMax	HMax raw	Real Force	Real Stiffness	Contact Depth	Area	Hardness	Reduced Mod.
[#]	[#]	[um]	[s]	[um]	[um]	[um]	[m°]	[m°]	[um]	[uN]	[uN]	[V]	[V]	[V]	[°C]	[uN]	[um]	[N/m]	[°]	[°]	[uN]	[um]	[um]	[um]	[uN]	[N/m]	[um]	[um^2]	[MPa]	[MPa]
152	1.000000	0.001980	7.36652e+06	-46239.1	955.818	-29770.3	0.000000	0.000000	6.002816	-0.071844	NaN	0.000000	0.001712	0.001668	28.1308	0.036620	0.001085	33.7481	-12.0285	-164.293	-0.036401	0.000690	-1.042574	-1.043863	-0.071844	33.7481	-1.040977	-8.074293E+13	8.897867E-16	NaN
152	1.000000	0.041915	7.36652e+06	-46239.1	955.818	-29770.3	0.000000	0.000000	6.042753	-0.029557	NaN	0.000000	0.001732	0.001668	28.1292	0.071053	0.001915	37.1012	133.162	-168.267	-0.060553	0.040593	-1.002638	-1.003960	-0.029557	37.1012	-1.002041	-2.416812E+13	1.222980E-15	NaN
152	1.000000	0.081935	7.36652e+06	-46239.1	955.818	-29770.3	0.000000	0.000000	6.082775	0.029555	NaN	0.000000	0.001641	0.001690	28.1296	0.051199	0.002008	25.5007	-108.273	-166.976	0.063933	0.080616	-0.962619	-0.963938	0.029555	25.5007	-0.963488	-7.309567E+12	-4.043309E-15	NaN
152	1.000000	0.121941	7.36652e+06	-46239.1	955.819	-29770.3	0.000000	0.000000	6.122780	0.002572	NaN	0.000000	0.001648	0.001673	28.1306	0.096450	0.002053	46.991	36.0486	-165.719	0.025139	0.120662	-0.922612	-0.923891	0.002572	46.991	-0.922653	-2.056021E+12	-1.250724E-15	NaN
152	1.000000	0.161979	7.36652e+06	-46239.1	955.819	-29770.3	0.000000	0.000000	6.162818	-0.004571	NaN	0.000000	0.001676	0.001664	28.1314	0.026451	0.002068	12.7927	48.1165	-163.169	-0.002439	0.160626	-0.882574	-0.883927	-0.004571	12.7927	-0.882306	-5.859980E+11	7.799763E-15	NaN
152	1.000000	0.201985	7.36652e+06	-46239.1	955.818	-29770.3	0.000000	0.000000	6.202824	-0.018403	NaN	0.000000	0.001693	0.001661	28.1309	0.064617	0.002032	31.8073	-175.41	-165.692	-0.020578	0.200664	-0.842568	-0.843890	-0.018403	31.8073	-0.842134	-1.675723E+11	1.098233E-13	NaN
152	1.000000	0.241987	7.36652e+06	-46239.1	955.818	-29770.3	0.000000	0.000000	6.242826	0.002816	NaN	0.000000	0.001678	0.001673	28.1305	0.075568	0.001980	38.165	-171.796	-168.693	-0.033595	0.240679	-0.802566	-0.803874	0.002816	38.165	-0.802621	-4.880263E+10	-5.770861E-14	NaN
152	1.000000	0.281999	7.36653e+06	-46239.1	955.818	-29770.3	0.000000	0.000000	6.282836	-0.046025	NaN	0.000000	0.001667	0.001642	28.1299	0.026166	0.002067	12.658	-84.9278	-165.839	-0.048930	0.280708	-0.762554	-0.763846	-0.046025	12.658	-0.759827	-1.279247E+10	3.597841E-12	NaN
152	1.000000	0.322017	7.36653e+06	-46239.1	955.819	-29770.3	0.000000	0.000000	6.322854	-0.047322	NaN	0.000000	0.001658	0.001674	28.1305	0.036715	0.001974	18.5957	-76.2249	-168.433	0.070993	0.320788	-0.722536	-0.723765	-0.047322	18.5957	-0.720628	-3.741418E+9	1.264809E-11	NaN
152	1.000000	0.362054	7.36653e+06	-46239.1	955.819	-29770.3	0.000000	0.000000	6.362890	-0.050661	NaN	0.000000	0.001606	0.001650	28.1298	0.090712	0.002066	43.9073	-114.549	-167.115	-0.095726	0.360759	-0.682500	-0.683795	-0.050661	43.9073	-0.681634	-1.097887E+9	4.614370E-11	NaN
152	1.000000	0.402061	7.36653e+06	-46239.1	955.819	-29770.3	0.000000	0.000000	6.402898	-0.034853	NaN	0.000000	0.001703	0.001715	28.132	0.025897	0.002062	12.5588	-105.449	-169.784	-0.043813	0.400790	-0.642492	-0.643764	-0.034853	12.5588	-0.640411	-2.991776E+8	1.164944E-10	NaN
152	1.000000	0.442072	7.36653e+06	-46239.1	955.819	-29770.3	0.000000	0.000000	6.442910	-0.006096	NaN	0.000000	0.001683	0.001692	28.131	0.107874	0.002022	53.357	-164.847	-164.512	-0.065508	0.440782	-0.602482	-0.603772	-0.006096	53.357	-0.602396	-8.983712E+7	6.785280E-11	NaN
152	1.000000	0.482104	7.36653e+06	-46239.1	955.818	-29770.3	0.000000	0.000000	6.482943	0.002750	NaN	0.000000	0.001662	0.001678	28.1319	0.091319	0.002089	43.72	31.9381	-164.536	-0.018604	0.480777	-0.562450	-0.563777	0.002750	43.72	-0.562497	-2.528783E+7	-1.087610E-10	NaN
152	1.000000	0.522127	7.36653e+06	-46239.1	955.819	-29770.3	0.000000	0.000000	6.522965	-0.008514	NaN	0.000000	0.001695	0.001681	28.1303	0.109597	0.001921	57.0476	66.2686	-166.071	-0.055961	0.520802	-0.522427	-0.523752	-0.008514	57.0476	-0.522315	-7.01111e+06	1.214408E-9	NaN
152	1.000000	0.562166	7.36653e+06	-46239.1	955.818	-29770.3	0.000000	0.000000	6.563005	-0.009914	NaN	0.000000	0.001644	0.001729	28.1309	0.095902	0.002002	47.913	-167.132	-166.042	-0.011451	0.560816	-0.482387	-0.483738	-0.009914	47.913	-0.482232	-1.93539e+06	5.122695E-9	NaN
152	1.000000	0.602170	7.36653e+06	-46239.1	955.819	-29770.3	0.000000	0.000000	6.603013	0.091757	NaN	0.000000	0.001730	0.001697	28.1303	0.074460	0.001970	37.796	-136.72	-164.65	0.061834	0.600773	-0.442383	-0.443780	0.091757	37.796	-0.444204	-565805	-1.621710E-7	NaN
152	1.000000	0.642168	7.36653e+06	-46239.1	955.819	-29770.3	0.000000	0.000000	6.643008	0.021705	NaN	0.000000	0.001662	0.001724	28.1304	0.045150	0.001984	22.754	125.628	-165.725	0.076407	0.640859	-0.402385	-0.403694	0.021705	22.754	-0.403100	-147975	-1.466767E-7	NaN
152	1.000000	0.682189	7.36653e+06	-46239.1	955.819	-29770.3	0.000000	0.000000	6.683028	-0.007576	NaN	0.000000	0.001685	0.001735	28.1316	0.074092	0.002050	36.1341	-50.4933	-165.648	-0.026014	0.680864	-0.362364	-0.363690	-0.007576	36.1341	-0.362207	-38347.5	1.975716E-7	NaN
152	1.000000	0.722207	7.36653e+06	-46239.1	955.818	-29770.3	0.000000	0.000000	6.723045	-0.023428	NaN	0.000000	0.001667	0.001702	28.1321	0.027282	0.002011	13.5676	162.862	-169.788	0.021306	0.720898	-0.322346	-0.323655	-0.023428	13.5676	-0.321051	-9640.69	2.430125E-6	NaN
152	1.000000	0.762200	7.36653e+06	-46239.1	955.818	-29770.3	0.000000	0.000000	6.763040	0.025729	NaN	0.000000	0.001738	0.001686	28.1312	0.108934	0.002069	52.6491	172.11	-168.006	-0.012630	0.760832	-0.282354	-0.283721	0.025729	52.6491	-0.282720	-2594	-9.918547E-6	NaN
152	1.000000	0.802242	7.36653e+06	-46239.1	955.819	-29770.3	0.000000	0.000000	6.803080	-0.001479	NaN	0.000000	0.001710	0.001692	28.1306	0.102632	0.002087	49.1882	95.5997	-168.764	0.053767	0.800925	-0.242312	-0.243629	-0.001479	49.1882	-0.242289	-624.122	2.370192E-6	NaN
152	1.000000	0.842212	7.36653e+06	-46239.1	955.819	-29770.3	0.000000	0.000000	6.843049	-0.056679	NaN	0.000000	0.001706	0.001685	28.1305	0.077165	0.002007	38.4571	-109.294	-168.18	0.017316	0.840938	-0.202341	-0.203616	-0.056679	38.4571	-0.201236	-138.034	0.000411	NaN
152	1.000000	0.882285	7.36653e+06	-46239.1	955.819	-29770.3	0.000000	0.000000	6.883125	0.025504	NaN	0.000000	0.001729	0.001689	28.1309	0.073295	0.002038	35.9633	-4.776775	-163.452	0.019229	0.880998	-0.162269	-0.163555	0.025504	35.9633	-0.162801	-30.7317	-0.000830	NaN
152	1.000000	0.922273	7.36653e+06	-46239.1	955.818	-29770.3	0.000000	0.000000	6.923109	-0.065146	NaN	0.000000	0.001667	0.001695	28.1316	0.049424	0.001950	25.3407	141.29	-164.297	-0.118123	0.921026	-0.122280	-0.123528	-0.065146	25.3407	-0.120352	-4.911220	0.013265	NaN
152	1.000000	0.962303	7.36653e+06	-46239.1	955.819	-29770.3	0.000000	0.000000	6.963142	0.014638	NaN	0.000000	0.001679	0.001684	28.1324	0.050534	0.002073	24.3746	-175.342	-166.874	0.002756	0.961029	-0.082251	-0.083524	0.014638	24.3746	-0.082701	-0.722159	-0.020269	NaN
152	1.000000	1.002321	7.36653e+06	-46239.1	955.818	-29770.3	0.000000	0.000000	7.003158	-0.037110	NaN	0.000000	0.001651	0.001669	28.1321	0.071227	0.002110	33.7599	-133.843	-164.629	-0.037098	1.000987	-0.042233	-0.043566	-0.037110	33.7599	-0.041408	-0.049914	0.743485	NaN
152	1.000000	1.042332	7.36653e+06	-46239.1	955.817	-29770.3	0.000000	0.000000	7.043169	-0.041908	NaN	0.000000	0.001687	0.001701	28.1329	0.126305	0.002007	62.9395	42.2538	-168.334	-0.154642	1.041032	-0.002221	-0.003521	-0.041908	62.9395	-0.001722	-0.001246	33.6434	NaN
152	2.000000	1.058817	7.36653e+06	-46239.1	955.818	-29770.3	0.000000	0.000000	7.060628	23.6462	NaN	0.000000	0.001673	0.001686	28.1308	17.8306	0.001774	10052.3	2.184997	-172.63	23.303	1.058541	0.014263	0.013988	23.6462	10052.3	0.012499	0.012093	1955.32	83515.5
152	2.000000	1.068758	7.36653e+06	-46239.1	955.818	-29770.3	0.000000	0.000000	7.071616	49.1061	NaN	0.000000	0.001681	0.001671	28.1313	29.0463	0.001945	14936.4	8.949736	176.491	48.2716	1.068451	0.024205	0.023897	49.1061	14936.4	0.021739	0.025349	1937.22	85712
152	2.000000	1.078768	7.36653e+06	-46239.1	955.819	-29770.3	0.000000	0.000000	7.082981	82.0792	NaN	0.000000	0.001649	0.001660	28.1307	37.364	0.001816	20569.5	3.449181	179.112	80.7693	1.078441	0.034214	0.033888	82.0792	20569.5	0.031221	0.043313	1895.02	90299.9
152	2.000000	1.088712	7.36653e+06	-46239.1	955.819	-29770.3	0.000000	0.000000	7.094401	117.976	NaN	0.000000	0.001627	0.001668	28.1326	45.8645	0.001738	26386.7	4.789929	175.75	118.061	1.088417	0.044159	0.043863	117.976	26386.7	0.040806	0.066127	1784.09	93749.7
152	2.000000	1.098709	7.36653e+06	-46239.1	955.819	-29770.3	0.000000	0.000000	7.106242	162.855	NaN	0.000000	0.001692	0.001623	28.1321	55.844	0.001837	30395.1	5.458666	174.273	160.048	1.098363	0.054155	0.053810	162.855	30395.1	0.050137	0.092836	1754.23	91142
152	2.000000	1.108762	7.36653e+06	-46239.1	955.819	-29770.3	0.000000	0.000000	7.118304	211.704	NaN	0.000000	0.001655	0.001630	28.1326	64.9278	0.001928	33683.9	3.612242	175.061	211.245	1.108602	0.064209	0.064049	211.704	33683.9	0.059495	0.124004	1707.24	87393.3
152	2.000000	1.118719	7.36653e+06	-46239.1	955.82	-29770.3	0.000000	0.000000	7.131262	284.711	NaN	0.000000	0.001675	0.001687	28.1324	73.5088	0.001726	42598	3.435535	173.6	286.808	1.118399	0.074166	0.073845	284.711	42598	0.069153	0.160658	1772.15	97098.1
152	2.000000	1.128715	7.36653e+06	-46239.1	955.821	-29770.3	0.000000	0.000000	7.144343	359.751	NaN	0.000000	0.001597	0.001638	28.1317	84.1566	0.001899	44315.1	3.602049	173.31	358.845	1.128405	0.084162	0.083851	359.751	44315.1	0.078073	0.198470	1812.62	90882
152	2.000000	1.138716	7.36653e+06	-46239.1	955.819	-29770.3	0.000000	0.000000	7.157741	442.372	NaN	0.000000	0.001700	0.001676	28.1306	94.3597	0.001721	54828.4	3.889524	171.298	443.141	1.138388	0.094163	0.093835	442.372	54828.4	0.088112	0.245469	1802.15	101107
152	2.000000	1.148661	7.36653e+06	-46239.1	955.819	-29770.3	0.000000	0.000000	7.171045	524.07	NaN	0.000000	0.001657	0.001648	28.1311	104.192	0.001902	54787	3.142538	172.709	523.709	1.148386	0.104108	0.103832	524.07	54787	0.096934	0.290601	1803.4	92854.3
152	2.000000	1.149635	7.36653e+06	-46239.1	955.819	-29770.3	0.000000	0.000000	7.172512	536.099	NaN	0.000000	0.001645	0.001663	28.0788	105.538	0.001824	57845.8	6.468267	168.742	534.433	1.149289	0.105081	0.104736	536.099	57845.8	0.098131	0.296997	1805.06	96977