File: remote_trans/data/nanoindenter/0828-1/data/Data_2025-08-06,11h17m57s/2025-07-22_16-23-58_1_636.txt
2025-07-22, 16:23:58, 1
Index	Phase	Displacement	Time	Pos X	Pos Y	Pos Z	Rot A	Rot B	Piezo Z	Force A	Force B	Gripper	Voltage A	Voltage B	Temperature	Amplitude force	Amplitude pos	Stiffness	Phase shift	Phase excitation	Force A raw	Displacement raw	HMax	HMax raw	Real Force	Real Stiffness	Contact Depth	Area	Hardness	Reduced Mod.
[#]	[#]	[um]	[s]	[um]	[um]	[um]	[m°]	[m°]	[um]	[uN]	[uN]	[V]	[V]	[V]	[°C]	[uN]	[um]	[N/m]	[°]	[°]	[uN]	[um]	[um]	[um]	[uN]	[N/m]	[um]	[um^2]	[MPa]	[MPa]
636	1.000000	0.002778	7.37127e+06	-45289.1	1005.82	-29773	0.000000	0.000000	6.002834	-0.048847	NaN	0.000000	0.001754	0.001660	28.0821	0.077747	0.000947	82.0583	18.4836	-161.039	-0.006696	0.001452	-1.032761	-1.034087	-0.048847	82.0583	-1.032315	-6.174646E+13	7.910914E-16	NaN
636	1.000000	0.042685	7.37127e+06	-45289.1	1005.82	-29773	0.000000	0.000000	6.042742	-0.017358	NaN	0.000000	0.001756	0.001694	28.082	0.146339	0.001972	74.2089	-158.583	-167.069	-0.039382	0.041461	-0.992854	-0.994078	-0.017358	74.2089	-0.992679	-1.807959E+13	9.600976E-16	NaN
636	1.000000	0.082686	7.37127e+06	-45289.1	1005.82	-29773	0.000000	0.000000	6.082745	0.018668	NaN	0.000000	0.001771	0.001696	28.0819	0.109860	0.002002	54.8669	-128.512	-167.226	-0.022473	0.081383	-0.952853	-0.954156	0.018668	54.8669	-0.953108	-5.295952E+12	-3.524923E-15	NaN
636	1.000000	0.122719	7.37127e+06	-45289.1	1005.82	-29773	0.000000	0.000000	6.122776	-0.015621	NaN	0.000000	0.001746	0.001735	28.0804	0.087648	0.002070	42.3429	24.3194	-164.008	0.002299	0.121372	-0.912820	-0.914167	-0.015621	42.3429	-0.912544	-1.501476E+12	1.040349E-14	NaN
636	1.000000	0.162709	7.37127e+06	-45289.1	1005.82	-29773	0.000000	0.000000	6.162766	-0.011718	NaN	0.000000	0.001739	0.001697	28.0805	0.099605	0.001995	49.9182	69.6666	-166.192	0.004426	0.161423	-0.872830	-0.874116	-0.011718	49.9182	-0.872654	-4.338634E+11	2.700739E-14	NaN
636	1.000000	0.202741	7.37127e+06	-45289.1	1005.82	-29773	0.000000	0.000000	6.202801	0.063892	NaN	0.000000	0.001725	0.001738	28.0803	0.079113	0.002062	38.3658	-76.6512	-167.346	-0.123729	0.201493	-0.832798	-0.834046	0.063892	38.3658	-0.834047	-1.302083E+11	-4.906891E-13	NaN
636	1.000000	0.242771	7.37127e+06	-45289.1	1005.82	-29773	0.000000	0.000000	6.242831	0.050491	NaN	0.000000	0.001698	0.001729	28.0815	0.159501	0.001983	80.4438	93.293	-165.994	0.072821	0.241491	-0.792768	-0.794048	0.050491	80.4438	-0.793239	-3.639699E+10	-1.387230E-12	NaN
636	1.000000	0.282797	7.37127e+06	-45289.1	1005.82	-29773	0.000000	0.000000	6.282856	0.027856	NaN	0.000000	0.001683	0.001686	28.0816	0.031465	0.002112	14.897	-78.0985	-165.181	0.014668	0.281509	-0.752742	-0.754030	0.027856	14.897	-0.754144	-1.070600E+10	-2.601903E-12	NaN
636	1.000000	0.322811	7.37127e+06	-45289.1	1005.82	-29773	0.000000	0.000000	6.322868	-0.032637	NaN	0.000000	0.001701	0.001724	28.0817	0.027891	0.001967	14.1784	161.045	-162.829	-0.010550	0.321468	-0.712728	-0.714071	-0.032637	14.1784	-0.711002	-2.765143E+9	1.180297E-11	NaN
636	1.000000	0.362810	7.37127e+06	-45289.1	1005.82	-29773	0.000000	0.000000	6.362869	0.005654	NaN	0.000000	0.001711	0.001696	28.0806	0.132838	0.001903	69.7896	65.591	-168.089	0.093240	0.361530	-0.672729	-0.674009	0.005654	69.7896	-0.672789	-8.309293E+8	-6.804255E-12	NaN
636	1.000000	0.402825	7.37127e+06	-45289.1	1005.82	-29773	0.000000	0.000000	6.402882	-0.033545	NaN	0.000000	0.001685	0.001684	28.0806	0.099050	0.002048	48.3643	-127.748	-163.806	-0.046924	0.401502	-0.632714	-0.634037	-0.033545	48.3643	-0.632194	-2.307525E+8	1.453741E-10	NaN
636	1.000000	0.442866	7.37127e+06	-45289.1	1005.82	-29773	0.000000	0.000000	6.442926	0.039415	NaN	0.000000	0.001672	0.001701	28.0805	0.058969	0.001961	30.0767	-50.7612	-165.925	0.045042	0.441581	-0.592673	-0.593958	0.039415	30.0767	-0.593656	-6.808605E+7	-5.789015E-10	NaN
636	1.000000	0.482879	7.37127e+06	-45289.1	1005.82	-29773	0.000000	0.000000	6.482937	-0.009776	NaN	0.000000	0.001655	0.001749	28.0806	0.024436	0.002041	11.9749	150.321	-166.263	-0.025730	0.481593	-0.552660	-0.553946	-0.009776	11.9749	-0.552047	-1.812641E+7	5.393139E-10	NaN
636	1.000000	0.522885	7.37127e+06	-45289.1	1005.82	-29773	0.000000	0.000000	6.522944	0.027724	NaN	0.000000	0.001679	0.001756	28.0817	0.034587	0.002022	17.1034	-52.1899	-164.36	0.041999	0.521521	-0.512654	-0.514018	0.027724	17.1034	-0.513870	-5.34932e+06	-5.182689E-9	NaN
636	1.000000	0.562933	7.37127e+06	-45289.1	1005.82	-29773	0.000000	0.000000	6.562993	0.049949	NaN	0.000000	0.001673	0.001800	28.0819	0.088250	0.001824	48.3724	-36.75	-165.123	0.080693	0.561561	-0.472606	-0.473978	0.049949	48.3724	-0.473381	-1.45482e+06	-3.433357E-8	NaN
636	1.000000	0.602938	7.37127e+06	-45289.1	1005.82	-29773	0.000000	0.000000	6.602995	-0.022008	NaN	0.000000	0.001667	0.001737	28.0818	0.047020	0.001991	23.6117	87.7704	-167.074	-0.057105	0.601634	-0.432601	-0.433905	-0.022008	23.6117	-0.431902	-379283	5.802603E-8	NaN
636	1.000000	0.642920	7.37127e+06	-45289.1	1005.82	-29773	0.000000	0.000000	6.642984	0.145766	NaN	0.000000	0.001626	0.001760	28.0806	0.100143	0.001932	51.8293	-129.621	-167.209	0.086835	0.641633	-0.392619	-0.393906	0.145766	51.8293	-0.394729	-112398	-1.296874E-6	NaN
636	1.000000	0.682956	7.37128e+06	-45289.1	1005.82	-29773	0.000000	0.000000	6.683016	0.022054	NaN	0.000000	0.001652	0.001759	28.0805	0.081346	0.001832	44.3913	-44.5507	-165.876	0.069732	0.681629	-0.352583	-0.353910	0.022054	44.3913	-0.352955	-28175.2	-7.827474E-7	NaN
636	1.000000	0.722972	7.37128e+06	-45289.1	1005.82	-29773	0.000000	0.000000	6.723032	0.045576	NaN	0.000000	0.001697	0.001744	28.0806	0.033655	0.001922	17.5149	-43.5269	-165.485	-0.011737	0.721612	-0.312567	-0.313928	0.045576	17.5149	-0.314518	-7723.9	-5.900605E-6	NaN
636	1.000000	0.763012	7.37128e+06	-45289.1	1005.82	-29773	0.000000	0.000000	6.763072	0.042075	NaN	0.000000	0.001650	0.001738	28.0806	0.079131	0.002117	37.3818	44.8622	-165.554	0.105592	0.761683	-0.272527	-0.273856	0.042075	37.3818	-0.273371	-1873.79	-2.245449E-5	NaN
636	1.000000	0.803001	7.37128e+06	-45289.1	1005.82	-29773	0.000000	0.000000	6.803058	-0.021632	NaN	0.000000	0.001639	0.001745	28.082	0.121105	0.001988	60.9189	-43.0734	-162.303	-0.030602	0.801724	-0.232538	-0.233816	-0.021632	60.9189	-0.232272	-434.85	4.974559E-5	NaN
636	1.000000	0.843046	7.37128e+06	-45289.1	1005.82	-29773	0.000000	0.000000	6.843104	4.419541E-5	NaN	0.000000	0.001696	0.001721	28.0819	0.072205	0.001946	37.1018	172.609	-162.86	0.000265	0.841741	-0.192493	-0.193798	4.419541E-5	37.1018	-0.192494	-98.9929	-4.464503E-7	NaN
636	1.000000	0.883033	7.37128e+06	-45289.1	1005.82	-29773	0.000000	0.000000	6.883092	0.024450	NaN	0.000000	0.001662	0.001747	28.0821	0.044586	0.002013	22.1473	-75.2868	-164.786	0.064966	0.881726	-0.152506	-0.153813	0.024450	22.1473	-0.153334	-20.8225	-0.001174	NaN
636	1.000000	0.923035	7.37128e+06	-45289.1	1005.82	-29773	0.000000	0.000000	6.923090	-0.060625	NaN	0.000000	0.001637	0.001725	28.0807	0.047256	0.002085	22.6602	-120.981	-163.834	-0.014441	0.921718	-0.112505	-0.113821	-0.060625	22.6602	-0.110498	-3.078653	0.019692	NaN
636	1.000000	0.963080	7.37128e+06	-45289.1	1005.82	-29773	0.000000	0.000000	6.963139	0.015476	NaN	0.000000	0.001674	0.001741	28.0807	0.062147	0.001888	32.9201	163.211	-166.734	-0.013363	0.961787	-0.072459	-0.073752	0.015476	32.9201	-0.072812	-0.405020	-0.038210	NaN
636	1.000000	1.003122	7.37128e+06	-45289.1	1005.82	-29773	0.000000	0.000000	7.003179	-0.023484	NaN	0.000000	0.001684	0.001769	28.0808	0.096214	0.002047	46.9939	86.0514	-164.021	-0.023175	1.001880	-0.032417	-0.033659	-0.023484	46.9939	-0.032042	-0.026280	0.893618	NaN
636	2.000000	1.041591	7.37128e+06	-45289.1	1005.82	-29773	0.000000	0.000000	7.042078	10.4406	NaN	0.000000	0.001691	0.001758	28.0818	9.806175	0.001562	6276.57	4.401027	-169.715	9.815065	1.041172	0.006052	0.005632	10.4406	6276.57	0.004804	0.003955	2639.66	91181.5
636	2.000000	1.051530	7.37128e+06	-45289.1	1005.82	-29773	0.000000	0.000000	7.052799	29.4659	NaN	0.000000	0.001724	0.001796	28.0824	20.5372	0.001689	12155.9	2.424011	-174.644	28.7696	1.051231	0.015991	0.015692	29.4659	12155.9	0.014173	0.014198	2075.31	93205.3
636	2.000000	1.061494	7.37128e+06	-45289.1	1005.82	-29773	0.000000	0.000000	7.063644	50.8747	NaN	0.000000	0.001738	0.001758	28.0823	30.5095	0.001903	16029	5.620798	-178.678	51.5012	1.061281	0.025955	0.025742	50.8747	16029	0.023575	0.028474	1786.72	86787.4
636	2.000000	1.071453	7.37128e+06	-45289.1	1005.82	-29773	0.000000	0.000000	7.075035	85.7282	NaN	0.000000	0.001741	0.001719	28.0822	40.3079	0.001747	23069.8	8.279239	174.442	84.6322	1.071194	0.035914	0.035655	85.7282	23069.8	0.033127	0.047475	1805.75	96735.2
636	2.000000	1.081456	7.37128e+06	-45289.1	1005.82	-29773	0.000000	0.000000	7.086655	125.064	NaN	0.000000	0.001723	0.001725	28.0814	49.6973	0.001788	27799.7	0.765814	-179.525	123.242	1.081238	0.045917	0.045699	125.064	27799.7	0.042543	0.070764	1767.33	95478.6
636	2.000000	1.091446	7.37128e+06	-45289.1	1005.82	-29773	0.000000	0.000000	7.098792	177.309	NaN	0.000000	0.001688	0.001770	28.0808	59.2947	0.001788	33157.8	6.791755	173.4	177.086	1.091151	0.055907	0.055612	177.309	33157.8	0.051896	0.098364	1802.59	96592.1
636	2.000000	1.101467	7.37128e+06	-45289.1	1005.82	-29773	0.000000	0.000000	7.110965	229.637	NaN	0.000000	0.001704	0.001761	28.0808	67.8443	0.001873	36219.9	3.083415	176.738	230.849	1.101214	0.065928	0.065675	229.637	36219.9	0.061173	0.130047	1765.8	91763.5
636	2.000000	1.111513	7.37128e+06	-45289.1	1005.82	-29773	0.000000	0.000000	7.123193	282.722	NaN	0.000000	0.001702	0.001707	28.0824	76.6233	0.001700	45067	4.596426	173.266	287.627	1.111185	0.075974	0.075646	282.722	45067	0.071269	0.169289	1670.06	100073
636	2.000000	1.121431	7.37128e+06	-45289.1	1005.82	-29773	0.000000	0.000000	7.136142	356.459	NaN	0.000000	0.001672	0.001744	28.082	87.1167	0.001845	47208.6	4.945703	172.713	355.323	1.121106	0.085891	0.085567	356.459	47208.6	0.080228	0.208167	1712.38	94534.2
636	2.000000	1.131424	7.37128e+06	-45289.1	1005.82	-29773	0.000000	0.000000	7.149067	427.794	NaN	0.000000	0.001644	0.001732	28.082	94.551	0.001805	52377.2	2.066753	175.257	426.156	1.131121	0.095885	0.095582	427.794	52377.2	0.089759	0.253626	1686.72	95020.9
636	2.000000	1.139412	7.37128e+06	-45289.1	1005.82	-29773	0.000000	0.000000	7.159724	492.726	NaN	0.000000	0.001672	0.001752	28.082	101.568	0.001791	56698.6	4.268023	172.502	493.637	1.139059	0.103873	0.103520	492.726	56698.6	0.097355	0.292844	1682.55	95725.4