File: remote_trans/data/nanoindenter/0828-1/data/Data_2025-08-06,11h17m57s/2025-07-22_16-23-58_1_570.txt
2025-07-22, 16:23:58, 1
Index	Phase	Displacement	Time	Pos X	Pos Y	Pos Z	Rot A	Rot B	Piezo Z	Force A	Force B	Gripper	Voltage A	Voltage B	Temperature	Amplitude force	Amplitude pos	Stiffness	Phase shift	Phase excitation	Force A raw	Displacement raw	HMax	HMax raw	Real Force	Real Stiffness	Contact Depth	Area	Hardness	Reduced Mod.
[#]	[#]	[um]	[s]	[um]	[um]	[um]	[m°]	[m°]	[um]	[uN]	[uN]	[V]	[V]	[V]	[°C]	[uN]	[um]	[N/m]	[°]	[°]	[uN]	[um]	[um]	[um]	[uN]	[N/m]	[um]	[um^2]	[MPa]	[MPa]
570	1.000000	0.002656	7.37062e+06	-48589.1	1005.82	-29761.9	0.000000	0.000000	6.002827	0.041203	NaN	0.000000	0.001543	0.001787	28.0811	0.075081	0.000884	84.943	-72.6591	-167.215	-0.014576	0.001405	-1.054096	-1.055347	0.041203	84.943	-1.054460	-1.225632E+14	-3.361779E-16	NaN
570	1.000000	0.042562	7.37062e+06	-48589.1	1005.82	-29761.9	0.000000	0.000000	6.042732	0.010643	NaN	0.000000	0.001566	0.001816	28.081	0.106383	0.001899	56.0185	-94.7861	-165.908	-0.013739	0.041228	-1.014190	-1.015523	0.010643	56.0185	-1.014332	-3.537440E+13	-3.008792E-16	NaN
570	1.000000	0.082643	7.37062e+06	-48589.1	1005.82	-29761.9	0.000000	0.000000	6.082812	-0.021375	NaN	0.000000	0.001536	0.001819	28.0821	0.019653	0.001906	10.3133	-143.779	-166.447	0.020000	0.081262	-0.974109	-0.975490	-0.021375	10.3133	-0.972554	-9.684688E+12	2.207068E-15	NaN
570	1.000000	0.122600	7.37062e+06	-48589.1	1005.82	-29761.9	0.000000	0.000000	6.122769	-0.006426	NaN	0.000000	0.001560	0.001857	28.0821	0.089121	0.002000	44.5527	-16.9242	-164.982	-0.036253	0.121261	-0.934152	-0.935490	-0.006426	44.5527	-0.934044	-2.929348E+12	2.193629E-15	NaN
570	1.000000	0.162634	7.37062e+06	-48589.1	1005.82	-29761.9	0.000000	0.000000	6.162804	0.018345	NaN	0.000000	0.001566	0.001811	28.0821	0.043373	0.002069	20.9664	82.1672	-166.254	-0.074704	0.161377	-0.894118	-0.895374	0.018345	20.9664	-0.894774	-8.638573E+11	-2.123570E-14	NaN
570	1.000000	0.202637	7.37062e+06	-48589.1	1005.82	-29761.9	0.000000	0.000000	6.202801	-0.132207	NaN	0.000000	0.001545	0.001817	28.0819	0.051084	0.001985	25.7311	92.4058	-162.908	-0.059175	0.201346	-0.854115	-0.855405	-0.132207	25.7311	-0.850261	-2.159125E+11	6.123160E-13	NaN
570	1.000000	0.242668	7.37062e+06	-48589.1	1005.82	-29761.9	0.000000	0.000000	6.242839	0.025284	NaN	0.000000	0.001578	0.001813	28.0808	0.064927	0.001925	33.7214	-6.496281	-165.445	-0.002663	0.241303	-0.814084	-0.815449	0.025284	33.7214	-0.814646	-7.105560E+10	-3.558316E-13	NaN
570	1.000000	0.282692	7.37062e+06	-48589.1	1005.82	-29761.9	0.000000	0.000000	6.282862	-0.010814	NaN	0.000000	0.001593	0.001816	28.0808	0.071356	0.001969	36.2486	-4.985896	-162.523	-0.029189	0.281331	-0.774059	-0.775420	-0.010814	36.2486	-0.773836	-1.983581E+10	5.451985E-13	NaN
570	1.000000	0.322692	7.37062e+06	-48589.1	1005.82	-29761.9	0.000000	0.000000	6.322861	-0.028526	NaN	0.000000	0.001567	0.001799	28.0811	0.050826	0.001975	25.7284	-161.913	-166.668	0.028445	0.321393	-0.734059	-0.735359	-0.028526	25.7284	-0.733228	-5.556408E+9	5.133976E-12	NaN
570	1.000000	0.362686	7.37062e+06	-48589.1	1005.82	-29761.9	0.000000	0.000000	6.362858	0.063103	NaN	0.000000	0.001568	0.001810	28.0821	0.104723	0.001846	56.7233	-56.5005	-160.691	0.116723	0.361397	-0.694066	-0.695355	0.063103	56.7233	-0.694900	-1.666759E+9	-3.785945E-11	NaN
570	1.000000	0.402727	7.37062e+06	-48589.1	1005.82	-29761.9	0.000000	0.000000	6.402897	0.015699	NaN	0.000000	0.001557	0.001762	28.0823	0.034804	0.001967	17.6979	131.579	-161.111	0.019756	0.401429	-0.654025	-0.655322	0.015699	17.6979	-0.654690	-4.695913E+8	-3.343041E-11	NaN
570	1.000000	0.442729	7.37062e+06	-48589.1	1005.82	-29761.9	0.000000	0.000000	6.442899	-0.004139	NaN	0.000000	0.001596	0.001768	28.0823	0.083530	0.002023	41.281	18.8536	-162.665	-0.011186	0.441430	-0.614022	-0.615321	-0.004139	41.281	-0.613947	-1.295420E+8	3.194918E-11	NaN
570	1.000000	0.482780	7.37062e+06	-48589.1	1005.82	-29761.9	0.000000	0.000000	6.482948	-0.025955	NaN	0.000000	0.001614	0.001799	28.0822	0.066601	0.002072	32.139	-76.7294	-166.508	-0.037423	0.481451	-0.573972	-0.575301	-0.025955	32.139	-0.573366	-3.573856E+7	7.262404E-10	NaN
570	1.000000	0.522763	7.37063e+06	-48589.1	1005.82	-29761.9	0.000000	0.000000	6.522931	-0.029705	NaN	0.000000	0.001622	0.001811	28.0804	0.066300	0.001892	35.0397	-151.367	-165.584	-0.055584	0.521499	-0.533989	-0.535253	-0.029705	35.0397	-0.533353	-9.98003e+06	2.976434E-9	NaN
570	1.000000	0.562794	7.37063e+06	-48589.1	1005.82	-29761.9	0.000000	0.000000	6.562964	-0.008364	NaN	0.000000	0.001553	0.001797	28.0804	0.071272	0.002003	35.5849	-145.02	-163.782	-0.064781	0.561518	-0.493957	-0.495234	-0.008364	35.5849	-0.493781	-2.8068e+06	2.979812E-9	NaN
570	1.000000	0.602808	7.37063e+06	-48589.1	1005.82	-29761.9	0.000000	0.000000	6.602977	-0.010109	NaN	0.000000	0.001537	0.001771	28.0808	0.081495	0.002078	39.2207	-129.534	-167.439	-0.055049	0.601501	-0.453944	-0.455251	-0.010109	39.2207	-0.453751	-771152	1.310911E-8	NaN
570	1.000000	0.642815	7.37063e+06	-48589.1	1005.82	-29761.9	0.000000	0.000000	6.642985	-0.010296	NaN	0.000000	0.001632	0.001777	28.0819	0.074618	0.002010	37.1239	-14.179	-163.237	0.029959	0.641518	-0.413936	-0.415233	-0.010296	37.1239	-0.413728	-209601	4.912134E-8	NaN
570	1.000000	0.682841	7.37063e+06	-48589.1	1005.82	-29761.9	0.000000	0.000000	6.683008	-0.060620	NaN	0.000000	0.001594	0.001814	28.0818	0.088144	0.001906	46.249	46.7201	-162.985	-0.023542	0.681554	-0.373911	-0.375198	-0.060620	46.249	-0.372928	-54735.3	1.107507E-6	NaN
570	1.000000	0.722858	7.37063e+06	-48589.1	1005.82	-29761.9	0.000000	0.000000	6.723029	0.038779	NaN	0.000000	0.001510	0.001774	28.0819	0.045956	0.002177	21.113	-72.3391	-163.038	0.095110	0.721564	-0.333894	-0.335187	0.038779	21.113	-0.335271	-15579.5	-2.489088E-6	NaN
570	1.000000	0.762896	7.37063e+06	-48589.1	1005.82	-29761.9	0.000000	0.000000	6.763065	-0.023060	NaN	0.000000	0.001517	0.001788	28.082	0.090682	0.002012	45.0643	66.5303	-166.104	0.024246	0.761604	-0.293856	-0.295147	-0.023060	45.0643	-0.293472	-3760.6	6.132006E-6	NaN
570	1.000000	0.802893	7.37063e+06	-48589.1	1005.82	-29761.9	0.000000	0.000000	6.803062	-0.008049	NaN	0.000000	0.001577	0.001816	28.0809	0.091624	0.001893	48.3978	-41.2643	-168.771	0.039138	0.801597	-0.253859	-0.255155	-0.008049	48.3978	-0.253734	-938.887	8.573313E-6	NaN
570	1.000000	0.842925	7.37063e+06	-48589.1	1005.82	-29761.9	0.000000	0.000000	6.843096	0.027257	NaN	0.000000	0.001554	0.001790	28.0807	0.097128	0.001795	54.1037	28.4966	-165.844	0.023294	0.841619	-0.213827	-0.215133	0.027257	54.1037	-0.214205	-224.241	-0.000122	NaN
570	1.000000	0.882917	7.37063e+06	-48589.1	1005.82	-29761.9	0.000000	0.000000	6.883085	-0.042217	NaN	0.000000	0.001537	0.001765	28.0805	0.045778	0.001983	23.0884	-143.522	-166.827	-0.017647	0.881641	-0.173835	-0.175110	-0.042217	23.0884	-0.172463	-45.3188	0.000932	NaN
570	1.000000	0.922949	7.37063e+06	-48589.1	1005.82	-29761.9	0.000000	0.000000	6.923116	-0.044009	NaN	0.000000	0.001541	0.001796	28.0816	0.181613	0.002067	87.8687	68.5957	-165.823	-0.048204	0.921656	-0.133803	-0.135096	-0.044009	87.8687	-0.133427	-8.875411	0.004959	NaN
570	1.000000	0.962961	7.37063e+06	-48589.1	1005.82	-29761.9	0.000000	0.000000	6.963130	-0.023036	NaN	0.000000	0.001547	0.001746	28.0818	0.113419	0.001955	58.0276	-66.1026	-163.974	-0.027675	0.961614	-0.093790	-0.095137	-0.023036	58.0276	-0.093493	-1.302933	0.017680	NaN
570	1.000000	1.002947	7.37063e+06	-48589.1	1005.82	-29761.9	0.000000	0.000000	7.003117	0.006290	NaN	0.000000	0.001519	0.001779	28.0816	0.020771	0.002014	10.3133	-54.0928	-165.898	0.023368	1.001673	-0.053805	-0.055079	0.006290	10.3133	-0.054263	-0.122462	-0.051366	NaN
570	1.000000	1.043006	7.37063e+06	-48589.1	1005.82	-29761.9	0.000000	0.000000	7.043176	0.005670	NaN	0.000000	0.001556	0.001812	28.0804	0.039776	0.002015	19.7396	-98.1446	-167.546	0.011256	1.041647	-0.013746	-0.015105	0.005670	19.7396	-0.013961	-0.008661	-0.654706	NaN
570	2.000000	1.074511	7.37063e+06	-48589.1	1005.82	-29761.9	0.000000	0.000000	7.075129	10.8962	NaN	0.000000	0.001560	0.001792	28.0804	11.4313	0.001799	6353.04	9.393795	-176.099	10.1096	1.074189	0.017760	0.017437	10.8962	6353.04	0.016473	0.017301	629.815	44129.1
570	2.000000	1.084501	7.37063e+06	-48589.1	1005.82	-29761.9	0.000000	0.000000	7.085714	25.3886	NaN	0.000000	0.001501	0.001810	28.0806	20.6256	0.001755	11753.8	4.462008	-174.529	26.0049	1.084172	0.027749	0.027420	25.3886	11753.8	0.026129	0.033101	766.998	59024.1
570	2.000000	1.094417	7.37063e+06	-48589.1	1005.82	-29761.9	0.000000	0.000000	7.096853	55.1216	NaN	0.000000	0.001559	0.001816	28.0808	31.5513	0.001843	17115.4	1.617678	-175.797	53.1548	1.094167	0.037665	0.037415	55.1216	17115.4	0.035249	0.052328	1053.38	68358.4
570	2.000000	1.104452	7.37063e+06	-48589.1	1005.82	-29761.9	0.000000	0.000000	7.108329	90.1672	NaN	0.000000	0.001548	0.001769	28.0828	41.0851	0.001908	21531.5	7.785132	176.799	90.8427	1.104156	0.047701	0.047404	90.1672	21531.5	0.044560	0.076343	1181.08	71197.3
570	2.000000	1.114380	7.37063e+06	-48589.1	1005.82	-29761.9	0.000000	0.000000	7.120121	135.483	NaN	0.000000	0.001577	0.001740	28.0828	48.9305	0.001729	28293.7	8.223442	174.094	135.11	1.114033	0.057629	0.057281	135.483	28293.7	0.054037	0.105300	1286.64	79661.7
570	2.000000	1.124450	7.37063e+06	-48589.1	1005.82	-29761.9	0.000000	0.000000	7.132109	182.151	NaN	0.000000	0.001515	0.001773	28.0823	58.8278	0.001832	32111.5	4.047287	176.521	183.793	1.124070	0.067699	0.067319	182.151	32111.5	0.063444	0.138449	1315.65	78847.8
570	2.000000	1.134438	7.37063e+06	-48589.1	1005.82	-29761.9	0.000000	0.000000	7.144460	239.613	NaN	0.000000	0.001513	0.001807	28.0809	69.0132	0.001753	39365	4.302574	174.809	242.891	1.134097	0.077686	0.077345	239.613	39365	0.073121	0.177016	1353.63	85482.6
570	2.000000	1.144422	7.37063e+06	-48589.1	1005.82	-29761.9	0.000000	0.000000	7.157474	313.315	NaN	0.000000	0.001566	0.001784	28.0806	76.8348	0.001757	43729.3	0.894847	177.844	316.298	1.144058	0.087670	0.087306	313.315	43729.3	0.082297	0.217675	1439.37	85633
570	2.000000	1.154339	7.37063e+06	-48589.1	1005.82	-29761.9	0.000000	0.000000	7.170435	387.367	NaN	0.000000	0.001520	0.001796	28.0807	89.8025	0.001845	48669.7	7.024870	170.286	383.984	1.154010	0.097587	0.097258	387.367	48669.7	0.091618	0.262978	1473	86710.6
570	2.000000	1.164307	7.37063e+06	-48589.1	1005.82	-29761.9	0.000000	0.000000	7.183627	465.765	NaN	0.000000	0.001555	0.001798	28.0804	99.0313	0.001818	54474.5	8.344281	168.429	462.334	1.164099	0.107555	0.107348	465.765	54474.5	0.101142	0.313382	1486.25	88905.7
570	2.000000	1.170384	7.37063e+06	-48589.1	1005.82	-29761.9	0.000000	0.000000	7.192077	523.488	NaN	0.000000	0.001558	0.001808	28.0817	105.004	0.001852	56700.3	5.793115	171.121	525.366	1.170060	0.113632	0.113309	523.488	56700.3	0.106708	0.344744	1518.48	88228.7