File: remote_trans/data/nanoindenter/0828-1/data/Data_2025-08-06,11h17m57s/2025-07-22_16-23-58_1_16.txt
2025-07-22, 16:23:58, 1
Index	Phase	Displacement	Time	Pos X	Pos Y	Pos Z	Rot A	Rot B	Piezo Z	Force A	Force B	Gripper	Voltage A	Voltage B	Temperature	Amplitude force	Amplitude pos	Stiffness	Phase shift	Phase excitation	Force A raw	Displacement raw	HMax	HMax raw	Real Force	Real Stiffness	Contact Depth	Area	Hardness	Reduced Mod.
[#]	[#]	[um]	[s]	[um]	[um]	[um]	[m°]	[m°]	[um]	[uN]	[uN]	[V]	[V]	[V]	[°C]	[uN]	[um]	[N/m]	[°]	[°]	[uN]	[um]	[um]	[um]	[uN]	[N/m]	[um]	[um^2]	[MPa]	[MPa]
16	1.000000	0.003176	7.3652e+06	-39439.1	955.818	-29794.5	0.000000	0.000000	6.002803	0.081949	NaN	0.000000	0.001582	0.001802	28.1231	0.074449	0.000964	77.2198	-76.4081	-164.869	0.030576	0.001910	-1.080856	-1.082122	0.081949	77.2198	-1.081651	-2.842498E+14	-2.882984E-16	NaN
16	1.000000	0.043138	7.3652e+06	-39439.1	955.818	-29794.5	0.000000	0.000000	6.042760	-0.017138	NaN	0.000000	0.001516	0.001797	28.1239	0.089994	0.002186	41.1684	64.9338	-162.852	0.020592	0.041838	-1.040894	-1.042194	-0.017138	41.1684	-1.040582	-7.976085E+13	2.148710E-16	NaN
16	1.000000	0.083114	7.3652e+06	-39439.1	955.818	-29794.5	0.000000	0.000000	6.082737	-0.010361	NaN	0.000000	0.001567	0.001773	28.1228	0.025908	0.001971	13.1436	118.956	-164.462	-0.050005	0.081870	-1.000917	-1.002162	-0.010361	13.1436	-1.000326	-2.291715E+13	4.521232E-16	NaN
16	1.000000	0.123178	7.3652e+06	-39439.1	955.818	-29794.5	0.000000	0.000000	6.122800	-0.032743	NaN	0.000000	0.001551	0.001797	28.1251	0.046049	0.001887	24.4039	119.682	-167.613	0.022241	0.121843	-0.960854	-0.962189	-0.032743	24.4039	-0.959847	-6.528459E+12	5.015385E-15	NaN
16	1.000000	0.163179	7.3652e+06	-39439.1	955.818	-29794.5	0.000000	0.000000	6.162801	-0.026574	NaN	0.000000	0.001610	0.001803	28.1242	0.170462	0.002013	84.6713	-114.238	-168.853	-0.070402	0.161839	-0.920853	-0.922193	-0.026574	84.6713	-0.920618	-1.929959E+12	1.376913E-14	NaN
16	1.000000	0.203201	7.3652e+06	-39439.1	955.817	-29794.5	0.000000	0.000000	6.202824	0.010102	NaN	0.000000	0.001543	0.001836	28.1254	0.085771	0.002054	41.7598	161.742	-166.609	-0.049730	0.201888	-0.880831	-0.882143	0.010102	41.7598	-0.881013	-5.628624E+11	-1.794838E-14	NaN
16	1.000000	0.243186	7.3652e+06	-39439.1	955.819	-29794.5	0.000000	0.000000	6.242810	0.023564	NaN	0.000000	0.001546	0.001817	28.1229	0.033800	0.001896	17.8278	-152.332	-169.619	-0.000699	0.241892	-0.840846	-0.842140	0.023564	17.8278	-0.841837	-1.660280E+11	-1.419268E-13	NaN
16	1.000000	0.283214	7.3652e+06	-39439.1	955.818	-29794.5	0.000000	0.000000	6.282840	0.051240	NaN	0.000000	0.001523	0.001786	28.1247	0.017877	0.002010	8.894320	71.4434	-166.23	0.074616	0.281925	-0.800818	-0.802107	0.051240	8.894320	-0.805138	-5.279601E+10	-9.705188E-13	NaN
16	1.000000	0.323247	7.3652e+06	-39439.1	955.818	-29794.5	0.000000	0.000000	6.322870	0.001623	NaN	0.000000	0.001524	0.001811	28.1237	0.081945	0.002022	40.5291	-78.1969	-165.898	0.007561	0.321928	-0.760785	-0.762104	0.001623	40.5291	-0.760815	-1.319451E+10	-1.229732E-13	NaN
16	1.000000	0.363260	7.3652e+06	-39439.1	955.818	-29794.5	0.000000	0.000000	6.362883	0.000933	NaN	0.000000	0.001552	0.001787	28.1256	0.099297	0.002062	48.1548	27.8484	-166.783	0.054583	0.361975	-0.720772	-0.722057	0.000933	48.1548	-0.720786	-3.760085E+9	-2.480399E-13	NaN
16	1.000000	0.403271	7.3652e+06	-39439.1	955.818	-29794.5	0.000000	0.000000	6.402895	0.004168	NaN	0.000000	0.001642	0.001796	28.1254	0.072556	0.002072	35.0168	43.996	-169.387	-0.059147	0.401999	-0.680760	-0.682033	0.004168	35.0168	-0.680850	-1.071090E+9	-3.891599E-12	NaN
16	1.000000	0.443320	7.3652e+06	-39439.1	955.817	-29794.5	0.000000	0.000000	6.442941	-0.036868	NaN	0.000000	0.001576	0.001820	28.1264	0.067285	0.002085	32.2755	-112.323	-170.289	0.023698	0.441971	-0.640712	-0.642061	-0.036868	32.2755	-0.639855	-2.939717E+8	1.254140E-10	NaN
16	1.000000	0.483311	7.3652e+06	-39439.1	955.817	-29794.5	0.000000	0.000000	6.482932	-0.048392	NaN	0.000000	0.001509	0.001830	28.1258	0.098404	0.001990	49.4438	-159.211	-167.526	-0.062966	0.482018	-0.600721	-0.602014	-0.048392	49.4438	-0.599987	-8.322954E+7	5.814303E-10	NaN
16	1.000000	0.523323	7.3652e+06	-39439.1	955.818	-29794.5	0.000000	0.000000	6.522944	-0.066111	NaN	0.000000	0.001533	0.001870	28.1259	0.085742	0.001928	44.4819	-26.9319	-171.36	-0.032311	0.522014	-0.560708	-0.562018	-0.066111	44.4819	-0.559594	-2.305457E+7	2.867573E-9	NaN
16	1.000000	0.563343	7.3652e+06	-39439.1	955.819	-29794.5	0.000000	0.000000	6.562967	0.014808	NaN	0.000000	0.001538	0.001819	28.1247	0.148763	0.001963	75.7972	156.075	-163.935	-0.020597	0.562000	-0.520689	-0.522032	0.014808	75.7972	-0.520835	-6.68669e+06	-2.214596E-9	NaN
16	1.000000	0.603364	7.3652e+06	-39439.1	955.818	-29794.5	0.000000	0.000000	6.602987	0.002951	NaN	0.000000	0.001533	0.001852	28.1259	0.003582	0.002051	1.746104	-38.5781	-164.532	-0.010677	0.602089	-0.480668	-0.481942	0.002951	1.746104	-0.481936	-1.91699e+06	-1.539533E-9	NaN
16	1.000000	0.643378	7.3652e+06	-39439.1	955.819	-29794.5	0.000000	0.000000	6.642998	-0.089834	NaN	0.000000	0.001529	0.001826	28.1251	0.051175	0.001950	26.2393	75.7824	-166.832	-0.163875	0.642078	-0.440654	-0.441954	-0.089834	26.2393	-0.438086	-463814	1.936848E-7	NaN
16	1.000000	0.683387	7.3652e+06	-39439.1	955.818	-29794.5	0.000000	0.000000	6.683009	-0.041243	NaN	0.000000	0.001529	0.001801	28.1275	0.134166	0.001971	68.0639	173.267	-165.067	-0.033720	0.682070	-0.400645	-0.401962	-0.041243	68.0639	-0.400190	-134496	3.066520E-7	NaN
16	1.000000	0.723417	7.3652e+06	-39439.1	955.819	-29794.5	0.000000	0.000000	6.723038	-0.051934	NaN	0.000000	0.001519	0.001818	28.1264	0.058728	0.002000	29.357	-69.158	-168.21	-0.077283	0.722165	-0.360615	-0.361867	-0.051934	29.357	-0.359288	-34798.3	1.492426E-6	NaN
16	1.000000	0.763448	7.3652e+06	-39439.1	955.819	-29794.5	0.000000	0.000000	6.763072	0.008770	NaN	0.000000	0.001591	0.001844	28.1277	0.135380	0.001971	68.7031	122.097	-166.274	-0.013555	0.762050	-0.320584	-0.321982	0.008770	68.7031	-0.320679	-9519.98	-9.212314E-7	NaN
16	1.000000	0.803486	7.3652e+06	-39439.1	955.819	-29794.5	0.000000	0.000000	6.803110	0.020646	NaN	0.000000	0.001563	0.001857	28.1257	0.103315	0.001985	52.0495	107.199	-170.346	-0.056162	0.802140	-0.280546	-0.281891	0.020646	52.0495	-0.280843	-2430.44	-8.494559E-6	NaN
16	1.000000	0.843480	7.3652e+06	-39439.1	955.818	-29794.5	0.000000	0.000000	6.843103	0.010570	NaN	0.000000	0.001539	0.001804	28.1274	0.065325	0.001972	33.1266	54.7102	-168.485	0.049108	0.842111	-0.240552	-0.241921	0.010570	33.1266	-0.240791	-591.439	-1.787125E-5	NaN
16	1.000000	0.883478	7.3652e+06	-39439.1	955.818	-29794.5	0.000000	0.000000	6.883097	-0.093118	NaN	0.000000	0.001573	0.001787	28.1263	0.050803	0.001910	26.6037	-67.7846	-167.792	-0.046998	0.882191	-0.200554	-0.201841	-0.093118	26.6037	-0.197929	-121.788	0.000765	NaN
16	1.000000	0.923485	7.3652e+06	-39439.1	955.819	-29794.5	0.000000	0.000000	6.923108	-0.005078	NaN	0.000000	0.001509	0.001810	28.1289	0.146037	0.001966	74.2792	116.957	-168.877	0.006408	0.922178	-0.160547	-0.161853	-0.005078	74.2792	-0.160496	-27.9763	0.000182	NaN
16	1.000000	0.963507	7.3652e+06	-39439.1	955.818	-29794.5	0.000000	0.000000	6.963125	-0.128496	NaN	0.000000	0.001535	0.001776	28.1278	0.091056	0.001928	47.2376	-153.188	-167.714	-0.068356	0.962236	-0.120525	-0.121796	-0.128496	47.2376	-0.118485	-4.502043	0.028542	NaN
16	1.000000	1.003518	7.3652e+06	-39439.1	955.818	-29794.5	0.000000	0.000000	7.003139	-0.053699	NaN	0.000000	0.001608	0.001803	28.1293	0.078824	0.001921	41.025	9.794642	-165.849	0.066964	1.002239	-0.080514	-0.081793	-0.053699	41.025	-0.079532	-0.602521	0.089123	NaN
16	1.000000	1.043580	7.3652e+06	-39439.1	955.817	-29794.5	0.000000	0.000000	7.043202	-0.019003	NaN	0.000000	0.001617	0.001824	28.1278	0.132429	0.002050	64.5913	-84.4016	-166.157	0.005312	1.042226	-0.040452	-0.041806	-0.019003	64.5913	-0.040232	-0.045961	0.413467	NaN
16	1.000000	1.083542	7.3652e+06	-39439.1	955.818	-29794.5	0.000000	0.000000	7.083168	0.070302	NaN	0.000000	0.001590	0.001835	28.1275	0.241090	0.001973	122.22	-10.0021	-167.201	0.012481	1.082261	-0.000490	-0.001771	0.070302	122.22	-0.000921	-0.000676	-103.934	NaN
16	2.000000	1.101146	7.3652e+06	-39439.1	955.817	-29794.5	0.000000	0.000000	7.101767	24.2839	NaN	0.000000	0.001610	0.001749	28.1267	17.5303	0.001813	9668.58	7.974388	-179.6	23.9572	1.100815	0.017114	0.016783	24.2839	9668.58	0.015231	0.015594	1557.24	70738.4
16	2.000000	1.111081	7.3652e+06	-39439.1	955.819	-29794.5	0.000000	0.000000	7.112625	46.7498	NaN	0.000000	0.001615	0.001759	28.128	27.1807	0.001746	15570.7	5.501223	178.636	44.8932	1.110789	0.027049	0.026757	46.7498	15570.7	0.024797	0.030647	1525.42	81261.8
16	2.000000	1.121086	7.3652e+06	-39439.1	955.819	-29794.5	0.000000	0.000000	7.123916	78.0383	NaN	0.000000	0.001636	0.001723	28.1283	36.7095	0.001897	19353.2	3.406015	-179.988	77.0735	1.120778	0.037054	0.036746	78.0383	19353.2	0.034030	0.049512	1576.15	79464.3
16	2.000000	1.131072	7.3652e+06	-39439.1	955.819	-29794.5	0.000000	0.000000	7.134967	103.973	NaN	0.000000	0.001608	0.001711	28.1296	44.7663	0.001915	23378.4	2.810632	178.743	103.476	1.130776	0.047040	0.046744	103.973	23378.4	0.043704	0.073951	1405.97	78544.3
16	2.000000	1.141101	7.3652e+06	-39439.1	955.819	-29794.5	0.000000	0.000000	7.146734	146.236	NaN	0.000000	0.001514	0.001696	28.1288	54.2757	0.001759	30863.1	5.299229	173.541	147.169	1.140727	0.057069	0.056695	146.236	30863.1	0.053515	0.103588	1411.7	87610.7
16	2.000000	1.150995	7.3652e+06	-39439.1	955.819	-29794.5	0.000000	0.000000	7.158924	202.135	NaN	0.000000	0.001589	0.001755	28.1298	63.8403	0.001825	34987.9	3.622203	174.604	198.643	1.150632	0.066963	0.066601	202.135	34987.9	0.062630	0.135408	1492.79	86870
16	2.000000	1.161029	7.3652e+06	-39439.1	955.818	-29794.5	0.000000	0.000000	7.171171	255.964	NaN	0.000000	0.001573	0.001710	28.1277	73.2431	0.001794	40821	4.961769	172.034	253.634	1.160720	0.076997	0.076688	255.964	40821	0.072294	0.173546	1474.9	89526.1
16	2.000000	1.170936	7.3652e+06	-39439.1	955.819	-29794.5	0.000000	0.000000	7.183903	324.716	NaN	0.000000	0.001548	0.001723	28.1288	82.0003	0.001827	44883.5	1.626835	175.22	320.919	1.170719	0.086904	0.086687	324.716	44883.5	0.081478	0.213889	1518.15	88667.6
16	2.000000	1.181002	7.3652e+06	-39439.1	955.819	-29794.5	0.000000	0.000000	7.196878	395.507	NaN	0.000000	0.001548	0.001760	28.1278	91.0369	0.001783	51063.7	2.760840	172.95	394.568	1.180740	0.096970	0.096708	395.507	51063.7	0.091161	0.260664	1517.3	91378.6
16	2.000000	1.191043	7.3652e+06	-39439.1	955.819	-29794.5	0.000000	0.000000	7.210433	481.009	NaN	0.000000	0.001538	0.001763	28.1305	102.817	0.001817	56583.3	6.617543	168.016	481.018	1.190735	0.107011	0.106703	481.009	56583.3	0.100635	0.310596	1548.66	92760.6
16	2.000000	1.191912	7.3652e+06	-39439.1	955.819	-29794.5	0.000000	0.000000	7.211702	490.758	NaN	0.000000	0.001571	0.001754	28.0816	102.327	0.001828	55985.7	6.120052	169.306	485.829	1.191595	0.107880	0.107563	490.758	55985.7	0.101306	0.314283	1561.52	91241