File: remote_trans/data/nanoindenter/0828-1/data/Data_2025-08-06,11h17m57s/2025-07-22_16-23-58_1_68.txt
2025-07-22, 16:23:58, 1
Index	Phase	Displacement	Time	Pos X	Pos Y	Pos Z	Rot A	Rot B	Piezo Z	Force A	Force B	Gripper	Voltage A	Voltage B	Temperature	Amplitude force	Amplitude pos	Stiffness	Phase shift	Phase excitation	Force A raw	Displacement raw	HMax	HMax raw	Real Force	Real Stiffness	Contact Depth	Area	Hardness	Reduced Mod.
[#]	[#]	[um]	[s]	[um]	[um]	[um]	[m°]	[m°]	[um]	[uN]	[uN]	[V]	[V]	[V]	[°C]	[uN]	[um]	[N/m]	[°]	[°]	[uN]	[um]	[um]	[um]	[uN]	[N/m]	[um]	[um^2]	[MPa]	[MPa]
68	1.000000	0.002016	7.36571e+06	-42039.1	955.819	-29784.7	0.000000	0.000000	6.002810	-0.008813	NaN	0.000000	0.001551	0.001711	28.1132	0.018404	0.000943	19.5136	162.183	-155.26	-0.036180	0.000770	-1.055996	-1.057243	-0.008813	19.5136	-1.055657	-1.271919E+14	6.929219E-17	NaN
68	1.000000	0.041954	7.36571e+06	-42039.1	955.818	-29784.7	0.000000	0.000000	6.042749	0.014688	NaN	0.000000	0.001556	0.001718	28.1124	0.054400	0.001933	28.1497	1.007849	-163.09	0.007982	0.040660	-1.016059	-1.017352	0.014688	28.1497	-1.016450	-3.777313E+13	-3.888428E-16	NaN
68	1.000000	0.081992	7.36571e+06	-42039.1	955.818	-29784.7	0.000000	0.000000	6.082788	0.027253	NaN	0.000000	0.001584	0.001695	28.1149	0.030870	0.001968	15.6892	0.809139	-164.649	0.022938	0.080632	-0.976020	-0.977380	0.027253	15.6892	-0.977323	-1.122898E+13	-2.427036E-15	NaN
68	1.000000	0.121996	7.36571e+06	-42039.1	955.818	-29784.7	0.000000	0.000000	6.122789	-0.024792	NaN	0.000000	0.001551	0.001745	28.1121	0.081572	0.001966	41.4976	-84.228	-167.063	-0.086587	0.120631	-0.936016	-0.937381	-0.024792	41.4976	-0.935568	-3.071446E+12	8.071647E-15	NaN
68	1.000000	0.161991	7.36571e+06	-42039.1	955.819	-29784.7	0.000000	0.000000	6.162783	-0.049388	NaN	0.000000	0.001567	0.001746	28.1133	0.011324	0.001925	5.882705	120.684	-164.104	-0.069670	0.160734	-0.896022	-0.897279	-0.049388	5.882705	-0.889725	-7.382481E+11	6.689836E-14	NaN
68	1.000000	0.201987	7.36571e+06	-42039.1	955.819	-29784.7	0.000000	0.000000	6.202781	-0.017579	NaN	0.000000	0.001586	0.001709	28.1107	0.103998	0.002087	49.8211	-142.79	-167.502	-0.008511	0.200743	-0.856025	-0.857269	-0.017579	49.8211	-0.855760	-2.562904E+11	6.858857E-14	NaN
68	1.000000	0.242052	7.36571e+06	-42039.1	955.818	-29784.7	0.000000	0.000000	6.242847	0.014686	NaN	0.000000	0.001531	0.001712	28.1114	0.043021	0.002043	21.0536	-166.538	-163.981	0.040865	0.240745	-0.815961	-0.817268	0.014686	21.0536	-0.816484	-7.525324E+10	-1.951484E-13	NaN
68	1.000000	0.282088	7.36571e+06	-42039.1	955.818	-29784.7	0.000000	0.000000	6.282883	0.022000	NaN	0.000000	0.001569	0.001704	28.1099	0.115645	0.001966	58.833	89.5803	-165.93	0.046936	0.280822	-0.775924	-0.777191	0.022000	58.833	-0.776205	-2.136264E+10	-1.029829E-12	NaN
68	1.000000	0.322066	7.36571e+06	-42039.1	955.819	-29784.7	0.000000	0.000000	6.322859	-0.019210	NaN	0.000000	0.001528	0.001762	28.1103	0.083874	0.001833	45.7572	-136.006	-165.57	0.002437	0.320782	-0.735947	-0.737231	-0.019210	45.7572	-0.735632	-5.991712E+9	3.206074E-12	NaN
68	1.000000	0.362074	7.36571e+06	-42039.1	955.818	-29784.7	0.000000	0.000000	6.362870	0.026093	NaN	0.000000	0.001594	0.001725	28.1107	0.097372	0.001903	51.1748	-137.218	-161.55	0.085322	0.360785	-0.695938	-0.697228	0.026093	51.1748	-0.696320	-1.742912E+9	-1.497096E-11	NaN
68	1.000000	0.402106	7.36571e+06	-42039.1	955.818	-29784.7	0.000000	0.000000	6.402900	-0.006317	NaN	0.000000	0.001561	0.001663	28.1116	0.120863	0.002127	56.8326	99.3527	-165.849	-0.003497	0.400781	-0.655907	-0.657231	-0.006317	56.8326	-0.655823	-4.866877E+8	1.298058E-11	NaN
68	1.000000	0.442128	7.36571e+06	-42039.1	955.818	-29784.7	0.000000	0.000000	6.442924	0.032694	NaN	0.000000	0.001576	0.001712	28.1103	0.128881	0.002169	59.4114	-179.178	-163.974	-0.029448	0.440796	-0.615884	-0.617216	0.032694	59.4114	-0.616297	-1.395471E+8	-2.342845E-10	NaN
68	1.000000	0.482152	7.36571e+06	-42039.1	955.818	-29784.7	0.000000	0.000000	6.482945	-0.017830	NaN	0.000000	0.001563	0.001723	28.1101	0.077944	0.002130	36.587	99.2153	-164.541	-0.081929	0.480845	-0.575861	-0.577167	-0.017830	36.587	-0.575495	-3.824162E+7	4.662502E-10	NaN
68	1.000000	0.522138	7.36571e+06	-42039.1	955.818	-29784.7	0.000000	0.000000	6.522930	-0.047150	NaN	0.000000	0.001637	0.001698	28.1085	0.044464	0.002012	22.0989	-88.6337	-165.362	-0.009893	0.520865	-0.535875	-0.537147	-0.047150	22.0989	-0.534275	-1.027835E+7	4.587279E-9	NaN
68	1.000000	0.562186	7.36571e+06	-42039.1	955.819	-29784.7	0.000000	0.000000	6.562979	-0.019028	NaN	0.000000	0.001604	0.001705	28.1094	0.086197	0.002066	41.7155	-142.843	-163.829	-0.014261	0.560873	-0.495827	-0.497139	-0.019028	41.7155	-0.495485	-2.96484e+06	6.417778E-9	NaN
68	1.000000	0.602210	7.36571e+06	-42039.1	955.818	-29784.7	0.000000	0.000000	6.603002	-0.053245	NaN	0.000000	0.001566	0.001724	28.1078	0.039306	0.002039	19.2799	26.3886	-163.46	-0.104447	0.600879	-0.455802	-0.457133	-0.053245	19.2799	-0.453731	-770661	6.909033E-8	NaN
68	1.000000	0.642196	7.36571e+06	-42039.1	955.818	-29784.7	0.000000	0.000000	6.642988	-0.066788	NaN	0.000000	0.001616	0.001748	28.1103	0.106855	0.002048	52.1741	65.5401	-163.891	-0.061610	0.640891	-0.415816	-0.417121	-0.066788	52.1741	-0.414856	-217478	3.071035E-7	NaN
68	1.000000	0.682229	7.36571e+06	-42039.1	955.818	-29784.7	0.000000	0.000000	6.683020	-0.078614	NaN	0.000000	0.001524	0.001732	28.1089	0.079868	0.001990	40.1304	73.6028	-163.197	-0.078371	0.680906	-0.375783	-0.377107	-0.078614	40.1304	-0.374314	-57306.5	1.371814E-6	NaN
68	1.000000	0.722252	7.36571e+06	-42039.1	955.818	-29784.7	0.000000	0.000000	6.723044	-0.067874	NaN	0.000000	0.001594	0.001739	28.1103	0.091681	0.001888	48.5579	-56.182	-167.327	0.013255	0.720955	-0.335760	-0.337057	-0.067874	48.5579	-0.334712	-15288.9	4.439421E-6	NaN
68	1.000000	0.762247	7.36571e+06	-42039.1	955.818	-29784.7	0.000000	0.000000	6.763039	-0.061600	NaN	0.000000	0.001543	0.001761	28.1079	0.033372	0.001850	18.0439	-150.892	-163.194	-0.058012	0.760898	-0.295765	-0.297114	-0.061600	18.0439	-0.293205	-3726.22	1.653158E-5	NaN
68	1.000000	0.802290	7.36571e+06	-42039.1	955.818	-29784.7	0.000000	0.000000	6.803080	-0.103833	NaN	0.000000	0.001502	0.001739	28.1087	0.108729	0.002090	52.0243	-156.979	-163.16	-0.039885	0.800962	-0.255722	-0.257050	-0.103833	52.0243	-0.254225	-955.404	0.000109	NaN
68	1.000000	0.842299	7.36571e+06	-42039.1	955.818	-29784.7	0.000000	0.000000	6.843091	-0.076174	NaN	0.000000	0.001583	0.001667	28.1064	0.132533	0.002032	65.2164	-24.0122	-164.468	-0.108368	0.840954	-0.215713	-0.217059	-0.076174	65.2164	-0.214837	-229.557	0.000332	NaN
68	1.000000	0.882324	7.36571e+06	-42039.1	955.819	-29784.7	0.000000	0.000000	6.883117	-0.035170	NaN	0.000000	0.001629	0.001650	28.1086	0.091526	0.002047	44.7222	-81.122	-165.054	-0.125011	0.881023	-0.175688	-0.176990	-0.035170	44.7222	-0.175099	-50.3122	0.000699	NaN
68	1.000000	0.922335	7.36571e+06	-42039.1	955.818	-29784.7	0.000000	0.000000	6.923127	-0.034577	NaN	0.000000	0.001555	0.001646	28.1079	0.118296	0.001929	61.3147	49.2656	-164.051	0.019650	0.921010	-0.135678	-0.137002	-0.034577	61.3147	-0.135255	-9.619480	0.003594	NaN
68	1.000000	0.962328	7.36571e+06	-42039.1	955.818	-29784.7	0.000000	0.000000	6.963119	-0.082148	NaN	0.000000	0.001621	0.001615	28.1086	0.050078	0.001980	25.2871	-62.7809	-165.364	-0.104034	0.961000	-0.095684	-0.097012	-0.082148	25.2871	-0.093248	-1.286129	0.063873	NaN
68	1.000000	1.002335	7.36571e+06	-42039.1	955.818	-29784.7	0.000000	0.000000	7.003129	-0.001001	NaN	0.000000	0.001546	0.001626	28.1077	0.019052	0.001934	9.851561	-126.24	-166.298	-0.021758	1.001056	-0.055678	-0.056956	-0.001001	9.851561	-0.055602	-0.134151	0.007460	NaN
68	1.000000	1.042382	7.36571e+06	-42039.1	955.818	-29784.7	0.000000	0.000000	7.043176	-0.007679	NaN	0.000000	0.001530	0.001638	28.1072	0.092946	0.001917	48.4777	119.174	-165.698	0.022103	1.041086	-0.015630	-0.016926	-0.007679	48.4777	-0.015511	-0.009584	0.801193	NaN
68	2.000000	1.081846	7.36571e+06	-42039.1	955.818	-29784.7	0.000000	0.000000	7.082968	7.957339	NaN	0.000000	0.001537	0.001658	28.1058	8.506326	0.001682	5056.68	13.8488	-171.641	7.703885	1.081018	0.023834	0.023006	7.957339	5056.68	0.022654	0.026885	295.977	28176.3
68	2.000000	1.091880	7.36571e+06	-42039.1	955.819	-29784.7	0.000000	0.000000	7.093944	30.9022	NaN	0.000000	0.001560	0.001618	28.1072	19.0732	0.001804	10575.3	4.897598	-173.018	29.4001	1.091554	0.033867	0.033542	30.9022	10575.3	0.031676	0.044288	697.75	45911.3
68	2.000000	1.101850	7.36571e+06	-42039.1	955.819	-29784.7	0.000000	0.000000	7.106327	89.6066	NaN	0.000000	0.001542	0.001626	28.1069	29.6028	0.001920	15419.2	6.700787	-179.419	87.4919	1.101561	0.043838	0.043549	89.6066	15419.2	0.039479	0.062690	1429.36	56264.6
68	2.000000	1.111865	7.36571e+06	-42039.1	955.818	-29784.7	0.000000	0.000000	7.118868	151.08	NaN	0.000000	0.001565	0.001614	28.1072	38.487	0.001861	20678	4.864474	179.348	149.915	1.111477	0.053853	0.053465	151.08	20678	0.048373	0.087450	1727.61	63885.3
68	2.000000	1.121821	7.36572e+06	-42039.1	955.818	-29784.7	0.000000	0.000000	7.132115	231.13	NaN	0.000000	0.001548	0.001629	28.1066	49.3977	0.001755	28143	6.467519	174.42	228.759	1.121514	0.063809	0.063502	231.13	28143	0.057649	0.117515	1966.82	75006.4
68	2.000000	1.131775	7.36572e+06	-42039.1	955.818	-29784.7	0.000000	0.000000	7.146065	328.357	NaN	0.000000	0.001557	0.001669	28.1065	58.3789	0.001618	36079.4	3.107434	176.592	323.87	1.131421	0.073763	0.073409	328.357	36079.4	0.066937	0.151852	2162.34	84590.6
68	2.000000	1.141888	7.36572e+06	-42039.1	955.819	-29784.7	0.000000	0.000000	7.160618	436.394	NaN	0.000000	0.001543	0.001650	28.1042	69.57	0.001840	37815.9	3.726997	175.438	438.554	1.141481	0.083876	0.083469	436.394	37815.9	0.075221	0.185973	2346.55	80116.8
68	2.000000	1.151783	7.36572e+06	-42039.1	955.818	-29784.7	0.000000	0.000000	7.174334	529.371	NaN	0.000000	0.001563	0.001606	28.1048	77.0063	0.001748	44061.9	2.944321	174.507	528.339	1.151589	0.093770	0.093577	529.371	44061.9	0.084760	0.229257	2309.07	84076.6
68	2.000000	1.161786	7.36572e+06	-42039.1	955.818	-29784.7	0.000000	0.000000	7.188856	639.319	NaN	0.000000	0.001576	0.001618	28.1034	85.8774	0.001882	45636.3	2.184955	175.499	638.414	1.161489	0.103774	0.103477	639.319	45636.3	0.093267	0.271411	2355.54	80033.1
68	2.000000	1.171685	7.36572e+06	-42039.1	955.818	-29784.7	0.000000	0.000000	7.202734	736.152	NaN	0.000000	0.001575	0.001630	28.1055	95.1117	0.001839	51723.8	3.944187	172.791	732.665	1.171444	0.113672	0.113431	736.152	51723.8	0.102998	0.323682	2274.31	83062.3
68	2.000000	1.180258	7.36572e+06	-42039.1	955.818	-29784.7	0.000000	0.000000	7.215179	830.368	NaN	0.000000	0.001582	0.001620	28.1291	101.118	0.001763	57353	5.352002	-9.011578	826.395	1.179762	0.122245	0.121750	830.368	57353	0.111386	0.372195	2231	85890.3