File: remote_trans/data/nanoindenter/0828-1/data/Data_2025-08-06,11h17m57s/2025-07-22_16-23-58_1_465.txt
2025-07-22, 16:23:58, 1
Index	Phase	Displacement	Time	Pos X	Pos Y	Pos Z	Rot A	Rot B	Piezo Z	Force A	Force B	Gripper	Voltage A	Voltage B	Temperature	Amplitude force	Amplitude pos	Stiffness	Phase shift	Phase excitation	Force A raw	Displacement raw	HMax	HMax raw	Real Force	Real Stiffness	Contact Depth	Area	Hardness	Reduced Mod.
[#]	[#]	[um]	[s]	[um]	[um]	[um]	[m°]	[m°]	[um]	[uN]	[uN]	[V]	[V]	[V]	[°C]	[uN]	[um]	[N/m]	[°]	[°]	[uN]	[um]	[um]	[um]	[uN]	[N/m]	[um]	[um^2]	[MPa]	[MPa]
465	1.000000	0.002382	7.3696e+06	-53839.1	1005.82	-29745.2	0.000000	0.000000	6.002819	-0.023697	NaN	0.000000	0.001600	0.001746	28.0835	0.029019	0.000904	32.0838	-108.967	-153.739	0.020685	0.001132	-0.995405	-0.996655	-0.023697	32.0838	-0.994851	-1.933934E+13	1.225328E-15	NaN
465	1.000000	0.040303	7.36961e+06	-53839.1	1005.82	-29745.2	0.000000	0.000000	6.040741	0.026491	NaN	0.000000	0.001617	0.001703	28.0831	0.051487	0.002072	24.8441	135.778	9.654286	0.119751	0.038983	-0.957485	-0.958804	0.026491	24.8441	-0.958284	-6.219250E+12	-4.259558E-15	NaN
465	1.000000	0.078334	7.36961e+06	-53839.1	1005.82	-29745.2	0.000000	0.000000	6.078769	-0.043885	NaN	0.000000	0.001625	0.001752	28.0816	0.054155	0.001866	29.0151	-98.1035	-163.025	-0.104508	0.077007	-0.919453	-0.920780	-0.043885	29.0151	-0.918319	-1.796842E+12	2.442344E-14	NaN
465	1.000000	0.116359	7.36961e+06	-53839.1	1005.82	-29745.3	0.000000	0.000000	6.116795	-0.028992	NaN	0.000000	0.001602	0.001722	28.0817	0.084163	0.001963	42.8678	76.2186	17.5682	-0.049026	0.114970	-0.881428	-0.882817	-0.028992	42.8678	-0.880921	-5.612633E+11	5.165515E-14	NaN
465	1.000000	0.154343	7.36961e+06	-53839.1	1005.82	-29745.3	0.000000	0.000000	6.154777	-0.096622	NaN	0.000000	0.001549	0.001701	28.0816	0.067120	0.002047	32.7858	-67.3795	-163.554	-0.081563	0.153027	-0.843444	-0.844761	-0.096622	32.7858	-0.841234	-1.629316E+11	5.930227E-13	NaN
465	1.000000	0.192382	7.36961e+06	-53839.1	1005.82	-29745.3	0.000000	0.000000	6.192818	-0.038693	NaN	0.000000	0.001610	0.001700	28.0826	0.052832	0.002078	25.4287	-141.034	15.9873	-0.028714	0.191062	-0.805405	-0.806725	-0.038693	25.4287	-0.804264	-5.137318E+10	7.531655E-13	NaN
465	1.000000	0.230371	7.36961e+06	-53839.1	1005.82	-29745.3	0.000000	0.000000	6.230805	-0.083344	NaN	0.000000	0.001527	0.001691	28.0826	0.068198	0.002001	34.0823	-62.5096	-162.842	-0.039014	0.229078	-0.767416	-0.768709	-0.083344	34.0823	-0.765582	-1.531895E+10	5.440598E-12	NaN
465	1.000000	0.268440	7.36961e+06	-53839.1	1005.82	-29745.3	0.000000	0.000000	6.268879	0.030871	NaN	0.000000	0.001560	0.001689	28.0828	0.069243	0.001924	35.9947	-129.62	15.1435	0.063908	0.267023	-0.729347	-0.730764	0.030871	35.9947	-0.729990	-5.019675E+9	-6.150041E-12	NaN
465	1.000000	0.306433	7.36961e+06	-53839.1	1005.82	-29745.3	0.000000	0.000000	6.306870	-0.021468	NaN	0.000000	0.001505	0.001690	28.0832	0.076124	0.001995	38.1596	9.882630	-165.823	-0.077185	0.305099	-0.691354	-0.692688	-0.021468	38.1596	-0.690932	-1.471135E+9	1.459257E-11	NaN
465	1.000000	0.344433	7.36961e+06	-53839.1	1005.82	-29745.3	0.000000	0.000000	6.344869	-0.011811	NaN	0.000000	0.001554	0.001675	28.082	0.114261	0.002013	56.7748	105.975	14.7191	-0.029925	0.343082	-0.653355	-0.654706	-0.011811	56.7748	-0.653199	-4.480035E+8	2.636268E-11	NaN
465	1.000000	0.382440	7.36961e+06	-53839.1	1005.82	-29745.3	0.000000	0.000000	6.382876	-0.029751	NaN	0.000000	0.001583	0.001754	28.0819	0.135637	0.002003	67.7103	48.2338	-167.618	-0.032889	0.381183	-0.615347	-0.616604	-0.029751	67.7103	-0.615017	-1.340079E+8	2.220080E-10	NaN
465	1.000000	0.420485	7.36961e+06	-53839.1	1005.82	-29745.3	0.000000	0.000000	6.420923	0.010844	NaN	0.000000	0.001589	0.001705	28.082	0.046582	0.002050	22.7232	96.4521	8.799308	-0.060987	0.419099	-0.577302	-0.578688	0.010844	22.7232	-0.577660	-4.096639E+7	-2.647165E-10	NaN
465	1.000000	0.458491	7.36961e+06	-53839.1	1005.82	-29745.3	0.000000	0.000000	6.458931	0.050225	NaN	0.000000	0.001546	0.001677	28.0821	0.139356	0.002014	69.2088	32.8592	-168.539	0.060204	0.457176	-0.539296	-0.540611	0.050225	69.2088	-0.539840	-1.227847E+7	-4.090535E-9	NaN
465	1.000000	0.496511	7.36961e+06	-53839.1	1005.82	-29745.3	0.000000	0.000000	6.496947	-0.022280	NaN	0.000000	0.001561	0.001704	28.0832	0.100484	0.002008	50.0466	167.355	15.7812	-0.031550	0.495167	-0.501276	-0.502620	-0.022280	50.0466	-0.500942	-3.53317e+06	6.306033E-9	NaN
465	1.000000	0.534511	7.36961e+06	-53839.1	1005.82	-29745.3	0.000000	0.000000	6.534947	-0.039244	NaN	0.000000	0.001494	0.001706	28.0829	0.032171	0.002001	16.0769	69.2368	-165.633	-0.069039	0.533196	-0.463276	-0.464591	-0.039244	16.0769	-0.461445	-989297	3.966865E-8	NaN
465	1.000000	0.572510	7.36961e+06	-53839.1	1005.82	-29745.3	0.000000	0.000000	6.572944	-0.085500	NaN	0.000000	0.001546	0.001691	28.0833	0.053511	0.001939	27.6021	-179.041	16.9079	-0.152657	0.571251	-0.425277	-0.426536	-0.085500	27.6021	-0.422954	-283330	3.017696E-7	NaN
465	1.000000	0.610532	7.36961e+06	-53839.1	1005.82	-29745.3	0.000000	0.000000	6.610968	-0.033715	NaN	0.000000	0.001557	0.001687	28.0818	0.123830	0.001800	68.7895	-124.56	-167.452	-0.003969	0.609251	-0.387255	-0.388537	-0.033715	68.7895	-0.386887	-86819.6	3.883290E-7	NaN
465	1.000000	0.648559	7.36961e+06	-53839.1	1005.82	-29745.3	0.000000	0.000000	6.648994	-0.052209	NaN	0.000000	0.001568	0.001700	28.0823	0.060217	0.002057	29.2676	-52.4874	16.1555	-0.128075	0.647206	-0.349228	-0.350581	-0.052209	29.2676	-0.347890	-23788.5	2.194721E-6	NaN
465	1.000000	0.686590	7.36961e+06	-53839.1	1005.82	-29745.3	0.000000	0.000000	6.687024	-0.074650	NaN	0.000000	0.001529	0.001726	28.0821	0.028463	0.002093	13.6014	37.2754	-166.988	-0.016772	0.685284	-0.311198	-0.312503	-0.074650	13.6014	-0.307081	-5995.54	1.245091E-5	NaN
465	1.000000	0.724582	7.36961e+06	-53839.1	1005.82	-29745.3	0.000000	0.000000	6.725019	-0.021775	NaN	0.000000	0.001613	0.001751	28.082	0.010744	0.002010	5.343911	-113.86	15.8721	-0.024753	0.723226	-0.273205	-0.274561	-0.021775	5.343911	-0.270149	-1674.2	1.300618E-5	NaN
465	1.000000	0.762592	7.36961e+06	-53839.1	1005.82	-29745.3	0.000000	0.000000	6.763031	0.024072	NaN	0.000000	0.001639	0.001701	28.0835	0.103530	0.001986	52.1271	171.346	-166.294	-0.086085	0.761305	-0.235195	-0.236483	0.024072	52.1271	-0.235541	-489.49	-4.917673E-5	NaN
465	1.000000	0.800637	7.36961e+06	-53839.1	1005.82	-29745.3	0.000000	0.000000	6.801074	-0.023751	NaN	0.000000	0.001623	0.001675	28.0832	0.058814	0.002048	28.7109	153.333	18.1025	0.079024	0.799268	-0.197150	-0.198519	-0.023751	28.7109	-0.196529	-115.479	0.000206	NaN
465	1.000000	0.838644	7.36961e+06	-53839.1	1005.82	-29745.3	0.000000	0.000000	6.839082	0.009283	NaN	0.000000	0.001619	0.001721	28.0832	0.045976	0.002050	22.4243	-87.3051	-165.38	-0.019628	0.837332	-0.159143	-0.160455	0.009283	22.4243	-0.159453	-26.8082	-0.000346	NaN
465	1.000000	0.876680	7.36961e+06	-53839.1	1005.82	-29745.3	0.000000	0.000000	6.877116	-0.023463	NaN	0.000000	0.001613	0.001715	28.082	0.065630	0.001995	32.8996	-63.0787	11.6435	-0.042258	0.875293	-0.121107	-0.122494	-0.023463	32.8996	-0.120572	-4.961607	0.004729	NaN
465	1.000000	0.914679	7.36961e+06	-53839.1	1005.82	-29745.3	0.000000	0.000000	6.915117	0.000461	NaN	0.000000	0.001613	0.001698	28.0821	0.149847	0.002008	74.6118	-104.052	-167.393	0.043380	0.913398	-0.083108	-0.084390	0.000461	74.6118	-0.083113	-0.739129	-0.000624	NaN
465	1.000000	0.952685	7.36961e+06	-53839.1	1005.82	-29745.3	0.000000	0.000000	6.953123	0.009106	NaN	0.000000	0.001621	0.001728	28.0819	0.033954	0.002102	16.1496	12.9833	15.2356	0.014232	0.951333	-0.045102	-0.046454	0.009106	16.1496	-0.045525	-0.066688	-0.136544	NaN
465	1.000000	0.990699	7.36961e+06	-53839.1	1005.82	-29745.3	0.000000	0.000000	6.991135	-0.032607	NaN	0.000000	0.001624	0.001721	28.082	0.070723	0.001990	35.5458	-10.6393	-166.439	0.005670	0.989382	-0.007088	-0.008405	-0.032607	35.5458	-0.006400	-0.004280	7.619177	NaN
465	2.000000	1.011707	7.36961e+06	-53839.1	1005.82	-29745.3	0.000000	0.000000	7.012750	14.7267	NaN	0.000000	0.001618	0.001695	28.0832	15.4073	0.001758	8761.78	7.804904	3.266196	14.721	1.011366	0.013920	0.013579	14.7267	8761.78	0.012659	0.012289	1198.32	72210.3
465	2.000000	1.021176	7.36961e+06	-53839.1	1005.82	-29745.3	0.000000	0.000000	7.023055	35.0484	NaN	0.000000	0.001638	0.001674	28.0835	25.9264	0.001762	14714.3	2.962973	-177.618	33.3955	1.020883	0.023389	0.023096	35.0484	14714.3	0.021602	0.025123	1395.08	84816.4
465	2.000000	1.030611	7.36961e+06	-53839.1	1005.82	-29745.3	0.000000	0.000000	7.033671	63.76	NaN	0.000000	0.001631	0.001705	28.0831	35.2597	0.001802	19568.9	9.543859	-6.108092	60.8518	1.030247	0.032824	0.032460	63.76	19568.9	0.030380	0.041536	1535.07	87725.9
465	2.000000	1.040148	7.36961e+06	-53839.1	1005.82	-29745.3	0.000000	0.000000	7.044518	95.6205	NaN	0.000000	0.001681	0.001713	28.0833	44.6471	0.001826	24449.8	4.939848	177.062	96.9318	1.039818	0.042361	0.042031	95.6205	24449.8	0.039428	0.062557	1528.53	89311.7
465	2.000000	1.049576	7.36961e+06	-53839.1	1005.82	-29745.3	0.000000	0.000000	7.055518	133.826	NaN	0.000000	0.001645	0.001748	28.0824	54.7893	0.001824	30034	4.323287	-4.946069	131.656	1.049259	0.051789	0.051472	133.826	30034	0.048447	0.087673	1526.43	92673.1
465	2.000000	1.059030	7.36961e+06	-53839.1	1005.82	-29745.3	0.000000	0.000000	7.066899	180.665	NaN	0.000000	0.001621	0.001765	28.0821	64.9639	0.001852	35083.1	8.023394	169.644	175.649	1.058812	0.061243	0.061025	180.665	35083.1	0.057381	0.116583	1549.67	93875.8
465	2.000000	1.068577	7.36961e+06	-53839.1	1005.82	-29745.3	0.000000	0.000000	7.078924	240.924	NaN	0.000000	0.001620	0.001730	28.0823	74.6982	0.001744	42833.2	6.394316	-9.690731	237.858	1.068235	0.070790	0.070448	240.924	42833.2	0.066572	0.150422	1601.65	100901
465	2.000000	1.078205	7.36961e+06	-53839.1	1005.82	-29745.3	0.000000	0.000000	7.090890	297.769	NaN	0.000000	0.001637	0.001713	28.0835	84.8153	0.001801	47087.7	5.254321	171.142	304.275	1.077910	0.080418	0.080123	297.769	47087.7	0.075675	0.187937	1584.41	99237.3
465	2.000000	1.087558	7.36961e+06	-53839.1	1005.82	-29745.3	0.000000	0.000000	7.103411	374.786	NaN	0.000000	0.001611	0.001672	28.0833	92.0039	0.001737	52963	5.724697	-9.702574	369.832	1.087095	0.089771	0.089308	374.786	52963	0.084464	0.227850	1644.88	101373
465	2.000000	1.097229	7.36961e+06	-53839.1	1005.82	-29745.3	0.000000	0.000000	7.115766	440.033	NaN	0.000000	0.001586	0.001707	28.084	102.063	0.001832	55712.5	4.025307	171.489	451.174	1.096796	0.099442	0.099009	440.033	55712.5	0.093518	0.272704	1613.59	97472
465	2.000000	1.104781	7.36961e+06	-53839.1	1005.82	-29745.3	0.000000	0.000000	7.126216	510.491	NaN	0.000000	0.001664	0.001685	28.0835	111.546	0.001819	61327.1	9.929336	-14.318	522.534	1.104145	0.106994	0.106358	510.491	61327.1	0.100751	0.311228	1640.25	100435