File: remote_trans/data/nanoindenter/0828-1/data/Data_2025-08-06,11h17m57s/2025-07-22_16-23-58_1_234.txt
2025-07-22, 16:23:58, 1
Index	Phase	Displacement	Time	Pos X	Pos Y	Pos Z	Rot A	Rot B	Piezo Z	Force A	Force B	Gripper	Voltage A	Voltage B	Temperature	Amplitude force	Amplitude pos	Stiffness	Phase shift	Phase excitation	Force A raw	Displacement raw	HMax	HMax raw	Real Force	Real Stiffness	Contact Depth	Area	Hardness	Reduced Mod.
[#]	[#]	[um]	[s]	[um]	[um]	[um]	[m°]	[m°]	[um]	[uN]	[uN]	[V]	[V]	[V]	[°C]	[uN]	[um]	[N/m]	[°]	[°]	[uN]	[um]	[um]	[um]	[uN]	[N/m]	[um]	[um^2]	[MPa]	[MPa]
234	1.000000	0.002400	7.36733e+06	-50339.1	955.82	-29756.3	0.000000	0.000000	6.002727	0.037870	NaN	0.000000	0.001602	0.001591	28.0785	0.057276	0.001014	56.5098	116.931	174.963	0.093495	0.001149	-1.089760	-1.091010	0.037870	56.5098	-1.090262	-3.709638E+14	-1.020853E-16	NaN
234	1.000000	0.044373	7.36733e+06	-50339.1	955.819	-29756.3	0.000000	0.000000	6.044701	0.047504	NaN	0.000000	0.001643	0.001593	28.0785	0.037926	0.002015	18.8185	104.151	-5.344445	0.017609	0.043054	-1.047786	-1.049105	0.047504	18.8185	-1.049679	-1.057061E+14	-4.493955E-16	NaN
234	1.000000	0.086371	7.36733e+06	-50339.1	955.819	-29756.3	0.000000	0.000000	6.086697	0.022660	NaN	0.000000	0.001621	0.001571	28.0794	0.081113	0.001972	41.1417	-112.141	173.2	0.069652	0.085070	-1.005788	-1.007089	0.022660	41.1417	-1.006201	-2.749503E+13	-8.241447E-16	NaN
234	1.000000	0.128388	7.36733e+06	-50339.1	955.82	-29756.3	0.000000	0.000000	6.128714	-0.001240	NaN	0.000000	0.001675	0.001593	28.08	0.023845	0.002047	11.6506	-177.935	-2.951005	0.110616	0.127013	-0.963771	-0.965147	-0.001240	11.6506	-0.963691	-7.355864E+12	1.685057E-16	NaN
234	1.000000	0.170413	7.36733e+06	-50339.1	955.819	-29756.3	0.000000	0.000000	6.170742	0.093317	NaN	0.000000	0.001653	0.001619	28.0795	0.036517	0.001987	18.3826	-98.5978	174.413	0.068464	0.169099	-0.921746	-0.923060	0.093317	18.3826	-0.925554	-2.249992E+12	-4.147434E-14	NaN
234	1.000000	0.212426	7.36733e+06	-50339.1	955.818	-29756.3	0.000000	0.000000	6.212755	0.060437	NaN	0.000000	0.001659	0.001616	28.0787	0.053023	0.002105	25.1875	14.808	-3.486251	0.099546	0.211086	-0.879733	-0.881073	0.060437	25.1875	-0.881532	-5.720478E+11	-1.056505E-13	NaN
234	1.000000	0.254450	7.36733e+06	-50339.1	955.819	-29756.4	0.000000	0.000000	6.254773	-0.059969	NaN	0.000000	0.001648	0.001611	28.0786	0.020806	0.002008	10.3628	48.5256	176.333	-0.098608	0.253161	-0.837709	-0.838998	-0.059969	10.3628	-0.833369	-1.274813E+11	4.704110E-13	NaN
234	1.000000	0.296434	7.36734e+06	-50339.1	955.819	-29756.4	0.000000	0.000000	6.296760	0.002025	NaN	0.000000	0.001735	0.001587	28.0782	0.049203	0.001971	24.9627	-107.068	-5.222545	-0.046748	0.295066	-0.795725	-0.797093	0.002025	24.9627	-0.795786	-3.941445E+10	-5.138638E-14	NaN
234	1.000000	0.338489	7.36734e+06	-50339.1	955.819	-29756.4	0.000000	0.000000	6.338816	0.029986	NaN	0.000000	0.001739	0.001570	28.0796	0.063982	0.001955	32.724	-79.2979	179.17	0.028293	0.337156	-0.753670	-0.755003	0.029986	32.724	-0.754357	-1.077765E+10	-2.782193E-12	NaN
234	1.000000	0.380490	7.36734e+06	-50339.1	955.818	-29756.4	0.000000	0.000000	6.380816	0.012727	NaN	0.000000	0.001743	0.001600	28.0797	0.025312	0.002074	12.2016	-95.0054	-4.329404	0.035490	0.379101	-0.711670	-0.713058	0.012727	12.2016	-0.712452	-2.894054E+9	-4.397746E-12	NaN
234	1.000000	0.422519	7.36734e+06	-50339.1	955.818	-29756.4	0.000000	0.000000	6.422846	0.011586	NaN	0.000000	0.001663	0.001625	28.0798	0.145906	0.002015	72.4269	58.7387	173.415	-0.022707	0.421186	-0.669640	-0.670973	0.011586	72.4269	-0.669760	-7.552700E+8	-1.534002E-11	NaN
234	1.000000	0.464536	7.36734e+06	-50339.1	955.819	-29756.4	0.000000	0.000000	6.464862	-0.009629	NaN	0.000000	0.001730	0.001583	28.0793	0.099330	0.002043	48.6217	-24.2359	-1.983251	0.063268	0.463260	-0.627623	-0.628899	-0.009629	48.6217	-0.627474	-1.987639E+8	4.844232E-11	NaN
234	1.000000	0.506559	7.36734e+06	-50339.1	955.819	-29756.4	0.000000	0.000000	6.506884	-0.018733	NaN	0.000000	0.001754	0.001610	28.0785	0.054019	0.002003	26.966	149.955	177.089	-0.061567	0.505270	-0.585600	-0.586889	-0.018733	26.966	-0.585079	-5.185745E+7	3.612317E-10	NaN
234	1.000000	0.548578	7.36734e+06	-50339.1	955.818	-29756.4	0.000000	0.000000	6.548901	-0.048923	NaN	0.000000	0.001755	0.001606	28.0784	0.081131	0.002027	40.034	66.4414	-6.841020	-0.055059	0.547201	-0.543582	-0.544958	-0.048923	40.034	-0.542665	-1.343730E+7	3.640861E-9	NaN
234	1.000000	0.590589	7.36734e+06	-50339.1	955.819	-29756.4	0.000000	0.000000	6.590916	0.031055	NaN	0.000000	0.001738	0.001636	28.0783	0.050636	0.002005	25.2527	-39.2856	174.313	0.098196	0.589261	-0.501571	-0.502898	0.031055	25.2527	-0.502493	-3.71354e+06	-8.362569E-9	NaN
234	1.000000	0.632619	7.36734e+06	-50339.1	955.82	-29756.4	0.000000	0.000000	6.632942	-0.067626	NaN	0.000000	0.001734	0.001586	28.0796	0.060587	0.001946	31.1355	87.6797	-7.331609	-0.142240	0.631208	-0.459540	-0.460951	-0.067626	31.1355	-0.457911	-882385	7.663989E-8	NaN
234	1.000000	0.674636	7.36734e+06	-50339.1	955.819	-29756.4	0.000000	0.000000	6.674964	0.053171	NaN	0.000000	0.001750	0.001521	28.0798	0.047353	0.002045	23.1612	-130.628	174.187	0.004309	0.673340	-0.417523	-0.418819	0.053171	23.1612	-0.419245	-251020	-2.118210E-7	NaN
234	1.000000	0.716634	7.36734e+06	-50339.1	955.819	-29756.4	0.000000	0.000000	6.716958	-0.035640	NaN	0.000000	0.001704	0.001586	28.08	0.051789	0.001968	26.3118	-166.233	-5.509216	0.033576	0.715267	-0.375525	-0.376892	-0.035640	26.3118	-0.374509	-57678.8	6.179055E-7	NaN
234	1.000000	0.758645	7.36734e+06	-50339.1	955.819	-29756.4	0.000000	0.000000	6.758972	0.012792	NaN	0.000000	0.001703	0.001559	28.0785	0.050947	0.001999	25.4843	109.209	175.054	-0.008928	0.757357	-0.333514	-0.334802	0.012792	25.4843	-0.333890	-14871.9	-8.601304E-7	NaN
234	1.000000	0.800685	7.36734e+06	-50339.1	955.819	-29756.4	0.000000	0.000000	6.801013	0.042000	NaN	0.000000	0.001628	0.001585	28.0785	0.056150	0.002035	27.5957	60.4898	-3.802775	-0.007267	0.799289	-0.291474	-0.292870	0.042000	27.5957	-0.292615	-3651.33	-1.150263E-5	NaN
234	1.000000	0.842707	7.36734e+06	-50339.1	955.819	-29756.4	0.000000	0.000000	6.843034	0.025555	NaN	0.000000	0.001667	0.001587	28.0785	0.050530	0.001978	25.5496	36.1739	175.095	0.071030	0.841352	-0.249452	-0.250807	0.025555	25.5496	-0.250202	-828.123	-3.085880E-5	NaN
234	1.000000	0.884674	7.36734e+06	-50339.1	955.819	-29756.4	0.000000	0.000000	6.885000	0.007803	NaN	0.000000	0.001634	0.001549	28.0797	0.014399	0.001990	7.236708	32.139	-3.551161	-0.058630	0.883386	-0.207485	-0.208773	0.007803	7.236708	-0.208294	-179.95	-4.335975E-5	NaN
234	1.000000	0.926765	7.36734e+06	-50339.1	955.819	-29756.4	0.000000	0.000000	6.927094	0.081615	NaN	0.000000	0.001637	0.001547	28.08	0.017829	0.002054	8.679718	159.963	175.68	0.059817	0.925385	-0.165394	-0.166774	0.081615	8.679718	-0.172447	-45.2887	-0.001802	NaN
234	1.000000	0.968711	7.36734e+06	-50339.1	955.819	-29756.4	0.000000	0.000000	6.969037	0.014135	NaN	0.000000	0.001655	0.001589	28.0799	0.105573	0.002006	52.6279	88.9539	-2.499954	-0.017407	0.967419	-0.123449	-0.124740	0.014135	52.6279	-0.123650	-5.717560	-0.002472	NaN
234	1.000000	1.010747	7.36734e+06	-50339.1	955.818	-29756.4	0.000000	0.000000	7.011075	0.038468	NaN	0.000000	0.001668	0.001597	28.0791	0.062279	0.001943	32.0595	-28.8823	175.251	0.027884	1.009451	-0.081412	-0.082708	0.038468	32.0595	-0.082312	-0.706401	-0.054457	NaN
234	1.000000	1.052773	7.36734e+06	-50339.1	955.819	-29756.4	0.000000	0.000000	7.053098	-0.004768	NaN	0.000000	0.001689	0.001603	28.0785	0.049719	0.001878	26.4681	-126.441	-5.350115	0.066233	1.051433	-0.039386	-0.040726	-0.004768	26.4681	-0.039251	-0.042918	0.111095	NaN
234	1.000000	1.094822	7.36734e+06	-50339.1	955.82	-29756.4	0.000000	0.000000	7.095156	0.211946	NaN	0.000000	0.001687	0.001642	28.0785	0.300399	0.002058	145.943	2.747745	176.946	0.033505	1.093467	0.002663	0.001308	0.211946	145.943	0.001573	0.001213	174.753	3828.75
234	2.000000	1.113907	7.36734e+06	-50339.1	955.82	-29756.4	0.000000	0.000000	7.115113	21.4088	NaN	0.000000	0.001725	0.001600	28.0787	18.313	0.001773	10331.6	3.837626	-11.1633	20.6977	1.113540	0.021748	0.021381	21.4088	10331.6	0.020194	0.022848	937.019	62447.8
234	2.000000	1.124331	7.36734e+06	-50339.1	955.819	-29756.4	0.000000	0.000000	7.126608	47.4488	NaN	0.000000	0.001752	0.001623	28.0797	29.0019	0.001748	16595.6	3.209715	163.979	45.8227	1.123945	0.032172	0.031786	47.4488	16595.6	0.030027	0.040800	1162.95	75064.5
234	2.000000	1.134800	7.36734e+06	-50339.1	955.82	-29756.4	0.000000	0.000000	7.138246	75.8696	NaN	0.000000	0.001634	0.001608	28.0801	38.6126	0.001759	21950.8	4.955441	-21.2173	73.9612	1.134526	0.042641	0.042367	75.8696	21950.8	0.040049	0.064154	1182.61	79179.3
234	2.000000	1.145271	7.36734e+06	-50339.1	955.819	-29756.4	0.000000	0.000000	7.150596	121.58	NaN	0.000000	0.001618	0.001608	28.0799	48.8455	0.001852	26373.1	5.447704	158.033	119.936	1.144950	0.053111	0.052791	121.58	26373.1	0.049654	0.091347	1330.97	79723.9
234	2.000000	1.155771	7.36734e+06	-50339.1	955.819	-29756.4	0.000000	0.000000	7.163240	173.707	NaN	0.000000	0.001600	0.001566	28.0786	57.2976	0.001730	33112.4	3.623351	-23.0019	170.117	1.155456	0.063612	0.063297	173.707	33112.4	0.059678	0.124655	1393.51	85686
234	2.000000	1.166229	7.36734e+06	-50339.1	955.819	-29756.4	0.000000	0.000000	7.176357	238.369	NaN	0.000000	0.001654	0.001601	28.0784	68.1346	0.001735	39267.4	3.726264	156.726	234.237	1.165927	0.074070	0.073768	238.369	39267.4	0.069517	0.162129	1470.24	89099.6
234	2.000000	1.176810	7.36734e+06	-50339.1	955.818	-29756.4	0.000000	0.000000	7.189391	298.034	NaN	0.000000	0.001644	0.001577	28.0783	79.2217	0.001709	46343.9	7.876232	-29.0576	300.29	1.176518	0.084651	0.084359	298.034	46343.9	0.079827	0.206346	1444.34	93211
234	2.000000	1.187286	7.36734e+06	-50339.1	955.818	-29756.4	0.000000	0.000000	7.202809	369.57	NaN	0.000000	0.001787	0.001571	28.0796	88.6968	0.001777	49901.6	5.966139	151.553	370.064	1.187191	0.095127	0.095032	369.57	49901.6	0.089572	0.252695	1462.52	90696.3
234	2.000000	1.197708	7.36734e+06	-50339.1	955.818	-29756.4	0.000000	0.000000	7.216830	457.1	NaN	0.000000	0.001718	0.001585	28.0797	99.2314	0.001896	52324.9	3.609329	-25.4016	455.272	1.197358	0.105549	0.105199	457.1	52324.9	0.098997	0.301669	1515.24	87039.5
234	2.000000	1.204804	7.36734e+06	-50339.1	955.818	-29756.4	0.000000	0.000000	7.225864	504.217	NaN	0.000000	0.001734	0.001560	28.08	105.282	0.001884	55893.9	5.469361	-27.7962	504.996	1.204430	0.112645	0.112271	504.217	55893.9	0.105879	0.339984	1483.06	87580.6