File: remote_trans/data/nanoindenter/0828-1/data/Data_2025-08-06,11h17m57s/2025-07-22_16-23-58_1_550.txt
2025-07-22, 16:23:58, 1
Index	Phase	Displacement	Time	Pos X	Pos Y	Pos Z	Rot A	Rot B	Piezo Z	Force A	Force B	Gripper	Voltage A	Voltage B	Temperature	Amplitude force	Amplitude pos	Stiffness	Phase shift	Phase excitation	Force A raw	Displacement raw	HMax	HMax raw	Real Force	Real Stiffness	Contact Depth	Area	Hardness	Reduced Mod.
[#]	[#]	[um]	[s]	[um]	[um]	[um]	[m°]	[m°]	[um]	[uN]	[uN]	[V]	[V]	[V]	[°C]	[uN]	[um]	[N/m]	[°]	[°]	[uN]	[um]	[um]	[um]	[uN]	[N/m]	[um]	[um^2]	[MPa]	[MPa]
550	1.000000	0.002202	7.37043e+06	-49589.1	1005.82	-29758.5	0.000000	0.000000	6.002771	-0.053389	NaN	0.000000	0.001593	0.001766	28.0798	0.026310	0.000911	28.8826	137.611	-170.97	-0.050513	0.000972	-1.068330	-1.069559	-0.053389	28.8826	-1.066943	-1.803514E+14	2.960297E-16	NaN
550	1.000000	0.042206	7.37043e+06	-49589.1	1005.82	-29758.5	0.000000	0.000000	6.042773	-0.090497	NaN	0.000000	0.001602	0.001745	28.0792	0.060288	0.001988	30.331	-121.441	-165.36	-0.124035	0.040909	-1.028325	-1.029622	-0.090497	30.331	-1.026088	-5.091598E+13	1.777381E-15	NaN
550	1.000000	0.082201	7.37043e+06	-49589.1	1005.82	-29758.5	0.000000	0.000000	6.082773	0.021242	NaN	0.000000	0.001613	0.001749	28.0792	0.024227	0.002042	11.864	-75.1196	-163.221	0.038098	0.080875	-0.988330	-0.989656	0.021242	11.864	-0.989673	-1.647045E+13	-1.289677E-15	NaN
550	1.000000	0.122204	7.37043e+06	-49589.1	1005.82	-29758.5	0.000000	0.000000	6.122776	0.012573	NaN	0.000000	0.001610	0.001735	28.0795	0.104646	0.001862	56.1878	-109.887	-164.57	-0.029895	0.120899	-0.948327	-0.949632	0.012573	56.1878	-0.948495	-4.589078E+12	-2.739742E-15	NaN
550	1.000000	0.162219	7.37043e+06	-49589.1	1005.82	-29758.5	0.000000	0.000000	6.162788	-0.055591	NaN	0.000000	0.001621	0.001705	28.0804	0.065214	0.002040	31.969	162.838	-165.819	0.020991	0.160925	-0.908312	-0.909606	-0.055591	31.969	-0.907007	-1.263979E+12	4.398086E-14	NaN
550	1.000000	0.202245	7.37043e+06	-49589.1	1005.82	-29758.5	0.000000	0.000000	6.202817	0.020789	NaN	0.000000	0.001623	0.001751	28.0803	0.080864	0.001985	40.7412	-124.732	-165.682	0.005946	0.200888	-0.868287	-0.869643	0.020789	40.7412	-0.868669	-3.832117E+11	-5.424983E-14	NaN
550	1.000000	0.242249	7.37043e+06	-49589.1	1005.82	-29758.5	0.000000	0.000000	6.242818	-0.061403	NaN	0.000000	0.001588	0.001707	28.0803	0.101037	0.002025	49.8959	-43.6108	-166.424	-0.027177	0.240957	-0.828282	-0.829574	-0.061403	49.8959	-0.827359	-1.056775E+11	5.810393E-13	NaN
550	1.000000	0.282280	7.37043e+06	-49589.1	1005.82	-29758.5	0.000000	0.000000	6.282849	-0.059544	NaN	0.000000	0.001627	0.001740	28.079	0.027596	0.002043	13.5061	-35.0148	-167.175	-0.066555	0.281012	-0.788251	-0.789519	-0.059544	13.5061	-0.784945	-2.808127E+10	2.120425E-12	NaN
550	1.000000	0.322271	7.37043e+06	-49589.1	1005.82	-29758.5	0.000000	0.000000	6.322841	-0.043806	NaN	0.000000	0.001608	0.001743	28.0791	0.038972	0.001995	19.5344	77.5108	-164.708	-0.021699	0.321006	-0.748260	-0.749526	-0.043806	19.5344	-0.746578	-8.445683E+9	5.186753E-12	NaN
550	1.000000	0.362310	7.37043e+06	-49589.1	1005.82	-29758.5	0.000000	0.000000	6.362879	-0.058111	NaN	0.000000	0.001620	0.001755	28.079	0.047086	0.002156	21.8435	111.644	-165.903	-0.071199	0.361037	-0.708221	-0.709494	-0.058111	21.8435	-0.706226	-2.379762E+9	2.441873E-11	NaN
550	1.000000	0.402322	7.37043e+06	-49589.1	1005.82	-29758.5	0.000000	0.000000	6.402890	-0.055746	NaN	0.000000	0.001616	0.001718	28.0792	0.061460	0.002029	30.2981	53.3925	-165.164	-0.087830	0.401011	-0.668209	-0.669520	-0.055746	30.2981	-0.666830	-6.886393E+8	8.095155E-11	NaN
550	1.000000	0.442357	7.37043e+06	-49589.1	1005.82	-29758.5	0.000000	0.000000	6.442925	-0.072877	NaN	0.000000	0.001622	0.001759	28.0803	0.072478	0.002123	34.135	104.78	-166.25	-0.086673	0.441062	-0.628174	-0.629470	-0.072877	34.135	-0.626573	-1.931781E+8	3.772538E-10	NaN
550	1.000000	0.482384	7.37043e+06	-49589.1	1005.82	-29758.5	0.000000	0.000000	6.482953	-0.039031	NaN	0.000000	0.001627	0.001773	28.0802	0.140304	0.001801	77.9158	38.3972	-162.879	-0.031019	0.481019	-0.588147	-0.589513	-0.039031	77.9158	-0.587772	-5.648591E+7	6.909929E-10	NaN
550	1.000000	0.522349	7.37043e+06	-49589.1	1005.82	-29758.5	0.000000	0.000000	6.522919	-0.034101	NaN	0.000000	0.001646	0.001733	28.08	0.070203	0.002103	33.3771	-143.01	-166.573	0.013724	0.521034	-0.548182	-0.549497	-0.034101	33.3771	-0.547415	-1.563694E+7	2.180781E-9	NaN
550	1.000000	0.562407	7.37043e+06	-49589.1	1005.82	-29758.5	0.000000	0.000000	6.562972	-0.131773	NaN	0.000000	0.001655	0.001738	28.0788	0.061021	0.001975	30.8955	119.932	-166.102	-0.159801	0.561121	-0.508124	-0.509410	-0.131773	30.8955	-0.504926	-4.01521e+06	3.281856E-8	NaN
550	1.000000	0.602411	7.37043e+06	-49589.1	1005.82	-29758.5	0.000000	0.000000	6.602982	-0.010036	NaN	0.000000	0.001656	0.001759	28.0788	0.064381	0.001973	32.6355	133.976	-163.248	-0.037594	0.601123	-0.468120	-0.469408	-0.010036	32.6355	-0.467889	-1.21841e+06	8.236810E-9	NaN
550	1.000000	0.642442	7.37043e+06	-49589.1	1005.82	-29758.5	0.000000	0.000000	6.643010	-0.072088	NaN	0.000000	0.001633	0.001743	28.0788	0.120159	0.001973	60.9003	111.762	-164.954	-0.033818	0.641135	-0.428089	-0.429396	-0.072088	60.9003	-0.427201	-325426	2.215181E-7	NaN
550	1.000000	0.682461	7.37043e+06	-49589.1	1005.82	-29758.5	0.000000	0.000000	6.683030	-0.052391	NaN	0.000000	0.001638	0.001715	28.0789	0.060833	0.002001	30.4066	58.0445	-166.083	-0.065313	0.681156	-0.388070	-0.389375	-0.052391	30.4066	-0.386778	-86508.2	6.056178E-7	NaN
550	1.000000	0.722446	7.37043e+06	-49589.1	1005.82	-29758.5	0.000000	0.000000	6.723016	-0.041960	NaN	0.000000	0.001623	0.001775	28.0801	0.022727	0.002020	11.2524	117.243	-165.046	-0.026814	0.721132	-0.348085	-0.349399	-0.041960	11.2524	-0.345288	-21804.4	1.924366E-6	NaN
550	1.000000	0.762469	7.37043e+06	-49589.1	1005.82	-29758.5	0.000000	0.000000	6.763043	0.058226	NaN	0.000000	0.001615	0.001740	28.0805	0.046101	0.002006	22.9832	12.1829	-161.406	0.049679	0.761234	-0.308062	-0.309297	0.058226	22.9832	-0.309962	-6614.4	-8.802897E-6	NaN
550	1.000000	0.802474	7.37043e+06	-49589.1	1005.82	-29758.5	0.000000	0.000000	6.803041	-0.097771	NaN	0.000000	0.001700	0.001767	28.0805	0.026191	0.001871	14.0008	-126.44	-167.821	-0.099656	0.801211	-0.268057	-0.269320	-0.097771	14.0008	-0.262819	-1294.42	7.553255E-5	NaN
550	1.000000	0.842543	7.37043e+06	-49589.1	1005.82	-29758.5	0.000000	0.000000	6.843113	-0.031040	NaN	0.000000	0.001699	0.001783	28.079	0.140101	0.001952	71.7852	119.03	-164.709	-0.057719	0.841226	-0.227988	-0.229305	-0.031040	71.7852	-0.227664	-367.776	8.439899E-5	NaN
550	1.000000	0.882513	7.37043e+06	-49589.1	1005.82	-29758.5	0.000000	0.000000	6.883083	-0.027131	NaN	0.000000	0.001710	0.001806	28.0791	0.030206	0.001832	16.4911	56.13	-163.979	-0.051325	0.881233	-0.188018	-0.189298	-0.027131	16.4911	-0.186784	-79.4602	0.000341	NaN
550	1.000000	0.922558	7.37043e+06	-49589.1	1005.82	-29758.5	0.000000	0.000000	6.923127	-0.054536	NaN	0.000000	0.001676	0.001774	28.079	0.156497	0.002025	77.2877	-136.264	-163.059	-0.042502	0.921225	-0.147973	-0.149306	-0.054536	77.2877	-0.147444	-16.2637	0.003353	NaN
550	1.000000	0.962587	7.37043e+06	-49589.1	1005.82	-29758.5	0.000000	0.000000	6.963156	-0.056392	NaN	0.000000	0.001666	0.001766	28.0802	0.118306	0.002104	56.2342	133.886	-164.527	0.023414	0.961244	-0.107944	-0.109288	-0.056392	56.2342	-0.107192	-2.619775	0.021526	NaN
550	1.000000	1.002580	7.37043e+06	-49589.1	1005.82	-29758.5	0.000000	0.000000	7.003149	-0.035562	NaN	0.000000	0.001687	0.001768	28.0803	0.061134	0.002056	29.7397	114.33	-164.186	0.036382	1.001263	-0.067951	-0.069268	-0.035562	29.7397	-0.067054	-0.283899	0.125264	NaN
550	1.000000	1.042577	7.37043e+06	-49589.1	1005.82	-29758.5	0.000000	0.000000	7.043147	-0.031022	NaN	0.000000	0.001602	0.001871	28.0804	0.037225	0.002071	17.9712	-38.7894	-164.51	0.027856	1.041291	-0.027954	-0.029241	-0.031022	17.9712	-0.026660	-0.018660	1.662436	NaN
550	1.000000	1.082605	7.37043e+06	-49589.1	1005.82	-29758.5	0.000000	0.000000	7.083318	3.457569	NaN	0.000000	0.001586	0.001830	28.0802	2.956203	0.001823	1621.56	11.5287	-167.841	2.832061	1.081330	0.012074	0.010799	3.457569	1621.56	0.010475	0.009714	355.938	15031.7
550	2.000000	1.098132	7.37043e+06	-49589.1	1005.82	-29758.5	0.000000	0.000000	7.099244	13.1614	NaN	0.000000	0.001594	0.001790	28.0793	11.7172	0.001878	6238.97	5.993165	-171.671	12.7637	1.097871	0.027601	0.027340	13.1614	6238.97	0.026019	0.032895	400.1	31428.2
550	2.000000	1.108085	7.37043e+06	-49589.1	1005.82	-29758.5	0.000000	0.000000	7.109636	23.8322	NaN	0.000000	0.001589	0.001791	28.0793	19.2332	0.001850	10398.6	9.317807	-176.779	23.8793	1.107842	0.037554	0.037311	23.8322	10398.6	0.035835	0.053708	443.733	40994.8
550	2.000000	1.118057	7.37043e+06	-49589.1	1005.82	-29758.5	0.000000	0.000000	7.120506	45.6553	NaN	0.000000	0.001592	0.001761	28.079	28.8361	0.001789	16114.5	5.451764	-179.163	43.4334	1.117775	0.047526	0.047244	45.6553	16114.5	0.045401	0.078731	579.893	52470.8
550	2.000000	1.128045	7.37043e+06	-49589.1	1005.82	-29758.5	0.000000	0.000000	7.131615	72.9283	NaN	0.000000	0.001570	0.001786	28.0802	38.4613	0.001683	22857.5	3.715071	178.595	71.5767	1.127728	0.057514	0.057196	72.9283	22857.5	0.055121	0.108895	669.71	63284.5
550	2.000000	1.138059	7.37043e+06	-49589.1	1005.82	-29758.5	0.000000	0.000000	7.143262	112.632	NaN	0.000000	0.001595	0.001751	28.0802	48.7225	0.001692	28803.1	4.431905	176.169	111.287	1.137749	0.067528	0.067218	112.632	28803.1	0.064595	0.142800	788.745	69638.5
550	2.000000	1.148130	7.37044e+06	-49589.1	1005.82	-29758.5	0.000000	0.000000	7.155282	160.047	NaN	0.000000	0.001609	0.001803	28.0802	59.0032	0.001808	32641.4	4.474351	176.02	163.212	1.147780	0.077599	0.077248	160.047	32641.4	0.073921	0.180405	887.155	70213
550	2.000000	1.158082	7.37044e+06	-49589.1	1005.82	-29758.5	0.000000	0.000000	7.167644	218.644	NaN	0.000000	0.001590	0.001772	28.0808	67.0639	0.001745	38422.6	7.010302	171.799	220.749	1.157787	0.087551	0.087256	218.644	38422.6	0.083283	0.222281	983.637	74457.6
550	2.000000	1.168028	7.37044e+06	-49589.1	1005.82	-29758.5	0.000000	0.000000	7.180130	280.425	NaN	0.000000	0.001578	0.001845	28.0792	77.6034	0.001845	42053	5.465856	172.654	282.61	1.167809	0.097497	0.097277	280.425	42053	0.092496	0.267454	1048.5	74292.6
550	2.000000	1.178038	7.37044e+06	-49589.1	1005.82	-29758.5	0.000000	0.000000	7.193453	360.997	NaN	0.000000	0.001609	0.001857	28.0791	86.3161	0.001756	49146.8	2.218405	175.462	360.71	1.177649	0.107507	0.107118	360.997	49146.8	0.101998	0.318114	1134.8	79611.7
550	2.000000	1.187964	7.37044e+06	-49589.1	1005.82	-29758.5	0.000000	0.000000	7.206175	429.011	NaN	0.000000	0.001618	0.001896	28.0794	95.6699	0.001710	55952.9	4.764720	171.21	425.639	1.187618	0.117433	0.117087	429.011	55952.9	0.111682	0.373963	1147.2	83595.2
550	2.000000	1.188391	7.37044e+06	-49589.1	1005.82	-29758.5	0.000000	0.000000	7.206891	436.014	NaN	0.000000	0.001629	0.001887	28.0792	96.2123	0.001808	53214.9	6.706665	-10.4442	429.752	1.188152	0.117860	0.117621	436.014	53214.9	0.111715	0.374162	1165.31	79483.4