File: remote_trans/data/nanoindenter/0828-1/data/Data_2025-08-06,11h17m57s/2025-07-22_16-23-58_1_40.txt
2025-07-22, 16:23:58, 1
Index	Phase	Displacement	Time	Pos X	Pos Y	Pos Z	Rot A	Rot B	Piezo Z	Force A	Force B	Gripper	Voltage A	Voltage B	Temperature	Amplitude force	Amplitude pos	Stiffness	Phase shift	Phase excitation	Force A raw	Displacement raw	HMax	HMax raw	Real Force	Real Stiffness	Contact Depth	Area	Hardness	Reduced Mod.
[#]	[#]	[um]	[s]	[um]	[um]	[um]	[m°]	[m°]	[um]	[uN]	[uN]	[V]	[V]	[V]	[°C]	[uN]	[um]	[N/m]	[°]	[°]	[uN]	[um]	[um]	[um]	[uN]	[N/m]	[um]	[um^2]	[MPa]	[MPa]
40	1.000000	0.002088	7.36543e+06	-40639.1	955.82	-29789.9	0.000000	0.000000	6.002815	-0.011399	NaN	0.000000	0.001569	0.001701	28.0949	0.022688	0.000896	25.3213	-135.526	-160.257	-0.065618	0.000813	-1.072528	-1.073803	-0.011399	25.3213	-1.072190	-2.121361E+14	5.373241E-17	NaN
40	1.000000	0.042055	7.36543e+06	-40639.1	955.819	-29789.9	0.000000	0.000000	6.042782	0.003517	NaN	0.000000	0.001578	0.001760	28.0956	0.108294	0.001914	56.5752	-143.564	-167.104	0.004351	0.040705	-1.032562	-1.033911	0.003517	56.5752	-1.032608	-6.231081E+13	-5.644348E-17	NaN
40	1.000000	0.082026	7.36543e+06	-40639.1	955.818	-29789.9	0.000000	0.000000	6.082750	-0.064610	NaN	0.000000	0.001573	0.001717	28.0939	0.025288	0.001857	13.6214	44.1348	-167.307	-0.026493	0.080740	-0.992591	-0.993876	-0.064610	13.6214	-0.989033	-1.614696E+13	4.001390E-15	NaN
40	1.000000	0.122054	7.36543e+06	-40639.1	955.818	-29789.9	0.000000	0.000000	6.122781	-0.010553	NaN	0.000000	0.001557	0.001710	28.0953	0.027198	0.001998	13.6156	-14.1803	-164.065	0.019162	0.120746	-0.952562	-0.953870	-0.010553	13.6156	-0.951981	-5.113829E+12	2.063613E-15	NaN
40	1.000000	0.162052	7.36543e+06	-40639.1	955.818	-29789.9	0.000000	0.000000	6.162777	-0.056929	NaN	0.000000	0.001581	0.001758	28.0929	0.005645	0.001850	3.051118	12.4709	-167.774	0.062852	0.160746	-0.912565	-0.913870	-0.056929	3.051118	-0.898571	-9.722031E+11	5.855633E-14	NaN
40	1.000000	0.202087	7.36543e+06	-40639.1	955.817	-29789.9	0.000000	0.000000	6.202818	0.073934	NaN	0.000000	0.001574	0.001741	28.0944	0.063552	0.002057	30.8903	-20.3385	-165.156	0.095053	0.200789	-0.872529	-0.873827	0.073934	30.8903	-0.874324	-4.570250E+11	-1.617724E-13	NaN
40	1.000000	0.242107	7.36543e+06	-40639.1	955.818	-29789.9	0.000000	0.000000	6.242833	-0.024727	NaN	0.000000	0.001564	0.001754	28.093	0.081733	0.002066	39.5575	-175.442	-165.118	-0.036702	0.240764	-0.832509	-0.833853	-0.024727	39.5575	-0.832041	-1.223042E+11	2.021769E-13	NaN
40	1.000000	0.282122	7.36543e+06	-40639.1	955.818	-29789.9	0.000000	0.000000	6.282849	0.015765	NaN	0.000000	0.001620	0.001775	28.0955	0.051806	0.001920	26.9821	-95.1184	-168.006	0.054378	0.280811	-0.792495	-0.793806	0.015765	26.9821	-0.792933	-3.605081E+10	-4.373068E-13	NaN
40	1.000000	0.322140	7.36543e+06	-40639.1	955.818	-29789.9	0.000000	0.000000	6.322868	0.004247	NaN	0.000000	0.001720	0.001739	28.0942	0.086350	0.001922	44.9368	95.5737	-166.265	-0.008354	0.320845	-0.752476	-0.753772	0.004247	44.9368	-0.752547	-1.018322E+10	-4.170383E-13	NaN
40	1.000000	0.362147	7.36543e+06	-40639.1	955.819	-29789.9	0.000000	0.000000	6.362875	0.036651	NaN	0.000000	0.001684	0.001765	28.0939	0.038450	0.001949	19.7317	13.9272	-168.345	0.026395	0.360851	-0.712470	-0.713765	0.036651	19.7317	-0.713863	-3.025224E+9	-1.211511E-11	NaN
40	1.000000	0.402176	7.36543e+06	-40639.1	955.819	-29789.9	0.000000	0.000000	6.402900	-0.083713	NaN	0.000000	0.001717	0.001747	28.0933	0.030192	0.001956	15.4332	124.319	-165.703	-0.049264	0.400906	-0.672440	-0.673710	-0.083713	15.4332	-0.668372	-7.229414E+8	1.157947E-10	NaN
40	1.000000	0.442194	7.36543e+06	-40639.1	955.819	-29789.9	0.000000	0.000000	6.442918	-0.061627	NaN	0.000000	0.001653	0.001749	28.0928	0.097209	0.002174	44.7233	-169.77	-165.988	-0.057433	0.440862	-0.632423	-0.633754	-0.061627	44.7233	-0.631389	-2.249577E+8	2.739499E-10	NaN
40	1.000000	0.482206	7.36543e+06	-40639.1	955.818	-29789.9	0.000000	0.000000	6.482933	0.000346	NaN	0.000000	0.001680	0.001728	28.0922	0.078412	0.002032	38.5907	150.828	-166.63	-0.014990	0.480932	-0.592410	-0.593684	0.000346	38.5907	-0.592417	-6.546155E+7	-5.277967E-12	NaN
40	1.000000	0.522238	7.36543e+06	-40639.1	955.819	-29789.9	0.000000	0.000000	6.522966	0.000656	NaN	0.000000	0.001706	0.001726	28.0928	0.080453	0.001933	41.6168	36.0746	-166.37	-0.053207	0.520911	-0.552378	-0.553706	0.000656	41.6168	-0.552390	-1.832530E+7	-3.578066E-11	NaN
40	1.000000	0.562209	7.36543e+06	-40639.1	955.818	-29789.9	0.000000	0.000000	6.562932	-0.113110	NaN	0.000000	0.001717	0.001741	28.0924	0.118768	0.002026	58.6302	118.472	-167.178	-0.095889	0.560912	-0.512407	-0.513704	-0.113110	58.6302	-0.510960	-4.87292e+06	2.321193E-8	NaN
40	1.000000	0.602257	7.36543e+06	-40639.1	955.817	-29789.9	0.000000	0.000000	6.602980	-0.097976	NaN	0.000000	0.001664	0.001751	28.0938	0.109695	0.001989	55.1392	-121.722	-164.419	-0.101677	0.600969	-0.472359	-0.473647	-0.097976	55.1392	-0.471026	-1.34835e+06	7.266375E-8	NaN
40	1.000000	0.642275	7.36543e+06	-40639.1	955.817	-29789.9	0.000000	0.000000	6.643001	-0.029990	NaN	0.000000	0.001624	0.001758	28.0922	0.078538	0.002059	38.1374	33.6827	-167.066	-0.098744	0.640988	-0.432341	-0.433628	-0.029990	38.1374	-0.431752	-377430	7.945950E-8	NaN
40	1.000000	0.682288	7.36543e+06	-40639.1	955.818	-29789.9	0.000000	0.000000	6.683015	-0.006105	NaN	0.000000	0.001603	0.001750	28.0911	0.097886	0.001902	51.4579	6.652355	-166.222	0.033816	0.680982	-0.392329	-0.393634	-0.006105	51.4579	-0.392240	-103561	5.894961E-8	NaN
40	1.000000	0.722301	7.36543e+06	-40639.1	955.818	-29789.9	0.000000	0.000000	6.723027	-0.040061	NaN	0.000000	0.001598	0.001744	28.0905	0.102039	0.001932	52.8232	-155.026	-166.544	-0.039323	0.721040	-0.352315	-0.353576	-0.040061	52.8232	-0.351746	-27060.7	1.480401E-6	NaN
40	1.000000	0.762321	7.36543e+06	-40639.1	955.818	-29789.9	0.000000	0.000000	6.763046	-0.044541	NaN	0.000000	0.001626	0.001791	28.0912	0.053439	0.001943	27.5024	-47.8917	-167.003	0.061740	0.760993	-0.312296	-0.313623	-0.044541	27.5024	-0.311081	-6871.49	6.481962E-6	NaN
40	1.000000	0.802367	7.36543e+06	-40639.1	955.818	-29789.9	0.000000	0.000000	6.803093	-0.039227	NaN	0.000000	0.001624	0.001755	28.0892	0.102128	0.002101	48.6089	57.209	-168.8	-0.103245	0.801040	-0.272249	-0.273577	-0.039227	48.6089	-0.271644	-1764.07	2.223678E-5	NaN
40	1.000000	0.842336	7.36543e+06	-40639.1	955.819	-29789.9	0.000000	0.000000	6.843063	-0.007632	NaN	0.000000	0.001602	0.001711	28.0927	0.024100	0.001973	12.2141	-149.323	-168.208	0.047176	0.841054	-0.232280	-0.233562	-0.007632	12.2141	-0.231812	-427.658	1.784698E-5	NaN
40	1.000000	0.882364	7.36544e+06	-40639.1	955.818	-29789.9	0.000000	0.000000	6.883089	-0.048610	NaN	0.000000	0.001642	0.001718	28.0913	0.015745	0.001947	8.088493	149.102	-165.55	-0.105859	0.881052	-0.192252	-0.193565	-0.048610	8.088493	-0.187745	-82.4677	0.000589	NaN
40	1.000000	0.922396	7.36544e+06	-40639.1	955.818	-29789.9	0.000000	0.000000	6.923122	-0.037619	NaN	0.000000	0.001633	0.001723	28.0918	0.034218	0.001939	17.6465	104.04	-167.554	-0.018122	0.921058	-0.152220	-0.153558	-0.037619	17.6465	-0.150621	-18.5918	0.002023	NaN
40	1.000000	0.962436	7.36544e+06	-40639.1	955.82	-29789.9	0.000000	0.000000	6.963165	0.020725	NaN	0.000000	0.001661	0.001731	28.0896	0.147517	0.002024	72.8813	-16.5192	-169.164	0.007039	0.961095	-0.112180	-0.113521	0.020725	72.8813	-0.112393	-3.373299	-0.006144	NaN
40	1.000000	1.002403	7.36544e+06	-40639.1	955.819	-29789.9	0.000000	0.000000	7.003129	-0.046723	NaN	0.000000	0.001603	0.001775	28.0907	0.084497	0.001859	45.4587	114.432	-169.209	-0.056785	1.001132	-0.072213	-0.073485	-0.046723	45.4587	-0.071442	-0.372673	0.125374	NaN
40	1.000000	1.042426	7.36544e+06	-40639.1	955.818	-29789.9	0.000000	0.000000	7.043150	-0.080666	NaN	0.000000	0.001668	0.001722	28.0889	0.021815	0.002074	10.5162	93.3585	-168.099	-0.044034	1.041130	-0.032190	-0.033486	-0.080666	10.5162	-0.026437	-0.018408	4.382249	NaN
40	2.000000	1.081904	7.36544e+06	-40639.1	955.819	-29789.9	0.000000	0.000000	7.083025	9.585120	NaN	0.000000	0.001598	0.001730	28.0899	3.081005	0.001921	1603.89	9.210315	-169.24	9.283018	1.081052	0.007287	0.006435	9.585120	1603.89	0.002805	0.002217	4324.23	31124.5
40	2.000000	1.091985	7.36544e+06	-40639.1	955.818	-29789.9	0.000000	0.000000	7.093364	15.8498	NaN	0.000000	0.001647	0.001724	28.0908	4.440883	0.001971	2253.19	4.966953	-168.212	15.7019	1.091712	0.017369	0.017095	15.8498	2253.19	0.012093	0.011601	1366.19	19112.4
40	2.000000	1.101959	7.36544e+06	-40639.1	955.819	-29789.9	0.000000	0.000000	7.103197	12.4133	NaN	0.000000	0.001619	0.001767	28.0903	11.4404	0.001889	6056.89	8.939814	-175.585	11.9051	1.101601	0.027343	0.026985	12.4133	6056.89	0.025806	0.032498	381.97	30696.8
40	2.000000	1.111905	7.36544e+06	-40639.1	955.818	-29789.9	0.000000	0.000000	7.113983	32.8568	NaN	0.000000	0.001679	0.001732	28.0897	21.1988	0.001793	11820.6	7.374369	-178.351	32.9171	1.111657	0.037289	0.037041	32.8568	11820.6	0.035204	0.052222	629.178	47259.3
40	2.000000	1.121897	7.36544e+06	-40639.1	955.819	-29789.9	0.000000	0.000000	7.125351	66.3555	NaN	0.000000	0.001632	0.001789	28.0902	32.7411	0.001734	18876.9	2.725705	-178.776	65.9349	1.121564	0.047281	0.046947	66.3555	18876.9	0.044644	0.076581	866.473	62322.4
40	2.000000	1.131916	7.36544e+06	-40639.1	955.819	-29789.9	0.000000	0.000000	7.137633	121.418	NaN	0.000000	0.001639	0.001745	28.0882	44.7159	0.001818	24598.8	5.754214	175.837	120.2	1.131552	0.057300	0.056936	121.418	24598.8	0.053598	0.103858	1169.08	69737.7
40	2.000000	1.141840	7.36544e+06	-40639.1	955.818	-29789.9	0.000000	0.000000	7.150242	186.737	NaN	0.000000	0.001639	0.001702	28.0894	53.7854	0.001771	30370.1	4.874965	174.076	184.899	1.141624	0.067224	0.067008	186.737	30370.1	0.062612	0.135343	1379.73	75422.7
40	2.000000	1.151885	7.36544e+06	-40639.1	955.818	-29789.9	0.000000	0.000000	7.163088	254.902	NaN	0.000000	0.001596	0.001750	28.0891	64.0353	0.001836	34882.7	4.724914	173.019	253.467	1.151559	0.077269	0.076943	254.902	34882.7	0.071788	0.171438	1486.85	76971.6
40	2.000000	1.161829	7.36544e+06	-40639.1	955.818	-29789.9	0.000000	0.000000	7.176509	339.519	NaN	0.000000	0.001610	0.001742	28.0905	73.8735	0.001840	40138.8	5.648658	170.774	335.721	1.161534	0.087212	0.086918	339.519	40138.8	0.080868	0.211087	1608.43	79819
40	2.000000	1.171721	7.36544e+06	-40639.1	955.819	-29789.9	0.000000	0.000000	7.189907	424.83	NaN	0.000000	0.001654	0.001787	28.0891	80.0775	0.001747	45849.7	3.088291	173.378	417.25	1.171399	0.097105	0.096783	424.83	45849.7	0.090155	0.255607	1662.04	82855.8
40	2.000000	1.180375	7.36544e+06	-40639.1	955.82	-29789.9	0.000000	0.000000	7.201885	505.727	NaN	0.000000	0.001619	0.001722	28.1304	87.0762	0.001753	49666.3	0.529248	-4.651292	503.476	1.180081	0.105758	0.105465	505.727	49666.3	0.098121	0.296948	1703.08	83271.2