File: remote_trans/data/nanoindenter/0828-1/data/Data_2025-08-06,11h17m57s/2025-07-22_16-23-58_1_667.txt
2025-07-22, 16:23:58, 1
Index	Phase	Displacement	Time	Pos X	Pos Y	Pos Z	Rot A	Rot B	Piezo Z	Force A	Force B	Gripper	Voltage A	Voltage B	Temperature	Amplitude force	Amplitude pos	Stiffness	Phase shift	Phase excitation	Force A raw	Displacement raw	HMax	HMax raw	Real Force	Real Stiffness	Contact Depth	Area	Hardness	Reduced Mod.
[#]	[#]	[um]	[s]	[um]	[um]	[um]	[m°]	[m°]	[um]	[uN]	[uN]	[V]	[V]	[V]	[°C]	[uN]	[um]	[N/m]	[°]	[°]	[uN]	[um]	[um]	[um]	[uN]	[N/m]	[um]	[um^2]	[MPa]	[MPa]
667	1.000000	0.002141	7.37157e+06	-43739.1	1005.82	-29777.8	0.000000	0.000000	6.002755	-0.039107	NaN	0.000000	0.001623	0.001687	28.0829	0.063083	0.001164	54.1832	-80.883	-172.6	-0.178974	0.000890	-1.240345	-1.241596	-0.039107	54.1832	-1.239803	-3.745517E+16	1.044103E-18	NaN
667	1.000000	0.048148	7.37157e+06	-43739.1	1005.82	-29777.8	0.000000	0.000000	6.048764	0.004201	NaN	0.000000	0.001593	0.001735	28.0831	0.093027	0.001798	51.7388	-97.1809	15.1693	0.075728	0.046762	-1.194337	-1.195724	0.004201	51.7388	-1.194398	-9.241274E+15	-4.545623E-19	NaN
667	1.000000	0.094148	7.37157e+06	-43739.1	1005.82	-29777.8	0.000000	0.000000	6.094763	-0.037096	NaN	0.000000	0.001647	0.001749	28.0836	0.051853	0.002055	25.2267	28.142	-163.868	0.013789	0.092840	-1.148337	-1.149645	-0.037096	25.2267	-1.147234	-2.156438E+15	1.720249E-17	NaN
667	1.000000	0.140206	7.37157e+06	-43739.1	1005.82	-29777.8	0.000000	0.000000	6.140822	0.007857	NaN	0.000000	0.001622	0.001746	28.0843	0.040784	0.001991	20.481	141.647	13.8801	0.124400	0.138831	-1.102279	-1.103654	0.007857	20.481	-1.102567	-5.426575E+14	-1.447817E-17	NaN
667	1.000000	0.186177	7.37158e+06	-43739.1	1005.82	-29777.9	0.000000	0.000000	6.186793	0.009691	NaN	0.000000	0.001678	0.001740	28.0841	0.056323	0.002008	28.0526	-112.845	-164.496	-0.044538	0.184875	-1.056308	-1.057610	0.009691	28.0526	-1.056567	-1.308244E+14	-7.407734E-17	NaN
667	1.000000	0.232197	7.37158e+06	-43739.1	1005.82	-29777.9	0.000000	0.000000	6.232814	0.017509	NaN	0.000000	0.001686	0.001732	28.0828	0.054793	0.002056	26.6496	-112.904	16.0317	-0.004330	0.230863	-1.010288	-1.011622	0.017509	26.6496	-1.010781	-3.168747E+13	-5.525408E-16	NaN
667	1.000000	0.278206	7.37158e+06	-43739.1	1005.82	-29777.9	0.000000	0.000000	6.278823	0.040229	NaN	0.000000	0.001725	0.001731	28.0835	0.076753	0.001922	39.9316	69.5252	-164.428	0.015408	0.276890	-0.964279	-0.965595	0.040229	39.9316	-0.965035	-7.669074E+12	-5.245569E-15	NaN
667	1.000000	0.324228	7.37158e+06	-43739.1	1005.82	-29777.9	0.000000	0.000000	6.324846	0.048204	NaN	0.000000	0.001652	0.001727	28.0828	0.089180	0.001947	45.8062	155.485	15.5482	0.057090	0.322821	-0.918257	-0.919664	0.048204	45.8062	-0.919046	-1.837921E+12	-2.622763E-14	NaN
667	1.000000	0.370258	7.37158e+06	-43739.1	1005.82	-29777.9	0.000000	0.000000	6.370875	0.023504	NaN	0.000000	0.001693	0.001769	28.0842	0.075209	0.002045	36.7808	72.8724	-167.464	0.026086	0.369028	-0.872227	-0.873457	0.023504	36.7808	-0.872706	-4.345650E+11	-5.408585E-14	NaN
667	1.000000	0.416269	7.37158e+06	-43739.1	1005.82	-29777.9	0.000000	0.000000	6.416883	-0.039731	NaN	0.000000	0.001593	0.001733	28.0846	0.064624	0.001844	35.0535	-77.0783	15.3765	-0.032580	0.414940	-0.826217	-0.827546	-0.039731	35.0535	-0.825367	-9.930643E+10	4.000854E-13	NaN
667	1.000000	0.462293	7.37158e+06	-43739.1	1005.82	-29777.9	0.000000	0.000000	6.462908	-0.014042	NaN	0.000000	0.001615	0.001725	28.0843	0.129681	0.001889	68.641	71.3108	-166.664	-0.008531	0.461001	-0.780193	-0.781484	-0.014042	68.641	-0.780039	-2.408592E+10	5.830089E-13	NaN
667	1.000000	0.508285	7.37158e+06	-43739.1	1005.82	-29777.9	0.000000	0.000000	6.508900	-0.005714	NaN	0.000000	0.001610	0.001732	28.083	0.022257	0.002145	10.3749	-69.0297	14.5033	-0.029471	0.506936	-0.734201	-0.735550	-0.005714	10.3749	-0.733788	-5.654877E+9	1.010390E-12	NaN
667	1.000000	0.554337	7.37158e+06	-43739.1	1005.82	-29777.9	0.000000	0.000000	6.554954	0.025060	NaN	0.000000	0.001597	0.001708	28.0832	0.047613	0.002002	23.7807	-79.4436	-163.152	-0.074972	0.553023	-0.688148	-0.689463	0.025060	23.7807	-0.688938	-1.381684E+9	-1.813747E-11	NaN
667	1.000000	0.600340	7.37158e+06	-43739.1	1005.82	-29777.9	0.000000	0.000000	6.600956	0.005773	NaN	0.000000	0.001598	0.001739	28.0832	0.029619	0.001957	15.1326	-165.734	16.665	-0.027554	0.598995	-0.642146	-0.643490	0.005773	15.1326	-0.642432	-3.188966E+8	-1.810354E-11	NaN
667	1.000000	0.646393	7.37158e+06	-43739.1	1005.82	-29777.9	0.000000	0.000000	6.647007	-0.060809	NaN	0.000000	0.001629	0.001693	28.0844	0.056069	0.002023	27.7098	67.6627	-166.166	-0.074337	0.645078	-0.596092	-0.597407	-0.060809	27.7098	-0.594446	-6.981515E+7	8.710008E-10	NaN
667	1.000000	0.692391	7.37158e+06	-43739.1	1005.82	-29777.9	0.000000	0.000000	6.693006	-0.021158	NaN	0.000000	0.001612	0.001688	28.0846	0.104634	0.001965	53.2489	-75.3362	18.243	-0.027142	0.691046	-0.550094	-0.551439	-0.021158	53.2489	-0.549796	-1.687062E+7	1.254123E-9	NaN
667	1.000000	0.738427	7.37158e+06	-43739.1	1005.82	-29777.9	0.000000	0.000000	6.739041	-0.055438	NaN	0.000000	0.001594	0.001730	28.0845	0.080714	0.002079	38.8255	-173.638	-163.257	0.015609	0.737139	-0.504058	-0.505346	-0.055438	38.8255	-0.502987	-3.77297e+06	1.469349E-8	NaN
667	1.000000	0.784442	7.37158e+06	-43739.1	1005.82	-29777.9	0.000000	0.000000	6.785055	-0.065865	NaN	0.000000	0.001687	0.001684	28.0829	0.080843	0.001905	42.4459	-22.3897	14.9527	-0.025711	0.783106	-0.458043	-0.459379	-0.065865	42.4459	-0.456880	-853403	7.717887E-8	NaN
667	1.000000	0.830464	7.37158e+06	-43739.1	1005.82	-29777.9	0.000000	0.000000	6.831081	0.032561	NaN	0.000000	0.001630	0.001705	28.0829	0.035735	0.002041	17.5079	104.807	-167.414	0.038617	0.829130	-0.412021	-0.413355	0.032561	17.5079	-0.413416	-207470	-1.569418E-7	NaN
667	1.000000	0.876450	7.37158e+06	-43739.1	1005.82	-29777.9	0.000000	0.000000	6.877067	0.028057	NaN	0.000000	0.001630	0.001674	28.083	0.088221	0.002105	41.9167	-144.495	16.5705	0.045140	0.875131	-0.366035	-0.367355	0.028057	41.9167	-0.366537	-44281.7	-6.335992E-7	NaN
667	1.000000	0.922494	7.37158e+06	-43739.1	1005.82	-29777.9	0.000000	0.000000	6.923108	-0.048403	NaN	0.000000	0.001650	0.001689	28.0841	0.088198	0.001945	45.3418	-155.98	-163.499	-0.056282	0.921105	-0.319991	-0.321380	-0.048403	45.3418	-0.319191	-9051.57	5.347440E-6	NaN
667	1.000000	0.968511	7.37158e+06	-43739.1	1005.82	-29777.9	0.000000	0.000000	6.969123	-0.084762	NaN	0.000000	0.001628	0.001688	28.0838	0.051258	0.001913	26.7909	170.584	13.5091	-0.041532	0.967128	-0.273974	-0.275358	-0.084762	26.7909	-0.271601	-1761.45	4.812051E-5	NaN
667	1.000000	1.014506	7.37158e+06	-43739.1	1005.82	-29777.9	0.000000	0.000000	7.015121	-0.021147	NaN	0.000000	0.001606	0.001730	28.0839	0.049149	0.001864	26.3672	54.589	-170.652	-0.037620	1.013207	-0.227980	-0.229279	-0.021147	26.3672	-0.227378	-363.959	5.810131E-5	NaN
667	1.000000	1.060552	7.37158e+06	-43739.1	1005.82	-29777.9	0.000000	0.000000	7.061167	-0.022230	NaN	0.000000	0.001610	0.001728	28.0827	0.069422	0.001975	35.1422	49.9275	17.184	-0.007894	1.059118	-0.181933	-0.183367	-0.022230	35.1422	-0.181459	-64.6033	0.000344	NaN
667	1.000000	1.106572	7.37158e+06	-43739.1	1005.82	-29777.9	0.000000	0.000000	7.107188	0.006502	NaN	0.000000	0.001631	0.001677	28.0869	0.155352	0.002153	72.1532	-111.879	-163.12	0.006030	1.105229	-0.135914	-0.137256	0.006502	72.1532	-0.135981	-9.930985	-0.000655	NaN
667	1.000000	1.152604	7.37158e+06	-43739.1	1005.82	-29777.9	0.000000	0.000000	7.153219	-0.035624	NaN	0.000000	0.001590	0.001648	28.0866	0.024968	0.001788	13.9632	-178.896	14.8069	-0.076774	1.151246	-0.089881	-0.091239	-0.035624	13.9632	-0.087968	-0.967908	0.036805	NaN
667	1.000000	1.198617	7.37158e+06	-43739.1	1005.82	-29777.9	0.000000	0.000000	7.199233	-0.006665	NaN	0.000000	0.001621	0.001667	28.0845	0.025795	0.002059	12.5265	-53.0457	-165.038	-0.006230	1.197296	-0.043868	-0.045189	-0.006665	12.5265	-0.043469	-0.057698	0.115507	NaN
667	1.000000	1.244593	7.37158e+06	-43739.1	1005.82	-29777.9	0.000000	0.000000	7.245380	4.165515	NaN	0.000000	0.001668	0.001695	28.0841	5.009417	0.001680	2982.31	8.518278	11.9302	2.666587	1.243258	0.002107	0.000773	4.165515	2982.31	0.001060	0.000808	5152.18	95826.8
667	2.000000	1.259078	7.37158e+06	-43739.1	1005.82	-29777.9	0.000000	0.000000	7.260711	24.7567	NaN	0.000000	0.001639	0.001667	28.0848	20.2504	0.001736	11667.6	5.364426	-176.398	24.7768	1.258806	0.016593	0.016320	24.7567	11667.6	0.015001	0.015287	1619.44	86216.8
667	2.000000	1.270604	7.37158e+06	-43739.1	1005.82	-29777.9	0.000000	0.000000	7.273317	51.0343	NaN	0.000000	0.001652	0.001724	28.0834	32.3996	0.001892	17125.5	2.850954	3.023356	51.0291	1.270264	0.028118	0.027778	51.0343	17125.5	0.025883	0.032642	1563.44	86601.6
667	2.000000	1.282047	7.37158e+06	-43739.1	1005.82	-29777.9	0.000000	0.000000	7.286533	94.1441	NaN	0.000000	0.001650	0.001648	28.0833	42.8773	0.001872	22902.1	1.873518	-177.634	95.6135	1.281888	0.039562	0.039402	94.1441	22902.1	0.036479	0.055246	1704.09	89022.3
667	2.000000	1.293537	7.37158e+06	-43739.1	1005.82	-29777.9	0.000000	0.000000	7.300045	143.344	NaN	0.000000	0.001636	0.001673	28.083	54.6253	0.001756	31111.5	3.114185	-2.636254	140.786	1.293249	0.051052	0.050764	143.344	31111.5	0.047596	0.085128	1683.86	97422.1
667	2.000000	1.305029	7.37158e+06	-43739.1	1005.82	-29777.9	0.000000	0.000000	7.313993	203.104	NaN	0.000000	0.001644	0.001662	28.0846	64.3053	0.001811	35501.3	5.392308	175.156	202.016	1.304626	0.062544	0.062141	203.104	35501.3	0.058253	0.119619	1697.93	93781.6
667	2.000000	1.316511	7.37158e+06	-43739.1	1005.82	-29777.9	0.000000	0.000000	7.328390	274.015	NaN	0.000000	0.001653	0.001655	28.0845	76.5271	0.001814	42179.2	6.343305	-6.965663	271.403	1.316015	0.074026	0.073530	274.015	42179.2	0.069154	0.160662	1705.53	96142.2
667	2.000000	1.327867	7.37158e+06	-43739.1	1005.82	-29777.9	0.000000	0.000000	7.342793	348.165	NaN	0.000000	0.001628	0.001720	28.0842	87.5579	0.001706	51325.2	9.161174	168.132	341.776	1.327565	0.085381	0.085079	348.165	51325.2	0.080294	0.208464	1670.15	102704
667	2.000000	1.339591	7.37158e+06	-43739.1	1005.82	-29777.9	0.000000	0.000000	7.358269	439.442	NaN	0.000000	0.001664	0.001770	28.0829	99.0427	0.001817	54496.4	8.806465	-10.9111	443.203	1.338966	0.097106	0.096481	439.442	54496.4	0.091058	0.260145	1689.22	97618.8
667	2.000000	1.346966	7.37158e+06	-43739.1	1005.82	-29777.9	0.000000	0.000000	7.367459	483.59	NaN	0.000000	0.001650	0.001724	28.0833	107.357	0.001844	58217.8	3.947371	171.997	481.956	1.346720	0.104481	0.104235	483.59	58217.8	0.098251	0.297644	1624.73	97494.6