File: remote_trans/data/nanoindenter/0828-1/data/Data_2025-08-06,11h17m57s/2025-07-22_16-23-58_1_308.txt
2025-07-22, 16:23:58, 1
Index	Phase	Displacement	Time	Pos X	Pos Y	Pos Z	Rot A	Rot B	Piezo Z	Force A	Force B	Gripper	Voltage A	Voltage B	Temperature	Amplitude force	Amplitude pos	Stiffness	Phase shift	Phase excitation	Force A raw	Displacement raw	HMax	HMax raw	Real Force	Real Stiffness	Contact Depth	Area	Hardness	Reduced Mod.
[#]	[#]	[um]	[s]	[um]	[um]	[um]	[m°]	[m°]	[um]	[uN]	[uN]	[V]	[V]	[V]	[°C]	[uN]	[um]	[N/m]	[°]	[°]	[uN]	[um]	[um]	[um]	[uN]	[N/m]	[um]	[um^2]	[MPa]	[MPa]
308	1.000000	0.002724	7.36808e+06	-54039.1	955.817	-29744.9	0.000000	0.000000	6.002781	-0.024758	NaN	0.000000	0.001650	0.001638	28.0777	0.075062	0.000957	78.4143	104.838	-172.752	-0.086641	0.001476	-1.092260	-1.093508	-0.024758	78.4143	-1.092023	-3.917243E+14	6.320255E-17	NaN
308	1.000000	0.044700	7.36808e+06	-54039.1	955.819	-29744.9	0.000000	0.000000	6.044758	0.007804	NaN	0.000000	0.001673	0.001651	28.0774	0.086237	0.002033	42.4168	-74.1383	15.2829	0.014737	0.043371	-1.050284	-1.051613	0.007804	42.4168	-1.050422	-1.081652E+14	-7.214621E-17	NaN
308	1.000000	0.086688	7.36808e+06	-54039.1	955.819	-29744.9	0.000000	0.000000	6.086742	-0.091051	NaN	0.000000	0.001581	0.001656	28.0777	0.050777	0.002064	24.5963	-161.076	-166.513	-0.063017	0.085422	-1.008296	-1.009562	-0.091051	24.5963	-1.005519	-2.691985E+13	3.382283E-15	NaN
308	1.000000	0.128690	7.36808e+06	-54039.1	955.819	-29744.9	0.000000	0.000000	6.128751	0.068399	NaN	0.000000	0.001664	0.001641	28.0789	0.043582	0.002013	21.6502	-96.2084	11.4263	0.005235	0.127326	-0.966294	-0.967658	0.068399	21.6502	-0.968663	-8.583127E+12	-7.969034E-15	NaN
308	1.000000	0.170728	7.36808e+06	-54039.1	955.818	-29744.9	0.000000	0.000000	6.170786	-0.009505	NaN	0.000000	0.001684	0.001681	28.0786	0.056545	0.002073	27.2702	-6.020837	-165.939	-0.066542	0.169389	-0.924256	-0.925595	-0.009505	27.2702	-0.923995	-2.143554E+12	4.434211E-15	NaN
308	1.000000	0.212788	7.36808e+06	-54039.1	955.819	-29744.9	0.000000	0.000000	6.212847	0.028851	NaN	0.000000	0.001612	0.001629	28.0789	0.032187	0.002166	14.861	-163.997	15.1038	0.055786	0.211382	-0.882196	-0.883602	0.028851	14.861	-0.883652	-6.110752E+11	-4.721381E-14	NaN
308	1.000000	0.254793	7.36808e+06	-54039.1	955.819	-29744.9	0.000000	0.000000	6.254852	0.017159	NaN	0.000000	0.001667	0.001685	28.0779	0.174814	0.002060	84.8467	-162.644	-166.509	0.019314	0.253522	-0.840191	-0.841462	0.017159	84.8467	-0.840343	-1.584658E+11	-1.082799E-13	NaN
308	1.000000	0.296800	7.36808e+06	-54039.1	955.819	-29744.9	0.000000	0.000000	6.296858	-0.016380	NaN	0.000000	0.001678	0.001712	28.0779	0.036818	0.002094	17.5812	2.936832	13.6554	-0.020117	0.295411	-0.798184	-0.799573	-0.016380	17.5812	-0.797485	-4.156421E+10	3.940825E-13	NaN
308	1.000000	0.338826	7.36808e+06	-54039.1	955.819	-29744.9	0.000000	0.000000	6.338885	0.027212	NaN	0.000000	0.001723	0.001690	28.0777	0.066965	0.002038	32.8647	46.8457	-166.757	-0.081304	0.337521	-0.756158	-0.757462	0.027212	32.8647	-0.756779	-1.162726E+10	-2.340369E-12	NaN
308	1.000000	0.380857	7.36808e+06	-54039.1	955.818	-29744.9	0.000000	0.000000	6.380915	-0.014249	NaN	0.000000	0.001664	0.001675	28.0789	0.073380	0.001919	38.231	162.526	10.1984	-0.000537	0.379441	-0.714126	-0.715543	-0.014249	38.231	-0.713847	-3.023701E+9	4.712535E-12	NaN
308	1.000000	0.422831	7.36808e+06	-54039.1	955.818	-29744.9	0.000000	0.000000	6.422891	0.051270	NaN	0.000000	0.001708	0.001678	28.079	0.093227	0.002025	46.029	166.468	-165.844	0.032499	0.421548	-0.672153	-0.673436	0.051270	46.029	-0.672988	-8.361499E+8	-6.131698E-11	NaN
308	1.000000	0.464850	7.36808e+06	-54039.1	955.818	-29744.9	0.000000	0.000000	6.464907	-0.025260	NaN	0.000000	0.001665	0.001617	28.0793	0.029528	0.002005	14.7239	142.933	12.5821	0.056878	0.463547	-0.630134	-0.631437	-0.025260	14.7239	-0.628848	-2.075849E+8	1.216830E-10	NaN
308	1.000000	0.506919	7.36808e+06	-54039.1	955.819	-29744.9	0.000000	0.000000	6.506977	-0.003154	NaN	0.000000	0.001608	0.001626	28.0782	0.083809	0.002003	41.8433	121.4	-162.763	-0.086876	0.505563	-0.588064	-0.589421	-0.003154	41.8433	-0.588008	-5.691128E+7	5.541632E-11	NaN
308	1.000000	0.548895	7.36808e+06	-54039.1	955.818	-29744.9	0.000000	0.000000	6.548954	0.015887	NaN	0.000000	0.001646	0.001636	28.0782	0.018347	0.001994	9.199005	59.9547	14.8766	-0.015162	0.547555	-0.546089	-0.547428	0.015887	9.199005	-0.547384	-1.562117E+7	-1.016989E-9	NaN
308	1.000000	0.590945	7.36808e+06	-54039.1	955.819	-29744.9	0.000000	0.000000	6.591004	0.029339	NaN	0.000000	0.001621	0.001641	28.078	0.094536	0.001971	47.9563	-31.6381	-165.174	-0.004251	0.589635	-0.504039	-0.505349	0.029339	47.9563	-0.504498	-3.96041e+06	-7.408175E-9	NaN
308	1.000000	0.632936	7.36808e+06	-54039.1	955.818	-29744.9	0.000000	0.000000	6.632994	0.001950	NaN	0.000000	0.001590	0.001598	28.0794	0.046994	0.001949	24.1107	-0.875983	10.7393	-0.021503	0.631564	-0.462048	-0.463420	0.001950	24.1107	-0.462109	-1.01075e+06	-1.929346E-9	NaN
308	1.000000	0.674996	7.36808e+06	-54039.1	955.818	-29744.9	0.000000	0.000000	6.675055	0.028662	NaN	0.000000	0.001580	0.001575	28.0792	0.063570	0.002064	30.7947	35.1564	-168.626	-0.014495	0.673641	-0.419988	-0.421343	0.028662	30.7947	-0.420686	-263111	-1.089353E-7	NaN
308	1.000000	0.716984	7.36808e+06	-54039.1	955.818	-29744.9	0.000000	0.000000	6.717042	-0.001296	NaN	0.000000	0.001594	0.001558	28.0792	0.060992	0.002010	30.3487	130.966	12.9153	-0.080534	0.715631	-0.378000	-0.379353	-0.001296	30.3487	-0.377968	-64672.4	2.003561E-8	NaN
308	1.000000	0.758974	7.36808e+06	-54039.1	955.819	-29744.9	0.000000	0.000000	6.759032	0.013414	NaN	0.000000	0.001565	0.001604	28.0792	0.088234	0.002064	42.7408	131.144	-169.137	-0.013176	0.757709	-0.336010	-0.337275	0.013414	42.7408	-0.336246	-16098.3	-8.332408E-7	NaN
308	1.000000	0.801004	7.36808e+06	-54039.1	955.818	-29744.9	0.000000	0.000000	6.801060	-0.040876	NaN	0.000000	0.001637	0.001592	28.0781	0.106995	0.002061	51.911	-19.7003	11.1029	-0.065739	0.799618	-0.293980	-0.295366	-0.040876	51.911	-0.293389	-3749.94	1.090048E-5	NaN
308	1.000000	0.843051	7.36808e+06	-54039.1	955.819	-29744.9	0.000000	0.000000	6.843108	-0.021173	NaN	0.000000	0.001620	0.001587	28.0779	0.116134	0.002002	58.0136	21.0686	-165.007	-0.043258	0.841714	-0.251933	-0.253270	-0.021173	58.0136	-0.251659	-872.184	2.427615E-5	NaN
308	1.000000	0.885051	7.36808e+06	-54039.1	955.819	-29744.9	0.000000	0.000000	6.885109	-0.012099	NaN	0.000000	0.001672	0.001571	28.0777	0.092705	0.001981	46.804	175.854	16.2456	0.034367	0.883705	-0.209933	-0.211278	-0.012099	46.804	-0.209739	-189.928	6.370262E-5	NaN
308	1.000000	0.927085	7.36808e+06	-54039.1	955.819	-29744.9	0.000000	0.000000	6.927143	-0.004593	NaN	0.000000	0.001674	0.001580	28.079	0.032990	0.002094	15.7519	84.686	-163.585	-0.034797	0.925756	-0.167899	-0.169227	-0.004593	15.7519	-0.167680	-37.4301	0.000123	NaN
308	1.000000	0.969088	7.36808e+06	-54039.1	955.818	-29744.9	0.000000	0.000000	6.969145	-0.041636	NaN	0.000000	0.001621	0.001593	28.0793	0.055251	0.001929	28.6413	-135.97	12.2643	0.016648	0.967734	-0.125896	-0.127249	-0.041636	28.6413	-0.124805	-6.027573	0.006908	NaN
308	1.000000	1.011096	7.36808e+06	-54039.1	955.818	-29744.9	0.000000	0.000000	7.011153	-0.027245	NaN	0.000000	0.001633	0.001594	28.0793	0.082563	0.001933	42.7094	120.918	-166.677	-0.012480	1.009775	-0.083887	-0.085209	-0.027245	42.7094	-0.083409	-0.751580	0.036250	NaN
308	1.000000	1.053116	7.36808e+06	-54039.1	955.818	-29744.9	0.000000	0.000000	7.053176	0.032246	NaN	0.000000	0.001621	0.001557	28.078	0.027649	0.001963	14.0881	171.884	12.5802	0.007795	1.051733	-0.041868	-0.043251	0.032246	14.0881	-0.043584	-0.058170	-0.554348	NaN
308	1.000000	1.095133	7.36808e+06	-54039.1	955.818	-29744.9	0.000000	0.000000	7.095201	0.216188	NaN	0.000000	0.001628	0.001617	28.0779	0.403426	0.002027	199.042	0.179123	-165.128	-0.004028	1.093830	0.000150	-0.001154	0.216188	199.042	-0.000665	-0.000491	-440.689	NaN
308	2.000000	1.112138	7.36808e+06	-54039.1	955.818	-29744.9	0.000000	0.000000	7.113238	25.3172	NaN	0.000000	0.001632	0.001623	28.078	18.8868	0.001687	11194.8	4.417349	1.445837	23.3024	1.111855	0.017155	0.016871	25.3172	11194.8	0.015458	0.015902	1592.12	81109.3
308	2.000000	1.122590	7.36808e+06	-54039.1	955.817	-29744.9	0.000000	0.000000	7.124771	51.6175	NaN	0.000000	0.001623	0.001599	28.0778	29.1329	0.001863	15640.5	6.017188	179.186	49.4673	1.122286	0.027606	0.027303	51.6175	15640.5	0.025131	0.031254	1651.55	80829.8
308	2.000000	1.133095	7.36808e+06	-54039.1	955.818	-29744.9	0.000000	0.000000	7.136827	89.3009	NaN	0.000000	0.001662	0.001649	28.0792	38.2172	0.001765	21649.8	0.970844	2.634924	87.4051	1.132656	0.038112	0.037672	89.3009	21649.8	0.035018	0.051788	1724.36	86918.8
308	2.000000	1.143521	7.36808e+06	-54039.1	955.818	-29744.9	0.000000	0.000000	7.148847	128.069	NaN	0.000000	0.001659	0.001611	28.0796	47.5134	0.001742	27270.6	4.827039	174.601	124.28	1.143277	0.048538	0.048293	128.069	27270.6	0.045015	0.077631	1649.71	89423.2
308	2.000000	1.154085	7.36808e+06	-54039.1	955.818	-29744.9	0.000000	0.000000	7.161397	176.357	NaN	0.000000	0.001599	0.001696	28.0789	56.1992	0.001677	33520.3	5.931964	-7.138999	175.437	1.153651	0.059101	0.058667	176.357	33520.3	0.055155	0.109011	1617.79	92756.9
308	2.000000	1.164568	7.36808e+06	-54039.1	955.817	-29744.9	0.000000	0.000000	7.174244	233.817	NaN	0.000000	0.001618	0.001624	28.0779	67.3095	0.001834	36691	6.056857	172.959	232.676	1.164185	0.069585	0.069202	233.817	36691	0.064805	0.143600	1628.25	88461.7
308	2.000000	1.174934	7.36808e+06	-54039.1	955.818	-29744.9	0.000000	0.000000	7.187132	295.144	NaN	0.000000	0.001624	0.001643	28.0779	77.4954	0.001668	46451.4	3.769296	-8.150625	286.813	1.174677	0.079950	0.079694	295.144	46451.4	0.075185	0.185816	1588.37	98453.3
308	2.000000	1.185620	7.36808e+06	-54039.1	955.817	-29744.9	0.000000	0.000000	7.200630	363.492	NaN	0.000000	0.001573	0.001660	28.0776	88.2161	0.001804	48911.1	9.306664	166.392	367.86	1.185205	0.090636	0.090221	363.492	48911.1	0.085062	0.230699	1575.61	93037.3
308	2.000000	1.195944	7.36808e+06	-54039.1	955.818	-29744.9	0.000000	0.000000	7.214716	454.964	NaN	0.000000	0.001681	0.001661	28.0791	98.3774	0.001869	52644.2	6.608792	-11.0655	450.146	1.195564	0.100960	0.100580	454.964	52644.2	0.094478	0.277681	1638.44	91274.8
308	2.000000	1.202454	7.36808e+06	-54039.1	955.819	-29744.9	0.000000	0.000000	7.223482	509.798	NaN	0.000000	0.001743	0.001643	28.0794	103.958	0.001813	57346.3	1.980338	173.233	508.286	1.202140	0.107471	0.107156	509.798	57346.3	0.100803	0.311518	1636.5	93872.2