File: remote_trans/data/nanoindenter/0828-1/data/Data_2025-08-06,11h17m57s/2025-07-22_16-23-58_1_335.txt
2025-07-22, 16:23:58, 1
Index	Phase	Displacement	Time	Pos X	Pos Y	Pos Z	Rot A	Rot B	Piezo Z	Force A	Force B	Gripper	Voltage A	Voltage B	Temperature	Amplitude force	Amplitude pos	Stiffness	Phase shift	Phase excitation	Force A raw	Displacement raw	HMax	HMax raw	Real Force	Real Stiffness	Contact Depth	Area	Hardness	Reduced Mod.
[#]	[#]	[um]	[s]	[um]	[um]	[um]	[m°]	[m°]	[um]	[uN]	[uN]	[V]	[V]	[V]	[°C]	[uN]	[um]	[N/m]	[°]	[°]	[uN]	[um]	[um]	[um]	[uN]	[N/m]	[um]	[um^2]	[MPa]	[MPa]
335	1.000000	0.002676	7.36834e+06	-55389.1	955.819	-29741.9	0.000000	0.000000	6.002800	-0.016603	NaN	0.000000	0.001654	0.001638	28.0816	0.029874	0.000919	32.5187	-5.458354	-168.125	0.003141	0.001424	-1.132495	-1.133747	-0.016603	32.5187	-1.132113	-1.351938E+15	1.228071E-17	NaN
335	1.000000	0.044630	7.36834e+06	-55389.1	955.819	-29741.9	0.000000	0.000000	6.044758	0.074816	NaN	0.000000	0.001656	0.001647	28.0816	0.112641	0.001899	59.3258	170.968	15.2774	0.056217	0.043264	-1.090542	-1.091907	0.074816	59.3258	-1.091487	-3.852859E+14	-1.941836E-16	NaN
335	1.000000	0.086634	7.36834e+06	-55389.1	955.818	-29741.9	0.000000	0.000000	6.086758	-0.027188	NaN	0.000000	0.001618	0.001648	28.0815	0.045147	0.001941	23.2561	28.5199	-168.13	-0.026554	0.085274	-1.048537	-1.049897	-0.027188	23.2561	-1.047660	-9.930289E+13	2.737883E-16	NaN
335	1.000000	0.128633	7.36834e+06	-55389.1	955.819	-29741.9	0.000000	0.000000	6.128758	0.008163	NaN	0.000000	0.001569	0.001661	28.0806	0.077644	0.001930	40.2371	-168.572	13.5219	-0.038249	0.127346	-1.006539	-1.007825	0.008163	40.2371	-1.006691	-2.791517E+13	-2.924291E-16	NaN
335	1.000000	0.170667	7.36834e+06	-55389.1	955.818	-29741.9	0.000000	0.000000	6.170792	0.002785	NaN	0.000000	0.001593	0.001621	28.0804	0.125639	0.002037	61.6715	146.708	-169.565	-0.070220	0.169342	-0.964504	-0.965829	0.002785	61.6715	-0.964538	-7.551737E+12	-3.688091E-16	NaN
335	1.000000	0.212674	7.36834e+06	-55389.1	955.818	-29741.9	0.000000	0.000000	6.212797	-0.038948	NaN	0.000000	0.001566	0.001605	28.0803	0.042361	0.001982	21.3781	-110.281	14.7618	-0.048813	0.211370	-0.922498	-0.923802	-0.038948	21.3781	-0.921132	-1.961025E+12	1.986079E-14	NaN
335	1.000000	0.254694	7.36834e+06	-55389.1	955.818	-29741.9	0.000000	0.000000	6.254820	0.018812	NaN	0.000000	0.001633	0.001624	28.0818	0.076014	0.001959	38.8052	167.512	-166.69	0.047630	0.253398	-0.880477	-0.881774	0.018812	38.8052	-0.880841	-5.598550E+11	-3.360090E-14	NaN
335	1.000000	0.296747	7.36834e+06	-55389.1	955.817	-29741.9	0.000000	0.000000	6.296872	-0.003502	NaN	0.000000	0.001571	0.001624	28.0815	0.051594	0.001801	28.6508	-105.481	11.2109	0.062232	0.295407	-0.838425	-0.839765	-0.003502	28.6508	-0.838333	-1.488358E+11	2.353082E-14	NaN
335	1.000000	0.338737	7.36834e+06	-55389.1	955.819	-29741.9	0.000000	0.000000	6.338864	0.039383	NaN	0.000000	0.001599	0.001623	28.0815	0.021997	0.001924	11.4342	97.1382	-167.582	-0.020962	0.337470	-0.796434	-0.797701	0.039383	11.4342	-0.799018	-4.360394E+10	-9.032068E-13	NaN
335	1.000000	0.380782	7.36834e+06	-55389.1	955.818	-29741.9	0.000000	0.000000	6.380909	0.029824	NaN	0.000000	0.001619	0.001616	28.0815	0.050280	0.001926	26.0993	38.5654	12.3359	0.052692	0.379390	-0.754389	-0.755781	0.029824	26.0993	-0.755246	-1.108209E+10	-2.691200E-12	NaN
335	1.000000	0.422767	7.36834e+06	-55389.1	955.819	-29741.9	0.000000	0.000000	6.422891	-0.024584	NaN	0.000000	0.001572	0.001631	28.0811	0.071951	0.001956	36.7766	25.0656	-164.792	-0.039711	0.421472	-0.712404	-0.713700	-0.024584	36.7766	-0.711903	-2.844554E+9	8.642409E-12	NaN
335	1.000000	0.464788	7.36834e+06	-55389.1	955.819	-29741.9	0.000000	0.000000	6.464912	-0.030938	NaN	0.000000	0.001565	0.001681	28.0803	0.081493	0.001932	42.188	147.576	11.4523	-0.021735	0.463440	-0.670384	-0.671732	-0.030938	42.188	-0.669834	-7.570286E+8	4.086791E-11	NaN
335	1.000000	0.506830	7.36834e+06	-55389.1	955.819	-29741.9	0.000000	0.000000	6.506957	0.046476	NaN	0.000000	0.001596	0.001713	28.08	0.030636	0.002066	14.828	-127.098	-164.87	0.021096	0.505462	-0.628342	-0.629710	0.046476	14.828	-0.630692	-2.200549E+8	-2.112012E-10	NaN
335	1.000000	0.548833	7.36834e+06	-55389.1	955.819	-29741.9	0.000000	0.000000	6.548956	-0.050281	NaN	0.000000	0.001631	0.001707	28.0814	0.097816	0.001925	50.8228	-19.6006	10.6834	-0.007422	0.547502	-0.586338	-0.587669	-0.050281	50.8228	-0.585596	-5.271591E+7	9.538101E-10	NaN
335	1.000000	0.590846	7.36834e+06	-55389.1	955.819	-29741.9	0.000000	0.000000	6.590973	0.050233	NaN	0.000000	0.001622	0.001710	28.0812	0.049883	0.001882	26.5053	-127.588	-168.345	-0.005474	0.589583	-0.544326	-0.545589	0.050233	26.5053	-0.545747	-1.482637E+7	-3.388060E-9	NaN
335	1.000000	0.632884	7.36834e+06	-55389.1	955.818	-29741.9	0.000000	0.000000	6.633006	-0.086142	NaN	0.000000	0.001611	0.001696	28.0813	0.074289	0.002026	36.6734	69.8167	16.8869	-0.053831	0.631503	-0.502287	-0.503668	-0.086142	36.6734	-0.500526	-3.48619e+06	2.470952E-8	NaN
335	1.000000	0.674904	7.36834e+06	-55389.1	955.818	-29741.9	0.000000	0.000000	6.675029	0.019119	NaN	0.000000	0.001578	0.001632	28.0804	0.059817	0.001964	30.4632	-167.813	-167.345	0.005821	0.673563	-0.460268	-0.461609	0.019119	30.4632	-0.460739	-966936	-1.977236E-8	NaN
335	1.000000	0.716879	7.36834e+06	-55389.1	955.817	-29741.9	0.000000	0.000000	6.717003	-0.033465	NaN	0.000000	0.001581	0.001675	28.0804	0.102280	0.002111	48.4571	-168.891	15.3911	-0.027777	0.715520	-0.418292	-0.419652	-0.033465	48.4571	-0.417774	-239241	1.398795E-7	NaN
335	1.000000	0.758905	7.36834e+06	-55389.1	955.817	-29741.9	0.000000	0.000000	6.759028	-0.059322	NaN	0.000000	0.001623	0.001618	28.0804	0.034836	0.002074	16.7986	-26.3519	-161.349	-0.010523	0.757584	-0.376266	-0.377587	-0.059322	16.7986	-0.373618	-56001	1.059304E-6	NaN
335	1.000000	0.800947	7.36834e+06	-55389.1	955.818	-29741.9	0.000000	0.000000	6.801071	-0.026419	NaN	0.000000	0.001583	0.001644	28.0817	0.127656	0.001914	66.7108	-78.6232	15.2607	-0.087159	0.799575	-0.334225	-0.335597	-0.026419	66.7108	-0.333928	-14890.8	1.774180E-6	NaN
335	1.000000	0.842983	7.36834e+06	-55389.1	955.819	-29741.9	0.000000	0.000000	6.843110	0.052665	NaN	0.000000	0.001613	0.001633	28.0817	0.111478	0.001960	56.8752	-106.501	-165.418	-0.010940	0.841633	-0.292189	-0.293539	0.052665	56.8752	-0.292883	-3685.17	-1.429100E-5	NaN
335	1.000000	0.884981	7.36834e+06	-55389.1	955.817	-29741.9	0.000000	0.000000	6.885108	0.026782	NaN	0.000000	0.001650	0.001628	28.0817	0.139100	0.001989	69.9509	101.04	13.9035	-0.025218	0.883612	-0.250190	-0.251559	0.026782	69.9509	-0.250477	-836.266	-3.202552E-5	NaN
335	1.000000	0.927022	7.36834e+06	-55389.1	955.818	-29741.9	0.000000	0.000000	6.927152	0.118233	NaN	0.000000	0.001572	0.001607	28.0822	0.078851	0.002008	39.2688	-117.488	-168.185	0.101684	0.925652	-0.208149	-0.209520	0.118233	39.2688	-0.210407	-194.722	-0.000607	NaN
335	1.000000	0.969015	7.36835e+06	-55389.1	955.818	-29741.9	0.000000	0.000000	6.969140	0.000597	NaN	0.000000	0.001568	0.001628	28.0805	0.041564	0.001878	22.137	150.376	16.0366	-0.020367	0.967686	-0.166157	-0.167485	0.000597	22.137	-0.166177	-35.2329	-1.693667E-5	NaN
335	1.000000	1.011029	7.36835e+06	-55389.1	955.819	-29741.9	0.000000	0.000000	7.011157	0.080110	NaN	0.000000	0.001586	0.001627	28.0804	0.099921	0.001982	50.4113	132.27	-165.889	0.043154	1.009748	-0.124143	-0.125424	0.080110	50.4113	-0.125335	-6.174601	-0.012974	NaN
335	1.000000	1.053019	7.36835e+06	-55389.1	955.817	-29741.9	0.000000	0.000000	7.053145	0.022150	NaN	0.000000	0.001594	0.001589	28.0803	0.019561	0.002049	9.547894	135.153	12.7726	-0.044433	1.051660	-0.082152	-0.083512	0.022150	9.547894	-0.083892	-0.772269	-0.028682	NaN
335	1.000000	1.095068	7.36835e+06	-55389.1	955.819	-29741.9	0.000000	0.000000	7.095194	0.014114	NaN	0.000000	0.001614	0.001577	28.0813	0.027785	0.001937	14.3426	-173.071	-164.296	0.058901	1.093803	-0.040103	-0.041369	0.014114	14.3426	-0.040841	-0.047966	-0.294248	NaN
335	1.000000	1.137065	7.36835e+06	-55389.1	955.817	-29741.9	0.000000	0.000000	7.137218	0.674817	NaN	0.000000	0.001604	0.001598	28.0814	1.196517	0.002014	593.991	15.0989	13.4739	0.186179	1.135756	0.001894	0.000585	0.674817	593.991	0.001042	0.000795	849.194	19251.5
335	2.000000	1.152669	7.36835e+06	-55389.1	955.817	-29741.9	0.000000	0.000000	7.153565	18.7396	NaN	0.000000	0.001620	0.001610	28.0821	16.9032	0.001717	9842.7	4.596972	-175.005	18.4027	1.152312	0.017497	0.017141	18.7396	9842.7	0.016070	0.016738	1119.58	69507.8
335	2.000000	1.163086	7.36835e+06	-55389.1	955.818	-29741.9	0.000000	0.000000	7.164927	41.6965	NaN	0.000000	0.001572	0.001588	28.0804	27.2168	0.001760	15460.7	6.989695	-1.458195	38.6106	1.162794	0.027915	0.027623	41.6965	15460.7	0.025892	0.032659	1276.72	78163.1
335	2.000000	1.173656	7.36835e+06	-55389.1	955.818	-29741.9	0.000000	0.000000	7.176822	73.9217	NaN	0.000000	0.001585	0.001587	28.0804	37.6372	0.001795	20968.9	5.004290	178.365	76.3008	1.173331	0.038485	0.038160	73.9217	20968.9	0.035841	0.053721	1376.02	82656.3
335	2.000000	1.184111	7.36835e+06	-55389.1	955.817	-29741.9	0.000000	0.000000	7.189149	119.442	NaN	0.000000	0.001573	0.001598	28.0803	46.4477	0.001784	26035.5	4.376672	-1.824950	118.7	1.183641	0.048939	0.048470	119.442	26035.5	0.045498	0.079009	1511.76	84625.5
335	2.000000	1.194617	7.36835e+06	-55389.1	955.818	-29741.9	0.000000	0.000000	7.201720	169.619	NaN	0.000000	0.001584	0.001551	28.0817	58.3528	0.001761	33129.3	5.433702	174.436	169.36	1.194172	0.059445	0.059001	169.619	33129.3	0.055605	0.110523	1534.7	91045.6
335	2.000000	1.205145	7.36835e+06	-55389.1	955.818	-29741.9	0.000000	0.000000	7.214314	219.849	NaN	0.000000	0.001581	0.001536	28.0818	68.3993	0.001772	38595.1	3.602657	-5.552626	220.932	1.204843	0.069974	0.069672	219.849	38595.1	0.065701	0.147043	1495.13	91956.6
335	2.000000	1.215494	7.36835e+06	-55389.1	955.819	-29741.9	0.000000	0.000000	7.227855	297.436	NaN	0.000000	0.001576	0.001629	28.0818	77.9453	0.001749	44559.6	5.685613	171.849	292.815	1.215080	0.080323	0.079908	297.436	44559.6	0.075317	0.186385	1595.82	94299.4
335	2.000000	1.226074	7.36835e+06	-55389.1	955.819	-29741.9	0.000000	0.000000	7.241154	363.542	NaN	0.000000	0.001557	0.001600	28.0819	86.4336	0.001721	50228.7	4.535761	-7.359435	363.611	1.225700	0.090902	0.090528	363.542	50228.7	0.085474	0.232668	1562.5	95138.6
335	2.000000	1.236525	7.36835e+06	-55389.1	955.819	-29741.9	0.000000	0.000000	7.254816	441.589	NaN	0.000000	0.001523	0.001593	28.0806	97.2629	0.001681	57857.2	5.003855	170.895	441.745	1.236263	0.101354	0.101091	441.589	57857.2	0.095629	0.283704	1556.51	99242.5
335	2.000000	1.242419	7.36835e+06	-55389.1	955.819	-29741.9	0.000000	0.000000	7.262974	496.61	NaN	0.000000	0.001524	0.001561	28.0804	103.737	0.001895	54736.7	2.947981	173.481	490.556	1.242122	0.107248	0.106951	496.61	54736.7	0.100443	0.309542	1604.33	89885.9