File: remote_trans/data/nanoindenter/0828-1/data/Data_2025-08-06,11h17m57s/2025-07-22_16-23-58_1_1036.txt
2025-07-22, 16:23:58, 1
Index	Phase	Displacement	Time	Pos X	Pos Y	Pos Z	Rot A	Rot B	Piezo Z	Force A	Force B	Gripper	Voltage A	Voltage B	Temperature	Amplitude force	Amplitude pos	Stiffness	Phase shift	Phase excitation	Force A raw	Displacement raw	HMax	HMax raw	Real Force	Real Stiffness	Contact Depth	Area	Hardness	Reduced Mod.
[#]	[#]	[um]	[s]	[um]	[um]	[um]	[m°]	[m°]	[um]	[uN]	[uN]	[V]	[V]	[V]	[°C]	[uN]	[um]	[N/m]	[°]	[°]	[uN]	[um]	[um]	[um]	[uN]	[N/m]	[um]	[um^2]	[MPa]	[MPa]
1036	1.000000	0.002533	7.37518e+06	-51939.1	1055.82	-29750.6	0.000000	0.000000	6.002803	-0.005446	NaN	0.000000	0.001586	0.001774	28.0828	0.010517	0.000992	10.5973	165.049	-162.217	0.047830	0.001260	-1.088591	-1.089864	-0.005446	10.5973	-1.088206	-3.481104E+14	1.564387E-17	NaN
1036	1.000000	0.044470	7.37518e+06	-51939.1	1055.82	-29750.6	0.000000	0.000000	6.044741	0.028124	NaN	0.000000	0.001561	0.001705	28.0828	0.038160	0.002018	18.9142	156.515	15.6539	0.006457	0.043117	-1.046654	-1.048007	0.028124	18.9142	-1.047769	-9.963892E+13	-2.822616E-16	NaN
1036	1.000000	0.086485	7.37518e+06	-51939.1	1055.82	-29750.6	0.000000	0.000000	6.086755	-0.009661	NaN	0.000000	0.001653	0.001655	28.0815	0.045071	0.002025	22.2575	102.008	-167.595	0.000724	0.085167	-1.004639	-1.005957	-0.009661	22.2575	-1.004313	-2.593188E+13	3.725383E-16	NaN
1036	1.000000	0.128518	7.37518e+06	-51939.1	1055.82	-29750.6	0.000000	0.000000	6.128787	-0.009291	NaN	0.000000	0.001598	0.001723	28.0816	0.011646	0.002032	5.731037	110.961	16.5348	0.003138	0.127157	-0.962606	-0.963967	-0.009291	5.731037	-0.961390	-6.848792E+12	1.356607E-15	NaN
1036	1.000000	0.170500	7.37518e+06	-51939.1	1055.82	-29750.6	0.000000	0.000000	6.170767	-0.067300	NaN	0.000000	0.001613	0.001688	28.082	0.083040	0.001987	41.7891	-132.602	-166.5	-0.092949	0.169249	-0.920624	-0.921875	-0.067300	41.7891	-0.919416	-1.859186E+12	3.619870E-14	NaN
1036	1.000000	0.212529	7.37518e+06	-51939.1	1055.82	-29750.6	0.000000	0.000000	6.212799	-0.010778	NaN	0.000000	0.001617	0.001678	28.0827	0.069810	0.001949	35.8107	-38.3689	16.4608	0.003740	0.211213	-0.878595	-0.879911	-0.010778	35.8107	-0.878369	-5.183843E+11	2.079211E-14	NaN
1036	1.000000	0.254534	7.37518e+06	-51939.1	1055.82	-29750.6	0.000000	0.000000	6.254806	0.052918	NaN	0.000000	0.001557	0.001738	28.0828	0.070445	0.001979	35.5989	79.0787	-166.245	0.051842	0.253283	-0.836591	-0.837841	0.052918	35.5989	-0.837705	-1.459506E+11	-3.625765E-13	NaN
1036	1.000000	0.296607	7.37518e+06	-51939.1	1055.82	-29750.6	0.000000	0.000000	6.296878	0.013107	NaN	0.000000	0.001572	0.001715	28.084	0.090067	0.001948	46.2376	-27.4909	13.3948	0.037672	0.295242	-0.794517	-0.795883	0.013107	46.2376	-0.794730	-3.813386E+10	-3.437108E-13	NaN
1036	1.000000	0.338592	7.37518e+06	-51939.1	1055.82	-29750.6	0.000000	0.000000	6.338860	-0.054227	NaN	0.000000	0.001590	0.001733	28.0817	0.092932	0.001985	46.8258	-72.7516	-167.06	-0.067469	0.337347	-0.752532	-0.753777	-0.054227	46.8258	-0.751664	-9.905275E+9	5.474526E-12	NaN
1036	1.000000	0.380612	7.37518e+06	-51939.1	1055.82	-29750.6	0.000000	0.000000	6.380883	0.015516	NaN	0.000000	0.001601	0.001724	28.0817	0.056194	0.001971	28.5148	-52.4607	15.6788	0.025710	0.379227	-0.710512	-0.711897	0.015516	28.5148	-0.710920	-2.758069E+9	-5.625708E-12	NaN
1036	1.000000	0.422660	7.37518e+06	-51939.1	1055.82	-29750.6	0.000000	0.000000	6.422934	0.095904	NaN	0.000000	0.001585	0.001729	28.0816	0.167865	0.002076	80.8529	172.865	-165.928	0.049689	0.421359	-0.668464	-0.669765	0.095904	80.8529	-0.669354	-7.456629E+8	-1.286163E-10	NaN
1036	1.000000	0.464638	7.37518e+06	-51939.1	1055.82	-29750.6	0.000000	0.000000	6.464910	0.035445	NaN	0.000000	0.001598	0.001736	28.0828	0.055783	0.002023	27.5803	30.483	13.729	0.047755	0.463290	-0.626486	-0.627834	0.035445	27.5803	-0.627450	-1.986098E+8	-1.784630E-10	NaN
1036	1.000000	0.506642	7.37518e+06	-51939.1	1055.82	-29750.6	0.000000	0.000000	6.506910	-0.059418	NaN	0.000000	0.001602	0.001730	28.0829	0.063729	0.002092	30.4615	22.2186	-161.927	-0.085921	0.505351	-0.584482	-0.585774	-0.059418	30.4615	-0.583019	-4.857151E+7	1.223309E-9	NaN
1036	1.000000	0.548683	7.37518e+06	-51939.1	1055.82	-29750.6	0.000000	0.000000	6.548952	-0.017811	NaN	0.000000	0.001575	0.001733	28.0829	0.125874	0.002017	62.4048	-86.8838	12.5981	0.076200	0.547332	-0.542442	-0.543792	-0.017811	62.4048	-0.542228	-1.325094E+7	1.344136E-9	NaN
1036	1.000000	0.590709	7.37518e+06	-51939.1	1055.82	-29750.6	0.000000	0.000000	6.590978	-0.026518	NaN	0.000000	0.001597	0.001765	28.083	0.133870	0.002018	66.3506	79.0409	-165.999	-0.055092	0.589417	-0.500415	-0.501708	-0.026518	66.3506	-0.500115	-3.44056e+06	7.707333E-9	NaN
1036	1.000000	0.632700	7.37518e+06	-51939.1	1055.82	-29750.6	0.000000	0.000000	6.632970	0.010976	NaN	0.000000	0.001542	0.001703	28.0817	0.035119	0.002117	16.5863	25.3836	15.7889	-0.102128	0.631371	-0.458424	-0.459753	0.010976	16.5863	-0.458921	-911696	-1.203882E-8	NaN
1036	1.000000	0.674725	7.37518e+06	-51939.1	1055.82	-29750.6	0.000000	0.000000	6.674995	-0.009844	NaN	0.000000	0.001605	0.001754	28.0817	0.048540	0.001910	25.414	-36.0955	-165.877	0.003258	0.673426	-0.416399	-0.417698	-0.009844	25.414	-0.416109	-226567	4.344812E-8	NaN
1036	1.000000	0.716783	7.37518e+06	-51939.1	1055.82	-29750.6	0.000000	0.000000	6.717054	0.024839	NaN	0.000000	0.001608	0.001752	28.0818	0.134999	0.001971	68.4866	18.4621	14.2978	-0.062473	0.715393	-0.374341	-0.375731	0.024839	68.4866	-0.374613	-57877.6	-4.291658E-7	NaN
1036	1.000000	0.758766	7.37518e+06	-51939.1	1055.82	-29750.6	0.000000	0.000000	6.759036	-0.012665	NaN	0.000000	0.001585	0.001803	28.0833	0.043950	0.002026	21.6946	9.391083	-165.105	-0.053865	0.757460	-0.332358	-0.333664	-0.012665	21.6946	-0.331920	-13917.5	9.100211E-7	NaN
1036	1.000000	0.800802	7.37518e+06	-51939.1	1055.82	-29750.6	0.000000	0.000000	6.801074	0.054931	NaN	0.000000	0.001602	0.001781	28.0831	0.101685	0.002048	49.6554	119.054	13.4489	0.029920	0.799446	-0.290322	-0.291678	0.054931	49.6554	-0.291152	-3471.77	-1.582226E-5	NaN
1036	1.000000	0.842806	7.37519e+06	-51939.1	1055.82	-29750.6	0.000000	0.000000	6.843077	0.017022	NaN	0.000000	0.001609	0.001779	28.0832	0.045655	0.001944	23.4878	-108.893	-165.738	0.041417	0.841497	-0.248318	-0.249627	0.017022	23.4878	-0.248861	-789.489	-2.156029E-5	NaN
1036	1.000000	0.884812	7.37519e+06	-51939.1	1055.82	-29750.6	0.000000	0.000000	6.885081	-0.019508	NaN	0.000000	0.001569	0.001764	28.0818	0.081325	0.001993	40.8148	126.255	13.5059	-0.017816	0.883520	-0.206313	-0.207604	-0.019508	40.8148	-0.205954	-164.858	0.000118	NaN
1036	1.000000	0.926826	7.37519e+06	-51939.1	1055.82	-29750.6	0.000000	0.000000	6.927096	0.002170	NaN	0.000000	0.001571	0.001704	28.0818	0.014072	0.002068	6.803790	94.8504	-161.238	0.087994	0.925518	-0.164298	-0.165606	0.002170	6.803790	-0.164537	-32.974	-6.580564E-5	NaN
1036	1.000000	0.968858	7.37519e+06	-51939.1	1055.82	-29750.6	0.000000	0.000000	6.969128	0.002356	NaN	0.000000	0.001546	0.001738	28.082	0.034595	0.001986	17.4186	-174.852	16.1205	0.029068	0.967498	-0.122266	-0.123626	0.002356	17.4186	-0.122368	-5.390632	-0.000437	NaN
1036	1.000000	1.010865	7.37519e+06	-51939.1	1055.82	-29750.6	0.000000	0.000000	7.011134	-0.037303	NaN	0.000000	0.001581	0.001744	28.0833	0.062028	0.001976	31.3957	42.2206	-168.067	-0.085002	1.009555	-0.080259	-0.081570	-0.037303	31.3957	-0.079368	-0.596823	0.062503	NaN
1036	1.000000	1.052914	7.37519e+06	-51939.1	1055.82	-29750.6	0.000000	0.000000	7.053181	-0.056896	NaN	0.000000	0.001560	0.001702	28.0831	0.019659	0.002107	9.332285	-30.9034	16.2956	-0.035609	1.051529	-0.038211	-0.039595	-0.056896	9.332285	-0.033638	-0.029216	1.947442	NaN
1036	1.000000	1.094876	7.37519e+06	-51939.1	1055.82	-29750.6	0.000000	0.000000	7.095202	1.354713	NaN	0.000000	0.001620	0.001761	28.0831	2.057249	0.001941	1059.8	11.5242	-168.722	0.314813	1.093590	0.003752	0.002466	1.354713	1059.8	0.002793	0.002206	613.989	20613.6
1036	2.000000	1.109986	7.37519e+06	-51939.1	1055.82	-29750.6	0.000000	0.000000	7.110865	14.8023	NaN	0.000000	0.001567	0.001734	28.083	16.3336	0.001888	8653.19	7.851102	5.560477	13.8829	1.109728	0.018862	0.018603	14.8023	8653.19	0.017579	0.018880	784.038	57537.8
1036	2.000000	1.120482	7.37519e+06	-51939.1	1055.82	-29750.6	0.000000	0.000000	7.122082	32.342	NaN	0.000000	0.001575	0.001746	28.0818	24.9144	0.001840	13539.5	3.463767	-174.59	31.4183	1.120136	0.029357	0.029012	32.342	13539.5	0.027566	0.035850	902.158	65333.2
1036	2.000000	1.130951	7.37519e+06	-51939.1	1055.82	-29750.6	0.000000	0.000000	7.133489	55.1434	NaN	0.000000	0.001630	0.001720	28.0817	34.7479	0.001811	19182.8	7.049794	-2.512116	55.6285	1.130610	0.039827	0.039486	55.1434	19182.8	0.037671	0.058148	948.336	72680.7
1036	2.000000	1.141452	7.37519e+06	-51939.1	1055.82	-29750.6	0.000000	0.000000	7.145504	91.96	NaN	0.000000	0.001594	0.001708	28.0819	43.7875	0.001765	24814.1	8.501744	173.029	93.2819	1.141097	0.050328	0.049973	91.96	24814.1	0.047549	0.084987	1082.05	77767
1036	2.000000	1.151856	7.37519e+06	-51939.1	1055.82	-29750.6	0.000000	0.000000	7.157827	138.616	NaN	0.000000	0.001619	0.001731	28.0838	52.9414	0.001792	29538.4	3.055586	-1.978630	133.222	1.151519	0.060732	0.060394	138.616	29538.4	0.057212	0.116003	1194.94	79236.7
1036	2.000000	1.162418	7.37519e+06	-51939.1	1055.82	-29750.6	0.000000	0.000000	7.170454	188.845	NaN	0.000000	0.001608	0.001730	28.0831	63.6293	0.001723	36931.5	3.763541	174.971	188.319	1.162180	0.071293	0.071056	188.845	36931.5	0.067458	0.153903	1227.04	86009.6
1036	2.000000	1.172778	7.37519e+06	-51939.1	1055.82	-29750.6	0.000000	0.000000	7.183048	243.142	NaN	0.000000	0.001594	0.001836	28.083	73.415	0.001729	42468.6	6.934218	-9.116205	236.154	1.172482	0.081654	0.081358	243.142	42468.6	0.077360	0.195310	1244.9	87796.8
1036	2.000000	1.183346	7.37519e+06	-51939.1	1055.82	-29750.6	0.000000	0.000000	7.196170	305.258	NaN	0.000000	0.001622	0.001832	28.0817	84.0262	0.001821	46138.9	4.801541	171.761	302.708	1.183102	0.092222	0.091978	305.258	46138.9	0.087260	0.241299	1265.06	85814.9
1036	2.000000	1.193900	7.37519e+06	-51939.1	1055.82	-29750.6	0.000000	0.000000	7.209398	370.282	NaN	0.000000	0.001654	0.001798	28.0816	94.225	0.001854	50817.1	3.663181	-7.512271	370.076	1.193616	0.102776	0.102492	370.282	50817.1	0.097311	0.292609	1265.45	85829.9
1036	2.000000	1.199405	7.37519e+06	-51939.1	1055.82	-29750.6	0.000000	0.000000	7.216693	413.809	NaN	0.000000	0.001645	0.001784	28.0819	99.3232	0.001853	53590.5	5.906386	169.813	416.98	1.198966	0.108281	0.107842	413.809	53590.5	0.102490	0.320846	1289.74	86439.6