File: remote_trans/data/nanoindenter/0828-1/data/Data_2025-08-06,11h17m57s/2025-07-22_16-23-58_1_1186.txt
2025-07-22, 16:23:58, 1
Index	Phase	Displacement	Time	Pos X	Pos Y	Pos Z	Rot A	Rot B	Piezo Z	Force A	Force B	Gripper	Voltage A	Voltage B	Temperature	Amplitude force	Amplitude pos	Stiffness	Phase shift	Phase excitation	Force A raw	Displacement raw	HMax	HMax raw	Real Force	Real Stiffness	Contact Depth	Area	Hardness	Reduced Mod.
[#]	[#]	[um]	[s]	[um]	[um]	[um]	[m°]	[m°]	[um]	[uN]	[uN]	[V]	[V]	[V]	[°C]	[uN]	[um]	[N/m]	[°]	[°]	[uN]	[um]	[um]	[um]	[uN]	[N/m]	[um]	[um^2]	[MPa]	[MPa]
1186	1.000000	0.002560	7.37664e+06	-56289.1	1105.82	-29739.1	0.000000	0.000000	6.002841	-0.001032	NaN	0.000000	0.001622	0.001636	28.0842	0.053723	0.000947	56.7562	8.539695	-160.507	0.015298	0.001278	-1.172790	-1.174071	-0.001032	56.7562	-1.172776	-4.743312E+15	2.176740E-19	NaN
1186	1.000000	0.046473	7.37664e+06	-56289.1	1105.82	-29739.1	0.000000	0.000000	6.046753	-0.048560	NaN	0.000000	0.001613	0.001670	28.0836	0.039378	0.001986	19.825	-65.73	-166.133	0.043718	0.045144	-1.128876	-1.130205	-0.048560	19.825	-1.127039	-1.155851E+15	4.201273E-17	NaN
1186	1.000000	0.090478	7.37664e+06	-56289.1	1105.82	-29739.1	0.000000	0.000000	6.090758	-0.024319	NaN	0.000000	0.001514	0.001605	28.0828	0.058086	0.001958	29.6615	170.116	-166.181	-0.022741	0.089189	-1.084871	-1.086160	-0.024319	29.6615	-1.084256	-3.080927E+14	7.893413E-17	NaN
1186	1.000000	0.134501	7.37665e+06	-56289.1	1105.82	-29739.1	0.000000	0.000000	6.134780	-0.044908	NaN	0.000000	0.001535	0.001576	28.0826	0.023512	0.001937	12.1411	-64.0361	-165.77	-0.073807	0.133233	-1.040848	-1.042116	-0.044908	12.1411	-1.038074	-7.380285E+13	6.084884E-16	NaN
1186	1.000000	0.178507	7.37665e+06	-56289.1	1105.82	-29739.1	0.000000	0.000000	6.178786	-0.062200	NaN	0.000000	0.001560	0.001602	28.0834	0.058635	0.001951	30.0594	58.0428	-161.777	-0.088788	0.177232	-0.996842	-0.998117	-0.062200	30.0594	-0.995290	-1.960457E+13	3.172704E-15	NaN
1186	1.000000	0.222530	7.37665e+06	-56289.1	1105.82	-29739.1	0.000000	0.000000	6.222809	-0.049523	NaN	0.000000	0.001593	0.001634	28.0841	0.101100	0.002043	49.4898	120.521	-164.394	-0.096308	0.221226	-0.952820	-0.954123	-0.049523	49.4898	-0.952069	-5.127800E+12	9.657789E-15	NaN
1186	1.000000	0.266568	7.37665e+06	-56289.1	1105.82	-29739.1	0.000000	0.000000	6.266849	-0.010930	NaN	0.000000	0.001619	0.001657	28.0842	0.054835	0.002119	25.8739	84.1815	-165.784	-0.060988	0.265257	-0.908781	-0.910092	-0.010930	25.8739	-0.908464	-1.322569E+12	8.264477E-15	NaN
1186	1.000000	0.310583	7.37665e+06	-56289.1	1105.82	-29739.1	0.000000	0.000000	6.310863	-0.037810	NaN	0.000000	0.001599	0.001572	28.0837	0.050894	0.002084	24.4273	147.496	-166.562	-0.026083	0.309247	-0.864766	-0.866102	-0.037810	24.4273	-0.863605	-3.272756E+11	1.155306E-13	NaN
1186	1.000000	0.354596	7.37665e+06	-56289.1	1105.82	-29739.1	0.000000	0.000000	6.354876	-0.037672	NaN	0.000000	0.001532	0.001564	28.083	0.056485	0.001994	28.3286	-102.057	-164.301	0.094459	0.353310	-0.820753	-0.822039	-0.037672	28.3286	-0.819756	-8.334932E+10	4.519741E-13	NaN
1186	1.000000	0.398605	7.37665e+06	-56289.1	1105.82	-29739.1	0.000000	0.000000	6.398883	-0.099726	NaN	0.000000	0.001526	0.001576	28.0831	0.056952	0.002032	28.0231	-179.842	-164.614	-0.034608	0.397364	-0.776744	-0.777986	-0.099726	28.0231	-0.774075	-1.998497E+10	4.990038E-12	NaN
1186	1.000000	0.442631	7.37665e+06	-56289.1	1105.82	-29739.1	0.000000	0.000000	6.442910	-0.060592	NaN	0.000000	0.001569	0.001620	28.0827	0.069329	0.001951	35.5344	-133.467	-164.927	-0.011883	0.441297	-0.732718	-0.734052	-0.060592	35.5344	-0.731439	-5.253155E+9	1.153439E-11	NaN
1186	1.000000	0.486663	7.37665e+06	-56289.1	1105.82	-29739.1	0.000000	0.000000	6.486941	-0.062988	NaN	0.000000	0.001608	0.001620	28.0841	0.076724	0.001817	42.216	-38.4012	-164.732	-0.074422	0.485338	-0.688687	-0.690012	-0.062988	42.216	-0.687567	-1.323342E+9	4.759749E-11	NaN
1186	1.000000	0.530665	7.37665e+06	-56289.1	1105.82	-29739.1	0.000000	0.000000	6.530948	0.025295	NaN	0.000000	0.001577	0.001581	28.0842	0.099156	0.001928	51.4217	-161.01	-161.708	0.050794	0.529392	-0.644684	-0.645957	0.025295	51.4217	-0.645053	-3.464199E+8	-7.301752E-11	NaN
1186	1.000000	0.574679	7.37665e+06	-56289.1	1105.82	-29739.1	0.000000	0.000000	6.574958	-0.066489	NaN	0.000000	0.001616	0.001626	28.0842	0.008997	0.001866	4.822286	-45.824	-162.976	-0.035426	0.573362	-0.600670	-0.601987	-0.066489	4.822286	-0.590329	-6.126436E+7	1.085282E-9	NaN
1186	1.000000	0.618692	7.37665e+06	-56289.1	1105.82	-29739.1	0.000000	0.000000	6.618970	-0.065863	NaN	0.000000	0.001611	0.001618	28.083	0.134423	0.002128	63.1797	119.827	-162.728	-0.107166	0.617367	-0.556658	-0.557983	-0.065863	63.1797	-0.555876	-2.047917E+7	3.216086E-9	NaN
1186	1.000000	0.662728	7.37665e+06	-56289.1	1105.82	-29739.1	0.000000	0.000000	6.663005	-0.118242	NaN	0.000000	0.001585	0.001607	28.083	0.111459	0.001860	59.922	-63.6416	-166.493	-0.041050	0.661392	-0.512621	-0.513957	-0.118242	59.922	-0.511141	-4.90124e+06	2.412500E-8	NaN
1186	1.000000	0.706740	7.37665e+06	-56289.1	1105.82	-29739.1	0.000000	0.000000	6.707019	-0.046677	NaN	0.000000	0.001599	0.001616	28.0827	0.018887	0.001899	9.947994	-150.644	-161.037	-0.060245	0.705439	-0.468609	-0.469910	-0.046677	9.947994	-0.465090	-1.11305e+06	4.193637E-8	NaN
1186	1.000000	0.750783	7.37665e+06	-56289.1	1105.82	-29739.1	0.000000	0.000000	6.751062	-0.049633	NaN	0.000000	0.001588	0.001627	28.0837	0.032860	0.001988	16.5303	-51.4838	-164.852	-0.111387	0.749475	-0.424566	-0.425874	-0.049633	16.5303	-0.422314	-277478	1.788716E-7	NaN
1186	1.000000	0.794763	7.37665e+06	-56289.1	1105.82	-29739.1	0.000000	0.000000	6.795040	-0.091361	NaN	0.000000	0.001521	0.001628	28.0841	0.045511	0.002065	22.0382	-26.914	-165.96	-0.077564	0.793456	-0.380586	-0.381893	-0.091361	22.0382	-0.377477	-63631	1.435792E-6	NaN
1186	1.000000	0.838767	7.37665e+06	-56289.1	1105.82	-29739.1	0.000000	0.000000	6.839047	-0.040467	NaN	0.000000	0.001472	0.001645	28.0842	0.070146	0.002050	34.2254	-142.842	-163.902	-0.014300	0.837506	-0.336582	-0.337843	-0.040467	34.2254	-0.335695	-15803.2	2.560707E-6	NaN
1186	1.000000	0.882795	7.37665e+06	-56289.1	1105.82	-29739.1	0.000000	0.000000	6.883073	-0.075690	NaN	0.000000	0.001559	0.001642	28.0828	0.046880	0.002124	22.0728	-114.905	-166.676	-0.130450	0.881515	-0.292554	-0.293834	-0.075690	22.0728	-0.289982	-3334.57	2.269862E-5	NaN
1186	1.000000	0.926867	7.37665e+06	-56289.1	1105.82	-29739.1	0.000000	0.000000	6.927148	-0.001592	NaN	0.000000	0.001606	0.001675	28.0829	0.084352	0.002074	40.6632	-28.0976	-167.654	0.060554	0.925510	-0.248482	-0.249840	-0.001592	40.6632	-0.248453	-778.082	2.046378E-6	NaN
1186	1.000000	0.970841	7.37665e+06	-56289.1	1105.82	-29739.1	0.000000	0.000000	6.971121	-0.036209	NaN	0.000000	0.001597	0.001669	28.083	0.012537	0.001873	6.694861	9.452588	-167.156	-0.051040	0.969527	-0.204508	-0.205822	-0.036209	6.694861	-0.200452	-134.006	0.000270	NaN
1186	1.000000	1.014880	7.37665e+06	-56289.1	1105.82	-29739.1	0.000000	0.000000	7.015157	-0.107853	NaN	0.000000	0.001626	0.001688	28.0841	0.057175	0.001952	29.2967	-137.796	-165.079	-0.148751	1.013575	-0.160470	-0.161775	-0.107853	29.2967	-0.157708	-24.9546	0.004322	NaN
1186	1.000000	1.058854	7.37665e+06	-56289.1	1105.82	-29739.1	0.000000	0.000000	7.059134	-0.031294	NaN	0.000000	0.001550	0.001656	28.0842	0.050615	0.002057	24.6082	78.8336	-163.503	-0.110564	1.057616	-0.116496	-0.117734	-0.031294	24.6082	-0.115542	-3.919776	0.007984	NaN
1186	1.000000	1.102892	7.37665e+06	-56289.1	1105.82	-29739.1	0.000000	0.000000	7.103168	-0.105204	NaN	0.000000	0.001645	0.001655	28.084	0.112013	0.001890	59.2677	-165.784	-165.546	-0.061937	1.101623	-0.072458	-0.073726	-0.105204	59.2677	-0.071127	-0.365553	0.287793	NaN
1186	1.000000	1.146918	7.37665e+06	-56289.1	1105.82	-29739.1	0.000000	0.000000	7.147196	-0.076421	NaN	0.000000	0.001623	0.001618	28.0839	0.137900	0.001975	69.8337	-2.369593	-166.233	-0.084869	1.145589	-0.028431	-0.029761	-0.076421	69.8337	-0.027610	-0.019789	3.861839	NaN
1186	2.000000	1.184555	7.37665e+06	-56289.1	1105.82	-29739.1	0.000000	0.000000	7.185237	9.734678	NaN	0.000000	0.001586	0.001618	28.083	11.6037	0.001698	6834.72	15.8286	-178.882	11.3535	1.184227	0.009206	0.008878	9.734678	6834.72	0.008138	0.007184	1355.02	73672.6
1186	2.000000	1.195453	7.37665e+06	-56289.1	1105.82	-29739.1	0.000000	0.000000	7.197023	31.316	NaN	0.000000	0.001629	0.001651	28.083	24.281	0.001738	13972	5.090218	-177.753	31.3108	1.195157	0.020104	0.019807	31.316	13972	0.018423	0.020125	1556.11	89984.4
1186	2.000000	1.206410	7.37665e+06	-56289.1	1105.82	-29739.1	0.000000	0.000000	7.209435	66.6895	NaN	0.000000	0.001591	0.001647	28.0829	35.0692	0.001758	19949.7	6.025130	178.643	66.6198	1.206115	0.031061	0.030766	66.6895	19949.7	0.028553	0.037799	1764.33	93750.1
1186	2.000000	1.217348	7.37665e+06	-56289.1	1105.82	-29739.1	0.000000	0.000000	7.222709	123.481	NaN	0.000000	0.001628	0.001697	28.0844	45.7448	0.001883	24297	3.346129	179.594	119.31	1.217085	0.041999	0.041736	123.481	24297	0.038187	0.059427	2077.86	91061.3
1186	2.000000	1.228406	7.37665e+06	-56289.1	1105.82	-29739.1	0.000000	0.000000	7.236759	196.205	NaN	0.000000	0.001627	0.001638	28.0841	55.0332	0.001752	31406.5	5.245646	175.592	196.904	1.228046	0.053056	0.052697	196.205	31406.5	0.048371	0.087444	2243.78	97034.8
1186	2.000000	1.239282	7.37665e+06	-56289.1	1105.82	-29739.1	0.000000	0.000000	7.250757	272.086	NaN	0.000000	0.001651	0.001701	28.0841	65.4835	0.001737	37688.7	1.164754	177.677	266.821	1.239012	0.063933	0.063662	272.086	37688.7	0.058518	0.120549	2257.06	99175
1186	2.000000	1.250477	7.37665e+06	-56289.1	1105.82	-29739.1	0.000000	0.000000	7.265674	362.542	NaN	0.000000	0.001603	0.001633	28.0828	77.705	0.001836	42322.2	4.800479	174.516	370.347	1.250139	0.075128	0.074789	362.542	42322.2	0.068703	0.158853	2282.25	97016.2
1186	2.000000	1.261285	7.37665e+06	-56289.1	1105.82	-29739.1	0.000000	0.000000	7.280869	469.214	NaN	0.000000	0.001600	0.001656	28.0829	86.4386	0.001857	46540.7	4.893574	173.473	466.281	1.260931	0.085935	0.085581	469.214	46540.7	0.078374	0.199810	2348.31	95125.7
1186	2.000000	1.272282	7.37665e+06	-56289.1	1105.82	-29739.1	0.000000	0.000000	7.295951	568.476	NaN	0.000000	0.001642	0.001644	28.0827	94.1436	0.001787	52693.2	4.174903	172.666	564.634	1.272127	0.096933	0.096778	568.476	52693.2	0.088842	0.249067	2282.42	96464.9
1186	2.000000	1.280684	7.37665e+06	-56289.1	1105.82	-29739.1	0.000000	0.000000	7.308685	673.776	NaN	0.000000	0.001617	0.001656	28.0843	102.576	0.001782	57572	3.367569	-6.729346	662.289	1.280346	0.105335	0.104996	673.776	57572	0.096557	0.288602	2334.62	97911.8