File: remote_trans/data/nanoindenter/0828-1/data/Data_2025-08-06,11h17m57s/2025-07-22_16-23-58_1_451.txt
2025-07-22, 16:23:58, 1
Index	Phase	Displacement	Time	Pos X	Pos Y	Pos Z	Rot A	Rot B	Piezo Z	Force A	Force B	Gripper	Voltage A	Voltage B	Temperature	Amplitude force	Amplitude pos	Stiffness	Phase shift	Phase excitation	Force A raw	Displacement raw	HMax	HMax raw	Real Force	Real Stiffness	Contact Depth	Area	Hardness	Reduced Mod.
[#]	[#]	[um]	[s]	[um]	[um]	[um]	[m°]	[m°]	[um]	[uN]	[uN]	[V]	[V]	[V]	[°C]	[uN]	[um]	[N/m]	[°]	[°]	[uN]	[um]	[um]	[um]	[uN]	[N/m]	[um]	[um^2]	[MPa]	[MPa]
451	1.000000	0.002355	7.36947e+06	-54539.1	1005.82	-29743.4	0.000000	0.000000	6.002755	-0.093452	NaN	0.000000	0.001614	0.001788	28.0803	0.019853	0.000889	22.3236	-26.1389	-170.543	-0.067726	0.001154	-1.119479	-1.120680	-0.093452	22.3236	-1.116339	-8.305192E+14	1.125226E-16	NaN
451	1.000000	0.044337	7.36947e+06	-54539.1	1005.82	-29743.4	0.000000	0.000000	6.044736	-0.124241	NaN	0.000000	0.001598	0.001787	28.0789	0.097789	0.002043	47.8604	-74.8201	13.1831	-0.062043	0.042934	-1.077496	-1.078900	-0.124241	47.8604	-1.075550	-2.353645E+14	5.278675E-16	NaN
451	1.000000	0.086343	7.36947e+06	-54539.1	1005.82	-29743.4	0.000000	0.000000	6.086744	-0.076269	NaN	0.000000	0.001599	0.001787	28.0788	0.073823	0.002069	35.6878	23.4838	-165.902	-0.085538	0.085085	-1.035491	-1.036749	-0.076269	35.6878	-1.033888	-6.482971E+13	1.176450E-15	NaN
451	1.000000	0.128381	7.36947e+06	-54539.1	1005.82	-29743.4	0.000000	0.000000	6.128782	-0.078563	NaN	0.000000	0.001599	0.001802	28.0788	0.051025	0.002011	25.3743	-168.492	14.1137	-0.026811	0.126982	-0.993453	-0.994852	-0.078563	25.3743	-0.991131	-1.723224E+13	4.559088E-15	NaN
451	1.000000	0.170387	7.36947e+06	-54539.1	1005.82	-29743.4	0.000000	0.000000	6.170789	-0.062276	NaN	0.000000	0.001606	0.001774	28.0786	0.053054	0.002016	26.3187	175.206	-167.525	-0.015340	0.169093	-0.951447	-0.952741	-0.062276	26.3187	-0.949672	-4.759952E+12	1.308326E-14	NaN
451	1.000000	0.212417	7.36947e+06	-54539.1	1005.82	-29743.4	0.000000	0.000000	6.212818	-0.079557	NaN	0.000000	0.001586	0.001790	28.0801	0.105207	0.002139	49.191	2.440343	15.6019	-0.131176	0.211093	-0.909417	-0.910741	-0.079557	49.191	-0.908204	-1.311895E+12	6.064283E-14	NaN
451	1.000000	0.254458	7.36947e+06	-54539.1	1005.82	-29743.4	0.000000	0.000000	6.254858	-0.093621	NaN	0.000000	0.001610	0.001718	28.0801	0.062283	0.002070	30.0946	64.9469	-164.406	-0.068072	0.253159	-0.867376	-0.868675	-0.093621	30.0946	-0.865043	-3.422724E+11	2.735265E-13	NaN
451	1.000000	0.296464	7.36947e+06	-54539.1	1005.82	-29743.4	0.000000	0.000000	6.296868	0.001477	NaN	0.000000	0.001600	0.001808	28.08	0.045310	0.002045	22.1556	89.6785	9.691626	-0.054652	0.295124	-0.825369	-0.826710	0.001477	22.1556	-0.825419	-9.947025E+10	-1.484650E-14	NaN
451	1.000000	0.338463	7.36947e+06	-54539.1	1005.82	-29743.4	0.000000	0.000000	6.338867	-0.000919	NaN	0.000000	0.001569	0.001791	28.0789	0.005674	0.002046	2.773304	104.011	-166.348	-0.013838	0.337155	-0.783371	-0.784679	-0.000919	2.773304	-0.783122	-2.652490E+10	3.464908E-14	NaN
451	1.000000	0.380471	7.36947e+06	-54539.1	1005.82	-29743.4	0.000000	0.000000	6.380873	-0.052695	NaN	0.000000	0.001543	0.001808	28.0788	0.071080	0.001856	38.2991	79.5198	14.5238	-0.077379	0.379133	-0.741363	-0.742701	-0.052695	38.2991	-0.740331	-6.943220E+9	7.589479E-12	NaN
451	1.000000	0.422532	7.36947e+06	-54539.1	1005.82	-29743.4	0.000000	0.000000	6.422935	-0.019340	NaN	0.000000	0.001564	0.001759	28.0787	0.059256	0.001993	29.7339	91.0035	-167.093	-0.008868	0.421198	-0.699302	-0.700636	-0.019340	29.7339	-0.698814	-1.885111E+9	1.025954E-11	NaN
451	1.000000	0.464522	7.36947e+06	-54539.1	1005.82	-29743.4	0.000000	0.000000	6.464925	-0.031116	NaN	0.000000	0.001534	0.001781	28.0802	0.053637	0.001915	28.0069	-105.309	13.702	-0.026157	0.463179	-0.657312	-0.658655	-0.031116	28.0069	-0.656478	-4.968497E+8	6.262754E-11	NaN
451	1.000000	0.506538	7.36947e+06	-54539.1	1005.82	-29743.4	0.000000	0.000000	6.506939	-0.080438	NaN	0.000000	0.001544	0.001762	28.08	0.091192	0.002000	45.5871	60.061	-167.835	0.008013	0.505247	-0.615296	-0.616587	-0.080438	45.5871	-0.613972	-1.296454E+8	6.204490E-10	NaN
451	1.000000	0.548533	7.36947e+06	-54539.1	1005.82	-29743.4	0.000000	0.000000	6.548935	-0.060114	NaN	0.000000	0.001568	0.001794	28.08	0.030580	0.002057	14.8676	94.4331	10.9613	-0.013656	0.547189	-0.573301	-0.574645	-0.060114	14.8676	-0.570268	-3.238461E+7	1.856254E-9	NaN
451	1.000000	0.590570	7.36947e+06	-54539.1	1005.82	-29743.4	0.000000	0.000000	6.590973	-0.018781	NaN	0.000000	0.001579	0.001777	28.079	0.057932	0.001912	30.2966	-131.304	-164.914	-0.037911	0.589262	-0.531264	-0.532572	-0.018781	30.2966	-0.530799	-9.19743e+06	2.042037E-9	NaN
451	1.000000	0.632585	7.36947e+06	-54539.1	1005.82	-29743.4	0.000000	0.000000	6.632986	-0.059381	NaN	0.000000	0.001558	0.001797	28.0789	0.052613	0.001965	26.7802	-78.0022	15.5962	-0.067948	0.631217	-0.489249	-0.490617	-0.059381	26.7802	-0.487586	-2.2996e+06	2.582233E-8	NaN
451	1.000000	0.674606	7.36947e+06	-54539.1	1005.82	-29743.4	0.000000	0.000000	6.675007	-0.078839	NaN	0.000000	0.001572	0.001782	28.0791	0.116141	0.002008	57.8277	172.351	-168.404	-0.068877	0.673298	-0.447228	-0.448536	-0.078839	57.8277	-0.446205	-603784	1.305747E-7	NaN
451	1.000000	0.716612	7.36947e+06	-54539.1	1005.82	-29743.4	0.000000	0.000000	6.717012	-0.083036	NaN	0.000000	0.001519	0.001786	28.0789	0.082252	0.001954	42.1033	81.4276	16.4079	-0.014788	0.715310	-0.405222	-0.406524	-0.083036	42.1033	-0.403743	-151127	5.494426E-7	NaN
451	1.000000	0.758657	7.36947e+06	-54539.1	1005.82	-29743.4	0.000000	0.000000	6.759062	0.014021	NaN	0.000000	0.001488	0.001818	28.0803	0.095628	0.001999	47.8445	-167.358	-164.501	-0.021032	0.757309	-0.363176	-0.364525	0.014021	47.8445	-0.363396	-39894	-3.514600E-7	NaN
451	1.000000	0.800646	7.36947e+06	-54539.1	1005.82	-29743.4	0.000000	0.000000	6.801045	-0.114172	NaN	0.000000	0.001500	0.001784	28.0801	0.031496	0.001950	16.1558	-130.741	12.2309	-0.052435	0.799286	-0.321188	-0.322548	-0.114172	16.1558	-0.315887	-8091.72	1.410977E-5	NaN
451	1.000000	0.842668	7.36947e+06	-54539.1	1005.82	-29743.4	0.000000	0.000000	6.843070	-0.044449	NaN	0.000000	0.001507	0.001860	28.0803	0.103611	0.002098	49.3828	142.007	-169.181	-0.081988	0.841334	-0.279166	-0.280499	-0.044449	49.3828	-0.278491	-2239.71	1.984586E-5	NaN
451	1.000000	0.884697	7.36947e+06	-54539.1	1005.82	-29743.4	0.000000	0.000000	6.885100	-0.035027	NaN	0.000000	0.001486	0.001753	28.0792	0.058826	0.002050	28.6977	76.3338	14.7264	-0.032218	0.883302	-0.237137	-0.238532	-0.035027	28.6977	-0.236221	-501.661	6.982287E-5	NaN
451	1.000000	0.926728	7.36947e+06	-54539.1	1005.82	-29743.4	0.000000	0.000000	6.927133	0.035093	NaN	0.000000	0.001512	0.001769	28.0789	0.129855	0.002074	62.6234	167.268	-166.456	0.018954	0.925373	-0.195106	-0.196461	0.035093	62.6234	-0.195526	-111.152	-0.000316	NaN
451	1.000000	0.968715	7.36947e+06	-54539.1	1005.82	-29743.4	0.000000	0.000000	6.969114	-0.104842	NaN	0.000000	0.001533	0.001789	28.0787	0.035825	0.002015	17.7773	-87.5916	13.8611	-0.022251	0.967420	-0.153119	-0.154414	-0.104842	17.7773	-0.148696	-17.1467	0.006114	NaN
451	1.000000	1.010726	7.36947e+06	-54539.1	1005.82	-29743.4	0.000000	0.000000	7.011128	-0.041379	NaN	0.000000	0.001529	0.001759	28.0802	0.036179	0.002039	17.7398	65.9579	-166.778	-0.043085	1.009388	-0.111108	-0.112446	-0.041379	17.7398	-0.109358	-2.912887	0.014206	NaN
451	1.000000	1.052743	7.36947e+06	-54539.1	1005.82	-29743.4	0.000000	0.000000	7.053146	-0.014187	NaN	0.000000	0.001610	0.001780	28.0802	0.117966	0.001904	61.9686	19.6672	12.1376	0.041747	1.051423	-0.069091	-0.070411	-0.014187	61.9686	-0.068919	-0.319033	0.044469	NaN
451	1.000000	1.094766	7.36947e+06	-54539.1	1005.82	-29743.4	0.000000	0.000000	7.095165	-0.140943	NaN	0.000000	0.001638	0.001771	28.0803	0.132704	0.002051	64.704	-105.413	-166.616	-0.089106	1.093463	-0.027067	-0.028370	-0.140943	64.704	-0.025434	-0.017317	8.138770	NaN
451	2.000000	1.132812	7.36947e+06	-54539.1	1005.82	-29743.4	0.000000	0.000000	7.133644	10.4013	NaN	0.000000	0.001552	0.001794	28.0792	10.2891	0.001615	6369.89	9.305040	3.243859	9.062862	1.132468	0.010978	0.010634	10.4013	6369.89	0.009754	0.008909	1167.51	61658.2
451	2.000000	1.143287	7.36947e+06	-54539.1	1005.82	-29743.4	0.000000	0.000000	7.144830	27.703	NaN	0.000000	0.001574	0.001787	28.0793	20.8843	0.001788	11681.4	5.859490	-178.287	28.3761	1.142976	0.021453	0.021142	27.703	11681.4	0.019674	0.022033	1257.34	71900.2
451	2.000000	1.153702	7.36947e+06	-54539.1	1005.82	-29743.4	0.000000	0.000000	7.156645	61.7166	NaN	0.000000	0.001563	0.001745	28.079	31.6261	0.001817	17407.3	5.131575	-0.462276	59.8094	1.153368	0.031868	0.031534	61.7166	17407.3	0.029209	0.039121	1577.58	80408
451	2.000000	1.164218	7.36947e+06	-54539.1	1005.82	-29743.4	0.000000	0.000000	7.168836	102.448	NaN	0.000000	0.001555	0.001752	28.079	40.8704	0.001743	23454.1	2.967258	178.331	101.336	1.163852	0.042384	0.042018	102.448	23454.1	0.039108	0.061743	1659.27	86238.3
451	2.000000	1.174666	7.36947e+06	-54539.1	1005.82	-29743.4	0.000000	0.000000	7.181187	148.712	NaN	0.000000	0.001546	0.001829	28.08	52.3563	0.001805	29010.2	5.889463	-6.253603	146.684	1.174309	0.052832	0.052475	148.712	29010.2	0.048987	0.089309	1665.13	88690.2
451	2.000000	1.185263	7.36948e+06	-54539.1	1005.82	-29743.4	0.000000	0.000000	7.193933	200.943	NaN	0.000000	0.001571	0.001789	28.08	62.6755	0.001878	33369.4	3.608188	174.961	199.951	1.184850	0.063429	0.063017	200.943	33369.4	0.058913	0.121939	1647.9	87307.4
451	2.000000	1.195668	7.36948e+06	-54539.1	1005.82	-29743.4	0.000000	0.000000	7.206919	263.704	NaN	0.000000	0.001592	0.001788	28.0798	72.9714	0.001844	39575.7	7.767537	-10.8945	260.133	1.195339	0.073834	0.073505	263.704	39575.7	0.068837	0.159388	1654.48	90567.9
451	2.000000	1.206068	7.36948e+06	-54539.1	1005.82	-29743.4	0.000000	0.000000	7.220429	339.288	NaN	0.000000	0.001575	0.001806	28.0787	80.4271	0.001876	42866.7	3.849997	173.872	333.957	1.205656	0.084234	0.083822	339.288	42866.7	0.078298	0.199472	1700.93	87690.5
451	2.000000	1.216581	7.36948e+06	-54539.1	1005.82	-29743.4	0.000000	0.000000	7.233653	405.19	NaN	0.000000	0.001490	0.001768	28.0793	89.1841	0.001767	50486	5.871525	-10.5533	399.809	1.216231	0.094747	0.094397	405.19	50486	0.088728	0.248507	1630.5	92528.3
451	2.000000	1.227157	7.36948e+06	-54539.1	1005.82	-29743.4	0.000000	0.000000	7.247668	488.805	NaN	0.000000	0.001505	0.001815	28.079	98.2163	0.001724	56955.1	2.450680	172.226	490.757	1.226911	0.105323	0.105077	488.805	56955.1	0.098886	0.301069	1623.56	94835.8
451	2.000000	1.230118	7.36948e+06	-54539.1	1005.82	-29743.4	0.000000	0.000000	7.251904	519.808	NaN	0.000000	0.001531	0.001726	28.0789	102.217	0.001720	59444.7	6.832922	167.623	516.445	1.229726	0.108284	0.107892	519.808	59444.7	0.101725	0.316602	1641.84	96522.7