File: remote_trans/data/nanoindenter/0828-1/data/Data_2025-08-06,11h17m57s/2025-07-22_16-23-58_1_729.txt
2025-07-22, 16:23:58, 1
Index	Phase	Displacement	Time	Pos X	Pos Y	Pos Z	Rot A	Rot B	Piezo Z	Force A	Force B	Gripper	Voltage A	Voltage B	Temperature	Amplitude force	Amplitude pos	Stiffness	Phase shift	Phase excitation	Force A raw	Displacement raw	HMax	HMax raw	Real Force	Real Stiffness	Contact Depth	Area	Hardness	Reduced Mod.
[#]	[#]	[um]	[s]	[um]	[um]	[um]	[m°]	[m°]	[um]	[uN]	[uN]	[V]	[V]	[V]	[°C]	[uN]	[um]	[N/m]	[°]	[°]	[uN]	[um]	[um]	[um]	[uN]	[N/m]	[um]	[um^2]	[MPa]	[MPa]
729	1.000000	0.002320	7.37219e+06	-40639.1	1005.82	-29789.2	0.000000	0.000000	6.002780	4.374691E-5	NaN	0.000000	0.001661	0.001725	28.0834	0.033475	0.000963	34.7773	144.837	-173.025	-0.025024	0.001112	-1.115614	-1.116822	4.374691E-5	34.7773	-1.115615	-8.121563E+14	-5.386514E-20	NaN
729	1.000000	0.044264	7.37219e+06	-40639.1	1005.82	-29789.2	0.000000	0.000000	6.044723	-0.005322	NaN	0.000000	0.001779	0.001715	28.0818	0.014495	0.001940	7.470323	52.4111	11.066	-0.052591	0.042961	-1.073670	-1.074973	-0.005322	7.470323	-1.073136	-2.184337E+14	2.436630E-17	NaN
729	1.000000	0.086289	7.37219e+06	-40639.1	1005.82	-29789.2	0.000000	0.000000	6.086749	0.000689	NaN	0.000000	0.001727	0.001763	28.082	0.017417	0.001922	9.064148	-50.1284	-162.279	0.053318	0.085009	-1.031645	-1.032926	0.000689	9.064148	-1.031702	-6.058608E+13	-1.137854E-17	NaN
729	1.000000	0.128313	7.37219e+06	-40639.1	1005.82	-29789.2	0.000000	0.000000	6.128772	-0.010763	NaN	0.000000	0.001681	0.001771	28.0821	0.075908	0.001979	38.3558	138.451	19.3947	-0.006465	0.126965	-0.989622	-0.990970	-0.010763	38.3558	-0.989411	-1.633734E+13	6.588113E-16	NaN
729	1.000000	0.170347	7.37219e+06	-40639.1	1005.82	-29789.2	0.000000	0.000000	6.170809	0.043301	NaN	0.000000	0.001705	0.001761	28.0835	0.053908	0.002026	26.6114	-143.861	-163.188	0.047056	0.169071	-0.947587	-0.948863	0.043301	26.6114	-0.948807	-4.633869E+12	-9.344547E-15	NaN
729	1.000000	0.212371	7.37219e+06	-40639.1	1005.82	-29789.2	0.000000	0.000000	6.212829	-0.034889	NaN	0.000000	0.001760	0.001794	28.0837	0.041742	0.002031	20.5564	-2.318484	15.1442	0.003997	0.211007	-0.905563	-0.906927	-0.034889	20.5564	-0.904290	-1.161537E+12	3.003717E-14	NaN
729	1.000000	0.254352	7.37219e+06	-40639.1	1005.82	-29789.2	0.000000	0.000000	6.254810	-0.051146	NaN	0.000000	0.001688	0.001765	28.0835	0.116718	0.002000	58.3513	-132.852	-159.808	0.003766	0.253080	-0.863582	-0.864855	-0.051146	58.3513	-0.862925	-3.204090E+11	1.596266E-13	NaN
729	1.000000	0.296376	7.37219e+06	-40639.1	1005.82	-29789.2	0.000000	0.000000	6.296834	-0.025613	NaN	0.000000	0.001658	0.001752	28.0824	0.026610	0.001882	14.1389	77.0775	12.4419	0.059649	0.294949	-0.821559	-0.822985	-0.025613	14.1389	-0.820200	-8.451298E+10	3.030636E-13	NaN
729	1.000000	0.338446	7.37219e+06	-40639.1	1005.82	-29789.2	0.000000	0.000000	6.338907	0.026220	NaN	0.000000	0.001649	0.001768	28.0823	0.036590	0.002025	18.0721	103.673	-164.157	0.008565	0.337128	-0.779488	-0.780806	0.026220	18.0721	-0.780576	-2.449380E+10	-1.070469E-12	NaN
729	1.000000	0.380417	7.37219e+06	-40639.1	1005.82	-29789.2	0.000000	0.000000	6.380874	-0.052770	NaN	0.000000	0.001688	0.001740	28.0825	0.036673	0.002007	18.2704	-33.2061	18.0547	-0.096700	0.379121	-0.737518	-0.738813	-0.052770	18.2704	-0.735351	-5.939237E+9	8.885040E-12	NaN
729	1.000000	0.422456	7.37219e+06	-40639.1	1005.82	-29789.2	0.000000	0.000000	6.422915	-0.014021	NaN	0.000000	0.001691	0.001774	28.0823	0.092839	0.001937	47.9401	-38.9363	-168.246	-0.014430	0.421127	-0.695478	-0.696807	-0.014021	47.9401	-0.695259	-1.685686E+9	8.317968E-12	NaN
729	1.000000	0.464448	7.37219e+06	-40639.1	1005.82	-29789.2	0.000000	0.000000	6.464908	-0.004495	NaN	0.000000	0.001685	0.001773	28.0834	0.062333	0.002088	29.8596	-120.523	14.5137	0.008397	0.463060	-0.653486	-0.654874	-0.004495	29.8596	-0.653373	-4.504741E+8	9.978016E-12	NaN
729	1.000000	0.506472	7.37219e+06	-40639.1	1005.82	-29789.2	0.000000	0.000000	6.506933	0.026570	NaN	0.000000	0.001688	0.001737	28.0836	0.056734	0.001995	28.4385	-150.735	-165.438	-0.018504	0.505205	-0.611462	-0.612729	0.026570	28.4385	-0.612162	-1.224232E+8	-2.170347E-10	NaN
729	1.000000	0.548469	7.37219e+06	-40639.1	1005.82	-29789.2	0.000000	0.000000	6.548929	-0.001438	NaN	0.000000	0.001655	0.001684	28.0835	0.032651	0.002011	16.2332	95.4341	14.3048	-0.019178	0.547158	-0.569465	-0.570777	-0.001438	16.2332	-0.569398	-3.150062E+7	4.564193E-11	NaN
729	1.000000	0.590489	7.37219e+06	-40639.1	1005.82	-29789.2	0.000000	0.000000	6.590949	0.019684	NaN	0.000000	0.001651	0.001692	28.0826	0.046592	0.001925	24.2084	11.344	-166.272	0.017647	0.589212	-0.527446	-0.528722	0.019684	24.2084	-0.528055	-8.42492e+06	-2.336380E-9	NaN
729	1.000000	0.632533	7.37219e+06	-40639.1	1005.82	-29789.2	0.000000	0.000000	6.632993	-0.002543	NaN	0.000000	0.001677	0.001696	28.0826	0.063959	0.002109	30.3264	-91.4907	17.2894	0.007211	0.631167	-0.485401	-0.486767	-0.002543	30.3264	-0.485338	-2.13905e+06	1.188886E-9	NaN
729	1.000000	0.674566	7.37219e+06	-40639.1	1005.82	-29789.2	0.000000	0.000000	6.675027	0.036464	NaN	0.000000	0.001678	0.001715	28.0829	0.128214	0.002043	62.7587	-64.6328	-163.379	0.026457	0.673224	-0.443368	-0.444710	0.036464	62.7587	-0.443804	-558508	-6.528881E-8	NaN
729	1.000000	0.716578	7.37219e+06	-40639.1	1005.82	-29789.2	0.000000	0.000000	6.717039	0.011114	NaN	0.000000	0.001647	0.001690	28.0838	0.044271	0.002071	21.379	-127.239	16.0666	0.003265	0.715175	-0.401356	-0.402759	0.011114	21.379	-0.401746	-141541	-7.851912E-8	NaN
729	1.000000	0.758559	7.37219e+06	-40639.1	1005.82	-29789.2	0.000000	0.000000	6.759021	0.047008	NaN	0.000000	0.001669	0.001695	28.0836	0.066591	0.002031	32.7807	57.5277	-161.631	0.011488	0.757319	-0.359375	-0.360615	0.047008	32.7807	-0.360451	-36170.9	-1.299601E-6	NaN
729	1.000000	0.800587	7.37219e+06	-40639.1	1005.82	-29789.2	0.000000	0.000000	6.801046	-0.011032	NaN	0.000000	0.001641	0.001687	28.0833	0.028127	0.001954	14.3943	-84.4402	15.5686	-0.019148	0.799251	-0.317347	-0.318683	-0.011032	14.3943	-0.316773	-8338.62	1.323036E-6	NaN
729	1.000000	0.842625	7.37219e+06	-40639.1	1005.82	-29789.2	0.000000	0.000000	6.843084	-0.016337	NaN	0.000000	0.001667	0.001671	28.0821	0.039990	0.001988	20.1197	-171.701	-169.935	0.029602	0.841309	-0.275309	-0.276625	-0.016337	20.1197	-0.274700	-1962.7	8.323535E-6	NaN
729	1.000000	0.884627	7.37219e+06	-40639.1	1005.82	-29789.2	0.000000	0.000000	6.885089	0.061424	NaN	0.000000	0.001686	0.001693	28.0821	0.057655	0.002051	28.1133	-171.172	13.6983	0.032787	0.883269	-0.233307	-0.234666	0.061424	28.1133	-0.234946	-479.066	-0.000128	NaN
729	1.000000	0.926635	7.37219e+06	-40639.1	1005.82	-29789.2	0.000000	0.000000	6.927097	0.038257	NaN	0.000000	0.001684	0.001680	28.0825	0.085196	0.001998	42.6354	-151.032	-164.64	-0.057337	0.925379	-0.191299	-0.192555	0.038257	42.6354	-0.191972	-97.0314	-0.000394	NaN
729	1.000000	0.968698	7.37219e+06	-40639.1	1005.82	-29789.2	0.000000	0.000000	6.969156	-0.023956	NaN	0.000000	0.001705	0.001655	28.0822	0.076139	0.001977	38.5135	157.787	14.7391	-0.017801	0.967328	-0.149237	-0.150606	-0.023956	38.5135	-0.148770	-17.2003	0.001393	NaN
729	1.000000	1.010711	7.37219e+06	-40639.1	1005.82	-29789.2	0.000000	0.000000	7.011171	0.005996	NaN	0.000000	0.001613	0.001707	28.0833	0.031919	0.001960	16.289	30.8244	-165.091	0.101469	1.009352	-0.107223	-0.108582	0.005996	16.289	-0.107499	-2.659694	-0.002254	NaN
729	1.000000	1.052703	7.37219e+06	-40639.1	1005.82	-29789.2	0.000000	0.000000	7.053163	0.006628	NaN	0.000000	0.001618	0.001700	28.0834	0.036217	0.002047	17.6965	151.998	17.276	0.061778	1.051359	-0.065231	-0.066576	0.006628	17.6965	-0.065512	-0.257486	-0.025742	NaN
729	1.000000	1.094725	7.37219e+06	-40639.1	1005.82	-29789.2	0.000000	0.000000	7.095185	0.018105	NaN	0.000000	0.001598	0.001706	28.0832	0.036798	0.002049	17.9588	119.2	-164.709	0.035373	1.093407	-0.023210	-0.024527	0.018105	17.9588	-0.023966	-0.015858	-1.141668	NaN
729	2.000000	1.129780	7.37219e+06	-40639.1	1005.82	-29789.2	0.000000	0.000000	7.130732	11.9926	NaN	0.000000	0.001540	0.001732	28.0825	12.2834	0.001858	6611.98	10.4098	3.945669	12.1811	1.129418	0.011846	0.011484	11.9926	6611.98	0.010485	0.009726	1233.09	61255.5
729	2.000000	1.140171	7.37219e+06	-40639.1	1005.82	-29789.2	0.000000	0.000000	7.142051	34.5736	NaN	0.000000	0.001592	0.001673	28.082	23.0347	0.001785	12902.2	7.511075	-179.32	32.8835	1.139857	0.022237	0.021923	34.5736	12902.2	0.020227	0.022900	1509.76	77896.6
729	2.000000	1.150653	7.37219e+06	-40639.1	1005.82	-29789.2	0.000000	0.000000	7.153944	68.8998	NaN	0.000000	0.001571	0.001669	28.0823	33.6868	0.001607	20966.4	2.558638	1.100837	66.5338	1.150312	0.032719	0.032378	68.8998	20966.4	0.030254	0.041272	1669.42	94291.3
729	2.000000	1.161150	7.37219e+06	-40639.1	1005.82	-29789.2	0.000000	0.000000	7.166079	108.749	NaN	0.000000	0.001604	0.001653	28.0832	44.5462	0.001792	24864.3	5.685441	177.613	107.778	1.160817	0.043216	0.042883	108.749	24864.3	0.039936	0.063863	1702.86	89893.3
729	2.000000	1.171638	7.37219e+06	-40639.1	1005.82	-29789.2	0.000000	0.000000	7.178708	160.859	NaN	0.000000	0.001580	0.001692	28.0834	54.2205	0.001818	29829.8	3.597831	-2.551468	158.324	1.171305	0.053703	0.053370	160.859	29829.8	0.049659	0.091362	1760.67	90165.4
729	2.000000	1.182125	7.37219e+06	-40639.1	1005.82	-29789.2	0.000000	0.000000	7.191575	218.763	NaN	0.000000	0.001618	0.001712	28.0836	63.8137	0.001836	34758	3.407998	176.898	215.597	1.181869	0.064191	0.063935	218.763	34758	0.059471	0.123918	1765.38	90211.3
729	2.000000	1.192591	7.37219e+06	-40639.1	1005.82	-29789.2	0.000000	0.000000	7.204820	286.393	NaN	0.000000	0.001573	0.001695	28.0823	74.467	0.001698	43856.5	3.150501	-5.117793	284.494	1.192279	0.074657	0.074345	286.393	43856.5	0.069759	0.163110	1755.82	99212.6
729	2.000000	1.203161	7.37219e+06	-40639.1	1005.82	-29789.2	0.000000	0.000000	7.218315	357.565	NaN	0.000000	0.001609	0.001667	28.0826	82.906	0.001726	48038.3	2.749044	174.988	359.779	1.202776	0.085227	0.084842	357.565	48038.3	0.079645	0.205518	1739.82	96813.3
729	2.000000	1.213485	7.37219e+06	-40639.1	1005.82	-29789.2	0.000000	0.000000	7.231841	435.467	NaN	0.000000	0.001588	0.001703	28.0825	90.4953	0.001665	54361.1	2.569467	-6.084308	427.572	1.213217	0.095551	0.095283	435.467	54361.1	0.089543	0.252548	1724.29	98830.1
729	2.000000	1.223995	7.37219e+06	-40639.1	1005.82	-29789.2	0.000000	0.000000	7.245745	518.053	NaN	0.000000	0.001567	0.001706	28.0828	100.314	0.001695	59175.9	3.722373	172.307	513.143	1.223668	0.106061	0.105734	518.053	59175.9	0.099495	0.304370	1702.05	97998.1
729	2.000000	1.226018	7.37219e+06	-40639.1	1005.82	-29789.2	0.000000	0.000000	7.248643	539.364	NaN	0.000000	0.001588	0.001709	28.0837	104.15	0.001780	58513	4.107582	172.372	535.801	1.225729	0.108084	0.107795	539.364	58513	0.101171	0.313538	1720.25	95472.9