File: remote_trans/data/nanoindenter/0828-1/data/Data_2025-08-06,11h17m57s/2025-07-22_16-23-58_1_263.txt
2025-07-22, 16:23:58, 1
Index	Phase	Displacement	Time	Pos X	Pos Y	Pos Z	Rot A	Rot B	Piezo Z	Force A	Force B	Gripper	Voltage A	Voltage B	Temperature	Amplitude force	Amplitude pos	Stiffness	Phase shift	Phase excitation	Force A raw	Displacement raw	HMax	HMax raw	Real Force	Real Stiffness	Contact Depth	Area	Hardness	Reduced Mod.
[#]	[#]	[um]	[s]	[um]	[um]	[um]	[m°]	[m°]	[um]	[uN]	[uN]	[V]	[V]	[V]	[°C]	[uN]	[um]	[N/m]	[°]	[°]	[uN]	[um]	[um]	[um]	[uN]	[N/m]	[um]	[um^2]	[MPa]	[MPa]
263	1.000000	0.003034	7.36762e+06	-51789.1	955.817	-29751.4	0.000000	0.000000	6.002804	0.037278	NaN	0.000000	0.001547	0.001643	28.078	0.069171	0.001058	65.4001	-135.71	-165.431	-0.080736	0.001756	-1.125765	-1.127043	0.037278	65.4001	-1.126193	-1.126043E+15	-3.310541E-17	NaN
263	1.000000	0.044970	7.36762e+06	-51789.1	955.818	-29751.4	0.000000	0.000000	6.044738	-0.002248	NaN	0.000000	0.001611	0.001632	28.0793	0.040901	0.001997	20.4783	91.9902	16.3973	0.075160	0.043630	-1.083830	-1.085169	-0.002248	20.4783	-1.083747	-3.032824E+14	7.412973E-18	NaN
263	1.000000	0.087009	7.36763e+06	-51789.1	955.818	-29751.4	0.000000	0.000000	6.086775	-0.040415	NaN	0.000000	0.001569	0.001636	28.0794	0.131102	0.001941	67.5561	-175.698	-162.414	-0.022450	0.085636	-1.041791	-1.043163	-0.040415	67.5561	-1.041342	-8.166096E+13	4.949084E-16	NaN
263	1.000000	0.129003	7.36763e+06	-51789.1	955.818	-29751.4	0.000000	0.000000	6.128770	-0.028027	NaN	0.000000	0.001546	0.001613	28.0797	0.036641	0.001975	18.5557	30.6501	15.1032	-0.033387	0.127658	-0.999797	-1.001142	-0.028027	18.5557	-0.998664	-2.176611E+13	1.287658E-15	NaN
263	1.000000	0.171022	7.36763e+06	-51789.1	955.818	-29751.4	0.000000	0.000000	6.170787	-0.080799	NaN	0.000000	0.001566	0.001637	28.0783	0.035719	0.002086	17.124	-8.604320	-164.434	-0.092079	0.169695	-0.957777	-0.959105	-0.080799	17.124	-0.954238	-5.485107E+12	1.473059E-14	NaN
263	1.000000	0.213062	7.36763e+06	-51789.1	955.818	-29751.4	0.000000	0.000000	6.212829	-0.024973	NaN	0.000000	0.001568	0.001639	28.0782	0.040807	0.002044	19.9684	-6.612844	14.2006	-0.037011	0.211686	-0.915737	-0.917113	-0.024973	19.9684	-0.914799	-1.610563E+12	1.550564E-14	NaN
263	1.000000	0.255066	7.36763e+06	-51789.1	955.817	-29751.4	0.000000	0.000000	6.254833	-0.022819	NaN	0.000000	0.001647	0.001657	28.0786	0.037307	0.001756	21.2487	-35.6735	-163.854	0.008009	0.253758	-0.873733	-0.875042	-0.022819	21.2487	-0.872928	-4.375751E+11	5.214846E-14	NaN
263	1.000000	0.297058	7.36763e+06	-51789.1	955.818	-29751.4	0.000000	0.000000	6.296825	-0.035900	NaN	0.000000	0.001611	0.001642	28.0797	0.046322	0.002001	23.1463	-14.6769	18.5755	-0.121368	0.295770	-0.831741	-0.833029	-0.035900	23.1463	-0.830578	-1.168459E+11	3.072465E-13	NaN
263	1.000000	0.339104	7.36763e+06	-51789.1	955.819	-29751.4	0.000000	0.000000	6.338868	-0.102524	NaN	0.000000	0.001589	0.001634	28.0796	0.062362	0.002098	29.7269	112.743	-163.346	-0.052200	0.337786	-0.789695	-0.791013	-0.102524	29.7269	-0.787109	-3.004773E+10	3.412052E-12	NaN
263	1.000000	0.381119	7.36763e+06	-51789.1	955.817	-29751.4	0.000000	0.000000	6.380885	-0.068000	NaN	0.000000	0.001597	0.001663	28.0794	0.078012	0.002078	37.5442	-166.206	17.3169	-0.093576	0.379720	-0.747680	-0.749079	-0.068000	37.5442	-0.746322	-8.378073E+9	8.116441E-12	NaN
263	1.000000	0.423160	7.36763e+06	-51789.1	955.818	-29751.4	0.000000	0.000000	6.422928	-0.025874	NaN	0.000000	0.001579	0.001642	28.0781	0.067188	0.001955	34.3591	31.6512	-167.212	0.018799	0.421770	-0.705639	-0.707029	-0.025874	34.3591	-0.705074	-2.295166E+9	1.127314E-11	NaN
263	1.000000	0.465156	7.36763e+06	-51789.1	955.819	-29751.4	0.000000	0.000000	6.464920	-0.085598	NaN	0.000000	0.001564	0.001660	28.0783	0.032799	0.001981	16.554	-41.6537	14.4699	-0.065787	0.463810	-0.663644	-0.664989	-0.085598	16.554	-0.659765	-5.511318E+8	1.553128E-10	NaN
263	1.000000	0.507175	7.36763e+06	-51789.1	955.819	-29751.4	0.000000	0.000000	6.506942	-0.037664	NaN	0.000000	0.001595	0.001645	28.0785	0.059823	0.002001	29.8975	-72.627	-165.855	-0.062246	0.505864	-0.621624	-0.622936	-0.037664	29.8975	-0.620679	-1.603131E+8	2.349427E-10	NaN
263	1.000000	0.549175	7.36763e+06	-51789.1	955.819	-29751.4	0.000000	0.000000	6.548945	0.036784	NaN	0.000000	0.001656	0.001702	28.0783	0.094841	0.002056	46.1369	87.6243	16.6067	-0.041046	0.547836	-0.579624	-0.580963	0.036784	46.1369	-0.580222	-4.444190E+7	-8.276924E-10	NaN
263	1.000000	0.591232	7.36763e+06	-51789.1	955.818	-29751.4	0.000000	0.000000	6.591000	-0.009840	NaN	0.000000	0.001635	0.001653	28.0795	0.062382	0.001931	32.2987	-8.648079	-164.23	-0.089022	0.589888	-0.537568	-0.538912	-0.009840	32.2987	-0.537339	-1.133567E+7	8.680920E-10	NaN
263	1.000000	0.633245	7.36763e+06	-51789.1	955.819	-29751.4	0.000000	0.000000	6.633011	-0.044367	NaN	0.000000	0.001555	0.001695	28.0796	0.087823	0.002167	40.5283	-141.195	16.6094	-0.040770	0.631873	-0.495555	-0.496926	-0.044367	40.5283	-0.494734	-2.8941e+06	1.533016E-8	NaN
263	1.000000	0.675252	7.36763e+06	-51789.1	955.819	-29751.4	0.000000	0.000000	6.675018	-0.031468	NaN	0.000000	0.001555	0.001676	28.0796	0.144744	0.002065	70.0948	-143.436	-162.745	0.010575	0.673917	-0.453548	-0.454883	-0.031468	70.0948	-0.453211	-757787	4.152590E-8	NaN
263	1.000000	0.717288	7.36763e+06	-51789.1	955.818	-29751.4	0.000000	0.000000	6.717053	-0.078509	NaN	0.000000	0.001550	0.001657	28.0782	0.077026	0.002002	38.4738	-92.7929	15.0705	-0.121669	0.715911	-0.411511	-0.412888	-0.078509	38.4738	-0.409981	-185406	4.234445E-7	NaN
263	1.000000	0.759292	7.36763e+06	-51789.1	955.819	-29751.4	0.000000	0.000000	6.759058	-0.063180	NaN	0.000000	0.001533	0.001699	28.0777	0.051433	0.001911	26.9103	-105.256	-168.387	-0.036305	0.757923	-0.369507	-0.370876	-0.063180	26.9103	-0.367746	-46095.3	1.370641E-6	NaN
263	1.000000	0.801279	7.36763e+06	-51789.1	955.819	-29751.4	0.000000	0.000000	6.801048	0.020336	NaN	0.000000	0.001539	0.001660	28.0783	0.112239	0.002018	55.6086	-95.476	15.0985	0.020029	0.799952	-0.327520	-0.328847	0.020336	55.6086	-0.327794	-12109.7	-1.679326E-6	NaN
263	1.000000	0.843320	7.36763e+06	-51789.1	955.818	-29751.4	0.000000	0.000000	6.843087	-0.021443	NaN	0.000000	0.001542	0.001683	28.0794	0.112297	0.001973	56.9135	72.4986	-161.505	-0.052632	0.842027	-0.285480	-0.286773	-0.021443	56.9135	-0.285197	-2826.38	7.586746E-6	NaN
263	1.000000	0.885332	7.36763e+06	-51789.1	955.819	-29751.4	0.000000	0.000000	6.885099	-0.029079	NaN	0.000000	0.001578	0.001722	28.0796	0.071337	0.002024	35.2476	37.9416	15.9564	-0.050547	0.884003	-0.243468	-0.244796	-0.029079	35.2476	-0.242849	-636.78	4.566583E-5	NaN
263	1.000000	0.927364	7.36763e+06	-51789.1	955.818	-29751.4	0.000000	0.000000	6.927130	-0.058912	NaN	0.000000	0.001590	0.001687	28.0794	0.052931	0.001981	26.7201	-140.949	-165.01	-0.063253	0.926063	-0.201436	-0.202736	-0.058912	26.7201	-0.199782	-130.652	0.000451	NaN
263	1.000000	0.969360	7.36763e+06	-51789.1	955.818	-29751.4	0.000000	0.000000	6.969127	-0.041743	NaN	0.000000	0.001570	0.001612	28.078	0.018572	0.001711	10.8561	48.1313	15.5309	-0.034900	0.968002	-0.159439	-0.160797	-0.041743	10.8561	-0.156555	-23.7964	0.001754	NaN
263	1.000000	1.011403	7.36763e+06	-51789.1	955.82	-29751.4	0.000000	0.000000	7.011171	-0.010094	NaN	0.000000	0.001542	0.001722	28.0779	0.105967	0.001900	55.7687	129.05	-165.266	-0.000344	1.010094	-0.117396	-0.118706	-0.010094	55.7687	-0.117261	-4.250888	0.002375	NaN
263	1.000000	1.053369	7.36763e+06	-51789.1	955.818	-29751.4	0.000000	0.000000	7.053132	-0.124342	NaN	0.000000	0.001676	0.001670	28.0781	0.028770	0.002002	14.369	43.1691	12.9815	-0.071423	1.052037	-0.075430	-0.076762	-0.124342	14.369	-0.068940	-0.319440	0.389250	NaN
263	1.000000	1.095410	7.36763e+06	-51789.1	955.821	-29751.4	0.000000	0.000000	7.095177	-0.028652	NaN	0.000000	0.001675	0.001645	28.0782	0.088357	0.002044	43.2256	-99.5921	-164.131	-0.020531	1.094068	-0.033389	-0.034732	-0.028652	43.2256	-0.032892	-0.027799	1.030707	NaN
263	1.000000	1.137407	7.36763e+06	-51789.1	955.819	-29751.4	0.000000	0.000000	7.137384	5.089182	NaN	0.000000	0.001586	0.001684	28.0795	6.250082	0.001804	3463.85	17.997	7.673741	4.141403	1.136071	0.008607	0.007271	5.089182	3463.85	0.007505	0.006539	778.325	39137.2
263	2.000000	1.149934	7.36763e+06	-51789.1	955.821	-29751.4	0.000000	0.000000	7.150555	20.7256	NaN	0.000000	0.001618	0.001672	28.0797	19.635	0.001747	11236.5	4.851528	-176.389	20.335	1.149661	0.021135	0.020861	20.7256	11236.5	0.019752	0.022153	935.552	68973.7
263	2.000000	1.160420	7.36763e+06	-51789.1	955.82	-29751.4	0.000000	0.000000	7.161932	42.4124	NaN	0.000000	0.001681	0.001646	28.0796	29.4317	0.001825	16123.9	8.371163	-1.661609	40.7866	1.160059	0.031621	0.031260	42.4124	16123.9	0.029648	0.040017	1059.86	73641
263	2.000000	1.170889	7.36763e+06	-51789.1	955.82	-29751.4	0.000000	0.000000	7.173537	70.0275	NaN	0.000000	0.001642	0.001675	28.0784	37.0028	0.001760	21021.8	2.468052	-177.785	69.2236	1.170584	0.042089	0.041785	70.0275	21021.8	0.039591	0.062976	1111.98	76534.6
263	2.000000	1.181325	7.36763e+06	-51789.1	955.821	-29751.4	0.000000	0.000000	7.185476	106.567	NaN	0.000000	0.001615	0.001611	28.0785	48.6417	0.001673	29073.1	3.842779	-2.678861	102.159	1.181049	0.052526	0.052250	106.567	29073.1	0.049777	0.091724	1161.82	87704.8
263	2.000000	1.191865	7.36763e+06	-51789.1	955.821	-29751.4	0.000000	0.000000	7.197954	153.686	NaN	0.000000	0.001603	0.001645	28.0783	58.1194	0.001779	32670.5	1.775713	178.908	150.854	1.191567	0.063066	0.062768	153.686	32670.5	0.059538	0.124156	1237.85	84712.1
263	2.000000	1.202410	7.36763e+06	-51789.1	955.82	-29751.4	0.000000	0.000000	7.209994	190.039	NaN	0.000000	0.001559	0.001637	28.0798	69.4315	0.001827	38005.6	2.315266	-2.966172	191.358	1.202203	0.073611	0.073404	190.039	38005.6	0.069861	0.163522	1162.16	85868.3
263	2.000000	1.212789	7.36763e+06	-51789.1	955.819	-29751.4	0.000000	0.000000	7.222687	246.296	NaN	0.000000	0.001557	0.001693	28.0793	78.1272	0.001852	42174	2.749405	175.394	242.482	1.212609	0.083990	0.083810	246.296	42174	0.079610	0.205363	1199.32	85027
263	2.000000	1.223332	7.36763e+06	-51789.1	955.818	-29751.4	0.000000	0.000000	7.236084	315.725	NaN	0.000000	0.001546	0.001653	28.0792	87.475	0.001769	49456.6	4.384609	-6.557895	311.265	1.222902	0.094532	0.094103	315.725	49456.6	0.089744	0.253552	1245.21	89735.4
263	2.000000	1.233833	7.36763e+06	-51789.1	955.819	-29751.4	0.000000	0.000000	7.248408	360.029	NaN	0.000000	0.001580	0.001682	28.0781	97.3376	0.001737	56045.8	4.847553	171.687	360.923	1.233670	0.105034	0.104870	360.029	56045.8	0.100216	0.308300	1167.79	92221
263	2.000000	1.238838	7.36763e+06	-51789.1	955.819	-29751.4	0.000000	0.000000	7.255350	407.129	NaN	0.000000	0.001557	0.001645	28.0784	102.991	0.001832	56227.6	4.200325	172.47	406.858	1.238509	0.110039	0.109710	407.129	56227.6	0.104609	0.332749	1223.53	89056.1