File: remote_trans/data/nanoindenter/0828-1/data/Data_2025-08-06,11h17m57s/2025-07-22_16-23-58_1_348.txt
2025-07-22, 16:23:58, 1
Index	Phase	Displacement	Time	Pos X	Pos Y	Pos Z	Rot A	Rot B	Piezo Z	Force A	Force B	Gripper	Voltage A	Voltage B	Temperature	Amplitude force	Amplitude pos	Stiffness	Phase shift	Phase excitation	Force A raw	Displacement raw	HMax	HMax raw	Real Force	Real Stiffness	Contact Depth	Area	Hardness	Reduced Mod.
[#]	[#]	[um]	[s]	[um]	[um]	[um]	[m°]	[m°]	[um]	[uN]	[uN]	[V]	[V]	[V]	[°C]	[uN]	[um]	[N/m]	[°]	[°]	[uN]	[um]	[um]	[um]	[uN]	[N/m]	[um]	[um^2]	[MPa]	[MPa]
348	1.000000	0.002302	7.36846e+06	-56039.1	955.819	-29740.3	0.000000	0.000000	6.002794	-0.037519	NaN	0.000000	0.001557	0.001647	28.0815	0.086676	0.001004	86.3252	-6.504447	-163.63	-0.029067	0.001093	-1.111464	-1.112673	-0.037519	86.3252	-1.111138	-7.072277E+14	5.305032E-17	NaN
348	1.000000	0.044286	7.36846e+06	-56039.1	955.818	-29740.3	0.000000	0.000000	6.044778	-0.026691	NaN	0.000000	0.001550	0.001651	28.0803	0.046494	0.002043	22.7553	-17.6938	14.4854	0.035903	0.042929	-1.069480	-1.070837	-0.026691	22.7553	-1.068600	-1.898381E+14	1.405987E-16	NaN
348	1.000000	0.086245	7.36846e+06	-56039.1	955.819	-29740.3	0.000000	0.000000	6.086736	-0.042546	NaN	0.000000	0.001502	0.001660	28.0801	0.080123	0.001910	41.9593	-155.169	-166.298	-0.082458	0.084989	-1.027521	-1.028777	-0.042546	41.9593	-1.026761	-5.198851E+13	8.183651E-16	NaN
348	1.000000	0.128272	7.36846e+06	-56039.1	955.818	-29740.3	0.000000	0.000000	6.128767	0.050918	NaN	0.000000	0.001534	0.001647	28.0799	0.070581	0.001995	35.3747	145.899	16.154	0.012878	0.126920	-0.985494	-0.986846	0.050918	35.3747	-0.986574	-1.496112E+13	-3.403362E-15	NaN
348	1.000000	0.170276	7.36846e+06	-56039.1	955.818	-29740.3	0.000000	0.000000	6.170767	-0.044874	NaN	0.000000	0.001510	0.001685	28.0813	0.034193	0.002007	17.0408	140.956	-164.086	-0.071921	0.169037	-0.943490	-0.944729	-0.044874	17.0408	-0.941515	-3.694696E+12	1.214560E-14	NaN
348	1.000000	0.212338	7.36846e+06	-56039.1	955.818	-29740.3	0.000000	0.000000	6.212826	-0.128781	NaN	0.000000	0.001514	0.001698	28.0814	0.138289	0.002157	64.104	-62.7062	14.0724	-0.069083	0.211004	-0.901428	-0.902762	-0.128781	64.104	-0.899922	-1.013929E+12	1.270116E-13	NaN
348	1.000000	0.254330	7.36846e+06	-56039.1	955.818	-29740.3	0.000000	0.000000	6.254821	-0.058400	NaN	0.000000	0.001553	0.001690	28.0813	0.201251	0.001909	105.405	63.1287	-163.567	0.029963	0.253017	-0.859436	-0.860749	-0.058400	105.405	-0.859020	-2.836987E+11	2.058533E-13	NaN
348	1.000000	0.296353	7.36847e+06	-56039.1	955.819	-29740.3	0.000000	0.000000	6.296846	-0.005866	NaN	0.000000	0.001520	0.001692	28.08	0.076893	0.001985	38.736	-50.4002	13.7469	0.033656	0.294940	-0.817413	-0.818826	-0.005866	38.736	-0.817299	-7.719448E+10	7.598954E-14	NaN
348	1.000000	0.338384	7.36847e+06	-56039.1	955.819	-29740.3	0.000000	0.000000	6.338874	-0.080872	NaN	0.000000	0.001578	0.001663	28.0803	0.056692	0.002078	27.2832	67.2542	-166.199	-0.015759	0.337072	-0.775382	-0.776694	-0.080872	27.2832	-0.773159	-1.941993E+10	4.164394E-12	NaN
348	1.000000	0.380404	7.36847e+06	-56039.1	955.818	-29740.3	0.000000	0.000000	6.380896	-0.043507	NaN	0.000000	0.001528	0.001712	28.0801	0.065981	0.001969	33.503	-63.9508	14.4606	-0.065180	0.379007	-0.733362	-0.734759	-0.043507	33.503	-0.732388	-5.411917E+9	8.039080E-12	NaN
348	1.000000	0.422407	7.36847e+06	-56039.1	955.818	-29740.3	0.000000	0.000000	6.422902	0.049695	NaN	0.000000	0.001563	0.001679	28.0815	0.021060	0.002004	10.5089	70.182	-167.729	-0.019484	0.421114	-0.691359	-0.692652	0.049695	10.5089	-0.694906	-1.667043E+9	-2.981027E-11	NaN
348	1.000000	0.464428	7.36847e+06	-56039.1	955.818	-29740.3	0.000000	0.000000	6.464919	-0.040527	NaN	0.000000	0.001524	0.001707	28.0815	0.019214	0.001950	9.853051	-155.161	12.8155	0.002736	0.463034	-0.649338	-0.650732	-0.040527	9.853051	-0.646253	-3.598020E+8	1.126382E-10	NaN
348	1.000000	0.506453	7.36847e+06	-56039.1	955.818	-29740.3	0.000000	0.000000	6.506945	-0.023345	NaN	0.000000	0.001635	0.001783	28.0815	0.102214	0.001988	51.4134	-4.418414	-165.403	-0.065629	0.505165	-0.607313	-0.608601	-0.023345	51.4134	-0.606973	-1.038618E+8	2.247724E-10	NaN
348	1.000000	0.548480	7.36847e+06	-56039.1	955.819	-29740.3	0.000000	0.000000	6.548972	-0.032930	NaN	0.000000	0.001571	0.001736	28.0815	0.079286	0.001973	40.1941	-123.938	15.2329	-0.013178	0.547146	-0.565286	-0.566621	-0.032930	40.1941	-0.564672	-2.710115E+7	1.215089E-9	NaN
348	1.000000	0.590464	7.36847e+06	-56039.1	955.819	-29740.3	0.000000	0.000000	6.590954	-0.086438	NaN	0.000000	0.001580	0.001706	28.08	0.070610	0.002008	35.1681	59.4987	-162.815	-0.103524	0.589199	-0.523302	-0.524567	-0.086438	35.1681	-0.521458	-6.82148e+06	1.267147E-8	NaN
348	1.000000	0.632498	7.36847e+06	-56039.1	955.817	-29740.3	0.000000	0.000000	6.632990	-0.042692	NaN	0.000000	0.001581	0.001766	28.08	0.058709	0.001955	30.0363	-32.1976	15.5599	-0.122205	0.631124	-0.481268	-0.482643	-0.042692	30.0363	-0.480202	-1.81281e+06	2.355039E-8	NaN
348	1.000000	0.674502	7.36847e+06	-56039.1	955.818	-29740.3	0.000000	0.000000	6.674993	-0.039408	NaN	0.000000	0.001540	0.001755	28.0803	0.043627	0.001955	22.3173	0.202432	-161.871	0.055379	0.673185	-0.439264	-0.440581	-0.039408	22.3173	-0.437940	-461619	8.536859E-8	NaN
348	1.000000	0.716550	7.36847e+06	-56039.1	955.819	-29740.3	0.000000	0.000000	6.717041	-0.047518	NaN	0.000000	0.001579	0.001691	28.0811	0.050706	0.002034	24.9252	-90.7011	16.3661	-0.065148	0.715206	-0.397217	-0.398560	-0.047518	24.9252	-0.395787	-116378	4.083079E-7	NaN
348	1.000000	0.758539	7.36847e+06	-56039.1	955.819	-29740.3	0.000000	0.000000	6.759029	-0.069694	NaN	0.000000	0.001526	0.001724	28.081	0.090380	0.002140	42.2344	50.9651	-163.557	-0.040010	0.757241	-0.355227	-0.356526	-0.069694	42.2344	-0.353989	-29164.6	2.389694E-6	NaN
348	1.000000	0.800577	7.36847e+06	-56039.1	955.818	-29740.3	0.000000	0.000000	6.801066	-0.100404	NaN	0.000000	0.001517	0.001729	28.081	0.099671	0.001909	52.215	-111.341	13.8114	-0.088905	0.799270	-0.313189	-0.314496	-0.100404	52.215	-0.311747	-7028.97	1.428436E-5	NaN
348	1.000000	0.842590	7.36847e+06	-56039.1	955.819	-29740.3	0.000000	0.000000	6.843084	0.013181	NaN	0.000000	0.001555	0.001733	28.0797	0.058823	0.002053	28.6489	-96.6372	-165.113	0.047329	0.841295	-0.271176	-0.272471	0.013181	28.6489	-0.271521	-1756.53	-7.504252E-6	NaN
348	1.000000	0.884623	7.36847e+06	-56039.1	955.819	-29740.3	0.000000	0.000000	6.885113	-0.053876	NaN	0.000000	0.001560	0.001703	28.08	0.051187	0.001861	27.5004	-53.8659	18.0691	-0.133111	0.883252	-0.229143	-0.230514	-0.053876	27.5004	-0.227674	-367.91	0.000146	NaN
348	1.000000	0.926647	7.36847e+06	-56039.1	955.819	-29740.3	0.000000	0.000000	6.927138	-0.057400	NaN	0.000000	0.001584	0.001704	28.0798	0.012171	0.002122	5.736669	-44.7917	-167.758	-0.067545	0.925353	-0.187119	-0.188413	-0.057400	5.736669	-0.179615	-60.1048	0.000955	NaN
348	1.000000	0.968654	7.36847e+06	-56039.1	955.818	-29740.3	0.000000	0.000000	6.969145	-0.062141	NaN	0.000000	0.001543	0.001716	28.081	0.027056	0.002000	13.531	-11.9866	12.7493	-0.109373	0.967324	-0.145112	-0.146442	-0.062141	13.531	-0.141667	-12.7117	0.004888	NaN
348	1.000000	1.010645	7.36847e+06	-56039.1	955.818	-29740.3	0.000000	0.000000	7.011136	-0.063285	NaN	0.000000	0.001571	0.001725	28.0813	0.100533	0.002031	49.5046	-59.6404	-164.727	-0.031615	1.009323	-0.103121	-0.104443	-0.063285	49.5046	-0.102162	-2.039030	0.031037	NaN
348	1.000000	1.052679	7.36847e+06	-56039.1	955.817	-29740.3	0.000000	0.000000	7.053173	0.030214	NaN	0.000000	0.001534	0.001685	28.0812	0.063702	0.002058	30.9527	-105.98	17.1985	0.018996	1.051373	-0.061087	-0.062393	0.030214	30.9527	-0.061819	-0.202943	-0.148878	NaN
348	1.000000	1.094696	7.36847e+06	-56039.1	955.818	-29740.3	0.000000	0.000000	7.095186	-0.084611	NaN	0.000000	0.001560	0.001824	28.0814	0.013037	0.002114	6.168405	-90.4646	-166.424	-0.033143	1.093420	-0.019070	-0.020346	-0.084611	6.168405	-0.008782	-0.005687	14.8777	NaN
348	2.000000	1.125703	7.36847e+06	-56039.1	955.818	-29740.3	0.000000	0.000000	7.126802	14.724	NaN	0.000000	0.001467	0.001781	28.0804	14.0116	0.001863	7519.63	12.6747	2.306507	14.3103	1.125353	0.011937	0.011587	14.724	7519.63	0.010469	0.009707	1516.84	69731
348	2.000000	1.136153	7.36847e+06	-56039.1	955.817	-29740.3	0.000000	0.000000	7.137995	32.7902	NaN	0.000000	0.001540	0.001772	28.0807	23.9494	0.001788	13395.4	5.729069	-177.281	32.6347	1.135853	0.022387	0.022087	32.7902	13395.4	0.020551	0.023415	1400.37	79979.3
348	2.000000	1.146613	7.36847e+06	-56039.1	955.818	-29740.3	0.000000	0.000000	7.149603	60.7049	NaN	0.000000	0.001552	0.001770	28.0803	34.8604	0.001794	19434.3	2.948499	2.258100	57.9304	1.146256	0.032847	0.032490	60.7049	19434.3	0.030504	0.041795	1452.44	86852
348	2.000000	1.157131	7.36847e+06	-56039.1	955.818	-29740.3	0.000000	0.000000	7.161503	94.2999	NaN	0.000000	0.001527	0.001824	28.0812	43.8889	0.001987	22083.7	2.035567	-177.19	93.9413	1.156793	0.043365	0.043027	94.2999	22083.7	0.040162	0.064448	1463.2	79477.2
348	2.000000	1.167595	7.36847e+06	-56039.1	955.819	-29740.3	0.000000	0.000000	7.173726	137.061	NaN	0.000000	0.001521	0.001796	28.0811	53.0954	0.001811	29323	6.487697	-4.704491	135.507	1.167234	0.053829	0.053468	137.061	29323	0.050323	0.093414	1467.24	87654.7
348	2.000000	1.178006	7.36847e+06	-56039.1	955.818	-29740.3	0.000000	0.000000	7.186284	189.232	NaN	0.000000	0.001552	0.001809	28.0813	61.5878	0.001765	34901	3.270666	176.998	181.818	1.177712	0.064240	0.063946	189.232	34901	0.060174	0.126432	1496.71	89677.1
348	2.000000	1.188558	7.36847e+06	-56039.1	955.818	-29740.3	0.000000	0.000000	7.199698	258.784	NaN	0.000000	0.001560	0.001852	28.0799	74.109	0.001778	41687.9	3.889175	-5.050530	254.78	1.188162	0.074792	0.074396	258.784	41687.9	0.070136	0.164643	1571.79	93866.7
348	2.000000	1.199009	7.36847e+06	-56039.1	955.818	-29740.3	0.000000	0.000000	7.213760	346.576	NaN	0.000000	0.001556	0.001837	28.0797	84.5501	0.001788	47296.5	6.259535	171.725	343.515	1.198738	0.085243	0.084972	346.576	47296.5	0.079747	0.205983	1682.54	95210.8
348	2.000000	1.209487	7.36847e+06	-56039.1	955.818	-29740.3	0.000000	0.000000	7.228352	446.574	NaN	0.000000	0.001580	0.001837	28.0802	92.9537	0.001843	50425.2	3.149800	-5.568484	440.244	1.209166	0.095721	0.095400	446.574	50425.2	0.089079	0.250243	1784.56	92095.8
348	2.000000	1.219982	7.36847e+06	-56039.1	955.818	-29740.3	0.000000	0.000000	7.243410	557.485	NaN	0.000000	0.001519	0.001776	28.0811	101.861	0.001847	55160.3	3.165249	174.331	553.547	1.219628	0.106216	0.105862	557.485	55160.3	0.098636	0.299716	1860.04	92054.6
348	2.000000	1.220565	7.36847e+06	-56039.1	955.818	-29740.3	0.000000	0.000000	7.244095	559.957	NaN	0.000000	0.001540	0.001788	28.0811	102.8	0.001812	56719.2	5.351555	-8.408906	558.191	1.220191	0.106799	0.106425	559.957	56719.2	0.099395	0.303824	1843.03	94013.8