File: remote_trans/data/nanoindenter/0828-1/data/Data_2025-08-06,11h17m57s/2025-07-22_16-23-58_1_435.txt
2025-07-22, 16:23:58, 1
Index	Phase	Displacement	Time	Pos X	Pos Y	Pos Z	Rot A	Rot B	Piezo Z	Force A	Force B	Gripper	Voltage A	Voltage B	Temperature	Amplitude force	Amplitude pos	Stiffness	Phase shift	Phase excitation	Force A raw	Displacement raw	HMax	HMax raw	Real Force	Real Stiffness	Contact Depth	Area	Hardness	Reduced Mod.
[#]	[#]	[um]	[s]	[um]	[um]	[um]	[m°]	[m°]	[um]	[uN]	[uN]	[V]	[V]	[V]	[°C]	[uN]	[um]	[N/m]	[°]	[°]	[uN]	[um]	[um]	[um]	[uN]	[N/m]	[um]	[um^2]	[MPa]	[MPa]
435	1.000000	0.002465	7.36931e+06	-55339.1	1005.82	-29741.8	0.000000	0.000000	6.002803	0.024450	NaN	0.000000	0.001610	0.001809	28.0823	0.048626	0.001140	42.6498	-58.8475	-168.048	0.043294	0.001188	-1.169308	-1.170585	0.024450	42.6498	-1.169738	-4.318889E+15	-5.661236E-18	NaN
435	1.000000	0.046408	7.36931e+06	-55339.1	1005.82	-29741.8	0.000000	0.000000	6.046747	0.044868	NaN	0.000000	0.001624	0.001810	28.0806	0.050275	0.002048	24.5429	172.379	-162.696	0.006682	0.045128	-1.125365	-1.126645	0.044868	24.5429	-1.126736	-1.145089E+15	-3.918273E-17	NaN
435	1.000000	0.090403	7.36931e+06	-55339.1	1005.82	-29741.8	0.000000	0.000000	6.090736	-0.082901	NaN	0.000000	0.001552	0.001819	28.0812	0.145356	0.001976	73.5612	129.952	-166.177	-0.055199	0.089159	-1.081370	-1.082614	-0.082901	73.5612	-1.080525	-2.745169E+14	3.019900E-16	NaN
435	1.000000	0.134441	7.36931e+06	-55339.1	1005.82	-29741.8	0.000000	0.000000	6.134777	-0.012863	NaN	0.000000	0.001583	0.001803	28.0808	0.064715	0.002013	32.1546	66.0052	-165.669	-0.082163	0.133165	-1.037332	-1.038607	-0.012863	32.1546	-1.037032	-7.145863E+13	1.800091E-16	NaN
435	1.000000	0.178487	7.36931e+06	-55339.1	1005.82	-29741.8	0.000000	0.000000	6.178825	0.034723	NaN	0.000000	0.001605	0.001795	28.0819	0.106856	0.002000	53.4342	113.212	-164.842	-0.020003	0.177217	-0.993286	-0.994555	0.034723	53.4342	-0.993773	-1.870375E+13	-1.856484E-15	NaN
435	1.000000	0.222467	7.36931e+06	-55339.1	1005.82	-29741.8	0.000000	0.000000	6.222808	0.088538	NaN	0.000000	0.001684	0.001758	28.0821	0.010976	0.002074	5.291921	-115.986	-164.353	0.014991	0.221173	-0.949305	-0.950600	0.088538	5.291921	-0.961853	-6.947947E+12	-1.274306E-14	NaN
435	1.000000	0.266515	7.36931e+06	-55339.1	1005.82	-29741.8	0.000000	0.000000	6.266854	0.047319	NaN	0.000000	0.001598	0.001773	28.0818	0.128539	0.002042	62.9572	-83.3126	-162.445	0.031720	0.265178	-0.905258	-0.906595	0.047319	62.9572	-0.905821	-1.218197E+12	-3.884376E-14	NaN
435	1.000000	0.310519	7.36931e+06	-55339.1	1005.82	-29741.8	0.000000	0.000000	6.310857	0.013033	NaN	0.000000	0.001561	0.001793	28.0808	0.070344	0.001989	35.3605	-113.681	-165.705	0.013369	0.309203	-0.861253	-0.862570	0.013033	35.3605	-0.861530	-3.067797E+11	-4.248315E-14	NaN
435	1.000000	0.354530	7.36931e+06	-55339.1	1005.82	-29741.8	0.000000	0.000000	6.354866	-0.018365	NaN	0.000000	0.001691	0.001817	28.0806	0.104995	0.001991	52.7218	-15.1175	-164.855	-0.041342	0.353210	-0.817243	-0.818563	-0.018365	52.7218	-0.816982	-7.643335E+10	2.402765E-13	NaN
435	1.000000	0.398553	7.36931e+06	-55339.1	1005.82	-29741.8	0.000000	0.000000	6.398890	-0.012324	NaN	0.000000	0.001607	0.001793	28.081	0.029573	0.002030	14.5644	94.0735	-166.018	-0.015951	0.397249	-0.773220	-0.774524	-0.012324	14.5644	-0.772585	-1.907444E+10	6.461029E-13	NaN
435	1.000000	0.442595	7.36932e+06	-55339.1	1005.82	-29741.8	0.000000	0.000000	6.442935	0.080756	NaN	0.000000	0.001618	0.001810	28.0822	0.117862	0.001975	59.664	-101.744	-166.546	0.081963	0.441230	-0.729178	-0.730543	0.080756	59.664	-0.730193	-5.051684E+9	-1.598595E-11	NaN
435	1.000000	0.486615	7.36932e+06	-55339.1	1005.82	-29741.8	0.000000	0.000000	6.486953	0.024125	NaN	0.000000	0.001632	0.001804	28.0822	0.082719	0.002034	40.6663	-137.964	-163.4	0.026737	0.485270	-0.685158	-0.686503	0.024125	40.6663	-0.685603	-1.243982E+9	-1.939316E-11	NaN
435	1.000000	0.530624	7.36932e+06	-55339.1	1005.82	-29741.8	0.000000	0.000000	6.530959	-0.039140	NaN	0.000000	0.001624	0.001813	28.0818	0.105251	0.002016	52.2126	-88.5256	-165.788	-0.095711	0.529266	-0.641149	-0.642507	-0.039140	52.2126	-0.640587	-3.008430E+8	1.301025E-10	NaN
435	1.000000	0.574663	7.36932e+06	-55339.1	1005.82	-29741.8	0.000000	0.000000	6.574999	-0.012397	NaN	0.000000	0.001658	0.001751	28.0809	0.063783	0.002108	30.2603	143.433	-165.37	0.010760	0.573374	-0.597110	-0.598399	-0.012397	30.2603	-0.596803	-7.523481E+7	1.647710E-10	NaN
435	1.000000	0.618623	7.36932e+06	-55339.1	1005.82	-29741.8	0.000000	0.000000	6.618960	0.002113	NaN	0.000000	0.001589	0.001798	28.0808	0.097114	0.001983	48.9722	176.754	-164.975	0.051486	0.617331	-0.553150	-0.554442	0.002113	48.9722	-0.553182	-1.879401E+7	-1.124041E-10	NaN
435	1.000000	0.662660	7.36932e+06	-55339.1	1005.82	-29741.8	0.000000	0.000000	6.662997	0.012545	NaN	0.000000	0.001596	0.001792	28.0804	0.057568	0.002033	28.3118	-137.782	-166.603	0.022265	0.661444	-0.509113	-0.510329	0.012545	28.3118	-0.509446	-4.64188e+06	-2.702466E-9	NaN
435	1.000000	0.706704	7.36932e+06	-55339.1	1005.82	-29741.8	0.000000	0.000000	6.707043	0.039469	NaN	0.000000	0.001707	0.001778	28.082	0.073257	0.002066	35.4636	-41.7529	-166.563	-0.031891	0.705404	-0.465069	-0.466369	0.039469	35.4636	-0.465903	-1.14269e+06	-3.454059E-8	NaN
435	1.000000	0.750709	7.36932e+06	-55339.1	1005.82	-29741.8	0.000000	0.000000	6.751046	0.007763	NaN	0.000000	0.001693	0.001823	28.0816	0.045528	0.001934	23.5449	-137.316	-166.24	0.103117	0.749405	-0.421064	-0.422368	0.007763	23.5449	-0.421311	-268541	-2.890823E-8	NaN
435	1.000000	0.794716	7.36932e+06	-55339.1	1005.82	-29741.8	0.000000	0.000000	6.795052	-0.043238	NaN	0.000000	0.001678	0.001766	28.0818	0.043760	0.002040	21.4509	-131.867	-165.926	0.012708	0.793419	-0.377057	-0.378354	-0.043238	21.4509	-0.375545	-59690	7.243774E-7	NaN
435	1.000000	0.838761	7.36932e+06	-55339.1	1005.82	-29741.8	0.000000	0.000000	6.839097	-0.043142	NaN	0.000000	0.001626	0.001754	28.0805	0.101068	0.002091	48.3308	-168.085	-165.6	-0.057932	0.837418	-0.333011	-0.334355	-0.043142	48.3308	-0.332342	-14116.6	3.056094E-6	NaN
435	1.000000	0.882719	7.36932e+06	-55339.1	1005.82	-29741.8	0.000000	0.000000	6.883058	0.030014	NaN	0.000000	0.001640	0.001752	28.0807	0.024789	0.001970	12.5842	15.6176	-166.364	0.011337	0.881460	-0.289053	-0.290313	0.030014	12.5842	-0.290842	-3434.92	-8.737798E-6	NaN
435	1.000000	0.926772	7.36932e+06	-55339.1	1005.82	-29741.8	0.000000	0.000000	6.927110	0.044352	NaN	0.000000	0.001579	0.001780	28.0809	0.016398	0.001974	8.306738	-173.54	-164.322	0.017663	0.925440	-0.245001	-0.246333	0.044352	8.306738	-0.249006	-793.564	-5.588940E-5	NaN
435	1.000000	0.970769	7.36932e+06	-55339.1	1005.82	-29741.8	0.000000	0.000000	6.971108	0.057203	NaN	0.000000	0.001569	0.001687	28.0819	0.090340	0.002033	44.4278	-165.918	-165.669	0.026964	0.969472	-0.201004	-0.202301	0.057203	44.4278	-0.201970	-141.912	-0.000403	NaN
435	1.000000	1.014825	7.36932e+06	-55339.1	1005.82	-29741.8	0.000000	0.000000	7.015161	-0.009167	NaN	0.000000	0.001615	0.001727	28.0819	0.102640	0.001897	54.113	-26.6119	-167.108	-0.041838	1.013503	-0.156948	-0.158270	-0.009167	54.113	-0.156821	-24.0588	0.000381	NaN
435	1.000000	1.058857	7.36932e+06	-55339.1	1005.82	-29741.8	0.000000	0.000000	7.059193	-0.024323	NaN	0.000000	0.001605	0.001712	28.0817	0.120343	0.002057	58.5019	-157.911	-166.911	-0.023085	1.057569	-0.112916	-0.114204	-0.024323	58.5019	-0.112604	-3.407571	0.007138	NaN
435	1.000000	1.102852	7.36932e+06	-55339.1	1005.82	-29741.8	0.000000	0.000000	7.103190	0.006137	NaN	0.000000	0.001627	0.001766	28.0813	0.042928	0.002043	21.0129	51.8298	-165.859	0.062067	1.101556	-0.068920	-0.070217	0.006137	21.0129	-0.069139	-0.323422	-0.018974	NaN
435	1.000000	1.146848	7.36932e+06	-55339.1	1005.82	-29741.8	0.000000	0.000000	7.147185	0.006442	NaN	0.000000	0.001591	0.001789	28.0806	0.102528	0.002026	50.5981	-65.7405	-166.633	0.045326	1.145573	-0.024925	-0.026199	0.006442	50.5981	-0.025021	-0.016891	-0.381368	NaN
435	2.000000	1.186438	7.36932e+06	-55339.1	1005.82	-29741.8	0.000000	0.000000	7.187137	8.815633	NaN	0.000000	0.001602	0.001731	28.0814	9.926509	0.001821	5450.97	9.126449	-173.592	8.764030	1.186078	0.014665	0.014305	8.815633	5450.97	0.013452	0.013276	664.015	43222.5
435	2.000000	1.197373	7.36932e+06	-55339.1	1005.82	-29741.8	0.000000	0.000000	7.198714	24.3857	NaN	0.000000	0.001606	0.001722	28.0807	19.6357	0.001745	11254.3	3.954725	-175.569	24.2792	1.196994	0.025600	0.025221	24.3857	11254.3	0.023975	0.029178	835.756	60195.4
435	2.000000	1.208309	7.36932e+06	-55339.1	1005.82	-29741.8	0.000000	0.000000	7.210743	50.9759	NaN	0.000000	0.001692	0.001741	28.082	29.4186	0.001770	16625.2	4.560401	-179.943	49.1828	1.207925	0.036536	0.036153	50.9759	16625.2	0.034237	0.049983	1019.86	67940.4
435	2.000000	1.219276	7.36932e+06	-55339.1	1005.82	-29741.8	0.000000	0.000000	7.222861	78.9681	NaN	0.000000	0.001586	0.001716	28.082	39.7887	0.001845	21566.6	7.118417	174.952	77.4797	1.218980	0.047503	0.047207	78.9681	21566.6	0.044757	0.076898	1026.93	71055.5
435	2.000000	1.230314	7.36932e+06	-55339.1	1005.82	-29741.8	0.000000	0.000000	7.235666	121.919	NaN	0.000000	0.001622	0.001750	28.0821	49.9217	0.001870	26692.3	4.055866	177.27	123.73	1.229952	0.058541	0.058179	121.919	26692.3	0.055115	0.108876	1119.79	73908.1
435	2.000000	1.241219	7.36932e+06	-55339.1	1005.82	-29741.8	0.000000	0.000000	7.249024	181.537	NaN	0.000000	0.001662	0.001708	28.0811	59.936	0.001806	33190.7	1.997869	176.691	178.152	1.240900	0.069446	0.069128	181.537	33190.7	0.065344	0.145664	1246.27	79453.6
435	2.000000	1.252268	7.36932e+06	-55339.1	1005.82	-29741.8	0.000000	0.000000	7.262512	240.832	NaN	0.000000	0.001665	0.001755	28.081	71.1464	0.001821	39067.8	1.802680	175.765	240.416	1.251990	0.080495	0.080217	240.832	39067.8	0.075872	0.188791	1275.65	82148.7
435	2.000000	1.263267	7.36932e+06	-55339.1	1005.82	-29741.8	0.000000	0.000000	7.276288	308.313	NaN	0.000000	0.001654	0.001771	28.0809	81.1797	0.001796	45197.3	4.039077	171.995	308.373	1.262853	0.091495	0.091080	308.313	45197.3	0.086379	0.237022	1300.78	84818.7
435	2.000000	1.274202	7.36932e+06	-55339.1	1005.82	-29741.8	0.000000	0.000000	7.290777	394.745	NaN	0.000000	0.001689	0.001673	28.0822	91.4487	0.001701	53768	5.899495	169.269	392.425	1.273836	0.102429	0.102063	394.745	53768	0.096923	0.290542	1358.65	91136.6
435	2.000000	1.283158	7.36932e+06	-55339.1	1005.82	-29741.8	0.000000	0.000000	7.302433	460.359	NaN	0.000000	0.001601	0.001674	28.0821	102.168	0.001832	55753.6	1.757525	172.611	456.239	1.282866	0.111385	0.111093	460.359	55753.6	0.105193	0.336066	1369.85	87868.7