File: remote_trans/data/nanoindenter/0828-1/data/Data_2025-08-06,11h17m57s/2025-07-22_16-23-58_1_800.txt
2025-07-22, 16:23:58, 1
Index	Phase	Displacement	Time	Pos X	Pos Y	Pos Z	Rot A	Rot B	Piezo Z	Force A	Force B	Gripper	Voltage A	Voltage B	Temperature	Amplitude force	Amplitude pos	Stiffness	Phase shift	Phase excitation	Force A raw	Displacement raw	HMax	HMax raw	Real Force	Real Stiffness	Contact Depth	Area	Hardness	Reduced Mod.
[#]	[#]	[um]	[s]	[um]	[um]	[um]	[m°]	[m°]	[um]	[uN]	[uN]	[V]	[V]	[V]	[°C]	[uN]	[um]	[N/m]	[°]	[°]	[uN]	[um]	[um]	[um]	[uN]	[N/m]	[um]	[um^2]	[MPa]	[MPa]
800	1.000000	0.002908	7.37288e+06	-40139.1	1055.82	-29791.1	0.000000	0.000000	6.002843	-0.017484	NaN	0.000000	0.001606	0.001759	28.0831	0.032973	0.000872	37.8099	11.6343	-156.646	-0.032735	0.001567	-1.135784	-1.137126	-0.017484	37.8099	-1.135438	-1.498139E+15	1.167063E-17	NaN
800	1.000000	0.044828	7.37288e+06	-40139.1	1055.82	-29791.1	0.000000	0.000000	6.044763	-0.006659	NaN	0.000000	0.001599	0.001700	28.0838	0.098759	0.002009	49.1511	-113.929	15.0681	0.074853	0.043464	-1.093865	-1.095228	-0.006659	49.1511	-1.093763	-4.133693E+14	1.610861E-17	NaN
800	1.000000	0.086867	7.37288e+06	-40139.1	1055.82	-29791.1	0.000000	0.000000	6.086804	0.053948	NaN	0.000000	0.001581	0.001735	28.0839	0.050251	0.001946	25.8182	68.9677	-166.385	-0.003341	0.085529	-1.051826	-1.053164	0.053948	25.8182	-1.053393	-1.185835E+14	-4.549335E-16	NaN
800	1.000000	0.128823	7.37288e+06	-40139.1	1055.82	-29791.1	0.000000	0.000000	6.128757	-0.032772	NaN	0.000000	0.001568	0.001731	28.0843	0.046179	0.001980	23.3209	89.6461	12.7109	-0.056440	0.127460	-1.009870	-1.011233	-0.032772	23.3209	-1.008816	-2.981576E+13	1.099139E-15	NaN
800	1.000000	0.170859	7.37288e+06	-40139.1	1055.82	-29791.1	0.000000	0.000000	6.170795	0.018063	NaN	0.000000	0.001587	0.001743	28.0835	0.044599	0.001994	22.3708	-32.9089	-170.531	0.004713	0.169549	-0.967834	-0.969144	0.018063	22.3708	-0.968439	-8.523752E+12	-2.119146E-15	NaN
800	1.000000	0.212891	7.37288e+06	-40139.1	1055.82	-29791.1	0.000000	0.000000	6.212825	-0.034635	NaN	0.000000	0.001602	0.001716	28.0829	0.042530	0.001941	21.913	-32.6239	13.9937	-0.032488	0.211507	-0.925802	-0.927185	-0.034635	21.913	-0.924616	-2.185379E+12	1.584830E-14	NaN
800	1.000000	0.254877	7.37288e+06	-40139.1	1055.82	-29791.1	0.000000	0.000000	6.254814	0.035554	NaN	0.000000	0.001646	0.001702	28.0828	0.061653	0.002104	29.3012	-98.3319	-163.289	0.011107	0.253596	-0.883816	-0.885096	0.035554	29.3012	-0.884726	-6.318424E+11	-5.627097E-14	NaN
800	1.000000	0.296915	7.37288e+06	-40139.1	1055.82	-29791.1	0.000000	0.000000	6.296849	-0.034101	NaN	0.000000	0.001631	0.001675	28.083	0.141480	0.001994	70.9442	161.335	16.4307	-0.044092	0.295595	-0.841778	-0.843098	-0.034101	70.9442	-0.841417	-1.638685E+11	2.080998E-13	NaN
800	1.000000	0.338947	7.37288e+06	-40139.1	1055.82	-29791.1	0.000000	0.000000	6.338880	-0.050058	NaN	0.000000	0.001635	0.001696	28.084	0.042322	0.002103	20.1236	174.549	-164.47	0.022439	0.337645	-0.799746	-0.801047	-0.050058	20.1236	-0.797880	-4.208078E+10	1.189577E-12	NaN
800	1.000000	0.380955	7.37288e+06	-40139.1	1055.82	-29791.1	0.000000	0.000000	6.380889	-0.027582	NaN	0.000000	0.001644	0.001708	28.0841	0.090271	0.001947	46.3739	-84.5297	17.671	-0.084320	0.379584	-0.757738	-0.759108	-0.027582	46.3739	-0.757292	-1.181557E+10	2.334364E-12	NaN
800	1.000000	0.422996	7.37288e+06	-40139.1	1055.82	-29791.1	0.000000	0.000000	6.422935	0.075653	NaN	0.000000	0.001640	0.001715	28.0843	0.105414	0.001931	54.5885	-112.519	-166.961	-0.023336	0.421676	-0.715696	-0.717017	0.075653	54.5885	-0.716736	-3.310930E+9	-2.284958E-11	NaN
800	1.000000	0.464994	7.37288e+06	-40139.1	1055.82	-29791.1	0.000000	0.000000	6.464929	-0.031005	NaN	0.000000	0.001653	0.001704	28.0832	0.122401	0.001966	62.2717	103.821	16.6912	0.033260	0.463628	-0.673698	-0.675064	-0.031005	62.2717	-0.673325	-8.450630E+8	3.668971E-11	NaN
800	1.000000	0.506990	7.37288e+06	-40139.1	1055.82	-29791.1	0.000000	0.000000	6.506920	-0.115442	NaN	0.000000	0.001654	0.001731	28.0829	0.062209	0.002024	30.7362	-84.2611	-164.674	-0.094065	0.505692	-0.631703	-0.633001	-0.115442	30.7362	-0.628886	-2.078376E+8	5.554420E-10	NaN
800	1.000000	0.549014	7.37288e+06	-40139.1	1055.82	-29791.1	0.000000	0.000000	6.548949	-0.004868	NaN	0.000000	0.001647	0.001751	28.083	0.084448	0.001990	42.4307	-41.8944	13.603	-0.089689	0.547673	-0.589679	-0.591019	-0.004868	42.4307	-0.589593	-5.984798E+7	8.134666E-11	NaN
800	1.000000	0.591048	7.37288e+06	-40139.1	1055.82	-29791.1	0.000000	0.000000	6.590988	0.104934	NaN	0.000000	0.001643	0.001702	28.0844	0.058502	0.001983	29.499	-156.986	-165.394	0.056928	0.589770	-0.547644	-0.548923	0.104934	29.499	-0.550312	-1.715056E+7	-6.118391E-9	NaN
800	1.000000	0.633064	7.37288e+06	-40139.1	1055.82	-29791.1	0.000000	0.000000	6.632999	-0.020102	NaN	0.000000	0.001629	0.001665	28.0845	0.048186	0.001864	25.8477	155.898	17.1299	-0.058027	0.631655	-0.505628	-0.507038	-0.020102	25.8477	-0.505045	-4.03063e+06	4.987252E-9	NaN
800	1.000000	0.675042	7.37288e+06	-40139.1	1055.82	-29791.1	0.000000	0.000000	6.674978	-0.000687	NaN	0.000000	0.001644	0.001650	28.0843	0.027868	0.002033	13.7065	-116.408	-167.438	-0.027807	0.673779	-0.463651	-0.464914	-0.000687	13.7065	-0.463613	-1.06114e+06	6.474836E-10	NaN
800	1.000000	0.717063	7.37288e+06	-40139.1	1055.82	-29791.1	0.000000	0.000000	6.716997	-0.040792	NaN	0.000000	0.001578	0.001645	28.0839	0.048139	0.001931	24.934	39.2214	14.4098	-0.010378	0.715772	-0.421630	-0.422921	-0.040792	24.934	-0.420403	-260691	1.564770E-7	NaN
800	1.000000	0.759094	7.37288e+06	-40139.1	1055.82	-29791.1	0.000000	0.000000	6.759029	-0.006811	NaN	0.000000	0.001628	0.001675	28.0833	0.097196	0.002061	47.163	-115.799	-168.624	0.009214	0.757829	-0.379598	-0.380863	-0.006811	47.163	-0.379490	-68009.8	1.001468E-7	NaN
800	1.000000	0.801119	7.37288e+06	-40139.1	1055.82	-29791.1	0.000000	0.000000	6.801056	0.018411	NaN	0.000000	0.001627	0.001659	28.0831	0.077642	0.001946	39.9032	73.4999	15.5502	0.045801	0.799750	-0.337573	-0.338943	0.018411	39.9032	-0.337919	-17029.7	-1.081097E-6	NaN
800	1.000000	0.843156	7.37288e+06	-40139.1	1055.82	-29791.1	0.000000	0.000000	6.843090	-0.040047	NaN	0.000000	0.001621	0.001662	28.0833	0.060833	0.002116	28.749	-31.2132	-161.274	0.011217	0.841823	-0.295537	-0.296870	-0.040047	28.749	-0.294492	-3894.95	1.028172E-5	NaN
800	1.000000	0.885185	7.37288e+06	-40139.1	1055.82	-29791.1	0.000000	0.000000	6.885119	-0.049696	NaN	0.000000	0.001626	0.001676	28.0844	0.056895	0.002146	26.516	109.997	12.9552	-0.076508	0.883784	-0.253507	-0.254909	-0.049696	26.516	-0.252102	-886.016	5.608903E-5	NaN
800	1.000000	0.927176	7.37288e+06	-40139.1	1055.82	-29791.1	0.000000	0.000000	6.927111	-0.009297	NaN	0.000000	0.001595	0.001671	28.0848	0.135149	0.002019	66.9499	-28.2923	-167.709	-0.009179	0.925860	-0.211516	-0.212832	-0.009297	66.9499	-0.211412	-202.148	4.598993E-5	NaN
800	1.000000	0.969168	7.37288e+06	-40139.1	1055.82	-29791.1	0.000000	0.000000	6.969103	-0.029380	NaN	0.000000	0.001637	0.001675	28.0848	0.059048	0.002050	28.8012	51.967	14.5981	0.014551	0.967808	-0.169524	-0.170885	-0.029380	28.8012	-0.168759	-39.0874	0.000752	NaN
800	1.000000	1.011230	7.37288e+06	-40139.1	1055.82	-29791.1	0.000000	0.000000	7.011163	-0.066152	NaN	0.000000	0.001636	0.001635	28.0836	0.041490	0.001958	21.1955	-46.964	-167.835	-0.038053	1.009914	-0.127463	-0.128778	-0.066152	21.1955	-0.125122	-6.115085	0.010818	NaN
800	1.000000	1.053198	7.37288e+06	-40139.1	1055.82	-29791.1	0.000000	0.000000	7.053131	-0.047657	NaN	0.000000	0.001657	0.001653	28.0835	0.056442	0.002048	27.5585	95.164	13.2776	-0.082162	1.051902	-0.085495	-0.086790	-0.047657	27.5585	-0.084198	-0.785630	0.060661	NaN
800	1.000000	1.095238	7.37289e+06	-40139.1	1055.82	-29791.1	0.000000	0.000000	7.095172	-0.025848	NaN	0.000000	0.001655	0.001705	28.0837	0.103762	0.001925	53.8999	-18.7645	-165.048	0.066192	1.093925	-0.043455	-0.044768	-0.025848	53.8999	-0.043095	-0.056200	0.459927	NaN
800	1.000000	1.137222	7.37289e+06	-40139.1	1055.82	-29791.1	0.000000	0.000000	7.137205	1.143682	NaN	0.000000	0.001660	0.001702	28.0849	1.781328	0.002063	863.615	9.457050	11.0408	0.322331	1.135857	-0.001470	-0.002836	1.143682	863.615	-0.002464	-0.001758	-650.538	NaN
800	2.000000	1.151827	7.37289e+06	-40139.1	1055.82	-29791.1	0.000000	0.000000	7.152613	20.7095	NaN	0.000000	0.001635	0.001680	28.085	17.8586	0.001741	10255.5	8.628448	-179.62	19.2554	1.151471	0.013134	0.012778	20.7095	10255.5	0.011620	0.011037	1876.29	89186
800	2.000000	1.162308	7.37289e+06	-40139.1	1055.82	-29791.1	0.000000	0.000000	7.163874	39.6847	NaN	0.000000	0.001641	0.001699	28.0848	25.8838	0.001740	14878.5	4.316350	2.589526	39.2049	1.161877	0.023615	0.023184	39.6847	14878.5	0.021615	0.025143	1578.34	85727.8
800	2.000000	1.172760	7.37289e+06	-40139.1	1055.82	-29791.1	0.000000	0.000000	7.175256	62.2999	NaN	0.000000	0.001607	0.001715	28.0838	36.0706	0.001832	19691.9	4.489628	178.716	61.0095	1.172471	0.034068	0.033778	62.2999	19691.9	0.031695	0.044330	1405.37	85450.3
800	2.000000	1.183208	7.37289e+06	-40139.1	1055.82	-29791.1	0.000000	0.000000	7.187206	98.8619	NaN	0.000000	0.001618	0.001680	28.0835	45.8078	0.001880	24365.6	6.496351	-4.831237	95.6103	1.182929	0.044516	0.044237	98.8619	24365.6	0.041473	0.067889	1456.22	85437.5
800	2.000000	1.193723	7.37289e+06	-40139.1	1055.82	-29791.1	0.000000	0.000000	7.199434	140.546	NaN	0.000000	0.001641	0.001683	28.0832	54.8615	0.001842	29781	4.794812	176.818	137.294	1.193396	0.055030	0.054704	140.546	29781	0.051491	0.097076	1447.79	87328.5
800	2.000000	1.204252	7.37289e+06	-40139.1	1055.82	-29791.1	0.000000	0.000000	7.212067	191.74	NaN	0.000000	0.001624	0.001650	28.0835	65.5821	0.001814	36148.4	6.807870	-8.408269	188.54	1.203874	0.065560	0.065181	191.74	36148.4	0.061581	0.131540	1457.65	91061.3
800	2.000000	1.214658	7.37289e+06	-40139.1	1055.82	-29791.1	0.000000	0.000000	7.224672	245.25	NaN	0.000000	0.001669	0.001724	28.0851	73.8853	0.001678	44023.1	2.361273	174.952	240.794	1.214375	0.075966	0.075682	245.25	44023.1	0.071788	0.171436	1430.56	97141
800	2.000000	1.225061	7.37289e+06	-40139.1	1055.82	-29791.1	0.000000	0.000000	7.237372	301.128	NaN	0.000000	0.001567	0.001673	28.0847	83.5808	0.001833	45597.9	4.812030	-8.301884	289.832	1.224663	0.086369	0.085971	301.128	45597.9	0.081416	0.213600	1409.77	90139.8
800	2.000000	1.235651	7.37289e+06	-40139.1	1055.82	-29791.1	0.000000	0.000000	7.250728	368.446	NaN	0.000000	0.001563	0.001685	28.0846	92.5337	0.001728	53542.7	3.908428	171.653	366.511	1.235384	0.096959	0.096691	368.446	53542.7	0.091798	0.263892	1396.2	95227
800	2.000000	1.241162	7.37289e+06	-40139.1	1055.82	-29791.1	0.000000	0.000000	7.258107	413.907	NaN	0.000000	0.001588	0.001719	28.0836	97.5029	0.001753	55612.5	4.024409	-8.804325	408.962	1.240840	0.102470	0.102147	413.907	55612.5	0.096888	0.290356	1425.51	94293.1