File: remote_trans/data/nanoindenter/0828-1/data/Data_2025-08-06,11h17m57s/2025-07-22_16-23-58_1_590.txt
2025-07-22, 16:23:58, 1
Index	Phase	Displacement	Time	Pos X	Pos Y	Pos Z	Rot A	Rot B	Piezo Z	Force A	Force B	Gripper	Voltage A	Voltage B	Temperature	Amplitude force	Amplitude pos	Stiffness	Phase shift	Phase excitation	Force A raw	Displacement raw	HMax	HMax raw	Real Force	Real Stiffness	Contact Depth	Area	Hardness	Reduced Mod.
[#]	[#]	[um]	[s]	[um]	[um]	[um]	[m°]	[m°]	[um]	[uN]	[uN]	[V]	[V]	[V]	[°C]	[uN]	[um]	[N/m]	[°]	[°]	[uN]	[um]	[um]	[um]	[uN]	[N/m]	[um]	[um^2]	[MPa]	[MPa]
590	1.000000	0.003193	7.37082e+06	-47589.1	1005.82	-29765.4	0.000000	0.000000	6.002850	0.006913	NaN	0.000000	0.001603	0.001789	28.0805	0.040379	0.001141	35.3993	116.554	-167.091	0.057753	0.001888	-1.115519	-1.116825	0.006913	35.3993	-1.115665	-8.134162E+14	-8.499126E-18	NaN
590	1.000000	0.045064	7.37082e+06	-47589.1	1005.82	-29765.4	0.000000	0.000000	6.044719	-0.019536	NaN	0.000000	0.001630	0.001792	28.0798	0.064633	0.001994	32.4117	27.0838	16.4712	-0.027471	0.043739	-1.073649	-1.074973	-0.019536	32.4117	-1.073197	-2.188429E+14	8.926943E-17	NaN
590	1.000000	0.087069	7.37082e+06	-47589.1	1005.82	-29765.4	0.000000	0.000000	6.086722	-0.078626	NaN	0.000000	0.001648	0.001778	28.08	0.134972	0.001938	69.6426	120.314	-164.933	-0.047327	0.085815	-1.031643	-1.032898	-0.078626	69.6426	-1.030797	-5.891093E+13	1.334667E-15	NaN
590	1.000000	0.129119	7.37082e+06	-47589.1	1005.82	-29765.4	0.000000	0.000000	6.128775	-0.028581	NaN	0.000000	0.001602	0.001782	28.08	0.064815	0.001872	34.6301	91.3854	17.3654	-0.058294	0.127742	-0.989593	-0.990970	-0.028581	34.6301	-0.988974	-1.611732E+13	1.773296E-15	NaN
590	1.000000	0.171166	7.37082e+06	-47589.1	1005.82	-29765.4	0.000000	0.000000	6.170822	7.979772E-6	NaN	0.000000	0.001635	0.001828	28.0786	0.046623	0.001958	23.8107	-140.868	-166.149	0.023611	0.169854	-0.947547	-0.948858	7.979772E-6	23.8107	-0.947547	-4.455950E+12	-1.790813E-18	NaN
590	1.000000	0.213165	7.37082e+06	-47589.1	1005.82	-29765.4	0.000000	0.000000	6.212822	0.000446	NaN	0.000000	0.001635	0.001771	28.0784	0.063481	0.001999	31.7609	-28.6005	17.3299	-0.045284	0.211760	-0.905547	-0.906952	0.000446	31.7609	-0.905557	-1.208227E+12	-3.689129E-16	NaN
590	1.000000	0.255164	7.37082e+06	-47589.1	1005.82	-29765.4	0.000000	0.000000	6.254822	0.014289	NaN	0.000000	0.001596	0.001766	28.0785	0.067237	0.001999	33.6439	-136.51	-162.445	-0.011360	0.253836	-0.863548	-0.864876	0.014289	33.6439	-0.863866	-3.299490E+11	-4.330633E-14	NaN
590	1.000000	0.297200	7.37082e+06	-47589.1	1005.82	-29765.4	0.000000	0.000000	6.296857	-0.002064	NaN	0.000000	0.001574	0.001795	28.0798	0.040778	0.002150	18.9687	-137.564	16.1928	-0.024892	0.295836	-0.821512	-0.822876	-0.002064	18.9687	-0.821430	-8.782185E+10	2.350357E-14	NaN
590	1.000000	0.339204	7.37082e+06	-47589.1	1005.82	-29765.4	0.000000	0.000000	6.338860	-0.022450	NaN	0.000000	0.001533	0.001778	28.0799	0.192345	0.002012	95.5809	85.6567	-163.412	0.042853	0.337888	-0.779508	-0.780824	-0.022450	95.5809	-0.779332	-2.355887E+10	9.529359E-13	NaN
590	1.000000	0.381196	7.37082e+06	-47589.1	1005.82	-29765.4	0.000000	0.000000	6.380850	-0.063263	NaN	0.000000	0.001577	0.001767	28.0798	0.066548	0.002048	32.4945	65.8217	11.833	-0.056104	0.379865	-0.737516	-0.738847	-0.063263	32.4945	-0.736056	-6.071897E+9	1.041899E-11	NaN
590	1.000000	0.423239	7.37082e+06	-47589.1	1005.82	-29765.4	0.000000	0.000000	6.422894	-0.033704	NaN	0.000000	0.001557	0.001767	28.0785	0.026403	0.002091	12.6255	-105.156	-165.404	0.071711	0.421926	-0.695473	-0.696786	-0.033704	12.6255	-0.693471	-1.593478E+9	2.115109E-11	NaN
590	1.000000	0.465289	7.37082e+06	-47589.1	1005.82	-29765.4	0.000000	0.000000	6.464946	0.016108	NaN	0.000000	0.001563	0.001746	28.0787	0.071300	0.001929	36.9582	82.1274	14.3236	0.129844	0.463885	-0.653423	-0.654827	0.016108	36.9582	-0.653750	-4.558654E+8	-3.533524E-11	NaN
590	1.000000	0.507289	7.37082e+06	-47589.1	1005.82	-29765.4	0.000000	0.000000	6.506946	0.008022	NaN	0.000000	0.001641	0.001795	28.0786	0.051594	0.001998	25.8188	48.4918	-164.104	-0.019175	0.506006	-0.611423	-0.612706	0.008022	25.8188	-0.611656	-1.204754E+8	-6.658895E-11	NaN
590	1.000000	0.549325	7.37082e+06	-47589.1	1005.82	-29765.4	0.000000	0.000000	6.548983	0.025175	NaN	0.000000	0.001586	0.001789	28.0798	0.041827	0.002002	20.8889	23.3681	15.5563	0.001594	0.547945	-0.569387	-0.570768	0.025175	20.8889	-0.570291	-3.240795E+7	-7.768149E-10	NaN
590	1.000000	0.591350	7.37082e+06	-47589.1	1005.82	-29765.4	0.000000	0.000000	6.591009	0.043442	NaN	0.000000	0.001556	0.001768	28.0797	0.139491	0.001986	70.2285	78.7674	-161.664	0.005443	0.590043	-0.527362	-0.528669	0.043442	70.2285	-0.527826	-8.3633e+06	-5.194385E-9	NaN
590	1.000000	0.633325	7.37082e+06	-47589.1	1005.82	-29765.4	0.000000	0.000000	6.632978	-0.084791	NaN	0.000000	0.001596	0.001735	28.0796	0.062109	0.002037	30.4928	18.4837	13.4055	-0.063824	0.631984	-0.485387	-0.486728	-0.084791	30.4928	-0.483302	-2.00324e+06	4.232718E-8	NaN
590	1.000000	0.675350	7.37082e+06	-47589.1	1005.82	-29765.4	0.000000	0.000000	6.675007	0.004090	NaN	0.000000	0.001618	0.001721	28.0797	0.039439	0.001850	21.3144	78.5654	-163.288	-0.077264	0.674048	-0.443362	-0.444664	0.004090	21.3144	-0.443506	-553135	-7.394375E-9	NaN
590	1.000000	0.717377	7.37082e+06	-47589.1	1005.82	-29765.4	0.000000	0.000000	6.717036	0.064218	NaN	0.000000	0.001645	0.001797	28.0786	0.080783	0.001933	41.7819	-142.024	14.8933	0.037079	0.716008	-0.401336	-0.402704	0.064218	41.7819	-0.402488	-145033	-4.427809E-7	NaN
590	1.000000	0.759378	7.37082e+06	-47589.1	1005.82	-29765.4	0.000000	0.000000	6.759034	-0.002047	NaN	0.000000	0.001523	0.001776	28.0786	0.078548	0.001970	39.8776	-114.411	-164.718	0.041967	0.758105	-0.359334	-0.360607	-0.002047	39.8776	-0.359296	-34806.8	5.882024E-8	NaN
590	1.000000	0.801399	7.37082e+06	-47589.1	1005.82	-29765.4	0.000000	0.000000	6.801055	-0.037284	NaN	0.000000	0.001504	0.001790	28.0788	0.041341	0.001929	21.4331	175.005	13.1307	0.008216	0.800128	-0.317313	-0.318585	-0.037284	21.4331	-0.316008	-8124.95	4.588818E-6	NaN
590	1.000000	0.843439	7.37082e+06	-47589.1	1005.82	-29765.4	0.000000	0.000000	6.843095	-0.015904	NaN	0.000000	0.001562	0.001793	28.0799	0.066865	0.001974	33.8725	7.323055	-165.915	-0.011205	0.842064	-0.275273	-0.276648	-0.015904	33.8725	-0.274921	-1977.91	8.040572E-6	NaN
590	1.000000	0.885440	7.37082e+06	-47589.1	1005.82	-29765.4	0.000000	0.000000	6.885099	0.058436	NaN	0.000000	0.001627	0.001726	28.08	0.084698	0.001988	42.5988	146.405	14.2802	0.039166	0.884063	-0.233272	-0.234649	0.058436	42.5988	-0.234301	-468.026	-0.000125	NaN
590	1.000000	0.927428	7.37082e+06	-47589.1	1005.82	-29765.4	0.000000	0.000000	6.927083	-0.032467	NaN	0.000000	0.001610	0.001717	28.08	0.082628	0.001935	42.7013	149.371	-169.03	-0.025480	0.926156	-0.191284	-0.192556	-0.032467	42.7013	-0.190714	-92.4588	0.000351	NaN
590	1.000000	0.969467	7.37082e+06	-47589.1	1005.82	-29765.4	0.000000	0.000000	6.969125	0.042142	NaN	0.000000	0.001644	0.001700	28.079	0.120775	0.002152	56.1207	177.235	12.6469	0.067881	0.968105	-0.149245	-0.150607	0.042142	56.1207	-0.149809	-17.9685	-0.002345	NaN
590	1.000000	1.011473	7.37082e+06	-47589.1	1005.82	-29765.4	0.000000	0.000000	7.011130	0.016848	NaN	0.000000	0.001613	0.001712	28.079	0.094322	0.002057	45.8625	-174.259	-163.918	-0.000280	1.010170	-0.107239	-0.108542	0.016848	45.8625	-0.107515	-2.661681	-0.006330	NaN
590	1.000000	1.053503	7.37082e+06	-47589.1	1005.82	-29765.4	0.000000	0.000000	7.053162	0.052764	NaN	0.000000	0.001679	0.001704	28.0789	0.097365	0.001936	50.2884	-68.9286	16.529	-0.054169	1.052148	-0.065209	-0.066564	0.052764	50.2884	-0.065996	-0.265529	-0.198712	NaN
590	1.000000	1.095535	7.37082e+06	-47589.1	1005.82	-29765.4	0.000000	0.000000	7.095192	0.011347	NaN	0.000000	0.001619	0.001726	28.0801	0.098157	0.001995	49.1991	98.5177	-159.757	-0.044992	1.094238	-0.023177	-0.024474	0.011347	49.1991	-0.023350	-0.015289	-0.742118	NaN
590	2.000000	1.128588	7.37082e+06	-47589.1	1005.82	-29765.4	0.000000	0.000000	7.128873	15.2815	NaN	0.000000	0.001592	0.001722	28.0801	12.765	0.001668	7651.12	2.247410	10.283	14.6949	1.128199	0.009876	0.009487	15.2815	7651.12	0.008378	0.007434	2055.68	81076.2
590	2.000000	1.138978	7.37082e+06	-47589.1	1005.82	-29765.4	0.000000	0.000000	7.140186	37.7164	NaN	0.000000	0.001585	0.001722	28.0801	22.5975	0.001695	13335.8	3.716568	-176.669	36.446	1.138670	0.020266	0.019957	37.7164	13335.8	0.018145	0.019711	1913.48	86783.7
590	2.000000	1.149454	7.37082e+06	-47589.1	1005.82	-29765.4	0.000000	0.000000	7.151975	69.6884	NaN	0.000000	0.001582	0.001682	28.0802	32.1524	0.001598	20114.2	2.216718	1.397102	66.5007	1.149102	0.030741	0.030390	69.6884	20114.2	0.028143	0.036983	1884.36	95560.1
590	2.000000	1.159962	7.37082e+06	-47589.1	1005.82	-29765.4	0.000000	0.000000	7.164029	107.265	NaN	0.000000	0.001580	0.001697	28.0789	44.6876	0.001939	23046.6	6.699048	176.51	107.745	1.159659	0.041250	0.040947	107.265	23046.6	0.037760	0.058367	1837.78	87156.1
590	2.000000	1.170482	7.37082e+06	-47589.1	1005.82	-29765.4	0.000000	0.000000	7.176809	162.234	NaN	0.000000	0.001590	0.001725	28.0788	52.727	0.001753	30072.5	2.985009	-1.500584	162.478	1.170015	0.051770	0.051303	162.234	30072.5	0.047724	0.085508	1897.29	93959.1
590	2.000000	1.180920	7.37082e+06	-47589.1	1005.82	-29765.4	0.000000	0.000000	7.189368	213.832	NaN	0.000000	0.001557	0.001767	28.0789	63.0549	0.001812	34799	2.214187	176.998	211.36	1.180592	0.062208	0.061880	213.832	34799	0.057599	0.117340	1822.33	92814.7
590	2.000000	1.191406	7.37083e+06	-47589.1	1005.82	-29765.4	0.000000	0.000000	7.202958	289.324	NaN	0.000000	0.001622	0.001713	28.0802	73.4637	0.001798	40867.1	4.988246	-6.330809	286.428	1.190981	0.072694	0.072269	289.324	40867.1	0.067385	0.153612	1883.47	95265.4
590	2.000000	1.201980	7.37083e+06	-47589.1	1005.82	-29765.4	0.000000	0.000000	7.216173	353.575	NaN	0.000000	0.001592	0.001693	28.08	83.5829	0.001713	48790.3	7.852088	168.494	358.76	1.201585	0.083268	0.082872	353.575	48790.3	0.077833	0.197402	1791.14	100330
590	2.000000	1.212333	7.37083e+06	-47589.1	1005.82	-29765.4	0.000000	0.000000	7.229961	437.116	NaN	0.000000	0.001592	0.001720	28.0799	92.6139	0.001806	51283.5	4.273233	-8.512069	433.909	1.212098	0.093621	0.093386	437.116	51283.5	0.087229	0.241148	1812.65	95413.4
590	2.000000	1.222848	7.37083e+06	-47589.1	1005.82	-29765.4	0.000000	0.000000	7.243739	516.48	NaN	0.000000	0.001527	0.001698	28.0786	102.541	0.001821	56322.5	8.199230	166.788	513.816	1.222583	0.104136	0.103871	516.48	56322.5	0.097258	0.292330	1766.77	95174
590	2.000000	1.223811	7.37083e+06	-47589.1	1005.82	-29765.4	0.000000	0.000000	7.245531	536.639	NaN	0.000000	0.001583	0.001702	28.0785	102.033	0.001776	57460.3	5.046541	170.693	531.508	1.223385	0.105099	0.104673	536.639	57460.3	0.098095	0.296804	1808.06	96362.1