File: remote_trans/data/nanoindenter/0828-1/data/Data_2025-08-06,11h17m57s/2025-07-22_16-23-58_1_464.txt
2025-07-22, 16:23:58, 1
Index	Phase	Displacement	Time	Pos X	Pos Y	Pos Z	Rot A	Rot B	Piezo Z	Force A	Force B	Gripper	Voltage A	Voltage B	Temperature	Amplitude force	Amplitude pos	Stiffness	Phase shift	Phase excitation	Force A raw	Displacement raw	HMax	HMax raw	Real Force	Real Stiffness	Contact Depth	Area	Hardness	Reduced Mod.
[#]	[#]	[um]	[s]	[um]	[um]	[um]	[m°]	[m°]	[um]	[uN]	[uN]	[V]	[V]	[V]	[°C]	[uN]	[um]	[N/m]	[°]	[°]	[uN]	[um]	[um]	[um]	[uN]	[N/m]	[um]	[um^2]	[MPa]	[MPa]
464	1.000000	0.003024	7.3696e+06	-53889.1	1005.82	-29745.1	0.000000	0.000000	6.002801	-0.053410	NaN	0.000000	0.001653	0.001816	28.0803	0.085819	0.001006	85.3464	134.093	-161.857	-0.055843	0.001768	-1.075273	-1.076530	-0.053410	85.3464	-1.074804	-2.299995E+14	2.322165E-16	NaN
464	1.000000	0.042973	7.3696e+06	-53889.1	1005.82	-29745.1	0.000000	0.000000	6.042753	-0.002280	NaN	0.000000	0.001659	0.001822	28.0804	0.118727	0.001947	60.9798	96.0973	-165.219	-0.027928	0.041661	-1.035324	-1.036636	-0.002280	60.9798	-1.035296	-6.771900E+13	3.367003E-17	NaN
464	1.000000	0.082996	7.3696e+06	-53889.1	1005.82	-29745.1	0.000000	0.000000	6.082770	-0.120093	NaN	0.000000	0.001645	0.001840	28.0804	0.121698	0.002147	56.6773	-67.0438	-164.837	-0.055062	0.081684	-0.995302	-0.996613	-0.120093	56.6773	-0.993713	-1.866859E+13	6.432907E-15	NaN
464	1.000000	0.122991	7.3696e+06	-53889.1	1005.82	-29745.1	0.000000	0.000000	6.122769	-0.031634	NaN	0.000000	0.001627	0.001840	28.0795	0.063210	0.002139	29.5505	-111.039	-166.957	-0.071588	0.121637	-0.955307	-0.956661	-0.031634	29.5505	-0.954504	-5.530485E+12	5.719986E-15	NaN
464	1.000000	0.163007	7.3696e+06	-53889.1	1005.82	-29745.1	0.000000	0.000000	6.162784	-0.057275	NaN	0.000000	0.001615	0.001835	28.0791	0.111628	0.001970	56.654	-147.861	-166.495	-0.051391	0.161699	-0.915291	-0.916599	-0.057275	56.654	-0.914533	-1.597271E+12	3.585779E-14	NaN
464	1.000000	0.203023	7.3696e+06	-53889.1	1005.82	-29745.1	0.000000	0.000000	6.202800	-0.054801	NaN	0.000000	0.001670	0.001762	28.0792	0.033188	0.001960	16.9306	-34.5111	-163.786	-0.079771	0.201767	-0.875275	-0.876531	-0.054801	16.9306	-0.872847	-4.364756E+11	1.255534E-13	NaN
464	1.000000	0.243039	7.3696e+06	-53889.1	1005.82	-29745.1	0.000000	0.000000	6.242816	-0.065047	NaN	0.000000	0.001711	0.001779	28.0803	0.057496	0.001995	28.8141	-146.349	-166.521	0.010126	0.241724	-0.835258	-0.836574	-0.065047	28.8141	-0.833565	-1.282633E+11	5.071334E-13	NaN
464	1.000000	0.283064	7.3696e+06	-53889.1	1005.82	-29745.1	0.000000	0.000000	6.282841	-0.071996	NaN	0.000000	0.001736	0.001703	28.0804	0.022729	0.002095	10.8491	25.7584	-166.917	-0.113415	0.281826	-0.795233	-0.796472	-0.071996	10.8491	-0.790256	-3.315608E+10	2.171425E-12	NaN
464	1.000000	0.323103	7.3696e+06	-53889.1	1005.82	-29745.1	0.000000	0.000000	6.322881	-0.033720	NaN	0.000000	0.001621	0.001775	28.081	0.089842	0.001975	45.4907	-176.557	-165.548	-0.053557	0.321752	-0.755195	-0.756546	-0.033720	45.4907	-0.754639	-1.087310E+10	3.101236E-12	NaN
464	1.000000	0.363063	7.3696e+06	-53889.1	1005.82	-29745.1	0.000000	0.000000	6.362839	-0.078855	NaN	0.000000	0.001680	0.001809	28.0808	0.057384	0.002051	27.9844	29.3288	-167.754	-0.023696	0.361842	-0.715235	-0.716455	-0.078855	27.9844	-0.713121	-2.955556E+9	2.668033E-11	NaN
464	1.000000	0.403138	7.3696e+06	-53889.1	1005.82	-29745.1	0.000000	0.000000	6.402918	0.004777	NaN	0.000000	0.001640	0.001739	28.0793	0.103593	0.001988	52.1033	-101.502	-166.117	-0.022741	0.401834	-0.675159	-0.676464	0.004777	52.1033	-0.675228	-8.972846E+8	-5.324067E-12	NaN
464	1.000000	0.443119	7.3696e+06	-53889.1	1005.82	-29745.1	0.000000	0.000000	6.442896	-0.059067	NaN	0.000000	0.001675	0.001740	28.0794	0.071487	0.002011	35.5483	-143.564	-167.44	-0.157725	0.441854	-0.635179	-0.636443	-0.059067	35.5483	-0.633933	-2.437926E+8	2.422834E-10	NaN
464	1.000000	0.483158	7.3696e+06	-53889.1	1005.82	-29745.1	0.000000	0.000000	6.482935	-0.056727	NaN	0.000000	0.001660	0.001709	28.0794	0.049985	0.002091	23.9056	149.224	-170.769	-0.022154	0.481813	-0.595139	-0.596485	-0.056727	23.9056	-0.593359	-6.744879E+7	8.410399E-10	NaN
464	1.000000	0.523174	7.3696e+06	-53889.1	1005.82	-29745.1	0.000000	0.000000	6.522949	-0.104921	NaN	0.000000	0.001651	0.001721	28.0807	0.048874	0.001781	27.4367	149.512	-170.1	-0.101916	0.521802	-0.555123	-0.556495	-0.104921	27.4367	-0.552255	-1.824691E+7	5.750085E-9	NaN
464	1.000000	0.563187	7.3696e+06	-53889.1	1005.82	-29745.1	0.000000	0.000000	6.562962	-0.110070	NaN	0.000000	0.001659	0.001716	28.0806	0.091141	0.001992	45.7639	-106.288	-167.357	-0.102506	0.561896	-0.515111	-0.516402	-0.110070	45.7639	-0.513307	-5.25369e+06	2.095094E-8	NaN
464	1.000000	0.603225	7.3696e+06	-53889.1	1005.82	-29745.1	0.000000	0.000000	6.603001	-0.072060	NaN	0.000000	0.001678	0.001672	28.0807	0.025570	0.002048	12.4848	153.574	-165.667	-0.146428	0.601881	-0.475073	-0.476417	-0.072060	12.4848	-0.470744	-1.33611e+06	5.393268E-8	NaN
464	1.000000	0.643196	7.3696e+06	-53889.1	1005.82	-29745.1	0.000000	0.000000	6.642974	-0.021982	NaN	0.000000	0.001678	0.001713	28.0806	0.047560	0.001927	24.681	24.4161	-164.818	-0.047903	0.641935	-0.435102	-0.436362	-0.021982	24.681	-0.434434	-411863	5.337237E-8	NaN
464	1.000000	0.683246	7.3696e+06	-53889.1	1005.82	-29745.1	0.000000	0.000000	6.683022	-0.070960	NaN	0.000000	0.001688	0.001704	28.0797	0.185437	0.001933	95.9243	110.159	-166.187	-0.057147	0.681926	-0.395052	-0.396371	-0.070960	95.9243	-0.394497	-111546	6.361491E-7	NaN
464	1.000000	0.723245	7.3696e+06	-53889.1	1005.82	-29745.1	0.000000	0.000000	6.723022	-0.051028	NaN	0.000000	0.001720	0.001696	28.0795	0.073056	0.001825	40.0267	-122.529	-165.152	-0.114833	0.721933	-0.355052	-0.356364	-0.051028	40.0267	-0.354096	-29268.7	1.743443E-6	NaN
464	1.000000	0.763282	7.3696e+06	-53889.1	1005.82	-29745.1	0.000000	0.000000	6.763058	-0.095208	NaN	0.000000	0.001680	0.001743	28.0794	0.030663	0.002095	14.6352	-116.507	-165.751	-0.043994	0.761914	-0.315015	-0.316384	-0.095208	14.6352	-0.310136	-6653.81	1.430874E-5	NaN
464	1.000000	0.803280	7.3696e+06	-53889.1	1005.82	-29745.1	0.000000	0.000000	6.803057	-0.062869	NaN	0.000000	0.001645	0.001733	28.0805	0.074864	0.001911	39.1745	179.795	-163.709	-0.063145	0.801980	-0.275017	-0.276318	-0.062869	39.1745	-0.273813	-1902.94	3.303800E-5	NaN
464	1.000000	0.843293	7.3696e+06	-53889.1	1005.82	-29745.1	0.000000	0.000000	6.843069	-0.074861	NaN	0.000000	0.001670	0.001754	28.0808	0.051912	0.001955	26.5571	-104.493	-164.936	-0.023772	0.841954	-0.235004	-0.236344	-0.074861	26.5571	-0.232890	-444.713	0.000168	NaN
464	1.000000	0.883293	7.3696e+06	-53889.1	1005.82	-29745.1	0.000000	0.000000	6.883070	-0.050297	NaN	0.000000	0.001746	0.001721	28.0805	0.041831	0.002071	20.1938	-161.566	-168.412	-0.026271	0.881997	-0.195005	-0.196300	-0.050297	20.1938	-0.193137	-101.459	0.000496	NaN
464	1.000000	0.923329	7.3696e+06	-53889.1	1005.82	-29745.1	0.000000	0.000000	6.923106	-0.075807	NaN	0.000000	0.001680	0.001725	28.0792	0.042039	0.001804	23.3022	-151.178	-163.087	-0.107216	0.922041	-0.154968	-0.156257	-0.075807	23.3022	-0.152528	-20.1351	0.003765	NaN
464	1.000000	0.963367	7.3696e+06	-53889.1	1005.82	-29745.1	0.000000	0.000000	6.963142	-0.097851	NaN	0.000000	0.001644	0.001755	28.0793	0.099309	0.002115	46.9616	-124.729	-168.927	-0.015313	0.962037	-0.114931	-0.116261	-0.097851	46.9616	-0.113368	-3.534643	0.027684	NaN
464	1.000000	1.003369	7.3696e+06	-53889.1	1005.82	-29745.1	0.000000	0.000000	7.003146	-0.066474	NaN	0.000000	0.001698	0.001748	28.0792	0.048636	0.001974	24.6359	-90.5777	-162.953	-0.083742	1.002056	-0.074929	-0.076241	-0.066474	24.6359	-0.072905	-0.407308	0.163203	NaN
464	1.000000	1.043381	7.3696e+06	-53889.1	1005.82	-29745.1	0.000000	0.000000	7.043156	-0.094775	NaN	0.000000	0.001657	0.001689	28.0794	0.042334	0.002022	20.939	-146.544	-169.228	-0.164230	1.042099	-0.034917	-0.036199	-0.094775	20.939	-0.031522	-0.025398	3.731641	NaN
464	1.000000	1.083272	7.3696e+06	-53889.1	1005.82	-29745.1	0.000000	0.000000	7.083415	8.839081	NaN	0.000000	0.001650	0.001704	28.0809	8.268136	0.001665	4965.9	9.615804	-173.934	6.843336	1.082052	0.004975	0.003755	8.839081	4965.9	0.003640	0.002926	3021.16	83879.3
464	2.000000	1.093865	7.3696e+06	-53889.1	1005.82	-29745.1	0.000000	0.000000	7.094743	26.7012	NaN	0.000000	0.001611	0.001689	28.0808	20.3933	0.001785	11425.9	5.751848	-177.811	25.887	1.093577	0.015568	0.015279	26.7012	11425.9	0.013815	0.013738	1943.64	89064.5
464	2.000000	1.103830	7.3696e+06	-53889.1	1005.82	-29745.1	0.000000	0.000000	7.105699	50.8045	NaN	0.000000	0.001620	0.001715	28.0805	31.309	0.001893	16537.1	12.3419	172.066	51.2424	1.103545	0.025532	0.025247	50.8045	16537.1	0.023228	0.027871	1822.85	90501.8
464	2.000000	1.113784	7.3696e+06	-53889.1	1005.82	-29745.1	0.000000	0.000000	7.117029	84.2584	NaN	0.000000	0.001622	0.001714	28.0796	39.4906	0.001785	22123.2	0.487882	-179.05	82.1228	1.113497	0.035486	0.035200	84.2584	22123.2	0.032630	0.046371	1817.03	93863.4
464	2.000000	1.123789	7.3696e+06	-53889.1	1005.82	-29745.1	0.000000	0.000000	7.128650	123.546	NaN	0.000000	0.001663	0.001723	28.0794	50.126	0.001866	26864.7	3.428303	176.971	121.304	1.123512	0.045491	0.045214	123.546	26864.7	0.042042	0.069413	1779.87	93161.2
464	2.000000	1.133810	7.3696e+06	-53889.1	1005.82	-29745.1	0.000000	0.000000	7.140379	165.06	NaN	0.000000	0.001638	0.001732	28.0795	58.9341	0.001819	32400.4	5.434347	173.145	167.501	1.133481	0.055512	0.055184	165.06	32400.4	0.051692	0.097714	1689.22	94699.2
464	2.000000	1.143889	7.3696e+06	-53889.1	1005.82	-29745.1	0.000000	0.000000	7.152550	215.93	NaN	0.000000	0.001662	0.001704	28.0796	69.1908	0.001838	37636.1	6.927873	170.463	220.077	1.143548	0.065591	0.065251	215.93	37636.1	0.061288	0.130468	1655.04	95197.7
464	2.000000	1.153830	7.3696e+06	-53889.1	1005.82	-29745.1	0.000000	0.000000	7.165160	280.821	NaN	0.000000	0.001674	0.001701	28.0808	79.6756	0.001849	43081.8	8.658572	168.329	283.047	1.153499	0.075532	0.075201	280.821	43081.8	0.070643	0.166715	1684.44	96400.5
464	2.000000	1.163747	7.3696e+06	-53889.1	1005.82	-29745.1	0.000000	0.000000	7.178106	354.435	NaN	0.000000	0.001654	0.001682	28.0808	85.4663	0.001774	48184.2	1.648006	174.286	353.412	1.163378	0.085450	0.085080	354.435	48184.2	0.079933	0.206825	1713.7	96800.2
464	2.000000	1.173675	7.3696e+06	-53889.1	1005.82	-29745.1	0.000000	0.000000	7.190927	424.81	NaN	0.000000	0.001660	0.001713	28.0826	96.6774	0.001788	54062.4	4.005091	171.297	418.896	1.173397	0.095377	0.095099	424.81	54062.4	0.089484	0.252254	1684.05	98344.4
464	2.000000	1.182597	7.3696e+06	-53889.1	1005.82	-29745.1	0.000000	0.000000	7.202842	497.548	NaN	0.000000	0.001640	0.001696	28.0799	106.013	0.001867	56784.2	7.168767	167.686	491.34	1.182282	0.104300	0.103985	497.548	56784.2	0.097728	0.294839	1687.53	95545