File: remote_trans/data/nanoindenter/0828-1/data/Data_2025-08-06,11h17m57s/2025-07-22_16-23-58_1_360.txt
2025-07-22, 16:23:58, 1
Index	Phase	Displacement	Time	Pos X	Pos Y	Pos Z	Rot A	Rot B	Piezo Z	Force A	Force B	Gripper	Voltage A	Voltage B	Temperature	Amplitude force	Amplitude pos	Stiffness	Phase shift	Phase excitation	Force A raw	Displacement raw	HMax	HMax raw	Real Force	Real Stiffness	Contact Depth	Area	Hardness	Reduced Mod.
[#]	[#]	[um]	[s]	[um]	[um]	[um]	[m°]	[m°]	[um]	[uN]	[uN]	[V]	[V]	[V]	[°C]	[uN]	[um]	[N/m]	[°]	[°]	[uN]	[um]	[um]	[um]	[uN]	[N/m]	[um]	[um^2]	[MPa]	[MPa]
360	1.000000	0.003053	7.36858e+06	-56639.1	955.819	-29738.8	0.000000	0.000000	6.002811	0.020970	NaN	0.000000	0.001607	0.001764	28.082	0.022071	0.001001	22.0486	0.533923	-161.1	-0.044256	0.001798	-1.026244	-1.027499	0.020970	22.0486	-1.026957	-5.230570E+13	-4.009120E-16	NaN
360	1.000000	0.043010	7.36858e+06	-56639.1	955.818	-29738.8	0.000000	0.000000	6.042766	-0.017333	NaN	0.000000	0.001593	0.001722	28.0824	0.076166	0.001936	39.3475	-146.912	-161.904	-0.054384	0.041636	-0.986287	-0.987661	-0.017333	39.3475	-0.985957	-1.467759E+13	1.180939E-15	NaN
360	1.000000	0.082982	7.36858e+06	-56639.1	955.819	-29738.8	0.000000	0.000000	6.082738	-0.015022	NaN	0.000000	0.001571	0.001696	28.0809	0.059509	0.001996	29.8162	-174.013	-167.837	-0.009023	0.081696	-0.946315	-0.947601	-0.015022	29.8162	-0.945937	-4.238703E+12	3.543914E-15	NaN
360	1.000000	0.123024	7.36858e+06	-56639.1	955.818	-29738.8	0.000000	0.000000	6.122781	-0.002448	NaN	0.000000	0.001490	0.001718	28.0809	0.077108	0.001990	38.7534	81.1544	-166.799	-0.023143	0.121698	-0.906273	-0.907598	-0.002448	38.7534	-0.906226	-1.233612E+12	1.984618E-15	NaN
360	1.000000	0.163025	7.36858e+06	-56639.1	955.818	-29738.8	0.000000	0.000000	6.162783	0.006161	NaN	0.000000	0.001570	0.001768	28.0807	0.081504	0.001858	43.8708	163.808	-166.909	0.000735	0.161714	-0.866271	-0.867583	0.006161	43.8708	-0.866377	-3.567958E+11	-1.726860E-14	NaN
360	1.000000	0.203071	7.36858e+06	-56639.1	955.818	-29738.8	0.000000	0.000000	6.202826	-0.043664	NaN	0.000000	0.001525	0.001729	28.0809	0.124451	0.002074	59.9932	-178.649	-167.004	0.019405	0.201759	-0.826226	-0.827538	-0.043664	59.9932	-0.825680	-1.002837E+11	4.354096E-13	NaN
360	1.000000	0.243048	7.36858e+06	-56639.1	955.819	-29738.8	0.000000	0.000000	6.242807	0.056621	NaN	0.000000	0.001527	0.001736	28.0821	0.128266	0.002102	61.021	78.4168	-167.422	-0.002584	0.241788	-0.786249	-0.787508	0.056621	61.021	-0.786945	-2.989433E+10	-1.894034E-12	NaN
360	1.000000	0.283094	7.36858e+06	-56639.1	955.818	-29738.8	0.000000	0.000000	6.282850	-0.018483	NaN	0.000000	0.001513	0.001733	28.0821	0.022426	0.001937	11.5774	-167.85	-166.948	-0.013544	0.281760	-0.746203	-0.747536	-0.018483	11.5774	-0.745006	-8.039439E+9	2.299086E-12	NaN
360	1.000000	0.323112	7.36858e+06	-56639.1	955.818	-29738.8	0.000000	0.000000	6.322866	-0.066619	NaN	0.000000	0.001519	0.001748	28.0826	0.068729	0.001982	34.684	87.858	-163.37	0.002640	0.321772	-0.706185	-0.707525	-0.066619	34.684	-0.704745	-2.271509E+9	2.932795E-11	NaN
360	1.000000	0.363103	7.36858e+06	-56639.1	955.818	-29738.8	0.000000	0.000000	6.362858	-0.034678	NaN	0.000000	0.001529	0.001713	28.0806	0.110855	0.002006	55.2637	-75.8349	-167.093	-0.041619	0.361800	-0.666194	-0.667496	-0.034678	55.2637	-0.665723	-6.650391E+8	5.214416E-11	NaN
360	1.000000	0.403143	7.36858e+06	-56639.1	955.819	-29738.8	0.000000	0.000000	6.402899	-0.017750	NaN	0.000000	0.001512	0.001735	28.0808	0.108755	0.002030	53.5685	-18.1144	-166.565	-0.054481	0.401832	-0.626154	-0.627465	-0.017750	53.5685	-0.625905	-1.891381E+8	9.384769E-11	NaN
360	1.000000	0.443147	7.36858e+06	-56639.1	955.817	-29738.8	0.000000	0.000000	6.442902	-0.043451	NaN	0.000000	0.001548	0.001737	28.081	0.116512	0.001982	58.7777	89.3118	-165.261	0.030850	0.441884	-0.586150	-0.587413	-0.043451	58.7777	-0.585595	-5.271386E+7	8.242726E-10	NaN
360	1.000000	0.483172	7.36858e+06	-56639.1	955.818	-29738.8	0.000000	0.000000	6.482931	0.037586	NaN	0.000000	0.001608	0.001751	28.0808	0.099134	0.002119	46.7912	-2.144179	-165.065	0.010329	0.481853	-0.546124	-0.547444	0.037586	46.7912	-0.546727	-1.529719E+7	-2.457057E-9	NaN
360	1.000000	0.523219	7.36858e+06	-56639.1	955.818	-29738.8	0.000000	0.000000	6.522973	-0.078123	NaN	0.000000	0.001521	0.001769	28.0818	0.096082	0.001877	51.2001	-52.5851	-166.269	-0.021037	0.521890	-0.506078	-0.507407	-0.078123	51.2001	-0.504934	-4.01625e+06	1.945159E-8	NaN
360	1.000000	0.563218	7.36858e+06	-56639.1	955.818	-29738.8	0.000000	0.000000	6.562978	0.061651	NaN	0.000000	0.001520	0.001708	28.0819	0.037658	0.001938	19.4273	-131.72	-169.036	0.042906	0.561907	-0.466078	-0.467389	0.061651	19.4273	-0.468458	-1.24103e+06	-4.967689E-8	NaN
360	1.000000	0.603195	7.36858e+06	-56639.1	955.818	-29738.8	0.000000	0.000000	6.602955	0.056942	NaN	0.000000	0.001536	0.001733	28.0823	0.073540	0.001936	37.9814	146.867	-166.302	0.002864	0.602012	-0.426101	-0.427285	0.056942	37.9814	-0.427226	-325688	-1.748362E-7	NaN
360	1.000000	0.643239	7.36858e+06	-56639.1	955.818	-29738.8	0.000000	0.000000	6.642994	-0.043533	NaN	0.000000	0.001504	0.001687	28.081	0.028500	0.002081	13.6963	-35.5898	-163.889	-0.024920	0.641955	-0.386058	-0.387342	-0.043533	13.6963	-0.383674	-78087.8	5.574839E-7	NaN
360	1.000000	0.683261	7.36858e+06	-56639.1	955.819	-29738.8	0.000000	0.000000	6.683017	-0.024796	NaN	0.000000	0.001538	0.001714	28.0813	0.047617	0.002089	22.7908	-89.3265	-162.431	-0.014127	0.681953	-0.346036	-0.347344	-0.024796	22.7908	-0.345220	-21755	1.139765E-6	NaN
360	1.000000	0.723250	7.36858e+06	-56639.1	955.819	-29738.8	0.000000	0.000000	6.723005	-0.047948	NaN	0.000000	0.001525	0.001735	28.081	0.072629	0.001957	37.1152	-79.6689	-163.968	-0.056103	0.721945	-0.306047	-0.307352	-0.047948	37.1152	-0.305078	-5599.06	8.563592E-6	NaN
360	1.000000	0.763315	7.36858e+06	-56639.1	955.819	-29738.8	0.000000	0.000000	6.763072	0.004901	NaN	0.000000	0.001510	0.001730	28.0811	0.078865	0.001985	39.7266	75.6691	-166.666	0.033455	0.762034	-0.265982	-0.267263	0.004901	39.7266	-0.266074	-1451.37	-3.376798E-6	NaN
360	1.000000	0.803292	7.36858e+06	-56639.1	955.818	-29738.8	0.000000	0.000000	6.803050	0.033098	NaN	0.000000	0.001532	0.001740	28.0822	0.075906	0.002034	37.3131	64.8473	-167.413	0.043116	0.801985	-0.226005	-0.227312	0.033098	37.3131	-0.226670	-354.682	-9.331602E-5	NaN
360	1.000000	0.843314	7.36858e+06	-56639.1	955.818	-29738.8	0.000000	0.000000	6.843070	-0.043334	NaN	0.000000	0.001530	0.001707	28.0822	0.018090	0.002014	8.981790	78.7058	-165.384	-0.072811	0.841973	-0.185982	-0.187323	-0.043334	8.981790	-0.182364	-66.9259	0.000647	NaN
360	1.000000	0.883351	7.36859e+06	-56639.1	955.819	-29738.8	0.000000	0.000000	6.883107	-0.013907	NaN	0.000000	0.001505	0.001720	28.082	0.050196	0.001935	25.9413	101.164	-168.828	-0.030041	0.882028	-0.145946	-0.147269	-0.013907	25.9413	-0.145544	-15.0045	0.000927	NaN
360	1.000000	0.923357	7.36859e+06	-56639.1	955.818	-29738.8	0.000000	0.000000	6.923112	-0.030037	NaN	0.000000	0.001562	0.001746	28.0811	0.027307	0.002002	13.6428	105.148	-164.326	-0.065235	0.922007	-0.105940	-0.107290	-0.030037	13.6428	-0.104289	-2.268749	0.013240	NaN
360	1.000000	0.963366	7.36859e+06	-56639.1	955.819	-29738.8	0.000000	0.000000	6.963122	-0.032521	NaN	0.000000	0.001599	0.001735	28.0813	0.089085	0.002052	43.4077	-88.1795	-165.708	0.000732	0.962072	-0.065931	-0.067225	-0.032521	43.4077	-0.065369	-0.255150	0.127461	NaN
360	1.000000	1.003372	7.36859e+06	-56639.1	955.819	-29738.8	0.000000	0.000000	7.003130	0.022886	NaN	0.000000	0.001549	0.001735	28.081	0.046279	0.002064	22.4234	122.353	-166.458	-0.005230	1.002089	-0.025925	-0.027208	0.022886	22.4234	-0.026691	-0.018696	-1.224134	NaN
360	2.000000	1.040994	7.36859e+06	-56639.1	955.819	-29738.8	0.000000	0.000000	7.041148	9.649429	NaN	0.000000	0.001511	0.001751	28.0824	10.3229	0.001618	6381.8	1.818475	-170.97	8.777112	1.040685	0.011697	0.011389	9.649429	6381.8	0.010563	0.009814	983.21	58855.7
360	2.000000	1.050946	7.36859e+06	-56639.1	955.819	-29738.8	0.000000	0.000000	7.051623	22.3662	NaN	0.000000	0.001517	0.001728	28.0826	20.8607	0.001908	10933.6	6.614299	-177.765	22.8143	1.050639	0.021649	0.021343	22.3662	10933.6	0.020115	0.022723	984.318	66268.5
360	2.000000	1.060898	7.36859e+06	-56639.1	955.818	-29738.8	0.000000	0.000000	7.062354	41.3001	NaN	0.000000	0.001526	0.001726	28.0827	29.6935	0.001857	15991.2	2.731981	-178.379	39.7415	1.060567	0.031601	0.031270	41.3001	15991.2	0.029664	0.040050	1031.21	73004.8
360	2.000000	1.070913	7.36859e+06	-56639.1	955.82	-29738.8	0.000000	0.000000	7.073476	68.1805	NaN	0.000000	0.001562	0.001739	28.0826	39.3266	0.001767	22256.9	3.905100	178.405	69.8295	1.070591	0.041617	0.041294	68.1805	22256.9	0.039319	0.062281	1094.73	81482.1
360	2.000000	1.080808	7.36859e+06	-56639.1	955.819	-29738.8	0.000000	0.000000	7.084975	107.204	NaN	0.000000	0.001601	0.001744	28.0816	49.2151	0.001752	28089.3	6.656334	173.38	104.503	1.080468	0.051511	0.051171	107.204	28089.3	0.048649	0.088282	1214.34	86373.1
360	2.000000	1.090881	7.36859e+06	-56639.1	955.819	-29738.8	0.000000	0.000000	7.096659	146.348	NaN	0.000000	0.001507	0.001743	28.0815	60.8564	0.001817	33490	4.273816	174.53	148.038	1.090558	0.061584	0.061261	146.348	33490	0.058307	0.119806	1221.54	88399.4
360	2.000000	1.100885	7.36859e+06	-56639.1	955.819	-29738.8	0.000000	0.000000	7.108898	200.657	NaN	0.000000	0.001544	0.001741	28.0816	70.5601	0.001818	38819.9	7.973508	169.197	201.87	1.100473	0.071588	0.071176	200.657	38819.9	0.067712	0.154904	1295.36	90114.7
360	2.000000	1.110851	7.36859e+06	-56639.1	955.819	-29738.8	0.000000	0.000000	7.121041	253.587	NaN	0.000000	0.001529	0.001726	28.0827	78.7725	0.001753	44925.9	3.237988	173.022	256.672	1.110475	0.081554	0.081178	253.587	44925.9	0.077320	0.195135	1299.55	92918.5
360	2.000000	1.120794	7.36859e+06	-56639.1	955.819	-29738.8	0.000000	0.000000	7.133803	322.103	NaN	0.000000	0.001563	0.001705	28.0824	87.4334	0.001822	47989.2	0.902961	174.8	321.738	1.120591	0.091497	0.091294	322.103	47989.2	0.086463	0.237430	1356.62	89980.8
360	2.000000	1.130819	7.36859e+06	-56639.1	955.819	-29738.8	0.000000	0.000000	7.147224	404.649	NaN	0.000000	0.001555	0.001723	28.0825	96.357	0.001734	55565	1.994813	172.75	405.011	1.130390	0.101522	0.101093	404.649	55565	0.096060	0.285974	1414.99	94931.8
360	2.000000	1.138788	7.36859e+06	-56639.1	955.819	-29738.8	0.000000	0.000000	7.157802	468.076	NaN	0.000000	0.001524	0.001701	28.0826	103.929	0.001733	59979.8	6.753673	167.714	467.211	1.138411	0.109491	0.109114	468.076	59979.8	0.103638	0.327272	1430.23	95790.8