File: remote_trans/data/nanoindenter/0828-1/data/Data_2025-08-06,11h17m57s/2025-07-22_16-23-58_1_467.txt
2025-07-22, 16:23:58, 1
Index	Phase	Displacement	Time	Pos X	Pos Y	Pos Z	Rot A	Rot B	Piezo Z	Force A	Force B	Gripper	Voltage A	Voltage B	Temperature	Amplitude force	Amplitude pos	Stiffness	Phase shift	Phase excitation	Force A raw	Displacement raw	HMax	HMax raw	Real Force	Real Stiffness	Contact Depth	Area	Hardness	Reduced Mod.
[#]	[#]	[um]	[s]	[um]	[um]	[um]	[m°]	[m°]	[um]	[uN]	[uN]	[V]	[V]	[V]	[°C]	[uN]	[um]	[N/m]	[°]	[°]	[uN]	[um]	[um]	[um]	[uN]	[N/m]	[um]	[um^2]	[MPa]	[MPa]
467	1.000000	0.002641	7.36962e+06	-53739.1	1005.82	-29745.5	0.000000	0.000000	6.002790	0.050613	NaN	0.000000	0.001603	0.001736	28.0829	0.080992	0.000982	82.4792	27.5811	-178.839	0.065667	0.001348	-1.110850	-1.112142	0.050613	82.4792	-1.111310	-7.110051E+14	-7.118515E-17	NaN
467	1.000000	0.044595	7.36962e+06	-53739.1	1005.82	-29745.5	0.000000	0.000000	6.044740	-0.056422	NaN	0.000000	0.001590	0.001690	28.0813	0.072678	0.001821	39.9219	154.579	14.1108	-0.015697	0.043243	-1.068896	-1.070247	-0.056422	39.9219	-1.067836	-1.854000E+14	3.043237E-16	NaN
467	1.000000	0.086631	7.36962e+06	-53739.1	1005.82	-29745.5	0.000000	0.000000	6.086779	0.013339	NaN	0.000000	0.001587	0.001707	28.0808	0.102684	0.001988	51.6568	-65.478	-165.695	0.033527	0.085303	-1.026860	-1.028188	0.013339	51.6568	-1.027053	-5.246161E+13	-2.542543E-16	NaN
467	1.000000	0.128587	7.36962e+06	-53739.1	1005.82	-29745.5	0.000000	0.000000	6.128734	0.004104	NaN	0.000000	0.001554	0.001712	28.0816	0.101050	0.001988	50.8281	141.775	14.53	-0.007825	0.127244	-0.984904	-0.986247	0.004104	50.8281	-0.984965	-1.423280E+13	-2.883627E-16	NaN
467	1.000000	0.170653	7.36963e+06	-53739.1	1005.82	-29745.5	0.000000	0.000000	6.170799	-0.034222	NaN	0.000000	0.001542	0.001735	28.0823	0.059002	0.001982	29.7749	90.8104	-164.195	-0.045392	0.169308	-0.942837	-0.944182	-0.034222	29.7749	-0.941975	-3.747883E+12	9.131070E-15	NaN
467	1.000000	0.212681	7.36963e+06	-53739.1	1005.82	-29745.5	0.000000	0.000000	6.212827	-0.025944	NaN	0.000000	0.001534	0.001717	28.0823	0.088204	0.002093	42.1431	-116.189	12.9616	-0.032321	0.211315	-0.900810	-0.902176	-0.025944	42.1431	-0.900348	-1.027468E+12	2.525002E-14	NaN
467	1.000000	0.254675	7.36963e+06	-53739.1	1005.82	-29745.5	0.000000	0.000000	6.254821	-0.042135	NaN	0.000000	0.001539	0.001719	28.0824	0.070439	0.002011	35.0183	134.175	-165.731	0.016611	0.253456	-0.858816	-0.860035	-0.042135	35.0183	-0.857913	-2.740776E+11	1.537321E-13	NaN
467	1.000000	0.296699	7.36963e+06	-53739.1	1005.82	-29745.5	0.000000	0.000000	6.296844	-0.062249	NaN	0.000000	0.001498	0.001717	28.0813	0.098492	0.001964	50.1507	-108.868	14.4163	-0.099712	0.295365	-0.816792	-0.818126	-0.062249	50.1507	-0.815861	-7.380295E+10	8.434423E-13	NaN
467	1.000000	0.338736	7.36963e+06	-53739.1	1005.82	-29745.5	0.000000	0.000000	6.338884	0.014000	NaN	0.000000	0.001492	0.001725	28.0811	0.075873	0.002151	35.2732	-163.566	-161.139	0.062386	0.337393	-0.774755	-0.776097	0.014000	35.2732	-0.775053	-2.060609E+10	-6.794319E-13	NaN
467	1.000000	0.380728	7.36963e+06	-53739.1	1005.82	-29745.5	0.000000	0.000000	6.380876	0.004497	NaN	0.000000	0.001511	0.001719	28.0811	0.037676	0.001976	19.0661	-22.0379	17.3566	0.011072	0.379432	-0.732762	-0.734059	0.004497	19.0661	-0.732939	-5.506359E+9	-8.167757E-13	NaN
467	1.000000	0.422758	7.36963e+06	-53739.1	1005.82	-29745.5	0.000000	0.000000	6.422905	-0.000767	NaN	0.000000	0.001543	0.001728	28.0816	0.035071	0.002103	16.678	-58.4987	-165.533	-0.012752	0.421429	-0.690733	-0.692062	-0.000767	16.678	-0.690698	-1.460368E+9	5.254590E-13	NaN
467	1.000000	0.464782	7.36963e+06	-53739.1	1005.82	-29745.5	0.000000	0.000000	6.464930	0.007885	NaN	0.000000	0.001520	0.001740	28.0826	0.064818	0.002052	31.5821	-108.677	15.4785	0.058091	0.463429	-0.648708	-0.650062	0.007885	31.5821	-0.648896	-3.911078E+8	-2.016000E-11	NaN
467	1.000000	0.506779	7.36963e+06	-53739.1	1005.82	-29745.5	0.000000	0.000000	6.506926	-0.009422	NaN	0.000000	0.001519	0.001730	28.0826	0.145934	0.001960	74.449	174.98	-163.407	0.018110	0.505476	-0.606711	-0.608014	-0.009422	74.449	-0.606616	-1.026959E+8	9.174815E-11	NaN
467	1.000000	0.548824	7.36963e+06	-53739.1	1005.82	-29745.5	0.000000	0.000000	6.548971	0.004775	NaN	0.000000	0.001542	0.001696	28.0825	0.109022	0.001901	57.3382	152.16	18.6988	0.000880	0.547481	-0.564667	-0.566010	0.004775	57.3382	-0.564729	-2.715098E+7	-1.758511E-10	NaN
467	1.000000	0.590836	7.36963e+06	-53739.1	1005.82	-29745.5	0.000000	0.000000	6.590983	-0.003098	NaN	0.000000	0.001503	0.001728	28.0812	0.111853	0.001848	60.5284	-72.6642	-168.208	0.022000	0.589486	-0.522654	-0.524005	-0.003098	60.5284	-0.522616	-7.07905e+06	4.376135E-10	NaN
467	1.000000	0.632867	7.36963e+06	-53739.1	1005.82	-29745.5	0.000000	0.000000	6.633014	-0.012244	NaN	0.000000	0.001545	0.001719	28.0815	0.006509	0.001977	3.292354	-55.1579	14.5474	-0.033522	0.631493	-0.480624	-0.481998	-0.012244	3.292354	-0.477835	-1.67961e+06	7.289997E-9	NaN
467	1.000000	0.674840	7.36963e+06	-53739.1	1005.82	-29745.5	0.000000	0.000000	6.674986	-0.035499	NaN	0.000000	0.001557	0.001726	28.0811	0.083989	0.002171	38.6853	-87.8115	-169.549	-0.004147	0.673558	-0.438651	-0.439933	-0.035499	38.6853	-0.437962	-461953	7.684600E-8	NaN
467	1.000000	0.716886	7.36963e+06	-53739.1	1005.82	-29745.5	0.000000	0.000000	6.717035	0.035332	NaN	0.000000	0.001545	0.001723	28.0826	0.088330	0.002005	44.0626	-13.6354	11.7971	0.085118	0.715498	-0.396604	-0.397993	0.035332	44.0626	-0.397206	-121935	-2.897645E-7	NaN
467	1.000000	0.758906	7.36963e+06	-53739.1	1005.82	-29745.5	0.000000	0.000000	6.759050	-0.095375	NaN	0.000000	0.001554	0.001717	28.0824	0.050283	0.001951	25.7668	121.999	-165.004	-0.113684	0.757626	-0.354584	-0.355865	-0.095375	25.7668	-0.351808	-27116.8	3.517205E-6	NaN
467	1.000000	0.800893	7.36963e+06	-53739.1	1005.82	-29745.5	0.000000	0.000000	6.801037	-0.081253	NaN	0.000000	0.001582	0.001693	28.082	0.033133	0.001964	16.871	171.401	15.6219	-0.017616	0.799570	-0.312598	-0.313921	-0.081253	16.871	-0.308986	-6397.95	1.269990E-5	NaN
467	1.000000	0.842931	7.36963e+06	-53739.1	1005.82	-29745.5	0.000000	0.000000	6.843077	-0.034185	NaN	0.000000	0.001555	0.001747	28.0811	0.162392	0.002075	78.2524	-121.061	-165.289	-0.034238	0.841633	-0.270560	-0.271858	-0.034185	78.2524	-0.270232	-1679.07	2.035955E-5	NaN
467	1.000000	0.884958	7.36963e+06	-53739.1	1005.82	-29745.5	0.000000	0.000000	6.885105	0.004286	NaN	0.000000	0.001590	0.001693	28.0813	0.122245	0.002171	56.3155	-67.9688	17.4131	0.016876	0.883624	-0.228533	-0.229867	0.004286	56.3155	-0.228590	-380.397	-1.126623E-5	NaN
467	1.000000	0.926985	7.36963e+06	-53739.1	1005.82	-29745.5	0.000000	0.000000	6.927132	0.000743	NaN	0.000000	0.001540	0.001735	28.0814	0.105094	0.001953	53.8036	-161.359	-161.854	-0.073250	0.925616	-0.186506	-0.187875	0.000743	53.8036	-0.186516	-78.6417	-9.445193E-6	NaN
467	1.000000	0.968999	7.36963e+06	-53739.1	1005.82	-29745.5	0.000000	0.000000	6.969145	-0.043555	NaN	0.000000	0.001589	0.001701	28.0817	0.059130	0.002105	28.0945	-1.284715	13.1763	-0.043250	0.967638	-0.144491	-0.145853	-0.043555	28.0945	-0.143329	-13.6512	0.003191	NaN
467	1.000000	1.011032	7.36963e+06	-53739.1	1005.82	-29745.5	0.000000	0.000000	7.011178	-0.029414	NaN	0.000000	0.001556	0.001691	28.0832	0.062686	0.001891	33.1537	97.3801	-165.329	-0.048678	1.009665	-0.102458	-0.103825	-0.029414	33.1537	-0.101793	-2.001392	0.014697	NaN
467	1.000000	1.053023	7.36963e+06	-53739.1	1005.82	-29745.5	0.000000	0.000000	7.053166	-0.114979	NaN	0.000000	0.001595	0.001737	28.0828	0.078007	0.001953	39.9393	171.983	16.7655	-0.084021	1.051689	-0.060467	-0.061802	-0.114979	39.9393	-0.058308	-0.160957	0.714348	NaN
467	1.000000	1.095042	7.36963e+06	-53739.1	1005.82	-29745.5	0.000000	0.000000	7.095191	0.035544	NaN	0.000000	0.001680	0.001775	28.0826	0.132235	0.001840	71.8592	-17.0907	-165.251	0.047639	1.093709	-0.018449	-0.019781	0.035544	71.8592	-0.018820	-0.011719	-3.032954	NaN
467	2.000000	1.122178	7.36963e+06	-53739.1	1005.82	-29745.5	0.000000	0.000000	7.122953	15.2397	NaN	0.000000	0.001640	0.001732	28.0815	14.5464	0.001744	8343.02	7.302874	6.164405	14.5336	1.121866	0.008688	0.008376	15.2397	8343.02	0.007318	0.006350	2399.95	95655.3
467	2.000000	1.132621	7.36963e+06	-53739.1	1005.82	-29745.5	0.000000	0.000000	7.134317	37.6639	NaN	0.000000	0.001603	0.001691	28.0815	24.921	0.001754	14210	3.238788	-176.375	36.7405	1.132324	0.019130	0.018834	37.6639	14210	0.017142	0.018249	2063.89	96105.2
467	2.000000	1.143116	7.36963e+06	-53739.1	1005.82	-29745.5	0.000000	0.000000	7.146081	68.4968	NaN	0.000000	0.001549	0.001729	28.0827	34.4363	0.001755	19625.2	4.541936	0.810091	67.9079	1.142748	0.029625	0.029257	68.4968	19625.2	0.027008	0.034770	1970.02	96158.6
467	2.000000	1.153576	7.36963e+06	-53739.1	1005.82	-29745.5	0.000000	0.000000	7.157830	99.8191	NaN	0.000000	0.001596	0.001746	28.0836	44.1993	0.001723	25656	2.803439	179.481	97.4973	1.153326	0.040086	0.039835	99.8191	25656	0.037168	0.056914	1753.86	98254.6
467	2.000000	1.164061	7.36963e+06	-53739.1	1005.82	-29745.5	0.000000	0.000000	7.170355	149.447	NaN	0.000000	0.001543	0.001739	28.0826	52.7609	0.001748	30179.7	1.733060	-0.127459	145.172	1.163746	0.050570	0.050255	149.447	30179.7	0.046856	0.082944	1801.77	95740.3
467	2.000000	1.174554	7.36963e+06	-53739.1	1005.82	-29745.5	0.000000	0.000000	7.183236	207.494	NaN	0.000000	0.001547	0.001688	28.0825	65.0067	0.001907	34085.7	4.226445	176.887	203.808	1.174191	0.061063	0.060700	207.494	34085.7	0.056498	0.113550	1827.33	92416.7
467	2.000000	1.185093	7.36963e+06	-53739.1	1005.82	-29745.5	0.000000	0.000000	7.196341	269.88	NaN	0.000000	0.001599	0.001771	28.0814	75.4167	0.001784	42284.9	5.088534	-6.719259	266.637	1.184671	0.071602	0.071181	269.88	42284.9	0.066816	0.151376	1782.85	99295.6
467	2.000000	1.195564	7.36963e+06	-53739.1	1005.81	-29745.5	0.000000	0.000000	7.209469	334.486	NaN	0.000000	0.001561	0.001716	28.0814	83.272	0.001789	46555.5	2.735007	174.859	333.467	1.195240	0.082073	0.081749	334.486	46555.5	0.076684	0.192338	1739.06	96986.8
467	2.000000	1.206053	7.36963e+06	-53739.1	1005.82	-29745.5	0.000000	0.000000	7.223322	416.251	NaN	0.000000	0.001568	0.001736	28.0817	92.2871	0.001789	51594.6	6.287512	-8.774845	413.775	1.205711	0.092563	0.092220	416.251	51594.6	0.086512	0.237667	1751.41	96692.6
467	2.000000	1.215463	7.36963e+06	-53739.1	1005.82	-29745.5	0.000000	0.000000	7.235055	472.754	NaN	0.000000	0.001562	0.001734	28.0814	101.276	0.001761	57497.7	3.065710	173.165	468.096	1.215362	0.101972	0.101871	472.754	57497.7	0.095805	0.284629	1660.95	98465.5