File: remote_trans/data/nanoindenter/0828-1/data/Data_2025-08-06,11h17m57s/2025-07-22_16-23-58_1_458.txt
2025-07-22, 16:23:58, 1
Index	Phase	Displacement	Time	Pos X	Pos Y	Pos Z	Rot A	Rot B	Piezo Z	Force A	Force B	Gripper	Voltage A	Voltage B	Temperature	Amplitude force	Amplitude pos	Stiffness	Phase shift	Phase excitation	Force A raw	Displacement raw	HMax	HMax raw	Real Force	Real Stiffness	Contact Depth	Area	Hardness	Reduced Mod.
[#]	[#]	[um]	[s]	[um]	[um]	[um]	[m°]	[m°]	[um]	[uN]	[uN]	[V]	[V]	[V]	[°C]	[uN]	[um]	[N/m]	[°]	[°]	[uN]	[um]	[um]	[um]	[uN]	[N/m]	[um]	[um^2]	[MPa]	[MPa]
458	1.000000	0.002606	7.36954e+06	-54189.1	1005.82	-29744.2	0.000000	0.000000	6.002808	-0.030439	NaN	0.000000	0.001608	0.001761	28.0806	0.045303	0.000971	46.6336	-78.1111	-165.434	-0.020127	0.001320	-1.132852	-1.134138	-0.030439	46.6336	-1.132362	-1.362416E+15	2.234206E-17	NaN
458	1.000000	0.044529	7.36954e+06	-54189.1	1005.82	-29744.2	0.000000	0.000000	6.044732	-0.020860	NaN	0.000000	0.001604	0.001737	28.0804	0.060072	0.001920	31.2919	139.702	13.3884	-0.082928	0.043177	-1.090928	-1.092280	-0.020860	31.2919	-1.090429	-3.728771E+14	5.594284E-17	NaN
458	1.000000	0.086567	7.36954e+06	-54189.1	1005.82	-29744.2	0.000000	0.000000	6.086769	-0.029315	NaN	0.000000	0.001564	0.001775	28.0794	0.057774	0.001964	29.4156	164.752	-163.097	0.074187	0.085252	-1.048890	-1.050206	-0.029315	29.4156	-1.048143	-1.007976E+14	2.908323E-16	NaN
458	1.000000	0.128572	7.36954e+06	-54189.1	1005.82	-29744.2	0.000000	0.000000	6.128774	-0.007262	NaN	0.000000	0.001621	0.001743	28.0795	0.050928	0.002079	24.5005	160.693	14.474	-0.046269	0.127260	-1.006886	-1.008198	-0.007262	24.5005	-1.006664	-2.789191E+13	2.603744E-16	NaN
458	1.000000	0.170587	7.36954e+06	-54189.1	1005.82	-29744.2	0.000000	0.000000	6.170790	-0.008025	NaN	0.000000	0.001587	0.001705	28.0793	0.081926	0.001977	41.4426	-129.921	-167.317	-0.061737	0.169259	-0.964870	-0.966199	-0.008025	41.4426	-0.964725	-7.595678E+12	1.056516E-15	NaN
458	1.000000	0.212596	7.36954e+06	-54189.1	1005.82	-29744.2	0.000000	0.000000	6.212800	0.038744	NaN	0.000000	0.001579	0.001744	28.0804	0.038458	0.002061	18.6632	95.7693	16.7168	0.045114	0.211273	-0.922862	-0.924185	0.038744	18.6632	-0.924419	-2.172027E+12	-1.783767E-14	NaN
458	1.000000	0.254624	7.36954e+06	-54189.1	1005.82	-29744.2	0.000000	0.000000	6.254824	-0.078446	NaN	0.000000	0.001598	0.001728	28.0802	0.029494	0.001929	15.2899	85.4869	-163.991	-0.073414	0.253357	-0.880833	-0.882101	-0.078446	15.2899	-0.876985	-4.965215E+11	1.579918E-13	NaN
458	1.000000	0.296644	7.36954e+06	-54189.1	1005.82	-29744.2	0.000000	0.000000	6.296846	-0.033733	NaN	0.000000	0.001582	0.001777	28.0805	0.036723	0.002008	18.2879	-75.4745	16.0337	-0.024959	0.295286	-0.838814	-0.840172	-0.033733	18.2879	-0.837430	-1.447037E+11	2.331157E-13	NaN
458	1.000000	0.338676	7.36954e+06	-54189.1	1005.82	-29744.2	0.000000	0.000000	6.338875	-0.101909	NaN	0.000000	0.001575	0.001716	28.0794	0.076482	0.001984	38.548	77.3703	-160.588	-0.061888	0.337324	-0.796782	-0.798134	-0.101909	38.548	-0.794799	-3.821661E+10	2.666610E-12	NaN
458	1.000000	0.380664	7.36954e+06	-54189.1	1005.82	-29744.2	0.000000	0.000000	6.380867	-0.001146	NaN	0.000000	0.001636	0.001752	28.0794	0.086146	0.002155	39.9676	-165.713	15.8735	-0.154139	0.379280	-0.754794	-0.756177	-0.001146	39.9676	-0.754773	-1.091888E+10	1.049373E-13	NaN
458	1.000000	0.422719	7.36954e+06	-54189.1	1005.82	-29744.2	0.000000	0.000000	6.422921	-0.013194	NaN	0.000000	0.001632	0.001743	28.0795	0.023417	0.001973	11.8701	173.493	-165.723	-0.030647	0.421401	-0.712739	-0.714056	-0.013194	11.8701	-0.711906	-2.844803E+9	4.637759E-12	NaN
458	1.000000	0.464712	7.36954e+06	-54189.1	1005.82	-29744.2	0.000000	0.000000	6.464915	0.003082	NaN	0.000000	0.001586	0.001734	28.0807	0.030355	0.002150	14.1185	76.8433	15.6199	-0.003354	0.463338	-0.670746	-0.672119	0.003082	14.1185	-0.670910	-7.831427E+8	-3.935203E-12	NaN
458	1.000000	0.506737	7.36954e+06	-54189.1	1005.82	-29744.2	0.000000	0.000000	6.506938	-0.056516	NaN	0.000000	0.001606	0.001744	28.0808	0.078752	0.001930	40.8057	-116.867	-165.409	-0.074006	0.505432	-0.628721	-0.630026	-0.056516	40.8057	-0.627682	-2.000718E+8	2.824779E-10	NaN
458	1.000000	0.548746	7.36954e+06	-54189.1	1005.82	-29744.2	0.000000	0.000000	6.548948	-0.028738	NaN	0.000000	0.001563	0.001711	28.0806	0.094739	0.002022	46.8467	173.603	16.6425	-0.067400	0.547362	-0.586712	-0.588096	-0.028738	46.8467	-0.586252	-5.382507E+7	5.339154E-10	NaN
458	1.000000	0.590781	7.36954e+06	-54189.1	1005.82	-29744.2	0.000000	0.000000	6.590983	-0.021766	NaN	0.000000	0.001614	0.001811	28.0805	0.064017	0.002014	31.7927	60.6969	-168.475	0.026067	0.589443	-0.544677	-0.546015	-0.021766	31.7927	-0.544163	-1.409558E+7	1.544174E-9	NaN
458	1.000000	0.632806	7.36954e+06	-54189.1	1005.82	-29744.2	0.000000	0.000000	6.633007	-0.060242	NaN	0.000000	0.001699	0.001749	28.0795	0.019168	0.002018	9.498289	-46.4003	20.6134	-0.085891	0.631435	-0.502651	-0.504023	-0.060242	9.498289	-0.497895	-3.20362e+06	1.880443E-8	NaN
458	1.000000	0.674831	7.36954e+06	-54189.1	1005.82	-29744.2	0.000000	0.000000	6.675033	-0.028418	NaN	0.000000	0.001665	0.001783	28.0796	0.082081	0.002006	40.9252	-48.5166	-164.69	0.101908	0.673540	-0.460627	-0.461917	-0.028418	40.9252	-0.460106	-947345	2.999718E-8	NaN
458	1.000000	0.716844	7.36954e+06	-54189.1	1005.82	-29744.2	0.000000	0.000000	6.717047	0.014809	NaN	0.000000	0.001678	0.001737	28.0795	0.026009	0.002021	12.8718	-35.9743	14.9546	0.019422	0.715446	-0.418614	-0.420012	0.014809	12.8718	-0.419477	-252929	-5.855054E-8	NaN
458	1.000000	0.758888	7.36954e+06	-54189.1	1005.82	-29744.2	0.000000	0.000000	6.759089	-0.051556	NaN	0.000000	0.001628	0.001748	28.0807	0.090051	0.001910	47.1412	-6.024539	-166.491	0.024863	0.757535	-0.376570	-0.377923	-0.051556	47.1412	-0.375750	-60096.2	8.578898E-7	NaN
458	1.000000	0.800873	7.36954e+06	-54189.1	1005.82	-29744.2	0.000000	0.000000	6.801075	-0.020556	NaN	0.000000	0.001660	0.001779	28.0808	0.057905	0.002105	27.5033	-57.0273	17.1999	-0.035099	0.799528	-0.334585	-0.335930	-0.020556	27.5033	-0.334024	-14939.4	1.375955E-6	NaN
458	1.000000	0.842885	7.36954e+06	-54189.1	1005.82	-29744.2	0.000000	0.000000	6.843086	-0.060294	NaN	0.000000	0.001596	0.001783	28.0808	0.078647	0.001948	40.3649	-46.5331	-166.112	0.028763	0.841570	-0.292573	-0.293888	-0.060294	40.3649	-0.291452	-3507.91	1.718792E-5	NaN
458	1.000000	0.884900	7.36954e+06	-54189.1	1005.82	-29744.2	0.000000	0.000000	6.885102	-0.039641	NaN	0.000000	0.001599	0.001745	28.0798	0.159079	0.001872	84.9678	-42.2063	11.9197	-0.016439	0.883536	-0.250558	-0.251922	-0.039641	84.9678	-0.250208	-828.286	4.785875E-5	NaN
458	1.000000	0.926933	7.36954e+06	-54189.1	1005.82	-29744.2	0.000000	0.000000	6.927138	0.066337	NaN	0.000000	0.001586	0.001790	28.0795	0.073191	0.001998	36.6377	96.8789	-165.378	0.026757	0.925627	-0.208525	-0.209831	0.066337	36.6377	-0.209883	-190.953	-0.000347	NaN
458	1.000000	0.968925	7.36954e+06	-54189.1	1005.82	-29744.2	0.000000	0.000000	6.969129	0.024417	NaN	0.000000	0.001505	0.001777	28.0797	0.016628	0.001998	8.321437	-164.709	13.1781	0.015306	0.967625	-0.166533	-0.167832	0.024417	8.321437	-0.168734	-39.0474	-0.000625	NaN
458	1.000000	1.010975	7.36954e+06	-54189.1	1005.82	-29744.2	0.000000	0.000000	7.011179	0.025159	NaN	0.000000	0.001536	0.001793	28.081	0.018841	0.002051	9.186438	-39.6969	-163.041	0.015937	1.009671	-0.124483	-0.125786	0.025159	9.186438	-0.126537	-6.521034	-0.003858	NaN
458	1.000000	1.052939	7.36954e+06	-54189.1	1005.82	-29744.2	0.000000	0.000000	7.053142	0.010757	NaN	0.000000	0.001545	0.001744	28.0809	0.097737	0.002047	47.7449	-121.275	17.9881	-0.089300	1.051616	-0.082519	-0.083841	0.010757	47.7449	-0.082688	-0.721610	-0.014907	NaN
458	1.000000	1.094978	7.36954e+06	-54189.1	1005.82	-29744.2	0.000000	0.000000	7.095180	-0.020684	NaN	0.000000	0.001573	0.001753	28.081	0.074169	0.002117	35.036	-132.379	-166.34	0.018013	1.093651	-0.040480	-0.041807	-0.020684	35.036	-0.040037	-0.045339	0.456211	NaN
458	1.000000	1.136955	7.36954e+06	-54189.1	1005.82	-29744.2	0.000000	0.000000	7.137203	1.076285	NaN	0.000000	0.001564	0.001737	28.0846	1.677976	0.001842	911.02	7.982764	11.4052	0.223279	1.135658	0.001497	0.000200	1.076285	911.02	0.000611	0.000462	2328.19	38712.1
458	2.000000	1.152539	7.36954e+06	-54189.1	1005.82	-29744.2	0.000000	0.000000	7.153799	25.6693	NaN	0.000000	0.001573	0.001760	28.0794	18.5368	0.001816	10207.9	8.805482	-177.732	24.7352	1.152203	0.017082	0.016745	25.6693	10207.9	0.015196	0.015547	1651.05	74796.7
458	2.000000	1.162949	7.36954e+06	-54189.1	1005.82	-29744.2	0.000000	0.000000	7.165140	48.3337	NaN	0.000000	0.001611	0.001773	28.0794	27.2783	0.001862	14647	4.663766	2.468980	46.1237	1.162572	0.027491	0.027115	48.3337	14647	0.025016	0.031045	1556.88	75949.3
458	2.000000	1.173455	7.36954e+06	-54189.1	1005.82	-29744.2	0.000000	0.000000	7.176968	80.4574	NaN	0.000000	0.001581	0.001795	28.0796	38.0215	0.001811	20991.2	4.748389	179.453	80.6752	1.173218	0.037998	0.037761	80.4574	20991.2	0.035123	0.052033	1546.29	84076.1
458	2.000000	1.183900	7.36954e+06	-54189.1	1005.82	-29744.2	0.000000	0.000000	7.189159	122.904	NaN	0.000000	0.001606	0.001804	28.0809	47.5118	0.001827	26001.6	5.189068	-2.843773	117.904	1.183517	0.048443	0.048059	122.904	26001.6	0.044898	0.077297	1590.02	85446
458	2.000000	1.194390	7.36954e+06	-54189.1	1005.82	-29744.2	0.000000	0.000000	7.201455	166.822	NaN	0.000000	0.001583	0.001786	28.0808	57.3392	0.001843	31109.8	6.227211	174.184	161.905	1.193969	0.058932	0.058511	166.822	31109.8	0.054910	0.108192	1541.91	86411.8
458	2.000000	1.204913	7.36954e+06	-54189.1	1005.82	-29744.2	0.000000	0.000000	7.214018	216.414	NaN	0.000000	0.001595	0.001778	28.0812	67.618	0.001799	37591.2	5.532562	-6.755092	213.942	1.204704	0.069455	0.069246	216.414	37591.2	0.065137	0.144872	1493.82	90233.2
458	2.000000	1.215336	7.36954e+06	-54189.1	1005.82	-29744.2	0.000000	0.000000	7.227318	286.36	NaN	0.000000	0.001608	0.001784	28.0797	76.043	0.001706	44567.5	3.456251	174.725	281.501	1.215039	0.079878	0.079581	286.36	44567.5	0.075059	0.185276	1545.59	94597.9
458	2.000000	1.225871	7.36954e+06	-54189.1	1005.82	-29744.2	0.000000	0.000000	7.240680	355.065	NaN	0.000000	0.001690	0.001745	28.0797	85.6725	0.001817	47159.1	6.643461	-8.876810	351.2	1.225482	0.090414	0.090025	355.065	47159.1	0.084767	0.229290	1548.54	89980
458	2.000000	1.236383	7.36954e+06	-54189.1	1005.82	-29744.2	0.000000	0.000000	7.253998	423.305	NaN	0.000000	0.001617	0.001787	28.0798	93.8685	0.001748	53704.1	2.571678	173.853	421.111	1.236232	0.100925	0.100774	423.305	53704.1	0.095013	0.280473	1509.25	92647.9
458	2.000000	1.242413	7.36954e+06	-54189.1	1005.82	-29744.2	0.000000	0.000000	7.262263	477.631	NaN	0.000000	0.001582	0.001791	28.0795	99.4332	0.001845	53896.4	3.206464	173.884	478.327	1.242073	0.106955	0.106615	477.631	53896.4	0.100308	0.308804	1546.71	88611.7