File: remote_trans/data/nanoindenter/0828-1/data/Data_2025-08-06,11h17m57s/2025-07-22_16-23-58_1_470.txt
2025-07-22, 16:23:58, 1
Index	Phase	Displacement	Time	Pos X	Pos Y	Pos Z	Rot A	Rot B	Piezo Z	Force A	Force B	Gripper	Voltage A	Voltage B	Temperature	Amplitude force	Amplitude pos	Stiffness	Phase shift	Phase excitation	Force A raw	Displacement raw	HMax	HMax raw	Real Force	Real Stiffness	Contact Depth	Area	Hardness	Reduced Mod.
[#]	[#]	[um]	[s]	[um]	[um]	[um]	[m°]	[m°]	[um]	[uN]	[uN]	[V]	[V]	[V]	[°C]	[uN]	[um]	[N/m]	[°]	[°]	[uN]	[um]	[um]	[um]	[uN]	[N/m]	[um]	[um^2]	[MPa]	[MPa]
470	1.000000	0.002664	7.36965e+06	-53589.1	1005.82	-29745.9	0.000000	0.000000	6.002791	0.027358	NaN	0.000000	0.001592	0.001738	28.0826	0.089029	0.000870	102.36	156.005	-162.898	0.068188	0.001433	-1.049643	-1.050874	0.027358	102.36	-1.049843	-1.062445E+14	-2.574968E-16	NaN
470	1.000000	0.042614	7.36965e+06	-53589.1	1005.82	-29745.9	0.000000	0.000000	6.042743	0.098182	NaN	0.000000	0.001567	0.001754	28.0825	0.162607	0.001930	84.2603	-87.3235	-160.103	0.135367	0.041367	-1.009693	-1.010940	0.098182	84.2603	-1.010567	-3.147813E+13	-3.119045E-15	NaN
470	1.000000	0.082665	7.36965e+06	-53589.1	1005.82	-29745.9	0.000000	0.000000	6.082790	0.013253	NaN	0.000000	0.001588	0.001721	28.0816	0.036511	0.001963	18.5979	-173.275	-168.067	0.142924	0.081346	-0.969642	-0.970961	0.013253	18.5979	-0.970177	-8.995945E+12	-1.473226E-15	NaN
470	1.000000	0.122633	7.36965e+06	-53589.1	1005.82	-29745.9	0.000000	0.000000	6.122758	0.005631	NaN	0.000000	0.001550	0.001735	28.0817	0.055504	0.002008	27.6397	59.3258	-170.014	-0.044346	0.121297	-0.929674	-0.931010	0.005631	27.6397	-0.929827	-2.569575E+12	-2.191337E-15	NaN
470	1.000000	0.162670	7.36965e+06	-53589.1	1005.82	-29745.9	0.000000	0.000000	6.162796	0.017266	NaN	0.000000	0.001549	0.001745	28.082	0.016162	0.002040	7.922641	43.138	-163.913	0.102182	0.161363	-0.889637	-0.890944	0.017266	7.922641	-0.891271	-7.746378E+11	-2.228926E-14	NaN
470	1.000000	0.202686	7.36965e+06	-53589.1	1005.82	-29745.9	0.000000	0.000000	6.202814	0.070336	NaN	0.000000	0.001556	0.001738	28.0829	0.114133	0.002051	55.6514	-162.362	-167.673	0.000393	0.201325	-0.849621	-0.850982	0.070336	55.6514	-0.850569	-2.179939E+11	-3.226527E-13	NaN
470	1.000000	0.242680	7.36965e+06	-53589.1	1005.82	-29745.9	0.000000	0.000000	6.242806	0.010353	NaN	0.000000	0.001546	0.001685	28.0826	0.064736	0.002044	31.6706	-72.4215	-165.298	-0.066945	0.241387	-0.809627	-0.810920	0.010353	31.6706	-0.809872	-6.121220E+10	-1.691404E-13	NaN
470	1.000000	0.282691	7.36965e+06	-53589.1	1005.82	-29745.9	0.000000	0.000000	6.282818	0.052680	NaN	0.000000	0.001553	0.001712	28.0828	0.077917	0.001920	40.5765	-133.159	-168.883	-0.033392	0.281353	-0.769616	-0.770954	0.052680	40.5765	-0.770590	-1.791931E+10	-2.939822E-12	NaN
470	1.000000	0.322733	7.36965e+06	-53589.1	1005.82	-29745.9	0.000000	0.000000	6.322860	0.025107	NaN	0.000000	0.001517	0.001683	28.0827	0.059807	0.001865	32.0658	-27.551	-165.952	0.039960	0.321413	-0.729574	-0.730894	0.025107	32.0658	-0.730161	-5.046626E+9	-4.975034E-12	NaN
470	1.000000	0.362751	7.36965e+06	-53589.1	1005.82	-29745.9	0.000000	0.000000	6.362878	0.031356	NaN	0.000000	0.001552	0.001752	28.0813	0.147659	0.001902	77.6509	-11.8436	-162.368	0.010000	0.361463	-0.689556	-0.690844	0.031356	77.6509	-0.689859	-1.422288E+9	-2.204645E-11	NaN
470	1.000000	0.402761	7.36965e+06	-53589.1	1005.82	-29745.9	0.000000	0.000000	6.402888	0.030858	NaN	0.000000	0.001550	0.001765	28.0807	0.086443	0.002058	42.0079	-114.556	-166.454	-0.048607	0.401484	-0.649546	-0.650824	0.030858	42.0079	-0.650097	-4.062201E+8	-7.596472E-11	NaN
470	1.000000	0.442780	7.36965e+06	-53589.1	1005.82	-29745.9	0.000000	0.000000	6.442906	0.023367	NaN	0.000000	0.001558	0.001736	28.0814	0.101772	0.002099	48.4829	-24.8643	-167.651	0.042008	0.441463	-0.609527	-0.610844	0.023367	48.4829	-0.609888	-1.139139E+8	-2.051323E-10	NaN
470	1.000000	0.482791	7.36966e+06	-53589.1	1005.82	-29745.9	0.000000	0.000000	6.482917	0.017152	NaN	0.000000	0.001602	0.001732	28.0829	0.056891	0.002012	28.2806	174.718	-166.826	-0.014126	0.481480	-0.569516	-0.570827	0.017152	28.2806	-0.569971	-3.207928E+7	-5.346779E-10	NaN
470	1.000000	0.522839	7.36966e+06	-53589.1	1005.82	-29745.9	0.000000	0.000000	6.522964	-0.005601	NaN	0.000000	0.001594	0.001741	28.083	0.060969	0.002187	27.8836	-64.5897	-165.303	0.036191	0.521512	-0.529468	-0.530795	-0.005601	27.8836	-0.529317	-8.77187e+06	6.385104E-10	NaN
470	1.000000	0.562841	7.36966e+06	-53589.1	1005.82	-29745.9	0.000000	0.000000	6.562967	0.039609	NaN	0.000000	0.001586	0.001737	28.0829	0.133376	0.001965	67.8844	79.2197	-165.528	-0.020706	0.561545	-0.489467	-0.490762	0.039609	67.8844	-0.489904	-2.47772e+06	-1.598584E-8	NaN
470	1.000000	0.602854	7.36966e+06	-53589.1	1005.82	-29745.9	0.000000	0.000000	6.602980	0.017677	NaN	0.000000	0.001588	0.001721	28.0838	0.079712	0.001956	40.7436	-27.6946	-167.367	-0.054808	0.601491	-0.449453	-0.450816	0.017677	40.7436	-0.449778	-677984	-2.607281E-8	NaN
470	1.000000	0.642855	7.36966e+06	-53589.1	1005.82	-29745.9	0.000000	0.000000	6.642981	0.028802	NaN	0.000000	0.001593	0.001709	28.0821	0.029363	0.002002	14.67	143.253	-165.809	0.054724	0.641547	-0.409453	-0.410760	0.028802	14.67	-0.410925	-191229	-1.506136E-7	NaN
470	1.000000	0.682845	7.36966e+06	-53589.1	1005.82	-29745.9	0.000000	0.000000	6.682967	-0.071869	NaN	0.000000	0.001576	0.001725	28.0822	0.089504	0.002088	42.8725	-147.167	-168.602	-0.114981	0.681615	-0.369462	-0.370692	-0.071869	42.8725	-0.368205	-46802.7	1.535570E-6	NaN
470	1.000000	0.722892	7.36966e+06	-53589.1	1005.82	-29745.9	0.000000	0.000000	6.723017	-0.017385	NaN	0.000000	0.001583	0.001730	28.0818	0.030327	0.002146	14.1302	-122.236	-165.694	-0.008896	0.721621	-0.329415	-0.330686	-0.017385	14.1302	-0.328492	-12398.1	1.402264E-6	NaN
470	1.000000	0.762955	7.36966e+06	-53589.1	1005.82	-29745.9	0.000000	0.000000	6.763079	-0.038771	NaN	0.000000	0.001565	0.001733	28.0829	0.051295	0.001893	27.0993	176.448	-165.203	-0.057168	0.761581	-0.289352	-0.290727	-0.038771	27.0993	-0.288279	-3144.11	1.233124E-5	NaN
470	1.000000	0.802943	7.36966e+06	-53589.1	1005.82	-29745.9	0.000000	0.000000	6.803069	0.028543	NaN	0.000000	0.001537	0.001732	28.0826	0.065336	0.002037	32.0687	-154.88	-167.295	0.102926	0.801571	-0.249364	-0.250736	0.028543	32.0687	-0.250032	-823.109	-3.467747E-5	NaN
470	1.000000	0.842936	7.36966e+06	-53589.1	1005.82	-29745.9	0.000000	0.000000	6.843061	0.004837	NaN	0.000000	0.001587	0.001723	28.0826	0.061276	0.002084	29.4059	23.2403	-166.54	0.007422	0.841637	-0.209371	-0.210670	0.004837	29.4059	-0.209495	-188.206	-2.570039E-5	NaN
470	1.000000	0.882968	7.36966e+06	-53589.1	1005.82	-29745.9	0.000000	0.000000	6.883094	0.035028	NaN	0.000000	0.001565	0.001759	28.0815	0.041254	0.002056	20.0622	-124.447	-166.973	0.061716	0.881659	-0.169339	-0.170648	0.035028	20.0622	-0.170649	-42.1573	-0.000831	NaN
470	1.000000	0.923000	7.36966e+06	-53589.1	1005.82	-29745.9	0.000000	0.000000	6.923126	0.006619	NaN	0.000000	0.001558	0.001778	28.0816	0.122116	0.002022	60.3869	92.4077	-170.832	-0.046761	0.921618	-0.129307	-0.130689	0.006619	60.3869	-0.129389	-7.415266	-0.000893	NaN
470	1.000000	0.963023	7.36966e+06	-53589.1	1005.82	-29745.9	0.000000	0.000000	6.963150	0.042232	NaN	0.000000	0.001552	0.001791	28.0815	0.062532	0.002051	30.4909	-85.0414	-166.63	0.027599	0.961706	-0.089284	-0.090601	0.042232	30.4909	-0.090323	-1.099966	-0.038394	NaN
470	1.000000	1.003056	7.36966e+06	-53589.1	1005.82	-29745.9	0.000000	0.000000	7.003180	-0.027603	NaN	0.000000	0.001554	0.001801	28.0815	0.099313	0.002085	47.6339	40.5161	-164.568	0.053268	1.001741	-0.049251	-0.050566	-0.027603	47.6339	-0.048816	-0.084016	0.328544	NaN
470	1.000000	1.043035	7.36966e+06	-53589.1	1005.82	-29745.9	0.000000	0.000000	7.043159	-0.032591	NaN	0.000000	0.001560	0.001793	28.0832	0.091810	0.001987	46.1991	-107.88	-168.835	-0.005246	1.041721	-0.009272	-0.010586	-0.032591	46.1991	-0.008743	-0.005664	5.753884	NaN
470	2.000000	1.065607	7.36966e+06	-53589.1	1005.82	-29746	0.000000	0.000000	7.066402	16.2814	NaN	0.000000	0.001578	0.001766	28.0832	14.8322	0.001786	8306.58	9.270275	-176.331	16.7884	1.065283	0.013300	0.012975	16.2814	8306.58	0.011830	0.011287	1442.49	71434.1
470	2.000000	1.075531	7.36966e+06	-53589.1	1005.82	-29746	0.000000	0.000000	7.077312	40.268	NaN	0.000000	0.001555	0.001801	28.0832	26.0524	0.001730	15060.7	7.971198	178.438	40.2477	1.075230	0.023224	0.022923	40.268	15060.7	0.021218	0.024493	1644.05	87921.3
470	2.000000	1.085485	7.36966e+06	-53589.1	1005.82	-29746	0.000000	0.000000	7.088389	67.5684	NaN	0.000000	0.001583	0.001778	28.0818	36.2314	0.001750	20698.4	5.618319	176.156	64.8235	1.085235	0.033178	0.032928	67.5684	20698.4	0.030729	0.042269	1598.54	91981.3
470	2.000000	1.095467	7.36966e+06	-53589.1	1005.82	-29746	0.000000	0.000000	7.099705	99.9961	NaN	0.000000	0.001585	0.001736	28.0814	44.9842	0.001816	24769.4	3.872027	177.59	98.3352	1.095260	0.043160	0.042953	99.9961	24769.4	0.040132	0.064371	1553.44	89195.6
470	2.000000	1.105441	7.36966e+06	-53589.1	1005.82	-29746	0.000000	0.000000	7.111435	142.688	NaN	0.000000	0.001563	0.001737	28.0818	53.912	0.001724	31278.3	2.770871	176.87	140.732	1.105130	0.053134	0.052823	142.688	31278.3	0.049712	0.091525	1559	94459.6
470	2.000000	1.115519	7.36966e+06	-53589.1	1005.82	-29746	0.000000	0.000000	7.123638	194.361	NaN	0.000000	0.001561	0.001718	28.0819	65.5224	0.001820	36005.4	8.777723	171.021	195.1	1.115088	0.063212	0.062781	194.361	36005.4	0.059163	0.122824	1582.43	93864
470	2.000000	1.125424	7.36966e+06	-53589.1	1005.82	-29746	0.000000	0.000000	7.135431	240.268	NaN	0.000000	0.001565	0.001723	28.083	77.2057	0.001788	43190	6.154621	170.418	238.234	1.125319	0.073117	0.073012	240.268	43190	0.068944	0.159820	1503.37	98705.4
470	2.000000	1.135524	7.36966e+06	-53589.1	1005.82	-29746	0.000000	0.000000	7.148507	312.593	NaN	0.000000	0.001647	0.001770	28.0828	87.2153	0.001784	48897	5.871521	169.819	314.276	1.135254	0.083217	0.082947	312.593	48897	0.078422	0.200027	1562.75	99887.5
470	2.000000	1.145450	7.36966e+06	-53589.1	1005.82	-29746	0.000000	0.000000	7.161748	393.217	NaN	0.000000	0.001623	0.001737	28.0825	95.6483	0.001731	55244.8	2.354037	173.36	391.909	1.145130	0.093143	0.092823	393.217	55244.8	0.087804	0.243961	1611.8	102189
470	2.000000	1.155396	7.36966e+06	-53589.1	1005.82	-29746	0.000000	0.000000	7.174598	463.786	NaN	0.000000	0.001547	0.001760	28.0813	104.589	0.001856	56347.7	4.198709	171.071	461.508	1.155184	0.103089	0.102877	463.786	56347.7	0.096916	0.290507	1596.47	95514.8
470	2.000000	1.158306	7.36966e+06	-53589.1	1005.82	-29746	0.000000	0.000000	7.178478	487.403	NaN	0.000000	0.001565	0.001791	28.0817	107.723	0.001818	59265.3	2.227010	172.903	480.73	1.158092	0.105999	0.105785	487.403	59265.3	0.099831	0.306195	1591.8	97853