File: remote_trans/data/nanoindenter/0828-1/data/Data_2025-08-06,11h17m57s/2025-07-22_16-23-58_1_693.txt
2025-07-22, 16:23:58, 1
Index	Phase	Displacement	Time	Pos X	Pos Y	Pos Z	Rot A	Rot B	Piezo Z	Force A	Force B	Gripper	Voltage A	Voltage B	Temperature	Amplitude force	Amplitude pos	Stiffness	Phase shift	Phase excitation	Force A raw	Displacement raw	HMax	HMax raw	Real Force	Real Stiffness	Contact Depth	Area	Hardness	Reduced Mod.
[#]	[#]	[um]	[s]	[um]	[um]	[um]	[m°]	[m°]	[um]	[uN]	[uN]	[V]	[V]	[V]	[°C]	[uN]	[um]	[N/m]	[°]	[°]	[uN]	[um]	[um]	[um]	[uN]	[N/m]	[um]	[um^2]	[MPa]	[MPa]
693	1.000000	0.002658	7.37183e+06	-42439.1	1005.82	-29782.5	0.000000	0.000000	6.002700	-0.118950	NaN	0.000000	0.001674	0.001698	28.0827	0.023673	0.001053	22.4754	84.5966	178.861	-0.088662	0.001432	-1.203596	-1.204822	-0.118950	22.4754	-1.199627	-1.085809E+16	1.095500E-17	NaN
693	1.000000	0.046587	7.37183e+06	-42439.1	1005.82	-29782.5	0.000000	0.000000	6.046626	-0.192461	NaN	0.000000	0.001658	0.001671	28.0828	0.067976	0.001815	37.4597	-131.161	175.736	-0.159721	0.045274	-1.159667	-1.160980	-0.192461	37.4597	-1.155814	-2.810342E+15	6.848323E-17	NaN
693	1.000000	0.090626	7.37183e+06	-42439.1	1005.82	-29782.5	0.000000	0.000000	6.090660	-0.302176	NaN	0.000000	0.001664	0.001665	28.0812	0.062801	0.002015	31.1607	56.1167	174.15	-0.238923	0.089306	-1.115628	-1.116948	-0.302176	31.1607	-1.108355	-6.489575E+14	4.656332E-16	NaN
693	1.000000	0.134633	7.37183e+06	-42439.1	1005.82	-29782.5	0.000000	0.000000	6.134666	-0.339709	NaN	0.000000	0.001687	0.001668	28.0813	0.062929	0.001993	31.5683	-96.6061	175.436	-0.271617	0.133319	-1.071622	-1.072935	-0.339709	31.5683	-1.063551	-1.623813E+14	2.092042E-15	NaN
693	1.000000	0.178661	7.37183e+06	-42439.1	1005.82	-29782.5	0.000000	0.000000	6.178698	-0.238539	NaN	0.000000	0.001698	0.001700	28.0815	0.024233	0.002052	11.8123	-178.056	173.785	-0.227156	0.177330	-1.027593	-1.028924	-0.238539	11.8123	-1.012448	-3.336775E+13	7.148776E-15	NaN
693	1.000000	0.222681	7.37183e+06	-42439.1	1005.82	-29782.5	0.000000	0.000000	6.222717	-0.252769	NaN	0.000000	0.001689	0.001678	28.0823	0.018229	0.001920	9.492931	104.796	176.478	-0.198636	0.221356	-0.983574	-0.984898	-0.252769	9.492931	-0.963603	-7.335755E+12	3.445707E-14	NaN
693	1.000000	0.266695	7.37183e+06	-42439.1	1005.82	-29782.5	0.000000	0.000000	6.266734	-0.191178	NaN	0.000000	0.001682	0.001685	28.0828	0.096089	0.001870	51.3836	2.965904	175.136	-0.215417	0.265436	-0.939560	-0.940818	-0.191178	51.3836	-0.936769	-3.188200E+12	5.996420E-14	NaN
693	1.000000	0.310710	7.37183e+06	-42439.1	1005.82	-29782.5	0.000000	0.000000	6.310749	-0.218924	NaN	0.000000	0.001629	0.001719	28.0826	0.026388	0.001901	13.8837	113.79	178.063	-0.234903	0.309402	-0.895544	-0.896853	-0.218924	13.8837	-0.883717	-6.123175E+11	3.575334E-13	NaN
693	1.000000	0.354708	7.37183e+06	-42439.1	1005.82	-29782.5	0.000000	0.000000	6.354744	-0.249874	NaN	0.000000	0.001623	0.001712	28.0826	0.082094	0.002005	40.939	114.281	174.712	-0.246415	0.353441	-0.851546	-0.852814	-0.249874	40.939	-0.846969	-1.948444E+11	1.282429E-12	NaN
693	1.000000	0.398736	7.37183e+06	-42439.1	1005.82	-29782.5	0.000000	0.000000	6.398773	-0.254115	NaN	0.000000	0.001629	0.001682	28.0811	0.043761	0.002044	21.4065	144.119	176.561	-0.243240	0.397406	-0.807518	-0.808848	-0.254115	21.4065	-0.798615	-4.305842E+10	5.901637E-12	NaN
693	1.000000	0.442765	7.37183e+06	-42439.1	1005.82	-29782.5	0.000000	0.000000	6.442802	-0.233109	NaN	0.000000	0.001636	0.001705	28.0811	0.081528	0.002164	37.6779	84.6875	173.652	-0.188795	0.441449	-0.763490	-0.764805	-0.233109	37.6779	-0.758849	-1.240652E+10	1.878921E-11	NaN
693	1.000000	0.486765	7.37183e+06	-42439.1	1005.82	-29782.5	0.000000	0.000000	6.486805	-0.174889	NaN	0.000000	0.001587	0.001756	28.0812	0.151283	0.001989	76.0559	11.6586	175.806	-0.191010	0.485486	-0.719489	-0.720769	-0.174889	76.0559	-0.717765	-3.419670E+9	5.114214E-11	NaN
693	1.000000	0.530817	7.37183e+06	-42439.1	1005.82	-29782.5	0.000000	0.000000	6.530854	-0.243944	NaN	0.000000	0.001605	0.001685	28.0825	0.124174	0.002038	60.9147	43.0484	175.181	-0.265323	0.529503	-0.675437	-0.676751	-0.243944	60.9147	-0.672434	-8.216757E+8	2.968865E-10	NaN
693	1.000000	0.574845	7.37183e+06	-42439.1	1005.82	-29782.6	0.000000	0.000000	6.574882	-0.233349	NaN	0.000000	0.001603	0.001665	28.0827	0.056333	0.001993	28.2656	97.5723	173.79	-0.175812	0.573476	-0.631409	-0.632778	-0.233349	28.2656	-0.625218	-1.850695E+8	1.260871E-9	NaN
693	1.000000	0.618835	7.37183e+06	-42439.1	1005.82	-29782.6	0.000000	0.000000	6.618873	-0.219468	NaN	0.000000	0.001579	0.001712	28.0823	0.101124	0.002004	50.4689	71.8407	174.876	-0.239566	0.617582	-0.587419	-0.588672	-0.219468	50.4689	-0.584157	-5.036076E+7	4.357911E-9	NaN
693	1.000000	0.662848	7.37183e+06	-42439.1	1005.82	-29782.6	0.000000	0.000000	6.662889	-0.142061	NaN	0.000000	0.001634	0.001726	28.0813	0.005840	0.001949	2.996311	-4.564103	176.747	-0.152216	0.661509	-0.543406	-0.544745	-0.142061	2.996311	-0.507847	-4.40989e+06	3.221422E-8	NaN
693	1.000000	0.706875	7.37183e+06	-42439.1	1005.82	-29782.6	0.000000	0.000000	6.706915	-0.162698	NaN	0.000000	0.001585	0.001771	28.0812	0.027767	0.002067	13.4322	-138.861	-179.844	-0.148527	0.705586	-0.499380	-0.500668	-0.162698	13.4322	-0.490295	-2.5091e+06	6.484324E-8	NaN
693	1.000000	0.750867	7.37183e+06	-42439.1	1005.82	-29782.6	0.000000	0.000000	6.750906	-0.196754	NaN	0.000000	0.001645	0.001725	28.0814	0.028947	0.001832	15.8033	41.3815	173.707	-0.119066	0.749604	-0.455387	-0.456650	-0.196754	15.8033	-0.446050	-600744	3.275170E-7	NaN
693	1.000000	0.794891	7.37183e+06	-42439.1	1005.82	-29782.6	0.000000	0.000000	6.794933	-0.142549	NaN	0.000000	0.001650	0.001728	28.0826	0.118445	0.001964	60.3102	34.2615	172.242	-0.171477	0.793614	-0.411363	-0.412640	-0.142549	60.3102	-0.409590	-183050	7.787414E-7	NaN
693	1.000000	0.838960	7.37183e+06	-42439.1	1005.82	-29782.6	0.000000	0.000000	6.839000	-0.173474	NaN	0.000000	0.001709	0.001720	28.0826	0.073262	0.001936	37.8483	28.9465	176.677	-0.163929	0.837611	-0.367294	-0.368643	-0.173474	37.8483	-0.363857	-40509.5	4.282300E-6	NaN
693	1.000000	0.882978	7.37183e+06	-42439.1	1005.82	-29782.6	0.000000	0.000000	6.883020	-0.130427	NaN	0.000000	0.001580	0.001723	28.0824	0.093657	0.001903	49.2218	36.1409	171.56	-0.145567	0.881637	-0.323276	-0.324617	-0.130427	49.2218	-0.321289	-9718.53	1.342045E-5	NaN
693	1.000000	0.926956	7.37183e+06	-42439.1	1005.82	-29782.6	0.000000	0.000000	6.926996	-0.163399	NaN	0.000000	0.001536	0.001753	28.0813	0.192081	0.001988	96.6386	-51.6846	177.371	-0.197857	0.925650	-0.279298	-0.280604	-0.163399	96.6386	-0.278030	-2204.1	7.413376E-5	NaN
693	1.000000	0.970970	7.37183e+06	-42439.1	1005.82	-29782.6	0.000000	0.000000	6.971011	-0.152453	NaN	0.000000	0.001623	0.001728	28.0815	0.048836	0.002008	24.3258	-112.945	177.46	-0.339467	0.969669	-0.235284	-0.236585	-0.152453	24.3258	-0.230583	-409.004	0.000373	NaN
693	1.000000	1.014978	7.37183e+06	-42439.1	1005.82	-29782.6	0.000000	0.000000	7.015022	-0.072050	NaN	0.000000	0.001621	0.001778	28.0812	0.101628	0.002042	49.7636	-23.6846	177.636	-0.082281	1.013701	-0.191276	-0.192554	-0.072050	49.7636	-0.190191	-90.6174	0.000795	NaN
693	1.000000	1.059006	7.37183e+06	-42439.1	1005.82	-29782.6	0.000000	0.000000	7.059045	-0.194427	NaN	0.000000	0.001648	0.001726	28.0822	0.079659	0.001950	40.8487	45.7467	176.785	-0.251317	1.057712	-0.147248	-0.148542	-0.194427	40.8487	-0.143678	-13.8568	0.014031	NaN
693	1.000000	1.103018	7.37183e+06	-42439.1	1005.82	-29782.6	0.000000	0.000000	7.103059	-0.133034	NaN	0.000000	0.001678	0.001741	28.0824	0.095974	0.001989	48.2617	-38.7439	177.349	-0.123270	1.101715	-0.103236	-0.104539	-0.133034	48.2617	-0.101169	-1.939122	0.068605	NaN
693	1.000000	1.147050	7.37183e+06	-42439.1	1005.82	-29782.6	0.000000	0.000000	7.147092	-0.137444	NaN	0.000000	0.001645	0.001675	28.0827	0.126169	0.002080	60.6509	31.0461	176.998	-0.163771	1.145714	-0.059204	-0.060541	-0.137444	60.6509	-0.057504	-0.152526	0.901117	NaN
693	1.000000	1.191067	7.37183e+06	-42439.1	1005.82	-29782.6	0.000000	0.000000	7.191338	5.454018	NaN	0.000000	0.001617	0.001733	28.0814	2.321206	0.002041	1137.24	13.5841	176.12	5.042912	1.189765	-0.015187	-0.016490	5.454018	1137.24	-0.018784	-0.011694	-466.381	NaN
693	2.000000	1.217642	7.37183e+06	-42439.1	1005.82	-29782.6	0.000000	0.000000	7.218436	18.1683	NaN	0.000000	0.001717	0.001719	28.0813	13.6747	0.001708	8007.6	6.176702	167.616	16.5128	1.217321	0.011388	0.011067	18.1683	8007.6	0.009686	0.008835	2056.45	77835.4
693	2.000000	1.228634	7.37183e+06	-42439.1	1005.82	-29782.6	0.000000	0.000000	7.230187	36.6514	NaN	0.000000	0.001682	0.001716	28.0814	24.8725	0.001858	13383.5	5.523984	164.636	35.9645	1.228282	0.022380	0.022028	36.6514	13383.5	0.020326	0.023057	1589.62	80527.3
693	2.000000	1.239613	7.37183e+06	-42439.1	1005.82	-29782.6	0.000000	0.000000	7.242485	68.7351	NaN	0.000000	0.001700	0.001756	28.083	37.0353	0.001816	20388.6	5.948944	160.091	68.8251	1.239283	0.033359	0.033029	68.7351	20388.6	0.030830	0.042483	1617.96	90376.4
693	2.000000	1.250619	7.37183e+06	-42439.1	1005.82	-29782.6	0.000000	0.000000	7.255267	111.951	NaN	0.000000	0.001695	0.001752	28.0826	47.714	0.001811	26353.6	3.769290	160.178	113.119	1.250221	0.044365	0.043967	111.951	26353.6	0.041179	0.067110	1668.18	92943.9
693	2.000000	1.261659	7.37183e+06	-42439.1	1005.82	-29782.6	0.000000	0.000000	7.268634	168.57	NaN	0.000000	0.001668	0.001747	28.0827	57.0818	0.001750	32616.6	0.873626	161.27	173.062	1.261304	0.055404	0.055049	168.57	32616.6	0.051528	0.097196	1734.34	95584.8
693	2.000000	1.272459	7.37183e+06	-42439.1	1005.82	-29782.6	0.000000	0.000000	7.282264	237.428	NaN	0.000000	0.001683	0.001745	28.0815	68.5012	0.001710	40066.4	4.426568	155.713	232.524	1.272201	0.066205	0.065947	237.428	40066.4	0.061760	0.132197	1796.03	100680
693	2.000000	1.283440	7.37183e+06	-42439.1	1005.82	-29782.6	0.000000	0.000000	7.296464	315.753	NaN	0.000000	0.001695	0.001726	28.0812	79.8202	0.001766	45195.1	5.183675	154.026	309.099	1.283108	0.077186	0.076854	315.753	45195.1	0.071946	0.172094	1834.77	99536.2
693	2.000000	1.294529	7.37184e+06	-42439.1	1005.82	-29782.6	0.000000	0.000000	7.310760	393.788	NaN	0.000000	0.001697	0.001816	28.0812	88.4253	0.001765	50087.9	0.130413	158.487	391.594	1.294258	0.088275	0.088004	393.788	50087.9	0.082378	0.218053	1805.93	97999.7
693	2.000000	1.305467	7.37184e+06	-42439.1	1005.82	-29782.6	0.000000	0.000000	7.325738	492.072	NaN	0.000000	0.001745	0.001747	28.0823	99.5941	0.001732	57512.7	2.691767	154.791	486.777	1.305270	0.099213	0.099015	492.072	57512.7	0.092796	0.268990	1829.33	101314
693	2.000000	1.310462	7.37184e+06	-42439.1	1005.82	-29782.6	0.000000	0.000000	7.332687	539.635	NaN	0.000000	0.001727	0.001766	28.0826	103.984	0.001771	58726.6	2.848971	154.906	534.689	1.310038	0.104207	0.103783	539.635	58726.6	0.097316	0.292635	1844.05	99184.7