File: remote_trans/data/nanoindenter/0828-1/data/Data_2025-08-06,11h17m57s/2025-07-22_16-23-58_1_194.txt
2025-07-22, 16:23:58, 1
Index	Phase	Displacement	Time	Pos X	Pos Y	Pos Z	Rot A	Rot B	Piezo Z	Force A	Force B	Gripper	Voltage A	Voltage B	Temperature	Amplitude force	Amplitude pos	Stiffness	Phase shift	Phase excitation	Force A raw	Displacement raw	HMax	HMax raw	Real Force	Real Stiffness	Contact Depth	Area	Hardness	Reduced Mod.
[#]	[#]	[um]	[s]	[um]	[um]	[um]	[m°]	[m°]	[um]	[uN]	[uN]	[V]	[V]	[V]	[°C]	[uN]	[um]	[N/m]	[°]	[°]	[uN]	[um]	[um]	[um]	[uN]	[N/m]	[um]	[um^2]	[MPa]	[MPa]
194	1.000000	0.002799	7.36694e+06	-48339.1	955.819	-29763.2	0.000000	0.000000	6.002834	-0.020715	NaN	0.000000	0.001599	0.001623	28.0781	0.069556	0.000879	79.1467	138.594	-167.688	-0.081056	0.001516	-1.017963	-1.019246	-0.020715	79.1467	-1.017767	-3.934648E+13	5.264828E-16	NaN
194	1.000000	0.042731	7.36694e+06	-48339.1	955.818	-29763.2	0.000000	0.000000	6.042769	0.035192	NaN	0.000000	0.001621	0.001696	28.0789	0.068691	0.002101	32.6898	120.095	-164.115	0.057067	0.041418	-0.978032	-0.979345	0.035192	32.6898	-0.978839	-1.176976E+13	-2.989996E-15	NaN
194	1.000000	0.082721	7.36694e+06	-48339.1	955.818	-29763.2	0.000000	0.000000	6.082753	-0.076844	NaN	0.000000	0.001584	0.001659	28.0791	0.060583	0.002015	30.0678	-1.760289	-165.258	-0.033506	0.081422	-0.938042	-0.939341	-0.076844	30.0678	-0.936125	-3.125070E+12	2.458967E-14	NaN
194	1.000000	0.122745	7.36694e+06	-48339.1	955.819	-29763.2	0.000000	0.000000	6.122781	-0.005063	NaN	0.000000	0.001599	0.001658	28.079	0.077491	0.001982	39.1069	-160.569	-163.78	-0.050916	0.121455	-0.898018	-0.899307	-0.005063	39.1069	-0.897920	-9.527212E+11	5.314049E-15	NaN
194	1.000000	0.162750	7.36694e+06	-48339.1	955.818	-29763.2	0.000000	0.000000	6.162784	-0.028215	NaN	0.000000	0.001580	0.001614	28.0777	0.107350	0.002110	50.8864	120.531	-167.314	-0.016949	0.161455	-0.858013	-0.859308	-0.028215	50.8864	-0.857597	-2.713912E+11	1.039641E-13	NaN
194	1.000000	0.202782	7.36694e+06	-48339.1	955.818	-29763.2	0.000000	0.000000	6.202815	-0.064490	NaN	0.000000	0.001622	0.001644	28.0775	0.084845	0.001983	42.7884	68.5562	-167.344	-0.023269	0.201439	-0.817980	-0.819324	-0.064490	42.7884	-0.816850	-7.611904E+10	8.472212E-13	NaN
194	1.000000	0.242807	7.36694e+06	-48339.1	955.818	-29763.2	0.000000	0.000000	6.242843	-0.004402	NaN	0.000000	0.001631	0.001652	28.0777	0.079205	0.002080	38.0763	-76.9882	-165.273	0.010270	0.241485	-0.777956	-0.779277	-0.004402	38.0763	-0.777869	-2.250465E+10	1.956258E-13	NaN
194	1.000000	0.282810	7.36694e+06	-48339.1	955.817	-29763.2	0.000000	0.000000	6.282844	-0.038581	NaN	0.000000	0.001601	0.001694	28.0778	0.069248	0.001974	35.0883	-160.02	-163.909	-0.029937	0.281463	-0.737953	-0.739300	-0.038581	35.0883	-0.737128	-6.279630E+9	6.143887E-12	NaN
194	1.000000	0.322809	7.36694e+06	-48339.1	955.818	-29763.2	0.000000	0.000000	6.322845	-0.002048	NaN	0.000000	0.001641	0.001623	28.0789	0.069706	0.001959	35.5779	126.387	-167.886	0.010939	0.321566	-0.697954	-0.699196	-0.002048	35.5779	-0.697911	-1.832305E+9	1.117798E-12	NaN
194	1.000000	0.362871	7.36694e+06	-48339.1	955.819	-29763.2	0.000000	0.000000	6.362907	-0.010144	NaN	0.000000	0.001594	0.001647	28.0787	0.065850	0.002082	31.6352	151.469	-165.769	-0.008378	0.361551	-0.657891	-0.659212	-0.010144	31.6352	-0.657651	-5.155691E+8	1.967438E-11	NaN
194	1.000000	0.402861	7.36694e+06	-48339.1	955.818	-29763.2	0.000000	0.000000	6.402895	-0.044552	NaN	0.000000	0.001593	0.001682	28.0787	0.026249	0.001914	13.7154	42.2506	-165.666	-0.027901	0.401550	-0.617902	-0.619213	-0.044552	13.7154	-0.615465	-1.359225E+8	3.277721E-10	NaN
194	1.000000	0.442882	7.36694e+06	-48339.1	955.818	-29763.2	0.000000	0.000000	6.442918	0.022624	NaN	0.000000	0.001631	0.001705	28.0775	0.018437	0.002027	9.095016	-112.156	-162.914	-0.088840	0.441573	-0.577881	-0.579190	0.022624	9.095016	-0.579747	-4.377540E+7	-5.168162E-10	NaN
194	1.000000	0.482894	7.36694e+06	-48339.1	955.819	-29763.2	0.000000	0.000000	6.482929	-0.013327	NaN	0.000000	0.001574	0.001746	28.0775	0.063733	0.002092	30.4634	102.269	-163.317	-0.002340	0.481575	-0.537869	-0.539188	-0.013327	30.4634	-0.537541	-1.140887E+7	1.168126E-9	NaN
194	1.000000	0.522917	7.36694e+06	-48339.1	955.818	-29763.2	0.000000	0.000000	6.522950	-0.062048	NaN	0.000000	0.001618	0.001724	28.0776	0.106105	0.001933	54.8879	178.324	-161.54	-0.086830	0.521630	-0.497846	-0.499133	-0.062048	54.8879	-0.496998	-3.11264e+06	1.993412E-8	NaN
194	1.000000	0.562922	7.36694e+06	-48339.1	955.817	-29763.2	0.000000	0.000000	6.562955	-0.069326	NaN	0.000000	0.001596	0.001738	28.0777	0.073472	0.002062	35.6294	-98.3211	-164.445	-0.211168	0.561628	-0.457841	-0.459134	-0.069326	35.6294	-0.456381	-839743	8.255652E-8	NaN
194	1.000000	0.602938	7.36694e+06	-48339.1	955.819	-29763.2	0.000000	0.000000	6.602972	-0.043153	NaN	0.000000	0.001668	0.001690	28.0792	0.094957	0.002089	45.4496	122.386	-168.023	-0.083635	0.601600	-0.417825	-0.419163	-0.043153	45.4496	-0.417113	-234129	1.843108E-7	NaN
194	1.000000	0.642964	7.36694e+06	-48339.1	955.819	-29763.2	0.000000	0.000000	6.642998	-0.042542	NaN	0.000000	0.001627	0.001720	28.0791	0.087548	0.001916	45.6868	131.733	-167.408	0.059464	0.641677	-0.377799	-0.379086	-0.042542	45.6868	-0.377101	-62843.3	6.769497E-7	NaN
194	1.000000	0.682974	7.36694e+06	-48339.1	955.817	-29763.2	0.000000	0.000000	6.683009	-0.031223	NaN	0.000000	0.001600	0.001707	28.0788	0.029995	0.001915	15.6637	57.987	-163.487	-0.017781	0.681635	-0.337789	-0.339128	-0.031223	15.6637	-0.336294	-16124.3	1.936376E-6	NaN
194	1.000000	0.722981	7.36694e+06	-48339.1	955.819	-29763.2	0.000000	0.000000	6.723015	-0.038301	NaN	0.000000	0.001657	0.001758	28.0777	0.153206	0.001962	78.0993	-121.631	-164.35	-0.073947	0.721709	-0.297782	-0.299054	-0.038301	78.0993	-0.297414	-4306.36	8.893985E-6	NaN
194	1.000000	0.762981	7.36694e+06	-48339.1	955.818	-29763.2	0.000000	0.000000	6.763013	-0.086846	NaN	0.000000	0.001567	0.001641	28.0777	0.034702	0.002097	16.5473	-77.6576	-163.946	-0.031723	0.761733	-0.257782	-0.259030	-0.086846	16.5473	-0.253846	-942.615	9.213301E-5	NaN
194	1.000000	0.803035	7.36694e+06	-48339.1	955.818	-29763.2	0.000000	0.000000	6.803069	-0.037633	NaN	0.000000	0.001605	0.001648	28.0778	0.022774	0.001985	11.472	71.3478	-166.373	0.055966	0.801651	-0.217728	-0.219112	-0.037633	11.472	-0.215268	-233.248	0.000161	NaN
194	1.000000	0.843059	7.36694e+06	-48339.1	955.817	-29763.2	0.000000	0.000000	6.843092	-0.064756	NaN	0.000000	0.001594	0.001660	28.0788	0.021063	0.002062	10.2141	88.9961	-165.737	-0.014461	0.841737	-0.177703	-0.179026	-0.064756	10.2141	-0.172949	-46.2014	0.001402	NaN
194	1.000000	0.883060	7.36694e+06	-48339.1	955.819	-29763.2	0.000000	0.000000	6.883095	-0.033132	NaN	0.000000	0.001597	0.001677	28.0787	0.109964	0.001995	55.1082	113.753	-164.734	-0.088318	0.881736	-0.137703	-0.139026	-0.033132	55.1082	-0.137252	-10.4983	0.003156	NaN
194	1.000000	0.923071	7.36695e+06	-48339.1	955.818	-29763.2	0.000000	0.000000	6.923105	-0.056245	NaN	0.000000	0.001603	0.001655	28.079	0.099990	0.002173	46.0074	169.179	-166.265	-0.059681	0.921796	-0.097692	-0.098967	-0.056245	46.0074	-0.096775	-1.547584	0.036344	NaN
194	1.000000	0.963092	7.36695e+06	-48339.1	955.817	-29763.2	0.000000	0.000000	6.963126	-0.032114	NaN	0.000000	0.001576	0.001642	28.0792	0.083361	0.002034	40.9904	-148.15	-170.692	0.021121	0.961767	-0.057671	-0.058996	-0.032114	40.9904	-0.057083	-0.148274	0.216584	NaN
194	1.000000	1.003088	7.36695e+06	-48339.1	955.819	-29763.2	0.000000	0.000000	7.003123	-0.026581	NaN	0.000000	0.001584	0.001769	28.0779	0.032184	0.001956	16.4572	-125.213	-166.971	-0.024032	1.001806	-0.017674	-0.018956	-0.026581	16.4572	-0.016463	-0.010171	2.613403	NaN
194	2.000000	1.033734	7.36695e+06	-48339.1	955.818	-29763.2	0.000000	0.000000	7.034297	12.8013	NaN	0.000000	0.001544	0.001683	28.0779	12.4703	0.001842	6769.48	8.798765	-173.6	13.3427	1.033361	0.012972	0.012599	12.8013	6769.48	0.011553	0.010960	1168.05	59078.9
194	2.000000	1.043614	7.36695e+06	-48339.1	955.818	-29763.2	0.000000	0.000000	7.045011	33.1129	NaN	0.000000	0.001529	0.001659	28.0778	22.8629	0.001805	12669.4	6.863466	-178.409	32.7724	1.043433	0.022851	0.022670	33.1129	12669.4	0.020891	0.023962	1381.9	74777.2
194	2.000000	1.053617	7.36695e+06	-48339.1	955.818	-29763.2	0.000000	0.000000	7.056108	59.7173	NaN	0.000000	0.001633	0.001618	28.079	32.0948	0.001879	17081	5.375164	-178.341	59.7089	1.053302	0.032855	0.032539	59.7173	17081	0.030232	0.041227	1448.5	76859
194	2.000000	1.063566	7.36695e+06	-48339.1	955.818	-29763.2	0.000000	0.000000	7.067576	96.6593	NaN	0.000000	0.001582	0.001656	28.0794	42.9671	0.001903	22581.4	4.523964	179.588	95.2484	1.063222	0.042804	0.042459	96.6593	22581.4	0.039593	0.062981	1534.73	82208.8
194	2.000000	1.073558	7.36695e+06	-48339.1	955.818	-29763.2	0.000000	0.000000	7.079487	143.35	NaN	0.000000	0.001620	0.001679	28.0794	52.8786	0.001755	30129.3	4.729442	175.816	141.284	1.073295	0.052795	0.052533	143.35	30129.3	0.049227	0.090038	1592.11	91738.1
194	2.000000	1.083576	7.36695e+06	-48339.1	955.818	-29763.2	0.000000	0.000000	7.091719	197.176	NaN	0.000000	0.001586	0.001656	28.0789	63.2744	0.001795	35251.6	2.526877	177.338	198.279	1.083263	0.062813	0.062500	197.176	35251.6	0.058618	0.120900	1630.9	92627.2
194	2.000000	1.093574	7.36695e+06	-48339.1	955.819	-29763.2	0.000000	0.000000	7.104205	257.697	NaN	0.000000	0.001604	0.001667	28.0777	73.0079	0.001854	39381.6	3.648844	175.386	259.074	1.093221	0.072811	0.072458	257.697	39381.6	0.067904	0.155665	1655.46	91195.2
194	2.000000	1.103552	7.36695e+06	-48339.1	955.818	-29763.2	0.000000	0.000000	7.116880	323.302	NaN	0.000000	0.001615	0.001739	28.0776	85.0208	0.001913	44447.6	5.682076	171.889	323.753	1.103370	0.082789	0.082607	323.302	44447.6	0.077334	0.195193	1656.32	91915.6
194	2.000000	1.113613	7.36695e+06	-48339.1	955.818	-29763.2	0.000000	0.000000	7.130395	407.304	NaN	0.000000	0.001578	0.001720	28.0776	93.8866	0.001771	53027.4	5.923717	171.348	412.755	1.113239	0.092850	0.092476	407.304	53027.4	0.087090	0.240470	1693.78	98796.9
194	2.000000	1.123446	7.36695e+06	-48339.1	955.819	-29763.2	0.000000	0.000000	7.143616	489.706	NaN	0.000000	0.001560	0.001714	28.0788	101.205	0.001707	59296.7	0.078945	175.939	484.379	1.123150	0.102683	0.102387	489.706	59296.7	0.096489	0.288243	1698.94	100908
194	2.000000	1.129099	7.36695e+06	-48339.1	955.82	-29763.2	0.000000	0.000000	7.151165	535.819	NaN	0.000000	0.001615	0.001737	28.0792	106.857	0.001819	58745.9	6.697280	-10.9068	537.68	1.128819	0.108336	0.108056	535.819	58745.9	0.101495	0.315330	1699.23	95580.2