File: remote_trans/data/nanoindenter/0828-1/data/Data_2025-08-06,11h17m57s/2025-07-22_16-23-58_1_159.txt
2025-07-22, 16:23:58, 1
Index	Phase	Displacement	Time	Pos X	Pos Y	Pos Z	Rot A	Rot B	Piezo Z	Force A	Force B	Gripper	Voltage A	Voltage B	Temperature	Amplitude force	Amplitude pos	Stiffness	Phase shift	Phase excitation	Force A raw	Displacement raw	HMax	HMax raw	Real Force	Real Stiffness	Contact Depth	Area	Hardness	Reduced Mod.
[#]	[#]	[um]	[s]	[um]	[um]	[um]	[m°]	[m°]	[um]	[uN]	[uN]	[V]	[V]	[V]	[°C]	[uN]	[um]	[N/m]	[°]	[°]	[uN]	[um]	[um]	[um]	[uN]	[N/m]	[um]	[um^2]	[MPa]	[MPa]
159	1.000000	0.002501	7.36659e+06	-46589.1	955.819	-29769.1	0.000000	0.000000	6.002804	-0.008713	NaN	0.000000	0.001711	0.001621	28.0855	0.037556	0.000915	41.041	-106.366	-170.342	0.007577	0.001189	-1.081552	-1.082864	-0.008713	41.041	-1.081393	-2.819874E+14	3.089853E-17	NaN
159	1.000000	0.044453	7.36659e+06	-46589.1	955.818	-29769.1	0.000000	0.000000	6.044759	0.063902	NaN	0.000000	0.001640	0.001668	28.0833	0.107560	0.001991	54.0333	-156.772	15.1819	0.098413	0.043093	-1.039600	-1.040960	0.063902	54.0333	-1.040487	-7.952727E+13	-8.035177E-16	NaN
159	1.000000	0.086466	7.36659e+06	-46589.1	955.818	-29769.1	0.000000	0.000000	6.086766	-0.089777	NaN	0.000000	0.001641	0.001678	28.1208	0.071615	0.001994	35.9089	-38.4089	-164.539	-0.093324	0.085118	-0.997587	-0.998935	-0.089777	35.9089	-0.995712	-1.986269E+13	4.519860E-15	NaN
159	1.000000	0.128459	7.3666e+06	-46589.1	955.818	-29769.1	0.000000	0.000000	6.128764	0.034709	NaN	0.000000	0.001702	0.001646	28.1201	0.082119	0.002146	38.2673	167.194	16.047	-0.028415	0.127131	-0.955594	-0.956922	0.034709	38.2673	-0.956275	-5.843097E+12	-5.940251E-15	NaN
159	1.000000	0.170490	7.3666e+06	-46589.1	955.819	-29769.1	0.000000	0.000000	6.170793	-0.012833	NaN	0.000000	0.001732	0.001733	28.0853	0.070897	0.001980	35.812	168.258	-162.098	-0.066861	0.169206	-0.913563	-0.914847	-0.012833	35.812	-0.913294	-1.536941E+12	8.349922E-15	NaN
159	1.000000	0.212545	7.3666e+06	-46589.1	955.818	-29769.1	0.000000	0.000000	6.212847	-0.046444	NaN	0.000000	0.001694	0.001693	28.0833	0.074191	0.002065	35.9323	-82.0399	11.1709	0.021377	0.211164	-0.871508	-0.872889	-0.046444	35.9323	-0.870539	-4.061937E+11	1.143394E-13	NaN
159	1.000000	0.254521	7.3666e+06	-46589.1	955.818	-29769.1	0.000000	0.000000	6.254827	0.053110	NaN	0.000000	0.001654	0.001699	28.1211	0.067014	0.002002	33.468	-108.948	-166.258	0.005651	0.253207	-0.829532	-0.830847	0.053110	33.468	-0.830722	-1.173754E+11	-4.524774E-13	NaN
159	1.000000	0.296548	7.3666e+06	-46589.1	955.818	-29769.1	0.000000	0.000000	6.296849	-0.071894	NaN	0.000000	0.001627	0.001696	28.1211	0.080280	0.001978	40.5912	-0.321639	12.7275	0.042690	0.295151	-0.787505	-0.788903	-0.071894	40.5912	-0.786177	-2.918460E+10	2.463436E-12	NaN
159	1.000000	0.338575	7.3666e+06	-46589.1	955.818	-29769.1	0.000000	0.000000	6.338878	0.007084	NaN	0.000000	0.001555	0.001739	28.0848	0.040332	0.002149	18.7645	172.42	-164.162	0.061246	0.337278	-0.745479	-0.746775	0.007084	18.7645	-0.745762	-8.232311E+9	-8.604511E-13	NaN
159	1.000000	0.380589	7.3666e+06	-46589.1	955.818	-29769.1	0.000000	0.000000	6.380891	-0.032267	NaN	0.000000	0.001601	0.001672	28.082	0.033760	0.001887	17.892	125.257	16.6902	0.011947	0.379238	-0.703464	-0.704815	-0.032267	17.892	-0.702112	-2.091057E+9	1.543115E-11	NaN
159	1.000000	0.422621	7.3666e+06	-46589.1	955.819	-29769.1	0.000000	0.000000	6.422923	-0.038837	NaN	0.000000	0.001580	0.001652	28.1176	0.160005	0.002003	79.8853	150.797	-164.288	-0.026667	0.421327	-0.661432	-0.662726	-0.038837	79.8853	-0.661068	-5.742426E+8	6.763141E-11	NaN
159	1.000000	0.464626	7.3666e+06	-46589.1	955.818	-29769.1	0.000000	0.000000	6.464928	-0.046165	NaN	0.000000	0.001551	0.001667	28.1247	0.145582	0.001999	72.8412	-4.868728	14.7707	-0.103255	0.463242	-0.619427	-0.620811	-0.046165	72.8412	-0.618952	-1.517836E+8	3.041480E-10	NaN
159	1.000000	0.506633	7.3666e+06	-46589.1	955.818	-29769.1	0.000000	0.000000	6.506936	-0.014466	NaN	0.000000	0.001573	0.001689	28.0844	0.109425	0.002019	54.2091	-116.63	-169.29	0.031058	0.505389	-0.577421	-0.578664	-0.014466	54.2091	-0.577220	-4.039779E+7	3.581012E-10	NaN
159	1.000000	0.548635	7.3666e+06	-46589.1	955.818	-29769.1	0.000000	0.000000	6.548938	-0.018076	NaN	0.000000	0.001540	0.001615	28.085	0.238104	0.001934	123.122	-104.289	17.9377	-0.042987	0.547371	-0.535418	-0.536682	-0.018076	123.122	-0.535308	-1.062338E+7	1.701539E-9	NaN
159	1.000000	0.590681	7.3666e+06	-46589.1	955.818	-29769.1	0.000000	0.000000	6.590983	-0.028644	NaN	0.000000	0.001499	0.001689	28.1168	0.021956	0.001992	11.0204	-30.5707	-163.926	0.028994	0.589365	-0.493372	-0.494689	-0.028644	11.0204	-0.491423	-2.60182e+06	1.100911E-8	NaN
159	1.000000	0.632698	7.3666e+06	-46589.1	955.818	-29769.1	0.000000	0.000000	6.633002	0.005749	NaN	0.000000	0.001534	0.001684	28.1231	0.125604	0.002037	61.6532	11.6292	13.7204	-0.026490	0.631331	-0.451355	-0.452722	0.005749	61.6532	-0.451425	-715161	-8.038952E-9	NaN
159	1.000000	0.674733	7.3666e+06	-46589.1	955.818	-29769.1	0.000000	0.000000	6.675034	-0.073684	NaN	0.000000	0.001506	0.001700	28.0836	0.027834	0.001953	14.2551	-114.205	-161.028	-0.006181	0.673397	-0.409320	-0.410656	-0.073684	14.2551	-0.405443	-159793	4.611236E-7	NaN
159	1.000000	0.716731	7.3666e+06	-46589.1	955.818	-29769.1	0.000000	0.000000	6.717035	0.012123	NaN	0.000000	0.001582	0.001639	28.0837	0.032810	0.001985	16.5252	-10.9071	15.1033	-0.009930	0.715386	-0.367322	-0.368668	0.012123	16.5252	-0.367873	-46289	-2.618974E-7	NaN
159	1.000000	0.758727	7.3666e+06	-46589.1	955.819	-29769.1	0.000000	0.000000	6.759029	-0.050479	NaN	0.000000	0.001540	0.001657	28.1175	0.136777	0.001954	69.9855	1.889538	-164.177	-0.034329	0.757464	-0.325326	-0.326590	-0.050479	69.9855	-0.324785	-10939.1	4.614566E-6	NaN
159	1.000000	0.800776	7.3666e+06	-46589.1	955.818	-29769.1	0.000000	0.000000	6.801077	-0.055810	NaN	0.000000	0.001577	0.001665	28.1245	0.122037	0.001998	61.0896	27.4129	13.7547	0.030065	0.799410	-0.283277	-0.284643	-0.055810	61.0896	-0.282592	-2582.48	2.161092E-5	NaN
159	1.000000	0.842778	7.3666e+06	-46589.1	955.818	-29769.1	0.000000	0.000000	6.843078	-0.079723	NaN	0.000000	0.001587	0.001632	28.0836	0.009623	0.001930	4.986846	80.8695	-164.445	-0.089987	0.841487	-0.241275	-0.242567	-0.079723	4.986846	-0.229285	-390.143	0.000204	NaN
159	1.000000	0.884784	7.3666e+06	-46589.1	955.818	-29769.1	0.000000	0.000000	6.885089	0.035910	NaN	0.000000	0.001564	0.001614	28.082	0.097127	0.001920	50.5931	-1.592495	15.5343	-0.046633	0.883433	-0.199269	-0.200621	0.035910	50.5931	-0.199802	-130.749	-0.000275	NaN
159	1.000000	0.926816	7.3666e+06	-46589.1	955.819	-29769.1	0.000000	0.000000	6.927121	0.029961	NaN	0.000000	0.001594	0.001659	28.1149	0.138922	0.002017	68.8692	-40.8466	-164.654	0.103709	0.925483	-0.157237	-0.158570	0.029961	68.8692	-0.157563	-24.8059	-0.001208	NaN
159	1.000000	0.968830	7.3666e+06	-46589.1	955.818	-29769.1	0.000000	0.000000	6.969135	0.055602	NaN	0.000000	0.001571	0.001672	28.1242	0.034974	0.002000	17.4905	105.38	15.0512	0.046295	0.967468	-0.115224	-0.116585	0.055602	17.4905	-0.117608	-4.320776	-0.012868	NaN
159	1.000000	1.010852	7.3666e+06	-46589.1	955.818	-29769.1	0.000000	0.000000	7.011156	0.014844	NaN	0.000000	0.001591	0.001672	28.0855	0.027109	0.002144	12.6441	-98.8568	-167.337	0.023946	1.009572	-0.073202	-0.074481	0.014844	12.6441	-0.074082	-0.437222	-0.033950	NaN
159	1.000000	1.052848	7.3666e+06	-46589.1	955.817	-29769.1	0.000000	0.000000	7.053152	0.011843	NaN	0.000000	0.001549	0.001627	28.0829	0.089745	0.002015	44.5275	-157.033	13.2909	-0.102050	1.051483	-0.031205	-0.032570	0.011843	44.5275	-0.031405	-0.025204	-0.469874	NaN
159	1.000000	1.094857	7.3666e+06	-46589.1	955.82	-29769.1	0.000000	0.000000	7.095363	4.926124	NaN	0.000000	0.001557	0.001670	28.1155	3.232768	0.001859	1738.7	12.4909	-166.385	4.874896	1.093592	0.010804	0.009539	4.926124	1738.7	0.008679	0.007750	635.651	18044.9
159	2.000000	1.113927	7.3666e+06	-46589.1	955.819	-29769.1	0.000000	0.000000	7.114930	17.0136	NaN	0.000000	0.001526	0.001661	28.1248	14.2024	0.001868	7604.15	6.747961	5.256562	14.9466	1.113578	0.029874	0.029525	17.0136	7604.15	0.028196	0.037087	458.743	36075.4
159	2.000000	1.124393	7.3666e+06	-46589.1	955.818	-29769.1	0.000000	0.000000	7.126205	36.6897	NaN	0.000000	0.001504	0.001612	28.0838	24.4274	0.001847	13222.6	7.022828	-179.254	36.2703	1.124181	0.040340	0.040127	36.6897	13222.6	0.038259	0.059607	615.53	49481.4
159	2.000000	1.134974	7.3666e+06	-46589.1	955.817	-29769.1	0.000000	0.000000	7.137661	57.974	NaN	0.000000	0.001559	0.001637	28.0817	33.9234	0.001866	18178.8	5.665173	0.294220	60.5543	1.134605	0.050921	0.050552	57.974	18178.8	0.048529	0.087920	659.393	56013.7
159	2.000000	1.145409	7.3666e+06	-46589.1	955.818	-29769.1	0.000000	0.000000	7.149519	92.5772	NaN	0.000000	0.001589	0.001651	28.1153	42.203	0.001765	23904.7	3.123858	-179.796	92.9372	1.145100	0.061356	0.061047	92.5772	23904.7	0.058451	0.120314	769.465	62965
159	2.000000	1.155825	7.3666e+06	-46589.1	955.819	-29769.1	0.000000	0.000000	7.161650	134.306	NaN	0.000000	0.001599	0.001646	28.1255	51.4575	0.001728	29770.9	3.216742	-1.980291	128.833	1.155485	0.071772	0.071432	134.306	29770.9	0.068388	0.157593	852.236	68516.8
159	2.000000	1.166351	7.3666e+06	-46589.1	955.819	-29769.1	0.000000	0.000000	7.173848	174.98	NaN	0.000000	0.001587	0.001601	28.0873	63.5108	0.001779	35698.8	5.637938	174.689	172.54	1.165914	0.082298	0.081860	174.98	35698.8	0.078622	0.200918	870.901	72764.1
159	2.000000	1.176885	7.3666e+06	-46589.1	955.818	-29769.1	0.000000	0.000000	7.186770	233.068	NaN	0.000000	0.001598	0.001636	28.0802	74.8276	0.001827	40950.3	7.563379	-8.956432	233.726	1.176543	0.092831	0.092490	233.068	40950.3	0.088563	0.247690	940.968	75175.4
159	2.000000	1.187296	7.3666e+06	-46589.1	955.818	-29769.1	0.000000	0.000000	7.199859	298.196	NaN	0.000000	0.001570	0.001636	28.1129	84.2036	0.001908	44139.8	4.803266	173.719	293.988	1.186951	0.103243	0.102898	298.196	44139.8	0.098176	0.297242	1003.21	73968.8
159	2.000000	1.197855	7.3666e+06	-46589.1	955.818	-29769.1	0.000000	0.000000	7.213353	369.598	NaN	0.000000	0.001563	0.001657	28.1252	92.8974	0.001615	57533.8	3.728458	-7.567532	368.334	1.197441	0.113802	0.113387	369.598	57533.8	0.108984	0.357975	1032.47	87855.7
159	2.000000	1.204691	7.3666e+06	-46589.1	955.819	-29769.1	0.000000	0.000000	7.222327	421.601	NaN	0.000000	0.001572	0.001638	28.0801	101.076	0.001858	54391.6	4.624051	-7.588574	412.964	1.204429	0.120638	0.120376	421.601	54391.6	0.114825	0.393001	1072.78	79269.9