File: remote_trans/data/nanoindenter/0828-1/data/Data_2025-08-06,11h17m57s/2025-07-22_16-23-58_1_218.txt
2025-07-22, 16:23:58, 1
Index	Phase	Displacement	Time	Pos X	Pos Y	Pos Z	Rot A	Rot B	Piezo Z	Force A	Force B	Gripper	Voltage A	Voltage B	Temperature	Amplitude force	Amplitude pos	Stiffness	Phase shift	Phase excitation	Force A raw	Displacement raw	HMax	HMax raw	Real Force	Real Stiffness	Contact Depth	Area	Hardness	Reduced Mod.
[#]	[#]	[um]	[s]	[um]	[um]	[um]	[m°]	[m°]	[um]	[uN]	[uN]	[V]	[V]	[V]	[°C]	[uN]	[um]	[N/m]	[°]	[°]	[uN]	[um]	[um]	[um]	[uN]	[N/m]	[um]	[um^2]	[MPa]	[MPa]
218	1.000000	0.002537	7.36718e+06	-49539.1	955.818	-29759	0.000000	0.000000	6.002815	-0.080819	NaN	0.000000	0.001654	0.001794	28.0784	0.056884	0.000971	58.5707	13.5539	-161.985	-0.093715	0.001242	-1.011788	-1.013083	-0.080819	58.5707	-1.010753	-3.166006E+13	2.552698E-15	NaN
218	1.000000	0.042455	7.36718e+06	-49539.1	955.819	-29759	0.000000	0.000000	6.042737	0.017768	NaN	0.000000	0.001643	0.001773	28.0801	0.114520	0.001943	58.9467	-162.794	-169.148	-0.027557	0.041192	-0.971870	-0.973133	0.017768	58.9467	-0.972096	-9.547921E+12	-1.860951E-15	NaN
218	1.000000	0.082465	7.36718e+06	-49539.1	955.818	-29759.1	0.000000	0.000000	6.082742	-0.088454	NaN	0.000000	0.001713	0.001803	28.0798	0.049610	0.001940	25.5667	59.39	-165.248	-0.053793	0.081170	-0.931860	-0.933155	-0.088454	25.5667	-0.929265	-2.525125E+12	3.502949E-14	NaN
218	1.000000	0.122491	7.36718e+06	-49539.1	955.819	-29759.1	0.000000	0.000000	6.122773	0.020847	NaN	0.000000	0.001740	0.001787	28.0797	0.068916	0.001996	34.5227	81.3075	-166.9	-0.055921	0.121130	-0.891834	-0.893195	0.020847	34.5227	-0.892287	-7.995101E+11	-2.607494E-14	NaN
218	1.000000	0.162538	7.36718e+06	-49539.1	955.818	-29759.1	0.000000	0.000000	6.162819	0.007180	NaN	0.000000	0.001784	0.001810	28.0795	0.080538	0.001986	40.5436	94.0912	-164.183	0.009872	0.161230	-0.851787	-0.853095	0.007180	40.5436	-0.851920	-2.273714E+11	-3.157879E-14	NaN
218	1.000000	0.202519	7.36718e+06	-49539.1	955.819	-29759.1	0.000000	0.000000	6.202799	-0.029513	NaN	0.000000	0.001750	0.001830	28.0779	0.064678	0.002143	30.1867	-27.766	-163.919	-0.070147	0.201185	-0.811805	-0.813140	-0.029513	30.1867	-0.811072	-6.355040E+10	4.644026E-13	NaN
218	1.000000	0.242553	7.36718e+06	-49539.1	955.818	-29759.1	0.000000	0.000000	6.242832	-0.032901	NaN	0.000000	0.001760	0.001814	28.0779	0.043680	0.002046	21.3531	15.6414	-162.688	-0.060885	0.241260	-0.771772	-0.773065	-0.032901	21.3531	-0.770617	-1.793459E+10	1.834483E-12	NaN
218	1.000000	0.282555	7.36718e+06	-49539.1	955.819	-29759.1	0.000000	0.000000	6.282835	-0.025277	NaN	0.000000	0.001703	0.001806	28.0783	0.039265	0.002138	18.3675	27.7371	-161.869	-0.096168	0.281258	-0.731770	-0.733067	-0.025277	18.3675	-0.730738	-5.138868E+9	4.918861E-12	NaN
218	1.000000	0.322619	7.36718e+06	-49539.1	955.818	-29759.1	0.000000	0.000000	6.322901	0.028369	NaN	0.000000	0.001691	0.001716	28.0794	0.119748	0.002021	59.2442	-111.663	-164.994	0.010066	0.321220	-0.691706	-0.693105	0.028369	59.2442	-0.692065	-1.524552E+9	-1.860817E-11	NaN
218	1.000000	0.362626	7.36718e+06	-49539.1	955.819	-29759.1	0.000000	0.000000	6.362909	0.028248	NaN	0.000000	0.001695	0.001742	28.0794	0.119057	0.001919	62.0542	76.0233	-166.288	0.019414	0.361243	-0.651699	-0.653082	0.028248	62.0542	-0.652040	-4.319165E+8	-6.540042E-11	NaN
218	1.000000	0.402636	7.36718e+06	-49539.1	955.819	-29759.1	0.000000	0.000000	6.402916	-0.019906	NaN	0.000000	0.001693	0.001738	28.0796	0.071962	0.001958	36.7561	-1.968980	-163.891	-0.025077	0.401319	-0.611689	-0.613006	-0.019906	36.7561	-0.611283	-1.190587E+8	1.671942E-10	NaN
218	1.000000	0.442623	7.36718e+06	-49539.1	955.819	-29759.1	0.000000	0.000000	6.442905	0.019211	NaN	0.000000	0.001644	0.001768	28.0795	0.125182	0.002073	60.3901	-100.449	-167.227	-0.041154	0.441312	-0.571701	-0.573013	0.019211	60.3901	-0.571940	-3.415350E+7	-5.624880E-10	NaN
218	1.000000	0.482663	7.36718e+06	-49539.1	955.818	-29759.1	0.000000	0.000000	6.482943	-0.021265	NaN	0.000000	0.001700	0.001757	28.0785	0.079422	0.001944	40.8478	136.192	-166.25	-0.152070	0.481325	-0.531662	-0.533000	-0.021265	40.8478	-0.531272	-9.33757e+06	2.277384E-9	NaN
218	1.000000	0.522673	7.36718e+06	-49539.1	955.818	-29759.1	0.000000	0.000000	6.522953	-0.034796	NaN	0.000000	0.001690	0.001755	28.0782	0.125265	0.002000	62.6266	166.558	-162.983	-0.031589	0.521391	-0.491652	-0.492934	-0.034796	62.6266	-0.491235	-2.58616e+06	1.345472E-8	NaN
218	1.000000	0.562668	7.36718e+06	-49539.1	955.819	-29759.1	0.000000	0.000000	6.562947	-0.062361	NaN	0.000000	0.001710	0.001772	28.0786	0.093623	0.001915	48.8912	151.363	-164.58	-0.031871	0.561385	-0.451657	-0.452940	-0.062361	48.8912	-0.450700	-698556	8.927110E-8	NaN
218	1.000000	0.602705	7.36718e+06	-49539.1	955.818	-29759.1	0.000000	0.000000	6.602986	0.011365	NaN	0.000000	0.001657	0.001796	28.081	0.039214	0.002024	19.3784	83.8271	-166.198	-0.003842	0.601385	-0.411620	-0.412940	0.011365	19.3784	-0.412060	-198468	-5.726480E-8	NaN
218	1.000000	0.642717	7.36718e+06	-49539.1	955.819	-29759.1	0.000000	0.000000	6.642993	-0.107842	NaN	0.000000	0.001682	0.001758	28.0801	0.051562	0.002061	25.0138	-51.1694	-166.671	-0.060802	0.641449	-0.371608	-0.372876	-0.107842	25.0138	-0.368375	-47066.8	2.291261E-6	NaN
218	1.000000	0.682734	7.36718e+06	-49539.1	955.817	-29759.1	0.000000	0.000000	6.683015	-0.001996	NaN	0.000000	0.001720	0.001767	28.0803	0.048598	0.001884	25.7972	67.9504	-163.56	0.061186	0.681409	-0.331591	-0.332916	-0.001996	25.7972	-0.331533	-13737.1	1.452705E-7	NaN
218	1.000000	0.722758	7.36718e+06	-49539.1	955.817	-29759.1	0.000000	0.000000	6.723039	-0.021964	NaN	0.000000	0.001745	0.001743	28.0789	0.086134	0.002051	41.9959	-43.3915	-167.759	-0.061275	0.721426	-0.291567	-0.292899	-0.021964	41.9959	-0.291174	-3474.48	6.321473E-6	NaN
218	1.000000	0.762789	7.36718e+06	-49539.1	955.818	-29759.1	0.000000	0.000000	6.763070	-0.015206	NaN	0.000000	0.001727	0.001768	28.0788	0.091895	0.002094	43.8766	120.391	-165.657	-0.035185	0.761481	-0.251536	-0.252844	-0.015206	43.8766	-0.251276	-860.38	1.767338E-5	NaN
218	1.000000	0.802787	7.36718e+06	-49539.1	955.819	-29759.1	0.000000	0.000000	6.803067	-0.024770	NaN	0.000000	0.001702	0.001721	28.0789	0.107416	0.002048	52.4498	120.557	-161.41	-0.028662	0.801501	-0.211538	-0.212823	-0.024770	52.4498	-0.211184	-200.435	0.000124	NaN
218	1.000000	0.842814	7.36718e+06	-49539.1	955.819	-29759.1	0.000000	0.000000	6.843095	-0.002418	NaN	0.000000	0.001729	0.001743	28.0784	0.056820	0.001919	29.6101	142.933	-164.269	0.024358	0.841497	-0.171511	-0.172828	-0.002418	29.6101	-0.171450	-43.5268	5.555422E-5	NaN
218	1.000000	0.882830	7.36718e+06	-49539.1	955.819	-29759.1	0.000000	0.000000	6.883110	-0.046339	NaN	0.000000	0.001746	0.001799	28.0795	0.011873	0.001938	6.126970	124.828	-165.279	-0.025932	0.881561	-0.131495	-0.132764	-0.046339	6.126970	-0.125822	-6.313009	0.007340	NaN
218	1.000000	0.922833	7.36718e+06	-49539.1	955.819	-29759.1	0.000000	0.000000	6.923115	0.017716	NaN	0.000000	0.001759	0.001771	28.0795	0.032692	0.002044	15.9905	24.4616	-163.325	0.037147	0.921518	-0.091492	-0.092807	0.017716	15.9905	-0.092322	-1.224429	-0.014469	NaN
218	1.000000	0.962825	7.36718e+06	-49539.1	955.818	-29759.1	0.000000	0.000000	6.963105	-0.022554	NaN	0.000000	0.001725	0.001777	28.0797	0.058944	0.001982	29.7379	-91.7272	-165.804	-0.051152	0.961542	-0.051500	-0.052783	-0.022554	29.7379	-0.050931	-0.097353	0.231670	NaN
218	1.000000	1.002864	7.36718e+06	-49539.1	955.817	-29759.1	0.000000	0.000000	7.003142	-0.076902	NaN	0.000000	0.001648	0.001771	28.0787	0.058976	0.001979	29.8049	30.7772	-167.149	-0.090874	1.001532	-0.011461	-0.012793	-0.076902	29.8049	-0.009526	-0.006116	12.5747	NaN
218	2.000000	1.029414	7.36718e+06	-49539.1	955.817	-29759.1	0.000000	0.000000	7.030328	15.4053	NaN	0.000000	0.001637	0.001790	28.0794	13.8792	0.001758	7893.73	8.335983	-177.437	15.0165	1.029149	0.015089	0.014825	15.4053	7893.73	0.013625	0.013496	1141.52	62081.3
218	2.000000	1.039355	7.36718e+06	-49539.1	955.817	-29759.1	0.000000	0.000000	7.041124	36.1959	NaN	0.000000	0.001691	0.001758	28.0794	23.9836	0.001946	12327.3	3.821452	-175.511	34.6899	1.039006	0.025030	0.024682	36.1959	12327.3	0.022828	0.027182	1331.63	68313.1
218	2.000000	1.049392	7.36718e+06	-49539.1	955.818	-29759.1	0.000000	0.000000	7.052501	68.7737	NaN	0.000000	0.001669	0.001726	28.0797	34.3518	0.001808	18997.7	8.277812	177.29	69.9815	1.049028	0.035067	0.034703	68.7737	18997.7	0.032352	0.045759	1502.94	81139.8
218	2.000000	1.059305	7.36718e+06	-49539.1	955.818	-29759.1	0.000000	0.000000	7.064044	108.404	NaN	0.000000	0.001692	0.001764	28.0812	45.4115	0.001777	25549.2	3.054707	178.385	108.323	1.059103	0.044980	0.044779	108.404	25549.2	0.041798	0.068758	1576.6	89020.1
218	2.000000	1.069271	7.36718e+06	-49539.1	955.818	-29759.1	0.000000	0.000000	7.076488	168.698	NaN	0.000000	0.001713	0.001781	28.0806	56.4218	0.001775	31780	3.719032	176.196	165.166	1.068999	0.054946	0.054674	168.698	31780	0.050965	0.095418	1767.99	93996.8
218	2.000000	1.079321	7.36718e+06	-49539.1	955.818	-29759.1	0.000000	0.000000	7.089081	230.513	NaN	0.000000	0.001741	0.001690	28.0801	67.4152	0.001906	35374.6	9.001496	170.079	228.958	1.078954	0.064996	0.064630	230.513	35374.6	0.060109	0.126200	1826.57	90977.8
218	2.000000	1.089278	7.36718e+06	-49539.1	955.819	-29759.1	0.000000	0.000000	7.101875	299.522	NaN	0.000000	0.001713	0.001791	28.0788	74.9857	0.001730	43339.3	3.903089	174.033	297.271	1.088941	0.074953	0.074616	299.522	43339.3	0.069770	0.163152	1835.84	98030
218	2.000000	1.099333	7.36718e+06	-49539.1	955.819	-29759.1	0.000000	0.000000	7.114945	372.841	NaN	0.000000	0.001723	0.001814	28.0788	84.9087	0.001796	47279.6	4.247681	173.206	373.984	1.098885	0.085008	0.084560	372.841	47279.6	0.079094	0.203034	1836.35	95865.4
218	2.000000	1.109185	7.36718e+06	-49539.1	955.819	-29759.1	0.000000	0.000000	7.128421	460.975	NaN	0.000000	0.001677	0.001783	28.0787	93.2321	0.001733	53805.4	5.852958	170.601	455.409	1.108934	0.094860	0.094609	460.975	53805.4	0.088434	0.247056	1865.88	98901.3
218	2.000000	1.119291	7.36718e+06	-49539.1	955.818	-29759.1	0.000000	0.000000	7.142107	548.036	NaN	0.000000	0.001742	0.001773	28.0808	102.803	0.001810	56782.9	2.760917	172.981	548.559	1.118996	0.104966	0.104671	548.036	56782.9	0.097728	0.294837	1858.77	95543.2
218	2.000000	1.123189	7.36718e+06	-49539.1	955.819	-29759.1	0.000000	0.000000	7.147821	592.215	NaN	0.000000	0.001635	0.001746	28.08	107.011	0.001858	57593.6	4.509514	171.734	588.617	1.122919	0.108864	0.108594	592.215	57593.6	0.101152	0.313434	1889.44	93988.5