File: remote_trans/data/nanoindenter/0828-1/data/Data_2025-08-06,11h17m57s/2025-07-22_16-23-58_1_181.txt
2025-07-22, 16:23:58, 1
Index	Phase	Displacement	Time	Pos X	Pos Y	Pos Z	Rot A	Rot B	Piezo Z	Force A	Force B	Gripper	Voltage A	Voltage B	Temperature	Amplitude force	Amplitude pos	Stiffness	Phase shift	Phase excitation	Force A raw	Displacement raw	HMax	HMax raw	Real Force	Real Stiffness	Contact Depth	Area	Hardness	Reduced Mod.
[#]	[#]	[um]	[s]	[um]	[um]	[um]	[m°]	[m°]	[um]	[uN]	[uN]	[V]	[V]	[V]	[°C]	[uN]	[um]	[N/m]	[°]	[°]	[uN]	[um]	[um]	[um]	[uN]	[N/m]	[um]	[um^2]	[MPa]	[MPa]
181	1.000000	0.002268	7.36681e+06	-47689.1	955.819	-29764.9	0.000000	0.000000	6.002816	-0.033954	NaN	0.000000	0.001623	0.001691	28.0823	0.073995	0.000971	76.2311	-155.708	-167.387	0.027644	0.000948	-1.768728	-1.770048	-0.033954	76.2311	-1.768394	-4.117822E+23	8.245659E-26	NaN
181	1.000000	0.062191	7.36681e+06	-47689.1	955.819	-29764.9	0.000000	0.000000	6.062742	0.033035	NaN	0.000000	0.001601	0.001685	28.1172	0.069234	0.001907	36.3133	108.643	-165.295	0.005724	0.060921	-1.708805	-1.710075	0.033035	36.3133	-1.709488	-6.799364E+22	-4.858495E-25	NaN
181	1.000000	0.122241	7.36681e+06	-47689.1	955.818	-29764.9	0.000000	0.000000	6.122793	0.078908	NaN	0.000000	0.001577	0.001646	28.0828	0.037437	0.001933	19.3689	-26.1298	-166.972	0.010132	0.120905	-1.648756	-1.650092	0.078908	19.3689	-1.651811	-1.164404E+22	-6.776717E-24	NaN
181	1.000000	0.182260	7.36681e+06	-47689.1	955.817	-29764.8	0.000000	0.000000	6.182809	-0.018595	NaN	0.000000	0.001596	0.001648	28.118	0.104694	0.001900	55.1103	-147.465	-168.733	0.058123	0.180944	-1.588736	-1.590053	-0.018595	55.1103	-1.588483	-1.675084E+21	1.110065E-23	NaN
181	1.000000	0.242277	7.36681e+06	-47689.1	955.817	-29764.8	0.000000	0.000000	6.242827	0.008087	NaN	0.000000	0.001617	0.001657	28.0827	0.081345	0.001997	40.738	4.763964	-165.113	0.035461	0.240989	-1.528719	-1.530007	0.008087	40.738	-1.528868	-2.695934E+20	-2.999637E-23	NaN
181	1.000000	0.302301	7.36681e+06	-47689.1	955.818	-29764.8	0.000000	0.000000	6.302852	0.052143	NaN	0.000000	0.001582	0.001669	28.1175	0.147460	0.001992	74.0422	91.6394	-167.502	0.081075	0.301001	-1.468695	-1.469996	0.052143	74.0422	-1.469223	-4.328400E+19	-1.204675E-21	NaN
181	1.000000	0.362309	7.36681e+06	-47689.1	955.819	-29764.8	0.000000	0.000000	6.362859	0.020505	NaN	0.000000	0.001676	0.001654	28.0765	0.055306	0.001987	27.8279	-151.713	-165.599	-0.006064	0.361041	-1.408688	-1.409956	0.020505	27.8279	-1.409240	-6.866127E+18	-2.986361E-21	NaN
181	1.000000	0.422336	7.36681e+06	-47689.1	955.818	-29764.8	0.000000	0.000000	6.422886	0.039017	NaN	0.000000	0.001650	0.001648	28.0769	0.029035	0.002091	13.8847	170.023	-164.998	0.060990	0.421079	-1.348661	-1.349918	0.039017	13.8847	-1.350769	-1.138913E+18	-3.425853E-20	NaN
181	1.000000	0.482379	7.36681e+06	-47689.1	955.818	-29764.8	0.000000	0.000000	6.482930	0.067217	NaN	0.000000	0.001557	0.001670	28.0778	0.048392	0.002018	23.9758	92.0932	-166.084	0.018606	0.481014	-1.288618	-1.289983	0.067217	23.9758	-1.290721	-1.796338E+17	-3.741868E-19	NaN
181	1.000000	0.542409	7.36681e+06	-47689.1	955.819	-29764.8	0.000000	0.000000	6.542961	0.067569	NaN	0.000000	0.001546	0.001666	28.0783	0.020543	0.002144	9.583099	-45.6152	-167.403	-0.012916	0.541115	-1.228587	-1.229882	0.067569	9.583099	-1.233875	-3.120310E+16	-2.165449E-18	NaN
181	1.000000	0.602434	7.36681e+06	-47689.1	955.817	-29764.8	0.000000	0.000000	6.602986	0.074991	NaN	0.000000	0.001582	0.001703	28.0766	0.128163	0.002051	62.5001	107.784	-166.181	0.037472	0.601149	-1.168563	-1.169847	0.074991	62.5001	-1.169463	-4.282424E+15	-1.751131E-17	NaN
181	1.000000	0.662436	7.36681e+06	-47689.1	955.819	-29764.8	0.000000	0.000000	6.662983	-0.035232	NaN	0.000000	0.001629	0.001686	28.0763	0.098357	0.002007	49.008	-84.7817	-165.751	-0.056064	0.661154	-1.108561	-1.109843	-0.035232	49.008	-1.108022	-6.423035E+14	5.485190E-17	NaN
181	1.000000	0.722456	7.36681e+06	-47689.1	955.817	-29764.8	0.000000	0.000000	6.723011	0.147589	NaN	0.000000	0.001618	0.001689	28.0776	0.042412	0.002100	20.1996	58.0117	-164.176	0.106383	0.721144	-1.048540	-1.049852	0.147589	20.1996	-1.054020	-1.209080E+14	-1.220672E-15	NaN
181	1.000000	0.782514	7.36681e+06	-47689.1	955.819	-29764.8	0.000000	0.000000	6.783063	-0.002207	NaN	0.000000	0.001602	0.001678	28.0773	0.071399	0.001994	35.8025	28.5176	-163.17	0.021362	0.781206	-0.988483	-0.989791	-0.002207	35.8025	-0.988436	-1.585085E+13	1.392432E-16	NaN
181	1.000000	0.842556	7.36681e+06	-47689.1	955.818	-29764.8	0.000000	0.000000	6.843105	-0.000105	NaN	0.000000	0.001601	0.001666	28.0785	0.052048	0.002013	25.855	145.848	-162.259	0.055612	0.841298	-0.928440	-0.929699	-0.000105	25.855	-0.928437	-2.460953E+12	4.272465E-17	NaN
181	1.000000	0.902566	7.36681e+06	-47689.1	955.818	-29764.8	0.000000	0.000000	6.903115	-0.004288	NaN	0.000000	0.001627	0.001703	28.0765	0.091882	0.002140	42.9393	167.857	-167.592	0.019801	0.901243	-0.868431	-0.869754	-0.004288	42.9393	-0.868356	-3.794893E+11	1.129903E-14	NaN
181	1.000000	0.962565	7.36681e+06	-47689.1	955.818	-29764.8	0.000000	0.000000	6.963113	-0.015221	NaN	0.000000	0.001669	0.001646	28.0765	0.088491	0.002003	44.1806	40.4776	-163.993	0.012211	0.961301	-0.808432	-0.809696	-0.015221	44.1806	-0.808174	-5.804874E+10	2.622040E-13	NaN
181	1.000000	1.022602	7.36681e+06	-47689.1	955.817	-29764.8	0.000000	0.000000	7.023155	0.100558	NaN	0.000000	0.001649	0.001673	28.078	0.033792	0.002057	16.4285	179.195	-164.816	-0.010971	1.021282	-0.748395	-0.749714	0.100558	16.4285	-0.752986	-1.032430E+10	-9.739926E-12	NaN
181	1.000000	1.082635	7.36681e+06	-47689.1	955.816	-29764.8	0.000000	0.000000	7.083184	0.001415	NaN	0.000000	0.001555	0.001689	28.0778	0.070124	0.001987	35.2914	-66.8401	-168.098	0.017649	1.081361	-0.688362	-0.689636	0.001415	35.2914	-0.688392	-1.358135E+9	-1.041678E-12	NaN
181	1.000000	1.142692	7.36681e+06	-47689.1	955.817	-29764.8	0.000000	0.000000	7.143241	0.016019	NaN	0.000000	0.001564	0.001695	28.0766	0.043418	0.001934	22.4547	36.7837	-168.068	0.037782	1.141385	-0.628305	-0.629612	0.016019	22.4547	-0.628840	-2.075366E+8	-7.718458E-11	NaN
181	1.000000	1.202693	7.36681e+06	-47689.1	955.818	-29764.8	0.000000	0.000000	7.203242	0.009798	NaN	0.000000	0.001549	0.001713	28.0764	0.068794	0.002044	33.6501	-6.864365	-164.925	-0.000172	1.201338	-0.568304	-0.569659	0.009798	33.6501	-0.568522	-3.063450E+7	-3.198485E-10	NaN
181	1.000000	1.262686	7.36682e+06	-47689.1	955.818	-29764.8	0.000000	0.000000	7.263234	-0.007795	NaN	0.000000	0.001551	0.001730	28.0767	0.058704	0.001950	30.1025	31.2697	-165.456	-0.009287	1.261462	-0.508311	-0.509534	-0.007795	30.1025	-0.508117	-4.44818e+06	1.752437E-9	NaN
181	1.000000	1.322728	7.36682e+06	-47689.1	955.817	-29764.8	0.000000	0.000000	7.323280	0.074587	NaN	0.000000	0.001587	0.001730	28.0781	0.076020	0.001956	38.868	146.872	-164.134	0.069237	1.321399	-0.448269	-0.449598	0.074587	38.868	-0.449708	-676449	-1.102624E-7	NaN
181	1.000000	1.382805	7.36682e+06	-47689.1	955.817	-29764.8	0.000000	0.000000	7.383354	0.001394	NaN	0.000000	0.001555	0.001672	28.0778	0.055715	0.001988	28.0304	-145.637	-166.031	-0.008251	1.381462	-0.388191	-0.389535	0.001394	28.0304	-0.388229	-90744.8	-1.536151E-8	NaN
181	1.000000	1.442791	7.36682e+06	-47689.1	955.819	-29764.8	0.000000	0.000000	7.443338	-0.047499	NaN	0.000000	0.001618	0.001689	28.0766	0.011420	0.001969	5.800606	104.858	-166.646	-0.041774	1.441441	-0.328205	-0.329556	-0.047499	5.800606	-0.322064	-9977.02	4.760871E-6	NaN
181	1.000000	1.502803	7.36682e+06	-47689.1	955.818	-29764.8	0.000000	0.000000	7.503354	0.051438	NaN	0.000000	0.001553	0.001746	28.0767	0.107366	0.001957	54.8646	56.6569	-164.08	0.075267	1.501522	-0.268194	-0.269475	0.051438	54.8646	-0.268897	-1602.4	-3.210052E-5	NaN
181	1.000000	1.562848	7.36682e+06	-47689.1	955.818	-29764.8	0.000000	0.000000	7.563398	0.016831	NaN	0.000000	0.001599	0.001677	28.0775	0.039419	0.002087	18.8881	-134.422	-165.652	0.086421	1.561515	-0.208148	-0.209481	0.016831	18.8881	-0.208817	-183.502	-9.171851E-5	NaN
181	1.000000	1.622879	7.36682e+06	-47689.1	955.818	-29764.8	0.000000	0.000000	7.623430	0.041569	NaN	0.000000	0.001651	0.001689	28.0777	0.076712	0.002109	36.375	170.081	-166.511	0.003265	1.621541	-0.148118	-0.149455	0.041569	36.375	-0.148975	-17.3492	-0.002396	NaN
181	1.000000	1.682920	7.36682e+06	-47689.1	955.818	-29764.8	0.000000	0.000000	7.683470	0.029401	NaN	0.000000	0.001570	0.001727	28.0765	0.050715	0.002116	23.9726	-117.437	-164.083	0.057905	1.681576	-0.088076	-0.089421	0.029401	23.9726	-0.088996	-1.023742	-0.028719	NaN
181	1.000000	1.742920	7.36682e+06	-47689.1	955.818	-29764.8	0.000000	0.000000	7.743471	0.038963	NaN	0.000000	0.001622	0.001635	28.0767	0.078659	0.002084	37.751	-127.258	-164.216	-0.046858	1.741682	-0.028077	-0.029315	0.038963	37.751	-0.028851	-0.021389	-1.821695	NaN
181	2.000000	1.785432	7.36682e+06	-47689.1	955.818	-29764.8	0.000000	0.000000	7.786732	18.2729	NaN	0.000000	0.001599	0.001682	28.0767	15.5706	0.001745	8923.68	2.979493	-173.407	17.3741	1.785089	0.014435	0.014092	18.2729	8923.68	0.012899	0.012585	1451.96	72675.9
181	2.000000	1.800355	7.36682e+06	-47689.1	955.819	-29764.8	0.000000	0.000000	7.803060	52.4374	NaN	0.000000	0.001615	0.001690	28.0777	29.4165	0.001662	17696.6	4.890183	179.993	52.186	1.800046	0.029358	0.029050	52.4374	17696.6	0.027136	0.035016	1497.52	86402.8
181	2.000000	1.815347	7.36682e+06	-47689.1	955.819	-29764.8	0.000000	0.000000	7.820042	100.854	NaN	0.000000	0.001597	0.001712	28.0782	42.8248	0.001803	23755.2	-0.511038	-177.565	99.1983	1.814991	0.044350	0.043995	100.854	23755.2	0.041166	0.067076	1503.57	83800.7
181	2.000000	1.830297	7.36682e+06	-47689.1	955.819	-29764.8	0.000000	0.000000	7.837363	158.509	NaN	0.000000	0.001632	0.001668	28.0766	55.4344	0.001803	30739.3	4.755629	175.636	158.514	1.830079	0.059300	0.059082	158.509	30739.3	0.055433	0.109943	1441.74	84700.2
181	2.000000	1.845266	7.36682e+06	-47689.1	955.819	-29764.8	0.000000	0.000000	7.855691	240.211	NaN	0.000000	0.001633	0.001698	28.0769	69.5655	0.001830	38020.5	1.995834	175.809	237.23	1.845030	0.074270	0.074033	240.211	38020.5	0.069531	0.162186	1481.08	86254.9
181	2.000000	1.860292	7.36682e+06	-47689.1	955.82	-29764.8	0.000000	0.000000	7.874330	328.093	NaN	0.000000	0.001634	0.001659	28.078	81.5916	0.001889	43187.5	1.642957	176.467	328.324	1.860010	0.089295	0.089014	328.093	43187.5	0.083598	0.223758	1466.29	83414.6
181	2.000000	1.875225	7.36682e+06	-47689.1	955.82	-29764.8	0.000000	0.000000	7.893326	426.929	NaN	0.000000	0.001624	0.001653	28.0781	96.4193	0.001823	52901.5	6.125840	169.707	424.366	1.875046	0.104228	0.104049	426.929	52901.5	0.098175	0.297237	1436.33	88652.2
181	2.000000	1.878234	7.36682e+06	-47689.1	955.819	-29764.8	0.000000	0.000000	7.897542	456.259	NaN	0.000000	0.001582	0.001658	28.078	99.1835	0.001825	54351.8	7.376493	168.45	455.226	1.877959	0.107238	0.106963	456.259	54351.8	0.100942	0.312278	1461.07	88862.1