File: remote_trans/data/nanoindenter/0828-1/data/Data_2025-08-06,11h17m57s/2025-07-22_16-23-58_1_745.txt
2025-07-22, 16:23:58, 1
Index	Phase	Displacement	Time	Pos X	Pos Y	Pos Z	Rot A	Rot B	Piezo Z	Force A	Force B	Gripper	Voltage A	Voltage B	Temperature	Amplitude force	Amplitude pos	Stiffness	Phase shift	Phase excitation	Force A raw	Displacement raw	HMax	HMax raw	Real Force	Real Stiffness	Contact Depth	Area	Hardness	Reduced Mod.
[#]	[#]	[um]	[s]	[um]	[um]	[um]	[m°]	[m°]	[um]	[uN]	[uN]	[V]	[V]	[V]	[°C]	[uN]	[um]	[N/m]	[°]	[°]	[uN]	[um]	[um]	[um]	[uN]	[N/m]	[um]	[um^2]	[MPa]	[MPa]
745	1.000000	0.002585	7.37234e+06	-39839.1	1005.82	-29792.4	0.000000	0.000000	6.002733	0.019209	NaN	0.000000	0.001559	0.001716	28.0819	0.103574	0.000884	117.116	-154.058	173.992	-0.010774	0.001353	-1.103076	-1.104308	0.019209	117.116	-1.103199	-5.533645E+14	-3.471236E-17	NaN
745	1.000000	0.044544	7.37234e+06	-39839.1	1005.82	-29792.4	0.000000	0.000000	6.044691	-0.014478	NaN	0.000000	0.001606	0.001688	28.0818	0.121013	0.001905	63.521	103.515	-1.064213	-0.041854	0.043147	-1.061118	-1.062515	-0.014478	63.521	-1.060947	-1.498104E+14	9.663985E-17	NaN
745	1.000000	0.086555	7.37234e+06	-39839.1	1005.82	-29792.4	0.000000	0.000000	6.086705	0.071341	NaN	0.000000	0.001637	0.001770	28.0815	0.088390	0.001968	44.9166	-178.057	177.726	0.020989	0.085261	-1.019107	-1.020401	0.071341	44.9166	-1.020298	-4.255585E+13	-1.676412E-15	NaN
745	1.000000	0.128554	7.37234e+06	-39839.1	1005.82	-29792.4	0.000000	0.000000	6.128702	0.018952	NaN	0.000000	0.001612	0.001689	28.0804	0.075248	0.002022	37.2164	150.379	-1.594233	0.047530	0.127192	-0.977107	-0.978469	0.018952	37.2164	-0.977489	-1.128709E+13	-1.679129E-15	NaN
745	1.000000	0.170595	7.37234e+06	-39839.1	1005.82	-29792.4	0.000000	0.000000	6.170744	0.031290	NaN	0.000000	0.001596	0.001740	28.0802	0.098446	0.002016	48.8306	162.042	175.293	0.047563	0.169250	-0.935066	-0.936411	0.031290	48.8306	-0.935547	-3.069364E+12	-1.019434E-14	NaN
745	1.000000	0.212616	7.37234e+06	-39839.1	1005.82	-29792.4	0.000000	0.000000	6.212764	0.007660	NaN	0.000000	0.001597	0.001718	28.0803	0.095332	0.001956	48.737	-94.8693	-1.977876	0.084167	0.211236	-0.893045	-0.894426	0.007660	48.737	-0.893163	-8.216195E+11	-9.323174E-15	NaN
745	1.000000	0.254621	7.37234e+06	-39839.1	1005.82	-29792.4	0.000000	0.000000	6.254767	-0.013484	NaN	0.000000	0.001525	0.001707	28.0817	0.044676	0.002129	20.98	89.0457	176.408	-0.022302	0.253317	-0.851041	-0.852344	-0.013484	20.98	-0.850559	-2.179228E+11	6.187553E-14	NaN
745	1.000000	0.296652	7.37234e+06	-39839.1	1005.82	-29792.4	0.000000	0.000000	6.296800	0.005347	NaN	0.000000	0.001588	0.001703	28.0816	0.053354	0.002079	25.6573	42.3312	-3.116790	0.034466	0.295254	-0.809009	-0.810408	0.005347	25.6573	-0.809165	-5.987543E+10	-8.930312E-14	NaN
745	1.000000	0.338652	7.37234e+06	-39839.1	1005.82	-29792.4	0.000000	0.000000	6.338801	0.038989	NaN	0.000000	0.001566	0.001706	28.0816	0.100270	0.001959	51.1769	132.57	176.503	0.066127	0.337329	-0.767009	-0.768332	0.038989	51.1769	-0.767581	-1.630839E+10	-2.390732E-12	NaN
745	1.000000	0.380654	7.37234e+06	-39839.1	1005.82	-29792.4	0.000000	0.000000	6.380799	-0.040545	NaN	0.000000	0.001704	0.001729	28.0802	0.047051	0.002069	22.7355	-159.086	-1.088171	-0.027277	0.379343	-0.725008	-0.726319	-0.040545	22.7355	-0.723670	-4.116415E+9	9.849622E-12	NaN
745	1.000000	0.422686	7.37234e+06	-39839.1	1005.82	-29792.4	0.000000	0.000000	6.422833	-0.018785	NaN	0.000000	0.001651	0.001731	28.0806	0.067426	0.001938	34.7966	-22.0564	174.813	-0.003713	0.421363	-0.682975	-0.684298	-0.018785	34.7966	-0.682570	-1.130723E+9	1.661288E-11	NaN
745	1.000000	0.464722	7.37234e+06	-39839.1	1005.82	-29792.4	0.000000	0.000000	6.464869	-0.010628	NaN	0.000000	0.001599	0.001702	28.0807	0.081725	0.001983	41.2068	-166.003	-1.898371	-0.007179	0.463327	-0.640939	-0.642334	-0.010628	41.2068	-0.640746	-3.023575E+8	3.515047E-11	NaN
745	1.000000	0.506718	7.37234e+06	-39839.1	1005.82	-29792.4	0.000000	0.000000	6.506865	-0.016384	NaN	0.000000	0.001620	0.001706	28.081	0.124403	0.002019	61.6105	-167.738	176.764	0.002644	0.505416	-0.598943	-0.600245	-0.016384	61.6105	-0.598744	-8.001230E+7	2.047715E-10	NaN
745	1.000000	0.548769	7.37234e+06	-39839.1	1005.82	-29792.4	0.000000	0.000000	6.548913	-0.069733	NaN	0.000000	0.001582	0.001707	28.0818	0.060261	0.002083	28.9329	84.0216	-2.036556	-0.038975	0.547372	-0.556893	-0.558289	-0.069733	28.9329	-0.555085	-1.996945E+7	3.491983E-9	NaN
745	1.000000	0.590748	7.37234e+06	-39839.1	1005.82	-29792.4	0.000000	0.000000	6.590897	0.024241	NaN	0.000000	0.001609	0.001696	28.0817	0.171503	0.002011	85.2805	23.6645	176.49	-0.066937	0.589490	-0.514913	-0.516171	0.024241	85.2805	-0.515126	-5.56913e+06	-4.352694E-9	NaN
745	1.000000	0.632785	7.37234e+06	-39839.1	1005.82	-29792.4	0.000000	0.000000	6.632932	-0.005059	NaN	0.000000	0.001696	0.001710	28.0816	0.063337	0.001907	33.2111	-175.171	-1.837551	-0.014593	0.631444	-0.472876	-0.474218	-0.005059	33.2111	-0.472762	-1.42605e+06	3.547298E-9	NaN
745	1.000000	0.674786	7.37234e+06	-39839.1	1005.82	-29792.4	0.000000	0.000000	6.674932	-0.034399	NaN	0.000000	0.001656	0.001706	28.0802	0.062295	0.001902	32.7609	151.733	-179.451	-0.028203	0.673464	-0.430876	-0.432197	-0.034399	32.7609	-0.430088	-357527	9.621362E-8	NaN
745	1.000000	0.716804	7.37234e+06	-39839.1	1005.82	-29792.4	0.000000	0.000000	6.716950	-0.027994	NaN	0.000000	0.001638	0.001730	28.0806	0.003388	0.002030	1.668746	-13.2597	-3.760633	-0.002716	0.715448	-0.388858	-0.390214	-0.027994	1.668746	-0.376276	-61152	4.577760E-7	NaN
745	1.000000	0.758828	7.37234e+06	-39839.1	1005.82	-29792.4	0.000000	0.000000	6.758976	0.006931	NaN	0.000000	0.001576	0.001741	28.0802	0.157465	0.002063	76.3152	-12.6678	175.521	-0.064392	0.757527	-0.346833	-0.348134	0.006931	76.3152	-0.346901	-23014.2	-3.011791E-7	NaN
745	1.000000	0.800842	7.37234e+06	-39839.1	1005.82	-29792.4	0.000000	0.000000	6.800989	-0.033652	NaN	0.000000	0.001582	0.001746	28.0816	0.061820	0.002055	30.0839	-63.5502	-3.801095	-0.045953	0.799465	-0.304819	-0.306197	-0.033652	30.0839	-0.303980	-5392.74	6.240195E-6	NaN
745	1.000000	0.842879	7.37234e+06	-39839.1	1005.82	-29792.4	0.000000	0.000000	6.843029	0.062759	NaN	0.000000	0.001591	0.001715	28.0815	0.036889	0.001927	19.1412	-168.522	176.968	0.115681	0.841507	-0.262782	-0.264155	0.062759	19.1412	-0.265241	-1409.52	-4.452486E-5	NaN
745	1.000000	0.884849	7.37235e+06	-39839.1	1005.82	-29792.4	0.000000	0.000000	6.884999	0.046988	NaN	0.000000	0.001637	0.001731	28.0816	0.120561	0.001865	64.6321	177.501	-1.556877	0.023767	0.883554	-0.220812	-0.222107	0.046988	64.6321	-0.221357	-291.977	-0.000161	NaN
745	1.000000	0.926883	7.37235e+06	-39839.1	1005.82	-29792.4	0.000000	0.000000	6.927030	-0.008138	NaN	0.000000	0.001627	0.001705	28.0804	0.013902	0.001943	7.154233	-142.276	-179.764	-0.023583	0.925559	-0.178779	-0.180102	-0.008138	7.154233	-0.177926	-56.2476	0.000145	NaN
745	1.000000	0.968914	7.37235e+06	-39839.1	1005.82	-29792.4	0.000000	0.000000	6.969061	0.003984	NaN	0.000000	0.001637	0.001731	28.0806	0.020494	0.001896	10.8098	-156.483	-0.191560	0.023308	0.967591	-0.136748	-0.138070	0.003984	10.8098	-0.137024	-10.3945	-0.000383	NaN
745	1.000000	1.010947	7.37235e+06	-39839.1	1005.82	-29792.4	0.000000	0.000000	7.011093	-0.034637	NaN	0.000000	0.001574	0.001757	28.0806	0.063850	0.002059	31.0166	-143.064	176.1	0.054881	1.009671	-0.094714	-0.095991	-0.034637	31.0166	-0.093876	-1.329623	0.026050	NaN
745	1.000000	1.052933	7.37235e+06	-39839.1	1005.82	-29792.4	0.000000	0.000000	7.053080	-0.006949	NaN	0.000000	0.001609	0.001705	28.0805	0.068369	0.002040	33.5097	148.829	-1.841140	0.024368	1.051561	-0.052729	-0.054100	-0.006949	33.5097	-0.052573	-0.109058	0.063722	NaN
745	1.000000	1.094976	7.37235e+06	-39839.1	1005.82	-29792.4	0.000000	0.000000	7.095124	0.024809	NaN	0.000000	0.001689	0.001706	28.0817	0.131965	0.001983	66.5635	158.111	-179.419	-0.004807	1.093624	-0.010686	-0.012037	0.024809	66.5635	-0.010965	-0.006938	-3.575715	NaN
745	2.000000	1.119113	7.37235e+06	-39839.1	1005.82	-29792.4	0.000000	0.000000	7.119853	14.4296	NaN	0.000000	0.001628	0.001746	28.082	14.4139	0.001853	7777.87	8.974137	-13.7602	13.2371	1.118750	0.013451	0.013089	14.4296	7777.87	0.012060	0.011562	1248.02	66087.1
745	2.000000	1.129512	7.37235e+06	-39839.1	1005.82	-29792.4	0.000000	0.000000	7.131195	37.3766	NaN	0.000000	0.001626	0.001711	28.0818	25.5697	0.001905	13424	5.743866	164.792	35.093	1.129171	0.023851	0.023510	37.3766	13424	0.021763	0.025388	1472.21	76973.3
745	2.000000	1.140018	7.37235e+06	-39839.1	1005.82	-29792.4	0.000000	0.000000	7.142840	65.0819	NaN	0.000000	0.001633	0.001746	28.0817	35.7358	0.001906	18751.5	4.162198	-17.0895	64.2034	1.139793	0.034357	0.034132	65.0819	18751.5	0.031754	0.044458	1463.9	81252.2
745	2.000000	1.150533	7.37235e+06	-39839.1	1005.82	-29792.4	0.000000	0.000000	7.154789	99.972	NaN	0.000000	0.001599	0.001731	28.0809	44.8173	0.001778	25210.3	6.187181	159.671	99.3123	1.150118	0.044872	0.044457	99.972	25210.3	0.041898	0.069025	1448.35	87669.8
745	2.000000	1.161042	7.37235e+06	-39839.1	1005.82	-29792.4	0.000000	0.000000	7.167232	147.028	NaN	0.000000	0.001602	0.001773	28.0805	54.8836	0.001898	28919.3	5.920211	-22.166	146.864	1.160652	0.055381	0.054990	147.028	28919.3	0.051568	0.097322	1510.74	84694.7
745	2.000000	1.171494	7.37235e+06	-39839.1	1005.82	-29792.4	0.000000	0.000000	7.179581	193.193	NaN	0.000000	0.001600	0.001757	28.0817	64.2905	0.001805	35608.2	0.927665	160.917	189.857	1.171146	0.065833	0.065485	193.193	35608.2	0.061764	0.132208	1461.28	89473.3
745	2.000000	1.181984	7.37235e+06	-39839.1	1005.82	-29792.4	0.000000	0.000000	7.192975	263.865	NaN	0.000000	0.001561	0.001761	28.0817	74.6689	0.001777	42017.2	4.128555	-23.3663	261.675	1.181646	0.076323	0.075984	263.865	42017.2	0.071613	0.170710	1545.7	92912
745	2.000000	1.192435	7.37235e+06	-39839.1	1005.82	-29792.4	0.000000	0.000000	7.206111	329.227	NaN	0.000000	0.001590	0.001752	28.0815	83.6964	0.001789	46778.4	3.890099	155.749	325.145	1.192210	0.086773	0.086548	329.227	46778.4	0.081495	0.213965	1538.69	92394.7
745	2.000000	1.202987	7.37235e+06	-39839.1	1005.82	-29792.4	0.000000	0.000000	7.220456	421.517	NaN	0.000000	0.001647	0.001736	28.0805	91.6357	0.001788	51237.6	2.749714	-23.3368	419.827	1.202629	0.097326	0.096968	421.517	51237.6	0.091156	0.260638	1617.25	91694.3
745	2.000000	1.211481	7.37235e+06	-39839.1	1005.82	-29792.4	0.000000	0.000000	7.232000	495.735	NaN	0.000000	0.001610	0.001743	28.0805	100.367	0.001899	52859.1	6.530748	152.746	492.825	1.211063	0.105820	0.105402	495.735	52859.1	0.098786	0.300527	1649.55	88095