File: remote_trans/data/nanoindenter/0828-1/data/Data_2025-08-06,11h17m57s/2025-07-22_16-23-58_1_291.txt
2025-07-22, 16:23:58, 1
Index	Phase	Displacement	Time	Pos X	Pos Y	Pos Z	Rot A	Rot B	Piezo Z	Force A	Force B	Gripper	Voltage A	Voltage B	Temperature	Amplitude force	Amplitude pos	Stiffness	Phase shift	Phase excitation	Force A raw	Displacement raw	HMax	HMax raw	Real Force	Real Stiffness	Contact Depth	Area	Hardness	Reduced Mod.
[#]	[#]	[um]	[s]	[um]	[um]	[um]	[m°]	[m°]	[um]	[uN]	[uN]	[V]	[V]	[V]	[°C]	[uN]	[um]	[N/m]	[°]	[°]	[uN]	[um]	[um]	[um]	[uN]	[N/m]	[um]	[um^2]	[MPa]	[MPa]
291	1.000000	0.002843	7.3679e+06	-53189.1	955.818	-29747.3	0.000000	0.000000	6.002799	-0.043185	NaN	0.000000	0.001630	0.001619	28.0794	0.080320	0.001064	75.4913	107.578	-168.204	-0.101552	0.001550	-1.074292	-1.075585	-0.043185	75.4913	-1.073863	-2.234037E+14	1.933045E-16	NaN
291	1.000000	0.042801	7.3679e+06	-53189.1	955.818	-29747.3	0.000000	0.000000	6.042759	0.007897	NaN	0.000000	0.001635	0.001626	28.0802	0.039573	0.001851	21.3782	79.8347	-162.573	0.002651	0.041485	-1.034334	-1.035650	0.007897	21.3782	-1.034611	-6.629735E+13	-1.191163E-16	NaN
291	1.000000	0.082783	7.3679e+06	-53189.1	955.819	-29747.3	0.000000	0.000000	6.082738	-0.069629	NaN	0.000000	0.001621	0.001626	28.0805	0.029455	0.001918	15.3578	63.8347	-166.379	-0.030442	0.081526	-0.994352	-0.995609	-0.069629	15.3578	-0.990952	-1.713681E+13	4.063147E-15	NaN
291	1.000000	0.122841	7.3679e+06	-53189.1	955.819	-29747.3	0.000000	0.000000	6.122799	-0.003193	NaN	0.000000	0.001612	0.001689	28.0802	0.029542	0.001970	14.9952	-19.5993	-164.825	-0.003960	0.121538	-0.954294	-0.955597	-0.003193	14.9952	-0.954134	-5.467320E+12	5.840920E-16	NaN
291	1.000000	0.162838	7.3679e+06	-53189.1	955.818	-29747.3	0.000000	0.000000	6.162793	-0.056443	NaN	0.000000	0.001633	0.001714	28.08	0.041816	0.001994	20.9659	9.964086	-164.144	-0.031021	0.161550	-0.914297	-0.915585	-0.056443	20.9659	-0.912278	-1.489131E+12	3.790340E-14	NaN
291	1.000000	0.202849	7.3679e+06	-53189.1	955.818	-29747.3	0.000000	0.000000	6.202806	-0.020861	NaN	0.000000	0.001623	0.001701	28.0787	0.077644	0.001922	40.4008	171.045	-167.486	-0.076787	0.201471	-0.874286	-0.875664	-0.020861	40.4008	-0.873899	-4.510149E+11	4.625280E-14	NaN
291	1.000000	0.242885	7.3679e+06	-53189.1	955.818	-29747.3	0.000000	0.000000	6.242840	-0.078004	NaN	0.000000	0.001665	0.001698	28.0787	0.130980	0.002019	64.8779	43.5941	-162.369	-0.002944	0.241582	-0.834250	-0.835553	-0.078004	64.8779	-0.833348	-1.273983E+11	6.122850E-13	NaN
291	1.000000	0.282877	7.3679e+06	-53189.1	955.818	-29747.3	0.000000	0.000000	6.282835	-0.007834	NaN	0.000000	0.001627	0.001701	28.079	0.087925	0.001935	45.4381	133.94	-164.294	0.109548	0.281615	-0.794258	-0.795520	-0.007834	45.4381	-0.794128	-3.742362E+10	2.093219E-13	NaN
291	1.000000	0.322947	7.3679e+06	-53189.1	955.818	-29747.3	0.000000	0.000000	6.322905	-0.005820	NaN	0.000000	0.001706	0.001679	28.0804	0.083353	0.002053	40.6097	-152.137	-163.533	0.007436	0.321619	-0.754188	-0.755516	-0.005820	40.6097	-0.754080	-1.068446E+10	5.446834E-13	NaN
291	1.000000	0.362937	7.3679e+06	-53189.1	955.818	-29747.3	0.000000	0.000000	6.362894	-0.027659	NaN	0.000000	0.001685	0.001665	28.0805	0.049413	0.001945	25.404	129	-161.126	-0.008240	0.361642	-0.714198	-0.715493	-0.027659	25.404	-0.713381	-2.979821E+9	9.282077E-12	NaN
291	1.000000	0.402922	7.36791e+06	-53189.1	955.818	-29747.3	0.000000	0.000000	6.402878	-0.046297	NaN	0.000000	0.001614	0.001722	28.0802	0.079464	0.002035	39.0567	129.408	-164.63	-0.127666	0.401665	-0.674213	-0.675470	-0.046297	39.0567	-0.673324	-8.450362E+8	5.478689E-11	NaN
291	1.000000	0.442976	7.36791e+06	-53189.1	955.818	-29747.3	0.000000	0.000000	6.442932	-0.030678	NaN	0.000000	0.001656	0.001666	28.0802	0.045656	0.001899	24.0377	-170.543	-163.235	0.085068	0.441668	-0.634159	-0.635467	-0.030678	24.0377	-0.633202	-2.382264E+8	1.287786E-10	NaN
291	1.000000	0.482967	7.36791e+06	-53189.1	955.818	-29747.3	0.000000	0.000000	6.482927	0.041763	NaN	0.000000	0.001626	0.001651	28.0789	0.072354	0.002026	35.7112	178.382	-162.821	-0.027938	0.481683	-0.594168	-0.595452	0.041763	35.7112	-0.595045	-7.115369E+7	-5.869348E-10	NaN
291	1.000000	0.522992	7.36791e+06	-53189.1	955.819	-29747.3	0.000000	0.000000	6.522949	-0.001849	NaN	0.000000	0.001594	0.001636	28.079	0.027191	0.002046	13.2905	174.024	-163.771	0.025923	0.521664	-0.554143	-0.555471	-0.001849	13.2905	-0.554039	-1.931461E+7	9.573872E-11	NaN
291	1.000000	0.563034	7.36791e+06	-53189.1	955.818	-29747.3	0.000000	0.000000	6.562991	-0.017081	NaN	0.000000	0.001638	0.001629	28.0789	0.048491	0.001940	24.9963	-155.754	-163.865	-0.035158	0.561693	-0.514101	-0.515442	-0.017081	24.9963	-0.513588	-5.30129e+06	3.222135E-9	NaN
291	1.000000	0.603029	7.36791e+06	-53189.1	955.817	-29747.3	0.000000	0.000000	6.602985	-0.046603	NaN	0.000000	0.001616	0.001676	28.0803	0.093843	0.001972	47.5864	156.851	-164.221	-0.119807	0.601716	-0.474106	-0.475419	-0.046603	47.5864	-0.473372	-1.45439e+06	3.204305E-8	NaN
291	1.000000	0.643054	7.36791e+06	-53189.1	955.819	-29747.3	0.000000	0.000000	6.643009	-0.066222	NaN	0.000000	0.001614	0.001631	28.0798	0.029196	0.002031	14.3784	83.153	-165.173	0.023146	0.641761	-0.434081	-0.435374	-0.066222	14.3784	-0.430627	-363860	1.819986E-7	NaN
291	1.000000	0.683074	7.36791e+06	-53189.1	955.818	-29747.3	0.000000	0.000000	6.683028	-0.091207	NaN	0.000000	0.001601	0.001632	28.0802	0.045867	0.002040	22.4868	142.884	-165.57	-0.036346	0.681787	-0.394061	-0.395348	-0.091207	22.4868	-0.391019	-99482.6	9.168120E-7	NaN
291	1.000000	0.723037	7.36791e+06	-53189.1	955.818	-29747.3	0.000000	0.000000	6.722996	0.048831	NaN	0.000000	0.001607	0.001657	28.0789	0.015907	0.001906	8.347505	123.682	-161.261	-0.038410	0.721753	-0.354098	-0.355382	0.048831	8.347505	-0.358486	-33880.5	-1.441269E-6	NaN
291	1.000000	0.763104	7.36791e+06	-53189.1	955.816	-29747.3	0.000000	0.000000	6.763062	0.016261	NaN	0.000000	0.001626	0.001638	28.0789	0.061733	0.002007	30.7641	-125.151	-166.521	-0.043606	0.761772	-0.314031	-0.315363	0.016261	30.7641	-0.314428	-7700.21	-2.111725E-6	NaN
291	1.000000	0.803107	7.36791e+06	-53189.1	955.818	-29747.3	0.000000	0.000000	6.803065	-0.000987	NaN	0.000000	0.001593	0.001637	28.0789	0.050789	0.001914	26.5355	44.8874	-164.524	0.002196	0.801759	-0.274028	-0.275376	-0.000987	26.5355	-0.274000	-1915.35	5.151330E-7	NaN
291	1.000000	0.843146	7.36791e+06	-53189.1	955.818	-29747.3	0.000000	0.000000	6.843105	0.024847	NaN	0.000000	0.001612	0.001649	28.0789	0.067831	0.002092	32.4299	153.524	-167.948	0.081766	0.841776	-0.233989	-0.235359	0.024847	32.4299	-0.234564	-472.497	-5.258594E-5	NaN
291	1.000000	0.883148	7.36791e+06	-53189.1	955.818	-29747.3	0.000000	0.000000	6.883105	-0.016626	NaN	0.000000	0.001621	0.001694	28.0802	0.088414	0.001927	45.8803	-95.9202	-167.003	-0.022626	0.881816	-0.193987	-0.195319	-0.016626	45.8803	-0.193715	-103.728	0.000160	NaN
291	1.000000	0.923135	7.36791e+06	-53189.1	955.819	-29747.3	0.000000	0.000000	6.923094	0.029526	NaN	0.000000	0.001597	0.001673	28.0802	0.060618	0.001945	31.1732	97.9281	-162.12	0.015542	0.921829	-0.154000	-0.155306	0.029526	31.1732	-0.154711	-22.0482	-0.001339	NaN
291	1.000000	0.963168	7.36791e+06	-53189.1	955.818	-29747.3	0.000000	0.000000	6.963123	-0.072804	NaN	0.000000	0.001593	0.001651	28.0807	0.063443	0.002063	30.7573	-39.6139	-165.533	-0.026463	0.961887	-0.113967	-0.115248	-0.072804	30.7573	-0.112192	-3.340818	0.021792	NaN
291	1.000000	1.003207	7.36791e+06	-53189.1	955.817	-29747.3	0.000000	0.000000	7.003166	0.036052	NaN	0.000000	0.001636	0.001705	28.0793	0.083217	0.002052	40.5463	11.8701	-164.769	0.073983	1.001867	-0.073928	-0.075268	0.036052	40.5463	-0.074595	-0.450848	-0.079965	NaN
291	1.000000	1.043219	7.36791e+06	-53189.1	955.818	-29747.3	0.000000	0.000000	7.043177	-0.001552	NaN	0.000000	0.001617	0.001753	28.079	0.083546	0.001953	42.771	-179.419	-166.399	0.000622	1.041954	-0.033916	-0.035181	-0.001552	42.771	-0.033889	-0.029711	0.052224	NaN
291	1.000000	1.083196	7.36791e+06	-53189.1	955.817	-29747.3	0.000000	0.000000	7.083284	3.169042	NaN	0.000000	0.001616	0.001734	28.0789	4.011415	0.002004	2001.83	14.5344	-168.58	2.165852	1.081858	0.006061	0.004723	3.169042	2001.83	0.004874	0.004018	788.626	28851.7
291	2.000000	1.097702	7.36791e+06	-53189.1	955.817	-29747.3	0.000000	0.000000	7.098533	21.2084	NaN	0.000000	0.001591	0.001680	28.0789	18.4844	0.001734	10657.2	4.246360	-175.243	20.3184	1.097444	0.020568	0.020309	21.2084	10657.2	0.019075	0.021109	1004.68	67015.7
291	2.000000	1.107695	7.36791e+06	-53189.1	955.818	-29747.3	0.000000	0.000000	7.109527	45.5592	NaN	0.000000	0.001568	0.001705	28.0801	28.4605	0.001745	16312	3.557563	-178.627	44.9497	1.107396	0.030560	0.030261	45.5592	16312	0.028466	0.037623	1210.93	76833.6
291	2.000000	1.117701	7.36791e+06	-53189.1	955.818	-29747.3	0.000000	0.000000	7.120662	73.0109	NaN	0.000000	0.001571	0.001670	28.08	38.6841	0.001849	20923.4	6.580534	177.545	74.9852	1.117321	0.040566	0.040187	73.0109	20923.4	0.037949	0.058835	1240.94	78811.4
291	2.000000	1.127691	7.36791e+06	-53189.1	955.818	-29747.3	0.000000	0.000000	7.132349	114.286	NaN	0.000000	0.001552	0.001649	28.08	48.0011	0.001831	26217.6	9.516795	172.868	116.451	1.127249	0.050556	0.050114	114.286	26217.6	0.047286	0.084211	1357.15	82543.6
291	2.000000	1.137633	7.36791e+06	-53189.1	955.819	-29747.3	0.000000	0.000000	7.144298	163.056	NaN	0.000000	0.001592	0.001697	28.079	57.9952	0.001958	29621.4	6.446698	175.54	165.004	1.137306	0.060498	0.060171	163.056	29621.4	0.056370	0.113113	1441.53	80467.9
291	2.000000	1.147603	7.36791e+06	-53189.1	955.818	-29747.3	0.000000	0.000000	7.156190	209.813	NaN	0.000000	0.001610	0.001763	28.0788	66.3857	0.001891	35098.8	5.835600	174.093	208.498	1.147304	0.070468	0.070169	209.813	35098.8	0.065984	0.148138	1416.34	83316.8
291	2.000000	1.157657	7.36791e+06	-53189.1	955.819	-29747.3	0.000000	0.000000	7.168402	262.28	NaN	0.000000	0.001585	0.001764	28.0787	75.6755	0.001768	42803.2	3.894245	173.813	262.771	1.157349	0.080522	0.080215	262.28	42803.2	0.075926	0.189027	1387.53	89947.2
291	2.000000	1.167532	7.36791e+06	-53189.1	955.82	-29747.3	0.000000	0.000000	7.181011	328.742	NaN	0.000000	0.001616	0.001657	28.0794	84.9755	0.001786	47580.4	5.175839	172.279	324.122	1.167211	0.090397	0.090076	328.742	47580.4	0.085215	0.231430	1420.48	90363.1
291	2.000000	1.177550	7.36791e+06	-53189.1	955.818	-29747.3	0.000000	0.000000	7.194149	404.592	NaN	0.000000	0.001620	0.001667	28.0803	95.6579	0.001767	54142.3	9.876517	167.45	401.147	1.177116	0.100415	0.099981	404.592	54142.3	0.094811	0.279414	1448	93580.5
291	2.000000	1.187503	7.36791e+06	-53189.1	955.819	-29747.3	0.000000	0.000000	7.207271	481.655	NaN	0.000000	0.001627	0.001707	28.0801	103.679	0.001751	59218.2	0.679899	175.437	478.607	1.187216	0.110368	0.110081	481.655	59218.2	0.104268	0.330821	1455.94	94065.8