File: remote_trans/data/nanoindenter/0828-1/data/Data_2025-08-06,11h17m57s/2025-07-22_16-23-58_1_1.txt
2025-07-22, 16:23:58, 1
Index	Phase	Displacement	Time	Pos X	Pos Y	Pos Z	Rot A	Rot B	Piezo Z	Force A	Force B	Gripper	Voltage A	Voltage B	Temperature	Amplitude force	Amplitude pos	Stiffness	Phase shift	Phase excitation	Force A raw	Displacement raw	HMax	HMax raw	Real Force	Real Stiffness	Contact Depth	Area	Hardness	Reduced Mod.
[#]	[#]	[um]	[s]	[um]	[um]	[um]	[m°]	[m°]	[um]	[uN]	[uN]	[V]	[V]	[V]	[°C]	[uN]	[um]	[N/m]	[°]	[°]	[uN]	[um]	[um]	[um]	[uN]	[N/m]	[um]	[um^2]	[MPa]	[MPa]
1.000000	1.000000	0.003249	7.36505e+06	-38689.1	955.818	-29796.6	0.000000	0.000000	6.002818	0.033672	NaN	0.000000	0.001597	0.001638	28.0894	0.087608	0.000988	88.6332	-70.7916	-163.117	0.142593	0.001984	-1.680711	-1.681975	0.033672	88.6332	-1.680996	-2.844153E+22	-1.183892E-24	NaN
1.000000	1.000000	0.063210	7.36505e+06	-38689.1	955.818	-29796.6	0.000000	0.000000	6.062779	0.036701	NaN	0.000000	0.001567	0.001671	28.1048	0.040947	0.001939	21.118	55.4839	-162.928	-0.013224	0.061896	-1.620750	-1.622064	0.036701	21.118	-1.622053	-4.682712E+21	-7.837600E-24	NaN
1.000000	1.000000	0.123228	7.36505e+06	-38689.1	955.817	-29796.6	0.000000	0.000000	6.122798	0.062632	NaN	0.000000	0.001614	0.001668	28.0885	0.044657	0.002008	22.2387	93.6719	-166.633	0.007220	0.121898	-1.560731	-1.562061	0.062632	22.2387	-1.562844	-7.636903E+20	-8.201188E-23	NaN
1.000000	1.000000	0.183267	7.36505e+06	-38689.1	955.818	-29796.6	0.000000	0.000000	6.182836	0.033107	NaN	0.000000	0.001722	0.001657	28.1043	0.057196	0.001933	29.588	163.066	-165.72	0.020385	0.181949	-1.500693	-1.502010	0.033107	29.588	-1.501532	-1.166050E+20	-2.839249E-22	NaN
1.000000	1.000000	0.243260	7.36505e+06	-38689.1	955.818	-29796.6	0.000000	0.000000	6.242828	0.021936	NaN	0.000000	0.001633	0.001645	28.0874	0.040815	0.001843	22.1508	-94.7718	-164.032	0.045341	0.241938	-1.440700	-1.442021	0.021936	22.1508	-1.441443	-1.845372E+19	-1.188680E-21	NaN
1.000000	1.000000	0.303292	7.36505e+06	-38689.1	955.818	-29796.6	0.000000	0.000000	6.302860	0.023457	NaN	0.000000	0.001571	0.001672	28.1064	0.049862	0.001949	25.5882	70.0192	-163.248	-0.001857	0.301948	-1.380668	-1.382011	0.023457	25.5882	-1.381355	-2.915569E+18	-8.045500E-21	NaN
1.000000	1.000000	0.363330	7.36505e+06	-38689.1	955.819	-29796.6	0.000000	0.000000	6.362899	0.040004	NaN	0.000000	0.001612	0.001660	28.0886	0.058476	0.001942	30.1187	6.665916	-165.864	0.114416	0.362000	-1.320630	-1.321960	0.040004	30.1187	-1.321626	-4.648592E+17	-8.605699E-20	NaN
1.000000	1.000000	0.423363	7.36505e+06	-38689.1	955.819	-29796.6	0.000000	0.000000	6.422932	0.050420	NaN	0.000000	0.001642	0.001664	28.1052	0.111884	0.001989	56.2542	52.183	-163.027	0.107396	0.422070	-1.260597	-1.261890	0.050420	56.2542	-1.261269	-7.255059E+16	-6.949633E-19	NaN
1.000000	1.000000	0.483371	7.36505e+06	-38689.1	955.818	-29796.6	0.000000	0.000000	6.482943	0.097466	NaN	0.000000	0.001577	0.001667	28.0876	0.093094	0.002090	44.5332	-11.1033	-163.721	0.067714	0.482057	-1.200588	-1.201902	0.097466	44.5332	-1.202230	-1.176543E+16	-8.284134E-18	NaN
1.000000	1.000000	0.543424	7.36505e+06	-38689.1	955.818	-29796.6	0.000000	0.000000	6.542994	0.059629	NaN	0.000000	0.001599	0.001650	28.1081	0.153083	0.001972	77.6247	-120.667	-160.254	0.062849	0.542103	-1.140536	-1.141856	0.059629	77.6247	-1.141112	-1.785037E+15	-3.340486E-17	NaN
1.000000	1.000000	0.603444	7.36505e+06	-38689.1	955.818	-29796.6	0.000000	0.000000	6.603011	0.002090	NaN	0.000000	0.001594	0.001669	28.086	0.123587	0.002003	61.7052	12.6256	-167.533	0.060349	0.602142	-1.080516	-1.081818	0.002090	61.7052	-1.080541	-2.746543E+14	-7.608397E-18	NaN
1.000000	1.000000	0.663453	7.36505e+06	-38689.1	955.817	-29796.6	0.000000	0.000000	6.663021	0.032319	NaN	0.000000	0.001599	0.001703	28.1062	0.032463	0.002154	15.07	118.946	-165.179	0.070658	0.662168	-1.020507	-1.021791	0.032319	15.07	-1.022115	-4.502094E+13	-7.178651E-16	NaN
1.000000	1.000000	0.723508	7.36505e+06	-38689.1	955.819	-29796.6	0.000000	0.000000	6.723077	0.054088	NaN	0.000000	0.001612	0.001694	28.0845	0.095325	0.001881	50.6827	105.281	-165.607	0.022078	0.722140	-0.960452	-0.961820	0.054088	50.6827	-0.961252	-6.819506E+12	-7.931411E-15	NaN
1.000000	1.000000	0.783495	7.36505e+06	-38689.1	955.818	-29796.6	0.000000	0.000000	6.783065	0.075320	NaN	0.000000	0.001607	0.001687	28.1093	0.064308	0.001967	32.695	-84.2275	-165.361	0.012667	0.782194	-0.900465	-0.901765	0.075320	32.695	-0.902193	-1.088167E+12	-6.921689E-14	NaN
1.000000	1.000000	0.843514	7.36505e+06	-38689.1	955.818	-29796.6	0.000000	0.000000	6.843082	0.013317	NaN	0.000000	0.001607	0.001710	28.0874	0.039212	0.002021	19.4014	85.3826	-167.083	0.083077	0.842262	-0.840445	-0.841697	0.013317	19.4014	-0.840960	-1.615477E+11	-8.243420E-14	NaN
1.000000	1.000000	0.903566	7.36505e+06	-38689.1	955.818	-29796.6	0.000000	0.000000	6.903138	0.125645	NaN	0.000000	0.001643	0.001703	28.1079	0.043889	0.002107	20.8347	-122.754	-163.444	0.133759	0.902178	-0.780394	-0.781781	0.125645	20.8347	-0.784917	-2.805686E+10	-4.478228E-12	NaN
1.000000	1.000000	0.963568	7.36505e+06	-38689.1	955.818	-29796.6	0.000000	0.000000	6.963140	0.108433	NaN	0.000000	0.001591	0.001734	28.0838	0.122346	0.002055	59.5416	61.745	-167.063	0.055004	0.962286	-0.720392	-0.721674	0.108433	59.5416	-0.721758	-3.876534E+9	-2.797157E-11	NaN
1.000000	1.000000	1.023595	7.36506e+06	-38689.1	955.819	-29796.6	0.000000	0.000000	7.023164	0.028880	NaN	0.000000	0.001665	0.001677	28.1107	0.087739	0.001986	44.1679	73.301	-166.264	0.057811	1.022313	-0.660364	-0.661646	0.028880	44.1679	-0.660855	-5.703932E+8	-5.063158E-11	NaN
1.000000	1.000000	1.083635	7.36506e+06	-38689.1	955.819	-29796.6	0.000000	0.000000	7.083203	0.008843	NaN	0.000000	0.001685	0.001715	28.0857	0.086036	0.001988	43.2705	39.8655	-164.298	0.054127	1.082288	-0.600324	-0.601672	0.008843	43.2705	-0.600477	-8.453463E+7	-1.046024E-10	NaN
1.000000	1.000000	1.143670	7.36506e+06	-38689.1	955.819	-29796.6	0.000000	0.000000	7.143241	0.090687	NaN	0.000000	0.001603	0.001687	28.1088	0.010321	0.002059	5.011835	-47.5232	-167.583	0.154489	1.142344	-0.540290	-0.541616	0.090687	5.011835	-0.553861	-1.920528E+7	-4.721986E-9	NaN
1.000000	1.000000	1.203678	7.36506e+06	-38689.1	955.82	-29796.6	0.000000	0.000000	7.203250	0.113067	NaN	0.000000	0.001603	0.001684	28.0828	0.003487	0.001989	1.753425	113.697	-164.677	0.153270	1.202330	-0.480281	-0.481630	0.113067	1.753425	-0.528644	-8.58506e+06	-1.317024E-8	NaN
1.000000	1.000000	1.263706	7.36506e+06	-38689.1	955.82	-29796.6	0.000000	0.000000	7.263277	0.063445	NaN	0.000000	0.001635	0.001701	28.1108	0.039850	0.002013	19.7993	-56.2787	-163.244	-0.012708	1.262398	-0.420253	-0.421562	0.063445	19.7993	-0.422656	-280593	-2.261105E-7	NaN
1.000000	1.000000	1.323726	7.36506e+06	-38689.1	955.82	-29796.6	0.000000	0.000000	7.323296	0.067036	NaN	0.000000	0.001629	0.001716	28.0863	0.029006	0.001981	14.6417	158.48	-166.004	0.078166	1.322393	-0.360233	-0.361567	0.067036	14.6417	-0.363667	-40255	-1.665280E-6	NaN
1.000000	1.000000	1.383737	7.36506e+06	-38689.1	955.82	-29796.6	0.000000	0.000000	7.383306	0.031750	NaN	0.000000	0.001637	0.001675	28.1119	0.100792	0.002022	49.8424	84.7753	-167.164	0.040036	1.382385	-0.300222	-0.301575	0.031750	49.8424	-0.300700	-4820.1	-6.587078E-6	NaN
1.000000	1.000000	1.443756	7.36506e+06	-38689.1	955.821	-29796.6	0.000000	0.000000	7.443327	0.100597	NaN	0.000000	0.001616	0.001655	28.0831	0.008265	0.002102	3.931690	69.0153	-163.729	0.122611	1.442488	-0.240204	-0.241472	0.100597	3.931690	-0.259394	-1147.15	-8.769260E-5	NaN
1.000000	1.000000	1.503807	7.36506e+06	-38689.1	955.821	-29796.6	0.000000	0.000000	7.503378	0.091239	NaN	0.000000	0.001573	0.001666	28.1116	0.110069	0.001970	55.8593	93.4325	-169.574	0.073132	1.502477	-0.180153	-0.181483	0.091239	55.8593	-0.181378	-64.3993	-0.001417	NaN
1.000000	1.000000	1.563857	7.36506e+06	-38689.1	955.821	-29796.6	0.000000	0.000000	7.563427	0.065699	NaN	0.000000	0.001608	0.001684	28.0854	0.047484	0.002000	23.7375	145.262	-167.949	0.069181	1.562550	-0.120103	-0.121409	0.065699	23.7375	-0.122179	-5.343913	-0.012294	NaN
1.000000	1.000000	1.623863	7.36506e+06	-38689.1	955.822	-29796.6	0.000000	0.000000	7.623437	0.160802	NaN	0.000000	0.001608	0.001647	28.1123	0.028103	0.001917	14.6588	-88.3102	-164.254	0.193729	1.622562	-0.060097	-0.061397	0.160802	14.6588	-0.068324	-0.307417	-0.523074	NaN
1.000000	1.000000	1.683904	7.36506e+06	-38689.1	955.822	-29796.6	0.000000	0.000000	7.683475	0.082784	NaN	0.000000	0.001652	0.001647	28.0823	0.050328	0.001879	26.7905	40.0573	-161.928	0.052979	1.682608	-5.542863E-5	-0.001352	0.082784	26.7905	-0.002373	-0.001696	-48.8056	NaN
1.000000	2.000000	1.740568	7.36506e+06	-38689.1	955.822	-29796.6	0.000000	0.000000	7.740478	8.337899	NaN	0.000000	0.001634	0.001647	28.1125	5.210955	0.001789	2912.17	15.973	-169.336	8.290912	1.740235	0.056608	0.056275	8.337899	2912.17	0.054461	0.106698	78.1449	8145.39
1.000000	2.000000	1.755413	7.36506e+06	-38689.1	955.823	-29796.6	0.000000	0.000000	7.755513	12.9729	NaN	0.000000	0.001596	0.001670	28.0828	10.0506	0.002014	4990.62	18.1929	-173.799	12.8	1.755057	0.071453	0.071098	12.9729	4990.62	0.069503	0.162074	80.0428	11325.9
1.000000	2.000000	1.770378	7.36506e+06	-38689.1	955.824	-29796.6	0.000000	0.000000	7.770887	22.918	NaN	0.000000	0.001603	0.001663	28.1144	16.5909	0.001803	9201.91	9.496987	-173.588	22.6265	1.770042	0.086418	0.086082	22.918	9201.91	0.084550	0.228262	100.402	17596.8
1.000000	2.000000	1.785398	7.36506e+06	-38689.1	955.824	-29796.6	0.000000	0.000000	7.787231	55.1237	NaN	0.000000	0.001636	0.001644	28.0833	29.2089	0.001758	16612	5.748186	-178.033	55.3322	1.785003	0.101439	0.101043	55.1237	16612	0.098950	0.301414	182.884	27644.7
1.000000	2.000000	1.800310	7.36506e+06	-38689.1	955.824	-29796.6	0.000000	0.000000	7.805030	125.379	NaN	0.000000	0.001686	0.001623	28.1144	41.913	0.001802	23265	5.740786	177.614	123.672	1.800025	0.116351	0.116065	125.379	23265	0.112309	0.377725	331.932	34585
1.000000	2.000000	1.815293	7.36506e+06	-38689.1	955.823	-29796.6	0.000000	0.000000	7.823559	211.678	NaN	0.000000	0.001627	0.001606	28.0827	52.8957	0.001824	28996.8	5.926857	175.516	209.38	1.814991	0.131334	0.131032	211.678	28996.8	0.125859	0.463396	456.798	38917.7
1.000000	2.000000	1.830284	7.36506e+06	-38689.1	955.823	-29796.6	0.000000	0.000000	7.843509	332.365	NaN	0.000000	0.001614	0.001658	28.1157	63.0916	0.001789	35274.9	3.207248	176.498	331.816	1.829971	0.146325	0.146011	332.365	35274.9	0.139258	0.556344	597.409	43208.3
1.000000	2.000000	1.837740	7.36506e+06	-38689.1	955.825	-29796.6	0.000000	0.000000	7.853206	386.917	NaN	0.000000	0.001613	0.001657	28.1226	68.5972	0.001821	37665	3.079735	-3.797717	381.226	1.837340	0.153780	0.153381	386.917	37665	0.146076	0.606807	637.629	44175.9