File: remote_trans/data/nanoindenter/0828-1/data/Data_2025-08-06,11h17m57s/2025-07-22_16-23-58_1_605.txt
2025-07-22, 16:23:58, 1
Index	Phase	Displacement	Time	Pos X	Pos Y	Pos Z	Rot A	Rot B	Piezo Z	Force A	Force B	Gripper	Voltage A	Voltage B	Temperature	Amplitude force	Amplitude pos	Stiffness	Phase shift	Phase excitation	Force A raw	Displacement raw	HMax	HMax raw	Real Force	Real Stiffness	Contact Depth	Area	Hardness	Reduced Mod.
[#]	[#]	[um]	[s]	[um]	[um]	[um]	[m°]	[m°]	[um]	[uN]	[uN]	[V]	[V]	[V]	[°C]	[uN]	[um]	[N/m]	[°]	[°]	[uN]	[um]	[um]	[um]	[uN]	[N/m]	[um]	[um^2]	[MPa]	[MPa]
605	1.000000	0.002901	7.37097e+06	-46839.1	1005.82	-29768	0.000000	0.000000	6.002825	0.006919	NaN	0.000000	0.001665	0.001805	28.0819	0.031139	0.000970	32.0989	-132.363	-170.661	-0.014403	0.001598	-1.055824	-1.057126	0.006919	32.0989	-1.055986	-1.284904E+14	-5.384761E-17	NaN
605	1.000000	0.042839	7.37097e+06	-46839.1	1005.82	-29768	0.000000	0.000000	6.042762	-0.025948	NaN	0.000000	0.001593	0.001886	28.0816	0.095471	0.001864	51.2269	-28.6587	-161.817	0.003591	0.041535	-1.015886	-1.017190	-0.025948	51.2269	-1.015506	-3.668433E+13	7.073221E-16	NaN
605	1.000000	0.082862	7.37097e+06	-46839.1	1005.82	-29768	0.000000	0.000000	6.082784	-0.035605	NaN	0.000000	0.001598	0.001826	28.0809	0.161404	0.002074	77.8321	119.853	-162.594	-0.077276	0.081481	-0.975863	-0.977243	-0.035605	77.8321	-0.975520	-1.061818E+13	3.353257E-15	NaN
605	1.000000	0.122842	7.37097e+06	-46839.1	1005.82	-29768	0.000000	0.000000	6.122770	0.075318	NaN	0.000000	0.001620	0.001834	28.0809	0.081392	0.001967	41.3698	25.5491	-165.174	0.016061	0.121538	-0.935882	-0.937186	0.075318	41.3698	-0.937248	-3.235954E+12	-2.327534E-14	NaN
605	1.000000	0.162872	7.37097e+06	-46839.1	1005.82	-29768	0.000000	0.000000	6.162797	0.021211	NaN	0.000000	0.001593	0.001827	28.0807	0.100795	0.001931	52.1939	179.288	-164.971	0.050592	0.161588	-0.895852	-0.897137	0.021211	52.1939	-0.896157	-9.018573E+11	-2.351952E-14	NaN
605	1.000000	0.202895	7.37097e+06	-46839.1	1005.82	-29768	0.000000	0.000000	6.202819	-0.019643	NaN	0.000000	0.001478	0.001840	28.0809	0.108182	0.001976	54.7517	-164.585	-167.621	-0.024840	0.201567	-0.855829	-0.857158	-0.019643	54.7517	-0.855560	-2.546965E+11	7.712336E-14	NaN
605	1.000000	0.242906	7.37097e+06	-46839.1	1005.82	-29768	0.000000	0.000000	6.242831	0.023159	NaN	0.000000	0.001526	0.001827	28.082	0.004115	0.001958	2.101104	-119.845	-165.404	-0.013707	0.241617	-0.815819	-0.817107	0.023159	2.101104	-0.824086	-9.541320E+10	-2.427227E-13	NaN
605	1.000000	0.282920	7.37097e+06	-46839.1	1005.82	-29768	0.000000	0.000000	6.282846	0.037381	NaN	0.000000	0.001520	0.001839	28.0821	0.196483	0.002159	91.0093	94.1441	-165.199	0.014088	0.281615	-0.775804	-0.777110	0.037381	91.0093	-0.776112	-2.130090E+10	-1.754881E-12	NaN
605	1.000000	0.322946	7.37097e+06	-46839.1	1005.82	-29768	0.000000	0.000000	6.322873	0.068505	NaN	0.000000	0.001489	0.001784	28.0821	0.015322	0.002064	7.424635	-140.069	-163.94	0.069268	0.321599	-0.735779	-0.737126	0.068505	7.424635	-0.742699	-7.478484E+9	-9.160240E-12	NaN
605	1.000000	0.362969	7.37097e+06	-46839.1	1005.82	-29768	0.000000	0.000000	6.362894	0.014008	NaN	0.000000	0.001514	0.001825	28.0806	0.080393	0.002031	39.5871	151.337	-166.207	0.103997	0.361668	-0.695756	-0.697056	0.014008	39.5871	-0.696021	-1.726586E+9	-8.112971E-12	NaN
605	1.000000	0.402984	7.37097e+06	-46839.1	1005.82	-29768	0.000000	0.000000	6.402907	-0.016352	NaN	0.000000	0.001487	0.001799	28.0806	0.030876	0.002032	15.192	35.6967	-164.003	-0.009545	0.401673	-0.655741	-0.657052	-0.016352	15.192	-0.654934	-4.732146E+8	3.455547E-11	NaN
605	1.000000	0.443015	7.37097e+06	-46839.1	1005.82	-29768	0.000000	0.000000	6.442938	-0.017921	NaN	0.000000	0.001536	0.001792	28.0805	0.070701	0.002023	34.9431	-161.286	-162.338	-0.035244	0.441736	-0.615710	-0.616988	-0.017921	34.9431	-0.615325	-1.353203E+8	1.324346E-10	NaN
605	1.000000	0.483022	7.37097e+06	-46839.1	1005.82	-29768	0.000000	0.000000	6.482947	0.018034	NaN	0.000000	0.001516	0.001816	28.0804	0.090588	0.001919	47.1975	31.0432	-164.179	0.029956	0.481626	-0.575703	-0.577099	0.018034	47.1975	-0.575989	-3.884690E+7	-4.642408E-10	NaN
605	1.000000	0.523021	7.37097e+06	-46839.1	1005.82	-29768	0.000000	0.000000	6.522946	0.022939	NaN	0.000000	0.001507	0.001854	28.0816	0.037891	0.002090	18.1254	-124.904	-167.019	0.093987	0.521760	-0.535704	-0.536964	0.022939	18.1254	-0.536653	-1.109002E+7	-2.068453E-9	NaN
605	1.000000	0.563022	7.37097e+06	-46839.1	1005.82	-29768	0.000000	0.000000	6.562945	-0.024239	NaN	0.000000	0.001472	0.001831	28.0818	0.073231	0.001884	38.8697	-163.392	-161.629	0.050651	0.561689	-0.495703	-0.497036	-0.024239	38.8697	-0.495235	-2.94113e+06	8.241336E-9	NaN
605	1.000000	0.603066	7.37097e+06	-46839.1	1005.82	-29768	0.000000	0.000000	6.602991	0.022821	NaN	0.000000	0.001473	0.001806	28.0819	0.159898	0.002052	77.9352	117.319	-164.591	-0.006086	0.601791	-0.455659	-0.456934	0.022821	77.9352	-0.455879	-826181	-2.762229E-8	NaN
605	1.000000	0.643084	7.37097e+06	-46839.1	1005.82	-29768	0.000000	0.000000	6.643007	-0.019108	NaN	0.000000	0.001491	0.001818	28.0809	0.066149	0.002053	32.2199	165.714	-162.797	-0.025029	0.641748	-0.415641	-0.416977	-0.019108	32.2199	-0.415196	-219908	8.689226E-8	NaN
605	1.000000	0.683074	7.37097e+06	-46839.1	1005.82	-29768	0.000000	0.000000	6.682995	-0.068654	NaN	0.000000	0.001500	0.001846	28.0805	0.019731	0.001903	10.3667	-133.003	-167.089	-0.127422	0.681757	-0.375651	-0.376967	-0.068654	10.3667	-0.370684	-50813.3	1.351102E-6	NaN
605	1.000000	0.723101	7.37097e+06	-46839.1	1005.82	-29768	0.000000	0.000000	6.723026	0.013555	NaN	0.000000	0.001533	0.001823	28.0805	0.072072	0.001992	36.1893	110.239	-166.465	-0.005254	0.721802	-0.335624	-0.336922	0.013555	36.1893	-0.335904	-15914.7	-8.517242E-7	NaN
605	1.000000	0.763121	7.37097e+06	-46839.1	1005.82	-29768	0.000000	0.000000	6.763046	0.013201	NaN	0.000000	0.001602	0.001828	28.0811	0.095133	0.001964	48.428	113.693	-165.021	0.038005	0.761826	-0.295604	-0.296898	0.013201	48.428	-0.295808	-4075.27	-3.239261E-6	NaN
605	1.000000	0.803135	7.37097e+06	-46839.1	1005.82	-29768	0.000000	0.000000	6.803059	0.006336	NaN	0.000000	0.001583	0.001778	28.0818	0.035129	0.002009	17.4878	93.1659	-166.333	-0.030778	0.801865	-0.255590	-0.256860	0.006336	17.4878	-0.255862	-1012.46	-6.258318E-6	NaN
605	1.000000	0.843132	7.37097e+06	-46839.1	1005.82	-29768	0.000000	0.000000	6.843056	-0.008081	NaN	0.000000	0.001537	0.001781	28.0819	0.098027	0.002122	46.2055	-126.354	-166.031	-0.059298	0.841873	-0.215592	-0.216852	-0.008081	46.2055	-0.215461	-234.926	3.439942E-5	NaN
605	1.000000	0.883170	7.37097e+06	-46839.1	1005.82	-29768	0.000000	0.000000	6.883093	-0.018957	NaN	0.000000	0.001535	0.001735	28.0817	0.041824	0.001984	21.0826	163.391	-162.424	-0.036022	0.881899	-0.175555	-0.176825	-0.018957	21.0826	-0.174881	-49.8803	0.000380	NaN
605	1.000000	0.923235	7.37097e+06	-46839.1	1005.82	-29768	0.000000	0.000000	6.923160	0.026029	NaN	0.000000	0.001565	0.001799	28.0808	0.029464	0.002045	14.4049	177.547	-165.587	-0.012989	0.921858	-0.135490	-0.136867	0.026029	14.4049	-0.136845	-10.3136	-0.002524	NaN
605	1.000000	0.963220	7.37097e+06	-46839.1	1005.82	-29768	0.000000	0.000000	6.963144	-0.012929	NaN	0.000000	0.001566	0.001772	28.0807	0.048313	0.001976	24.4512	-103.021	-165.484	-0.043826	0.961917	-0.095504	-0.096808	-0.012929	24.4512	-0.095108	-1.418629	0.009114	NaN
605	1.000000	1.003218	7.37097e+06	-46839.1	1005.82	-29768	0.000000	0.000000	7.003141	-0.034563	NaN	0.000000	0.001566	0.001788	28.0806	0.074731	0.001932	38.6769	-103.337	-165.131	-0.066137	1.001937	-0.055507	-0.056787	-0.034563	38.6769	-0.054837	-0.127353	0.271394	NaN
605	1.000000	1.043219	7.37097e+06	-46839.1	1005.82	-29768	0.000000	0.000000	7.043142	-0.046614	NaN	0.000000	0.001525	0.001773	28.0816	0.058324	0.001914	30.4645	-12.7385	-165.13	-0.120627	1.041937	-0.015505	-0.016787	-0.046614	30.4645	-0.014358	-0.008894	5.241207	NaN
605	2.000000	1.067830	7.37097e+06	-46839.1	1005.82	-29768	0.000000	0.000000	7.068357	14.6702	NaN	0.000000	0.001550	0.001776	28.0815	13.6649	0.001697	8051.12	7.747798	-175.026	13.9262	1.067549	0.009105	0.008824	14.6702	8051.12	0.007739	0.006775	2165.38	89367.3
605	2.000000	1.077783	7.37097e+06	-46839.1	1005.82	-29768	0.000000	0.000000	7.079111	34.1267	NaN	0.000000	0.001549	0.001813	28.0818	24.5679	0.001870	13136	7.722141	179.706	32.8036	1.077520	0.019059	0.018796	34.1267	13136	0.017110	0.018203	1874.79	88953.9
605	2.000000	1.087793	7.37097e+06	-46839.1	1005.82	-29768	0.000000	0.000000	7.090021	56.0329	NaN	0.000000	0.001503	0.001764	28.0819	33.2305	0.001884	17640.1	3.522024	-177.296	56.6062	1.087464	0.029068	0.028739	56.0329	17640.1	0.026686	0.034154	1640.6	87207.7
605	2.000000	1.097699	7.37097e+06	-46839.1	1005.82	-29768	0.000000	0.000000	7.101491	94.0773	NaN	0.000000	0.001534	0.001835	28.0805	42.7853	0.001845	23191.3	5.296877	177.899	91.5723	1.097429	0.038974	0.038705	94.0773	23191.3	0.035932	0.053938	1744.18	91232.8
605	2.000000	1.107718	7.37097e+06	-46839.1	1005.82	-29768	0.000000	0.000000	7.113202	135.241	NaN	0.000000	0.001577	0.001787	28.0807	51.998	0.001758	29583.7	3.890815	177.331	133.007	1.107480	0.048993	0.048756	135.241	29583.7	0.045564	0.079198	1707.65	96044.1
605	2.000000	1.117700	7.37098e+06	-46839.1	1005.82	-29768	0.000000	0.000000	7.125479	191.063	NaN	0.000000	0.001612	0.001800	28.0809	61.9932	0.001757	35279.9	6.607021	172.708	189.433	1.117429	0.058975	0.058704	191.063	35279.9	0.054914	0.108203	1765.77	97989.6
605	2.000000	1.127667	7.37098e+06	-46839.1	1005.82	-29768	0.000000	0.000000	7.137774	247.685	NaN	0.000000	0.001535	0.001791	28.0821	70.3515	0.001685	41758.5	2.557635	175.483	244.137	1.127443	0.068942	0.068719	247.685	41758.5	0.064493	0.142413	1739.21	101098
605	2.000000	1.137655	7.37098e+06	-46839.1	1005.82	-29768	0.000000	0.000000	7.150520	314.769	NaN	0.000000	0.001619	0.001780	28.0817	82.2862	0.001935	42518.7	7.709445	169.93	310.252	1.137422	0.078930	0.078698	314.769	42518.7	0.073378	0.178099	1767.38	92049.7
605	2.000000	1.147661	7.37098e+06	-46839.1	1005.82	-29768	0.000000	0.000000	7.163789	394.126	NaN	0.000000	0.001627	0.001772	28.0819	88.6555	0.001740	50947.5	4.372031	172.977	391.206	1.147360	0.088937	0.088635	394.126	50947.5	0.083135	0.221585	1778.67	98884
605	2.000000	1.157708	7.37098e+06	-46839.1	1005.82	-29768	0.000000	0.000000	7.176946	469.804	NaN	0.000000	0.001575	0.001762	28.0819	101.366	0.001845	54936.3	8.997112	167.633	469.667	1.157257	0.098983	0.098533	469.804	54936.3	0.092569	0.267827	1754.14	96985.2
605	2.000000	1.161143	7.37098e+06	-46839.1	1005.82	-29768	0.000000	0.000000	7.181474	496.39	NaN	0.000000	0.001557	0.001771	28.0805	102.639	0.001744	58855.6	5.158912	-8.709613	493.199	1.160832	0.102418	0.102107	496.39	58855.6	0.096093	0.286144	1734.75	100524