File: remote_trans/data/nanoindenter/0828-1/data/Data_2025-08-06,11h17m57s/2025-07-22_16-23-58_1_1064.txt
2025-07-22, 16:23:58, 1
Index	Phase	Displacement	Time	Pos X	Pos Y	Pos Z	Rot A	Rot B	Piezo Z	Force A	Force B	Gripper	Voltage A	Voltage B	Temperature	Amplitude force	Amplitude pos	Stiffness	Phase shift	Phase excitation	Force A raw	Displacement raw	HMax	HMax raw	Real Force	Real Stiffness	Contact Depth	Area	Hardness	Reduced Mod.
[#]	[#]	[um]	[s]	[um]	[um]	[um]	[m°]	[m°]	[um]	[uN]	[uN]	[V]	[V]	[V]	[°C]	[uN]	[um]	[N/m]	[°]	[°]	[uN]	[um]	[um]	[um]	[uN]	[N/m]	[um]	[um^2]	[MPa]	[MPa]
1064	1.000000	0.002711	7.37545e+06	-53339.1	1055.82	-29746.5	0.000000	0.000000	6.002770	0.023685	NaN	0.000000	0.001624	0.001710	28.0829	0.055363	0.000978	56.6107	-51.5868	-160.73	0.002745	0.001498	-1.038899	-1.040111	0.023685	56.6107	-1.039212	-7.644982E+13	-3.098159E-16	NaN
1064	1.000000	0.042687	7.37545e+06	-53339.1	1055.82	-29746.5	0.000000	0.000000	6.042746	0.007422	NaN	0.000000	0.001591	0.001674	28.0833	0.031830	0.001923	16.5524	148.146	-166.729	0.021552	0.041356	-0.998922	-1.000253	0.007422	16.5524	-0.999259	-2.217116E+13	-3.347613E-16	NaN
1064	1.000000	0.082710	7.37545e+06	-53339.1	1055.82	-29746.5	0.000000	0.000000	6.082768	-0.020333	NaN	0.000000	0.001600	0.001675	28.0834	0.088392	0.002028	43.5843	48.2357	-165.211	-0.029651	0.081347	-0.958899	-0.960263	-0.020333	43.5843	-0.958550	-6.270664E+12	3.242526E-15	NaN
1064	1.000000	0.122702	7.37546e+06	-53339.1	1055.82	-29746.5	0.000000	0.000000	6.122760	0.010235	NaN	0.000000	0.001583	0.001676	28.0843	0.035949	0.001954	18.3956	-16.4209	-167.229	0.019858	0.121401	-0.918908	-0.920209	0.010235	18.3956	-0.919325	-1.853947E+12	-5.520907E-15	NaN
1064	1.000000	0.162713	7.37546e+06	-53339.1	1055.82	-29746.5	0.000000	0.000000	6.162771	0.007009	NaN	0.000000	0.001583	0.001664	28.0841	0.088336	0.002048	43.1285	147.688	-169.251	0.064166	0.161478	-0.878897	-0.880132	0.007009	43.1285	-0.879019	-5.289777E+11	-1.324987E-14	NaN
1064	1.000000	0.202761	7.37546e+06	-53339.1	1055.82	-29746.5	0.000000	0.000000	6.202819	-0.010246	NaN	0.000000	0.001591	0.001701	28.0839	0.114785	0.002034	56.4458	-85.116	-163.823	-0.053894	0.201416	-0.838849	-0.840194	-0.010246	56.4458	-0.838713	-1.506093E+11	6.803213E-14	NaN
1064	1.000000	0.242785	7.37546e+06	-53339.1	1055.82	-29746.5	0.000000	0.000000	6.242843	0.016404	NaN	0.000000	0.001560	0.001626	28.0829	0.079354	0.001876	42.2888	-115.688	-165.778	-0.001716	0.241480	-0.798825	-0.800129	0.016404	42.2888	-0.799116	-4.373848E+10	-3.750460E-13	NaN
1064	1.000000	0.282785	7.37546e+06	-53339.1	1055.82	-29746.5	0.000000	0.000000	6.282845	0.040521	NaN	0.000000	0.001570	0.001681	28.0829	0.097395	0.002029	47.9944	93.4254	-162.434	0.046293	0.281477	-0.758825	-0.760132	0.040521	47.9944	-0.759458	-1.264524E+10	-3.204427E-12	NaN
1064	1.000000	0.322793	7.37546e+06	-53339.1	1055.82	-29746.5	0.000000	0.000000	6.322851	-0.004775	NaN	0.000000	0.001604	0.001706	28.0825	0.049799	0.001990	25.0206	-13.3801	-163.736	-0.002828	0.321532	-0.718816	-0.720078	-0.004775	25.0206	-0.718673	-3.518652E+9	1.356961E-12	NaN
1064	1.000000	0.362827	7.37546e+06	-53339.1	1055.82	-29746.5	0.000000	0.000000	6.362888	0.065225	NaN	0.000000	0.001566	0.001689	28.0834	0.035496	0.002076	17.0981	-101.559	-164.542	-0.004826	0.361529	-0.678783	-0.680081	0.065225	17.0981	-0.681644	-1.098213E+9	-5.939216E-11	NaN
1064	1.000000	0.402837	7.37546e+06	-53339.1	1055.82	-29746.6	0.000000	0.000000	6.402894	-0.025370	NaN	0.000000	0.001581	0.001727	28.0836	0.073709	0.002036	36.2046	-107.437	-168.849	-0.030801	0.401520	-0.638773	-0.640090	-0.025370	36.2046	-0.638248	-2.794118E+8	9.079614E-11	NaN
1064	1.000000	0.442849	7.37546e+06	-53339.1	1055.82	-29746.6	0.000000	0.000000	6.442909	0.028064	NaN	0.000000	0.001603	0.001694	28.0838	0.049964	0.001979	25.247	-164.288	-166.58	0.062956	0.441584	-0.598760	-0.600026	0.028064	25.247	-0.599594	-8.219968E+7	-3.414094E-10	NaN
1064	1.000000	0.482867	7.37546e+06	-53339.1	1055.82	-29746.6	0.000000	0.000000	6.482925	-0.019289	NaN	0.000000	0.001572	0.001674	28.0838	0.075549	0.002104	35.9077	-176.296	-166.197	-0.002087	0.481577	-0.558742	-0.560033	-0.019289	35.9077	-0.558339	-2.215150E+7	8.707844E-10	NaN
1064	1.000000	0.522874	7.37546e+06	-53339.1	1055.82	-29746.6	0.000000	0.000000	6.522931	-0.030411	NaN	0.000000	0.001603	0.001690	28.0824	0.078664	0.001945	40.4467	-121.367	-163.545	0.001160	0.521552	-0.518735	-0.520058	-0.030411	40.4467	-0.518172	-6.13994e+06	4.953036E-9	NaN
1064	1.000000	0.562887	7.37546e+06	-53339.1	1055.82	-29746.6	0.000000	0.000000	6.562947	0.046946	NaN	0.000000	0.001604	0.001703	28.0823	0.097904	0.001986	49.2857	-148.134	-165.953	0.006864	0.561576	-0.478722	-0.480034	0.046946	49.2857	-0.479437	-1.76866e+06	-2.654343E-8	NaN
1064	1.000000	0.602915	7.37546e+06	-53339.1	1055.82	-29746.6	0.000000	0.000000	6.602972	-0.007799	NaN	0.000000	0.001526	0.001671	28.0828	0.051780	0.002005	25.825	97.3394	-165.95	0.000992	0.601620	-0.438695	-0.439990	-0.007799	25.825	-0.438469	-469620	1.660674E-8	NaN
1064	1.000000	0.642941	7.37546e+06	-53339.1	1055.82	-29746.6	0.000000	0.000000	6.642998	-0.034678	NaN	0.000000	0.001632	0.001677	28.0841	0.126771	0.002137	59.3225	115.586	-170.363	-0.013472	0.641669	-0.398669	-0.399940	-0.034678	59.3225	-0.398230	-126110	2.749812E-7	NaN
1064	1.000000	0.682971	7.37546e+06	-53339.1	1055.82	-29746.6	0.000000	0.000000	6.683030	0.034076	NaN	0.000000	0.001645	0.001657	28.0841	0.016431	0.002029	8.098572	-154.633	-164.986	-0.034860	0.681633	-0.358639	-0.359977	0.034076	8.098572	-0.361795	-37824.9	-9.008962E-7	NaN
1064	1.000000	0.722956	7.37546e+06	-53339.1	1055.82	-29746.6	0.000000	0.000000	6.723016	0.041375	NaN	0.000000	0.001624	0.001687	28.0838	0.082439	0.001927	42.7784	179.917	-169.88	0.099924	0.721611	-0.318653	-0.319999	0.041375	42.7784	-0.319379	-9109.44	-4.542037E-6	NaN
1064	1.000000	0.762986	7.37546e+06	-53339.1	1055.82	-29746.6	0.000000	0.000000	6.763045	0.005376	NaN	0.000000	0.001540	0.001677	28.0839	0.026763	0.001987	13.47	82.3608	-165.191	-0.041070	0.761714	-0.278623	-0.279896	0.005376	13.47	-0.278923	-2273.59	-2.364452E-6	NaN
1064	1.000000	0.803000	7.37546e+06	-53339.1	1055.82	-29746.6	0.000000	0.000000	6.803059	0.031641	NaN	0.000000	0.001559	0.001655	28.0827	0.071146	0.001862	38.2161	161.938	-163.271	0.010902	0.801693	-0.238610	-0.239916	0.031641	38.2161	-0.239231	-559.155	-5.658762E-5	NaN
1064	1.000000	0.843047	7.37546e+06	-53339.1	1055.82	-29746.6	0.000000	0.000000	6.843105	-0.006219	NaN	0.000000	0.001547	0.001687	28.0827	0.055116	0.002049	26.8984	11.6753	-167.118	0.026719	0.841711	-0.198563	-0.199898	-0.006219	26.8984	-0.198389	-123.936	5.017741E-5	NaN
1064	1.000000	0.883051	7.37546e+06	-53339.1	1055.82	-29746.6	0.000000	0.000000	6.883111	0.049606	NaN	0.000000	0.001565	0.001647	28.0828	0.100156	0.002024	49.4723	-164.671	-168.082	0.119515	0.881742	-0.158559	-0.159868	0.049606	49.4723	-0.159311	-26.6522	-0.001861	NaN
1064	1.000000	0.923042	7.37546e+06	-53339.1	1055.82	-29746.6	0.000000	0.000000	6.923103	0.082878	NaN	0.000000	0.001550	0.001681	28.0843	0.054274	0.001904	28.5032	2.122910	-166.007	-0.008970	0.921795	-0.118568	-0.119815	0.082878	28.5032	-0.120749	-5.002294	-0.016568	NaN
1064	1.000000	0.963055	7.37546e+06	-53339.1	1055.82	-29746.6	0.000000	0.000000	6.963115	0.043727	NaN	0.000000	0.001562	0.001624	28.0844	0.090214	0.002010	44.8917	-33.698	-167.104	0.029827	0.961769	-0.078554	-0.079841	0.043727	44.8917	-0.079285	-0.593969	-0.073619	NaN
1064	1.000000	1.003090	7.37546e+06	-53339.1	1055.82	-29746.6	0.000000	0.000000	7.003146	-0.041200	NaN	0.000000	0.001530	0.001657	28.0843	0.029297	0.001932	15.1606	-143.091	-166.154	-0.010701	1.001798	-0.038520	-0.039812	-0.041200	15.1606	-0.036482	-0.035432	1.162780	NaN
1064	1.000000	1.043081	7.37546e+06	-53339.1	1055.82	-29746.6	0.000000	0.000000	7.043143	0.086025	NaN	0.000000	0.001580	0.001680	28.0842	0.184502	0.001972	93.5558	-18.194	-168.418	-0.012489	1.041810	0.001472	0.000200	0.086025	93.5558	0.000782	0.000593	144.982	3509.05
1064	2.000000	1.059746	7.37546e+06	-53339.1	1055.82	-29746.6	0.000000	0.000000	7.060672	21.084	NaN	0.000000	0.001595	0.001649	28.0829	16.0279	0.001706	9395.58	3.407189	-174.464	20.3429	1.059452	0.018137	0.017842	21.084	9395.58	0.016454	0.017273	1220.64	65315.1
1064	2.000000	1.069667	7.37546e+06	-53339.1	1055.82	-29746.6	0.000000	0.000000	7.071471	42.4505	NaN	0.000000	0.001603	0.001690	28.083	27.24	0.001668	16332	4.969382	179.428	40.1646	1.069483	0.028057	0.027873	42.4505	16332	0.026107	0.033061	1284	82064.3
1064	2.000000	1.079673	7.37546e+06	-53339.1	1055.82	-29746.6	0.000000	0.000000	7.082814	74.9448	NaN	0.000000	0.001655	0.001691	28.083	37.11	0.001712	21675.5	4.676282	177.538	73.3566	1.079446	0.038063	0.037836	74.9448	21675.5	0.035470	0.052846	1418.17	86146.4
1064	2.000000	1.089673	7.37546e+06	-53339.1	1055.82	-29746.6	0.000000	0.000000	7.094680	120.322	NaN	0.000000	0.001593	0.001705	28.084	47.205	0.001777	26569.2	5.785943	175.241	119.186	1.089342	0.048063	0.047733	120.322	26569.2	0.044667	0.076644	1569.88	87682.4
1064	2.000000	1.099663	7.37546e+06	-53339.1	1055.82	-29746.6	0.000000	0.000000	7.106649	168.447	NaN	0.000000	0.001615	0.001684	28.0842	57.2196	0.001826	31329.8	6.829955	173.035	168.273	1.099340	0.058053	0.057730	168.447	31329.8	0.054020	0.105244	1600.54	88233.3
1064	2.000000	1.109758	7.37546e+06	-53339.1	1055.82	-29746.6	0.000000	0.000000	7.118944	221.915	NaN	0.000000	0.001608	0.001661	28.0842	68.1941	0.001843	37006.6	2.452901	176.038	227.12	1.109373	0.068148	0.067763	221.915	37006.6	0.063651	0.139224	1593.95	90614.1
1064	2.000000	1.119604	7.37546e+06	-53339.1	1055.82	-29746.6	0.000000	0.000000	7.131713	292.993	NaN	0.000000	0.001590	0.001678	28.0831	77.9759	0.001935	40288.2	4.837739	173.256	291.874	1.119369	0.077994	0.077759	292.993	40288.2	0.072539	0.174572	1678.36	88097.7
1064	2.000000	1.129639	7.37546e+06	-53339.1	1055.82	-29746.6	0.000000	0.000000	7.144810	367.419	NaN	0.000000	0.001606	0.001678	28.0832	87.1601	0.001752	49751.3	4.527908	171.457	366.421	1.129282	0.088030	0.087673	367.419	49751.3	0.082491	0.218577	1680.96	97224.5
1064	2.000000	1.139538	7.37546e+06	-53339.1	1055.82	-29746.6	0.000000	0.000000	7.158707	464.636	NaN	0.000000	0.001608	0.001662	28.0831	97.2824	0.001778	54715.7	3.369771	172.631	459.126	1.139303	0.097928	0.097693	464.636	54715.7	0.091559	0.262683	1768.81	97537
1064	2.000000	1.149591	7.37546e+06	-53339.1	1055.82	-29746.6	0.000000	0.000000	7.173151	571.394	NaN	0.000000	0.001595	0.001657	28.0829	108.603	0.001786	60795.2	8.168563	167.402	569.492	1.149212	0.107981	0.107602	571.394	60795.2	0.100932	0.312226	1830.06	99404.9
1064	2.000000	1.150517	7.37546e+06	-53339.1	1055.82	-29746.6	0.000000	0.000000	7.174484	581.278	NaN	0.000000	0.001599	0.001652	28.0829	108.152	0.001714	63095.8	3.980550	170.996	578.729	1.150175	0.108907	0.108565	581.278	63095.8	0.101998	0.318112	1827.28	102208