File: remote_trans/data/nanoindenter/0828-1/data/Data_2025-08-06,11h17m57s/2025-07-22_16-23-58_1_732.txt
2025-07-22, 16:23:58, 1
Index	Phase	Displacement	Time	Pos X	Pos Y	Pos Z	Rot A	Rot B	Piezo Z	Force A	Force B	Gripper	Voltage A	Voltage B	Temperature	Amplitude force	Amplitude pos	Stiffness	Phase shift	Phase excitation	Force A raw	Displacement raw	HMax	HMax raw	Real Force	Real Stiffness	Contact Depth	Area	Hardness	Reduced Mod.
[#]	[#]	[um]	[s]	[um]	[um]	[um]	[m°]	[m°]	[um]	[uN]	[uN]	[V]	[V]	[V]	[°C]	[uN]	[um]	[N/m]	[°]	[°]	[uN]	[um]	[um]	[um]	[uN]	[N/m]	[um]	[um^2]	[MPa]	[MPa]
732	1.000000	0.002302	7.37221e+06	-40489.1	1005.82	-29789.8	0.000000	0.000000	6.002819	0.032696	NaN	0.000000	0.001635	0.001616	28.0828	0.051754	0.000866	59.7294	-85.6819	-163.234	-0.003392	0.000968	-1.100487	-1.101821	0.032696	59.7294	-1.100898	-5.153730E+14	-6.344183E-17	NaN
732	1.000000	0.044223	7.37221e+06	-40489.1	1005.82	-29789.8	0.000000	0.000000	6.044738	0.002929	NaN	0.000000	0.001634	0.001628	28.0813	0.009689	0.002006	4.831025	32.2511	18.4836	0.029079	0.042886	-1.058567	-1.059904	0.002929	4.831025	-1.059022	-1.411472E+14	-2.075208E-17	NaN
732	1.000000	0.086277	7.37221e+06	-40489.1	1005.82	-29789.8	0.000000	0.000000	6.086793	0.007381	NaN	0.000000	0.001607	0.001661	28.0813	0.088896	0.002002	44.3976	27.5956	-165.72	-0.087063	0.084925	-1.016513	-1.017865	0.007381	44.3976	-1.016637	-3.799301E+13	-1.942656E-16	NaN
732	1.000000	0.128259	7.37221e+06	-40489.1	1005.82	-29789.8	0.000000	0.000000	6.128776	0.023746	NaN	0.000000	0.001649	0.001630	28.0812	0.032069	0.001994	16.0814	-135.415	11.2112	0.049417	0.126926	-0.974530	-0.975864	0.023746	16.0814	-0.975638	-1.065708E+13	-2.228212E-15	NaN
732	1.000000	0.170293	7.37221e+06	-40489.1	1005.82	-29789.8	0.000000	0.000000	6.170810	0.030792	NaN	0.000000	0.001606	0.001667	28.0823	0.060332	0.002002	30.1427	93.6443	-165.969	0.003088	0.168997	-0.932497	-0.933793	0.030792	30.1427	-0.933263	-2.859104E+12	-1.076968E-14	NaN
732	1.000000	0.212276	7.37222e+06	-40489.1	1005.82	-29789.8	0.000000	0.000000	6.212791	-0.027165	NaN	0.000000	0.001670	0.001616	28.0824	0.100070	0.001951	51.2914	128.931	13.4626	0.034115	0.210949	-0.890513	-0.891841	-0.027165	51.2914	-0.890116	-7.472859E+11	3.635127E-14	NaN
732	1.000000	0.254315	7.37222e+06	-40489.1	1005.82	-29789.8	0.000000	0.000000	6.254832	0.038640	NaN	0.000000	0.001663	0.001690	28.0825	0.133020	0.001995	66.6802	100.681	-166.061	0.038028	0.252952	-0.848475	-0.849838	0.038640	66.6802	-0.848909	-2.069984E+11	-1.866663E-13	NaN
732	1.000000	0.296349	7.37222e+06	-40489.1	1005.82	-29789.8	0.000000	0.000000	6.296867	0.062168	NaN	0.000000	0.001650	0.001653	28.0825	0.053720	0.002108	25.481	88.4016	15.385	-0.002171	0.294990	-0.806441	-0.807799	0.062168	25.481	-0.808271	-5.822509E+10	-1.067711E-12	NaN
732	1.000000	0.338332	7.37222e+06	-40489.1	1005.82	-29789.8	0.000000	0.000000	6.338849	0.032791	NaN	0.000000	0.001630	0.001675	28.0813	0.052795	0.002099	25.149	-147.441	-165.941	-0.061140	0.337029	-0.764458	-0.765761	0.032791	25.149	-0.765436	-1.524894E+10	-2.150349E-12	NaN
732	1.000000	0.380362	7.37222e+06	-40489.1	1005.82	-29789.8	0.000000	0.000000	6.380881	0.076365	NaN	0.000000	0.001621	0.001689	28.0812	0.085980	0.001954	44.0107	-62.8676	20.1432	0.048306	0.379007	-0.722428	-0.723783	0.076365	44.0107	-0.723729	-4.124022E+9	-1.851720E-11	NaN
732	1.000000	0.422382	7.37222e+06	-40489.1	1005.82	-29789.8	0.000000	0.000000	6.422898	0.003393	NaN	0.000000	0.001695	0.001631	28.0812	0.062483	0.002004	31.1777	67.205	-164.259	0.037071	0.421045	-0.680407	-0.681744	0.003393	31.1777	-0.680489	-1.058990E+9	-3.203756E-12	NaN
732	1.000000	0.464382	7.37222e+06	-40489.1	1005.82	-29789.8	0.000000	0.000000	6.464898	0.006724	NaN	0.000000	0.001682	0.001665	28.0825	0.039312	0.002086	18.8463	-88.7424	17.7334	0.001296	0.463077	-0.638407	-0.639712	0.006724	18.8463	-0.638675	-2.832083E+8	-2.374213E-11	NaN
732	1.000000	0.506405	7.37222e+06	-40489.1	1005.82	-29789.8	0.000000	0.000000	6.506922	0.054546	NaN	0.000000	0.001690	0.001629	28.0826	0.085846	0.002039	42.0935	-168.967	-167.775	0.022976	0.505136	-0.596385	-0.597654	0.054546	42.0935	-0.597357	-7.656945E+7	-7.123714E-10	NaN
732	1.000000	0.548438	7.37222e+06	-40489.1	1005.82	-29789.8	0.000000	0.000000	6.548954	0.024202	NaN	0.000000	0.001571	0.001676	28.0829	0.037106	0.002018	18.3834	42.0056	14.949	-0.036654	0.547099	-0.554352	-0.555691	0.024202	18.3834	-0.555340	-2.013207E+7	-1.202152E-9	NaN
732	1.000000	0.590464	7.37222e+06	-40489.1	1005.82	-29789.8	0.000000	0.000000	6.590978	-0.031244	NaN	0.000000	0.001658	0.001625	28.0816	0.052238	0.002098	24.9004	167.823	-166.496	0.030836	0.589142	-0.512326	-0.513648	-0.031244	24.9004	-0.511385	-4.93974e+06	6.325110E-9	NaN
732	1.000000	0.632460	7.37222e+06	-40489.1	1005.82	-29789.8	0.000000	0.000000	6.632978	0.063286	NaN	0.000000	0.001589	0.001605	28.0815	0.039962	0.001909	20.9332	63.3897	14.2634	-0.086607	0.631096	-0.470329	-0.471694	0.063286	20.9332	-0.472597	-1.41847e+06	-4.461560E-8	NaN
732	1.000000	0.674482	7.37222e+06	-40489.1	1005.82	-29789.8	0.000000	0.000000	6.674998	0.010881	NaN	0.000000	0.001576	0.001647	28.0818	0.005237	0.002066	2.535331	-11.4098	-168.269	0.032679	0.673225	-0.428308	-0.429565	0.010881	2.535331	-0.431527	-374674	-2.904104E-8	NaN
732	1.000000	0.716520	7.37222e+06	-40489.1	1005.82	-29789.8	0.000000	0.000000	6.717037	0.032976	NaN	0.000000	0.001629	0.001610	28.0821	0.113254	0.001946	58.2065	147.426	11.7079	0.071608	0.715166	-0.386269	-0.387623	0.032976	58.2065	-0.386694	-86268.8	-3.822419E-7	NaN
732	1.000000	0.758535	7.37222e+06	-40489.1	1005.82	-29789.8	0.000000	0.000000	6.759053	0.054910	NaN	0.000000	0.001617	0.001633	28.0824	0.034586	0.002100	16.4723	13.4723	-167.513	-0.006319	0.757251	-0.344254	-0.345538	0.054910	16.4723	-0.346754	-22901.6	-2.397673E-6	NaN
732	1.000000	0.800553	7.37222e+06	-40489.1	1005.82	-29789.8	0.000000	0.000000	6.801068	-0.016641	NaN	0.000000	0.001615	0.001658	28.0825	0.024481	0.002064	11.859	151.431	15.6694	-0.029617	0.799192	-0.302237	-0.303597	-0.016641	11.859	-0.301184	-4900.71	3.395676E-6	NaN
732	1.000000	0.842568	7.37222e+06	-40489.1	1005.82	-29789.8	0.000000	0.000000	6.843084	0.017881	NaN	0.000000	0.001590	0.001656	28.0828	0.058049	0.001996	29.0806	-57.4162	-166.352	0.109748	0.841198	-0.260222	-0.261592	0.017881	29.0806	-0.260683	-1200.55	-1.489363E-5	NaN
732	1.000000	0.884590	7.37222e+06	-40489.1	1005.82	-29789.8	0.000000	0.000000	6.885106	0.028113	NaN	0.000000	0.001623	0.001645	28.0813	0.073720	0.001883	39.1498	-9.456749	13.6443	0.060089	0.883218	-0.218200	-0.219571	0.028113	39.1498	-0.218739	-265.158	-0.000106	NaN
732	1.000000	0.926588	7.37222e+06	-40489.1	1005.82	-29789.8	0.000000	0.000000	6.927103	-0.020284	NaN	0.000000	0.001648	0.001666	28.0813	0.154754	0.001971	78.5133	41.4889	-167.265	0.086570	0.925247	-0.176201	-0.177543	-0.020284	78.5133	-0.176007	-52.1523	0.000389	NaN
732	1.000000	0.968627	7.37222e+06	-40489.1	1005.82	-29789.8	0.000000	0.000000	6.969144	0.038052	NaN	0.000000	0.001699	0.001646	28.0812	0.110495	0.001929	57.2943	150.22	13.6522	0.009240	0.967221	-0.134163	-0.135568	0.038052	57.2943	-0.134661	-9.371606	-0.004060	NaN
732	1.000000	1.010614	7.37222e+06	-40489.1	1005.82	-29789.8	0.000000	0.000000	7.011128	-0.040737	NaN	0.000000	0.001640	0.001651	28.0829	0.066905	0.002053	32.5869	111.752	-163.703	0.018789	1.009311	-0.092176	-0.093478	-0.040737	32.5869	-0.091238	-1.155462	0.035256	NaN
732	1.000000	1.052649	7.37222e+06	-40489.1	1005.82	-29789.8	0.000000	0.000000	7.053162	-0.058228	NaN	0.000000	0.001660	0.001628	28.0825	0.082290	0.001996	41.2356	27.2485	14.1145	-0.046293	1.051266	-0.050140	-0.051524	-0.058228	41.2356	-0.049081	-0.085587	0.680341	NaN
732	1.000000	1.094656	7.37222e+06	-40489.1	1005.82	-29789.8	0.000000	0.000000	7.095173	0.044798	NaN	0.000000	0.001628	0.001615	28.0826	0.004783	0.001956	2.445546	-103.944	-165.944	0.024665	1.093348	-0.008133	-0.009441	0.044798	2.445546	-0.021872	-0.014016	-3.196303	NaN
732	2.000000	1.117688	7.37222e+06	-40489.1	1005.82	-29789.8	0.000000	0.000000	7.118914	17.2776	NaN	0.000000	0.001619	0.001656	28.0813	14.721	0.001894	7771.96	5.037988	8.229850	15.8697	1.117334	0.014898	0.014544	17.2776	7771.96	0.013231	0.012998	1329.21	62281.6
732	2.000000	1.128174	7.37222e+06	-40489.1	1005.82	-29789.8	0.000000	0.000000	7.130320	39.6727	NaN	0.000000	0.001713	0.001644	28.0815	24.408	0.001803	13538.8	6.075166	-178.718	41.0411	1.127840	0.025384	0.025051	39.6727	13538.8	0.023186	0.027799	1427.14	74189.3
732	2.000000	1.138651	7.37222e+06	-40489.1	1005.82	-29789.8	0.000000	0.000000	7.141911	66.7831	NaN	0.000000	0.001586	0.001659	28.0816	34.5463	0.001791	19288.6	4.399757	-0.085837	66.2743	1.138292	0.035861	0.035502	66.7831	19288.6	0.033265	0.047782	1397.65	80619.5
732	2.000000	1.149123	7.37222e+06	-40489.1	1005.82	-29789.8	0.000000	0.000000	7.154032	106.917	NaN	0.000000	0.001607	0.001615	28.082	43.3698	0.001805	24021.7	3.951119	177.649	105.344	1.148820	0.046333	0.046030	106.917	24021.7	0.042995	0.071997	1485.01	81793.4
732	2.000000	1.159580	7.37222e+06	-40489.1	1005.82	-29789.8	0.000000	0.000000	7.166266	150.154	NaN	0.000000	0.001688	0.001633	28.0826	51.7777	0.001775	29178.4	1.904214	-1.476985	145.603	1.159248	0.056790	0.056458	150.154	29178.4	0.052930	0.101686	1476.64	83599.6
732	2.000000	1.170062	7.37222e+06	-40489.1	1005.82	-29789.8	0.000000	0.000000	7.178970	204.207	NaN	0.000000	0.001637	0.001697	28.0828	62.0929	0.001768	35111.4	1.652019	177.211	200.522	1.169807	0.067272	0.067017	204.207	35111.4	0.062910	0.136451	1496.56	86842.5
732	2.000000	1.180611	7.37222e+06	-40489.1	1005.82	-29789.8	0.000000	0.000000	7.191969	263.844	NaN	0.000000	0.001664	0.001690	28.0826	72.0655	0.001738	41457.8	6.549907	-8.587986	262.418	1.180205	0.077821	0.077416	263.844	41457.8	0.073048	0.176709	1493.1	90105.3
732	2.000000	1.191058	7.37222e+06	-40489.1	1005.82	-29789.8	0.000000	0.000000	7.204977	326.16	NaN	0.000000	0.001648	0.001669	28.0813	80.8648	0.001776	45527.2	4.175295	172.499	324.058	1.190790	0.088268	0.088000	326.16	45527.2	0.082895	0.220464	1479.42	88588.1
732	2.000000	1.201521	7.37222e+06	-40489.1	1005.82	-29789.8	0.000000	0.000000	7.218624	403.623	NaN	0.000000	0.001665	0.001649	28.0811	89.3092	0.001715	52084.8	1.876731	-6.166095	399.334	1.201233	0.098731	0.098443	403.623	52084.8	0.092919	0.269623	1496.99	91644.4
732	2.000000	1.210021	7.37222e+06	-40489.1	1005.82	-29789.8	0.000000	0.000000	7.229916	471.572	NaN	0.000000	0.001593	0.001632	28.0814	99.6381	0.001848	53913.1	5.507290	170.52	468.018	1.209733	0.107231	0.106944	471.572	53913.1	0.100671	0.310789	1517.33	88355.6