File: remote_trans/data/nanoindenter/0828-1/data/Data_2025-08-06,11h17m57s/2025-07-22_16-23-58_1_784.txt
2025-07-22, 16:23:58, 1
Index	Phase	Displacement	Time	Pos X	Pos Y	Pos Z	Rot A	Rot B	Piezo Z	Force A	Force B	Gripper	Voltage A	Voltage B	Temperature	Amplitude force	Amplitude pos	Stiffness	Phase shift	Phase excitation	Force A raw	Displacement raw	HMax	HMax raw	Real Force	Real Stiffness	Contact Depth	Area	Hardness	Reduced Mod.
[#]	[#]	[um]	[s]	[um]	[um]	[um]	[m°]	[m°]	[um]	[uN]	[uN]	[V]	[V]	[V]	[°C]	[uN]	[um]	[N/m]	[°]	[°]	[uN]	[um]	[um]	[um]	[uN]	[N/m]	[um]	[um^2]	[MPa]	[MPa]
784	1.000000	0.002701	7.37272e+06	-39339.1	1055.82	-29794.2	0.000000	0.000000	6.002792	-0.013378	NaN	0.000000	0.001644	0.001738	28.0844	0.085499	0.000970	88.1487	-98.6152	-162.641	-0.016073	0.001422	-1.119353	-1.120631	-0.013378	88.1487	-1.119239	-9.083691E+14	1.472769E-17	NaN
784	1.000000	0.044653	7.37272e+06	-39339.1	1055.82	-29794.2	0.000000	0.000000	6.044745	0.013315	NaN	0.000000	0.001642	0.001695	28.083	0.052580	0.002092	25.1334	-88.5994	13.3776	0.004782	0.043283	-1.077400	-1.078770	0.013315	25.1334	-1.077798	-2.523130E+14	-5.277046E-17	NaN
784	1.000000	0.086673	7.37272e+06	-39339.1	1055.82	-29794.2	0.000000	0.000000	6.086764	-0.012470	NaN	0.000000	0.001693	0.001719	28.0829	0.195789	0.002016	97.1121	35.3435	-166.552	0.057910	0.085340	-1.035381	-1.036714	-0.012470	97.1121	-1.035284	-6.769452E+13	1.842110E-16	NaN
784	1.000000	0.128682	7.37272e+06	-39339.1	1055.82	-29794.2	0.000000	0.000000	6.128773	-0.013947	NaN	0.000000	0.001682	0.001706	28.0827	0.106625	0.002066	51.5995	100.431	10.9614	0.001618	0.127360	-0.993371	-0.994693	-0.013947	51.5995	-0.993169	-1.835632E+13	7.598059E-16	NaN
784	1.000000	0.170716	7.37272e+06	-39339.1	1055.82	-29794.2	0.000000	0.000000	6.170807	-0.020006	NaN	0.000000	0.001648	0.001754	28.084	0.079141	0.002104	37.6203	138.827	-164.448	-0.008848	0.169330	-0.951337	-0.952723	-0.020006	37.6203	-0.950938	-4.950897E+12	4.040866E-15	NaN
784	1.000000	0.212711	7.37272e+06	-39339.1	1055.82	-29794.2	0.000000	0.000000	6.212806	0.073296	NaN	0.000000	0.001622	0.001728	28.0839	0.076599	0.001966	38.96	114.879	12.2916	0.032206	0.211362	-0.909343	-0.910692	0.073296	38.96	-0.910754	-1.420171E+12	-5.161080E-14	NaN
784	1.000000	0.254733	7.37272e+06	-39339.1	1055.82	-29794.2	0.000000	0.000000	6.254824	-0.019052	NaN	0.000000	0.001704	0.001670	28.084	0.042372	0.002137	19.8254	-41.0377	-165.093	0.067805	0.253490	-0.867321	-0.868563	-0.019052	19.8254	-0.866600	-3.592853E+11	5.302623E-14	NaN
784	1.000000	0.296761	7.37272e+06	-39339.1	1055.82	-29794.2	0.000000	0.000000	6.296852	-0.019147	NaN	0.000000	0.001649	0.001681	28.0825	0.050496	0.002131	23.6949	97.8997	13.3074	-0.022382	0.295400	-0.825293	-0.826653	-0.019147	23.6949	-0.824687	-9.722018E+10	1.969418E-13	NaN
784	1.000000	0.338758	7.37272e+06	-39339.1	1055.82	-29794.2	0.000000	0.000000	6.338849	-0.006167	NaN	0.000000	0.001729	0.001710	28.0828	0.022335	0.002054	10.872	1.942260	-165.913	0.064078	0.337455	-0.783296	-0.784598	-0.006167	10.872	-0.782870	-2.631665E+10	2.343482E-13	NaN
784	1.000000	0.380794	7.37272e+06	-39339.1	1055.82	-29794.2	0.000000	0.000000	6.380886	0.006817	NaN	0.000000	0.001713	0.001708	28.0827	0.063888	0.001963	32.5544	-110.978	13.8158	-0.036468	0.379426	-0.741259	-0.742628	0.006817	32.5544	-0.741416	-7.183669E+9	-9.490169E-13	NaN
784	1.000000	0.422811	7.37272e+06	-39339.1	1055.82	-29794.2	0.000000	0.000000	6.422907	0.107854	NaN	0.000000	0.001664	0.001707	28.0836	0.047855	0.002058	23.2508	27.181	-166.523	0.033215	0.421525	-0.699242	-0.700529	0.107854	23.2508	-0.702721	-2.131531E+9	-5.059933E-11	NaN
784	1.000000	0.464831	7.37272e+06	-39339.1	1055.82	-29794.2	0.000000	0.000000	6.464921	-0.035783	NaN	0.000000	0.001658	0.001723	28.0835	0.068354	0.002024	33.7698	27.246	18.3415	-0.050865	0.463457	-0.657222	-0.658597	-0.035783	33.7698	-0.656428	-4.960519E+8	7.213617E-11	NaN
784	1.000000	0.506796	7.37272e+06	-39339.1	1055.82	-29794.2	0.000000	0.000000	6.506888	0.008451	NaN	0.000000	0.001631	0.001698	28.0837	0.066941	0.002062	32.4704	-122.721	-165.543	0.013580	0.505575	-0.615258	-0.616478	0.008451	32.4704	-0.615453	-1.358679E+8	-6.219905E-11	NaN
784	1.000000	0.548841	7.37272e+06	-39339.1	1055.82	-29794.2	0.000000	0.000000	6.548933	0.004894	NaN	0.000000	0.001635	0.001721	28.0841	0.051087	0.002018	25.3195	-33.4816	14.5482	-0.035996	0.547517	-0.573213	-0.574536	0.004894	25.3195	-0.573358	-3.572869E+7	-1.369801E-10	NaN
784	1.000000	0.590876	7.37272e+06	-39339.1	1055.82	-29794.2	0.000000	0.000000	6.590966	-0.041656	NaN	0.000000	0.001672	0.001724	28.0831	0.057548	0.002069	27.8174	143.754	-167.267	0.010378	0.589523	-0.531178	-0.532530	-0.041656	27.8174	-0.530055	-8.98116e+06	4.638191E-9	NaN
784	1.000000	0.632897	7.37272e+06	-39339.1	1055.82	-29794.2	0.000000	0.000000	6.632990	0.044670	NaN	0.000000	0.001643	0.001655	28.0834	0.079624	0.002031	39.2073	-16.0607	12.2337	0.008617	0.631524	-0.489156	-0.490529	0.044670	39.2073	-0.490011	-2.48626e+06	-1.796695E-8	NaN
784	1.000000	0.674910	7.37272e+06	-39339.1	1055.82	-29794.2	0.000000	0.000000	6.675002	0.013759	NaN	0.000000	0.001660	0.001687	28.0831	0.117139	0.002009	58.3044	103.294	-168.126	0.033102	0.673583	-0.447144	-0.448470	0.013759	58.3044	-0.447321	-626037	-2.197715E-8	NaN
784	1.000000	0.716928	7.37272e+06	-39339.1	1055.82	-29794.2	0.000000	0.000000	6.717022	0.055179	NaN	0.000000	0.001649	0.001733	28.0847	0.029566	0.002027	14.5874	-45.7474	15.5333	0.053504	0.715556	-0.405125	-0.406498	0.055179	14.5874	-0.407962	-173547	-3.179477E-7	NaN
784	1.000000	0.758977	7.37272e+06	-39339.1	1055.82	-29794.2	0.000000	0.000000	6.759073	0.103926	NaN	0.000000	0.001600	0.001735	28.0846	0.090093	0.002062	43.6848	-16.5245	-165.273	0.094164	0.757624	-0.363076	-0.364429	0.103926	43.6848	-0.364861	-41883.5	-2.481303E-6	NaN
784	1.000000	0.800978	7.37272e+06	-39339.1	1055.82	-29794.2	0.000000	0.000000	6.801070	0.010187	NaN	0.000000	0.001641	0.001740	28.0844	0.088745	0.001971	45.031	-139.854	14.0095	0.016574	0.799568	-0.321075	-0.322485	0.010187	45.031	-0.321245	-9704.18	-1.049753E-6	NaN
784	1.000000	0.843000	7.37272e+06	-39339.1	1055.82	-29794.2	0.000000	0.000000	6.843091	-0.011584	NaN	0.000000	0.001692	0.001731	28.0832	0.044930	0.001962	22.9001	-38.9601	-166.189	-0.066796	0.841740	-0.279053	-0.280313	-0.011584	22.9001	-0.278674	-2254.01	5.139268E-6	NaN
784	1.000000	0.884977	7.37273e+06	-39339.1	1055.82	-29794.2	0.000000	0.000000	6.885068	-0.015059	NaN	0.000000	0.001640	0.001747	28.0828	0.157374	0.001928	81.6112	-9.226216	13.3432	0.004295	0.883602	-0.237077	-0.238452	-0.015059	81.6112	-0.236938	-514.816	2.925115E-5	NaN
784	1.000000	0.927037	7.37273e+06	-39339.1	1055.82	-29794.2	0.000000	0.000000	6.927128	-0.002490	NaN	0.000000	0.001634	0.001700	28.0827	0.044967	0.002029	22.1666	121.111	-166.15	-0.019422	0.925732	-0.195016	-0.196322	-0.002490	22.1666	-0.194932	-108.662	2.291510E-5	NaN
784	1.000000	0.969037	7.37273e+06	-39339.1	1055.82	-29794.2	0.000000	0.000000	6.969131	0.051246	NaN	0.000000	0.001647	0.001703	28.084	0.133553	0.002024	65.9979	12.4792	15.8061	0.049375	0.967743	-0.153016	-0.154311	0.051246	65.9979	-0.153599	-21.0531	-0.002434	NaN
784	1.000000	1.011029	7.37273e+06	-39339.1	1055.82	-29794.2	0.000000	0.000000	7.011124	0.067751	NaN	0.000000	0.001674	0.001665	28.084	0.062633	0.001982	31.6027	157.19	-167.003	-0.019873	1.009764	-0.111024	-0.112289	0.067751	31.6027	-0.112632	-3.412206	-0.019855	NaN
784	1.000000	1.053072	7.37273e+06	-39339.1	1055.82	-29794.2	0.000000	0.000000	7.053164	0.007379	NaN	0.000000	0.001640	0.001700	28.0838	0.050137	0.001973	25.4059	-112.194	14.2802	0.000916	1.051688	-0.068982	-0.070365	0.007379	25.4059	-0.069200	-0.324632	-0.022732	NaN
784	1.000000	1.095090	7.37273e+06	-39339.1	1055.82	-29794.2	0.000000	0.000000	7.095182	0.014235	NaN	0.000000	0.001658	0.001695	28.0841	0.026501	0.001936	13.6917	48.0151	-167.245	0.044509	1.093795	-0.026964	-0.028259	0.014235	13.6917	-0.027744	-0.019953	-0.713414	NaN
784	1.000000	1.137091	7.37273e+06	-39339.1	1055.82	-29794.2	0.000000	0.000000	7.137310	3.092395	NaN	0.000000	0.001691	0.001695	28.0826	3.807471	0.001708	2229.39	9.673372	10.9414	1.969151	1.135715	0.015038	0.013662	3.092395	2229.39	0.013997	0.013972	221.332	17232
784	2.000000	1.152646	7.37273e+06	-39339.1	1055.82	-29794.2	0.000000	0.000000	7.153445	17.2099	NaN	0.000000	0.001684	0.001726	28.0826	13.9232	0.001778	7830.96	0.477434	-170.901	16.7986	1.152355	0.030593	0.030302	17.2099	7830.96	0.028945	0.038585	446.029	36423.4
784	2.000000	1.163104	7.37273e+06	-39339.1	1055.82	-29794.2	0.000000	0.000000	7.165063	45.4467	NaN	0.000000	0.001664	0.001729	28.0826	26.071	0.001782	14631.7	0.847948	5.181541	44.4736	1.162854	0.041051	0.040801	45.4467	14631.7	0.038721	0.060766	747.902	54229.9
784	2.000000	1.173580	7.37273e+06	-39339.1	1055.82	-29794.2	0.000000	0.000000	7.177354	89.5983	NaN	0.000000	0.001662	0.001709	28.084	36.662	0.001863	19678.9	6.635481	176.252	88.7044	1.173218	0.051527	0.051165	89.5983	19678.9	0.048112	0.086667	1033.82	61072.7
784	2.000000	1.184030	7.37273e+06	-39339.1	1055.82	-29794.2	0.000000	0.000000	7.189822	138.73	NaN	0.000000	0.001635	0.001708	28.084	45.5071	0.001781	25554.2	3.547014	-3.402487	135.672	1.183703	0.061976	0.061649	138.73	25554.2	0.057905	0.118402	1171.69	67851.2
784	2.000000	1.194686	7.37273e+06	-39339.1	1055.82	-29794.2	0.000000	0.000000	7.202435	186.347	NaN	0.000000	0.001716	0.001701	28.0845	55.748	0.001849	30158.4	6.036878	173.48	189.657	1.194338	0.072633	0.072285	186.347	30158.4	0.067999	0.156042	1194.21	69752.7
784	2.000000	1.205062	7.37273e+06	-39339.1	1055.82	-29794.2	0.000000	0.000000	7.215078	241.519	NaN	0.000000	0.001729	0.001707	28.083	64.4224	0.001780	36191.4	4.029833	-6.726685	238.597	1.204759	0.083008	0.082705	241.519	36191.4	0.078003	0.198159	1218.81	74280
784	2.000000	1.215589	7.37273e+06	-39339.1	1055.82	-29794.2	0.000000	0.000000	7.228369	308.764	NaN	0.000000	0.001626	0.001711	28.0834	74.1228	0.001811	40928.1	3.473897	173.633	313.081	1.215227	0.093536	0.093174	308.764	40928.1	0.087878	0.244321	1263.77	75651.1
784	2.000000	1.225986	7.37273e+06	-39339.1	1055.82	-29794.2	0.000000	0.000000	7.241832	383.382	NaN	0.000000	0.001672	0.001704	28.0831	83.0543	0.001817	45700.5	3.106475	-6.861344	381.076	1.225766	0.103932	0.103713	383.382	45700.5	0.097640	0.294370	1302.38	76956.8
784	2.000000	1.236625	7.37273e+06	-39339.1	1055.82	-29794.2	0.000000	0.000000	7.255532	457.877	NaN	0.000000	0.001634	0.001710	28.0844	90.9603	0.001859	48942.7	5.457645	170.433	464.483	1.236277	0.114571	0.114223	457.877	48942.7	0.107555	0.349639	1309.57	75622.5
784	2.000000	1.242475	7.37273e+06	-39339.1	1055.82	-29794.2	0.000000	0.000000	7.263447	508.118	NaN	0.000000	0.001674	0.001687	28.084	97.3163	0.001910	50959.9	7.187736	168.751	506.944	1.242090	0.120422	0.120037	508.118	50959.9	0.112944	0.381551	1331.72	75374.6