File: remote_trans/data/nanoindenter/0828-1/data/Data_2025-08-06,11h17m57s/2025-07-22_16-23-58_1_655.txt
2025-07-22, 16:23:58, 1
Index	Phase	Displacement	Time	Pos X	Pos Y	Pos Z	Rot A	Rot B	Piezo Z	Force A	Force B	Gripper	Voltage A	Voltage B	Temperature	Amplitude force	Amplitude pos	Stiffness	Phase shift	Phase excitation	Force A raw	Displacement raw	HMax	HMax raw	Real Force	Real Stiffness	Contact Depth	Area	Hardness	Reduced Mod.
[#]	[#]	[um]	[s]	[um]	[um]	[um]	[m°]	[m°]	[um]	[uN]	[uN]	[V]	[V]	[V]	[°C]	[uN]	[um]	[N/m]	[°]	[°]	[uN]	[um]	[um]	[um]	[uN]	[N/m]	[um]	[um^2]	[MPa]	[MPa]
655	1.000000	0.002417	7.37146e+06	-44339.1	1005.82	-29776	0.000000	0.000000	6.002799	-0.005412	NaN	0.000000	0.001628	0.001678	28.0841	0.080667	0.000794	101.533	-37.8966	-169.645	-0.047630	0.001209	-0.998613	-0.999821	-0.005412	101.533	-0.998573	-2.170470E+13	2.493359E-16	NaN
655	1.000000	0.042357	7.37146e+06	-44339.1	1005.82	-29776	0.000000	0.000000	6.042734	-0.097384	NaN	0.000000	0.001646	0.001676	28.0838	0.099940	0.002003	49.8885	102.757	-166.848	-0.137843	0.041114	-0.958673	-0.959916	-0.097384	49.8885	-0.957209	-6.015064E+12	1.619003E-14	NaN
655	1.000000	0.082392	7.37146e+06	-44339.1	1005.82	-29776	0.000000	0.000000	6.082771	-0.054443	NaN	0.000000	0.001596	0.001664	28.084	0.108795	0.001948	55.8454	-163.298	-167.983	0.009203	0.081050	-0.918638	-0.919980	-0.054443	55.8454	-0.917907	-1.773952E+12	3.069039E-14	NaN
655	1.000000	0.122409	7.37146e+06	-44339.1	1005.82	-29776	0.000000	0.000000	6.122789	-0.046613	NaN	0.000000	0.001592	0.001652	28.0829	0.013157	0.002018	6.519158	-111.523	-165.222	-0.125188	0.121086	-0.878621	-0.879944	-0.046613	6.519158	-0.873258	-4.421012E+11	1.054348E-13	NaN
655	1.000000	0.162388	7.37146e+06	-44339.1	1005.82	-29776	0.000000	0.000000	6.162767	-0.056255	NaN	0.000000	0.001603	0.001680	28.0825	0.139011	0.002088	66.5665	-166.217	-163.798	-0.060948	0.161148	-0.838642	-0.839882	-0.056255	66.5665	-0.838008	-1.473359E+11	3.818172E-13	NaN
655	1.000000	0.202413	7.37146e+06	-44339.1	1005.82	-29776	0.000000	0.000000	6.202790	-0.117499	NaN	0.000000	0.001578	0.001677	28.0825	0.073492	0.001942	37.849	-125.564	-159.902	-0.118389	0.201114	-0.798617	-0.799916	-0.117499	37.849	-0.796288	-4.003826E+10	2.934658E-12	NaN
655	1.000000	0.242438	7.37146e+06	-44339.1	1005.82	-29776	0.000000	0.000000	6.242817	-0.048016	NaN	0.000000	0.001605	0.001717	28.084	0.054111	0.001963	27.5667	15.0973	-164.802	-0.051974	0.241182	-0.758592	-0.759848	-0.048016	27.5667	-0.757286	-1.181344E+10	4.064482E-12	NaN
655	1.000000	0.282458	7.37146e+06	-44339.1	1005.82	-29776	0.000000	0.000000	6.282837	-0.053282	NaN	0.000000	0.001662	0.001649	28.0844	0.086399	0.002142	40.3275	-63.3764	-165.87	-0.035989	0.281172	-0.718572	-0.719858	-0.053282	40.3275	-0.717581	-3.400026E+9	1.567112E-11	NaN
655	1.000000	0.322478	7.37146e+06	-44339.1	1005.82	-29776	0.000000	0.000000	6.322857	-0.062903	NaN	0.000000	0.001700	0.001692	28.0846	0.062615	0.002099	29.8357	172.765	-164.88	-0.094435	0.321152	-0.678552	-0.679878	-0.062903	29.8357	-0.676971	-9.479230E+8	6.635912E-11	NaN
655	1.000000	0.362497	7.37146e+06	-44339.1	1005.82	-29776	0.000000	0.000000	6.362877	-0.044378	NaN	0.000000	0.001666	0.001692	28.0845	0.068835	0.001880	36.6167	-108.646	-166.09	-0.092248	0.361159	-0.638533	-0.639871	-0.044378	36.6167	-0.637624	-2.739606E+8	1.619865E-10	NaN
655	1.000000	0.402513	7.37146e+06	-44339.1	1005.82	-29776	0.000000	0.000000	6.402891	-0.089473	NaN	0.000000	0.001668	0.001687	28.0828	0.088546	0.001929	45.8921	-11.5168	-164.497	-0.165122	0.401257	-0.598517	-0.599773	-0.089473	45.8921	-0.597055	-7.583966E+7	1.179767E-9	NaN
655	1.000000	0.442550	7.37146e+06	-44339.1	1005.82	-29776	0.000000	0.000000	6.442928	-0.068429	NaN	0.000000	0.001678	0.001633	28.0827	0.024971	0.001988	12.563	-179.634	-166.697	-0.063961	0.441259	-0.558480	-0.559771	-0.068429	12.563	-0.554395	-1.953513E+7	3.502864E-9	NaN
655	1.000000	0.482571	7.37146e+06	-44339.1	1005.82	-29776	0.000000	0.000000	6.482950	-0.056866	NaN	0.000000	0.001644	0.001647	28.0831	0.080589	0.002008	40.1388	-143.339	-164.09	-0.066133	0.481277	-0.518459	-0.519753	-0.056866	40.1388	-0.517397	-5.98944e+06	9.494399E-9	NaN
655	1.000000	0.522573	7.37146e+06	-44339.1	1005.82	-29776	0.000000	0.000000	6.522950	-0.091392	NaN	0.000000	0.001610	0.001707	28.0842	0.044947	0.002002	22.4481	-0.505359	-165.175	-0.054659	0.521212	-0.478457	-0.479818	-0.091392	22.4481	-0.475404	-1.55296e+06	5.885033E-8	NaN
655	1.000000	0.562599	7.37146e+06	-44339.1	1005.82	-29776	0.000000	0.000000	6.562978	-0.058943	NaN	0.000000	0.001663	0.001676	28.0841	0.103512	0.002097	49.3548	-99.4145	-167.901	-0.057441	0.561240	-0.438431	-0.439790	-0.058943	49.3548	-0.437536	-455588	1.293770E-7	NaN
655	1.000000	0.602599	7.37146e+06	-44339.1	1005.82	-29776	0.000000	0.000000	6.602977	-0.081950	NaN	0.000000	0.001609	0.001636	28.0841	0.023825	0.002026	11.758	76.8075	-163.224	-0.017399	0.601300	-0.398431	-0.399730	-0.081950	11.758	-0.393204	-106899	7.666092E-7	NaN
655	1.000000	0.642593	7.37146e+06	-44339.1	1005.82	-29776	0.000000	0.000000	6.642972	-0.078098	NaN	0.000000	0.001563	0.001659	28.0828	0.047236	0.002045	23.1004	175.202	-164.03	-0.164902	0.641304	-0.358437	-0.359726	-0.078098	23.1004	-0.355901	-31084.5	2.512432E-6	NaN
655	1.000000	0.682648	7.37146e+06	-44339.1	1005.82	-29776	0.000000	0.000000	6.683026	-0.093332	NaN	0.000000	0.001595	0.001671	28.0832	0.062305	0.001983	31.4263	-109.303	-164.375	-0.118678	0.681317	-0.318382	-0.319713	-0.093332	31.4263	-0.316155	-8165.51	1.142999E-5	NaN
655	1.000000	0.722685	7.37146e+06	-44339.1	1005.82	-29776	0.000000	0.000000	6.723065	-0.020616	NaN	0.000000	0.001578	0.001690	28.0827	0.078175	0.002029	38.5238	-105.621	-163.823	-0.062022	0.721344	-0.278345	-0.279686	-0.020616	38.5238	-0.277944	-2197.49	9.381448E-6	NaN
655	1.000000	0.762654	7.37146e+06	-44339.1	1005.82	-29776	0.000000	0.000000	6.763033	-0.062461	NaN	0.000000	0.001627	0.001701	28.0829	0.031319	0.001988	15.7531	151.033	-165.974	-0.064199	0.761353	-0.238376	-0.239677	-0.062461	15.7531	-0.235402	-487.039	0.000128	NaN
655	1.000000	0.802717	7.37146e+06	-44339.1	1005.82	-29776	0.000000	0.000000	6.803096	-0.062899	NaN	0.000000	0.001630	0.001677	28.0839	0.107574	0.002070	51.9652	62.2617	-162.098	-0.026815	0.801377	-0.198313	-0.199653	-0.062899	51.9652	-0.197405	-119.391	0.000527	NaN
655	1.000000	0.842709	7.37146e+06	-44339.1	1005.82	-29776	0.000000	0.000000	6.843090	-0.024088	NaN	0.000000	0.001576	0.001681	28.084	0.017455	0.002022	8.634137	140.943	-166.259	-0.047393	0.841392	-0.158321	-0.159638	-0.024088	8.634137	-0.156228	-23.4773	0.001026	NaN
655	1.000000	0.882719	7.37146e+06	-44339.1	1005.82	-29776	0.000000	0.000000	6.883098	-0.058844	NaN	0.000000	0.001553	0.001698	28.0841	0.221259	0.001960	112.902	-169.1	-165.576	-0.043873	0.881411	-0.118311	-0.119619	-0.058844	112.902	-0.117920	-4.384536	0.013421	NaN
655	1.000000	0.922730	7.37146e+06	-44339.1	1005.82	-29776.1	0.000000	0.000000	6.923111	-0.028285	NaN	0.000000	0.001606	0.001708	28.0828	0.076057	0.001883	40.3965	-67.5886	-165.752	-0.046240	0.921417	-0.078300	-0.079613	-0.028285	40.3965	-0.077775	-0.544031	0.051991	NaN
655	1.000000	0.962710	7.37146e+06	-44339.1	1005.82	-29776.1	0.000000	0.000000	6.963088	-0.083224	NaN	0.000000	0.001591	0.001658	28.0825	0.011101	0.002074	5.351583	47.9053	-163.644	-0.032928	0.961404	-0.038320	-0.039626	-0.083224	5.351583	-0.026657	-0.018657	4.460883	NaN
655	1.000000	1.002769	7.37146e+06	-44339.1	1005.82	-29776.1	0.000000	0.000000	7.003149	-0.032076	NaN	0.000000	0.001570	0.001681	28.0827	0.087501	0.001973	44.3477	-70.5439	-165.265	-0.029298	1.001422	0.001739	0.000392	-0.032076	44.3477	0.002282	0.001784	-17.9814	959.322
655	1.000000	1.042777	7.37146e+06	-44339.1	1005.82	-29776.1	0.000000	0.000000	7.043155	-0.093650	NaN	0.000000	0.001630	0.001702	28.0826	0.014632	0.002106	6.947168	-108.737	-162.106	-0.051261	1.041426	0.041747	0.040396	-0.093650	6.947168	0.051858	0.098241	-0.953262	20.2504
655	2.000000	1.065253	7.37146e+06	-44339.1	1005.82	-29776.1	0.000000	0.000000	7.066358	17.6114	NaN	0.000000	0.001660	0.001702	28.084	6.834583	0.001906	3586.18	10.5812	-170.314	17.2852	1.064868	0.064223	0.063838	17.6114	3586.18	0.060540	0.127750	137.858	9166.94
655	2.000000	1.075186	7.37146e+06	-44339.1	1005.82	-29776.1	0.000000	0.000000	7.076963	33.9305	NaN	0.000000	0.001609	0.001683	28.0841	10.4996	0.001981	5300.65	12.8465	-174.324	33.1461	1.074869	0.074156	0.073839	33.9305	5300.65	0.069356	0.161476	210.127	12051.7
655	2.000000	1.085161	7.37146e+06	-44339.1	1005.82	-29776.1	0.000000	0.000000	7.087761	53.9647	NaN	0.000000	0.001613	0.001711	28.084	14.0562	0.002022	6950.54	11.071	-174.295	53.1129	1.084856	0.084131	0.083827	53.9647	6950.54	0.078308	0.199516	270.478	14216.8
655	2.000000	1.095151	7.37146e+06	-44339.1	1005.82	-29776.1	0.000000	0.000000	7.098776	78.9029	NaN	0.000000	0.001586	0.001723	28.0828	18.6506	0.001875	9949.09	8.663734	-175.067	77.4788	1.094811	0.094121	0.093781	78.9029	9949.09	0.088173	0.245770	321.044	18335.5
655	2.000000	1.105114	7.37146e+06	-44339.1	1005.82	-29776.1	0.000000	0.000000	7.110083	111.586	NaN	0.000000	0.001553	0.001701	28.0849	25.1196	0.001862	13492	8.912679	-178.12	109.301	1.104836	0.104085	0.103806	111.586	13492	0.097882	0.295662	377.41	22670.1
655	2.000000	1.115101	7.37146e+06	-44339.1	1005.82	-29776.1	0.000000	0.000000	7.121750	152.489	NaN	0.000000	0.001589	0.001788	28.0827	30.5508	0.001719	17774.8	7.049723	-179.557	150.752	1.114836	0.114071	0.113806	152.489	17774.8	0.107637	0.350115	435.541	27445.6
655	2.000000	1.125108	7.37146e+06	-44339.1	1005.82	-29776.1	0.000000	0.000000	7.133698	199.691	NaN	0.000000	0.001585	0.001702	28.084	36.9274	0.001975	18699.2	8.256505	179.366	197.88	1.124796	0.124078	0.123766	199.691	18699.2	0.116069	0.400660	498.405	26990.4
655	2.000000	1.135066	7.37146e+06	-44339.1	1005.82	-29776.1	0.000000	0.000000	7.145729	250.134	NaN	0.000000	0.001591	0.001730	28.0841	44.4997	0.001965	22650.2	6.495750	179.252	248.117	1.134856	0.134036	0.133826	250.134	22650.2	0.125754	0.462698	540.6	30422.6
655	2.000000	1.145061	7.37146e+06	-44339.1	1005.82	-29776.1	0.000000	0.000000	7.158050	306.727	NaN	0.000000	0.001571	0.001729	28.084	50.191	0.001955	25670	7.430593	176.668	305.091	1.144824	0.144031	0.143794	306.727	25670	0.135069	0.526405	582.682	32325.1
655	2.000000	1.155039	7.37146e+06	-44339.1	1005.82	-29776.1	0.000000	0.000000	7.170301	362.017	NaN	0.000000	0.001609	0.001673	28.084	58.051	0.001821	31885.3	9.773412	171.796	359.843	1.154798	0.154009	0.153768	362.017	31885.3	0.145494	0.602418	600.939	37533.2
655	2.000000	1.158085	7.37146e+06	-44339.1	1005.82	-29776.1	0.000000	0.000000	7.174069	379.586	NaN	0.000000	0.001601	0.001725	28.0839	59.9568	0.001857	32282.7	6.431703	175.148	378.778	1.157796	0.157055	0.156766	379.586	32282.7	0.148237	0.623251	609.042	37360.4