File: remote_trans/data/nanoindenter/0828-1/data/Data_2025-08-06,11h17m57s/2025-07-22_16-23-58_1_138.txt
2025-07-22, 16:23:58, 1
Index	Phase	Displacement	Time	Pos X	Pos Y	Pos Z	Rot A	Rot B	Piezo Z	Force A	Force B	Gripper	Voltage A	Voltage B	Temperature	Amplitude force	Amplitude pos	Stiffness	Phase shift	Phase excitation	Force A raw	Displacement raw	HMax	HMax raw	Real Force	Real Stiffness	Contact Depth	Area	Hardness	Reduced Mod.
[#]	[#]	[um]	[s]	[um]	[um]	[um]	[m°]	[m°]	[um]	[uN]	[uN]	[V]	[V]	[V]	[°C]	[uN]	[um]	[N/m]	[°]	[°]	[uN]	[um]	[um]	[um]	[uN]	[N/m]	[um]	[um^2]	[MPa]	[MPa]
138	1.000000	0.002557	7.36639e+06	-45539.1	955.818	-29772.6	0.000000	0.000000	6.002738	-0.001594	NaN	0.000000	0.001638	0.001683	28.0885	0.072776	0.001044	69.7327	-99.7516	171.548	0.020494	0.001283	-1.049128	-1.050403	-0.001594	69.7327	-1.049111	-1.038627E+14	1.535079E-17	NaN
138	1.000000	0.042491	7.36639e+06	-45539.1	955.818	-29772.6	0.000000	0.000000	6.042674	0.069510	NaN	0.000000	0.001671	0.001679	28.0847	0.024033	0.002111	11.3845	145.759	175.54	0.050488	0.041167	-1.009195	-1.010518	0.069510	11.3845	-1.013774	-3.476734E+13	-1.999276E-15	NaN
138	1.000000	0.082507	7.36639e+06	-45539.1	955.818	-29772.6	0.000000	0.000000	6.082687	-0.032265	NaN	0.000000	0.001684	0.001676	28.0861	0.136938	0.002113	64.814	-2.181964	177.936	0.051606	0.081188	-0.969178	-0.970497	-0.032265	64.814	-0.968805	-8.620946E+12	3.742615E-15	NaN
138	1.000000	0.122543	7.36639e+06	-45539.1	955.818	-29772.6	0.000000	0.000000	6.122721	-0.065698	NaN	0.000000	0.001711	0.001683	28.0844	0.097276	0.002019	48.1714	142.689	172.119	0.019701	0.121243	-0.929143	-0.930442	-0.065698	48.1714	-0.928120	-2.436794E+12	2.696081E-14	NaN
138	1.000000	0.162534	7.36639e+06	-45539.1	955.817	-29772.6	0.000000	0.000000	6.162713	-0.031505	NaN	0.000000	0.001724	0.001659	28.0863	0.031822	0.002009	15.8415	-35.6544	173.62	-0.090485	0.161231	-0.889151	-0.890454	-0.031505	15.8415	-0.887660	-6.922777E+11	4.550968E-14	NaN
138	1.000000	0.202566	7.36639e+06	-45539.1	955.818	-29772.6	0.000000	0.000000	6.202746	-0.029265	NaN	0.000000	0.001686	0.001615	28.0861	0.060167	0.001953	30.8057	121.703	174.548	-0.065317	0.201288	-0.849119	-0.850397	-0.029265	30.8057	-0.848406	-2.037774E+11	1.436141E-13	NaN
138	1.000000	0.242592	7.36639e+06	-45539.1	955.818	-29772.6	0.000000	0.000000	6.242774	0.016624	NaN	0.000000	0.001662	0.001719	28.0874	0.108339	0.002044	52.9937	60.7697	178.536	0.004313	0.241276	-0.809093	-0.810409	0.016624	52.9937	-0.809328	-6.018044E+10	-2.762313E-13	NaN
138	1.000000	0.282592	7.36639e+06	-45539.1	955.818	-29772.6	0.000000	0.000000	6.282775	0.044889	NaN	0.000000	0.001694	0.001625	28.0863	0.134578	0.002037	66.0713	-111.094	176.125	0.016326	0.281288	-0.769093	-0.770397	0.044889	66.0713	-0.769602	-1.737387E+10	-2.583708E-12	NaN
138	1.000000	0.322628	7.36639e+06	-45539.1	955.818	-29772.6	0.000000	0.000000	6.322809	-0.007191	NaN	0.000000	0.001721	0.001666	28.087	0.080818	0.001951	41.4169	145.245	176.251	-0.021669	0.321281	-0.729057	-0.730404	-0.007191	41.4169	-0.728927	-4.854861E+9	1.481157E-12	NaN
138	1.000000	0.362669	7.36639e+06	-45539.1	955.818	-29772.6	0.000000	0.000000	6.362851	0.014396	NaN	0.000000	0.001737	0.001669	28.0862	0.010518	0.001959	5.368047	-52.1271	175.647	0.039531	0.361327	-0.689016	-0.690358	0.014396	5.368047	-0.691027	-1.475557E+9	-9.756196E-12	NaN
138	1.000000	0.402670	7.36639e+06	-45539.1	955.818	-29772.6	0.000000	0.000000	6.402853	0.047838	NaN	0.000000	0.001730	0.001653	28.087	0.230463	0.001985	116.096	-30.8875	175.969	0.006548	0.401345	-0.649015	-0.650340	0.047838	116.096	-0.649324	-3.964356E+8	-1.206698E-10	NaN
138	1.000000	0.442632	7.36639e+06	-45539.1	955.818	-29772.6	0.000000	0.000000	6.442814	0.019909	NaN	0.000000	0.001663	0.001653	28.0868	0.084692	0.002173	38.9798	144.945	176.71	-0.052453	0.441392	-0.609053	-0.610293	0.019909	38.9798	-0.609436	-1.122927E+8	-1.772956E-10	NaN
138	1.000000	0.482701	7.36639e+06	-45539.1	955.818	-29772.6	0.000000	0.000000	6.482882	-0.005845	NaN	0.000000	0.001605	0.001605	28.0875	0.011115	0.002106	5.277997	73.0474	175.191	0.029776	0.481357	-0.568984	-0.570328	-0.005845	5.277997	-0.568153	-3.027702E+7	1.930615E-10	NaN
138	1.000000	0.522707	7.36639e+06	-45539.1	955.819	-29772.6	0.000000	0.000000	6.522888	-0.007623	NaN	0.000000	0.001650	0.001681	28.0876	0.009538	0.002082	4.581363	173.621	173.984	0.023854	0.521385	-0.528978	-0.530300	-0.007623	4.581363	-0.527730	-8.33766e+06	9.142971E-10	NaN
138	1.000000	0.562727	7.36639e+06	-45539.1	955.818	-29772.6	0.000000	0.000000	6.562906	-0.033365	NaN	0.000000	0.001633	0.001551	28.0885	0.077020	0.002065	37.2899	-153.892	175.833	-0.014827	0.561455	-0.488958	-0.490231	-0.033365	37.2899	-0.488287	-2.3521e+06	1.418520E-8	NaN
138	1.000000	0.602723	7.36639e+06	-45539.1	955.818	-29772.6	0.000000	0.000000	6.602905	0.039036	NaN	0.000000	0.001624	0.001630	28.0861	0.038026	0.001951	19.4861	-73.8908	177.213	-0.015320	0.601391	-0.448962	-0.450294	0.039036	19.4861	-0.450465	-693246	-5.630889E-8	NaN
138	1.000000	0.642725	7.36639e+06	-45539.1	955.818	-29772.6	0.000000	0.000000	6.642905	-0.008091	NaN	0.000000	0.001603	0.001585	28.0878	0.115454	0.002042	56.5362	-144.54	177.706	0.052745	0.641428	-0.408960	-0.410258	-0.008091	56.5362	-0.408853	-178684	4.528163E-8	NaN
138	1.000000	0.682774	7.36639e+06	-45539.1	955.818	-29772.6	0.000000	0.000000	6.682955	0.018145	NaN	0.000000	0.001634	0.001610	28.0864	0.084362	0.002063	40.8985	-61.2707	177.58	0.046920	0.681419	-0.368912	-0.370266	0.018145	40.8985	-0.369244	-48444.3	-3.745497E-7	NaN
138	1.000000	0.722774	7.36639e+06	-45539.1	955.817	-29772.6	0.000000	0.000000	6.722954	-0.030558	NaN	0.000000	0.001632	0.001618	28.0894	0.031946	0.002112	15.1273	107.602	178.738	0.035768	0.721458	-0.328911	-0.330228	-0.030558	15.1273	-0.327396	-11947.8	2.557667E-6	NaN
138	1.000000	0.762808	7.36639e+06	-45539.1	955.819	-29772.6	0.000000	0.000000	6.762993	0.099509	NaN	0.000000	0.001647	0.001621	28.087	0.076912	0.001937	39.6974	-154.807	173.384	-0.000125	0.761497	-0.288878	-0.290188	0.099509	39.6974	-0.290758	-3424.9	-2.905449E-5	NaN
138	1.000000	0.802790	7.36639e+06	-45539.1	955.818	-29772.6	0.000000	0.000000	6.802972	0.032311	NaN	0.000000	0.001642	0.001609	28.0887	0.036677	0.002079	17.645	-40.7747	174.67	0.049715	0.801520	-0.248895	-0.250165	0.032311	17.645	-0.250269	-830.081	-3.892537E-5	NaN
138	1.000000	0.842853	7.36639e+06	-45539.1	955.818	-29772.6	0.000000	0.000000	6.843034	0.002762	NaN	0.000000	0.001676	0.001600	28.0876	0.071679	0.002004	35.7737	62.3672	175.584	-0.026538	0.841522	-0.208832	-0.210163	0.002762	35.7737	-0.208890	-184.005	-1.500832E-5	NaN
138	1.000000	0.882858	7.36639e+06	-45539.1	955.818	-29772.6	0.000000	0.000000	6.883038	-0.019432	NaN	0.000000	0.001668	0.001621	28.089	0.075848	0.002027	37.426	-147.811	176.589	-0.008088	0.881532	-0.168827	-0.170153	-0.019432	37.426	-0.168438	-38.5867	0.000504	NaN
138	1.000000	0.922861	7.36639e+06	-45539.1	955.818	-29772.6	0.000000	0.000000	6.923043	0.044792	NaN	0.000000	0.001666	0.001594	28.0875	0.033711	0.001986	16.9783	85.1579	171.543	-0.077203	0.921596	-0.128824	-0.130089	0.044792	16.9783	-0.130803	-7.899306	-0.005670	NaN
138	1.000000	0.962890	7.36639e+06	-45539.1	955.818	-29772.6	0.000000	0.000000	6.963071	-0.014449	NaN	0.000000	0.001666	0.001646	28.0888	0.064611	0.001883	34.304	-16.6748	176.459	0.058467	0.961552	-0.088795	-0.090133	-0.014449	34.304	-0.088479	-0.995315	0.014517	NaN
138	1.000000	1.002918	7.36639e+06	-45539.1	955.818	-29772.6	0.000000	0.000000	7.003097	-0.032242	NaN	0.000000	0.001670	0.001534	28.0884	0.118084	0.001936	60.9794	-91.8789	171.488	-0.029305	1.001537	-0.048767	-0.050148	-0.032242	60.9794	-0.048371	-0.081439	0.395910	NaN
138	1.000000	1.042942	7.36639e+06	-45539.1	955.818	-29772.6	0.000000	0.000000	7.043122	-0.016139	NaN	0.000000	0.001631	0.001613	28.0904	0.043287	0.001935	22.369	158.403	179.712	-0.076575	1.041583	-0.008743	-0.010102	-0.016139	22.369	-0.008202	-0.005350	3.016747	NaN
138	2.000000	1.065474	7.36639e+06	-45539.1	955.819	-29772.6	0.000000	0.000000	7.066460	19.5776	NaN	0.000000	0.001627	0.001558	28.0893	14.3683	0.001705	8426.13	3.247772	167.999	17.9734	1.065185	0.013789	0.013500	19.5776	8426.13	0.012046	0.011546	1695.69	71646.3
138	2.000000	1.075479	7.36639e+06	-45539.1	955.819	-29772.6	0.000000	0.000000	7.077361	41.3907	NaN	0.000000	0.001654	0.001604	28.0899	24.7268	0.001888	13094	6.897603	162.341	40.8458	1.075186	0.023793	0.023501	41.3907	13094	0.021423	0.024827	1667.14	75924.2
138	2.000000	1.085460	7.36639e+06	-45539.1	955.818	-29772.6	0.000000	0.000000	7.088861	78.3397	NaN	0.000000	0.001636	0.001550	28.0885	34.3147	0.001730	19837.2	2.830941	161.483	77.4205	1.085164	0.033775	0.033479	78.3397	19837.2	0.030813	0.042445	1845.66	87970.8
138	2.000000	1.095424	7.36639e+06	-45539.1	955.819	-29772.6	0.000000	0.000000	7.100423	117.192	NaN	0.000000	0.001637	0.001542	28.0893	44.6921	0.001900	23516.7	4.615291	159.84	117.206	1.095142	0.043739	0.043456	117.192	23516.7	0.040002	0.064032	1830.19	84908.3
138	2.000000	1.105416	7.36639e+06	-45539.1	955.819	-29772.6	0.000000	0.000000	7.112583	169.964	NaN	0.000000	0.001613	0.001593	28.0891	54.3645	0.001757	30934.3	2.739660	157.941	168.384	1.105183	0.053731	0.053498	169.964	30934.3	0.049610	0.091211	1863.42	93581.4
138	2.000000	1.115478	7.36639e+06	-45539.1	955.819	-29772.6	0.000000	0.000000	7.125237	233.01	NaN	0.000000	0.001668	0.001542	28.0894	65.0771	0.001859	35009.6	5.191847	155.892	234.366	1.115080	0.063793	0.063395	233.01	35009.6	0.058801	0.121545	1917.07	91747
138	2.000000	1.125357	7.36639e+06	-45539.1	955.818	-29772.6	0.000000	0.000000	7.138055	304.514	NaN	0.000000	0.001645	0.001574	28.0908	73.2967	0.001808	40533.8	5.387278	154.557	303.655	1.124958	0.073672	0.073273	304.514	40533.8	0.068037	0.156195	1949.57	93703.7
138	2.000000	1.135321	7.36639e+06	-45539.1	955.819	-29772.6	0.000000	0.000000	7.150948	375.734	NaN	0.000000	0.001661	0.001584	28.0916	82.924	0.001741	47637.3	2.998947	155.41	372.888	1.135091	0.083636	0.083406	375.734	47637.3	0.077721	0.196904	1908.2	98082.8
138	2.000000	1.145397	7.36639e+06	-45539.1	955.819	-29772.6	0.000000	0.000000	7.164360	456.901	NaN	0.000000	0.001742	0.001553	28.0884	91.4357	0.001656	55204.4	4.127126	153.209	459.434	1.145124	0.093712	0.093439	456.901	55204.4	0.087505	0.242495	1884.16	102422
138	2.000000	1.155341	7.36639e+06	-45539.1	955.819	-29772.6	0.000000	0.000000	7.178223	552.244	NaN	0.000000	0.001682	0.001569	28.0897	101.492	0.001737	58426.8	3.914077	152.762	549.065	1.155045	0.103655	0.103360	552.244	58426.8	0.096567	0.288651	1913.19	99357
138	2.000000	1.158372	7.36639e+06	-45539.1	955.819	-29772.6	0.000000	0.000000	7.182677	586.837	NaN	0.000000	0.001624	0.001564	28.1063	104.748	0.001778	58927.8	4.161759	153.273	586.389	1.158044	0.106687	0.106359	586.837	58927.8	0.099218	0.302868	1937.6	97828.8