File: remote_trans/data/nanoindenter/0828-1/data/Data_2025-08-06,11h17m57s/2025-07-22_16-23-58_1_542.txt
2025-07-22, 16:23:58, 1
Index	Phase	Displacement	Time	Pos X	Pos Y	Pos Z	Rot A	Rot B	Piezo Z	Force A	Force B	Gripper	Voltage A	Voltage B	Temperature	Amplitude force	Amplitude pos	Stiffness	Phase shift	Phase excitation	Force A raw	Displacement raw	HMax	HMax raw	Real Force	Real Stiffness	Contact Depth	Area	Hardness	Reduced Mod.
[#]	[#]	[um]	[s]	[um]	[um]	[um]	[m°]	[m°]	[um]	[uN]	[uN]	[V]	[V]	[V]	[°C]	[uN]	[um]	[N/m]	[°]	[°]	[uN]	[um]	[um]	[um]	[uN]	[N/m]	[um]	[um^2]	[MPa]	[MPa]
542	1.000000	0.002741	7.37035e+06	-49989.1	1005.82	-29757.2	0.000000	0.000000	6.002815	0.095290	NaN	0.000000	0.001626	0.001777	28.0819	0.038277	0.000919	41.6327	-15.6005	-171.753	0.014759	0.001461	-1.032235	-1.033516	0.095290	41.6327	-1.033952	-6.495819E+13	-1.466947E-15	NaN
542	1.000000	0.042676	7.37035e+06	-49989.1	1005.82	-29757.2	0.000000	0.000000	6.042747	0.054152	NaN	0.000000	0.001627	0.001795	28.0819	0.082674	0.001897	43.5892	96.4107	-166.22	0.049677	0.041364	-0.992301	-0.993613	0.054152	43.5892	-0.993233	-1.839284E+13	-2.944202E-15	NaN
542	1.000000	0.082663	7.37035e+06	-49989.1	1005.82	-29757.2	0.000000	0.000000	6.082732	-0.023281	NaN	0.000000	0.001629	0.001759	28.0807	0.056440	0.001981	28.4868	163.99	-166.463	-0.024434	0.081387	-0.952314	-0.953590	-0.023281	28.4868	-0.951701	-5.069472E+12	4.592467E-15	NaN
542	1.000000	0.122690	7.37035e+06	-49989.1	1005.82	-29757.2	0.000000	0.000000	6.122763	0.094346	NaN	0.000000	0.001618	0.001790	28.0804	0.054405	0.002079	26.1648	-158.646	-167.196	0.057377	0.121414	-0.912287	-0.913562	0.094346	26.1648	-0.914991	-1.620210E+12	-5.823084E-14	NaN
542	1.000000	0.162731	7.37035e+06	-49989.1	1005.82	-29757.2	0.000000	0.000000	6.162805	0.108916	NaN	0.000000	0.001670	0.001767	28.0805	0.014435	0.002016	7.158695	104.24	-164.162	0.033439	0.161451	-0.872246	-0.873526	0.108916	7.158695	-0.883657	-6.111604E+11	-1.782124E-13	NaN
542	1.000000	0.202745	7.37035e+06	-49989.1	1005.82	-29757.2	0.000000	0.000000	6.202817	0.079971	NaN	0.000000	0.001657	0.001775	28.0818	0.085063	0.002083	40.8351	-19.3296	-166.457	0.021247	0.201381	-0.832232	-0.833595	0.079971	40.8351	-0.833701	-1.288077E+11	-6.208526E-13	NaN
542	1.000000	0.242760	7.37035e+06	-49989.1	1005.82	-29757.2	0.000000	0.000000	6.242833	0.095187	NaN	0.000000	0.001638	0.001734	28.0819	0.124916	0.001945	64.2321	61.9636	-165.23	0.173703	0.241422	-0.792217	-0.793555	0.095187	64.2321	-0.793328	-3.649892E+10	-2.607939E-12	NaN
542	1.000000	0.282782	7.37035e+06	-49989.1	1005.82	-29757.2	0.000000	0.000000	6.282852	0.007112	NaN	0.000000	0.001592	0.001780	28.0817	0.065166	0.002084	31.2729	148.666	-166.806	-0.051165	0.281456	-0.752195	-0.753521	0.007112	31.2729	-0.752365	-1.012544E+10	-7.023729E-13	NaN
542	1.000000	0.322789	7.37035e+06	-49989.1	1005.82	-29757.2	0.000000	0.000000	6.322860	0.025111	NaN	0.000000	0.001593	0.001746	28.082	0.086748	0.002028	42.7815	134.476	-163.04	-0.006066	0.321468	-0.712188	-0.713509	0.025111	42.7815	-0.712628	-2.910093E+9	-8.628911E-12	NaN
542	1.000000	0.362800	7.37035e+06	-49989.1	1005.82	-29757.2	0.000000	0.000000	6.362870	0.008159	NaN	0.000000	0.001581	0.001781	28.0804	0.099019	0.001963	50.4467	25.6389	-166.391	-0.026088	0.361454	-0.672177	-0.673523	0.008159	50.4467	-0.672298	-8.181652E+8	-9.972922E-12	NaN
542	1.000000	0.402848	7.37035e+06	-49989.1	1005.82	-29757.2	0.000000	0.000000	6.402917	-0.012083	NaN	0.000000	0.001583	0.001794	28.0804	0.104735	0.002011	52.0735	27.479	-163.161	-0.009726	0.401519	-0.632129	-0.633458	-0.012083	52.0735	-0.631955	-2.290179E+8	5.276177E-11	NaN
542	1.000000	0.442848	7.37035e+06	-49989.1	1005.82	-29757.2	0.000000	0.000000	6.442922	0.094293	NaN	0.000000	0.001704	0.001735	28.0804	0.041372	0.001845	22.4253	-119.691	-167.077	0.071203	0.441527	-0.592128	-0.593450	0.094293	22.4253	-0.595282	-7.169151E+7	-1.315265E-9	NaN
542	1.000000	0.482865	7.37035e+06	-49989.1	1005.82	-29757.2	0.000000	0.000000	6.482938	0.081629	NaN	0.000000	0.001661	0.001739	28.0818	0.052712	0.001929	27.3226	-178.883	-169.077	0.051893	0.481492	-0.552112	-0.553485	0.081629	27.3226	-0.554352	-1.950853E+7	-4.184292E-9	NaN
542	1.000000	0.522887	7.37035e+06	-49989.1	1005.82	-29757.2	0.000000	0.000000	6.522959	0.076312	NaN	0.000000	0.001607	0.001705	28.0819	0.113807	0.002056	55.3476	-68.0183	-168.509	0.072427	0.521543	-0.512090	-0.513434	0.076312	55.3476	-0.513124	-5.22299e+06	-1.461076E-8	NaN
542	1.000000	0.562891	7.37035e+06	-49989.1	1005.82	-29757.2	0.000000	0.000000	6.562960	-0.002572	NaN	0.000000	0.001606	0.001713	28.0818	0.071749	0.001859	38.6035	-73.005	-166.037	0.040253	0.561590	-0.472086	-0.473387	-0.002572	38.6035	-0.472036	-1.39303e+06	1.846649E-9	NaN
542	1.000000	0.602917	7.37035e+06	-49989.1	1005.82	-29757.2	0.000000	0.000000	6.602988	0.041667	NaN	0.000000	0.001574	0.001725	28.0816	0.116939	0.002084	56.1095	43.5108	-163.677	0.011729	0.601583	-0.432060	-0.433393	0.041667	56.1095	-0.432617	-388216	-1.073304E-7	NaN
542	1.000000	0.642932	7.37035e+06	-49989.1	1005.82	-29757.2	0.000000	0.000000	6.643005	0.086655	NaN	0.000000	0.001573	0.001730	28.0804	0.131489	0.002124	61.9003	-145.139	-164.326	0.063220	0.641676	-0.392044	-0.393300	0.086655	61.9003	-0.393094	-106514	-8.135502E-7	NaN
542	1.000000	0.682945	7.37035e+06	-49989.1	1005.82	-29757.2	0.000000	0.000000	6.683015	0.033431	NaN	0.000000	0.001591	0.001745	28.0805	0.066863	0.001833	36.4746	179.108	-168.696	0.014662	0.681687	-0.352032	-0.353290	0.033431	36.4746	-0.352720	-27954.6	-1.195896E-6	NaN
542	1.000000	0.722943	7.37035e+06	-49989.1	1005.82	-29757.2	0.000000	0.000000	6.723013	0.015378	NaN	0.000000	0.001674	0.001777	28.0808	0.057699	0.001916	30.1185	-169.031	-166.277	0.156750	0.721667	-0.312034	-0.313310	0.015378	30.1185	-0.312417	-7191.22	-2.138376E-6	NaN
542	1.000000	0.762950	7.37035e+06	-49989.1	1005.82	-29757.2	0.000000	0.000000	6.763021	0.053216	NaN	0.000000	0.001625	0.001741	28.0822	0.126097	0.002046	61.6376	-86.6386	-165.341	0.040522	0.761675	-0.272027	-0.273302	0.053216	61.6376	-0.272674	-1828.75	-2.909936E-5	NaN
542	1.000000	0.802997	7.37035e+06	-49989.1	1005.82	-29757.2	0.000000	0.000000	6.803065	-0.017506	NaN	0.000000	0.001643	0.001814	28.082	0.047913	0.001970	24.3181	30.1691	-166.16	0.033254	0.801718	-0.231980	-0.233259	-0.017506	24.3181	-0.231440	-421.928	4.149070E-5	NaN
542	1.000000	0.842998	7.37035e+06	-49989.1	1005.82	-29757.2	0.000000	0.000000	6.843068	0.016015	NaN	0.000000	0.001731	0.001773	28.0817	0.101945	0.001925	52.9675	-157.196	-166.499	0.057655	0.841667	-0.191979	-0.193309	0.016015	52.9675	-0.192206	-97.9046	-0.000164	NaN
542	1.000000	0.883033	7.37035e+06	-49989.1	1005.82	-29757.2	0.000000	0.000000	6.883105	0.055067	NaN	0.000000	0.001735	0.001794	28.0806	0.035428	0.001951	18.159	111.679	-166.089	0.084376	0.881745	-0.151944	-0.153232	0.055067	18.159	-0.154218	-21.602	-0.002549	NaN
542	1.000000	0.923047	7.37035e+06	-49989.1	1005.82	-29757.2	0.000000	0.000000	6.923119	0.076582	NaN	0.000000	0.001656	0.001782	28.0805	0.031525	0.001934	16.3025	-97.6976	-168.489	0.115094	0.921745	-0.111930	-0.113232	0.076582	16.3025	-0.115453	-3.903382	-0.019619	NaN
542	1.000000	0.963046	7.37036e+06	-49989.1	1005.82	-29757.2	0.000000	0.000000	6.963277	3.927584	NaN	0.000000	0.001638	0.001784	28.0805	1.245582	0.002046	608.684	21.4917	-167.627	3.677335	0.961766	-0.071930	-0.073211	3.927584	608.684	-0.076770	-0.512893	-7.657704	NaN
542	1.000000	1.003069	7.37036e+06	-49989.1	1005.82	-29757.2	0.000000	0.000000	7.003193	1.331234	NaN	0.000000	0.001649	0.001814	28.0805	0.665633	0.001941	342.939	19.7615	-167.199	1.434095	1.001816	-0.031908	-0.033161	1.331234	342.939	-0.034819	-0.031634	-42.0822	NaN
542	2.000000	1.042489	7.37036e+06	-49989.1	1005.82	-29757.2	0.000000	0.000000	7.042923	8.869528	NaN	0.000000	0.001674	0.001780	28.0816	6.911556	0.001759	3929.41	12.6305	-169.989	9.030859	1.041647	0.007512	0.006670	8.869528	3929.41	0.005819	0.004893	1812.53	51320.8
542	2.000000	1.052570	7.37036e+06	-49989.1	1005.82	-29757.2	0.000000	0.000000	7.053429	19.2213	NaN	0.000000	0.001753	0.001809	28.0815	16.6297	0.001810	9187.83	7.934427	-176.086	18.5425	1.052257	0.017593	0.017280	19.2213	9187.83	0.016024	0.016675	1152.7	65005.9
542	2.000000	1.062531	7.37036e+06	-49989.1	1005.82	-29757.2	0.000000	0.000000	7.064182	38.4609	NaN	0.000000	0.001733	0.001765	28.0815	26.0302	0.001899	13708.1	7.777929	-179.81	37.6957	1.062295	0.027555	0.027318	38.4609	13708.1	0.025450	0.031840	1207.94	70188.3
542	2.000000	1.072479	7.37036e+06	-49989.1	1005.82	-29757.2	0.000000	0.000000	7.075282	66.4692	NaN	0.000000	0.001632	0.001769	28.0807	34.9427	0.001730	20202.7	4.531913	179.655	65.3996	1.072172	0.037503	0.037195	66.4692	20202.7	0.035035	0.051828	1282.5	81077.9
542	2.000000	1.082461	7.37036e+06	-49989.1	1005.82	-29757.2	0.000000	0.000000	7.086515	96.8965	NaN	0.000000	0.001636	0.001763	28.0809	44.6166	0.001760	25349.2	3.121037	179.135	93.6292	1.082220	0.047484	0.047243	96.8965	25349.2	0.044618	0.076506	1266.53	83732
542	2.000000	1.092552	7.37036e+06	-49989.1	1005.82	-29757.2	0.000000	0.000000	7.098254	136.97	NaN	0.000000	0.001649	0.001786	28.0808	56.0001	0.001928	29051.9	7.475272	174.067	138.296	1.092210	0.057575	0.057233	136.97	29051.9	0.054039	0.105307	1300.68	81793.7
542	2.000000	1.102404	7.37036e+06	-49989.1	1005.82	-29757.2	0.000000	0.000000	7.110485	194.838	NaN	0.000000	0.001609	0.001719	28.0807	64.676	0.001742	37123.6	2.402388	176.463	191.989	1.102237	0.067427	0.067260	194.838	37123.6	0.063491	0.138622	1405.53	91097.6
542	2.000000	1.112526	7.37036e+06	-49989.1	1005.82	-29757.2	0.000000	0.000000	7.122927	251.249	NaN	0.000000	0.001699	0.001734	28.0819	75.8891	0.001844	41147.8	7.591679	171.106	255.158	1.112145	0.077549	0.077168	251.249	41147.8	0.072970	0.176379	1424.48	89515.2
542	2.000000	1.122473	7.37036e+06	-49989.1	1005.82	-29757.2	0.000000	0.000000	7.135733	320.789	NaN	0.000000	0.001635	0.001764	28.0819	84.6705	0.001741	48630	3.888851	173.312	321.384	1.122114	0.087496	0.087137	320.789	48630	0.082549	0.218849	1465.8	94974.1
542	2.000000	1.132396	7.37036e+06	-49989.1	1005.82	-29757.2	0.000000	0.000000	7.148802	397.298	NaN	0.000000	0.001634	0.001726	28.0819	94.461	0.001727	54688.1	4.945016	171.703	394.999	1.132109	0.097419	0.097132	397.298	54688.1	0.091971	0.264772	1500.53	97102.3
542	2.000000	1.140896	7.37036e+06	-49989.1	1005.82	-29757.2	0.000000	0.000000	7.159829	458.748	NaN	0.000000	0.001629	0.001743	28.0809	102.522	0.001772	57848.6	5.165333	-9.397318	455.649	1.140572	0.105920	0.105596	458.748	57848.6	0.099972	0.306966	1494.46	95394