File: remote_trans/data/nanoindenter/0828-1/data/Data_2025-08-06,11h17m57s/2025-07-22_16-23-58_1_341.txt
2025-07-22, 16:23:58, 1
Index	Phase	Displacement	Time	Pos X	Pos Y	Pos Z	Rot A	Rot B	Piezo Z	Force A	Force B	Gripper	Voltage A	Voltage B	Temperature	Amplitude force	Amplitude pos	Stiffness	Phase shift	Phase excitation	Force A raw	Displacement raw	HMax	HMax raw	Real Force	Real Stiffness	Contact Depth	Area	Hardness	Reduced Mod.
[#]	[#]	[um]	[s]	[um]	[um]	[um]	[m°]	[m°]	[um]	[uN]	[uN]	[V]	[V]	[V]	[°C]	[uN]	[um]	[N/m]	[°]	[°]	[uN]	[um]	[um]	[um]	[uN]	[N/m]	[um]	[um^2]	[MPa]	[MPa]
341	1.000000	0.002270	7.3684e+06	-55689.1	955.818	-29741.2	0.000000	0.000000	6.002807	-0.018891	NaN	0.000000	0.001539	0.001671	28.0787	0.108235	0.000960	112.769	-12.3607	-157.183	0.002418	0.000999	-1.095657	-1.096927	-0.018891	112.769	-1.095531	-4.365906E+14	4.326902E-17	NaN
341	1.000000	0.044222	7.3684e+06	-55689.1	955.82	-29741.2	0.000000	0.000000	6.044759	-0.015858	NaN	0.000000	0.001533	0.001675	28.0775	0.105497	0.002103	50.1735	82.81	15.6902	-0.056639	0.042849	-1.053704	-1.055078	-0.015858	50.1735	-1.053467	-1.188559E+14	1.334223E-16	NaN
341	1.000000	0.086206	7.3684e+06	-55689.1	955.819	-29741.2	0.000000	0.000000	6.086745	0.048872	NaN	0.000000	0.001513	0.001674	28.0776	0.127805	0.001925	66.3999	-57.5643	-165.541	0.026659	0.084922	-1.011721	-1.013004	0.048872	66.3999	-1.012273	-3.318727E+13	-1.472626E-15	NaN
341	1.000000	0.128203	7.3684e+06	-55689.1	955.818	-29741.2	0.000000	0.000000	6.128741	0.001531	NaN	0.000000	0.001599	0.001722	28.0775	0.057616	0.001955	29.4645	91.5977	15.8747	-0.039708	0.126853	-0.969723	-0.971073	0.001531	29.4645	-0.969762	-8.880845E+12	-1.724423E-16	NaN
341	1.000000	0.170263	7.3684e+06	-55689.1	955.819	-29741.2	0.000000	0.000000	6.170803	0.051071	NaN	0.000000	0.001552	0.001727	28.0787	0.132026	0.002041	64.6888	3.278472	-164.673	0.059467	0.168894	-0.927663	-0.929032	0.051071	64.6888	-0.928255	-2.447091E+12	-2.087020E-14	NaN
341	1.000000	0.212283	7.3684e+06	-55689.1	955.818	-29741.2	0.000000	0.000000	6.212820	-0.019614	NaN	0.000000	0.001546	0.001760	28.0787	0.028316	0.001980	14.3027	-132.772	14.9277	0.016678	0.210915	-0.885644	-0.887011	-0.019614	14.3027	-0.884615	-6.296725E+11	3.114961E-14	NaN
341	1.000000	0.254289	7.3684e+06	-55689.1	955.819	-29741.2	0.000000	0.000000	6.254827	-0.003393	NaN	0.000000	0.001540	0.001697	28.0782	0.078572	0.001974	39.8087	-37.8854	-165.998	0.005006	0.252972	-0.843637	-0.844954	-0.003393	39.8087	-0.843573	-1.752656E+11	1.936157E-14	NaN
341	1.000000	0.296330	7.3684e+06	-55689.1	955.818	-29741.2	0.000000	0.000000	6.296869	0.038025	NaN	0.000000	0.001522	0.001683	28.0774	0.094960	0.001947	48.7661	-37.9465	17.4972	0.066496	0.294984	-0.801597	-0.802943	0.038025	48.7661	-0.802181	-4.813617E+10	-7.899379E-13	NaN
341	1.000000	0.338315	7.3684e+06	-55689.1	955.819	-29741.2	0.000000	0.000000	6.338853	0.016276	NaN	0.000000	0.001547	0.001718	28.0777	0.044001	0.001842	23.8905	92.8151	-165.603	0.065567	0.336976	-0.759611	-0.760950	0.016276	23.8905	-0.760122	-1.291122E+10	-1.260575E-12	NaN
341	1.000000	0.380339	7.3684e+06	-55689.1	955.818	-29741.2	0.000000	0.000000	6.380872	-0.115315	NaN	0.000000	0.001478	0.001705	28.0777	0.130058	0.002057	63.2165	144.4	15.9935	-0.100895	0.379058	-0.717587	-0.718869	-0.115315	63.2165	-0.716219	-3.257662E+9	3.539806E-11	NaN
341	1.000000	0.422369	7.3684e+06	-55689.1	955.818	-29741.2	0.000000	0.000000	6.422907	0.001244	NaN	0.000000	0.001491	0.001698	28.0788	0.133833	0.002133	62.7482	143.571	-162.553	0.046578	0.421003	-0.675557	-0.676924	0.001244	62.7482	-0.675572	-9.070626E+8	-1.371990E-12	NaN
341	1.000000	0.464383	7.3684e+06	-55689.1	955.819	-29741.2	0.000000	0.000000	6.464921	0.005312	NaN	0.000000	0.001551	0.001706	28.0791	0.032618	0.002092	15.5926	-39.4278	12.2538	0.014880	0.463054	-0.633543	-0.634872	0.005312	15.5926	-0.633798	-2.427595E+8	-2.188020E-11	NaN
341	1.000000	0.506422	7.3684e+06	-55689.1	955.817	-29741.2	0.000000	0.000000	6.506959	-0.027290	NaN	0.000000	0.001527	0.001741	28.0792	0.107648	0.001893	56.8689	28.1646	-164.987	-0.027131	0.505094	-0.591504	-0.592833	-0.027290	56.8689	-0.591144	-6.286956E+7	4.340744E-10	NaN
341	1.000000	0.548416	7.3684e+06	-55689.1	955.819	-29741.2	0.000000	0.000000	6.548954	0.000306	NaN	0.000000	0.001474	0.001711	28.0792	0.102716	0.001967	52.2133	-32.7087	15.1082	0.061162	0.547046	-0.549510	-0.550881	0.000306	52.2133	-0.549515	-1.671991E+7	-1.827479E-11	NaN
341	1.000000	0.590441	7.3684e+06	-55689.1	955.819	-29741.2	0.000000	0.000000	6.590979	0.016903	NaN	0.000000	0.001518	0.001685	28.0778	0.104796	0.002069	50.6498	129.575	-164.4	0.000786	0.589134	-0.507486	-0.508792	0.016903	50.6498	-0.507736	-4.39416e+06	-3.846765E-9	NaN
341	1.000000	0.632469	7.3684e+06	-55689.1	955.817	-29741.2	0.000000	0.000000	6.633008	0.043342	NaN	0.000000	0.001504	0.001699	28.0777	0.042155	0.001987	21.2181	67.6307	12.6668	0.049281	0.631076	-0.465457	-0.466850	0.043342	21.2181	-0.466990	-1.18351e+06	-3.662182E-8	NaN
341	1.000000	0.674461	7.3684e+06	-55689.1	955.818	-29741.2	0.000000	0.000000	6.675002	0.076940	NaN	0.000000	0.001505	0.001691	28.0777	0.044569	0.002084	21.3891	-136.721	-164.275	0.043769	0.673167	-0.423465	-0.424759	0.076940	21.3891	-0.426163	-314599	-2.445664E-7	NaN
341	1.000000	0.716514	7.3684e+06	-55689.1	955.818	-29741.2	0.000000	0.000000	6.717056	0.103227	NaN	0.000000	0.001505	0.001720	28.0788	0.105484	0.002033	51.8915	-79.6994	14.2595	0.098504	0.715158	-0.381412	-0.382768	0.103227	51.8915	-0.382904	-76127.9	-1.355965E-6	NaN
341	1.000000	0.758509	7.3684e+06	-55689.1	955.817	-29741.2	0.000000	0.000000	6.759052	0.122407	NaN	0.000000	0.001536	0.001669	28.0787	0.131147	0.002024	64.7807	-84.373	-164.222	0.211585	0.757158	-0.339417	-0.340768	0.122407	64.7807	-0.340834	-18780.7	-6.517670E-6	NaN
341	1.000000	0.800529	7.3684e+06	-55689.1	955.819	-29741.2	0.000000	0.000000	6.801074	0.175958	NaN	0.000000	0.001529	0.001681	28.0786	0.083059	0.001894	43.855	-130.966	11.8601	0.191210	0.799181	-0.297398	-0.298746	0.175958	43.855	-0.300407	-4771.9	-3.687376E-5	NaN
341	1.000000	0.842571	7.3684e+06	-55689.1	955.818	-29741.2	0.000000	0.000000	6.843116	0.168246	NaN	0.000000	0.001539	0.001655	28.0774	0.142589	0.001963	72.6257	-177.868	-164.722	0.183642	0.841245	-0.255355	-0.256681	0.168246	72.6257	-0.257092	-1057.54	-0.000159	NaN
341	1.000000	0.884539	7.3684e+06	-55689.1	955.819	-29741.2	0.000000	0.000000	6.885081	0.096476	NaN	0.000000	0.001567	0.001777	28.0779	0.071811	0.001913	37.5328	37.2314	14.1413	0.156619	0.883160	-0.213387	-0.214766	0.096476	37.5328	-0.215315	-233.656	-0.000413	NaN
341	1.000000	0.926606	7.3684e+06	-55689.1	955.819	-29741.2	0.000000	0.000000	6.927152	0.210409	NaN	0.000000	0.001547	0.001708	28.0775	0.096050	0.001941	49.4732	-2.688679	-161.606	0.192647	0.925294	-0.171320	-0.172632	0.210409	49.4732	-0.174510	-49.154	-0.004281	NaN
341	1.000000	0.968600	7.3684e+06	-55689.1	955.819	-29741.2	0.000000	0.000000	6.969144	0.141842	NaN	0.000000	0.001518	0.001687	28.0787	0.063534	0.002071	30.6843	-23.7516	14.7634	0.088186	0.967263	-0.129326	-0.130663	0.141842	30.6843	-0.132793	-8.629747	-0.016436	NaN
341	1.000000	1.010626	7.3684e+06	-55689.1	955.818	-29741.2	0.000000	0.000000	7.011172	0.180999	NaN	0.000000	0.001488	0.001702	28.0787	0.040331	0.002094	19.2629	-170.404	-167.166	0.112785	1.009286	-0.087300	-0.088640	0.180999	19.2629	-0.094347	-1.363046	-0.132790	NaN
341	1.000000	1.052622	7.3684e+06	-55689.1	955.819	-29741.2	0.000000	0.000000	7.053171	0.274373	NaN	0.000000	0.001554	0.001731	28.0787	0.087964	0.001943	45.27	-106.616	17.4436	0.246813	1.051254	-0.045304	-0.046672	0.274373	45.27	-0.049850	-0.090302	-3.038380	NaN
341	1.000000	1.094649	7.3684e+06	-55689.1	955.818	-29741.2	0.000000	0.000000	7.095194	0.191938	NaN	0.000000	0.001508	0.001689	28.0792	0.035585	0.001912	18.6105	168.019	-166.454	0.239026	1.093377	-0.003278	-0.004549	0.191938	18.6105	-0.011013	-0.006965	-27.5564	NaN
341	2.000000	1.113782	7.3684e+06	-55689.1	955.818	-29741.2	0.000000	0.000000	7.115076	18.3905	NaN	0.000000	0.001579	0.001720	28.0772	16.51	0.001823	9054.78	4.452047	7.588328	17.8273	1.113438	0.015855	0.015511	18.3905	9054.78	0.014332	0.014405	1276.66	68927.6
341	2.000000	1.124226	7.3684e+06	-55689.1	955.819	-29741.2	0.000000	0.000000	7.126453	41.0836	NaN	0.000000	0.001581	0.001751	28.0775	27.3788	0.001805	15171.8	10.175	177.471	40.8277	1.123926	0.026299	0.025999	41.0836	15171.8	0.024268	0.029698	1383.39	80435.6
341	2.000000	1.134723	7.3684e+06	-55689.1	955.819	-29741.2	0.000000	0.000000	7.138172	70.7549	NaN	0.000000	0.001480	0.001715	28.0776	36.5031	0.001839	19850.1	2.172645	2.665671	69.6594	1.134432	0.036797	0.036506	70.7549	19850.1	0.034124	0.049725	1422.92	81329.7
341	2.000000	1.145202	7.3684e+06	-55689.1	955.819	-29741.2	0.000000	0.000000	7.150485	115.338	NaN	0.000000	0.001543	0.001735	28.0788	47.2229	0.001805	26156	5.659094	176.742	114.709	1.144835	0.047276	0.046909	115.338	26156	0.043969	0.074686	1544.31	87443.1
341	2.000000	1.155690	7.3684e+06	-55689.1	955.819	-29741.2	0.000000	0.000000	7.162685	156.97	NaN	0.000000	0.001558	0.001704	28.0786	55.9907	0.001774	31566.6	2.881668	-2.615365	154.827	1.155399	0.057763	0.057472	156.97	31566.6	0.054034	0.105288	1490.87	88881.6
341	2.000000	1.166193	7.3684e+06	-55689.1	955.82	-29741.2	0.000000	0.000000	7.175531	213.907	NaN	0.000000	0.001562	0.001697	28.0789	66.537	0.001856	35848.7	6.224102	174.8	213.123	1.165828	0.068267	0.067902	213.907	35848.7	0.063792	0.139755	1530.59	87611.9
341	2.000000	1.176702	7.3684e+06	-55689.1	955.82	-29741.2	0.000000	0.000000	7.188519	274.186	NaN	0.000000	0.001568	0.001686	28.0779	76.7724	0.001816	42281.4	7.475190	-9.145753	274.774	1.176349	0.078775	0.078423	274.186	42281.4	0.073912	0.180364	1520.18	90959.4
341	2.000000	1.187102	7.3684e+06	-55689.1	955.819	-29741.2	0.000000	0.000000	7.201685	341.418	NaN	0.000000	0.001549	0.001685	28.0775	84.5911	0.001760	48050.6	1.101968	176.265	338.63	1.186848	0.089176	0.088922	341.418	48050.6	0.083847	0.224932	1517.87	92565.1
341	2.000000	1.197617	7.3684e+06	-55689.1	955.819	-29741.2	0.000000	0.000000	7.214959	408.475	NaN	0.000000	0.001531	0.001747	28.0773	95.3713	0.001848	51603	4.480305	-7.687076	405.449	1.197317	0.099691	0.099390	408.475	51603	0.093754	0.273925	1491.19	90080.9
341	2.000000	1.204605	7.3684e+06	-55689.1	955.82	-29741.2	0.000000	0.000000	7.224311	465.944	NaN	0.000000	0.001563	0.001767	28.0773	99.714	0.001908	52256.7	3.736711	-6.114167	461.621	1.204228	0.106679	0.106302	465.944	52256.7	0.099991	0.307071	1517.38	86157.9