File: remote_trans/data/nanoindenter/0828-1/data/Data_2025-08-06,11h17m57s/2025-07-22_16-23-58_1_1192.txt
2025-07-22, 16:23:58, 1
Index	Phase	Displacement	Time	Pos X	Pos Y	Pos Z	Rot A	Rot B	Piezo Z	Force A	Force B	Gripper	Voltage A	Voltage B	Temperature	Amplitude force	Amplitude pos	Stiffness	Phase shift	Phase excitation	Force A raw	Displacement raw	HMax	HMax raw	Real Force	Real Stiffness	Contact Depth	Area	Hardness	Reduced Mod.
[#]	[#]	[um]	[s]	[um]	[um]	[um]	[m°]	[m°]	[um]	[uN]	[uN]	[V]	[V]	[V]	[°C]	[uN]	[um]	[N/m]	[°]	[°]	[uN]	[um]	[um]	[um]	[uN]	[N/m]	[um]	[um^2]	[MPa]	[MPa]
1192	1.000000	0.001410	7.3767e+06	-55989.1	1105.82	-29740	0.000000	0.000000	6.002782	-0.055355	NaN	0.000000	0.001552	0.001696	28.0809	0.086412	0.000944	91.5153	48.9858	-167.187	-0.074762	0.000160	-1.093327	-1.094578	-0.055355	91.5153	-1.092873	-4.021547E+14	1.376455E-16	NaN
1192	1.000000	0.043396	7.3767e+06	-55989.1	1105.82	-29740	0.000000	0.000000	6.044769	-0.023689	NaN	0.000000	0.001495	0.001713	28.0824	0.080809	0.001947	41.5109	99.907	15.67	-0.001856	0.042051	-1.051341	-1.052686	-0.023689	41.5109	-1.050913	-1.098230E+14	2.156981E-16	NaN
1192	1.000000	0.085390	7.3767e+06	-55989.1	1105.82	-29740	0.000000	0.000000	6.086766	0.045212	NaN	0.000000	0.001629	0.001714	28.0819	0.028018	0.002205	12.7056	121.387	-169.936	-0.014454	0.084051	-1.009347	-1.010686	0.045212	12.7056	-1.012016	-3.292418E+13	-1.373211E-15	NaN
1192	1.000000	0.127395	7.3767e+06	-55989.1	1105.82	-29740	0.000000	0.000000	6.128770	0.019210	NaN	0.000000	0.001598	0.001736	28.082	0.059271	0.001953	30.3543	-126.686	15.1616	-0.018791	0.126048	-0.967342	-0.968689	0.019210	30.3543	-0.967817	-8.360706E+12	-2.297678E-15	NaN
1192	1.000000	0.169398	7.3767e+06	-55989.1	1105.82	-29740	0.000000	0.000000	6.170769	-0.066348	NaN	0.000000	0.001640	0.001692	28.0807	0.079900	0.001977	40.4115	173.242	-164.914	-0.061988	0.168113	-0.925339	-0.926624	-0.066348	40.4115	-0.924108	-2.151134E+12	3.084344E-14	NaN
1192	1.000000	0.211424	7.3767e+06	-55989.1	1105.82	-29740	0.000000	0.000000	6.212797	-0.014304	NaN	0.000000	0.001669	0.001732	28.081	0.066344	0.001973	33.6208	-106.514	12.9053	-0.058217	0.210093	-0.883314	-0.884645	-0.014304	33.6208	-0.882995	-5.986913E+11	2.389277E-14	NaN
1192	1.000000	0.253459	7.3767e+06	-55989.1	1105.82	-29740	0.000000	0.000000	6.254831	-0.058497	NaN	0.000000	0.001659	0.001712	28.0808	0.041073	0.002080	19.7473	-102.483	-161.691	-0.078438	0.252152	-0.841278	-0.842585	-0.058497	19.7473	-0.839057	-1.522348E+11	3.842551E-13	NaN
1192	1.000000	0.295491	7.3767e+06	-55989.1	1105.82	-29740	0.000000	0.000000	6.296860	-0.108165	NaN	0.000000	0.001589	0.001674	28.082	0.117503	0.002053	57.2457	-117.424	13.699	-0.106984	0.294114	-0.799247	-0.800623	-0.108165	57.2457	-0.797830	-4.201472E+10	2.574447E-12	NaN
1192	1.000000	0.337505	7.3767e+06	-55989.1	1105.82	-29740	0.000000	0.000000	6.338882	0.045740	NaN	0.000000	0.001613	0.001643	28.082	0.031363	0.001870	16.77	-130.948	-163.338	0.113676	0.336182	-0.757232	-0.758555	0.045740	16.77	-0.759278	-1.257402E+10	-3.637625E-12	NaN
1192	1.000000	0.379539	7.3767e+06	-55989.1	1105.82	-29740	0.000000	0.000000	6.380915	0.046616	NaN	0.000000	0.001597	0.001644	28.082	0.013373	0.002000	6.686088	-156.279	15.5236	0.055325	0.378150	-0.715199	-0.716588	0.046616	6.686088	-0.720428	-3.717983E+9	-1.253800E-11	NaN
1192	1.000000	0.421520	7.3767e+06	-55989.1	1105.82	-29740	0.000000	0.000000	6.422894	0.006275	NaN	0.000000	0.001561	0.001671	28.0808	0.053315	0.002104	25.3452	41.2752	-164.291	0.042853	0.420225	-0.673217	-0.674512	0.006275	25.3452	-0.673403	-8.471546E+8	-7.407579E-12	NaN
1192	1.000000	0.463544	7.37671e+06	-55989.1	1105.82	-29740	0.000000	0.000000	6.464916	-0.050316	NaN	0.000000	0.001634	0.001703	28.081	0.050543	0.002082	24.2808	-34.5765	14.3919	-0.007934	0.462179	-0.631194	-0.632559	-0.050316	24.2808	-0.629639	-2.128491E+8	2.363947E-10	NaN
1192	1.000000	0.505534	7.37671e+06	-55989.1	1105.82	-29740	0.000000	0.000000	6.506907	-0.011295	NaN	0.000000	0.001612	0.001726	28.081	0.022818	0.002060	11.0767	147.732	-164.474	-0.006402	0.504203	-0.589204	-0.590535	-0.011295	11.0767	-0.588439	-5.769549E+7	1.957746E-10	NaN
1192	1.000000	0.547595	7.37671e+06	-55989.1	1105.82	-29740	0.000000	0.000000	6.548968	-0.023918	NaN	0.000000	0.001599	0.001707	28.081	0.063307	0.002032	31.1498	-155.047	12.2435	-0.009486	0.546219	-0.547143	-0.548519	-0.023918	31.1498	-0.546567	-1.521924E+7	1.571573E-9	NaN
1192	1.000000	0.589604	7.37671e+06	-55989.1	1105.82	-29740	0.000000	0.000000	6.590978	-0.008099	NaN	0.000000	0.001609	0.001702	28.0821	0.093436	0.002075	45.0277	-137.382	-164.528	-0.006854	0.588264	-0.505134	-0.506473	-0.008099	45.0277	-0.504999	-4.02464e+06	2.012290E-9	NaN
1192	1.000000	0.631615	7.37671e+06	-55989.1	1105.82	-29740	0.000000	0.000000	6.632988	-0.036837	NaN	0.000000	0.001584	0.001734	28.0819	0.043049	0.002064	20.8577	-161.697	15.5493	-0.108234	0.630254	-0.463122	-0.464483	-0.036837	20.8577	-0.461797	-1.00063e+06	3.681378E-8	NaN
1192	1.000000	0.673644	7.37671e+06	-55989.1	1105.82	-29740	0.000000	0.000000	6.675018	-0.011324	NaN	0.000000	0.001577	0.001664	28.0818	0.082624	0.002019	40.9257	-142.308	-166.488	-0.020029	0.672311	-0.421093	-0.422427	-0.011324	40.9257	-0.420886	-264834	4.275757E-8	NaN
1192	1.000000	0.715622	7.37671e+06	-55989.1	1105.82	-29740	0.000000	0.000000	6.716996	0.007390	NaN	0.000000	0.001597	0.001702	28.0812	0.061432	0.001996	30.7838	-48.0844	13.6809	-0.059210	0.714314	-0.379116	-0.380423	0.007390	30.7838	-0.379296	-67574	-1.093672E-7	NaN
1192	1.000000	0.757681	7.37671e+06	-55989.1	1105.82	-29740	0.000000	0.000000	6.759055	-0.001215	NaN	0.000000	0.001598	0.001666	28.0806	0.129986	0.002076	62.6282	173.162	-165.95	0.008493	0.756418	-0.337056	-0.338319	-0.001215	62.6282	-0.337042	-16534.9	7.348918E-8	NaN
1192	1.000000	0.799683	7.37671e+06	-55989.1	1105.82	-29740	0.000000	0.000000	6.801056	-0.020000	NaN	0.000000	0.001588	0.001708	28.0806	0.075437	0.002013	37.4741	80.7569	14.7108	-0.016230	0.798295	-0.295055	-0.296442	-0.020000	37.4741	-0.294654	-3916.76	5.106172E-6	NaN
1192	1.000000	0.841706	7.37671e+06	-55989.1	1105.82	-29740	0.000000	0.000000	6.843079	-0.042474	NaN	0.000000	0.001584	0.001696	28.0819	0.048151	0.002024	23.7857	-129.922	-161.835	0.099239	0.840415	-0.253031	-0.254322	-0.042474	23.7857	-0.251692	-873.202	4.864112E-5	NaN
1192	1.000000	0.883703	7.37671e+06	-55989.1	1105.82	-29740	0.000000	0.000000	6.885078	0.009802	NaN	0.000000	0.001623	0.001683	28.0821	0.120810	0.001988	60.7798	73.1883	15.8184	-0.046191	0.882355	-0.211034	-0.212382	0.009802	60.7798	-0.211155	-200.223	-4.895343E-5	NaN
1192	1.000000	0.925728	7.37671e+06	-55989.1	1105.82	-29740	0.000000	0.000000	6.927101	-0.027008	NaN	0.000000	0.001594	0.001691	28.0824	0.067631	0.002026	33.3793	160.387	-164.467	-0.038148	0.924410	-0.169010	-0.170327	-0.027008	33.3793	-0.168403	-38.5329	0.000701	NaN
1192	1.000000	0.967748	7.37671e+06	-55989.1	1105.82	-29740	0.000000	0.000000	6.969120	-0.037698	NaN	0.000000	0.001675	0.001693	28.0812	0.035188	0.002065	17.0432	97.2878	18.972	0.023142	0.966362	-0.126990	-0.128376	-0.037698	17.0432	-0.125331	-6.173598	0.006106	NaN
1192	1.000000	1.009756	7.37671e+06	-55989.1	1105.82	-29740	0.000000	0.000000	7.011127	-0.077561	NaN	0.000000	0.001637	0.001736	28.0809	0.066248	0.002107	31.4375	12.1594	-165.987	0.027756	1.008456	-0.084981	-0.086282	-0.077561	31.4375	-0.083131	-0.739904	0.104825	NaN
1192	1.000000	1.051775	7.37671e+06	-55989.1	1105.82	-29740	0.000000	0.000000	7.053149	-0.011584	NaN	0.000000	0.001545	0.001716	28.081	0.060725	0.001858	32.6807	-93.2633	11.3092	-0.029328	1.050402	-0.042962	-0.044336	-0.011584	32.6807	-0.042696	-0.054645	0.211981	NaN
1192	1.000000	1.093807	7.37671e+06	-55989.1	1105.82	-29740	0.000000	0.000000	7.095193	0.281231	NaN	0.000000	0.001597	0.001707	28.081	0.571729	0.001924	297.186	8.174259	-164.706	-0.022798	1.092470	-0.000930	-0.002267	0.281231	297.186	-0.001640	-0.001188	-236.678	NaN
1192	2.000000	1.110894	7.37671e+06	-55989.1	1105.82	-29740	0.000000	0.000000	7.112995	17.6634	NaN	0.000000	0.001668	0.001680	28.0826	16.4109	0.001898	8644.73	9.696725	4.507215	17.9333	1.110594	0.016157	0.015856	17.6634	8644.73	0.014624	0.014788	1194.46	64949.1
1192	2.000000	1.121347	7.37671e+06	-55989.1	1105.82	-29740	0.000000	0.000000	7.124324	38.9721	NaN	0.000000	0.001604	0.001689	28.082	26.7804	0.001772	15116.3	6.377552	-179.426	38.4504	1.121044	0.026609	0.026307	38.9721	15116.3	0.024676	0.030428	1280.79	79174
1192	2.000000	1.131805	7.37671e+06	-55989.1	1105.82	-29740	0.000000	0.000000	7.135954	67.4393	NaN	0.000000	0.001633	0.001692	28.0821	36.4073	0.001658	21962.2	-0.296436	2.953513	65.107	1.131615	0.037068	0.036878	67.4393	21962.2	0.034765	0.051199	1317.19	88678.1
1192	2.000000	1.142299	7.37671e+06	-55989.1	1105.82	-29740	0.000000	0.000000	7.148199	110.019	NaN	0.000000	0.001553	0.001683	28.081	46.527	0.001796	25904.6	3.357030	178.663	107.682	1.141990	0.047561	0.047252	110.019	25904.6	0.044376	0.075826	1450.95	85949
1192	2.000000	1.152795	7.37671e+06	-55989.1	1105.82	-29740	0.000000	0.000000	7.160969	165.285	NaN	0.000000	0.001570	0.001737	28.081	57.8053	0.001766	32725.6	5.217312	-6.249643	161.771	1.152493	0.058058	0.057755	165.285	32725.6	0.054270	0.106067	1558.31	91806.1
1192	2.000000	1.163281	7.37671e+06	-55989.1	1105.82	-29740	0.000000	0.000000	7.174316	234.829	NaN	0.000000	0.001557	0.001666	28.0808	67.6697	0.001739	38919.6	1.958118	176.992	232.049	1.162869	0.068544	0.068132	234.829	38919.6	0.064018	0.140611	1670.06	94827.1
1192	2.000000	1.173800	7.37671e+06	-55989.1	1105.82	-29740	0.000000	0.000000	7.187957	310.722	NaN	0.000000	0.001552	0.001695	28.0821	79.1643	0.001754	45146.2	5.167153	-8.512649	311.117	1.173591	0.079063	0.078854	310.722	45146.2	0.073901	0.180316	1723.21	97135.3
1192	2.000000	1.184193	7.37671e+06	-55989.1	1105.82	-29740	0.000000	0.000000	7.201725	392.77	NaN	0.000000	0.001549	0.001704	28.0821	90.2482	0.001899	47513.2	4.180336	172.989	386.094	1.183870	0.089455	0.089133	392.77	47513.2	0.083256	0.222150	1768.04	92100.9
1192	2.000000	1.194810	7.37671e+06	-55989.1	1105.82	-29740	0.000000	0.000000	7.215499	469.495	NaN	0.000000	0.001557	0.001701	28.0821	98.7255	0.001877	52604	5.347496	-8.926580	469.549	1.194476	0.100073	0.099738	469.495	52604	0.093379	0.271987	1726.17	92154.8
1192	2.000000	1.201186	7.37671e+06	-55989.1	1105.82	-29740	0.000000	0.000000	7.223964	520.269	NaN	0.000000	0.001577	0.001635	28.0822	103.192	0.001858	55545	3.871306	172.453	515.08	1.200835	0.106449	0.106098	520.269	55545	0.099424	0.303981	1711.52	92043.8