File: remote_trans/data/nanoindenter/0828-1/data/Data_2025-08-06,11h17m57s/2025-07-22_16-23-58_1_726.txt
2025-07-22, 16:23:58, 1
Index	Phase	Displacement	Time	Pos X	Pos Y	Pos Z	Rot A	Rot B	Piezo Z	Force A	Force B	Gripper	Voltage A	Voltage B	Temperature	Amplitude force	Amplitude pos	Stiffness	Phase shift	Phase excitation	Force A raw	Displacement raw	HMax	HMax raw	Real Force	Real Stiffness	Contact Depth	Area	Hardness	Reduced Mod.
[#]	[#]	[um]	[s]	[um]	[um]	[um]	[m°]	[m°]	[um]	[uN]	[uN]	[V]	[V]	[V]	[°C]	[uN]	[um]	[N/m]	[°]	[°]	[uN]	[um]	[um]	[um]	[uN]	[N/m]	[um]	[um^2]	[MPa]	[MPa]
726	1.000000	0.002442	7.37216e+06	-40789.1	1005.82	-29788.5	0.000000	0.000000	6.002813	0.011041	NaN	0.000000	0.001644	0.001733	28.0834	0.069924	0.001007	69.4454	5.220992	-163.341	0.013370	0.001162	-1.125694	-1.126974	0.011041	69.4454	-1.125813	-1.112920E+15	-9.920648E-18	NaN
726	1.000000	0.044373	7.37216e+06	-40789.1	1005.82	-29788.5	0.000000	0.000000	6.044741	-0.059870	NaN	0.000000	0.001669	0.001791	28.0835	0.027525	0.001982	13.8858	4.980354	14.6208	-0.068931	0.043013	-1.083763	-1.085123	-0.059870	13.8858	-1.080530	-2.745581E+14	2.180595E-16	NaN
726	1.000000	0.086376	7.37216e+06	-40789.1	1005.82	-29788.5	0.000000	0.000000	6.086746	-0.015469	NaN	0.000000	0.001668	0.001787	28.0839	0.096717	0.002084	46.4142	169.723	-165.301	-0.014728	0.085089	-1.041760	-1.043048	-0.015469	46.4142	-1.041510	-8.208654E+13	1.884530E-16	NaN
726	1.000000	0.128419	7.37216e+06	-40789.1	1005.82	-29788.5	0.000000	0.000000	6.128788	-0.031044	NaN	0.000000	0.001592	0.001752	28.0848	0.081215	0.002093	38.8087	12.1808	16.1662	-0.075578	0.127027	-0.999717	-1.001110	-0.031044	38.8087	-0.999117	-2.207410E+13	1.406364E-15	NaN
726	1.000000	0.170432	7.37216e+06	-40789.1	1005.82	-29788.5	0.000000	0.000000	6.170798	-0.100159	NaN	0.000000	0.001601	0.001735	28.0848	0.125852	0.001985	63.4057	45.1157	-162.464	0.026718	0.169156	-0.957705	-0.958980	-0.100159	63.4057	-0.956520	-5.887741E+12	1.701153E-14	NaN
726	1.000000	0.212447	7.37216e+06	-40789.1	1005.82	-29788.5	0.000000	0.000000	6.212820	0.059017	NaN	0.000000	0.001640	0.001786	28.0845	0.058094	0.001974	29.4242	-75.4893	13.9284	-0.049988	0.211101	-0.915690	-0.917035	0.059017	29.4242	-0.917194	-1.735069E+12	-3.401425E-14	NaN
726	1.000000	0.254441	7.37216e+06	-40789.1	1005.82	-29788.5	0.000000	0.000000	6.254810	-0.035494	NaN	0.000000	0.001615	0.001819	28.0839	0.030508	0.001953	15.6232	26.8526	-163.256	-0.065234	0.253141	-0.873696	-0.874996	-0.035494	15.6232	-0.871992	-4.250009E+11	8.351398E-14	NaN
726	1.000000	0.296487	7.37216e+06	-40789.1	1005.82	-29788.5	0.000000	0.000000	6.296858	0.013120	NaN	0.000000	0.001641	0.001756	28.0831	0.075716	0.001816	41.6917	-144.266	14.5881	-0.007560	0.295138	-0.831649	-0.832999	0.013120	41.6917	-0.831885	-1.217122E+11	-1.077972E-13	NaN
726	1.000000	0.338498	7.37216e+06	-40789.1	1005.82	-29788.6	0.000000	0.000000	6.338868	-0.009685	NaN	0.000000	0.001629	0.001764	28.0829	0.094363	0.001947	48.4668	8.999924	-163.172	0.003396	0.337195	-0.789638	-0.790941	-0.009685	48.4668	-0.789488	-3.236904E+10	2.991934E-13	NaN
726	1.000000	0.380483	7.37216e+06	-40789.1	1005.82	-29788.6	0.000000	0.000000	6.380850	-0.079944	NaN	0.000000	0.001627	0.001776	28.0842	0.042460	0.001989	21.3424	-57.8729	16.628	-0.069380	0.379178	-0.747654	-0.748959	-0.079944	21.3424	-0.744844	-7.998850E+9	9.994408E-12	NaN
726	1.000000	0.422551	7.37216e+06	-40789.1	1005.82	-29788.6	0.000000	0.000000	6.422922	0.009961	NaN	0.000000	0.001612	0.001767	28.0845	0.085591	0.002012	42.5454	-2.942140	-164.198	0.084353	0.421186	-0.705585	-0.706950	0.009961	42.5454	-0.705760	-2.345208E+9	-4.247526E-12	NaN
726	1.000000	0.464550	7.37216e+06	-40789.1	1005.82	-29788.6	0.000000	0.000000	6.464919	-0.034414	NaN	0.000000	0.001646	0.001845	28.0845	0.108903	0.002072	52.5688	-105.427	15.1533	-0.025366	0.463229	-0.663586	-0.664907	-0.034414	52.5688	-0.663095	-6.121475E+8	5.621830E-11	NaN
726	1.000000	0.506555	7.37216e+06	-40789.1	1005.82	-29788.6	0.000000	0.000000	6.506925	-0.016012	NaN	0.000000	0.001703	0.001724	28.0832	0.155778	0.002052	75.8979	139.323	-165.359	-0.023002	0.505304	-0.621581	-0.622832	-0.016012	75.8979	-0.621423	-1.641307E+8	9.755838E-11	NaN
726	1.000000	0.548570	7.37216e+06	-40789.1	1005.82	-29788.6	0.000000	0.000000	6.548940	-0.018556	NaN	0.000000	0.001659	0.001734	28.0832	0.049221	0.001944	25.3166	-179.234	14.0975	-0.066221	0.547232	-0.579566	-0.580905	-0.018556	25.3166	-0.579016	-4.277072E+7	4.338397E-10	NaN
726	1.000000	0.590597	7.37216e+06	-40789.1	1005.82	-29788.6	0.000000	0.000000	6.590964	-0.073577	NaN	0.000000	0.001604	0.001779	28.0833	0.161156	0.001874	86.0129	-1.092187	-163.662	-0.068039	0.589320	-0.537539	-0.538816	-0.073577	86.0129	-0.536898	-1.117701E+7	6.582874E-9	NaN
726	1.000000	0.632643	7.37216e+06	-40789.1	1005.82	-29788.6	0.000000	0.000000	6.633010	-0.092644	NaN	0.000000	0.001702	0.001802	28.0837	0.044283	0.001835	24.1334	-46.9205	15.5066	-0.078109	0.631294	-0.495493	-0.496842	-0.092644	24.1334	-0.492614	-2.70344e+06	3.426904E-8	NaN
726	1.000000	0.674643	7.37216e+06	-40789.1	1005.82	-29788.6	0.000000	0.000000	6.675011	-0.055756	NaN	0.000000	0.001562	0.001722	28.0842	0.064861	0.001923	33.7218	114.675	-161.381	-0.064760	0.673356	-0.453494	-0.454780	-0.055756	33.7218	-0.452254	-734632	7.589677E-8	NaN
726	1.000000	0.716650	7.37216e+06	-40789.1	1005.82	-29788.6	0.000000	0.000000	6.717016	-0.094245	NaN	0.000000	0.001634	0.001757	28.0841	0.013523	0.002066	6.545080	-60.2469	14.3139	-0.095358	0.715335	-0.411487	-0.412801	-0.094245	6.545080	-0.400687	-136708	6.893892E-7	NaN
726	1.000000	0.758680	7.37216e+06	-40789.1	1005.82	-29788.6	0.000000	0.000000	6.759050	-0.004667	NaN	0.000000	0.001643	0.001750	28.0843	0.043531	0.001855	23.4727	60.4524	-168.039	-0.070151	0.757325	-0.369456	-0.370811	-0.004667	23.4727	-0.369307	-48545.1	9.614507E-8	NaN
726	1.000000	0.800696	7.37216e+06	-40789.1	1005.82	-29788.6	0.000000	0.000000	6.801064	-0.051792	NaN	0.000000	0.001589	0.001771	28.0829	0.039029	0.001900	20.5436	-152.456	11.8526	0.003499	0.799368	-0.327440	-0.328769	-0.051792	20.5436	-0.325549	-11225.4	4.613813E-6	NaN
726	1.000000	0.842725	7.37216e+06	-40789.1	1005.82	-29788.6	0.000000	0.000000	6.843093	-0.071663	NaN	0.000000	0.001633	0.001801	28.0831	0.052828	0.002023	26.1147	42.6215	-163.657	-0.024435	0.841407	-0.285411	-0.286730	-0.071663	26.1147	-0.283353	-2651.52	2.702731E-5	NaN
726	1.000000	0.884730	7.37216e+06	-40789.1	1005.82	-29788.6	0.000000	0.000000	6.885099	-0.026235	NaN	0.000000	0.001676	0.001791	28.083	0.066935	0.002054	32.5807	71.3903	15.1046	-0.043625	0.883393	-0.243407	-0.244743	-0.026235	32.5807	-0.242803	-635.723	4.126870E-5	NaN
726	1.000000	0.926767	7.37216e+06	-40789.1	1005.82	-29788.6	0.000000	0.000000	6.927135	-0.054924	NaN	0.000000	0.001619	0.001780	28.0844	0.117045	0.001971	59.3758	-150.976	-166.653	-0.042556	0.925431	-0.201369	-0.202705	-0.054924	59.3758	-0.200676	-135.144	0.000406	NaN
726	1.000000	0.968769	7.37216e+06	-40789.1	1005.82	-29788.6	0.000000	0.000000	6.969138	-0.026470	NaN	0.000000	0.001702	0.001716	28.0843	0.054249	0.002184	24.8425	-73.48	14.8329	-0.044545	0.967418	-0.159368	-0.160718	-0.026470	24.8425	-0.158568	-25.8526	0.001024	NaN
726	1.000000	1.010775	7.37216e+06	-40789.1	1005.82	-29788.6	0.000000	0.000000	7.011144	-0.043359	NaN	0.000000	0.001722	0.001767	28.0843	0.049097	0.001956	25.1035	-118.166	-163.689	-0.121729	1.009451	-0.117361	-0.118685	-0.043359	25.1035	-0.116066	-4.018094	0.010791	NaN
726	1.000000	1.052786	7.37216e+06	-40789.1	1005.82	-29788.6	0.000000	0.000000	7.053156	0.003453	NaN	0.000000	0.001647	0.001758	28.0831	0.077844	0.002014	38.6474	98.4249	10.2146	-0.047276	1.051437	-0.075351	-0.076699	0.003453	38.6474	-0.075418	-0.473488	-0.007293	NaN
726	1.000000	1.094797	7.37216e+06	-40789.1	1005.82	-29788.6	0.000000	0.000000	7.095224	1.361701	NaN	0.000000	0.001636	0.001739	28.0827	0.892506	0.002009	444.278	17.3211	-170.01	1.174185	1.093523	-0.033339	-0.034613	1.361701	444.278	-0.035638	-0.033443	-40.7166	NaN
726	2.000000	1.129857	7.37216e+06	-40789.1	1005.82	-29788.6	0.000000	0.000000	7.130695	11.3629	NaN	0.000000	0.001669	0.001744	28.0831	9.989455	0.001761	5674.17	11.6713	4.873885	10.8821	1.129439	0.001721	0.001303	11.3629	5674.17	0.000219	0.000164	69122.4	404335
726	2.000000	1.140254	7.37216e+06	-40789.1	1005.82	-29788.6	0.000000	0.000000	7.143023	58.3741	NaN	0.000000	0.001631	0.001734	28.0839	23.777	0.001826	13022.8	7.442944	-179.965	55.6991	1.139918	0.012118	0.011782	58.3741	13022.8	0.008756	0.007831	7453.92	134449
726	2.000000	1.150749	7.37216e+06	-40789.1	1005.82	-29788.6	0.000000	0.000000	7.155809	114.123	NaN	0.000000	0.001709	0.001718	28.0858	31.5767	0.002050	15403.7	6.438407	0.571949	112.416	1.150458	0.022613	0.022322	114.123	15403.7	0.017056	0.018125	6296.3	104533
726	2.000000	1.161232	7.37216e+06	-40789.1	1005.82	-29788.6	0.000000	0.000000	7.168113	158.42	NaN	0.000000	0.001728	0.001709	28.0844	37.0811	0.001966	18862.9	6.717265	178.183	157.302	1.160895	0.033096	0.032759	158.42	18862.9	0.026797	0.034366	4609.75	92964.1
726	2.000000	1.171665	7.37216e+06	-40789.1	1005.82	-29788.6	0.000000	0.000000	7.180190	198.428	NaN	0.000000	0.001700	0.001739	28.0841	42.9426	0.001975	21744.3	3.443431	0.452160	194.766	1.171245	0.043529	0.043109	198.428	21744.3	0.036685	0.055741	3559.81	84145.5
726	2.000000	1.182275	7.37216e+06	-40789.1	1005.82	-29788.6	0.000000	0.000000	7.191910	225.433	NaN	0.000000	0.001611	0.001772	28.0826	50.7088	0.001920	26409.3	6.323347	175.639	226.777	1.181886	0.054139	0.053750	225.433	26409.3	0.047737	0.085546	2635.23	82495.6
726	2.000000	1.192713	7.37216e+06	-40789.1	1005.82	-29788.6	0.000000	0.000000	7.203880	262.713	NaN	0.000000	0.001613	0.001749	28.083	60.673	0.001884	32207	5.756300	-4.884670	261.69	1.192282	0.064577	0.064146	262.713	32207	0.058459	0.120341	2183.07	84823.4
726	2.000000	1.203177	7.37216e+06	-40789.1	1005.82	-29788.6	0.000000	0.000000	7.216158	306.853	NaN	0.000000	0.001658	0.001736	28.083	71.0027	0.001813	39154.2	5.263411	173.492	306.063	1.202848	0.075041	0.074712	306.853	39154.2	0.069163	0.160700	1909.48	89236.8
726	2.000000	1.213841	7.37216e+06	-40789.1	1005.82	-29788.6	0.000000	0.000000	7.229097	362.21	NaN	0.000000	0.001701	0.001771	28.0846	80.3292	0.001861	43154.5	6.785358	-7.940360	370.001	1.213323	0.085705	0.085187	362.21	43154.5	0.079410	0.204460	1771.55	87195.8
726	2.000000	1.224029	7.37216e+06	-40789.1	1005.82	-29788.6	0.000000	0.000000	7.242280	435.072	NaN	0.000000	0.001680	0.001740	28.0841	89.0366	0.001633	54516.2	3.800443	171.483	427.939	1.223817	0.095893	0.095681	435.072	54516.2	0.089908	0.254368	1710.41	98757
726	2.000000	1.226161	7.37216e+06	-40789.1	1005.82	-29788.6	0.000000	0.000000	7.244845	445.629	NaN	0.000000	0.001709	0.001804	28.0843	93.7404	0.001773	52862.3	5.436011	170.595	445.593	1.225967	0.098025	0.097831	445.629	52862.3	0.091702	0.263409	1691.78	94103.1