File: remote_trans/data/nanoindenter/0828-1/data/Data_2025-08-06,11h17m57s/2025-07-22_16-23-58_1_510.txt
2025-07-22, 16:23:58, 1
Index	Phase	Displacement	Time	Pos X	Pos Y	Pos Z	Rot A	Rot B	Piezo Z	Force A	Force B	Gripper	Voltage A	Voltage B	Temperature	Amplitude force	Amplitude pos	Stiffness	Phase shift	Phase excitation	Force A raw	Displacement raw	HMax	HMax raw	Real Force	Real Stiffness	Contact Depth	Area	Hardness	Reduced Mod.
[#]	[#]	[um]	[s]	[um]	[um]	[um]	[m°]	[m°]	[um]	[uN]	[uN]	[V]	[V]	[V]	[°C]	[uN]	[um]	[N/m]	[°]	[°]	[uN]	[um]	[um]	[um]	[uN]	[N/m]	[um]	[um^2]	[MPa]	[MPa]
510	1.000000	0.003080	7.37004e+06	-51589.1	1005.82	-29751.8	0.000000	0.000000	6.002785	0.092756	NaN	0.000000	0.001568	0.001793	28.0807	0.009810	0.001053	9.318036	87.3149	-163.018	0.177808	0.001901	-1.120709	-1.121888	0.092756	9.318036	-1.128175	-1.197122E+15	-7.748241E-17	NaN
510	1.000000	0.045043	7.37004e+06	-51589.1	1005.82	-29751.8	0.000000	0.000000	6.044739	-0.107710	NaN	0.000000	0.001557	0.001720	28.0818	0.048756	0.001969	24.7653	-126.125	15.4505	0.012047	0.043656	-1.078747	-1.080133	-0.107710	24.7653	-1.075485	-2.348930E+14	4.585506E-16	NaN
510	1.000000	0.087079	7.37004e+06	-51589.1	1005.82	-29751.8	0.000000	0.000000	6.086782	0.053811	NaN	0.000000	0.001583	0.001801	28.0817	0.069535	0.001960	35.4766	178.093	-168.051	0.078026	0.085734	-1.036710	-1.038055	0.053811	35.4766	-1.037848	-7.328762E+13	-7.342422E-16	NaN
510	1.000000	0.129101	7.37004e+06	-51589.1	1005.82	-29751.8	0.000000	0.000000	6.128804	0.031156	NaN	0.000000	0.001625	0.001814	28.0814	0.021472	0.001868	11.4922	-176.246	13.4729	0.006496	0.127712	-0.994688	-0.996077	0.031156	11.4922	-0.996721	-2.049398E+13	-1.520274E-15	NaN
510	1.000000	0.171086	7.37004e+06	-51589.1	1005.82	-29751.8	0.000000	0.000000	6.170788	0.018058	NaN	0.000000	0.001618	0.001776	28.0801	0.042389	0.001940	21.8513	57.0936	-165.137	-0.043691	0.169767	-0.952703	-0.954022	0.018058	21.8513	-0.953323	-5.331416E+12	-3.387132E-15	NaN
510	1.000000	0.213091	7.37004e+06	-51589.1	1005.82	-29751.8	0.000000	0.000000	6.212793	0.009762	NaN	0.000000	0.001630	0.001778	28.0802	0.064204	0.002074	30.9569	-40.8532	17.9017	0.032428	0.211724	-0.910698	-0.912066	0.009762	30.9569	-0.910934	-1.428176E+12	-6.835270E-15	NaN
510	1.000000	0.255128	7.37004e+06	-51589.1	1005.82	-29751.8	0.000000	0.000000	6.254831	0.048251	NaN	0.000000	0.001589	0.001774	28.08	0.051341	0.002068	24.8246	140.507	-164.366	0.071356	0.253832	-0.868661	-0.869957	0.048251	24.8246	-0.870119	-4.009145E+11	-1.203527E-13	NaN
510	1.000000	0.297165	7.37004e+06	-51589.1	1005.82	-29751.8	0.000000	0.000000	6.296865	-0.027916	NaN	0.000000	0.001549	0.001776	28.0811	0.093254	0.002129	43.809	-10.6296	16.9313	0.048757	0.295808	-0.826624	-0.827982	-0.027916	43.809	-0.826146	-1.017524E+11	2.743559E-13	NaN
510	1.000000	0.339206	7.37004e+06	-51589.1	1005.82	-29751.8	0.000000	0.000000	6.338910	0.075782	NaN	0.000000	0.001577	0.001770	28.0813	0.053554	0.002005	26.7042	95.4721	-165.173	0.065731	0.337873	-0.784583	-0.785916	0.075782	26.7042	-0.786712	-2.967683E+10	-2.553569E-12	NaN
510	1.000000	0.381164	7.37004e+06	-51589.1	1005.82	-29751.8	0.000000	0.000000	6.380864	-0.021718	NaN	0.000000	0.001563	0.001775	28.081	0.052509	0.001897	27.6759	-17.7868	14.8475	-0.028131	0.379801	-0.742625	-0.743988	-0.021718	27.6759	-0.742037	-7.324826E+9	2.964970E-12	NaN
510	1.000000	0.423212	7.37004e+06	-51589.1	1005.82	-29751.8	0.000000	0.000000	6.422916	0.068771	NaN	0.000000	0.001536	0.001770	28.0807	0.043199	0.001892	22.8286	-89.0741	-164.443	0.009399	0.421925	-0.700577	-0.701864	0.068771	22.8286	-0.702836	-2.139260E+9	-3.214691E-11	NaN
510	1.000000	0.465232	7.37004e+06	-51589.1	1005.82	-29751.8	0.000000	0.000000	6.464930	-0.081825	NaN	0.000000	0.001573	0.001771	28.0802	0.093541	0.002032	46.0315	-111.152	15.6715	-0.062820	0.463905	-0.658557	-0.659884	-0.081825	46.0315	-0.657224	-5.086690E+8	1.608610E-10	NaN
510	1.000000	0.507217	7.37004e+06	-51589.1	1005.82	-29751.8	0.000000	0.000000	6.506919	0.025006	NaN	0.000000	0.001634	0.001762	28.0802	0.078217	0.001971	39.6868	156.201	-163.493	0.047980	0.505881	-0.616572	-0.617908	0.025006	39.6868	-0.617045	-1.428918E+8	-1.749987E-10	NaN
510	1.000000	0.549278	7.37004e+06	-51589.1	1005.82	-29751.8	0.000000	0.000000	6.548977	-0.037780	NaN	0.000000	0.001617	0.001824	28.0803	0.050271	0.002044	24.5986	-58.4997	14.1745	-0.079048	0.547969	-0.574512	-0.575820	-0.037780	24.5986	-0.573360	-3.573100E+7	1.057333E-9	NaN
510	1.000000	0.591257	7.37004e+06	-51589.1	1005.82	-29751.8	0.000000	0.000000	6.590956	-0.046557	NaN	0.000000	0.001564	0.001792	28.0818	0.048766	0.002097	23.2513	-41.2558	-164.576	-0.054845	0.589998	-0.532532	-0.533791	-0.046557	23.2513	-0.531030	-9.26584e+06	5.024602E-9	NaN
510	1.000000	0.633297	7.37004e+06	-51589.1	1005.82	-29751.8	0.000000	0.000000	6.632997	-0.034541	NaN	0.000000	0.001564	0.001774	28.0815	0.055673	0.001944	28.6337	106.232	15.5283	-0.071153	0.631918	-0.490492	-0.491871	-0.034541	28.6337	-0.489587	-2.45259e+06	1.408345E-8	NaN
510	1.000000	0.675337	7.37004e+06	-51589.1	1005.82	-29751.8	0.000000	0.000000	6.675039	0.002668	NaN	0.000000	0.001561	0.001777	28.0814	0.107840	0.002077	51.9214	-121.395	-165.012	0.100031	0.673983	-0.448452	-0.449806	0.002668	51.9214	-0.448490	-650248	-4.103318E-9	NaN
510	1.000000	0.717321	7.37004e+06	-51589.1	1005.82	-29751.8	0.000000	0.000000	6.717019	-0.091385	NaN	0.000000	0.001566	0.001747	28.0801	0.096840	0.002035	47.5887	10.7707	12.9667	-0.151419	0.715921	-0.406468	-0.407868	-0.091385	47.5887	-0.405028	-157633	5.797327E-7	NaN
510	1.000000	0.759340	7.37004e+06	-51589.1	1005.82	-29751.8	0.000000	0.000000	6.759042	0.007545	NaN	0.000000	0.001545	0.001740	28.0801	0.050842	0.001941	26.1965	172.298	-163.644	0.043161	0.758015	-0.364449	-0.365774	0.007545	26.1965	-0.364665	-41611.9	-1.813279E-7	NaN
510	1.000000	0.801347	7.37004e+06	-51589.1	1005.82	-29751.8	0.000000	0.000000	6.801048	-0.021185	NaN	0.000000	0.001564	0.001776	28.0802	0.069966	0.001960	35.7003	-176.97	11.3901	-0.014368	0.799980	-0.322442	-0.323810	-0.021185	35.7003	-0.321997	-9954.37	2.128260E-6	NaN
510	1.000000	0.843390	7.37004e+06	-51589.1	1005.82	-29751.8	0.000000	0.000000	6.843092	0.005149	NaN	0.000000	0.001578	0.001767	28.0818	0.061038	0.001957	31.1832	-102.86	-164.512	0.071571	0.842080	-0.280399	-0.281710	0.005149	31.1832	-0.280523	-2403.57	-2.142290E-6	NaN
510	1.000000	0.885399	7.37004e+06	-51589.1	1005.82	-29751.8	0.000000	0.000000	6.885100	0.004397	NaN	0.000000	0.001610	0.001797	28.0814	0.038526	0.001988	19.3815	-19.1844	13.9752	0.017452	0.884040	-0.238390	-0.239749	0.004397	19.3815	-0.238560	-545.822	-8.055424E-6	NaN
510	1.000000	0.927415	7.37004e+06	-51589.1	1005.82	-29751.8	0.000000	0.000000	6.927118	0.035464	NaN	0.000000	0.001556	0.001789	28.0814	0.041156	0.001870	22.0031	-175.82	-165.727	0.029845	0.926086	-0.196374	-0.197704	0.035464	22.0031	-0.197583	-120.2	-0.000295	NaN
510	1.000000	0.969392	7.37004e+06	-51589.1	1005.82	-29751.8	0.000000	0.000000	6.969093	-0.023591	NaN	0.000000	0.001580	0.001764	28.0806	0.053812	0.002027	26.543	135.553	14.7607	-0.049292	0.968063	-0.154397	-0.155726	-0.023591	26.543	-0.153730	-21.1686	0.001114	NaN
510	1.000000	1.011442	7.37004e+06	-51589.1	1005.82	-29751.8	0.000000	0.000000	7.011144	0.032180	NaN	0.000000	0.001590	0.001793	28.0801	0.047890	0.001842	25.9962	84.3771	-163.48	0.023864	1.010141	-0.112347	-0.113649	0.032180	25.9962	-0.113276	-3.519061	-0.009145	NaN
510	1.000000	1.053476	7.37005e+06	-51589.1	1005.82	-29751.8	0.000000	0.000000	7.053177	-0.010002	NaN	0.000000	0.001606	0.001749	28.0801	0.128180	0.002001	64.0684	-151.156	14.8738	-0.026872	1.052075	-0.070313	-0.071715	-0.010002	64.0684	-0.070196	-0.345254	0.028970	NaN
510	1.000000	1.095491	7.37005e+06	-51589.1	1005.82	-29751.8	0.000000	0.000000	7.095252	1.451976	NaN	0.000000	0.001590	0.001769	28.0804	1.206353	0.001983	608.424	25.5565	-167.923	1.298195	1.094211	-0.028298	-0.029578	1.451976	608.424	-0.030088	-0.023143	-62.7392	NaN
510	2.000000	1.131526	7.37005e+06	-51589.1	1005.82	-29751.8	0.000000	0.000000	7.131586	8.731580	NaN	0.000000	0.001558	0.001802	28.0817	7.614365	0.001870	4071.13	11.1202	9.487572	8.177375	1.131162	0.007736	0.007373	8.731580	4071.13	0.006128	0.005186	1683.55	51648.1
510	2.000000	1.141923	7.37005e+06	-51589.1	1005.82	-29751.8	0.000000	0.000000	7.142651	24.9693	NaN	0.000000	0.001606	0.001775	28.0817	19.3653	0.001802	10748.1	7.081933	-174.828	23.8592	1.141637	0.018134	0.017848	24.9693	10748.1	0.016391	0.017186	1452.9	74906.4
510	2.000000	1.152398	7.37005e+06	-51589.1	1005.82	-29751.8	0.000000	0.000000	7.154292	53.3183	NaN	0.000000	0.001573	0.001757	28.0817	31.6999	0.001863	17016.2	9.750862	-1.905010	50.5093	1.152001	0.028609	0.028212	53.3183	17016.2	0.026259	0.033345	1598.98	85137.2
510	2.000000	1.162869	7.37005e+06	-51589.1	1005.82	-29751.8	0.000000	0.000000	7.166239	89.1905	NaN	0.000000	0.001551	0.001738	28.0804	41.879	0.001689	24797.3	8.750583	174.334	86.3644	1.162569	0.039080	0.038780	89.1905	24797.3	0.036383	0.055014	1621.22	96591.6
510	2.000000	1.173352	7.37005e+06	-51589.1	1005.82	-29751.8	0.000000	0.000000	7.178927	142.824	NaN	0.000000	0.001565	0.001730	28.0805	54.5091	0.001751	31124.9	4.666724	-2.330413	139.99	1.173104	0.049563	0.049315	142.824	31124.9	0.046122	0.080803	1767.55	100038
510	2.000000	1.183843	7.37005e+06	-51589.1	1005.82	-29751.8	0.000000	0.000000	7.192691	222.423	NaN	0.000000	0.001580	0.001777	28.0805	67.5746	0.001754	38529.1	8.916001	171.382	217.943	1.183494	0.060053	0.059705	222.423	38529.1	0.055724	0.110922	2005.21	105695
510	2.000000	1.194437	7.37005e+06	-51589.1	1005.82	-29751.8	0.000000	0.000000	7.206312	296.02	NaN	0.000000	0.001570	0.001721	28.0818	81.1466	0.001776	45699.3	4.828446	-6.700799	296.898	1.194066	0.070648	0.070277	296.02	45699.3	0.065790	0.147384	2008.5	108757
510	2.000000	1.204857	7.37005e+06	-51589.1	1005.82	-29751.8	0.000000	0.000000	7.220433	386.003	NaN	0.000000	0.001546	0.001757	28.0817	90.9195	0.001674	54328.4	4.605047	172.493	384.039	1.204531	0.081068	0.080741	386.003	54328.4	0.075739	0.188215	2050.86	114412
510	2.000000	1.215289	7.37005e+06	-51589.1	1005.82	-29751.8	0.000000	0.000000	7.235185	491.05	NaN	0.000000	0.001576	0.001703	28.0817	102.123	0.001819	56144.4	5.735383	-8.945853	484.903	1.214917	0.091500	0.091128	491.05	56144.4	0.084940	0.230116	2133.92	106932
510	2.000000	1.225800	7.37005e+06	-51589.1	1005.82	-29751.8	0.000000	0.000000	7.251118	622.898	NaN	0.000000	0.001568	0.001749	28.0812	110.45	0.001761	62733	4.071326	172.051	620.78	1.225445	0.102010	0.101656	622.898	62733	0.094563	0.278125	2239.64	108680
510	2.000000	1.227819	7.37005e+06	-51589.1	1005.82	-29751.8	0.000000	0.000000	7.253954	642.764	NaN	0.000000	0.001572	0.001702	28.0804	113.511	0.001717	66094.3	5.705123	170.003	640.252	1.227512	0.104029	0.103723	642.764	66094.3	0.096736	0.289549	2219.88	112222