File: remote_trans/data/nanoindenter/0828-1/data/Data_2025-08-06,11h17m57s/2025-07-22_16-23-58_1_1138.txt
2025-07-22, 16:23:58, 1
Index	Phase	Displacement	Time	Pos X	Pos Y	Pos Z	Rot A	Rot B	Piezo Z	Force A	Force B	Gripper	Voltage A	Voltage B	Temperature	Amplitude force	Amplitude pos	Stiffness	Phase shift	Phase excitation	Force A raw	Displacement raw	HMax	HMax raw	Real Force	Real Stiffness	Contact Depth	Area	Hardness	Reduced Mod.
[#]	[#]	[um]	[s]	[um]	[um]	[um]	[m°]	[m°]	[um]	[uN]	[uN]	[V]	[V]	[V]	[°C]	[uN]	[um]	[N/m]	[°]	[°]	[uN]	[um]	[um]	[um]	[uN]	[N/m]	[um]	[um^2]	[MPa]	[MPa]
1138	1.000000	0.002111	7.37619e+06	-57039.1	1055.82	-29737.7	0.000000	0.000000	6.002798	0.106837	NaN	0.000000	0.001579	0.001634	28.0831	0.101766	0.000871	116.853	152.329	-167.838	0.124660	0.000798	-0.999257	-1.000570	0.106837	116.853	-0.999943	-2.264662E+13	-4.717554E-15	NaN
1138	1.000000	0.040050	7.37619e+06	-57039.1	1055.82	-29737.7	0.000000	0.000000	6.040735	0.049624	NaN	0.000000	0.001610	0.001681	28.0828	0.217670	0.002068	105.249	87.8804	13.6692	0.060741	0.038804	-0.961318	-0.962564	0.049624	105.249	-0.961671	-6.908798E+12	-7.182784E-15	NaN
1138	1.000000	0.078073	7.37619e+06	-57039.1	1055.82	-29737.7	0.000000	0.000000	6.078755	-0.022318	NaN	0.000000	0.001653	0.001721	28.0813	0.043780	0.001936	22.6138	-50.0392	-164.378	0.006157	0.076815	-0.923295	-0.924553	-0.022318	22.6138	-0.922555	-2.049730E+12	1.088828E-14	NaN
1138	1.000000	0.116077	7.37619e+06	-57039.1	1055.82	-29737.7	0.000000	0.000000	6.116759	-0.019870	NaN	0.000000	0.001662	0.001699	28.0813	0.022501	0.002125	10.5883	-168.057	10.9926	-0.037718	0.114662	-0.885291	-0.886707	-0.019870	10.5883	-0.883883	-6.154880E+11	3.228397E-14	NaN
1138	1.000000	0.154081	7.37619e+06	-57039.1	1055.82	-29737.7	0.000000	0.000000	6.154764	0.014721	NaN	0.000000	0.001669	0.001687	28.0815	0.034277	0.002074	16.5276	156.469	-165.254	0.020336	0.152816	-0.847287	-0.848552	0.014721	16.5276	-0.847955	-2.009326E+11	-7.326540E-14	NaN
1138	1.000000	0.192124	7.37619e+06	-57039.1	1055.82	-29737.7	0.000000	0.000000	6.192806	-0.036040	NaN	0.000000	0.001633	0.001687	28.0815	0.039631	0.002077	19.0813	-60.2234	16.618	0.028939	0.190813	-0.809244	-0.810556	-0.036040	19.0813	-0.807827	-5.742359E+10	6.276175E-13	NaN
1138	1.000000	0.230164	7.37619e+06	-57039.1	1055.82	-29737.7	0.000000	0.000000	6.230849	0.047370	NaN	0.000000	0.001628	0.001718	28.0827	0.056152	0.001888	29.7392	18.7388	-167.246	0.033194	0.228836	-0.771204	-0.772533	0.047370	29.7392	-0.772399	-1.896336E+10	-2.497966E-12	NaN
1138	1.000000	0.268129	7.37619e+06	-57039.1	1055.82	-29737.7	0.000000	0.000000	6.268807	-0.108194	NaN	0.000000	0.001603	0.001693	28.0827	0.109956	0.001896	57.9966	79.5873	12.7509	-0.058696	0.266872	-0.733239	-0.734497	-0.108194	57.9966	-0.731840	-5.319656E+9	2.033856E-11	NaN
1138	1.000000	0.306154	7.37619e+06	-57039.1	1055.82	-29737.7	0.000000	0.000000	6.306837	0.020522	NaN	0.000000	0.001620	0.001640	28.0827	0.058639	0.002065	28.3931	27.3099	-167.171	-0.040080	0.304857	-0.695214	-0.696512	0.020522	28.3931	-0.695757	-1.712270E+9	-1.198555E-11	NaN
1138	1.000000	0.344202	7.37619e+06	-57039.1	1055.82	-29737.7	0.000000	0.000000	6.344887	0.064199	NaN	0.000000	0.001624	0.001658	28.0821	0.054840	0.001900	28.8661	94.2433	13.0157	0.092199	0.342868	-0.657166	-0.658501	0.064199	28.8661	-0.658834	-5.351791E+8	-1.199573E-10	NaN
1138	1.000000	0.382195	7.37619e+06	-57039.1	1055.82	-29737.7	0.000000	0.000000	6.382879	0.010034	NaN	0.000000	0.001591	0.001680	28.0819	0.061774	0.001967	31.3971	130.849	-168.509	-0.085570	0.380875	-0.619173	-0.620493	0.010034	31.3971	-0.619413	-1.540132E+8	-6.514926E-11	NaN
1138	1.000000	0.420226	7.37619e+06	-57039.1	1055.82	-29737.7	0.000000	0.000000	6.420910	0.029391	NaN	0.000000	0.001611	0.001724	28.0818	0.188912	0.002024	93.3567	-52.071	13.5502	0.079668	0.418851	-0.581142	-0.582517	0.029391	93.3567	-0.581378	-4.610503E+7	-6.374739E-10	NaN
1138	1.000000	0.458224	7.37619e+06	-57039.1	1055.82	-29737.7	0.000000	0.000000	6.458910	0.078943	NaN	0.000000	0.001629	0.001759	28.0815	0.050522	0.001941	26.0247	77.9208	-166.205	-0.021275	0.456893	-0.543144	-0.544475	0.078943	26.0247	-0.545419	-1.467194E+7	-5.380524E-9	NaN
1138	1.000000	0.496268	7.37619e+06	-57039.1	1055.82	-29737.7	0.000000	0.000000	6.496951	0.011694	NaN	0.000000	0.001659	0.001748	28.0828	0.029898	0.002102	14.2236	-135.563	15.7936	0.106678	0.494891	-0.505101	-0.506477	0.011694	14.2236	-0.505717	-4.11853e+06	-2.839297E-9	NaN
1138	1.000000	0.534263	7.37619e+06	-57039.1	1055.82	-29737.7	0.000000	0.000000	6.534947	0.026293	NaN	0.000000	0.001628	0.001737	28.0826	0.056895	0.001940	29.3328	-89.3545	-164.101	0.099921	0.532949	-0.467105	-0.468419	0.026293	29.3328	-0.467778	-1.21404e+06	-2.165789E-8	NaN
1138	1.000000	0.572269	7.37619e+06	-57039.1	1055.82	-29737.7	0.000000	0.000000	6.572951	-0.014345	NaN	0.000000	0.001619	0.001732	28.0829	0.104439	0.001929	54.1473	-17.6274	17.2939	0.069877	0.570923	-0.429099	-0.430445	-0.014345	54.1473	-0.428900	-343954	4.170628E-8	NaN
1138	1.000000	0.610299	7.37619e+06	-57039.1	1055.82	-29737.7	0.000000	0.000000	6.610981	-0.016443	NaN	0.000000	0.001663	0.001698	28.0832	0.035110	0.001987	17.671	-1.863218	-163.313	0.019327	0.609032	-0.391069	-0.392336	-0.016443	17.671	-0.390371	-97382.1	1.688469E-7	NaN
1138	1.000000	0.648320	7.37619e+06	-57039.1	1055.82	-29737.7	0.000000	0.000000	6.649002	-0.005676	NaN	0.000000	0.001649	0.001710	28.0823	0.059025	0.001999	29.528	-55.9838	14.658	0.002886	0.646992	-0.353049	-0.354376	-0.005676	29.528	-0.352905	-28127.6	2.017818E-7	NaN
1138	1.000000	0.686337	7.37619e+06	-57039.1	1055.82	-29737.7	0.000000	0.000000	6.687018	-0.033762	NaN	0.000000	0.001631	0.001730	28.0817	0.100677	0.001984	50.7366	87.5402	-167.209	-0.026315	0.685018	-0.315031	-0.316351	-0.033762	50.7366	-0.314532	-7727.52	4.369107E-6	NaN
1138	1.000000	0.724332	7.37619e+06	-57039.1	1055.82	-29737.7	0.000000	0.000000	6.725016	0.030295	NaN	0.000000	0.001648	0.001741	28.0818	0.009362	0.002029	4.615152	9.952770	15.5201	0.030436	0.723022	-0.277036	-0.278346	0.030295	4.615152	-0.281959	-2526.44	-1.199113E-5	NaN
1138	1.000000	0.762346	7.37619e+06	-57039.1	1055.82	-29737.7	0.000000	0.000000	6.763030	0.035972	NaN	0.000000	0.001641	0.001727	28.083	0.048119	0.001934	24.8827	71.9542	-167.944	-0.018123	0.761056	-0.239022	-0.240312	0.035972	24.8827	-0.240106	-577.049	-6.233717E-5	NaN
1138	1.000000	0.800391	7.37619e+06	-57039.1	1055.82	-29737.7	0.000000	0.000000	6.801074	0.000529	NaN	0.000000	0.001639	0.001716	28.083	0.047312	0.001957	24.1731	-146.603	11.0706	-0.046457	0.799029	-0.200977	-0.202339	0.000529	24.1731	-0.200994	-136.777	-3.868575E-6	NaN
1138	1.000000	0.838401	7.37619e+06	-57039.1	1055.82	-29737.7	0.000000	0.000000	6.839083	-0.033877	NaN	0.000000	0.001659	0.001669	28.0829	0.118552	0.002068	57.3338	103.817	-166.13	-0.016441	0.837088	-0.162967	-0.164280	-0.033877	57.3338	-0.162524	-30.3876	0.001115	NaN
1138	1.000000	0.876386	7.37619e+06	-57039.1	1055.82	-29737.7	0.000000	0.000000	6.877068	0.000663	NaN	0.000000	0.001729	0.001694	28.0832	0.074222	0.001984	37.4095	171.939	13.1383	0.088648	0.875081	-0.124983	-0.126287	0.000663	37.4095	-0.124996	-6.080154	-0.000109	NaN
1138	1.000000	0.914408	7.37619e+06	-57039.1	1055.82	-29737.7	0.000000	0.000000	6.915092	0.031148	NaN	0.000000	0.001652	0.001668	28.082	0.086032	0.001965	43.7897	7.821322	-164.703	-0.072010	0.913122	-0.086960	-0.088246	0.031148	43.7897	-0.087493	-0.943083	-0.033028	NaN
1138	1.000000	0.952439	7.37619e+06	-57039.1	1055.82	-29737.7	0.000000	0.000000	6.953123	0.027522	NaN	0.000000	0.001650	0.001677	28.0821	0.160046	0.001983	80.7107	-160.541	14.4202	0.050290	0.951071	-0.048929	-0.050297	0.027522	80.7107	-0.049185	-0.086208	-0.319257	NaN
1138	1.000000	0.990451	7.37619e+06	-57039.1	1055.82	-29737.7	0.000000	0.000000	6.991133	-0.010089	NaN	0.000000	0.001635	0.001653	28.0816	0.086439	0.002045	42.277	-12.6598	-166.257	0.016586	0.989090	-0.010918	-0.012278	-0.010089	42.277	-0.010739	-0.006809	1.481699	NaN
1138	2.000000	1.012540	7.37619e+06	-57039.1	1055.82	-29737.7	0.000000	0.000000	7.013837	14.9296	NaN	0.000000	0.001632	0.001661	28.0832	14.7231	0.001687	8726.37	5.970022	4.670927	14.3511	1.012198	0.011172	0.010829	14.9296	8726.37	0.009889	0.009058	1648.25	83771.1
1138	2.000000	1.022010	7.37619e+06	-57039.1	1055.82	-29737.7	0.000000	0.000000	7.023977	31.2226	NaN	0.000000	0.001639	0.001713	28.0828	24.6899	0.001841	13408.5	6.270903	-179.547	31.8415	1.021756	0.020642	0.020388	31.2226	13408.5	0.018895	0.020836	1498.5	84869
1138	2.000000	1.031473	7.37619e+06	-57039.1	1055.82	-29737.7	0.000000	0.000000	7.034528	57.657	NaN	0.000000	0.001653	0.001707	28.0827	33.7062	0.001760	19156.3	9.714438	-6.061657	57.0442	1.031095	0.030105	0.029727	57.657	19156.3	0.027847	0.036400	1583.97	91734.6
1138	2.000000	1.040995	7.37619e+06	-57039.1	1055.82	-29737.7	0.000000	0.000000	7.045360	89.4934	NaN	0.000000	0.001655	0.001685	28.0832	42.4972	0.001751	24266.3	6.490161	176.127	91.5584	1.040537	0.039627	0.039169	89.4934	24266.3	0.036861	0.056167	1593.34	93547.9
1138	2.000000	1.050495	7.37619e+06	-57039.1	1055.82	-29737.7	0.000000	0.000000	7.056330	125.248	NaN	0.000000	0.001643	0.001708	28.0816	53.354	0.001792	29769.3	7.448022	-6.231201	127.706	1.049926	0.049126	0.048558	125.248	29769.3	0.045971	0.080367	1558.45	95940.7
1138	2.000000	1.059937	7.37619e+06	-57039.1	1055.82	-29737.7	0.000000	0.000000	7.067497	167.155	NaN	0.000000	0.001622	0.001698	28.0818	62.3075	0.001863	33451.4	5.489109	173.529	168.725	1.059596	0.058569	0.058228	167.155	33451.4	0.054821	0.107896	1549.23	93043.3
1138	2.000000	1.069336	7.37619e+06	-57039.1	1055.82	-29737.7	0.000000	0.000000	7.079042	219.316	NaN	0.000000	0.001656	0.001749	28.0817	70.1807	0.001778	39468.5	2.611806	-4.343627	213.444	1.068852	0.067968	0.067484	219.316	39468.5	0.063800	0.139786	1568.94	96447.6
1138	2.000000	1.078927	7.37619e+06	-57039.1	1055.82	-29737.7	0.000000	0.000000	7.090868	273.649	NaN	0.000000	0.001616	0.001725	28.0818	78.7125	0.001741	45209.1	4.586782	172.556	273.754	1.078552	0.077559	0.077184	273.649	45209.1	0.073019	0.176584	1549.68	98293.1
1138	2.000000	1.088377	7.37619e+06	-57039.1	1055.82	-29737.7	0.000000	0.000000	7.103084	340.882	NaN	0.000000	0.001650	0.001647	28.0829	86.0588	0.001762	48845.3	3.993997	-7.031077	337.18	1.087986	0.087008	0.086618	340.882	48845.3	0.081774	0.215255	1583.62	96187.7
1138	2.000000	1.097802	7.37619e+06	-57039.1	1055.82	-29737.7	0.000000	0.000000	7.115147	404.985	NaN	0.000000	0.001656	0.001681	28.0828	95.1096	0.001899	50094	6.230445	170.432	400.519	1.097451	0.096434	0.096082	404.985	50094	0.090370	0.256685	1577.75	90335.5
1138	2.000000	1.105984	7.37619e+06	-57039.1	1055.82	-29737.7	0.000000	0.000000	7.125215	450.829	NaN	0.000000	0.001622	0.001689	28.0831	103.944	0.001742	59665.6	1.784814	173.076	458.479	1.105821	0.104616	0.104453	450.829	59665.6	0.098949	0.301407	1495.75	99293.5