File: remote_trans/data/nanoindenter/0828-1/data/Data_2025-08-06,11h17m57s/2025-07-22_16-23-58_1_486.txt
2025-07-22, 16:23:58, 1
Index	Phase	Displacement	Time	Pos X	Pos Y	Pos Z	Rot A	Rot B	Piezo Z	Force A	Force B	Gripper	Voltage A	Voltage B	Temperature	Amplitude force	Amplitude pos	Stiffness	Phase shift	Phase excitation	Force A raw	Displacement raw	HMax	HMax raw	Real Force	Real Stiffness	Contact Depth	Area	Hardness	Reduced Mod.
[#]	[#]	[um]	[s]	[um]	[um]	[um]	[m°]	[m°]	[um]	[uN]	[uN]	[V]	[V]	[V]	[°C]	[uN]	[um]	[N/m]	[°]	[°]	[uN]	[um]	[um]	[um]	[uN]	[N/m]	[um]	[um^2]	[MPa]	[MPa]
486	1.000000	0.002782	7.36981e+06	-52789.1	1005.82	-29748.2	0.000000	0.000000	6.002810	0.069535	NaN	0.000000	0.001561	0.001722	28.0809	0.067563	0.000948	71.2957	-147.09	-167.001	0.091733	0.001490	-1.125360	-1.126653	0.069535	71.2957	-1.126092	-1.122530E+15	-6.194531E-17	NaN
486	1.000000	0.044746	7.36981e+06	-52789.1	1005.82	-29748.3	0.000000	0.000000	6.044773	0.061218	NaN	0.000000	0.001567	0.001742	28.0808	0.151042	0.002060	73.3356	-58.1514	16.0329	-4.134600E-5	0.043300	-1.083397	-1.084842	0.061218	73.3356	-1.084023	-3.058754E+14	-2.001392E-16	NaN
486	1.000000	0.086746	7.36981e+06	-52789.1	1005.82	-29748.3	0.000000	0.000000	6.086771	0.008229	NaN	0.000000	0.001540	0.001711	28.082	0.070765	0.002041	34.6661	48.9219	-164.16	0.116747	0.085347	-1.041397	-1.042796	0.008229	34.6661	-1.041575	-8.225180E+13	-1.000445E-16	NaN
486	1.000000	0.128775	7.36981e+06	-52789.1	1005.82	-29748.3	0.000000	0.000000	6.128800	0.003028	NaN	0.000000	0.001556	0.001741	28.0822	0.112340	0.002036	55.1791	-75.68	11.6197	-0.012331	0.127400	-0.999368	-1.000743	0.003028	55.1791	-0.999409	-2.227471E+13	-1.359258E-16	NaN
486	1.000000	0.170767	7.36981e+06	-52789.1	1005.82	-29748.3	0.000000	0.000000	6.170792	0.006306	NaN	0.000000	0.001590	0.001691	28.0818	0.056304	0.002046	27.5221	-155.558	-165.364	-0.010635	0.169534	-0.957376	-0.958609	0.006306	27.5221	-0.957547	-6.078582E+12	-1.037494E-15	NaN
486	1.000000	0.212801	7.36981e+06	-52789.1	1005.82	-29748.3	0.000000	0.000000	6.212829	0.085839	NaN	0.000000	0.001617	0.001722	28.0809	0.035758	0.001936	18.4712	157.447	16.7446	0.104893	0.211402	-0.915341	-0.916741	0.085839	18.4712	-0.918827	-1.825433E+12	-4.702373E-14	NaN
486	1.000000	0.254836	7.36981e+06	-52789.1	1005.82	-29748.3	0.000000	0.000000	6.254860	-0.003565	NaN	0.000000	0.001591	0.001693	28.081	0.090031	0.001961	45.899	117.712	-161.806	0.019359	0.253471	-0.873307	-0.874672	-0.003565	45.899	-0.873249	-4.419681E+11	8.066000E-15	NaN
486	1.000000	0.296813	7.36981e+06	-52789.1	1005.82	-29748.3	0.000000	0.000000	6.296840	0.051401	NaN	0.000000	0.001536	0.001703	28.0809	0.041544	0.002114	19.651	167.398	17.1715	0.034354	0.295429	-0.831329	-0.832713	0.051401	19.651	-0.833291	-1.271713E+11	-4.041897E-13	NaN
486	1.000000	0.338856	7.36981e+06	-52789.1	1005.82	-29748.3	0.000000	0.000000	6.338881	0.008939	NaN	0.000000	0.001574	0.001739	28.082	0.033391	0.002010	16.6161	123.604	-170.107	0.065208	0.337521	-0.789286	-0.790622	0.008939	16.6161	-0.789690	-3.257378E+10	-2.744369E-13	NaN
486	1.000000	0.380837	7.36981e+06	-52789.1	1005.82	-29748.3	0.000000	0.000000	6.380860	-0.048122	NaN	0.000000	0.001555	0.001660	28.0823	0.039842	0.002070	19.2435	179.586	17.045	-0.033116	0.379546	-0.747305	-0.748597	-0.048122	19.2435	-0.745430	-8.147074E+9	5.906667E-12	NaN
486	1.000000	0.422891	7.36981e+06	-52789.1	1005.82	-29748.3	0.000000	0.000000	6.422917	0.036302	NaN	0.000000	0.001590	0.001684	28.0823	0.014399	0.001969	7.310916	122.812	-164.254	-0.001246	0.421533	-0.705252	-0.706609	0.036302	7.310916	-0.708976	-2.594625E+9	-1.399126E-11	NaN
486	1.000000	0.464873	7.36981e+06	-52789.1	1005.82	-29748.3	0.000000	0.000000	6.464900	0.050548	NaN	0.000000	0.001586	0.001698	28.0808	0.063248	0.002116	29.8957	-172.795	13.362	0.027998	0.463506	-0.663270	-0.664637	0.050548	29.8957	-0.664538	-6.406383E+8	-7.890210E-11	NaN
486	1.000000	0.506896	7.36981e+06	-52789.1	1005.82	-29748.3	0.000000	0.000000	6.506920	-0.014032	NaN	0.000000	0.001695	0.001674	28.081	0.017466	0.002147	8.135472	-128.983	-166.654	0.048199	0.505627	-0.621246	-0.622516	-0.014032	8.135472	-0.619953	-1.566690E+8	8.956681E-11	NaN
486	1.000000	0.548929	7.36981e+06	-52789.1	1005.82	-29748.3	0.000000	0.000000	6.548955	0.020795	NaN	0.000000	0.001616	0.001679	28.0811	0.085752	0.002017	42.5212	-37.0778	17.6331	-0.063647	0.547583	-0.579213	-0.580559	0.020795	42.5212	-0.579580	-4.354440E+7	-4.775699E-10	NaN
486	1.000000	0.590949	7.36981e+06	-52789.1	1005.82	-29748.3	0.000000	0.000000	6.590974	-0.004484	NaN	0.000000	0.001600	0.001685	28.0809	0.096766	0.002022	47.8674	-99.3242	-165.569	-0.015190	0.589635	-0.537193	-0.538508	-0.004484	47.8674	-0.537123	-1.125771E+7	3.983331E-10	NaN
486	1.000000	0.632977	7.36981e+06	-52789.1	1005.82	-29748.3	0.000000	0.000000	6.633004	0.062901	NaN	0.000000	0.001620	0.001706	28.0822	0.079649	0.002172	36.6665	119.229	17.1232	0.099496	0.631623	-0.495166	-0.496520	0.062901	36.6665	-0.496452	-3.0585e+06	-2.056586E-8	NaN
486	1.000000	0.674994	7.36981e+06	-52789.1	1005.82	-29748.3	0.000000	0.000000	6.675019	0.005034	NaN	0.000000	0.001535	0.001678	28.0822	0.018022	0.001941	9.284155	59.1496	-167.355	-0.068550	0.673674	-0.453148	-0.454468	0.005034	9.284155	-0.453555	-766278	-6.568844E-9	NaN
486	1.000000	0.717001	7.36981e+06	-52789.1	1005.82	-29748.3	0.000000	0.000000	6.717028	0.054377	NaN	0.000000	0.001537	0.001721	28.0821	0.035068	0.001861	18.8424	-103.342	16.8533	0.048728	0.715663	-0.411142	-0.412479	0.054377	18.8424	-0.413306	-206725	-2.630392E-7	NaN
486	1.000000	0.759047	7.36981e+06	-52789.1	1005.82	-29748.3	0.000000	0.000000	6.759071	-0.016038	NaN	0.000000	0.001537	0.001698	28.0809	0.095720	0.002005	47.7392	118.513	-167.739	-0.042988	0.757723	-0.369096	-0.370420	-0.016038	47.7392	-0.368844	-47805.1	3.354775E-7	NaN
486	1.000000	0.801034	7.36981e+06	-52789.1	1005.82	-29748.3	0.000000	0.000000	6.801058	-0.011128	NaN	0.000000	0.001545	0.001700	28.081	0.055269	0.001929	28.6572	-168.855	13.9111	-0.025918	0.799668	-0.327109	-0.328474	-0.011128	28.6572	-0.326817	-11716.7	9.497772E-7	NaN
486	1.000000	0.843068	7.36981e+06	-52789.1	1005.82	-29748.3	0.000000	0.000000	6.843094	0.048461	NaN	0.000000	0.001549	0.001706	28.0811	0.034719	0.001992	17.4294	-29.0713	-167.439	-0.024618	0.841785	-0.285075	-0.286358	0.048461	17.4294	-0.287160	-3024.94	-1.602044E-5	NaN
486	1.000000	0.885090	7.36981e+06	-52789.1	1005.82	-29748.3	0.000000	0.000000	6.885117	0.057972	NaN	0.000000	0.001524	0.001740	28.0824	0.042672	0.001841	23.1789	-109.709	15.7729	0.045380	0.883697	-0.243053	-0.244445	0.057972	23.1789	-0.244929	-686.028	-8.450369E-5	NaN
486	1.000000	0.927064	7.36981e+06	-52789.1	1005.82	-29748.3	0.000000	0.000000	6.927092	0.079423	NaN	0.000000	0.001580	0.001712	28.0822	0.106825	0.001952	54.7213	-64.4892	-168.879	0.054951	0.925759	-0.201078	-0.202383	0.079423	54.7213	-0.202167	-142.97	-0.000556	NaN
486	1.000000	0.969100	7.36981e+06	-52789.1	1005.82	-29748.3	0.000000	0.000000	6.969128	0.067346	NaN	0.000000	0.001567	0.001666	28.0824	0.054093	0.002144	25.2313	92.6504	12.208	0.049072	0.967717	-0.159042	-0.160425	0.067346	25.2313	-0.161044	-28.6102	-0.002354	NaN
486	1.000000	1.011127	7.36981e+06	-52789.1	1005.82	-29748.3	0.000000	0.000000	7.011153	0.040102	NaN	0.000000	0.001660	0.001709	28.0812	0.041192	0.002004	20.5505	-74.4914	-164.916	0.061253	1.009812	-0.117016	-0.118331	0.040102	20.5505	-0.118479	-4.500802	-0.008910	NaN
486	1.000000	1.053121	7.36981e+06	-52789.1	1005.82	-29748.3	0.000000	0.000000	7.053146	0.014639	NaN	0.000000	0.001643	0.001712	28.081	0.030909	0.001983	15.5883	-105.693	9.939072	0.019907	1.051794	-0.075022	-0.076349	0.014639	15.5883	-0.075726	-0.482239	-0.030356	NaN
486	1.000000	1.095152	7.36981e+06	-52789.1	1005.82	-29748.3	0.000000	0.000000	7.095175	-0.030699	NaN	0.000000	0.001660	0.001717	28.0808	0.037843	0.002011	18.8216	114.008	-166.761	0.037767	1.093833	-0.032991	-0.034310	-0.030699	18.8216	-0.031767	-0.025809	1.189469	NaN
486	2.000000	1.132217	7.36981e+06	-52789.1	1005.82	-29748.3	0.000000	0.000000	7.132665	10.2906	NaN	0.000000	0.001681	0.001708	28.0811	10.9001	0.001648	6615.46	8.586388	4.982363	10.5188	1.131877	0.004075	0.003734	10.2906	6615.46	0.002908	0.002303	4468.91	125955
486	2.000000	1.142633	7.36981e+06	-52789.1	1005.82	-29748.3	0.000000	0.000000	7.143806	27.9391	NaN	0.000000	0.001643	0.001762	28.084	23.0389	0.001877	12274.9	9.417730	178.29	27.5827	1.142332	0.014490	0.014190	27.9391	12274.9	0.012783	0.012442	2245.62	100544
486	2.000000	1.153121	7.36981e+06	-52789.1	1005.82	-29748.3	0.000000	0.000000	7.155282	51.925	NaN	0.000000	0.001636	0.001717	28.0821	31.8681	0.001846	17263.2	6.651769	-2.041779	51.8411	1.152707	0.024979	0.024565	51.925	17263.2	0.022723	0.027003	1922.94	95981.7
486	2.000000	1.163582	7.36981e+06	-52789.1	1005.82	-29748.3	0.000000	0.000000	7.167075	84.3298	NaN	0.000000	0.001617	0.001711	28.0822	39.9213	0.001701	23463.6	0.105186	-178.679	82.6408	1.163249	0.035439	0.035106	84.3298	23463.6	0.032744	0.046623	1808.77	99281.7
486	2.000000	1.174001	7.36981e+06	-52789.1	1005.82	-29748.3	0.000000	0.000000	7.179017	121.372	NaN	0.000000	0.001640	0.001726	28.0809	49.853	0.001687	29547.1	0.904100	-1.286782	116.827	1.173657	0.045858	0.045515	121.372	29547.1	0.042778	0.071403	1699.8	101025
486	2.000000	1.184530	7.36981e+06	-52789.1	1005.82	-29748.3	0.000000	0.000000	7.191537	169.756	NaN	0.000000	0.001560	0.001695	28.081	61.5384	0.001828	33662.5	5.793657	173.079	167.019	1.184208	0.056387	0.056066	169.756	33662.5	0.052605	0.100636	1686.84	96949.2
486	2.000000	1.195127	7.36981e+06	-52789.1	1005.82	-29748.3	0.000000	0.000000	7.203847	211.406	NaN	0.000000	0.001604	0.001685	28.0813	71.7581	0.001856	38665.8	4.145511	-6.921148	214.393	1.194955	0.066985	0.066813	211.406	38665.8	0.062884	0.136352	1550.44	95668.5
486	2.000000	1.205541	7.36981e+06	-52789.1	1005.82	-29748.3	0.000000	0.000000	7.216864	274.714	NaN	0.000000	0.001541	0.001719	28.0825	80.2604	0.001869	42952.8	0.558182	176.071	274.28	1.205242	0.077398	0.077100	274.714	42952.8	0.072601	0.174830	1571.31	93854.8
486	2.000000	1.216091	7.36981e+06	-52789.1	1005.82	-29748.3	0.000000	0.000000	7.230273	344.212	NaN	0.000000	0.001538	0.001710	28.0824	89.82	0.001761	51006.6	5.977951	-10.2069	345.599	1.215654	0.087949	0.087512	344.212	51006.6	0.082887	0.220427	1561.57	99258.4
486	2.000000	1.226472	7.36981e+06	-52789.1	1005.82	-29748.3	0.000000	0.000000	7.243716	418.672	NaN	0.000000	0.001577	0.001727	28.0823	98.62	0.001804	54656.9	4.997136	169.505	415.698	1.226224	0.098329	0.098081	418.672	54656.9	0.092584	0.267906	1562.76	96477.8
486	2.000000	1.229023	7.36981e+06	-52789.1	1005.82	-29748.3	0.000000	0.000000	7.246659	428.175	NaN	0.000000	0.001583	0.001712	28.0824	101.052	0.001800	56127.9	4.112881	-9.409344	426.565	1.228790	0.100881	0.100648	428.175	56127.9	0.095160	0.281239	1522.46	96697.3