File: remote_trans/data/nanoindenter/0828-1/data/Data_2025-08-06,11h17m57s/2025-07-22_16-23-58_1_480.txt
2025-07-22, 16:23:58, 1
Index	Phase	Displacement	Time	Pos X	Pos Y	Pos Z	Rot A	Rot B	Piezo Z	Force A	Force B	Gripper	Voltage A	Voltage B	Temperature	Amplitude force	Amplitude pos	Stiffness	Phase shift	Phase excitation	Force A raw	Displacement raw	HMax	HMax raw	Real Force	Real Stiffness	Contact Depth	Area	Hardness	Reduced Mod.
[#]	[#]	[um]	[s]	[um]	[um]	[um]	[m°]	[m°]	[um]	[uN]	[uN]	[V]	[V]	[V]	[°C]	[uN]	[um]	[N/m]	[°]	[°]	[uN]	[um]	[um]	[um]	[uN]	[N/m]	[um]	[um^2]	[MPa]	[MPa]
480	1.000000	0.002458	7.36975e+06	-53089.1	1005.82	-29747.4	0.000000	0.000000	6.002815	-0.033206	NaN	0.000000	0.001631	0.001714	28.0805	0.061840	0.001004	61.5853	-76.7286	-167.986	-0.018394	0.001218	-1.081790	-1.083029	-0.033206	61.5853	-1.081386	-2.819217E+14	1.177856E-16	NaN
480	1.000000	0.042390	7.36975e+06	-53089.1	1005.82	-29747.4	0.000000	0.000000	6.042752	0.062185	NaN	0.000000	0.001604	0.001719	28.0809	0.103524	0.001947	53.1676	13.7027	-163.522	0.043929	0.041106	-1.041857	-1.043141	0.062185	53.1676	-1.042734	-8.525783E+13	-7.293764E-16	NaN
480	1.000000	0.082397	7.36975e+06	-53089.1	1005.82	-29747.4	0.000000	0.000000	6.082757	0.028384	NaN	0.000000	0.001648	0.001762	28.082	0.070107	0.002044	34.2996	-74.4312	-168.085	0.037344	0.081137	-1.001851	-1.003111	0.028384	34.2996	-1.002471	-2.449281E+13	-1.158863E-15	NaN
480	1.000000	0.122424	7.36975e+06	-53089.1	1005.82	-29747.4	0.000000	0.000000	6.122786	0.051541	NaN	0.000000	0.001608	0.001758	28.0817	0.040520	0.002227	18.1927	-125.715	-164.775	0.054753	0.121100	-0.961823	-0.963148	0.051541	18.1927	-0.963948	-7.414624E+12	-6.951302E-15	NaN
480	1.000000	0.162451	7.36975e+06	-53089.1	1005.82	-29747.4	0.000000	0.000000	6.162812	0.030115	NaN	0.000000	0.001591	0.001746	28.0816	0.112955	0.002099	53.8174	12.0713	-164.739	0.051198	0.161127	-0.921796	-0.923120	0.030115	53.8174	-0.922216	-2.028274E+12	-1.484742E-14	NaN
480	1.000000	0.202473	7.36975e+06	-53089.1	1005.82	-29747.4	0.000000	0.000000	6.202838	0.115495	NaN	0.000000	0.001669	0.001765	28.0809	0.067448	0.001925	35.0421	-18.9296	-166.028	0.051265	0.201137	-0.881774	-0.883110	0.115495	35.0421	-0.884246	-6.224767E+11	-1.855416E-13	NaN
480	1.000000	0.242483	7.36975e+06	-53089.1	1005.82	-29747.4	0.000000	0.000000	6.242844	0.028274	NaN	0.000000	0.001622	0.001710	28.0811	0.104392	0.001981	52.6991	15.7694	-166.001	0.056415	0.241150	-0.841764	-0.843098	0.028274	52.6991	-0.842166	-1.677421E+11	-1.685544E-13	NaN
480	1.000000	0.282473	7.36975e+06	-53089.1	1005.82	-29747.4	0.000000	0.000000	6.282832	-0.007402	NaN	0.000000	0.001603	0.001700	28.0808	0.130915	0.002076	63.059	-80.0059	-166.861	-0.012456	0.281208	-0.801774	-0.803040	-0.007402	63.059	-0.801686	-4.739694E+10	1.561711E-13	NaN
480	1.000000	0.322479	7.36975e+06	-53089.1	1005.82	-29747.4	0.000000	0.000000	6.322839	0.009212	NaN	0.000000	0.001630	0.001820	28.0821	0.021190	0.001993	10.6307	-37.0874	-166.054	0.052207	0.321232	-0.761769	-0.763016	0.009212	10.6307	-0.762418	-1.387399E+10	-6.639599E-13	NaN
480	1.000000	0.362494	7.36975e+06	-53089.1	1005.82	-29747.4	0.000000	0.000000	6.362852	-0.022016	NaN	0.000000	0.001601	0.001823	28.0824	0.024360	0.002032	11.9883	-110.373	-165.561	-0.033544	0.361237	-0.721753	-0.723010	-0.022016	11.9883	-0.720376	-3.711949E+9	5.931241E-12	NaN
480	1.000000	0.402534	7.36975e+06	-53089.1	1005.82	-29747.4	0.000000	0.000000	6.402897	0.071021	NaN	0.000000	0.001590	0.001818	28.0824	0.023683	0.001984	11.937	-39.2446	-165.406	0.058179	0.401225	-0.681713	-0.683023	0.071021	11.937	-0.686175	-1.266611E+9	-5.607189E-11	NaN
480	1.000000	0.442548	7.36975e+06	-53089.1	1005.82	-29747.4	0.000000	0.000000	6.442910	0.067209	NaN	0.000000	0.001613	0.001761	28.0823	0.056043	0.001778	31.5278	102.8	-166.331	0.027880	0.441229	-0.641700	-0.643019	0.067209	31.5278	-0.643298	-3.277468E+8	-2.050630E-10	NaN
480	1.000000	0.482587	7.36975e+06	-53089.1	1005.82	-29747.4	0.000000	0.000000	6.482947	0.021378	NaN	0.000000	0.001626	0.001821	28.0808	0.076741	0.001915	40.065	-124.337	-167.031	0.038857	0.481181	-0.601660	-0.603066	0.021378	40.065	-0.602061	-8.888683E+7	-2.405039E-10	NaN
480	1.000000	0.522588	7.36975e+06	-53089.1	1005.82	-29747.4	0.000000	0.000000	6.522948	0.008833	NaN	0.000000	0.001625	0.001794	28.0808	0.092745	0.002145	43.2311	47.0003	-166.964	0.051869	0.521299	-0.561659	-0.562948	0.008833	43.2311	-0.561812	-2.474267E+7	-3.569786E-10	NaN
480	1.000000	0.562603	7.36975e+06	-53089.1	1005.82	-29747.4	0.000000	0.000000	6.562963	0.023820	NaN	0.000000	0.001599	0.001773	28.0808	0.075735	0.001893	40.0072	164.806	-166.843	-0.007146	0.561321	-0.521644	-0.522926	0.023820	40.0072	-0.522091	-6.96101e+06	-3.421850E-9	NaN
480	1.000000	0.602644	7.36975e+06	-53089.1	1005.82	-29747.4	0.000000	0.000000	6.603003	-0.002921	NaN	0.000000	0.001613	0.001817	28.0818	0.078087	0.002029	38.4916	176.137	-169.192	0.007054	0.601374	-0.481604	-0.482873	-0.002921	38.4916	-0.481547	-1.89311e+06	1.543113E-9	NaN
480	1.000000	0.642637	7.36975e+06	-53089.1	1005.82	-29747.4	0.000000	0.000000	6.642996	-0.008203	NaN	0.000000	0.001624	0.001839	28.0823	0.071024	0.002062	34.4361	-119.533	-163.645	0.018945	0.641356	-0.441611	-0.442892	-0.008203	34.4361	-0.441432	-517094	1.586400E-8	NaN
480	1.000000	0.682633	7.36975e+06	-53089.1	1005.82	-29747.4	0.000000	0.000000	6.682992	-0.013841	NaN	0.000000	0.001652	0.001817	28.0823	0.053967	0.002044	26.4008	102.057	-166.953	-0.069998	0.681296	-0.401614	-0.402952	-0.013841	26.4008	-0.401221	-139125	9.948721E-8	NaN
480	1.000000	0.722679	7.36975e+06	-53089.1	1005.82	-29747.4	0.000000	0.000000	6.723041	0.064267	NaN	0.000000	0.001634	0.001785	28.0821	0.023637	0.002055	11.5042	150.163	-165.213	0.014564	0.721325	-0.361568	-0.362923	0.064267	11.5042	-0.365758	-43151	-1.489346E-6	NaN
480	1.000000	0.762721	7.36975e+06	-53089.1	1005.82	-29747.4	0.000000	0.000000	6.763082	0.038344	NaN	0.000000	0.001624	0.001827	28.0811	0.048606	0.001950	24.9277	-27.6037	-168.432	0.177297	0.761384	-0.321527	-0.322863	0.038344	24.9277	-0.322680	-10187.3	-3.763935E-6	NaN
480	1.000000	0.802706	7.36975e+06	-53089.1	1005.82	-29747.4	0.000000	0.000000	6.803067	0.055120	NaN	0.000000	0.001665	0.001782	28.081	0.048430	0.001934	25.0384	-29.2617	-163.887	0.022953	0.801365	-0.281542	-0.282883	0.055120	25.0384	-0.283193	-2636.84	-2.090383E-5	NaN
480	1.000000	0.842739	7.36975e+06	-53089.1	1005.82	-29747.4	0.000000	0.000000	6.843098	-0.013515	NaN	0.000000	0.001632	0.001772	28.081	0.117917	0.002059	57.2741	-33.9738	-165.444	0.044416	0.841455	-0.241509	-0.242792	-0.013515	57.2741	-0.241332	-603.027	2.241263E-5	NaN
480	1.000000	0.882731	7.36975e+06	-53089.1	1005.82	-29747.4	0.000000	0.000000	6.883090	0.006899	NaN	0.000000	0.001683	0.001765	28.0823	0.073683	0.001998	36.8787	25.4421	-167.83	0.016667	0.881419	-0.201517	-0.202829	0.006899	36.8787	-0.201657	-140.248	-4.919376E-5	NaN
480	1.000000	0.922767	7.36975e+06	-53089.1	1005.82	-29747.4	0.000000	0.000000	6.923128	0.047760	NaN	0.000000	0.001665	0.001743	28.0822	0.080466	0.002025	39.742	121.672	-165.132	-0.019756	0.921396	-0.161481	-0.162851	0.047760	39.742	-0.162382	-30.2127	-0.001581	NaN
480	1.000000	0.962779	7.36975e+06	-53089.1	1005.82	-29747.4	0.000000	0.000000	6.963138	-0.004770	NaN	0.000000	0.001637	0.001752	28.0822	0.074235	0.001952	38.0337	134.321	-167.009	0.044154	0.961384	-0.121468	-0.122863	-0.004770	38.0337	-0.121374	-5.149179	0.000926	NaN
480	1.000000	1.002791	7.36975e+06	-53089.1	1005.82	-29747.4	0.000000	0.000000	7.003153	0.047875	NaN	0.000000	0.001683	0.001741	28.081	0.003537	0.001936	1.826397	-17.5332	-169.014	-0.038449	1.001541	-0.081456	-0.082707	0.047875	1.826397	-0.101116	-1.933893	-0.024756	NaN
480	1.000000	1.042799	7.36975e+06	-53089.1	1005.82	-29747.4	0.000000	0.000000	7.043160	0.022232	NaN	0.000000	0.001599	0.001781	28.0811	0.050585	0.001945	26.0017	-150.012	-168.04	0.017932	1.041485	-0.041448	-0.042763	0.022232	26.0017	-0.042089	-0.052360	-0.424594	NaN
480	1.000000	1.082830	7.36975e+06	-53089.1	1005.82	-29747.4	0.000000	0.000000	7.083246	1.379393	NaN	0.000000	0.001614	0.001731	28.0809	1.766590	0.001871	944.189	17.746	-166.064	0.897522	1.081471	-0.001417	-0.002776	1.379393	944.189	-0.002513	-0.001792	-769.914	NaN
480	2.000000	1.099463	7.36975e+06	-53089.1	1005.82	-29747.4	0.000000	0.000000	7.100819	24.2415	NaN	0.000000	0.001573	0.001728	28.0809	16.1875	0.001751	9244.59	5.769076	-176.054	24.0024	1.099113	0.015215	0.014866	24.2415	9244.59	0.013249	0.013021	1861.79	74019.6
480	2.000000	1.109411	7.36975e+06	-53089.1	1005.82	-29747.4	0.000000	0.000000	7.111526	42.6935	NaN	0.000000	0.001578	0.001713	28.0823	25.9779	0.001985	13089.4	6.012992	-177.508	42.2655	1.109150	0.025163	0.024903	42.6935	13089.4	0.022717	0.026993	1581.67	72789.7
480	2.000000	1.119363	7.36975e+06	-53089.1	1005.82	-29747.4	0.000000	0.000000	7.122544	68.6027	NaN	0.000000	0.001589	0.001725	28.0824	35.3224	0.001921	18386.4	1.582808	-177.906	66.0282	1.119089	0.035116	0.034841	68.6027	18386.4	0.032317	0.045684	1501.68	78593.5
480	2.000000	1.129333	7.36975e+06	-53089.1	1005.82	-29747.4	0.000000	0.000000	7.133973	104.088	NaN	0.000000	0.001592	0.001694	28.0821	43.96	0.001779	24706	4.142138	176.621	101.389	1.129253	0.045085	0.045006	104.088	24706	0.041926	0.069100	1506.35	85869.2
480	2.000000	1.139313	7.36975e+06	-53089.1	1005.82	-29747.4	0.000000	0.000000	7.145878	150.882	NaN	0.000000	0.001603	0.001675	28.0808	52.8631	0.001944	27193.6	4.314331	176.506	147.169	1.138982	0.055065	0.054735	150.882	27193.6	0.050904	0.095228	1584.43	80511.6
480	2.000000	1.149305	7.36975e+06	-53089.1	1005.82	-29747.4	0.000000	0.000000	7.158119	205.578	NaN	0.000000	0.001597	0.001710	28.0809	61.9676	0.001624	38148.6	2.987598	174.775	203.201	1.149076	0.065057	0.064829	205.578	38148.6	0.061015	0.129475	1587.78	96863.2
480	2.000000	1.159284	7.36975e+06	-53089.1	1005.82	-29747.4	0.000000	0.000000	7.170228	257.342	NaN	0.000000	0.001630	0.001709	28.0809	71.4564	0.001931	37008.1	1.485300	176.523	253.988	1.159042	0.075036	0.074795	257.342	37008.1	0.069821	0.163361	1575.29	83655.7
480	2.000000	1.169336	7.36975e+06	-53089.1	1005.82	-29747.4	0.000000	0.000000	7.182859	320.053	NaN	0.000000	0.001690	0.001663	28.0809	82.4936	0.001818	45378.6	6.383720	170.615	317.576	1.168943	0.085089	0.084696	320.053	45378.6	0.079799	0.206219	1552.01	91297.9
480	2.000000	1.179274	7.36975e+06	-53089.1	1005.82	-29747.4	0.000000	0.000000	7.195707	390.815	NaN	0.000000	0.001617	0.001729	28.0822	90.8633	0.001885	48207.9	4.221659	172.152	387.485	1.179071	0.095026	0.094823	390.815	48207.9	0.088946	0.249585	1565.86	88162.2
480	2.000000	1.189364	7.36975e+06	-53089.1	1005.82	-29747.4	0.000000	0.000000	7.208371	453.383	NaN	0.000000	0.001678	0.001710	28.0823	98.4193	0.001688	58288.2	2.646953	172.352	455.271	1.189166	0.105116	0.104918	453.383	58288.2	0.099283	0.303216	1495.25	96711.4
480	2.000000	1.190219	7.36976e+06	-53089.1	1005.82	-29747.4	0.000000	0.000000	7.209759	466.353	NaN	0.000000	0.001697	0.001709	28.0826	99.7276	0.001876	53153.7	4.532351	170.915	460.581	1.189911	0.105971	0.105663	466.353	53153.7	0.099391	0.303804	1535.04	88106.9